DTS Sentinel unit serial number:	SN413079Multiplexer serial number:	ORYXHardware model number:	OX4-SRSoftware version number:	ORYX F/W v4.00 Oryx Data Collector v3.7.2.0data status	okinstallation	princeton_trtdifferential loss correction	single-endedforward channel	channel 3reverse channel	N/Adate	2019/09/15time	03:00:35forward acquisition time	60.00reverse acquisition time	0.00gamma	496.2192k internal	0.2323k external	0.2323temperature offset calibration	0.9967default loss term (dB/km)	0.3790temperature slope calibration	1.0000multiplexer offset coefficient	1.0000multiplexer slope coefficient	1.0000fibre end	0.00T internal ref (°C)	31.23T ext. ref 1 (°C)	4.58T ext. ref 2 (°C)	25.71length (m)	temperature (°C)	Stokes	anti-Stokes-747.200	-138.831	0.423	0.047
-746.185	-40.046	-0.283	0.149
-745.171	-50.972	-0.171	-0.081
-744.156	138.107	-0.219	0.291
-743.142	9.300	-0.044	0.033
-742.127	-108.638	-0.463	-0.100
-741.112	-56.165	-0.297	-0.134
-740.098	-200.000	0.112	0.533
-739.083	179.446	0.101	0.149
-738.069	-200.000	0.008	0.194
-737.054	-122.460	-0.400	0.066
-736.039	-179.070	-0.583	-0.013
-735.025	-45.788	0.385	0.192
-734.010	82.961	0.108	0.118
-732.996	-25.881	-0.418	0.249
-731.981	-62.785	-0.101	-0.042
-730.966	-157.655	-0.070	-0.004
-729.952	-46.513	0.092	0.045
-728.937	-44.858	0.230	0.116
-727.923	800.000	-0.101	0.324
-726.908	527.375	-0.075	-0.179
-725.894	-137.801	-0.081	0.009
-724.879	-28.714	-0.161	-0.094
-723.864	238.857	0.075	-0.126
-722.850	-55.009	-0.122	-0.055
-721.835	236.700	0.200	-0.335
-720.821	-200.000	-0.036	-0.263
-719.806	-58.256	-0.223	-0.098
-718.791	-6.181	0.118	-0.081
-717.777	-200.000	0.042	-0.251
-716.762	-200.000	0.009	0.047
-715.748	65.792	0.212	0.217
-714.733	123.618	0.021	0.027
-713.718	92.473	0.124	-0.141
-712.704	-108.413	-0.310	0.067
-711.689	37.448	-0.220	-0.197
-710.675	-200.000	-0.039	0.198
-709.660	-200.000	-0.046	-0.376
-708.645	-152.223	-0.049	-0.004
-707.631	-96.374	0.270	0.072
-706.616	243.426	-0.051	0.087
-705.602	638.428	-0.105	0.268
-704.587	429.013	-0.036	0.078
-703.572	378.115	0.131	-0.270
-702.558	800.000	-0.027	-0.116
-701.543	118.391	0.095	-0.118
-700.529	-78.939	0.288	0.099
-699.514	-88.630	-0.125	-0.038
-698.499	-200.000	0.060	-0.305
-697.485	-165.756	0.133	-0.006
-696.470	-36.614	-0.140	0.076
-695.456	634.452	0.128	-0.328
-694.441	179.288	0.140	-0.207
-693.426	-151.635	-0.154	0.011
-692.412	-140.035	0.062	0.007
-691.397	-23.146	0.468	0.284
-690.383	-200.000	0.002	-0.298
-689.368	75.795	-0.048	-0.051
-688.354	-200.000	0.020	0.239
-687.339	-22.156	-0.161	-0.099
-686.324	-200.000	0.217	0.001
-685.310	-200.000	-0.005	-0.240
-684.295	-70.870	0.180	-0.068
-683.281	-200.000	-0.012	-0.293
-682.266	213.380	-0.187	-0.297
-681.251	-103.483	-0.286	0.068
-680.237	-200.000	0.013	-0.082
-679.222	258.011	-0.158	-0.274
-678.208	238.431	0.193	0.323
-677.193	5.540	-0.135	0.101
-676.178	-155.088	-0.229	0.015
-675.164	-200.000	-0.095	-0.430
-674.149	-94.957	-0.167	-0.045
-673.135	-200.000	-0.050	-0.454
-672.120	-200.000	0.064	-0.317
-671.105	576.500	0.016	-0.039
-670.091	800.000	0.058	-0.201
-669.076	469.920	-0.030	0.067
-668.062	-55.277	0.131	0.059
-667.047	800.000	-0.037	0.105
-666.032	-59.890	-0.250	-0.107
-665.018	-100.594	0.293	-0.073
-664.003	-23.692	0.121	0.073
-662.989	-78.750	-0.079	0.027
-661.974	-145.461	0.291	0.026
-660.959	568.211	0.028	-0.068
-659.945	-161.978	-0.302	-0.015
-658.930	-49.271	-0.265	-0.127
-657.916	85.392	0.148	0.164
-656.901	754.808	-0.124	-0.339
-655.886	463.292	0.100	-0.224
-654.872	-200.000	-0.029	-0.335
-653.857	-138.885	0.220	-0.024
-652.843	-11.094	-0.118	-0.078
-651.828	-200.000	0.048	-0.307
-650.814	637.249	0.068	0.175
-649.799	172.282	0.011	-0.016
-648.784	170.461	0.148	0.214
-647.770	-129.220	0.139	0.020
-646.755	516.497	-0.028	-0.067
-645.741	73.267	0.101	-0.106
-644.726	-200.000	0.054	-0.276
-643.711	517.241	0.169	-0.397
-642.697	-94.047	0.218	-0.060
-641.682	-98.428	-0.154	-0.040
-640.668	800.000	0.093	-0.259
-639.653	462.339	0.052	-0.117
-638.638	256.662	0.084	-0.146
-637.624	-81.530	0.185	-0.061
-636.609	14.330	0.325	-0.255
-635.595	-152.805	-0.209	-0.015
-634.580	-55.328	-0.354	-0.160
-633.565	-157.165	0.111	0.007
-632.551	-118.162	0.079	-0.014
-631.536	230.746	-0.204	0.335
-630.522	-200.000	0.068	0.375
-629.507	-131.171	-0.248	0.033
-628.492	-39.210	0.250	-0.132
-627.478	-95.647	-0.374	-0.101
-626.463	-92.555	-0.057	0.016
-625.449	63.196	0.174	-0.175
-624.434	-61.512	-0.115	0.049
-623.419	103.838	-0.131	-0.155
-622.405	-200.000	-0.050	-0.339
-621.390	-20.430	-0.247	0.153
-620.376	-37.591	0.276	0.148
-619.361	-88.335	0.102	-0.031
-618.346	137.135	-0.097	0.127
-617.332	-150.991	0.301	0.023
-616.317	255.021	-0.074	-0.128
-615.303	387.176	0.072	0.149
-614.288	800.000	0.071	0.265
-613.273	105.284	0.278	-0.330
-612.259	-39.262	-0.173	0.091
-611.244	-200.000	-0.022	0.305
-610.230	-184.877	0.131	0.002
-609.215	-78.479	0.209	0.072
-608.201	-200.000	-0.042	-0.341
-607.186	424.811	0.117	-0.253
-606.171	106.660	-0.099	-0.118
-605.157	116.043	-0.082	-0.101
-604.142	-200.000	-0.070	-0.344
-603.128	-140.821	-0.432	-0.045
-602.113	800.000	0.089	-0.289
-601.098	314.660	0.104	-0.198
-600.084	240.464	0.124	-0.207
-599.069	-200.000	-0.017	0.366
-598.055	-200.000	-0.025	-0.221
-597.040	-200.000	0.005	-0.076
-596.025	-200.000	0.043	-0.193
-595.011	-35.264	0.216	0.118
-593.996	-103.084	0.218	0.052
-592.982	800.000	0.061	0.247
-591.967	16.466	-0.139	0.110
-590.952	-106.073	0.174	-0.039
-589.938	-108.576	-0.208	-0.045
-588.923	-200.000	0.002	-0.248
-587.909	285.551	0.097	0.176
-586.894	-133.861	0.241	-0.030
-585.879	104.099	0.190	-0.224
-584.865	800.000	0.011	0.046
-583.850	-90.076	-0.453	0.133
-582.836	41.617	-0.238	-0.216
-581.821	-200.000	-0.043	0.193
-580.806	800.000	0.065	0.239
-579.792	-98.624	0.063	0.016
-578.777	368.225	-0.091	0.185
-577.763	-200.000	-0.018	0.099
-576.748	734.424	-0.053	-0.143
-575.733	-114.490	0.160	0.031
-574.719	-197.338	-0.227	0.001
-573.704	-200.000	0.002	-0.108
-572.690	800.000	-0.099	0.279
-571.675	-11.463	0.242	-0.160
-570.661	98.371	0.200	-0.231
-569.646	41.414	-0.109	-0.099
-568.631	-4.091	-0.081	0.057
-567.617	800.000	0.021	-0.085
-566.602	158.942	0.120	-0.167
-565.588	800.000	0.057	-0.199
-564.573	-2.566	0.238	-0.167
-563.558	-99.651	0.143	0.036
-562.544	210.846	0.183	0.288
-561.529	-200.000	0.063	0.442
-560.515	-60.191	-0.241	-0.103
-559.500	129.492	-0.417	-0.534
-558.485	-200.000	-0.002	0.198
-557.471	-81.834	-0.234	0.077
-556.456	-6.234	-0.119	0.081
-555.442	53.459	0.234	0.225
-554.427	800.000	-0.093	0.319
-553.412	164.246	-0.024	-0.035
-552.398	-117.618	0.162	0.029
-551.383	-200.000	0.016	0.211
-550.369	-200.000	0.020	-0.212
-549.354	145.241	0.203	-0.272
-548.339	238.803	-0.066	-0.110
-547.325	800.000	-0.015	0.042
-546.310	-3.344	-0.243	-0.170
-545.296	-106.683	0.237	0.053
-544.281	-65.600	0.317	0.128
-543.266	-14.780	-0.176	-0.113
-542.252	71.344	-0.140	0.146
-541.237	-69.045	-0.291	-0.112
-540.223	-104.366	-0.282	0.066
-539.208	800.000	-0.084	0.240
-538.193	-97.554	0.346	0.090
-537.179	216.474	0.120	-0.191
-536.164	199.803	0.116	0.178
-535.150	-200.000	-0.042	-0.275
-534.135	-106.281	0.230	-0.052
-533.121	98.757	0.298	-0.345
-532.106	-84.447	-0.258	-0.082
-531.091	121.256	-0.066	0.083
-530.077	65.994	-0.173	0.176
-529.062	-159.276	-0.425	0.024
-528.048	800.000	-0.044	-0.131
-527.033	-32.535	0.226	0.126
-526.018	-83.901	-0.160	0.051
-525.004	5.492	0.206	0.152
-523.989	800.000	-0.022	-0.071
-522.975	-7.562	-0.244	-0.165
-521.960	-200.000	0.018	0.263
-520.945	-92.063	-0.144	-0.041
-519.931	-200.000	-0.000	0.065
-518.916	-9.185	0.196	-0.131
-517.902	66.176	0.069	-0.070
-516.887	166.212	0.201	0.285
-515.872	-103.614	-0.180	0.042
-514.858	-54.555	-0.061	0.028
-513.843	230.932	-0.211	0.346
-512.829	-177.108	0.291	0.007
-511.814	-40.147	0.274	0.143
-510.799	-46.597	-0.336	0.165
-509.785	-103.498	-0.356	-0.084
-508.770	89.705	-0.235	0.263
-507.756	-181.773	0.157	-0.003
-506.741	-69.308	0.078	-0.030
-505.726	175.135	-0.033	0.047
-504.712	-98.248	-0.096	-0.025
-503.697	-12.747	0.224	0.146
-502.683	20.951	0.277	0.225
-501.668	-98.343	-0.289	-0.074
-500.653	-105.783	-0.269	0.061
-499.639	-96.518	-0.301	-0.080
-498.624	239.604	-0.043	0.072
-497.610	720.499	-0.097	0.257
-496.595	-200.000	0.001	-0.136
-495.581	89.695	-0.094	0.105
-494.566	150.029	0.177	0.241
-493.551	-200.000	0.006	-0.068
-492.537	79.947	-0.036	0.039
-491.522	-34.274	0.191	0.105
-490.508	246.374	0.160	-0.269
-489.493	800.000	-0.063	-0.252
-488.478	-200.000	0.052	-0.302
-487.464	65.370	-0.456	-0.462
-486.449	127.811	-0.121	0.154
-485.435	141.121	0.116	-0.154
-484.420	235.566	-0.168	-0.278
-483.405	87.207	0.041	0.045
-482.391	-7.087	0.231	-0.157
-481.376	-39.143	-0.019	-0.010
-480.362	-147.108	0.101	-0.009
-479.347	-200.000	-0.023	0.160
-478.332	-104.430	0.298	0.069
-477.318	564.297	0.066	-0.160
-476.303	-93.031	0.306	-0.085
-475.289	800.000	0.179	-0.533
-474.274	-158.805	-0.226	0.013
-473.259	-200.000	-0.047	-0.299
-472.245	-72.127	0.368	-0.137
-471.230	-16.391	0.234	0.148
-470.216	91.737	0.170	-0.191
-469.201	-60.019	-0.338	-0.144
-468.186	554.778	-0.112	-0.269
-467.172	71.566	-0.203	0.211
-466.157	36.840	-0.317	0.280
-465.143	123.939	-0.194	-0.244
-464.128	-72.314	0.273	-0.101
-463.113	-94.020	-0.219	-0.060
-462.099	565.893	0.069	0.168
-461.084	-95.708	-0.183	-0.049
-460.070	0.235	-0.156	0.111
-459.055	800.000	-0.062	0.207
-458.040	-200.000	0.063	-0.401
-457.026	-87.483	0.023	0.007
-456.011	800.000	-0.085	-0.274
-454.997	-200.000	0.052	0.286
-453.982	43.404	-0.188	-0.172
-452.968	48.085	0.125	0.117
-451.953	-146.762	-0.253	0.022
-450.938	637.285	-0.137	0.348
-449.924	546.457	0.094	-0.225
-448.909	-136.287	-0.324	-0.038
-447.895	-126.598	0.202	-0.030
-446.880	99.553	-0.087	0.100
-445.865	-200.000	-0.009	-0.043
-444.851	800.000	0.085	-0.255
-443.836	44.449	-0.267	0.245
-442.822	430.739	-0.151	0.325
-441.807	-16.602	0.314	0.199
-440.792	-50.562	-0.142	-0.067
-439.778	-87.627	0.220	0.066
-438.763	61.134	-0.243	-0.241
-437.749	303.009	0.106	-0.195
-436.734	-200.000	0.029	-0.264
-435.719	-34.166	-0.272	0.149
-434.705	-13.111	0.072	-0.047
-433.690	800.000	-0.049	-0.155
-432.676	-75.904	-0.042	0.015
-431.661	800.000	0.077	-0.214
-430.646	-200.000	0.004	-0.042
-429.632	-104.144	0.092	0.021
-428.617	-36.354	0.148	-0.079
-427.603	-153.418	-0.325	-0.023
-426.588	25.920	0.069	0.057
-425.573	130.322	0.274	0.350
-424.559	-70.366	-0.114	0.043
-423.544	8.934	0.144	-0.108
-422.530	800.000	0.050	0.154
-421.515	800.000	0.064	-0.210
-420.500	-70.302	-0.328	0.124
-419.486	800.000	-0.036	0.106
-418.471	800.000	0.055	-0.166
-417.457	-26.355	-0.271	-0.158
-416.442	-200.000	-0.045	-0.343
-415.428	-49.083	-0.193	0.092
-414.413	-135.403	-0.265	0.032
-413.398	410.290	-0.201	0.424
-412.384	-200.000	-0.002	0.052
-411.369	-47.121	-0.214	0.104
-410.355	800.000	-0.049	0.163
-409.340	36.806	0.251	-0.221
-408.325	-63.606	0.188	-0.077
-407.311	140.295	-0.275	-0.362
-406.296	171.828	0.142	0.204
-405.282	219.548	-0.051	-0.081
-404.267	131.373	-0.164	0.210
-403.252	-200.000	-0.002	0.125
-402.238	194.049	0.112	-0.169
-401.223	-200.000	-0.340	0.000
-400.209	-99.611	-0.116	0.029
-399.194	-24.186	0.196	0.117
-398.179	-50.490	0.342	-0.161
-397.165	-80.470	-0.131	0.043
-396.150	330.277	-0.076	0.145
-395.136	-18.340	0.140	-0.087
-394.121	36.956	0.199	-0.175
-393.106	-96.912	0.212	-0.055
-392.092	207.070	0.145	-0.225
-391.077	800.000	-0.112	0.398
-390.063	109.383	0.139	0.165
-389.048	-200.000	-0.019	0.345
-388.033	-200.000	0.057	-0.270
-387.019	-86.495	-0.179	-0.055
-386.004	800.000	0.076	-0.264
-384.990	-72.672	-0.454	0.167
-383.975	-123.791	0.050	0.008
-382.960	-42.075	0.233	-0.119
-381.946	-97.268	-0.228	0.059
-380.931	-64.280	-0.173	-0.070
-379.917	-200.000	0.002	0.126
-378.902	-45.726	0.103	0.051
-377.888	-128.721	-0.216	0.030
-376.873	-161.203	-0.149	-0.008
-375.858	-149.239	-0.348	-0.028
-374.844	-106.132	0.206	-0.046
-373.829	50.774	0.140	0.132
-372.815	800.000	0.080	0.333
-371.800	362.411	-0.007	-0.015
-370.785	-63.950	-0.286	-0.116
-369.771	800.000	-0.118	-0.362
-368.756	-173.402	0.010	-0.000
-367.742	-3.792	0.134	0.092
-366.727	27.304	-0.119	-0.100
-365.712	-200.000	-0.033	-0.201
-364.698	-85.173	0.261	0.081
-363.683	800.000	-0.065	0.250
-362.669	800.000	0.014	0.059
-361.654	19.193	0.220	0.176
-360.639	-71.843	0.274	0.102
-359.625	-200.000	-0.013	0.210
-358.610	-154.500	0.156	-0.010
-357.596	341.322	0.177	-0.344
-356.581	-76.557	-0.309	0.108
-355.566	216.008	-0.050	-0.079
-354.552	-81.063	0.215	-0.071
-353.537	-200.000	-0.008	0.106
-352.523	-23.919	0.282	0.168
-351.508	-116.424	-0.297	0.055
-350.493	211.772	0.135	0.211
-349.479	128.545	0.169	-0.214
-348.464	-6.878	0.203	-0.137
-347.450	800.000	-0.094	-0.389
-346.435	505.824	0.073	0.169
-345.420	-48.972	0.129	0.062
-344.406	33.084	-0.406	0.349
-343.391	177.711	-0.117	-0.169
-342.377	-36.186	-0.268	-0.144
-341.362	200.851	0.139	-0.213
-340.348	116.833	0.037	-0.045
-339.333	-162.548	0.173	-0.009
-338.318	-200.000	0.025	0.175
-337.304	800.000	0.047	0.179
-336.289	-200.000	-0.008	-0.318
-335.275	94.859	-0.141	0.160
-334.260	-159.654	0.408	0.022
-333.245	542.468	0.061	0.144
-332.231	233.678	-0.034	0.056
-331.216	800.000	0.129	-0.364
-330.202	-200.000	-0.306	0.001
-329.187	-200.000	-0.032	-0.187
-328.172	85.350	0.163	-0.178
-327.158	233.703	0.150	0.246
-326.143	-114.510	-0.346	0.066
-325.129	203.777	0.065	-0.100
-324.114	-72.226	-0.344	-0.127
-323.099	-87.592	0.361	-0.108
-322.085	29.179	0.164	0.138
-321.070	257.447	0.195	0.334
-320.056	-96.554	-0.431	-0.113
-319.041	-194.883	-0.110	0.001
-318.026	-58.413	-0.313	0.135
-317.012	76.001	0.372	-0.390
-315.997	-168.098	-0.126	-0.005
-314.983	-42.067	-0.137	0.070
-313.968	-200.000	0.045	0.226
-312.953	800.000	-0.061	0.170
-311.939	201.246	0.080	0.123
-310.924	26.458	-0.133	-0.110
-309.910	493.315	0.103	-0.235
-308.895	21.179	0.166	0.134
-307.880	153.344	-0.238	-0.324
-306.866	-200.000	-0.032	0.275
-305.851	359.276	0.078	0.156
-304.837	-116.035	-0.277	-0.051
-303.822	-200.000	0.019	0.121
-302.807	-144.372	-0.276	0.025
-301.793	-68.150	0.180	0.069
-300.778	-80.119	0.057	-0.019
-299.764	-44.115	-0.211	-0.105
-298.749	800.000	0.098	-0.402
-297.735	34.872	0.139	-0.120
-296.720	-84.484	0.239	0.075
-295.705	800.000	-0.044	0.139
-294.691	-200.000	0.004	0.059
-293.676	62.446	-0.130	0.129
-292.662	-122.212	0.204	0.033
-291.647	-200.000	-0.052	-0.362
-290.632	-57.092	0.178	-0.078
-289.618	-23.310	-0.206	0.123
-288.603	-200.000	-0.031	-0.160
-287.589	-74.281	-0.081	0.029
-286.574	-200.000	0.007	0.175
-285.559	79.517	0.187	0.199
-284.545	235.846	-0.209	0.343
-283.530	-86.012	-0.136	0.042
-282.516	-200.000	-0.002	-0.012
-281.501	45.099	0.031	0.028
-280.486	256.398	0.105	-0.179
-279.472	-200.000	0.004	0.248
-278.457	269.338	0.083	0.144
-277.443	-133.961	-0.299	0.037
-276.428	-200.000	0.002	-0.109
-275.413	-34.911	0.256	0.138
-274.399	40.530	0.228	0.203
-273.384	-13.765	-0.105	0.067
-272.370	-200.000	-0.010	0.093
-271.355	-200.000	0.003	0.217
-270.340	-65.018	0.255	0.102
-269.326	120.177	-0.077	0.095
-268.311	-176.480	-0.247	0.006
-267.297	-45.283	-0.197	-0.097
-266.282	11.643	-0.183	-0.139
-265.267	131.571	-0.067	0.085
-264.253	-132.830	-0.132	-0.017
-263.238	6.415	0.266	-0.196
-262.224	-94.645	-0.266	-0.072
-261.209	21.582	-0.319	0.257
-260.195	-200.000	-0.011	-0.247
-259.180	12.061	-0.123	0.094
-258.165	104.575	0.202	-0.236
-257.151	487.485	0.118	-0.267
-256.136	800.000	0.080	0.277
-255.122	800.000	0.131	0.372
-254.107	-82.801	-0.132	0.042
-253.092	553.920	-0.161	-0.384
-252.078	100.502	0.081	-0.093
-251.063	-200.000	0.065	0.363
-250.049	116.363	0.116	0.140
-249.034	77.521	0.057	0.061
-248.019	71.250	0.285	-0.293
-247.005	800.000	-0.030	0.117
-245.990	-200.000	0.004	0.080
-244.976	14.835	0.298	0.231
-243.961	800.000	0.064	0.235
-242.946	-33.595	0.278	0.152
-241.932	42.647	-0.226	-0.203
-240.917	186.185	0.162	0.238
-239.903	0.233	-0.264	0.186
-238.888	-125.392	-0.329	-0.050
-237.873	367.052	0.112	-0.224
-236.859	575.131	-0.041	0.100
-235.844	-104.020	0.216	-0.050
-234.830	800.000	-0.010	-0.040
-233.815	566.867	-0.067	0.160
-232.800	11.696	0.201	-0.153
-231.786	-59.898	-0.328	0.139
-230.771	-200.000	-0.027	0.166
-229.757	180.551	-0.121	0.176
-228.742	-200.000	0.026	0.194
-227.727	-200.000	-0.014	-0.212
-226.713	-34.068	-0.323	-0.176
-225.698	725.849	0.104	0.275
-224.684	-4.149	-0.164	-0.112
-223.669	107.195	0.054	-0.063
-222.655	-12.131	-0.077	0.050
-221.640	-1.357	0.518	-0.362
-220.625	64.416	0.184	0.183
-219.611	333.840	0.190	0.363
-218.596	800.000	0.015	0.043
-217.582	-158.078	0.317	-0.018
-216.567	381.097	-0.074	-0.151
-215.552	9.386	0.134	0.100
-214.538	340.849	-0.110	-0.213
-213.523	16.301	-0.113	-0.088
-212.509	-200.000	-0.045	-0.336
-211.494	120.346	-0.163	-0.200
-210.479	800.000	-0.111	0.315
-209.465	-44.735	0.143	0.070
-208.450	800.000	0.035	-0.132
-207.436	-31.739	0.176	0.097
-206.421	-200.000	-0.016	0.157
-205.406	800.000	0.083	0.285
-204.392	800.000	-0.037	0.123
-203.377	558.355	0.159	0.379
-202.363	-11.352	0.191	0.124
-201.348	101.288	-0.095	0.109
-200.333	61.604	0.157	-0.154
-199.319	-57.457	0.348	0.151
-198.304	176.037	-0.176	-0.252
-197.290	75.020	-0.088	0.091
-196.275	252.059	0.095	0.160
-195.260	-95.043	0.107	0.028
-194.246	53.059	0.058	-0.055
-193.231	464.877	0.049	0.109
-192.217	-41.396	-0.200	-0.102
-191.202	-200.000	-0.035	-0.201
-190.187	-200.000	0.062	0.319
-189.173	465.415	0.070	0.154
-188.158	28.857	0.239	-0.200
-187.144	-200.000	0.016	0.121
-186.129	-200.000	0.037	0.184
-185.114	-164.818	-0.076	0.003
-184.100	-40.121	0.393	0.202
-183.085	10.802	-0.237	0.179
-182.071	178.876	0.244	0.353
-181.056	79.443	-0.147	-0.156
-180.042	-166.946	0.323	0.013
-179.027	20.030	0.241	0.192
-178.012	11.580	0.173	0.131
-176.998	-53.684	-0.434	-0.196
-175.983	-72.033	-0.517	0.190
-174.969	-105.091	0.127	-0.029
-173.954	-13.125	0.110	-0.071
-172.939	68.600	0.052	-0.053
-171.925	130.089	-0.185	0.234
-170.910	-134.103	-0.262	-0.032
-169.896	-162.589	0.247	-0.012
-168.881	785.242	0.146	-0.396
-167.866	-200.000	-0.095	-0.441
-166.852	-200.000	0.002	-0.320
-165.837	-13.983	-0.037	0.023
-164.823	69.629	0.051	0.052
-163.808	-200.000	0.035	-0.172
-162.793	670.365	0.117	0.298
-161.779	-17.540	0.243	-0.151
-160.764	62.499	-0.138	-0.136
-159.750	-164.520	0.162	-0.007
-158.735	137.809	0.033	-0.043
-157.720	33.749	-0.080	-0.068
-156.706	512.102	-0.156	0.359
-155.691	-93.974	0.129	0.035
-154.677	473.628	0.065	-0.144
-153.662	-200.000	-0.013	-0.131
-152.647	535.028	0.065	0.152
-151.633	-142.171	-0.271	-0.027
-150.618	443.412	0.090	-0.194
-149.604	-53.859	-0.312	0.140
-148.589	-105.986	0.228	0.051
-147.574	333.491	0.187	0.356
-146.560	40.242	-0.168	-0.149
-145.545	-61.443	-0.112	-0.047
-144.531	-93.846	0.121	-0.033
-143.516	-134.493	-0.278	-0.034
-142.502	-91.840	0.262	-0.073
-141.487	-200.000	-0.005	0.262
-140.472	-200.000	0.038	-0.249
-139.458	242.751	0.028	-0.047
-138.443	-200.000	-0.018	-0.148
-137.429	-200.000	0.001	0.218
-136.414	503.043	0.063	-0.145
-135.399	800.000	0.138	0.472
-134.385	59.093	-0.197	0.192
-133.370	-122.811	-0.148	0.024
-132.356	-200.000	-0.009	-0.448
-131.341	408.542	-0.079	-0.166
-130.326	-119.709	0.210	-0.036
-129.312	83.780	0.162	-0.175
-128.297	282.010	-0.093	-0.164
-127.283	-172.816	-0.184	0.006
-126.268	-60.484	0.290	-0.121
-125.253	37.134	0.253	-0.221
-124.239	17.771	0.105	0.082
-123.224	800.000	-0.069	-0.273
-122.210	186.771	-0.147	0.216
-121.195	186.830	-0.236	-0.346
