DTS Sentinel unit serial number:	SN413079Multiplexer serial number:	ORYXHardware model number:	OX4-SRSoftware version number:	ORYX F/W v4.00 Oryx Data Collector v3.7.2.0data status	okinstallation	princeton_trtdifferential loss correction	single-endedforward channel	channel 3reverse channel	N/Adate	2019/09/11time	22:50:11forward acquisition time	60.00reverse acquisition time	0.00gamma	496.2192k internal	0.2316k external	0.2316temperature offset calibration	1.0046default loss term (dB/km)	0.3790temperature slope calibration	1.0000multiplexer offset coefficient	1.0000multiplexer slope coefficient	1.0000fibre end	0.00T internal ref (°C)	34.75T ext. ref 1 (°C)	1.83T ext. ref 2 (°C)	29.34length (m)	temperature (°C)	Stokes	anti-Stokes-747.200	-200.000	0.043	-0.405
-746.185	-6.187	0.301	0.208
-745.171	-89.378	-0.171	0.051
-744.156	-5.470	-0.138	-0.096
-743.142	460.552	-0.057	0.128
-742.127	759.399	0.146	0.402
-741.112	-119.752	0.174	-0.030
-740.098	370.149	-0.167	0.344
-739.083	-159.626	0.048	0.003
-738.069	-75.460	0.294	-0.106
-737.054	-93.159	0.339	0.096
-736.039	-2.583	0.064	-0.046
-735.025	9.912	0.202	-0.156
-734.010	-131.805	-0.161	0.021
-732.996	800.000	0.043	-0.129
-731.981	6.551	-0.177	0.133
-730.966	102.874	-0.130	-0.154
-729.952	356.281	0.088	-0.177
-728.937	659.901	-0.042	0.110
-727.923	-10.953	0.215	-0.144
-726.908	561.200	-0.060	-0.147
-725.894	-148.814	0.136	-0.011
-724.879	217.329	-0.059	-0.096
-723.864	554.867	0.070	0.170
-722.850	-200.000	0.031	-0.285
-721.835	15.978	-0.201	-0.161
-720.821	86.365	0.312	-0.348
-719.806	-156.629	0.268	-0.017
-718.791	14.680	0.087	0.069
-717.777	-127.801	0.083	-0.012
-716.762	-40.250	-0.287	-0.151
-715.748	168.903	0.102	-0.147
-714.733	-200.000	-0.016	-0.391
-713.718	94.345	-0.235	0.270
-712.704	518.344	0.041	0.097
-711.689	-185.935	0.357	-0.005
-710.675	-57.855	0.115	-0.051
-709.660	71.273	-0.048	0.050
-708.645	111.010	0.225	-0.274
-707.631	45.284	0.138	0.128
-706.616	-108.200	0.449	0.098
-705.602	319.754	-0.031	-0.060
-704.587	-111.866	-0.333	0.068
-703.572	-91.888	0.456	-0.131
-702.558	-121.008	-0.101	-0.017
-701.543	800.000	0.031	-0.130
-700.529	-115.033	-0.317	0.061
-699.514	-1.044	-0.281	-0.201
-698.499	-9.081	0.087	-0.059
-697.485	101.485	-0.277	-0.327
-696.470	33.206	0.196	0.172
-695.456	800.000	-0.084	-0.272
-694.441	-200.000	-0.124	0.592
-693.426	49.145	0.262	-0.249
-692.412	494.098	0.022	-0.051
-691.397	1.738	0.149	0.108
-690.383	-49.324	-0.063	0.031
-689.368	-50.008	0.072	0.034
-688.354	-197.733	-0.628	0.004
-687.339	391.332	0.082	0.173
-686.324	-26.808	-0.152	0.090
-685.310	486.478	0.136	-0.315
-684.295	-125.297	-0.281	0.043
-683.281	-200.000	0.009	0.207
-682.266	215.857	-0.077	-0.124
-681.251	-29.869	-0.176	0.101
-680.237	-83.129	0.347	-0.113
-679.222	62.366	0.181	0.182
-678.208	458.539	0.070	-0.156
-677.193	38.019	-0.169	-0.151
-676.178	-37.441	0.039	-0.021
-675.164	332.665	-0.006	0.012
-674.149	93.453	0.196	-0.225
-673.135	-176.970	0.163	0.004
-672.120	212.178	0.168	-0.267
-671.105	-200.000	0.015	0.243
-670.091	-26.555	0.368	-0.218
-669.076	580.934	0.061	-0.151
-668.062	-64.559	0.161	-0.066
-667.047	159.942	0.189	0.266
-666.032	50.684	-0.169	-0.161
-665.018	428.206	-0.043	-0.093
-664.003	800.000	0.019	-0.057
-662.989	3.033	0.258	0.190
-661.974	92.294	0.099	0.112
-660.959	-200.000	-0.006	0.200
-659.945	112.071	-0.190	0.232
-658.930	104.062	-0.294	-0.349
-657.916	-13.718	0.027	-0.018
-656.901	332.101	-0.017	-0.034
-655.886	-117.756	-0.095	-0.017
-654.872	2.968	-0.272	0.200
-653.857	-193.627	0.344	-0.003
-652.843	-54.634	0.231	-0.105
-651.828	-200.000	-0.002	-0.046
-650.814	-108.397	-0.104	0.023
-649.799	-67.256	0.162	0.064
-648.784	54.754	-0.034	0.033
-647.770	769.068	-0.134	-0.368
-646.755	84.022	-0.196	-0.216
-645.741	-26.462	0.040	-0.024
-644.726	5.601	-0.331	0.247
-643.711	76.527	0.170	-0.182
-642.697	-200.000	-0.010	0.187
-641.682	-65.759	-0.235	-0.095
-640.668	62.350	0.180	0.181
-639.653	-178.024	0.297	-0.007
-638.638	-200.000	-0.020	-0.217
-637.624	256.552	-0.191	0.331
-636.609	800.000	0.090	-0.262
-635.595	196.003	0.050	0.077
-634.580	60.149	-0.171	-0.170
-633.565	185.737	-0.053	-0.079
-632.551	-200.000	-0.004	0.114
-631.536	22.384	-0.105	0.086
-630.522	-136.072	0.140	0.017
-629.507	-200.000	0.008	0.305
-628.492	195.396	-0.125	0.192
-627.478	-100.621	-0.259	0.065
-626.463	-200.000	-0.029	0.200
-625.449	-200.000	-0.079	-0.000
-624.434	-43.012	0.026	0.013
-623.419	287.807	-0.073	-0.134
-622.405	7.911	-0.100	-0.076
-621.390	-64.644	-0.373	-0.152
-620.376	-153.877	0.185	-0.013
-619.361	800.000	0.016	-0.070
-618.346	800.000	-0.070	-0.250
-617.332	406.618	0.147	-0.314
-616.317	-32.518	-0.099	-0.055
-615.303	-105.390	0.164	0.038
-614.288	-95.330	-0.290	0.079
-613.273	191.898	0.247	0.375
-612.259	-200.000	0.082	0.484
-611.244	-21.418	0.253	0.156
-610.230	263.272	0.076	-0.134
-609.215	358.839	0.094	0.190
-608.201	-152.536	0.317	0.023
-607.186	36.490	-0.419	0.373
-606.171	-200.000	0.007	0.135
-605.157	12.386	0.527	0.409
-604.142	409.511	-0.054	-0.116
-603.128	385.192	-0.060	-0.124
-602.113	-63.919	0.223	-0.092
-601.098	158.499	0.159	0.222
-600.084	4.587	-0.187	-0.138
-599.069	-200.000	0.012	0.192
-598.055	1.596	-0.099	0.072
-597.040	-63.578	0.283	-0.117
-596.025	-200.000	0.021	0.189
-595.011	7.394	0.133	-0.100
-593.996	-96.724	-0.154	-0.041
-592.982	247.053	-0.113	-0.193
-591.967	-143.529	0.063	0.006
-590.952	-110.221	0.165	0.035
-589.938	563.153	0.122	-0.297
-588.923	-200.000	0.048	-0.268
-587.909	-200.000	-0.014	0.127
-586.894	167.434	0.170	0.244
-585.879	-73.744	-0.221	-0.081
-584.865	-200.000	-0.014	-0.339
-583.850	-78.417	-0.189	0.065
-582.836	33.549	0.278	-0.243
-581.821	-144.205	0.073	0.007
-580.806	367.318	-0.124	-0.252
-579.792	-64.828	0.280	0.114
-578.777	-70.014	0.168	0.064
-577.763	-200.000	-0.035	0.289
-576.748	-40.059	-0.102	-0.054
-575.733	-200.000	0.017	0.124
-574.719	-200.000	0.002	-0.144
-573.704	800.000	-0.054	-0.177
-572.690	657.098	0.108	0.278
-571.675	800.000	-0.046	0.135
-570.661	-90.498	0.215	-0.063
-569.646	303.210	-0.086	0.161
-568.631	800.000	-0.043	-0.171
-567.617	397.308	0.269	-0.566
-566.602	800.000	-0.048	0.191
-565.588	800.000	0.053	0.230
-564.573	-200.000	0.024	0.383
-563.558	-175.638	-0.180	-0.005
-562.544	800.000	-0.050	-0.154
-561.529	800.000	0.035	0.098
-560.515	15.187	-0.282	0.222
-559.500	133.349	-0.127	-0.165
-558.485	-90.982	-0.211	0.061
-557.471	272.237	0.187	-0.333
-556.456	-200.000	0.003	0.140
-555.442	-180.687	-0.036	0.001
-554.427	800.000	0.111	0.352
-553.412	65.751	-0.133	0.135
-552.398	-200.000	-0.044	0.197
-551.383	-200.000	0.034	-0.301
-550.369	32.403	0.036	-0.031
-549.354	-28.888	-0.017	-0.010
-548.339	800.000	0.096	-0.405
-547.325	-60.680	0.121	0.052
-546.310	-90.556	-0.408	0.119
-545.296	-99.984	0.090	-0.023
-544.281	12.706	0.107	0.083
-543.266	287.435	0.061	0.111
-542.252	40.688	-0.065	-0.059
-541.237	65.381	0.211	-0.215
-540.223	-48.753	-0.123	-0.059
-539.208	-23.831	0.298	-0.180
-538.193	29.705	0.154	-0.132
-537.179	-53.236	0.348	-0.160
-536.164	-72.458	-0.158	-0.059
-535.150	519.285	-0.091	-0.214
-534.135	800.000	-0.035	-0.149
-533.121	246.104	0.058	-0.098
-532.106	4.023	-0.262	-0.192
-531.091	-200.000	0.051	-0.375
-530.077	42.077	-0.218	-0.199
-529.062	139.605	-0.148	-0.195
-528.048	800.000	-0.075	0.219
-527.033	800.000	0.053	0.174
-526.018	203.044	0.057	0.089
-525.004	800.000	-0.093	0.330
-523.989	427.327	-0.053	-0.116
-522.975	257.512	-0.121	-0.209
-521.960	412.809	-0.073	-0.156
-520.945	-119.268	-0.267	-0.047
-519.931	-57.979	0.123	-0.054
-518.916	27.038	0.086	0.072
-517.902	800.000	0.116	-0.421
-516.887	138.048	-0.093	-0.122
-515.872	276.580	-0.117	0.210
-514.858	800.000	0.049	0.187
-513.843	108.677	-0.131	0.157
-512.829	28.188	-0.138	-0.117
-511.814	227.937	-0.218	0.357
-510.799	66.505	0.115	-0.118
-509.785	677.149	0.177	0.463
-508.770	245.620	0.127	0.215
-507.756	-12.817	-0.139	-0.091
-506.741	-157.989	-0.233	0.014
-505.726	-115.858	-0.069	0.013
-504.712	-74.079	0.168	-0.061
-503.697	-200.000	-0.036	-0.288
-502.683	209.064	-0.073	-0.114
-501.668	-200.000	-0.004	-0.026
-500.653	-200.000	0.019	0.249
-499.639	-15.929	0.125	-0.080
-498.624	156.492	-0.239	0.331
-497.610	528.620	0.161	0.382
-496.595	637.190	0.079	0.201
-495.581	92.069	0.181	0.204
-494.566	-68.836	0.276	-0.107
-493.551	39.711	0.083	-0.075
-492.537	55.574	0.162	-0.157
-491.522	-200.000	-0.028	-0.516
-490.508	-0.633	-0.149	0.106
-489.493	-200.000	-0.014	-0.089
-488.478	-26.892	0.237	0.139
-487.464	-9.513	-0.285	0.191
-486.449	100.768	-0.160	0.186
-485.435	-200.000	-0.052	0.234
-484.420	-78.633	0.153	-0.052
-483.405	-121.975	0.118	-0.019
-482.391	108.992	-0.131	0.157
-481.376	-36.787	0.294	-0.158
-480.362	-200.000	0.019	0.258
-479.347	483.318	-0.104	0.237
-478.332	-16.186	-0.068	-0.044
-477.318	363.062	-0.077	-0.155
-476.303	258.680	-0.130	-0.225
-475.289	800.000	-0.055	0.200
-474.274	-50.351	0.372	0.176
-473.259	20.982	-0.176	-0.143
-472.245	-200.000	0.037	-0.361
-471.230	-25.463	0.118	0.070
-470.216	-200.000	0.002	-0.090
-469.201	82.131	0.070	-0.076
-468.186	577.626	-0.141	0.345
-467.172	-124.453	-0.124	-0.019
-466.157	34.997	-0.182	-0.160
-465.143	137.811	-0.235	-0.308
-464.128	140.505	0.169	0.223
-463.113	-113.958	0.434	-0.084
-462.099	799.491	-0.054	0.148
-461.084	-160.117	0.096	0.005
-460.070	-8.418	0.036	-0.024
-459.055	-26.385	-0.250	0.147
-458.040	-91.424	-0.157	-0.045
-457.026	-131.528	0.232	0.031
-456.011	800.000	-0.072	0.252
-454.997	-155.519	0.290	0.019
-453.982	800.000	-0.035	0.137
-452.968	-60.993	-0.174	-0.074
-451.953	97.787	0.240	0.276
-450.938	-110.161	-0.622	0.130
-449.924	330.386	-0.064	-0.124
-448.909	-200.000	-0.019	-0.487
-447.895	-197.454	0.191	-0.001
-446.880	-200.000	0.012	0.272
-445.865	120.550	-0.051	0.064
-444.851	198.474	0.173	-0.265
-443.836	56.091	-0.127	-0.124
-442.822	-200.000	0.001	0.252
-441.807	-105.995	-0.241	-0.054
-440.792	-162.158	-0.118	-0.006
-439.778	538.590	0.073	-0.173
-438.763	-200.000	0.021	0.251
-437.749	-153.927	-0.328	0.022
-436.734	7.148	-0.185	0.138
-435.719	800.000	0.014	0.040
-434.705	68.996	-0.235	0.242
-433.690	66.397	0.122	0.124
-432.676	-110.937	0.587	0.121
-431.661	-13.613	-0.128	0.083
-430.646	129.072	-0.090	0.115
-429.632	15.508	-0.150	-0.118
-428.617	114.387	0.115	-0.141
-427.603	379.240	0.054	0.111
-426.588	-200.000	0.023	0.138
-425.573	800.000	-0.046	0.170
-424.559	-149.980	0.364	0.028
-423.544	271.192	-0.056	0.099
-422.530	13.073	0.142	0.110
-421.515	12.605	-0.059	0.045
-420.500	-129.201	0.251	-0.035
-419.486	49.847	-0.178	0.168
-418.471	-115.264	0.321	-0.061
-417.457	-83.051	0.213	-0.069
-416.442	410.212	-0.114	-0.241
-415.428	705.920	0.069	0.182
-414.413	374.941	0.152	0.310
-413.398	60.165	-0.281	0.278
-412.384	-61.940	0.243	-0.102
-411.369	154.885	0.136	-0.186
-410.355	-169.517	-0.122	-0.004
-409.340	-45.986	0.226	-0.111
-408.325	800.000	0.061	-0.210
-407.311	71.688	-0.099	-0.103
-406.296	-123.930	-0.211	-0.033
-405.282	-41.299	0.262	0.135
-404.267	-164.947	-0.216	0.010
-403.252	187.851	-0.042	-0.063
-402.238	800.000	-0.046	-0.149
-401.223	-126.054	-0.105	0.016
-400.209	-113.267	0.097	-0.019
-399.194	800.000	-0.014	0.045
-398.179	-200.000	-0.005	-0.088
-397.165	-95.379	0.251	0.067
-396.150	-24.715	-0.152	0.090
-395.136	-1.961	0.284	0.199
-394.121	-40.775	-0.212	-0.110
-393.106	-200.000	-0.018	-0.238
-392.092	156.632	0.076	-0.105
-391.077	-162.332	0.149	0.007
-390.063	-200.000	-0.013	-0.191
-389.048	-21.986	0.352	0.213
-388.033	-129.494	0.333	0.046
-387.019	-155.163	-0.237	0.015
-386.004	106.209	0.064	0.076
-384.990	499.604	-0.094	-0.216
-383.975	703.211	-0.083	-0.218
-382.960	-200.000	-0.046	-0.230
-381.946	312.917	-0.064	-0.120
-380.931	-72.190	-0.077	-0.029
-379.917	-137.669	-0.123	-0.014
-378.902	457.198	0.123	-0.273
-377.888	-200.000	0.003	0.368
-376.873	-87.062	-0.134	0.041
-375.858	2.303	-0.199	0.144
-374.844	-119.631	0.230	0.040
-373.829	-200.000	0.060	0.331
-372.815	496.494	0.072	-0.165
-371.800	-174.739	0.347	0.010
-370.785	-18.779	-0.188	-0.117
-369.771	-40.456	0.147	0.076
-368.756	49.474	-0.098	0.093
-367.742	-75.048	-0.157	0.056
-366.727	131.348	0.006	-0.007
-365.712	-97.273	-0.051	0.013
-364.698	-87.797	-0.407	-0.122
-363.683	-73.650	-0.249	-0.090
-362.669	-165.752	-0.121	-0.005
-361.654	44.583	0.200	-0.183
-360.639	277.896	-0.070	-0.124
-359.625	-74.856	0.368	0.132
-358.610	178.400	-0.045	0.066
-357.596	125.878	-0.094	-0.119
-356.581	800.000	-0.042	0.142
-355.566	29.323	-0.220	0.187
-354.552	-200.000	0.049	-0.303
-353.537	-27.626	0.344	-0.199
-352.523	-17.384	-0.201	-0.126
-351.508	223.915	-0.111	-0.178
-350.493	-74.939	-0.261	0.093
-349.479	376.634	0.181	0.368
-348.464	83.458	-0.199	0.217
-347.450	51.465	0.120	-0.113
-346.435	-62.792	0.120	0.049
-345.420	-162.052	0.059	-0.003
-344.406	1.574	0.164	-0.118
-343.391	800.000	-0.038	0.152
-342.377	29.708	-0.199	0.169
-341.362	-200.000	-0.018	-0.317
-340.348	458.182	0.063	-0.140
-339.333	-115.017	0.286	0.054
-338.318	-127.075	-0.382	-0.056
-337.304	181.634	0.192	-0.282
-336.289	272.334	0.191	-0.335
-335.275	547.164	-0.126	-0.300
-334.260	-99.617	-0.249	-0.062
-333.245	800.000	0.047	0.149
-332.231	-200.000	0.029	-0.164
-331.216	246.200	0.093	-0.157
-330.202	34.169	-0.152	-0.132
-329.187	606.178	-0.129	-0.320
-328.172	230.704	0.225	-0.367
-327.158	-54.839	0.304	0.137
-326.143	278.758	-0.093	0.165
-325.129	-200.000	-0.019	0.351
-324.114	30.430	-0.226	-0.193
-323.099	-39.639	-0.069	0.036
-322.085	-57.596	-0.217	0.095
-321.070	62.147	-0.196	-0.195
-320.056	-200.000	-0.087	-0.518
-319.041	47.037	0.140	0.130
-318.026	-172.472	0.310	-0.010
-317.012	-200.000	-0.033	-0.167
-315.997	-139.814	-0.205	0.022
-314.983	-100.631	0.414	-0.102
-313.968	127.249	0.074	0.093
-312.953	800.000	0.051	-0.151
-311.939	-152.387	0.176	-0.013
-310.924	-165.657	-0.045	-0.002
-309.910	633.385	0.078	0.197
-308.895	-200.000	0.047	-0.231
-307.880	97.026	0.117	-0.134
-306.866	800.000	0.048	-0.153
-305.851	-60.122	-0.320	0.136
-304.837	-169.454	0.208	-0.008
-303.822	148.730	0.071	-0.096
-302.807	-200.000	0.036	-0.222
-301.793	-83.092	0.070	0.022
-300.778	609.899	-0.143	-0.356
-299.764	167.215	0.097	-0.138
-298.749	141.820	-0.181	-0.239
-297.735	485.204	-0.076	0.172
-296.720	-53.909	-0.413	-0.188
-295.705	17.874	-0.087	-0.069
-294.691	800.000	0.107	0.408
-293.676	-200.000	0.081	-0.484
-292.662	27.772	-0.113	-0.095
-291.647	120.677	-0.254	-0.314
-290.632	266.829	-0.238	0.414
-289.618	-66.902	0.132	-0.052
-288.603	259.595	0.231	0.398
-287.589	800.000	-0.047	-0.184
-286.574	-61.540	0.215	-0.090
-285.559	-23.124	0.263	-0.157
-284.545	-100.796	0.259	0.064
-283.530	800.000	0.037	-0.133
-282.516	-45.502	-0.031	-0.015
-281.501	-200.000	0.014	-0.084
-280.486	51.136	-0.203	0.192
-279.472	370.290	0.102	0.206
-278.457	324.434	-0.041	0.078
-277.443	82.972	-0.201	0.217
-276.428	-95.983	-0.083	0.022
-275.413	-56.376	0.196	-0.087
-274.399	-86.922	-0.169	0.051
-273.384	-6.447	0.091	0.062
-272.370	800.000	-0.023	0.090
-271.355	352.734	0.059	-0.116
-270.340	-200.000	0.007	0.080
-269.326	43.490	0.232	-0.211
-268.311	-2.113	-0.162	-0.113
-267.297	-200.000	0.053	0.271
-266.282	800.000	0.093	-0.330
-265.267	126.450	0.152	0.191
-264.253	-47.563	-0.269	0.130
-263.238	483.889	-0.053	0.119
-262.224	-200.000	0.004	0.045
-261.209	178.652	0.166	0.241
-260.195	800.000	0.030	-0.114
-259.180	73.752	0.082	-0.085
-258.165	-200.000	0.018	-0.123
-257.151	-62.727	-0.169	-0.070
-256.136	193.864	-0.092	-0.138
-255.122	-200.000	0.018	-0.333
-254.107	-41.918	0.143	0.073
-253.092	-200.000	0.028	-0.158
-252.078	72.237	-0.115	0.119
-251.063	-29.824	-0.157	-0.089
-250.049	307.003	0.119	0.220
-249.034	-60.667	0.183	0.077
-248.019	-90.721	-0.183	0.052
-247.005	435.534	-0.084	0.181
-245.990	45.286	-0.090	-0.083
-244.976	170.654	-0.040	0.056
-243.961	-172.044	-0.125	0.004
-242.946	-200.000	-0.027	0.179
-241.932	-12.901	0.328	-0.212
-240.917	97.246	-0.063	0.071
-239.903	24.365	-0.139	-0.114
-238.888	-169.243	-0.388	0.014
-237.873	-107.545	0.015	-0.003
-236.859	-200.000	0.021	0.151
-235.844	-142.452	0.315	-0.031
-234.830	-200.000	0.002	0.108
-233.815	120.832	0.285	-0.352
-232.800	-40.320	0.158	-0.082
-231.786	241.200	-0.171	0.283
-230.771	265.747	0.117	0.203
-229.757	23.984	0.084	0.069
-228.742	42.514	0.066	0.060
-227.727	49.724	0.118	0.110
-226.713	9.053	-0.231	0.173
-225.698	521.359	-0.157	0.365
-224.684	-135.751	-0.364	0.043
-223.669	-101.485	-0.220	0.053
-222.655	175.529	-0.182	0.262
-221.640	167.534	-0.080	-0.113
-220.625	-200.000	0.038	0.345
-219.611	-165.493	0.171	-0.007
-218.596	-200.000	0.041	-0.348
-217.582	68.663	0.266	-0.271
-216.567	-9.459	0.378	0.251
-215.552	-20.848	-0.125	0.076
-214.538	800.000	0.024	-0.089
-213.523	133.635	0.090	0.116
-212.509	486.345	-0.265	-0.600
-211.494	-89.645	0.168	0.049
-210.479	3.836	0.131	0.095
-209.465	-52.273	-0.133	-0.061
-208.450	-159.633	0.349	-0.019
-207.436	119.773	-0.191	-0.235
-206.421	237.535	-0.085	0.140
-205.406	39.806	-0.124	-0.111
-204.392	-139.547	-0.118	-0.012
-203.377	800.000	0.053	0.186
-202.363	-151.931	0.127	0.009
-201.348	-127.533	-0.298	-0.043
-200.333	49.620	0.280	0.261
-199.319	111.496	-0.187	0.224
-198.304	160.342	0.184	0.255
-197.290	-22.548	-0.158	0.095
-196.275	28.188	0.007	-0.006
-195.260	-95.102	0.279	-0.075
-194.246	-0.411	-0.028	-0.019
-193.231	-27.702	0.225	0.129
-192.217	-200.000	0.004	0.131
-191.202	96.493	0.055	-0.062
-190.187	-125.738	-0.290	-0.044
-189.173	16.777	0.198	-0.155
-188.158	-65.517	0.121	-0.048
-187.144	224.347	0.148	-0.237
-186.129	-69.719	0.241	-0.091
-185.114	281.595	-0.181	-0.322
-184.100	245.864	0.090	-0.151
-183.085	-136.719	-0.329	0.038
-182.071	610.280	0.101	0.249
-181.056	24.934	0.070	-0.058
-180.042	-81.829	0.124	-0.040
-179.027	-28.035	-0.131	0.075
-178.012	-16.989	0.300	-0.188
-176.998	-49.218	-0.302	0.143
-175.983	-200.000	-0.011	-0.060
-174.969	-146.681	-0.369	0.032
-173.954	9.274	-0.351	0.263
-172.939	800.000	0.095	-0.291
-171.925	-140.538	-0.258	0.027
-170.910	53.940	0.180	-0.172
-169.896	-176.538	-0.058	0.001
-168.881	-66.060	-0.124	0.049
-167.866	-200.000	0.024	0.138
-166.852	800.000	0.092	0.315
-165.837	50.248	-0.261	0.244
-164.823	165.451	-0.184	0.257
-163.808	668.101	0.158	0.405
-162.793	-38.724	0.128	-0.067
-161.779	800.000	-0.138	-0.389
-160.764	59.077	-0.428	-0.417
-159.750	90.340	0.081	-0.090
-158.735	237.655	-0.158	0.259
-157.720	15.347	0.124	-0.097
-156.706	-200.000	-0.016	0.197
-155.691	800.000	0.065	-0.225
-154.677	21.224	-0.163	0.131
-153.662	800.000	0.164	0.488
-152.647	-88.688	-0.252	0.074
-151.633	-105.104	0.319	-0.072
-150.618	-55.699	0.143	-0.063
-149.604	211.714	0.136	-0.211
-148.589	-110.958	-0.036	0.007
-147.574	-182.936	-0.302	0.005
-146.560	-27.271	-0.140	0.081
-145.545	109.478	-0.177	0.210
-144.531	589.014	-0.079	0.193
-143.516	-68.588	0.125	-0.048
-142.502	87.219	0.183	0.200
-141.487	91.893	-0.093	0.103
-140.472	-200.000	0.015	-0.115
-139.458	444.318	-0.114	-0.247
-138.443	800.000	0.062	-0.204
-137.429	-113.488	-0.224	0.043
-136.414	263.845	0.158	0.273
-135.399	-200.000	-0.009	0.208
-134.385	-200.000	0.001	-0.167
-133.370	-200.000	-0.026	0.256
-132.356	290.053	-0.101	-0.181
-131.341	162.960	-0.085	0.118
-130.326	70.969	0.179	-0.184
-129.312	-186.977	-0.239	0.003
-128.297	53.176	-0.112	-0.106
-127.283	-200.000	-0.025	-0.121
-126.268	-122.929	0.172	0.027
-125.253	-93.727	0.132	0.036
-124.239	800.000	-0.071	-0.221
-123.224	-99.685	0.108	-0.027
-122.210	75.401	-0.144	-0.150
-121.195	-108.389	0.155	0.033
-120.180	-12.962	0.107	-0.069
