DTS Sentinel unit serial number:	SN413079Multiplexer serial number:	ORYXHardware model number:	OX4-SRSoftware version number:	ORYX F/W v4.00 Oryx Data Collector v3.7.2.0data status	okinstallation	princeton_trtdifferential loss correction	single-endedforward channel	channel 3reverse channel	N/Adate	2019/09/19time	12:12:34forward acquisition time	60.00reverse acquisition time	0.00gamma	496.2192k internal	0.2340k external	0.2340temperature offset calibration	0.9985default loss term (dB/km)	0.3790temperature slope calibration	1.0000multiplexer offset coefficient	1.0000multiplexer slope coefficient	1.0000fibre end	0.00T internal ref (°C)	26.37T ext. ref 1 (°C)	0.86T ext. ref 2 (°C)	23.08length (m)	temperature (°C)	Stokes	anti-Stokes-747.200	-200.000	-0.013	0.068
-746.185	0.314	-0.144	0.103
-745.171	800.000	0.081	-0.351
-744.156	-87.842	-0.028	-0.009
-743.142	138.829	0.097	0.128
-742.127	-81.493	-0.202	-0.067
-741.112	78.213	-0.184	-0.197
-740.098	-89.244	0.083	0.025
-739.083	-155.149	0.438	-0.029
-738.069	-200.000	-0.064	0.406
-737.054	-200.000	-0.052	-0.270
-736.039	141.200	-0.091	-0.121
-735.025	105.440	0.229	0.271
-734.010	-200.000	0.001	-0.031
-732.996	2.981	-0.370	-0.270
-731.981	147.384	0.135	0.182
-730.966	295.287	0.038	-0.069
-729.952	73.688	0.237	-0.249
-728.937	-36.567	0.126	-0.068
-727.923	417.925	-0.101	0.216
-726.908	-79.082	0.119	-0.041
-725.894	155.565	0.082	-0.113
-724.879	-159.102	-0.345	-0.020
-723.864	-51.904	0.276	0.128
-722.850	157.504	0.124	0.172
-721.835	107.891	0.069	-0.082
-720.821	184.950	0.223	-0.331
-719.806	-8.185	-0.269	-0.182
-718.791	-113.903	-0.205	0.040
-717.777	-17.442	-0.097	-0.061
-716.762	366.640	0.076	0.153
-715.748	800.000	-0.062	-0.255
-714.733	-200.000	0.008	-0.183
-713.718	800.000	-0.036	-0.118
-712.704	-93.487	-0.335	-0.093
-711.689	-200.000	-0.002	-0.152
-710.675	-64.794	-0.212	0.086
-709.660	-199.216	0.117	0.001
-708.645	-200.000	-0.045	-0.221
-707.631	-169.847	-0.448	-0.016
-706.616	85.168	-0.110	0.121
-705.602	33.445	0.173	-0.150
-704.587	-53.280	0.150	-0.069
-703.572	-152.946	-0.006	-0.000
-702.558	800.000	-0.046	-0.176
-701.543	-87.450	0.159	0.048
-700.529	31.979	-0.072	0.063
-699.514	-200.000	-0.014	0.232
-698.499	-16.396	0.232	-0.147
-697.485	-200.000	-0.000	0.036
-696.470	-134.620	0.211	-0.026
-695.456	200.539	-0.126	0.194
-694.441	275.300	0.067	0.118
-693.426	-200.000	-0.016	0.301
-692.412	-57.542	-0.109	0.048
-691.397	208.759	0.145	-0.227
-690.383	-200.000	-0.017	-0.135
-689.368	545.846	-0.096	-0.231
-688.354	61.200	0.145	0.144
-687.339	698.399	0.050	0.131
-686.324	3.588	0.077	-0.056
-685.310	618.390	-0.074	0.185
-684.295	-200.000	-0.007	-0.246
-683.281	-200.000	0.070	-0.448
-682.266	6.483	-0.211	-0.157
-681.251	-104.979	-0.397	-0.091
-680.237	-200.000	-0.063	-0.286
-679.222	445.175	-0.052	0.115
-678.208	253.155	0.141	-0.241
-677.193	-200.000	-0.032	-0.270
-676.178	643.698	-0.057	-0.147
-675.164	170.941	-0.253	0.362
-674.149	-107.299	0.093	-0.020
-673.135	712.175	-0.185	-0.489
-672.120	-200.000	-0.030	-0.208
-671.105	-62.104	0.159	-0.066
-670.091	-200.000	-0.012	-0.108
-669.076	-144.083	-0.183	-0.017
-668.062	-200.000	-0.034	0.151
-667.047	-148.085	0.346	0.029
-666.032	82.145	-0.253	-0.274
-665.018	-200.000	0.000	-0.059
-664.003	-39.688	0.232	0.121
-662.989	36.271	-0.023	-0.020
-661.974	-105.943	0.138	-0.031
-660.959	-200.000	-0.028	0.185
-659.945	-103.976	-0.173	0.040
-658.930	-29.120	-0.182	0.105
-657.916	528.905	0.138	-0.324
-656.901	-157.898	0.364	0.022
-655.886	800.000	-0.048	-0.208
-654.872	800.000	0.029	-0.128
-653.857	76.173	0.229	-0.242
-652.843	-142.769	-0.142	0.014
-651.828	578.497	-0.092	0.226
-650.814	-57.545	0.091	-0.040
-649.799	-200.000	-0.020	-0.177
-648.784	-52.931	0.168	0.077
-647.770	-106.125	-0.206	-0.046
-646.755	-147.854	-0.198	0.016
-645.741	-183.791	-0.100	0.002
-644.726	596.162	0.103	-0.255
-643.711	-42.627	0.364	-0.185
-642.697	-200.000	0.013	-0.089
-641.682	-200.000	0.020	0.201
-640.668	224.756	-0.215	0.347
-639.653	-115.119	-0.076	0.014
-638.638	19.310	-0.067	0.054
-637.624	159.636	-0.111	0.155
-636.609	-59.026	0.133	0.057
-635.595	800.000	-0.114	-0.368
-634.580	800.000	-0.117	0.362
-633.565	-33.755	-0.194	0.107
-632.551	-67.614	0.044	0.017
-631.536	800.000	0.065	0.276
-630.522	-94.612	0.254	-0.069
-629.507	-11.589	0.258	-0.169
-628.492	56.825	-0.188	0.183
-627.478	800.000	0.039	-0.113
-626.463	-116.774	0.075	0.014
-625.449	38.149	-0.362	-0.322
-624.434	-70.090	-0.354	-0.135
-623.419	-85.861	0.234	-0.072
-622.405	-155.203	0.195	-0.013
-621.390	104.962	0.115	-0.135
-620.376	800.000	0.076	-0.213
-619.361	-66.429	-0.319	0.127
-618.346	-39.943	-0.194	-0.101
-617.332	-77.263	0.319	-0.111
-616.317	-32.920	-0.215	0.119
-615.303	-118.488	0.205	0.036
-614.288	800.000	0.227	0.649
-613.273	113.548	-0.171	-0.207
-612.259	-200.000	0.029	0.140
-611.244	-47.788	-0.119	0.058
-610.230	788.729	-0.107	0.294
-609.215	-130.905	0.348	-0.046
-608.201	9.412	0.300	0.227
-607.186	-200.000	-0.035	-0.215
-606.171	342.050	0.060	0.117
-605.157	-127.226	-0.301	-0.044
-604.142	-91.396	0.350	0.100
-603.128	-200.000	0.037	-0.196
-602.113	162.611	-0.097	0.136
-601.098	112.023	0.061	0.073
-600.084	-56.425	-0.103	-0.046
-599.069	800.000	-0.115	-0.396
-598.055	-200.000	0.001	-0.239
-597.040	173.365	-0.093	0.133
-596.025	65.944	0.102	0.103
-595.011	-200.000	-0.007	0.312
-593.996	-200.000	0.000	0.029
-592.982	-42.849	-0.167	-0.085
-591.967	-50.796	-0.283	-0.133
-590.952	-145.377	0.134	0.012
-589.938	-200.000	0.011	0.069
-588.923	-200.000	0.028	0.194
-587.909	46.369	-0.204	0.188
-586.894	-163.551	0.243	0.011
-585.879	-51.147	0.079	-0.037
-584.865	11.573	-0.199	-0.152
-583.850	23.888	0.106	0.087
-582.836	160.177	0.123	0.170
-581.821	65.329	-0.026	-0.027
-580.806	-93.933	0.425	-0.116
-579.792	50.652	-0.171	-0.161
-578.777	-200.000	0.007	0.071
-577.763	-200.000	0.015	0.203
-576.748	457.865	0.066	-0.145
-575.733	155.911	0.087	0.120
-574.719	-18.698	0.053	-0.033
-573.704	-200.000	0.025	0.164
-572.690	-139.969	-0.386	-0.041
-571.675	-49.706	-0.216	-0.102
-570.661	800.000	0.075	-0.208
-569.646	-153.663	0.096	0.007
-568.631	800.000	-0.159	-0.500
-567.617	-200.000	-0.011	-0.225
-566.602	44.188	0.255	-0.233
-565.588	800.000	0.053	0.150
-564.573	593.957	0.074	-0.182
-563.558	-132.821	0.122	-0.016
-562.544	-69.443	-0.251	0.096
-561.529	-153.671	0.043	-0.003
-560.515	-200.000	0.045	-0.319
-559.500	800.000	0.102	0.293
-558.485	800.000	0.051	-0.142
-557.471	-87.207	-0.232	-0.070
-556.456	40.478	0.200	-0.180
-555.442	518.335	-0.193	0.449
-554.427	-29.953	-0.223	0.127
-553.412	-200.000	0.004	0.030
-552.398	-3.771	-0.041	-0.029
-551.383	-163.472	-0.205	0.010
-550.369	-0.120	0.104	-0.074
-549.354	800.000	-0.073	0.254
-548.339	-200.000	-0.022	0.234
-547.325	-75.933	-0.252	-0.089
-546.310	-200.000	0.001	0.140
-545.296	-199.524	-0.121	0.001
-544.281	-175.757	0.120	-0.003
-543.266	-62.221	0.097	0.040
-542.252	-63.806	0.123	0.050
-541.237	-200.000	-0.010	-0.123
-540.223	42.717	-0.205	0.186
-539.208	99.376	0.184	0.212
-538.193	-119.456	-0.362	-0.063
-537.179	108.464	-0.100	0.118
-536.164	-200.000	-0.003	0.124
-535.150	-123.375	-0.259	0.041
-534.135	7.753	0.232	-0.173
-533.121	50.716	-0.197	-0.185
-532.106	-65.823	-0.154	0.061
-531.091	-200.000	-0.014	0.089
-530.077	-200.000	0.003	0.200
-529.062	-52.398	-0.061	-0.028
-528.048	-200.000	-0.007	0.213
-527.033	800.000	0.088	-0.289
-526.018	-62.358	-0.109	-0.045
-525.004	-32.119	-0.275	-0.153
-523.989	800.000	0.065	-0.204
-522.975	-200.000	0.015	0.114
-521.960	-112.446	-0.115	0.023
-520.945	222.864	0.252	-0.404
-519.931	-200.000	0.001	0.171
-518.916	605.021	0.035	0.086
-517.902	117.491	-0.060	0.073
-516.887	800.000	-0.027	-0.081
-515.872	112.035	-0.230	-0.276
-514.858	57.559	0.164	-0.159
-513.843	-60.269	-0.191	-0.081
-512.829	800.000	0.069	-0.217
-511.814	800.000	0.101	-0.346
-510.799	3.417	0.202	-0.146
-509.785	-68.485	0.282	-0.109
-508.770	310.556	0.079	-0.147
-507.756	-200.000	-0.055	0.334
-506.741	-69.934	-0.097	0.037
-505.726	-111.414	0.076	-0.015
-504.712	800.000	0.094	-0.313
-503.697	-86.642	0.149	-0.045
-502.683	-2.405	-0.160	0.112
-501.668	-200.000	0.005	0.093
-500.653	-57.407	-0.127	-0.055
-499.639	-100.038	-0.163	-0.040
-498.624	-143.893	-0.273	0.026
-497.610	-7.761	-0.110	0.073
-496.595	75.913	-0.075	-0.079
-495.581	445.172	-0.036	0.077
-494.566	-109.916	0.241	-0.050
-493.551	154.189	-0.152	-0.207
-492.537	-200.000	-0.026	-0.168
-491.522	-13.819	0.301	-0.193
-490.508	123.647	0.070	0.088
-489.493	-150.596	-0.255	0.019
-488.478	-82.216	0.211	-0.068
-487.464	103.772	-0.158	-0.184
-486.449	800.000	0.038	-0.135
-485.435	22.462	0.138	0.112
-484.420	569.698	0.088	-0.213
-483.405	-192.643	-0.348	0.003
-482.391	124.172	0.111	-0.138
-481.376	-200.000	-0.010	0.046
-480.362	-2.978	-0.157	-0.109
-479.347	-12.784	0.350	-0.227
-478.332	-170.546	-0.240	-0.008
-477.318	800.000	0.119	0.335
-476.303	-9.125	-0.234	-0.155
-475.289	1.975	0.190	0.136
-474.274	178.242	-0.078	0.113
-473.259	-22.947	0.062	-0.037
-472.245	-200.000	0.024	-0.106
-471.230	-93.803	0.192	-0.053
-470.216	800.000	0.023	-0.075
-469.201	183.705	-0.128	0.188
-468.186	21.089	-0.215	-0.173
-467.172	-200.000	-0.018	-0.123
-466.157	-110.194	0.357	-0.074
-465.143	60.876	-0.322	0.317
-464.128	144.625	-0.205	-0.271
-463.113	-32.334	0.167	-0.092
-462.099	106.318	0.409	0.481
-461.084	-167.248	0.323	0.013
-460.070	800.000	0.086	-0.310
-459.055	-200.000	0.000	-0.622
-458.040	82.645	0.193	-0.207
-457.026	800.000	-0.061	0.175
-456.011	-200.000	0.051	-0.237
-454.997	-14.090	-0.176	-0.112
-453.982	-200.000	0.018	0.136
-452.968	-84.401	-0.115	0.036
-451.953	85.919	-0.132	0.144
-450.938	-40.047	0.131	-0.068
-449.924	-170.165	-0.183	0.006
-448.909	52.823	-0.054	-0.051
-447.895	12.746	-0.031	-0.024
-446.880	-88.519	0.193	0.057
-445.865	-144.383	0.216	0.020
-444.851	800.000	-0.042	-0.139
-443.836	-124.527	0.204	-0.031
-442.822	-60.605	0.126	0.053
-441.807	-86.377	0.238	0.073
-440.792	324.515	0.079	-0.150
-439.778	-134.501	-0.054	-0.006
-438.763	69.105	-0.159	0.162
-437.749	20.295	0.171	-0.137
-436.734	-66.930	-0.325	-0.127
-435.719	-53.261	0.109	-0.050
-434.705	-74.958	-0.199	-0.071
-433.690	103.390	0.123	0.143
-432.676	143.267	-0.062	0.082
-431.661	-96.472	0.316	-0.083
-430.646	-111.433	-0.608	0.123
-429.632	85.699	0.182	-0.199
-428.617	33.418	0.218	0.188
-427.603	-122.195	0.263	0.043
-426.588	-200.000	0.031	-0.233
-425.573	-195.223	0.323	0.002
-424.559	141.366	-0.050	-0.065
-423.544	205.612	0.058	-0.090
-422.530	790.264	0.077	0.211
-421.515	-34.105	-0.089	-0.048
-420.500	56.701	0.197	0.189
-419.486	-42.494	-0.194	-0.098
-418.471	-76.493	-0.153	-0.053
-417.457	800.000	-0.084	-0.319
-416.442	-88.711	-0.388	-0.114
-415.428	25.943	-0.193	-0.160
-414.413	-200.000	-0.005	0.115
-413.398	261.055	-0.100	0.171
-412.384	-61.286	0.317	0.132
-411.369	-200.000	-0.038	0.181
-410.355	-200.000	0.021	0.288
-409.340	211.645	-0.029	-0.044
-408.325	190.468	-0.123	-0.183
-407.311	-64.936	-0.122	-0.049
-406.296	77.033	0.484	0.509
-405.282	4.911	0.202	-0.147
-404.267	-194.347	-0.084	-0.001
-403.252	79.873	-0.188	0.199
-402.238	-53.202	-0.035	-0.016
-401.223	-200.000	0.023	0.099
-400.209	-110.677	0.069	-0.014
-399.194	-59.803	-0.095	-0.040
-398.179	-70.724	-0.472	0.176
-397.165	-17.693	-0.044	-0.027
-396.150	-152.280	0.101	-0.007
-395.136	167.706	0.108	0.152
-394.121	23.221	-0.130	0.105
-393.106	121.658	-0.119	-0.146
-392.092	-6.723	-0.403	0.271
-391.077	467.633	0.264	-0.585
-390.063	-135.861	0.408	0.048
-389.048	-177.921	-0.162	-0.004
-388.033	-139.734	-0.286	-0.030
-387.019	2.876	-0.087	0.062
-386.004	-120.030	-0.117	-0.020
-384.990	-123.325	-0.104	0.016
-383.975	-34.952	0.390	0.210
-382.960	-19.126	-0.039	-0.024
-381.946	-200.000	0.094	-0.577
-380.931	-92.581	-0.349	-0.097
-379.917	-99.893	-0.345	-0.085
-378.902	-200.000	-0.007	0.409
-377.888	-200.000	0.005	0.286
-376.873	5.830	0.049	-0.036
-375.858	30.943	-0.324	-0.274
-374.844	305.383	-0.079	0.144
-373.829	-88.579	-0.162	-0.048
-372.815	-200.000	-0.008	0.057
-371.800	-114.074	0.105	-0.020
-370.785	-48.537	0.127	-0.060
-369.771	-200.000	0.011	-0.051
-368.756	800.000	0.094	-0.284
-367.742	-52.168	-0.085	-0.039
-366.727	33.795	-0.237	-0.204
-365.712	145.708	-0.048	0.063
-364.698	-72.377	-0.213	-0.078
-363.683	-165.324	0.118	-0.005
-362.669	339.539	-0.172	-0.331
-361.654	-63.020	0.273	0.111
-360.639	242.063	-0.235	0.388
-359.625	-25.862	0.198	0.115
-358.610	261.370	0.070	-0.120
-357.596	716.545	0.083	-0.216
-356.581	499.916	-0.123	0.279
-355.566	-196.644	-0.595	0.004
-354.552	-17.878	0.029	-0.018
-353.537	-53.664	0.315	0.142
-352.523	155.164	-0.071	0.097
-351.508	-41.754	-0.200	0.101
-350.493	54.747	-0.371	-0.354
-349.479	107.856	-0.079	0.093
-348.464	-121.647	-0.120	0.020
-347.450	800.000	0.069	0.274
-346.435	800.000	-0.047	-0.201
-345.420	154.543	0.163	-0.221
-344.406	-36.963	0.348	-0.184
-343.391	-200.000	0.036	-0.435
-342.377	-136.003	0.158	-0.018
-341.362	-38.716	-0.257	0.134
-340.348	-200.000	0.012	0.219
-339.333	547.737	-0.117	-0.276
-338.318	-200.000	-0.003	-0.094
-337.304	157.100	0.174	0.238
-336.289	63.312	0.054	-0.053
-335.275	218.678	0.118	0.186
-334.260	242.820	-0.119	-0.197
-333.245	60.148	-0.256	0.250
-332.231	78.432	0.290	0.305
-331.216	760.692	0.190	0.508
-330.202	-24.934	0.178	0.104
-329.187	141.376	0.051	0.067
-328.172	-59.619	-0.062	-0.026
-327.158	800.000	0.059	-0.166
-326.143	790.471	0.107	0.290
-325.129	113.184	0.190	-0.228
-324.114	-107.600	0.263	0.057
-323.099	3.681	-0.113	0.081
-322.085	-19.832	0.230	-0.140
-321.070	-36.466	-0.223	0.118
-320.056	-200.000	-0.009	0.403
-319.041	-200.000	0.018	0.302
-318.026	800.000	0.095	0.331
-317.012	-132.122	-0.386	0.049
-315.997	-34.731	-0.116	-0.063
-314.983	-118.656	0.102	0.018
-313.968	800.000	-0.115	0.354
-312.953	-83.163	0.459	-0.146
-311.939	800.000	0.057	0.196
-310.924	800.000	0.073	-0.225
-309.910	800.000	-0.066	-0.215
-308.895	-141.026	0.283	0.029
-307.880	-105.088	-0.279	-0.063
-306.866	-67.221	0.261	-0.101
-305.851	-11.155	-0.230	0.150
-304.837	40.061	-0.366	0.324
-303.822	13.843	0.195	-0.150
-302.807	-106.873	-0.529	-0.115
-301.793	-47.830	0.161	0.077
-300.778	-62.956	-0.041	0.017
-299.764	127.518	0.180	-0.225
-298.749	178.410	0.087	0.124
-297.735	366.184	-0.165	0.327
-296.720	31.957	-0.079	0.067
-295.705	192.181	-0.096	0.142
-294.691	262.100	0.138	0.236
-293.676	800.000	0.042	-0.135
-292.662	323.670	-0.142	-0.268
-291.647	800.000	-0.099	0.272
-290.632	94.845	0.093	-0.105
-289.618	-89.590	-0.116	-0.034
-288.603	-176.144	-0.049	-0.001
-287.589	359.268	0.048	0.095
-286.574	-187.007	-0.234	0.003
-285.559	180.116	0.218	-0.315
-284.545	401.876	-0.162	0.335
-283.530	-76.900	0.230	-0.079
-282.516	-31.679	-0.047	-0.026
-281.501	-119.039	-0.146	0.025
-280.486	81.056	-0.117	0.125
-279.472	-116.098	0.115	0.021
-278.457	-200.000	-0.033	-0.150
-277.443	-34.489	-0.196	-0.106
-276.428	-26.131	-0.202	-0.117
-275.413	23.794	-0.210	-0.171
-274.399	800.000	-0.013	-0.049
-273.384	125.965	0.153	0.191
-272.370	-200.000	0.015	-0.238
-271.355	129.352	-0.105	-0.132
-270.340	-200.000	0.059	0.289
-269.326	800.000	-0.056	-0.153
-268.311	-200.000	0.018	-0.251
-267.297	3.504	0.044	-0.032
-266.282	-123.770	-0.070	-0.011
-265.267	-20.502	0.164	0.099
-264.253	-84.443	0.198	-0.062
-263.238	-42.256	-0.248	0.125
-262.224	325.668	0.184	0.346
-261.209	-127.706	-0.095	-0.013
-260.195	800.000	-0.021	-0.064
-259.180	-71.474	0.033	0.012
-258.165	52.869	-0.156	0.147
-257.151	-14.712	-0.025	-0.016
-256.136	36.944	0.251	0.219
-255.122	-200.000	0.011	0.074
-254.107	30.278	0.101	-0.085
-253.092	61.804	-0.129	-0.126
-252.078	-104.930	-0.281	0.063
-251.063	-200.000	-0.005	0.099
-250.049	-126.315	-0.201	0.030
-249.034	-40.468	-0.076	0.039
-248.019	-31.011	-0.428	-0.238
-247.005	-15.401	-0.127	0.080
-245.990	-139.226	0.283	0.030
-244.976	-200.000	0.033	-0.253
-243.961	-24.101	0.170	-0.100
-242.946	-2.044	-0.195	-0.135
-241.932	78.476	0.194	0.204
-240.917	89.568	-0.143	-0.157
-239.903	800.000	-0.166	-0.514
-238.888	-200.000	-0.031	0.187
-237.873	-126.725	0.387	0.056
-236.859	93.428	0.045	-0.050
-235.844	84.861	0.085	0.091
-234.830	-104.737	0.193	-0.044
-233.815	-4.584	0.120	0.082
-232.800	77.303	0.215	0.225
-231.786	800.000	-0.080	-0.233
-230.771	-137.932	0.152	0.017
-229.757	-200.000	-0.040	0.442
-228.742	800.000	-0.023	0.084
-227.727	-68.486	0.348	0.133
-226.713	-200.000	0.069	0.346
-225.698	354.791	0.062	0.121
-224.684	-73.517	0.279	0.100
-223.669	137.201	0.186	0.240
-222.655	-174.007	-0.325	0.009
-221.640	-48.475	0.203	-0.096
-220.625	25.659	0.117	0.096
-219.611	-200.000	-0.021	0.219
-218.596	661.352	0.095	-0.239
-217.582	-84.146	0.139	0.043
-216.567	-69.365	0.183	0.069
-215.552	154.322	-0.067	0.091
-214.538	-25.806	0.180	0.104
-213.523	-118.655	-0.476	-0.083
-212.509	-200.000	-0.025	-0.175
-211.494	98.171	0.116	-0.131
-210.479	38.110	-0.061	0.054
-209.465	-137.421	0.129	-0.014
-208.450	155.061	0.081	-0.109
-207.436	800.000	-0.063	0.221
-206.421	-149.043	-0.485	0.038
-205.406	573.187	0.132	0.317
-204.392	378.127	0.196	-0.393
-203.377	-149.383	0.096	0.007
-202.363	-109.086	-0.144	-0.030
-201.348	139.413	-0.081	0.105
-200.333	-200.000	-0.032	0.208
-199.319	100.034	0.126	-0.143
-198.304	-16.627	0.039	0.024
-197.290	75.395	-0.024	0.025
-196.275	389.275	0.040	0.082
-195.260	-148.298	0.405	-0.033
-194.246	737.505	-0.143	0.375
-193.231	-92.830	-0.125	0.034
-192.217	-143.482	0.127	0.012
-191.202	73.370	-0.032	0.033
-190.187	-56.244	0.124	0.054
-189.173	-84.977	0.171	-0.053
-188.158	-87.218	-0.085	0.025
-187.144	276.208	0.122	-0.212
-186.129	-33.255	0.255	0.139
-185.114	303.761	0.035	-0.063
-184.100	241.384	-0.128	-0.210
-183.085	-19.720	0.254	0.154
-182.071	-102.886	-0.276	0.064
-181.056	248.489	-0.205	-0.341
-180.042	-48.967	-0.115	-0.054
-179.027	47.375	0.093	0.085
-178.012	-78.748	0.352	-0.118
-176.998	277.575	-0.042	0.073
-175.983	634.281	0.043	-0.106
-174.969	546.253	0.057	0.133
-173.954	138.987	0.078	-0.101
-172.939	800.000	0.065	0.191
-171.925	-126.516	0.186	-0.027
-170.910	23.612	0.257	-0.207
-169.896	-163.826	-0.074	-0.003
-168.881	-78.683	-0.420	-0.141
-167.866	-200.000	-0.002	-0.110
-166.852	-156.539	-0.330	0.020
-165.837	-200.000	-0.000	-0.197
-164.823	23.503	0.180	0.145
-163.808	105.459	-0.158	0.183
-162.793	525.816	0.065	0.151
-161.779	76.416	0.227	-0.236
-160.764	327.263	-0.089	-0.168
-159.750	-54.994	-0.260	-0.115
-158.735	216.684	0.176	-0.275
-157.720	-200.000	0.020	0.107
-156.706	-48.138	0.387	0.183
-155.691	-102.833	0.214	-0.050
-154.677	800.000	0.045	-0.177
-153.662	-200.000	0.018	0.333
-152.647	-80.809	0.180	0.058
-151.633	25.024	0.195	0.159
-150.618	-58.954	-0.208	-0.088
-149.604	138.663	0.156	0.201
-148.589	15.697	0.258	-0.199
-147.574	171.010	-0.035	-0.049
-146.560	-86.335	0.142	-0.043
-145.545	800.000	-0.095	-0.270
-144.531	-200.000	0.004	0.167
-143.516	800.000	-0.077	0.217
-142.502	-77.238	0.223	0.076
-141.487	800.000	0.012	-0.040
-140.472	-200.000	0.028	-0.165
-139.458	-118.806	0.242	-0.042
-138.443	-64.698	-0.159	-0.063
-137.429	120.516	-0.075	0.092
-136.414	-140.568	0.344	-0.035
-135.399	379.472	0.170	-0.341
-134.385	-134.701	-0.265	-0.032
-133.370	-6.783	0.055	-0.036
-132.356	617.367	-0.109	-0.267
-131.341	-200.000	-0.079	0.361
-130.326	-200.000	0.021	-0.223
-129.312	-17.860	-0.105	-0.064
-128.297	45.220	-0.059	-0.054
-127.283	279.670	-0.136	-0.238
-126.268	-29.471	0.279	0.156
-125.253	13.115	0.170	-0.129
-124.239	-104.424	-0.205	0.046
-123.224	-68.530	-0.188	0.071
-122.210	180.693	-0.115	-0.165
