DTS Sentinel unit serial number:	SN413079Multiplexer serial number:	ORYXHardware model number:	OX4-SRSoftware version number:	ORYX F/W v4.00 Oryx Data Collector v3.7.2.0data status	okinstallation	princeton_trtdifferential loss correction	single-endedforward channel	channel 3reverse channel	N/Adate	2019/09/12time	19:10:04forward acquisition time	15.00reverse acquisition time	0.00gamma	496.2192k internal	0.2320k external	0.2320temperature offset calibration	1.0101default loss term (dB/km)	0.3790temperature slope calibration	1.0000multiplexer offset coefficient	1.0000multiplexer slope coefficient	1.0000fibre end	0.00T internal ref (°C)	32.62T ext. ref 1 (°C)	3.21T ext. ref 2 (°C)	27.25length (m)	temperature (°C)	Stokes	anti-Stokes-747.200	800.000	0.085	0.328
-746.185	31.846	-0.725	0.631
-745.171	-200.000	-0.028	0.358
-744.156	96.806	-0.622	0.721
-743.142	168.615	0.147	0.211
-742.127	-28.287	0.796	0.465
-741.112	47.914	0.519	0.490
-740.098	-117.418	0.250	-0.046
-739.083	261.836	0.183	0.321
-738.069	324.453	-0.291	-0.562
-737.054	-200.000	-0.144	0.672
-736.039	-55.767	-0.529	0.239
-735.025	706.281	-0.090	0.241
-734.010	127.779	-0.640	-0.822
-732.996	276.215	-0.210	-0.378
-731.981	27.255	0.466	-0.396
-730.966	158.358	-0.542	-0.760
-729.952	-200.000	0.056	-0.449
-728.937	-200.000	0.062	0.412
-727.923	-200.000	-0.061	0.686
-726.908	-169.148	-0.650	0.024
-725.894	59.814	0.599	0.597
-724.879	-91.716	-0.190	0.055
-723.864	456.937	-0.244	0.547
-722.850	-18.127	0.379	-0.240
-721.835	125.171	0.096	0.123
-720.821	10.594	-0.054	-0.041
-719.806	17.062	0.136	-0.109
-718.791	-111.080	0.148	-0.031
-717.777	-114.681	0.185	0.036
-716.762	-43.486	0.464	-0.237
-715.748	90.758	0.163	0.185
-714.733	-200.000	-0.069	0.768
-713.718	289.198	-0.141	-0.258
-712.704	-200.000	-0.050	-1.003
-711.689	652.087	0.155	0.402
-710.675	132.455	0.589	-0.767
-709.660	28.442	-0.461	-0.394
-708.645	-23.984	-0.155	-0.093
-707.631	435.089	-0.383	-0.840
-706.616	-200.000	-0.085	0.547
-705.602	382.573	0.152	-0.315
-704.587	173.534	-0.259	-0.377
-703.572	-103.605	-0.717	0.170
-702.558	-147.790	0.957	-0.081
-701.543	295.809	0.319	-0.591
-700.529	146.436	-0.307	0.416
-699.514	356.805	0.352	-0.708
-698.499	751.620	0.122	-0.333
-697.485	506.036	-0.292	-0.683
-696.470	-87.424	0.049	-0.015
-695.456	-136.423	-0.406	0.048
-694.441	800.000	-0.077	-0.310
-693.426	160.102	-0.361	-0.507
-692.412	-12.138	-0.265	-0.175
-691.397	307.827	0.234	-0.441
-690.383	82.994	-0.097	0.107
-689.368	318.540	0.249	-0.476
-688.354	800.000	0.091	-0.310
-687.339	-9.253	-0.667	-0.450
-686.324	-200.000	0.096	0.445
-685.310	-200.000	0.003	-0.288
-684.295	-64.238	-0.606	0.249
-683.281	-200.000	0.381	-0.001
-682.266	-200.000	0.021	0.206
-681.251	-182.706	0.590	-0.011
-680.237	209.765	-0.402	0.636
-679.222	-200.000	0.079	-0.543
-678.208	-44.697	0.490	0.247
-677.193	800.000	0.213	-0.693
-676.178	267.750	-0.190	-0.336
-675.164	-93.425	0.570	-0.159
-674.149	-200.000	-0.028	-0.310
-673.135	-136.918	0.337	0.039
-672.120	-200.000	0.077	0.792
-671.105	115.346	-0.295	-0.363
-670.091	-200.000	-0.054	0.284
-669.076	23.575	0.240	0.199
-668.062	-70.568	0.769	-0.293
-667.047	-200.000	-0.075	0.636
-666.032	800.000	-0.121	-0.349
-665.018	34.597	-0.568	-0.500
-664.003	800.000	-0.244	0.816
-662.989	800.000	0.028	0.079
-661.974	-59.172	-0.664	0.289
-660.959	-11.599	0.522	-0.346
-659.945	505.561	0.403	-0.940
-658.930	143.316	-0.337	-0.452
-657.916	-85.198	0.224	-0.071
-656.901	29.284	0.595	-0.509
-655.886	-147.348	0.555	0.047
-654.872	-136.027	1.214	0.144
-653.857	250.067	-0.433	0.740
-652.843	224.421	-0.291	-0.473
-651.828	131.432	-0.562	0.728
-650.814	94.606	0.580	0.664
-649.799	144.030	-0.168	-0.226
-648.784	-60.236	-0.238	-0.102
-647.770	-76.034	-0.821	-0.292
-646.755	-200.000	-0.008	-0.039
-645.741	-59.496	0.519	0.225
-644.726	-112.140	-0.495	0.100
-643.711	800.000	-0.154	-0.571
-642.697	-200.000	0.017	0.460
-641.682	-181.290	-0.185	0.004
-640.668	-68.358	-0.297	0.116
-639.653	-0.234	0.306	-0.219
-638.638	-61.239	0.103	-0.044
-637.624	800.000	-0.250	-0.749
-636.609	-200.000	0.012	-0.816
-635.595	10.539	0.093	0.071
-634.580	-43.937	0.565	-0.286
-633.565	78.001	0.346	-0.371
-632.551	234.052	-0.224	-0.371
-631.536	42.404	-0.513	-0.470
-630.522	-200.000	-0.009	0.342
-629.507	39.582	-0.870	0.786
-628.492	308.464	0.079	-0.148
-627.478	-200.000	-0.038	-0.517
-626.463	-141.697	-0.724	0.073
-625.449	-21.245	0.530	0.326
-624.434	405.652	-0.109	0.231
-623.419	-13.145	-0.497	0.325
-622.405	367.884	0.165	0.336
-621.390	11.373	-0.803	-0.619
-620.376	186.203	0.594	-0.890
-619.361	16.046	-0.685	-0.543
-618.346	155.530	0.443	-0.614
-617.332	-123.181	-0.196	-0.032
-616.317	-159.732	-0.897	-0.050
-615.303	506.891	0.137	-0.319
-614.288	65.092	0.672	0.684
-613.273	-75.824	-0.281	-0.100
-612.259	330.709	-0.517	1.003
-611.244	63.132	-0.315	-0.318
-610.230	-4.972	-0.675	0.467
-609.215	189.505	0.239	-0.361
-608.201	-20.616	-0.629	-0.389
-607.186	-87.675	-0.741	-0.225
-606.171	31.447	0.801	-0.692
-605.157	-96.893	0.364	0.096
-604.142	58.836	0.314	0.310
-603.128	74.177	-0.055	-0.058
-602.113	-200.000	0.087	-0.403
-601.098	161.985	0.586	0.826
-600.084	72.506	-0.020	0.021
-599.069	800.000	-0.290	0.822
-598.055	24.548	0.453	0.377
-597.040	226.339	0.177	-0.290
-596.025	425.491	0.240	0.520
-595.011	95.908	-0.822	0.944
-593.996	-200.000	-0.039	-0.429
-592.982	15.678	0.178	-0.140
-591.967	-117.030	0.870	0.160
-590.952	54.101	0.346	-0.335
-589.938	296.561	-0.348	0.641
-588.923	317.982	0.253	0.480
-587.909	-166.199	0.858	0.036
-586.894	243.009	0.044	-0.073
-585.879	800.000	-0.219	0.948
-584.865	127.295	-0.406	0.517
-583.850	-133.150	0.289	0.037
-582.836	258.993	-0.452	0.783
-581.821	176.516	-0.518	-0.756
-580.806	151.028	-0.242	-0.331
-579.792	-49.495	-0.400	-0.191
-578.777	-200.000	-0.037	0.354
-577.763	-42.254	-0.625	-0.321
-576.748	-200.000	-0.019	-0.102
-575.733	-125.453	0.796	0.122
-574.719	800.000	0.119	0.370
-573.704	-52.652	0.753	-0.349
-572.690	-57.624	-0.650	-0.286
-571.675	53.548	-0.533	-0.513
-570.661	725.480	0.041	-0.110
-569.646	99.578	0.649	-0.754
-568.631	-89.190	-0.478	0.142
-567.617	-182.562	-0.177	0.003
-566.602	170.432	0.382	0.550
-565.588	-200.000	0.088	-0.536
-564.573	60.771	-0.100	0.100
-563.558	-200.000	0.006	-0.203
-562.544	-200.000	0.721	0.003
-561.529	-5.641	0.474	0.326
-560.515	-70.250	-0.259	-0.099
-559.500	8.879	-1.049	0.795
-558.485	800.000	-0.064	-0.183
-557.471	800.000	-0.126	0.416
-556.456	-144.060	1.113	0.105
-555.442	800.000	0.145	-0.489
-554.427	-200.000	-0.054	0.541
-553.412	179.946	-0.215	-0.316
-552.398	148.960	-0.238	0.323
-551.383	-74.359	0.773	0.280
-550.369	79.728	-0.254	-0.274
-549.354	800.000	0.105	0.314
-548.339	-147.503	0.889	-0.075
-547.325	800.000	0.300	0.958
-546.310	249.451	0.294	0.500
-545.296	-200.000	0.010	-0.167
-544.281	-120.264	0.812	-0.139
-543.266	-67.819	-0.622	0.244
-542.252	652.760	-0.057	-0.146
-541.237	266.915	-0.297	0.521
-540.223	-10.917	0.301	0.199
-539.208	-185.759	-1.175	0.018
-538.193	-200.000	0.100	1.035
-537.179	-178.246	0.383	-0.009
-536.164	-200.000	-0.032	0.471
-535.150	109.008	-0.267	0.321
-534.135	565.366	0.281	0.685
-533.121	-64.781	0.369	0.150
-532.106	-200.000	-0.007	-0.115
-531.091	-146.537	-0.319	0.028
-530.077	800.000	0.242	1.002
-529.062	91.543	0.172	0.193
-528.048	97.957	-0.349	-0.402
-527.033	-200.000	0.015	0.253
-526.018	54.015	-0.270	-0.260
-525.004	654.643	-0.326	0.839
-523.989	-6.915	-0.431	0.293
-522.975	-200.000	-0.055	-0.937
-521.960	-155.308	0.097	0.006
-520.945	-72.346	0.523	0.194
-519.931	800.000	-0.194	0.579
-518.916	272.777	-0.216	-0.382
-517.902	-200.000	0.013	-0.079
-516.887	-108.408	-0.722	-0.156
-515.872	-18.718	-0.214	-0.134
-514.858	-32.413	0.226	-0.127
-513.843	-48.882	0.379	-0.182
-512.829	-177.308	-0.230	-0.006
-511.814	-200.000	0.091	-1.021
-510.799	342.092	-0.465	-0.911
-509.785	159.568	-0.112	0.156
-508.770	800.000	0.187	0.557
-507.756	77.143	-0.243	-0.259
-506.741	-17.294	-0.550	-0.347
-505.726	26.673	-0.216	-0.181
-504.712	800.000	0.229	-0.728
-503.697	91.948	-0.413	-0.466
-502.683	132.810	0.162	-0.209
-501.668	-119.758	-0.277	0.048
-500.653	-125.382	0.878	-0.134
-499.639	-200.000	-0.028	0.370
-498.624	800.000	0.277	-0.773
-497.610	88.634	0.524	-0.583
-496.595	14.768	-0.893	-0.699
-495.581	-200.000	0.332	0.000
-494.566	27.033	0.506	0.425
-493.551	800.000	-0.209	-0.605
-492.537	-136.735	0.645	-0.074
-491.522	-65.538	0.766	-0.308
-490.508	205.750	-0.118	-0.184
-489.493	-64.262	0.319	0.130
-488.478	800.000	0.308	1.048
-487.464	-200.000	-0.025	0.275
-486.449	85.158	0.336	0.369
-485.435	30.285	-0.096	-0.082
-484.420	-40.580	-0.457	-0.238
-483.405	-200.000	-0.011	0.104
-482.391	17.720	-0.396	-0.316
-481.376	-51.299	-0.560	0.263
-480.362	-17.059	-0.338	-0.214
-479.347	800.000	-0.055	-0.164
-478.332	-200.000	0.153	0.707
-477.318	-17.096	0.437	0.276
-476.303	800.000	-0.149	0.594
-475.289	715.087	0.108	0.286
-474.274	-138.242	-0.231	-0.026
-473.259	800.000	0.012	0.038
-472.245	-63.679	0.383	-0.157
-471.230	49.494	0.189	-0.178
-470.216	-174.232	-0.383	0.011
-469.201	-200.000	-0.005	0.305
-468.186	-200.000	-0.028	0.525
-467.172	-54.555	0.912	0.413
-466.157	-57.054	0.087	-0.038
-465.143	-0.646	-0.609	-0.432
-464.128	21.269	0.616	-0.500
-463.113	-103.457	0.367	0.086
-462.099	800.000	-0.312	0.997
-461.084	-53.834	0.226	0.103
-460.070	-21.787	0.166	-0.101
-459.055	104.826	-0.170	-0.200
-458.040	-143.832	0.344	-0.033
-457.026	281.687	0.191	0.343
-456.011	800.000	0.053	-0.201
-454.997	532.492	0.040	-0.096
-453.982	-157.052	0.460	0.028
-452.968	-107.294	-0.746	-0.164
-451.953	-11.243	0.140	0.092
-450.938	64.972	0.609	-0.615
-449.924	109.091	0.222	0.265
-448.909	-200.000	0.041	-0.511
-447.895	1.067	0.361	0.259
-446.880	-115.776	-0.120	-0.022
-445.865	800.000	0.263	0.802
-444.851	21.951	0.292	-0.238
-443.836	31.340	-0.272	0.234
-442.822	370.621	0.240	-0.486
-441.807	26.328	-0.415	-0.347
-440.792	-20.186	0.394	0.243
-439.778	-52.542	0.723	0.334
-438.763	193.529	-0.429	0.649
-437.749	-150.562	-0.406	0.031
-436.734	84.425	0.131	-0.143
-435.719	219.039	-0.492	-0.786
-434.705	-88.951	1.094	0.324
-433.690	-200.000	-0.084	-0.501
-432.676	-200.000	-0.043	-0.733
-431.661	275.971	-0.318	-0.564
-430.646	-8.485	0.517	0.347
-429.632	46.817	-0.425	0.395
-428.617	320.772	0.304	0.576
-427.603	454.387	-0.169	0.373
-426.588	68.349	-0.112	-0.115
-425.573	-200.000	-0.035	-0.574
-424.559	-200.000	-0.090	-0.433
-423.544	-175.687	0.134	0.004
-422.530	-200.000	0.127	-0.920
-421.515	800.000	0.038	-0.119
-420.500	-197.389	-1.236	-0.008
-419.486	119.425	0.676	0.835
-418.471	800.000	-0.152	0.440
-417.457	-200.000	-0.118	0.572
-416.442	800.000	-0.145	0.496
-415.428	27.664	0.281	0.236
-414.413	-129.228	-0.418	0.058
-413.398	800.000	-0.248	-0.951
-412.384	300.872	-0.319	0.588
-411.369	132.370	0.172	-0.221
-410.355	-31.166	0.734	-0.413
-409.340	498.759	0.327	-0.753
-408.325	-94.395	0.651	0.177
-407.311	24.039	-0.459	0.378
-406.296	-29.424	-0.493	0.282
-405.282	-102.223	-0.536	0.129
-404.267	23.889	0.238	0.196
-403.252	-119.587	0.827	0.143
-402.238	-200.000	-0.064	0.562
-401.223	214.157	0.063	-0.100
-400.209	24.862	0.845	-0.699
-399.194	800.000	-0.265	-0.949
-398.179	-200.000	0.140	-0.751
-397.165	5.465	1.185	0.873
-396.150	-134.851	0.455	0.055
-395.136	407.990	-0.284	0.599
-394.121	-200.000	-0.209	-0.938
-393.106	-159.197	0.427	0.024
-392.092	800.000	0.107	-0.297
-391.077	-200.000	0.014	-0.368
-390.063	-200.000	0.055	-0.433
-389.048	-32.767	0.725	0.402
-388.033	-14.313	0.226	0.145
-387.019	-104.200	1.144	0.265
-386.004	301.885	0.407	0.750
-384.990	-180.762	-0.881	-0.018
-383.975	187.234	-0.085	0.127
-382.960	110.482	0.173	0.208
-381.946	59.251	-0.116	0.114
-380.931	22.042	-0.591	-0.481
-379.917	-200.000	-0.005	0.127
-378.902	194.509	-0.192	0.290
-377.888	391.530	-0.029	-0.061
-376.873	800.000	-0.090	-0.254
-375.858	-80.655	-0.953	0.316
-374.844	-177.588	1.193	-0.029
-373.829	362.356	0.150	-0.300
-372.815	274.161	0.409	0.721
-371.800	9.964	-0.714	-0.540
-370.785	-200.000	0.044	0.950
-369.771	24.881	-0.323	-0.267
-368.756	11.236	-0.584	-0.446
-367.742	-200.000	-0.126	-0.562
-366.727	-105.293	-0.459	0.104
-365.712	-103.565	-0.329	0.077
-364.698	-116.558	-0.646	0.119
-363.683	-154.131	-0.599	0.040
-362.669	-19.957	-0.463	-0.285
-361.654	282.872	-0.038	-0.069
-360.639	285.037	-0.250	-0.450
-359.625	-200.000	0.029	-0.834
-358.610	-38.381	0.335	0.177
-357.596	-27.758	0.285	0.165
-356.581	75.939	0.050	-0.052
-355.566	-200.000	0.093	0.470
-354.552	-94.076	0.788	-0.215
-353.537	800.000	-0.201	-0.829
-352.523	218.781	-0.170	-0.270
-351.508	555.650	-0.259	0.622
-350.493	89.131	-0.413	0.458
-349.479	-200.000	0.069	0.391
-348.464	-99.420	0.642	0.161
-347.450	-48.311	-1.010	0.485
-346.435	74.916	-0.243	0.255
-345.420	9.740	-0.171	-0.129
-344.406	559.794	-0.309	-0.742
-343.391	512.990	0.166	0.385
-342.377	800.000	0.239	0.756
-341.362	-126.708	-0.150	-0.022
-340.348	322.692	0.332	0.630
-339.333	-103.078	0.454	-0.107
-338.318	-200.000	0.002	0.398
-337.304	-91.569	0.840	0.238
-336.289	243.848	0.464	-0.775
-335.275	-42.506	-0.329	0.167
-334.260	126.936	-0.148	0.186
-333.245	377.358	-0.181	0.368
-332.231	800.000	0.310	-1.040
-331.216	-123.235	0.648	-0.103
-330.202	-5.780	-0.575	0.392
-329.187	536.166	0.141	0.333
-328.172	-200.000	-0.063	-0.621
-327.158	62.584	0.564	-0.561
-326.143	800.000	-0.214	-0.671
-325.129	376.430	0.100	-0.203
-324.114	800.000	0.161	-0.698
-323.099	-13.590	-0.674	0.434
-322.085	-94.926	-0.172	-0.046
-321.070	126.225	0.089	0.112
-320.056	579.186	0.384	0.935
-319.041	-200.000	-0.008	0.108
-318.026	-141.184	0.555	0.056
-317.012	-200.000	0.050	-0.558
-315.997	50.029	-0.377	-0.354
-314.983	800.000	-0.057	0.163
-313.968	-1.487	-0.384	0.269
-312.953	-183.063	-0.676	-0.012
-311.939	-4.642	0.513	0.352
-310.924	606.130	-0.211	-0.522
-309.910	-200.000	0.149	-1.391
-308.895	-89.968	-0.161	-0.047
-307.880	578.749	-0.257	0.625
-306.866	-31.173	-0.293	-0.164
-305.851	-19.204	0.896	-0.553
-304.837	-123.621	-0.194	-0.031
-303.822	76.111	-0.370	0.389
-302.807	-200.000	-0.051	0.360
-301.793	-149.353	-1.044	0.083
-300.778	-75.965	0.599	0.211
-299.764	86.883	0.255	0.280
-298.749	638.440	0.355	-0.897
-297.735	6.188	-0.307	-0.226
-296.720	428.024	0.349	0.749
-295.705	-104.226	-0.384	-0.089
-294.691	13.873	0.853	-0.659
-293.676	263.792	-0.274	-0.474
-292.662	-138.478	-0.751	0.082
-291.647	-163.296	1.250	0.059
-290.632	207.511	-0.295	-0.457
-289.618	-200.000	-0.114	-0.661
-288.603	164.893	0.478	0.671
-287.589	-99.540	0.691	-0.173
-286.574	46.106	-0.159	-0.147
-285.559	4.228	-0.348	0.253
-284.545	269.265	0.536	0.935
-283.530	-200.000	-0.076	0.667
-282.516	-54.666	-0.346	0.155
-281.501	-200.000	0.059	-0.589
-280.486	97.352	0.515	0.587
-279.472	72.876	-0.348	0.361
-278.457	202.512	-0.081	-0.124
-277.443	475.411	0.110	-0.247
-276.428	172.858	-0.375	-0.537
-275.413	66.353	0.074	0.075
-274.399	7.384	-0.161	-0.119
-273.384	106.249	-0.625	-0.736
-272.370	800.000	-0.219	0.741
-271.355	94.019	0.567	-0.639
-270.340	150.895	-0.232	0.314
-269.326	800.000	0.066	-0.223
-268.311	-90.483	-1.120	0.322
-267.297	-200.000	-0.043	0.502
-266.282	-17.845	0.619	0.385
-265.267	-64.464	0.268	0.108
-264.253	-165.851	0.908	-0.039
-263.238	-86.334	-0.510	0.156
-262.224	-154.190	0.419	0.028
-261.209	42.225	0.591	-0.533
-260.195	124.762	0.210	0.262
-259.180	66.268	0.197	-0.199
-258.165	38.745	-0.500	-0.443
-257.151	-200.000	0.113	-0.501
-256.136	-200.000	-0.002	-0.191
-255.122	411.518	-0.377	0.794
-254.107	44.891	-0.258	0.236
-253.092	-150.509	-0.853	-0.065
-252.078	800.000	-0.083	-0.280
-251.063	-86.662	-0.811	-0.246
-250.049	109.198	0.249	0.295
-249.034	209.000	0.030	0.046
-248.019	488.736	-0.282	-0.639
-247.005	0.303	-0.415	-0.294
-245.990	-200.000	-0.248	1.114
-244.976	244.295	-0.201	0.335
-243.961	800.000	0.118	-0.393
-242.946	-200.000	-0.153	0.674
-241.932	-114.267	0.263	-0.050
-240.917	35.434	0.651	0.567
-239.903	26.597	0.559	-0.464
-238.888	331.804	0.141	-0.270
-237.873	-142.635	-0.390	0.038
-236.859	-171.029	-0.725	-0.024
-235.844	-104.221	0.750	-0.173
-234.830	354.966	0.275	0.543
-233.815	-16.254	-0.300	0.189
-232.800	800.000	-0.017	-0.057
-231.786	-34.108	-0.480	-0.262
-230.771	-62.333	0.712	0.294
-229.757	260.842	0.257	-0.441
-228.742	127.129	-0.700	-0.881
-227.727	15.708	-0.806	-0.628
-226.713	-65.135	-0.216	0.086
-225.698	234.641	0.130	0.212
-224.684	10.836	-0.052	0.039
-223.669	-200.000	-0.051	0.526
-222.655	192.066	-0.222	-0.332
-221.640	263.567	-0.631	-1.087
-220.625	-171.439	-0.488	0.016
-219.611	-200.000	0.218	1.114
-218.596	260.542	0.525	0.900
-217.582	800.000	-0.197	-0.573
-216.567	-200.000	0.115	-0.614
-215.552	-162.471	-0.326	0.016
-214.538	386.978	-0.032	0.065
-213.523	500.419	-0.358	-0.818
-212.509	-65.070	-0.611	-0.244
-211.494	128.598	-0.189	0.238
-210.479	-93.837	0.428	-0.117
-209.465	-53.062	-0.201	-0.092
-208.450	200.957	0.315	0.481
-207.436	-200.000	0.357	0.000
-206.421	32.570	0.793	-0.679
-205.406	-200.000	-0.064	0.386
-204.392	212.394	-0.274	0.428
-203.377	-200.000	0.110	0.561
-202.363	-84.541	-0.541	0.169
-201.348	182.654	-0.118	0.172
-200.333	77.135	0.308	-0.324
-199.319	-109.615	-0.552	0.115
-198.304	-200.000	-0.427	-0.002
-197.290	-134.906	0.334	0.040
-196.275	129.054	-0.197	0.249
-195.260	58.894	0.195	-0.190
-194.246	-37.878	0.403	-0.212
-193.231	217.586	0.223	-0.351
-192.217	-200.000	-0.134	0.628
-191.202	591.254	0.215	-0.524
-190.187	-200.000	-0.181	-0.789
-189.173	75.301	0.010	-0.010
-188.158	-98.462	0.871	-0.220
-187.144	-90.443	0.464	0.133
-186.129	-200.000	-0.044	0.204
-185.114	148.248	0.390	-0.521
-184.100	-49.407	-0.518	-0.244
-183.085	800.000	-0.117	-0.501
-182.071	-200.000	0.160	-1.100
-181.056	203.959	-0.408	0.625
-180.042	161.085	0.280	0.388
-179.027	800.000	0.160	0.502
-178.012	386.821	-0.237	0.485
-176.998	-136.579	0.817	-0.094
-175.983	-111.744	-1.068	0.214
-174.969	800.000	0.043	-0.137
-173.954	-154.469	1.108	-0.073
-172.939	-1.622	0.402	0.280
-171.925	668.506	0.087	-0.221
-170.910	800.000	0.214	-0.659
-169.896	64.837	0.300	-0.299
-168.881	800.000	-0.047	0.195
-167.866	800.000	-0.207	0.858
-166.852	800.000	0.138	0.515
-165.837	-2.485	-0.324	-0.225
-164.823	-200.000	-0.065	0.323
-163.808	43.007	0.181	0.164
-162.793	800.000	0.097	-0.292
-161.779	-52.085	0.456	-0.209
-160.764	227.825	0.333	-0.536
-159.750	78.718	-1.124	1.188
-158.735	-176.473	-0.298	-0.008
-157.720	144.851	0.191	0.253
-156.706	-28.353	-0.624	-0.356
-155.691	375.303	-0.386	-0.777
-154.677	-160.198	0.375	0.020
-153.662	294.392	-0.207	0.374
-152.647	64.569	0.416	0.415
-151.633	-121.655	-0.239	0.039
-150.618	79.647	-0.417	-0.442
-149.604	64.154	0.139	0.139
-148.589	223.708	-0.132	-0.211
-147.574	20.283	-0.507	0.404
-146.560	-12.001	0.925	0.599
-145.545	146.701	-0.273	0.363
-144.531	110.419	-0.580	-0.688
-143.516	-51.797	0.558	0.257
-142.502	109.061	-0.253	-0.299
-141.487	-125.679	-0.174	-0.026
-140.472	505.421	0.287	-0.656
-139.458	-200.000	-0.054	0.345
-138.443	-106.120	-0.683	0.152
-137.429	-138.841	-0.479	-0.052
-136.414	-32.894	-0.235	0.129
-135.399	210.817	-0.171	-0.265
-134.385	-200.000	-0.016	-0.343
-133.370	-200.000	0.628	-0.001
-132.356	524.684	0.239	-0.554
-131.341	47.894	-0.322	0.297
-130.326	-107.079	0.334	-0.073
-129.312	25.446	0.786	0.645
-128.297	-200.000	-0.107	0.621
-127.283	-87.357	0.149	0.045
-126.268	-200.000	-0.210	0.986
-125.253	-200.000	-0.035	0.550
-124.239	-86.907	-0.271	0.082
-123.224	-107.144	0.407	0.089
-122.210	-43.934	0.234	-0.116
-121.195	131.618	-0.354	-0.449
