DTS Sentinel unit serial number:	SN413079Multiplexer serial number:	ORYXHardware model number:	OX4-SRSoftware version number:	ORYX F/W v4.00 Oryx Data Collector v3.7.2.0data status	okinstallation	princeton_trtdifferential loss correction	single-endedforward channel	channel 3reverse channel	N/Adate	2019/09/12time	15:34:11forward acquisition time	60.00reverse acquisition time	0.00gamma	496.2192k internal	0.2293k external	0.2293temperature offset calibration	1.0065default loss term (dB/km)	0.3790temperature slope calibration	1.0000multiplexer offset coefficient	1.0000multiplexer slope coefficient	1.0000fibre end	0.00T internal ref (°C)	40.44T ext. ref 1 (°C)	2.42T ext. ref 2 (°C)	33.50length (m)	temperature (°C)	Stokes	anti-Stokes-747.200	-21.534	0.270	-0.168
-746.185	162.396	-0.118	0.169
-745.171	252.633	-0.256	-0.446
-744.156	137.017	-0.080	-0.107
-743.142	-114.748	-0.134	0.026
-742.127	435.354	-0.090	-0.199
-741.112	202.697	-0.092	0.145
-740.098	294.130	0.026	-0.049
-739.083	-121.840	0.313	-0.053
-738.069	-168.244	0.192	-0.008
-737.054	-98.699	-0.026	0.007
-736.039	800.000	-0.048	0.156
-735.025	548.467	0.151	0.369
-734.010	-200.000	-0.097	-0.485
-732.996	-66.218	0.131	-0.054
-731.981	11.288	-0.190	0.149
-730.966	800.000	-0.047	0.142
-729.952	489.351	-0.141	0.331
-728.937	10.480	-0.334	-0.260
-727.923	185.291	-0.179	-0.272
-726.908	-200.000	0.005	0.251
-725.894	-177.896	0.274	-0.007
-724.879	-50.648	0.266	-0.128
-723.864	77.985	0.113	0.123
-722.850	-114.921	0.137	0.027
-721.835	-21.106	-0.275	0.172
-720.821	-138.103	0.234	-0.027
-719.806	800.000	0.055	0.242
-718.791	273.578	-0.103	-0.185
-717.777	155.383	-0.109	-0.153
-716.762	50.040	-0.297	0.286
-715.748	-200.000	0.014	0.187
-714.733	766.363	-0.081	0.226
-713.718	-142.523	-0.098	-0.010
-712.704	-200.000	-0.013	-0.111
-711.689	-97.323	0.249	-0.066
-710.675	-197.266	-0.345	-0.002
-709.660	-156.082	0.218	0.014
-708.645	-200.000	0.026	0.373
-707.631	-200.000	-0.000	0.099
-706.616	-200.000	0.025	-0.212
-705.602	-28.567	-0.144	-0.085
-704.587	517.583	-0.045	-0.107
-703.572	539.891	0.064	-0.155
-702.558	-200.000	-0.024	-0.264
-701.543	-200.000	0.007	-0.081
-700.529	-200.000	-0.008	0.115
-699.514	800.000	0.099	-0.370
-698.499	-121.687	0.284	-0.048
-697.485	-200.000	-0.016	-0.135
-696.470	800.000	-0.048	0.164
-695.456	-61.675	0.222	0.095
-694.441	-126.481	-0.133	0.020
-693.426	212.741	-0.135	-0.218
-692.412	-7.525	-0.215	-0.148
-691.397	-171.291	0.321	-0.011
-690.383	-35.498	0.125	-0.069
-689.368	-121.681	-0.289	-0.049
-688.354	-103.591	0.162	-0.039
-687.339	-200.000	-0.014	0.157
-686.324	93.197	-0.112	0.129
-685.310	60.623	0.154	0.155
-684.295	-36.361	-0.228	-0.125
-683.281	-200.000	0.035	-0.161
-682.266	-66.061	0.261	-0.106
-681.251	279.566	0.132	-0.241
-680.237	9.768	0.142	-0.110
-679.222	260.836	0.162	-0.287
-678.208	263.201	-0.099	-0.175
-677.193	-75.572	-0.303	0.110
-676.178	-37.105	-0.102	-0.056
-675.164	-135.279	0.122	-0.015
-674.149	237.811	0.095	0.161
-673.135	404.798	-0.027	-0.059
-672.120	139.492	-0.124	-0.167
-671.105	-200.000	-0.004	0.118
-670.091	46.242	0.188	0.178
-669.076	-116.487	-0.113	0.021
-668.062	-137.180	0.258	0.030
-667.047	800.000	-0.113	0.449
-666.032	50.916	-0.103	0.100
-665.018	143.212	0.102	0.138
-664.003	-22.826	0.252	-0.155
-662.989	800.000	0.041	-0.168
-661.974	-1.050	-0.261	-0.188
-660.959	306.739	-0.068	-0.129
-659.945	-165.493	-0.140	0.006
-658.930	628.906	-0.119	-0.306
-657.916	800.000	0.008	-0.028
-656.901	-131.875	0.476	-0.063
-655.886	-200.000	0.002	-0.386
-654.872	-200.000	-0.094	-0.445
-653.857	155.708	-0.033	-0.047
-652.843	123.958	0.064	-0.082
-651.828	-1.847	-0.073	0.052
-650.814	-88.294	-0.172	-0.052
-649.799	800.000	0.045	-0.163
-648.784	12.679	0.369	-0.290
-647.770	21.329	0.233	0.193
-646.755	-200.000	0.007	-0.253
-645.741	404.949	-0.064	-0.136
-644.726	147.607	0.160	-0.220
-643.711	44.317	-0.040	-0.037
-642.697	229.515	0.060	0.099
-641.682	19.962	0.098	0.080
-640.668	-200.000	0.049	0.285
-639.653	-200.000	0.002	-0.015
-638.638	13.768	0.124	-0.098
-637.624	153.807	0.158	0.220
-636.609	176.782	0.248	-0.367
-635.595	800.000	-0.118	-0.430
-634.580	800.000	0.049	0.149
-633.565	-92.461	0.173	-0.050
-632.551	218.465	-0.079	-0.128
-631.536	-191.304	0.299	0.003
-630.522	349.251	0.132	0.266
-629.507	-44.832	-0.215	0.109
-628.492	-0.354	-0.299	-0.216
-627.478	-143.731	-0.132	-0.013
-626.463	-57.426	0.165	-0.074
-625.449	211.081	-0.202	-0.324
-624.434	76.668	-0.142	-0.153
-623.419	-24.214	-0.270	0.164
-622.405	158.545	0.168	-0.238
-621.390	-116.716	0.089	0.017
-620.376	-152.672	-0.358	-0.026
-619.361	203.023	-0.089	0.140
-618.346	309.947	-0.094	-0.178
-617.332	135.619	0.118	0.157
-616.317	-10.839	0.141	0.095
-615.303	-115.782	-0.053	-0.010
-614.288	-85.178	-0.058	0.018
-613.273	-38.611	0.127	0.068
-612.259	-5.223	-0.176	-0.123
-611.244	-41.087	-0.279	-0.146
-610.230	-200.000	0.032	0.361
-609.215	-200.000	0.053	0.459
-608.201	228.292	0.101	-0.168
-607.186	207.844	-0.088	-0.139
-606.171	-200.000	0.007	-0.059
-605.157	480.729	0.070	0.161
-604.142	-187.910	0.059	-0.001
-603.128	138.609	-0.099	-0.133
-602.113	-110.430	0.332	-0.070
-601.098	40.091	0.207	0.189
-600.084	-98.193	-0.473	-0.124
-599.069	-200.000	0.047	0.263
-598.055	-165.984	0.351	0.015
-597.040	-19.476	0.026	0.017
-596.025	800.000	0.061	-0.182
-595.011	-200.000	0.053	-0.363
-593.996	607.888	0.089	-0.226
-592.982	-94.816	0.222	0.061
-591.967	800.000	0.084	-0.235
-590.952	230.693	0.145	-0.242
-589.938	-200.000	0.073	-0.522
-588.923	-151.204	-0.152	-0.012
-587.909	-200.000	-0.020	-0.181
-586.894	156.970	-0.196	0.275
-585.879	681.230	0.028	0.075
-584.865	22.005	-0.079	-0.066
-583.850	-200.000	-0.009	-0.138
-582.836	-96.390	-0.087	0.023
-581.821	118.431	0.237	0.297
-580.806	-79.616	-0.092	-0.032
-579.792	65.406	-0.162	0.166
-578.777	187.984	-0.110	-0.167
-577.763	118.075	-0.116	0.145
-576.748	67.815	0.173	-0.180
-575.733	-125.244	-0.186	0.029
-574.719	80.494	-0.097	0.106
-573.704	-200.000	0.003	0.185
-572.690	45.652	-0.100	0.094
-571.675	29.918	-0.133	-0.115
-570.661	-66.465	0.280	-0.113
-569.646	-136.273	-0.063	-0.007
-568.631	-154.192	0.265	0.018
-567.617	28.000	-0.286	-0.245
-566.602	-200.000	0.041	0.216
-565.588	-110.589	0.314	0.066
-564.573	800.000	0.028	-0.105
-563.558	-161.427	0.120	-0.006
-562.544	131.850	-0.091	-0.118
-561.529	-3.334	0.209	0.148
-560.515	-200.000	0.019	0.098
-559.500	-200.000	-0.022	-0.199
-558.485	-200.000	0.001	-0.174
-557.471	73.113	0.316	-0.335
-556.456	213.052	0.091	-0.145
-555.442	800.000	-0.056	0.177
-554.427	800.000	0.014	0.048
-553.412	-108.675	-0.440	-0.096
-552.398	-97.643	0.036	-0.009
-551.383	-129.740	0.189	-0.026
-550.369	-143.833	0.326	-0.031
-549.354	17.303	0.131	-0.106
-548.339	232.061	0.043	-0.072
-547.325	-127.308	-0.152	0.023
-546.310	-1.170	-0.264	-0.189
-545.296	-13.735	-0.254	0.167
-544.281	-142.263	0.352	0.035
-543.266	-118.985	-0.226	-0.040
-542.252	-200.000	0.007	0.108
-541.237	2.835	0.153	0.113
-540.223	800.000	-0.018	0.055
-539.208	-48.309	0.156	-0.076
-538.193	-200.000	0.005	0.163
-537.179	358.281	0.056	-0.113
-536.164	138.766	0.065	0.086
-535.150	-93.110	-0.145	0.041
-534.135	-32.944	0.286	-0.161
-533.121	85.895	-0.174	0.194
-532.106	53.393	-0.131	-0.128
-531.091	-14.903	-0.094	0.061
-530.077	114.311	-0.132	-0.163
-529.062	166.868	-0.117	0.168
-528.048	-200.000	0.005	-0.246
-527.033	579.863	0.160	-0.396
-526.018	-200.000	-0.014	-0.089
-525.004	-138.370	-0.222	-0.025
-523.989	-200.000	0.002	0.153
-522.975	-177.779	0.314	0.008
-521.960	25.150	0.270	-0.227
-520.945	607.659	-0.193	-0.489
-519.931	224.180	0.148	0.242
-518.916	150.195	-0.027	-0.038
-517.902	-37.691	0.277	0.149
-516.887	141.552	-0.158	-0.212
-515.872	800.000	0.089	-0.283
-514.858	-166.447	-0.137	-0.006
-513.843	197.593	-0.074	0.114
-512.829	-62.350	0.049	0.021
-511.814	-150.323	-0.228	0.018
-510.799	-47.117	0.315	0.156
-509.785	17.289	-0.161	0.130
-508.770	-200.000	0.032	-0.210
-507.756	588.269	-0.093	-0.232
-506.741	-153.235	-0.152	0.011
-505.726	-90.438	-0.182	0.053
-504.712	-183.742	0.505	0.009
-503.697	-33.050	-0.125	-0.070
-502.683	-200.000	-0.009	0.214
-501.668	346.386	0.152	-0.302
-500.653	800.000	0.030	-0.107
-499.639	101.004	-0.291	-0.343
-498.624	-200.000	-0.011	-0.113
-497.610	-198.805	0.104	0.001
-496.595	-200.000	-0.005	0.042
-495.581	-60.673	-0.250	-0.107
-494.566	10.232	0.406	-0.313
-493.551	24.228	-0.223	0.186
-492.537	620.568	-0.076	0.194
-491.522	-94.147	-0.341	-0.095
-490.508	800.000	0.136	0.406
-489.493	-30.567	-0.133	0.076
-488.478	-118.298	-0.284	-0.051
-487.464	800.000	0.074	0.250
-486.449	24.164	-0.157	0.131
-485.435	29.197	-0.028	-0.024
-484.420	800.000	0.064	-0.191
-483.405	64.693	-0.129	0.132
-482.391	-72.113	-0.371	-0.139
-481.376	-200.000	0.055	0.272
-480.362	112.748	-0.126	0.154
-479.347	638.319	-0.037	-0.094
-478.332	32.240	0.032	0.028
-477.318	-80.275	0.120	-0.040
-476.303	238.903	-0.043	0.073
-475.289	588.848	-0.174	0.434
-474.274	-83.147	0.188	-0.061
-473.259	294.190	-0.017	-0.032
-472.245	44.166	-0.162	-0.151
-471.230	-87.157	0.163	-0.050
-470.216	-123.407	0.262	0.042
-469.201	-112.928	-0.288	0.058
-468.186	682.764	-0.107	0.282
-467.172	121.818	-0.105	0.133
-466.157	-68.309	0.296	-0.116
-465.143	675.695	0.099	-0.261
-464.128	-95.996	-0.142	0.038
-463.113	-10.638	-0.216	-0.145
-462.099	153.782	-0.201	0.279
-461.084	-9.332	-0.247	-0.167
-460.070	800.000	0.096	-0.407
-459.055	-25.518	0.292	0.175
-458.040	556.676	-0.108	0.264
-457.026	-125.220	0.509	0.079
-456.011	-87.126	0.191	0.059
-454.997	-63.814	0.240	-0.100
-453.982	179.248	-0.040	0.059
-452.968	455.390	-0.131	0.294
-451.953	-200.000	-0.040	0.209
-450.938	800.000	0.037	-0.106
-449.924	185.204	-0.218	-0.327
-448.909	132.999	-0.188	0.245
-447.895	80.107	0.202	-0.220
-446.880	610.317	-0.091	-0.229
-445.865	-29.338	-0.294	0.170
-444.851	-200.000	-0.003	0.109
-443.836	-200.000	0.012	0.247
-442.822	-4.176	0.189	0.132
-441.807	-92.262	0.406	0.116
-440.792	-66.680	0.201	-0.080
-439.778	182.102	-0.190	-0.282
-438.763	-85.243	-0.255	0.081
-437.749	-32.918	0.021	-0.012
-436.734	115.757	0.081	-0.100
-435.719	-105.381	-0.026	0.006
-434.705	457.511	-0.056	-0.125
-433.690	13.931	-0.021	-0.017
-432.676	800.000	-0.035	-0.125
-431.661	-65.655	-0.216	0.087
-430.646	184.466	0.042	-0.063
-429.632	-200.000	0.008	-0.191
-428.617	800.000	0.039	0.147
-427.603	800.000	-0.076	0.216
-426.588	38.698	0.139	-0.126
-425.573	-105.692	-0.053	-0.012
-424.559	800.000	-0.060	0.226
-423.544	-54.295	0.332	0.152
-422.530	-200.000	0.152	0.703
-421.515	471.074	0.047	-0.108
-420.500	433.480	0.064	-0.140
-419.486	-84.508	0.072	0.023
-418.471	-200.000	0.013	-0.095
-417.457	800.000	0.024	0.103
-416.442	-96.229	0.162	-0.043
-415.428	-118.898	-0.101	-0.018
-414.413	168.234	0.173	-0.249
-413.398	-39.740	-0.079	0.042
-412.384	20.191	0.154	-0.125
-411.369	412.401	-0.121	0.259
-410.355	-4.609	-0.092	-0.064
-409.340	-160.793	-0.464	-0.025
-408.325	303.342	0.182	-0.341
-407.311	800.000	0.098	-0.344
-406.296	-122.503	0.294	0.048
-405.282	-200.000	0.034	-0.395
-404.267	-135.869	0.063	0.008
-403.252	-200.000	0.019	0.115
-402.238	-52.830	-0.319	-0.148
-401.223	-71.056	-0.177	-0.067
-400.209	21.063	0.038	0.031
-399.194	347.222	0.059	-0.118
-398.179	58.160	-0.179	0.177
-397.165	-134.026	-0.131	-0.016
-396.150	800.000	-0.041	-0.143
-395.136	9.123	0.208	-0.158
-394.121	-200.000	0.072	-0.354
-393.106	-200.000	0.007	-0.079
-392.092	18.721	-0.166	-0.134
-391.077	57.957	0.282	0.279
-390.063	-143.916	0.204	0.019
-389.048	517.734	0.060	0.142
-388.033	206.013	0.059	-0.093
-387.019	-66.019	0.168	0.068
-386.004	-61.972	-0.263	-0.111
-384.990	-200.000	-0.035	-0.202
-383.975	44.243	0.007	-0.007
-382.960	-79.956	0.280	-0.095
-381.946	-54.813	-0.179	-0.082
-380.931	74.190	-0.125	-0.132
-379.917	-200.000	-0.002	0.221
-378.902	800.000	0.046	0.161
-377.888	62.405	0.073	-0.074
-376.873	183.366	-0.117	0.175
-375.858	27.279	-0.077	-0.065
-374.844	108.133	0.094	-0.113
-373.829	-54.451	0.051	-0.023
-372.815	-103.537	0.434	-0.103
-371.800	120.923	-0.317	0.398
-370.785	733.034	-0.029	0.078
-369.771	-200.000	0.048	-0.271
-368.756	22.594	0.169	0.139
-367.742	-164.226	-0.227	0.011
-366.727	800.000	-0.100	0.328
-365.712	-117.742	-0.098	-0.018
-364.698	119.453	-0.097	0.121
-363.683	-153.389	-0.136	-0.010
-362.669	-6.955	-0.192	0.132
-361.654	-162.875	0.087	0.004
-360.639	800.000	-0.030	0.091
-359.625	-191.184	-0.301	-0.003
-358.610	-200.000	0.061	0.528
-357.596	-143.901	-0.312	0.030
-356.581	-200.000	-0.006	0.222
-355.566	-200.000	-0.009	0.139
-354.552	231.872	0.191	0.315
-353.537	-112.651	0.281	-0.056
-352.523	-89.741	-0.204	0.060
-351.508	-75.663	-0.268	0.096
-350.493	-143.172	0.113	0.011
-349.479	-60.631	-0.043	-0.018
-348.464	226.660	-0.095	0.156
-347.450	-200.000	-0.003	0.042
-346.435	49.005	-0.134	0.127
-345.420	127.687	0.134	-0.172
-344.406	136.507	-0.090	0.118
-343.391	-29.626	-0.175	-0.100
-342.377	-200.000	0.059	-0.447
-341.362	-43.877	0.118	-0.060
-340.348	-200.000	0.013	-0.171
-339.333	-102.215	-0.316	-0.077
-338.318	80.455	-0.161	-0.175
-337.304	-200.000	-0.034	0.184
-336.289	648.250	-0.096	0.248
-335.275	35.617	-0.104	-0.092
-334.260	201.399	-0.219	0.339
-333.245	-200.000	0.012	-0.134
-332.231	800.000	0.098	0.341
-331.216	-35.516	0.032	0.018
-330.202	-149.060	0.317	0.026
-329.187	128.847	-0.300	-0.385
-328.172	-200.000	-0.047	-0.296
-327.158	800.000	-0.028	-0.098
-326.143	-69.383	-0.033	-0.013
-325.129	27.169	0.093	-0.079
-324.114	-149.864	-0.307	-0.024
-323.099	800.000	0.071	0.284
-322.085	142.131	0.091	0.121
-321.070	-120.659	-0.202	0.034
-320.056	1.416	-0.179	-0.129
-319.041	57.244	0.110	-0.108
-318.026	283.985	0.065	-0.117
-317.012	800.000	-0.066	0.196
-315.997	13.725	-0.129	-0.101
-314.983	-73.725	0.210	0.077
-313.968	48.803	0.151	0.143
-312.953	40.671	-0.069	0.063
-311.939	-112.798	-0.233	0.047
-310.924	151.055	-0.047	-0.064
-309.910	-101.264	-0.109	-0.027
-308.895	-172.351	0.162	-0.005
-307.880	-71.074	-0.195	0.074
-306.866	-200.000	0.042	-0.218
-305.851	-31.849	-0.228	0.129
-304.837	-200.000	0.022	-0.313
-303.822	-200.000	0.012	0.220
-302.807	-200.000	0.034	-0.333
-301.793	-200.000	0.015	-0.235
-300.778	800.000	-0.004	0.012
-299.764	114.735	0.109	-0.134
-298.749	-200.000	-0.006	-0.081
-297.735	-131.218	-0.140	0.019
-296.720	-96.742	0.193	0.051
-295.705	164.403	0.160	-0.226
-294.691	62.523	-0.125	0.125
-293.676	53.934	-0.137	-0.133
-292.662	-56.269	-0.365	0.163
-291.647	62.629	0.164	-0.165
-290.632	21.288	0.131	0.107
-289.618	254.587	-0.083	-0.143
-288.603	800.000	0.076	0.330
-287.589	41.784	-0.172	-0.157
-286.574	638.633	-0.040	-0.101
-285.559	-200.000	0.049	0.217
-284.545	-90.298	0.248	-0.072
-283.530	162.776	0.104	-0.147
-282.516	88.133	0.090	0.100
-281.501	92.535	0.255	0.288
-280.486	-82.506	-0.216	-0.070
-279.472	-200.000	-0.009	-0.366
-278.457	121.602	0.028	0.036
-277.443	-74.280	0.160	0.058
-276.428	308.603	0.109	0.204
-275.413	152.127	0.089	-0.121
-274.399	12.441	0.248	-0.192
-273.384	68.187	0.142	-0.146
-272.370	-200.000	0.045	0.403
-271.355	-25.842	-0.216	-0.128
-270.340	209.642	-0.127	0.199
-269.326	255.249	-0.021	0.035
-268.311	800.000	0.045	-0.136
-267.297	-116.096	-0.229	-0.043
-266.282	-145.438	0.034	0.003
-265.267	-34.235	0.218	0.120
-264.253	-200.000	0.036	-0.223
-263.238	-200.000	0.017	0.185
-262.224	800.000	-0.067	-0.262
-261.209	-33.618	-0.171	0.095
-260.195	-200.000	0.002	-0.032
-259.180	384.756	-0.064	-0.133
-258.165	-64.846	0.181	0.074
-257.151	220.918	0.072	0.116
-256.136	19.429	-0.154	-0.124
-255.122	-101.194	-0.095	-0.023
-254.107	-135.639	0.098	0.012
-253.092	508.290	-0.181	0.421
-252.078	-9.860	-0.140	0.094
-251.063	271.265	0.188	0.333
-250.049	4.730	0.052	0.039
-249.034	-53.020	0.124	0.057
-248.019	-200.000	0.006	-0.313
-247.005	-200.000	-0.006	0.156
-245.990	-157.301	-0.081	-0.005
-244.976	-54.735	-0.080	0.036
-243.961	-120.239	0.194	0.033
-242.946	472.931	0.108	-0.245
-241.932	-200.000	-0.003	0.040
-240.917	717.121	-0.110	0.292
-239.903	-73.853	0.048	0.017
-238.888	-74.034	0.124	0.045
-237.873	-104.414	0.367	0.085
-236.859	79.229	0.297	0.319
-235.844	-120.542	0.115	0.020
-234.830	-200.000	0.011	0.217
-233.815	156.488	-0.081	-0.113
-232.800	18.300	0.028	-0.023
-231.786	-100.563	0.207	-0.051
-230.771	800.000	0.062	-0.179
-229.757	87.245	-0.217	0.240
-228.742	197.505	0.107	0.163
-227.727	-131.379	0.489	0.065
-226.713	-200.000	-0.003	-0.098
-225.698	50.115	-0.108	-0.103
-224.684	652.194	0.152	-0.391
-223.669	121.050	0.051	-0.063
-222.655	99.245	-0.067	-0.077
-221.640	25.491	0.027	-0.023
-220.625	-61.123	-0.222	0.094
-219.611	23.223	0.026	-0.021
-218.596	63.077	-0.100	-0.100
-217.582	0.448	0.162	0.116
-216.567	-200.000	0.010	-0.349
-215.552	149.909	0.059	0.081
-214.538	376.915	0.054	-0.111
-213.523	28.677	-0.192	0.163
-212.509	145.120	0.158	0.212
-211.494	75.120	0.123	-0.130
-210.479	89.870	0.117	0.131
-209.465	-200.000	-0.019	0.196
-208.450	569.360	0.013	-0.032
-207.436	-31.424	-0.201	-0.113
-206.421	-168.634	-0.309	-0.012
-205.406	-94.386	-0.365	0.100
-204.392	-138.717	-0.290	0.032
-203.377	-142.408	-0.275	-0.027
-202.363	-146.154	-0.082	0.007
-201.348	39.359	0.155	0.139
-200.333	110.629	0.121	-0.145
-199.319	-200.000	0.032	0.202
-198.304	97.513	-0.194	0.224
-197.290	306.120	0.089	-0.165
-196.275	299.194	0.039	0.073
-195.260	-200.000	-0.004	0.116
-194.246	-200.000	0.028	0.212
-193.231	-200.000	0.008	-0.050
-192.217	800.000	-0.067	-0.225
-191.202	-7.509	-0.079	0.053
-190.187	199.572	0.193	0.297
-189.173	34.358	-0.286	0.250
-188.158	-29.211	-0.129	0.074
-187.144	-12.546	0.252	0.164
-186.129	449.727	-0.020	0.044
-185.114	45.861	-0.079	0.073
-184.100	-93.209	-0.182	-0.051
-183.085	-25.116	0.295	0.175
-182.071	-119.509	-0.184	0.032
-181.056	800.000	0.045	0.160
-180.042	-130.189	0.368	0.050
-179.027	-124.320	-0.190	0.030
-178.012	11.622	0.183	0.140
-176.998	142.970	-0.206	0.274
-175.983	-20.008	-0.060	-0.037
-174.969	192.074	-0.067	0.101
-173.954	347.084	0.081	0.159
-172.939	-200.000	-0.023	0.117
-171.925	800.000	0.006	0.027
-170.910	-153.919	-0.287	-0.020
-169.896	-199.722	0.080	0.000
-168.881	-151.705	0.069	-0.005
-167.866	-200.000	0.022	0.235
-166.852	-200.000	0.040	-0.193
-165.837	-200.000	-0.002	0.184
-164.823	-96.617	-0.268	-0.071
-163.808	35.354	-0.223	-0.195
-162.793	-8.222	0.204	-0.137
-161.779	-200.000	-0.052	-0.429
-160.764	800.000	0.061	0.263
-159.750	800.000	0.038	0.117
-158.735	-14.318	0.110	0.071
-157.720	-200.000	0.011	0.152
-156.706	23.349	0.243	0.200
-155.691	372.156	0.068	-0.139
-154.677	122.184	-0.147	-0.184
-153.662	-54.031	-0.070	-0.032
-152.647	-74.587	0.330	0.119
-151.633	-200.000	-0.011	0.200
-150.618	155.008	-0.136	0.187
-149.604	-5.049	0.210	-0.144
-148.589	-200.000	-0.028	-0.168
-147.574	71.429	-0.107	0.111
-146.560	9.307	-0.244	0.185
-145.545	165.698	0.181	0.256
-144.531	144.087	0.271	0.361
-143.516	-80.558	-0.173	0.058
-142.502	800.000	0.083	0.237
-141.487	-159.037	-0.188	0.011
-140.472	-81.980	-0.346	0.113
-139.458	7.551	0.035	-0.026
-138.443	-16.845	-0.159	0.100
-137.429	21.948	0.188	0.153
-136.414	-56.978	0.199	0.088
-135.399	499.954	-0.140	-0.323
-134.385	48.394	-0.117	-0.110
-133.370	-75.112	0.436	-0.156
-132.356	26.708	0.357	0.298
-131.341	-51.683	0.344	0.160
-130.326	-33.499	-0.099	0.055
-129.312	800.000	0.044	0.180
-128.297	-156.207	-0.347	0.022
-127.283	-143.030	0.215	0.021
-126.268	440.348	0.125	0.273
-125.253	800.000	0.020	0.068
-124.239	-7.070	-0.234	0.159
-123.224	-200.000	-0.012	-0.208
-122.210	800.000	-0.018	-0.072
-121.195	-200.000	0.141	-0.000
