DTS Sentinel unit serial number:	SN413079Multiplexer serial number:	ORYXHardware model number:	OX4-SRSoftware version number:	ORYX F/W v4.00 Oryx Data Collector v3.7.2.0data status	okinstallation	princeton_trtdifferential loss correction	single-endedforward channel	channel 3reverse channel	N/Adate	2019/09/14time	15:16:35forward acquisition time	60.00reverse acquisition time	0.00gamma	496.2192k internal	0.2293k external	0.2293temperature offset calibration	1.0061default loss term (dB/km)	0.3790temperature slope calibration	1.0000multiplexer offset coefficient	1.0000multiplexer slope coefficient	1.0000fibre end	0.00T internal ref (°C)	39.11T ext. ref 1 (°C)	5.16T ext. ref 2 (°C)	34.39length (m)	temperature (°C)	Stokes	anti-Stokes-747.200	-123.059	-0.234	-0.039
-746.185	-200.000	0.061	0.324
-745.171	265.336	0.034	0.061
-744.156	99.937	-0.233	0.276
-743.142	-122.236	-0.261	0.044
-742.127	-140.262	0.215	0.023
-741.112	-3.666	-0.143	0.102
-740.098	-27.361	0.081	0.048
-739.083	-31.213	0.280	-0.161
-738.069	-40.672	0.284	0.151
-737.054	509.865	-0.138	0.329
-736.039	-200.000	0.038	-0.177
-735.025	172.160	0.185	0.271
-734.010	800.000	-0.049	0.141
-732.996	800.000	-0.025	-0.070
-731.981	-200.000	0.022	-0.148
-730.966	-150.330	0.132	0.010
-729.952	-57.102	-0.118	-0.053
-728.937	87.585	-0.183	0.208
-727.923	-145.095	-0.161	-0.015
-726.908	800.000	0.014	-0.040
-725.894	16.573	0.250	-0.202
-724.879	-132.763	-0.388	-0.051
-723.864	-45.207	-0.161	-0.082
-722.850	-200.000	0.024	-0.110
-721.835	-120.270	-0.192	-0.033
-720.821	104.629	-0.017	-0.021
-719.806	210.948	0.118	-0.190
-718.791	-165.499	0.265	-0.012
-717.777	146.058	0.083	-0.113
-716.762	-121.262	-0.147	-0.025
-715.748	330.933	0.108	0.213
-714.733	800.000	-0.119	0.346
-713.718	86.933	0.194	0.219
-712.704	-49.171	-0.178	-0.087
-711.689	34.850	-0.083	-0.074
-710.675	224.188	-0.096	0.159
-709.660	-200.000	0.041	-0.202
-708.645	35.275	-0.142	0.127
-707.631	143.157	-0.199	-0.271
-706.616	-200.000	0.048	-0.336
-705.602	22.009	-0.124	0.103
-704.587	119.754	0.128	-0.162
-703.572	146.026	-0.265	-0.363
-702.558	53.885	0.179	-0.176
-701.543	161.935	0.085	0.122
-700.529	-200.000	0.016	0.171
-699.514	-37.631	0.152	-0.083
-698.499	312.695	0.134	0.257
-697.485	-200.000	0.002	-0.025
-696.470	-102.584	-0.106	-0.026
-695.456	297.649	0.084	0.157
-694.441	172.553	-0.082	-0.121
-693.426	47.059	0.042	-0.040
-692.412	233.134	0.142	-0.238
-691.397	-200.000	0.009	-0.143
-690.383	-119.928	0.158	-0.028
-689.368	395.622	-0.062	-0.132
-688.354	90.840	-0.205	0.234
-687.339	-200.000	-0.071	-0.411
-686.324	586.644	0.036	0.091
-685.310	195.467	0.187	-0.290
-684.295	227.585	0.078	0.129
-683.281	733.661	0.098	-0.269
-682.266	-136.158	-0.083	-0.010
-681.251	219.510	-0.181	-0.295
-680.237	-65.287	-0.242	0.099
-679.222	0.831	0.207	-0.152
-678.208	158.629	-0.110	0.156
-677.193	-200.000	0.006	-0.112
-676.178	315.499	0.105	-0.202
-675.164	-105.454	-0.238	-0.055
-674.149	28.119	-0.077	0.066
-673.135	-141.141	-0.329	-0.034
-672.120	17.389	-0.275	0.223
-671.105	-173.850	-0.028	-0.001
-670.091	17.627	0.154	-0.125
-669.076	-200.000	0.031	-0.332
-668.062	277.502	-0.121	0.219
-667.047	371.818	0.082	-0.170
-666.032	-127.113	-0.214	-0.032
-665.018	-102.608	-0.209	-0.051
-664.003	-200.000	-0.074	0.472
-662.989	800.000	0.082	-0.352
-661.974	-124.560	0.204	0.032
-660.959	-172.039	-0.138	-0.005
-659.945	334.168	0.043	0.086
-658.930	-200.000	-0.011	-0.362
-657.916	-19.431	0.073	-0.046
-656.901	800.000	-0.020	0.068
-655.886	-200.000	-0.049	0.298
-654.872	-200.000	0.210	-0.000
-653.857	14.616	-0.096	-0.076
-652.843	800.000	0.082	0.237
-651.828	224.128	0.189	0.311
-650.814	-166.112	0.170	-0.007
-649.799	-62.169	-0.462	-0.197
-648.784	741.511	-0.045	-0.123
-647.770	281.015	-0.077	-0.140
-646.755	-107.712	-0.199	-0.044
-645.741	-200.000	0.042	-0.214
-644.726	-40.250	-0.262	-0.139
-643.711	-200.000	-0.045	0.218
-642.697	800.000	-0.039	-0.157
-641.682	342.362	0.129	-0.258
-640.668	115.197	0.108	-0.135
-639.653	107.243	-0.251	0.304
-638.638	718.185	0.103	-0.280
-637.624	22.101	-0.386	0.321
-636.609	103.127	0.288	-0.343
-635.595	367.345	0.054	-0.110
-634.580	-11.712	-0.080	-0.054
-633.565	167.506	-0.241	-0.349
-632.551	230.291	0.091	-0.152
-631.536	800.000	-0.022	-0.091
-630.522	-29.300	-0.208	-0.121
-629.507	-66.349	-0.378	0.153
-628.492	-48.778	-0.163	0.080
-627.478	800.000	0.038	0.108
-626.463	-141.591	-0.175	0.018
-625.449	124.527	-0.096	-0.123
-624.434	-12.288	0.090	-0.060
-623.419	352.064	0.014	-0.028
-622.405	-200.000	-0.036	0.292
-621.390	-200.000	0.016	0.125
-620.376	-200.000	0.062	-0.325
-619.361	-22.252	-0.366	-0.226
-618.346	35.251	0.158	0.141
-617.332	-41.610	0.268	0.140
-616.317	454.839	0.060	-0.135
-615.303	576.235	-0.075	0.187
-614.288	116.795	-0.140	-0.175
-613.273	254.414	-0.011	0.020
-612.259	-141.835	-0.202	-0.021
-611.244	-200.000	-0.006	-0.089
-610.230	403.707	-0.106	0.227
-609.215	-118.139	0.234	0.042
-608.201	313.613	-0.091	-0.174
-607.186	291.288	0.096	-0.178
-606.171	-120.078	-0.312	0.054
-605.157	-200.000	-0.065	0.326
-604.142	342.114	0.043	-0.086
-603.128	-52.412	-0.126	-0.059
-602.113	-150.751	0.253	-0.020
-601.098	-11.441	-0.365	-0.244
-600.084	203.283	-0.126	0.198
-599.069	-134.656	0.108	0.013
-598.055	439.762	-0.053	0.118
-597.040	42.293	0.040	-0.037
-596.025	-117.514	0.133	0.024
-595.011	493.653	-0.104	-0.242
-593.996	544.733	-0.183	-0.444
-592.982	-190.350	-0.182	-0.002
-591.967	-200.000	-0.036	-0.267
-590.952	371.698	0.140	-0.289
-589.938	-0.623	0.152	-0.110
-588.923	-167.249	0.016	0.001
-587.909	-34.082	-0.053	-0.030
-586.894	-69.234	-0.129	-0.050
-585.879	443.299	-0.152	0.339
-584.865	-136.784	0.147	-0.017
-583.850	102.020	0.148	-0.175
-582.836	82.928	0.240	-0.265
-581.821	800.000	0.055	0.182
-580.806	137.179	-0.072	0.095
-579.792	-142.147	0.208	0.021
-578.777	120.472	0.126	-0.159
-577.763	588.711	-0.108	-0.271
-576.748	9.649	0.281	0.217
-575.733	-71.186	0.131	0.050
-574.719	-142.200	0.068	0.007
-573.704	800.000	0.080	-0.314
-572.690	-200.000	0.032	-0.229
-571.675	-192.726	-0.107	-0.001
-570.661	-53.711	-0.405	0.188
-569.646	800.000	0.030	0.105
-568.631	-41.448	-0.056	-0.029
-567.617	-27.637	0.429	-0.253
-566.602	24.406	-0.248	-0.208
-565.588	-124.093	0.562	0.090
-564.573	-200.000	-0.001	-0.308
-563.558	72.237	0.129	0.136
-562.544	-200.000	-0.043	-0.407
-561.529	93.456	-0.165	0.190
-560.515	2.319	-0.092	0.067
-559.500	-200.000	-0.020	0.116
-558.485	-102.700	0.545	-0.132
-557.471	-60.165	-0.350	-0.152
-556.456	-20.498	0.148	0.093
-555.442	564.501	-0.096	-0.236
-554.427	-18.328	0.185	-0.117
-553.412	-22.137	-0.260	-0.160
-552.398	-0.622	0.099	0.071
-551.383	-171.608	0.202	-0.007
-550.369	0.162	0.128	0.093
-549.354	800.000	-0.023	-0.100
-548.339	55.687	-0.076	-0.075
-547.325	-14.944	0.169	-0.110
-546.310	-22.888	0.318	-0.194
-545.296	800.000	-0.108	0.402
-544.281	-31.302	-0.286	0.163
-543.266	216.044	0.120	0.193
-542.252	800.000	-0.051	0.176
-541.237	30.263	-0.122	-0.106
-540.223	-75.463	-0.194	-0.070
-539.208	157.563	0.167	-0.234
-538.193	92.309	0.045	0.051
-537.179	800.000	-0.074	0.330
-536.164	-118.029	0.239	0.043
-535.150	-123.447	0.240	0.039
-534.135	-117.726	0.188	0.034
-533.121	117.908	0.017	-0.021
-532.106	175.176	-0.120	-0.176
-531.091	-113.555	0.345	-0.069
-530.077	174.717	0.064	-0.094
-529.062	-128.653	-0.235	-0.034
-528.048	-171.457	-0.389	-0.013
-527.033	800.000	0.046	0.147
-526.018	427.582	0.079	0.174
-525.004	-81.218	-0.350	0.117
-523.989	-138.857	0.263	-0.029
-522.975	65.367	-0.142	0.146
-521.960	-107.547	-0.174	-0.039
-520.945	-92.264	0.103	-0.029
-519.931	83.016	0.150	0.165
-518.916	23.111	0.211	0.176
-517.902	61.392	0.169	0.170
-516.887	-133.925	-0.400	0.050
-515.872	-200.000	-0.061	0.426
-514.858	-68.475	-0.142	-0.056
-513.843	-200.000	-0.012	0.207
-512.829	302.868	0.210	0.395
-511.814	135.432	-0.071	0.094
-510.799	63.399	-0.203	0.206
-509.785	175.306	0.128	0.188
-508.770	-200.000	-0.050	-0.323
-507.756	-200.000	0.049	-0.315
-506.741	-68.587	0.284	-0.111
-505.726	56.769	0.095	-0.094
-504.712	-27.166	-0.482	0.285
-503.697	-0.016	0.034	0.025
-502.683	-12.004	-0.204	0.136
-501.668	800.000	0.024	-0.080
-500.653	520.464	0.072	0.171
-499.639	800.000	0.090	-0.335
-498.624	611.039	-0.090	-0.229
-497.610	644.035	0.114	0.293
-496.595	200.277	0.215	-0.335
-495.581	-20.410	-0.154	-0.096
-494.566	-98.326	0.168	0.044
-493.551	25.786	0.206	0.174
-492.537	-137.501	-0.194	-0.022
-491.522	-99.174	-0.199	0.051
-490.508	238.673	-0.118	-0.199
-489.493	-200.000	-0.031	-0.187
-488.478	-89.833	-0.176	0.052
-487.464	188.540	0.131	0.199
-486.449	-26.541	0.272	0.161
-485.435	-200.000	0.031	0.242
-484.420	119.229	0.178	-0.223
-483.405	133.052	-0.086	-0.112
-482.391	-128.759	-0.266	0.038
-481.376	20.687	0.202	-0.166
-480.362	-200.000	0.024	0.119
-479.347	-200.000	-0.030	0.389
-478.332	-14.556	-0.136	0.088
-477.318	-160.860	0.213	-0.011
-476.303	-200.000	-0.004	-0.078
-475.289	-50.480	0.104	0.050
-474.274	-1.217	-0.293	-0.209
-473.259	49.595	-0.136	0.129
-472.245	-89.195	-0.313	-0.093
-471.230	-200.000	0.023	0.111
-470.216	128.407	0.164	0.211
-469.201	-64.836	-0.027	0.011
-468.186	-85.740	0.296	-0.093
-467.172	-53.888	-0.091	0.042
-466.157	-61.305	-0.137	0.058
-465.143	19.172	0.203	0.165
-464.128	616.497	-0.060	-0.153
-463.113	27.588	0.011	0.009
-462.099	800.000	-0.038	0.146
-461.084	-164.783	0.257	-0.012
-460.070	5.312	-0.200	-0.149
-459.055	-65.961	-0.401	0.162
-458.040	24.869	-0.243	-0.204
-457.026	109.731	0.074	-0.090
-456.011	-200.000	0.017	0.211
-454.997	-157.914	0.051	-0.003
-453.982	141.601	0.075	0.100
-452.968	-142.567	0.073	-0.007
-451.953	800.000	-0.075	-0.235
-450.938	-200.000	-0.069	-0.366
-449.924	725.471	-0.071	-0.191
-448.909	686.430	0.075	-0.198
-447.895	489.754	0.015	-0.034
-446.880	-53.449	0.077	0.036
-445.865	28.701	-0.157	0.134
-444.851	-110.242	0.260	-0.055
-443.836	-153.983	-0.361	-0.025
-442.822	-51.389	-0.162	0.076
-441.807	-38.410	-0.200	-0.107
-440.792	220.799	-0.110	0.179
-439.778	-143.262	-0.139	-0.013
-438.763	98.487	0.080	-0.094
-437.749	95.418	-0.126	0.145
-436.734	140.823	0.194	0.259
-435.719	-181.107	-0.123	-0.002
-434.705	231.406	-0.106	-0.176
-433.690	-127.815	0.240	-0.035
-432.676	290.321	-0.072	0.132
-431.661	800.000	-0.076	0.245
-430.646	-38.544	0.095	0.051
-429.632	-126.626	0.390	-0.058
-428.617	47.247	0.023	-0.022
-427.603	278.305	-0.208	0.374
-426.588	266.178	-0.084	0.147
-425.573	234.944	-0.085	-0.141
-424.559	-52.595	0.091	-0.042
-423.544	-200.000	0.011	0.069
-422.530	601.143	0.049	-0.123
-421.515	-96.376	0.449	0.120
-420.500	800.000	0.024	0.085
-419.486	-22.902	0.169	-0.103
-418.471	-200.000	0.009	-0.096
-417.457	43.667	0.091	0.084
-416.442	-57.925	-0.232	-0.102
-415.428	85.269	-0.115	0.127
-414.413	-88.632	-0.068	-0.020
-413.398	-36.658	-0.257	-0.139
-412.384	-50.938	-0.105	0.050
-411.369	136.476	0.076	-0.100
-410.355	-155.813	0.015	0.001
-409.340	-152.566	-0.383	0.028
-408.325	-200.000	-0.003	-0.027
-407.311	-200.000	0.021	-0.211
-406.296	-24.950	-0.263	0.158
-405.282	-91.456	-0.327	-0.094
-404.267	27.215	0.136	0.115
-403.252	176.446	0.114	0.168
-402.238	576.575	-0.146	0.360
-401.223	-67.888	0.251	0.099
-400.209	-200.000	0.005	0.213
-399.194	-56.228	-0.100	-0.045
-398.179	-97.199	0.193	-0.051
-397.165	-200.000	-0.060	0.335
-396.150	-131.296	-0.326	-0.044
-395.136	-200.000	0.065	0.623
-394.121	-66.923	0.260	-0.104
-393.106	-173.340	0.253	0.008
-392.092	306.491	0.024	0.045
-391.077	-66.767	0.045	-0.018
-390.063	222.957	-0.076	-0.123
-389.048	-81.483	0.173	-0.058
-388.033	418.947	0.135	-0.290
-387.019	800.000	-0.081	0.291
-386.004	-18.069	0.107	0.067
-384.990	-23.290	0.228	-0.138
-383.975	800.000	0.016	-0.071
-382.960	-27.067	-0.192	-0.113
-381.946	-139.122	-0.015	-0.002
-380.931	800.000	0.132	0.412
-379.917	154.724	0.104	0.144
-378.902	53.946	-0.221	-0.214
-377.888	97.328	-0.095	-0.110
-376.873	-50.780	0.169	-0.080
-375.858	64.232	0.081	0.082
-374.844	-20.416	0.199	0.123
-373.829	-200.000	0.007	0.031
-372.815	203.784	-0.050	-0.077
-371.800	-200.000	0.081	-0.372
-370.785	-41.088	-0.267	0.139
-369.771	164.204	-0.043	-0.060
-368.756	-120.670	0.456	-0.078
-367.742	-200.000	0.051	0.381
-366.727	-7.336	-0.193	-0.132
-365.712	-62.772	-0.122	-0.051
-364.698	10.971	0.098	-0.076
-363.683	-200.000	0.267	0.001
-362.669	-71.730	-0.078	-0.029
-361.654	56.453	-0.109	0.107
-360.639	33.631	0.177	0.155
-359.625	-74.020	-0.268	-0.098
-358.610	435.191	0.032	-0.070
-357.596	-170.660	-0.148	-0.005
-356.581	-200.000	-0.005	0.138
-355.566	-200.000	0.020	-0.248
-354.552	-200.000	0.279	-0.000
-353.537	-200.000	-0.056	-0.266
-352.523	-200.000	-0.018	0.469
-351.508	-139.554	0.010	0.001
-350.493	-36.766	0.226	0.122
-349.479	-200.000	0.022	-0.106
-348.464	-200.000	0.039	0.523
-347.450	-169.862	0.555	0.020
-346.435	226.248	-0.096	-0.156
-345.420	800.000	-0.045	-0.165
-344.406	25.687	-0.227	0.191
-343.391	-200.000	-0.034	-0.212
-342.377	800.000	0.071	-0.251
-341.362	-128.755	0.371	-0.053
-340.348	55.457	0.179	0.175
-339.333	-53.313	0.123	0.057
-338.318	-200.000	0.000	0.407
-337.304	-78.675	0.265	0.091
-336.289	419.122	-0.029	0.062
-335.275	-200.000	-0.031	0.251
-334.260	-200.000	0.025	-0.208
-333.245	583.534	0.057	-0.141
-332.231	-29.222	0.163	0.094
-331.216	24.907	-0.170	-0.142
-330.202	145.803	-0.151	0.203
-329.187	-25.615	-0.201	-0.120
-328.172	-27.468	0.034	-0.020
-327.158	379.372	0.109	0.225
-326.143	-42.402	-0.255	0.131
-325.129	-43.433	0.116	-0.059
-324.114	-94.374	0.261	-0.072
-323.099	490.157	-0.056	-0.130
-322.085	306.254	0.166	0.310
-321.070	-200.000	0.060	0.323
-320.056	280.177	0.066	0.118
-319.041	800.000	0.008	0.026
-318.026	-88.338	-0.353	-0.106
-317.012	279.098	0.116	0.209
-315.997	389.437	-0.046	-0.096
-314.983	-200.000	-0.008	0.049
-313.968	52.807	-0.130	-0.125
-312.953	800.000	0.054	0.228
-311.939	2.887	0.101	-0.074
-310.924	312.425	-0.130	0.246
-309.910	-39.326	-0.198	-0.104
-308.895	9.381	0.086	-0.066
-307.880	32.647	0.029	0.025
-306.866	-68.666	-0.040	0.015
-305.851	162.754	0.061	0.086
-304.837	427.680	0.215	-0.467
-303.822	27.908	-0.271	0.230
-302.807	-71.003	-0.122	-0.046
-301.793	-72.184	0.296	0.110
-300.778	536.710	-0.100	0.238
-299.764	-200.000	0.012	0.328
-298.749	-46.101	-0.166	-0.082
-297.735	-200.000	0.013	-0.106
-296.720	633.460	-0.088	-0.225
-295.705	408.603	0.060	-0.127
-294.691	0.794	-0.243	-0.175
-293.676	800.000	0.102	-0.353
-292.662	190.359	0.070	-0.106
-291.647	252.514	0.130	-0.223
-290.632	77.106	-0.150	-0.160
-289.618	119.325	0.028	0.035
-288.603	-125.641	-0.062	-0.009
-287.589	-0.250	0.216	0.154
-286.574	-158.271	-0.138	0.008
-285.559	73.660	-0.191	0.201
-284.545	-130.005	0.174	-0.024
-283.530	179.829	0.128	0.188
-282.516	800.000	-0.113	-0.360
-281.501	-149.619	-0.325	-0.026
-280.486	-50.692	0.079	-0.037
-279.472	-15.157	0.241	-0.155
-278.457	-56.201	-0.135	0.060
-277.443	-2.480	-0.170	0.119
-276.428	47.065	0.149	0.139
-275.413	70.318	0.137	-0.142
-274.399	57.214	-0.012	0.012
-273.384	800.000	-0.055	-0.165
-272.370	741.791	0.053	-0.144
-271.355	-200.000	-0.016	-0.092
-270.340	-153.218	0.113	0.008
-269.326	-106.724	0.214	0.048
-268.311	279.119	0.102	-0.183
-267.297	-200.000	-0.009	-0.113
-266.282	69.642	0.250	0.259
-265.267	-54.653	0.393	-0.178
-264.253	252.413	-0.161	0.276
-263.238	-200.000	0.195	-0.000
-262.224	-149.857	0.162	-0.013
-261.209	-200.000	0.015	0.170
-260.195	-147.767	-0.209	-0.018
-259.180	-200.000	-0.006	-0.053
-258.165	-4.775	0.073	0.051
-257.151	-81.889	-0.164	-0.054
-256.136	-200.000	-0.020	0.092
-255.122	-200.000	0.033	-0.231
-254.107	-129.744	-0.214	-0.030
-253.092	-5.311	-0.394	-0.271
-252.078	168.874	0.163	0.233
-251.063	-200.000	0.008	0.146
-250.049	-54.014	-0.415	0.189
-249.034	-130.523	0.052	0.007
-248.019	224.776	0.222	-0.360
-247.005	-200.000	-0.004	-0.051
-245.990	-83.110	-0.266	0.086
-244.976	-146.045	-0.143	0.013
-243.961	58.122	0.151	-0.148
-242.946	65.198	0.204	0.207
-241.932	84.143	0.207	0.227
-240.917	-114.568	0.300	0.058
-239.903	48.596	0.158	0.148
-238.888	36.804	0.306	-0.271
-237.873	314.226	0.114	0.215
-236.859	800.000	0.027	-0.079
-235.844	-7.413	-0.060	-0.041
-234.830	245.477	-0.118	0.198
-233.815	53.383	-0.093	-0.090
-232.800	-147.267	-0.209	0.018
-231.786	-109.681	0.223	0.047
-230.771	-92.814	-0.158	-0.044
-229.757	385.635	-0.117	0.243
-228.742	631.308	0.069	-0.175
-227.727	53.339	0.108	-0.104
-226.713	51.370	-0.150	-0.143
-225.698	-100.781	-0.259	0.064
-224.684	-69.457	-0.083	-0.032
-223.669	-200.000	-0.003	0.285
-222.655	154.610	-0.081	-0.111
-221.640	-200.000	0.062	0.281
-220.625	-82.135	-0.155	-0.051
-219.611	-123.948	-0.413	0.065
-218.596	-64.001	0.209	0.086
-217.582	211.219	0.183	-0.288
-216.567	-18.364	-0.198	-0.124
-215.552	800.000	0.085	0.286
-214.538	341.594	-0.140	-0.274
-213.523	-200.000	-0.011	0.124
-212.509	-24.441	-0.214	-0.128
-211.494	178.100	0.026	0.038
-210.479	-117.578	-0.275	0.050
-209.465	170.248	-0.060	0.086
-208.450	255.020	0.162	0.279
-207.436	779.472	0.082	0.226
-206.421	14.316	0.165	-0.129
-205.406	800.000	-0.028	-0.085
-204.392	230.128	0.057	-0.094
-203.377	53.336	-0.027	-0.026
-202.363	-200.000	0.110	0.538
-201.348	746.320	0.058	0.156
-200.333	74.944	-0.082	-0.087
-199.319	-200.000	0.031	-0.204
-198.304	-200.000	0.004	-0.103
-197.290	195.977	-0.168	0.256
-196.275	62.306	-0.188	-0.188
-195.260	800.000	0.026	0.110
-194.246	-127.909	0.167	0.024
-193.231	-55.554	-0.395	-0.177
-192.217	800.000	0.062	0.188
-191.202	0.099	-0.259	0.185
-190.187	-6.584	0.092	0.063
-189.173	-108.157	-0.105	-0.023
-188.158	76.537	0.127	0.135
-187.144	-19.288	-0.175	0.109
-186.129	-114.596	0.131	-0.025
-185.114	114.763	0.137	-0.167
-184.100	-89.995	0.405	0.118
-183.085	-200.000	0.013	-0.153
-182.071	-101.760	-0.183	-0.044
-181.056	800.000	0.081	-0.253
-180.042	156.109	-0.105	-0.145
-179.027	254.439	0.071	0.121
-178.012	-200.000	0.001	0.054
-176.998	-96.425	0.085	0.022
-175.983	426.868	-0.116	-0.250
-174.969	25.367	-0.119	-0.099
-173.954	-160.974	0.273	-0.014
-172.939	21.378	0.220	-0.179
-171.925	-50.554	0.066	0.031
-170.910	-100.693	0.094	-0.023
-169.896	133.816	-0.114	-0.148
-168.881	-200.000	-0.051	-0.227
-167.866	-72.009	0.165	0.061
-166.852	134.111	0.196	-0.254
-165.837	-162.610	0.344	0.017
-164.823	126.782	-0.092	-0.117
-163.808	-111.636	0.118	-0.024
-162.793	8.895	-0.078	0.059
-161.779	-200.000	0.059	0.268
-160.764	-53.147	0.351	0.161
-159.750	-75.100	-0.076	0.027
-158.735	-0.871	-0.345	0.244
-157.720	60.094	0.204	-0.202
-156.706	-79.148	-0.308	0.105
-155.691	438.668	-0.062	0.135
-154.677	-83.676	0.155	-0.049
-153.662	34.806	-0.062	-0.054
-152.647	441.987	0.074	-0.163
-151.633	-200.000	-0.020	-0.188
-150.618	-200.000	-0.006	0.118
-149.604	606.602	0.191	0.475
-148.589	800.000	0.108	0.415
-147.574	-98.810	-0.164	0.042
-146.560	193.789	-0.094	0.142
-145.545	-163.602	0.335	-0.016
-144.531	49.829	-0.127	0.120
-143.516	375.940	0.074	-0.150
-142.502	-200.000	-0.026	-0.161
-141.487	143.063	-0.159	-0.211
-140.472	49.626	-0.191	0.179
-139.458	37.706	0.114	0.101
-138.443	-88.151	0.196	0.059
-137.429	77.652	-0.054	-0.058
-136.414	524.488	0.208	0.490
-135.399	-25.990	0.196	0.115
-134.385	96.527	-0.105	0.120
-133.370	-141.501	0.108	0.011
-132.356	16.697	0.190	-0.150
-131.341	15.533	0.322	-0.253
-130.326	21.092	-0.283	0.229
-129.312	800.000	0.073	0.310
-128.297	348.186	-0.054	-0.107
-127.283	26.333	-0.338	0.282
-126.268	567.366	-0.064	0.156
-125.253	-200.000	0.084	-0.419
-124.239	-17.583	-0.024	0.015
-123.224	268.972	-0.067	-0.118
-122.210	163.802	-0.284	-0.400
-121.195	155.224	0.142	-0.195
