DTS Sentinel unit serial number:	SN413079Multiplexer serial number:	ORYXHardware model number:	OX4-SRSoftware version number:	ORYX F/W v4.00 Oryx Data Collector v3.7.2.0data status	okinstallation	princeton_trtdifferential loss correction	single-endedforward channel	channel 3reverse channel	N/Adate	2019/09/12time	20:00:04forward acquisition time	15.00reverse acquisition time	0.00gamma	496.2192k internal	0.2323k external	0.2323temperature offset calibration	1.0119default loss term (dB/km)	0.3790temperature slope calibration	1.0000multiplexer offset coefficient	1.0000multiplexer slope coefficient	1.0000fibre end	0.00T internal ref (°C)	31.75T ext. ref 1 (°C)	3.46T ext. ref 2 (°C)	26.38length (m)	temperature (°C)	Stokes	anti-Stokes-747.200	100.232	0.580	0.679
-746.185	145.248	0.121	-0.163
-745.171	-49.286	0.415	0.200
-744.156	43.208	-0.113	0.104
-743.142	197.857	0.122	-0.187
-742.127	-25.867	0.652	-0.388
-741.112	65.131	0.578	-0.590
-740.098	-200.000	-0.039	-0.566
-739.083	-43.339	0.390	0.199
-738.069	800.000	0.151	-0.432
-737.054	800.000	0.231	-0.743
-736.039	95.883	-0.639	0.737
-735.025	276.555	0.319	0.573
-734.010	-105.169	0.206	0.047
-732.996	-200.000	0.307	0.001
-731.981	800.000	0.063	0.270
-730.966	703.329	0.093	-0.246
-729.952	-44.155	0.743	-0.376
-728.937	800.000	0.071	0.254
-727.923	-56.866	-0.524	-0.233
-726.908	369.116	-0.064	-0.131
-725.894	71.657	-0.209	0.219
-724.879	177.008	-0.333	-0.488
-723.864	267.112	-0.287	-0.506
-722.850	-200.000	-0.063	-1.024
-721.835	-200.000	0.090	0.487
-720.821	-40.380	-0.531	-0.279
-719.806	-123.633	-0.138	0.022
-718.791	408.029	-0.164	0.350
-717.777	181.238	-0.356	0.528
-716.762	563.522	-0.072	-0.176
-715.748	116.925	-0.061	-0.075
-714.733	-200.000	-0.001	0.511
-713.718	-78.432	-0.628	0.217
-712.704	800.000	-0.118	-0.417
-711.689	630.405	-0.135	-0.345
-710.675	736.644	-0.268	0.724
-709.660	513.250	-0.371	-0.871
-708.645	-200.000	0.007	-1.165
-707.631	-12.234	0.639	0.422
-706.616	179.488	0.146	-0.216
-705.602	-101.439	-0.926	-0.227
-704.587	-142.746	-0.593	-0.058
-703.572	-200.000	-0.017	0.705
-702.558	800.000	0.279	0.797
-701.543	800.000	0.136	0.561
-700.529	-200.000	-0.067	-0.332
-699.514	780.275	-0.265	0.729
-698.499	-200.000	0.132	-0.856
-697.485	800.000	0.131	-0.541
-696.470	800.000	-0.061	-0.214
-695.456	190.766	0.282	-0.428
-694.441	-200.000	0.014	-0.143
-693.426	-148.563	-0.323	-0.027
-692.412	-70.495	0.579	0.221
-691.397	-148.128	1.050	0.088
-690.383	800.000	-0.218	0.854
-689.368	31.708	-0.397	0.344
-688.354	-136.223	1.403	-0.165
-687.339	-81.776	-0.383	-0.127
-686.324	-200.000	0.005	0.044
-685.310	119.027	0.271	-0.338
-684.295	-200.000	-0.007	-0.417
-683.281	800.000	-0.313	0.990
-682.266	12.342	0.300	0.233
-681.251	-200.000	0.041	-0.213
-680.237	135.936	0.507	-0.666
-679.222	-140.174	-0.661	-0.070
-678.208	-200.000	0.098	-0.757
-677.193	554.594	-0.180	-0.436
-676.178	28.384	-0.139	-0.118
-675.164	298.210	0.401	0.742
-674.149	-67.904	-0.415	-0.163
-673.135	-67.961	-0.279	0.109
-672.120	329.187	0.434	-0.839
-671.105	-200.000	0.041	0.250
-670.091	-31.646	-0.250	0.141
-669.076	-97.987	0.826	-0.214
-668.062	-200.000	0.021	0.380
-667.047	758.367	-0.231	-0.629
-666.032	544.132	0.211	-0.506
-665.018	-200.000	0.056	-0.327
-664.003	367.508	-0.331	0.674
-662.989	-12.237	0.112	0.074
-661.974	186.493	0.350	-0.524
-660.959	-200.000	-0.069	-1.095
-659.945	-200.000	-0.008	-0.086
-658.930	-200.000	-0.064	-0.303
-657.916	800.000	-0.148	-0.596
-656.901	99.181	0.837	0.973
-655.886	-200.000	-0.057	0.368
-654.872	626.866	-0.139	-0.354
-653.857	-6.532	0.697	-0.478
-652.843	133.046	-0.439	0.571
-651.828	800.000	0.150	0.474
-650.814	-107.662	0.121	0.027
-649.799	-9.106	-0.096	0.064
-648.784	-125.220	0.248	0.038
-647.770	116.654	0.518	0.639
-646.755	-165.332	-0.768	-0.034
-645.741	-135.327	0.789	0.095
-644.726	-131.974	0.836	0.110
-643.711	-32.877	-0.154	-0.086
-642.697	313.480	0.155	0.293
-641.682	-24.879	-0.279	0.166
-640.668	800.000	-0.100	0.318
-639.653	561.157	0.191	-0.465
-638.638	-200.000	-0.098	-0.441
-637.624	267.725	0.603	1.061
-636.609	-25.923	-0.119	0.071
-635.595	240.987	-0.121	0.204
-634.580	66.804	0.377	0.386
-633.565	130.661	0.041	-0.053
-632.551	739.142	0.106	-0.285
-631.536	564.234	0.297	-0.723
-630.522	-200.000	0.003	0.350
-629.507	-89.114	-0.878	-0.261
-628.492	79.935	-0.231	-0.249
-627.478	-79.576	1.194	0.405
-626.463	800.000	-0.111	0.427
-625.449	800.000	-0.117	-0.395
-624.434	-45.098	-0.526	-0.263
-623.419	-26.374	0.355	0.210
-622.405	-55.980	0.592	-0.265
-621.390	800.000	0.208	-0.598
-620.376	308.172	-0.425	0.798
-619.361	-200.000	0.004	0.244
-618.346	-115.559	0.445	-0.084
-617.332	-105.657	0.556	0.127
-616.317	-168.093	0.412	-0.016
-615.303	-200.000	-0.039	-0.787
-614.288	-20.175	-0.213	0.132
-613.273	67.619	-0.511	0.524
-612.259	800.000	-0.047	-0.162
-611.244	65.868	-0.647	0.659
-610.230	88.431	0.550	-0.614
-609.215	591.129	0.193	-0.479
-608.201	-71.849	-0.915	0.342
-607.186	237.615	-0.098	0.163
-606.171	-199.694	-1.062	0.005
-605.157	2.321	-0.381	0.277
-604.142	61.083	0.268	0.268
-603.128	-153.769	-0.760	-0.052
-602.113	-126.429	0.253	-0.038
-601.098	-200.000	-0.115	-0.984
-600.084	-200.000	0.220	-1.228
-599.069	102.725	-0.322	0.378
-598.055	-40.626	0.619	-0.323
-597.040	-87.988	-0.279	-0.084
-596.025	-135.725	-0.508	0.060
-595.011	105.542	-0.410	-0.486
-593.996	-40.683	0.277	0.144
-592.982	800.000	0.097	-0.377
-591.967	-200.000	0.164	-1.156
-590.952	800.000	0.096	-0.405
-589.938	-63.853	0.186	-0.076
-588.923	268.476	0.328	0.576
-587.909	-200.000	0.127	1.048
-586.894	-200.000	-0.089	-0.476
-585.879	-200.000	0.213	0.001
-584.865	-45.188	0.072	0.036
-583.850	-200.000	-0.057	-0.516
-582.836	-54.484	-0.685	0.311
-581.821	483.069	-0.109	-0.249
-580.806	-120.621	-0.629	0.107
-579.792	-200.000	0.102	0.626
-578.777	-130.302	-0.460	-0.063
-577.763	-200.000	0.061	1.283
-576.748	-21.258	0.138	-0.085
-575.733	137.569	-0.513	0.674
-574.719	-200.000	0.046	0.655
-573.704	471.137	-0.307	0.692
-572.690	-48.019	-0.087	-0.042
-571.675	-136.072	0.196	-0.023
-570.661	-124.928	-0.991	0.153
-569.646	-21.172	0.555	-0.340
-568.631	-87.569	-0.734	-0.222
-567.617	-200.000	0.072	0.988
-566.602	800.000	-0.206	-0.837
-565.588	-200.000	-0.135	0.782
-564.573	-144.865	0.592	0.054
-563.558	273.627	0.126	0.224
-562.544	-200.000	0.301	1.465
-561.529	-12.760	0.513	-0.335
-560.515	-125.039	0.266	0.041
-559.500	-6.563	0.564	-0.385
-558.485	-200.000	-0.034	0.389
-557.471	202.712	-0.338	-0.523
-556.456	102.950	0.310	0.364
-555.442	-58.673	-0.479	-0.208
-554.427	437.275	0.129	-0.282
-553.412	-178.568	-0.376	0.009
-552.398	-153.868	-0.668	-0.046
-551.383	-67.105	0.299	0.118
-550.369	-19.483	-0.115	0.071
-549.354	157.247	-0.244	0.338
-548.339	-149.322	-0.884	0.071
-547.325	-200.000	-0.019	-0.239
-546.310	115.725	-0.097	0.118
-545.296	-165.542	-0.346	0.015
-544.281	-68.983	0.091	0.035
-543.266	-118.943	-0.432	-0.076
-542.252	-5.449	-0.482	0.332
-541.237	800.000	0.234	-0.682
-540.223	94.883	0.422	-0.481
-539.208	131.258	0.219	0.282
-538.193	-200.000	0.019	0.400
-537.179	-121.513	-0.151	0.025
-536.164	800.000	-0.243	-0.778
-535.150	-189.385	-0.062	-0.001
-534.135	51.924	0.628	0.599
-533.121	122.919	-0.562	0.705
-532.106	327.754	-0.495	0.951
-531.091	10.060	-0.098	0.075
-530.077	-56.388	0.398	-0.177
-529.062	134.819	0.669	0.870
-528.048	800.000	-0.115	0.398
-527.033	99.619	-0.703	-0.814
-526.018	800.000	0.169	0.494
-525.004	178.906	0.696	1.018
-523.989	209.419	0.125	-0.196
-522.975	-54.052	0.687	-0.313
-521.960	-48.220	0.878	-0.424
-520.945	258.275	0.264	-0.456
-519.931	416.818	-0.194	-0.414
-518.916	-149.981	0.472	-0.037
-517.902	-200.000	0.024	1.324
-516.887	-44.280	-0.123	-0.062
-515.872	800.000	0.159	0.472
-514.858	753.937	-0.144	0.389
-513.843	-140.856	0.468	0.048
-512.829	8.389	-0.346	0.260
-511.814	-200.000	-0.007	-0.623
-510.799	-7.809	0.272	-0.184
-509.785	800.000	-0.041	0.153
-508.770	-115.274	0.408	-0.077
-507.756	-90.397	0.415	-0.120
-506.741	800.000	0.125	0.374
-505.726	-91.588	0.182	0.052
-504.712	81.123	0.298	0.322
-503.697	-26.547	-0.339	-0.198
-502.683	45.373	-0.154	0.142
-501.668	36.972	0.962	-0.851
-500.653	-108.344	-0.087	-0.019
-499.639	419.119	0.271	-0.580
-498.624	184.707	-0.816	-1.210
-497.610	-200.000	0.118	0.660
-496.595	-193.466	-0.150	0.001
-495.581	242.153	-0.171	-0.286
-494.566	-15.864	0.175	-0.112
-493.551	-200.000	-0.052	0.750
-492.537	-56.296	-1.306	0.580
-491.522	-34.270	0.668	0.367
-490.508	-172.079	-0.512	-0.017
-489.493	23.384	-0.499	0.410
-488.478	-200.000	0.031	-0.404
-487.464	800.000	-0.079	0.326
-486.449	-75.652	0.804	0.285
-485.435	467.541	0.511	1.146
-484.420	144.195	0.362	0.483
-483.405	162.112	0.362	0.507
-482.391	-30.249	-0.277	0.157
-481.376	-111.724	-0.441	0.089
-480.362	-61.588	-0.076	-0.032
-479.347	50.463	0.316	0.298
-478.332	-66.325	0.418	-0.166
-477.318	374.304	0.406	0.826
-476.303	-150.830	0.500	0.038
-475.289	-89.589	-0.654	-0.192
-474.274	-200.000	-0.048	0.350
-473.259	37.374	-0.441	0.391
-472.245	-27.262	-0.417	-0.243
-471.230	-96.567	-0.097	0.025
-470.216	-200.000	0.007	0.045
-469.201	382.174	-0.242	-0.498
-468.186	-60.335	0.386	-0.164
-467.172	-200.000	-0.023	0.592
-466.157	363.213	0.339	0.679
-465.143	-21.033	0.435	-0.266
-464.128	-58.758	0.276	-0.119
-463.113	2.081	0.338	-0.244
-462.099	-200.000	0.000	0.105
-461.084	-200.000	0.086	0.587
-460.070	-31.492	-0.746	-0.419
-459.055	-103.982	0.602	-0.140
-458.040	-200.000	0.055	-0.470
-457.026	-107.085	0.325	0.072
-456.011	64.663	0.529	0.532
-454.997	26.773	-0.546	-0.457
-453.982	-119.583	0.839	-0.145
-452.968	1.651	-0.353	-0.253
-451.953	800.000	-0.028	-0.112
-450.938	-55.002	-0.507	0.228
-449.924	-143.251	0.527	0.051
-448.909	193.816	0.048	-0.073
-447.895	-120.670	-0.436	0.074
-446.880	-91.475	-0.199	-0.057
-445.865	-200.000	0.002	0.162
-444.851	112.379	0.097	-0.117
-443.836	83.270	0.268	0.291
-442.822	116.757	0.395	-0.484
-441.807	-200.000	0.031	0.456
-440.792	-200.000	0.049	0.490
-439.778	-200.000	0.083	-0.679
-438.763	-75.974	0.254	0.090
-437.749	800.000	0.130	-0.549
-436.734	-34.689	0.421	0.230
-435.719	446.195	0.168	0.368
-434.705	-135.177	-0.515	0.062
-433.690	24.284	0.392	-0.323
-432.676	-16.786	-0.251	0.159
-431.661	457.799	0.318	0.705
-430.646	-48.670	0.355	0.170
-429.632	-157.557	-0.597	0.036
-428.617	10.249	0.524	-0.398
-427.603	532.684	0.288	-0.679
-426.588	-75.189	-0.416	0.148
-425.573	-93.451	0.781	0.216
-424.559	-145.048	-0.362	-0.033
-423.544	-119.596	0.615	-0.106
-422.530	-162.543	0.523	0.026
-421.515	115.264	-0.269	-0.328
-420.500	364.201	0.016	-0.033
-419.486	125.120	-0.344	0.432
-418.471	298.138	-0.170	-0.312
-417.457	-18.934	0.343	-0.212
-416.442	-33.806	0.389	0.214
-415.428	-187.401	-0.373	0.005
-414.413	238.967	-0.606	-1.005
-413.398	-161.587	-0.780	-0.040
-412.384	800.000	-0.084	0.291
-411.369	-166.543	0.226	0.009
-410.355	3.359	-0.413	0.300
-409.340	-200.000	0.039	-0.887
-408.325	-82.008	0.618	0.201
-407.311	109.720	0.316	0.377
-406.296	-69.370	-1.124	-0.430
-405.282	800.000	-0.128	0.455
-404.267	-38.865	-0.358	0.188
-403.252	-82.463	0.359	-0.116
-402.238	90.383	-0.653	-0.728
-401.223	-125.205	-0.506	0.077
-400.209	800.000	-0.060	-0.209
-399.194	-32.786	-0.524	-0.290
-398.179	-32.401	-0.263	-0.146
-397.165	36.662	-0.716	0.630
-396.150	88.124	-0.438	0.484
-395.136	107.056	-0.316	-0.374
-394.121	-123.965	0.796	-0.125
-393.106	-162.726	-0.645	-0.031
-392.092	128.677	-0.463	0.588
-391.077	800.000	-0.103	-0.398
-390.063	-25.927	-0.552	-0.324
-389.048	171.419	-0.236	0.337
-388.033	273.405	0.139	0.244
-387.019	-52.227	0.640	-0.296
-386.004	296.502	0.332	-0.606
-384.990	-48.000	-0.959	0.462
-383.975	-200.000	-0.198	-0.000
-382.960	507.965	0.071	0.164
-381.946	17.251	-0.310	-0.245
-380.931	786.084	-0.158	-0.430
-379.917	-73.071	0.501	-0.183
-378.902	-56.710	0.685	-0.302
-377.888	-200.000	-0.134	0.709
-376.873	-126.388	-0.444	0.066
-375.858	666.665	0.150	-0.385
-374.844	-91.897	0.861	-0.243
-373.829	100.462	-0.753	-0.870
-372.815	-183.881	-0.451	0.008
-371.800	-14.318	0.238	-0.152
-370.785	-130.878	-0.831	0.111
-369.771	-36.407	0.390	-0.209
-368.756	26.340	-0.645	0.537
-367.742	351.817	0.162	-0.319
-366.727	-106.958	-0.460	-0.101
-365.712	-109.685	0.351	0.074
-364.698	-178.425	-0.866	0.020
-363.683	750.685	0.071	0.190
-362.669	-200.000	0.036	-0.763
-361.654	-0.692	-0.857	-0.604
-360.639	254.240	0.444	0.756
-359.625	-56.658	0.353	-0.155
-358.610	-105.144	1.035	0.235
-357.596	308.197	0.253	0.470
-356.581	-200.000	-0.046	-0.289
-355.566	800.000	0.140	-0.545
-354.552	-130.410	-0.248	0.033
-353.537	34.068	0.156	-0.136
-352.523	52.530	0.223	-0.211
-351.508	-200.000	-0.032	-0.443
-350.493	172.810	0.323	0.463
-349.479	212.633	0.336	0.527
-348.464	-28.918	-0.861	0.492
-347.450	800.000	-0.175	0.717
-346.435	286.360	0.281	-0.504
-345.420	10.048	0.437	-0.330
-344.406	-6.317	0.685	-0.465
-343.391	-151.497	-0.592	-0.044
-342.377	168.046	-0.174	-0.247
-341.362	7.634	-0.529	-0.393
-340.348	396.922	-0.188	-0.391
-339.333	-52.887	-0.083	0.038
-338.318	-4.183	0.667	-0.459
-337.304	800.000	0.144	-0.529
-336.289	800.000	0.184	-0.542
-335.275	167.827	0.452	0.639
-334.260	-200.000	0.013	0.636
-333.245	1.767	0.761	-0.545
-332.231	63.717	-0.494	-0.493
-331.216	20.882	0.399	0.321
-330.202	3.665	0.142	0.103
-329.187	-42.194	0.687	-0.349
-328.172	-90.418	-0.530	-0.153
-327.158	-18.369	0.183	-0.114
-326.143	-200.000	0.037	-0.779
-325.129	-200.000	-0.074	-0.844
-324.114	-116.370	0.309	0.057
-323.099	-200.000	-0.029	-0.492
-322.085	-137.601	0.820	-0.092
-321.070	161.936	0.097	0.135
-320.056	-79.721	-0.718	0.240
-319.041	11.820	0.447	-0.341
-318.026	59.309	0.401	0.392
-317.012	-200.000	0.082	0.612
-315.997	80.438	-0.194	-0.208
-314.983	-57.132	0.799	-0.349
-313.968	-200.000	0.072	-1.008
-312.953	-135.317	-0.272	-0.032
-311.939	-44.938	0.581	-0.288
-310.924	-51.094	0.698	-0.325
-309.910	150.800	-0.225	-0.304
-308.895	233.099	0.054	-0.088
-307.880	-65.584	-0.525	0.209
-306.866	-60.728	0.911	-0.383
-305.851	229.126	-0.193	0.313
-304.837	-107.823	0.956	0.207
-303.822	-107.178	-0.600	-0.131
-302.807	23.828	-0.185	0.152
-301.793	800.000	-0.047	-0.162
-300.778	119.510	-0.295	-0.362
-299.764	29.487	0.598	0.504
-298.749	466.863	0.088	-0.196
-297.735	-200.000	0.027	-0.589
-296.720	-61.691	0.070	-0.029
-295.705	-200.000	0.101	0.481
-294.691	29.669	0.284	-0.239
-293.676	800.000	0.230	-0.736
-292.662	127.885	0.409	0.516
-291.647	-90.348	-0.611	0.176
-290.632	13.107	0.291	0.223
-289.618	-160.226	0.281	0.015
-288.603	-200.000	-0.044	0.420
-287.589	-200.000	0.014	0.408
-286.574	36.538	0.668	-0.585
-285.559	260.040	0.214	-0.367
-284.545	797.802	-0.161	0.441
-283.530	800.000	-0.143	0.595
-282.516	-129.154	-0.147	-0.020
-281.501	234.043	-0.351	0.574
-280.486	87.508	0.218	-0.240
-279.472	189.476	0.503	-0.747
-278.457	-60.669	-0.434	-0.182
-277.443	-81.171	-0.687	0.225
-276.428	-97.910	0.224	-0.057
-275.413	-26.729	-1.356	0.786
-274.399	272.893	0.506	-0.885
-273.384	69.135	-0.188	0.192
-272.370	-200.000	-0.132	0.813
-271.355	-88.735	-0.250	-0.074
-270.340	-25.770	-0.131	0.076
-269.326	-200.000	-0.029	0.776
-268.311	-46.372	-0.691	0.336
-267.297	-57.827	0.194	0.084
-266.282	-45.476	-0.826	0.405
-265.267	45.706	-0.433	0.397
-264.253	13.450	0.654	0.503
-263.238	155.214	-0.422	0.575
-262.224	-140.449	-0.279	-0.029
-261.209	-62.826	0.302	0.124
-260.195	-200.000	-0.032	-0.586
-259.180	-96.133	0.445	0.117
-258.165	29.643	-0.631	0.532
-257.151	-200.000	0.008	0.136
-256.136	-114.887	-0.518	-0.098
-255.122	800.000	0.114	-0.412
-254.107	-65.258	0.715	-0.285
-253.092	-11.555	-0.430	0.280
-252.078	-19.652	-0.328	-0.201
-251.063	-33.320	0.245	0.134
-250.049	800.000	-0.206	0.870
-249.034	-200.000	0.057	-0.385
-248.019	26.489	0.151	0.125
-247.005	-103.086	1.041	-0.244
-245.990	472.699	0.348	-0.776
-244.976	668.405	0.182	0.467
-243.961	33.805	0.363	0.313
-242.946	-88.293	-0.737	-0.218
-241.932	753.377	-0.299	-0.801
-240.917	-200.000	0.054	-0.262
-239.903	39.233	-0.811	0.718
-238.888	-7.877	0.629	-0.420
-237.873	800.000	-0.153	0.484
-236.859	263.508	0.327	0.563
-235.844	545.043	-0.374	0.885
-234.830	-200.000	0.021	0.181
-233.815	159.831	0.156	0.215
-232.800	107.906	-0.293	0.346
-231.786	316.750	-0.132	-0.247
-230.771	-198.814	0.380	0.002
-229.757	-61.221	-0.353	-0.147
-228.742	713.887	0.209	-0.547
-227.727	-122.557	-0.912	-0.147
-226.713	17.428	0.550	-0.432
-225.698	34.229	-0.547	0.472
-224.684	75.726	0.325	0.340
-223.669	580.720	-0.070	0.169
-222.655	-117.828	0.852	0.151
-221.640	28.679	0.158	-0.132
-220.625	800.000	0.038	-0.121
-219.611	800.000	0.042	-0.135
-218.596	162.608	0.151	-0.210
-217.582	-200.000	-0.057	-0.307
-216.567	207.809	-0.264	0.408
-215.552	-169.843	0.839	-0.030
-214.538	800.000	-0.163	0.516
-213.523	-135.949	-0.228	0.026
-212.509	-200.000	0.127	-0.561
-211.494	79.136	0.417	-0.442
-210.479	-200.000	-0.001	-0.140
-209.465	-14.934	0.742	0.471
-208.450	800.000	0.178	-0.745
-207.436	-59.797	-0.322	-0.136
-206.421	-121.000	0.335	0.056
-205.406	198.346	-0.308	0.465
-204.392	228.501	0.226	0.363
-203.377	-94.963	-0.798	0.214
-202.363	-107.801	0.813	0.175
-201.348	-200.000	0.111	-0.787
-200.333	-94.653	0.449	-0.121
-199.319	201.790	0.337	0.513
-198.304	29.111	0.288	-0.242
-197.290	-200.000	0.179	-0.875
-196.275	800.000	0.098	0.351
-195.260	495.443	-0.162	0.367
-194.246	660.871	-0.111	0.283
-193.231	-200.000	0.177	-0.766
-192.217	-86.833	-0.647	-0.195
-191.202	140.987	-0.143	0.186
-190.187	-26.929	-0.220	-0.127
-189.173	60.727	-0.763	-0.748
-188.158	62.319	-0.408	0.402
-187.144	-133.791	-0.084	0.010
-186.129	23.164	-0.555	-0.450
-185.114	132.103	0.372	-0.473
-184.100	800.000	-0.285	-0.804
-183.085	-120.996	-0.047	-0.008
-182.071	-200.000	0.096	-1.338
-181.056	-41.064	-0.296	-0.151
-180.042	85.749	-0.520	-0.564
-179.027	800.000	-0.073	-0.210
-178.012	-23.337	-0.651	-0.387
-176.998	399.694	0.077	0.160
-175.983	174.881	-0.064	-0.091
-174.969	171.834	0.477	-0.677
-173.954	-172.541	-0.444	-0.014
-172.939	87.323	-0.505	-0.551
-171.925	30.134	-0.417	-0.352
-170.910	800.000	-0.243	0.732
-169.896	-142.065	0.524	0.051
-168.881	-60.369	-0.107	-0.045
-167.866	398.449	-0.256	0.528
-166.852	588.222	-0.240	-0.583
-165.837	23.852	-0.471	0.383
-164.823	-136.219	0.968	-0.112
-163.808	-200.000	0.072	-0.739
-162.793	-57.197	-0.787	0.342
-161.779	37.059	0.641	-0.560
-160.764	-200.000	0.007	0.918
-159.750	-146.069	0.106	-0.009
-158.735	-7.211	0.393	-0.263
-157.720	800.000	-0.183	0.781
-156.706	327.616	-0.343	0.649
-155.691	-95.011	-0.611	0.163
-154.677	439.139	-0.484	-1.042
-153.662	-200.000	0.012	0.198
-152.647	-33.574	0.246	0.134
-151.633	-103.566	0.268	-0.062
-150.618	-200.000	-0.002	0.071
-149.604	3.028	-0.041	-0.029
-148.589	-200.000	-0.003	-0.443
-147.574	800.000	-0.243	-0.923
-146.560	-200.000	-0.055	-0.612
-145.545	-5.459	-0.338	0.229
-144.531	800.000	-0.133	0.459
-143.516	33.278	-0.400	-0.342
-142.502	-67.211	-0.405	-0.157
-141.487	800.000	0.213	0.674
-140.472	179.881	-0.094	-0.136
-139.458	800.000	0.247	0.806
-138.443	-79.574	-0.520	-0.173
-137.429	800.000	-0.070	0.240
-136.414	-66.021	-0.940	-0.370
-135.399	126.778	-0.174	0.217
-134.385	229.316	0.061	-0.099
-133.370	27.850	0.113	0.094
-132.356	-200.000	0.101	-0.649
-131.341	251.793	-0.075	-0.126
-130.326	-120.313	-0.149	0.025
-129.312	-0.100	-0.242	0.170
-128.297	-97.598	-0.251	-0.064
-127.283	44.740	-0.760	-0.689
-126.268	264.133	0.207	-0.355
-125.253	1.629	-0.288	0.204
-124.239	800.000	0.221	0.886
-123.224	-117.984	-0.283	0.050
-122.210	150.183	-0.337	0.451
