DTS Sentinel unit serial number:	SN413079Multiplexer serial number:	ORYXHardware model number:	OX4-SRSoftware version number:	ORYX F/W v4.00 Oryx Data Collector v3.7.2.0data status	okinstallation	princeton_trtdifferential loss correction	single-endedforward channel	channel 3reverse channel	N/Adate	2019/09/14time	04:16:35forward acquisition time	60.00reverse acquisition time	0.00gamma	496.2192k internal	0.2338k external	0.2338temperature offset calibration	1.0054default loss term (dB/km)	0.3790temperature slope calibration	1.0000multiplexer offset coefficient	1.0000multiplexer slope coefficient	1.0000fibre end	0.00T internal ref (°C)	26.73T ext. ref 1 (°C)	3.33T ext. ref 2 (°C)	21.86length (m)	temperature (°C)	Stokes	anti-Stokes-747.200	-14.460	-0.074	-0.048
-746.185	-139.356	-0.148	-0.016
-745.171	-57.591	0.256	0.113
-744.156	-182.802	-0.244	0.004
-743.142	-28.821	-0.028	-0.016
-742.127	189.578	0.185	0.279
-741.112	192.852	0.064	0.098
-740.098	207.775	0.214	0.335
-739.083	-113.619	-0.079	-0.016
-738.069	800.000	-0.023	-0.089
-737.054	-186.899	-0.131	0.002
-736.039	-37.951	-0.415	-0.221
-735.025	800.000	-0.158	0.587
-734.010	582.546	0.058	-0.143
-732.996	-200.000	0.023	-0.233
-731.981	-34.685	0.109	0.060
-730.966	-166.763	-0.253	-0.010
-729.952	147.860	-0.248	-0.335
-728.937	-200.000	-0.046	0.256
-727.923	-200.000	0.002	0.066
-726.908	-200.000	-0.067	-0.434
-725.894	35.566	0.317	-0.279
-724.879	464.080	-0.089	-0.200
-723.864	-200.000	-0.003	0.025
-722.850	457.973	0.087	-0.193
-721.835	-29.263	-0.254	-0.146
-720.821	800.000	-0.038	-0.164
-719.806	-5.673	0.104	0.072
-718.791	-44.791	-0.179	-0.090
-717.777	-147.533	-0.261	0.022
-716.762	115.556	-0.100	-0.122
-715.748	-108.892	0.264	0.056
-714.733	800.000	0.011	0.035
-713.718	91.633	0.175	0.197
-712.704	-200.000	-0.006	0.083
-711.689	161.572	0.031	-0.044
-710.675	731.574	-0.026	0.071
-709.660	-43.393	0.074	-0.037
-708.645	-61.123	0.154	0.065
-707.631	-200.000	0.036	0.165
-706.616	111.856	0.167	-0.202
-705.602	800.000	0.089	-0.349
-704.587	28.582	0.095	-0.080
-703.572	213.795	-0.129	-0.204
-702.558	77.103	-0.193	0.206
-701.543	0.916	0.191	-0.137
-700.529	-200.000	0.000	0.154
-699.514	800.000	0.061	-0.217
-698.499	2.166	-0.221	-0.160
-697.485	800.000	0.027	-0.114
-696.470	405.464	-0.193	-0.407
-695.456	358.335	0.148	-0.296
-694.441	611.504	0.029	-0.073
-693.426	-47.646	-0.115	-0.056
-692.412	-37.910	-0.328	-0.175
-691.397	800.000	-0.073	0.286
-690.383	436.256	-0.096	0.208
-689.368	178.666	0.176	-0.257
-688.354	264.027	-0.063	0.110
-687.339	-200.000	0.033	-0.418
-686.324	-200.000	-0.019	-0.322
-685.310	800.000	-0.084	-0.329
-684.295	311.342	-0.238	-0.447
-683.281	55.626	0.207	0.201
-682.266	-28.951	-0.213	0.123
-681.251	-10.907	0.179	0.118
-680.237	-33.045	-0.370	-0.205
-679.222	-83.879	0.177	-0.057
-678.208	800.000	-0.093	0.373
-677.193	68.892	0.081	-0.083
-676.178	-173.860	0.174	-0.005
-675.164	-200.000	-0.002	0.133
-674.149	33.692	0.131	-0.114
-673.135	-200.000	0.006	-0.261
-672.120	-90.228	-0.353	-0.103
-671.105	335.894	0.113	-0.219
-670.091	456.170	-0.100	0.223
-669.076	-129.804	0.153	-0.021
-668.062	52.617	0.052	0.050
-667.047	-152.300	0.250	0.018
-666.032	800.000	-0.045	0.136
-665.018	-96.773	0.282	0.074
-664.003	188.007	-0.258	0.385
-662.989	16.623	-0.132	0.105
-661.974	-79.670	0.428	0.144
-660.959	110.341	0.101	0.122
-659.945	-171.860	0.003	-0.000
-658.930	-112.427	-0.464	-0.093
-657.916	172.097	-0.106	-0.153
-656.901	800.000	0.104	0.301
-655.886	219.809	-0.224	0.359
-654.872	360.631	0.097	0.194
-653.857	157.124	0.115	-0.159
-652.843	-99.251	-0.300	-0.076
-651.828	-62.437	0.048	-0.020
-650.814	-200.000	0.156	-0.001
-649.799	310.862	0.053	0.100
-648.784	286.107	-0.258	0.465
-647.770	378.415	-0.072	0.147
-646.755	-200.000	-0.032	-0.184
-645.741	300.800	-0.029	0.053
-644.726	485.309	0.045	-0.102
-643.711	-139.412	0.344	0.037
-642.697	-200.000	-0.009	0.068
-641.682	-100.700	-0.062	0.015
-640.668	800.000	-0.116	-0.408
-639.653	-8.546	0.179	0.120
-638.638	563.204	-0.038	0.091
-637.624	97.527	0.165	-0.189
-636.609	180.850	-0.214	-0.315
-635.595	-125.031	0.238	-0.037
-634.580	479.272	0.017	0.039
-633.565	-97.240	0.304	0.079
-632.551	118.090	-0.168	-0.208
-631.536	-32.936	-0.105	0.058
-630.522	-64.732	0.131	-0.053
-629.507	-200.000	0.081	0.368
-628.492	-60.933	-0.220	0.093
-627.478	800.000	0.037	-0.113
-626.463	15.800	-0.134	0.105
-625.449	603.477	0.074	0.185
-624.434	-200.000	0.045	0.217
-623.419	-20.488	0.114	0.070
-622.405	800.000	0.029	0.095
-621.390	183.277	0.228	0.337
-620.376	800.000	0.089	-0.295
-619.361	-200.000	-0.008	-0.160
-618.346	-200.000	-0.061	0.352
-617.332	598.736	0.009	0.023
-616.317	-94.509	0.173	0.047
-615.303	-39.642	-0.271	-0.141
-614.288	-60.044	0.099	0.042
-613.273	-15.744	0.181	0.115
-612.259	-50.129	-0.239	0.113
-611.244	-200.000	-0.052	-0.302
-610.230	70.496	0.194	-0.200
-609.215	-170.071	-0.049	-0.002
-608.201	-10.325	0.366	0.242
-607.186	320.887	-0.047	-0.089
-606.171	429.248	-0.104	0.224
-605.157	-59.774	0.148	-0.063
-604.142	565.518	-0.193	-0.468
-603.128	-200.000	-0.119	-0.557
-602.113	40.937	0.121	-0.109
-601.098	-200.000	-0.015	0.145
-600.084	-56.270	-0.101	0.045
-599.069	-200.000	-0.265	0.001
-598.055	53.737	0.160	0.154
-597.040	800.000	0.098	0.327
-596.025	-91.847	-0.149	0.042
-595.011	-128.695	0.199	0.028
-593.996	490.535	-0.134	-0.305
-592.982	-200.000	-0.001	0.130
-591.967	120.428	0.140	0.174
-590.952	199.474	0.074	-0.113
-589.938	800.000	0.050	0.173
-588.923	-193.909	0.077	0.001
-587.909	-200.000	-0.003	0.039
-586.894	-200.000	0.016	0.116
-585.879	471.851	-0.074	-0.167
-584.865	-7.676	0.228	-0.153
-583.850	201.711	-0.167	-0.257
-582.836	-112.694	-0.275	0.055
-581.821	800.000	0.097	-0.332
-580.806	-58.621	-0.094	0.041
-579.792	144.922	0.134	-0.179
-578.777	800.000	0.072	0.233
-577.763	-106.395	0.024	0.005
-576.748	-61.675	-0.226	-0.095
-575.733	-42.208	0.183	-0.093
-574.719	49.265	0.207	0.194
-573.704	-200.000	0.026	0.351
-572.690	241.279	0.067	-0.111
-571.675	-200.000	0.055	-0.292
-570.661	-44.564	0.327	-0.163
-569.646	140.328	0.027	-0.036
-568.631	-118.729	0.313	0.055
-567.617	-68.108	-0.188	-0.073
-566.602	-113.514	-0.233	-0.045
-565.588	90.097	0.078	-0.087
-564.573	155.089	-0.228	-0.312
-563.558	-200.000	0.004	0.084
-562.544	-17.865	0.191	0.120
-561.529	52.096	-0.073	-0.069
-560.515	141.868	-0.014	0.018
-559.500	94.879	-0.131	0.148
-558.485	403.036	-0.078	-0.164
-557.471	-36.939	-0.159	0.085
-556.456	-21.082	0.197	0.120
-555.442	-64.152	0.216	0.088
-554.427	14.454	-0.396	0.308
-553.412	-75.535	-0.190	-0.067
-552.398	-95.893	-0.306	-0.081
-551.383	48.975	0.204	0.191
-550.369	-170.043	-0.191	-0.007
-549.354	-200.000	-0.012	-0.292
-548.339	-191.481	-0.069	-0.001
-547.325	-124.469	-0.122	0.019
-546.310	-10.084	0.226	0.150
-545.296	103.350	0.187	-0.218
-544.281	-150.929	0.184	0.014
-543.266	-121.559	0.184	-0.030
-542.252	219.408	-0.113	0.181
-541.237	-136.256	-0.398	0.046
-540.223	-28.209	-0.216	0.124
-539.208	-200.000	-0.002	0.189
-538.193	-200.000	-0.038	-0.193
-537.179	128.820	-0.199	-0.252
-536.164	-87.906	0.103	-0.031
-535.150	-200.000	0.023	0.103
-534.135	-200.000	0.033	-0.235
-533.121	-78.631	-0.221	-0.075
-532.106	800.000	-0.088	-0.249
-531.091	-9.730	0.034	0.023
-530.077	-56.634	-0.037	-0.016
-529.062	800.000	0.062	-0.183
-528.048	-200.000	0.037	0.202
-527.033	-101.589	-0.400	0.097
-526.018	220.522	0.110	-0.176
-525.004	-53.691	0.328	-0.149
-523.989	105.163	-0.171	-0.200
-522.975	-79.360	-0.307	-0.104
-521.960	238.439	-0.065	-0.108
-520.945	-200.000	0.012	-0.147
-519.931	-58.727	0.115	0.050
-518.916	406.230	0.125	0.262
-517.902	-97.162	-0.287	-0.075
-516.887	-146.288	-0.257	-0.022
-515.872	-17.129	0.363	0.228
-514.858	-14.661	0.159	0.102
-513.843	196.110	-0.131	0.199
-512.829	-5.785	-0.149	-0.101
-511.814	81.673	0.252	0.271
-510.799	78.534	-0.139	0.147
-509.785	50.009	-0.095	-0.089
-508.770	-121.678	-0.091	0.015
-507.756	85.492	0.112	-0.123
-506.741	800.000	0.036	-0.123
-505.726	-82.298	-0.183	-0.059
-504.712	-1.852	0.062	-0.043
-503.697	-76.831	-0.391	0.136
-502.683	-59.192	0.070	0.030
-501.668	-60.305	-0.093	-0.040
-500.653	205.266	0.035	-0.054
-499.639	73.392	0.160	0.166
-498.624	106.469	0.098	0.115
-497.610	-200.000	-0.005	-0.234
-496.595	540.354	0.109	-0.259
-495.581	-144.333	-0.150	0.014
-494.566	-110.770	-0.075	0.015
-493.551	57.971	-0.222	-0.216
-492.537	-175.697	-0.353	0.009
-491.522	-200.000	-0.021	0.276
-490.508	593.914	-0.209	0.513
-489.493	-148.407	0.531	-0.043
-488.478	126.226	-0.124	-0.155
-487.464	45.603	0.056	-0.052
-486.449	-200.000	-0.060	-0.441
-485.435	603.393	-0.125	-0.309
-484.420	746.439	0.134	-0.358
-483.405	65.839	0.051	0.051
-482.391	-147.706	0.070	-0.006
-481.376	-200.000	0.056	0.697
-480.362	-200.000	-0.020	0.090
-479.347	174.149	-0.106	0.152
-478.332	729.053	-0.054	0.142
-477.318	-200.000	-0.017	-0.076
-476.303	82.289	0.136	0.146
-475.289	-200.000	-0.021	0.102
-474.274	-36.602	-0.264	-0.141
-473.259	-180.139	-0.083	-0.002
-472.245	34.837	-0.163	0.142
-471.230	-93.119	-0.159	0.044
-470.216	-45.527	-0.222	-0.109
-469.201	596.461	-0.111	0.274
-468.186	168.655	-0.095	-0.134
-467.172	800.000	-0.051	-0.182
-466.157	-64.199	0.256	-0.103
-465.143	-103.315	-0.393	0.092
-464.128	-78.511	0.178	0.060
-463.113	-200.000	-0.081	-0.389
-462.099	203.039	0.082	-0.126
-461.084	450.084	-0.087	-0.191
-460.070	-101.948	-0.115	0.028
-459.055	156.036	0.206	-0.282
-458.040	-128.188	-0.361	0.051
-457.026	341.376	0.191	-0.370
-456.011	89.200	-0.241	-0.266
-454.997	198.180	0.060	0.091
-453.982	-200.000	-0.012	-0.336
-452.968	-127.019	-0.067	0.010
-451.953	-81.458	0.320	0.105
-450.938	-66.607	-0.115	0.045
-449.924	-134.727	0.181	-0.022
-448.909	233.720	-0.156	0.254
-447.895	800.000	-0.015	0.056
-446.880	-11.160	-0.106	-0.069
-445.865	-113.742	-0.362	-0.070
-444.851	-62.976	0.243	0.100
-443.836	800.000	-0.014	-0.055
-442.822	4.911	0.025	-0.018
-441.807	-200.000	0.028	-0.300
-440.792	-79.908	-0.254	0.085
-439.778	-200.000	0.029	0.252
-438.763	-92.753	-0.403	-0.112
-437.749	-200.000	0.063	0.318
-436.734	-146.962	0.111	-0.009
-435.719	-119.322	-0.190	0.033
-434.705	0.000	0.117	0.083
-433.690	-105.857	0.449	-0.100
-432.676	-200.000	0.031	-0.257
-431.661	97.200	0.266	-0.303
-430.646	800.000	0.047	-0.201
-429.632	388.705	0.075	-0.153
-428.617	125.100	0.082	0.103
-427.603	68.798	0.150	0.152
-426.588	-77.881	-0.484	-0.165
-425.573	-194.528	-0.108	0.001
-424.559	-200.000	0.071	0.318
-423.544	81.332	-0.102	0.109
-422.530	10.466	-0.204	0.154
-421.515	-152.562	-0.227	0.016
-420.500	435.313	0.074	0.159
-419.486	159.445	-0.150	0.207
-418.471	383.357	0.070	0.144
-417.457	-17.064	0.017	-0.011
-416.442	-50.232	-0.112	0.053
-415.428	395.535	0.048	0.100
-414.413	-161.045	-0.445	-0.023
-413.398	613.964	-0.098	-0.243
-412.384	187.409	-0.288	-0.426
-411.369	199.625	-0.065	-0.099
-410.355	-200.000	-0.093	-0.651
-409.340	-102.494	0.194	-0.046
-408.325	225.246	0.150	0.241
-407.311	157.024	-0.049	-0.067
-406.296	0.633	-0.165	0.117
-405.282	-200.000	-0.017	0.227
-404.267	249.550	-0.072	-0.122
-403.252	800.000	0.020	-0.063
-402.238	80.405	-0.221	-0.235
-401.223	188.927	-0.126	0.187
-400.209	-142.280	0.179	0.018
-399.194	183.733	-0.101	0.149
-398.179	32.240	-0.265	0.226
-397.165	-200.000	-0.017	0.097
-396.150	-109.872	-0.283	-0.059
-395.136	-35.685	0.173	-0.093
-394.121	-14.729	0.166	0.106
-393.106	195.704	-0.160	0.242
-392.092	-19.308	0.237	-0.145
-391.077	440.070	0.144	-0.312
-390.063	-172.584	0.336	-0.010
-389.048	84.845	0.103	0.112
-388.033	-57.078	0.048	0.021
-387.019	-70.880	0.071	0.027
-386.004	-69.964	0.364	-0.137
-384.990	195.212	0.163	0.245
-383.975	-77.951	-0.374	0.128
-382.960	300.459	-0.045	-0.082
-381.946	-200.000	0.003	0.110
-380.931	768.475	0.077	-0.208
-379.917	-39.542	0.185	-0.096
-378.902	-51.368	-0.321	-0.149
-377.888	-158.277	-0.361	0.021
-376.873	-133.072	-0.076	-0.010
-375.858	-174.764	0.283	0.008
-374.844	168.493	0.044	-0.062
-373.829	-200.000	0.004	0.309
-372.815	309.692	0.087	0.161
-371.800	-23.614	0.186	0.110
-370.785	145.080	-0.111	0.147
-369.771	-198.135	0.187	0.001
-368.756	81.692	0.125	-0.134
-367.742	57.808	0.325	-0.314
-366.727	800.000	-0.027	-0.080
-365.712	194.875	0.275	0.413
-364.698	-185.019	0.208	0.003
-363.683	-146.324	-0.343	0.030
-362.669	-98.503	-0.105	-0.026
-361.654	-88.128	0.221	-0.066
-360.639	139.689	-0.171	-0.222
-359.625	800.000	0.054	-0.166
-358.610	-200.000	0.056	0.257
-357.596	-120.178	-0.424	0.072
-356.581	123.121	0.128	0.158
-355.566	77.326	0.075	-0.078
-354.552	-159.722	0.311	-0.017
-353.537	800.000	0.034	-0.119
-352.523	800.000	-0.108	-0.330
-351.508	800.000	-0.045	0.134
-350.493	-23.987	0.203	-0.120
-349.479	701.620	-0.147	-0.381
-348.464	-11.257	-0.101	0.066
-347.450	4.665	0.100	0.072
-346.435	-71.864	-0.169	-0.062
-345.420	-61.674	0.162	-0.067
-344.406	328.585	-0.049	-0.093
-343.391	-19.921	-0.260	0.159
-342.377	-200.000	0.015	-0.081
-341.362	567.276	0.087	-0.209
-340.348	800.000	-0.077	0.257
-339.333	-72.588	-0.085	-0.031
-338.318	106.551	0.291	0.341
-337.304	-200.000	0.099	0.433
-336.289	-72.297	0.278	-0.102
-335.275	800.000	-0.071	-0.225
-334.260	800.000	0.096	0.291
-333.245	-10.942	-0.028	0.018
-332.231	-200.000	0.031	0.193
-331.216	-200.000	-0.029	-0.265
-330.202	20.220	-0.113	0.090
-329.187	-200.000	-0.022	-0.099
-328.172	-200.000	-0.003	-0.637
-327.158	81.498	-0.169	0.181
-326.143	287.379	0.185	0.330
-325.129	24.294	-0.147	-0.120
-324.114	-61.264	-0.168	-0.070
-323.099	-57.239	0.070	0.031
-322.085	-200.000	-0.397	0.000
-321.070	800.000	0.089	0.304
-320.056	238.552	0.059	-0.097
-319.041	-200.000	-0.044	0.213
-318.026	-160.803	-0.161	0.008
-317.012	-87.924	0.175	0.052
-315.997	-158.610	-0.330	-0.019
-314.983	765.559	0.074	0.198
-313.968	800.000	0.078	0.256
-312.953	-113.020	0.140	-0.027
-311.939	53.608	0.303	0.286
-310.924	-53.407	0.116	0.053
-309.910	-60.303	0.114	0.048
-308.895	-197.912	0.033	0.000
-307.880	-200.000	0.032	-0.328
-306.866	800.000	-0.138	0.397
-305.851	345.148	0.190	0.367
-304.837	-200.000	0.017	0.396
-303.822	-95.919	0.285	-0.075
-302.807	92.344	0.236	0.263
-301.793	-40.000	-0.176	-0.091
-300.778	51.084	-0.061	-0.057
-299.764	-200.000	0.030	0.315
-298.749	-200.000	-0.002	-0.022
-297.735	71.899	-0.119	0.122
-296.720	-200.000	0.044	-0.238
-295.705	18.782	0.045	0.036
-294.691	800.000	0.059	-0.166
-293.676	293.882	-0.101	0.182
-292.662	577.266	0.086	0.208
-291.647	-76.393	0.141	-0.049
-290.632	109.533	-0.148	-0.174
-289.618	-122.616	0.320	0.051
-288.603	36.714	0.063	0.055
-287.589	-130.570	0.208	-0.028
-286.574	-200.000	0.007	-0.220
-285.559	-48.700	0.152	-0.072
-284.545	242.240	0.018	-0.030
-283.530	71.187	0.243	-0.248
-282.516	-181.715	0.401	0.008
-281.501	-131.136	0.493	0.065
-280.486	800.000	-0.074	0.219
-279.472	590.993	0.039	-0.096
-278.457	-200.000	-0.030	-0.279
-277.443	-11.621	0.144	0.093
-276.428	-74.805	-0.183	0.065
-275.413	-8.601	0.326	-0.216
-274.399	56.506	-0.122	-0.117
-273.384	775.458	-0.104	-0.279
-272.370	-103.047	-0.237	-0.055
-271.355	-72.856	-0.179	0.065
-270.340	-131.233	0.209	-0.027
-269.326	-75.019	0.113	0.040
-268.311	-152.078	0.382	0.027
-267.297	-97.262	0.043	0.011
-266.282	-44.705	0.164	0.081
-265.267	-104.323	-0.349	0.080
-264.253	60.798	0.118	0.115
-263.238	800.000	0.078	-0.274
-262.224	-200.000	0.007	0.128
-261.209	-153.388	0.062	0.004
-260.195	241.277	0.041	-0.068
-259.180	-155.562	-0.091	0.006
-258.165	233.628	-0.137	-0.222
-257.151	-92.681	-0.284	-0.078
-256.136	-139.317	0.178	0.019
-255.122	240.686	0.097	0.159
-254.107	-34.728	-0.225	-0.121
-253.092	-87.667	0.253	-0.075
-252.078	-200.000	-0.033	-0.227
-251.063	800.000	0.047	-0.187
-250.049	800.000	0.023	-0.072
-249.034	-200.000	0.035	-0.276
-248.019	191.580	0.182	-0.269
-247.005	-200.000	-0.005	0.180
-245.990	81.984	0.180	-0.192
-244.976	-116.060	0.293	0.054
-243.961	260.283	0.137	-0.234
-242.946	565.804	-0.128	0.306
-241.932	-200.000	-0.075	0.375
-240.917	-200.000	0.003	-0.061
-239.903	-3.496	-0.170	0.116
-238.888	-92.842	-0.142	-0.039
-237.873	58.197	-0.111	0.107
-236.859	-32.971	-0.537	0.293
-235.844	670.211	-0.069	0.175
-234.830	-200.000	-0.075	0.342
-233.815	-77.688	0.210	0.072
-232.800	800.000	-0.061	0.170
-231.786	42.709	-0.220	-0.197
-230.771	-70.028	0.406	0.152
-229.757	800.000	0.138	0.444
-228.742	17.403	-0.410	0.320
-227.727	-54.532	0.237	-0.105
-226.713	163.693	0.117	0.162
-225.698	-172.985	-0.153	0.005
-224.684	-106.929	-0.202	0.044
-223.669	722.902	-0.064	0.168
-222.655	-23.711	0.089	0.053
-221.640	420.319	0.143	-0.302
-220.625	800.000	-0.099	-0.343
-219.611	-22.958	-0.248	-0.147
-218.596	800.000	-0.014	-0.039
-217.582	-200.000	-0.090	-0.449
-216.567	-200.000	-0.012	0.240
-215.552	-80.728	-0.227	-0.074
-214.538	-90.805	-0.293	-0.083
-213.523	-38.301	-0.239	0.124
-212.509	-200.000	0.035	-0.295
-211.494	-39.516	0.201	-0.103
-210.479	-27.893	0.181	-0.103
-209.465	-200.000	0.012	0.177
-208.450	291.460	0.048	-0.086
-207.436	800.000	0.089	-0.257
-206.421	100.744	0.215	0.245
-205.406	4.279	-0.374	0.269
-204.392	89.364	0.085	0.093
-203.377	-200.000	-0.023	-0.202
-202.363	-58.720	-0.191	0.081
-201.348	-200.000	0.024	-0.142
-200.333	-24.446	-0.027	0.016
-199.319	-155.148	-0.086	0.006
-198.304	191.215	-0.099	0.147
-197.290	-55.732	0.316	0.139
-196.275	800.000	-0.049	0.137
-195.260	800.000	0.031	-0.109
-194.246	-133.027	-0.253	0.032
-193.231	-129.746	-0.079	-0.011
-192.217	-200.000	-0.005	0.102
-191.202	266.047	0.155	0.265
-190.187	8.774	-0.283	-0.209
-189.173	-200.000	0.001	-0.179
-188.158	-59.206	0.336	0.142
-187.144	-200.000	-0.000	0.084
-186.129	112.200	0.212	-0.252
-185.114	-49.262	0.264	0.124
-184.100	-167.756	0.318	-0.012
-183.085	76.342	-0.227	0.236
-182.071	-149.935	-0.237	0.018
-181.056	382.962	0.022	-0.045
-180.042	-144.802	0.121	0.011
-179.027	126.580	0.240	0.298
-178.012	71.172	0.061	-0.062
-176.998	-146.331	0.039	-0.003
-175.983	-96.416	-0.085	-0.022
-174.969	164.860	0.177	-0.245
-173.954	-83.524	-0.174	0.055
-172.939	-123.649	-0.371	0.058
-171.925	-200.000	-0.016	0.191
-170.910	-200.000	-0.028	-0.196
-169.896	-82.315	0.134	-0.043
-168.881	-200.000	0.047	-0.260
-167.866	173.197	0.213	-0.301
-166.852	-200.000	0.023	0.110
-165.837	2.179	0.263	0.187
-164.823	441.630	-0.078	0.167
-163.808	107.164	0.180	0.210
-162.793	-200.000	-0.025	0.312
-161.779	-200.000	-0.223	-0.000
-160.764	392.059	0.099	-0.203
-159.750	-96.698	0.077	-0.020
-158.735	-43.369	-0.081	0.040
-157.720	-83.535	0.204	0.064
-156.706	51.100	-0.128	-0.119
-155.691	695.876	0.031	0.081
-154.677	800.000	-0.067	-0.226
-153.662	22.294	-0.121	-0.097
-152.647	-23.587	0.230	-0.135
-151.633	-200.000	0.032	0.145
-150.618	-200.000	0.024	0.184
-149.604	-52.512	0.148	-0.067
-148.589	108.664	-0.088	-0.103
-147.574	0.145	-0.193	-0.135
-146.560	-72.386	0.296	0.107
-145.545	70.677	-0.140	0.142
-144.531	800.000	-0.114	-0.342
-143.516	-200.000	0.003	0.116
-142.502	-90.363	0.225	0.064
-141.487	146.788	-0.097	0.128
-140.472	27.142	0.264	-0.217
-139.458	140.669	0.202	-0.261
-138.443	800.000	0.047	0.131
-137.429	-2.794	0.257	-0.176
-136.414	162.640	0.157	0.217
-135.399	533.085	0.165	0.383
-134.385	-70.121	0.222	-0.083
-133.370	546.715	0.089	-0.208
-132.356	430.147	-0.137	-0.292
-131.341	-135.867	0.290	-0.034
-130.326	7.287	0.182	-0.133
-129.312	89.918	0.154	0.168
-128.297	-168.270	0.080	0.003
-127.283	355.481	-0.048	0.094
-126.268	4.712	0.125	0.090
-125.253	-143.403	0.307	0.029
-124.239	-200.000	-0.211	0.000
-123.224	-73.168	0.193	-0.069
-122.210	-18.294	-0.049	0.030
-121.195	354.800	-0.035	0.068
