DTS Sentinel unit serial number:	SN413079Multiplexer serial number:	ORYXHardware model number:	OX4-SRSoftware version number:	ORYX F/W v4.00 Oryx Data Collector v3.7.2.0data status	okinstallation	princeton_trtdifferential loss correction	single-endedforward channel	channel 3reverse channel	N/Adate	2019/09/11time	15:26:11forward acquisition time	60.00reverse acquisition time	0.00gamma	496.2192k internal	0.2290k external	0.2290temperature offset calibration	0.9985default loss term (dB/km)	0.3790temperature slope calibration	1.0000multiplexer offset coefficient	1.0000multiplexer slope coefficient	1.0000fibre end	0.00T internal ref (°C)	42.87T ext. ref 1 (°C)	0.98T ext. ref 2 (°C)	37.90length (m)	temperature (°C)	Stokes	anti-Stokes-747.200	7.453	-0.374	-0.286
-746.185	-37.487	0.184	0.101
-745.171	49.233	0.164	-0.158
-744.156	56.963	0.069	0.069
-743.142	800.000	-0.018	0.072
-742.127	470.722	-0.120	0.277
-741.112	614.945	0.029	-0.076
-740.098	27.149	-0.105	-0.090
-739.083	-167.680	0.339	0.014
-738.069	205.433	0.276	0.440
-737.054	-56.886	0.042	0.019
-736.039	291.074	0.112	-0.208
-735.025	-46.515	0.145	0.073
-734.010	-9.988	-0.175	-0.119
-732.996	-19.562	0.164	0.104
-731.981	-63.972	-0.366	0.153
-730.966	-71.663	0.297	-0.114
-729.952	-117.917	0.077	-0.014
-728.937	-8.999	-0.236	0.162
-727.923	10.172	-0.116	0.091
-726.908	-200.000	-0.007	-0.457
-725.894	19.579	0.161	0.133
-724.879	-200.000	-0.018	-0.158
-723.864	-200.000	-0.021	-0.227
-722.850	800.000	0.028	0.103
-721.835	800.000	-0.063	0.199
-720.821	153.215	-0.082	0.115
-719.806	-134.664	-0.059	-0.007
-718.791	-63.726	0.232	0.097
-717.777	701.742	-0.025	0.067
-716.762	297.426	0.122	-0.229
-715.748	256.889	0.095	-0.168
-714.733	-39.133	-0.181	-0.098
-713.718	800.000	-0.022	-0.071
-712.704	83.029	0.106	0.118
-711.689	-92.384	0.381	0.110
-710.675	20.467	0.154	0.128
-709.660	-109.029	0.270	0.059
-708.645	-66.420	0.182	-0.074
-707.631	-14.907	-0.272	0.179
-706.616	-200.000	0.028	-0.147
-705.602	-104.036	-0.326	-0.078
-704.587	800.000	0.048	0.176
-703.572	517.482	-0.057	-0.135
-702.558	33.707	-0.139	0.124
-701.543	171.732	0.032	-0.047
-700.529	354.302	-0.129	0.263
-699.514	-1.826	0.215	-0.155
-698.499	579.746	0.064	0.161
-697.485	463.727	0.017	-0.039
-696.470	-94.624	0.082	-0.023
-695.456	-200.000	-0.013	-0.194
-694.441	270.819	-0.041	0.074
-693.426	-122.228	0.441	0.074
-692.412	-94.446	-0.134	-0.037
-691.397	-127.654	0.286	-0.042
-690.383	269.758	0.143	-0.258
-689.368	150.864	-0.128	0.179
-688.354	-181.843	0.176	-0.003
-687.339	193.906	-0.036	0.056
-686.324	800.000	-0.201	0.598
-685.310	-137.658	0.118	0.014
-684.295	-39.491	-0.362	0.194
-683.281	-200.000	0.002	-0.054
-682.266	1.836	0.358	0.264
-681.251	-78.566	0.147	-0.051
-680.237	-4.089	-0.203	-0.144
-679.222	132.617	0.096	-0.127
-678.208	55.680	-0.143	0.142
-677.193	-98.740	-0.166	0.043
-676.178	-1.112	0.176	-0.127
-675.164	87.787	-0.182	0.206
-674.149	-93.786	0.036	-0.010
-673.135	194.913	-0.127	0.197
-672.120	57.968	0.210	-0.210
-671.105	-73.473	-0.188	-0.070
-670.091	800.000	-0.070	-0.243
-669.076	-200.000	0.035	-0.446
-668.062	-81.424	0.109	-0.037
-667.047	-200.000	0.052	-0.334
-666.032	-55.435	0.117	0.054
-665.018	-115.547	0.160	-0.031
-664.003	111.502	-0.168	0.207
-662.989	82.401	0.164	-0.182
-661.974	113.028	-0.289	-0.358
-660.959	88.759	-0.264	-0.299
-659.945	-105.663	0.146	-0.034
-658.930	191.234	-0.141	0.216
-657.916	-137.784	0.268	-0.031
-656.901	-30.326	0.081	-0.047
-655.886	-62.058	-0.185	0.079
-654.872	-23.540	0.087	-0.053
-653.857	-200.000	0.016	-0.178
-652.843	168.215	0.212	-0.308
-651.828	684.782	-0.156	-0.414
-650.814	76.027	0.217	-0.234
-649.799	-200.000	0.014	0.421
-648.784	-21.026	-0.194	0.121
-647.770	800.000	0.077	-0.228
-646.755	124.122	0.189	-0.243
-645.741	-200.000	0.017	0.302
-644.726	-200.000	-0.025	0.398
-643.711	605.813	-0.156	-0.395
-642.697	-96.015	0.075	0.020
-641.682	255.574	-0.205	0.359
-640.668	567.401	-0.152	-0.377
-639.653	-57.191	-0.212	-0.095
-638.638	-130.534	0.253	-0.035
-637.624	-1.764	-0.236	-0.170
-636.609	24.053	0.104	-0.088
-635.595	-174.669	0.147	0.004
-634.580	231.133	0.227	-0.379
-633.565	-200.000	0.004	0.169
-632.551	768.592	-0.073	0.203
-631.536	-131.445	0.182	0.025
-630.522	133.257	-0.143	0.188
-629.507	25.802	0.077	-0.065
-628.492	-21.586	0.181	0.112
-627.478	-102.275	-0.223	-0.055
-626.463	-38.127	-0.238	-0.129
-625.449	71.341	0.201	0.213
-624.434	212.296	-0.228	0.366
-623.419	800.000	0.100	0.343
-622.405	-59.166	0.159	0.070
-621.390	67.657	-0.122	0.128
-620.376	-94.291	0.200	0.056
-619.361	526.630	-0.069	-0.166
-618.346	173.658	0.139	-0.204
-617.332	95.312	-0.161	-0.187
-616.317	-181.968	0.048	-0.001
-615.303	14.055	0.231	-0.183
-614.288	614.072	0.051	-0.131
-613.273	-144.470	-0.135	-0.013
-612.259	-77.970	-0.329	0.116
-611.244	126.180	-0.155	-0.200
-610.230	163.449	0.125	-0.179
-609.215	-41.060	-0.073	-0.038
-608.201	44.902	-0.051	-0.048
-607.186	376.073	0.159	0.332
-606.171	35.259	0.030	0.027
-605.157	49.043	-0.247	0.237
-604.142	66.034	0.242	0.250
-603.128	-148.230	0.289	-0.024
-602.113	-139.974	-0.129	-0.014
-601.098	114.073	0.128	0.158
-600.084	41.933	0.152	0.140
-599.069	166.993	-0.115	0.167
-598.055	-164.446	0.203	0.009
-597.040	486.415	-0.039	-0.091
-596.025	225.716	0.158	0.261
-595.011	83.552	-0.038	0.043
-593.996	-200.000	-0.013	0.348
-592.982	289.662	-0.182	-0.336
-591.967	-13.991	0.132	-0.087
-590.952	-44.848	0.178	-0.090
-589.938	-200.000	0.006	-0.104
-588.923	290.505	-0.051	-0.094
-587.909	-48.110	0.331	0.163
-586.894	136.905	0.191	-0.254
-585.879	581.742	-0.068	-0.169
-584.865	80.842	0.225	-0.248
-583.850	-200.000	-0.004	0.166
-582.836	-6.591	0.451	-0.313
-581.821	-40.415	-0.128	-0.067
-580.806	-200.000	0.040	-0.322
-579.792	-125.457	-0.088	-0.014
-578.777	800.000	0.031	0.119
-577.763	-34.516	-0.195	0.109
-576.748	-112.686	0.233	0.047
-575.733	-200.000	0.045	0.216
-574.719	-106.964	-0.370	0.083
-573.704	106.195	-0.209	-0.252
-572.690	-38.173	0.177	-0.095
-571.675	-179.812	0.269	0.006
-570.661	-92.281	-0.337	0.097
-569.646	-57.301	0.114	-0.051
-568.631	-84.883	-0.182	0.058
-567.617	108.508	-0.253	0.308
-566.602	115.796	0.052	0.065
-565.588	144.425	0.191	-0.259
-564.573	-129.920	-0.327	-0.046
-563.558	248.808	-0.210	-0.361
-562.544	800.000	-0.077	0.284
-561.529	-137.772	0.259	0.030
-560.515	22.915	-0.126	-0.105
-559.500	-9.447	-0.195	-0.133
-558.485	800.000	0.038	0.124
-557.471	115.269	0.210	0.261
-556.456	-200.000	0.040	0.212
-555.442	-111.390	0.226	0.047
-554.427	447.464	0.115	0.257
-553.412	40.294	0.183	0.167
-552.398	-97.587	-0.241	-0.064
-551.383	-31.279	0.205	0.117
-550.369	-172.851	0.079	0.002
-549.354	201.947	0.076	0.119
-548.339	-137.781	0.216	-0.025
-547.325	-74.366	-0.188	-0.069
-546.310	5.346	-0.103	-0.077
-545.296	-4.832	-0.037	0.026
-544.281	-200.000	0.006	0.244
-543.266	-150.778	-0.361	-0.028
-542.252	-50.820	0.297	0.142
-541.237	-105.389	-0.351	-0.081
-540.223	-62.505	-0.419	0.177
-539.208	213.243	-0.190	-0.305
-538.193	-200.000	-0.007	0.038
-537.179	28.052	0.337	0.289
-536.164	-200.000	-0.023	0.191
-535.150	800.000	0.117	-0.383
-534.135	-13.564	-0.036	0.024
-533.121	25.497	-0.220	0.186
-532.106	-151.632	-0.437	-0.033
-531.091	-200.000	0.024	-0.358
-530.077	800.000	0.052	-0.155
-529.062	-84.451	-0.207	-0.066
-528.048	-93.964	0.039	-0.011
-527.033	800.000	-0.092	-0.283
-526.018	-200.000	-0.020	0.187
-525.004	-200.000	0.012	-0.297
-523.989	800.000	-0.094	-0.264
-522.975	20.698	0.137	-0.113
-521.960	36.261	0.036	-0.032
-520.945	-15.057	0.129	0.084
-519.931	-129.843	0.101	0.014
-518.916	-88.054	0.266	-0.081
-517.902	425.744	-0.110	-0.241
-516.887	55.342	0.026	-0.025
-515.872	-141.843	-0.207	0.021
-514.858	800.000	0.010	-0.038
-513.843	4.840	-0.179	0.133
-512.829	-0.494	-0.220	-0.159
-511.814	124.205	-0.090	-0.114
-510.799	-81.402	0.251	0.084
-509.785	547.695	-0.015	-0.036
-508.770	-200.000	-0.053	-0.257
-507.756	-200.000	0.073	-0.413
-506.741	-81.192	-0.325	-0.109
-505.726	-72.786	-0.141	-0.053
-504.712	326.037	-0.119	0.231
-503.697	190.936	-0.079	-0.121
-502.683	800.000	-0.034	-0.148
-501.668	-33.854	0.110	0.062
-500.653	361.613	-0.120	0.245
-499.639	92.489	-0.059	-0.068
-498.624	-78.067	-0.415	-0.145
-497.610	170.281	-0.129	-0.188
-496.595	22.748	-0.244	-0.203
-495.581	-109.073	-0.203	0.044
-494.566	99.477	0.214	-0.251
-493.551	-17.395	0.154	0.098
-492.537	-140.705	-0.224	0.024
-491.522	-200.000	-0.045	-0.266
-490.508	-46.834	0.117	0.058
-489.493	371.783	-0.134	-0.276
-488.478	394.141	-0.117	0.248
-487.464	-102.144	-0.095	0.023
-486.449	336.327	-0.056	0.109
-485.435	-15.158	-0.297	0.193
-484.420	-166.322	0.221	0.009
-483.405	672.671	-0.124	-0.327
-482.391	-144.407	-0.161	-0.015
-481.376	177.268	-0.040	-0.059
-480.362	431.897	-0.125	-0.275
-479.347	471.276	-0.117	-0.266
-478.332	800.000	0.047	-0.192
-477.318	-200.000	0.008	-0.181
-476.303	-200.000	0.015	0.166
-475.289	-23.383	-0.100	0.061
-474.274	4.279	-0.159	0.118
-473.259	-21.274	-0.317	-0.196
-472.245	-200.000	0.026	0.185
-471.230	-192.347	0.173	-0.002
-470.216	323.105	-0.029	-0.055
-469.201	-2.087	-0.096	-0.068
-468.186	800.000	-0.102	-0.295
-467.172	-15.466	-0.193	0.125
-466.157	-66.074	-0.171	-0.069
-465.143	800.000	-0.077	-0.329
-464.128	235.859	-0.120	0.202
-463.113	-33.605	-0.189	0.106
-462.099	-142.590	0.366	-0.036
-461.084	-166.427	0.331	0.014
-460.070	-176.213	0.041	-0.001
-459.055	208.930	0.082	0.130
-458.040	800.000	-0.078	0.306
-457.026	-66.141	-0.419	-0.169
-456.011	140.821	0.096	0.128
-454.997	-200.000	-0.004	0.089
-453.982	247.043	0.128	-0.219
-452.968	467.111	0.048	0.110
-451.953	130.108	-0.110	0.143
-450.938	-26.171	0.241	0.143
-449.924	-20.892	-0.160	-0.099
-448.909	-28.283	0.108	0.063
-447.895	-91.796	-0.235	0.068
-446.880	-200.000	0.054	0.263
-445.865	429.995	-0.029	-0.063
-444.851	52.496	-0.315	0.304
-443.836	-6.689	-0.263	0.181
-442.822	-200.000	0.000	0.127
-441.807	-53.048	0.211	0.098
-440.792	-45.644	0.073	0.036
-439.778	-16.734	-0.146	0.094
-438.763	278.858	0.018	-0.033
-437.749	-200.000	0.055	-0.257
-436.734	-200.000	0.039	-0.521
-435.719	8.478	0.298	0.227
-434.705	250.302	0.112	0.192
-433.690	-164.679	0.212	-0.010
-432.676	800.000	-0.045	-0.191
-431.661	-200.000	-0.003	0.073
-430.646	-60.036	-0.235	0.101
-429.632	-126.807	0.262	0.039
-428.617	-71.083	-0.090	0.034
-427.603	-102.485	-0.181	-0.044
-426.588	-64.353	0.278	-0.114
-425.573	348.067	0.207	-0.413
-424.559	114.720	0.126	-0.155
-423.544	240.600	-0.136	0.230
-422.530	54.697	0.092	0.089
-421.515	800.000	0.063	-0.211
-420.500	560.665	-0.088	0.216
-419.486	800.000	0.122	0.376
-418.471	1.450	0.153	0.112
-417.457	-158.483	0.310	-0.018
-416.442	321.592	-0.169	-0.326
-415.428	-200.000	0.033	-0.154
-414.413	-200.000	-0.002	-0.222
-413.398	-86.074	0.314	-0.098
-412.384	-97.768	-0.245	-0.064
-411.369	528.807	-0.161	-0.384
-410.355	-45.040	-0.366	-0.184
-409.340	-66.389	0.115	0.046
-408.325	-200.000	-0.001	0.210
-407.311	190.191	0.144	-0.218
-406.296	82.862	-0.122	-0.134
-405.282	399.718	-0.117	-0.248
-404.267	58.500	0.241	-0.239
-403.252	27.640	0.164	0.139
-402.238	-138.606	0.366	0.041
-401.223	61.259	0.111	0.111
-400.209	540.227	0.046	-0.111
-399.194	34.958	-0.252	0.223
-398.179	47.410	0.081	-0.076
-397.165	-200.000	-0.019	0.241
-396.150	-69.084	0.290	0.113
-395.136	332.859	0.072	0.141
-394.121	-5.460	0.228	-0.158
-393.106	19.160	0.128	-0.104
-392.092	490.766	-0.075	0.175
-391.077	388.226	-0.043	0.090
-390.063	128.459	-0.247	0.318
-389.048	656.464	-0.087	-0.227
-388.033	203.210	-0.095	-0.148
-387.019	-44.862	0.310	-0.156
-386.004	14.778	-0.233	-0.184
-384.990	-75.900	-0.114	0.041
-383.975	297.469	0.109	0.203
-382.960	-125.311	-0.267	0.041
-381.946	49.388	0.098	0.093
-380.931	-48.234	0.170	0.083
-379.917	201.509	0.189	0.294
-378.902	800.000	-0.058	-0.202
-377.888	21.523	-0.160	-0.132
-376.873	-29.278	-0.118	0.068
-375.858	-11.435	0.298	-0.198
-374.844	-200.000	-0.011	0.182
-373.829	-190.250	0.002	0.000
-372.815	-200.000	-0.007	-0.330
-371.800	307.236	-0.107	-0.201
-370.785	491.404	0.126	-0.292
-369.771	-200.000	0.025	0.345
-368.756	358.852	-0.054	0.108
-367.742	-190.442	0.308	0.003
-366.727	555.757	0.125	0.304
-365.712	800.000	0.059	0.232
-364.698	800.000	0.072	0.254
-363.683	-43.138	-0.119	0.061
-362.669	-115.550	0.092	-0.018
-361.654	800.000	-0.066	-0.207
-360.639	428.670	-0.046	-0.100
-359.625	124.170	-0.176	0.224
-358.610	-188.330	-0.353	-0.004
-357.596	-200.000	0.001	0.136
-356.581	73.905	-0.035	-0.037
-355.566	-94.238	0.219	0.061
-354.552	304.780	0.162	0.303
-353.537	-36.166	0.238	-0.130
-352.523	361.540	-0.096	-0.195
-351.508	800.000	-0.040	0.123
-350.493	-55.602	0.150	0.068
-349.479	-200.000	-0.020	0.191
-348.464	569.180	-0.166	0.407
-347.450	-75.933	0.237	0.085
-346.435	-119.062	0.259	-0.046
-345.420	-200.000	-0.026	-0.164
-344.406	523.005	0.120	0.284
-343.391	106.054	0.305	-0.364
-342.377	-129.706	0.223	0.031
-341.362	407.030	-0.066	-0.142
-340.348	-200.000	0.020	-0.239
-339.333	-86.336	-0.338	0.105
-338.318	246.432	-0.159	-0.271
-337.304	68.566	0.230	0.238
-336.289	-88.794	-0.135	0.040
-335.275	111.477	-0.069	0.084
-334.260	94.366	0.057	0.065
-333.245	-200.000	0.067	0.494
-332.231	432.962	-0.094	0.206
-331.216	-117.325	-0.283	0.052
-330.202	-197.581	-0.222	-0.001
-329.187	-200.000	-0.007	-0.356
-328.172	8.693	0.148	0.112
-327.158	800.000	0.083	-0.262
-326.143	-127.368	0.183	0.027
-325.129	-84.836	0.111	0.035
-324.114	-200.000	-0.042	-0.211
-323.099	-21.761	0.151	-0.093
-322.085	333.102	-0.195	0.380
-321.070	31.823	-0.121	-0.105
-320.056	-200.000	-0.033	0.253
-319.041	-197.960	0.045	0.000
-318.026	8.581	-0.218	0.165
-317.012	-102.980	0.222	0.053
-315.997	-126.810	0.354	0.053
-314.983	267.134	0.042	-0.074
-313.968	800.000	0.020	0.072
-312.953	-14.493	-0.075	-0.049
-311.939	-72.865	-0.136	-0.050
-310.924	-175.154	0.158	0.004
-309.910	800.000	0.062	-0.247
-308.895	800.000	-0.110	-0.334
-307.880	383.979	0.153	-0.318
-306.866	114.005	-0.334	0.409
-305.851	392.740	0.098	-0.205
-304.837	93.581	0.203	-0.232
-303.822	-135.057	-0.190	0.023
-302.807	30.772	0.285	0.246
-301.793	314.732	-0.112	-0.213
-300.778	800.000	0.029	0.096
-299.764	-200.000	0.017	0.364
-298.749	155.162	-0.058	0.080
-297.735	69.690	-0.225	0.233
-296.720	-85.786	0.283	-0.088
-295.705	-53.697	0.171	-0.079
-294.691	800.000	-0.102	-0.297
-293.676	800.000	0.112	-0.398
-292.662	-200.000	0.024	-0.432
-291.647	-200.000	0.064	-0.359
-290.632	187.036	-0.097	-0.146
-289.618	3.072	0.256	-0.187
-288.603	-200.000	0.003	0.276
-287.589	800.000	-0.022	-0.087
-286.574	-200.000	0.013	-0.311
-285.559	13.582	-0.048	-0.037
-284.545	-12.917	-0.022	0.014
-283.530	26.078	-0.164	0.137
-282.516	12.329	0.123	0.096
-281.501	-36.326	0.110	-0.060
-280.486	611.936	0.031	0.079
-279.472	-79.887	0.279	0.095
-278.457	-200.000	0.007	-0.103
-277.443	59.631	-0.163	-0.161
-276.428	-145.450	0.159	-0.014
-275.413	22.358	-0.120	0.099
-274.399	800.000	-0.048	0.210
-273.384	800.000	-0.065	0.237
-272.370	-200.000	-0.035	-0.257
-271.355	-200.000	0.003	0.219
-270.340	-200.000	0.023	-0.141
-269.326	-117.603	0.041	-0.007
-268.311	-60.554	-0.191	0.081
-267.297	38.110	-0.166	0.149
-266.282	800.000	-0.036	0.146
-265.267	287.747	0.041	0.075
-264.253	162.216	-0.072	-0.101
-263.238	788.821	-0.186	0.515
-262.224	-50.477	0.129	-0.061
-261.209	18.082	-0.083	0.067
-260.195	-148.810	0.257	-0.021
-259.180	-96.926	-0.056	-0.015
-258.165	-200.000	-0.010	0.135
-257.151	320.547	0.061	-0.117
-256.136	-200.000	0.036	0.167
-255.122	50.964	-0.276	0.263
-254.107	308.392	-0.090	0.168
-253.092	-200.000	-0.013	0.318
-252.078	-200.000	0.037	-0.216
-251.063	-141.341	0.191	0.020
-250.049	-81.042	0.238	-0.079
-249.034	-57.259	-0.172	-0.076
-248.019	-200.000	0.058	0.334
-247.005	-102.775	-0.110	0.026
-245.990	-132.384	0.273	-0.035
-244.976	474.080	-0.099	-0.223
-243.961	800.000	0.042	0.143
-242.946	-200.000	0.051	-0.239
-241.932	-197.759	-0.093	0.001
-240.917	-7.234	0.234	0.159
-239.903	-90.898	-0.102	-0.029
-238.888	-19.046	-0.171	0.107
-237.873	800.000	0.016	0.063
-236.859	-94.793	0.333	-0.091
-235.844	-144.765	0.122	-0.011
-234.830	-36.112	-0.180	-0.097
-233.815	92.552	-0.106	-0.120
-232.800	-17.013	-0.249	-0.158
-231.786	23.605	0.350	-0.289
-230.771	-35.183	0.198	0.108
-229.757	75.755	-0.087	-0.092
-228.742	-11.354	-0.366	0.242
-227.727	5.428	-0.159	0.118
-226.713	-163.883	-0.110	0.005
-225.698	-76.522	-0.128	-0.045
-224.684	-39.590	0.267	-0.140
-223.669	-200.000	-0.025	-0.182
-222.655	-134.756	-0.480	0.058
-221.640	800.000	-0.090	0.286
-220.625	-200.000	-0.001	0.029
-219.611	-55.051	-0.072	0.033
-218.596	-200.000	0.004	-0.334
-217.582	-13.237	-0.209	-0.137
-216.567	-62.699	0.283	0.118
-215.552	-200.000	0.673	0.003
-214.538	506.735	0.019	0.045
-213.523	-200.000	-0.005	0.158
-212.509	62.476	0.081	0.081
-211.494	800.000	-0.027	0.112
-210.479	-77.505	-0.079	0.027
-209.465	798.016	0.143	-0.397
-208.450	146.767	0.335	-0.451
-207.436	165.155	-0.165	0.233
-206.421	193.058	-0.134	-0.203
-205.406	-7.299	-0.104	0.071
-204.392	470.461	-0.078	-0.175
-203.377	800.000	0.048	-0.196
-202.363	-200.000	-0.002	-0.111
-201.348	-82.582	0.183	-0.059
-200.333	140.694	0.240	-0.318
-199.319	-3.405	0.285	-0.199
-198.304	22.692	-0.295	-0.243
-197.290	-200.000	-0.015	0.275
-196.275	-200.000	-0.021	0.103
-195.260	0.351	0.142	-0.102
-194.246	-200.000	-0.031	-0.307
-193.231	-44.730	0.302	0.151
-192.217	166.494	-0.019	0.028
-191.202	-200.000	0.034	0.180
-190.187	52.742	0.294	0.282
-189.173	-173.859	0.206	-0.006
-188.158	336.012	-0.035	-0.069
-187.144	310.614	-0.122	0.229
-186.129	384.416	0.061	0.127
-185.114	-189.454	-0.294	-0.003
-184.100	323.816	0.069	-0.131
-183.085	200.624	-0.054	0.083
-182.071	-75.269	-0.225	-0.081
-181.056	-200.000	-0.005	0.029
-180.042	-94.928	-0.079	0.021
-179.027	-145.571	0.060	-0.005
-178.012	-80.012	0.423	0.142
-176.998	629.111	-0.029	0.074
-175.983	-12.461	0.391	0.256
-174.969	375.054	0.070	-0.142
-173.954	-25.399	0.136	-0.080
-172.939	-30.158	0.145	0.082
-171.925	-75.238	-0.179	0.064
-170.910	266.014	0.155	0.271
-169.896	-200.000	-0.005	0.104
-168.881	-113.703	0.285	0.056
-167.866	-118.758	-0.310	0.055
-166.852	-10.781	0.256	0.169
-165.837	242.587	-0.075	-0.126
-164.823	132.180	-0.177	0.229
-163.808	214.717	-0.214	0.339
-162.793	51.828	-0.162	-0.154
-161.779	152.959	-0.043	-0.059
-160.764	-88.137	-0.264	0.079
-159.750	-42.285	0.136	0.070
-158.735	-47.804	-0.259	0.126
-157.720	-63.271	-0.114	-0.047
-156.706	48.594	-0.076	0.071
-155.691	169.030	-0.265	0.379
-154.677	432.062	0.127	0.276
-153.662	-27.565	-0.115	-0.067
-152.647	-60.896	-0.090	-0.038
-151.633	-53.778	0.104	-0.048
-150.618	800.000	0.085	-0.295
-149.604	-138.458	-0.405	-0.045
-148.589	28.773	0.176	0.149
-147.574	-200.000	0.014	0.071
-146.560	-1.902	-0.203	0.143
-145.545	297.604	-0.096	0.176
-144.531	-97.104	-0.120	0.031
-143.516	402.931	-0.105	0.221
-142.502	800.000	-0.039	-0.125
-141.487	-83.961	0.024	-0.008
-140.472	247.762	-0.056	0.095
-139.458	-200.000	-0.004	0.110
-138.443	-172.378	0.126	-0.004
-137.429	800.000	-0.072	0.273
-136.414	800.000	0.071	0.294
-135.399	10.122	-0.045	0.034
-134.385	117.303	0.054	0.067
-133.370	-120.043	0.280	0.048
-132.356	-200.000	-0.008	-0.250
-131.341	-82.658	0.081	-0.026
-130.326	-111.101	0.054	-0.011
-129.312	55.398	-0.018	0.018
-128.297	-200.000	-0.005	0.351
-127.283	-7.988	0.097	0.065
-126.268	-160.749	-0.170	0.009
-125.253	586.328	0.147	0.362
-124.239	-32.437	0.278	-0.155
-123.224	-200.000	0.170	-0.001
-122.210	80.012	0.064	-0.069
-121.195	-200.000	0.011	-0.078
-120.180	100.059	-0.103	0.119
