DTS Sentinel unit serial number:	SN413079Multiplexer serial number:	ORYXHardware model number:	OX4-SRSoftware version number:	ORYX F/W v4.00 Oryx Data Collector v3.7.2.0data status	okinstallation	princeton_trtdifferential loss correction	single-endedforward channel	channel 3reverse channel	N/Adate	2019/09/13time	05:12:35forward acquisition time	60.00reverse acquisition time	0.00gamma	496.2192k internal	0.2338k external	0.2338temperature offset calibration	1.0137default loss term (dB/km)	0.3790temperature slope calibration	1.0000multiplexer offset coefficient	1.0000multiplexer slope coefficient	1.0000fibre end	0.00T internal ref (°C)	26.39T ext. ref 1 (°C)	4.05T ext. ref 2 (°C)	20.86length (m)	temperature (°C)	Stokes	anti-Stokes-747.200	14.767	0.249	0.196
-746.185	34.459	0.067	-0.058
-745.171	-200.000	0.000	-0.047
-744.156	85.276	-0.170	0.187
-743.142	-30.804	-0.222	0.126
-742.127	-35.350	-0.221	0.121
-741.112	800.000	0.071	0.312
-740.098	172.649	0.057	-0.082
-739.083	800.000	-0.020	0.087
-738.069	-148.347	-0.106	-0.009
-737.054	-53.097	-0.384	-0.177
-736.039	-200.000	-0.024	-0.362
-735.025	509.740	0.014	0.033
-734.010	-55.989	-0.463	0.207
-732.996	-88.337	-0.168	0.050
-731.981	415.403	0.107	0.229
-730.966	85.655	-0.155	-0.171
-729.952	-78.416	-0.380	-0.130
-728.937	128.324	-0.164	-0.209
-727.923	800.000	0.052	0.159
-726.908	-142.473	0.322	-0.032
-725.894	-155.756	-0.305	-0.020
-724.879	-164.270	-0.273	-0.013
-723.864	71.179	-0.150	-0.156
-722.850	-52.830	0.045	-0.021
-721.835	105.983	0.067	0.080
-720.821	-200.000	-0.014	-0.272
-719.806	19.997	0.124	0.100
-718.791	-144.848	-0.243	-0.022
-717.777	-97.423	-0.314	0.082
-716.762	-110.828	-0.163	0.034
-715.748	-2.897	-0.326	-0.228
-714.733	-49.474	0.317	0.152
-713.718	-200.000	0.041	-0.180
-712.704	-200.000	-0.030	-0.265
-711.689	-125.666	-0.163	0.025
-710.675	-200.000	0.023	-0.174
-709.660	-88.802	0.154	0.046
-708.645	1.479	-0.115	0.083
-707.631	95.278	-0.186	-0.213
-706.616	-200.000	0.097	-0.481
-705.602	743.569	0.023	-0.061
-704.587	-122.376	-0.266	-0.043
-703.572	-158.857	-0.188	0.011
-702.558	313.532	-0.142	0.268
-701.543	29.115	0.185	-0.157
-700.529	14.143	-0.195	0.152
-699.514	177.606	-0.269	0.392
-698.499	366.779	-0.085	-0.173
-697.485	-71.588	-0.351	-0.132
-696.470	295.715	-0.272	0.499
-695.456	800.000	-0.030	-0.129
-694.441	127.453	0.338	-0.430
-693.426	65.335	0.182	0.184
-692.412	-83.396	-0.216	-0.069
-691.397	56.431	-0.279	-0.271
-690.383	-15.853	0.313	-0.200
-689.368	85.937	-0.086	0.094
-688.354	-67.704	0.209	-0.082
-687.339	91.857	0.176	-0.199
-686.324	800.000	0.031	0.109
-685.310	-85.107	-0.343	-0.107
-684.295	-114.871	0.115	0.022
-683.281	-200.000	-0.009	-0.043
-682.266	205.473	-0.051	-0.079
-681.251	-163.046	-0.306	-0.015
-680.237	-200.000	-0.002	-0.299
-679.222	-129.937	-0.365	-0.050
-678.208	-200.000	0.091	-0.444
-677.193	-94.435	0.135	0.037
-676.178	-132.344	-0.125	0.016
-675.164	214.582	-0.130	-0.205
-674.149	-90.735	-0.225	-0.065
-673.135	800.000	0.049	-0.141
-672.120	298.202	-0.053	0.097
-671.105	-63.536	0.278	0.114
-670.091	3.524	0.097	-0.071
-669.076	800.000	0.014	0.051
-668.062	-92.190	-0.147	-0.042
-667.047	-133.923	-0.230	0.029
-666.032	-125.145	-0.393	-0.060
-665.018	88.863	0.104	-0.116
-664.003	-149.926	-0.104	-0.008
-662.989	51.160	0.151	0.144
-661.974	-103.933	0.409	0.096
-660.959	77.886	-0.171	-0.182
-659.945	120.633	0.215	0.267
-658.930	800.000	-0.028	-0.108
-657.916	-191.041	0.033	0.000
-656.901	-66.788	-0.204	0.081
-655.886	-114.802	-0.102	-0.019
-654.872	608.450	0.124	0.310
-653.857	-21.515	0.127	-0.078
-652.843	-200.000	0.044	0.284
-651.828	-200.000	-0.019	0.297
-650.814	-47.645	-0.190	-0.092
-649.799	-200.000	-0.016	-0.168
-648.784	783.552	0.062	-0.169
-647.770	-200.000	0.012	0.246
-646.755	-200.000	-0.032	0.203
-645.741	-90.196	0.206	0.060
-644.726	-200.000	0.007	0.039
-643.711	136.854	0.097	-0.127
-642.697	224.599	0.077	-0.124
-641.682	-200.000	-0.006	0.162
-640.668	277.487	0.180	0.321
-639.653	-92.702	0.039	-0.011
-638.638	704.522	0.062	-0.165
-637.624	516.018	-0.018	-0.041
-636.609	-39.151	-0.071	-0.037
-635.595	800.000	-0.134	0.385
-634.580	15.711	-0.046	-0.036
-633.565	-200.000	0.094	-0.412
-632.551	-34.444	-0.237	0.130
-631.536	-121.637	0.156	0.026
-630.522	83.159	-0.180	-0.196
-629.507	-200.000	-0.104	-0.473
-628.492	-72.188	-0.282	-0.104
-627.478	231.414	0.080	0.130
-626.463	-1.040	0.049	-0.035
-625.449	-83.748	-0.241	0.077
-624.434	-13.766	-0.201	-0.130
-623.419	293.782	0.036	-0.066
-622.405	-174.105	-0.103	0.003
-621.390	278.445	-0.074	0.131
-620.376	12.016	-0.239	-0.184
-619.361	-57.876	0.123	0.054
-618.346	800.000	-0.049	-0.201
-617.332	-200.000	0.012	-0.152
-616.317	184.483	-0.250	-0.370
-615.303	72.717	-0.088	-0.092
-614.288	-200.000	0.000	0.117
-613.273	-200.000	-0.001	0.056
-612.259	264.605	-0.154	-0.268
-611.244	493.862	-0.078	0.178
-610.230	-117.578	-0.341	-0.062
-609.215	-117.758	-0.137	0.025
-608.201	481.610	0.102	-0.231
-607.186	-62.114	-0.192	-0.080
-606.171	-187.175	0.351	0.005
-605.157	-28.969	-0.087	-0.050
-604.142	800.000	-0.067	-0.200
-603.128	195.465	0.080	-0.121
-602.113	150.165	0.053	0.071
-601.098	-74.566	-0.130	-0.047
-600.084	-66.298	0.575	0.228
-599.069	-71.737	0.213	-0.079
-598.055	42.035	0.204	0.185
-597.040	-130.892	-0.300	0.040
-596.025	-1.820	0.205	-0.144
-595.011	-102.765	0.204	-0.048
-593.996	-200.000	0.047	-0.427
-592.982	383.528	-0.197	-0.404
-591.967	-182.498	-0.301	0.006
-590.952	398.734	-0.158	0.329
-589.938	160.997	0.097	-0.135
-588.923	-48.357	-0.330	-0.159
-587.909	800.000	-0.056	-0.162
-586.894	493.473	0.013	0.031
-585.879	247.291	0.013	0.022
-584.865	-96.733	-0.066	-0.017
-583.850	-90.331	-0.247	0.071
-582.836	-73.033	0.101	-0.037
-581.821	-52.320	0.369	0.170
-580.806	87.335	-0.105	-0.116
-579.792	-136.927	0.247	0.028
-578.777	800.000	0.101	-0.329
-577.763	-200.000	0.002	-0.030
-576.748	101.711	-0.313	0.364
-575.733	-200.000	0.029	0.216
-574.719	-28.101	-0.034	0.019
-573.704	-33.508	0.097	-0.053
-572.690	-200.000	0.096	0.427
-571.675	321.502	0.048	0.091
-570.661	-200.000	-0.018	-0.137
-569.646	-200.000	-0.041	-0.301
-568.631	-107.571	-0.118	0.026
-567.617	25.298	-0.126	0.104
-566.602	-40.557	-0.143	0.074
-565.588	800.000	-0.041	-0.165
-564.573	-80.852	-0.292	0.096
-563.558	16.102	-0.231	0.181
-562.544	245.594	0.155	0.260
-561.529	-25.738	-0.202	0.119
-560.515	118.606	-0.231	-0.285
-559.500	-16.461	0.172	0.109
-558.485	800.000	0.028	0.087
-557.471	405.127	0.189	0.397
-556.456	-187.407	-0.085	-0.001
-555.442	146.836	-0.258	0.346
-554.427	-39.007	-0.124	-0.065
-553.412	-27.988	-0.116	-0.067
-552.398	568.638	0.087	-0.210
-551.383	81.983	0.213	-0.230
-550.369	-139.483	0.380	0.041
-549.354	-65.177	-0.150	0.060
-548.339	-73.207	-0.117	-0.043
-547.325	-110.401	-0.383	-0.079
-546.310	77.143	0.098	-0.104
-545.296	-39.441	-0.297	0.155
-544.281	398.452	0.199	-0.415
-543.266	-81.241	0.023	-0.008
-542.252	-37.760	-0.188	0.100
-541.237	-64.541	-0.457	-0.185
-540.223	63.346	-0.119	0.118
-539.208	-47.605	0.101	0.049
-538.193	43.709	-0.338	-0.308
-537.179	-85.400	-0.233	0.072
-536.164	-160.655	-0.271	-0.014
-535.150	800.000	0.038	-0.152
-534.135	733.688	0.096	0.255
-533.121	470.007	0.019	-0.042
-532.106	48.075	0.148	-0.138
-531.091	273.441	0.054	0.096
-530.077	-126.487	0.134	0.020
-529.062	-93.530	0.176	0.048
-528.048	20.966	-0.059	0.048
-527.033	-200.000	-0.038	0.475
-526.018	-200.000	0.041	0.272
-525.004	-86.070	0.188	-0.058
-523.989	-105.233	-0.089	-0.020
-522.975	-200.000	0.042	0.361
-521.960	178.007	0.176	-0.255
-520.945	-35.877	0.081	0.044
-519.931	-200.000	-0.079	-0.435
-518.916	43.820	-0.034	0.031
-517.902	-24.649	0.089	-0.053
-516.887	-63.212	-0.306	-0.126
-515.872	-60.820	-0.034	0.014
-514.858	-83.852	0.220	0.070
-513.843	-86.351	-0.025	0.008
-512.829	197.666	0.037	0.055
-511.814	-169.689	0.188	-0.007
-510.799	472.012	-0.195	-0.435
-509.785	-172.365	0.161	0.005
-508.770	-86.950	-0.148	-0.045
-507.756	-111.860	-0.087	-0.017
-506.741	491.597	-0.056	0.127
-505.726	-43.170	0.158	0.080
-504.712	-31.048	0.273	-0.153
-503.697	-1.938	0.151	0.106
-502.683	-68.685	0.214	-0.082
-501.668	-137.065	-0.252	0.029
-500.653	38.476	0.103	0.091
-499.639	66.774	0.212	-0.215
-498.624	800.000	-0.072	0.251
-497.610	105.718	0.258	-0.303
-496.595	52.458	-0.059	0.055
-495.581	-22.008	0.277	0.167
-494.566	0.880	0.175	0.124
-493.551	-86.331	-0.019	-0.006
-492.537	11.839	0.092	-0.070
-491.522	-8.209	0.186	-0.124
-490.508	579.322	0.082	-0.199
-489.493	303.063	0.071	0.131
-488.478	-89.694	-0.220	-0.064
-487.464	-106.359	-0.430	-0.096
-486.449	-144.874	0.154	0.014
-485.435	-80.630	0.240	0.079
-484.420	117.147	0.082	0.100
-483.405	-123.258	0.263	0.042
-482.391	231.510	-0.133	0.216
-481.376	-139.759	-0.355	0.037
-480.362	-200.000	-0.016	0.171
-479.347	2.961	0.086	0.062
-478.332	251.681	0.020	0.034
-477.318	-16.278	0.081	0.051
-476.303	-38.635	0.350	0.184
-475.289	800.000	-0.079	-0.244
-474.274	-200.000	0.027	0.221
-473.259	253.287	-0.028	-0.048
-472.245	-97.309	0.332	0.086
-471.230	-117.155	-0.146	0.026
-470.216	210.127	-0.173	-0.269
-469.201	-200.000	-0.024	-0.308
-468.186	-21.510	0.221	0.134
-467.172	124.924	-0.082	-0.102
-466.157	-200.000	0.012	0.149
-465.143	240.012	-0.083	0.137
-464.128	-153.729	-0.134	-0.009
-463.113	46.714	-0.097	-0.089
-462.099	-200.000	-0.014	0.272
-461.084	111.093	0.127	0.152
-460.070	-90.240	0.200	0.058
-459.055	115.420	0.101	-0.122
-458.040	178.113	0.157	-0.227
-457.026	367.216	0.045	0.089
-456.011	-13.826	0.064	-0.041
-454.997	-200.000	0.010	0.201
-453.982	-35.604	-0.192	-0.103
-452.968	496.108	-0.181	0.412
-451.953	100.373	-0.145	-0.167
-450.938	-49.191	-0.284	0.135
-449.924	-142.466	0.262	0.026
-448.909	-1.508	0.161	0.112
-447.895	-67.783	0.415	0.161
-446.880	-102.808	0.107	-0.025
-445.865	16.261	-0.266	-0.208
-444.851	-93.189	-0.202	-0.056
-443.836	52.284	0.254	-0.240
-442.822	-174.452	-0.092	-0.003
-441.807	-200.000	0.002	-0.254
-440.792	-112.988	-0.152	0.030
-439.778	-171.940	-0.286	0.009
-438.763	225.040	-0.079	-0.127
-437.749	-52.843	0.398	0.182
-436.734	800.000	-0.086	-0.258
-435.719	-200.000	-0.002	0.243
-434.705	16.609	-0.143	-0.112
-433.690	508.828	-0.129	0.298
-432.676	-75.925	0.183	0.064
-431.661	-142.355	-0.330	-0.032
-430.646	-200.000	-0.060	-0.278
-429.632	157.181	-0.036	-0.049
-428.617	-144.915	0.167	0.015
-427.603	639.610	-0.110	0.278
-426.588	213.932	0.176	0.276
-425.573	66.456	-0.148	-0.149
-424.559	145.256	0.082	-0.108
-423.544	-200.000	0.040	-0.338
-422.530	148.176	0.069	0.092
-421.515	-99.422	-0.125	-0.031
-420.500	344.142	-0.061	0.118
-419.486	-122.530	0.218	0.035
-418.471	-200.000	-0.034	-0.237
-417.457	800.000	0.102	-0.283
-416.442	-200.000	0.024	-0.432
-415.428	-132.811	0.198	0.025
-414.413	566.948	-0.118	-0.284
-413.398	518.560	-0.019	-0.045
-412.384	111.626	-0.104	-0.124
-411.369	-103.856	-0.337	0.078
-410.355	800.000	-0.047	0.150
-409.340	800.000	0.028	-0.102
-408.325	-75.764	0.121	-0.043
-407.311	646.354	-0.032	-0.081
-406.296	167.779	-0.162	-0.228
-405.282	-200.000	-0.007	-0.157
-404.267	40.284	0.213	0.190
-403.252	41.652	-0.069	0.062
-402.238	-74.509	-0.100	-0.036
-401.223	-200.000	0.020	0.250
-400.209	-82.849	0.110	0.035
-399.194	-200.000	-0.056	0.273
-398.179	-93.333	-0.107	-0.029
-397.165	-17.234	0.187	-0.117
-396.150	529.928	-0.132	0.309
-395.136	-200.000	0.041	-0.196
-394.121	185.884	0.199	-0.293
-393.106	-3.708	0.036	-0.025
-392.092	159.554	0.123	0.170
-391.077	201.518	0.153	0.233
-390.063	-56.150	0.445	-0.196
-389.048	-72.266	-0.302	-0.111
-388.033	75.913	-0.191	0.199
-387.019	-34.485	0.176	0.096
-386.004	-200.000	0.004	0.028
-384.990	-200.000	-0.001	-0.024
-383.975	-47.634	-0.181	-0.087
-382.960	-5.264	-0.201	-0.137
-381.946	-166.963	-0.156	-0.006
-380.931	-115.161	-0.437	-0.082
-379.917	500.014	0.158	0.361
-378.902	84.514	-0.249	-0.269
-377.888	-32.883	0.270	-0.148
-376.873	531.645	0.080	0.187
-375.858	-84.146	-0.194	-0.061
-374.844	-200.000	0.084	-0.362
-373.829	-87.623	-0.115	0.034
-372.815	165.060	0.027	-0.038
-371.800	10.260	-0.136	-0.102
-370.785	800.000	-0.067	-0.213
-369.771	8.495	-0.180	0.134
-368.756	-22.318	0.076	0.046
-367.742	-118.972	-0.148	0.026
-366.727	92.394	0.118	-0.132
-365.712	266.554	-0.153	-0.265
-364.698	-87.390	-0.189	0.057
-363.683	-28.899	-0.367	0.209
-362.669	-200.000	-0.023	-0.239
-361.654	-200.000	-0.030	-0.134
-360.639	-125.290	-0.158	0.024
-359.625	797.989	-0.069	0.188
-358.610	-116.188	0.137	0.025
-357.596	-14.001	-0.081	-0.052
-356.581	4.581	0.127	0.092
-355.566	800.000	0.085	-0.288
-354.552	234.190	0.141	0.229
-353.537	-200.000	0.016	0.235
-352.523	800.000	0.043	-0.146
-351.508	645.776	-0.092	-0.231
-350.493	-200.000	0.011	-0.103
-349.479	800.000	0.134	0.389
-348.464	800.000	0.043	0.156
-347.450	545.172	0.077	-0.183
-346.435	126.579	-0.052	-0.064
-345.420	-68.796	-0.284	0.108
-344.406	62.333	0.130	0.129
-343.391	213.007	0.042	-0.066
-342.377	69.711	0.255	0.259
-341.362	136.041	0.126	-0.162
-340.348	-56.578	0.333	0.146
-339.333	49.627	-0.206	-0.192
-338.318	-167.585	0.039	0.002
-337.304	-200.000	-0.036	0.368
-336.289	385.100	0.104	0.213
-335.275	-1.966	0.288	0.200
-334.260	779.327	-0.078	-0.211
-333.245	-53.200	0.418	0.189
-332.231	-200.000	0.013	-0.404
-331.216	800.000	-0.037	-0.138
-330.202	-74.206	-0.266	0.095
-329.187	-97.565	0.015	-0.004
-328.172	-130.203	-0.249	-0.033
-327.158	-100.950	-0.144	0.035
-326.143	-200.000	-0.006	-0.106
-325.129	-105.093	0.255	-0.057
-324.114	-197.929	-0.308	0.002
-323.099	-93.909	-0.071	-0.019
-322.085	-83.163	-0.248	0.079
-321.070	573.821	-0.080	-0.193
-320.056	-71.165	0.299	-0.111
-319.041	131.252	-0.065	-0.082
-318.026	-32.101	0.192	0.106
-317.012	7.388	0.264	0.195
-315.997	487.036	-0.090	0.202
-314.983	241.953	0.132	0.218
-313.968	-86.392	-0.040	-0.012
-312.953	-74.085	-0.353	-0.126
-311.939	74.078	0.010	-0.010
-310.924	-155.079	0.246	0.016
-309.910	-126.379	0.331	0.049
-308.895	800.000	-0.086	-0.267
-307.880	-19.509	-0.209	0.128
-306.866	-200.000	-0.044	0.410
-305.851	70.022	-0.143	-0.146
-304.837	800.000	-0.069	0.190
-303.822	-115.256	0.100	0.019
-302.807	189.274	0.202	0.299
-301.793	200.070	-0.109	-0.165
-300.778	144.907	0.116	0.153
-299.764	461.248	-0.007	-0.016
-298.749	-200.000	0.005	-0.051
-297.735	-83.133	0.119	0.038
-296.720	-117.991	0.232	0.041
-295.705	-200.000	-0.036	0.188
-294.691	-55.877	0.225	-0.099
-293.676	-200.000	0.012	0.075
-292.662	-50.960	-0.134	0.062
-291.647	-177.945	-0.096	0.002
-290.632	-38.997	-0.145	0.075
-289.618	220.367	0.244	0.386
-288.603	-200.000	0.040	0.256
-287.589	127.105	-0.163	0.204
-286.574	-200.000	-0.042	-0.227
-285.559	53.557	0.024	-0.022
-284.545	11.432	0.128	0.096
-283.530	-200.000	-0.031	0.210
-282.516	-195.129	-0.053	-0.000
-281.501	2.689	0.068	0.049
-280.486	-44.042	-0.417	0.206
-279.472	69.475	-0.105	-0.106
-278.457	56.480	0.155	0.149
-277.443	153.017	0.202	-0.273
-276.428	-185.780	0.214	0.003
-275.413	131.847	0.117	0.148
-274.399	-200.000	0.007	0.160
-273.384	763.714	-0.058	0.154
-272.370	476.532	0.208	0.462
-271.355	-200.000	0.050	0.268
-270.340	165.749	0.039	0.054
-269.326	-76.287	-0.158	-0.055
-268.311	18.041	0.066	0.052
-267.297	-149.433	0.198	0.015
-266.282	106.110	0.168	0.196
-265.267	-165.420	0.032	0.001
-264.253	-120.593	-0.152	0.025
-263.238	-56.668	-0.192	0.084
-262.224	5.641	0.108	0.079
-261.209	800.000	0.058	-0.237
-260.195	-137.142	0.065	0.007
-259.180	-9.722	-0.122	-0.080
-258.165	423.173	-0.165	-0.349
-257.151	463.407	0.020	0.043
-256.136	358.027	0.268	0.526
-255.122	-200.000	0.050	-0.235
-254.107	-20.938	-0.260	0.157
-253.092	392.473	-0.192	0.393
-252.078	800.000	-0.021	0.059
-251.063	800.000	0.059	-0.235
-250.049	-200.000	0.027	-0.292
-249.034	223.541	0.103	0.164
-248.019	-200.000	0.032	0.300
-247.005	19.342	0.082	0.065
-245.990	-200.000	0.038	0.221
-244.976	348.624	0.073	-0.142
-243.961	-200.000	0.064	-0.298
-242.946	-126.897	-0.064	0.009
-241.932	48.443	-0.139	0.128
-240.917	179.309	0.108	0.155
-239.903	-2.882	0.119	-0.082
-238.888	217.468	-0.136	-0.213
-237.873	-26.934	0.226	-0.130
-236.859	800.000	-0.036	0.099
-235.844	270.457	0.141	0.243
-234.830	705.100	0.066	-0.171
-233.815	227.831	0.043	-0.069
-232.800	-119.612	-0.405	0.069
-231.786	14.341	-0.311	-0.238
-230.771	74.265	-0.235	-0.243
-229.757	-20.584	-0.140	0.084
-228.742	-91.888	0.107	-0.030
-227.727	-200.000	-0.043	-0.216
-226.713	800.000	-0.076	0.266
-225.698	35.207	0.227	0.196
-224.684	170.710	0.338	-0.477
-223.669	-65.640	0.113	-0.044
-222.655	-21.271	0.297	0.178
-221.640	800.000	-0.042	0.157
-220.625	26.436	-0.105	0.086
-219.611	800.000	-0.066	-0.204
-218.596	38.155	0.363	-0.318
-217.582	51.191	0.086	0.080
-216.567	800.000	-0.024	-0.075
-215.552	-97.379	-0.320	-0.082
-214.538	-200.000	-0.013	-0.058
-213.523	277.783	0.088	0.154
-212.509	-100.799	-0.320	0.077
-211.494	800.000	-0.039	0.155
-210.479	33.093	0.191	-0.162
-209.465	-200.000	0.003	-0.200
-208.450	765.061	-0.067	-0.178
-207.436	-65.782	-0.107	-0.042
-206.421	4.337	0.030	-0.022
-205.406	-27.336	0.307	0.176
-204.392	-108.336	-0.378	-0.080
-203.377	-57.004	-0.186	-0.081
-202.363	166.864	0.202	0.281
-201.348	-200.000	0.009	0.093
-200.333	-68.726	0.242	-0.092
-199.319	-162.027	0.142	0.007
-198.304	169.995	-0.105	-0.147
-197.290	16.162	-0.265	0.205
-196.275	-17.774	0.139	-0.086
-195.260	-200.000	0.002	-0.047
-194.246	-40.901	0.214	0.109
-193.231	251.534	0.256	-0.428
-192.217	24.596	0.146	0.119
-191.202	800.000	0.059	-0.164
-190.187	-200.000	0.032	-0.405
-189.173	15.026	0.158	-0.121
-188.158	265.078	0.211	0.361
-187.144	370.419	-0.099	-0.197
-186.129	-79.036	0.218	-0.073
-185.114	-200.000	0.040	-0.196
-184.100	14.421	-0.350	0.268
-183.085	38.379	-0.183	-0.160
-182.071	12.763	0.034	0.026
-181.056	-57.047	-0.227	-0.098
-180.042	96.209	0.215	-0.242
-179.027	-87.589	0.254	-0.075
-178.012	233.892	-0.069	-0.111
-176.998	66.107	-0.091	0.090
-175.983	20.526	-0.285	0.226
-174.969	800.000	0.087	0.292
-173.954	17.032	-0.160	0.125
-172.939	154.125	-0.191	0.258
-171.925	304.817	0.136	0.248
-170.910	800.000	-0.060	0.170
-169.896	800.000	0.081	0.329
-168.881	796.545	0.049	-0.134
-167.866	538.854	-0.026	0.061
-166.852	26.522	0.409	-0.336
-165.837	-27.721	-0.631	-0.359
-164.823	-31.310	0.080	-0.044
-163.808	-53.418	0.299	-0.134
-162.793	-53.760	0.196	0.088
-161.779	14.679	-0.114	-0.087
-160.764	503.946	0.029	-0.065
-159.750	-146.354	-0.162	-0.014
-158.735	-200.000	-0.009	0.074
-157.720	79.086	0.212	0.222
-156.706	461.987	-0.089	-0.196
-155.691	-35.137	0.267	0.143
-154.677	117.988	0.110	-0.133
-153.662	-71.010	0.096	-0.035
-152.647	140.611	0.267	0.345
-151.633	-151.970	-0.337	-0.024
-150.618	-200.000	0.008	-0.444
-149.604	140.276	-0.098	0.127
-148.589	46.753	-0.158	0.144
-147.574	133.066	0.171	-0.216
-146.560	-200.000	-0.012	-0.160
-145.545	361.231	-0.110	-0.215
-144.531	-200.000	0.022	-0.101
-143.516	-91.013	0.141	0.040
-142.502	-200.000	0.011	0.189
-141.487	-23.446	0.157	-0.093
-140.472	-200.000	-0.033	0.362
-139.458	-200.000	-0.020	0.214
-138.443	-111.325	0.412	0.082
-137.429	-32.601	0.200	-0.109
-136.414	800.000	0.056	0.185
-135.399	-200.000	-0.003	0.195
-134.385	800.000	0.081	-0.297
-133.370	800.000	-0.147	0.445
-132.356	-199.840	-0.160	0.001
-131.341	14.455	-0.147	-0.112
-130.326	34.943	0.401	0.344
-129.312	-34.534	0.169	-0.091
-128.297	358.466	0.055	0.107
-127.283	-200.000	0.005	0.026
-126.268	52.196	-0.105	-0.098
-125.253	7.920	-0.016	0.012
-124.239	425.075	0.097	0.205
-123.224	-200.000	-0.012	0.270
-122.210	331.112	-0.068	0.128
-121.195	24.057	0.150	0.121
