DTS Sentinel unit serial number:	SN413079Multiplexer serial number:	ORYXHardware model number:	OX4-SRSoftware version number:	ORYX F/W v4.00 Oryx Data Collector v3.7.2.0data status	okinstallation	princeton_trtdifferential loss correction	single-endedforward channel	channel 3reverse channel	N/Adate	2019/09/14time	19:52:35forward acquisition time	60.00reverse acquisition time	0.00gamma	496.2192k internal	0.2313k external	0.2313temperature offset calibration	1.0006default loss term (dB/km)	0.3790temperature slope calibration	1.0000multiplexer offset coefficient	1.0000multiplexer slope coefficient	1.0000fibre end	0.00T internal ref (°C)	34.25T ext. ref 1 (°C)	4.87T ext. ref 2 (°C)	28.48length (m)	temperature (°C)	Stokes	anti-Stokes-747.200	236.617	-0.111	-0.187
-746.185	27.241	0.192	0.164
-745.171	-137.054	-0.220	0.026
-744.156	-200.000	-0.030	0.137
-743.142	67.787	0.119	0.123
-742.127	26.377	-0.339	0.287
-741.112	-68.454	0.386	-0.152
-740.098	-200.000	0.018	0.084
-739.083	616.555	-0.040	-0.102
-738.069	-200.000	-0.012	0.532
-737.054	800.000	0.086	0.299
-736.039	258.112	-0.080	0.140
-735.025	-165.348	0.279	-0.012
-734.010	211.953	0.145	0.231
-732.996	-200.000	0.000	0.111
-731.981	-124.416	0.307	0.049
-730.966	-120.647	-0.372	0.064
-729.952	192.181	-0.164	-0.250
-728.937	758.228	-0.047	-0.129
-727.923	-200.000	0.079	0.353
-726.908	43.392	-0.062	0.057
-725.894	178.704	-0.183	-0.270
-724.879	800.000	-0.047	-0.198
-723.864	-200.000	0.026	0.329
-722.850	-200.000	-0.003	0.219
-721.835	397.547	-0.101	-0.215
-720.821	-200.000	0.015	-0.131
-719.806	6.257	-0.180	-0.136
-718.791	-76.816	0.068	-0.024
-717.777	127.598	0.051	-0.066
-716.762	39.314	0.152	-0.138
-715.748	97.403	-0.082	-0.095
-714.733	41.161	-0.050	-0.046
-713.718	43.130	0.189	0.174
-712.704	-94.515	-0.380	-0.105
-711.689	-104.625	-0.210	-0.049
-710.675	800.000	0.095	0.306
-709.660	-200.000	0.001	0.214
-708.645	523.658	0.166	0.395
-707.631	-73.984	-0.097	0.036
-706.616	528.213	0.061	-0.146
-705.602	407.992	-0.105	-0.225
-704.587	-200.000	0.021	0.186
-703.572	-102.080	0.303	0.074
-702.558	-103.106	-0.201	-0.048
-701.543	-116.583	0.168	-0.031
-700.529	-17.484	0.206	-0.132
-699.514	-115.312	0.561	-0.107
-698.499	111.854	-0.018	-0.022
-697.485	311.749	0.092	0.174
-696.470	35.854	0.010	-0.009
-695.456	335.872	-0.246	-0.482
-694.441	75.379	-0.143	-0.152
-693.426	16.761	-0.239	0.191
-692.412	-16.482	-0.198	0.127
-691.397	-98.286	0.147	-0.038
-690.383	72.792	-0.169	-0.178
-689.368	179.802	-0.128	-0.190
-688.354	-53.071	-0.198	-0.092
-687.339	132.093	-0.130	-0.169
-686.324	-200.000	0.045	-0.218
-685.310	261.615	-0.140	-0.246
-684.295	-159.594	-0.084	-0.005
-683.281	-200.000	0.004	-0.029
-682.266	-200.000	0.010	-0.043
-681.251	800.000	0.090	-0.296
-680.237	-200.000	0.044	-0.199
-679.222	352.748	0.097	-0.194
-678.208	800.000	-0.035	-0.106
-677.193	42.159	-0.360	-0.330
-676.178	-73.368	0.231	0.085
-675.164	659.291	0.158	0.411
-674.149	-200.000	0.020	-0.150
-673.135	-69.127	-0.147	-0.057
-672.120	161.418	-0.052	0.073
-671.105	-95.470	0.285	-0.077
-670.091	240.805	0.068	0.115
-669.076	-57.583	-0.103	-0.045
-668.062	219.216	-0.088	0.142
-667.047	244.552	0.092	0.156
-666.032	-44.840	0.122	0.061
-665.018	800.000	0.115	0.327
-664.003	-29.223	0.405	-0.235
-662.989	-88.989	-0.226	0.068
-661.974	134.822	0.200	0.263
-660.959	-200.000	-0.364	0.000
-659.945	-200.000	0.001	-0.162
-658.930	-200.000	0.021	-0.106
-657.916	30.963	-0.086	0.075
-656.901	13.349	-0.195	0.153
-655.886	-55.755	0.368	-0.166
-654.872	-200.000	0.030	0.153
-653.857	194.038	-0.176	-0.270
-652.843	135.378	0.186	-0.245
-651.828	-200.000	0.026	-0.165
-650.814	42.150	0.205	-0.188
-649.799	36.522	0.199	-0.178
-648.784	429.716	-0.025	-0.055
-647.770	25.377	0.284	-0.238
-646.755	800.000	-0.048	0.172
-645.741	-108.760	-0.099	0.021
-644.726	-2.226	-0.205	0.145
-643.711	-69.879	-0.186	0.072
-642.697	12.318	-0.192	-0.149
-641.682	133.654	-0.158	-0.206
-640.668	-59.117	0.131	0.057
-639.653	-200.000	0.063	-0.284
-638.638	-64.905	-0.098	0.040
-637.624	-105.637	-0.563	-0.129
-636.609	-142.646	-0.103	-0.010
-635.595	-39.559	-0.306	-0.162
-634.580	63.931	-0.174	-0.177
-633.565	568.311	0.120	-0.295
-632.551	-200.000	-0.010	0.119
-631.536	-27.980	-0.093	-0.054
-630.522	-151.549	0.209	0.016
-629.507	248.693	0.081	0.139
-628.492	51.158	-0.219	-0.209
-627.478	-77.517	0.450	-0.158
-626.463	800.000	-0.049	-0.160
-625.449	800.000	0.053	-0.192
-624.434	-161.048	-0.200	0.011
-623.419	-200.000	-0.015	-0.185
-622.405	119.541	-0.113	-0.142
-621.390	29.157	-0.068	-0.058
-620.376	228.172	0.014	-0.023
-619.361	35.089	-0.067	-0.059
-618.346	8.865	0.142	-0.108
-617.332	-14.146	-0.124	-0.081
-616.317	-31.856	-0.236	0.134
-615.303	-200.000	-0.012	-0.123
-614.288	295.375	-0.076	0.140
-613.273	-73.855	-0.245	-0.090
-612.259	-164.759	-0.254	-0.012
-611.244	16.925	0.199	0.159
-610.230	166.419	-0.070	-0.101
-609.215	0.571	-0.074	-0.053
-608.201	-126.876	0.185	0.027
-607.186	-103.747	0.173	-0.041
-606.171	6.962	-0.326	0.245
-605.157	-169.202	0.224	0.008
-604.142	-39.845	-0.405	0.213
-603.128	516.114	-0.152	-0.359
-602.113	-85.401	0.071	-0.022
-601.098	-129.997	-0.178	-0.025
-600.084	-150.084	0.281	-0.022
-599.069	-200.000	-0.006	-0.032
-598.055	-134.070	-0.115	-0.014
-597.040	-119.579	-0.225	0.039
-596.025	-200.000	-0.002	0.107
-595.011	26.649	0.065	-0.055
-593.996	-32.155	-0.442	0.249
-592.982	-37.522	0.173	-0.093
-591.967	-200.000	0.006	-0.104
-590.952	-37.855	-0.479	0.257
-589.938	-160.561	-0.071	-0.004
-588.923	-88.372	0.266	0.080
-587.909	-161.302	0.150	-0.008
-586.894	-45.973	0.110	0.055
-585.879	408.482	0.092	0.197
-584.865	-68.134	0.256	0.101
-583.850	422.974	0.074	0.161
-582.836	-17.418	0.082	-0.052
-581.821	24.871	-0.321	-0.268
-580.806	-62.872	-0.351	0.146
-579.792	53.156	0.094	0.090
-578.777	45.519	0.058	-0.054
-577.763	-200.000	0.014	-0.322
-576.748	800.000	-0.040	-0.134
-575.733	-124.372	0.115	-0.018
-574.719	-200.000	-0.013	-0.120
-573.704	-200.000	-0.008	-0.370
-572.690	154.338	0.301	-0.416
-571.675	-200.000	-0.040	-0.226
-570.661	800.000	0.048	0.172
-569.646	-46.913	-0.215	0.106
-568.631	-37.580	-0.397	-0.213
-567.617	-128.818	-0.257	0.036
-566.602	800.000	0.011	0.033
-565.588	800.000	0.096	-0.409
-564.573	-93.329	0.306	-0.085
-563.558	-71.071	0.139	-0.053
-562.544	25.139	0.087	0.073
-561.529	-27.825	0.274	0.160
-560.515	-74.957	-0.135	0.049
-559.500	332.625	-0.052	0.100
-558.485	-86.437	0.247	-0.076
-557.471	-200.000	-0.008	0.242
-556.456	-119.789	-0.201	-0.035
-555.442	800.000	-0.040	-0.157
-554.427	800.000	-0.026	-0.096
-553.412	131.796	-0.116	0.150
-552.398	-148.779	0.084	0.007
-551.383	120.422	-0.076	-0.096
-550.369	-36.011	-0.063	0.034
-549.354	-6.573	0.281	-0.192
-548.339	-111.754	0.470	-0.096
-547.325	-200.000	0.030	-0.410
-546.310	168.044	0.147	-0.210
-545.296	217.661	0.091	0.146
-544.281	14.017	-0.142	0.111
-543.266	-22.029	0.091	-0.056
-542.252	-60.708	-0.187	0.080
-541.237	-1.552	-0.124	-0.088
-540.223	-200.000	0.003	0.030
-539.208	800.000	0.048	-0.212
-538.193	-87.381	-0.075	0.023
-537.179	421.728	-0.048	-0.104
-536.164	475.828	-0.154	-0.350
-535.150	-200.000	-0.018	0.153
-534.135	800.000	-0.062	-0.213
-533.121	-125.309	-0.238	-0.037
-532.106	-200.000	0.125	0.000
-531.091	-13.949	-0.094	-0.061
-530.077	170.447	0.172	-0.248
-529.062	159.462	-0.099	-0.139
-528.048	267.711	0.057	-0.101
-527.033	212.321	-0.238	0.378
-526.018	-152.807	0.218	-0.016
-525.004	-200.000	-0.002	0.376
-523.989	-134.661	0.233	0.029
-522.975	439.227	-0.113	-0.249
-521.960	171.543	-0.169	0.244
-520.945	175.077	-0.072	0.105
-519.931	-200.000	-0.009	-0.060
-518.916	-32.333	-0.159	-0.089
-517.902	-74.261	0.107	0.039
-516.887	-88.178	-0.269	-0.081
-515.872	-98.670	0.196	0.050
-514.858	332.277	-0.210	0.408
-513.843	96.727	0.075	0.086
-512.829	800.000	-0.074	0.269
-511.814	-117.362	-0.103	-0.019
-510.799	-24.860	-0.128	-0.077
-509.785	97.950	0.198	-0.229
-508.770	408.847	0.145	-0.308
-507.756	160.269	-0.090	-0.126
-506.741	-134.031	-0.248	0.031
-505.726	79.901	-0.262	0.283
-504.712	800.000	-0.123	-0.353
-503.697	83.054	-0.147	-0.161
-502.683	800.000	0.054	0.237
-501.668	11.231	0.315	-0.242
-500.653	61.643	0.059	0.059
-499.639	3.577	-0.196	-0.144
-498.624	800.000	-0.076	-0.249
-497.610	47.490	-0.182	0.170
-496.595	-146.911	0.174	0.015
-495.581	-200.000	0.051	0.277
-494.566	-103.216	0.159	0.038
-493.551	-30.724	-0.260	-0.148
-492.537	68.207	0.174	-0.179
-491.522	-16.068	-0.131	0.084
-490.508	460.995	0.070	-0.157
-489.493	51.907	-0.093	-0.089
-488.478	462.521	-0.028	-0.062
-487.464	-200.000	-0.003	0.073
-486.449	327.752	-0.048	-0.092
-485.435	136.875	0.099	-0.130
-484.420	311.359	0.110	0.207
-483.405	-74.122	-0.149	0.054
-482.391	800.000	0.058	0.187
-481.376	-200.000	-0.051	-0.297
-480.362	-80.052	-0.283	-0.095
-479.347	-200.000	-0.028	0.145
-478.332	-166.977	-0.046	-0.002
-477.318	800.000	0.030	0.109
-476.303	178.626	0.177	0.260
-475.289	-116.785	-0.116	0.021
-474.274	47.443	0.050	-0.046
-473.259	-42.531	-0.082	0.042
-472.245	224.242	-0.012	-0.020
-471.230	643.048	-0.084	0.215
-470.216	-43.883	-0.317	0.160
-469.201	292.638	-0.120	0.219
-468.186	70.321	-0.196	0.203
-467.172	-31.319	0.266	-0.150
-466.157	-21.660	0.174	-0.106
-465.143	-163.770	0.269	0.013
-464.128	546.630	0.028	0.067
-463.113	90.797	0.104	-0.116
-462.099	-142.067	-0.246	0.025
-461.084	-174.981	-0.162	-0.005
-460.070	45.407	0.029	-0.027
-459.055	605.591	0.158	0.395
-458.040	-51.982	0.201	0.094
-457.026	2.623	-0.295	0.215
-456.011	431.911	-0.103	0.224
-454.997	84.685	0.119	-0.131
-453.982	49.765	-0.035	-0.033
-452.968	-170.964	0.280	-0.010
-451.953	480.945	0.037	-0.083
-450.938	-200.000	-0.015	0.070
-449.924	-200.000	-0.027	0.278
-448.909	-56.961	-0.255	0.113
-447.895	536.077	-0.050	0.120
-446.880	28.857	-0.229	0.195
-445.865	-80.108	-0.283	-0.095
-444.851	175.688	0.107	-0.156
-443.836	119.755	-0.233	-0.290
-442.822	6.106	0.123	0.091
-441.807	800.000	-0.071	-0.210
-440.792	147.365	0.160	-0.216
-439.778	-146.455	0.419	0.037
-438.763	450.135	-0.126	0.278
-437.749	-150.714	0.161	-0.012
-436.734	800.000	-0.124	0.374
-435.719	-89.823	0.164	0.048
-434.705	-200.000	0.046	0.206
-433.690	-25.579	-0.176	0.104
-432.676	14.210	-0.251	-0.196
-431.661	108.301	-0.115	-0.138
-430.646	-200.000	-0.067	0.000
-429.632	-190.686	0.115	0.001
-428.617	-200.000	-0.020	-0.114
-427.603	183.340	-0.070	0.103
-426.588	56.737	0.201	0.196
-425.573	-61.296	-0.221	0.093
-424.559	-200.000	-0.048	0.299
-423.544	8.787	0.045	0.034
-422.530	-128.949	-0.172	-0.024
-421.515	112.445	-0.094	-0.114
-420.500	-66.692	0.181	0.072
-419.486	54.067	0.047	-0.045
-418.471	4.656	-0.162	-0.119
-417.457	800.000	0.099	-0.284
-416.442	-114.676	-0.077	-0.015
-415.428	-200.000	-0.034	-0.177
-414.413	51.142	-0.150	0.143
-413.398	-71.613	-0.165	0.062
-412.384	31.494	0.170	0.146
-411.369	27.140	-0.116	0.097
-410.355	602.775	-0.094	-0.234
-409.340	401.464	-0.055	0.116
-408.325	314.701	0.108	-0.204
-407.311	141.011	-0.115	-0.152
-406.296	-123.496	0.313	-0.050
-405.282	-27.539	-0.240	0.139
-404.267	-93.289	-0.162	-0.045
-403.252	37.005	-0.146	-0.130
-402.238	260.867	-0.126	0.218
-401.223	800.000	0.073	0.276
-400.209	249.099	0.169	0.286
-399.194	-150.292	0.264	0.020
-398.179	-184.461	0.185	0.003
-397.165	-23.455	0.202	0.122
-396.150	-180.529	-0.096	0.002
-395.136	-133.192	-0.050	-0.006
-394.121	355.517	0.100	-0.199
-393.106	800.000	0.044	0.128
-392.092	168.401	0.081	0.115
-391.077	-1.863	-0.106	0.074
-390.063	-115.708	-0.156	-0.029
-389.048	-200.000	0.003	-0.055
-388.033	-106.560	-0.141	0.031
-387.019	63.586	-0.147	-0.148
-386.004	36.252	-0.137	0.121
-384.990	-43.566	-0.312	-0.157
-383.975	-148.273	-0.217	-0.018
-382.960	-200.000	0.060	0.323
-381.946	90.621	-0.144	0.161
-380.931	12.798	0.121	-0.094
-379.917	-44.688	-0.185	-0.092
-378.902	800.000	0.098	-0.360
-377.888	1.814	-0.100	-0.072
-376.873	800.000	0.081	0.283
-375.858	-200.000	-0.015	-0.077
-374.844	800.000	0.088	-0.274
-373.829	6.854	-0.074	0.055
-372.815	-64.410	0.285	0.116
-371.800	-72.948	-0.265	0.097
-370.785	-200.000	0.019	0.155
-369.771	-91.563	0.413	0.118
-368.756	-11.341	0.072	-0.047
-367.742	-109.367	0.224	0.047
-366.727	-61.519	0.163	0.068
-365.712	-200.000	0.015	-0.285
-364.698	-110.692	-0.012	0.003
-363.683	15.388	-0.120	0.094
-362.669	74.495	-0.063	0.066
-361.654	800.000	-0.105	0.359
-360.639	-65.172	0.264	-0.106
-359.625	111.155	0.190	0.228
-358.610	126.752	0.074	0.094
-357.596	-18.297	-0.360	0.225
-356.581	185.133	-0.049	0.072
-355.566	382.705	0.087	-0.180
-354.552	22.930	-0.203	-0.167
-353.537	-200.000	-0.030	0.230
-352.523	211.649	0.100	-0.157
-351.508	290.135	0.189	0.343
-350.493	-200.000	0.017	0.381
-349.479	-200.000	-0.003	0.056
-348.464	762.741	-0.085	-0.231
-347.450	800.000	0.046	0.178
-346.435	800.000	0.119	0.353
-345.420	396.936	-0.065	0.136
-344.406	207.915	-0.086	-0.134
-343.391	-200.000	0.035	0.226
-342.377	-61.803	0.438	0.183
-341.362	208.009	0.095	-0.148
-340.348	185.354	-0.024	-0.035
-339.333	-64.553	-0.278	-0.113
-338.318	-200.000	-0.009	0.147
-337.304	800.000	0.035	0.130
-336.289	-113.341	-0.128	-0.025
-335.275	401.107	-0.086	0.180
-334.260	-128.512	0.183	0.026
-333.245	-136.605	-0.134	-0.016
-332.231	800.000	0.151	-0.447
-331.216	-55.195	-0.317	-0.142
-330.202	-2.267	-0.106	-0.074
-329.187	174.782	0.135	-0.195
-328.172	-200.000	-0.043	-0.321
-327.158	254.798	-0.177	-0.302
-326.143	-200.000	-0.060	0.295
-325.129	-200.000	0.006	0.057
-324.114	-111.108	0.441	-0.090
-323.099	341.404	-0.209	-0.407
-322.085	-198.097	0.360	0.002
-321.070	800.000	-0.055	0.166
-320.056	800.000	0.071	0.274
-319.041	-200.000	0.001	0.234
-318.026	-154.963	0.154	0.010
-317.012	-200.000	0.001	-0.087
-315.997	496.938	0.089	0.205
-314.983	-200.000	-0.006	0.151
-313.968	211.342	0.091	-0.142
-312.953	-115.990	-0.229	-0.043
-311.939	386.587	-0.093	-0.191
-310.924	-33.020	0.123	-0.068
-309.910	800.000	-0.018	0.075
-308.895	-59.042	0.137	-0.059
-307.880	-148.738	-0.166	-0.013
-306.866	404.909	0.048	-0.101
-305.851	51.723	-0.190	-0.180
-304.837	-200.000	-0.022	0.221
-303.822	328.191	0.097	0.186
-302.807	318.315	-0.185	-0.348
-301.793	349.480	-0.062	0.122
-300.778	800.000	0.079	0.240
-299.764	39.719	0.182	-0.163
-298.749	-200.000	0.001	0.078
-297.735	-140.150	-0.041	0.004
-296.720	800.000	0.026	-0.102
-295.705	-50.498	-0.224	0.105
-294.691	-200.000	-0.045	0.439
-293.676	142.999	0.129	-0.171
-292.662	800.000	0.011	-0.032
-291.647	-15.276	-0.129	-0.082
-290.632	-35.069	0.411	-0.223
-289.618	-129.468	-0.235	-0.032
-288.603	-200.000	-0.022	-0.137
-287.589	-200.000	0.008	-0.042
-286.574	-200.000	-0.059	-0.262
-285.559	19.081	-0.198	0.158
-284.545	-34.989	-0.290	0.157
-283.530	-200.000	-0.022	0.430
-282.516	-118.977	0.084	0.015
-281.501	140.195	-0.229	-0.300
-280.486	-76.140	-0.371	0.130
-279.472	-53.298	0.186	0.085
-278.457	-44.046	-0.268	-0.134
-277.443	182.248	0.123	0.180
-276.428	-19.915	0.286	0.176
-275.413	70.550	-0.077	0.079
-274.399	-200.000	-0.003	0.082
-273.384	-125.023	0.165	0.025
-272.370	-127.794	0.271	-0.039
-271.355	141.211	0.226	0.298
-270.340	411.146	-0.082	0.173
-269.326	-88.035	0.238	0.071
-268.311	-200.000	0.004	0.140
-267.297	638.747	0.063	-0.160
-266.282	24.440	0.062	-0.051
-265.267	-105.372	0.208	-0.047
-264.253	6.723	-0.024	0.018
-263.238	-123.813	0.162	0.025
-262.224	171.276	-0.129	-0.184
-261.209	4.168	0.095	-0.070
-260.195	32.621	0.260	0.224
-259.180	204.857	0.095	-0.146
-258.165	-200.000	0.059	-0.340
-257.151	-200.000	0.009	0.117
-256.136	99.192	-0.157	-0.180
-255.122	-82.586	0.253	-0.082
-254.107	144.040	0.124	-0.165
-253.092	-109.148	0.221	0.047
-252.078	800.000	-0.109	-0.326
-251.063	-111.406	-0.180	-0.036
-250.049	-190.444	0.019	0.000
-249.034	170.493	0.127	-0.181
-248.019	-72.577	-0.302	0.111
-247.005	42.965	-0.171	0.155
-245.990	800.000	0.088	0.319
-244.976	-44.683	-0.139	-0.069
-243.961	-149.419	-0.283	-0.022
-242.946	800.000	-0.008	-0.034
-241.932	22.191	0.165	0.134
-240.917	800.000	0.057	-0.156
-239.903	117.578	-0.159	0.194
-238.888	-190.388	-0.209	0.002
-237.873	800.000	0.147	-0.444
-236.859	198.629	-0.099	-0.151
-235.844	54.662	0.049	0.047
-234.830	-67.292	-0.183	-0.071
-233.815	-71.536	0.224	-0.083
-232.800	128.161	-0.028	-0.035
-231.786	93.481	-0.237	-0.267
-230.771	211.073	0.060	-0.094
-229.757	800.000	0.092	0.374
-228.742	180.995	-0.140	-0.205
-227.727	-151.639	0.094	-0.007
-226.713	157.176	0.223	0.306
-225.698	-200.000	-0.007	-0.166
-224.684	96.428	0.158	0.179
-223.669	800.000	-0.076	0.305
-222.655	-200.000	0.055	0.529
-221.640	-153.618	0.180	0.012
-220.625	-19.470	0.320	-0.197
-219.611	-200.000	0.005	0.209
-218.596	100.132	0.202	0.232
-217.582	-33.160	0.105	0.058
-216.567	-22.530	0.200	0.120
-215.552	-102.858	-0.230	-0.054
-214.538	36.035	0.127	0.111
-213.523	-3.099	0.296	0.205
-212.509	155.221	0.101	0.139
-211.494	-42.213	0.192	0.097
-210.479	-61.380	0.217	-0.091
-209.465	-108.354	0.265	0.057
-208.450	-132.383	0.137	-0.018
-207.436	-200.000	-0.025	0.185
-206.421	800.000	-0.028	-0.100
-205.406	-76.384	0.313	0.109
-204.392	-101.666	0.095	0.023
-203.377	177.488	0.205	0.296
-202.363	-10.321	-0.230	-0.151
-201.348	-200.000	0.027	-0.144
-200.333	800.000	0.056	0.166
-199.319	182.909	0.045	0.066
-198.304	-54.125	-0.089	0.040
-197.290	-55.340	0.168	-0.075
-196.275	170.212	-0.279	-0.397
-195.260	800.000	-0.043	-0.165
-194.246	-101.828	0.277	0.066
-193.231	-64.930	0.298	0.120
-192.217	678.357	0.050	-0.128
-191.202	8.459	0.216	0.162
-190.187	-146.785	0.334	0.029
-189.173	-24.312	0.079	-0.047
-188.158	-200.000	0.019	0.150
-187.144	-200.000	0.032	0.184
-186.129	99.742	0.255	0.294
-185.114	226.985	0.085	0.137
-184.100	800.000	-0.068	0.237
-183.085	60.338	-0.274	-0.269
-182.071	-39.547	0.272	-0.141
-181.056	-131.197	0.184	0.024
-180.042	-38.790	-0.246	0.128
-179.027	152.513	0.186	-0.252
-178.012	-14.021	0.240	0.154
-176.998	-26.160	0.334	0.195
-175.983	-200.000	-0.006	-0.238
-174.969	-135.136	-0.146	-0.017
-173.954	800.000	0.075	-0.323
-172.939	-200.000	0.064	-0.296
-171.925	64.033	0.159	-0.158
-170.910	-200.000	0.000	-0.212
-169.896	-200.000	0.015	-0.225
-168.881	606.164	-0.127	0.314
-167.866	800.000	0.080	0.241
-166.852	-99.042	0.099	0.025
-165.837	113.467	-0.165	-0.199
-164.823	800.000	-0.048	-0.168
-163.808	300.232	-0.072	0.131
-162.793	-200.000	-0.013	0.098
-161.779	800.000	0.078	0.334
-160.764	-109.015	-0.041	0.009
-159.750	71.188	-0.111	-0.114
-158.735	800.000	-0.066	-0.239
-157.720	-95.866	0.548	0.145
-156.706	-101.160	0.355	-0.086
-155.691	-200.000	0.014	-0.422
-154.677	397.812	-0.167	0.346
-153.662	-77.568	-0.275	-0.094
-152.647	-57.704	-0.231	-0.100
-151.633	-15.487	-0.192	-0.122
-150.618	-10.596	-0.122	-0.080
-149.604	157.440	0.190	0.260
-148.589	372.000	-0.140	-0.281
-147.574	89.692	-0.216	-0.238
-146.560	-200.000	-0.048	-0.300
-145.545	-90.116	0.062	0.018
-144.531	41.249	-0.148	0.132
-143.516	-50.440	0.046	-0.021
-142.502	-75.496	-0.095	0.033
-141.487	-200.000	0.022	0.097
-140.472	24.128	0.021	-0.017
-139.458	788.950	-0.055	0.148
-138.443	163.491	0.082	0.115
-137.429	-91.547	0.308	0.087
-136.414	-102.687	-0.074	-0.017
-135.399	162.402	-0.113	-0.157
-134.385	-200.000	0.003	0.283
-133.370	40.252	0.119	-0.106
-132.356	-158.952	-0.151	0.009
-131.341	12.724	0.078	0.060
-130.326	190.905	0.071	-0.106
-129.312	-165.811	0.158	0.007
-128.297	199.695	-0.098	0.149
-127.283	-93.214	0.072	0.020
-126.268	2.119	0.049	0.035
-125.253	-200.000	0.007	0.118
-124.239	-199.046	-0.342	0.002
-123.224	68.600	-0.106	-0.107
-122.210	-4.650	0.135	0.092
-121.195	-24.564	0.360	0.212
