DTS Sentinel unit serial number:	SN413079Multiplexer serial number:	ORYXHardware model number:	OX4-SRSoftware version number:	ORYX F/W v4.00 Oryx Data Collector v3.7.2.0data status	okinstallation	princeton_trtdifferential loss correction	single-endedforward channel	channel 3reverse channel	N/Adate	2019/09/17time	10:04:35forward acquisition time	60.00reverse acquisition time	0.00gamma	496.2192k internal	0.2323k external	0.2323temperature offset calibration	0.9941default loss term (dB/km)	0.3790temperature slope calibration	1.0000multiplexer offset coefficient	1.0000multiplexer slope coefficient	1.0000fibre end	0.00T internal ref (°C)	29.69T ext. ref 1 (°C)	0.16T ext. ref 2 (°C)	25.31length (m)	temperature (°C)	Stokes	anti-Stokes-747.200	225.589	0.313	0.513
-746.185	-47.226	-0.143	0.070
-745.171	-72.951	0.130	-0.048
-744.156	199.247	0.026	0.041
-743.142	230.001	0.191	-0.316
-742.127	-0.268	-0.114	0.082
-741.112	-92.398	-0.030	-0.009
-740.098	800.000	-0.030	-0.110
-739.083	-200.000	0.015	0.113
-738.069	-183.953	0.134	-0.002
-737.054	-200.000	-0.025	0.137
-736.039	-64.703	-0.303	-0.124
-735.025	-19.020	0.467	0.293
-734.010	-36.526	-0.024	0.013
-732.996	62.594	0.287	-0.290
-731.981	-37.234	-0.092	-0.049
-730.966	8.117	0.150	-0.114
-729.952	99.582	-0.124	0.144
-728.937	-53.447	0.339	-0.157
-727.923	230.055	-0.166	0.275
-726.908	88.651	-0.210	-0.236
-725.894	308.647	-0.174	-0.328
-724.879	-169.271	-0.730	0.027
-723.864	-162.960	-0.335	0.016
-722.850	-200.000	-0.051	-0.336
-721.835	-24.659	0.239	-0.144
-720.821	269.458	0.053	0.095
-719.806	-58.587	-0.297	0.130
-718.791	-200.000	-0.015	0.308
-717.777	-103.452	0.233	-0.055
-716.762	-4.021	-0.157	0.110
-715.748	-156.968	0.251	0.016
-714.733	260.489	-0.168	-0.294
-713.718	-55.544	-0.119	0.054
-712.704	99.071	-0.181	-0.211
-711.689	-86.386	-0.214	0.066
-710.675	800.000	-0.162	-0.532
-709.660	-44.738	0.222	0.112
-708.645	-98.301	0.445	0.115
-707.631	-200.000	0.059	-0.450
-706.616	800.000	0.142	-0.516
-705.602	432.693	-0.136	0.297
-704.587	124.476	0.106	-0.134
-703.572	30.312	0.254	-0.219
-702.558	140.655	-0.066	0.088
-701.543	352.374	0.138	-0.275
-700.529	89.061	-0.105	0.118
-699.514	-194.281	0.260	-0.002
-698.499	-106.344	0.127	-0.029
-697.485	-120.336	0.173	0.030
-696.470	-200.000	0.044	-0.337
-695.456	-200.000	-0.021	0.300
-694.441	-156.239	-0.275	0.017
-693.426	138.140	-0.051	0.067
-692.412	-76.947	0.437	0.154
-691.397	13.057	0.154	0.120
-690.383	-26.169	-0.200	-0.118
-689.368	-44.074	0.198	-0.100
-688.354	-200.000	0.008	-0.080
-687.339	-157.727	-0.160	0.010
-686.324	430.165	-0.087	0.189
-685.310	-6.768	-0.222	0.152
-684.295	555.118	-0.119	0.288
-683.281	280.315	0.104	0.187
-682.266	-59.820	-0.204	0.088
-681.251	461.687	0.133	0.298
-680.237	57.414	-0.139	0.136
-679.222	21.138	-0.156	0.127
-678.208	-132.167	-0.078	0.010
-677.193	594.350	0.040	0.100
-676.178	-95.655	0.201	-0.054
-675.164	447.109	0.075	-0.165
-674.149	106.477	0.131	0.157
-673.135	-128.693	0.343	0.049
-672.120	-60.530	0.308	-0.132
-671.105	67.105	-0.275	-0.282
-670.091	800.000	-0.035	-0.116
-669.076	121.009	-0.061	-0.077
-668.062	800.000	0.087	-0.318
-667.047	-200.000	0.008	-0.232
-666.032	-3.846	0.287	0.201
-665.018	-56.221	0.229	0.103
-664.003	157.904	-0.128	-0.179
-662.989	-87.881	-0.055	-0.017
-661.974	2.832	0.127	0.092
-660.959	19.577	-0.180	-0.146
-659.945	329.630	0.084	-0.163
-658.930	-36.490	-0.314	0.170
-657.916	-121.953	0.257	-0.043
-656.901	-82.507	-0.525	0.171
-655.886	-89.772	-0.171	0.050
-654.872	59.475	0.144	0.142
-653.857	-191.212	-0.150	0.002
-652.843	-66.875	-0.168	0.067
-651.828	139.006	0.208	-0.275
-650.814	7.068	-0.116	0.087
-649.799	291.094	0.099	-0.180
-648.784	38.238	-0.255	-0.228
-647.770	-75.670	-0.076	0.027
-646.755	-200.000	-0.001	0.158
-645.741	800.000	-0.087	0.295
-644.726	254.287	0.126	0.216
-643.711	-200.000	-0.002	-0.247
-642.697	-122.139	-0.021	-0.003
-641.682	-61.869	-0.135	0.057
-640.668	800.000	0.015	-0.060
-639.653	-83.822	-0.289	-0.093
-638.638	-200.000	0.078	0.365
-637.624	48.516	0.195	0.184
-636.609	800.000	0.046	0.134
-635.595	800.000	0.105	-0.315
-634.580	-200.000	-0.036	-0.174
-633.565	-60.542	0.187	0.080
-632.551	-200.000	-0.077	-0.475
-631.536	-77.575	-0.143	0.050
-630.522	43.677	-0.195	-0.179
-629.507	-7.492	-0.511	-0.348
-628.492	-15.894	0.325	-0.208
-627.478	-64.366	0.376	-0.154
-626.463	-114.649	0.051	0.010
-625.449	-8.092	0.390	0.264
-624.434	-5.655	0.186	-0.128
-623.419	360.400	0.140	0.282
-622.405	800.000	-0.033	-0.094
-621.390	0.672	0.088	0.063
-620.376	39.970	0.171	-0.154
-619.361	37.822	-0.204	0.182
-618.346	114.332	-0.277	0.339
-617.332	-156.894	0.162	0.010
-616.317	128.250	-0.155	-0.198
-615.303	-48.491	-0.080	0.039
-614.288	223.032	-0.222	-0.359
-613.273	-48.112	-0.216	0.105
-612.259	-200.000	-0.090	0.416
-611.244	-200.000	-0.020	-0.107
-610.230	800.000	0.135	-0.461
-609.215	-29.756	0.110	0.063
-608.201	57.178	0.242	0.237
-607.186	101.946	-0.119	0.140
-606.171	304.206	0.098	0.183
-605.157	-25.459	0.190	0.113
-604.142	-200.000	-0.024	-0.428
-603.128	-89.756	-0.104	0.030
-602.113	71.176	-0.100	-0.104
-601.098	-56.864	-0.320	0.142
-600.084	-46.700	-0.146	0.072
-599.069	34.039	0.090	-0.079
-598.055	-200.000	-0.003	-0.030
-597.040	3.424	0.196	-0.143
-596.025	-200.000	-0.019	0.160
-595.011	149.562	0.204	-0.277
-593.996	800.000	-0.052	0.157
-592.982	-200.000	0.002	0.140
-591.967	800.000	0.059	0.205
-590.952	-138.108	-0.287	-0.032
-589.938	-37.555	-0.220	0.118
-588.923	174.818	0.011	0.017
-587.909	-200.000	0.071	0.578
-586.894	800.000	0.066	0.279
-585.879	80.413	0.189	-0.204
-584.865	-200.000	0.095	-0.460
-583.850	24.691	0.143	0.119
-582.836	185.588	-0.079	0.118
-581.821	-200.000	-0.011	0.162
-580.806	-200.000	0.007	0.250
-579.792	-136.282	0.323	-0.038
-578.777	55.286	-0.090	-0.088
-577.763	431.052	0.122	0.266
-576.748	230.598	-0.082	0.135
-575.733	294.620	0.049	-0.090
-574.719	-115.672	0.161	0.030
-573.704	247.782	0.155	-0.263
-572.690	186.439	-0.096	0.144
-571.675	-67.504	-0.050	0.020
-570.661	-75.578	-0.313	-0.111
-569.646	149.222	0.200	-0.271
-568.631	216.794	0.123	-0.197
-567.617	92.942	0.151	-0.172
-566.602	-19.816	0.245	0.152
-565.588	-200.000	-0.041	0.181
-564.573	-20.967	-0.164	0.101
-563.558	-71.444	-0.169	-0.063
-562.544	-200.000	0.006	-0.069
-561.529	-200.000	0.019	-0.167
-560.515	800.000	-0.027	0.111
-559.500	319.390	0.017	-0.033
-558.485	-200.000	0.019	-0.095
-557.471	232.029	0.067	0.109
-556.456	607.558	0.038	-0.095
-555.442	800.000	-0.098	-0.328
-554.427	84.895	0.154	0.169
-553.412	40.294	-0.142	-0.128
-552.398	403.856	-0.069	0.145
-551.383	-157.231	-0.190	0.012
-550.369	144.616	0.240	-0.322
-549.354	-59.600	0.050	0.021
-548.339	-200.000	-0.024	-0.238
-547.325	243.534	0.180	-0.302
-546.310	40.511	-0.123	-0.111
-545.296	102.566	-0.218	-0.255
-544.281	251.683	0.181	0.308
-543.266	-200.000	-0.013	-0.142
-542.252	333.416	-0.098	-0.191
-541.237	54.149	-0.164	0.158
-540.223	0.978	-0.217	0.156
-539.208	-200.000	-0.073	-0.325
-538.193	-119.538	-0.250	-0.043
-537.179	-200.000	-0.051	-0.301
-536.164	-115.217	-0.141	0.027
-535.150	788.026	0.155	-0.427
-534.135	800.000	-0.048	0.185
-533.121	91.916	0.165	-0.186
-532.106	-91.817	-0.096	-0.027
-531.091	-37.922	0.200	-0.107
-530.077	800.000	-0.101	-0.396
-529.062	26.981	0.271	-0.228
-528.048	-199.972	-0.191	0.001
-527.033	-200.000	-0.028	0.418
-526.018	-139.816	0.108	0.011
-525.004	-200.000	0.044	0.259
-523.989	-83.105	0.114	-0.037
-522.975	-200.000	-0.002	0.069
-521.960	-58.002	-0.081	0.035
-520.945	469.818	0.025	0.056
-519.931	280.654	-0.067	-0.120
-518.916	19.458	0.057	-0.046
-517.902	-91.164	-0.113	-0.032
-516.887	255.876	-0.110	0.189
-515.872	-93.322	-0.117	-0.033
-514.858	221.997	0.102	0.164
-513.843	23.777	-0.310	-0.256
-512.829	-155.828	-0.275	-0.018
-511.814	108.031	-0.123	0.147
-510.799	196.017	-0.081	0.123
-509.785	5.733	0.223	-0.165
-508.770	-69.252	-0.353	-0.136
-507.756	200.647	-0.050	0.077
-506.741	-152.959	0.152	-0.011
-505.726	222.781	0.068	0.110
-504.712	800.000	-0.041	0.157
-503.697	-140.281	0.319	0.033
-502.683	-0.860	0.116	0.082
-501.668	-47.277	-0.097	0.047
-500.653	-5.504	-0.098	-0.067
-499.639	-133.723	0.377	-0.047
-498.624	13.111	-0.122	-0.094
-497.610	309.597	0.224	0.420
-496.595	100.863	-0.088	0.102
-495.581	406.349	0.126	0.267
-494.566	-200.000	-0.053	0.000
-493.551	609.995	0.084	0.211
-492.537	-173.340	0.423	0.013
-491.522	-105.570	-0.374	0.085
-490.508	-200.000	0.038	-0.231
-489.493	-65.833	0.214	-0.086
-488.478	-118.104	-0.350	-0.062
-487.464	188.971	-0.065	-0.097
-486.449	-16.176	0.154	-0.098
-485.435	187.949	0.102	0.153
-484.420	-67.977	0.302	-0.118
-483.405	-144.073	0.415	-0.039
-482.391	-200.000	-0.014	-0.153
-481.376	-200.000	0.261	-0.000
-480.362	-120.236	0.065	-0.011
-479.347	-6.792	-0.376	0.255
-478.332	163.368	-0.111	-0.156
-477.318	-200.000	0.034	-0.390
-476.303	70.950	-0.079	-0.082
-475.289	-200.000	-0.010	0.146
-474.274	187.640	-0.218	-0.325
-473.259	-51.705	-0.142	-0.066
-472.245	48.686	-0.218	0.204
-471.230	-52.100	0.191	-0.089
-470.216	96.003	0.188	-0.214
-469.201	-20.455	0.039	-0.024
-468.186	-168.536	-0.275	0.010
-467.172	102.753	0.105	0.123
-466.157	95.533	-0.120	-0.137
-465.143	-200.000	0.028	-0.325
-464.128	-159.634	-0.270	0.015
-463.113	-98.934	-0.348	-0.088
-462.099	800.000	0.090	-0.322
-461.084	524.744	0.150	0.353
-460.070	-146.065	0.311	0.027
-459.055	-182.963	-0.203	0.004
-458.040	800.000	0.057	-0.196
-457.026	-91.678	-0.240	-0.068
-456.011	-200.000	0.006	0.102
-454.997	-200.000	0.006	-0.174
-453.982	-86.320	0.107	0.033
-452.968	39.518	-0.178	-0.159
-451.953	-157.418	-0.150	0.009
-450.938	-200.000	0.005	-0.517
-449.924	-100.056	0.192	-0.048
-448.909	20.074	-0.082	-0.066
-447.895	427.822	0.084	0.181
-446.880	155.300	-0.270	0.371
-445.865	161.976	0.090	-0.126
-444.851	193.296	0.016	-0.024
-443.836	114.599	-0.025	-0.030
-442.822	213.164	0.164	0.258
-441.807	-161.896	-0.078	0.004
-440.792	-128.599	0.108	-0.015
-439.778	46.914	0.215	0.199
-438.763	-197.208	0.270	-0.002
-437.749	-140.464	0.142	0.015
-436.734	451.040	0.110	-0.242
-435.719	-200.000	0.006	-0.071
-434.705	-110.628	-0.110	0.023
-433.690	-200.000	0.035	0.229
-432.676	800.000	0.047	0.154
-431.661	144.577	-0.205	-0.273
-430.646	143.573	-0.051	-0.067
-429.632	800.000	-0.027	-0.097
-428.617	84.025	0.149	0.163
-427.603	195.709	0.178	0.270
-426.588	-200.000	0.002	-0.501
-425.573	82.755	0.118	-0.128
-424.559	39.029	-0.123	0.110
-423.544	-50.514	-0.185	-0.087
-422.530	-125.488	-0.073	-0.011
-421.515	-156.645	-0.160	0.010
-420.500	-200.000	-0.042	-0.421
-419.486	45.949	-0.098	0.090
-418.471	-63.461	0.241	-0.099
-417.457	-103.192	-0.076	-0.018
-416.442	-35.310	0.315	0.171
-415.428	368.181	0.047	0.094
-414.413	-200.000	-0.047	-0.363
-413.398	457.555	-0.080	0.178
-412.384	-200.000	0.028	0.206
-411.369	-169.690	0.215	-0.008
-410.355	-200.000	-0.002	-0.054
-409.340	26.984	0.120	0.100
-408.325	-39.407	0.345	0.180
-407.311	55.261	-0.192	0.185
-406.296	491.977	0.017	0.039
-405.282	429.090	-0.131	0.283
-404.267	800.000	0.065	-0.222
-403.252	800.000	0.048	-0.167
-402.238	800.000	-0.108	0.352
-401.223	-97.731	-0.330	-0.085
-400.209	224.480	0.159	0.257
-399.194	-150.006	0.079	-0.006
-398.179	248.970	-0.148	-0.250
-397.165	-131.948	0.161	0.021
-396.150	122.537	0.118	0.147
-395.136	713.350	-0.142	0.376
-394.121	-77.798	0.120	-0.041
-393.106	-104.097	0.318	0.074
-392.092	-171.744	-0.183	0.006
-391.077	173.270	0.236	0.340
-390.063	-78.109	-0.111	-0.038
-389.048	-51.123	0.031	-0.014
-388.033	-65.539	0.228	0.091
-387.019	-74.137	-0.351	-0.127
-386.004	-79.605	-0.271	0.091
-384.990	-110.528	-0.270	0.056
-383.975	55.960	0.278	-0.269
-382.960	124.779	0.074	0.092
-381.946	-87.266	-0.301	-0.091
-380.931	-200.000	-0.001	-0.046
-379.917	722.863	-0.151	-0.401
-378.902	-157.475	-0.289	-0.017
-377.888	-119.808	-0.081	-0.014
-376.873	-78.729	0.073	-0.025
-375.858	-34.341	-0.253	0.138
-374.844	-15.161	-0.071	0.045
-373.829	-200.000	0.024	0.128
-372.815	-113.165	0.323	0.063
-371.800	-96.449	-0.110	-0.029
-370.785	-42.865	0.402	0.203
-369.771	-73.507	0.025	0.009
-368.756	-200.000	0.020	-0.474
-367.742	144.323	0.253	-0.336
-366.727	267.103	-0.117	0.204
-365.712	-200.000	-0.029	0.390
-364.698	800.000	-0.041	-0.136
-363.683	-69.014	0.064	-0.025
-362.669	-102.413	-0.290	-0.069
-361.654	-29.216	0.166	-0.095
-360.639	19.714	-0.300	0.240
-359.625	-200.000	0.034	0.294
-358.610	333.074	-0.167	0.321
-357.596	-200.000	0.008	0.084
-356.581	-60.825	0.132	0.055
-355.566	-40.709	-0.214	-0.110
-354.552	727.975	0.044	0.117
-353.537	-33.151	-0.201	-0.111
-352.523	463.658	-0.095	0.210
-351.508	-55.701	-0.338	0.150
-350.493	-85.068	-0.107	0.033
-349.479	-200.000	-0.008	-0.096
-348.464	368.134	0.134	0.270
-347.450	-200.000	-0.024	-0.186
-346.435	469.113	-0.099	-0.221
-345.420	-81.813	-0.048	0.015
-344.406	332.988	-0.067	-0.129
-343.391	-200.000	-0.004	-0.062
-342.377	-200.000	0.022	0.544
-341.362	800.000	-0.076	0.318
-340.348	-9.379	0.118	-0.078
-339.333	28.296	-0.103	-0.086
-338.318	201.312	-0.095	0.145
-337.304	-200.000	0.079	-0.360
-336.289	-3.127	0.170	0.118
-335.275	-83.695	0.233	-0.074
-334.260	800.000	0.005	-0.016
-333.245	-200.000	-0.039	-0.235
-332.231	19.446	-0.288	0.230
-331.216	-83.448	0.345	-0.110
-330.202	-63.000	0.193	-0.079
-329.187	-150.657	0.158	-0.012
-328.172	-25.626	-0.126	-0.074
-327.158	-200.000	0.001	-0.238
-326.143	800.000	-0.095	-0.265
-325.129	-200.000	0.005	-0.297
-324.114	-54.797	0.427	0.191
-323.099	3.153	-0.331	0.239
-322.085	-200.000	0.013	0.262
-321.070	283.009	-0.072	0.128
-320.056	-41.198	0.151	-0.077
-319.041	-53.844	0.169	-0.076
-318.026	-200.000	0.008	-0.265
-317.012	-200.000	-0.012	-0.182
-315.997	38.095	0.270	-0.239
-314.983	192.429	0.179	-0.268
-313.968	800.000	-0.041	0.169
-312.953	125.663	-0.141	-0.177
-311.939	-35.402	0.116	-0.063
-310.924	-1.615	-0.088	0.062
-309.910	-17.588	0.159	-0.099
-308.895	199.707	0.005	0.008
-307.880	279.041	0.170	0.302
-306.866	110.672	0.198	0.236
-305.851	800.000	0.118	0.398
-304.837	6.889	-0.310	-0.229
-303.822	-125.450	0.061	-0.009
-302.807	108.466	-0.082	0.097
-301.793	-200.000	0.016	-0.189
-300.778	-147.884	-0.107	-0.009
-299.764	-63.434	-0.181	0.074
-298.749	-28.808	0.276	-0.157
-297.735	114.858	0.046	-0.055
-296.720	-200.000	-0.057	0.359
-295.705	-200.000	0.019	0.164
-294.691	796.434	-0.078	0.214
-293.676	76.077	-0.139	-0.146
-292.662	369.679	0.079	-0.159
-291.647	333.496	0.169	-0.323
-290.632	-200.000	-0.016	0.095
-289.618	-33.856	-0.130	0.071
-288.603	753.271	0.067	-0.180
-287.589	155.548	0.114	-0.155
-286.574	-130.036	-0.154	-0.021
-285.559	391.757	0.114	0.236
-284.545	191.998	0.137	0.205
-283.530	-110.534	-0.426	-0.088
-282.516	800.000	0.058	0.178
-281.501	-11.420	0.102	-0.066
-280.486	-178.319	-0.214	0.005
-279.472	604.600	0.056	-0.139
-278.457	88.266	0.178	-0.196
-277.443	-200.000	-0.053	0.272
-276.428	73.272	0.327	0.339
-275.413	-52.614	-0.282	0.129
-274.399	-48.454	0.243	-0.116
-273.384	110.184	-0.154	-0.183
-272.370	110.042	-0.058	-0.069
-271.355	-41.931	0.263	-0.134
-270.340	5.367	-0.136	-0.099
-269.326	-28.992	0.110	0.063
-268.311	-167.290	-0.224	0.009
-267.297	69.495	0.006	-0.006
-266.282	-40.246	-0.101	-0.052
-265.267	339.911	-0.054	0.104
-264.253	-200.000	0.038	0.370
-263.238	-141.567	-0.216	-0.022
-262.224	-155.569	0.162	-0.010
-261.209	-44.447	0.250	-0.124
-260.195	61.013	-0.020	0.019
-259.180	-101.967	0.237	-0.057
-258.165	-43.881	0.210	-0.105
-257.151	-200.000	0.049	-0.250
-256.136	800.000	-0.064	0.177
-255.122	674.189	-0.071	-0.182
-254.107	77.161	-0.162	-0.171
-253.092	-18.512	-0.243	-0.150
-252.078	-31.234	0.203	-0.113
-251.063	465.630	0.084	-0.185
-250.049	436.180	-0.065	0.140
-249.034	-165.898	0.134	-0.006
-248.019	441.173	0.154	0.333
-247.005	800.000	0.028	0.086
-245.990	304.518	-0.273	0.501
-244.976	616.496	0.083	-0.205
-243.961	-133.625	0.092	-0.011
-242.946	-146.384	0.270	-0.023
-241.932	223.573	-0.077	0.122
-240.917	589.152	0.036	-0.087
-239.903	800.000	-0.048	0.144
-238.888	800.000	-0.102	0.303
-237.873	-200.000	0.010	0.296
-236.859	800.000	-0.056	-0.213
-235.844	103.789	-0.117	-0.135
-234.830	800.000	0.031	0.102
-233.815	800.000	0.023	-0.071
-232.800	-79.935	-0.159	0.053
-231.786	128.164	-0.233	0.294
-230.771	-53.026	-0.111	-0.050
-229.757	-83.249	0.185	-0.059
-228.742	31.711	-0.383	-0.326
-227.727	627.937	-0.051	-0.126
-226.713	-200.000	-0.008	0.350
-225.698	800.000	0.069	0.240
-224.684	478.780	-0.052	-0.117
-223.669	-118.316	0.132	0.023
-222.655	14.746	0.032	0.025
-221.640	-200.000	0.022	0.100
-220.625	17.425	0.311	-0.244
-219.611	800.000	-0.026	-0.079
-218.596	-32.882	-0.046	0.025
-217.582	542.486	-0.071	0.168
-216.567	120.524	-0.032	-0.040
-215.552	229.814	0.061	0.099
-214.538	800.000	-0.057	0.158
-213.523	-14.708	-0.107	-0.068
-212.509	-8.200	-0.234	-0.156
-211.494	-77.295	-0.208	0.071
-210.479	-200.000	-0.020	-0.185
-209.465	-18.338	0.144	-0.089
-208.450	800.000	0.040	0.123
-207.436	-200.000	-0.006	-0.220
-206.421	21.177	0.118	-0.095
-205.406	-200.000	0.053	-0.232
-204.392	48.514	0.223	0.207
-203.377	-147.599	0.382	-0.032
-202.363	-72.413	-0.311	-0.114
-201.348	381.679	0.086	0.175
-200.333	800.000	0.071	0.196
-199.319	423.700	-0.181	-0.384
-198.304	800.000	0.127	0.376
-197.290	-89.496	-0.299	-0.087
-196.275	-200.000	-0.006	0.225
-195.260	-100.910	-0.499	0.121
-194.246	-200.000	0.013	0.409
-193.231	32.332	0.132	-0.113
-192.217	-139.034	0.149	-0.016
-191.202	340.030	-0.071	0.138
-190.187	46.799	-0.041	0.038
-189.173	298.772	0.139	0.253
-188.158	273.779	0.113	0.197
-187.144	63.521	0.087	0.087
-186.129	125.635	0.196	0.244
-185.114	-15.904	0.142	-0.089
-184.100	-200.000	0.032	0.249
-183.085	-200.000	-0.020	0.114
-182.071	196.859	-0.025	-0.038
-181.056	112.273	-0.176	0.210
-180.042	-84.357	-0.191	-0.060
-179.027	-174.217	0.075	0.002
-178.012	-200.000	0.002	0.080
-176.998	-138.327	-0.162	0.018
-175.983	131.809	-0.093	0.118
-174.969	-36.952	0.231	-0.122
-173.954	-165.752	-0.217	-0.009
-172.939	419.534	-0.081	-0.172
-171.925	297.762	-0.074	0.134
-170.910	-174.109	0.110	0.003
-169.896	-97.441	0.256	0.066
-168.881	-73.244	0.112	0.041
-167.866	800.000	-0.214	-0.594
-166.852	490.537	-0.091	-0.205
-165.837	-200.000	0.021	0.111
-164.823	800.000	-0.055	-0.190
-163.808	-90.695	-0.241	-0.069
-162.793	572.151	0.070	-0.168
-161.779	-8.460	-0.187	0.124
-160.764	800.000	0.090	0.266
-159.750	-135.386	0.042	0.005
-158.735	66.180	-0.222	-0.222
-157.720	3.626	-0.189	-0.136
-156.706	336.176	0.116	0.223
-155.691	194.189	0.147	0.219
-154.677	-81.331	0.327	-0.107
-153.662	-65.482	-0.269	0.107
-152.647	800.000	0.034	0.115
-151.633	-43.967	0.183	-0.091
-150.618	-200.000	0.024	0.322
-149.604	80.730	0.084	0.090
-148.589	-200.000	0.023	-0.240
-147.574	-92.844	0.337	0.093
-146.560	-7.660	0.148	0.099
-145.545	90.735	0.081	-0.090
-144.531	403.539	0.144	0.298
-143.516	800.000	-0.049	0.142
-142.502	-192.389	0.185	-0.002
-141.487	-157.700	0.484	0.028
-140.472	90.292	-0.011	0.012
-139.458	75.154	-0.175	-0.182
-138.443	43.884	-0.123	0.111
-137.429	193.737	0.259	0.386
-136.414	66.869	-0.217	-0.218
-135.399	-22.596	-0.209	0.124
-134.385	800.000	-0.024	0.075
-133.370	-92.832	-0.069	-0.019
-132.356	26.670	-0.166	0.137
-131.341	-200.000	-0.021	-0.103
-130.326	-72.118	-0.161	0.059
-129.312	392.224	0.068	-0.139
-128.297	-63.650	-0.190	0.077
-127.283	11.553	0.106	-0.080
-126.268	4.658	0.261	-0.189
-125.253	-200.000	-0.016	0.093
-124.239	-187.698	-0.051	0.001
-123.224	151.098	0.021	-0.028
-122.210	800.000	0.066	-0.269
-121.195	-75.627	0.242	-0.085
