DTS Sentinel unit serial number:	SN413079Multiplexer serial number:	ORYXHardware model number:	OX4-SRSoftware version number:	ORYX F/W v4.00 Oryx Data Collector v3.7.2.0data status	okinstallation	princeton_trtdifferential loss correction	single-endedforward channel	channel 3reverse channel	N/Adate	2019/09/19time	05:16:35forward acquisition time	60.00reverse acquisition time	0.00gamma	496.2192k internal	0.2348k external	0.2348temperature offset calibration	0.9992default loss term (dB/km)	0.3790temperature slope calibration	1.0000multiplexer offset coefficient	1.0000multiplexer slope coefficient	1.0000fibre end	0.00T internal ref (°C)	19.50T ext. ref 1 (°C)	0.60T ext. ref 2 (°C)	12.70length (m)	temperature (°C)	Stokes	anti-Stokes-747.200	800.000	-0.058	0.205
-746.185	800.000	-0.097	0.327
-745.171	21.734	0.259	-0.210
-744.156	164.629	0.076	0.107
-743.142	-134.647	-0.263	0.032
-742.127	-70.296	0.117	0.044
-741.112	260.962	0.100	0.173
-740.098	-124.923	-0.112	0.017
-739.083	800.000	0.135	0.384
-738.069	262.460	-0.153	0.264
-737.054	-13.383	-0.068	-0.044
-736.039	-66.937	-0.259	-0.102
-735.025	800.000	0.200	0.627
-734.010	388.982	0.071	-0.148
-732.996	60.501	-0.139	-0.137
-731.981	76.460	-0.200	-0.211
-730.966	-200.000	-0.016	0.071
-729.952	169.627	0.018	-0.025
-728.937	728.339	-0.117	-0.311
-727.923	-200.000	0.020	-0.295
-726.908	14.130	0.283	0.220
-725.894	-38.105	0.220	-0.117
-724.879	61.114	-0.058	-0.057
-723.864	-108.212	-0.209	-0.045
-722.850	177.122	-0.147	-0.213
-721.835	-98.103	-0.158	0.041
-720.821	44.813	-0.217	0.199
-719.806	19.352	-0.309	-0.247
-718.791	-200.000	0.042	0.188
-717.777	1.806	-0.240	-0.173
-716.762	800.000	0.040	0.160
-715.748	30.458	0.077	-0.066
-714.733	-99.211	0.195	-0.049
-713.718	800.000	-0.028	-0.084
-712.704	57.778	0.264	0.258
-711.689	394.274	-0.121	-0.252
-710.675	-30.800	-0.055	0.031
-709.660	164.217	0.070	-0.099
-708.645	-139.118	0.026	-0.003
-707.631	-172.535	-0.411	0.013
-706.616	96.868	-0.244	-0.279
-705.602	-150.321	0.053	0.004
-704.587	359.853	0.095	-0.189
-703.572	-120.466	-0.283	0.048
-702.558	-75.096	0.029	-0.010
-701.543	315.311	0.048	0.090
-700.529	-54.399	0.205	-0.093
-699.514	-64.739	0.234	0.095
-698.499	55.583	-0.232	-0.224
-697.485	88.586	-0.161	-0.178
-696.470	800.000	0.106	-0.308
-695.456	190.628	0.121	0.181
-694.441	-200.000	-0.017	0.366
-693.426	-200.000	-0.019	-0.175
-692.412	-200.000	0.013	0.120
-691.397	34.038	-0.256	0.222
-690.383	-152.053	-0.024	-0.002
-689.368	167.956	-0.084	-0.118
-688.354	800.000	0.007	-0.024
-687.339	-6.031	-0.212	0.145
-686.324	800.000	0.090	-0.324
-685.310	-118.438	0.167	-0.029
-684.295	-128.945	-0.108	0.015
-683.281	-77.381	-0.222	0.077
-682.266	-136.796	0.117	-0.013
-681.251	-173.099	0.157	0.005
-680.237	800.000	-0.128	-0.420
-679.222	404.900	-0.092	0.193
-678.208	-83.216	-0.419	0.134
-677.193	-200.000	0.036	0.159
-676.178	-200.000	0.040	0.516
-675.164	232.715	-0.161	-0.264
-674.149	70.777	-0.150	0.155
-673.135	-64.682	-0.106	-0.043
-672.120	-9.499	-0.049	-0.033
-671.105	-121.147	-0.276	-0.046
-670.091	225.268	0.022	0.036
-669.076	-102.938	-0.299	0.071
-668.062	233.759	-0.234	0.384
-667.047	0.864	-0.191	-0.137
-666.032	-86.276	0.091	0.028
-665.018	-28.015	0.194	0.112
-664.003	800.000	0.072	0.213
-662.989	-49.905	-0.410	0.194
-661.974	437.484	0.076	-0.165
-660.959	-150.756	-0.169	0.013
-659.945	-153.991	-0.317	-0.021
-658.930	-200.000	0.033	-0.253
-657.916	-76.975	0.243	-0.085
-656.901	-23.773	-0.197	0.117
-655.886	-200.000	-0.062	-0.377
-654.872	72.241	-0.294	0.305
-653.857	-200.000	0.054	0.327
-652.843	143.890	-0.158	-0.210
-651.828	-111.703	0.168	0.034
-650.814	657.908	-0.064	0.163
-649.799	150.342	0.031	0.042
-648.784	-114.203	-0.229	0.044
-647.770	-82.402	-0.174	-0.056
-646.755	549.626	-0.085	-0.202
-645.741	29.575	-0.253	-0.214
-644.726	-81.343	-0.106	-0.035
-643.711	101.709	-0.255	-0.296
-642.697	-9.279	-0.392	-0.261
-641.682	72.651	-0.066	0.068
-640.668	-117.636	-0.282	-0.051
-639.653	-200.000	-0.027	-0.358
-638.638	-55.439	0.144	0.064
-637.624	-73.563	0.266	0.097
-636.609	-200.000	0.035	0.164
-635.595	800.000	0.041	0.163
-634.580	-200.000	0.056	0.342
-633.565	-200.000	0.008	-0.094
-632.551	-200.000	0.027	0.160
-631.536	800.000	0.065	0.218
-630.522	-53.573	-0.262	0.119
-629.507	-200.000	0.063	0.330
-628.492	578.074	0.125	-0.304
-627.478	-107.926	-0.201	-0.043
-626.463	579.138	0.036	-0.089
-625.449	-127.157	0.141	-0.021
-624.434	547.273	-0.047	0.113
-623.419	107.155	-0.105	0.124
-622.405	372.925	0.060	0.121
-621.390	800.000	-0.046	0.186
-620.376	800.000	0.180	0.525
-619.361	52.231	0.227	0.215
-618.346	800.000	-0.083	0.274
-617.332	552.999	0.167	0.399
-616.317	417.212	-0.115	0.244
-615.303	200.689	0.081	0.124
-614.288	51.421	-0.121	-0.114
-613.273	-70.871	-0.430	-0.161
-612.259	-200.000	0.007	-0.055
-611.244	800.000	-0.083	-0.318
-610.230	13.678	0.245	-0.189
-609.215	-23.593	0.126	-0.075
-608.201	95.302	-0.040	-0.045
-607.186	427.516	-0.089	-0.190
-606.171	52.734	-0.153	0.145
-605.157	678.952	0.143	0.369
-604.142	-14.182	0.305	-0.196
-603.128	-31.043	0.166	0.093
-602.113	-59.708	-0.080	0.034
-601.098	-93.052	-0.278	-0.077
-600.084	14.993	0.085	-0.066
-599.069	151.927	0.027	-0.036
-598.055	-135.139	0.238	0.028
-597.040	-200.000	0.067	-0.447
-596.025	158.698	-0.189	0.260
-595.011	17.507	0.148	0.117
-593.996	-122.594	-0.364	0.059
-592.982	800.000	-0.108	0.340
-591.967	-96.523	0.087	0.023
-590.952	308.118	-0.048	-0.089
-589.938	800.000	0.015	-0.056
-588.923	-156.652	-0.079	-0.005
-587.909	195.741	-0.144	0.217
-586.894	-200.000	-0.001	0.036
-585.879	200.459	-0.057	-0.087
-584.865	800.000	-0.060	-0.232
-583.850	213.585	-0.151	-0.238
-582.836	511.035	-0.095	-0.220
-581.821	800.000	-0.034	-0.146
-580.806	-106.379	-0.112	-0.025
-579.792	-127.892	0.303	0.043
-578.777	800.000	-0.032	-0.118
-577.763	33.132	-0.293	-0.252
-576.748	287.432	-0.044	-0.079
-575.733	-200.000	-0.052	0.238
-574.719	134.575	0.087	-0.112
-573.704	294.342	-0.140	-0.254
-572.690	-127.541	-0.129	0.019
-571.675	162.661	0.070	0.097
-570.661	72.246	0.302	0.312
-569.646	-20.477	0.328	-0.200
-568.631	160.729	-0.159	-0.220
-567.617	800.000	-0.042	0.183
-566.602	-200.000	0.027	0.131
-565.588	-200.000	-0.050	-0.289
-564.573	-116.092	-0.375	0.069
-563.558	800.000	-0.016	-0.069
-562.544	800.000	0.086	0.271
-561.529	120.116	0.085	0.104
-560.515	295.798	0.053	-0.097
-559.500	-75.618	0.418	-0.148
-558.485	-73.509	0.240	0.087
-557.471	800.000	-0.106	0.316
-556.456	177.406	-0.050	-0.072
-555.442	800.000	0.050	0.162
-554.427	379.868	0.044	0.090
-553.412	-81.433	-0.263	-0.086
-552.398	108.576	-0.164	-0.194
-551.383	667.524	-0.061	0.156
-550.369	-44.420	-0.092	-0.046
-549.354	38.001	0.137	0.121
-548.339	-23.141	0.160	0.095
-547.325	800.000	0.070	-0.260
-546.310	-106.509	-0.288	0.064
-545.296	-200.000	-0.026	-0.381
-544.281	-125.672	-0.228	-0.034
-543.266	-61.305	0.186	0.078
-542.252	70.963	-0.053	-0.054
-541.237	-20.969	0.110	0.067
-540.223	-200.000	0.001	-0.109
-539.208	-200.000	0.010	-0.112
-538.193	606.669	-0.198	-0.489
-537.179	534.229	-0.169	-0.397
-536.164	48.990	-0.172	-0.160
-535.150	800.000	-0.046	0.181
-534.135	66.042	-0.044	-0.044
-533.121	177.190	-0.057	-0.082
-532.106	-86.661	-0.246	-0.075
-531.091	171.427	-0.190	0.270
-530.077	40.101	-0.085	0.076
-529.062	-96.080	-0.429	-0.113
-528.048	-185.975	-0.120	-0.002
-527.033	313.999	-0.113	0.212
-526.018	-200.000	0.023	-0.106
-525.004	-30.575	0.292	-0.164
-523.989	-38.106	0.110	-0.058
-522.975	-108.635	0.059	0.013
-521.960	-167.254	0.259	-0.010
-520.945	328.460	0.099	-0.188
-519.931	-99.682	-0.042	-0.011
-518.916	491.779	0.160	0.362
-517.902	58.656	-0.130	0.127
-516.887	-144.851	-0.225	-0.020
-515.872	800.000	-0.095	0.380
-514.858	-64.196	-0.162	-0.065
-513.843	-200.000	-0.045	0.255
-512.829	-200.000	0.028	0.229
-511.814	-200.000	-0.017	0.122
-510.799	246.802	0.116	0.193
-509.785	266.350	0.083	-0.144
-508.770	800.000	-0.061	0.192
-507.756	125.151	-0.188	-0.234
-506.741	-200.000	0.013	0.067
-505.726	247.790	-0.189	-0.315
-504.712	13.227	-0.275	-0.211
-503.697	88.739	-0.017	-0.019
-502.683	-46.906	-0.145	-0.070
-501.668	800.000	-0.057	-0.220
-500.653	0.283	-0.124	0.087
-499.639	800.000	0.072	0.255
-498.624	-28.044	0.569	0.326
-497.610	14.232	-0.166	0.128
-496.595	-200.000	-0.046	-0.347
-495.581	-63.274	0.099	0.040
-494.566	-200.000	0.017	0.362
-493.551	-200.000	-0.010	-0.133
-492.537	-200.000	-0.013	0.197
-491.522	107.185	-0.161	-0.189
-490.508	-155.291	0.107	0.007
-489.493	-200.000	-0.018	-0.095
-488.478	65.850	0.201	-0.202
-487.464	184.165	-0.136	0.199
-486.449	800.000	-0.035	-0.121
-485.435	77.328	0.092	-0.097
-484.420	-29.515	-0.139	-0.078
-483.405	-163.573	-0.250	-0.012
-482.391	-195.925	0.093	0.001
-481.376	-200.000	0.004	-0.103
-480.362	650.536	-0.049	0.125
-479.347	-15.281	-0.198	-0.125
-478.332	-197.430	0.327	-0.002
-477.318	109.941	0.159	0.188
-476.303	-46.477	0.149	-0.072
-475.289	-23.175	-0.373	0.222
-474.274	-96.380	-0.123	-0.032
-473.259	472.504	0.086	0.190
-472.245	-200.000	-0.026	-0.137
-471.230	84.447	0.203	0.220
-470.216	105.623	0.140	-0.163
-469.201	-90.429	-0.068	0.020
-468.186	800.000	0.055	-0.207
-467.172	-114.545	0.202	0.038
-466.157	64.202	0.036	-0.036
-465.143	198.858	-0.133	-0.202
-464.128	800.000	-0.049	0.200
-463.113	-71.017	0.290	0.108
-462.099	-200.000	0.005	0.041
-461.084	-143.099	-0.344	0.033
-460.070	-142.237	0.065	-0.006
-459.055	186.846	-0.027	-0.039
-458.040	339.252	0.300	0.578
-457.026	-91.123	-0.302	-0.086
-456.011	-6.766	-0.044	-0.029
-454.997	-181.096	-0.134	-0.003
-453.982	98.122	-0.017	-0.019
-452.968	76.897	0.333	0.349
-451.953	465.964	-0.125	0.276
-450.938	-200.000	-0.014	0.194
-449.924	0.698	0.295	-0.208
-448.909	-45.593	-0.430	-0.210
-447.895	-149.448	0.073	-0.006
-446.880	800.000	-0.028	0.091
-445.865	-43.285	0.227	0.114
-444.851	-13.130	0.355	0.228
-443.836	413.640	-0.141	-0.295
-442.822	83.361	-0.113	-0.122
-441.807	-42.664	0.056	0.028
-440.792	-42.408	0.162	-0.081
-439.778	746.839	-0.088	-0.235
-438.763	481.649	0.094	-0.210
-437.749	-200.000	0.021	-0.158
-436.734	422.312	-0.109	0.231
-435.719	-120.583	-0.046	0.008
-434.705	-34.870	-0.119	-0.064
-433.690	9.682	-0.160	-0.120
-432.676	66.219	0.351	-0.351
-431.661	-66.025	-0.375	-0.148
-430.646	188.948	0.231	0.342
-429.632	-200.000	-0.003	-0.467
-428.617	-200.000	0.016	-0.077
-427.603	-200.000	-0.018	-0.087
-426.588	186.687	-0.099	0.145
-425.573	-49.521	-0.252	-0.119
-424.559	108.254	-0.202	-0.237
-423.544	66.838	-0.375	0.376
-422.530	554.830	-0.018	-0.043
-421.515	118.017	-0.123	0.150
-420.500	84.884	-0.060	0.065
-419.486	-90.453	0.231	-0.066
-418.471	-200.000	-0.014	-0.171
-417.457	800.000	0.024	-0.095
-416.442	360.403	0.175	-0.345
-415.428	-200.000	0.011	0.497
-414.413	-95.882	-0.198	0.052
-413.398	-200.000	-0.023	0.186
-412.384	41.365	0.152	-0.136
-411.369	28.512	-0.301	0.251
-410.355	-200.000	0.033	0.270
-409.340	-200.000	0.015	0.092
-408.325	225.602	-0.081	-0.129
-407.311	-200.000	0.034	0.235
-406.296	-98.730	0.308	-0.077
-405.282	-200.000	-0.016	-0.081
-404.267	39.701	-0.121	-0.107
-403.252	27.262	-0.037	-0.030
-402.238	637.373	0.024	0.061
-401.223	-82.501	0.122	-0.039
-400.209	-200.000	-0.036	0.268
-399.194	-89.444	-0.385	0.112
-398.179	135.975	-0.164	0.211
-397.165	-200.000	0.035	-0.154
-396.150	-109.919	-0.273	0.056
-395.136	-200.000	0.011	-0.140
-394.121	658.763	0.022	0.056
-393.106	-122.489	0.148	-0.024
-392.092	691.600	0.141	-0.364
-391.077	9.156	-0.431	0.321
-390.063	-5.340	-0.125	0.085
-389.048	562.419	0.085	0.202
-388.033	-161.219	-0.431	0.022
-387.019	3.360	0.028	0.020
-386.004	-4.424	0.315	0.215
-384.990	20.600	0.219	-0.174
-383.975	-184.206	-0.199	-0.003
-382.960	535.231	0.014	0.033
-381.946	-158.088	-0.341	-0.020
-380.931	-200.000	-0.034	-0.493
-379.917	133.696	-0.095	-0.122
-378.902	90.365	-0.215	0.237
-377.888	-106.818	-0.109	-0.024
-376.873	-200.000	-0.034	0.158
-375.858	-75.315	0.074	0.026
-374.844	-129.781	0.190	0.026
-373.829	-200.000	0.050	0.296
-372.815	-187.425	0.240	0.003
-371.800	17.352	0.161	0.126
-370.785	-87.301	-0.145	-0.043
-369.771	-41.055	0.293	-0.149
-368.756	800.000	-0.143	-0.401
-367.742	393.465	-0.156	0.320
-366.727	-157.845	0.217	0.013
-365.712	-200.000	0.012	0.181
-364.698	464.853	0.064	0.142
-363.683	-57.189	-0.190	0.082
-362.669	415.372	0.106	-0.222
-361.654	-71.202	0.369	-0.136
-360.639	261.870	-0.129	-0.221
-359.625	-15.266	0.179	-0.112
-358.610	-2.281	0.106	-0.073
-357.596	800.000	-0.119	0.412
-356.581	40.062	-0.289	-0.256
-355.566	-139.363	-0.240	-0.025
-354.552	153.160	0.163	0.220
-353.537	-200.000	0.063	-0.349
-352.523	182.591	0.097	0.141
-351.508	-151.369	0.209	0.015
-350.493	-120.959	0.081	-0.013
-349.479	-45.158	-0.235	0.115
-348.464	800.000	0.028	0.122
-347.450	800.000	0.067	-0.263
-346.435	-67.424	0.290	0.112
-345.420	1.320	-0.111	0.078
-344.406	-86.091	0.358	0.109
-343.391	-200.000	-0.008	-0.235
-342.377	-27.988	0.186	-0.106
-341.362	-145.147	-0.116	-0.010
-340.348	-60.971	-0.119	-0.050
-339.333	800.000	0.025	-0.081
-338.318	-26.602	0.082	-0.047
-337.304	223.152	-0.154	0.243
-336.289	44.941	-0.241	0.218
-335.275	-183.841	-0.506	-0.008
-334.260	80.938	-0.128	-0.136
-333.245	-19.473	0.426	0.259
-332.231	-200.000	0.033	0.306
-331.216	800.000	-0.015	0.052
-330.202	462.411	0.117	-0.256
-329.187	217.615	-0.190	-0.298
-328.172	-39.434	-0.264	0.136
-327.158	12.656	-0.171	-0.130
-326.143	67.240	-0.143	0.143
-325.129	-200.000	0.008	-0.044
-324.114	-81.050	0.209	-0.068
-323.099	70.039	0.188	-0.191
-322.085	211.993	-0.068	0.106
-321.070	-200.000	-0.003	-0.083
-320.056	-200.000	-0.006	-0.096
-319.041	-145.317	-0.097	0.009
-318.026	119.657	-0.121	0.147
-317.012	-135.478	0.351	-0.041
-315.997	-132.662	-0.144	0.018
-314.983	50.386	-0.123	0.114
-313.968	800.000	0.018	-0.076
-312.953	531.866	0.077	-0.179
-311.939	-90.010	0.144	-0.041
-310.924	-67.849	-0.124	0.048
-309.910	-139.670	-0.132	0.014
-308.895	-200.000	0.049	-0.262
-307.880	505.015	0.040	-0.091
-306.866	307.458	0.090	-0.165
-305.851	34.392	-0.094	0.081
-304.837	58.586	0.153	-0.147
-303.822	-200.000	0.010	-0.125
-302.807	138.432	0.131	0.169
-301.793	-6.346	0.078	-0.052
-300.778	-116.144	0.265	0.048
-299.764	300.062	-0.105	0.189
-298.749	-149.087	0.122	-0.010
-297.735	-32.323	-0.223	0.122
-296.720	-147.269	0.106	-0.009
-295.705	-33.956	0.207	-0.112
-294.691	800.000	0.119	0.358
-293.676	800.000	-0.039	0.162
-292.662	197.238	0.193	0.288
-291.647	-149.267	-0.095	0.007
-290.632	800.000	-0.085	0.353
-289.618	-22.305	-0.242	-0.144
-288.603	63.029	-0.199	0.195
-287.589	-200.000	0.011	-0.074
-286.574	800.000	0.115	-0.430
-285.559	-40.153	0.116	-0.059
-284.545	96.051	0.148	0.166
-283.530	800.000	0.067	-0.237
-282.516	-5.540	0.321	0.216
-281.501	27.233	0.257	-0.212
-280.486	139.039	0.130	0.168
-279.472	792.535	0.085	0.230
-278.457	-75.083	0.148	-0.052
-277.443	-162.429	0.154	0.007
-276.428	32.560	0.043	-0.036
-275.413	348.048	-0.080	0.155
-274.399	428.831	0.054	0.115
-273.384	48.168	-0.110	-0.101
-272.370	252.280	-0.056	-0.093
-271.355	177.439	-0.137	0.195
-270.340	-56.228	-0.134	0.058
-269.326	-82.102	0.381	0.122
-268.311	-200.000	-0.014	-0.282
-267.297	-200.000	-0.039	-0.193
-266.282	-200.000	-0.045	0.371
-265.267	-130.658	-0.137	-0.018
-264.253	-200.000	-0.008	-0.366
-263.238	12.661	0.223	-0.169
-262.224	-26.717	-0.031	0.018
-261.209	275.172	-0.068	-0.118
-260.195	92.505	0.117	0.129
-259.180	106.253	0.102	-0.118
-258.165	-58.882	0.302	-0.128
-257.151	800.000	0.097	0.317
-256.136	-200.000	-0.000	-0.083
-255.122	125.514	0.111	0.137
-254.107	-200.000	0.024	-0.466
-253.092	-200.000	-0.008	-0.154
-252.078	512.252	0.068	0.156
-251.063	151.823	0.025	-0.033
-250.049	14.374	0.219	-0.167
-249.034	-34.057	-0.175	0.094
-248.019	-92.892	-0.105	-0.029
-247.005	-64.700	0.134	0.053
-245.990	-71.547	0.294	0.108
-244.976	-200.000	-0.031	-0.242
-243.961	452.621	0.071	-0.153
-242.946	28.474	0.234	-0.194
-241.932	-200.000	-0.049	0.237
-240.917	-145.830	-0.106	0.009
-239.903	-191.339	-0.330	0.003
-238.888	-78.912	-0.171	-0.057
-237.873	72.833	0.229	-0.234
-236.859	-85.073	-0.212	0.065
-235.844	-110.138	0.303	-0.062
-234.830	-66.724	-0.256	0.099
-233.815	-20.549	0.193	0.116
-232.800	800.000	0.058	0.226
-231.786	-200.000	-0.005	0.036
-230.771	-130.259	0.278	0.037
-229.757	-53.263	-0.248	0.111
-228.742	-71.002	-0.225	0.083
-227.727	-2.606	0.265	0.181
-226.713	-127.981	0.508	-0.071
-225.698	5.714	0.398	-0.288
-224.684	250.577	-0.051	-0.085
-223.669	309.080	0.097	-0.177
-222.655	-106.259	0.069	-0.015
-221.640	-200.000	0.004	-0.041
-220.625	-57.193	0.195	0.084
-219.611	107.340	0.406	0.472
-218.596	93.374	-0.039	0.043
-217.582	-37.070	0.149	0.078
-216.567	-124.135	0.278	-0.043
-215.552	-177.215	-0.225	-0.005
-214.538	13.744	0.159	0.121
-213.523	-156.233	0.106	0.007
-212.509	128.102	0.073	-0.090
-211.494	-53.031	0.323	-0.145
-210.479	-150.902	0.278	-0.021
-209.465	-200.000	-0.032	-0.320
-208.450	-200.000	0.008	0.112
-207.436	50.095	0.139	0.128
-206.421	-127.279	-0.282	-0.040
-205.406	-65.797	0.325	0.127
-204.392	-149.152	0.160	-0.013
-203.377	89.964	-0.075	0.082
-202.363	-54.107	0.087	-0.039
-201.348	-69.715	-0.152	0.057
-200.333	34.017	-0.156	-0.133
-199.319	16.220	0.084	-0.064
-198.304	-200.000	0.007	0.031
-197.290	-200.000	0.023	-0.108
-196.275	-86.990	0.202	-0.060
-195.260	-94.155	0.437	-0.117
-194.246	800.000	-0.078	-0.218
-193.231	-123.233	0.278	0.043
-192.217	800.000	-0.082	-0.247
-191.202	88.759	-0.271	0.295
-190.187	607.695	0.138	0.336
-189.173	223.779	-0.197	-0.312
-188.158	-200.000	-0.037	-0.224
-187.144	-18.931	-0.242	0.147
-186.129	392.925	-0.140	-0.284
-185.114	-136.007	0.195	-0.022
-184.100	292.832	-0.022	0.039
-183.085	105.175	0.202	-0.233
-182.071	35.558	-0.074	-0.063
-181.056	800.000	-0.049	-0.159
-180.042	27.303	-0.224	0.184
-179.027	-90.749	0.138	-0.039
-178.012	-18.316	0.178	0.109
-176.998	474.691	0.003	0.006
-175.983	-138.265	-0.294	-0.032
-174.969	148.801	-0.203	-0.268
-173.954	-115.307	0.220	0.041
-172.939	637.936	-0.153	0.381
-171.925	-98.032	0.231	0.058
-170.910	-171.151	-0.183	-0.006
-169.896	-200.000	-0.037	-0.267
-168.881	800.000	-0.032	0.105
-167.866	-71.517	-0.287	-0.105
-166.852	-200.000	-0.022	0.260
-165.837	800.000	0.068	-0.273
-164.823	-166.902	-0.167	0.007
-163.808	-103.724	0.210	0.048
-162.793	-53.284	-0.136	-0.061
-161.779	-12.439	-0.028	-0.018
-160.764	52.255	-0.126	-0.117
-159.750	-200.000	0.063	-0.306
-158.735	-12.297	0.077	-0.049
-157.720	8.412	-0.056	0.041
-156.706	-23.223	0.262	0.154
-155.691	304.598	0.103	0.187
-154.677	-180.632	0.149	0.003
-153.662	-151.282	-0.420	0.031
-152.647	-68.021	-0.173	0.066
-151.633	-9.977	0.114	0.074
-150.618	-72.386	0.252	-0.091
-149.604	-200.000	0.035	-0.163
-148.589	-127.025	0.333	0.048
-147.574	-200.000	0.001	-0.049
-146.560	-200.000	0.003	-0.330
-145.545	284.290	-0.178	-0.313
-144.531	-45.049	-0.090	-0.044
-143.516	28.743	0.170	-0.141
-142.502	-45.107	0.348	-0.169
-141.487	-107.010	0.168	0.036
-140.472	357.666	-0.057	0.111
-139.458	-139.181	0.185	0.019
-138.443	800.000	-0.117	0.359
-137.429	-88.468	0.165	0.048
-136.414	-118.842	-0.222	0.038
-135.399	145.167	-0.197	-0.257
-134.385	52.496	0.231	-0.215
-133.370	-200.000	-0.015	0.234
-132.356	-200.000	-0.056	0.276
-131.341	93.739	-0.236	0.261
-130.326	-74.630	0.207	-0.073
-129.312	-200.000	0.014	-0.155
-128.297	-200.000	-0.007	-0.088
-127.283	606.412	-0.135	0.327
-126.268	-200.000	0.065	0.369
-125.253	194.619	0.098	-0.145
-124.239	-76.770	0.230	0.078
-123.224	41.282	0.144	0.127
-122.210	-151.751	0.333	0.024
