DTS Sentinel unit serial number:	SN413079Multiplexer serial number:	ORYXHardware model number:	OX4-SRSoftware version number:	ORYX F/W v4.00 Oryx Data Collector v3.7.2.0data status	okinstallation	princeton_trtdifferential loss correction	single-endedforward channel	channel 3reverse channel	N/Adate	2019/09/18time	06:00:34forward acquisition time	60.00reverse acquisition time	0.00gamma	496.2192k internal	0.2343k external	0.2343temperature offset calibration	0.9951default loss term (dB/km)	0.3790temperature slope calibration	1.0000multiplexer offset coefficient	1.0000multiplexer slope coefficient	1.0000fibre end	0.00T internal ref (°C)	23.19T ext. ref 1 (°C)	0.19T ext. ref 2 (°C)	17.67length (m)	temperature (°C)	Stokes	anti-Stokes-747.200	-37.651	0.376	0.201
-746.185	66.888	0.212	0.216
-745.171	418.030	0.179	0.384
-744.156	-200.000	0.025	-0.290
-743.142	-200.000	0.066	0.373
-742.127	-18.516	-0.158	-0.099
-741.112	-24.182	-0.237	0.142
-740.098	-200.000	-0.089	0.403
-739.083	-34.385	-0.279	0.153
-738.069	-200.000	0.046	0.268
-737.054	-100.589	0.412	0.102
-736.039	55.982	-0.155	-0.150
-735.025	-7.270	0.304	0.206
-734.010	-157.107	-0.444	0.027
-732.996	-78.244	-0.045	-0.016
-731.981	-68.866	-0.084	0.033
-730.966	-71.662	-0.095	0.036
-729.952	-72.406	-0.197	-0.073
-728.937	800.000	-0.066	0.210
-727.923	-176.241	-0.219	-0.006
-726.908	-69.803	0.110	0.042
-725.894	800.000	0.084	0.246
-724.879	-80.427	-0.282	0.094
-723.864	-56.537	-0.314	0.139
-722.850	-200.000	-0.002	-0.135
-721.835	800.000	-0.037	0.151
-720.821	-113.559	-0.371	0.073
-719.806	-200.000	-0.010	-0.386
-718.791	215.592	-0.112	0.178
-717.777	12.741	-0.220	-0.170
-716.762	343.375	-0.197	0.386
-715.748	-200.000	-0.007	-0.127
-714.733	-195.734	-0.236	0.002
-713.718	-80.046	0.065	0.022
-712.704	-58.978	0.315	0.136
-711.689	-200.000	-0.069	0.380
-710.675	340.888	-0.046	0.089
-709.660	-3.112	-0.058	-0.041
-708.645	-16.328	-0.107	-0.068
-707.631	108.514	0.162	0.194
-706.616	-79.209	0.217	0.073
-705.602	-107.224	0.200	-0.044
-704.587	-45.086	0.135	-0.067
-703.572	324.332	-0.016	-0.030
-702.558	7.188	0.196	-0.146
-701.543	31.203	-0.126	-0.108
-700.529	197.884	-0.214	0.327
-699.514	-121.264	0.086	0.014
-698.499	-137.855	-0.290	-0.032
-697.485	800.000	-0.103	-0.340
-696.470	800.000	-0.047	-0.167
-695.456	134.965	0.117	-0.152
-694.441	10.938	0.124	-0.095
-693.426	-91.711	-0.125	-0.035
-692.412	59.176	-0.168	0.165
-691.397	382.841	0.148	0.304
-690.383	-200.000	0.015	-0.174
-689.368	-14.318	-0.343	-0.221
-688.354	800.000	0.057	-0.171
-687.339	511.937	0.022	0.050
-686.324	96.963	0.131	-0.150
-685.310	-82.639	-0.521	0.169
-684.295	369.874	0.054	-0.110
-683.281	292.713	-0.080	0.145
-682.266	-200.000	-0.036	0.369
-681.251	95.430	-0.314	-0.358
-680.237	-40.747	-0.162	0.084
-679.222	-113.542	0.322	-0.063
-678.208	-7.398	-0.131	-0.088
-677.193	81.184	-0.298	-0.321
-676.178	66.895	-0.223	-0.227
-675.164	60.198	-0.132	-0.130
-674.149	119.997	0.092	-0.114
-673.135	-120.744	-0.488	-0.082
-672.120	-60.458	-0.340	-0.144
-671.105	-56.741	-0.242	-0.107
-670.091	27.782	-0.279	0.234
-669.076	103.966	-0.272	-0.319
-668.062	15.878	-0.305	-0.240
-667.047	698.139	0.031	0.080
-666.032	17.035	-0.198	0.157
-665.018	800.000	-0.074	-0.284
-664.003	800.000	-0.124	-0.530
-662.989	800.000	0.003	-0.010
-661.974	15.933	0.068	0.054
-660.959	-200.000	-0.023	-0.218
-659.945	-117.175	0.467	0.085
-658.930	-91.109	0.261	0.075
-657.916	-99.780	-0.288	0.072
-656.901	800.000	-0.079	-0.256
-655.886	49.839	0.081	0.077
-654.872	-200.000	-0.033	0.301
-653.857	-200.000	0.001	-0.132
-652.843	239.235	0.112	-0.187
-651.828	-37.043	0.101	0.054
-650.814	-200.000	-0.063	0.297
-649.799	135.105	0.077	-0.100
-648.784	267.639	-0.110	-0.193
-647.770	-111.939	0.061	-0.012
-646.755	161.330	-0.080	-0.112
-645.741	-111.008	-0.181	-0.037
-644.726	-98.253	0.167	-0.043
-643.711	5.746	-0.101	0.075
-642.697	-85.264	0.154	0.048
-641.682	-12.071	-0.287	-0.188
-640.668	68.510	0.245	-0.251
-639.653	494.180	0.085	-0.193
-638.638	-200.000	0.004	-0.116
-637.624	263.891	-0.198	0.343
-636.609	-115.824	0.079	-0.015
-635.595	112.954	0.062	-0.075
-634.580	289.847	0.017	-0.031
-633.565	101.191	0.270	-0.314
-632.551	6.496	0.226	0.167
-631.536	48.963	-0.094	-0.088
-630.522	-48.438	0.186	-0.089
-629.507	294.169	-0.134	0.244
-628.492	-31.011	0.352	-0.198
-627.478	-200.000	0.013	-0.114
-626.463	-200.000	0.004	-0.122
-625.449	-21.503	0.078	-0.047
-624.434	-119.152	0.338	-0.059
-623.419	-200.000	0.018	-0.280
-622.405	141.662	0.333	0.439
-621.390	-187.983	0.121	0.002
-620.376	43.602	-0.084	-0.076
-619.361	800.000	0.059	-0.184
-618.346	800.000	-0.064	0.180
-617.332	800.000	-0.089	0.267
-616.317	226.259	-0.187	-0.302
-615.303	42.360	-0.207	-0.187
-614.288	800.000	-0.052	-0.144
-613.273	-200.000	-0.048	-0.401
-612.259	-114.479	0.364	0.070
-611.244	-53.458	-0.187	-0.085
-610.230	6.747	0.091	-0.067
-609.215	-200.000	0.014	-0.208
-608.201	800.000	-0.191	-0.534
-607.186	-81.438	-0.086	-0.028
-606.171	-87.444	-0.350	-0.106
-605.157	97.455	-0.100	0.114
-604.142	800.000	0.087	0.359
-603.128	-200.000	0.004	0.407
-602.113	-122.244	-0.369	0.060
-601.098	-27.787	-0.094	0.054
-600.084	-200.000	-0.001	-0.058
-599.069	-200.000	0.057	0.284
-598.055	32.812	0.064	0.055
-597.040	32.143	0.052	-0.045
-596.025	-118.881	-0.273	0.048
-595.011	450.241	0.092	-0.201
-593.996	-50.686	0.187	-0.088
-592.982	49.555	-0.185	0.174
-591.967	-200.000	-0.006	-0.060
-590.952	39.574	-0.122	-0.109
-589.938	800.000	-0.144	-0.457
-588.923	85.154	-0.148	-0.162
-587.909	-11.327	-0.129	-0.084
-586.894	-107.215	0.166	0.036
-585.879	47.760	-0.197	0.183
-584.865	49.040	0.065	0.060
-583.850	-139.234	-0.448	-0.048
-582.836	-161.521	-0.222	0.011
-581.821	62.817	0.183	-0.182
-580.806	-109.725	-0.384	0.080
-579.792	-113.241	0.310	-0.061
-578.777	606.711	0.115	-0.285
-577.763	-200.000	-0.006	-0.042
-576.748	39.223	0.214	0.190
-575.733	26.302	0.245	-0.203
-574.719	45.008	0.284	-0.260
-573.704	-200.000	-0.052	-0.342
-572.690	228.621	0.084	-0.136
-571.675	-28.733	-0.103	0.059
-570.661	-97.260	0.188	0.049
-569.646	408.886	0.019	0.041
-568.631	295.884	-0.126	-0.230
-567.617	-96.031	-0.229	-0.061
-566.602	800.000	-0.062	0.178
-565.588	800.000	0.060	-0.256
-564.573	285.608	-0.221	0.395
-563.558	22.662	-0.074	0.061
-562.544	-3.069	-0.324	0.225
-561.529	75.500	0.174	0.183
-560.515	-63.041	-0.419	0.172
-559.500	-200.000	0.004	0.051
-558.485	186.498	0.055	-0.081
-557.471	800.000	-0.053	-0.207
-556.456	-20.699	-0.234	0.143
-555.442	185.516	-0.160	0.236
-554.427	800.000	0.036	-0.119
-553.412	-200.000	-0.046	0.489
-552.398	9.433	-0.138	-0.104
-551.383	318.212	-0.266	-0.501
-550.369	226.054	0.069	0.110
-549.354	-168.831	0.216	0.008
-548.339	93.482	0.110	0.124
-547.325	360.254	-0.064	-0.128
-546.310	338.815	-0.159	0.307
-545.296	-111.262	-0.256	-0.052
-544.281	-70.610	0.333	0.125
-543.266	113.164	0.179	-0.216
-542.252	101.653	0.342	-0.396
-541.237	227.371	-0.144	0.233
-540.223	-18.256	-0.100	0.062
-539.208	-183.291	-0.250	0.004
-538.193	-51.028	0.068	0.032
-537.179	475.641	-0.060	-0.134
-536.164	-13.272	0.065	0.042
-535.150	151.195	0.111	-0.150
-534.135	51.336	0.147	-0.138
-533.121	-23.819	0.273	0.162
-532.106	218.862	0.067	-0.107
-531.091	70.512	0.101	-0.104
-530.077	-117.743	0.454	0.081
-529.062	800.000	0.060	0.178
-528.048	-200.000	-0.024	0.211
-527.033	800.000	-0.054	-0.196
-526.018	-169.364	-0.148	0.005
-525.004	-91.749	0.162	-0.046
-523.989	-128.557	0.410	-0.058
-522.975	-200.000	-0.032	0.197
-521.960	591.096	-0.131	-0.320
-520.945	33.974	-0.289	-0.250
-519.931	-76.421	-0.061	0.021
-518.916	4.505	-0.159	-0.116
-517.902	-27.504	0.241	-0.139
-516.887	800.000	-0.012	0.040
-515.872	132.070	0.105	0.134
-514.858	-123.524	-0.298	0.047
-513.843	-104.531	0.155	-0.036
-512.829	85.546	-0.106	0.116
-511.814	-141.887	0.070	-0.007
-510.799	51.055	-0.101	0.095
-509.785	-42.206	0.073	0.037
-508.770	-48.709	-0.137	-0.065
-507.756	800.000	0.105	0.341
-506.741	-196.991	0.147	0.001
-505.726	-200.000	-0.016	0.391
-504.712	-0.911	-0.188	-0.132
-503.697	441.749	-0.052	-0.112
-502.683	-200.000	0.047	-0.222
-501.668	-200.000	-0.011	-0.250
-500.653	-194.701	-0.331	0.003
-499.639	-122.235	-0.226	-0.037
-498.624	-185.679	0.066	-0.001
-497.610	158.787	-0.203	-0.280
-496.595	-120.182	-0.201	-0.034
-495.581	-200.000	-0.012	0.165
-494.566	-200.000	-0.049	-0.255
-493.551	-200.000	-0.083	0.430
-492.537	-125.669	0.202	-0.030
-491.522	-200.000	0.011	-0.258
-490.508	29.168	0.057	0.048
-489.493	439.162	-0.109	0.235
-488.478	800.000	-0.036	-0.134
-487.464	-149.254	-0.250	-0.020
-486.449	-80.736	0.271	0.089
-485.435	-39.741	0.236	0.122
-484.420	-54.844	0.266	-0.119
-483.405	-71.444	0.295	-0.109
-482.391	-200.000	-0.080	0.390
-481.376	-111.385	-0.063	0.013
-480.362	-60.884	-0.197	-0.083
-479.347	-200.000	0.009	-0.306
-478.332	-88.193	0.177	-0.052
-477.318	-84.999	-0.359	0.111
-476.303	-114.243	-0.130	-0.025
-475.289	-53.368	-0.513	-0.233
-474.274	-200.000	0.011	-0.102
-473.259	-112.549	-0.262	-0.052
-472.245	50.388	-0.185	-0.173
-471.230	-132.684	-0.376	0.048
-470.216	-116.633	0.206	0.038
-469.201	14.833	0.060	0.046
-468.186	-43.110	-0.281	-0.141
-467.172	150.515	-0.113	0.152
-466.157	-63.549	-0.122	-0.050
-465.143	10.650	-0.133	0.100
-464.128	286.273	0.175	-0.313
-463.113	800.000	-0.023	0.079
-462.099	800.000	-0.051	-0.174
-461.084	759.438	0.057	0.154
-460.070	-200.000	-0.034	-0.165
-459.055	-200.000	0.036	0.461
-458.040	384.700	0.197	0.401
-457.026	-54.525	-0.118	-0.053
-456.011	-44.207	-0.129	0.064
-454.997	70.117	0.145	-0.148
-453.982	165.624	0.136	0.191
-452.968	-26.899	0.076	0.044
-451.953	800.000	0.098	0.307
-450.938	-200.000	-0.466	-0.002
-449.924	268.915	0.173	-0.300
-448.909	262.910	0.112	-0.192
-447.895	800.000	-0.023	0.072
-446.880	155.164	0.057	-0.078
-445.865	93.237	-0.053	0.059
-444.851	159.936	-0.086	0.119
-443.836	279.790	0.103	0.182
-442.822	162.556	0.070	0.097
-441.807	65.736	-0.052	-0.052
-440.792	95.895	-0.080	0.091
-439.778	800.000	0.040	-0.130
-438.763	84.735	-0.100	0.109
-437.749	347.876	0.116	0.226
-436.734	-44.602	-0.119	0.059
-435.719	-57.348	-0.167	0.073
-434.705	-68.866	-0.091	-0.035
-433.690	800.000	-0.073	0.216
-432.676	117.358	0.139	0.169
-431.661	100.912	-0.170	0.196
-430.646	800.000	0.050	0.141
-429.632	-104.006	0.093	-0.021
-428.617	51.218	-0.033	0.031
-427.603	-69.204	0.248	0.094
-426.588	-118.870	-0.128	0.022
-425.573	-165.177	0.321	-0.014
-424.559	-76.269	-0.207	-0.072
-423.544	52.382	0.165	-0.155
-422.530	800.000	-0.066	-0.274
-421.515	-115.214	-0.249	-0.047
-420.500	800.000	0.009	0.024
-419.486	562.825	0.226	-0.541
-418.471	-136.225	-0.424	0.049
-417.457	14.347	0.218	0.168
-416.442	34.254	-0.130	-0.112
-415.428	26.052	-0.176	-0.145
-414.413	-200.000	0.009	-0.213
-413.398	-200.000	0.043	-0.233
-412.384	32.459	-0.314	-0.268
-411.369	800.000	-0.039	0.137
-410.355	-110.568	-0.189	-0.039
-409.340	-200.000	0.042	0.388
-408.325	-200.000	-0.016	0.359
-407.311	-104.715	-0.141	-0.032
-406.296	255.557	0.116	-0.196
-405.282	16.801	-0.123	0.096
-404.267	-200.000	0.010	-0.159
-403.252	142.698	0.111	-0.146
-402.238	225.431	0.096	0.153
-401.223	-17.264	0.057	-0.035
-400.209	-200.000	-0.045	0.275
-399.194	303.899	0.121	-0.221
-398.179	63.216	0.096	-0.095
-397.165	406.246	-0.171	0.356
-396.150	-0.765	0.191	-0.133
-395.136	-120.875	0.161	0.027
-394.121	-200.000	0.009	-0.061
-393.106	-200.000	0.014	0.314
-392.092	-89.076	0.183	-0.053
-391.077	564.427	-0.240	-0.575
-390.063	-161.089	0.389	0.020
-389.048	-36.326	-0.367	0.195
-388.033	-77.081	0.209	-0.072
-387.019	-200.000	-0.009	-0.198
-386.004	800.000	0.059	-0.172
-384.990	40.215	-0.140	-0.125
-383.975	-96.514	0.217	-0.056
-382.960	800.000	0.052	-0.157
-381.946	483.787	-0.196	0.440
-380.931	-62.818	-0.093	0.038
-379.917	46.112	-0.241	-0.220
-378.902	30.776	0.048	0.040
-377.888	89.994	-0.073	-0.080
-376.873	226.757	-0.260	0.417
-375.858	-31.503	0.413	-0.229
-374.844	46.004	-0.086	-0.078
-373.829	-200.000	-0.112	-0.485
-372.815	800.000	-0.079	-0.332
-371.800	82.856	-0.168	-0.180
-370.785	392.740	-0.106	-0.217
-369.771	20.970	0.270	-0.216
-368.756	-83.763	-0.094	0.030
-367.742	34.112	0.067	-0.058
-366.727	360.169	-0.151	-0.299
-365.712	-183.197	-0.542	-0.009
-364.698	800.000	-0.065	-0.201
-363.683	-89.645	-0.132	0.038
-362.669	132.713	0.101	0.129
-361.654	215.919	0.041	0.064
-360.639	-136.635	-0.280	-0.032
-359.625	-200.000	0.041	-0.535
-358.610	-144.187	-0.312	-0.029
-357.596	-101.295	-0.165	0.040
-356.581	-104.765	0.372	0.084
-355.566	-200.000	-0.044	0.191
-354.552	-28.950	-0.319	-0.181
-353.537	4.480	0.243	-0.176
-352.523	-200.000	0.008	0.098
-351.508	-200.000	0.027	0.284
-350.493	383.709	0.144	0.292
-349.479	-200.000	-0.008	-0.108
-348.464	-200.000	0.042	0.259
-347.450	-42.129	0.053	-0.027
-346.435	-115.375	-0.281	-0.052
-345.420	800.000	-0.115	-0.372
-344.406	295.524	0.100	-0.181
-343.391	-200.000	0.026	-0.169
-342.377	-108.117	0.156	0.033
-341.362	177.914	-0.161	0.232
-340.348	800.000	-0.066	-0.213
-339.333	-0.240	-0.159	0.112
-338.318	-134.524	-0.048	-0.006
-337.304	370.629	-0.097	-0.193
-336.289	123.555	-0.077	0.095
-335.275	-200.000	0.061	-0.269
-334.260	800.000	0.054	0.216
-333.245	800.000	-0.064	0.221
-332.231	-92.067	-0.304	0.085
-331.216	-149.785	0.323	0.025
-330.202	-51.766	-0.253	0.116
-329.187	-105.857	-0.130	-0.029
-328.172	669.635	0.103	0.262
-327.158	15.978	-0.078	-0.060
-326.143	-200.000	-0.018	0.165
-325.129	97.001	-0.080	-0.090
-324.114	-108.799	-0.191	-0.040
-323.099	800.000	-0.056	-0.209
-322.085	-140.637	0.259	0.026
-321.070	-93.363	-0.290	0.079
-320.056	-31.871	-0.200	0.111
-319.041	-200.000	-0.035	0.361
-318.026	-200.000	-0.038	0.291
-317.012	-92.314	0.285	0.079
-315.997	-78.630	-0.280	-0.094
-314.983	49.754	-0.044	-0.041
-313.968	-1.656	0.478	-0.331
-312.953	-200.000	0.050	-0.224
-311.939	274.755	0.132	0.229
-310.924	-17.383	0.121	-0.075
-309.910	39.105	0.259	0.228
-308.895	-200.000	0.004	-0.050
-307.880	-10.865	-0.225	0.146
-306.866	176.667	0.139	-0.199
-305.851	-24.160	-0.176	0.103
-304.837	-151.514	-0.336	-0.025
-303.822	129.486	-0.070	-0.088
-302.807	-70.758	-0.167	-0.062
-301.793	-200.000	0.004	-0.083
-300.778	545.342	-0.052	0.123
-299.764	-200.000	-0.005	-0.044
-298.749	300.940	-0.105	0.190
-297.735	202.409	0.137	-0.208
-296.720	-117.760	0.119	-0.021
-295.705	11.349	0.398	0.300
-294.691	410.489	-0.073	-0.153
-293.676	-176.727	0.104	-0.003
-292.662	-111.980	0.221	-0.044
-291.647	-82.819	-0.543	-0.173
-290.632	-57.462	-0.236	-0.102
-289.618	350.226	-0.039	-0.077
-288.603	55.107	0.067	-0.064
-287.589	-18.703	0.289	0.177
-286.574	-138.630	0.233	0.025
-285.559	-178.185	-0.132	-0.003
-284.545	166.630	0.195	-0.272
-283.530	-17.656	-0.167	0.103
-282.516	-125.571	0.165	0.025
-281.501	-200.000	0.047	0.234
-280.486	456.189	-0.088	-0.191
-279.472	-117.598	0.238	0.042
-278.457	-200.000	0.003	-0.080
-277.443	87.337	0.043	-0.047
-276.428	-200.000	-0.015	-0.147
-275.413	-88.390	-0.225	0.066
-274.399	-130.533	0.140	0.019
-273.384	-200.000	0.016	-0.192
-272.370	-58.130	-0.516	-0.221
-271.355	-37.801	0.350	0.183
-270.340	-115.485	0.408	-0.075
-269.326	133.537	-0.082	-0.104
-268.311	131.420	0.113	0.143
-267.297	312.755	-0.023	-0.042
-266.282	-200.000	0.031	0.189
-265.267	87.213	0.204	0.222
-264.253	800.000	0.088	0.249
-263.238	130.158	-0.111	-0.139
-262.224	-200.000	-0.015	0.183
-261.209	21.998	0.102	0.082
-260.195	-83.883	0.269	-0.084
-259.180	-70.257	0.181	0.068
-258.165	-200.000	-0.043	0.307
-257.151	127.424	-0.264	0.330
-256.136	-200.000	-0.022	0.327
-255.122	-110.315	-0.159	-0.032
-254.107	-200.000	-0.001	-0.026
-253.092	-103.356	0.118	0.027
-252.078	118.821	-0.192	0.233
-251.063	27.992	-0.127	-0.105
-250.049	-162.084	0.170	0.008
-249.034	-23.014	-0.001	0.001
-248.019	-130.639	0.069	-0.009
-247.005	389.528	-0.073	-0.149
-245.990	-119.032	0.201	-0.035
-244.976	84.701	0.348	-0.374
-243.961	173.950	0.180	-0.255
-242.946	-12.260	0.142	0.091
-241.932	233.290	-0.039	0.063
-240.917	-200.000	0.053	0.282
-239.903	-86.943	0.160	0.048
-238.888	33.328	0.083	0.071
-237.873	-200.000	-0.038	0.230
-236.859	-105.725	0.253	-0.056
-235.844	800.000	0.048	0.162
-234.830	-67.559	-0.375	-0.144
-233.815	13.243	0.189	-0.144
-232.800	800.000	0.130	-0.459
-231.786	-182.521	0.375	-0.007
-230.771	-200.000	-0.050	0.351
-229.757	220.464	0.075	0.117
-228.742	-200.000	-0.059	0.329
-227.727	800.000	0.125	0.397
-226.713	-36.299	-0.264	-0.140
-225.698	93.904	-0.122	-0.136
-224.684	8.374	-0.237	-0.175
-223.669	-200.000	0.025	-0.133
-222.655	-37.376	0.169	0.088
-221.640	-104.130	0.217	-0.050
-220.625	-92.024	0.428	0.119
-219.611	-55.619	0.206	-0.090
-218.596	16.375	-0.045	-0.035
-217.582	82.372	0.033	0.036
-216.567	261.160	0.123	-0.208
-215.552	-200.000	0.062	0.430
-214.538	8.565	0.318	-0.235
-213.523	800.000	0.051	0.176
-212.509	-82.098	-0.325	0.104
-211.494	595.152	-0.013	-0.032
-210.479	-200.000	0.013	-0.124
-209.465	421.555	-0.075	0.158
-208.450	27.052	0.212	0.174
-207.436	208.473	-0.040	-0.062
-206.421	-17.306	0.094	0.058
-205.406	9.074	0.234	-0.174
-204.392	-101.756	-0.101	0.024
-203.377	-200.000	-0.002	0.317
-202.363	748.530	0.071	0.187
-201.348	-200.000	0.006	0.316
-200.333	-200.000	0.032	0.202
-199.319	-149.125	0.197	-0.016
-198.304	-48.584	-0.405	0.191
-197.290	-120.021	0.192	-0.032
-196.275	82.774	-0.102	0.108
-195.260	-54.498	-0.165	0.073
-194.246	-81.860	0.253	0.081
-193.231	-77.217	0.181	-0.062
-192.217	-60.531	0.142	-0.059
-191.202	52.322	0.158	-0.147
-190.187	-86.357	0.311	-0.094
-189.173	800.000	0.024	0.084
-188.158	154.020	-0.103	0.138
-187.144	20.763	-0.033	-0.026
-186.129	102.676	0.113	0.129
-185.114	800.000	-0.073	-0.231
-184.100	-64.934	0.380	-0.150
-183.085	-138.434	0.238	0.026
-182.071	362.248	-0.158	-0.311
-181.056	800.000	0.025	0.081
-180.042	800.000	-0.088	0.246
-179.027	11.609	-0.148	-0.111
-178.012	-169.221	-0.101	-0.004
-176.998	83.264	0.041	-0.044
-175.983	-19.516	0.060	-0.036
-174.969	-200.000	-0.004	-0.080
-173.954	178.113	0.231	0.330
-172.939	-200.000	0.033	-0.170
-171.925	375.812	-0.053	0.106
-170.910	-200.000	0.007	-0.047
-169.896	186.353	0.059	0.086
-168.881	-44.634	-0.305	0.149
-167.866	8.178	0.291	0.214
-166.852	-200.000	0.015	0.343
-165.837	340.198	-0.054	0.104
-164.823	800.000	0.054	0.195
-163.808	-200.000	0.004	-0.022
-162.793	-200.000	0.034	0.230
-161.779	619.538	-0.023	-0.056
-160.764	6.621	0.225	0.164
-159.750	-200.000	0.053	0.466
-158.735	167.860	0.267	0.372
-157.720	12.159	0.124	0.094
-156.706	-161.585	0.105	0.005
-155.691	73.058	0.190	0.195
-154.677	-200.000	-0.011	-0.179
-153.662	128.148	-0.037	0.046
-152.647	-145.952	-0.116	-0.010
-151.633	800.000	-0.067	0.268
-150.618	800.000	-0.045	-0.147
-149.604	-154.222	0.033	-0.002
-148.589	-200.000	0.012	-0.176
-147.574	630.012	-0.125	-0.309
-146.560	-50.756	0.364	-0.168
-145.545	-183.200	0.212	-0.004
-144.531	-156.576	-0.045	-0.003
-143.516	800.000	0.096	-0.275
-142.502	240.812	0.060	-0.098
-141.487	-200.000	0.017	0.216
-140.472	274.489	-0.012	-0.021
-139.458	-97.127	-0.439	0.112
-138.443	-200.000	0.007	-0.075
-137.429	-123.576	0.059	0.009
-136.414	-141.896	0.404	0.040
-135.399	54.798	-0.123	-0.117
-134.385	50.755	0.107	0.099
-133.370	103.794	0.133	-0.153
-132.356	800.000	-0.059	-0.247
-131.341	-34.844	-0.190	0.102
-130.326	99.188	0.046	0.052
-129.312	103.516	0.109	-0.125
-128.297	121.656	0.137	0.167
-127.283	-200.000	-0.025	-0.215
-126.268	179.978	0.109	0.156
-125.253	-99.828	0.188	-0.046
-124.239	800.000	0.106	-0.309
-123.224	-114.016	0.088	0.017
-122.210	88.026	0.123	0.133
