DTS Sentinel unit serial number:	SN413079Multiplexer serial number:	ORYXHardware model number:	OX4-SRSoftware version number:	ORYX F/W v4.00 Oryx Data Collector v3.7.2.0data status	okinstallation	princeton_trtdifferential loss correction	single-endedforward channel	channel 3reverse channel	N/Adate	2019/09/17time	23:00:35forward acquisition time	60.00reverse acquisition time	0.00gamma	496.2192k internal	0.2344k external	0.2344temperature offset calibration	0.9951default loss term (dB/km)	0.3790temperature slope calibration	1.0000multiplexer offset coefficient	1.0000multiplexer slope coefficient	1.0000fibre end	0.00T internal ref (°C)	24.77T ext. ref 1 (°C)	0.18T ext. ref 2 (°C)	18.02length (m)	temperature (°C)	Stokes	anti-Stokes-747.200	-45.324	0.098	0.049
-746.185	-101.089	-0.521	-0.128
-745.171	-200.000	0.042	0.186
-744.156	-200.000	-0.057	0.275
-743.142	800.000	-0.077	0.314
-742.127	21.393	0.388	0.316
-741.112	-24.208	-0.188	-0.112
-740.098	-118.932	-0.385	0.068
-739.083	60.214	0.193	0.191
-738.069	10.968	-0.155	0.118
-737.054	578.695	0.030	-0.073
-736.039	-65.540	-0.022	-0.009
-735.025	-23.169	-0.174	0.105
-734.010	228.662	-0.052	0.085
-732.996	356.294	-0.051	-0.101
-731.981	-200.000	0.005	-0.204
-730.966	800.000	0.104	-0.320
-729.952	800.000	-0.015	0.049
-728.937	469.865	0.080	0.180
-727.923	12.961	-0.102	-0.079
-726.908	6.958	0.318	-0.237
-725.894	111.138	0.075	0.090
-724.879	-200.000	0.006	0.134
-723.864	389.359	0.129	0.267
-722.850	-200.000	-0.054	-0.361
-721.835	44.239	-0.168	0.154
-720.821	800.000	0.062	0.266
-719.806	-88.520	-0.343	0.102
-718.791	-21.507	0.229	-0.140
-717.777	800.000	-0.153	-0.494
-716.762	-200.000	-0.052	-0.280
-715.748	529.974	-0.019	0.046
-714.733	-200.000	0.011	-0.118
-713.718	-200.000	0.014	0.113
-712.704	-23.946	-0.075	0.045
-711.689	-91.485	-0.224	-0.064
-710.675	-35.526	0.321	-0.174
-709.660	-200.000	0.004	-0.207
-708.645	105.593	0.050	-0.059
-707.631	218.552	0.116	0.186
-706.616	68.095	-0.303	-0.309
-705.602	-4.225	-0.221	0.153
-704.587	-130.322	0.202	-0.027
-703.572	-200.000	-0.045	-0.275
-702.558	10.882	0.061	0.047
-701.543	-116.390	-0.088	0.016
-700.529	800.000	-0.036	-0.146
-699.514	-53.998	-0.280	-0.127
-698.499	-123.601	-0.105	-0.017
-697.485	8.976	0.052	0.039
-696.470	-29.719	0.323	0.184
-695.456	-61.467	0.234	0.098
-694.441	-111.664	-0.345	0.070
-693.426	-100.147	0.247	0.061
-692.412	33.435	-0.299	-0.259
-691.397	-92.846	-0.189	-0.053
-690.383	-33.566	0.096	-0.053
-689.368	155.974	0.107	0.148
-688.354	217.465	0.215	0.342
-687.339	107.390	-0.125	-0.148
-686.324	-200.000	-0.035	-0.280
-685.310	-41.578	-0.244	0.125
-684.295	-78.960	0.344	0.117
-683.281	-62.634	-0.298	0.123
-682.266	800.000	-0.075	-0.246
-681.251	-183.791	-0.119	-0.002
-680.237	-200.000	-0.007	-0.252
-679.222	-200.000	0.002	0.075
-678.208	-127.058	-0.395	-0.058
-677.193	72.035	-0.087	-0.090
-676.178	-53.020	0.268	-0.123
-675.164	10.934	0.142	-0.108
-674.149	-196.092	0.037	-0.000
-673.135	97.016	-0.142	0.163
-672.120	-81.574	-0.345	0.113
-671.105	113.170	-0.064	-0.077
-670.091	-200.000	-0.014	0.342
-669.076	-95.477	0.066	0.018
-668.062	-200.000	-0.031	-0.315
-667.047	35.212	0.133	0.116
-666.032	5.531	-0.186	0.137
-665.018	215.189	0.036	0.057
-664.003	3.353	-0.292	0.212
-662.989	-132.587	0.253	0.032
-661.974	404.794	-0.054	-0.114
-660.959	-171.616	0.237	-0.008
-659.945	800.000	0.050	-0.139
-658.930	0.411	0.155	0.110
-657.916	-17.240	0.193	-0.121
-656.901	155.846	-0.034	-0.046
-655.886	16.876	-0.404	0.319
-654.872	166.297	-0.081	0.114
-653.857	-200.000	-0.005	0.200
-652.843	-200.000	-0.003	-0.370
-651.828	-66.731	-0.069	0.027
-650.814	-175.970	-0.310	0.008
-649.799	396.903	-0.122	-0.254
-648.784	72.999	-0.194	-0.202
-647.770	800.000	0.096	-0.329
-646.755	-200.000	-0.020	-0.229
-645.741	-154.863	-0.253	0.017
-644.726	800.000	-0.095	0.266
-643.711	-12.809	0.221	-0.144
-642.697	44.767	-0.108	0.099
-641.682	-113.360	-0.243	-0.048
-640.668	88.135	-0.232	-0.257
-639.653	168.829	0.168	0.239
-638.638	133.164	0.062	0.079
-637.624	48.135	0.198	0.184
-636.609	-97.937	0.459	-0.118
-635.595	-68.114	-0.055	0.022
-634.580	-116.862	-0.267	-0.049
-633.565	-106.444	-0.247	-0.055
-632.551	314.140	-0.058	0.109
-631.536	15.424	0.270	-0.211
-630.522	-200.000	0.015	0.142
-629.507	-200.000	0.049	-0.252
-628.492	-97.215	-0.233	0.061
-627.478	-48.089	0.129	0.062
-626.463	800.000	0.043	-0.175
-625.449	124.803	0.108	-0.136
-624.434	800.000	0.006	-0.026
-623.419	224.734	-0.182	0.293
-622.405	-6.520	-0.112	0.076
-621.390	800.000	-0.173	0.535
-620.376	-69.582	0.100	0.038
-619.361	-200.000	0.004	0.145
-618.346	167.615	-0.226	0.319
-617.332	149.072	0.085	-0.115
-616.317	200.727	-0.087	0.134
-615.303	-56.835	-0.205	0.090
-614.288	800.000	0.023	0.067
-613.273	-4.646	-0.067	-0.046
-612.259	-200.000	0.015	-0.182
-611.244	-200.000	-0.040	0.322
-610.230	45.659	-0.184	-0.169
-609.215	183.719	0.166	-0.244
-608.201	-22.849	0.114	0.068
-607.186	-200.000	0.005	0.258
-606.171	-105.680	0.049	0.011
-605.157	-27.892	0.181	-0.105
-604.142	444.895	-0.099	-0.216
-603.128	85.649	-0.116	0.126
-602.113	88.865	0.072	0.080
-601.098	800.000	-0.038	-0.133
-600.084	-200.000	0.036	0.212
-599.069	128.103	-0.237	-0.300
-598.055	315.253	0.115	-0.216
-597.040	63.103	-0.243	-0.243
-596.025	606.751	0.082	-0.204
-595.011	75.946	0.255	-0.269
-593.996	-4.558	0.304	-0.209
-592.982	-200.000	0.001	-0.092
-591.967	-86.530	-0.192	-0.059
-590.952	238.459	0.181	-0.300
-589.938	800.000	-0.040	0.120
-588.923	-175.247	-0.142	0.004
-587.909	-114.705	0.060	-0.011
-586.894	800.000	0.053	-0.221
-585.879	-99.322	0.227	-0.057
-584.865	-147.810	-0.149	-0.012
-583.850	-27.546	0.134	0.077
-582.836	-2.249	-0.197	-0.137
-581.821	-16.251	0.101	-0.064
-580.806	70.362	0.163	0.168
-579.792	72.338	0.121	0.125
-578.777	-136.509	0.140	-0.016
-577.763	109.566	0.200	0.239
-576.748	-200.000	0.043	0.291
-575.733	776.276	-0.079	0.214
-574.719	37.222	-0.084	-0.074
-573.704	-103.053	0.127	-0.030
-572.690	-89.066	-0.163	-0.048
-571.675	-200.000	0.013	-0.179
-570.661	800.000	0.054	0.151
-569.646	-59.187	-0.433	-0.186
-568.631	47.618	0.175	-0.162
-567.617	-200.000	-0.023	0.125
-566.602	-89.390	-0.287	0.084
-565.588	800.000	-0.058	-0.218
-564.573	145.059	0.148	-0.197
-563.558	236.314	0.113	0.186
-562.544	800.000	0.042	-0.134
-561.529	-200.000	-0.047	-0.266
-560.515	-134.484	0.326	0.040
-559.500	-72.848	-0.192	-0.070
-558.485	-94.692	0.231	-0.062
-557.471	-117.704	0.289	0.052
-556.456	61.075	0.017	0.017
-555.442	-119.883	0.310	-0.053
-554.427	-77.279	0.180	-0.062
-553.412	-21.617	0.265	-0.160
-552.398	800.000	0.132	-0.423
-551.383	48.333	-0.129	-0.120
-550.369	-32.255	-0.296	-0.164
-549.354	800.000	0.055	-0.240
-548.339	-157.271	0.231	-0.014
-547.325	-29.056	-0.207	0.118
-546.310	-200.000	0.019	-0.094
-545.296	89.182	-0.100	0.110
-544.281	-200.000	0.046	0.277
-543.266	-132.079	0.293	0.038
-542.252	800.000	-0.042	0.156
-541.237	33.357	-0.043	0.037
-540.223	401.638	0.173	0.361
-539.208	-20.493	0.243	-0.148
-538.193	21.942	-0.219	0.178
-537.179	-80.242	0.291	-0.097
-536.164	-200.000	0.017	-0.153
-535.150	56.021	0.139	-0.133
-534.135	-200.000	-0.009	0.179
-533.121	409.041	-0.062	0.130
-532.106	748.889	-0.039	0.106
-531.091	46.612	0.080	-0.074
-530.077	-200.000	0.019	-0.132
-529.062	42.546	0.197	0.178
-528.048	-101.353	0.255	-0.062
-527.033	-62.106	0.206	-0.085
-526.018	352.343	-0.102	0.202
-525.004	-200.000	0.005	-0.076
-523.989	255.965	-0.015	0.026
-522.975	-200.000	-0.005	-0.032
-521.960	-109.653	0.162	-0.034
-520.945	32.387	-0.030	0.025
-519.931	758.684	-0.150	0.404
-518.916	-107.008	-0.243	-0.053
-517.902	800.000	0.067	0.271
-516.887	800.000	-0.022	-0.073
-515.872	281.613	-0.172	-0.305
-514.858	649.910	-0.114	-0.288
-513.843	694.362	0.096	-0.250
-512.829	-58.285	-0.123	-0.053
-511.814	-200.000	-0.007	-0.084
-510.799	230.919	-0.144	-0.233
-509.785	-20.441	-0.220	0.134
-508.770	-200.000	0.005	0.182
-507.756	-7.810	0.009	-0.006
-506.741	533.912	0.085	0.199
-505.726	69.143	0.103	0.105
-504.712	236.616	0.068	0.111
-503.697	65.823	-0.049	-0.049
-502.683	-114.244	0.040	-0.008
-501.668	282.931	0.113	-0.201
-500.653	-33.663	-0.140	0.077
-499.639	-200.000	0.011	-0.071
-498.624	205.663	0.142	0.218
-497.610	38.539	-0.350	-0.310
-496.595	-112.147	-0.189	0.038
-495.581	-83.921	0.272	-0.086
-494.566	273.990	0.075	-0.131
-493.551	94.441	-0.089	-0.100
-492.537	162.122	-0.231	0.320
-491.522	-120.178	0.223	0.038
-490.508	-136.328	0.207	0.024
-489.493	45.173	-0.073	0.067
-488.478	-200.000	0.061	-0.320
-487.464	-79.476	0.204	-0.068
-486.449	64.121	0.157	-0.157
-485.435	-30.372	0.090	-0.051
-484.420	76.030	-0.039	-0.041
-483.405	222.068	-0.255	-0.407
-482.391	-200.000	-0.075	-0.351
-481.376	22.896	-0.357	0.290
-480.362	-8.162	0.211	0.141
-479.347	-200.000	-0.038	0.176
-478.332	-102.464	-0.285	0.068
-477.318	-27.007	0.118	0.068
-476.303	-18.083	-0.127	-0.079
-475.289	800.000	-0.087	0.337
-474.274	800.000	-0.074	0.288
-473.259	-97.091	-0.148	-0.038
-472.245	81.661	0.095	-0.102
-471.230	-27.871	0.085	0.049
-470.216	398.034	0.113	0.234
-469.201	-46.382	-0.319	0.155
-468.186	-49.358	0.168	-0.080
-467.172	52.755	0.153	0.145
-466.157	-25.929	-0.323	-0.188
-465.143	396.961	0.190	0.393
-464.128	675.033	-0.053	-0.137
-463.113	-78.258	-0.310	0.105
-462.099	-32.459	-0.276	-0.153
-461.084	800.000	0.072	0.260
-460.070	-109.093	0.183	0.039
-459.055	124.655	-0.287	-0.357
-458.040	-200.000	-0.029	-0.231
-457.026	-20.366	-0.298	0.182
-456.011	6.569	-0.068	-0.050
-454.997	13.108	-0.254	0.195
-453.982	-200.000	0.046	-0.201
-452.968	-43.083	0.126	0.063
-451.953	-200.000	0.014	-0.070
-450.938	93.447	0.169	-0.190
-449.924	765.374	0.067	0.180
-448.909	800.000	0.118	0.418
-447.895	33.725	-0.016	-0.014
-446.880	-83.425	-0.205	-0.065
-445.865	22.744	-0.315	-0.255
-444.851	18.757	-0.186	0.147
-443.836	800.000	-0.063	0.181
-442.822	387.216	-0.077	0.158
-441.807	-31.062	0.181	-0.101
-440.792	42.208	0.245	-0.220
-439.778	800.000	0.025	0.085
-438.763	64.505	-0.194	-0.194
-437.749	-70.375	0.064	0.024
-436.734	-47.258	-0.160	0.077
-435.719	449.261	-0.136	0.295
-434.705	800.000	0.026	-0.108
-433.690	800.000	-0.077	0.324
-432.676	276.589	0.198	0.347
-431.661	14.384	-0.251	-0.194
-430.646	-200.000	0.001	-0.066
-429.632	-88.850	0.127	0.037
-428.617	-71.819	-0.286	0.105
-427.603	-200.000	-0.029	0.393
-426.588	350.242	-0.104	-0.204
-425.573	-32.943	-0.098	-0.054
-424.559	-200.000	-0.036	-0.195
-423.544	-63.211	0.120	0.049
-422.530	10.782	0.091	0.069
-421.515	-200.000	-0.082	0.383
-420.500	-69.428	0.123	-0.047
-419.486	271.651	0.071	0.123
-418.471	-59.407	0.145	0.062
-417.457	441.854	-0.021	-0.045
-416.442	800.000	-0.079	0.221
-415.428	563.428	0.074	-0.177
-414.413	14.203	-0.322	-0.248
-413.398	475.097	0.102	-0.227
-412.384	-124.081	0.332	-0.052
-411.369	-52.120	0.117	0.053
-410.355	383.970	-0.105	0.213
-409.340	-126.925	0.114	-0.017
-408.325	158.331	0.017	-0.024
-407.311	800.000	-0.130	0.453
-406.296	137.811	0.235	-0.304
-405.282	355.142	-0.114	-0.223
-404.267	800.000	0.066	0.265
-403.252	800.000	0.077	0.246
-402.238	-124.685	0.116	-0.018
-401.223	-181.294	0.026	0.000
-400.209	-16.432	0.160	-0.100
-399.194	23.165	0.264	0.214
-398.179	84.174	-0.151	0.162
-397.165	-182.384	0.254	0.005
-396.150	619.227	-0.020	0.050
-395.136	-92.817	0.073	-0.020
-394.121	-200.000	-0.050	-0.217
-393.106	-74.846	0.144	-0.051
-392.092	-48.993	-0.211	0.100
-391.077	173.845	-0.053	0.075
-390.063	-139.957	0.318	-0.033
-389.048	108.785	-0.110	-0.129
-388.033	-60.037	-0.147	0.062
-387.019	73.513	-0.061	-0.063
-386.004	-111.395	0.073	-0.015
-384.990	-86.624	-0.123	-0.037
-383.975	-153.674	0.253	-0.017
-382.960	-157.976	-0.133	0.008
-381.946	32.804	0.079	-0.068
-380.931	493.613	0.121	0.275
-379.917	0.376	-0.263	0.185
-378.902	-200.000	0.042	0.329
-377.888	-143.594	0.030	-0.003
-376.873	23.397	-0.358	0.291
-375.858	-66.114	0.221	0.087
-374.844	-61.181	0.235	-0.098
-373.829	119.648	0.186	-0.228
-372.815	108.202	0.094	-0.110
-371.800	-147.389	-0.099	-0.008
-370.785	-117.209	-0.180	0.032
-369.771	-0.018	0.267	0.187
-368.756	-36.126	-0.212	-0.113
-367.742	-37.430	0.210	-0.110
-366.727	15.498	-0.326	-0.253
-365.712	-123.297	-0.164	-0.026
-364.698	800.000	-0.096	-0.264
-363.683	800.000	-0.085	0.298
-362.669	147.918	0.204	0.271
-361.654	800.000	0.047	-0.174
-360.639	379.678	0.072	-0.145
-359.625	-108.609	0.127	-0.027
-358.610	25.348	0.180	-0.148
-357.596	34.330	0.194	0.166
-356.581	-156.831	-0.338	0.021
-355.566	238.221	-0.037	-0.060
-354.552	-200.000	0.050	-0.365
-353.537	-68.701	0.293	-0.112
-352.523	-200.000	-0.001	-0.350
-351.508	800.000	-0.135	0.414
-350.493	-104.866	0.226	-0.051
-349.479	-24.457	0.118	0.069
-348.464	790.698	-0.075	-0.203
-347.450	65.530	-0.263	-0.262
-346.435	263.814	-0.040	-0.069
-345.420	61.712	0.145	0.142
-344.406	-64.531	0.372	-0.149
-343.391	-127.623	-0.256	0.037
-342.377	113.697	-0.113	-0.136
-341.362	800.000	-0.011	0.039
-340.348	-70.186	0.236	-0.088
-339.333	44.573	0.141	-0.128
-338.318	150.470	-0.113	-0.151
-337.304	-11.415	-0.222	-0.144
-336.289	80.966	0.122	-0.130
-335.275	-122.177	0.240	0.039
-334.260	800.000	0.077	0.287
-333.245	97.406	-0.072	0.081
-332.231	-200.000	0.048	-0.218
-331.216	-89.087	0.389	0.113
-330.202	-65.591	-0.253	0.100
-329.187	201.543	-0.137	-0.208
-328.172	-105.446	0.179	0.040
-327.158	-116.840	-0.314	0.057
-326.143	-152.421	-0.225	0.016
-325.129	-42.105	-0.273	-0.138
-324.114	-0.683	0.126	-0.088
-323.099	-64.861	-0.326	0.130
-322.085	-39.711	0.184	0.095
-321.070	800.000	-0.072	0.241
-320.056	-134.482	0.085	0.010
-319.041	-137.436	0.117	-0.013
-318.026	-93.681	0.229	0.062
-317.012	-80.165	0.268	0.088
-315.997	605.322	0.140	0.344
-314.983	-182.410	-0.194	-0.004
-313.968	69.905	-0.092	0.094
-312.953	316.814	0.161	0.299
-311.939	-94.540	-0.197	-0.053
-310.924	-200.000	0.262	0.000
-309.910	125.829	0.259	-0.322
-308.895	629.421	-0.068	-0.169
-307.880	2.438	0.114	0.081
-306.866	-77.837	0.130	0.044
-305.851	-90.978	-0.248	0.070
-304.837	286.096	0.142	0.252
-303.822	-118.527	-0.481	0.084
-302.807	206.365	0.090	0.138
-301.793	-200.000	-0.058	-0.253
-300.778	800.000	-0.041	-0.122
-299.764	-87.344	0.224	0.067
-298.749	28.379	-0.209	0.174
-297.735	-200.000	0.009	0.194
-296.720	-85.940	0.356	-0.108
-295.705	94.910	-0.198	-0.221
-294.691	-200.000	-0.055	-0.508
-293.676	-200.000	-0.039	0.293
-292.662	140.336	-0.174	-0.226
-291.647	-200.000	0.017	0.145
-290.632	243.436	0.200	0.330
-289.618	-200.000	-0.003	0.092
-288.603	-115.398	0.060	0.011
-287.589	-200.000	-0.030	0.175
-286.574	-46.674	-0.308	-0.148
-285.559	77.011	0.230	0.240
-284.545	-55.531	0.466	-0.205
-283.530	314.441	0.127	0.235
-282.516	-200.000	0.039	-0.272
-281.501	-200.000	0.019	-0.136
-280.486	-200.000	-0.013	-0.348
-279.472	74.637	0.152	-0.157
-278.457	599.945	0.045	0.109
-277.443	49.051	-0.155	0.143
-276.428	-149.204	-0.169	-0.013
-275.413	321.988	0.198	0.371
-274.399	112.519	-0.019	-0.023
-273.384	-200.000	0.001	0.056
-272.370	-200.000	0.021	0.110
-271.355	-115.203	0.091	-0.017
-270.340	-35.976	-0.124	0.066
-269.326	-102.714	-0.144	-0.034
-268.311	-53.543	-0.225	0.101
-267.297	761.883	0.100	0.266
-266.282	63.399	-0.209	0.206
-265.267	-90.932	0.098	0.028
-264.253	74.895	0.108	-0.111
-263.238	104.608	-0.053	0.062
-262.224	30.938	-0.101	-0.085
-261.209	43.124	0.125	-0.112
-260.195	180.242	0.093	0.134
-259.180	-38.248	-0.478	-0.249
-258.165	-200.000	-0.008	-0.263
-257.151	91.307	0.285	0.315
-256.136	190.353	-0.047	0.069
-255.122	-200.000	0.023	-0.194
-254.107	47.653	-0.149	-0.136
-253.092	-200.000	-0.000	-0.025
-252.078	-142.894	-0.252	-0.024
-251.063	-54.475	0.051	-0.022
-250.049	637.972	-0.047	-0.116
-249.034	-75.218	-0.221	-0.077
-248.019	236.016	-0.060	-0.098
-247.005	-88.047	0.222	0.065
-245.990	-132.261	0.257	0.033
-244.976	48.224	0.128	0.118
-243.961	-137.527	0.232	0.026
-242.946	-200.000	0.016	0.158
-241.932	-200.000	-0.021	0.138
-240.917	247.679	0.070	-0.117
-239.903	-68.417	-0.037	-0.014
-238.888	-49.793	-0.243	-0.113
-237.873	800.000	-0.119	-0.426
-236.859	123.557	0.161	-0.198
-235.844	-125.888	-0.310	0.046
-234.830	-143.040	0.151	0.014
-233.815	-200.000	-0.139	-0.001
-232.800	800.000	-0.102	0.331
-231.786	-43.603	0.119	0.059
-230.771	-24.232	-0.327	-0.192
-229.757	515.250	0.091	-0.210
-228.742	36.028	-0.172	0.149
-227.727	-200.000	0.013	0.364
-226.713	-47.783	0.293	-0.139
-225.698	-42.761	0.179	0.089
-224.684	413.492	-0.175	0.365
-223.669	154.059	0.164	0.221
-222.655	-200.000	-0.019	0.231
-221.640	34.674	0.271	0.233
-220.625	158.974	0.061	-0.083
-219.611	-63.581	0.229	-0.092
-218.596	398.870	0.038	0.077
-217.582	84.082	-0.182	0.195
-216.567	-65.510	-0.479	0.188
-215.552	195.664	-0.030	-0.045
-214.538	-104.639	-0.183	-0.041
-213.523	-168.126	0.069	-0.003
-212.509	-125.142	-0.292	0.044
-211.494	-83.293	0.167	0.053
-210.479	105.144	-0.121	0.140
-209.465	7.093	-0.118	-0.086
-208.450	21.270	-0.105	0.084
-207.436	322.843	-0.223	0.416
-206.421	-200.000	0.132	0.000
-205.406	22.180	-0.174	-0.139
-204.392	-111.434	-0.245	0.049
-203.377	-52.124	-0.211	0.096
-202.363	231.879	-0.066	0.105
-201.348	-109.689	0.254	0.052
-200.333	-139.399	0.092	0.010
-199.319	602.827	0.081	-0.197
-198.304	-32.250	0.112	-0.061
-197.290	-163.348	-0.145	-0.007
-196.275	-41.583	0.385	-0.194
-195.260	-55.243	-0.126	0.056
-194.246	8.330	0.179	0.132
-193.231	-18.946	0.201	-0.123
-192.217	-23.927	0.228	-0.134
-191.202	42.368	0.250	-0.223
-190.187	314.266	-0.151	0.278
-189.173	25.464	-0.207	0.169
-188.158	-200.000	-0.007	-0.093
-187.144	-44.848	-0.179	0.088
-186.129	-23.957	-0.079	0.046
-185.114	-200.000	-0.043	0.287
-184.100	-89.732	-0.255	-0.073
-183.085	30.180	-0.210	-0.175
-182.071	489.935	-0.110	-0.247
-181.056	-136.178	0.167	-0.019
-180.042	182.973	0.069	-0.099
-179.027	-200.000	-0.000	-0.027
-178.012	-88.059	0.340	-0.100
-176.998	115.048	0.218	-0.260
-175.983	-115.582	-0.219	-0.040
-174.969	-200.000	-0.007	-0.209
-173.954	-122.149	0.145	0.023
-172.939	144.496	0.105	-0.138
-171.925	-80.914	-0.385	0.125
-170.910	-19.528	0.140	0.085
-169.896	800.000	0.112	-0.331
-168.881	558.235	0.132	-0.312
-167.866	101.307	-0.112	-0.128
-166.852	466.853	0.087	0.192
-165.837	-90.270	-0.126	0.036
-164.823	47.156	0.252	-0.230
-163.808	800.000	-0.012	0.051
-162.793	379.821	-0.156	0.313
-161.779	-10.677	-0.391	-0.253
-160.764	-175.813	-0.319	0.008
-159.750	323.051	0.133	0.248
-158.735	96.292	-0.199	-0.223
-157.720	-119.085	-0.303	0.052
-156.706	-200.000	-0.020	-0.155
-155.691	-108.115	0.286	0.061
-154.677	-40.750	-0.027	-0.013
-153.662	691.247	-0.041	-0.106
-152.647	78.733	-0.126	0.132
-151.633	-181.190	0.341	-0.007
-150.618	-26.230	0.193	-0.111
-149.604	378.936	0.153	-0.306
-148.589	-151.443	0.242	-0.018
-147.574	-23.272	-0.122	0.072
-146.560	-135.422	0.181	0.021
-145.545	-115.401	0.116	0.021
-144.531	-4.510	-0.260	-0.175
-143.516	29.980	-0.091	0.076
-142.502	-60.842	-0.145	0.060
-141.487	-137.024	-0.230	0.026
-140.472	-152.350	0.077	-0.005
-139.458	45.398	-0.118	-0.107
-138.443	399.168	-0.099	-0.203
-137.429	-83.304	-0.168	0.053
-136.414	-126.448	0.379	0.055
-135.399	-91.853	-0.147	0.041
-134.385	-200.000	0.011	0.077
-133.370	-200.000	-0.005	0.186
-132.356	800.000	-0.049	0.172
-131.341	-5.695	0.155	0.104
-130.326	30.769	-0.297	0.249
-129.312	-135.924	0.144	-0.017
-128.297	-77.923	0.214	0.072
-127.283	-200.000	0.015	-0.135
-126.268	-125.034	0.128	0.019
-125.253	-141.190	0.293	-0.029
-124.239	800.000	-0.051	0.210
-123.224	15.216	0.227	0.174
-122.210	-69.631	-0.472	0.177
-121.195	-30.817	0.339	-0.187
