DTS Sentinel unit serial number:	SN413079Multiplexer serial number:	ORYXHardware model number:	OX4-SRSoftware version number:	ORYX F/W v4.00 Oryx Data Collector v3.7.2.0data status	okinstallation	princeton_trtdifferential loss correction	single-endedforward channel	channel 3reverse channel	N/Adate	2019/09/18time	12:56:34forward acquisition time	60.00reverse acquisition time	0.00gamma	496.2192k internal	0.2315k external	0.2315temperature offset calibration	0.9964default loss term (dB/km)	0.3790temperature slope calibration	1.0000multiplexer offset coefficient	1.0000multiplexer slope coefficient	1.0000fibre end	0.00T internal ref (°C)	33.27T ext. ref 1 (°C)	0.56T ext. ref 2 (°C)	30.06length (m)	temperature (°C)	Stokes	anti-Stokes-747.200	-200.000	-0.037	0.355
-746.185	242.902	0.064	0.109
-745.171	-20.362	-0.241	-0.150
-744.156	119.916	-0.148	-0.186
-743.142	-159.323	0.083	0.005
-742.127	-196.216	0.299	-0.002
-741.112	-164.585	0.240	-0.011
-740.098	-200.000	-0.038	0.344
-739.083	236.061	0.075	0.126
-738.069	800.000	0.093	0.311
-737.054	331.325	-0.110	-0.215
-736.039	645.389	-0.068	-0.175
-735.025	472.420	0.081	0.185
-734.010	-110.351	-0.447	-0.094
-732.996	-200.000	-0.007	0.187
-731.981	-68.411	0.202	-0.080
-730.966	-200.000	-0.001	-0.549
-729.952	800.000	-0.057	0.220
-728.937	800.000	0.068	0.295
-727.923	28.700	0.161	-0.138
-726.908	-158.092	-0.175	-0.010
-725.894	121.653	-0.274	-0.346
-724.879	214.698	0.131	0.210
-723.864	-15.462	-0.108	0.070
-722.850	-200.000	0.014	-0.124
-721.835	542.905	0.025	0.060
-720.821	-200.000	-0.008	0.368
-719.806	-76.727	0.310	-0.110
-718.791	328.517	-0.141	-0.273
-717.777	266.567	-0.262	-0.463
-716.762	203.944	0.159	-0.249
-715.748	-9.241	-0.111	-0.075
-714.733	-27.010	0.279	0.165
-713.718	123.709	-0.086	0.109
-712.704	74.633	0.151	-0.160
-711.689	330.433	-0.131	-0.255
-710.675	800.000	-0.086	-0.241
-709.660	152.165	0.204	-0.281
-708.645	126.294	-0.085	0.109
-707.631	-169.538	0.145	-0.005
-706.616	-200.000	0.019	-0.254
-705.602	-142.165	-0.033	-0.003
-704.587	347.842	0.144	-0.286
-703.572	190.003	-0.180	0.274
-702.558	-64.631	0.249	0.102
-701.543	-200.000	-0.021	-0.155
-700.529	-200.000	-0.010	-0.055
-699.514	-200.000	-0.010	-0.374
-698.499	800.000	-0.057	-0.219
-697.485	20.261	-0.074	0.061
-696.470	21.577	-0.084	0.069
-695.456	-200.000	-0.014	0.386
-694.441	-200.000	-0.036	0.273
-693.426	280.913	0.117	0.212
-692.412	-86.891	-0.206	-0.064
-691.397	-200.000	0.011	0.114
-690.383	201.907	0.064	-0.100
-689.368	800.000	-0.047	0.198
-688.354	800.000	0.101	-0.363
-687.339	-74.036	0.253	0.093
-686.324	-80.862	0.007	-0.002
-685.310	-52.475	0.369	-0.172
-684.295	-200.000	-0.022	0.359
-683.281	108.387	-0.097	-0.117
-682.266	-173.287	0.278	0.009
-681.251	-117.581	-0.499	-0.091
-680.237	-200.000	-0.064	0.329
-679.222	-124.665	0.145	-0.023
-678.208	30.562	-0.243	0.210
-677.193	-200.000	-0.082	-0.398
-676.178	-77.738	-0.063	-0.022
-675.164	-75.646	0.164	0.059
-674.149	65.754	-0.116	-0.119
-673.135	-50.351	-0.032	0.015
-672.120	-28.217	0.163	0.095
-671.105	-109.915	0.457	0.097
-670.091	46.666	0.111	-0.104
-669.076	-28.531	-0.161	-0.094
-668.062	-110.264	-0.165	-0.035
-667.047	73.083	-0.091	0.096
-666.032	74.344	-0.222	-0.235
-665.018	-53.625	-0.086	-0.040
-664.003	-73.082	-0.390	0.144
-662.989	-176.876	-0.262	-0.007
-661.974	17.900	0.201	-0.161
-660.959	-24.618	-0.223	0.134
-659.945	59.017	0.191	-0.190
-658.930	132.477	0.105	0.137
-657.916	35.879	0.189	-0.168
-656.901	122.991	-0.112	0.141
-655.886	-200.000	-0.029	-0.271
-654.872	-113.236	0.096	0.019
-653.857	-119.148	0.401	-0.071
-652.843	-136.768	0.144	-0.017
-651.828	707.701	-0.032	0.086
-650.814	-7.359	0.076	-0.052
-649.799	800.000	-0.049	0.200
-648.784	110.636	-0.086	0.105
-647.770	-159.540	0.327	0.018
-646.755	800.000	0.040	0.164
-645.741	800.000	0.070	0.222
-644.726	664.403	0.019	0.048
-643.711	142.457	0.092	0.123
-642.697	149.628	-0.225	-0.308
-641.682	-21.014	0.249	-0.154
-640.668	-18.185	-0.176	-0.111
-639.653	-98.356	-0.076	-0.020
-638.638	-200.000	-0.038	0.310
-637.624	800.000	0.144	-0.581
-636.609	500.354	0.101	-0.234
-635.595	-24.537	0.279	-0.168
-634.580	-99.869	-0.340	0.086
-633.565	-113.765	-0.086	-0.017
-632.551	-37.479	-0.366	0.197
-631.536	-28.761	0.284	-0.165
-630.522	90.796	0.230	-0.260
-629.507	453.878	-0.188	0.421
-628.492	-58.041	-0.085	-0.037
-627.478	140.309	-0.102	0.136
-626.463	-200.000	-0.050	0.233
-625.449	82.686	0.221	0.243
-624.434	61.205	-0.253	0.254
-623.419	-17.770	-0.096	-0.061
-622.405	-123.105	-0.125	0.020
-621.390	165.240	-0.142	-0.202
-620.376	-37.614	-0.221	-0.119
-619.361	-200.000	0.015	-0.125
-618.346	42.084	-0.243	-0.222
-617.332	13.214	-0.096	0.075
-616.317	-169.396	-0.550	-0.020
-615.303	-200.000	0.034	0.168
-614.288	-200.000	-0.026	0.175
-613.273	-200.000	-0.055	-0.307
-612.259	800.000	0.037	-0.118
-611.244	36.984	0.178	0.159
-610.230	23.270	0.134	0.111
-609.215	492.967	-0.011	0.025
-608.201	-200.000	0.061	-0.426
-607.186	192.626	-0.116	-0.176
-606.171	179.313	-0.081	-0.120
-605.157	-127.041	0.056	0.008
-604.142	800.000	-0.106	-0.358
-603.128	-128.188	-0.249	0.036
-602.113	-31.172	-0.361	0.205
-601.098	800.000	-0.078	0.259
-600.084	-73.168	0.296	0.109
-599.069	-71.771	-0.249	-0.094
-598.055	-49.499	0.258	-0.124
-597.040	800.000	-0.063	-0.239
-596.025	-76.424	0.280	-0.099
-595.011	81.344	0.117	0.128
-593.996	-200.000	-0.128	0.000
-592.982	169.157	-0.094	0.135
-591.967	-89.931	0.120	-0.035
-590.952	4.687	0.119	-0.088
-589.938	43.377	-0.180	-0.165
-588.923	106.624	0.057	0.068
-587.909	65.027	-0.071	0.072
-586.894	416.560	-0.048	-0.103
-585.879	286.762	0.083	-0.152
-584.865	-90.693	-0.092	-0.027
-583.850	-195.549	-0.440	0.003
-582.836	114.763	-0.124	-0.152
-581.821	-40.960	0.170	0.089
-580.806	72.287	0.088	0.093
-579.792	-174.530	0.257	0.007
-578.777	52.381	-0.086	0.082
-577.763	-43.683	-0.160	0.081
-576.748	50.630	0.122	0.116
-575.733	800.000	-0.048	-0.169
-574.719	-148.596	-0.140	-0.011
-573.704	90.810	-0.137	0.154
-572.690	-200.000	0.076	0.510
-571.675	-114.073	0.180	0.035
-570.661	-95.840	0.099	-0.027
-569.646	-127.436	-0.170	-0.025
-568.631	800.000	0.106	-0.332
-567.617	800.000	-0.117	-0.428
-566.602	-12.786	0.055	-0.036
-565.588	-35.452	-0.177	0.097
-564.573	71.556	-0.211	0.221
-563.558	-106.827	0.275	0.061
-562.544	-96.551	0.066	-0.018
-561.529	338.407	0.017	-0.034
-560.515	-200.000	-0.035	-0.323
-559.500	28.814	-0.129	-0.110
-558.485	-16.501	-0.451	0.288
-557.471	-200.000	-0.007	-0.163
-556.456	332.552	-0.089	0.172
-555.442	416.263	0.111	0.238
-554.427	-110.295	-0.250	-0.052
-553.412	355.660	0.166	-0.332
-552.398	800.000	0.069	0.221
-551.383	20.200	0.143	0.116
-550.369	800.000	0.155	0.461
-549.354	757.355	0.090	0.245
-548.339	-200.000	-0.026	-0.217
-547.325	-44.515	-0.322	-0.162
-546.310	588.446	0.020	-0.050
-545.296	103.349	0.097	-0.114
-544.281	-176.516	0.253	-0.007
-543.266	-200.000	0.009	-0.081
-542.252	5.228	-0.220	-0.163
-541.237	800.000	0.011	-0.041
-540.223	-139.658	0.268	-0.029
-539.208	-49.559	-0.121	0.058
-538.193	-24.850	0.222	-0.133
-537.179	399.720	0.203	0.427
-536.164	45.028	0.106	0.098
-535.150	118.257	-0.051	-0.063
-534.135	352.660	0.051	0.101
-533.121	132.162	0.179	0.232
-532.106	-65.371	0.514	0.208
-531.091	162.096	0.291	-0.410
-530.077	800.000	0.047	-0.153
-529.062	-29.174	-0.160	0.092
-528.048	-200.000	0.002	-0.044
-527.033	97.260	-0.152	0.176
-526.018	210.248	-0.103	-0.163
-525.004	76.239	0.238	-0.254
-523.989	800.000	0.090	-0.385
-522.975	108.449	0.099	0.118
-521.960	-200.000	0.001	0.090
-520.945	-84.049	-0.119	-0.038
-519.931	800.000	-0.017	0.059
-518.916	240.145	0.111	0.185
-517.902	800.000	-0.058	0.164
-516.887	268.163	0.249	-0.439
-515.872	126.345	0.189	0.240
-514.858	232.030	0.123	0.203
-513.843	-157.446	0.137	0.008
-512.829	800.000	-0.091	0.289
-511.814	340.824	0.106	-0.208
-510.799	60.857	0.379	-0.378
-509.785	114.801	-0.132	-0.162
-508.770	1.136	-0.201	0.145
-507.756	-121.837	0.128	0.021
-506.741	356.398	0.179	-0.357
-505.726	-8.541	-0.486	0.328
-504.712	129.397	0.238	0.305
-503.697	31.877	0.073	-0.063
-502.683	257.454	0.020	0.035
-501.668	-200.000	-0.086	-0.386
-500.653	-200.000	0.026	-0.289
-499.639	-16.705	0.390	-0.248
-498.624	-92.366	0.231	0.065
-497.610	-31.429	-0.263	0.149
-496.595	-26.063	0.294	-0.174
-495.581	244.992	0.236	-0.398
-494.566	170.259	0.140	-0.202
-493.551	-134.343	-0.162	0.020
-492.537	-200.000	0.078	0.375
-491.522	78.786	0.154	0.165
-490.508	590.720	0.072	-0.179
-489.493	-200.000	0.001	0.029
-488.478	-200.000	-0.027	0.246
-487.464	-158.241	0.122	-0.007
-486.449	-159.553	0.117	0.007
-485.435	-37.677	-0.067	-0.036
-484.420	770.446	0.041	-0.111
-483.405	-112.306	0.208	-0.042
-482.391	0.032	0.034	-0.025
-481.376	-200.000	0.018	0.326
-480.362	-122.794	0.194	0.031
-479.347	388.151	0.045	0.093
-478.332	61.393	0.182	0.181
-477.318	72.567	0.154	-0.161
-476.303	91.967	0.076	0.086
-475.289	-200.000	-0.075	-0.448
-474.274	213.792	-0.113	0.180
-473.259	-96.236	-0.268	-0.071
-472.245	295.356	-0.034	-0.063
-471.230	800.000	0.063	0.246
-470.216	800.000	-0.043	-0.179
-469.201	800.000	-0.044	0.151
-468.186	-200.000	0.007	0.227
-467.172	56.823	0.115	-0.112
-466.157	-22.767	0.428	0.259
-465.143	-183.156	0.132	0.002
-464.128	800.000	0.024	0.066
-463.113	-200.000	-0.020	0.185
-462.099	-170.123	0.226	-0.008
-461.084	46.125	-0.250	-0.232
-460.070	-72.107	0.156	-0.058
-459.055	5.309	-0.221	0.163
-458.040	-119.535	0.237	0.041
-457.026	543.459	0.141	-0.338
-456.011	357.764	-0.082	0.164
-454.997	-117.295	0.239	-0.044
-453.982	-200.000	-0.017	-0.176
-452.968	-22.408	-0.291	-0.177
-451.953	-57.973	-0.132	-0.058
-450.938	800.000	-0.034	0.138
-449.924	-63.442	0.072	-0.030
-448.909	-200.000	-0.003	0.207
-447.895	130.985	0.030	0.039
-446.880	-8.327	-0.200	0.135
-445.865	121.930	-0.090	0.113
-444.851	32.627	0.101	-0.088
-443.836	114.525	0.107	0.130
-442.822	-16.709	-0.176	-0.111
-441.807	-28.338	0.313	0.181
-440.792	-200.000	0.058	-0.260
-439.778	404.892	0.122	-0.258
-438.763	800.000	-0.044	-0.140
-437.749	-135.200	0.305	-0.037
-436.734	146.561	0.253	0.340
-435.719	-200.000	0.021	0.307
-434.705	145.726	-0.265	-0.355
-433.690	800.000	0.103	-0.340
-432.676	-133.166	-0.148	0.019
-431.661	198.041	0.037	-0.056
-430.646	-200.000	0.081	0.393
-429.632	545.817	-0.072	0.172
-428.617	-159.105	-0.481	-0.027
-427.603	-124.517	-0.434	0.067
-426.588	800.000	0.109	0.471
-425.573	-157.630	-0.168	0.010
-424.559	-89.700	0.252	0.074
-423.544	800.000	0.046	0.136
-422.530	336.458	-0.134	-0.260
-421.515	-90.943	0.051	0.015
-420.500	-110.117	0.189	0.039
-419.486	-104.677	0.082	-0.019
-418.471	81.704	-0.327	-0.354
-417.457	-134.032	-0.102	-0.013
-416.442	42.277	-0.222	-0.202
-415.428	-68.491	0.145	0.056
-414.413	16.020	-0.615	-0.484
-413.398	-56.773	-0.065	-0.029
-412.384	114.221	-0.156	-0.190
-411.369	-193.707	-0.125	-0.001
-410.355	441.951	-0.035	0.077
-409.340	800.000	0.079	0.242
-408.325	6.178	-0.166	0.123
-407.311	61.306	-0.205	-0.204
-406.296	-73.538	-0.359	0.131
-405.282	-87.314	-0.398	0.121
-404.267	121.693	-0.173	0.216
-403.252	85.365	-0.233	-0.256
-402.238	-114.889	0.181	0.035
-401.223	-155.820	0.033	-0.002
-400.209	-200.000	-0.004	0.237
-399.194	-104.335	0.284	0.066
-398.179	288.895	-0.170	-0.308
-397.165	88.169	-0.072	0.080
-396.150	-200.000	-0.006	-0.064
-395.136	-74.480	0.130	-0.047
-394.121	34.392	-0.332	-0.289
-393.106	170.006	-0.169	0.242
-392.092	-200.000	-0.024	0.239
-391.077	-200.000	-0.002	0.075
-390.063	-200.000	-0.019	0.119
-389.048	-53.886	0.137	-0.062
-388.033	-85.615	0.099	-0.031
-387.019	-200.000	0.020	-0.202
-386.004	-6.084	-0.370	-0.253
-384.990	-200.000	-0.042	-0.255
-383.975	-142.821	0.196	-0.019
-382.960	800.000	0.161	-0.457
-381.946	46.154	0.213	-0.198
-380.931	158.453	-0.080	0.111
-379.917	117.842	-0.136	-0.168
-378.902	517.190	-0.030	0.070
-377.888	242.131	-0.146	-0.245
-376.873	-200.000	0.011	-0.350
-375.858	-6.718	0.102	-0.069
-374.844	-0.571	-0.231	0.163
-373.829	-65.454	0.182	-0.073
-372.815	-40.161	0.060	0.031
-371.800	-60.667	-0.127	0.054
-370.785	800.000	-0.096	-0.333
-369.771	231.439	0.107	0.175
-368.756	7.884	-0.180	0.135
-367.742	84.733	-0.025	-0.027
-366.727	105.514	0.107	0.127
-365.712	-7.863	-0.198	0.134
-364.698	-70.132	0.297	-0.113
-363.683	800.000	-0.098	0.325
-362.669	283.066	0.248	0.445
-361.654	692.688	0.051	0.134
-360.639	65.508	-0.107	-0.108
-359.625	-60.632	-0.255	0.108
-358.610	-79.982	-0.296	-0.099
-357.596	-14.723	0.202	-0.129
-356.581	-95.502	0.176	0.047
-355.566	565.935	-0.145	0.351
-354.552	-128.331	-0.101	0.014
-353.537	-62.937	-0.116	0.048
-352.523	-200.000	-0.022	0.148
-351.508	285.208	-0.080	-0.143
-350.493	-153.675	0.119	-0.008
-349.479	-200.000	0.004	-0.080
-348.464	84.584	-0.065	-0.071
-347.450	-48.418	-0.415	-0.199
-346.435	-200.000	-0.011	-0.192
-345.420	-155.709	-0.111	0.007
-344.406	136.715	0.133	0.173
-343.391	-33.797	-0.074	0.041
-342.377	-65.479	0.189	-0.076
-341.362	-69.078	0.191	-0.073
-340.348	776.406	0.022	0.061
-339.333	-200.000	-0.014	0.079
-338.318	800.000	0.020	-0.079
-337.304	800.000	0.126	0.497
-336.289	-7.276	-0.088	0.059
-335.275	-128.152	0.237	-0.034
-334.260	-200.000	-0.008	-0.052
-333.245	-200.000	-0.030	0.196
-332.231	-15.241	-0.136	-0.087
-331.216	-200.000	0.011	-0.086
-330.202	-168.898	-0.027	0.001
-329.187	-104.094	-0.083	-0.019
-328.172	-38.741	0.206	0.108
-327.158	-153.136	-0.151	-0.011
-326.143	233.893	0.094	0.155
-325.129	137.216	-0.063	-0.082
-324.114	321.769	-0.088	0.167
-323.099	676.627	0.077	-0.199
-322.085	-200.000	0.023	-0.253
-321.070	-120.711	-0.094	0.016
-320.056	176.226	-0.142	-0.206
-319.041	-6.403	0.068	0.047
-318.026	328.890	-0.033	-0.064
-317.012	800.000	-0.106	-0.347
-315.997	-83.017	0.065	-0.021
-314.983	800.000	0.068	0.253
-313.968	34.411	-0.117	0.102
-312.953	-41.816	0.287	-0.147
-311.939	-147.494	0.121	0.010
-310.924	160.795	0.057	-0.079
-309.910	-88.191	0.142	0.042
-308.895	-160.417	-0.135	0.007
-307.880	800.000	0.025	0.070
-306.866	37.161	-0.075	0.066
-305.851	800.000	-0.031	-0.097
-304.837	-90.479	0.089	-0.026
-303.822	-22.593	-0.217	-0.131
-302.807	800.000	-0.013	0.038
-301.793	2.774	0.215	0.155
-300.778	283.177	0.168	-0.301
-299.764	-108.891	0.202	0.043
-298.749	270.673	0.106	-0.187
-297.735	327.233	-0.056	-0.106
-296.720	233.964	0.098	0.160
-295.705	-174.544	0.308	-0.009
-294.691	-146.758	-0.251	0.022
-293.676	99.189	-0.082	-0.095
-292.662	-99.059	-0.089	0.022
-291.647	130.980	-0.206	0.264
-290.632	375.261	-0.103	-0.210
-289.618	79.869	-0.035	0.037
-288.603	-27.647	0.028	0.016
-287.589	599.245	0.047	-0.115
-286.574	-4.825	-0.121	-0.083
-285.559	-95.952	-0.039	0.010
-284.545	-200.000	0.017	-0.232
-283.530	-200.000	0.033	-0.229
-282.516	-200.000	-0.060	-0.335
-281.501	527.200	0.073	0.171
-280.486	-39.235	-0.017	-0.009
-279.472	-200.000	0.015	-0.120
-278.457	-17.414	0.121	0.076
-277.443	-21.658	0.257	-0.156
-276.428	390.536	0.094	0.193
-275.413	42.444	0.029	0.026
-274.399	800.000	-0.021	0.066
-273.384	800.000	-0.066	-0.250
-272.370	184.892	-0.225	-0.332
-271.355	675.915	0.068	-0.175
-270.340	-200.000	-0.019	0.176
-269.326	-75.378	0.067	-0.024
-268.311	447.662	-0.145	0.318
-267.297	-180.398	-0.307	0.006
-266.282	76.188	-0.227	-0.239
-265.267	301.013	0.177	0.325
-264.253	-160.353	-0.318	0.017
-263.238	-52.241	0.289	0.133
-262.224	-53.304	-0.172	0.078
-261.209	639.564	-0.030	0.076
-260.195	-200.000	0.044	0.342
-259.180	39.928	-0.206	-0.184
-258.165	-169.258	0.252	-0.009
-257.151	800.000	0.046	0.151
-256.136	-200.000	0.044	-0.330
-255.122	24.401	0.263	0.216
-254.107	313.255	-0.139	0.260
-253.092	352.092	0.132	0.261
-252.078	173.337	-0.228	-0.327
-251.063	-5.867	-0.330	0.224
-250.049	-200.000	0.038	-0.185
-249.034	-151.574	0.311	-0.023
-248.019	-70.759	0.356	-0.134
-247.005	44.867	-0.258	-0.236
-245.990	-121.935	0.261	0.043
-244.976	-77.549	-0.093	0.032
-243.961	10.158	0.265	-0.200
-242.946	66.343	0.073	-0.073
-241.932	83.209	0.111	0.120
-240.917	368.754	0.152	0.305
-239.903	267.064	0.057	0.099
-238.888	332.816	-0.083	-0.159
-237.873	-200.000	0.060	0.320
-236.859	-127.929	-0.335	0.048
-235.844	-83.055	-0.250	-0.080
-234.830	90.448	0.195	0.217
-233.815	-40.839	-0.178	0.092
-232.800	-59.789	0.118	0.050
-231.786	800.000	0.089	0.333
-230.771	800.000	0.104	-0.310
-229.757	-180.168	0.356	-0.007
-228.742	158.167	-0.066	0.091
-227.727	-64.674	0.307	0.124
-226.713	131.783	-0.356	0.455
-225.698	800.000	-0.096	0.312
-224.684	-105.768	0.178	0.040
-223.669	-68.226	0.298	0.115
-222.655	159.657	0.108	0.149
-221.640	800.000	0.109	-0.307
-220.625	-82.765	0.274	-0.088
-219.611	-200.000	0.050	0.246
-218.596	404.217	0.016	0.034
-217.582	800.000	-0.101	-0.396
-216.567	105.265	0.213	-0.249
-215.552	-139.670	0.203	0.021
-214.538	800.000	0.037	0.140
-213.523	-200.000	0.027	0.150
-212.509	38.670	-0.220	-0.195
-211.494	-200.000	0.017	-0.194
-210.479	-99.292	-0.296	-0.074
-209.465	-56.594	0.132	-0.058
-208.450	59.019	0.166	0.162
-207.436	-41.600	-0.127	-0.065
-206.421	419.745	0.032	0.068
-205.406	-105.973	0.369	-0.083
-204.392	800.000	-0.043	-0.184
-203.377	724.217	0.041	0.109
-202.363	-200.000	0.008	0.239
-201.348	404.498	0.057	0.119
-200.333	-200.000	0.016	-0.294
-199.319	-40.714	0.163	0.084
-198.304	157.060	0.119	0.163
-197.290	-86.978	-0.160	0.048
-196.275	-134.967	-0.131	0.016
-195.260	-19.201	-0.180	-0.111
-194.246	800.000	-0.054	-0.193
-193.231	-181.964	-0.108	0.002
-192.217	124.687	-0.187	-0.234
-191.202	-130.336	0.386	-0.052
-190.187	-17.813	-0.411	0.256
-189.173	571.255	-0.199	0.482
-188.158	-56.351	0.250	0.110
-187.144	465.714	-0.059	0.130
-186.129	601.926	-0.141	0.346
-185.114	66.105	-0.044	-0.045
-184.100	267.741	-0.071	-0.123
-183.085	319.540	-0.057	-0.106
-182.071	-24.444	-0.243	0.144
-181.056	-183.483	-0.296	-0.005
-180.042	800.000	-0.095	-0.282
-179.027	72.638	-0.175	0.181
-178.012	151.798	0.145	0.196
-176.998	94.971	-0.064	0.072
-175.983	205.850	-0.271	-0.418
-174.969	-158.801	0.162	0.009
-173.954	-83.096	-0.284	-0.091
-172.939	624.932	0.153	-0.383
-171.925	141.411	0.072	0.094
-170.910	-175.582	0.341	0.009
-169.896	-153.924	-0.498	-0.034
-168.881	-39.203	-0.123	-0.064
-167.866	368.454	-0.126	0.253
-166.852	-16.099	-0.205	0.129
-165.837	92.388	0.219	-0.245
-164.823	-66.273	0.307	0.121
-163.808	424.923	0.044	-0.094
-162.793	-4.493	0.238	0.163
-161.779	114.212	-0.070	0.085
-160.764	-20.199	0.227	0.139
-159.750	-200.000	-0.010	0.112
-158.735	-67.048	0.372	0.145
-157.720	-200.000	0.004	-0.040
-156.706	-200.000	-0.009	0.251
-155.691	-45.793	-0.282	0.138
-154.677	6.228	0.097	-0.072
-153.662	-64.272	-0.371	-0.150
-152.647	-121.041	0.271	0.045
-151.633	392.482	-0.068	0.139
-150.618	204.677	0.068	0.104
-149.604	37.126	0.330	0.289
-148.589	-89.896	0.333	0.096
-147.574	435.043	0.108	-0.233
-146.560	-200.000	0.048	-0.372
-145.545	41.059	0.159	0.142
-144.531	391.664	0.133	0.274
-143.516	-68.827	-0.122	-0.047
-142.502	-48.592	0.136	0.065
-141.487	800.000	0.089	0.299
-140.472	38.971	-0.192	-0.169
-139.458	-121.216	0.076	-0.013
-138.443	-200.000	0.003	-0.015
-137.429	336.591	-0.112	0.215
-136.414	-200.000	0.051	-0.246
-135.399	546.141	-0.047	0.110
-134.385	728.699	0.154	0.406
-133.370	214.847	0.175	0.275
-132.356	-88.710	-0.324	-0.095
-131.341	-30.677	-0.155	0.087
-130.326	-200.000	-0.035	-0.284
-129.312	603.570	0.088	-0.217
-128.297	-47.731	0.157	0.075
-127.283	800.000	0.078	0.338
-126.268	-28.854	-0.234	0.133
-125.253	-5.406	-0.143	-0.097
-124.239	21.197	-0.408	-0.327
-123.224	-29.889	0.329	0.186
-122.210	-107.454	-0.023	0.005
-121.195	261.486	0.073	-0.125
