DTS Sentinel unit serial number:	SN413079Multiplexer serial number:	ORYXHardware model number:	OX4-SRSoftware version number:	ORYX F/W v4.00 Oryx Data Collector v3.7.2.0data status	okinstallation	princeton_trtdifferential loss correction	single-endedforward channel	channel 3reverse channel	N/Adate	2019/09/13time	12:16:35forward acquisition time	60.00reverse acquisition time	0.00gamma	496.2192k internal	0.2308k external	0.2308temperature offset calibration	1.0152default loss term (dB/km)	0.3790temperature slope calibration	1.0000multiplexer offset coefficient	1.0000multiplexer slope coefficient	1.0000fibre end	0.00T internal ref (°C)	34.06T ext. ref 1 (°C)	4.62T ext. ref 2 (°C)	31.15length (m)	temperature (°C)	Stokes	anti-Stokes-747.200	800.000	-0.137	0.395
-746.185	-53.260	-0.349	0.163
-745.171	-200.000	0.049	-0.315
-744.156	68.613	-0.020	0.021
-743.142	10.528	0.208	0.161
-742.127	-137.722	-0.352	-0.040
-741.112	-7.198	-0.117	0.081
-740.098	55.759	-0.120	0.118
-739.083	179.500	0.115	0.171
-738.069	183.697	-0.024	0.037
-737.054	3.724	-0.099	-0.074
-736.039	-46.343	-0.274	0.137
-735.025	214.734	-0.147	0.237
-734.010	40.987	0.256	-0.235
-732.996	-200.000	-0.040	-0.192
-731.981	30.525	0.194	0.168
-730.966	-112.425	-0.176	0.036
-729.952	-200.000	-0.013	-0.136
-728.937	20.246	-0.203	0.166
-727.923	-0.567	0.227	-0.163
-726.908	54.486	-0.251	0.246
-725.894	37.089	0.010	-0.009
-724.879	-89.050	0.095	-0.029
-723.864	-87.348	-0.214	0.066
-722.850	-200.000	0.000	-0.095
-721.835	-137.192	0.105	-0.012
-720.821	-96.543	-0.247	0.066
-719.806	-165.133	-0.157	0.007
-718.791	387.441	-0.127	-0.267
-717.777	-200.000	0.016	0.094
-716.762	-103.883	-0.173	-0.041
-715.748	-38.812	-0.121	-0.065
-714.733	109.074	-0.182	0.222
-713.718	141.686	-0.220	0.297
-712.704	800.000	0.044	-0.197
-711.689	-138.749	-0.139	0.015
-710.675	-79.971	0.032	-0.011
-709.660	259.183	-0.109	-0.190
-708.645	316.510	0.249	0.477
-707.631	427.199	0.102	-0.222
-706.616	-123.772	0.127	0.020
-705.602	-200.000	-0.007	-0.076
-704.587	-93.375	-0.134	-0.038
-703.572	-83.856	-0.170	0.055
-702.558	-122.294	0.160	-0.026
-701.543	-200.000	0.013	-0.285
-700.529	521.802	-0.053	0.125
-699.514	325.577	0.141	-0.273
-698.499	223.595	0.090	-0.147
-697.485	-33.940	-0.096	-0.054
-696.470	17.071	-0.217	-0.175
-695.456	-152.234	0.225	-0.017
-694.441	433.897	0.159	0.350
-693.426	-34.161	-0.133	0.074
-692.412	118.804	0.040	0.050
-691.397	95.687	-0.172	-0.199
-690.383	800.000	0.030	0.119
-689.368	54.167	-0.157	-0.153
-688.354	131.210	-0.056	0.073
-687.339	123.822	-0.134	0.171
-686.324	245.794	-0.127	-0.217
-685.310	-200.000	0.006	-0.120
-684.295	800.000	-0.082	-0.239
-683.281	527.099	-0.028	0.067
-682.266	265.294	0.121	-0.214
-681.251	127.690	-0.158	-0.203
-680.237	47.451	0.129	-0.122
-679.222	-200.000	0.010	0.097
-678.208	-71.901	-0.404	-0.152
-677.193	800.000	0.065	0.230
-676.178	-112.413	-0.093	-0.019
-675.164	91.488	-0.077	-0.088
-674.149	-145.633	0.173	0.016
-673.135	-82.752	0.116	0.038
-672.120	-138.764	-0.353	0.039
-671.105	-104.984	-0.152	-0.035
-670.091	-142.646	-0.246	0.024
-669.076	-108.644	-0.272	-0.059
-668.062	-128.988	-0.260	0.037
-667.047	-49.267	0.045	-0.022
-666.032	150.903	0.109	0.150
-665.018	83.787	-0.087	0.096
-664.003	-93.996	-0.196	0.055
-662.989	-200.000	-0.021	-0.345
-661.974	651.154	-0.098	-0.254
-660.959	104.682	-0.122	0.145
-659.945	128.368	0.094	0.122
-658.930	131.653	0.132	0.172
-657.916	-134.417	0.087	-0.011
-656.901	800.000	0.036	0.123
-655.886	150.518	0.215	-0.296
-654.872	-200.000	-0.001	-0.072
-653.857	204.458	-0.119	0.186
-652.843	47.072	-0.411	0.388
-651.828	-200.000	-0.036	0.454
-650.814	800.000	-0.053	0.183
-649.799	-34.654	0.208	0.115
-648.784	644.120	0.105	-0.271
-647.770	-200.000	0.001	-0.152
-646.755	-44.718	0.333	0.168
-645.741	800.000	-0.047	0.143
-644.726	-92.461	-0.234	0.067
-643.711	800.000	0.081	-0.274
-642.697	309.266	-0.114	0.216
-641.682	800.000	0.133	-0.419
-640.668	106.416	-0.233	-0.280
-639.653	-22.761	-0.116	0.071
-638.638	-200.000	0.005	-0.085
-637.624	-141.090	0.196	0.020
-636.609	-56.438	0.214	0.096
-635.595	144.320	0.223	-0.301
-634.580	800.000	-0.040	-0.117
-633.565	-200.000	-0.064	-0.396
-632.551	-200.000	-0.017	-0.213
-631.536	-123.979	-0.144	0.023
-630.522	-200.000	0.021	0.239
-629.507	-200.000	-0.045	-0.228
-628.492	344.327	0.084	0.167
-627.478	136.131	-0.086	-0.113
-626.463	-200.000	0.025	0.221
-625.449	123.164	-0.169	0.214
-624.434	289.074	-0.046	0.083
-623.419	-125.515	0.259	0.040
-622.405	-200.000	-0.004	0.068
-621.390	95.721	-0.227	0.263
-620.376	27.168	-0.060	-0.051
-619.361	105.543	0.189	-0.226
-618.346	-7.013	0.155	0.106
-617.332	-126.404	-0.256	0.039
-616.317	800.000	-0.047	-0.159
-615.303	-127.833	-0.209	-0.030
-614.288	101.359	0.036	0.043
-613.273	-97.496	0.259	-0.068
-612.259	165.414	-0.196	0.280
-611.244	-74.412	-0.135	0.049
-610.230	-86.395	-0.044	-0.014
-609.215	-54.758	0.221	0.101
-608.201	-200.000	-0.006	0.061
-607.186	-86.801	0.151	0.047
-606.171	223.853	-0.075	0.122
-605.157	-135.389	0.170	0.021
-604.142	-16.790	0.134	0.086
-603.128	-125.334	-0.304	0.047
-602.113	616.060	0.129	-0.328
-601.098	800.000	-0.078	-0.290
-600.084	-200.000	0.005	0.059
-599.069	-200.000	0.020	-0.091
-598.055	-57.828	0.127	-0.056
-597.040	486.978	-0.208	0.480
-596.025	124.057	-0.068	-0.086
-595.011	-200.000	0.029	-0.269
-593.996	758.416	0.135	0.368
-592.982	279.760	0.056	-0.100
-591.967	-200.000	0.054	-0.390
-590.952	800.000	-0.045	-0.148
-589.938	116.107	-0.082	-0.102
-588.923	-60.200	-0.355	-0.153
-587.909	-87.969	0.140	0.042
-586.894	800.000	0.036	0.119
-585.879	-36.141	-0.158	0.086
-584.865	24.635	-0.167	-0.139
-583.850	800.000	-0.107	-0.447
-582.836	-200.000	-0.013	0.203
-581.821	800.000	0.066	-0.270
-580.806	-200.000	-0.041	-0.189
-579.792	164.856	0.075	-0.107
-578.777	-200.000	-0.071	0.449
-577.763	-113.895	-0.282	0.055
-576.748	359.284	-0.073	0.148
-575.733	-110.351	-0.650	0.136
-574.719	-200.000	-0.022	0.174
-573.704	-124.566	0.230	-0.036
-572.690	781.559	0.094	-0.260
-571.675	386.398	0.014	-0.029
-570.661	-89.835	0.087	-0.026
-569.646	-13.343	0.466	-0.305
-568.631	716.717	0.036	-0.096
-567.617	135.235	0.156	0.204
-566.602	-200.000	-0.037	-0.272
-565.588	-72.677	-0.152	-0.056
-564.573	-185.398	-0.245	0.004
-563.558	527.099	-0.093	-0.222
-562.544	184.896	0.346	-0.518
-561.529	-16.034	-0.193	-0.124
-560.515	253.249	0.087	-0.150
-559.500	-200.000	-0.033	0.191
-558.485	-200.000	0.041	-0.217
-557.471	178.155	0.062	0.091
-556.456	19.467	-0.112	-0.091
-555.442	-146.189	-0.335	-0.030
-554.427	-200.000	0.006	0.098
-553.412	800.000	0.060	0.179
-552.398	-19.870	0.379	-0.236
-551.383	3.418	0.350	-0.257
-550.369	99.962	0.216	-0.252
-549.354	-141.959	0.366	-0.037
-548.339	800.000	-0.055	0.164
-547.325	-130.406	-0.197	0.027
-546.310	104.246	0.376	-0.446
-545.296	800.000	-0.053	0.165
-544.281	-129.336	0.173	-0.024
-543.266	-52.993	-0.190	0.088
-542.252	-8.211	-0.072	-0.049
-541.237	-68.315	-0.154	0.060
-540.223	-134.110	-0.252	-0.031
-539.208	-200.000	0.016	0.158
-538.193	-94.092	-0.042	-0.012
-537.179	800.000	-0.092	0.262
-536.164	-101.829	0.225	-0.055
-535.150	-200.000	-0.040	-0.424
-534.135	70.584	0.163	-0.170
-533.121	147.280	0.278	0.378
-532.106	-27.990	-0.158	-0.092
-531.091	14.370	-0.097	0.076
-530.077	-200.000	0.036	0.257
-529.062	800.000	0.044	-0.131
-528.048	800.000	0.004	-0.015
-527.033	18.259	-0.209	0.168
-526.018	102.682	-0.024	0.028
-525.004	-20.783	-0.294	0.181
-523.989	45.936	-0.139	-0.129
-522.975	-46.514	0.511	0.253
-521.960	-200.000	-0.014	0.188
-520.945	-86.421	0.244	0.075
-519.931	-79.717	-0.182	-0.062
-518.916	-200.000	0.018	-0.086
-517.902	-56.726	0.176	-0.078
-516.887	-34.545	-0.374	0.206
-515.872	-89.020	-0.168	0.050
-514.858	-200.000	-0.015	0.071
-513.843	-200.000	0.067	-0.306
-512.829	-167.238	-0.381	0.016
-511.814	254.135	0.091	0.156
-510.799	-200.000	-0.022	0.209
-509.785	-183.084	-0.211	-0.004
-508.770	638.784	0.046	-0.118
-507.756	-200.000	0.039	-0.247
-506.741	170.658	-0.121	-0.175
-505.726	-69.763	0.172	0.066
-504.712	-110.325	-0.238	0.050
-503.697	-94.368	-0.115	-0.032
-502.683	-166.148	-0.600	0.026
-501.668	-79.312	-0.449	0.153
-500.653	-32.487	-0.141	0.079
-499.639	-51.450	0.181	0.085
-498.624	800.000	0.040	-0.123
-497.610	28.462	0.256	0.218
-496.595	52.041	-0.224	0.215
-495.581	800.000	-0.024	0.078
-494.566	523.374	-0.080	0.190
-493.551	367.132	-0.048	0.098
-492.537	66.778	0.216	0.222
-491.522	-52.547	-0.241	0.112
-490.508	-200.000	0.009	-0.057
-489.493	84.309	0.238	0.262
-488.478	-126.322	-0.029	-0.004
-487.464	213.780	0.093	0.149
-486.449	152.309	0.328	-0.451
-485.435	121.736	-0.087	0.109
-484.420	-35.908	-0.026	0.014
-483.405	160.996	-0.056	-0.079
-482.391	76.281	-0.209	-0.223
-481.376	175.424	-0.035	0.051
-480.362	59.119	0.191	-0.190
-479.347	571.126	0.099	-0.242
-478.332	31.476	0.072	-0.062
-477.318	-200.000	-0.029	0.243
-476.303	-114.075	0.284	0.055
-475.289	-49.819	-0.382	-0.183
-474.274	179.651	-0.063	-0.093
-473.259	-200.000	-0.027	0.241
-472.245	-153.722	-0.053	0.004
-471.230	800.000	0.008	0.033
-470.216	263.487	0.098	-0.171
-469.201	-102.500	-0.149	-0.036
-468.186	230.250	0.137	0.225
-467.172	785.404	0.035	-0.095
-466.157	-115.196	0.242	0.046
-465.143	-200.000	0.010	-0.126
-464.128	-200.000	-0.028	0.182
-463.113	421.963	-0.120	0.259
-462.099	-200.000	-0.025	-0.310
-461.084	-200.000	0.015	-0.147
-460.070	-105.936	0.155	0.035
-459.055	59.414	0.156	-0.154
-458.040	-18.082	-0.224	-0.141
-457.026	-135.928	0.165	0.020
-456.011	-148.102	0.512	-0.043
-454.997	-16.192	-0.150	0.096
-453.982	257.506	-0.064	0.110
-452.968	-84.208	-0.088	-0.028
-451.953	169.461	0.123	-0.177
-450.938	703.120	-0.090	0.238
-449.924	587.902	0.078	0.194
-448.909	-200.000	-0.005	-0.042
-447.895	-18.531	0.294	-0.184
-446.880	-107.664	-0.078	0.017
-445.865	-29.758	0.097	0.055
-444.851	800.000	-0.053	-0.150
-443.836	77.374	-0.100	-0.107
-442.822	-106.001	-0.196	0.044
-441.807	-107.156	0.042	-0.009
-440.792	-121.724	-0.049	0.008
-439.778	-175.781	-0.235	0.006
-438.763	-18.414	-0.277	0.174
-437.749	63.687	0.096	0.097
-436.734	79.382	-0.118	0.127
-435.719	800.000	0.132	-0.570
-434.705	-53.296	0.209	-0.096
-433.690	40.653	0.082	0.074
-432.676	18.746	0.280	-0.225
-431.661	478.503	0.129	0.293
-430.646	-200.000	0.011	0.288
-429.632	-52.930	-0.118	-0.055
-428.617	-76.741	0.159	-0.056
-427.603	-0.599	-0.169	0.120
-426.588	-145.816	-0.017	-0.002
-425.573	-175.122	0.233	0.006
-424.559	-88.048	0.090	-0.027
-423.544	613.390	-0.036	0.089
-422.530	-200.000	0.088	0.432
-421.515	178.216	0.065	-0.095
-420.500	253.885	-0.011	-0.019
-419.486	-200.000	-0.036	-0.247
-418.471	-124.366	0.215	-0.034
-417.457	-200.000	-0.012	0.108
-416.442	-34.760	0.158	-0.087
-415.428	43.488	-0.214	0.196
-414.413	360.131	0.087	0.175
-413.398	-169.884	-0.052	0.002
-412.384	365.418	-0.114	-0.229
-411.369	800.000	0.045	-0.133
-410.355	-75.464	0.404	-0.144
-409.340	800.000	-0.031	0.092
-408.325	-142.175	-0.238	0.024
-407.311	-38.678	-0.233	0.123
-406.296	-100.176	0.154	0.038
-405.282	590.426	-0.042	-0.104
-404.267	174.796	0.176	0.256
-403.252	82.306	0.074	-0.081
-402.238	19.258	0.357	-0.287
-401.223	206.615	-0.159	0.248
-400.209	800.000	-0.017	0.071
-399.194	-200.000	-0.257	-0.000
-398.179	-104.472	-0.174	-0.040
-397.165	-200.000	-0.060	0.349
-396.150	166.430	-0.099	0.141
-395.136	23.026	-0.171	0.141
-394.121	-87.081	-0.178	-0.054
-393.106	-200.000	-0.020	-0.281
-392.092	-130.182	0.447	-0.061
-391.077	-200.000	0.035	0.157
-390.063	-50.591	-0.207	-0.098
-389.048	-129.103	0.159	-0.022
-388.033	-61.886	0.157	0.066
-387.019	121.675	0.097	-0.122
-386.004	-104.952	-0.454	0.104
-384.990	-200.000	-0.021	-0.238
-383.975	234.193	0.166	-0.274
-382.960	-169.485	-0.408	0.015
-381.946	113.152	0.191	0.232
-380.931	177.250	0.011	-0.016
-379.917	-122.915	-0.191	-0.031
-378.902	158.896	0.109	-0.152
-377.888	-30.185	-0.095	-0.054
-376.873	-190.680	0.225	-0.002
-375.858	-163.179	-0.180	-0.009
-374.844	470.630	-0.129	0.291
-373.829	523.154	0.096	0.227
-372.815	-200.000	0.008	0.109
-371.800	-68.764	-0.179	-0.069
-370.785	-200.000	-0.013	-0.085
-369.771	800.000	0.106	-0.421
-368.756	-67.073	0.260	-0.103
-367.742	-186.174	-0.371	0.005
-366.727	-127.127	0.224	-0.033
-365.712	-117.554	-0.078	0.014
-364.698	-200.000	0.028	-0.342
-363.683	27.935	0.157	-0.133
-362.669	-133.308	-0.169	-0.021
-361.654	-81.139	-0.211	0.070
-360.639	91.714	0.014	-0.016
-359.625	-24.810	0.167	-0.099
-358.610	-200.000	0.048	0.213
-357.596	150.742	-0.057	-0.078
-356.581	-123.455	0.220	0.035
-355.566	60.609	0.231	0.229
-354.552	82.594	-0.182	0.198
-353.537	-190.362	-0.238	0.003
-352.523	800.000	0.058	-0.239
-351.508	800.000	0.032	-0.098
-350.493	800.000	0.007	-0.025
-349.479	-75.102	0.294	0.105
-348.464	186.487	-0.182	-0.271
-347.450	5.813	-0.233	0.173
-346.435	-200.000	0.010	0.339
-345.420	-68.591	0.040	0.016
-344.406	-93.046	-0.100	0.028
-343.391	-200.000	-0.052	-0.278
-342.377	-53.517	-0.231	0.106
-341.362	-92.510	-0.470	-0.132
-340.348	6.147	-0.236	-0.175
-339.333	-21.518	0.170	0.103
-338.318	-177.054	-0.282	0.007
-337.304	73.296	0.125	0.131
-336.289	-100.587	-0.036	-0.009
-335.275	16.135	0.045	0.036
-334.260	98.267	0.218	0.251
-333.245	-58.167	-0.126	0.055
-332.231	348.973	0.077	0.152
-331.216	-200.000	-0.041	0.185
-330.202	-122.156	0.313	0.051
-329.187	461.154	-0.077	-0.172
-328.172	178.136	-0.091	-0.133
-327.158	-200.000	0.018	0.187
-326.143	-90.732	0.126	0.036
-325.129	420.527	0.038	0.082
-324.114	412.836	-0.023	0.048
-323.099	74.033	-0.226	0.237
-322.085	-142.615	0.165	0.016
-321.070	-105.934	-0.459	-0.103
-320.056	-200.000	0.005	-0.032
-319.041	-200.000	0.008	-0.118
-318.026	-147.132	-0.093	-0.008
-317.012	284.655	-0.066	-0.118
-315.997	-200.000	0.000	-0.113
-314.983	16.441	0.079	0.063
-313.968	-44.685	0.277	-0.138
-312.953	207.511	-0.068	-0.107
-311.939	562.996	-0.024	-0.057
-310.924	800.000	0.073	0.239
-309.910	134.528	-0.129	0.167
-308.895	74.983	-0.182	-0.192
-307.880	-130.573	-0.127	-0.017
-306.866	-161.198	0.164	-0.009
-305.851	-166.852	0.270	0.011
-304.837	181.830	-0.120	-0.176
-303.822	24.680	0.213	0.176
-302.807	-121.538	0.090	0.015
-301.793	-200.000	-0.031	-0.371
-300.778	107.231	-0.063	-0.075
-299.764	27.312	0.215	-0.180
-298.749	-36.543	0.215	-0.115
-297.735	-109.914	-0.145	0.030
-296.720	-95.037	-0.078	0.021
-295.705	-79.581	0.257	-0.087
-294.691	-70.280	-0.199	-0.076
-293.676	450.443	0.174	0.383
-292.662	580.021	0.042	0.103
-291.647	-200.000	0.013	-0.298
-290.632	248.117	-0.226	-0.381
-289.618	800.000	-0.069	-0.279
-288.603	538.123	0.071	-0.169
-287.589	-200.000	-0.040	0.327
-286.574	-200.000	0.027	0.137
-285.559	17.808	-0.152	0.121
-284.545	143.771	0.074	-0.099
-283.530	-200.000	-0.024	-0.152
-282.516	-95.211	0.306	0.082
-281.501	-61.373	-0.191	0.080
-280.486	-200.000	0.009	0.290
-279.472	189.077	0.099	-0.147
-278.457	56.447	0.210	-0.204
-277.443	82.203	-0.106	0.115
-276.428	-116.267	-0.023	-0.004
-275.413	110.177	-0.150	-0.180
-274.399	-200.000	0.031	0.325
-273.384	-200.000	0.041	0.455
-272.370	-52.008	0.186	0.086
-271.355	-0.490	-0.199	0.141
-270.340	137.479	0.114	0.149
-269.326	221.403	0.096	-0.154
-268.311	163.409	-0.211	0.296
-267.297	-200.000	0.014	-0.129
-266.282	236.461	-0.054	0.090
-265.267	4.659	-0.171	0.126
-264.253	40.282	-0.077	-0.069
-263.238	-200.000	0.011	0.278
-262.224	-145.931	0.065	0.006
-261.209	23.125	-0.167	0.137
-260.195	-200.000	-0.041	0.270
-259.180	800.000	-0.110	0.327
-258.165	-157.348	0.139	-0.008
-257.151	-200.000	-0.009	-0.077
-256.136	103.311	-0.038	0.044
-255.122	10.833	0.219	-0.167
-254.107	24.146	-0.148	0.122
-253.092	-200.000	-0.044	-0.356
-252.078	-136.672	0.227	0.026
-251.063	619.034	0.072	0.181
-250.049	-48.004	-0.114	0.055
-249.034	-46.777	0.206	-0.100
-248.019	800.000	0.055	0.203
-247.005	-77.346	0.161	-0.056
-245.990	103.333	0.050	-0.058
-244.976	-81.169	0.399	0.131
-243.961	-169.916	-0.090	0.003
-242.946	-71.351	-0.327	0.122
-241.932	-200.000	0.018	-0.170
-240.917	-86.259	-0.485	-0.149
-239.903	34.599	-0.051	0.044
-238.888	-104.092	-0.377	-0.088
-237.873	-15.409	0.296	0.188
-236.859	-200.000	-0.011	-0.065
-235.844	-23.468	0.037	-0.022
-234.830	-200.000	-0.031	0.246
-233.815	403.934	0.074	0.155
-232.800	800.000	-0.037	0.155
-231.786	-68.922	-0.240	0.092
-230.771	58.377	0.226	-0.221
-229.757	-93.680	-0.134	0.037
-228.742	800.000	0.108	-0.314
-227.727	76.698	0.105	-0.111
-226.713	468.710	-0.148	-0.330
-225.698	474.443	0.063	-0.141
-224.684	462.090	-0.137	0.304
-223.669	800.000	-0.061	0.215
-222.655	-1.970	0.211	0.148
-221.640	146.122	-0.095	0.127
-220.625	-90.274	0.292	0.084
-219.611	-131.255	0.228	-0.030
-218.596	-91.278	0.073	-0.021
-217.582	800.000	0.063	0.174
-216.567	314.753	0.165	-0.309
-215.552	520.387	-0.099	-0.231
-214.538	119.806	0.145	0.179
-213.523	-200.000	0.019	0.116
-212.509	-64.899	-0.069	0.028
-211.494	86.947	-0.209	0.229
-210.479	-78.374	0.105	0.036
-209.465	-156.644	-0.141	-0.009
-208.450	211.768	-0.195	-0.305
-207.436	-53.112	0.352	-0.161
-206.421	-200.000	0.037	0.198
-205.406	-200.000	-0.003	0.224
-204.392	114.282	-0.115	-0.139
-203.377	-200.000	0.049	-0.350
-202.363	407.862	0.115	-0.243
-201.348	-200.000	0.033	-0.158
-200.333	-200.000	-0.041	-0.262
-199.319	-69.803	0.085	0.032
-198.304	120.456	-0.032	0.040
-197.290	-175.029	-0.169	0.005
-196.275	-61.192	0.223	0.094
-195.260	-200.000	-0.007	-0.237
-194.246	-200.000	0.052	0.310
-193.231	681.524	0.091	0.237
-192.217	-47.183	0.204	-0.099
-191.202	-200.000	-0.012	0.169
-190.187	-57.137	-0.176	0.077
-189.173	33.113	-0.151	-0.130
-188.158	480.453	0.074	0.168
-187.144	-99.597	0.266	-0.066
-186.129	8.145	0.313	-0.234
-185.114	-200.000	-0.002	-0.278
-184.100	-200.000	0.003	-0.078
-183.085	-27.828	0.135	0.078
-182.071	61.942	-0.238	-0.236
-181.056	293.488	-0.177	0.322
-180.042	214.429	-0.087	-0.136
-179.027	800.000	-0.154	0.457
-178.012	649.058	0.111	-0.282
-176.998	-200.000	0.031	-0.262
-175.983	-171.485	0.308	0.010
-174.969	171.477	0.079	0.113
-173.954	85.761	0.287	0.313
-172.939	-138.270	0.196	-0.022
-171.925	436.536	0.069	0.149
-170.910	50.100	0.117	0.110
-169.896	-27.768	-0.263	-0.151
-168.881	-98.896	-0.116	0.029
-167.866	-31.917	-0.204	0.113
-166.852	-200.000	0.027	0.306
-165.837	38.661	-0.091	-0.081
-164.823	-200.000	0.012	-0.153
-163.808	-200.000	0.021	0.242
-162.793	800.000	-0.106	0.439
-161.779	-48.241	0.106	-0.051
-160.764	75.502	-0.127	-0.133
-159.750	800.000	-0.011	0.033
-158.735	-106.846	0.121	0.027
-157.720	-173.898	-0.234	-0.007
-156.706	310.746	0.098	-0.183
-155.691	-17.198	-0.282	-0.177
-154.677	-112.679	0.275	0.054
-153.662	465.401	0.090	0.200
-152.647	-35.569	-0.180	0.097
-151.633	-113.558	0.156	0.030
-150.618	19.039	0.036	-0.028
-149.604	42.059	-0.134	0.121
-148.589	-200.000	-0.027	0.172
-147.574	425.188	-0.168	0.359
-146.560	85.589	0.116	0.127
-145.545	122.700	0.115	-0.142
-144.531	184.681	-0.212	-0.312
-143.516	59.404	0.252	-0.247
-142.502	542.030	0.112	-0.266
-141.487	34.580	-0.315	0.273
-140.472	382.675	0.086	0.176
-139.458	-61.411	-0.133	-0.056
-138.443	-200.000	-0.003	-0.160
-137.429	660.496	0.205	-0.523
-136.414	190.801	0.049	0.072
-135.399	-45.437	-0.393	-0.193
-134.385	-200.000	-0.062	-0.321
-133.370	-4.214	0.218	0.150
-132.356	-107.657	-0.156	0.034
-131.341	-114.531	-0.177	0.034
-130.326	167.751	-0.110	0.156
-129.312	-120.723	0.085	-0.014
-128.297	-137.829	0.116	0.013
-127.283	-19.837	0.076	0.046
-126.268	-153.131	0.082	0.006
-125.253	70.048	0.410	-0.420
-124.239	422.757	0.069	-0.147
-123.224	292.892	0.201	-0.364
-122.210	-99.546	0.319	-0.080
