DTS Sentinel unit serial number:	SN413079Multiplexer serial number:	ORYXHardware model number:	OX4-SRSoftware version number:	ORYX F/W v4.00 Oryx Data Collector v3.7.2.0data status	okinstallation	princeton_trtdifferential loss correction	single-endedforward channel	channel 3reverse channel	N/Adate	2019/09/19time	11:36:35forward acquisition time	60.00reverse acquisition time	0.00gamma	496.2192k internal	0.2342k external	0.2342temperature offset calibration	0.9988default loss term (dB/km)	0.3790temperature slope calibration	1.0000multiplexer offset coefficient	1.0000multiplexer slope coefficient	1.0000fibre end	0.00T internal ref (°C)	25.52T ext. ref 1 (°C)	0.80T ext. ref 2 (°C)	21.31length (m)	temperature (°C)	Stokes	anti-Stokes-747.200	-75.802	-0.269	0.096
-746.185	-200.000	0.051	0.273
-745.171	-0.094	-0.146	-0.104
-744.156	-54.202	-0.396	0.180
-743.142	-200.000	-0.002	-0.151
-742.127	-114.118	-0.323	0.063
-741.112	-189.915	0.224	0.003
-740.098	-200.000	0.010	0.302
-739.083	32.714	0.137	0.119
-738.069	35.126	-0.086	-0.076
-737.054	-77.932	0.094	0.032
-736.039	214.905	0.115	0.182
-735.025	103.054	0.199	-0.234
-734.010	794.023	0.027	-0.074
-732.996	-200.000	0.094	-0.699
-731.981	-83.469	-0.248	-0.079
-730.966	86.161	-0.345	0.381
-729.952	311.786	-0.168	-0.315
-728.937	-15.454	-0.152	-0.097
-727.923	-48.715	0.239	-0.115
-726.908	90.431	-0.180	-0.201
-725.894	-124.517	-0.308	0.048
-724.879	-71.810	0.256	0.096
-723.864	-144.471	-0.436	0.040
-722.850	-70.660	0.394	-0.149
-721.835	12.630	0.053	0.041
-720.821	-200.000	-0.049	-0.311
-719.806	32.138	0.158	0.137
-718.791	183.734	-0.128	-0.189
-717.777	-45.727	0.176	0.087
-716.762	-200.000	0.003	-0.027
-715.748	800.000	-0.069	-0.293
-714.733	-18.089	0.261	-0.164
-713.718	-58.210	0.056	-0.025
-712.704	800.000	0.056	-0.174
-711.689	44.091	-0.293	-0.269
-710.675	-72.946	0.141	0.052
-709.660	-200.000	0.025	0.268
-708.645	142.375	0.053	-0.071
-707.631	-43.714	0.112	-0.057
-706.616	800.000	0.039	-0.164
-705.602	46.856	-0.152	0.141
-704.587	80.096	-0.025	-0.027
-703.572	-47.698	0.102	0.049
-702.558	199.262	0.131	-0.201
-701.543	-176.574	0.181	-0.005
-700.529	-200.000	0.025	-0.483
-699.514	31.263	-0.062	-0.053
-698.499	7.040	0.289	-0.215
-697.485	41.341	-0.062	-0.056
-696.470	163.738	0.047	0.067
-695.456	-200.000	-0.023	0.140
-694.441	151.933	-0.067	0.091
-693.426	34.557	-0.169	-0.147
-692.412	10.506	0.088	0.067
-691.397	-100.374	0.138	-0.034
-690.383	-77.581	-0.058	0.020
-689.368	7.275	-0.189	-0.141
-688.354	-200.000	-0.019	0.125
-687.339	-200.000	0.015	0.212
-686.324	800.000	0.040	-0.130
-685.310	383.547	0.136	0.279
-684.295	-37.714	0.143	0.076
-683.281	-121.513	0.083	0.014
-682.266	193.853	-0.251	0.380
-681.251	145.438	-0.039	0.052
-680.237	-81.729	-0.134	-0.044
-679.222	38.471	-0.172	0.154
-678.208	-200.000	-0.129	-0.000
-677.193	191.077	0.201	0.302
-676.178	-200.000	0.015	0.165
-675.164	277.894	0.025	-0.045
-674.149	385.160	-0.160	-0.330
-673.135	800.000	-0.027	0.116
-672.120	54.071	-0.079	0.076
-671.105	-126.231	-0.099	0.015
-670.091	154.319	0.137	-0.187
-669.076	-128.389	-0.149	-0.021
-668.062	-124.497	0.116	0.018
-667.047	-200.000	0.038	-0.208
-666.032	40.364	0.157	-0.141
-665.018	-200.000	-0.015	-0.124
-664.003	62.353	0.272	-0.272
-662.989	-171.948	0.052	-0.002
-661.974	-24.740	-0.122	-0.072
-660.959	-139.100	-0.334	0.036
-659.945	199.594	-0.134	-0.205
-658.930	20.227	-0.158	-0.128
-657.916	-136.645	0.105	0.012
-656.901	-131.950	-0.301	0.039
-655.886	-165.013	-0.113	-0.005
-654.872	433.108	-0.104	-0.226
-653.857	137.651	0.313	-0.409
-652.843	-200.000	0.016	-0.082
-651.828	-110.310	0.063	-0.013
-650.814	-17.855	0.178	0.111
-649.799	45.149	0.152	0.140
-648.784	12.956	-0.107	-0.082
-647.770	-200.000	-0.002	-0.111
-646.755	-200.000	0.022	-0.147
-645.741	-140.276	0.162	0.017
-644.726	-98.558	0.178	0.045
-643.711	79.847	-0.136	-0.145
-642.697	800.000	0.154	0.500
-641.682	26.421	-0.098	-0.082
-640.668	800.000	-0.051	-0.184
-639.653	167.097	-0.192	-0.272
-638.638	-71.522	0.118	0.044
-637.624	-200.000	0.011	0.070
-636.609	-29.609	0.256	0.146
-635.595	58.109	-0.241	0.236
-634.580	800.000	0.080	0.326
-633.565	-69.771	0.307	-0.117
-632.551	-200.000	0.014	-0.076
-631.536	569.263	0.026	0.063
-630.522	186.633	-0.155	-0.230
-629.507	-63.777	0.067	-0.028
-628.492	507.858	-0.073	-0.169
-627.478	-200.000	-0.058	0.333
-626.463	-45.358	-0.061	0.030
-625.449	800.000	0.078	-0.334
-624.434	193.742	-0.336	-0.507
-623.419	166.039	0.229	-0.323
-622.405	135.458	0.093	-0.120
-621.390	-34.978	0.173	-0.094
-620.376	-1.230	0.147	0.104
-619.361	599.244	0.091	0.225
-618.346	522.798	0.057	0.134
-617.332	-200.000	0.027	-0.171
-616.317	101.630	0.229	0.266
-615.303	800.000	-0.246	-0.705
-614.288	-105.618	0.166	0.038
-613.273	800.000	0.083	-0.237
-612.259	-107.042	0.454	-0.100
-611.244	800.000	0.054	-0.186
-610.230	-27.458	-0.333	-0.193
-609.215	178.603	0.203	-0.295
-608.201	-35.549	0.026	0.014
-607.186	800.000	-0.018	0.069
-606.171	308.151	0.080	-0.149
-605.157	-200.000	-0.027	0.269
-604.142	-200.000	0.016	0.138
-603.128	-200.000	-0.032	0.155
-602.113	-200.000	-0.006	-0.053
-601.098	-200.000	-0.031	0.258
-600.084	-126.392	-0.244	-0.036
-599.069	-200.000	-0.053	0.244
-598.055	-166.173	0.051	-0.002
-597.040	462.151	0.042	-0.094
-596.025	101.615	-0.103	-0.120
-595.011	25.168	0.275	-0.228
-593.996	-168.093	0.190	0.007
-592.982	146.464	0.230	0.308
-591.967	2.974	-0.182	0.131
-590.952	-1.781	-0.080	0.056
-589.938	228.715	-0.176	-0.286
-588.923	-62.416	0.325	-0.135
-587.909	36.046	0.073	-0.064
-586.894	151.045	0.169	-0.229
-585.879	-41.110	0.182	0.094
-584.865	-126.933	-0.177	0.026
-583.850	-200.000	0.033	-0.208
-582.836	800.000	-0.086	-0.247
-581.821	800.000	0.079	-0.336
-580.806	23.847	0.168	0.138
-579.792	-200.000	0.013	0.269
-578.777	-196.716	-0.223	-0.001
-577.763	-119.075	0.165	0.029
-576.748	-200.000	0.038	-0.179
-575.733	139.005	-0.210	0.275
-574.719	-200.000	-0.017	-0.482
-573.704	44.384	0.169	0.154
-572.690	110.893	-0.070	0.084
-571.675	110.248	-0.160	0.192
-570.661	-128.022	-0.284	0.040
-569.646	-109.176	0.164	-0.035
-568.631	-65.174	-0.179	-0.072
-567.617	241.394	0.181	0.302
-566.602	241.282	-0.140	0.233
-565.588	-29.014	0.133	0.076
-564.573	56.247	0.062	0.060
-563.558	-45.182	-0.123	0.061
-562.544	-34.629	0.291	0.158
-561.529	-83.305	-0.172	0.055
-560.515	-200.000	0.063	-0.367
-559.500	28.626	0.195	0.164
-558.485	87.287	-0.215	0.237
-557.471	-200.000	0.037	-0.208
-556.456	35.395	0.150	-0.131
-555.442	-51.295	-0.295	-0.138
-554.427	17.505	-0.141	-0.111
-553.412	-49.076	0.368	-0.175
-552.398	800.000	0.015	-0.046
-551.383	-35.553	0.367	0.198
-550.369	173.969	-0.077	0.111
-549.354	85.909	0.210	-0.230
-548.339	800.000	0.107	0.375
-547.325	-60.382	0.228	-0.096
-546.310	60.817	-0.124	0.122
-545.296	-44.892	0.410	0.203
-544.281	-45.958	-0.262	-0.128
-543.266	-30.285	-0.102	-0.057
-542.252	44.843	-0.045	-0.041
-541.237	-108.370	0.283	0.061
-540.223	-150.889	0.262	0.020
-539.208	-28.532	-0.156	-0.089
-538.193	-28.720	0.052	0.030
-537.179	32.578	-0.269	0.231
-536.164	-200.000	-0.026	-0.161
-535.150	12.475	-0.162	-0.124
-534.135	49.088	0.141	0.131
-533.121	91.485	0.351	-0.392
-532.106	2.807	-0.227	-0.164
-531.091	204.538	-0.043	0.067
-530.077	-83.669	0.251	-0.080
-529.062	-200.000	-0.007	-0.090
-528.048	-74.413	-0.321	0.115
-527.033	37.977	0.162	-0.143
-526.018	-157.631	-0.330	-0.020
-525.004	44.983	-0.054	-0.049
-523.989	-200.000	-0.048	-0.231
-522.975	-200.000	-0.045	0.259
-521.960	51.651	-0.083	-0.078
-520.945	23.474	-0.118	-0.097
-519.931	-109.390	0.436	0.092
-518.916	800.000	-0.032	-0.118
-517.902	24.763	-0.093	-0.076
-516.887	-200.000	-0.018	0.347
-515.872	-2.843	-0.277	-0.192
-514.858	-141.900	-0.274	-0.027
-513.843	-200.000	0.012	-0.283
-512.829	-129.222	-0.199	-0.027
-511.814	-104.105	-0.270	-0.062
-510.799	18.717	-0.103	-0.081
-509.785	30.175	-0.137	-0.116
-508.770	-114.365	0.155	-0.030
-507.756	-41.460	0.205	0.105
-506.741	-200.000	-0.081	-0.391
-505.726	299.655	0.166	0.303
-504.712	-63.689	-0.222	0.090
-503.697	-200.000	0.040	0.203
-502.683	-65.537	0.189	-0.075
-501.668	-200.000	-0.017	-0.174
-500.653	-111.286	0.221	0.045
-499.639	-200.000	-0.018	0.418
-498.624	35.790	0.112	-0.097
-497.610	702.793	-0.095	0.247
-496.595	-200.000	0.008	0.206
-495.581	-9.970	-0.105	0.069
-494.566	-101.035	-0.189	0.046
-493.551	563.594	0.085	0.205
-492.537	25.512	-0.280	-0.231
-491.522	-72.066	-0.267	-0.098
-490.508	67.318	0.099	0.100
-489.493	-79.227	-0.030	-0.010
-488.478	439.142	-0.124	-0.269
-487.464	340.306	0.079	-0.153
-486.449	191.196	0.178	0.266
-485.435	-40.859	0.146	0.075
-484.420	-200.000	0.037	-0.329
-483.405	-57.536	-0.150	-0.065
-482.391	-26.372	0.116	-0.068
-481.376	800.000	-0.117	-0.337
-480.362	4.576	-0.023	-0.017
-479.347	267.896	-0.159	0.275
-478.332	-114.334	0.202	-0.039
-477.318	65.028	0.186	0.186
-476.303	-63.169	-0.217	0.089
-475.289	-200.000	-0.017	0.210
-474.274	67.742	0.146	0.148
-473.259	156.715	0.165	-0.226
-472.245	-200.000	-0.017	-0.107
-471.230	250.041	0.163	0.273
-470.216	-93.358	0.376	0.103
-469.201	-173.508	-0.065	0.002
-468.186	-57.054	0.081	-0.035
-467.172	-200.000	0.016	0.163
-466.157	316.431	0.096	0.181
-465.143	800.000	0.070	-0.290
-464.128	245.288	0.110	-0.184
-463.113	241.875	0.103	-0.171
-462.099	-78.120	0.258	-0.088
-461.084	-3.424	-0.076	0.052
-460.070	-200.000	-0.044	-0.233
-459.055	-200.000	0.013	0.176
-458.040	-8.327	0.151	0.101
-457.026	-146.069	0.356	0.031
-456.011	6.378	0.021	0.016
-454.997	-200.000	-0.048	0.421
-453.982	445.745	0.111	0.242
-452.968	-130.977	-0.079	-0.011
-451.953	147.788	0.136	-0.182
-450.938	-148.440	-0.108	-0.009
-449.924	-45.492	0.171	0.084
-448.909	-200.000	0.012	-0.320
-447.895	79.738	-0.068	0.072
-446.880	800.000	0.067	0.228
-445.865	-200.000	-0.027	0.273
-444.851	-84.327	-0.213	-0.067
-443.836	439.926	-0.158	0.341
-442.822	226.445	0.144	0.232
-441.807	58.442	-0.134	0.131
-440.792	-200.000	-0.014	-0.147
-439.778	-137.420	0.113	0.013
-438.763	70.881	-0.165	0.169
-437.749	40.092	0.008	-0.007
-436.734	-200.000	-0.001	-0.023
-435.719	-200.000	-0.036	-0.189
-434.705	-80.287	-0.192	-0.064
-433.690	-78.011	-0.200	0.068
-432.676	-73.829	-0.264	-0.095
-431.661	-116.823	-0.197	-0.036
-430.646	-200.000	-0.023	-0.267
-429.632	-15.573	0.240	0.152
-428.617	159.655	-0.251	0.346
-427.603	-200.000	0.053	0.260
-426.588	-46.077	0.127	-0.062
-425.573	-86.078	-0.262	-0.080
-424.559	231.081	0.123	-0.199
-423.544	341.374	0.046	-0.089
-422.530	698.943	-0.043	-0.112
-421.515	-86.558	-0.204	-0.062
-420.500	63.557	0.067	-0.066
-419.486	77.747	0.341	-0.359
-418.471	0.315	-0.125	0.088
-417.457	-200.000	-0.024	0.185
-416.442	312.770	-0.175	0.326
-415.428	-200.000	-0.062	-0.548
-414.413	172.537	-0.302	-0.430
-413.398	286.080	-0.075	0.133
-412.384	-37.783	-0.142	0.075
-411.369	-62.717	-0.325	0.133
-410.355	141.382	-0.106	0.139
-409.340	755.873	-0.073	-0.195
-408.325	494.093	-0.055	-0.125
-407.311	79.545	-0.166	0.176
-406.296	600.348	0.081	-0.200
-405.282	343.266	0.036	0.071
-404.267	262.501	-0.107	0.184
-403.252	800.000	-0.030	0.113
-402.238	69.118	-0.056	0.057
-401.223	53.805	-0.197	0.187
-400.209	-111.508	0.251	0.050
-399.194	303.674	-0.233	-0.427
-398.179	177.745	-0.112	0.162
-397.165	-200.000	-0.033	0.357
-396.150	-38.933	-0.184	-0.096
-395.136	170.081	0.214	0.303
-394.121	338.439	-0.091	0.175
-393.106	-132.684	-0.261	-0.033
-392.092	-25.753	0.312	-0.182
-391.077	-200.000	-0.056	0.243
-390.063	-200.000	-0.014	0.322
-389.048	352.875	0.182	0.357
-388.033	-67.058	-0.070	0.027
-387.019	-76.853	0.186	0.064
-386.004	800.000	0.027	0.085
-384.990	-17.905	-0.027	-0.017
-383.975	-200.000	0.048	0.367
-382.960	78.686	-0.018	-0.019
-381.946	305.310	0.093	0.171
-380.931	-91.386	0.099	0.028
-379.917	46.522	0.233	-0.214
-378.902	-26.863	-0.206	0.119
-377.888	-83.282	-0.195	-0.062
-376.873	-20.771	0.400	0.242
-375.858	355.171	0.076	-0.149
-374.844	800.000	0.028	0.099
-373.829	85.160	-0.080	-0.087
-372.815	-200.000	-0.043	-0.385
-371.800	129.163	0.233	0.294
-370.785	-146.841	-0.151	-0.013
-369.771	77.820	0.056	-0.059
-368.756	39.862	0.273	0.242
-367.742	-142.174	-0.242	-0.024
-366.727	-126.490	0.090	0.013
-365.712	-145.827	0.243	0.021
-364.698	165.203	-0.193	0.270
-363.683	717.395	0.101	-0.266
-362.669	-57.417	-0.194	-0.084
-361.654	-200.000	0.044	-0.210
-360.639	178.043	-0.083	-0.120
-359.625	-200.000	-0.029	0.372
-358.610	-200.000	0.004	-0.230
-357.596	800.000	-0.074	-0.206
-356.581	796.450	-0.010	-0.027
-355.566	-169.513	0.140	-0.005
-354.552	800.000	-0.034	-0.100
-353.537	207.897	-0.184	-0.284
-352.523	-65.213	-0.110	0.044
-351.508	70.796	0.241	0.247
-350.493	625.183	0.098	0.243
-349.479	-200.000	0.080	0.379
-348.464	-200.000	-0.004	-0.361
-347.450	-133.292	-0.260	0.032
-346.435	-200.000	0.012	-0.174
-345.420	800.000	0.039	0.117
-344.406	-200.000	0.020	0.210
-343.391	98.071	0.238	0.270
-342.377	-25.187	0.194	0.114
-341.362	-200.000	0.041	-0.225
-340.348	-200.000	0.028	-0.177
-339.333	-103.906	0.215	-0.050
-338.318	93.859	-0.144	0.161
-337.304	-182.139	-0.081	0.001
-336.289	-106.763	-0.197	-0.043
-335.275	331.896	-0.079	0.150
-334.260	-96.049	-0.118	0.031
-333.245	225.273	-0.196	-0.314
-332.231	71.388	-0.051	-0.052
-331.216	334.912	0.284	0.542
-330.202	477.009	-0.088	-0.197
-329.187	574.083	-0.131	0.315
-328.172	-200.000	-0.021	0.162
-327.158	70.625	0.209	-0.213
-326.143	-124.191	-0.304	-0.047
-325.129	14.795	0.245	0.188
-324.114	-105.010	0.066	0.015
-323.099	-105.953	-0.091	0.020
-322.085	-22.389	0.300	-0.179
-321.070	-4.792	-0.289	0.197
-320.056	-114.437	-0.175	-0.033
-319.041	114.405	0.233	-0.280
-318.026	336.051	0.048	-0.092
-317.012	-73.998	-0.175	-0.062
-315.997	5.830	0.065	-0.048
-314.983	-153.201	-0.226	0.016
-313.968	-89.474	-0.178	-0.052
-312.953	-200.000	-0.024	-0.173
-311.939	800.000	-0.087	-0.334
-310.924	16.629	0.337	-0.262
-309.910	-200.000	-0.035	-0.177
-308.895	800.000	0.096	-0.407
-307.880	142.182	0.102	-0.133
-306.866	-105.488	-0.316	-0.071
-305.851	353.641	0.088	-0.173
-304.837	-101.076	-0.133	-0.032
-303.822	-24.773	0.176	0.103
-302.807	0.658	0.252	0.178
-301.793	88.645	0.266	0.291
-300.778	-200.000	0.026	-0.164
-299.764	-200.000	0.019	0.112
-298.749	47.049	-0.148	-0.136
-297.735	260.761	0.126	0.215
-296.720	-200.000	-0.041	0.380
-295.705	800.000	-0.077	0.326
-294.691	-144.483	0.473	0.043
-293.676	323.755	0.079	-0.148
-292.662	591.528	0.067	0.163
-291.647	-188.447	-0.101	-0.001
-290.632	31.376	-0.112	0.095
-289.618	-130.817	-0.357	0.047
-288.603	128.379	0.137	0.172
-287.589	-94.165	-0.405	0.109
-286.574	-36.184	-0.186	0.099
-285.559	-200.000	-0.022	-0.192
-284.545	109.738	0.163	-0.192
-283.530	-10.274	-0.096	-0.062
-282.516	-16.757	-0.428	-0.266
-281.501	800.000	0.007	-0.023
-280.486	-18.176	-0.094	0.058
-279.472	572.834	-0.162	-0.389
-278.457	-69.957	0.222	0.083
-277.443	-96.795	-0.161	-0.042
-276.428	120.230	-0.169	0.206
-275.413	345.890	0.066	0.127
-274.399	-187.313	0.155	-0.002
-273.384	-114.078	-0.305	0.058
-272.370	461.823	-0.155	-0.339
-271.355	-58.982	-0.165	0.070
-270.340	14.131	0.238	0.182
-269.326	-16.031	0.023	-0.014
-268.311	497.922	0.017	0.038
-267.297	65.871	0.196	0.195
-266.282	401.867	-0.066	0.136
-265.267	800.000	-0.068	0.283
-264.253	-71.855	0.088	-0.032
-263.238	-0.682	0.053	0.037
-262.224	-136.852	-0.110	0.012
-261.209	272.655	-0.058	0.102
-260.195	539.256	-0.133	-0.311
-259.180	-90.438	-0.136	-0.039
-258.165	156.891	0.059	-0.081
-257.151	-35.566	-0.236	-0.126
-256.136	-19.770	-0.267	-0.162
-255.122	106.346	-0.149	-0.174
-254.107	-46.711	0.108	-0.052
-253.092	135.656	-0.126	-0.161
-252.078	450.226	-0.085	-0.185
-251.063	-64.737	-0.113	0.045
-250.049	-200.000	0.272	0.001
-249.034	106.484	0.071	0.083
-248.019	-150.121	0.194	-0.015
-247.005	-98.240	0.211	-0.053
-245.990	25.469	-0.109	-0.089
-244.976	-110.937	0.324	0.065
-243.961	-141.496	0.382	0.038
-242.946	-32.561	0.126	0.069
-241.932	-85.898	-0.191	0.058
-240.917	800.000	-0.061	0.201
-239.903	-10.258	-0.239	0.156
-238.888	-200.000	-0.004	-0.024
-237.873	40.318	0.272	0.240
-236.859	141.809	0.142	-0.185
-235.844	-142.248	0.151	-0.015
-234.830	-200.000	-0.050	0.282
-233.815	-200.000	-0.074	0.352
-232.800	-200.000	0.009	-0.090
-231.786	4.834	-0.226	-0.163
-230.771	-188.450	-0.104	0.001
-229.757	119.730	-0.145	0.177
-228.742	96.654	0.200	-0.225
-227.727	-200.000	-0.025	0.109
-226.713	33.179	-0.216	-0.184
-225.698	-200.000	0.004	-0.038
-224.684	-142.709	-0.134	0.013
-223.669	-30.549	-0.048	0.027
-222.655	133.647	-0.057	0.073
-221.640	-72.989	-0.149	-0.054
-220.625	17.416	-0.159	0.124
-219.611	246.939	0.096	-0.159
-218.596	144.619	-0.242	0.317
-217.582	27.007	0.228	-0.188
-216.567	133.397	0.074	0.094
-215.552	-40.819	0.231	0.117
-214.538	157.559	-0.127	0.172
-213.523	189.998	-0.176	0.259
-212.509	210.039	0.015	-0.024
-211.494	-200.000	-0.004	-0.250
-210.479	-61.688	0.072	0.030
-209.465	-72.613	-0.322	-0.117
-208.450	17.421	0.211	0.164
-207.436	-200.000	-0.002	0.224
-206.421	-163.575	-0.330	-0.015
-205.406	800.000	-0.056	0.196
-204.392	182.861	0.092	-0.133
-203.377	-111.184	-0.170	0.034
-202.363	-75.847	0.317	0.110
-201.348	-24.900	0.105	0.061
-200.333	-99.277	-0.142	0.035
-199.319	221.585	0.294	-0.464
-198.304	-11.955	-0.011	0.007
-197.290	415.896	0.016	0.034
-196.275	800.000	0.063	-0.181
-195.260	-68.625	0.327	-0.124
-194.246	800.000	0.034	0.111
-193.231	113.148	-0.349	-0.415
-192.217	-200.000	0.006	0.241
-191.202	142.863	-0.094	0.123
-190.187	119.704	-0.224	-0.272
-189.173	-120.149	0.179	-0.030
-188.158	-197.978	0.091	0.001
-187.144	800.000	-0.084	0.309
-186.129	-59.544	-0.222	0.094
-185.114	-200.000	-0.019	0.097
-184.100	474.721	-0.040	-0.087
-183.085	-31.209	-0.040	0.022
-182.071	-4.978	-0.150	-0.101
-181.056	-55.541	0.101	0.044
-180.042	601.752	-0.066	-0.161
-179.027	89.923	-0.210	-0.230
-178.012	-122.662	0.311	0.049
-176.998	800.000	0.022	-0.085
-175.983	-60.280	0.146	-0.061
-174.969	-60.679	-0.057	0.024
-173.954	-137.091	0.262	0.029
-172.939	-31.006	0.224	0.124
-171.925	-13.904	-0.085	-0.054
-170.910	-127.877	0.214	-0.030
-169.896	359.846	-0.035	0.068
-168.881	-200.000	0.172	-0.000
-167.866	-24.346	-0.244	0.142
-166.852	396.309	0.068	0.140
-165.837	800.000	0.107	-0.335
-164.823	147.828	0.186	-0.246
-163.808	800.000	-0.084	-0.258
-162.793	56.938	-0.282	0.269
-161.779	373.958	0.098	0.195
-160.764	64.103	-0.171	-0.168
-159.750	395.018	0.097	-0.198
-158.735	-109.120	0.280	-0.058
-157.720	-113.764	0.046	-0.009
-156.706	-56.254	0.007	0.003
-155.691	-0.197	-0.179	-0.125
-154.677	84.737	-0.243	0.260
-153.662	-200.000	-0.008	0.061
-152.647	-59.248	0.091	0.038
-151.633	-200.000	-0.020	-0.199
-150.618	-87.134	0.235	0.070
-149.604	-56.364	-0.353	-0.154
-148.589	161.397	-0.051	0.069
-147.574	-73.713	-0.101	-0.036
-146.560	371.069	-0.047	0.094
-145.545	51.564	0.204	0.190
-144.531	800.000	-0.095	0.268
-143.516	-198.935	0.150	-0.001
-142.502	23.419	-0.089	0.071
-141.487	-200.000	-0.005	0.281
-140.472	-161.264	-0.283	0.014
-139.458	-200.000	0.040	-0.382
-138.443	204.483	-0.092	-0.140
-137.429	646.337	0.071	-0.177
-136.414	82.097	0.159	0.169
-135.399	-200.000	-0.067	-0.376
-134.385	-131.992	-0.214	-0.027
-133.370	404.012	-0.033	-0.069
-132.356	-105.208	-0.215	0.048
-131.341	-73.319	-0.176	-0.063
-130.326	-200.000	-0.002	-0.038
-129.312	-200.000	-0.026	-0.120
-128.297	-200.000	0.037	-0.404
-127.283	-200.000	0.030	0.210
-126.268	533.015	0.108	-0.250
-125.253	-98.005	0.290	-0.073
-124.239	144.112	-0.110	-0.143
-123.224	-200.000	-0.010	-0.137
-122.210	246.936	0.043	0.071
