DTS Sentinel unit serial number:	SN413079Multiplexer serial number:	ORYXHardware model number:	OX4-SRSoftware version number:	ORYX F/W v4.00 Oryx Data Collector v3.7.2.0data status	okinstallation	princeton_trtdifferential loss correction	single-endedforward channel	channel 3reverse channel	N/Adate	2019/09/15time	10:52:35forward acquisition time	60.00reverse acquisition time	0.00gamma	496.2192k internal	0.2307k external	0.2307temperature offset calibration	0.9972default loss term (dB/km)	0.3790temperature slope calibration	1.0000multiplexer offset coefficient	1.0000multiplexer slope coefficient	1.0000fibre end	0.00T internal ref (°C)	34.25T ext. ref 1 (°C)	5.02T ext. ref 2 (°C)	29.82length (m)	temperature (°C)	Stokes	anti-Stokes-747.200	-6.696	0.361	-0.250
-746.185	-200.000	-0.068	0.365
-745.171	499.336	-0.085	0.200
-744.156	434.327	-0.116	0.256
-743.142	423.279	0.190	0.415
-742.127	-67.943	-0.169	0.067
-741.112	-146.771	-0.222	-0.020
-740.098	513.919	0.184	0.437
-739.083	150.762	-0.184	-0.254
-738.069	173.890	0.066	0.097
-737.054	-132.223	0.139	-0.018
-736.039	-200.000	0.011	-0.231
-735.025	134.096	0.053	0.069
-734.010	158.093	-0.117	-0.165
-732.996	187.592	-0.107	-0.162
-731.981	-200.000	0.002	-0.066
-730.966	590.313	0.113	-0.284
-729.952	146.491	0.077	0.105
-728.937	800.000	-0.057	0.196
-727.923	-200.000	-0.079	-0.515
-726.908	301.008	0.215	-0.404
-725.894	-83.798	-0.340	-0.110
-724.879	-116.054	-0.333	0.063
-723.864	-200.000	0.007	-0.131
-722.850	-200.000	-0.060	-0.329
-721.835	534.042	-0.179	-0.431
-720.821	-200.000	0.003	0.214
-719.806	-200.000	-0.026	-0.487
-718.791	-9.371	-0.063	-0.043
-717.777	32.363	-0.375	-0.329
-716.762	-200.000	0.004	-0.286
-715.748	31.347	0.162	0.141
-714.733	-200.000	0.007	-0.103
-713.718	-60.390	-0.136	0.059
-712.704	215.620	0.012	-0.019
-711.689	139.348	0.160	0.214
-710.675	-58.049	0.147	-0.065
-709.660	-156.368	0.110	0.007
-708.645	204.085	-0.075	-0.119
-707.631	559.557	-0.020	0.050
-706.616	-51.258	-0.180	-0.085
-705.602	85.857	0.120	-0.134
-704.587	-89.025	0.159	-0.048
-703.572	44.126	0.256	-0.239
-702.558	800.000	0.022	0.087
-701.543	-78.368	0.102	-0.035
-700.529	121.069	0.059	0.074
-699.514	-131.996	0.201	0.027
-698.499	71.450	-0.284	-0.299
-697.485	-4.997	-0.204	0.143
-696.470	-18.040	-0.222	0.141
-695.456	-72.816	-0.103	0.038
-694.441	-126.973	-0.058	-0.009
-693.426	-200.000	-0.001	0.070
-692.412	261.876	-0.125	0.220
-691.397	-109.469	-0.310	-0.066
-690.383	-83.944	-0.207	-0.067
-689.368	399.953	-0.099	0.211
-688.354	-200.000	0.022	-0.142
-687.339	800.000	0.067	0.193
-686.324	20.677	-0.011	-0.009
-685.310	10.467	-0.094	0.072
-684.295	217.836	0.084	0.136
-683.281	-127.566	0.142	0.021
-682.266	-106.822	-0.352	-0.079
-681.251	32.356	-0.168	-0.147
-680.237	4.453	-0.183	-0.136
-679.222	-26.613	-0.278	-0.165
-678.208	190.343	-0.019	-0.030
-677.193	-200.000	-0.097	-0.442
-676.178	-97.256	-0.073	-0.019
-675.164	86.955	-0.233	-0.261
-674.149	-200.000	0.015	0.190
-673.135	322.899	-0.060	-0.116
-672.120	-200.000	0.004	0.070
-671.105	-96.713	-0.238	-0.064
-670.091	213.244	0.076	-0.122
-669.076	130.319	-0.175	0.227
-668.062	-15.757	-0.317	-0.205
-667.047	-20.958	0.203	-0.126
-666.032	-55.152	-0.326	-0.149
-665.018	800.000	0.074	-0.257
-664.003	-200.000	-0.065	0.325
-662.989	-56.363	-0.229	-0.103
-661.974	-130.945	0.466	-0.063
-660.959	610.502	-0.045	0.114
-659.945	-200.000	-0.044	0.210
-658.930	-200.000	0.005	0.206
-657.916	-80.208	-0.169	0.057
-656.901	633.932	0.116	0.297
-655.886	-52.993	-0.204	0.095
-654.872	40.981	-0.168	0.154
-653.857	278.864	0.257	-0.465
-652.843	30.029	0.225	0.194
-651.828	-25.098	-0.197	-0.118
-650.814	484.158	-0.121	-0.278
-649.799	800.000	-0.117	0.396
-648.784	-175.075	0.153	0.004
-647.770	-77.416	0.161	-0.057
-646.755	-122.000	-0.174	0.029
-645.741	-71.168	-0.133	0.051
-644.726	-135.593	-0.341	-0.041
-643.711	132.113	-0.019	-0.025
-642.697	696.650	0.156	-0.414
-641.682	12.662	0.297	-0.232
-640.668	-152.540	0.188	0.014
-639.653	36.710	-0.207	-0.185
-638.638	426.966	-0.055	-0.121
-637.624	97.889	-0.179	0.208
-636.609	83.324	-0.025	-0.027
-635.595	-200.000	-0.021	0.155
-634.580	-11.796	0.104	-0.069
-633.565	-200.000	-0.003	0.024
-632.551	518.138	-0.081	0.191
-631.536	131.772	0.196	-0.255
-630.522	-172.978	0.223	0.007
-629.507	-165.482	0.388	-0.017
-628.492	298.633	0.152	0.283
-627.478	800.000	0.025	-0.106
-626.463	800.000	0.027	0.108
-625.449	-51.374	-0.191	-0.090
-624.434	453.167	-0.043	-0.097
-623.419	283.458	0.081	0.147
-622.405	800.000	0.037	0.138
-621.390	605.472	0.057	-0.143
-620.376	-158.487	0.307	0.018
-619.361	281.057	-0.068	-0.123
-618.346	-200.000	0.023	0.227
-617.332	55.859	-0.107	0.105
-616.317	248.890	-0.131	0.225
-615.303	-121.734	0.332	-0.056
-614.288	-139.215	-0.318	0.035
-613.273	-200.000	0.010	-0.262
-612.259	253.004	-0.118	0.203
-611.244	-200.000	0.003	0.223
-610.230	-5.135	0.181	0.126
-609.215	-188.925	-0.165	-0.002
-608.201	-200.000	0.050	-0.484
-607.186	161.363	-0.112	-0.158
-606.171	28.975	0.042	-0.036
-605.157	-200.000	0.016	-0.089
-604.142	-200.000	-0.017	-0.309
-603.128	800.000	0.035	0.127
-602.113	-71.076	-0.236	0.090
-601.098	681.510	0.020	0.054
-600.084	-9.540	-0.167	0.113
-599.069	-136.068	0.254	0.030
-598.055	108.051	0.021	0.025
-597.040	171.851	-0.132	-0.192
-596.025	-200.000	-0.019	-0.113
-595.011	800.000	0.099	-0.340
-593.996	-147.846	-0.164	0.014
-592.982	264.809	-0.105	0.184
-591.967	800.000	0.080	0.348
-590.952	-82.081	-0.157	0.052
-589.938	-200.000	0.041	0.182
-588.923	-69.768	-0.288	-0.111
-587.909	72.317	-0.127	0.134
-586.894	57.932	-0.074	-0.073
-585.879	-24.359	-0.330	-0.199
-584.865	-136.299	0.439	-0.052
-583.850	-164.665	-0.416	0.019
-582.836	-200.000	0.060	0.376
-581.821	281.525	-0.145	-0.263
-580.806	105.644	-0.138	-0.165
-579.792	-104.267	-0.507	-0.119
-578.777	-140.910	0.438	-0.045
-577.763	800.000	-0.017	-0.072
-576.748	-192.078	0.341	0.003
-575.733	-200.000	-0.059	-0.263
-574.719	-200.000	0.062	-0.318
-573.704	43.809	0.131	-0.121
-572.690	-200.000	0.004	-0.125
-571.675	-83.722	0.320	-0.103
-570.661	65.961	0.107	0.109
-569.646	-200.000	0.035	-0.181
-568.631	-200.000	-0.015	-0.127
-567.617	-147.958	-0.307	0.026
-566.602	-125.552	-0.106	0.016
-565.588	407.758	0.105	-0.224
-564.573	314.509	0.129	0.244
-563.558	59.714	-0.062	0.062
-562.544	155.990	0.091	-0.127
-561.529	-148.317	-0.255	0.021
-560.515	-200.000	-0.011	-0.317
-559.500	4.729	-0.227	-0.168
-558.485	13.815	0.054	0.042
-557.471	-46.188	-0.202	-0.101
-556.456	-60.466	-0.140	0.060
-555.442	-78.105	-0.184	-0.064
-554.427	251.780	-0.107	0.184
-553.412	107.700	-0.101	0.121
-552.398	-52.085	-0.310	-0.145
-551.383	-138.344	-0.390	0.043
-550.369	-48.679	0.163	-0.079
-549.354	-0.960	0.300	-0.214
-548.339	4.637	-0.334	-0.247
-547.325	-32.640	0.155	0.087
-546.310	108.415	-0.063	-0.076
-545.296	-200.000	-0.008	-0.039
-544.281	34.891	-0.199	0.176
-543.266	-23.410	0.249	-0.151
-542.252	693.420	0.114	-0.301
-541.237	47.470	0.060	0.057
-540.223	-200.000	-0.010	-0.185
-539.208	-17.183	0.203	-0.129
-538.193	257.918	0.079	0.138
-537.179	73.015	-0.031	0.033
-536.164	-94.966	-0.511	0.139
-535.150	8.883	0.257	-0.196
-534.135	-200.000	-0.002	0.055
-533.121	368.190	-0.228	0.466
-532.106	101.531	-0.139	-0.164
-531.091	-41.479	-0.182	-0.094
-530.077	-31.860	-0.069	-0.039
-529.062	-200.000	-0.002	0.039
-528.048	800.000	0.112	-0.417
-527.033	-27.547	-0.213	-0.125
-526.018	-127.640	0.198	-0.029
-525.004	225.059	0.182	0.298
-523.989	-64.515	0.094	0.039
-522.975	110.625	-0.072	-0.087
-521.960	-143.491	-0.365	-0.035
-520.945	-152.794	0.157	-0.011
-519.931	-155.913	0.217	-0.014
-518.916	14.654	-0.053	0.042
-517.902	180.662	0.123	0.182
-516.887	148.069	-0.026	-0.036
-515.872	-102.169	0.124	-0.030
-514.858	-200.000	-0.014	-0.144
-513.843	-52.876	0.216	-0.100
-512.829	-156.293	0.120	0.008
-511.814	0.508	-0.307	-0.221
-510.799	206.850	-0.015	0.023
-509.785	-200.000	0.017	0.126
-508.770	-200.000	0.011	-0.055
-507.756	-200.000	0.064	-0.459
-506.741	-200.000	0.076	-0.363
-505.726	-197.786	-0.332	-0.002
-504.712	741.641	-0.026	-0.071
-503.697	800.000	-0.050	-0.149
-502.683	-93.489	0.211	-0.059
-501.668	-200.000	-0.021	0.155
-500.653	418.416	-0.105	0.227
-499.639	-145.122	0.093	-0.009
-498.624	-142.006	0.303	0.030
-497.610	-200.000	0.025	0.231
-496.595	305.837	-0.093	0.175
-495.581	800.000	-0.025	-0.078
-494.566	224.028	0.099	0.161
-493.551	497.973	-0.043	0.100
-492.537	781.587	-0.026	-0.072
-491.522	-24.380	0.197	0.118
-490.508	149.092	-0.080	-0.108
-489.493	270.616	0.064	0.113
-488.478	-30.920	-0.372	-0.211
-487.464	-103.086	0.145	0.035
-486.449	-73.373	0.277	0.102
-485.435	-154.727	0.216	0.014
-484.420	-128.149	0.181	0.026
-483.405	-200.000	-0.039	-0.205
-482.391	20.404	-0.278	-0.226
-481.376	52.478	0.024	-0.023
-480.362	391.571	-0.133	-0.277
-479.347	-108.271	0.214	0.047
-478.332	-200.000	-0.079	0.399
-477.318	54.687	-0.129	0.125
-476.303	-89.439	0.248	-0.073
-475.289	800.000	-0.070	0.194
-474.274	-200.000	-0.043	0.378
-473.259	-163.715	0.127	-0.006
-472.245	262.383	0.125	0.219
-471.230	800.000	-0.057	-0.171
-470.216	-80.953	-0.121	-0.040
-469.201	448.314	0.047	0.104
-468.186	-6.070	-0.258	-0.177
-467.172	-200.000	-0.017	-0.445
-466.157	34.568	-0.046	0.040
-465.143	80.318	0.062	-0.068
-464.128	-40.845	0.115	0.060
-463.113	-200.000	0.274	0.000
-462.099	800.000	0.064	0.187
-461.084	217.751	0.069	-0.110
-460.070	-128.848	-0.316	0.045
-459.055	-85.094	-0.214	-0.067
-458.040	237.049	0.086	-0.143
-457.026	27.476	-0.537	0.454
-456.011	-200.000	-0.022	0.322
-454.997	-146.489	0.216	0.019
-453.982	220.062	-0.251	0.404
-452.968	-200.000	-0.034	0.197
-451.953	-100.378	0.489	-0.122
-450.938	114.444	0.160	0.196
-449.924	-29.445	0.243	-0.140
-448.909	-85.977	0.072	-0.022
-447.895	-200.000	-0.020	-0.271
-446.880	552.745	0.149	0.361
-445.865	-151.081	0.214	-0.016
-444.851	-200.000	-0.037	-0.322
-443.836	-82.878	-0.261	-0.085
-442.822	10.427	0.087	-0.067
-441.807	-200.000	0.001	0.201
-440.792	-33.369	-0.227	-0.126
-439.778	11.881	0.234	-0.181
-438.763	131.148	-0.097	0.126
-437.749	0.792	-0.105	0.075
-436.734	-169.555	0.266	-0.010
-435.719	20.955	0.089	0.072
-434.705	-144.285	0.071	-0.007
-433.690	359.226	0.079	-0.159
-432.676	-18.941	0.232	-0.145
-431.661	-165.512	-0.233	-0.010
-430.646	284.322	-0.188	-0.339
-429.632	-160.596	-0.302	-0.016
-428.617	165.867	0.142	-0.202
-427.603	-123.253	0.260	-0.042
-426.588	-140.510	0.181	0.019
-425.573	-142.519	0.139	0.014
-424.559	-103.255	0.102	-0.024
-423.544	-4.902	0.139	0.096
-422.530	-18.724	-0.210	0.131
-421.515	107.330	0.209	-0.249
-420.500	39.168	-0.257	-0.231
-419.486	-144.048	-0.202	0.019
-418.471	-34.422	0.135	0.074
-417.457	-117.266	-0.235	0.043
-416.442	-70.955	-0.155	0.059
-415.428	-97.925	0.328	0.085
-414.413	-145.376	0.096	0.009
-413.398	-40.023	0.240	-0.125
-412.384	-93.882	-0.200	-0.055
-411.369	-133.432	0.256	0.032
-410.355	800.000	0.120	0.348
-409.340	-45.510	-0.279	-0.138
-408.325	800.000	0.056	0.214
-407.311	-200.000	-0.017	0.168
-406.296	297.937	0.111	-0.205
-405.282	-142.027	-0.119	0.012
-404.267	45.386	-0.033	0.031
-403.252	-174.762	0.225	0.006
-402.238	148.042	0.083	0.112
-401.223	-178.535	-0.230	-0.005
-400.209	-181.162	0.406	-0.008
-399.194	-126.227	-0.294	-0.044
-398.179	-32.742	0.412	-0.230
-397.165	-65.163	0.386	-0.156
-396.150	120.122	-0.143	0.178
-395.136	97.363	-0.022	-0.025
-394.121	58.996	-0.084	0.083
-393.106	-107.150	-0.153	-0.034
-392.092	-200.000	-0.020	-0.249
-391.077	198.941	-0.130	-0.199
-390.063	247.616	-0.030	0.051
-389.048	95.839	-0.020	-0.023
-388.033	703.629	0.096	0.254
-387.019	48.355	-0.052	0.049
-386.004	-200.000	-0.023	-0.356
-384.990	-35.185	-0.149	-0.081
-383.975	498.656	-0.046	0.107
-382.960	10.590	0.198	0.151
-381.946	-151.507	-0.338	0.025
-380.931	-137.807	0.263	-0.029
-379.917	664.828	-0.052	-0.134
-378.902	92.641	-0.138	-0.156
-377.888	-159.822	-0.079	0.004
-376.873	-200.000	-0.012	-0.076
-375.858	-80.573	-0.205	0.068
-374.844	800.000	0.032	-0.127
-373.829	-110.436	-0.306	0.064
-372.815	-141.040	-0.053	-0.005
-371.800	-200.000	-0.007	-0.133
-370.785	-74.791	0.247	0.089
-369.771	45.187	-0.092	-0.085
-368.756	273.215	-0.085	0.151
-367.742	740.226	0.016	0.043
-366.727	-96.748	0.341	0.090
-365.712	-200.000	0.001	0.187
-364.698	-75.086	-0.058	0.021
-363.683	251.500	-0.057	0.097
-362.669	-200.000	0.034	0.167
-361.654	425.407	0.132	0.284
-360.639	-137.193	0.047	0.005
-359.625	497.444	-0.150	-0.346
-358.610	-200.000	-0.016	-0.072
-357.596	52.778	0.238	0.228
-356.581	-194.283	-0.035	-0.000
-355.566	-15.879	0.100	-0.064
-354.552	176.652	0.161	0.234
-353.537	631.977	-0.100	-0.252
-352.523	800.000	-0.043	-0.120
-351.508	-200.000	0.011	-0.103
-350.493	-112.753	0.124	-0.025
-349.479	-57.072	-0.213	0.094
-348.464	-37.269	-0.349	0.187
-347.450	146.138	0.093	0.124
-346.435	800.000	-0.078	-0.218
-345.420	-85.892	-0.171	-0.053
-344.406	29.942	-0.288	0.246
-343.391	-200.000	-0.011	0.332
-342.377	-180.551	-0.137	0.003
-341.362	170.094	-0.115	-0.164
-340.348	-200.000	-0.003	-0.175
-339.333	504.680	0.169	0.392
-338.318	-200.000	0.029	-0.136
-337.304	-48.112	-0.439	0.212
-336.289	-119.718	0.287	-0.050
-335.275	800.000	-0.115	0.337
-334.260	-200.000	-0.006	0.217
-333.245	-152.217	0.431	0.031
-332.231	800.000	0.024	0.087
-331.216	503.112	-0.140	0.325
-330.202	800.000	0.107	-0.426
-329.187	721.693	0.024	0.064
-328.172	800.000	-0.105	0.334
-327.158	145.704	0.289	0.387
-326.143	42.321	-0.193	0.176
-325.129	-80.864	-0.039	-0.013
-324.114	8.417	-0.141	0.106
-323.099	-20.133	0.318	0.196
-322.085	227.161	0.126	0.204
-321.070	124.408	0.066	0.084
-320.056	132.299	0.021	0.027
-319.041	114.079	-0.184	-0.224
-318.026	-200.000	0.059	0.283
-317.012	-200.000	-0.020	0.134
-315.997	-200.000	0.003	0.135
-314.983	-156.489	0.165	0.010
-313.968	-200.000	-0.014	-0.232
-312.953	111.563	-0.158	-0.191
-311.939	-48.379	-0.137	-0.066
-310.924	265.599	-0.081	-0.142
-309.910	-92.265	0.211	-0.059
-308.895	800.000	-0.063	-0.222
-307.880	40.159	-0.185	-0.167
-306.866	-50.623	0.392	-0.185
-305.851	48.621	-0.168	0.157
-304.837	-59.697	0.182	0.078
-303.822	39.345	0.051	0.046
-302.807	146.887	0.025	-0.033
-301.793	-70.866	-0.118	0.045
-300.778	-100.255	-0.138	0.034
-299.764	-128.221	0.187	0.027
-298.749	-192.911	-0.142	-0.001
-297.735	-145.681	0.237	-0.021
-296.720	174.261	0.154	-0.223
-295.705	-63.997	0.373	0.152
-294.691	800.000	-0.041	0.128
-293.676	-52.497	0.322	-0.149
-292.662	-125.870	0.315	-0.047
-291.647	-99.129	-0.115	0.029
-290.632	271.182	-0.085	-0.149
-289.618	-113.204	0.133	0.026
-288.603	-120.397	-0.119	-0.020
-287.589	337.635	-0.062	0.121
-286.574	-120.619	0.261	-0.044
-285.559	-118.139	0.392	0.070
-284.545	43.572	-0.282	0.257
-283.530	800.000	-0.021	0.082
-282.516	-64.084	-0.038	0.015
-281.501	-96.915	-0.043	0.011
-280.486	606.282	-0.131	0.325
-279.472	665.309	-0.159	0.411
-278.457	800.000	-0.072	0.199
-277.443	27.201	0.109	-0.092
-276.428	-153.417	-0.289	0.020
-275.413	402.935	0.097	-0.204
-274.399	625.426	-0.043	0.109
-273.384	-200.000	0.015	-0.211
-272.370	3.118	-0.331	-0.240
-271.355	-85.857	-0.183	0.057
-270.340	-63.928	-0.319	-0.130
-269.326	-184.576	0.247	-0.004
-268.311	-170.842	0.107	-0.004
-267.297	38.560	0.120	-0.107
-266.282	208.150	-0.154	-0.240
-265.267	-138.060	-0.088	-0.010
-264.253	247.033	0.018	0.030
-263.238	-151.433	0.146	-0.011
-262.224	305.872	0.097	0.180
-261.209	305.182	-0.049	0.091
-260.195	-116.567	0.172	0.032
-259.180	-125.140	0.164	-0.025
-258.165	169.415	0.090	0.129
-257.151	-200.000	-0.055	-0.252
-256.136	-56.926	-0.061	0.027
-255.122	-127.364	-0.163	0.024
-254.107	16.282	0.103	-0.081
-253.092	800.000	-0.019	-0.052
-252.078	-18.223	-0.225	0.141
-251.063	-200.000	-0.082	-0.407
-250.049	800.000	0.018	0.062
-249.034	-6.278	-0.170	0.116
-248.019	208.445	-0.150	-0.234
-247.005	-200.000	0.019	-0.173
-245.990	800.000	-0.107	-0.304
-244.976	508.575	0.065	-0.152
-243.961	800.000	0.037	0.105
-242.946	340.768	0.085	-0.166
-241.932	313.321	0.056	0.105
-240.917	59.926	-0.335	-0.330
-239.903	800.000	-0.064	0.175
-238.888	673.803	-0.083	0.215
-237.873	-108.731	0.086	-0.018
-236.859	-200.000	-0.019	-0.153
-235.844	494.012	-0.022	-0.050
-234.830	16.018	0.061	-0.048
-233.815	44.610	-0.328	-0.300
-232.800	-87.270	-0.333	0.101
-231.786	800.000	-0.082	0.252
-230.771	-200.000	0.001	-0.012
-229.757	800.000	-0.089	-0.386
-228.742	432.317	0.069	-0.148
-227.727	27.058	-0.082	0.069
-226.713	-61.459	-0.136	0.057
-225.698	-114.841	0.121	-0.023
-224.684	-200.000	0.041	0.349
-223.669	383.225	0.182	-0.373
-222.655	-97.451	-0.147	-0.038
-221.640	-121.026	-0.078	-0.013
-220.625	-92.227	0.206	-0.058
-219.611	-32.483	-0.355	0.197
-218.596	596.760	-0.050	0.124
-217.582	-55.249	-0.204	0.091
-216.567	292.728	0.183	0.332
-215.552	107.777	0.227	0.270
-214.538	-102.925	0.313	0.074
-213.523	800.000	0.028	0.117
-212.509	-53.832	0.082	-0.037
-211.494	92.382	-0.233	-0.262
-210.479	-92.515	-0.331	0.093
-209.465	800.000	-0.126	0.352
-208.450	-200.000	-0.033	-0.150
-207.436	-50.946	-0.248	0.116
-206.421	-200.000	0.013	-0.077
-205.406	-200.000	0.004	-0.189
-204.392	109.108	-0.074	-0.088
-203.377	-34.554	0.243	0.133
-202.363	50.817	-0.056	-0.053
-201.348	-97.624	-0.257	0.066
-200.333	184.705	0.078	0.114
-199.319	146.265	0.106	0.141
-198.304	-120.169	-0.091	-0.015
-197.290	89.423	-0.292	-0.324
-196.275	634.842	-0.025	-0.064
-195.260	-38.182	-0.274	-0.145
-194.246	-72.917	-0.184	0.067
-193.231	-62.744	0.333	-0.137
-192.217	-87.882	0.142	-0.043
-191.202	108.570	0.383	0.455
-190.187	-137.525	-0.131	-0.015
-189.173	-200.000	-0.028	0.141
-188.158	-71.042	0.213	0.080
-187.144	-13.005	0.242	0.157
-186.129	534.092	0.087	0.206
-185.114	84.499	-0.100	0.108
-184.100	-183.552	-0.068	-0.001
-183.085	-200.000	0.008	0.362
-182.071	-30.483	-0.218	0.123
-181.056	-127.930	-0.240	-0.034
-180.042	-79.932	0.027	-0.009
-179.027	-200.000	0.039	-0.204
-178.012	168.619	-0.290	0.410
-176.998	-13.206	0.181	-0.117
-175.983	800.000	0.017	-0.064
-174.969	-200.000	0.039	0.202
-173.954	12.585	-0.153	0.118
-172.939	-74.963	0.173	-0.061
-171.925	-173.425	0.296	0.009
-170.910	-61.265	-0.268	-0.112
-169.896	97.424	0.102	0.117
-168.881	178.524	0.162	0.235
-167.866	70.318	0.218	0.224
-166.852	-67.513	-0.145	-0.056
-165.837	379.773	0.070	-0.142
-164.823	-92.417	-0.169	0.047
-163.808	87.422	-0.088	-0.097
-162.793	252.113	0.108	0.182
-161.779	-49.372	0.101	0.048
-160.764	7.495	0.365	-0.271
-159.750	33.426	0.091	0.079
-158.735	-142.788	0.297	-0.029
-157.720	102.262	0.050	0.059
-156.706	-105.474	0.091	0.021
-155.691	-30.281	0.222	-0.125
-154.677	-200.000	0.026	0.212
-153.662	-67.892	0.424	-0.165
-152.647	68.696	0.272	-0.278
-151.633	572.978	-0.018	0.044
-150.618	88.371	0.222	0.245
-149.604	-99.601	0.111	-0.028
-148.589	527.880	0.153	-0.359
-147.574	-200.000	-0.001	-0.293
-146.560	-15.377	-0.231	0.147
-145.545	-103.394	-0.113	-0.027
-144.531	-200.000	0.046	0.203
-143.516	-124.813	0.292	0.045
-142.502	800.000	-0.060	0.178
-141.487	-68.066	0.174	-0.067
-140.472	-200.000	-0.087	-0.678
-139.458	-200.000	-0.016	0.098
-138.443	-135.835	0.060	0.007
-137.429	-139.928	-0.116	-0.012
-136.414	-140.481	0.191	0.020
-135.399	-200.000	0.034	0.356
-134.385	19.872	0.198	0.158
-133.370	-91.794	0.293	-0.083
-132.356	193.830	0.037	-0.055
-131.341	-200.000	-0.012	0.200
-130.326	-128.355	-0.234	0.033
-129.312	25.986	-0.054	-0.045
-128.297	-60.231	-0.334	0.141
-127.283	-82.983	0.305	-0.098
-126.268	-63.063	-0.172	0.070
-125.253	-55.035	0.202	-0.090
-124.239	800.000	-0.053	0.155
-123.224	17.018	-0.137	0.108
