DTS Sentinel unit serial number:	SN413079Multiplexer serial number:	ORYXHardware model number:	OX4-SRSoftware version number:	ORYX F/W v4.00 Oryx Data Collector v3.7.2.0data status	okinstallation	princeton_trtdifferential loss correction	single-endedforward channel	channel 3reverse channel	N/Adate	2019/09/15time	07:20:35forward acquisition time	60.00reverse acquisition time	0.00gamma	496.2192k internal	0.2324k external	0.2324temperature offset calibration	0.9976default loss term (dB/km)	0.3790temperature slope calibration	1.0000multiplexer offset coefficient	1.0000multiplexer slope coefficient	1.0000fibre end	0.00T internal ref (°C)	30.56T ext. ref 1 (°C)	4.85T ext. ref 2 (°C)	25.85length (m)	temperature (°C)	Stokes	anti-Stokes-747.200	-200.000	0.013	0.227
-746.185	-26.046	0.106	0.063
-745.171	526.830	-0.057	0.135
-744.156	-102.958	-0.294	-0.071
-743.142	451.327	-0.086	-0.191
-742.127	-136.165	-0.183	-0.022
-741.112	108.516	0.152	0.183
-740.098	5.037	0.096	-0.071
-739.083	50.465	0.208	-0.198
-738.069	451.663	-0.111	-0.248
-737.054	80.202	0.185	-0.201
-736.039	9.181	-0.042	-0.032
-735.025	53.458	-0.161	0.156
-734.010	-40.655	-0.304	-0.159
-732.996	-72.393	-0.195	-0.073
-731.981	-146.559	-0.081	-0.007
-730.966	57.425	-0.077	-0.076
-729.952	34.274	0.144	0.126
-728.937	-200.000	-0.030	-0.218
-727.923	-200.000	0.016	-0.106
-726.908	210.382	-0.220	0.348
-725.894	75.981	0.103	-0.110
-724.879	633.078	0.050	-0.127
-723.864	-90.942	-0.172	0.050
-722.850	78.295	-0.226	-0.244
-721.835	-37.166	-0.172	-0.093
-720.821	-46.649	0.201	0.099
-719.806	800.000	-0.033	-0.097
-718.791	84.973	-0.114	0.126
-717.777	142.361	0.151	0.203
-716.762	155.338	-0.101	0.140
-715.748	-168.183	-0.007	-0.000
-714.733	-15.038	-0.138	0.089
-713.718	36.805	-0.396	0.353
-712.704	117.473	-0.031	-0.039
-711.689	13.951	-0.026	-0.020
-710.675	436.597	-0.050	0.110
-709.660	167.615	-0.309	-0.443
-708.645	-58.645	0.137	0.060
-707.631	-16.639	0.056	0.036
-706.616	-30.259	-0.132	-0.076
-705.602	74.636	-0.118	-0.125
-704.587	437.207	-0.073	-0.160
-703.572	-76.990	0.247	-0.087
-702.558	672.198	0.120	-0.312
-701.543	58.627	-0.063	0.063
-700.529	153.081	-0.062	0.086
-699.514	110.447	0.135	0.164
-698.499	-54.511	-0.182	-0.083
-697.485	547.940	0.140	0.337
-696.470	-200.000	-0.003	0.315
-695.456	-7.796	-0.253	0.172
-694.441	54.444	-0.102	0.099
-693.426	114.516	0.169	-0.207
-692.412	3.557	-0.230	-0.169
-691.397	-40.377	-0.247	0.129
-690.383	317.931	-0.108	0.206
-689.368	-52.123	-0.370	-0.173
-688.354	355.031	-0.093	0.187
-687.339	-33.821	-0.238	0.132
-686.324	-200.000	0.010	-0.172
-685.310	604.130	0.161	0.405
-684.295	-90.975	0.167	-0.048
-683.281	25.557	-0.208	-0.174
-682.266	-55.160	-0.073	-0.033
-681.251	-200.000	0.024	-0.283
-680.237	-64.404	-0.307	-0.126
-679.222	-53.144	-0.218	-0.101
-678.208	-200.000	-0.002	-0.071
-677.193	-200.000	-0.038	-0.178
-676.178	58.315	0.133	0.132
-675.164	664.455	0.119	0.308
-674.149	262.208	0.147	-0.256
-673.135	134.466	-0.233	0.304
-672.120	-200.000	0.012	0.149
-671.105	800.000	0.043	0.142
-670.091	709.920	0.077	-0.205
-669.076	531.852	-0.089	-0.212
-668.062	-200.000	0.007	0.378
-667.047	190.098	-0.133	0.200
-666.032	-148.010	0.118	0.010
-665.018	621.368	-0.047	-0.119
-664.003	-96.125	-0.084	-0.022
-662.989	-38.991	0.070	0.037
-661.974	-124.405	-0.177	0.028
-660.959	-114.450	0.356	-0.069
-659.945	-46.156	-0.310	-0.154
-658.930	-102.875	0.411	-0.098
-657.916	-11.247	-0.137	0.091
-656.901	-117.515	0.245	0.045
-655.886	-200.000	0.002	0.335
-654.872	-200.000	-0.074	0.365
-653.857	97.897	-0.014	0.016
-652.843	-71.986	-0.224	-0.084
-651.828	125.230	0.075	-0.095
-650.814	-101.404	0.194	0.047
-649.799	-71.452	0.213	-0.080
-648.784	94.398	-0.026	-0.030
-647.770	-200.000	-0.466	0.001
-646.755	30.081	-0.265	-0.227
-645.741	-11.403	0.318	0.211
-644.726	139.562	-0.031	0.042
-643.711	3.029	0.210	-0.154
-642.697	-110.492	-0.158	-0.033
-641.682	-34.716	0.157	0.086
-640.668	800.000	0.051	0.221
-639.653	492.346	-0.071	-0.163
-638.638	194.139	-0.107	-0.163
-637.624	89.800	0.085	-0.095
-636.609	-42.881	0.149	-0.076
-635.595	20.533	-0.211	-0.172
-634.580	530.385	0.138	-0.328
-633.565	351.668	0.189	-0.376
-632.551	-123.106	-0.226	0.037
-631.536	-200.000	-0.016	0.156
-630.522	-97.968	-0.232	-0.060
-629.507	-200.000	-0.060	-0.282
-628.492	124.740	0.084	-0.106
-627.478	195.524	-0.162	-0.248
-626.463	675.509	0.028	-0.074
-625.449	-52.619	0.347	-0.161
-624.434	-160.909	0.202	0.011
-623.419	301.237	0.080	-0.149
-622.405	297.618	-0.027	0.050
-621.390	-39.131	0.119	0.063
-620.376	-74.956	0.323	0.116
-619.361	437.498	0.118	0.259
-618.346	145.049	-0.134	0.180
-617.332	-70.539	-0.135	-0.051
-616.317	80.911	-0.036	-0.039
-615.303	448.709	0.026	-0.057
-614.288	61.546	-0.165	-0.165
-613.273	-200.000	-0.029	-0.271
-612.259	601.607	-0.092	-0.230
-611.244	11.479	-0.159	0.122
-610.230	419.932	0.025	0.054
-609.215	800.000	0.061	0.193
-608.201	65.916	0.060	-0.061
-607.186	800.000	-0.046	0.134
-606.171	-200.000	-0.033	0.197
-605.157	-18.653	0.075	-0.047
-604.142	65.522	0.067	-0.068
-603.128	-66.418	0.102	0.041
-602.113	800.000	0.170	-0.473
-601.098	-65.176	0.386	-0.156
-600.084	-200.000	-0.008	-0.283
-599.069	-200.000	0.008	0.115
-598.055	-58.751	-0.380	0.165
-597.040	-176.497	-0.265	-0.007
-596.025	-200.000	-0.049	-0.280
-595.011	75.003	0.224	0.237
-593.996	-200.000	-0.001	0.079
-592.982	800.000	0.025	-0.092
-591.967	150.476	0.054	0.073
-590.952	-104.059	-0.416	-0.097
-589.938	383.173	-0.073	-0.150
-588.923	-131.641	0.503	-0.066
-587.909	108.449	-0.153	0.184
-586.894	-83.411	-0.263	0.085
-585.879	-200.000	-0.027	0.206
-584.865	-99.777	-0.280	0.070
-583.850	-200.000	-0.025	-0.295
-582.836	800.000	-0.035	-0.105
-581.821	-1.129	-0.240	-0.170
-580.806	-114.437	0.210	-0.041
-579.792	327.968	-0.083	0.160
-578.777	-200.000	-0.020	-0.325
-577.763	800.000	0.050	-0.164
-576.748	-72.966	-0.310	-0.114
-575.733	-200.000	0.002	0.416
-574.719	110.838	-0.062	-0.075
-573.704	-69.058	-0.024	0.009
-572.690	66.937	0.300	-0.306
-571.675	16.597	0.214	0.170
-570.661	10.752	0.175	-0.134
-569.646	14.586	-0.265	-0.207
-568.631	-50.598	0.018	-0.008
-567.617	16.148	-0.255	-0.201
-566.602	-30.776	0.139	-0.079
-565.588	259.502	0.025	-0.044
-564.573	-146.004	0.002	-0.000
-563.558	-21.207	0.153	-0.094
-562.544	415.741	-0.144	-0.309
-561.529	-103.357	0.126	0.030
-560.515	-37.027	-0.058	-0.031
-559.500	-87.798	-0.222	0.067
-558.485	431.274	-0.038	-0.082
-557.471	612.977	-0.118	0.296
-556.456	-134.208	0.326	-0.040
-555.442	14.748	-0.316	-0.248
-554.427	-154.520	0.287	0.019
-553.412	-200.000	0.037	-0.161
-552.398	-200.000	0.003	0.305
-551.383	104.394	0.081	0.095
-550.369	651.190	0.041	0.105
-549.354	299.035	0.149	-0.276
-548.339	800.000	0.079	0.222
-547.325	-76.425	0.154	-0.054
-546.310	800.000	0.077	-0.284
-545.296	78.109	0.095	0.101
-544.281	6.257	0.073	-0.054
-543.266	-146.825	-0.158	-0.014
-542.252	74.950	0.107	0.113
-541.237	35.580	-0.129	-0.114
-540.223	-155.368	-0.235	0.015
-539.208	-107.062	-0.242	0.053
-538.193	-99.381	0.338	0.085
-537.179	-85.318	-0.312	-0.098
-536.164	274.551	-0.106	0.188
-535.150	-110.186	-0.270	-0.056
-534.135	57.715	0.174	0.170
-533.121	12.693	-0.069	0.053
-532.106	744.518	0.024	-0.066
-531.091	-181.368	0.326	0.006
-530.077	-200.000	-0.040	-0.340
-529.062	-200.000	0.048	0.248
-528.048	278.255	-0.061	-0.109
-527.033	-79.149	0.224	0.076
-526.018	-200.000	-0.046	-0.464
-525.004	-200.000	-0.032	0.142
-523.989	-100.649	0.064	-0.016
-522.975	-78.363	-0.184	0.063
-521.960	-157.693	-0.331	-0.020
-520.945	-115.244	0.359	-0.068
-519.931	-200.000	0.002	0.159
-518.916	-200.000	0.028	0.182
-517.902	85.012	-0.073	0.080
-516.887	-43.937	-0.301	0.151
-515.872	-108.154	0.346	-0.075
-514.858	139.965	0.315	-0.415
-513.843	-142.491	-0.433	-0.043
-512.829	-200.000	-0.002	-0.102
-511.814	-200.000	-0.025	0.181
-510.799	-54.210	0.187	0.085
-509.785	-133.439	-0.194	0.024
-508.770	-200.000	0.017	0.111
-507.756	172.785	0.201	-0.290
-506.741	623.138	0.145	-0.366
-505.726	180.926	-0.195	-0.287
-504.712	45.755	-0.142	0.132
-503.697	167.310	0.209	-0.296
-502.683	602.865	-0.038	0.095
-501.668	-129.466	0.234	0.032
-500.653	800.000	0.037	-0.128
-499.639	-80.394	-0.129	0.043
-498.624	226.083	-0.063	-0.103
-497.610	-200.000	-0.022	0.245
-496.595	54.965	-0.165	0.159
-495.581	-99.510	0.279	0.070
-494.566	125.775	0.132	-0.167
-493.551	472.936	-0.145	0.327
-492.537	-48.057	0.382	-0.184
-491.522	-158.376	-0.319	0.018
-490.508	5.217	0.181	-0.133
-489.493	-97.012	-0.079	0.021
-488.478	-21.172	-0.481	0.294
-487.464	800.000	-0.068	-0.220
-486.449	288.275	0.212	-0.383
-485.435	92.131	-0.136	0.153
-484.420	-90.311	-0.342	-0.099
-483.405	-42.745	-0.297	0.151
-482.391	49.032	0.049	0.046
-481.376	800.000	-0.090	0.361
-480.362	40.173	-0.184	-0.165
-479.347	-144.382	-0.319	0.030
-478.332	-64.953	-0.164	0.066
-477.318	-120.641	0.490	0.083
-476.303	-47.768	-0.189	0.091
-475.289	-87.048	0.105	0.032
-474.274	-90.440	0.155	-0.045
-473.259	-67.599	0.115	-0.045
-472.245	-198.109	0.247	-0.001
-471.230	-70.312	-0.403	0.153
-470.216	-74.287	-0.165	0.059
-469.201	58.733	-0.166	0.163
-468.186	-73.135	-0.113	0.041
-467.172	148.596	-0.112	0.151
-466.157	-40.225	0.116	0.061
-465.143	-77.039	-0.098	-0.034
-464.128	-200.000	0.026	0.250
-463.113	573.699	0.072	-0.176
-462.099	33.072	0.065	0.056
-461.084	-84.657	0.097	0.031
-460.070	125.879	-0.175	-0.221
-459.055	-77.985	-0.126	0.043
-458.040	800.000	0.113	0.322
-457.026	-116.555	0.460	-0.085
-456.011	800.000	0.010	0.041
-454.997	-200.000	-0.003	-0.258
-453.982	54.118	-0.150	0.144
-452.968	800.000	0.082	-0.243
-451.953	223.458	0.095	-0.152
-450.938	-37.811	-0.227	-0.120
-449.924	-200.000	-0.027	-0.346
-448.909	-200.000	0.026	-0.225
-447.895	113.946	0.131	0.158
-446.880	-200.000	-0.019	0.187
-445.865	-133.906	0.283	-0.035
-444.851	-54.101	-0.405	0.184
-443.836	800.000	-0.146	0.476
-442.822	-163.825	-0.110	0.005
-441.807	19.721	-0.146	-0.117
-440.792	800.000	0.070	0.282
-439.778	700.050	0.028	0.073
-438.763	124.772	0.168	-0.211
-437.749	-64.966	-0.238	-0.096
-436.734	800.000	0.042	-0.183
-435.719	30.956	0.214	0.183
-434.705	125.837	0.146	-0.183
-433.690	-200.000	0.002	0.016
-432.676	191.550	-0.069	0.103
-431.661	-87.652	-0.109	-0.033
-430.646	115.832	0.095	0.116
-429.632	-200.000	-0.037	0.278
-428.617	-200.000	-0.009	-0.102
-427.603	-200.000	-0.017	-0.149
-426.588	-200.000	0.056	0.341
-425.573	-123.215	-0.148	0.024
-424.559	-89.765	-0.033	0.010
-423.544	-106.580	-0.151	-0.033
-422.530	-35.779	0.288	-0.155
-421.515	68.538	0.072	0.074
-420.500	97.137	-0.076	0.087
-419.486	-126.644	0.177	0.026
-418.471	790.307	-0.071	-0.193
-417.457	800.000	-0.055	-0.156
-416.442	-40.258	0.344	0.178
-415.428	-116.629	-0.210	0.038
-414.413	491.309	0.236	0.539
-413.398	-200.000	-0.019	0.131
-412.384	-200.000	-0.040	-0.276
-411.369	-75.666	0.245	-0.087
-410.355	342.344	0.065	-0.127
-409.340	61.356	0.172	0.171
-408.325	27.402	0.226	0.189
-407.311	-200.000	-0.094	-0.462
-406.296	-102.785	0.154	0.036
-405.282	-200.000	-0.018	-0.128
-404.267	61.750	0.127	-0.126
-403.252	557.105	-0.041	0.099
-402.238	-117.616	-0.171	-0.031
-401.223	-30.170	-0.200	-0.113
-400.209	-129.969	-0.454	0.062
-399.194	-41.382	-0.063	-0.032
-398.179	421.936	-0.079	0.169
-397.165	-200.000	0.078	0.352
-396.150	-91.195	-0.099	0.028
-395.136	3.491	-0.023	-0.016
-394.121	-3.569	0.202	-0.140
-393.106	-200.000	0.004	0.175
-392.092	22.843	0.097	-0.080
-391.077	-130.705	0.377	0.050
-390.063	-129.474	-0.623	0.086
-389.048	254.248	-0.058	-0.099
-388.033	-135.786	-0.328	-0.039
-387.019	-158.811	-0.308	0.018
-386.004	-95.825	-0.095	-0.025
-384.990	-75.093	0.329	0.117
-383.975	-200.000	-0.025	-0.288
-382.960	800.000	-0.058	0.162
-381.946	-8.358	0.131	-0.088
-380.931	800.000	0.016	-0.065
-379.917	-161.617	-0.231	-0.012
-378.902	-200.000	-0.006	-0.182
-377.888	227.949	0.043	-0.070
-376.873	180.269	-0.168	-0.245
-375.858	-62.682	0.263	-0.108
-374.844	168.391	0.179	0.254
-373.829	-200.000	-0.022	0.285
-372.815	-38.362	0.108	0.057
-371.800	162.517	0.060	-0.084
-370.785	187.990	0.083	-0.124
-369.771	-87.020	0.135	-0.041
-368.756	-157.424	0.435	-0.026
-367.742	-146.282	-0.171	0.015
-366.727	-113.721	-0.519	0.101
-365.712	-58.498	-0.176	-0.076
-364.698	63.799	-0.100	0.100
-363.683	-130.027	-0.527	0.072
-362.669	-104.945	-0.047	0.011
-361.654	-200.000	-0.034	0.204
-360.639	112.728	0.326	0.392
-359.625	288.462	-0.168	0.303
-358.610	-131.896	0.165	0.021
-357.596	638.839	-0.156	0.395
-356.581	-75.262	0.176	-0.063
-355.566	-64.829	-0.303	-0.122
-354.552	-175.605	-0.318	-0.009
-353.537	-86.884	-0.090	-0.027
-352.523	-79.684	0.139	-0.047
-351.508	-78.079	-0.130	0.044
-350.493	-71.208	-0.188	-0.070
-349.479	155.383	0.019	-0.025
-348.464	-144.448	0.364	0.034
-347.450	251.162	-0.171	0.289
-346.435	-200.000	0.036	0.175
-345.420	-13.319	0.112	0.072
-344.406	800.000	0.062	0.223
-343.391	800.000	-0.028	0.085
-342.377	238.916	-0.078	-0.129
-341.362	-28.464	-0.073	-0.042
-340.348	-10.358	0.155	-0.102
-339.333	127.891	-0.044	-0.056
-338.318	25.674	-0.051	-0.043
-337.304	-75.680	0.130	0.046
-336.289	500.533	0.146	-0.335
-335.275	-165.287	0.396	0.017
-334.260	144.149	0.324	0.430
-333.245	-41.805	0.142	-0.072
-332.231	-96.793	0.150	-0.039
-331.216	-200.000	0.026	0.170
-330.202	-200.000	-0.014	-0.117
-329.187	225.829	0.086	-0.139
-328.172	-109.137	-0.038	-0.008
-327.158	-70.720	-0.249	-0.093
-326.143	-144.465	0.027	-0.002
-325.129	-200.000	-0.053	-0.294
-324.114	-95.652	0.192	-0.051
-323.099	123.623	-0.108	-0.134
-322.085	10.464	0.092	0.070
-321.070	332.352	-0.125	0.240
-320.056	-200.000	0.032	-0.220
-319.041	-151.413	-0.152	0.011
-318.026	248.518	-0.153	0.257
-317.012	-72.983	-0.140	-0.051
-315.997	72.173	0.248	-0.256
-314.983	-22.687	0.326	0.195
-313.968	-111.736	-0.370	-0.074
-312.953	-109.469	0.203	-0.043
-311.939	-200.000	0.008	-0.248
-310.924	252.610	-0.141	-0.239
-309.910	800.000	-0.107	0.427
-308.895	-200.000	0.041	-0.241
-307.880	-200.000	-0.016	-0.096
-306.866	54.587	-0.031	0.030
-305.851	202.534	0.214	-0.328
-304.837	-188.009	-0.067	0.001
-303.822	-72.821	0.269	0.098
-302.807	-190.945	0.289	-0.003
-301.793	800.000	0.081	-0.224
-300.778	-12.306	0.265	-0.172
-299.764	38.963	-0.146	0.129
-298.749	495.498	-0.049	-0.111
-297.735	-200.000	-0.025	-0.545
-296.720	75.180	0.133	-0.139
-295.705	800.000	-0.048	-0.149
-294.691	-11.545	0.215	0.140
-293.676	105.410	-0.209	0.245
-292.662	-200.000	0.009	0.059
-291.647	-200.000	0.002	-0.112
-290.632	-81.819	0.280	0.091
-289.618	-63.160	-0.205	-0.084
-288.603	-98.606	0.105	-0.027
-287.589	-200.000	0.015	0.091
-286.574	93.676	0.027	-0.030
-285.559	-15.935	0.127	0.080
-284.545	-87.196	-0.246	0.074
-283.530	-138.297	-0.116	-0.013
-282.516	-192.255	0.083	-0.001
-281.501	30.179	0.044	0.037
-280.486	115.976	-0.140	0.169
-279.472	-174.148	0.225	-0.006
-278.457	-7.712	-0.331	-0.222
-277.443	-41.239	-0.318	-0.163
-276.428	-56.375	0.241	0.106
-275.413	-200.000	0.001	0.185
-274.399	-80.666	0.260	0.086
-273.384	-122.769	0.249	0.040
-272.370	-54.321	-0.034	-0.015
-271.355	-200.000	0.043	0.270
-270.340	-88.610	-0.234	-0.069
-269.326	351.404	-0.106	-0.209
-268.311	20.360	0.236	0.189
-267.297	-47.695	-0.265	0.127
-266.282	-118.347	-0.113	-0.020
-265.267	-30.032	-0.239	-0.135
-264.253	112.681	-0.189	0.226
-263.238	-200.000	0.041	0.347
-262.224	-143.098	0.269	-0.026
-261.209	800.000	0.066	0.287
-260.195	-145.417	0.271	-0.024
-259.180	800.000	0.140	-0.411
-258.165	-59.484	-0.115	-0.049
-257.151	88.958	0.026	0.029
-256.136	145.352	-0.127	0.169
-255.122	800.000	0.040	-0.110
-254.107	453.267	0.298	-0.653
-253.092	-200.000	-0.002	0.139
-252.078	417.558	-0.060	-0.127
-251.063	-200.000	0.003	0.127
-250.049	-13.733	-0.279	-0.179
-249.034	-1.696	0.237	0.165
-248.019	5.058	0.167	0.121
-247.005	-84.094	0.109	-0.034
-245.990	-200.000	-0.010	0.204
-244.976	79.516	-0.154	0.164
-243.961	144.530	-0.289	0.382
-242.946	592.982	-0.131	0.321
-241.932	-200.000	0.047	0.231
-240.917	-168.080	-0.228	0.009
-239.903	378.372	0.083	-0.168
-238.888	132.163	0.179	-0.229
-237.873	8.781	-0.304	-0.227
-236.859	25.194	0.132	0.109
-235.844	97.487	-0.144	0.164
-234.830	117.261	-0.097	-0.118
-233.815	248.006	0.127	-0.212
-232.800	-43.201	0.370	-0.185
-231.786	800.000	0.093	-0.334
-230.771	-151.199	-0.381	0.028
-229.757	74.881	-0.184	0.192
-228.742	-200.000	-0.026	-0.134
-227.727	288.117	-0.025	0.044
-226.713	-21.311	0.034	-0.020
-225.698	-123.967	-0.218	0.034
-224.684	800.000	-0.081	0.233
-223.669	-75.403	-0.245	-0.086
-222.655	-100.311	-0.259	-0.064
-221.640	12.550	0.078	0.059
-220.625	-125.223	0.205	-0.031
-219.611	392.471	0.099	0.203
-218.596	-127.617	0.238	0.034
-217.582	800.000	0.182	0.570
-216.567	800.000	-0.080	-0.314
-215.552	-200.000	0.017	-0.111
-214.538	-82.491	0.479	-0.154
-213.523	130.358	0.210	-0.266
-212.509	-60.832	-0.216	-0.090
-211.494	-151.629	-0.248	-0.018
-210.479	61.408	0.214	-0.210
-209.465	-92.542	0.280	0.078
-208.450	165.305	0.069	0.097
-207.436	-3.827	0.136	0.094
-206.421	-45.057	0.225	-0.110
-205.406	-200.000	0.012	0.182
-204.392	-200.000	-0.004	-0.224
-203.377	-153.093	0.290	0.020
-202.363	57.691	-0.077	0.074
-201.348	-36.974	-0.032	0.017
-200.333	442.628	0.047	0.102
-199.319	543.149	-0.072	0.169
-198.304	-22.985	0.208	-0.124
-197.290	280.504	-0.123	-0.217
-196.275	-200.000	0.025	0.207
-195.260	21.731	0.281	0.226
-194.246	290.252	-0.078	-0.139
-193.231	-109.377	0.125	0.026
-192.217	800.000	0.079	0.305
-191.202	-137.209	0.452	0.051
-190.187	-20.533	-0.168	0.102
-189.173	-200.000	0.029	0.425
-188.158	-9.384	0.210	0.139
-187.144	167.576	-0.151	-0.212
-186.129	-200.000	-0.050	0.405
-185.114	148.271	-0.145	-0.194
-184.100	39.491	-0.173	0.153
-183.085	-38.353	-0.226	0.118
-182.071	800.000	-0.029	0.125
-181.056	171.581	-0.130	0.184
-180.042	32.070	0.123	0.105
-179.027	800.000	-0.025	-0.082
-178.012	29.578	0.151	0.127
-176.998	212.199	-0.058	-0.090
-175.983	-11.634	0.127	0.082
-174.969	-156.820	0.383	0.023
-173.954	53.577	0.131	-0.124
-172.939	-200.000	0.017	0.095
-171.925	-125.625	0.109	-0.016
-170.910	-200.000	0.007	-0.030
-169.896	25.618	-0.409	-0.336
-168.881	-188.932	0.252	-0.003
-167.866	-200.000	-0.000	0.051
-166.852	-200.000	-0.024	0.199
-165.837	-34.166	-0.209	-0.113
-164.823	-200.000	0.014	-0.244
-163.808	-82.005	-0.290	0.094
-162.793	693.536	0.040	0.104
-161.779	-102.759	-0.130	-0.031
-160.764	218.845	-0.046	0.073
-159.750	41.144	0.218	0.194
-158.735	800.000	-0.094	0.320
-157.720	127.833	0.153	0.192
-156.706	36.314	-0.306	-0.266
-155.691	541.220	0.040	-0.095
-154.677	-156.579	-0.205	0.013
-153.662	-200.000	0.046	0.455
-152.647	432.838	-0.192	0.410
-151.633	229.862	-0.092	0.148
-150.618	-200.000	0.001	-0.379
-149.604	11.836	0.078	-0.059
-148.589	12.013	0.205	-0.155
-147.574	-152.323	-0.233	-0.017
-146.560	-20.653	-0.109	0.066
-145.545	65.610	-0.159	0.158
-144.531	107.856	0.044	0.051
-143.516	-84.026	-0.100	-0.031
-142.502	-125.524	-0.081	-0.012
-141.487	800.000	-0.022	-0.085
-140.472	265.264	0.136	0.234
-139.458	136.555	0.199	0.256
-138.443	-9.783	-0.108	0.071
-137.429	118.386	0.105	0.128
-136.414	-118.301	-0.183	-0.032
-135.399	-9.776	-0.152	0.100
-134.385	-200.000	0.026	0.180
-133.370	-134.863	0.308	-0.037
-132.356	63.248	-0.284	0.281
-131.341	800.000	0.100	-0.418
-130.326	13.335	-0.187	-0.143
-129.312	-96.153	-0.563	0.147
-128.297	171.286	0.151	-0.213
-127.283	-11.384	0.321	0.208
-126.268	800.000	-0.051	0.157
-125.253	193.825	0.180	0.269
-124.239	-58.919	0.206	0.088
-123.224	800.000	-0.045	-0.181
-122.210	800.000	0.027	-0.110
