DTS Sentinel unit serial number:	SN413079Multiplexer serial number:	ORYXHardware model number:	OX4-SRSoftware version number:	ORYX F/W v4.00 Oryx Data Collector v3.7.2.0data status	okinstallation	princeton_trtdifferential loss correction	single-endedforward channel	channel 3reverse channel	N/Adate	2019/09/12time	19:26:03forward acquisition time	15.00reverse acquisition time	0.00gamma	496.2192k internal	0.2321k external	0.2321temperature offset calibration	1.0113default loss term (dB/km)	0.3790temperature slope calibration	1.0000multiplexer offset coefficient	1.0000multiplexer slope coefficient	1.0000fibre end	0.00T internal ref (°C)	32.31T ext. ref 1 (°C)	3.26T ext. ref 2 (°C)	26.88length (m)	temperature (°C)	Stokes	anti-Stokes-747.200	-32.814	-0.507	0.285
-746.185	800.000	-0.122	0.429
-745.171	192.757	-0.250	-0.382
-744.156	-52.649	-0.193	0.090
-743.142	-120.507	-0.277	-0.048
-742.127	237.888	0.404	0.677
-741.112	-92.474	0.272	-0.077
-740.098	-200.000	0.102	0.654
-739.083	-200.000	-0.148	1.005
-738.069	-189.156	-0.315	0.004
-737.054	65.750	-0.185	0.190
-736.039	-151.090	-0.873	-0.066
-735.025	-50.573	0.557	-0.265
-734.010	-74.273	0.158	0.058
-732.996	-200.000	0.029	-0.537
-731.981	-25.250	0.177	0.106
-730.966	-15.332	0.534	-0.345
-729.952	-8.010	-0.400	-0.272
-728.937	800.000	-0.159	-0.465
-727.923	152.034	0.235	-0.324
-726.908	800.000	0.243	0.936
-725.894	-68.313	0.340	-0.134
-724.879	151.310	-0.317	0.436
-723.864	68.793	-0.228	0.236
-722.850	-127.015	-0.216	0.032
-721.835	493.233	0.470	1.089
-720.821	49.029	-0.549	-0.521
-719.806	-92.968	0.378	-0.106
-718.791	233.663	-0.022	-0.036
-717.777	48.125	0.143	0.135
-716.762	-147.789	-0.301	0.025
-715.748	757.561	-0.062	-0.170
-714.733	-200.000	0.134	-0.623
-713.718	25.987	-0.465	-0.392
-712.704	800.000	-0.098	-0.389
-711.689	10.113	1.192	0.915
-710.675	71.169	-0.303	-0.317
-709.660	-49.635	-0.388	0.186
-708.645	135.728	-0.399	0.525
-707.631	800.000	0.084	-0.265
-706.616	-200.000	-0.114	0.698
-705.602	-52.990	1.082	0.502
-704.587	181.442	-0.573	0.851
-703.572	123.553	0.197	-0.250
-702.558	-154.407	-0.323	0.022
-701.543	375.155	0.195	-0.401
-700.529	-69.571	0.429	-0.166
-699.514	-47.908	-0.167	0.082
-698.499	45.867	-0.380	-0.354
-697.485	-58.714	-0.985	0.430
-696.470	154.573	0.039	0.053
-695.456	-200.000	-0.083	0.423
-694.441	-72.396	-0.084	-0.031
-693.426	-200.000	0.022	-0.210
-692.412	51.988	-0.342	0.328
-691.397	-200.000	0.026	-0.459
-690.383	73.032	0.631	0.665
-689.368	37.427	-0.227	0.203
-688.354	-99.240	-0.367	0.093
-687.339	38.153	-0.435	-0.391
-686.324	-59.596	-0.427	0.185
-685.310	-200.000	-0.002	0.110
-684.295	800.000	-0.068	-0.240
-683.281	-200.000	-0.023	-0.143
-682.266	13.686	0.534	0.418
-681.251	356.040	-0.574	-1.153
-680.237	-8.539	0.340	0.230
-679.222	-144.421	0.941	0.088
-678.208	-44.966	-0.938	-0.471
-677.193	-126.782	0.752	0.112
-676.178	52.949	0.434	-0.418
-675.164	-33.984	0.448	0.248
-674.149	-138.221	0.747	-0.083
-673.135	-67.381	0.343	-0.136
-672.120	-98.796	0.805	-0.206
-671.105	158.133	0.272	-0.381
-670.091	-92.368	-0.784	-0.222
-669.076	-44.980	-0.665	-0.333
-668.062	-97.987	0.505	0.131
-667.047	800.000	0.133	-0.441
-666.032	69.845	-0.456	-0.474
-665.018	211.602	-0.080	0.127
-664.003	123.216	0.436	0.550
-662.989	-58.436	0.715	-0.313
-661.974	670.458	0.539	-1.407
-660.959	168.195	-0.197	0.283
-659.945	-200.000	0.199	0.901
-658.930	-187.712	-0.310	0.004
-657.916	-95.506	1.577	0.426
-656.901	-11.000	0.556	-0.370
-655.886	683.667	0.111	0.291
-654.872	-200.000	0.062	-0.683
-653.857	454.623	0.189	0.423
-652.843	99.074	0.345	0.402
-651.828	195.013	-0.517	-0.790
-650.814	65.008	-0.462	-0.470
-649.799	101.048	0.464	-0.544
-648.784	-166.570	-0.857	-0.036
-647.770	81.947	-0.345	0.377
-646.755	84.502	0.272	-0.299
-645.741	53.284	0.652	0.629
-644.726	-184.653	0.380	0.006
-643.711	28.002	0.282	-0.240
-642.697	391.445	-0.312	0.652
-641.682	-50.203	0.379	0.181
-640.668	-23.892	-0.752	-0.453
-639.653	-200.000	-0.031	-0.450
-638.638	485.510	0.286	-0.655
-637.624	-200.000	-0.138	-0.708
-636.609	-200.000	-0.123	-0.724
-635.595	-200.000	0.001	0.525
-634.580	-22.848	-0.541	-0.328
-633.565	-132.619	0.296	-0.038
-632.551	11.637	0.252	-0.195
-631.536	49.447	-0.304	-0.288
-630.522	237.672	0.287	0.478
-629.507	-137.539	-0.452	-0.051
-628.492	21.747	-0.398	-0.326
-627.478	36.731	-0.289	-0.257
-626.463	800.000	0.073	-0.295
-625.449	-93.700	0.053	-0.015
-624.434	-189.159	-1.509	-0.018
-623.419	257.693	0.427	-0.739
-622.405	-12.036	0.154	0.102
-621.390	800.000	-0.058	0.177
-620.376	800.000	0.049	-0.196
-619.361	-53.471	-0.503	0.231
-618.346	102.431	0.260	0.306
-617.332	29.300	0.326	0.279
-616.317	-59.393	-1.315	-0.568
-615.303	-200.000	-0.127	-0.905
-614.288	99.778	0.449	0.523
-613.273	800.000	0.148	0.417
-612.259	92.249	-0.374	-0.424
-611.244	800.000	-0.194	0.729
-610.230	-1.180	-0.134	-0.095
-609.215	194.196	0.216	0.330
-608.201	16.900	-0.651	0.518
-607.186	-64.279	0.299	-0.123
-606.171	28.069	0.195	-0.165
-605.157	130.866	-0.258	-0.333
-604.142	-82.017	0.136	-0.045
-603.128	-19.013	0.718	-0.449
-602.113	800.000	0.046	0.179
-601.098	-200.000	-0.165	-0.810
-600.084	203.579	0.220	0.343
-599.069	763.491	-0.130	-0.353
-598.055	-13.923	-0.300	-0.195
-597.040	154.116	-0.555	0.765
-596.025	-200.000	-0.055	-0.369
-595.011	46.870	0.405	0.379
-593.996	-20.188	-0.331	0.205
-592.982	-147.044	-0.155	-0.013
-591.967	35.686	0.550	-0.485
-590.952	-32.494	-0.196	-0.110
-589.938	-200.000	-0.005	-0.406
-588.923	324.655	-0.213	0.409
-587.909	94.814	0.159	-0.182
-586.894	99.088	0.316	-0.366
-585.879	-200.000	-0.110	-0.529
-584.865	348.388	-0.089	0.177
-583.850	800.000	0.160	0.576
-582.836	281.991	0.358	-0.644
-581.821	-136.986	0.184	0.021
-580.806	-200.000	0.048	-0.302
-579.792	438.762	-0.093	-0.203
-578.777	-200.000	0.028	0.178
-577.763	-200.000	0.014	-0.262
-576.748	-200.000	0.022	-0.099
-575.733	796.035	-0.181	0.500
-574.719	26.646	-0.850	-0.714
-573.704	-83.281	-0.643	0.207
-572.690	-118.362	0.413	-0.074
-571.675	22.810	-0.152	-0.125
-570.661	188.117	-0.232	0.347
-569.646	-21.468	-0.413	0.253
-568.631	-197.890	0.180	-0.001
-567.617	159.993	0.517	0.723
-566.602	725.387	0.231	0.618
-565.588	161.539	-0.146	-0.204
-564.573	254.766	-0.242	0.415
-563.558	62.616	-0.609	-0.611
-562.544	11.597	-0.461	0.354
-561.529	21.603	0.111	-0.091
-560.515	-200.000	-0.025	0.574
-559.500	-76.216	-0.298	0.105
-558.485	-200.000	-0.022	0.155
-557.471	780.597	-0.107	-0.293
-556.456	-5.405	-0.294	0.202
-555.442	143.038	0.249	0.332
-554.427	800.000	0.134	-0.510
-553.412	-27.086	-0.292	0.171
-552.398	120.267	0.519	-0.647
-551.383	-85.758	-0.814	0.253
-550.369	216.676	0.417	0.666
-549.354	586.014	-0.258	0.636
-548.339	1.321	-0.814	0.587
-547.325	-200.000	-0.014	0.387
-546.310	-73.005	0.326	-0.120
-545.296	3.406	0.755	-0.551
-544.281	176.853	0.261	-0.381
-543.266	215.923	0.538	-0.858
-542.252	-200.000	0.031	0.411
-541.237	35.633	0.513	-0.452
-540.223	497.822	0.224	0.516
-539.208	-200.000	0.002	0.465
-538.193	-39.508	-0.098	-0.052
-537.179	-122.150	-0.719	0.118
-536.164	218.644	0.301	0.481
-535.150	86.878	0.525	-0.582
-534.135	-75.456	-0.334	-0.119
-533.121	20.155	-0.593	-0.480
-532.106	411.869	-0.231	0.491
-531.091	-8.760	0.491	-0.330
-530.077	-200.000	0.152	-0.671
-529.062	648.948	0.225	-0.576
-528.048	-136.170	-0.608	0.071
-527.033	-98.179	0.571	0.147
-526.018	208.268	-0.113	0.178
-525.004	-50.797	0.213	-0.101
-523.989	-200.000	-0.061	0.528
-522.975	117.873	-0.100	-0.124
-521.960	6.872	-0.817	-0.610
-520.945	-80.738	-0.507	-0.169
-519.931	-109.276	-0.309	-0.066
-518.916	-143.645	0.455	0.043
-517.902	0.619	-0.277	-0.198
-516.887	-176.814	-0.757	-0.019
-515.872	-5.644	0.474	0.325
-514.858	-81.605	0.400	-0.131
-513.843	113.855	0.531	0.647
-512.829	-200.000	0.022	0.858
-511.814	-200.000	0.103	-0.590
-510.799	-174.194	0.267	0.008
-509.785	55.091	0.272	-0.263
-508.770	-160.995	-0.592	-0.031
-507.756	319.346	0.367	-0.697
-506.741	61.409	0.325	-0.324
-505.726	-200.000	-0.000	-0.469
-504.712	-61.840	0.419	0.175
-503.697	153.207	0.142	0.195
-502.683	-200.000	-0.010	-0.181
-501.668	394.752	-0.178	-0.371
-500.653	-47.568	0.280	0.136
-499.639	-86.753	-0.701	0.215
-498.624	-97.262	0.557	-0.146
-497.610	82.800	0.421	-0.458
-496.595	-69.543	-0.906	-0.347
-495.581	-128.674	0.750	-0.106
-494.566	-139.693	0.128	-0.014
-493.551	-200.000	-0.106	-0.552
-492.537	-90.059	0.719	-0.210
-491.522	-124.121	-0.661	-0.104
-490.508	-200.000	-0.234	-1.181
-489.493	139.885	0.274	0.362
-488.478	800.000	0.149	0.445
-487.464	-200.000	0.114	0.737
-486.449	239.568	-0.300	0.500
-485.435	195.683	-0.168	0.255
-484.420	-15.604	0.337	0.215
-483.405	294.682	0.145	-0.265
-482.391	172.889	-0.397	0.572
-481.376	232.868	-0.121	-0.199
-480.362	189.651	-0.125	-0.187
-479.347	-171.867	-0.805	-0.026
-478.332	-103.183	-0.599	0.142
-477.318	-32.195	0.722	-0.403
-476.303	325.249	-0.346	-0.662
-475.289	-34.043	-0.624	0.343
-474.274	-146.167	-0.389	-0.034
-473.259	-63.330	0.661	-0.272
-472.245	230.897	0.136	0.223
-471.230	146.899	-0.536	0.720
-470.216	-58.711	0.195	-0.085
-469.201	163.846	-0.132	-0.186
-468.186	29.353	-0.619	-0.526
-467.172	440.498	0.502	-1.097
-466.157	800.000	-0.145	0.489
-465.143	356.564	0.264	0.526
-464.128	-47.782	-0.803	0.389
-463.113	189.599	-0.487	-0.730
-462.099	-13.421	0.560	-0.363
-461.084	-120.869	0.335	0.056
-460.070	-131.230	-0.510	-0.068
-459.055	-12.230	1.180	-0.772
-458.040	336.523	-0.182	0.354
-457.026	-55.296	0.407	-0.183
-456.011	36.642	0.493	0.435
-454.997	115.495	-0.156	-0.191
-453.982	-119.748	-0.326	0.056
-452.968	800.000	0.095	0.291
-451.953	753.222	0.209	0.563
-450.938	-145.295	0.482	0.043
-449.924	441.038	-0.180	-0.392
-448.909	-114.469	0.459	0.088
-447.895	26.323	-0.335	0.280
-446.880	167.618	0.485	0.689
-445.865	-122.276	0.788	0.129
-444.851	-164.868	-0.758	-0.034
-443.836	-28.099	-0.257	-0.149
-442.822	-67.611	0.544	-0.213
-441.807	800.000	0.090	-0.371
-440.792	25.710	-0.419	0.349
-439.778	-116.116	0.574	0.107
-438.763	-37.494	-0.334	-0.178
-437.749	-32.931	0.591	-0.328
-436.734	800.000	0.015	0.047
-435.719	-62.228	0.698	-0.290
-434.705	0.519	0.206	-0.147
-433.690	-167.847	-0.387	0.015
-432.676	-200.000	-0.102	0.579
-431.661	-200.000	-0.090	-0.402
-430.646	579.283	-0.232	0.566
-429.632	-169.190	-0.408	0.015
-428.617	800.000	-0.146	-0.462
-427.603	138.194	0.348	0.456
-426.588	-69.508	0.473	-0.181
-425.573	140.686	-0.402	0.530
-424.559	-170.076	-0.377	-0.013
-423.544	177.355	-0.382	0.556
-422.530	-200.000	0.093	0.553
-421.515	-16.012	-0.755	0.479
-420.500	-156.173	-0.980	0.062
-419.486	-200.000	-0.016	-0.168
-418.471	-142.549	-1.104	0.108
-417.457	-200.000	-0.100	0.844
-416.442	106.316	-0.341	0.403
-415.428	11.713	-0.388	-0.297
-414.413	328.332	0.151	0.289
-413.398	-2.219	-0.049	0.034
-412.384	-200.000	0.095	-0.499
-411.369	-200.000	0.014	-0.252
-410.355	-105.248	-0.534	-0.121
-409.340	64.510	-0.235	0.236
-408.325	800.000	-0.059	-0.210
-407.311	-177.645	-1.071	-0.026
-406.296	22.737	0.085	0.070
-405.282	-200.000	0.119	0.654
-404.267	270.421	0.279	-0.489
-403.252	-113.824	-0.139	0.027
-402.238	53.792	-0.306	0.293
-401.223	83.269	0.439	0.476
-400.209	-157.000	0.613	0.037
-399.194	-87.355	-0.740	-0.224
-398.179	179.226	-0.207	-0.302
-397.165	420.646	0.222	-0.475
-396.150	96.052	0.250	0.285
-395.136	-81.818	-0.921	-0.301
-394.121	294.465	-0.422	-0.769
-393.106	349.732	0.216	-0.426
-392.092	800.000	0.183	0.566
-391.077	-69.800	-0.388	-0.148
-390.063	76.161	0.268	-0.283
-389.048	-85.602	0.653	0.202
-388.033	800.000	0.097	0.277
-387.019	-200.000	0.125	0.916
-386.004	349.193	-0.552	-1.086
-384.990	-20.672	0.654	-0.400
-383.975	-200.000	0.076	0.404
-382.960	322.049	-0.321	-0.608
-381.946	-11.854	0.720	0.471
-380.931	291.529	0.262	0.476
-379.917	394.248	-0.148	-0.308
-378.902	26.407	0.443	0.369
-377.888	192.205	-0.515	0.774
-376.873	-200.000	0.107	0.711
-375.858	-130.940	0.862	-0.115
-374.844	-44.287	-0.302	0.151
-373.829	-200.000	0.004	-0.241
-372.815	800.000	-0.091	0.286
-371.800	222.861	0.287	0.461
-370.785	-2.016	-0.195	0.136
-369.771	-131.571	-0.153	-0.020
-368.756	-16.556	-0.326	0.206
-367.742	14.734	-0.838	-0.652
-366.727	-166.791	-0.102	-0.004
-365.712	-124.818	0.445	0.068
-364.698	-104.773	0.219	-0.050
-363.683	-68.006	0.177	-0.069
-362.669	507.176	0.109	-0.251
-361.654	89.499	0.568	-0.631
-360.639	-200.000	-0.038	0.667
-359.625	-137.646	0.972	-0.109
-358.610	-148.413	0.190	0.016
-357.596	-200.000	-0.036	-0.737
-356.581	400.584	-0.072	-0.150
-355.566	209.335	0.239	-0.373
-354.552	27.368	-0.224	-0.188
-353.537	-170.134	0.616	0.022
-352.523	-200.000	0.111	-0.565
-351.508	-99.289	0.411	-0.103
-350.493	-90.895	-0.136	-0.039
-349.479	145.190	0.312	0.415
-348.464	-54.534	0.405	-0.182
-347.450	330.304	-0.020	-0.039
-346.435	-200.000	-0.030	0.807
-345.420	115.589	0.435	-0.530
-344.406	-57.672	0.114	-0.050
-343.391	238.059	0.457	-0.755
-342.377	-144.058	-0.195	0.018
-341.362	-88.173	0.697	-0.208
-340.348	116.122	0.150	0.183
-339.333	233.673	-0.320	0.524
-338.318	5.605	0.574	-0.422
-337.304	742.755	-0.200	0.536
-336.289	182.836	0.425	-0.623
-335.275	-159.420	-0.485	-0.027
-334.260	293.303	-0.142	-0.258
-333.245	175.530	0.209	-0.302
-332.231	-108.635	0.150	-0.032
-331.216	56.172	-0.201	0.194
-330.202	74.663	-0.464	0.485
-329.187	-104.527	-0.092	-0.021
-328.172	800.000	0.251	-0.695
-327.158	128.095	-0.311	0.393
-326.143	248.967	0.128	0.216
-325.129	152.523	0.331	-0.449
-324.114	259.632	-0.358	-0.615
-323.099	-127.145	1.270	-0.185
-322.085	150.823	-0.040	0.055
-321.070	61.822	-0.295	0.292
-320.056	15.663	-0.566	0.442
-319.041	61.910	-0.462	0.457
-318.026	-88.091	0.546	-0.163
-317.012	-57.290	0.388	-0.169
-315.997	-110.790	-0.631	-0.129
-314.983	800.000	-0.149	-0.410
-313.968	96.303	0.504	0.572
-312.953	-63.849	-0.376	0.153
-311.939	197.207	-0.148	-0.224
-310.924	-200.000	0.110	-0.786
-309.910	-94.315	-0.391	-0.106
-308.895	2.023	0.206	0.148
-307.880	-68.335	-0.172	0.066
-306.866	60.233	0.656	0.644
-305.851	-93.456	-0.510	-0.140
-304.837	-200.000	0.079	0.356
-303.822	-200.000	0.069	-0.766
-302.807	-76.230	-0.372	-0.130
-301.793	70.582	0.478	0.491
-300.778	-139.327	-0.771	0.082
-299.764	14.322	0.257	0.199
-298.749	-200.000	0.104	-0.532
-297.735	-3.655	0.568	0.392
-296.720	-37.695	-1.128	0.597
-295.705	-200.000	-0.138	-0.726
-294.691	349.287	-0.251	0.492
-293.676	-111.131	-0.452	0.092
-292.662	274.742	-0.248	-0.437
-291.647	388.061	0.220	0.452
-290.632	-46.761	0.694	0.337
-289.618	-200.000	0.063	-0.360
-288.603	-93.883	-0.716	-0.195
-287.589	-200.000	-0.026	0.346
-286.574	-200.000	-0.075	-0.596
-285.559	-48.975	0.245	-0.116
-284.545	19.680	-0.601	-0.480
-283.530	14.465	0.370	-0.287
-282.516	1.003	-0.703	0.500
-281.501	223.341	0.267	0.427
-280.486	-68.234	0.707	0.273
-279.472	-101.158	0.783	-0.190
-278.457	-200.000	-0.199	0.912
-277.443	-5.822	-0.932	0.633
-276.428	800.000	0.205	0.635
-275.413	-7.786	-0.546	0.366
-274.399	-44.714	-0.477	-0.236
-273.384	800.000	-0.164	-0.652
-272.370	67.869	-0.830	0.842
-271.355	800.000	0.247	1.002
-270.340	56.984	-0.465	-0.450
-269.326	-166.561	0.644	0.027
-268.311	800.000	-0.045	-0.174
-267.297	777.018	-0.241	-0.652
-266.282	-20.427	-0.821	0.501
-265.267	137.488	0.206	-0.268
-264.253	-180.450	-0.345	0.007
-263.238	501.797	0.122	0.280
-262.224	-200.000	0.132	-0.723
-261.209	-94.572	-0.338	0.091
-260.195	502.973	0.029	0.067
-259.180	-4.015	0.676	0.465
-258.165	-200.000	-0.034	-0.952
-257.151	91.157	0.185	-0.206
-256.136	26.644	0.186	-0.154
-255.122	-122.853	-0.388	0.062
-254.107	-99.006	-0.432	0.109
-253.092	-14.490	0.292	-0.186
-252.078	-41.310	-0.128	0.065
-251.063	800.000	-0.035	0.113
-250.049	412.997	0.122	0.258
-249.034	-54.895	-0.136	0.061
-248.019	-200.000	0.042	-0.214
-247.005	32.922	0.368	-0.316
-245.990	-200.000	0.108	-0.661
-244.976	273.602	-0.252	0.442
-243.961	104.680	0.113	-0.132
-242.946	-54.370	0.203	-0.091
-241.932	-174.975	0.287	0.008
-240.917	-54.874	-0.262	0.117
-239.903	336.397	-0.317	0.610
-238.888	602.726	0.100	-0.247
-237.873	652.643	-0.231	-0.587
-236.859	-116.968	0.415	0.075
-235.844	-200.000	-0.018	0.219
-234.830	39.275	-0.644	-0.571
-233.815	-66.116	0.150	-0.059
-232.800	-200.000	-0.035	-0.310
-231.786	490.537	0.152	0.344
-230.771	269.640	-0.171	-0.297
-229.757	-200.000	-0.005	-0.131
-228.742	230.527	0.360	0.583
-227.727	-193.649	0.383	-0.003
-226.713	-200.000	0.040	-0.547
-225.698	-200.000	-0.005	0.497
-224.684	-2.544	0.713	-0.494
-223.669	-5.473	0.430	-0.292
-222.655	100.488	-0.215	0.247
-221.640	92.927	-0.216	-0.242
-220.625	107.410	0.029	-0.035
-219.611	-16.505	-0.158	0.099
-218.596	345.270	0.143	0.278
-217.582	-78.418	-0.221	0.075
-216.567	-200.000	0.068	-0.396
-215.552	39.624	0.197	-0.175
-214.538	-66.399	0.429	-0.169
-213.523	-200.000	0.060	-0.328
-212.509	-169.608	-0.263	-0.009
-211.494	-200.000	0.029	-0.375
-210.479	-81.367	0.647	0.211
-209.465	-33.337	-0.298	-0.163
-208.450	133.248	0.540	-0.690
-207.436	73.542	-0.234	-0.243
-206.421	54.219	-0.300	-0.286
-205.406	-200.000	-0.112	0.513
-204.392	800.000	-0.118	0.499
-203.377	-200.000	-0.014	-0.141
-202.363	-200.000	0.144	0.987
-201.348	202.493	-0.235	-0.359
-200.333	-145.362	0.657	-0.059
-199.319	-40.439	0.394	0.202
-198.304	-200.000	0.077	1.015
-197.290	-200.000	-0.209	1.258
-196.275	41.341	0.176	0.158
-195.260	-124.344	0.636	0.098
-194.246	-161.462	-0.200	-0.010
-193.231	800.000	0.325	1.120
-192.217	-119.517	1.100	-0.189
-191.202	-158.627	-0.494	0.028
-190.187	88.473	-0.590	0.648
-189.173	35.417	0.326	0.283
-188.158	-178.650	0.257	0.006
-187.144	-112.790	-0.454	0.089
-186.129	168.077	-0.308	-0.434
-185.114	345.166	0.222	0.430
-184.100	-41.135	0.577	0.295
-183.085	104.406	0.091	0.106
-182.071	800.000	0.324	1.068
-181.056	-193.818	0.607	0.005
-180.042	-43.009	-0.411	-0.206
-179.027	48.471	-0.766	-0.709
-178.012	-10.480	0.144	0.094
-176.998	-19.080	0.239	0.147
-175.983	145.477	-0.222	-0.293
-174.969	133.065	0.246	0.315
-173.954	395.904	0.273	-0.564
-172.939	301.149	-0.271	0.495
-171.925	80.535	0.313	0.333
-170.910	-18.143	0.722	0.447
-169.896	-37.230	0.322	-0.170
-168.881	-200.000	-0.125	-0.600
-167.866	741.529	0.063	-0.168
-166.852	-200.000	0.007	0.314
-165.837	273.219	0.207	0.362
-164.823	-51.684	-0.530	0.244
-163.808	2.451	0.416	0.297
-162.793	60.608	0.293	0.287
-161.779	-75.083	0.540	0.191
-160.764	-200.000	0.068	-0.356
-159.750	-161.750	0.345	0.017
-158.735	209.972	-0.176	0.272
-157.720	-25.113	0.205	0.120
-156.706	164.548	-0.356	0.496
-155.691	-95.060	-0.689	-0.184
-154.677	-93.921	0.745	-0.202
-153.662	138.835	-0.476	-0.618
-152.647	-93.198	-0.524	-0.144
-151.633	-125.035	1.594	0.242
-150.618	-134.609	-0.131	0.016
-149.604	303.244	0.146	-0.267
-148.589	-200.000	0.082	-0.743
-147.574	-82.358	0.443	-0.142
-146.560	72.599	0.556	-0.573
-145.545	78.673	-0.459	-0.485
-144.531	-200.000	0.073	0.452
-143.516	608.226	0.036	0.089
-142.502	42.601	0.494	0.444
-141.487	-6.867	0.545	0.366
-140.472	-138.196	0.779	-0.085
-139.458	-200.000	-0.021	0.531
-138.443	800.000	0.205	0.722
-137.429	783.935	-0.125	0.338
-136.414	-115.879	-0.890	0.164
-135.399	800.000	-0.205	0.609
-134.385	129.182	0.467	0.588
-133.370	-200.000	0.058	-0.309
-132.356	-175.438	-0.663	0.018
-131.341	-56.059	0.195	-0.086
-130.326	-59.169	-0.595	0.253
-129.312	281.434	-0.464	0.821
-128.297	245.623	0.740	1.229
-127.283	214.124	0.420	-0.655
-126.268	650.022	0.069	-0.175
-125.253	-102.399	-0.881	0.208
-124.239	800.000	0.232	-0.639
-123.224	-151.716	0.575	-0.042
-122.210	46.678	-1.116	1.022
-121.195	-97.841	0.209	-0.053
