DTS Sentinel unit serial number:	SN413079Multiplexer serial number:	ORYXHardware model number:	OX4-SRSoftware version number:	ORYX F/W v4.00 Oryx Data Collector v3.7.2.0data status	okinstallation	princeton_trtdifferential loss correction	single-endedforward channel	channel 3reverse channel	N/Adate	2019/09/11time	08:46:10forward acquisition time	60.00reverse acquisition time	0.00gamma	496.2192k internal	0.2311k external	0.2311temperature offset calibration	0.9937default loss term (dB/km)	0.3790temperature slope calibration	1.0000multiplexer offset coefficient	1.0000multiplexer slope coefficient	1.0000fibre end	0.00T internal ref (°C)	33.69T ext. ref 1 (°C)	0.12T ext. ref 2 (°C)	30.91length (m)	temperature (°C)	Stokes	anti-Stokes-747.200	-113.663	0.405	0.080
-746.185	-44.149	-0.257	0.131
-745.171	-155.640	-0.263	0.017
-744.156	-51.621	-0.379	0.179
-743.142	-156.228	0.173	-0.011
-742.127	800.000	-0.078	-0.245
-741.112	728.323	0.061	0.165
-740.098	-117.063	-0.291	0.054
-739.083	-77.876	-0.168	-0.059
-738.069	-138.074	0.040	-0.004
-737.054	121.748	0.112	0.142
-736.039	-84.571	-0.300	0.096
-735.025	-121.591	0.349	0.059
-734.010	224.199	-0.095	0.156
-732.996	-67.659	-0.282	0.112
-731.981	25.484	0.161	0.136
-730.966	-17.313	0.154	-0.098
-729.952	706.492	0.019	-0.050
-728.937	-37.251	0.250	0.135
-727.923	-74.681	0.124	-0.045
-726.908	-200.000	-0.032	-0.197
-725.894	-200.000	-0.001	-0.125
-724.879	800.000	0.052	0.200
-723.864	648.618	-0.060	0.156
-722.850	56.818	-0.173	-0.170
-721.835	800.000	0.065	-0.228
-720.821	-105.270	0.324	0.075
-719.806	-64.727	0.185	-0.076
-718.791	-88.242	0.361	-0.110
-717.777	217.916	-0.080	0.130
-716.762	449.928	0.081	-0.182
-715.748	549.417	0.120	0.293
-714.733	-72.825	-0.102	-0.038
-713.718	-200.000	0.003	-0.088
-712.704	80.573	-0.202	0.221
-711.689	-43.789	-0.402	-0.205
-710.675	546.948	0.075	0.181
-709.660	-200.000	0.409	-0.001
-708.645	79.036	0.112	0.121
-707.631	124.772	-0.017	-0.022
-706.616	-157.496	0.167	0.010
-705.602	-160.944	0.056	-0.003
-704.587	582.860	0.047	0.117
-703.572	68.984	0.146	0.152
-702.558	18.907	-0.212	-0.172
-701.543	378.398	-0.099	0.206
-700.529	285.779	-0.026	0.047
-699.514	795.285	-0.083	0.230
-698.499	436.097	-0.039	-0.086
-697.485	-138.796	-0.276	-0.030
-696.470	44.341	-0.132	-0.123
-695.456	81.189	-0.148	0.162
-694.441	-150.184	-0.218	-0.017
-693.426	800.000	-0.034	-0.125
-692.412	-105.412	-0.230	0.053
-691.397	800.000	0.086	0.268
-690.383	-83.248	0.333	0.108
-689.368	386.076	0.095	-0.198
-688.354	168.833	0.110	-0.158
-687.339	-70.451	-0.179	-0.069
-686.324	197.153	-0.113	-0.175
-685.310	248.951	0.097	-0.167
-684.295	84.831	0.252	-0.280
-683.281	-69.853	-0.259	0.100
-682.266	-38.589	-0.298	-0.159
-681.251	-0.447	0.101	-0.073
-680.237	-3.668	0.067	-0.047
-679.222	-105.530	-0.058	-0.013
-678.208	-132.415	0.311	-0.041
-677.193	-182.681	-0.127	0.002
-676.178	76.039	0.124	-0.133
-675.164	-116.459	0.347	0.065
-674.149	-71.376	-0.051	-0.020
-673.135	33.179	-0.266	-0.234
-672.120	-96.946	-0.165	-0.044
-671.105	11.403	-0.093	-0.072
-670.091	-106.262	0.248	-0.056
-669.076	83.943	-0.061	0.067
-668.062	-171.582	-0.104	0.003
-667.047	-62.177	0.331	0.140
-666.032	-6.868	-0.227	0.156
-665.018	214.163	-0.129	-0.207
-664.003	205.650	0.128	0.201
-662.989	800.000	-0.076	0.246
-661.974	-98.244	0.193	0.050
-660.959	-200.000	-0.057	0.344
-659.945	-121.579	0.123	0.021
-658.930	-78.245	-0.258	-0.090
-657.916	58.951	-0.122	-0.121
-656.901	121.554	0.079	0.100
-655.886	277.131	0.015	0.028
-654.872	-200.000	0.006	-0.240
-653.857	565.260	0.116	-0.286
-652.843	-101.478	0.302	0.074
-651.828	-134.684	-0.036	0.004
-650.814	-92.867	0.280	0.079
-649.799	1.246	0.175	0.127
-648.784	403.775	-0.049	-0.104
-647.770	-25.618	0.161	0.096
-646.755	453.527	-0.051	-0.115
-645.741	-39.114	0.405	0.215
-644.726	11.198	0.121	0.094
-643.711	-159.763	-0.385	0.021
-642.697	-104.571	0.150	-0.035
-641.682	528.995	-0.126	-0.301
-640.668	141.462	0.123	0.164
-639.653	151.842	-0.182	0.251
-638.638	-109.581	-0.130	0.028
-637.624	-26.987	-0.159	0.094
-636.609	751.331	0.062	-0.169
-635.595	-200.000	-0.086	-0.398
-634.580	60.072	-0.210	-0.210
-633.565	-0.355	-0.090	-0.065
-632.551	-200.000	-0.040	-0.307
-631.536	-22.059	-0.341	-0.209
-630.522	-77.841	0.192	-0.067
-629.507	-152.981	0.082	-0.006
-628.492	-55.272	0.259	0.118
-627.478	-113.189	0.082	0.016
-626.463	144.436	-0.171	-0.231
-625.449	34.451	0.146	0.128
-624.434	172.124	-0.078	0.113
-623.419	800.000	-0.105	-0.299
-622.405	162.477	-0.257	-0.364
-621.390	462.299	0.199	-0.448
-620.376	-6.500	0.127	0.088
-619.361	800.000	-0.050	0.195
-618.346	53.163	0.203	-0.197
-617.332	800.000	-0.102	-0.292
-616.317	-45.353	-0.049	-0.025
-615.303	116.862	0.147	-0.182
-614.288	208.558	-0.122	-0.193
-613.273	-200.000	-0.077	-0.393
-612.259	92.090	-0.164	-0.186
-611.244	57.105	0.124	-0.122
-610.230	-31.433	0.124	0.070
-609.215	501.681	-0.025	0.059
-608.201	2.991	-0.198	-0.146
-607.186	93.129	0.148	-0.169
-606.171	-200.000	-0.012	0.256
-605.157	5.548	0.216	0.161
-604.142	800.000	-0.032	0.111
-603.128	150.973	-0.036	0.049
-602.113	252.141	0.165	-0.284
-601.098	-200.000	-0.022	0.117
-600.084	800.000	-0.035	0.106
-599.069	-49.800	0.391	0.188
-598.055	19.374	-0.204	0.165
-597.040	-40.071	0.139	-0.073
-596.025	31.316	-0.057	0.049
-595.011	365.180	-0.087	-0.177
-593.996	-200.000	-0.059	0.327
-592.982	110.016	-0.228	0.277
-591.967	145.170	-0.190	-0.257
-590.952	-117.991	0.276	-0.050
-589.938	-137.092	0.205	-0.024
-588.923	-184.306	-0.326	0.005
-587.909	-11.073	0.092	0.062
-586.894	-73.045	-0.095	-0.035
-585.879	800.000	-0.049	0.170
-584.865	462.819	0.104	0.233
-583.850	-66.887	-0.348	0.139
-582.836	-200.000	-0.248	-0.001
-581.821	-35.433	0.248	0.136
-580.806	-24.878	0.161	-0.096
-579.792	-37.773	0.168	-0.090
-578.777	800.000	0.122	-0.382
-577.763	-200.000	0.019	0.093
-576.748	501.270	0.132	0.307
-575.733	248.189	0.147	-0.251
-574.719	278.540	-0.132	0.238
-573.704	351.128	0.160	-0.320
-572.690	356.309	-0.178	0.357
-571.675	483.778	0.117	0.269
-570.661	800.000	-0.033	0.114
-569.646	-63.517	0.330	-0.136
-568.631	-20.207	0.067	-0.042
-567.617	-5.007	0.102	-0.071
-566.602	788.206	-0.085	0.236
-565.588	-200.000	-0.033	0.244
-564.573	-200.000	-0.024	0.337
-563.558	-86.874	-0.242	0.075
-562.544	-161.900	-0.208	-0.011
-561.529	-121.299	0.197	0.033
-560.515	652.906	-0.032	0.083
-559.500	51.905	-0.161	0.154
-558.485	-126.447	-0.020	0.003
-557.471	-107.923	-0.285	0.063
-556.456	-159.117	-0.296	-0.017
-555.442	53.089	0.205	-0.197
-554.427	326.127	-0.125	-0.241
-553.412	-124.128	0.022	0.004
-552.398	22.293	-0.288	0.237
-551.383	419.761	-0.084	0.182
-550.369	329.759	0.163	0.316
-549.354	800.000	-0.038	0.119
-548.339	-200.000	0.016	-0.178
-547.325	-163.231	0.194	-0.009
-546.310	-180.814	-0.388	0.008
-545.296	86.746	0.140	0.156
-544.281	800.000	-0.082	-0.287
-543.266	-6.614	-0.089	-0.061
-542.252	-125.843	0.357	-0.054
-541.237	127.837	-0.084	0.107
-540.223	-200.000	-0.029	-0.279
-539.208	376.127	0.034	0.069
-538.193	-200.000	0.028	0.186
-537.179	-99.585	0.152	-0.038
-536.164	800.000	-0.093	0.297
-535.150	-154.932	0.117	-0.008
-534.135	75.857	0.102	-0.109
-533.121	800.000	0.041	-0.133
-532.106	130.800	-0.098	0.127
-531.091	-13.224	-0.135	0.088
-530.077	800.000	0.082	0.254
-529.062	-196.476	-0.093	-0.001
-528.048	332.379	-0.086	-0.168
-527.033	72.378	-0.086	-0.091
-526.018	462.097	-0.193	0.434
-525.004	343.941	-0.121	0.239
-523.989	-147.128	0.111	-0.010
-522.975	-79.302	0.274	0.094
-521.960	800.000	-0.125	-0.383
-520.945	32.773	0.178	-0.155
-519.931	-3.106	-0.195	0.137
-518.916	-92.069	-0.347	-0.099
-517.902	-200.000	0.031	-0.253
-516.887	800.000	0.059	0.252
-515.872	56.207	-0.131	-0.128
-514.858	-154.316	0.158	-0.011
-513.843	-26.053	0.103	0.061
-512.829	-153.936	0.277	-0.019
-511.814	-200.000	0.014	0.369
-510.799	-27.764	-0.393	0.229
-509.785	187.162	0.113	0.170
-508.770	-63.748	-0.051	-0.021
-507.756	-157.428	0.126	0.008
-506.741	46.033	0.201	0.187
-505.726	345.343	-0.060	0.119
-504.712	-87.130	0.346	0.106
-503.697	228.556	-0.099	-0.163
-502.683	252.135	0.146	-0.251
-501.668	-200.000	0.072	0.410
-500.653	10.189	0.206	-0.157
-499.639	800.000	-0.034	-0.114
-498.624	-101.416	-0.197	0.048
-497.610	-200.000	0.009	0.127
-496.595	701.333	-0.220	0.582
-495.581	-132.691	0.464	-0.060
-494.566	-123.658	-0.177	0.028
-493.551	68.815	0.229	0.236
-492.537	628.311	0.037	-0.093
-491.522	-200.000	0.007	-0.237
-490.508	345.163	-0.070	-0.138
-489.493	800.000	-0.050	-0.181
-488.478	400.715	0.042	-0.089
-487.464	-97.754	-0.399	-0.104
-486.449	800.000	-0.096	-0.378
-485.435	-62.690	-0.269	-0.112
-484.420	-200.000	0.050	-0.252
-483.405	37.204	0.012	0.010
-482.391	800.000	0.035	0.125
-481.376	165.427	0.162	0.230
-480.362	-137.536	0.169	-0.019
-479.347	78.694	-0.193	0.208
-478.332	-87.652	0.264	-0.080
-477.318	104.198	-0.350	-0.414
-476.303	-144.410	0.155	0.014
-475.289	-45.522	-0.142	-0.071
-474.274	-200.000	0.021	0.262
-473.259	800.000	-0.050	-0.144
-472.245	23.570	-0.202	-0.167
-471.230	800.000	0.030	-0.097
-470.216	-14.043	0.137	0.089
-469.201	-200.000	0.020	-0.244
-468.186	80.831	-0.088	-0.096
-467.172	800.000	-0.116	-0.404
-466.157	-17.328	0.133	0.084
-465.143	74.428	-0.015	-0.016
-464.128	31.626	0.016	-0.014
-463.113	-62.132	-0.069	0.029
-462.099	421.044	-0.267	-0.574
-461.084	264.470	0.074	-0.129
-460.070	-200.000	-0.006	-0.157
-459.055	330.345	0.126	-0.243
-458.040	-0.028	0.280	0.200
-457.026	433.477	-0.099	0.215
-456.011	17.856	-0.138	0.110
-454.997	735.044	0.059	0.159
-453.982	-41.517	0.152	0.079
-452.968	75.986	-0.171	0.181
-451.953	-200.000	0.019	-0.237
-450.938	-165.196	-0.222	0.010
-449.924	-165.682	-0.139	0.006
-448.909	292.842	-0.100	-0.183
-447.895	363.503	-0.154	0.311
-446.880	283.392	-0.059	0.107
-445.865	-10.346	-0.103	-0.069
-444.851	-189.847	0.397	-0.005
-443.836	-200.000	0.031	0.196
-442.822	-67.694	0.416	-0.163
-441.807	237.407	0.075	0.125
-440.792	-81.461	0.152	-0.050
-439.778	192.561	-0.151	-0.229
-438.763	-200.000	0.017	-0.117
-437.749	439.495	-0.072	0.157
-436.734	-153.997	0.260	-0.018
-435.719	-11.311	-0.173	-0.114
-434.705	-200.000	0.025	0.320
-433.690	-166.026	-0.561	0.024
-432.676	-158.778	0.265	0.015
-431.661	-147.697	-0.282	-0.024
-430.646	282.275	-0.004	0.008
-429.632	-200.000	0.036	0.230
-428.617	-76.019	0.221	-0.078
-427.603	220.624	0.030	-0.047
-426.588	-83.414	0.344	0.110
-425.573	5.476	0.206	-0.152
-424.559	-52.735	0.432	0.200
-423.544	-7.932	-0.274	-0.185
-422.530	427.065	-0.043	-0.093
-421.515	-94.571	0.076	-0.021
-420.500	-36.304	-0.125	0.068
-419.486	-7.033	0.081	-0.055
-418.471	-200.000	-0.056	-0.278
-417.457	-107.439	0.239	0.052
-416.442	800.000	-0.035	0.097
-415.428	-54.009	-0.442	0.202
-414.413	-200.000	-0.022	-0.280
-413.398	-77.473	-0.112	0.039
-412.384	-102.956	0.479	-0.114
-411.369	-200.000	-0.036	-0.197
-410.355	-48.866	0.213	-0.102
-409.340	800.000	0.056	0.218
-408.325	-73.416	0.038	0.014
-407.311	-131.264	0.098	-0.013
-406.296	65.285	0.163	0.165
-405.282	-86.557	0.095	-0.029
-404.267	85.908	-0.294	-0.324
-403.252	123.100	-0.098	0.123
-402.238	-104.630	0.115	-0.027
-401.223	246.074	-0.021	-0.035
-400.209	288.538	0.140	-0.254
-399.194	119.514	-0.111	-0.138
-398.179	-43.867	0.149	0.075
-397.165	130.586	-0.087	-0.112
-396.150	-71.630	0.168	0.063
-395.136	84.519	0.066	0.072
-394.121	-30.869	-0.304	-0.172
-393.106	800.000	-0.033	-0.144
-392.092	-80.334	0.499	-0.167
-391.077	-114.161	-0.160	0.031
-390.063	-98.240	0.383	0.099
-389.048	-24.014	0.103	-0.061
-388.033	-130.723	-0.295	0.040
-387.019	271.585	0.024	0.042
-386.004	78.782	-0.079	0.085
-384.990	156.531	-0.097	0.134
-383.975	32.523	-0.120	0.104
-382.960	-53.009	0.251	-0.116
-381.946	800.000	-0.017	0.062
-380.931	-87.333	0.330	-0.100
-379.917	711.912	-0.065	0.171
-378.902	-137.039	-0.240	-0.027
-377.888	-179.172	-0.176	-0.004
-376.873	142.311	0.207	-0.275
-375.858	-103.875	0.144	-0.034
-374.844	24.058	-0.148	-0.122
-373.829	-57.702	-0.268	0.117
-372.815	-200.000	0.024	0.322
-371.800	-78.183	-0.200	0.069
-370.785	-19.850	-0.127	-0.078
-369.771	-200.000	0.032	-0.377
-368.756	-7.046	-0.129	-0.087
-367.742	-60.838	-0.249	0.106
-366.727	-77.227	-0.073	-0.026
-365.712	72.720	0.174	-0.181
-364.698	-200.000	0.006	0.133
-363.683	669.117	-0.040	0.103
-362.669	195.660	-0.190	-0.288
-361.654	-200.000	-0.064	0.377
-360.639	-200.000	0.027	0.258
-359.625	33.274	0.165	0.143
-358.610	-85.426	0.193	0.060
-357.596	-200.000	0.030	0.320
-356.581	237.308	-0.113	0.188
-355.566	-31.089	-0.052	-0.030
-354.552	142.146	0.129	-0.171
-353.537	-200.000	0.009	0.353
-352.523	308.795	-0.091	-0.169
-351.508	22.783	-0.128	-0.105
-350.493	-200.000	0.061	0.280
-349.479	74.520	0.117	-0.123
-348.464	800.000	-0.107	0.323
-347.450	-49.936	-0.220	0.104
-346.435	798.073	0.084	0.230
-345.420	31.884	0.163	0.140
-344.406	-200.000	-0.022	0.112
-343.391	-96.321	-0.237	-0.063
-342.377	73.392	0.031	0.032
-341.362	800.000	-0.079	0.231
-340.348	-200.000	-0.054	0.341
-339.333	-110.989	-0.196	-0.040
-338.318	208.527	0.132	0.206
-337.304	308.287	0.140	0.261
-336.289	-2.732	-0.298	0.208
-335.275	-180.170	-0.067	-0.001
-334.260	186.475	-0.096	-0.142
-333.245	-40.880	0.370	-0.191
-332.231	-124.926	-0.244	-0.038
-331.216	112.263	-0.143	0.173
-330.202	-170.117	0.185	-0.007
-329.187	568.933	0.120	-0.291
-328.172	-200.000	0.029	-0.169
-327.158	634.058	-0.176	0.446
-326.143	19.154	0.220	0.177
-325.129	103.418	-0.051	0.060
-324.114	800.000	0.021	-0.063
-323.099	800.000	-0.067	0.264
-322.085	800.000	0.079	0.337
-321.070	-31.338	0.144	-0.081
-320.056	-108.910	-0.269	-0.057
-319.041	-22.122	-0.217	-0.132
-318.026	236.465	0.114	-0.189
-317.012	-159.805	-0.261	-0.014
-315.997	-200.000	-0.020	-0.330
-314.983	-107.848	-0.208	0.045
-313.968	228.602	-0.057	0.092
-312.953	157.724	-0.195	-0.270
-311.939	-126.778	0.111	-0.016
-310.924	-49.538	-0.174	0.083
-309.910	23.250	0.244	0.200
-308.895	119.636	-0.103	0.128
-307.880	-132.934	0.474	0.060
-306.866	419.209	0.088	-0.188
-305.851	325.321	-0.173	-0.330
-304.837	76.732	-0.220	0.233
-303.822	8.035	0.090	0.068
-302.807	322.977	-0.092	-0.175
-301.793	-40.791	0.086	0.045
-300.778	-110.510	0.106	-0.022
-299.764	800.000	-0.068	0.283
-298.749	-200.000	-0.023	0.128
-297.735	591.544	-0.109	-0.268
-296.720	-113.980	-0.273	-0.053
-295.705	-136.393	-0.055	-0.006
-294.691	-200.000	-0.015	0.235
-293.676	800.000	0.098	0.321
-292.662	-121.289	-0.232	-0.039
-291.647	22.869	0.189	-0.155
-290.632	-200.000	-0.032	0.196
-289.618	87.426	-0.166	-0.183
-288.603	-11.569	-0.220	0.144
-287.589	92.909	-0.203	-0.228
-286.574	341.313	0.057	-0.111
-285.559	147.539	-0.102	0.138
-284.545	0.198	0.202	0.143
-283.530	-25.784	0.319	-0.187
-282.516	-200.000	-0.060	0.441
-281.501	800.000	0.014	0.051
-280.486	-136.823	-0.290	-0.033
-279.472	-200.000	-0.034	-0.191
-278.457	-85.035	-0.097	-0.030
-277.443	23.577	0.247	0.203
-276.428	-39.873	-0.150	-0.078
-275.413	16.300	0.191	0.150
-274.399	-200.000	0.045	0.203
-273.384	-57.937	-0.087	0.038
-272.370	-27.210	-0.180	-0.104
-271.355	580.554	-0.074	0.181
-270.340	-19.104	-0.166	-0.103
-269.326	-200.000	-0.038	-0.352
-268.311	163.907	-0.047	-0.065
-267.297	-27.520	0.116	-0.067
-266.282	-200.000	-0.036	-0.193
-265.267	-147.666	-0.180	0.015
-264.253	-112.682	-0.149	-0.029
-263.238	-36.990	-0.207	0.111
-262.224	442.104	0.139	0.304
-261.209	159.032	0.030	-0.042
-260.195	89.994	0.142	0.158
-259.180	67.480	0.102	0.104
-258.165	177.823	-0.155	0.225
-257.151	477.866	0.067	-0.150
-256.136	60.034	-0.086	0.085
-255.122	253.424	-0.105	-0.179
-254.107	-15.288	-0.138	-0.088
-253.092	-194.207	-0.269	0.002
-252.078	-17.856	-0.222	0.139
-251.063	347.993	0.111	-0.217
-250.049	-140.112	0.240	-0.025
-249.034	92.187	-0.232	-0.261
-248.019	-37.266	-0.258	-0.138
-247.005	325.312	0.048	-0.091
-245.990	-200.000	0.047	-0.381
-244.976	800.000	-0.017	0.051
-243.961	-200.000	-0.056	0.331
-242.946	49.577	-0.278	-0.260
-241.932	179.756	0.112	-0.164
-240.917	-34.988	0.073	-0.040
-239.903	98.509	0.074	0.085
-238.888	-151.542	0.115	-0.008
-237.873	-200.000	-0.010	0.266
-236.859	147.495	0.076	0.101
-235.844	-29.688	0.282	-0.160
-234.830	-200.000	0.015	0.107
-233.815	-98.876	0.062	0.016
-232.800	-187.322	0.124	-0.002
-231.786	-48.124	0.123	0.059
-230.771	201.894	-0.112	0.172
-229.757	-200.000	0.010	0.067
-228.742	761.343	-0.080	0.216
-227.727	6.604	0.209	-0.155
-226.713	-23.677	-0.200	0.119
-225.698	139.164	-0.107	-0.140
-224.684	-135.313	-0.177	-0.021
-223.669	-166.710	0.355	-0.015
-222.655	241.662	-0.110	-0.183
-221.640	95.057	0.125	0.141
-220.625	-38.411	0.123	0.064
-219.611	-116.973	0.212	-0.038
-218.596	68.273	0.180	0.184
-217.582	65.476	0.216	-0.217
-216.567	-200.000	0.015	0.109
-215.552	521.813	0.116	-0.270
-214.538	346.421	0.126	0.246
-213.523	-115.872	0.245	-0.045
-212.509	64.091	0.121	-0.121
-211.494	137.832	-0.146	-0.190
-210.479	5.912	-0.211	0.155
-209.465	-169.315	0.051	-0.002
-208.450	340.499	-0.039	0.076
-207.436	800.000	0.020	-0.072
-206.421	539.336	0.141	0.334
-205.406	153.323	0.061	-0.084
-204.392	800.000	-0.046	-0.161
-203.377	-85.297	0.136	0.042
-202.363	-174.427	0.528	0.015
-201.348	76.779	0.096	-0.101
-200.333	36.808	-0.164	-0.144
-199.319	800.000	0.105	-0.314
-198.304	-200.000	-0.114	0.669
-197.290	498.661	-0.080	0.182
-196.275	121.767	-0.205	0.254
-195.260	-117.451	0.175	0.032
-194.246	17.069	-0.339	-0.267
-193.231	-11.502	0.314	0.205
-192.217	-69.638	0.254	-0.096
-191.202	-200.000	0.015	-0.157
-190.187	14.874	0.185	0.144
-189.173	673.934	-0.055	-0.142
-188.158	288.594	0.151	-0.272
-187.144	257.411	-0.085	0.145
-186.129	-125.240	-0.132	0.020
-185.114	-200.000	-0.016	-0.094
-184.100	84.827	0.107	0.117
-183.085	38.493	-0.079	0.070
-182.071	571.445	0.027	-0.066
-181.056	385.012	0.158	-0.323
-180.042	-95.603	0.230	-0.061
-179.027	-200.000	-0.037	-0.180
-178.012	201.271	0.157	-0.239
-176.998	800.000	0.049	0.173
-175.983	172.883	0.117	-0.168
-174.969	-26.018	0.208	-0.122
-173.954	-200.000	-0.034	0.340
-172.939	30.708	-0.353	0.300
-171.925	800.000	-0.085	-0.321
-170.910	-64.444	-0.163	0.066
-169.896	315.906	0.133	-0.249
-168.881	289.356	0.093	-0.168
-167.866	800.000	-0.040	-0.124
-166.852	-96.925	0.411	-0.107
-165.837	-200.000	-0.059	-0.293
-164.823	-43.889	0.112	0.056
-163.808	-64.197	-0.230	-0.093
-162.793	-200.000	0.047	-0.454
-161.779	-44.445	-0.070	-0.035
-160.764	-91.682	0.354	0.100
-159.750	227.489	0.067	-0.108
-158.735	-157.238	-0.433	0.026
-157.720	-124.009	0.364	0.057
-156.706	800.000	-0.040	0.128
-155.691	800.000	-0.066	0.180
-154.677	-161.887	-0.300	0.015
-153.662	-104.474	-0.315	0.072
-152.647	83.232	0.361	-0.390
-151.633	17.244	-0.063	0.049
-150.618	204.361	0.140	0.216
-149.604	106.443	0.182	0.214
-148.589	95.795	0.186	0.210
-147.574	-16.397	-0.089	-0.056
-146.560	-61.168	-0.126	-0.053
-145.545	191.088	0.091	-0.135
-144.531	249.454	0.067	0.112
-143.516	459.067	0.098	-0.216
-142.502	800.000	0.033	0.116
-141.487	-19.570	0.170	0.105
-140.472	81.895	-0.134	-0.144
-139.458	-99.929	0.340	-0.084
-138.443	52.057	0.122	0.115
-137.429	-114.869	-0.316	0.060
-136.414	800.000	-0.077	0.239
-135.399	548.859	0.158	-0.374
-134.385	229.723	-0.198	0.320
-133.370	-85.515	0.235	-0.073
-132.356	7.223	0.205	-0.152
-131.341	172.682	-0.168	0.239
-130.326	-200.000	0.023	-0.178
-129.312	-200.000	0.021	-0.196
-128.297	152.331	0.025	-0.033
-127.283	-103.852	0.198	0.046
-126.268	-14.308	0.110	0.070
-125.253	118.835	-0.073	-0.089
-124.239	83.567	-0.025	0.028
-123.224	434.041	-0.105	0.225
-122.210	800.000	-0.030	0.102
-121.195	-200.000	-0.019	0.159
