DTS Sentinel unit serial number:	SN413079Multiplexer serial number:	ORYXHardware model number:	OX4-SRSoftware version number:	ORYX F/W v4.00 Oryx Data Collector v3.7.2.0data status	okinstallation	princeton_trtdifferential loss correction	single-endedforward channel	channel 3reverse channel	N/Adate	2019/09/17time	02:48:35forward acquisition time	60.00reverse acquisition time	0.00gamma	496.2192k internal	0.2323k external	0.2323temperature offset calibration	0.9944default loss term (dB/km)	0.3790temperature slope calibration	1.0000multiplexer offset coefficient	1.0000multiplexer slope coefficient	1.0000fibre end	0.00T internal ref (°C)	29.87T ext. ref 1 (°C)	0.14T ext. ref 2 (°C)	24.85length (m)	temperature (°C)	Stokes	anti-Stokes-747.200	-41.145	0.139	-0.072
-746.185	102.977	-0.263	0.312
-745.171	-112.434	-0.084	-0.017
-744.156	-14.889	-0.227	0.147
-743.142	335.169	-0.194	0.380
-742.127	-144.949	0.048	0.004
-741.112	-92.327	-0.392	0.111
-740.098	800.000	-0.130	0.429
-739.083	81.508	0.059	0.065
-738.069	-118.395	-0.212	-0.038
-737.054	-93.501	0.197	-0.055
-736.039	711.668	-0.083	-0.223
-735.025	794.748	0.117	-0.325
-734.010	471.748	0.070	-0.159
-732.996	-162.251	-0.264	-0.013
-731.981	-200.000	-0.022	-0.206
-730.966	-200.000	-0.031	-0.268
-729.952	144.078	-0.057	-0.077
-728.937	-200.000	0.008	-0.066
-727.923	306.089	-0.061	0.115
-726.908	-200.000	0.089	-0.411
-725.894	800.000	0.167	-0.529
-724.879	226.492	0.138	-0.226
-723.864	0.712	-0.483	0.348
-722.850	-75.750	-0.288	-0.103
-721.835	-72.244	-0.021	-0.008
-720.821	228.609	0.087	0.143
-719.806	-127.892	-0.121	-0.017
-718.791	98.593	-0.137	-0.160
-717.777	800.000	0.087	0.346
-716.762	439.361	0.129	-0.284
-715.748	-200.000	0.006	0.348
-714.733	800.000	-0.062	-0.183
-713.718	164.383	-0.160	-0.227
-712.704	800.000	0.091	0.314
-711.689	-91.485	0.063	-0.018
-710.675	-113.399	-0.261	-0.052
-709.660	800.000	-0.013	-0.055
-708.645	-55.230	0.092	-0.042
-707.631	-23.042	-0.235	-0.143
-706.616	-17.214	0.256	0.163
-705.602	-200.000	0.012	0.246
-704.587	800.000	-0.116	0.410
-703.572	-31.085	0.059	0.034
-702.558	107.419	0.320	-0.384
-701.543	-200.000	-0.035	0.283
-700.529	-200.000	0.011	0.164
-699.514	-124.331	0.103	-0.016
-698.499	152.235	0.147	0.203
-697.485	-200.000	-0.061	-0.000
-696.470	-116.530	0.081	-0.015
-695.456	-85.832	-0.096	-0.030
-694.441	-82.693	-0.216	0.070
-693.426	-200.000	-0.005	0.101
-692.412	-178.059	0.126	0.003
-691.397	-96.813	0.187	0.050
-690.383	74.772	0.132	-0.140
-689.368	-116.976	0.137	0.025
-688.354	-59.878	0.293	0.126
-687.339	800.000	0.051	0.142
-686.324	-114.356	0.251	-0.049
-685.310	-200.000	0.057	-0.576
-684.295	-124.814	-0.177	-0.028
-683.281	46.250	-0.162	0.152
-682.266	461.808	-0.036	-0.080
-681.251	-79.540	0.148	-0.050
-680.237	-200.000	0.029	-0.160
-679.222	571.511	-0.076	-0.188
-678.208	435.141	-0.123	-0.269
-677.193	8.842	-0.316	-0.240
-676.178	-68.339	0.463	0.181
-675.164	116.143	-0.264	-0.326
-674.149	-200.000	0.034	-0.240
-673.135	44.843	-0.241	0.223
-672.120	-121.029	-0.227	0.038
-671.105	-129.102	-0.433	-0.061
-670.091	32.830	0.252	-0.219
-669.076	-39.388	0.218	-0.115
-668.062	97.775	-0.186	0.215
-667.047	-167.860	-0.198	-0.008
-666.032	-50.625	0.177	-0.084
-665.018	-200.000	0.005	0.087
-664.003	-200.000	-0.006	0.161
-662.989	-147.316	-0.191	0.016
-661.974	83.252	0.241	-0.264
-660.959	-170.975	-0.112	-0.004
-659.945	15.611	0.046	0.036
-658.930	800.000	-0.080	0.291
-657.916	529.960	-0.066	0.157
-656.901	-200.000	-0.005	-0.026
-655.886	-60.656	0.157	0.067
-654.872	-43.745	0.250	-0.127
-653.857	800.000	-0.057	0.174
-652.843	248.241	0.089	0.152
-651.828	260.206	-0.114	0.198
-650.814	800.000	-0.091	0.332
-649.799	45.194	-0.083	0.077
-648.784	-44.704	-0.298	-0.150
-647.770	-58.957	-0.101	0.044
-646.755	-200.000	-0.014	0.126
-645.741	-200.000	-0.026	-0.226
-644.726	800.000	0.002	0.006
-643.711	-54.224	-0.074	0.034
-642.697	397.466	0.067	-0.140
-641.682	-53.916	-0.267	-0.122
-640.668	-122.317	0.368	-0.060
-639.653	-40.957	-0.274	-0.142
-638.638	-113.311	-0.059	0.012
-637.624	124.090	0.058	0.074
-636.609	150.273	-0.203	0.277
-635.595	800.000	0.078	-0.298
-634.580	-18.210	-0.221	0.139
-633.565	-200.000	-0.030	0.186
-632.551	63.809	-0.275	-0.278
-631.536	800.000	0.011	-0.033
-630.522	-139.341	-0.169	-0.018
-629.507	-90.485	0.380	0.111
-628.492	317.123	0.149	0.283
-627.478	-200.000	0.033	0.273
-626.463	317.669	-0.032	0.061
-625.449	-46.684	0.508	0.250
-624.434	74.514	-0.173	-0.183
-623.419	45.330	0.186	0.173
-622.405	-124.573	0.188	-0.029
-621.390	173.708	-0.092	-0.133
-620.376	324.562	-0.091	0.176
-619.361	800.000	-0.049	-0.211
-618.346	122.028	-0.030	0.038
-617.332	453.464	-0.075	-0.166
-616.317	-74.979	-0.158	0.057
-615.303	688.436	-0.091	0.240
-614.288	110.108	0.085	-0.103
-613.273	-200.000	-0.064	-0.294
-612.259	238.979	0.090	0.151
-611.244	-62.788	-0.271	-0.113
-610.230	136.484	-0.138	-0.182
-609.215	-171.942	0.160	0.005
-608.201	-200.000	0.029	-0.255
-607.186	414.515	-0.056	0.119
-606.171	-104.113	0.201	0.047
-605.157	82.594	0.154	-0.168
-604.142	390.338	0.038	0.079
-603.128	128.026	0.160	0.204
-602.113	-200.000	-0.012	0.000
-601.098	40.861	0.117	0.106
-600.084	800.000	0.051	0.214
-599.069	4.861	-0.345	0.255
-598.055	-84.157	-0.200	-0.064
-597.040	800.000	-0.127	-0.377
-596.025	-200.000	-0.016	-0.120
-595.011	62.236	0.057	0.057
-593.996	389.137	0.252	0.524
-592.982	-200.000	0.017	0.126
-591.967	-28.007	-0.178	-0.103
-590.952	-110.061	-0.146	0.031
-589.938	-105.895	0.112	-0.025
-588.923	-200.000	0.034	-0.161
-587.909	-200.000	-0.034	-0.276
-586.894	10.544	-0.078	-0.060
-585.879	-130.681	0.110	0.015
-584.865	-84.265	-0.227	0.072
-583.850	-35.957	-0.314	-0.170
-582.836	-62.881	0.187	0.078
-581.821	30.120	-0.115	0.099
-580.806	-200.000	-0.015	0.160
-579.792	-93.997	0.095	0.026
-578.777	-200.000	-0.025	0.293
-577.763	-118.527	0.126	-0.022
-576.748	336.352	0.073	0.142
-575.733	133.039	0.177	-0.229
-574.719	-101.392	0.214	0.052
-573.704	204.912	0.104	0.162
-572.690	42.482	-0.158	0.144
-571.675	119.964	-0.120	-0.149
-570.661	-200.000	-0.001	-0.181
-569.646	-20.666	-0.148	-0.091
-568.631	-94.923	0.154	0.042
-567.617	-79.426	-0.287	0.097
-566.602	-82.011	-0.107	-0.035
-565.588	563.314	0.128	-0.310
-564.573	-6.053	-0.354	-0.242
-563.558	50.479	0.078	-0.074
-562.544	800.000	0.046	0.147
-561.529	373.442	-0.055	0.112
-560.515	150.226	0.069	-0.094
-559.500	219.980	-0.132	-0.212
-558.485	112.491	0.053	-0.064
-557.471	-150.789	0.150	-0.011
-556.456	-52.270	-0.411	-0.191
-555.442	149.676	0.168	-0.229
-554.427	238.817	-0.057	-0.095
-553.412	800.000	0.038	0.105
-552.398	-176.146	0.229	-0.006
-551.383	485.707	0.086	-0.197
-550.369	28.253	-0.196	0.166
-549.354	-124.026	0.243	0.038
-548.339	6.347	-0.158	0.117
-547.325	430.283	0.042	-0.090
-546.310	-93.212	-0.303	0.084
-545.296	-121.118	-0.147	0.025
-544.281	50.236	-0.062	0.058
-543.266	-138.965	0.121	0.013
-542.252	-62.249	0.223	-0.093
-541.237	-107.276	0.311	-0.069
-540.223	245.473	-0.046	0.077
-539.208	-200.000	0.026	0.180
-538.193	-20.835	0.345	0.212
-537.179	-200.000	-0.007	-0.114
-536.164	148.445	-0.249	-0.337
-535.150	-89.765	0.068	-0.020
-534.135	-200.000	0.015	-0.171
-533.121	-83.153	0.272	-0.088
-532.106	142.821	0.185	-0.247
-531.091	509.492	0.030	0.069
-530.077	354.900	0.056	-0.112
-529.062	288.812	-0.076	-0.139
-528.048	-200.000	0.012	0.055
-527.033	-200.000	0.021	-0.324
-526.018	56.409	0.122	-0.118
-525.004	124.592	0.101	0.127
-523.989	-137.160	0.302	0.034
-522.975	-124.614	-0.187	0.029
-521.960	194.101	0.202	-0.306
-520.945	-3.188	0.153	-0.107
-519.931	800.000	0.072	0.244
-518.916	364.193	0.091	-0.182
-517.902	-41.008	0.240	-0.124
-516.887	-200.000	-0.007	-0.062
-515.872	214.499	0.122	-0.194
-514.858	-200.000	0.069	0.315
-513.843	-200.000	-0.013	0.498
-512.829	800.000	0.012	-0.049
-511.814	-102.895	-0.372	0.089
-510.799	7.001	0.111	-0.083
-509.785	468.315	-0.079	-0.177
-508.770	-24.260	0.374	-0.224
-507.756	44.722	0.181	0.167
-506.741	800.000	-0.044	-0.171
-505.726	-52.790	0.220	0.101
-504.712	455.436	-0.123	0.273
-503.697	-200.000	0.035	0.225
-502.683	-52.429	0.170	0.079
-501.668	-74.171	-0.168	-0.061
-500.653	-51.295	-0.181	-0.085
-499.639	-166.973	-0.072	-0.003
-498.624	-86.182	-0.210	0.065
-497.610	177.125	0.150	0.218
-496.595	-37.039	-0.189	-0.101
-495.581	-27.385	0.150	-0.087
-494.566	9.423	0.150	0.114
-493.551	59.874	-0.266	0.263
-492.537	-200.000	0.008	-0.105
-491.522	-178.115	0.186	-0.004
-490.508	43.016	-0.065	0.059
-489.493	226.804	-0.150	-0.243
-488.478	-120.146	-0.137	-0.023
-487.464	-72.836	-0.213	0.078
-486.449	-3.219	-0.061	0.043
-485.435	-13.959	-0.255	-0.165
-484.420	800.000	-0.014	-0.046
-483.405	-57.909	-0.088	0.038
-482.391	15.884	0.152	-0.120
-481.376	-86.370	-0.106	0.033
-480.362	75.150	0.173	-0.182
-479.347	800.000	-0.050	0.175
-478.332	-19.260	0.050	0.031
-477.318	-200.000	0.001	0.105
-476.303	574.720	-0.116	0.283
-475.289	225.645	-0.168	0.272
-474.274	-122.056	0.137	-0.023
-473.259	-200.000	-0.022	-0.148
-472.245	179.559	0.042	0.062
-471.230	-108.521	0.200	0.043
-470.216	-123.341	-0.106	-0.017
-469.201	-129.183	-0.116	0.016
-468.186	-56.370	0.080	-0.035
-467.172	-200.000	-0.024	-0.399
-466.157	-63.727	0.281	0.115
-465.143	-200.000	0.033	0.220
-464.128	-55.781	-0.150	-0.067
-463.113	20.066	0.094	0.076
-462.099	327.385	-0.076	-0.146
-461.084	-200.000	0.015	0.113
-460.070	-23.604	-0.173	0.104
-459.055	-200.000	0.019	0.129
-458.040	29.566	-0.070	0.059
-457.026	15.192	0.313	-0.245
-456.011	-200.000	0.005	-0.155
-454.997	-131.318	-0.219	-0.029
-453.982	-127.836	0.161	0.023
-452.968	-145.807	-0.281	0.025
-451.953	-98.349	-0.383	-0.098
-450.938	-120.028	-0.271	0.046
-449.924	-50.967	0.303	0.142
-448.909	141.940	0.153	0.203
-447.895	297.492	-0.187	0.343
-446.880	-37.224	-0.066	0.035
-445.865	178.112	0.148	-0.216
-444.851	800.000	-0.021	-0.061
-443.836	-116.048	-0.271	-0.050
-442.822	469.397	-0.016	0.036
-441.807	360.726	-0.056	0.113
-440.792	-109.816	-0.056	-0.012
-439.778	62.493	-0.283	0.283
-438.763	-154.081	0.330	-0.022
-437.749	133.067	0.133	-0.171
-436.734	-83.514	0.270	-0.086
-435.719	-76.866	-0.112	0.039
-434.705	-138.542	0.136	-0.015
-433.690	-184.852	-0.421	-0.007
-432.676	481.639	0.042	-0.096
-431.661	-101.319	-0.260	-0.063
-430.646	-200.000	0.072	-0.384
-429.632	475.711	0.079	-0.177
-428.617	3.907	-0.089	0.065
-427.603	800.000	0.049	0.158
-426.588	-200.000	0.014	0.247
-425.573	-33.380	-0.300	-0.165
-424.559	-30.268	-0.205	0.116
-423.544	800.000	-0.026	-0.112
-422.530	194.935	0.075	0.113
-421.515	-200.000	-0.114	0.592
-420.500	240.647	-0.120	0.199
-419.486	136.054	-0.118	0.153
-418.471	278.849	-0.163	0.290
-417.457	-69.323	0.164	0.063
-416.442	-21.879	0.142	-0.086
-415.428	-30.245	0.073	0.042
-414.413	151.139	-0.018	-0.024
-413.398	800.000	0.059	-0.251
-412.384	46.906	-0.089	-0.082
-411.369	-71.175	0.178	-0.067
-410.355	800.000	0.060	-0.166
-409.340	-200.000	-0.193	0.000
-408.325	800.000	-0.062	-0.264
-407.311	-23.041	0.500	-0.300
-406.296	-52.206	-0.188	-0.087
-405.282	99.008	0.175	-0.202
-404.267	59.173	-0.428	-0.420
-403.252	-123.507	-0.105	0.017
-402.238	280.743	-0.124	-0.222
-401.223	-132.312	0.120	-0.015
-400.209	379.184	0.039	-0.080
-399.194	-9.188	0.209	0.139
-398.179	-24.927	0.111	0.066
-397.165	-34.592	-0.144	0.079
-396.150	172.266	-0.159	-0.228
-395.136	-160.525	0.203	0.011
-394.121	117.712	-0.144	0.177
-393.106	-50.904	-0.129	0.061
-392.092	-92.289	-0.196	0.055
-391.077	800.000	0.148	0.428
-390.063	88.481	-0.226	-0.250
-389.048	-200.000	-0.008	-0.126
-388.033	161.710	-0.137	-0.191
-387.019	-104.979	-0.409	-0.093
-386.004	226.530	0.250	-0.403
-384.990	-200.000	-0.003	0.202
-383.975	300.661	0.018	-0.032
-382.960	8.042	-0.118	-0.088
-381.946	47.094	0.092	-0.086
-380.931	-68.702	-0.111	0.043
-379.917	28.587	0.315	0.265
-378.902	800.000	-0.015	0.048
-377.888	58.111	0.224	0.219
-376.873	236.470	-0.035	-0.057
-375.858	-200.000	0.054	-0.393
-374.844	-59.864	0.038	0.016
-373.829	54.350	-0.273	0.262
-372.815	-35.546	0.066	-0.035
-371.800	2.387	0.362	0.261
-370.785	-200.000	0.002	-0.106
-369.771	-146.299	0.040	0.003
-368.756	-200.000	0.031	-0.162
-367.742	-46.002	0.183	0.090
-366.727	-92.708	-0.242	-0.067
-365.712	48.615	-0.046	-0.043
-364.698	-110.250	-0.127	-0.026
-363.683	-132.083	0.113	0.015
-362.669	-200.000	-0.034	0.199
-361.654	-127.371	-0.172	-0.025
-360.639	800.000	-0.137	0.411
-359.625	800.000	0.032	0.101
-358.610	-200.000	0.002	-0.161
-357.596	125.837	0.305	-0.383
-356.581	279.168	-0.069	-0.122
-355.566	-45.418	-0.393	-0.194
-354.552	-44.305	-0.176	-0.088
-353.537	-119.822	-0.197	0.034
-352.523	23.889	0.178	0.146
-351.508	95.531	-0.334	0.379
-350.493	-84.086	0.249	0.079
-349.479	-40.390	-0.198	-0.102
-348.464	1.898	-0.067	-0.048
-347.450	323.766	-0.112	-0.212
-346.435	-27.795	-0.277	-0.160
-345.420	167.931	0.225	0.319
-344.406	-125.904	-0.287	0.043
-343.391	800.000	0.054	-0.156
-342.377	-26.786	-0.196	-0.114
-341.362	-59.695	0.377	-0.161
-340.348	-174.911	0.356	-0.010
-339.333	800.000	-0.087	0.245
-338.318	62.768	0.294	-0.292
-337.304	65.043	0.098	0.098
-336.289	204.184	0.161	0.248
-335.275	122.690	-0.130	-0.162
-334.260	185.076	0.228	0.336
-333.245	800.000	-0.138	-0.399
-332.231	800.000	-0.112	0.359
-331.216	-43.879	-0.217	-0.109
-330.202	-39.513	0.035	-0.018
-329.187	-200.000	-0.001	0.308
-328.172	78.930	0.130	0.138
-327.158	-81.482	-0.107	0.035
-326.143	329.038	0.108	-0.206
-325.129	-58.096	-0.262	-0.114
-324.114	193.406	0.080	-0.120
-323.099	-39.046	-0.216	0.113
-322.085	-200.000	-0.015	-0.077
-321.070	-92.611	-0.167	-0.047
-320.056	-110.105	-0.179	-0.037
-319.041	487.718	0.111	0.252
-318.026	-79.752	-0.394	-0.132
-317.012	185.210	0.249	0.367
-315.997	491.337	-0.091	0.208
-314.983	270.835	0.228	0.399
-313.968	-164.997	-0.292	0.013
-312.953	114.446	0.242	-0.293
-311.939	-11.434	-0.277	0.181
-310.924	-153.020	-0.190	-0.013
-309.910	202.976	0.179	0.274
-308.895	-122.511	0.202	0.033
-307.880	-83.543	0.266	0.084
-306.866	800.000	0.161	-0.454
-305.851	800.000	-0.053	-0.163
-304.837	-94.852	0.256	-0.069
-303.822	-18.766	-0.304	-0.188
-302.807	-200.000	0.044	-0.214
-301.793	28.290	-0.146	-0.122
-300.778	60.946	0.095	-0.094
-299.764	-68.569	-0.130	0.050
-298.749	35.578	0.466	0.406
-297.735	-20.296	0.164	0.100
-296.720	800.000	0.023	-0.092
-295.705	120.530	0.038	0.047
-294.691	30.106	0.088	-0.074
-293.676	174.496	-0.174	0.249
-292.662	-103.515	0.176	0.041
-291.647	-17.998	-0.065	0.041
-290.632	-61.922	0.133	-0.055
-289.618	123.010	0.216	-0.268
-288.603	-52.138	0.210	-0.097
-287.589	47.955	-0.123	-0.114
-286.574	-79.426	0.129	-0.043
-285.559	520.768	-0.100	0.232
-284.545	99.435	0.114	0.131
-283.530	96.499	-0.122	0.139
-282.516	259.304	-0.122	0.208
-281.501	213.836	0.195	-0.306
-280.486	135.499	-0.026	-0.034
-279.472	800.000	0.012	-0.045
-278.457	133.612	-0.162	0.208
-277.443	-36.712	0.391	-0.208
-276.428	159.257	-0.180	-0.249
-275.413	-110.522	0.106	0.022
-274.399	-85.526	-0.183	0.057
-273.384	-152.146	0.177	-0.013
-272.370	81.869	0.305	0.328
-271.355	-85.532	0.261	0.081
-270.340	800.000	0.014	-0.039
-269.326	800.000	-0.041	-0.161
-268.311	-49.127	0.077	0.037
-267.297	488.246	0.085	-0.191
-266.282	169.154	0.171	-0.242
-265.267	-138.026	0.441	0.049
-264.253	-90.428	-0.180	0.052
-263.238	-135.677	0.115	0.013
-262.224	-200.000	0.015	-0.119
-261.209	-200.000	0.002	-0.188
-260.195	-41.756	-0.275	0.140
-259.180	-151.039	0.111	-0.008
-258.165	586.243	-0.050	-0.121
-257.151	65.472	0.189	-0.189
-256.136	-159.387	-0.181	-0.010
-255.122	57.618	0.044	-0.043
-254.107	96.772	0.171	0.194
-253.092	800.000	0.082	-0.295
-252.078	-147.000	-0.192	0.016
-251.063	-58.125	0.026	0.011
-250.049	-118.440	-0.152	-0.027
-249.034	-76.715	0.153	0.053
-248.019	-200.000	0.036	0.190
-247.005	-11.343	-0.172	-0.112
-245.990	-200.000	0.032	0.331
-244.976	341.613	0.164	0.317
-243.961	-129.753	-0.182	-0.025
-242.946	73.360	0.154	0.159
-241.932	272.385	-0.133	-0.232
-240.917	304.258	-0.174	0.320
-239.903	800.000	0.029	0.096
-238.888	76.082	0.229	-0.239
-237.873	-200.000	0.046	0.403
-236.859	-132.486	-0.270	0.034
-235.844	17.695	-0.129	0.102
-234.830	101.716	0.255	0.294
-233.815	612.860	0.126	0.312
-232.800	56.562	0.069	0.067
-231.786	194.928	0.029	-0.044
-230.771	-4.453	0.024	0.016
-229.757	-200.000	-0.021	-0.122
-228.742	-200.000	-0.005	0.121
-227.727	90.982	-0.105	0.116
-226.713	164.240	-0.141	-0.197
-225.698	218.319	-0.028	0.044
-224.684	-33.458	0.253	-0.139
-223.669	-85.838	0.283	0.087
-222.655	800.000	-0.025	0.073
-221.640	800.000	0.127	-0.409
-220.625	-168.043	-0.234	-0.009
-219.611	348.007	-0.069	-0.135
-218.596	224.619	-0.081	-0.129
-217.582	419.445	0.101	0.214
-216.567	-78.393	-0.273	0.093
-215.552	104.554	0.385	-0.449
-214.538	48.215	-0.316	-0.292
-213.523	200.744	-0.060	-0.091
-212.509	-164.434	0.164	-0.007
-211.494	-106.694	-0.155	0.034
-210.479	800.000	-0.099	-0.338
-209.465	90.106	0.098	0.108
-208.450	-10.658	-0.038	0.025
-207.436	-105.116	-0.497	0.112
-206.421	800.000	-0.070	0.201
-205.406	-200.000	-0.002	-0.248
-204.392	-146.802	-0.082	-0.007
-203.377	159.262	0.275	0.378
-202.363	-200.000	-0.010	0.254
-201.348	-105.639	0.176	-0.039
-200.333	-168.449	0.247	0.009
-199.319	88.816	-0.225	0.248
-198.304	-200.000	0.001	0.059
-197.290	-110.194	0.165	-0.034
-196.275	-42.540	-0.270	-0.136
-195.260	-200.000	-0.006	0.046
-194.246	6.718	-0.342	0.252
-193.231	-5.286	0.160	0.108
-192.217	95.869	0.041	0.046
-191.202	-200.000	0.087	-0.434
-190.187	28.178	-0.138	0.115
-189.173	-86.267	0.188	-0.057
-188.158	154.331	0.133	0.180
-187.144	800.000	-0.097	0.325
-186.129	-126.066	0.180	-0.027
-185.114	800.000	-0.067	-0.287
-184.100	-44.561	0.101	0.050
-183.085	-50.571	-0.145	0.068
-182.071	-132.809	-0.286	0.036
-181.056	-71.688	-0.163	-0.060
-180.042	-200.000	-0.085	0.368
-179.027	682.994	0.063	0.163
-178.012	-49.072	0.072	-0.034
-176.998	-156.627	-0.328	0.020
-175.983	800.000	0.132	-0.402
-174.969	44.528	0.324	-0.294
-173.954	-132.395	0.413	-0.053
-172.939	-200.000	0.025	-0.362
-171.925	-200.000	0.034	0.186
-170.910	-200.000	0.004	0.055
-169.896	-38.969	0.252	-0.131
-168.881	-200.000	0.059	0.436
-167.866	13.942	-0.195	0.150
-166.852	472.745	0.108	0.240
-165.837	-200.000	-0.054	0.234
-164.823	170.519	-0.125	0.176
-163.808	800.000	-0.054	0.210
-162.793	-109.574	-0.288	-0.060
-161.779	-86.334	-0.120	0.036
-160.764	286.369	0.153	-0.273
-159.750	-103.209	0.167	-0.039
-158.735	-200.000	0.007	-0.416
-157.720	800.000	0.006	0.024
-156.706	83.795	0.130	-0.140
-155.691	82.800	-0.131	-0.141
-154.677	-200.000	0.023	-0.208
-153.662	715.360	0.067	-0.176
-152.647	-42.050	0.247	0.125
-151.633	-200.000	0.052	0.245
-150.618	-129.541	-0.203	0.028
-149.604	57.362	0.273	0.263
-148.589	-200.000	0.020	0.200
-147.574	-200.000	-0.051	0.314
-146.560	451.130	-0.074	-0.162
-145.545	-92.409	-0.108	0.030
-144.531	-195.214	-0.205	0.002
-143.516	91.130	-0.268	-0.297
-142.502	-150.317	-0.125	0.010
-141.487	70.552	0.232	-0.237
-140.472	386.883	-0.013	0.026
-139.458	377.036	-0.037	0.074
-138.443	-157.179	0.087	0.005
-137.429	-200.000	0.046	0.357
-136.414	295.271	0.116	0.210
-135.399	-200.000	-0.021	0.612
-134.385	800.000	-0.023	-0.076
-133.370	-109.918	-0.272	0.056
-132.356	-7.311	0.287	0.192
-131.341	-70.817	0.210	-0.078
-130.326	-62.489	0.399	0.164
-129.312	-200.000	0.098	0.514
-128.297	408.020	0.116	0.241
-127.283	-17.066	-0.160	0.100
-126.268	-99.448	0.215	-0.053
-125.253	-51.113	-0.135	0.062
-124.239	37.632	-0.185	-0.162
-123.224	60.633	0.155	0.151
-122.210	800.000	0.062	-0.185
-121.195	354.704	0.101	0.198
