DTS Sentinel unit serial number:	SN413079Multiplexer serial number:	ORYXHardware model number:	OX4-SRSoftware version number:	ORYX F/W v4.00 Oryx Data Collector v3.7.2.0data status	okinstallation	princeton_trtdifferential loss correction	single-endedforward channel	channel 3reverse channel	N/Adate	2019/09/17time	00:24:34forward acquisition time	60.00reverse acquisition time	0.00gamma	496.2192k internal	0.2325k external	0.2325temperature offset calibration	0.9939default loss term (dB/km)	0.3790temperature slope calibration	1.0000multiplexer offset coefficient	1.0000multiplexer slope coefficient	1.0000fibre end	0.00T internal ref (°C)	29.50T ext. ref 1 (°C)	0.11T ext. ref 2 (°C)	23.61length (m)	temperature (°C)	Stokes	anti-Stokes-747.200	-200.000	-0.043	0.366
-746.185	-131.193	-0.224	-0.030
-745.171	800.000	-0.018	0.065
-744.156	-181.621	0.403	0.008
-743.142	428.549	-0.117	0.255
-742.127	-80.737	0.317	0.106
-741.112	486.613	0.085	0.196
-740.098	119.564	-0.136	0.170
-739.083	-82.310	0.108	-0.036
-738.069	-10.634	-0.290	0.194
-737.054	-7.173	-0.272	-0.186
-736.039	-47.758	-0.083	-0.040
-735.025	-200.000	0.002	-0.244
-734.010	-5.111	-0.048	-0.033
-732.996	-61.159	-0.209	-0.089
-731.981	-100.515	0.197	-0.049
-730.966	-82.057	0.292	-0.096
-729.952	115.273	-0.253	0.312
-728.937	-42.101	-0.114	-0.059
-727.923	-200.000	0.020	-0.114
-726.908	18.001	0.120	0.097
-725.894	65.322	0.160	-0.163
-724.879	32.092	0.110	-0.095
-723.864	189.167	-0.104	-0.157
-722.850	-96.978	-0.411	-0.109
-721.835	-169.223	0.314	-0.012
-720.821	-200.000	0.036	-0.320
-719.806	-12.809	-0.148	0.097
-718.791	86.424	-0.151	0.168
-717.777	752.092	0.138	-0.374
-716.762	-41.430	-0.368	0.191
-715.748	-176.140	0.481	0.013
-714.733	175.926	0.094	0.138
-713.718	-86.146	0.225	0.070
-712.704	320.038	-0.113	0.216
-711.689	-34.114	0.137	-0.076
-710.675	-200.000	0.092	0.458
-709.660	123.653	0.071	-0.090
-708.645	20.250	-0.160	0.130
-707.631	800.000	0.164	0.697
-706.616	130.101	-0.014	0.018
-705.602	800.000	0.046	-0.131
-704.587	162.324	-0.118	0.167
-703.572	-145.707	0.104	-0.009
-702.558	29.684	-0.111	-0.095
-701.543	-9.509	0.026	0.018
-700.529	67.105	-0.150	0.154
-699.514	-9.758	-0.274	-0.184
-698.499	-33.678	-0.347	0.193
-697.485	597.063	-0.072	0.178
-696.470	-99.389	-0.266	-0.067
-695.456	86.787	-0.159	-0.177
-694.441	-176.852	0.441	-0.011
-693.426	-50.900	-0.419	0.198
-692.412	-97.551	-0.318	-0.083
-691.397	-130.405	-0.176	0.024
-690.383	28.125	-0.346	0.294
-689.368	-79.850	-0.142	0.048
-688.354	-32.374	0.289	-0.162
-687.339	-56.917	-0.069	-0.031
-686.324	-24.783	-0.316	0.189
-685.310	177.296	-0.111	0.163
-684.295	376.947	-0.164	0.337
-683.281	6.222	-0.057	0.043
-682.266	364.742	-0.070	-0.142
-681.251	-200.000	0.024	0.197
-680.237	9.965	0.107	0.081
-679.222	-130.695	-0.212	0.029
-678.208	-200.000	0.001	0.054
-677.193	7.278	-0.411	-0.309
-676.178	-16.045	0.268	-0.171
-675.164	-25.445	0.177	0.105
-674.149	59.312	0.080	-0.079
-673.135	112.807	-0.189	-0.230
-672.120	-200.000	0.002	-0.054
-671.105	-11.024	0.251	0.167
-670.091	-136.187	-0.218	-0.026
-669.076	-166.632	-0.366	0.015
-668.062	88.586	-0.129	0.145
-667.047	800.000	-0.014	-0.044
-666.032	-96.079	-0.143	-0.038
-665.018	261.205	-0.268	0.466
-664.003	-200.000	0.010	-0.110
-662.989	-150.723	0.285	-0.022
-661.974	-19.272	-0.194	0.121
-660.959	113.322	-0.191	-0.233
-659.945	148.290	0.041	0.055
-658.930	-200.000	-0.002	-0.097
-657.916	-107.201	0.162	-0.036
-656.901	179.482	-0.029	-0.042
-655.886	7.255	-0.172	0.129
-654.872	-200.000	-0.063	-0.280
-653.857	-200.000	0.013	0.337
-652.843	-90.687	-0.125	-0.036
-651.828	-0.297	0.079	-0.057
-650.814	-98.394	-0.405	-0.104
-649.799	800.000	0.082	-0.249
-648.784	-26.980	-0.226	0.132
-647.770	-89.115	-0.441	-0.131
-646.755	-29.544	0.280	-0.161
-645.741	-200.000	0.062	-0.318
-644.726	591.273	0.118	0.292
-643.711	55.314	0.257	0.249
-642.697	76.164	-0.139	-0.148
-641.682	109.121	0.094	-0.113
-640.668	257.040	-0.186	0.321
-639.653	-120.066	0.059	-0.010
-638.638	800.000	-0.044	-0.124
-637.624	-69.734	-0.305	-0.117
-636.609	-11.542	-0.142	-0.094
-635.595	-127.804	0.191	-0.028
-634.580	-129.749	-0.123	0.017
-633.565	-56.841	-0.124	-0.055
-632.551	-10.554	-0.103	0.068
-631.536	205.193	0.075	-0.117
-630.522	-54.742	0.285	-0.129
-629.507	517.580	0.051	0.120
-628.492	-4.643	0.242	-0.168
-627.478	573.656	0.147	0.360
-626.463	800.000	-0.062	-0.212
-625.449	-73.956	-0.177	0.065
-624.434	-200.000	-0.002	0.400
-623.419	-161.662	-0.203	0.010
-622.405	-169.484	-0.251	0.009
-621.390	234.814	-0.299	0.495
-620.376	-126.804	0.285	-0.042
-619.361	-94.167	-0.464	0.128
-618.346	-177.064	0.218	-0.005
-617.332	1.895	-0.368	0.266
-616.317	-77.328	-0.285	0.099
-615.303	800.000	0.075	-0.255
-614.288	-25.166	0.125	-0.074
-613.273	63.371	0.341	-0.343
-612.259	94.758	-0.132	-0.150
-611.244	-200.000	-0.022	-0.214
-610.230	-82.370	-0.172	-0.056
-609.215	-125.264	0.248	0.038
-608.201	584.222	-0.054	-0.132
-607.186	-34.262	-0.248	-0.137
-606.171	-200.000	-0.085	-0.523
-605.157	542.651	-0.033	-0.078
-604.142	98.998	-0.264	-0.306
-603.128	177.364	0.089	0.130
-602.113	110.134	0.133	0.160
-601.098	246.304	-0.087	0.147
-600.084	494.797	-0.102	0.235
-599.069	-39.677	0.227	-0.119
-598.055	800.000	0.068	-0.189
-597.040	543.196	-0.056	0.133
-596.025	-42.896	0.067	0.034
-595.011	-155.331	0.346	-0.023
-593.996	-200.000	-0.026	-0.177
-592.982	76.252	-0.181	-0.192
-591.967	109.024	0.105	-0.126
-590.952	-53.420	0.064	-0.029
-589.938	-109.661	-0.260	-0.055
-588.923	-141.314	-0.256	-0.026
-587.909	542.005	-0.086	0.207
-586.894	-88.734	-0.481	0.143
-585.879	62.696	0.138	0.138
-584.865	-37.565	-0.046	-0.024
-583.850	-137.313	-0.100	0.011
-582.836	24.842	0.206	-0.171
-581.821	-77.109	0.184	-0.064
-580.806	-55.126	-0.212	-0.095
-579.792	-200.000	-0.012	0.131
-578.777	525.638	-0.059	0.139
-577.763	-200.000	-0.034	0.191
-576.748	-122.288	-0.077	0.013
-575.733	90.321	-0.258	0.289
-574.719	-200.000	0.012	-0.266
-573.704	-200.000	0.014	0.165
-572.690	123.719	-0.329	0.413
-571.675	-171.483	0.067	0.002
-570.661	-115.358	0.198	-0.037
-569.646	-68.373	0.109	0.043
-568.631	-69.683	-0.061	0.023
-567.617	697.675	0.079	0.209
-566.602	-114.888	-0.332	-0.063
-565.588	94.203	-0.093	0.106
-564.573	-15.911	-0.214	0.136
-563.558	-200.000	-0.020	-0.340
-562.544	184.141	0.219	-0.324
-561.529	75.895	-0.087	-0.092
-560.515	286.411	0.043	0.078
-559.500	800.000	0.079	-0.237
-558.485	-12.646	-0.382	0.249
-557.471	-200.000	0.019	0.627
-556.456	-188.865	-0.497	-0.006
-555.442	136.074	0.103	0.134
-554.427	478.110	-0.126	-0.285
-553.412	-99.103	-0.078	-0.020
-552.398	-200.000	-0.011	0.093
-551.383	-146.111	0.086	-0.008
-550.369	112.064	-0.142	0.172
-549.354	665.233	-0.166	0.429
-548.339	-118.623	-0.274	-0.048
-547.325	-111.671	0.134	0.027
-546.310	800.000	-0.012	-0.044
-545.296	-200.000	-0.004	-0.017
-544.281	6.885	0.305	0.228
-543.266	-95.981	-0.176	-0.047
-542.252	-200.000	0.007	0.140
-541.237	44.961	-0.192	-0.177
-540.223	800.000	0.016	-0.055
-539.208	31.299	-0.198	-0.171
-538.193	800.000	-0.033	0.115
-537.179	-24.686	0.132	0.079
-536.164	75.045	-0.146	-0.154
-535.150	-74.900	0.143	0.051
-534.135	-94.896	0.076	0.021
-533.121	-200.000	-0.047	-0.258
-532.106	-133.207	0.011	0.001
-531.091	64.548	-0.290	-0.293
-530.077	-200.000	0.022	0.139
-529.062	185.214	-0.085	0.127
-528.048	-62.602	0.232	-0.096
-527.033	800.000	0.061	-0.236
-526.018	-200.000	-0.038	-0.233
-525.004	8.770	-0.179	-0.135
-523.989	130.844	0.204	-0.262
-522.975	52.558	-0.271	0.259
-521.960	118.155	0.091	0.112
-520.945	173.650	0.062	-0.089
-519.931	142.097	0.152	-0.201
-518.916	-180.170	-0.168	-0.004
-517.902	-80.765	-0.033	0.011
-516.887	-200.000	0.002	0.095
-515.872	-94.113	-0.150	0.041
-514.858	-3.363	0.108	0.075
-513.843	-200.000	-0.053	-0.255
-512.829	187.534	-0.014	0.022
-511.814	-200.000	0.053	-0.262
-510.799	-200.000	-0.023	0.147
-509.785	-200.000	-0.018	0.174
-508.770	378.212	0.108	-0.220
-507.756	484.298	0.053	0.121
-506.741	-125.196	-0.299	-0.046
-505.726	-59.067	-0.021	-0.009
-504.712	800.000	0.077	-0.286
-503.697	-200.000	-0.005	0.131
-502.683	109.572	0.119	0.142
-501.668	42.783	-0.210	0.191
-500.653	-16.324	-0.264	-0.168
-499.639	20.707	-0.201	-0.162
-498.624	108.229	0.131	-0.156
-497.610	-129.002	-0.103	-0.014
-496.595	15.264	0.075	-0.058
-495.581	149.696	-0.092	0.125
-494.566	30.466	0.080	-0.068
-493.551	-200.000	-0.009	0.283
-492.537	800.000	-0.073	-0.306
-491.522	-145.531	0.200	-0.018
-490.508	-175.693	-0.199	0.005
-489.493	70.474	0.032	-0.033
-488.478	-118.244	-0.196	0.035
-487.464	-6.590	0.048	-0.032
-486.449	-161.544	0.196	-0.010
-485.435	37.215	-0.291	-0.257
-484.420	-119.027	0.132	0.023
-483.405	107.200	0.119	0.141
-482.391	800.000	-0.079	-0.266
-481.376	-196.097	-0.081	-0.001
-480.362	113.103	-0.147	-0.178
-479.347	-200.000	-0.017	-0.161
-478.332	-56.158	0.149	0.066
-477.318	-24.721	0.345	0.205
-476.303	-200.000	0.020	-0.316
-475.289	106.594	0.213	0.252
-474.274	-200.000	0.010	-0.052
-473.259	-200.000	-0.027	-0.192
-472.245	-200.000	-0.026	-0.133
-471.230	-200.000	-0.003	0.106
-470.216	240.769	-0.170	0.283
-469.201	138.071	-0.174	0.227
-468.186	107.635	-0.102	0.121
-467.172	-81.677	0.120	0.039
-466.157	-200.000	-0.006	0.308
-465.143	4.994	0.156	-0.115
-464.128	88.178	-0.186	0.206
-463.113	-135.015	0.286	0.034
-462.099	-150.165	0.261	0.020
-461.084	-109.771	-0.299	0.063
-460.070	800.000	-0.018	0.066
-459.055	800.000	-0.050	-0.167
-458.040	-2.552	-0.109	-0.076
-457.026	-200.000	0.038	-0.587
-456.011	-21.971	0.131	0.079
-454.997	-69.711	0.208	0.079
-453.982	-36.682	-0.256	-0.137
-452.968	-200.000	-0.031	0.144
-451.953	-0.889	-0.131	0.092
-450.938	-133.286	-0.122	0.015
-449.924	57.266	0.320	0.311
-448.909	-96.048	0.079	-0.021
-447.895	290.514	0.065	0.118
-446.880	-200.000	-0.032	0.158
-445.865	-7.844	0.200	-0.135
-444.851	800.000	0.023	0.092
-443.836	-82.468	-0.203	-0.066
-442.822	215.070	0.155	-0.245
-441.807	-157.797	-0.358	-0.021
-440.792	-122.621	0.217	-0.035
-439.778	13.051	-0.017	-0.013
-438.763	-200.000	-0.016	0.112
-437.749	-97.402	-0.326	0.085
-436.734	-95.645	-0.222	0.059
-435.719	109.707	0.216	0.258
-434.705	352.670	-0.130	-0.257
-433.690	15.345	-0.226	-0.177
-432.676	-200.000	-0.002	-0.207
-431.661	-200.000	0.054	-0.337
-430.646	38.403	0.061	-0.054
-429.632	-200.000	0.022	-0.099
-428.617	800.000	0.028	0.078
-427.603	-38.303	-0.295	-0.156
-426.588	-113.816	-0.176	0.034
-425.573	800.000	-0.075	-0.229
-424.559	94.022	0.038	-0.043
-423.544	-55.750	0.138	0.061
-422.530	-104.984	-0.384	-0.088
-421.515	-200.000	0.032	-0.194
-420.500	-200.000	0.002	0.359
-419.486	393.277	0.093	0.192
-418.471	-118.688	-0.019	0.003
-417.457	-123.135	0.203	0.032
-416.442	-200.000	-0.025	0.159
-415.428	74.059	0.109	0.114
-414.413	9.569	0.153	-0.116
-413.398	800.000	-0.059	0.187
-412.384	-52.591	0.180	-0.083
-411.369	15.464	-0.146	0.114
-410.355	93.600	0.225	0.253
-409.340	167.259	0.251	0.355
-408.325	119.891	-0.181	-0.224
-407.311	-72.031	-0.180	-0.067
-406.296	-163.786	-0.290	0.014
-405.282	75.837	0.117	0.123
-404.267	-118.323	0.188	-0.033
-403.252	146.087	0.053	0.071
-402.238	-60.406	-0.223	-0.094
-401.223	-26.563	0.169	-0.098
-400.209	141.669	0.111	0.146
-399.194	146.571	0.176	0.236
-398.179	-129.820	-0.435	-0.059
-397.165	362.583	0.184	-0.368
-396.150	367.330	0.211	-0.425
-395.136	-127.579	0.074	0.011
-394.121	-152.666	0.200	-0.014
-393.106	-160.713	0.121	0.006
-392.092	-177.645	-0.069	0.002
-391.077	-200.000	0.010	-0.114
-390.063	119.874	0.152	0.187
-389.048	-200.000	-0.025	0.396
-388.033	128.596	-0.043	-0.055
-387.019	12.590	0.136	0.105
-386.004	-200.000	0.015	0.182
-384.990	0.897	0.077	-0.055
-383.975	81.279	-0.115	0.123
-382.960	309.197	0.154	0.286
-381.946	-200.000	0.055	0.263
-380.931	-200.000	-0.016	-0.142
-379.917	-28.056	-0.214	-0.123
-378.902	-200.000	-0.037	-0.192
-377.888	153.735	0.149	0.204
-376.873	-118.994	0.330	-0.058
-375.858	577.884	-0.067	0.162
-374.844	223.125	-0.064	-0.103
-373.829	-29.810	0.135	0.076
-372.815	68.710	0.097	0.099
-371.800	632.722	-0.121	-0.305
-370.785	260.087	0.040	0.069
-369.771	-50.549	-0.054	0.026
-368.756	-112.159	-0.195	-0.039
-367.742	575.686	-0.067	0.162
-366.727	205.558	-0.186	0.288
-365.712	-137.653	-0.147	0.016
-364.698	-71.155	0.101	-0.038
-363.683	-200.000	-0.011	0.087
-362.669	-129.224	-0.182	-0.025
-361.654	-80.852	0.170	0.056
-360.639	118.100	-0.265	-0.324
-359.625	-14.436	0.148	-0.095
-358.610	54.956	-0.118	0.113
-357.596	-200.000	0.019	-0.157
-356.581	65.120	-0.167	-0.168
-355.566	-82.591	-0.206	-0.066
-354.552	3.306	-0.078	-0.056
-353.537	53.554	0.301	-0.287
-352.523	-200.000	0.031	0.333
-351.508	800.000	-0.081	-0.262
-350.493	131.898	0.211	-0.270
-349.479	800.000	0.036	0.103
-348.464	-48.245	-0.123	-0.059
-347.450	800.000	0.093	-0.346
-346.435	-134.912	0.243	-0.029
-345.420	-189.675	-0.237	0.003
-344.406	-200.000	0.006	0.090
-343.391	64.329	0.102	-0.102
-342.377	-75.436	0.273	0.097
-341.362	-31.405	0.393	0.219
-340.348	-107.655	-0.159	0.035
-339.333	265.193	0.238	-0.412
-338.318	-70.194	0.095	-0.036
-337.304	5.226	-0.017	0.012
-336.289	100.926	-0.244	-0.282
-335.275	47.983	-0.136	0.126
-334.260	-40.822	0.378	-0.194
-333.245	-128.650	0.225	-0.032
-332.231	-131.446	0.246	0.032
-331.216	3.863	0.501	0.363
-330.202	12.264	0.162	-0.124
-329.187	231.396	0.133	-0.217
-328.172	-74.280	-0.331	0.119
-327.158	-9.601	-0.090	0.060
-326.143	-132.223	-0.270	-0.035
-325.129	-80.011	0.235	-0.078
-324.114	-87.746	0.286	0.086
-323.099	800.000	0.076	0.225
-322.085	571.822	0.031	0.074
-321.070	-88.150	0.139	0.041
-320.056	353.981	-0.049	-0.096
-319.041	760.990	-0.089	0.240
-318.026	-49.872	-0.359	-0.169
-317.012	-190.362	-0.276	0.003
-315.997	571.084	-0.062	-0.151
-314.983	51.639	0.115	-0.108
-313.968	-78.090	0.055	-0.019
-312.953	-200.000	-0.020	0.220
-311.939	-72.566	0.199	0.073
-310.924	-170.603	-0.173	0.006
-309.910	18.921	0.082	0.065
-308.895	195.782	-0.131	-0.197
-307.880	24.856	0.204	-0.168
-306.866	128.191	-0.042	-0.053
-305.851	-200.000	-0.006	-0.071
-304.837	-200.000	0.070	0.421
-303.822	-172.600	0.280	-0.009
-302.807	70.009	0.054	0.056
-301.793	364.712	-0.123	-0.245
-300.778	-78.043	0.314	0.107
-299.764	86.190	-0.230	-0.251
-298.749	301.873	-0.027	-0.050
-297.735	-143.430	-0.034	-0.003
-296.720	800.000	0.053	-0.207
-295.705	701.000	0.207	0.540
-294.691	270.904	0.098	0.170
-293.676	-200.000	-0.038	-0.172
-292.662	-200.000	-0.023	0.300
-291.647	259.144	-0.153	0.261
-290.632	187.834	0.262	0.388
-289.618	-87.984	-0.311	-0.093
-288.603	171.337	0.167	-0.237
-287.589	16.157	-0.128	0.100
-286.574	50.669	-0.282	0.265
-285.559	386.047	-0.077	-0.157
-284.545	321.939	0.065	0.123
-283.530	-62.003	-0.218	0.090
-282.516	-45.558	-0.069	-0.034
-281.501	800.000	-0.044	-0.153
-280.486	-111.347	0.183	0.037
-279.472	-200.000	-0.041	0.281
-278.457	-200.000	0.121	0.000
-277.443	-112.985	0.183	0.036
-276.428	-200.000	0.017	-0.353
-275.413	475.640	0.148	0.331
-274.399	-200.000	-0.026	0.441
-273.384	46.167	0.440	-0.403
-272.370	-37.559	-0.151	-0.080
-271.355	-152.643	0.258	-0.018
-270.340	-94.083	0.368	0.100
-269.326	-16.738	0.338	-0.212
-268.311	-96.574	-0.477	0.124
-267.297	444.967	-0.109	0.236
-266.282	800.000	0.045	0.157
-265.267	800.000	0.121	0.419
-264.253	-200.000	0.019	-0.102
-263.238	-72.967	0.005	-0.002
-262.224	-200.000	-0.005	-0.096
-261.209	56.699	0.150	-0.145
-260.195	-94.659	0.236	-0.064
-259.180	637.731	0.260	0.654
-258.165	643.064	-0.101	0.254
-257.151	5.514	0.203	0.148
-256.136	1.587	-0.235	0.168
-255.122	294.548	0.148	-0.267
-254.107	166.525	-0.116	-0.163
-253.092	-156.025	-0.462	0.029
-252.078	244.673	0.028	-0.047
-251.063	787.257	-0.032	0.086
-250.049	800.000	0.072	0.201
-249.034	-155.044	-0.354	-0.023
-248.019	-59.037	0.321	-0.137
-247.005	-97.866	0.210	0.054
-245.990	-151.132	0.181	-0.013
-244.976	-48.399	0.376	-0.179
-243.961	-68.012	0.166	0.064
-242.946	55.108	-0.293	0.280
-241.932	295.851	0.044	0.079
-240.917	130.103	-0.307	0.389
-239.903	-64.404	0.113	0.045
-238.888	241.390	-0.214	0.354
-237.873	324.545	0.086	0.162
-236.859	305.163	0.001	-0.003
-235.844	-51.317	0.229	-0.106
-234.830	29.870	-0.086	-0.073
-233.815	-200.000	-0.060	-0.275
-232.800	-89.091	-0.128	0.037
-231.786	-7.854	-0.303	0.202
-230.771	-75.799	0.175	-0.061
-229.757	48.985	0.129	0.120
-228.742	151.673	0.069	0.093
-227.727	-102.668	-0.353	-0.083
-226.713	568.965	0.093	0.223
-225.698	18.150	0.093	0.073
-224.684	-154.263	-0.194	0.013
-223.669	4.189	0.097	-0.070
-222.655	-10.223	-0.088	-0.058
-221.640	800.000	0.075	0.306
-220.625	216.783	0.075	-0.118
-219.611	-43.815	0.192	0.096
-218.596	-58.404	0.207	0.089
-217.582	47.286	-0.120	-0.111
-216.567	58.890	-0.278	-0.270
-215.552	-200.000	0.029	-0.246
-214.538	-2.121	-0.276	-0.191
-213.523	-200.000	0.017	-0.298
-212.509	800.000	0.065	0.199
-211.494	-82.144	-0.248	-0.080
-210.479	-200.000	0.007	-0.182
-209.465	-200.000	-0.003	0.069
-208.450	-133.254	-0.287	0.036
-207.436	-200.000	-0.015	0.406
-206.421	-96.246	0.117	0.031
-205.406	-78.566	0.116	-0.039
-204.392	146.013	0.225	0.298
-203.377	800.000	0.093	-0.363
-202.363	16.493	0.223	-0.174
-201.348	-200.000	0.018	-0.253
-200.333	-146.796	-0.160	-0.014
-199.319	-200.000	-0.008	0.160
-198.304	-200.000	0.076	-0.467
-197.290	464.566	-0.009	-0.021
-196.275	93.680	0.049	0.055
-195.260	-10.233	0.327	-0.214
-194.246	49.751	0.053	0.049
-193.231	-112.379	-0.196	-0.039
-192.217	-200.000	-0.036	0.165
-191.202	6.264	-0.121	0.089
-190.187	-200.000	-0.040	-0.230
-189.173	46.874	-0.060	-0.055
-188.158	97.290	0.077	-0.087
-187.144	523.074	0.099	-0.230
-186.129	568.511	-0.028	-0.067
-185.114	-35.402	-0.049	0.026
-184.100	-25.064	0.045	-0.027
-183.085	4.844	0.062	-0.045
-182.071	91.186	0.146	0.162
-181.056	449.606	0.141	-0.307
-180.042	-99.069	0.286	-0.072
-179.027	-31.661	-0.317	-0.175
-178.012	-25.487	-0.266	0.155
-176.998	262.649	-0.228	-0.390
-175.983	-153.592	-0.103	0.007
-174.969	-160.002	0.160	0.009
-173.954	195.485	-0.069	0.104
-172.939	-21.888	0.025	0.015
-171.925	411.742	-0.181	-0.379
-170.910	-106.327	0.225	-0.050
-169.896	-65.089	0.060	-0.024
-168.881	9.246	-0.199	0.148
-167.866	800.000	0.167	0.464
-166.852	352.213	0.115	0.224
-165.837	800.000	-0.066	0.228
-164.823	800.000	0.036	0.103
-163.808	73.092	0.160	-0.164
-162.793	-0.316	0.062	0.044
-161.779	-75.141	-0.194	-0.068
-160.764	800.000	-0.051	0.193
-159.750	-56.650	0.557	-0.243
-158.735	92.294	-0.081	0.090
-157.720	-166.614	0.406	0.017
-156.706	-99.921	-0.100	-0.025
-155.691	800.000	-0.064	-0.261
-154.677	-12.299	-0.036	0.023
-153.662	90.243	0.174	0.192
-152.647	-29.902	0.533	-0.299
-151.633	94.275	0.214	-0.240
-150.618	-184.021	0.137	0.002
-149.604	800.000	-0.043	0.123
-148.589	-0.869	0.059	0.041
-147.574	800.000	-0.084	0.327
-146.560	79.181	0.028	0.029
-145.545	-93.678	0.199	-0.054
-144.531	-200.000	-0.010	-0.096
-143.516	112.471	0.198	0.236
-142.502	-25.423	-0.119	0.069
-141.487	-124.752	0.193	0.029
-140.472	-162.929	-0.222	-0.011
-139.458	800.000	-0.083	0.326
-138.443	-200.000	0.091	-0.399
-137.429	-131.770	-0.241	-0.031
-136.414	-200.000	0.005	0.160
-135.399	-160.778	-0.208	0.011
-134.385	112.810	-0.092	-0.109
-133.370	-114.721	-0.091	0.017
-132.356	291.639	-0.020	0.035
-131.341	-142.028	0.106	0.010
-130.326	-200.000	0.009	-0.154
-129.312	712.994	0.180	0.469
-128.297	-73.415	0.272	-0.098
-127.283	-106.960	-0.370	-0.081
-126.268	71.923	-0.018	0.018
-125.253	-80.664	-0.052	0.017
-124.239	-57.501	0.135	-0.059
-123.224	69.715	0.012	-0.012
-122.210	23.166	0.114	0.092
-121.195	-200.000	-0.042	-0.268
