DTS Sentinel unit serial number:	SN413079Multiplexer serial number:	ORYXHardware model number:	OX4-SRSoftware version number:	ORYX F/W v4.00 Oryx Data Collector v3.7.2.0data status	okinstallation	princeton_trtdifferential loss correction	single-endedforward channel	channel 3reverse channel	N/Adate	2019/09/18time	11:40:34forward acquisition time	60.00reverse acquisition time	0.00gamma	496.2192k internal	0.2324k external	0.2324temperature offset calibration	0.9959default loss term (dB/km)	0.3790temperature slope calibration	1.0000multiplexer offset coefficient	1.0000multiplexer slope coefficient	1.0000fibre end	0.00T internal ref (°C)	30.87T ext. ref 1 (°C)	0.44T ext. ref 2 (°C)	27.88length (m)	temperature (°C)	Stokes	anti-Stokes-747.200	-79.841	0.086	-0.029
-746.185	209.417	0.079	-0.125
-745.171	-158.387	0.468	0.027
-744.156	-94.485	-0.266	0.073
-743.142	-200.000	-0.067	0.411
-742.127	455.268	-0.038	0.084
-741.112	735.048	0.098	-0.265
-740.098	-103.921	0.204	0.048
-739.083	36.199	-0.040	-0.036
-738.069	-9.856	-0.056	0.038
-737.054	-167.003	0.256	-0.011
-736.039	-200.000	-0.027	0.172
-735.025	272.817	0.166	0.295
-734.010	-55.688	-0.113	-0.051
-732.996	-59.944	0.250	0.108
-731.981	90.084	-0.191	-0.216
-730.966	24.754	-0.174	-0.146
-729.952	-200.000	-0.015	-0.138
-728.937	-167.312	0.215	0.009
-727.923	-132.683	0.056	0.007
-726.908	271.552	0.058	-0.102
-725.894	-200.000	-0.062	-0.394
-724.879	-127.433	0.225	-0.033
-723.864	-106.098	-0.124	0.028
-722.850	-156.835	-0.132	-0.008
-721.835	302.844	-0.052	0.098
-720.821	-121.085	-0.320	-0.054
-719.806	-200.000	-0.094	-0.566
-718.791	-200.000	0.053	-0.255
-717.777	458.916	0.019	0.043
-716.762	12.439	-0.074	0.058
-715.748	-66.798	0.154	-0.061
-714.733	-72.749	0.075	-0.028
-713.718	800.000	-0.042	0.139
-712.704	114.788	-0.181	0.223
-711.689	44.400	-0.156	0.144
-710.675	-175.627	0.235	-0.006
-709.660	-4.305	-0.142	-0.099
-708.645	39.140	-0.122	-0.110
-707.631	-34.454	0.271	-0.150
-706.616	666.327	-0.050	-0.131
-705.602	-200.000	0.007	-0.226
-704.587	57.850	0.054	0.053
-703.572	-68.082	0.129	0.051
-702.558	-169.591	-0.149	0.005
-701.543	800.000	0.055	0.166
-700.529	-200.000	0.042	-0.264
-699.514	19.309	-0.189	-0.153
-698.499	121.081	0.205	0.257
-697.485	-45.856	-0.008	-0.004
-696.470	760.542	-0.016	-0.044
-695.456	75.040	-0.067	0.071
-694.441	101.581	-0.127	0.150
-693.426	47.009	-0.144	0.135
-692.412	121.740	-0.144	-0.181
-691.397	799.910	-0.007	0.020
-690.383	-200.000	0.003	0.085
-689.368	800.000	-0.060	-0.205
-688.354	-200.000	0.001	0.010
-687.339	-72.533	-0.099	-0.037
-686.324	-59.601	0.270	-0.117
-685.310	88.284	0.104	0.116
-684.295	106.987	0.205	-0.246
-683.281	112.698	-0.249	-0.303
-682.266	244.214	-0.172	0.291
-681.251	325.423	-0.086	0.165
-680.237	800.000	-0.026	0.088
-679.222	87.290	-0.230	0.256
-678.208	47.909	0.235	-0.221
-677.193	446.570	-0.139	0.308
-676.178	-37.626	-0.072	0.039
-675.164	294.510	0.173	0.319
-674.149	-200.000	-0.016	-0.088
-673.135	64.974	-0.247	-0.251
-672.120	157.861	-0.192	0.268
-671.105	618.610	0.175	-0.443
-670.091	800.000	-0.138	-0.479
-669.076	-200.000	-0.020	0.222
-668.062	-182.888	-0.220	0.004
-667.047	-44.094	-0.236	-0.119
-666.032	-153.897	-0.189	0.013
-665.018	558.077	-0.078	-0.189
-664.003	-23.050	0.209	-0.126
-662.989	-111.060	-0.351	0.072
-661.974	-61.067	-0.012	-0.005
-660.959	213.967	-0.145	0.231
-659.945	800.000	0.102	0.399
-658.930	-200.000	0.030	0.197
-657.916	753.506	-0.027	-0.073
-656.901	531.398	-0.206	-0.489
-655.886	-91.278	-0.450	0.130
-654.872	133.637	-0.122	0.159
-653.857	-154.693	0.073	0.005
-652.843	-123.671	0.203	0.032
-651.828	733.427	-0.110	0.295
-650.814	29.221	0.240	-0.205
-649.799	479.000	0.058	0.133
-648.784	-200.000	0.008	0.043
-647.770	-44.243	-0.222	0.112
-646.755	800.000	-0.012	0.048
-645.741	538.541	-0.010	-0.023
-644.726	-71.331	0.189	-0.071
-643.711	218.365	0.020	-0.033
-642.697	-162.876	-0.178	0.009
-641.682	-123.690	0.127	0.020
-640.668	-31.338	0.173	0.098
-639.653	-30.317	-0.067	-0.038
-638.638	98.330	0.073	-0.085
-637.624	-78.284	0.096	-0.033
-636.609	73.617	-0.307	-0.324
-635.595	-200.000	-0.017	-0.195
-634.580	800.000	-0.034	-0.100
-633.565	-200.000	0.012	-0.070
-632.551	-200.000	-0.029	0.163
-631.536	465.351	-0.135	-0.303
-630.522	75.799	0.207	0.220
-629.507	-110.481	0.273	0.057
-628.492	-200.000	-0.036	0.340
-627.478	-153.764	-0.147	-0.010
-626.463	-28.684	-0.371	-0.215
-625.449	463.523	-0.116	0.259
-624.434	-18.699	0.370	0.232
-623.419	-5.773	0.136	0.094
-622.405	261.966	0.039	0.069
-621.390	132.340	-0.082	-0.106
-620.376	800.000	-0.055	0.194
-619.361	-148.739	-0.444	-0.036
-618.346	-24.503	-0.270	0.162
-617.332	-200.000	-0.022	-0.110
-616.317	-55.287	0.150	0.068
-615.303	309.668	0.185	0.347
-614.288	-175.962	-0.152	-0.004
-613.273	-13.213	0.148	0.096
-612.259	-200.000	-0.055	0.373
-611.244	-185.630	0.272	0.004
-610.230	159.948	-0.120	-0.168
-609.215	-162.541	-0.393	-0.019
-608.201	800.000	-0.031	0.104
-607.186	-65.265	0.183	0.074
-606.171	290.064	0.161	-0.293
-605.157	12.350	-0.205	0.158
-604.142	800.000	-0.098	0.323
-603.128	-70.027	-0.157	-0.060
-602.113	204.679	0.108	0.169
-601.098	-24.349	0.028	-0.016
-600.084	-200.000	0.318	0.001
-599.069	528.292	-0.104	0.247
-598.055	-53.646	0.098	0.045
-597.040	-200.000	0.016	-0.082
-596.025	-51.163	-0.408	0.192
-595.011	105.223	-0.031	0.037
-593.996	-200.000	-0.031	-0.144
-592.982	-78.579	-0.333	0.114
-591.967	-33.307	0.090	-0.050
-590.952	83.707	-0.299	-0.327
-589.938	-77.784	-0.093	-0.032
-588.923	731.843	0.095	0.254
-587.909	134.318	-0.088	-0.115
-586.894	141.392	0.061	0.081
-585.879	-127.433	-0.085	-0.012
-584.865	287.679	0.256	0.465
-583.850	56.552	-0.399	-0.390
-582.836	-67.401	-0.185	-0.073
-581.821	476.770	-0.040	-0.090
-580.806	-200.000	0.011	-0.075
-579.792	-113.996	0.154	-0.030
-578.777	-52.299	0.097	-0.045
-577.763	-74.750	0.338	0.122
-576.748	301.616	-0.146	-0.271
-575.733	315.606	0.108	-0.204
-574.719	-107.287	-0.286	0.063
-573.704	302.607	0.118	-0.219
-572.690	-98.407	0.129	0.033
-571.675	382.039	-0.056	-0.116
-570.661	-200.000	0.007	-0.203
-569.646	114.820	0.304	0.371
-568.631	-200.000	0.034	-0.263
-567.617	-200.000	0.009	0.118
-566.602	-0.245	-0.233	0.166
-565.588	21.034	-0.257	-0.209
-564.573	601.451	-0.069	0.172
-563.558	3.131	-0.067	0.049
-562.544	-68.972	0.120	0.046
-561.529	-130.446	0.268	0.036
-560.515	-89.258	0.125	0.037
-559.500	133.881	-0.250	0.325
-558.485	81.036	0.271	0.293
-557.471	1.092	0.213	-0.153
-556.456	17.987	-0.148	0.118
-555.442	201.812	0.097	-0.150
-554.427	-127.350	-0.299	-0.044
-553.412	-98.468	-0.273	-0.070
-552.398	182.253	-0.119	0.175
-551.383	52.361	0.216	0.206
-550.369	-58.876	-0.218	-0.095
-549.354	-200.000	-0.011	-0.300
-548.339	41.147	0.168	-0.152
-547.325	800.000	0.054	0.149
-546.310	-101.261	-0.086	-0.021
-545.296	-200.000	-0.254	0.000
-544.281	-49.456	0.031	-0.015
-543.266	411.000	0.150	-0.319
-542.252	205.073	-0.180	-0.279
-541.237	28.152	-0.305	-0.258
-540.223	60.873	-0.237	-0.235
-539.208	541.599	0.080	-0.190
-538.193	349.531	0.133	-0.263
-537.179	627.905	0.068	-0.172
-536.164	36.088	0.060	-0.053
-535.150	55.738	0.387	-0.376
-534.135	-154.126	0.262	0.018
-533.121	16.531	-0.202	0.159
-532.106	90.646	0.111	0.125
-531.091	-113.447	0.122	-0.024
-530.077	-200.000	-0.006	0.291
-529.062	-109.661	0.323	-0.068
-528.048	63.257	0.159	-0.159
-527.033	233.064	-0.251	-0.413
-526.018	21.384	-0.145	-0.118
-525.004	136.688	-0.108	-0.141
-523.989	418.458	-0.090	-0.193
-522.975	-36.907	-0.095	-0.051
-521.960	-57.219	-0.219	0.096
-520.945	800.000	0.082	-0.234
-519.931	-200.000	-0.022	0.107
-518.916	214.424	-0.115	0.183
-517.902	-200.000	0.005	0.286
-516.887	43.890	-0.165	0.151
-515.872	62.917	0.121	0.121
-514.858	-152.458	-0.090	0.006
-513.843	4.560	0.341	-0.250
-512.829	-200.000	0.031	0.335
-511.814	75.610	0.146	-0.154
-510.799	223.377	-0.094	-0.152
-509.785	-44.187	-0.141	-0.071
-508.770	252.088	-0.101	0.171
-507.756	-61.347	-0.245	-0.103
-506.741	271.797	-0.110	-0.193
-505.726	107.070	-0.119	0.141
-504.712	-136.282	-0.241	0.028
-503.697	243.341	0.169	-0.284
-502.683	-69.977	0.098	0.037
-501.668	-55.956	0.190	-0.085
-500.653	49.656	-0.220	-0.207
-499.639	674.068	0.104	0.269
-498.624	-144.171	-0.345	-0.032
-497.610	800.000	0.027	0.118
-496.595	41.731	0.053	0.048
-495.581	-40.883	-0.210	0.108
-494.566	800.000	-0.066	-0.235
-493.551	-33.635	-0.184	-0.102
-492.537	-33.565	0.179	0.099
-491.522	800.000	0.095	-0.283
-490.508	640.803	-0.058	0.146
-489.493	-200.000	-0.015	0.332
-488.478	-15.174	-0.157	-0.100
-487.464	-200.000	-0.048	0.409
-486.449	800.000	0.091	0.277
-485.435	-200.000	0.011	0.263
-484.420	-64.155	-0.138	-0.056
-483.405	-25.321	-0.238	-0.141
-482.391	800.000	-0.032	-0.114
-481.376	800.000	-0.052	0.184
-480.362	559.364	0.101	0.244
-479.347	-24.918	-0.245	0.146
-478.332	800.000	0.139	-0.465
-477.318	-106.061	0.691	0.155
-476.303	-159.187	-0.301	-0.017
-475.289	800.000	-0.022	0.094
-474.274	48.889	0.092	-0.086
-473.259	113.296	-0.160	-0.194
-472.245	800.000	-0.022	-0.071
-471.230	-88.487	0.389	-0.116
-470.216	-22.502	-0.204	0.123
-469.201	-85.108	-0.116	0.036
-468.186	141.274	0.152	0.201
-467.172	-19.868	-0.228	0.140
-466.157	-200.000	-0.005	-0.160
-465.143	493.615	0.138	0.315
-464.128	-31.832	-0.108	-0.060
-463.113	800.000	0.054	-0.217
-462.099	46.574	0.262	-0.243
-461.084	-103.984	0.199	0.046
-460.070	-200.000	0.016	-0.126
-459.055	-200.000	-0.007	-0.045
-458.040	99.334	0.168	-0.194
-457.026	122.960	0.130	0.163
-456.011	-69.029	-0.168	-0.065
-454.997	560.681	0.067	0.163
-453.982	-52.364	0.083	0.039
-452.968	119.480	-0.140	0.173
-451.953	-200.000	0.004	-0.063
-450.938	800.000	-0.048	-0.151
-449.924	-119.947	0.215	0.037
-448.909	53.509	0.193	0.185
-447.895	-200.000	-0.011	-0.261
-446.880	-44.592	-0.287	0.143
-445.865	68.878	0.140	-0.144
-444.851	800.000	-0.055	-0.201
-443.836	800.000	-0.058	0.188
-442.822	800.000	0.091	0.319
-441.807	-71.296	0.267	-0.100
-440.792	-60.148	-0.119	-0.051
-439.778	-27.735	0.238	-0.138
-438.763	-113.632	0.276	0.054
-437.749	14.303	0.056	0.043
-436.734	-200.000	-0.043	-0.237
-435.719	142.642	-0.110	0.145
-434.705	-73.069	-0.238	0.087
-433.690	-200.000	0.019	0.321
-432.676	102.114	-0.203	-0.237
-431.661	30.744	-0.099	-0.084
-430.646	-169.604	0.343	0.012
-429.632	-200.000	0.014	-0.111
-428.617	-131.151	-0.004	-0.000
-427.603	-200.000	0.019	-0.092
-426.588	-200.000	0.023	-0.227
-425.573	66.050	-0.189	-0.191
-424.559	60.487	-0.118	0.117
-423.544	-177.211	-0.301	-0.007
-422.530	-81.181	-0.301	-0.099
-421.515	39.638	-0.298	-0.266
-420.500	-200.000	-0.041	-0.243
-419.486	-99.953	-0.030	0.007
-418.471	254.713	0.177	0.302
-417.457	131.351	-0.184	0.236
-416.442	-154.905	-0.154	-0.010
-415.428	800.000	0.031	0.097
-414.413	-200.000	0.009	0.239
-413.398	29.802	0.156	-0.132
-412.384	11.854	-0.108	0.082
-411.369	463.215	0.142	-0.315
-410.355	-82.884	0.381	0.123
-409.340	800.000	0.136	0.426
-408.325	800.000	-0.034	0.111
-407.311	-29.713	0.118	-0.067
-406.296	96.194	-0.217	-0.247
-405.282	-133.109	-0.163	-0.021
-404.267	51.726	0.102	0.096
-403.252	800.000	-0.045	0.161
-402.238	-139.724	0.193	0.020
-401.223	-200.000	-0.038	-0.176
-400.209	-200.000	-0.012	-0.106
-399.194	684.038	-0.158	-0.412
-398.179	-141.100	0.257	-0.026
-397.165	-136.317	0.372	0.043
-396.150	-151.912	0.392	-0.029
-395.136	-116.841	-0.269	-0.049
-394.121	95.613	-0.243	0.276
-393.106	72.647	0.108	-0.112
-392.092	-104.868	-0.331	0.076
-391.077	246.487	0.097	0.163
-390.063	800.000	-0.011	-0.030
-389.048	29.128	0.156	0.132
-388.033	-166.967	-0.061	0.002
-387.019	24.098	-0.155	-0.127
-386.004	244.998	0.088	0.147
-384.990	-6.855	0.068	-0.046
-383.975	18.308	0.138	-0.109
-382.960	-66.119	-0.345	0.137
-381.946	800.000	0.116	0.379
-380.931	84.584	-0.075	0.081
-379.917	-11.482	0.061	-0.040
-378.902	800.000	0.046	-0.170
-377.888	-10.262	-0.244	0.161
-376.873	-29.877	-0.092	0.052
-375.858	800.000	-0.044	-0.154
-374.844	-64.561	-0.075	-0.030
-373.829	621.535	0.125	-0.314
-372.815	182.927	-0.178	-0.261
-371.800	-30.066	0.393	0.223
-370.785	198.873	0.227	0.346
-369.771	-137.309	-0.126	0.014
-368.756	-93.247	0.277	0.077
-367.742	136.070	0.131	0.170
-366.727	20.206	0.187	-0.150
-365.712	26.810	-0.199	-0.166
-364.698	28.391	-0.319	0.268
-363.683	-63.913	-0.283	0.115
-362.669	258.594	0.027	0.046
-361.654	67.462	0.029	0.030
-360.639	-200.000	-0.001	0.159
-359.625	-86.420	-0.694	-0.212
-358.610	610.510	-0.108	0.269
-357.596	-82.840	0.330	0.106
-356.581	-152.074	0.108	0.008
-355.566	-200.000	-0.007	-0.204
-354.552	-94.400	0.319	-0.087
-353.537	-120.273	-0.192	0.033
-352.523	22.416	0.141	-0.114
-351.508	155.542	-0.187	0.256
-350.493	17.040	0.144	0.114
-349.479	-200.000	-0.015	0.126
-348.464	-60.613	-0.278	-0.117
-347.450	101.654	-0.089	-0.103
-346.435	800.000	-0.045	-0.167
-345.420	-105.113	0.546	0.124
-344.406	-123.190	-0.133	0.021
-343.391	-183.224	-0.185	0.003
-342.377	226.967	-0.092	-0.149
-341.362	-13.700	0.178	0.114
-340.348	800.000	-0.028	0.116
-339.333	120.506	0.081	0.100
-338.318	599.839	-0.098	0.242
-337.304	-200.000	0.004	-0.083
-336.289	-85.348	-0.240	-0.075
-335.275	-108.912	-0.446	-0.095
-334.260	37.124	-0.052	0.046
-333.245	123.008	-0.192	-0.239
-332.231	-200.000	-0.030	-0.156
-331.216	-32.191	0.373	-0.207
-330.202	-21.638	-0.076	-0.046
-329.187	188.955	0.061	0.091
-328.172	800.000	-0.160	0.509
-327.158	-200.000	-0.013	-0.083
-326.143	56.921	-0.142	0.137
-325.129	800.000	0.100	0.332
-324.114	5.395	0.401	0.294
-323.099	-200.000	-0.023	-0.225
-322.085	-200.000	-0.008	-0.046
-321.070	86.224	-0.160	-0.175
-320.056	67.624	0.323	0.328
-319.041	-200.000	-0.035	0.454
-318.026	-50.219	-0.267	0.125
-317.012	-116.958	0.225	0.041
-315.997	-84.439	0.256	0.080
-314.983	-23.986	0.154	0.091
-313.968	-0.094	0.269	-0.190
-312.953	-53.917	0.229	-0.103
-311.939	-68.416	0.316	0.122
-310.924	-14.819	0.141	-0.090
-309.910	-200.000	0.000	0.139
-308.895	310.064	0.105	-0.195
-307.880	-75.098	-0.299	0.106
-306.866	45.289	-0.217	-0.198
-305.851	-200.000	-0.032	0.335
-304.837	48.973	-0.233	0.217
-303.822	-62.530	0.507	0.209
-302.807	-66.949	-0.077	0.030
-301.793	-102.225	-0.153	-0.036
-300.778	-31.820	0.121	-0.067
-299.764	-116.957	-0.421	-0.076
-298.749	201.561	-0.031	-0.048
-297.735	-30.563	0.205	-0.115
-296.720	-200.000	-0.021	0.182
-295.705	-200.000	-0.002	0.060
-294.691	-184.210	0.116	0.002
-293.676	800.000	0.043	0.134
-292.662	256.737	-0.205	-0.349
-291.647	-166.890	-0.312	0.013
-290.632	-49.886	-0.146	0.069
-289.618	208.738	0.094	-0.146
-288.603	800.000	-0.132	-0.433
-287.589	-35.699	-0.200	-0.107
-286.574	38.019	0.010	0.009
-285.559	88.510	-0.070	0.077
-284.545	-96.976	-0.078	-0.020
-283.530	-147.084	-0.072	-0.006
-282.516	-200.000	0.013	-0.148
-281.501	-102.977	0.186	0.044
-280.486	-200.000	-0.042	0.241
-279.472	46.117	-0.346	-0.317
-278.457	-200.000	0.008	-0.119
-277.443	-28.209	0.212	-0.121
-276.428	-200.000	0.038	-0.175
-275.413	-200.000	0.002	-0.051
-274.399	-81.291	0.194	-0.063
-273.384	220.772	0.058	-0.092
-272.370	565.709	-0.029	0.069
-271.355	-200.000	0.061	-0.273
-270.340	439.116	-0.122	0.265
-269.326	800.000	0.046	-0.166
-268.311	-130.994	-0.321	-0.042
-267.297	434.032	-0.131	0.282
-266.282	360.873	0.118	-0.235
-265.267	182.801	0.262	0.383
-264.253	-122.103	-0.097	0.016
-263.238	10.369	0.189	0.143
-262.224	-56.388	-0.209	-0.092
-261.209	-200.000	0.042	0.459
-260.195	-149.062	-0.192	-0.015
-259.180	-14.476	-0.269	-0.171
-258.165	-86.178	-0.049	-0.015
-257.151	18.546	0.223	0.176
-256.136	-84.224	-0.182	0.057
-255.122	1.602	-0.191	-0.136
-254.107	-110.437	0.329	-0.068
-253.092	106.122	-0.085	-0.099
-252.078	800.000	-0.024	-0.077
-251.063	-200.000	-0.005	-0.086
-250.049	-138.365	0.193	-0.021
-249.034	800.000	0.089	-0.277
-248.019	-82.603	0.174	-0.056
-247.005	787.031	0.096	-0.260
-245.990	233.737	0.066	0.108
-244.976	108.907	-0.092	-0.109
-243.961	800.000	-0.057	-0.182
-242.946	-42.033	0.059	0.030
-241.932	-35.874	-0.132	-0.071
-240.917	800.000	0.018	-0.052
-239.903	-58.473	0.288	0.124
-238.888	-57.728	-0.044	0.019
-237.873	-89.498	0.091	0.027
-236.859	118.707	-0.203	0.248
-235.844	800.000	-0.045	-0.135
-234.830	-200.000	-0.048	0.325
-233.815	154.049	-0.043	0.059
-232.800	107.869	-0.153	-0.181
-231.786	800.000	-0.082	-0.338
-230.771	-71.547	0.261	-0.097
-229.757	-200.000	-0.013	0.331
-228.742	-21.749	0.210	-0.126
-227.727	322.343	0.146	-0.275
-226.713	-58.724	-0.265	0.113
-225.698	-200.000	0.067	-0.350
-224.684	356.877	0.176	-0.348
-223.669	800.000	0.021	0.083
-222.655	-151.029	-0.184	-0.014
-221.640	546.729	-0.185	-0.438
-220.625	660.493	0.033	-0.084
-219.611	57.433	-0.190	-0.184
-218.596	58.159	-0.055	-0.053
-217.582	15.699	0.072	-0.056
-216.567	-169.481	0.114	0.004
-215.552	-200.000	-0.006	-0.160
-214.538	133.420	0.204	-0.261
-213.523	-126.841	-0.286	0.042
-212.509	379.190	-0.083	-0.169
-211.494	-0.651	0.230	-0.161
-210.479	800.000	0.045	0.160
-209.465	-195.931	0.271	0.002
-208.450	-31.797	-0.198	-0.110
-207.436	24.380	-0.282	0.230
-206.421	6.497	0.172	0.126
-205.406	82.912	0.102	-0.110
-204.392	52.775	-0.319	0.302
-203.377	-15.635	0.167	0.105
-202.363	-115.579	-0.235	-0.044
-201.348	-189.354	0.125	0.001
-200.333	800.000	-0.053	0.164
-199.319	-92.274	0.291	0.081
-198.304	646.005	0.015	0.037
-197.290	-200.000	0.020	-0.208
-196.275	-3.677	0.189	0.130
-195.260	-200.000	0.012	-0.180
-194.246	-106.137	0.150	0.033
-193.231	317.475	-0.119	-0.223
-192.217	579.190	-0.200	0.484
-191.202	21.255	0.079	0.063
-190.187	800.000	-0.104	-0.382
-189.173	210.368	-0.069	0.107
-188.158	-200.000	0.031	0.238
-187.144	-154.146	0.286	0.019
-186.129	217.570	0.141	0.222
-185.114	-13.195	0.208	0.134
-184.100	-3.560	0.150	0.103
-183.085	-112.593	0.134	-0.026
-182.071	47.515	0.156	0.143
-181.056	-200.000	0.016	0.536
-180.042	121.877	0.058	-0.072
-179.027	-163.915	-0.254	0.012
-178.012	-74.041	0.078	-0.028
-176.998	-63.405	0.224	-0.091
-175.983	37.977	-0.172	0.151
-174.969	-191.740	0.149	0.001
-173.954	800.000	-0.081	0.259
-172.939	218.803	0.211	-0.333
-171.925	111.098	0.048	0.058
-170.910	374.330	0.025	-0.050
-169.896	188.605	0.097	0.144
-168.881	303.165	0.172	0.315
-167.866	783.370	0.121	-0.327
-166.852	-200.000	0.040	-0.378
-165.837	636.201	-0.061	0.154
-164.823	-145.293	-0.582	0.052
-163.808	-200.000	-0.013	0.088
-162.793	-96.522	0.447	0.116
-161.779	-139.302	0.255	-0.027
-160.764	-39.547	0.190	-0.098
-159.750	-132.670	0.440	0.056
-158.735	137.266	-0.223	0.288
-157.720	-84.751	0.269	-0.084
-156.706	-46.530	-0.100	-0.048
-155.691	24.696	0.168	-0.137
-154.677	-119.313	0.272	-0.047
-153.662	334.596	-0.102	0.195
-152.647	108.583	0.137	-0.162
-151.633	-200.000	0.054	-0.319
-150.618	257.279	0.166	0.281
-149.604	-26.027	0.074	0.043
-148.589	-69.511	0.386	-0.146
-147.574	-30.566	-0.258	-0.144
-146.560	-200.000	-0.002	0.162
-145.545	-117.860	0.138	0.024
-144.531	-81.824	0.121	0.039
-143.516	57.520	0.116	-0.112
-142.502	22.686	-0.200	0.161
-141.487	794.278	-0.094	0.254
-140.472	-39.318	0.157	-0.081
-139.458	19.633	0.164	-0.130
-138.443	79.980	0.065	0.069
-137.429	-154.812	0.296	-0.019
-136.414	-144.990	0.284	0.025
-135.399	-103.653	-0.192	-0.044
-134.385	-200.000	0.000	-0.204
-133.370	800.000	-0.020	0.079
-132.356	366.956	-0.068	-0.135
-131.341	-138.780	-0.079	-0.008
-130.326	-39.832	0.195	-0.100
-129.312	-66.628	-0.177	-0.069
-128.297	-200.000	0.024	-0.564
-127.283	50.458	-0.257	-0.240
-126.268	143.029	-0.030	-0.039
-125.253	-60.804	0.291	-0.122
-124.239	-123.292	-0.236	0.037
-123.224	-27.041	-0.140	-0.080
-122.210	800.000	-0.033	0.095
