DTS Sentinel unit serial number:	SN413079Multiplexer serial number:	ORYXHardware model number:	OX4-SRSoftware version number:	ORYX F/W v4.00 Oryx Data Collector v3.7.2.0data status	okinstallation	princeton_trtdifferential loss correction	single-endedforward channel	channel 3reverse channel	N/Adate	2019/09/13time	16:32:35forward acquisition time	60.00reverse acquisition time	0.00gamma	496.2192k internal	0.2303k external	0.2303temperature offset calibration	1.0147default loss term (dB/km)	0.3790temperature slope calibration	1.0000multiplexer offset coefficient	1.0000multiplexer slope coefficient	1.0000fibre end	0.00T internal ref (°C)	35.06T ext. ref 1 (°C)	4.90T ext. ref 2 (°C)	30.48length (m)	temperature (°C)	Stokes	anti-Stokes-747.200	772.103	-0.053	-0.148
-746.185	-83.493	0.258	-0.084
-745.171	-59.580	0.353	-0.154
-744.156	11.091	0.185	0.144
-743.142	-200.000	-0.010	-0.086
-742.127	12.894	0.161	0.127
-741.112	-144.208	0.292	0.028
-740.098	800.000	-0.053	0.151
-739.083	-190.317	0.221	-0.002
-738.069	-172.879	0.295	-0.009
-737.054	35.753	-0.190	-0.170
-736.039	800.000	-0.043	0.176
-735.025	-200.000	-0.001	0.007
-734.010	800.000	0.078	-0.265
-732.996	800.000	-0.047	-0.183
-731.981	-184.710	-0.326	-0.005
-730.966	361.381	-0.037	0.075
-729.952	-200.000	-0.090	-0.448
-728.937	88.661	-0.340	-0.385
-727.923	114.857	-0.050	0.062
-726.908	-129.115	0.381	0.054
-725.894	184.301	-0.073	0.109
-724.879	31.765	0.024	-0.021
-723.864	-83.053	0.266	-0.087
-722.850	-38.353	0.180	0.097
-721.835	-200.000	0.018	0.085
-720.821	108.760	-0.256	0.311
-719.806	117.218	0.162	0.203
-718.791	800.000	-0.139	-0.427
-717.777	363.791	-0.049	-0.099
-716.762	-70.874	0.037	-0.014
-715.748	800.000	-0.040	0.142
-714.733	-200.000	-0.052	0.299
-713.718	19.932	-0.240	-0.197
-712.704	-140.482	-0.119	-0.013
-711.689	179.874	-0.122	-0.182
-710.675	-85.386	0.222	0.071
-709.660	113.343	-0.118	0.146
-708.645	-200.000	-0.012	-0.128
-707.631	-200.000	0.008	-0.057
-706.616	-142.808	0.164	0.016
-705.602	268.345	-0.119	0.213
-704.587	53.924	0.139	0.136
-703.572	-103.203	-0.040	-0.010
-702.558	79.273	-0.177	0.193
-701.543	61.342	-0.122	-0.124
-700.529	-200.000	0.011	0.244
-699.514	-126.723	0.019	0.003
-698.499	237.158	-0.266	-0.448
-697.485	251.861	-0.107	0.185
-696.470	153.005	0.154	0.215
-695.456	-200.000	-0.021	0.130
-694.441	800.000	-0.067	0.278
-693.426	134.433	-0.228	-0.300
-692.412	-200.000	0.067	-0.327
-691.397	105.182	-0.031	0.037
-690.383	-74.500	0.246	0.090
-689.368	-59.921	0.156	0.068
-688.354	-93.290	0.202	0.057
-687.339	-100.867	-0.387	0.097
-686.324	-71.047	0.106	0.040
-685.310	800.000	0.032	-0.097
-684.295	-54.165	0.151	0.070
-683.281	800.000	-0.028	-0.081
-682.266	-59.149	0.069	0.030
-681.251	-113.695	-0.389	-0.077
-680.237	-200.000	0.003	0.042
-679.222	49.202	0.397	-0.380
-678.208	113.604	-0.114	0.141
-677.193	-96.314	-0.207	-0.056
-676.178	325.966	-0.093	-0.180
-675.164	116.035	-0.214	-0.266
-674.149	211.965	0.061	-0.097
-673.135	95.092	0.231	0.267
-672.120	-200.000	0.016	-0.132
-671.105	-10.852	0.285	0.191
-670.091	-200.000	0.007	0.191
-669.076	-88.367	0.405	-0.123
-668.062	800.000	0.120	-0.399
-667.047	299.475	-0.048	-0.090
-666.032	399.479	-0.184	0.392
-665.018	318.234	0.081	0.156
-664.003	800.000	0.024	0.105
-662.989	800.000	0.068	0.248
-661.974	-114.152	0.077	0.015
-660.959	800.000	-0.061	-0.195
-659.945	-29.885	-0.054	-0.031
-658.930	149.185	0.269	-0.370
-657.916	-200.000	0.024	-0.147
-656.901	-200.000	-0.003	0.175
-655.886	-200.000	-0.003	0.036
-654.872	-200.000	0.028	-0.219
-653.857	-16.146	-0.205	-0.132
-652.843	240.752	0.026	-0.045
-651.828	-200.000	-0.007	0.154
-650.814	-200.000	0.043	0.194
-649.799	800.000	-0.146	-0.435
-648.784	-200.000	0.038	-0.322
-647.770	800.000	0.031	0.089
-646.755	800.000	-0.051	0.156
-645.741	-55.968	-0.122	0.055
-644.726	-107.816	-0.201	0.044
-643.711	800.000	0.024	0.104
-642.697	23.971	-0.133	0.111
-641.682	-200.000	-0.015	-0.252
-640.668	-44.657	-0.257	0.130
-639.653	233.105	0.102	0.170
-638.638	-57.733	0.117	0.052
-637.624	-120.103	-0.195	0.034
-636.609	-200.000	-0.021	0.157
-635.595	553.062	-0.077	0.188
-634.580	-200.000	-0.024	-0.118
-633.565	-75.006	0.151	-0.055
-632.551	-40.998	0.200	0.105
-631.536	-17.420	0.271	-0.173
-630.522	-200.000	-0.030	0.241
-629.507	-104.228	0.187	0.044
-628.492	-116.410	-0.289	-0.054
-627.478	800.000	0.086	-0.301
-626.463	-200.000	0.036	-0.243
-625.449	-200.000	0.069	-0.326
-624.434	-88.404	0.189	0.057
-623.419	277.170	-0.163	-0.295
-622.405	800.000	-0.037	0.146
-621.390	550.652	0.090	0.219
-620.376	800.000	-0.036	0.155
-619.361	-200.000	-0.021	0.388
-618.346	251.997	0.054	-0.093
-617.332	263.531	-0.147	-0.259
-616.317	-151.744	0.137	-0.010
-615.303	-10.123	-0.254	0.171
-614.288	-51.236	0.278	0.132
-613.273	201.769	-0.130	0.203
-612.259	-107.960	0.191	0.042
-611.244	-123.365	0.285	0.046
-610.230	6.774	-0.177	0.134
-609.215	49.877	-0.187	-0.179
-608.201	-85.692	-0.157	-0.049
-607.186	-58.834	-0.209	0.092
-606.171	7.797	-0.105	-0.080
-605.157	45.842	-0.074	0.069
-604.142	356.431	-0.089	-0.179
-603.128	-76.783	-0.138	-0.049
-602.113	-133.929	0.363	0.046
-601.098	616.664	0.114	0.290
-600.084	36.021	0.109	-0.097
-599.069	-85.024	0.419	-0.133
-598.055	-36.470	-0.250	-0.136
-597.040	65.608	0.340	0.349
-596.025	-124.874	-0.371	0.058
-595.011	-80.514	-0.315	-0.106
-593.996	-57.453	0.051	-0.023
-592.982	-12.315	0.192	0.127
-591.967	16.441	-0.238	0.190
-590.952	-52.774	-0.042	0.020
-589.938	800.000	0.135	0.393
-588.923	-200.000	-0.001	-0.340
-587.909	-11.270	0.219	-0.146
-586.894	-170.503	-0.163	-0.006
-585.879	-200.000	-0.034	0.206
-584.865	-53.389	0.449	0.208
-583.850	503.949	0.028	-0.066
-582.836	-141.925	0.152	-0.015
-581.821	-89.137	0.168	-0.050
-580.806	-19.969	-0.162	-0.101
-579.792	37.722	-0.155	0.140
-578.777	298.555	0.101	0.189
-577.763	-33.729	-0.135	-0.075
-576.748	20.687	0.252	-0.206
-575.733	-200.000	0.025	-0.179
-574.719	-154.705	0.089	0.006
-573.704	153.934	-0.146	-0.203
-572.690	-0.202	0.102	-0.073
-571.675	-197.286	-0.234	0.002
-570.661	-200.000	-0.047	0.207
-569.646	337.532	0.036	0.072
-568.631	-200.000	-0.015	-0.324
-567.617	-200.000	-0.005	0.145
-566.602	-15.151	0.182	-0.118
-565.588	47.169	0.206	-0.194
-564.573	226.601	0.224	0.368
-563.558	-107.298	-0.080	0.018
-562.544	-112.386	0.093	0.019
-561.529	-139.276	-0.153	-0.017
-560.515	-200.000	0.024	-0.179
-559.500	-181.839	-0.168	-0.003
-558.485	306.253	0.051	0.096
-557.471	-200.000	-0.058	0.437
-556.456	160.355	-0.062	-0.087
-555.442	-200.000	-0.011	0.183
-554.427	344.906	-0.069	0.137
-553.412	435.322	0.133	0.292
-552.398	5.905	-0.127	-0.095
-551.383	-200.000	0.033	0.298
-550.369	108.440	-0.048	0.058
-549.354	-23.871	-0.228	-0.138
-548.339	121.090	-0.107	-0.135
-547.325	476.515	-0.120	0.274
-546.310	102.235	0.348	0.411
-545.296	25.682	-0.133	0.112
-544.281	-144.106	0.148	0.014
-543.266	-200.000	0.019	-0.157
-542.252	54.767	-0.139	0.136
-541.237	-1.618	-0.149	0.106
-540.223	800.000	0.060	0.225
-539.208	-131.211	-0.049	-0.007
-538.193	538.172	-0.078	0.188
-537.179	782.768	-0.126	0.347
-536.164	-15.906	-0.195	0.126
-535.150	-200.000	0.041	-0.224
-534.135	-60.046	0.229	-0.099
-533.121	723.421	-0.064	0.171
-532.106	-183.467	0.328	-0.006
-531.091	306.656	0.116	0.218
-530.077	-112.763	-0.077	-0.016
-529.062	-6.194	-0.306	0.211
-528.048	-200.000	0.002	0.042
-527.033	785.258	-0.016	-0.044
-526.018	-200.000	-0.002	0.064
-525.004	-32.891	0.356	-0.200
-523.989	-200.000	-0.057	0.289
-522.975	18.936	-0.222	-0.180
-521.960	557.688	-0.080	-0.195
-520.945	-32.014	-0.447	-0.253
-519.931	318.041	0.109	-0.209
-518.916	-119.799	-0.404	0.070
-517.902	-125.816	-0.435	0.066
-516.887	-37.107	-0.435	-0.235
-515.872	176.354	-0.081	0.119
-514.858	267.441	0.100	0.176
-513.843	140.823	-0.149	-0.199
-512.829	711.413	-0.055	-0.148
-511.814	334.802	-0.080	0.156
-510.799	-200.000	-0.059	0.269
-509.785	-200.000	0.005	0.165
-508.770	-150.136	0.168	-0.013
-507.756	-181.486	0.058	-0.001
-506.741	-108.741	-0.466	0.101
-505.726	2.966	0.267	-0.196
-504.712	-18.401	-0.123	-0.078
-503.697	-44.228	-0.130	-0.066
-502.683	26.749	0.083	-0.070
-501.668	754.925	-0.035	-0.096
-500.653	-58.853	0.318	-0.139
-499.639	-12.561	-0.037	0.025
-498.624	-200.000	0.010	-0.255
-497.610	-84.069	0.505	-0.162
-496.595	34.001	0.369	-0.324
-495.581	-55.117	-0.287	0.130
-494.566	-59.742	0.089	-0.038
-493.551	-89.960	0.123	0.036
-492.537	-200.000	0.016	-0.100
-491.522	-133.506	-0.191	-0.024
-490.508	-200.000	-0.019	0.234
-489.493	37.710	-0.189	0.170
-488.478	174.166	-0.033	-0.048
-487.464	800.000	-0.085	0.326
-486.449	-51.107	-0.270	0.128
-485.435	-55.510	0.268	0.121
-484.420	-167.696	0.144	-0.006
-483.405	-181.487	0.472	-0.009
-482.391	212.466	-0.064	0.101
-481.376	-22.550	0.139	0.085
-480.362	-92.656	-0.270	0.076
-479.347	265.261	-0.219	-0.385
-478.332	-200.000	-0.062	-0.303
-477.318	-72.582	-0.304	0.113
-476.303	-47.646	-0.145	-0.071
-475.289	-200.000	0.032	0.241
-474.274	-80.195	0.110	0.037
-473.259	-6.315	-0.147	0.101
-472.245	-20.022	-0.194	-0.120
-471.230	-64.535	-0.433	0.177
-470.216	-89.756	0.103	0.030
-469.201	-200.000	-0.002	-0.084
-468.186	-59.671	0.113	0.049
-467.172	800.000	-0.040	-0.138
-466.157	70.439	0.038	-0.040
-465.143	-80.658	-0.416	-0.139
-464.128	10.737	0.113	-0.087
-463.113	191.337	-0.140	0.212
-462.099	-32.144	0.307	-0.173
-461.084	18.735	-0.357	0.288
-460.070	-200.000	0.015	0.081
-459.055	-105.510	-0.238	0.054
-458.040	-123.862	0.468	-0.074
-457.026	283.366	-0.192	0.348
-456.011	497.365	-0.132	-0.305
-454.997	-67.279	0.171	-0.068
-453.982	-99.003	0.228	0.058
-452.968	800.000	-0.022	-0.088
-451.953	800.000	0.031	-0.123
-450.938	-113.891	-0.195	-0.038
-449.924	462.389	0.063	-0.141
-448.909	-200.000	-0.016	0.380
-447.895	97.063	0.173	-0.200
-446.880	-31.623	0.227	0.128
-445.865	-172.302	-0.379	0.012
-444.851	-123.804	-0.162	-0.026
-443.836	-200.000	-0.027	0.329
-442.822	229.941	0.140	0.231
-441.807	330.750	-0.014	0.027
-440.792	-100.717	0.137	-0.034
-439.778	-25.664	-0.114	-0.068
-438.763	-21.914	-0.125	-0.077
-437.749	26.430	0.072	0.061
-436.734	245.729	0.018	-0.030
-435.719	39.597	0.240	0.217
-434.705	-40.149	0.099	0.052
-433.690	90.791	-0.073	0.083
-432.676	107.579	0.034	0.041
-431.661	800.000	-0.034	-0.138
-430.646	-3.130	-0.097	-0.068
-429.632	553.292	-0.039	0.094
-428.617	-143.210	0.323	-0.031
-427.603	800.000	0.103	-0.292
-426.588	800.000	-0.028	0.118
-425.573	800.000	-0.056	-0.226
-424.559	-127.379	-0.196	0.029
-423.544	-33.912	0.166	-0.092
-422.530	-122.853	-0.282	0.046
-421.515	-88.678	0.174	0.052
-420.500	126.003	-0.165	0.210
-419.486	-200.000	0.446	0.001
-418.471	11.741	0.208	0.160
-417.457	232.827	0.025	0.042
-416.442	-157.733	0.222	-0.013
-415.428	-42.359	-0.206	-0.106
-414.413	800.000	0.165	-0.529
-413.398	75.412	-0.146	0.155
-412.384	169.118	0.142	0.203
-411.369	253.719	0.022	0.038
-410.355	-200.000	0.034	-0.155
-409.340	198.435	-0.107	-0.164
-408.325	-91.065	0.132	0.038
-407.311	-72.118	-0.101	-0.038
-406.296	800.000	0.059	-0.178
-405.282	170.105	-0.097	-0.139
-404.267	-109.382	-0.157	-0.033
-403.252	23.341	0.231	-0.191
-402.238	82.491	0.061	-0.066
-401.223	332.844	-0.089	0.173
-400.209	-77.385	0.174	0.061
-399.194	-200.000	-0.013	-0.185
-398.179	-53.970	0.291	-0.133
-397.165	119.885	-0.147	0.184
-396.150	269.980	0.095	-0.167
-395.136	307.315	-0.119	-0.223
-394.121	800.000	-0.075	0.226
-393.106	87.375	-0.166	0.185
-392.092	-98.701	0.153	0.039
-391.077	2.180	0.186	0.135
-390.063	-7.092	-0.081	0.055
-389.048	57.696	-0.260	0.255
-388.033	230.154	-0.189	-0.311
-387.019	-200.000	0.007	-0.035
-386.004	128.040	0.045	-0.058
-384.990	60.403	-0.234	-0.233
-383.975	278.773	-0.061	-0.109
-382.960	800.000	0.107	0.319
-381.946	123.021	-0.055	0.069
-380.931	86.864	-0.180	0.200
-379.917	33.024	-0.309	-0.269
-378.902	-200.000	0.024	-0.224
-377.888	-200.000	0.030	-0.424
-376.873	800.000	-0.046	-0.193
-375.858	-179.932	0.302	-0.006
-374.844	-200.000	0.392	0.000
-373.829	690.411	-0.031	-0.082
-372.815	91.018	-0.071	0.080
-371.800	-153.074	-0.216	-0.015
-370.785	46.041	0.255	-0.237
-369.771	-10.480	-0.328	-0.218
-368.756	4.975	-0.139	0.103
-367.742	-56.256	0.540	-0.241
-366.727	-39.965	0.180	-0.095
-365.712	2.357	0.099	-0.072
-364.698	-130.962	0.182	-0.024
-363.683	-56.221	0.117	-0.052
-362.669	19.455	-0.141	0.114
-361.654	139.877	-0.025	-0.033
-360.639	85.463	0.167	0.184
-359.625	109.195	-0.175	-0.210
-358.610	-100.005	-0.652	-0.163
-357.596	-58.138	0.211	-0.092
-356.581	-200.000	0.009	-0.127
-355.566	-200.000	-0.078	-0.367
-354.552	-36.394	0.169	0.091
-353.537	-81.542	0.306	-0.101
-352.523	-200.000	0.087	-0.544
-351.508	69.292	0.154	-0.159
-350.493	-69.818	-0.453	0.174
-349.479	23.331	0.173	0.143
-348.464	-200.000	-0.006	0.252
-347.450	-200.000	0.034	-0.174
-346.435	139.111	0.180	-0.237
-345.420	-31.482	-0.101	-0.057
-344.406	61.358	-0.098	-0.098
-343.391	434.335	-0.060	0.130
-342.377	800.000	-0.044	0.134
-341.362	-200.000	-0.037	-0.166
-340.348	-200.000	-0.067	-0.374
-339.333	-170.157	0.107	-0.004
-338.318	21.988	0.059	-0.048
-337.304	800.000	0.062	-0.218
-336.289	-77.344	0.129	-0.045
-335.275	132.177	-0.044	0.057
-334.260	800.000	-0.070	-0.201
-333.245	99.381	0.121	0.140
-332.231	-69.415	0.230	-0.088
-331.216	-147.245	0.235	0.020
-330.202	-165.029	-0.236	-0.011
-329.187	-200.000	0.046	-0.447
-328.172	143.639	-0.144	0.192
-327.158	-150.898	0.290	0.022
-326.143	83.477	0.158	0.172
-325.129	182.898	-0.143	0.212
-324.114	-148.486	0.219	-0.018
-323.099	617.944	-0.082	0.206
-322.085	800.000	-0.081	-0.305
-321.070	-63.253	-0.192	-0.079
-320.056	-85.269	0.399	-0.125
-319.041	-200.000	0.025	-0.221
-318.026	-166.687	0.018	0.001
-317.012	-108.348	-0.232	0.050
-315.997	-200.000	0.015	0.347
-314.983	-200.000	0.038	0.180
-313.968	399.608	-0.085	-0.179
-312.953	-18.471	-0.029	0.018
-311.939	-200.000	0.000	0.161
-310.924	-200.000	-0.021	0.135
-309.910	-61.390	0.197	-0.083
-308.895	-62.009	-0.166	-0.069
-307.880	-97.443	-0.236	-0.061
-306.866	196.618	-0.309	0.472
-305.851	113.808	0.129	0.156
-304.837	-26.964	-0.269	-0.157
-303.822	800.000	0.113	-0.391
-302.807	-200.000	0.058	-0.348
-301.793	-119.253	0.149	-0.026
-300.778	-184.254	-0.147	0.002
-299.764	-53.764	-0.277	0.126
-298.749	28.737	0.095	0.080
-297.735	23.078	0.199	-0.163
-296.720	49.951	-0.171	0.162
-295.705	294.246	-0.113	-0.207
-294.691	-14.056	-0.279	0.181
-293.676	-57.773	0.024	0.010
-292.662	-6.500	0.466	-0.318
-291.647	653.212	-0.049	0.125
-290.632	800.000	-0.109	0.471
-289.618	-88.993	-0.233	-0.069
-288.603	-109.721	0.111	0.023
-287.589	-200.000	0.024	0.251
-286.574	-65.700	0.030	0.012
-285.559	800.000	0.068	0.225
-284.545	-1.475	0.222	0.157
-283.530	-200.000	-0.005	-0.171
-282.516	17.695	0.212	0.169
-281.501	273.465	0.058	-0.103
-280.486	800.000	0.022	-0.066
-279.472	368.708	-0.007	-0.013
-278.457	-26.211	-0.168	0.099
-277.443	23.272	0.034	-0.028
-276.428	-140.205	-0.206	-0.022
-275.413	-68.470	-0.239	-0.093
-274.399	-191.950	0.483	-0.005
-273.384	-100.623	0.176	-0.043
-272.370	17.633	0.059	-0.047
-271.355	374.086	0.104	0.212
-270.340	-102.024	0.112	-0.027
-269.326	-92.827	-0.193	-0.054
-268.311	-200.000	-0.008	0.047
-267.297	-200.000	-0.063	0.376
-266.282	100.157	0.131	-0.152
-265.267	440.437	0.146	0.320
-264.253	8.926	0.107	-0.081
-263.238	-1.043	0.168	-0.119
-262.224	150.922	-0.227	0.309
-261.209	241.269	0.035	0.058
-260.195	-114.476	-0.115	0.022
-259.180	72.149	0.058	-0.060
-258.165	-200.000	-0.063	0.380
-257.151	-200.000	-0.034	-0.191
-256.136	-64.656	-0.151	-0.061
-255.122	234.530	-0.098	0.161
-254.107	-53.435	0.126	0.057
-253.092	761.350	0.182	-0.494
-252.078	156.616	0.103	-0.142
-251.063	142.562	0.189	-0.251
-250.049	-100.664	0.118	0.029
-249.034	96.043	-0.116	-0.133
-248.019	-46.029	-0.161	-0.080
-247.005	9.267	-0.197	0.149
-245.990	-109.308	-0.081	0.017
-244.976	464.549	-0.095	-0.211
-243.961	23.903	-0.056	-0.046
-242.946	-1.442	0.346	0.244
-241.932	553.698	-0.100	-0.239
-240.917	-200.000	-0.051	-0.345
-239.903	-94.017	-0.021	-0.006
-238.888	5.637	0.183	0.135
-237.873	-200.000	-0.030	0.493
-236.859	29.366	0.167	-0.142
-235.844	-118.862	-0.306	0.054
-234.830	57.267	0.130	-0.126
-233.815	26.054	-0.477	0.398
-232.800	197.319	0.124	0.190
-231.786	290.989	0.101	-0.184
-230.771	-9.715	0.092	0.061
-229.757	-34.499	-0.155	0.085
-228.742	287.493	0.117	0.211
-227.727	130.804	-0.244	0.312
-226.713	627.138	-0.106	0.267
-225.698	-200.000	0.032	0.243
-224.684	-97.532	0.438	-0.114
-223.669	32.162	-0.269	-0.232
-222.655	150.445	0.119	0.161
-221.640	193.909	0.233	-0.352
-220.625	-85.248	-0.080	0.025
-219.611	-200.000	0.064	-0.287
-218.596	301.051	0.044	0.082
-217.582	-103.166	-0.221	0.052
-216.567	325.609	-0.040	0.077
-215.552	-200.000	-0.026	-0.220
-214.538	-200.000	-0.009	-0.063
-213.523	41.050	-0.285	-0.257
-212.509	-23.169	-0.085	-0.051
-211.494	-130.479	0.169	0.023
-210.479	-61.693	0.169	-0.071
-209.465	-108.226	0.307	-0.066
-208.450	800.000	0.060	0.183
-207.436	-10.447	0.139	0.092
-206.421	140.962	-0.008	0.011
-205.406	17.055	0.189	0.149
-204.392	-200.000	0.055	-0.319
-203.377	71.165	-0.047	0.048
-202.363	592.449	-0.089	-0.219
-201.348	-156.667	0.223	-0.014
-200.333	84.637	-0.254	0.278
-199.319	-53.061	0.098	-0.045
-198.304	335.738	0.122	-0.237
-197.290	2.364	-0.181	0.131
-196.275	-148.409	0.232	0.019
-195.260	228.789	0.136	0.221
-194.246	-69.718	0.161	0.061
-193.231	-11.952	-0.193	-0.126
-192.217	-7.358	-0.210	-0.142
-191.202	-137.102	-0.191	0.022
-190.187	-18.849	0.249	0.155
-189.173	301.957	-0.135	-0.249
-188.158	-96.105	0.283	0.075
-187.144	-52.109	-0.169	0.078
-186.129	-26.915	-0.155	0.090
-185.114	-200.000	0.003	-0.135
-184.100	30.559	-0.254	0.217
-183.085	-200.000	-0.046	-0.628
-182.071	-32.435	-0.294	-0.163
-181.056	443.201	-0.025	-0.055
-180.042	-72.456	0.122	0.045
-179.027	138.642	0.089	0.116
-178.012	-134.134	-0.349	-0.043
-176.998	-150.678	0.114	0.009
-175.983	127.274	0.179	0.227
-174.969	-200.000	-0.006	0.034
-173.954	-200.000	0.001	0.084
-172.939	121.276	0.198	-0.245
-171.925	47.393	0.209	-0.194
-170.910	-200.000	-0.010	0.084
-169.896	-28.999	-0.290	-0.166
-168.881	-162.603	0.232	-0.011
-167.866	30.372	0.111	0.095
-166.852	-110.857	0.411	-0.084
-165.837	104.861	-0.336	0.394
-164.823	789.416	-0.137	0.374
-163.808	384.344	0.095	0.195
-162.793	-59.473	0.073	-0.031
-161.779	-83.809	0.234	-0.074
-160.764	-77.472	-0.209	-0.072
-159.750	191.156	0.046	0.070
-158.735	-187.157	-0.018	-0.000
-157.720	-200.000	0.004	0.159
-156.706	-127.644	-0.188	-0.027
-155.691	-104.260	0.226	-0.052
-154.677	-181.536	0.393	0.008
-153.662	-107.684	0.199	-0.043
-152.647	-95.358	-0.417	-0.112
-151.633	-31.952	0.168	0.094
-150.618	-96.066	0.198	-0.052
-149.604	-170.814	0.300	0.010
-148.589	-200.000	-0.001	-0.143
-147.574	-200.000	0.018	0.242
-146.560	232.066	-0.163	-0.267
-145.545	-58.766	-0.136	-0.059
-144.531	-78.295	-0.236	0.080
-143.516	104.569	0.054	-0.064
-142.502	-73.193	0.148	-0.054
-141.487	-103.057	0.202	-0.048
-140.472	-133.847	-0.156	0.019
-139.458	86.814	0.107	-0.117
-138.443	-72.345	0.134	0.049
-137.429	87.537	0.072	0.079
-136.414	-200.000	0.003	-0.122
-135.399	373.730	-0.019	-0.038
-134.385	-113.017	0.292	0.057
-133.370	-7.616	0.030	-0.020
-132.356	800.000	0.053	0.197
-131.341	-33.393	-0.053	-0.029
-130.326	-150.190	-0.444	-0.034
-129.312	-125.978	0.271	-0.041
-128.297	-83.975	-0.262	0.083
-127.283	174.021	-0.121	-0.174
-126.268	81.134	0.090	0.097
-125.253	56.602	-0.136	0.132
-124.239	800.000	-0.062	-0.181
-123.224	-200.000	-0.035	-0.176
-122.210	-28.914	0.092	0.053
