DTS Sentinel unit serial number:	SN413079Multiplexer serial number:	ORYXHardware model number:	OX4-SRSoftware version number:	ORYX F/W v4.00 Oryx Data Collector v3.7.2.0data status	okinstallation	princeton_trtdifferential loss correction	single-endedforward channel	channel 3reverse channel	N/Adate	2019/09/18time	01:40:35forward acquisition time	60.00reverse acquisition time	0.00gamma	496.2192k internal	0.2345k external	0.2345temperature offset calibration	0.9945default loss term (dB/km)	0.3790temperature slope calibration	1.0000multiplexer offset coefficient	1.0000multiplexer slope coefficient	1.0000fibre end	0.00T internal ref (°C)	23.06T ext. ref 1 (°C)	0.16T ext. ref 2 (°C)	16.68length (m)	temperature (°C)	Stokes	anti-Stokes-747.200	388.051	-0.068	-0.141
-746.185	63.721	0.319	0.321
-745.171	-60.132	0.261	-0.112
-744.156	800.000	0.022	0.074
-743.142	-200.000	-0.029	0.210
-742.127	-79.378	-0.121	0.041
-741.112	167.329	0.177	0.251
-740.098	-148.074	-0.102	0.008
-739.083	351.346	-0.090	0.179
-738.069	-166.213	-0.322	-0.014
-737.054	-13.838	-0.020	0.013
-736.039	800.000	0.045	-0.177
-735.025	-108.759	0.377	-0.081
-734.010	-200.000	-0.008	-0.079
-732.996	-120.683	-0.334	-0.057
-731.981	-200.000	0.009	0.217
-730.966	-189.037	-0.075	-0.001
-729.952	-167.623	0.318	0.013
-728.937	-200.000	-0.031	-0.289
-727.923	-200.000	-0.055	0.363
-726.908	654.689	-0.063	-0.161
-725.894	-129.857	-0.195	-0.027
-724.879	38.541	0.160	-0.143
-723.864	-68.525	0.317	-0.123
-722.850	-200.000	0.022	0.136
-721.835	800.000	-0.044	0.140
-720.821	800.000	0.041	-0.133
-719.806	26.825	0.024	0.020
-718.791	152.841	-0.051	-0.070
-717.777	-80.121	0.344	0.115
-716.762	29.175	-0.149	-0.126
-715.748	-35.806	-0.204	-0.111
-714.733	-125.023	-0.052	-0.008
-713.718	800.000	0.031	0.094
-712.704	800.000	0.137	-0.387
-711.689	262.988	0.120	-0.209
-710.675	-18.963	-0.149	0.093
-709.660	-22.366	0.186	0.113
-708.645	679.484	-0.142	-0.369
-707.631	-67.257	-0.151	-0.059
-706.616	800.000	-0.091	-0.269
-705.602	-109.516	0.140	0.030
-704.587	-43.245	0.237	-0.120
-703.572	72.378	0.024	-0.025
-702.558	52.022	0.165	-0.157
-701.543	-30.893	-0.147	-0.083
-700.529	507.660	0.087	0.202
-699.514	800.000	-0.041	-0.146
-698.499	49.198	-0.085	-0.079
-697.485	-28.283	0.136	-0.079
-696.470	-22.261	-0.407	0.247
-695.456	-0.036	0.053	-0.038
-694.441	-148.667	-0.184	-0.015
-693.426	-142.951	-0.127	0.012
-692.412	-200.000	-0.104	0.000
-691.397	-130.018	-0.112	0.015
-690.383	357.028	-0.192	0.382
-689.368	-121.174	-0.229	-0.038
-688.354	-168.467	-0.307	-0.012
-687.339	-54.646	0.087	-0.039
-686.324	-120.326	-0.190	0.032
-685.310	582.007	-0.123	-0.301
-684.295	-116.849	-0.416	-0.076
-683.281	800.000	-0.063	-0.216
-682.266	-54.435	-0.169	-0.077
-681.251	166.165	-0.145	0.205
-680.237	84.732	0.103	0.113
-679.222	28.139	0.135	-0.114
-678.208	71.482	-0.123	0.127
-677.193	-158.529	-0.204	0.012
-676.178	217.089	-0.145	-0.230
-675.164	-200.000	0.013	0.149
-674.149	-113.009	-0.124	-0.024
-673.135	441.290	0.057	0.123
-672.120	-50.618	0.126	-0.059
-671.105	66.262	-0.094	0.096
-670.091	-3.196	-0.261	-0.181
-669.076	-200.000	-0.038	-0.215
-668.062	163.992	0.161	0.227
-667.047	284.393	0.047	0.085
-666.032	-200.000	-0.048	0.259
-665.018	13.675	0.188	0.146
-664.003	-200.000	0.026	0.274
-662.989	-29.816	0.283	0.161
-661.974	-181.453	-0.031	-0.001
-660.959	-64.578	-0.206	-0.083
-659.945	131.558	-0.136	0.174
-658.930	-38.259	-0.263	-0.139
-657.916	4.712	0.205	0.150
-656.901	-130.240	-0.116	-0.016
-655.886	526.978	-0.086	0.203
-654.872	800.000	0.093	0.346
-653.857	-118.675	-0.148	-0.026
-652.843	52.611	0.135	-0.129
-651.828	105.174	-0.326	-0.384
-650.814	443.745	0.118	-0.258
-649.799	-69.394	-0.414	-0.159
-648.784	-200.000	-0.098	-0.462
-647.770	140.487	-0.224	-0.295
-646.755	-200.000	-0.019	-0.163
-645.741	800.000	-0.057	0.172
-644.726	184.529	-0.086	-0.127
-643.711	-134.940	-0.355	-0.043
-642.697	-69.613	0.171	0.065
-641.682	274.730	-0.017	0.030
-640.668	107.768	0.152	-0.180
-639.653	354.034	-0.192	-0.381
-638.638	-200.000	-0.017	0.110
-637.624	-0.223	0.415	-0.294
-636.609	416.592	-0.099	-0.210
-635.595	-200.000	-0.020	-0.322
-634.580	83.161	0.059	-0.064
-633.565	31.888	-0.107	-0.092
-632.551	-135.708	-0.115	0.014
-631.536	9.793	-0.206	-0.155
-630.522	-68.672	-0.101	0.039
-629.507	708.985	0.017	-0.044
-628.492	-46.545	-0.184	0.090
-627.478	-116.064	0.269	-0.050
-626.463	-57.289	0.111	0.049
-625.449	7.118	-0.164	0.122
-624.434	204.275	-0.076	-0.117
-623.419	-99.762	0.282	0.070
-622.405	566.314	-0.083	0.199
-621.390	-151.224	-0.404	-0.030
-620.376	237.478	-0.099	0.163
-619.361	-108.210	-0.311	-0.067
-618.346	-135.749	-0.181	0.021
-617.332	90.661	-0.109	0.122
-616.317	105.601	-0.037	-0.043
-615.303	102.742	0.198	-0.231
-614.288	434.735	0.164	0.356
-613.273	17.806	0.054	0.043
-612.259	-200.000	-0.029	-0.201
-611.244	-28.710	0.127	-0.073
-610.230	-69.141	0.236	-0.090
-609.215	-200.000	-0.067	0.340
-608.201	-48.638	-0.059	-0.028
-607.186	-16.026	0.143	0.091
-606.171	292.614	0.066	0.119
-605.157	-16.171	-0.204	0.129
-604.142	-25.820	-0.138	0.081
-603.128	-129.465	-0.415	0.057
-602.113	-116.263	0.319	0.059
-601.098	-200.000	-0.001	0.035
-600.084	-200.000	0.036	0.164
-599.069	-189.299	-0.178	-0.002
-598.055	-72.821	-0.426	-0.156
-597.040	204.254	0.153	-0.236
-596.025	800.000	0.068	-0.284
-595.011	-137.505	0.153	-0.017
-593.996	-200.000	-0.034	-0.314
-592.982	-125.806	-0.157	-0.024
-591.967	800.000	-0.071	-0.207
-590.952	388.516	0.119	-0.244
-589.938	-200.000	0.017	-0.210
-588.923	-153.436	0.080	-0.005
-587.909	-200.000	-0.052	-0.433
-586.894	-200.000	0.011	-0.366
-585.879	-200.000	-0.026	-0.303
-584.865	9.292	-0.199	-0.150
-583.850	52.804	-0.188	0.179
-582.836	-91.483	-0.110	-0.031
-581.821	-44.078	-0.036	0.018
-580.806	-200.000	0.058	0.454
-579.792	179.369	-0.171	-0.249
-578.777	-200.000	-0.005	0.099
-577.763	-200.000	-0.007	0.071
-576.748	201.469	-0.110	0.168
-575.733	800.000	-0.041	0.152
-574.719	283.507	-0.080	0.144
-573.704	81.509	-0.084	0.090
-572.690	296.393	0.096	-0.175
-571.675	-200.000	0.170	-0.001
-570.661	295.716	0.154	0.281
-569.646	300.153	0.090	0.166
-568.631	237.791	0.018	0.029
-567.617	-200.000	-0.009	-0.118
-566.602	93.112	-0.163	-0.183
-565.588	93.246	-0.073	-0.082
-564.573	-40.328	-0.250	-0.129
-563.558	-157.005	0.186	0.011
-562.544	-94.105	0.195	0.053
-561.529	10.922	-0.275	-0.209
-560.515	800.000	-0.047	-0.201
-559.500	-9.845	-0.127	-0.084
-558.485	800.000	0.052	-0.185
-557.471	-84.627	0.499	-0.156
-556.456	-200.000	0.078	-0.000
-555.442	-75.529	0.388	-0.137
-554.427	61.569	0.227	0.225
-553.412	-14.144	0.315	-0.202
-552.398	403.748	-0.089	-0.185
-551.383	150.787	0.272	0.367
-550.369	-200.000	0.049	0.418
-549.354	354.273	0.102	-0.202
-548.339	-200.000	-0.047	-0.308
-547.325	221.360	-0.209	-0.334
-546.310	-200.000	0.000	0.352
-545.296	-200.000	-0.082	-0.381
-544.281	390.578	-0.159	-0.328
-543.266	462.239	-0.082	0.183
-542.252	47.510	0.301	0.279
-541.237	93.830	0.200	0.225
-540.223	-108.270	-0.066	-0.014
-539.208	375.582	-0.168	-0.340
-538.193	-135.389	-0.349	0.041
-537.179	-87.379	-0.080	-0.024
-536.164	-200.000	-0.007	0.178
-535.150	2.728	0.040	0.029
-534.135	-200.000	-0.019	0.185
-533.121	-64.793	0.241	0.097
-532.106	-112.303	0.271	-0.054
-531.091	-76.399	-0.200	0.070
-530.077	33.384	0.183	0.158
-529.062	632.495	0.089	0.224
-528.048	-42.712	0.186	0.094
-527.033	-15.371	0.173	0.110
-526.018	-130.049	-0.071	-0.010
-525.004	800.000	-0.029	-0.112
-523.989	-200.000	-0.310	0.000
-522.975	-145.482	0.252	0.022
-521.960	-200.000	-0.048	-0.362
-520.945	800.000	0.022	0.084
-519.931	326.027	-0.080	0.153
-518.916	2.218	-0.191	0.137
-517.902	-59.253	-0.265	-0.113
-516.887	58.043	-0.075	0.073
-515.872	-148.421	0.192	-0.016
-514.858	6.937	-0.112	0.082
-513.843	57.663	0.112	-0.108
-512.829	419.768	0.011	0.022
-511.814	-59.967	-0.215	0.091
-510.799	-8.329	0.155	0.103
-509.785	72.547	-0.101	-0.104
-508.770	-38.537	0.202	-0.106
-507.756	533.901	-0.125	0.293
-506.741	800.000	-0.145	0.400
-505.726	-81.087	0.177	0.058
-504.712	-200.000	-0.052	-0.384
-503.697	-200.000	-0.050	0.290
-502.683	-66.546	0.175	-0.069
-501.668	617.507	0.055	-0.138
-500.653	-22.945	0.172	0.103
-499.639	-64.996	0.025	-0.010
-498.624	198.994	0.065	0.098
-497.610	228.087	0.246	-0.397
-496.595	24.562	0.313	-0.256
-495.581	247.594	-0.165	-0.276
-494.566	800.000	-0.045	0.140
-493.551	-152.035	0.230	0.017
-492.537	-131.164	0.208	-0.027
-491.522	-4.101	-0.357	0.245
-490.508	-200.000	-0.066	0.387
-489.493	-2.337	-0.221	-0.153
-488.478	-200.000	0.047	0.302
-487.464	247.614	0.145	-0.242
-486.449	-45.342	0.433	-0.213
-485.435	-190.154	0.242	0.003
-484.420	257.503	-0.101	-0.172
-483.405	58.015	-0.187	0.182
-482.391	-93.624	-0.462	-0.126
-481.376	51.123	0.240	-0.225
-480.362	31.837	-0.082	0.070
-479.347	-119.752	0.080	-0.014
-478.332	800.000	-0.041	-0.155
-477.318	800.000	-0.065	0.247
-476.303	800.000	0.076	-0.259
-475.289	226.385	-0.192	0.308
-474.274	-19.468	0.216	0.133
-473.259	-93.502	0.261	0.071
-472.245	800.000	-0.065	0.226
-471.230	624.989	-0.102	0.254
-470.216	-71.131	0.103	0.038
-469.201	110.442	-0.158	0.188
-468.186	-109.438	-0.264	-0.055
-467.172	-200.000	0.318	-0.001
-466.157	54.969	0.163	-0.156
-465.143	-18.121	-0.135	-0.084
-464.128	2.800	-0.170	-0.122
-463.113	-97.407	0.094	-0.024
-462.099	159.762	0.206	0.284
-461.084	800.000	0.161	-0.508
-460.070	21.431	0.146	-0.117
-459.055	93.019	-0.196	-0.219
-458.040	800.000	0.040	-0.148
-457.026	2.854	-0.119	-0.086
-456.011	-6.420	-0.260	-0.176
-454.997	35.671	0.278	0.242
-453.982	-200.000	0.015	-0.090
-452.968	-98.309	-0.103	-0.026
-451.953	8.023	0.084	0.062
-450.938	37.287	-0.155	-0.136
-449.924	-200.000	0.011	0.247
-448.909	18.401	-0.071	-0.056
-447.895	77.341	-0.190	0.199
-446.880	-104.466	0.089	0.020
-445.865	14.886	-0.227	-0.176
-444.851	288.340	0.101	0.180
-443.836	-100.857	-0.120	0.029
-442.822	-200.000	-0.038	0.587
-441.807	-200.000	-0.014	-0.188
-440.792	-77.197	-0.226	-0.078
-439.778	-51.354	-0.188	-0.087
-438.763	-53.317	-0.054	-0.024
-437.749	69.735	-0.222	0.226
-436.734	-200.000	-0.013	-0.065
-435.719	-135.598	-0.265	-0.031
-434.705	-121.377	-0.043	0.007
-433.690	-170.966	-0.186	0.006
-432.676	-10.300	-0.220	-0.144
-431.661	800.000	0.126	0.522
-430.646	-47.340	0.197	0.095
-429.632	-65.008	0.130	-0.052
-428.617	91.291	0.284	0.315
-427.603	268.599	-0.181	-0.313
-426.588	649.800	0.055	0.138
-425.573	-200.000	-0.011	0.066
-424.559	800.000	-0.060	-0.167
-423.544	800.000	0.025	-0.074
-422.530	323.501	0.162	-0.305
-421.515	800.000	0.066	0.217
-420.500	35.352	-0.171	-0.148
-419.486	-200.000	-0.026	-0.332
-418.471	149.218	0.290	0.388
-417.457	-74.899	0.092	-0.033
-416.442	-160.857	-0.120	-0.006
-415.428	-80.897	-0.087	0.029
-414.413	-32.511	-0.325	-0.179
-413.398	-48.562	-0.135	0.064
-412.384	23.391	0.100	0.081
-411.369	-126.632	-0.107	-0.016
-410.355	800.000	-0.017	-0.070
-409.340	80.773	-0.257	0.274
-408.325	29.903	-0.192	0.161
-407.311	132.483	0.155	-0.197
-406.296	216.860	0.080	0.126
-405.282	305.426	0.094	0.172
-404.267	337.751	0.037	-0.071
-403.252	787.441	0.068	0.183
-402.238	250.514	-0.071	0.119
-401.223	-200.000	0.015	-0.253
-400.209	-49.457	-0.365	-0.172
-399.194	-94.347	0.223	-0.060
-398.179	221.441	-0.089	0.141
-397.165	105.872	-0.289	0.338
-396.150	-200.000	0.003	-0.158
-395.136	-56.254	0.235	-0.103
-394.121	-46.916	-0.253	0.122
-393.106	-21.090	0.079	0.048
-392.092	-200.000	-0.007	-0.229
-391.077	225.870	0.097	-0.154
-390.063	10.670	0.256	-0.193
-389.048	149.756	0.172	-0.231
-388.033	-64.381	0.154	-0.062
-387.019	-157.635	0.100	-0.006
-386.004	311.709	0.152	-0.281
-384.990	274.446	-0.155	-0.271
-383.975	108.655	0.065	-0.076
-382.960	-155.871	0.090	0.006
-381.946	481.900	-0.085	0.189
-380.931	-200.000	-0.008	-0.116
-379.917	684.179	0.123	-0.317
-378.902	800.000	0.042	-0.162
-377.888	800.000	-0.015	0.052
-376.873	265.142	0.091	0.156
-375.858	-58.498	0.282	0.121
-374.844	-31.398	0.125	0.069
-373.829	67.084	0.234	-0.235
-372.815	-10.026	0.279	-0.183
-371.800	264.389	-0.121	0.207
-370.785	463.862	0.077	0.170
-369.771	-200.000	0.026	-0.292
-368.756	102.351	-0.125	0.144
-367.742	-200.000	-0.006	-0.093
-366.727	-200.000	0.007	0.093
-365.712	-139.639	-0.117	-0.012
-364.698	194.799	0.131	-0.196
-363.683	399.167	0.057	-0.118
-362.669	-5.067	0.154	-0.105
-361.654	-128.522	-0.357	-0.050
-360.639	-198.275	-0.254	-0.001
-359.625	-200.000	-0.059	0.329
-358.610	203.380	0.093	0.142
-357.596	-4.658	-0.196	0.133
-356.581	-200.000	0.011	-0.055
-355.566	208.333	0.041	0.064
-354.552	71.635	0.037	0.038
-353.537	-200.000	0.044	0.315
-352.523	157.958	0.118	-0.161
-351.508	-200.000	0.011	-0.088
-350.493	-35.717	-0.158	0.085
-349.479	51.730	-0.165	0.155
-348.464	14.722	0.113	-0.087
-347.450	-200.000	-0.031	0.184
-346.435	-200.000	0.017	0.201
-345.420	-200.000	0.033	0.299
-344.406	38.317	-0.418	0.367
-343.391	-142.884	0.408	-0.039
-342.377	60.906	0.236	-0.231
-341.362	-200.000	0.002	-0.166
-340.348	-200.000	0.040	-0.277
-339.333	-200.000	-0.010	-0.217
-338.318	-67.498	-0.170	-0.066
-337.304	120.042	0.097	0.118
-336.289	444.326	-0.022	-0.048
-335.275	-32.386	-0.281	0.154
-334.260	-86.013	0.176	0.054
-333.245	-8.268	-0.352	0.233
-332.231	312.805	0.125	0.230
-331.216	-162.149	-0.006	0.000
-330.202	-200.000	0.061	-0.280
-329.187	-98.578	-0.300	-0.075
-328.172	800.000	-0.040	-0.149
-327.158	57.806	0.093	0.089
-326.143	68.897	0.135	0.136
-325.129	24.933	0.293	-0.239
-324.114	-84.675	0.168	0.052
-323.099	-81.038	-0.225	0.073
-322.085	-77.373	0.163	0.056
-321.070	-55.975	-0.324	0.142
-320.056	-114.222	0.078	-0.015
-319.041	800.000	-0.071	-0.243
-318.026	231.429	-0.065	-0.104
-317.012	-136.529	0.084	0.010
-315.997	74.955	-0.033	-0.034
-314.983	229.425	-0.086	0.138
-313.968	-23.369	-0.172	-0.102
-312.953	800.000	0.036	-0.115
-311.939	266.803	-0.045	0.077
-310.924	333.093	0.136	0.258
-309.910	-200.000	-0.005	-0.223
-308.895	28.821	0.124	-0.103
-307.880	-200.000	-0.027	0.139
-306.866	-73.858	0.039	-0.014
-305.851	-114.100	0.406	-0.077
-304.837	342.359	-0.175	0.336
-303.822	-200.000	-0.037	-0.306
-302.807	800.000	0.083	-0.349
-301.793	-26.512	0.363	0.209
-300.778	-16.900	-0.084	0.052
-299.764	-50.679	-0.171	0.079
-298.749	94.424	-0.236	0.263
-297.735	-41.787	0.251	0.127
-296.720	405.449	0.087	-0.180
-295.705	36.543	0.042	-0.036
-294.691	-82.752	0.464	0.148
-293.676	-89.445	-0.437	0.126
-292.662	-200.000	0.040	0.320
-291.647	-27.255	-0.297	0.170
-290.632	800.000	0.165	-0.461
-289.618	-57.327	0.259	0.112
-288.603	249.773	0.132	-0.221
-287.589	337.176	-0.161	-0.308
-286.574	271.632	0.084	0.145
-285.559	67.226	0.199	0.199
-284.545	111.549	0.079	0.094
-283.530	-200.000	0.077	0.420
-282.516	-11.855	-0.220	0.142
-281.501	800.000	-0.071	0.303
-280.486	244.743	0.089	-0.146
-279.472	-134.088	-0.251	-0.031
-278.457	253.375	0.133	0.224
-277.443	-78.829	-0.306	0.102
-276.428	187.317	-0.186	0.273
-275.413	-200.000	-0.031	0.299
-274.399	-41.709	0.086	-0.043
-273.384	-148.003	0.210	-0.017
-272.370	-200.000	-0.029	-0.264
-271.355	151.087	0.058	-0.078
-270.340	181.000	-0.080	0.115
-269.326	574.473	0.067	-0.161
-268.311	556.080	-0.122	-0.289
-267.297	-200.000	-0.001	0.233
-266.282	223.767	-0.169	0.267
-265.267	800.000	0.025	0.086
-264.253	800.000	0.061	0.174
-263.238	55.206	-0.242	0.229
-262.224	422.768	-0.056	0.118
-261.209	124.090	-0.181	0.223
-260.195	-200.000	0.027	0.120
-259.180	245.484	0.009	0.014
-258.165	-39.071	0.207	0.107
-257.151	381.755	-0.161	0.324
-256.136	-200.000	0.064	-0.492
-255.122	-200.000	0.034	0.373
-254.107	-200.000	0.034	0.164
-253.092	252.687	-0.177	0.296
-252.078	-48.861	0.304	0.143
-251.063	-37.006	0.101	0.053
-250.049	76.467	-0.089	0.092
-249.034	-200.000	-0.024	0.495
-248.019	-200.000	-0.012	-0.406
-247.005	662.362	0.200	-0.506
-245.990	375.059	0.096	0.193
-244.976	193.850	-0.130	0.193
-243.961	-200.000	-0.023	-0.211
-242.946	443.385	-0.142	-0.305
-241.932	800.000	0.066	-0.223
-240.917	-20.871	-0.169	-0.102
-239.903	54.292	-0.149	-0.141
-238.888	800.000	0.038	0.157
-237.873	-22.382	-0.125	-0.074
-236.859	26.283	0.264	-0.216
-235.844	17.590	-0.333	0.260
-234.830	80.624	-0.216	-0.228
-233.815	161.545	0.125	-0.172
-232.800	-20.117	-0.208	0.126
-231.786	18.116	-0.220	0.172
-230.771	-143.594	0.104	0.010
-229.757	-200.000	0.019	-0.147
-228.742	107.918	0.121	0.141
-227.727	605.298	0.067	0.164
-226.713	728.949	-0.040	-0.104
-225.698	-200.000	0.008	-0.152
-224.684	-200.000	0.040	-0.206
-223.669	800.000	0.159	0.602
-222.655	33.593	-0.130	-0.111
-221.640	-200.000	-0.016	-0.228
-220.625	-67.605	0.141	0.054
-219.611	-26.010	0.323	0.187
-218.596	800.000	0.079	0.258
-217.582	-62.013	0.257	0.105
-216.567	-32.989	-0.158	-0.086
-215.552	41.225	0.169	0.150
-214.538	107.477	-0.242	0.282
-213.523	800.000	-0.071	-0.216
-212.509	-126.323	0.188	-0.028
-211.494	-32.941	0.296	-0.161
-210.479	-8.985	-0.185	-0.121
-209.465	800.000	0.076	0.239
-208.450	102.000	0.062	0.071
-207.436	703.447	-0.041	0.106
-206.421	145.380	0.152	-0.200
-205.406	5.649	-0.262	-0.190
-204.392	-55.168	-0.083	-0.036
-203.377	35.562	0.137	0.118
-202.363	-107.723	-0.282	-0.060
-201.348	-66.966	-0.138	-0.053
-200.333	122.048	-0.132	0.162
-199.319	2.267	0.114	-0.081
-198.304	106.552	-0.082	-0.095
-197.290	800.000	0.047	-0.182
-196.275	480.377	-0.008	0.017
-195.260	-140.025	0.185	0.019
-194.246	85.212	0.285	0.306
-193.231	-107.414	0.325	-0.070
-192.217	-200.000	0.022	-0.126
-191.202	11.776	-0.135	0.102
-190.187	48.078	0.251	0.229
-189.173	-25.094	0.428	0.248
-188.158	-73.875	0.353	-0.125
-187.144	-53.573	0.244	0.109
-186.129	-106.458	-0.259	0.057
-185.114	-20.135	0.293	-0.177
-184.100	-200.000	0.000	0.098
-183.085	-55.006	0.060	-0.027
-182.071	-98.688	-0.143	0.036
-181.056	-200.000	-0.033	0.156
-180.042	-68.827	-0.336	-0.127
-179.027	800.000	0.044	0.129
-178.012	-98.204	0.383	-0.096
-176.998	-78.396	-0.052	-0.017
-175.983	69.040	0.119	-0.119
-174.969	83.446	0.027	0.028
-173.954	193.290	-0.073	0.108
-172.939	800.000	-0.064	0.243
-171.925	-53.785	-0.057	-0.025
-170.910	242.357	0.030	-0.050
-169.896	-200.000	0.039	0.225
-168.881	-200.000	0.005	-0.273
-167.866	-155.210	-0.396	0.025
-166.852	-30.763	-0.204	0.113
-165.837	-200.000	-0.027	0.178
-164.823	606.086	0.122	-0.298
-163.808	14.618	0.090	0.069
-162.793	32.685	0.120	0.101
-161.779	-200.000	-0.033	-0.366
-160.764	216.129	-0.125	-0.194
-159.750	-102.473	0.240	0.056
-158.735	117.127	0.098	0.117
-157.720	410.671	-0.093	-0.192
-156.706	-138.737	0.179	0.019
-155.691	-40.280	-0.203	-0.103
-154.677	-200.000	0.041	-0.299
-153.662	654.370	-0.094	0.237
-152.647	-100.250	0.077	-0.019
-151.633	-66.724	-0.105	0.041
-150.618	-61.816	0.052	0.021
-149.604	200.086	0.119	0.178
-148.589	-58.951	-0.352	0.149
-147.574	41.036	-0.078	-0.069
-146.560	800.000	0.060	-0.195
-145.545	1.783	0.261	-0.184
-144.531	-94.331	-0.167	0.045
-143.516	0.953	0.286	0.200
-142.502	-28.686	-0.148	0.083
-141.487	-173.598	0.308	-0.009
-140.472	317.574	-0.049	0.090
-139.458	141.393	-0.113	0.147
-138.443	-84.365	0.130	-0.040
-137.429	-200.000	-0.005	0.055
-136.414	-59.488	0.272	0.114
-135.399	800.000	-0.084	-0.281
-134.385	-51.926	0.432	-0.196
-133.370	-200.000	0.015	0.136
-132.356	-200.000	-0.025	0.152
-131.341	800.000	0.120	0.333
-130.326	-23.277	-0.117	0.069
-129.312	-113.772	0.450	-0.086
-128.297	-180.561	-0.139	0.003
-127.283	284.577	0.173	0.304
-126.268	800.000	-0.049	-0.174
-125.253	-174.531	0.285	-0.008
-124.239	111.661	-0.250	0.295
-123.224	410.327	-0.090	0.186
-122.210	222.025	-0.067	0.105
-121.195	-131.917	0.202	-0.026
