DTS Sentinel unit serial number:	SN413079Multiplexer serial number:	ORYXHardware model number:	OX4-SRSoftware version number:	ORYX F/W v4.00 Oryx Data Collector v3.7.2.0data status	okinstallation	princeton_trtdifferential loss correction	single-endedforward channel	channel 3reverse channel	N/Adate	2019/09/12time	19:51:04forward acquisition time	15.00reverse acquisition time	0.00gamma	496.2192k internal	0.2323k external	0.2323temperature offset calibration	1.0115default loss term (dB/km)	0.3790temperature slope calibration	1.0000multiplexer offset coefficient	1.0000multiplexer slope coefficient	1.0000fibre end	0.00T internal ref (°C)	31.94T ext. ref 1 (°C)	3.33T ext. ref 2 (°C)	26.55length (m)	temperature (°C)	Stokes	anti-Stokes-747.200	-39.827	0.231	-0.122
-746.185	270.743	0.429	0.762
-745.171	-64.317	-0.633	0.260
-744.156	-200.000	0.021	0.706
-743.142	142.885	-0.307	0.413
-742.127	-15.163	-0.521	0.337
-741.112	248.896	-0.409	0.699
-740.098	-200.000	0.005	-0.438
-739.083	398.911	0.225	-0.476
-738.069	800.000	-0.091	0.334
-737.054	-47.719	-0.331	-0.162
-736.039	-200.000	-0.120	0.848
-735.025	121.092	-0.539	0.677
-734.010	-70.925	-0.208	-0.079
-732.996	800.000	-0.037	-0.106
-731.981	422.062	-0.681	-1.476
-730.966	-73.645	0.657	0.242
-729.952	-52.034	0.358	0.168
-728.937	800.000	-0.213	-0.658
-727.923	-131.677	-0.671	-0.089
-726.908	-20.967	0.494	0.306
-725.894	0.148	0.713	-0.513
-724.879	800.000	-0.217	-0.668
-723.864	-91.703	0.431	-0.124
-722.850	-144.469	0.394	-0.037
-721.835	493.798	0.247	-0.572
-720.821	54.852	0.677	-0.659
-719.806	-125.021	-0.833	0.129
-718.791	-68.971	0.233	0.091
-717.777	-200.000	-0.093	-0.529
-716.762	570.727	-0.338	0.830
-715.748	-15.880	0.918	0.590
-714.733	-140.535	0.443	-0.046
-713.718	-44.112	-0.284	-0.144
-712.704	800.000	-0.143	0.544
-711.689	800.000	-0.061	0.195
-710.675	-11.574	0.307	0.204
-709.660	79.921	0.417	-0.452
-708.645	-78.479	0.054	0.019
-707.631	-56.139	-0.401	0.180
-706.616	53.075	0.693	-0.669
-705.602	800.000	0.417	-1.748
-704.587	147.719	0.649	-0.882
-703.572	57.239	-0.532	0.524
-702.558	-43.101	-0.534	0.273
-701.543	-88.535	0.121	0.037
-700.529	800.000	0.180	-0.770
-699.514	225.809	0.260	-0.425
-698.499	52.349	-0.225	0.216
-697.485	-151.264	-0.294	0.022
-696.470	-112.511	0.449	0.090
-695.456	-200.000	0.269	1.233
-694.441	-200.000	0.109	-0.613
-693.426	170.228	0.180	0.259
-692.412	-72.987	0.894	-0.331
-691.397	-53.921	-0.762	-0.350
-690.383	330.895	0.090	-0.175
-689.368	85.198	-0.180	-0.199
-688.354	10.895	0.086	0.067
-687.339	-30.563	-0.614	0.351
-686.324	431.664	-0.306	-0.668
-685.310	-95.310	0.190	-0.052
-684.295	200.530	0.196	0.304
-683.281	-200.000	-0.012	0.589
-682.266	800.000	-0.220	0.642
-681.251	-41.749	-0.452	-0.234
-680.237	-103.179	0.658	0.157
-679.222	-76.463	0.325	-0.115
-678.208	-32.373	-0.799	0.449
-677.193	-72.095	-0.600	0.224
-676.178	-37.462	-0.460	-0.248
-675.164	-200.000	-0.033	-0.287
-674.149	-100.241	-0.348	0.087
-673.135	599.275	-0.070	0.175
-672.120	795.027	0.222	-0.614
-671.105	-188.212	0.317	-0.004
-670.091	102.279	-0.201	0.236
-669.076	-200.000	-0.076	0.618
-668.062	-2.922	-0.259	-0.182
-667.047	-200.000	0.057	-0.585
-666.032	252.775	-0.519	0.892
-665.018	800.000	0.144	-0.441
-664.003	-123.185	-0.421	-0.068
-662.989	-200.000	0.094	0.780
-661.974	720.464	0.013	0.035
-660.959	800.000	0.106	-0.317
-659.945	-200.000	0.007	0.401
-658.930	-79.808	-0.376	0.127
-657.916	161.114	0.515	-0.725
-656.901	-116.252	-0.793	-0.148
-655.886	-51.315	0.409	-0.193
-654.872	-118.501	0.309	-0.055
-653.857	-40.203	-0.221	0.116
-652.843	110.990	-0.671	-0.813
-651.828	-200.000	0.088	-0.421
-650.814	-40.833	0.063	-0.033
-649.799	50.788	-0.372	0.355
-648.784	127.436	0.093	-0.119
-647.770	598.655	0.199	-0.497
-646.755	-126.613	1.003	0.150
-645.741	90.094	-0.460	-0.518
-644.726	-200.000	-0.022	-0.652
-643.711	-24.823	0.214	0.128
-642.697	-160.027	1.072	0.059
-641.682	137.567	-0.070	0.092
-640.668	800.000	-0.146	0.543
-639.653	186.339	0.075	0.112
-638.638	35.292	-0.074	-0.065
-637.624	-10.650	0.307	0.205
-636.609	-200.000	-0.138	-1.386
-635.595	228.264	-0.132	0.215
-634.580	800.000	0.146	-0.520
-633.565	-148.381	0.501	0.041
-632.551	146.568	0.111	0.150
-631.536	289.867	-0.261	-0.476
-630.522	655.545	0.252	0.651
-629.507	53.921	-0.437	0.422
-628.492	221.401	0.100	-0.161
-627.478	-72.954	0.354	-0.131
-626.463	39.434	0.708	0.638
-625.449	-200.000	0.060	0.276
-624.434	800.000	0.136	0.383
-623.419	298.233	-0.413	0.764
-622.405	76.037	0.615	-0.654
-621.390	127.765	-0.109	-0.139
-620.376	9.436	-0.613	0.466
-619.361	41.229	-0.732	0.665
-618.346	-63.482	-0.123	-0.051
-617.332	-180.588	1.249	-0.026
-616.317	-113.471	-1.010	0.199
-615.303	-200.000	-0.059	0.344
-614.288	-200.000	-1.054	-0.000
-613.273	800.000	-0.280	-0.925
-612.259	-13.570	-0.045	0.029
-611.244	168.274	0.174	0.249
-610.230	-72.720	-0.546	-0.202
-609.215	120.974	-0.348	0.435
-608.201	-120.253	-0.307	-0.053
-607.186	800.000	0.283	-0.972
-606.171	32.684	-0.276	0.240
-605.157	-90.217	-0.393	0.115
-604.142	-5.822	0.164	-0.113
-603.128	-122.335	0.404	-0.066
-602.113	567.034	0.272	0.663
-601.098	269.100	-0.172	0.303
-600.084	800.000	-0.189	-0.544
-599.069	-23.767	0.251	-0.151
-598.055	-69.354	0.152	0.059
-597.040	81.104	-0.564	-0.612
-596.025	-200.000	0.012	1.218
-595.011	122.534	-0.630	0.791
-593.996	495.193	0.293	-0.676
-592.982	800.000	0.269	-1.058
-591.967	216.256	-0.458	-0.731
-590.952	-92.093	-0.963	0.273
-589.938	-165.304	-0.123	0.005
-588.923	92.944	-0.109	-0.123
-587.909	-90.948	0.835	-0.241
-586.894	-85.075	-0.830	-0.261
-585.879	136.664	-0.381	-0.499
-584.865	-153.539	-0.579	-0.040
-583.850	-82.158	-0.531	-0.174
-582.836	170.167	-0.445	-0.639
-581.821	-187.307	0.627	-0.009
-580.806	-92.226	0.118	-0.033
-579.792	-31.697	-0.172	0.097
-578.777	-62.654	0.412	0.171
-577.763	-200.000	0.088	0.687
-576.748	4.251	-0.333	0.244
-575.733	468.829	-0.283	-0.638
-574.719	49.639	-0.384	-0.363
-573.704	-65.572	0.408	-0.164
-572.690	-103.832	-0.144	0.034
-571.675	800.000	0.261	0.876
-570.661	-200.000	-0.001	-0.201
-569.646	587.716	0.123	-0.304
-568.631	-103.626	-0.462	0.109
-567.617	-82.489	0.407	-0.133
-566.602	-17.235	0.301	-0.190
-565.588	-5.187	0.604	0.417
-564.573	-166.076	-0.645	-0.028
-563.558	108.008	0.179	0.214
-562.544	268.302	-0.367	-0.645
-561.529	-200.000	-0.117	-1.157
-560.515	138.962	0.371	0.488
-559.500	-200.000	0.071	0.700
-558.485	-71.606	-0.597	0.223
-557.471	534.869	-0.224	-0.533
-556.456	-24.862	-0.503	0.299
-555.442	137.643	0.288	0.378
-554.427	141.198	-0.233	0.309
-553.412	29.943	0.262	-0.224
-552.398	-26.812	0.138	0.081
-551.383	-135.897	-0.864	0.102
-550.369	-135.697	-0.065	0.008
-549.354	-95.698	0.113	0.030
-548.339	-110.155	0.548	-0.115
-547.325	730.425	0.323	-0.866
-546.310	-94.743	-0.110	-0.030
-545.296	151.293	0.258	-0.352
-544.281	-43.485	-1.085	-0.549
-543.266	-200.000	0.019	-0.394
-542.252	-200.000	0.020	0.322
-541.237	-92.583	0.904	0.254
-540.223	437.558	-0.397	0.867
-539.208	-82.445	0.370	-0.121
-538.193	125.109	0.378	-0.477
-537.179	675.678	-0.085	0.221
-536.164	157.300	0.319	-0.443
-535.150	-40.164	0.554	0.289
-534.135	-69.618	-0.364	0.140
-533.121	32.459	0.623	0.539
-532.106	60.587	-0.639	-0.634
-531.091	13.643	-0.466	0.363
-530.077	7.610	-0.460	0.345
-529.062	-100.370	-0.074	-0.018
-528.048	-88.378	0.110	0.033
-527.033	424.226	0.048	-0.103
-526.018	492.106	0.113	0.258
-525.004	-122.127	0.488	-0.080
-523.989	42.733	-0.487	-0.444
-522.975	-92.055	-0.639	-0.181
-521.960	-92.889	-0.328	0.092
-520.945	-194.342	0.226	-0.002
-519.931	-71.582	0.908	0.340
-518.916	-200.000	-0.053	0.399
-517.902	-73.873	-0.382	-0.139
-516.887	15.073	-0.475	-0.373
-515.872	-110.225	-0.166	-0.035
-514.858	-124.121	-0.134	-0.021
-513.843	-113.821	-0.267	-0.052
-512.829	-60.886	0.727	-0.308
-511.814	800.000	-0.072	0.315
-510.799	76.101	0.197	0.209
-509.785	174.155	0.214	-0.309
-508.770	-200.000	0.086	-1.055
-507.756	30.520	-0.367	-0.314
-506.741	-38.123	0.102	-0.054
-505.726	-200.000	0.145	-0.654
-504.712	-200.000	-0.078	-0.411
-503.697	-59.149	-0.730	-0.315
-502.683	-53.575	-0.299	-0.137
-501.668	-200.000	-0.005	-0.346
-500.653	84.516	0.313	0.342
-499.639	-200.000	0.029	-0.184
-498.624	-200.000	0.143	-0.682
-497.610	800.000	0.164	0.482
-496.595	-62.372	-0.576	0.240
-495.581	-200.000	0.031	-0.146
-494.566	111.862	-0.431	0.521
-493.551	-120.703	0.728	-0.123
-492.537	-6.440	-0.537	-0.366
-491.522	-56.938	-0.119	-0.052
-490.508	-179.494	0.863	0.019
-489.493	-142.295	-0.784	-0.077
-488.478	242.392	-0.293	0.490
-487.464	-97.431	0.880	0.229
-486.449	-200.000	-0.089	0.905
-485.435	-126.204	0.696	-0.104
-484.420	-98.844	0.155	0.039
-483.405	298.923	0.426	0.784
-482.391	-200.000	0.101	-0.616
-481.376	-101.655	-0.867	0.210
-480.362	27.533	-0.599	0.503
-479.347	-149.451	0.938	0.074
-478.332	-132.132	0.689	0.089
-477.318	-107.828	-0.134	0.029
-476.303	-200.000	-0.052	0.597
-475.289	168.613	0.143	0.203
-474.274	16.214	0.376	-0.296
-473.259	-113.624	0.399	0.078
-472.245	116.481	0.441	0.540
-471.230	192.138	0.234	-0.353
-470.216	291.972	0.320	-0.583
-469.201	-12.388	-0.340	0.222
-468.186	-157.874	-0.483	-0.029
-467.172	-133.845	0.521	0.065
-466.157	129.789	0.166	-0.211
-465.143	800.000	-0.186	-0.623
-464.128	426.389	0.134	0.289
-463.113	250.562	-0.398	-0.676
-462.099	-200.000	0.035	0.531
-461.084	800.000	-0.176	-0.494
-460.070	218.879	-0.116	-0.184
-459.055	174.140	-0.494	0.714
-458.040	-98.799	-0.745	0.189
-457.026	-114.230	-0.238	0.046
-456.011	713.259	0.195	-0.516
-454.997	0.061	-0.300	0.213
-453.982	-73.478	-0.704	-0.257
-452.968	-200.000	0.042	-0.309
-451.953	211.250	0.216	-0.340
-450.938	-119.517	0.264	-0.046
-449.924	-200.000	-0.001	0.291
-448.909	-34.147	-0.322	-0.176
-447.895	-47.023	-0.891	-0.434
-446.880	-200.000	0.095	0.715
-445.865	-200.000	-0.074	0.830
-444.851	-123.305	-0.481	-0.077
-443.836	35.332	0.716	-0.627
-442.822	-63.582	0.948	-0.388
-441.807	-69.151	0.394	-0.151
-440.792	-22.269	0.882	0.534
-439.778	-200.000	0.141	0.756
-438.763	-200.000	-0.061	0.730
-437.749	84.821	-0.210	0.229
-436.734	34.378	-0.704	-0.613
-435.719	-23.770	0.539	0.322
-434.705	-200.000	0.146	-0.749
-433.690	-70.382	0.684	-0.259
-432.676	-112.833	-0.670	0.133
-431.661	130.863	0.406	-0.519
-430.646	-19.224	0.294	0.182
-429.632	-69.417	-0.985	-0.377
-428.617	188.711	-0.594	-0.887
-427.603	148.143	-0.338	-0.455
-426.588	60.581	0.762	-0.753
-425.573	137.400	0.324	0.423
-424.559	-87.962	0.996	-0.299
-423.544	-200.000	0.021	-0.592
-422.530	-200.000	0.058	0.267
-421.515	-113.319	0.226	0.044
-420.500	800.000	0.241	-0.667
-419.486	-69.871	0.924	-0.352
-418.471	78.947	0.249	-0.266
-417.457	-91.188	0.548	0.157
-416.442	-38.459	1.170	0.617
-415.428	-200.000	-0.074	-0.408
-414.413	-200.000	0.013	-0.213
-413.398	-200.000	0.162	-0.832
-412.384	-200.000	-0.012	0.389
-411.369	-43.196	-0.581	0.293
-410.355	-111.073	-0.272	0.056
-409.340	-55.125	-0.476	0.214
-408.325	-200.000	0.034	0.250
-407.311	82.453	0.969	1.048
-406.296	-200.000	-0.169	0.953
-405.282	-200.000	-0.057	0.278
-404.267	-200.000	0.083	1.061
-403.252	-7.268	0.696	-0.470
-402.238	-95.726	0.722	-0.192
-401.223	-134.388	-0.289	0.035
-400.209	-31.580	-0.635	0.355
-399.194	135.590	0.057	0.074
-398.179	-133.880	-0.783	0.097
-397.165	8.827	-0.189	-0.142
-396.150	3.077	0.330	0.239
-395.136	800.000	-0.118	-0.377
-394.121	-141.698	0.205	-0.020
-393.106	165.646	-0.428	0.604
-392.092	-29.758	0.326	-0.185
-391.077	91.518	0.460	-0.515
-390.063	800.000	-0.068	0.190
-389.048	66.252	0.266	0.270
-388.033	-200.000	-0.082	0.412
-387.019	-200.000	0.028	-0.259
-386.004	84.821	0.487	0.532
-384.990	734.720	0.137	-0.364
-383.975	-25.097	-0.382	0.226
-382.960	-200.000	-0.190	0.848
-381.946	82.608	-0.376	0.406
-380.931	-119.327	0.744	0.129
-379.917	-64.257	-0.450	0.182
-378.902	51.826	-0.833	-0.789
-377.888	-64.806	0.584	0.235
-376.873	800.000	-0.065	0.283
-375.858	10.207	0.351	-0.266
-374.844	-200.000	-0.250	1.506
-373.829	305.588	0.222	0.411
-372.815	21.515	-1.013	0.820
-371.800	-85.945	-0.428	-0.132
-370.785	800.000	-0.142	0.435
-369.771	-123.394	-0.238	-0.038
-368.756	171.353	-0.385	0.550
-367.742	-91.696	0.306	0.087
-366.727	-105.686	-0.267	-0.060
-365.712	-106.237	-1.195	-0.267
-364.698	672.749	-0.109	0.282
-363.683	-200.000	0.118	0.909
-362.669	-4.807	0.401	0.275
-361.654	273.540	-0.169	0.297
-360.639	128.072	-0.099	-0.126
-359.625	-43.061	0.069	0.035
-358.610	24.584	0.182	0.150
-357.596	-200.000	-0.122	0.539
-356.581	81.884	1.046	1.127
-355.566	-200.000	0.017	0.202
-354.552	143.698	-0.079	0.105
-353.537	-99.334	0.339	0.085
-352.523	800.000	-0.280	0.885
-351.508	30.659	0.886	0.754
-350.493	-131.095	-0.273	0.036
-349.479	800.000	0.291	-0.802
-348.464	800.000	0.205	0.853
-347.450	376.183	-0.350	0.710
-346.435	-77.062	-0.622	0.216
-345.420	-149.223	-0.426	-0.034
-344.406	134.600	-0.431	0.556
-343.391	800.000	-0.264	-0.837
-342.377	306.436	0.290	-0.537
-341.362	-67.220	0.761	-0.298
-340.348	-180.414	-0.703	-0.015
-339.333	-195.787	0.419	-0.003
-338.318	351.198	-0.262	-0.515
-337.304	-121.235	-0.597	-0.099
-336.289	-93.465	-0.935	-0.257
-335.275	-68.663	-0.485	0.186
-334.260	662.733	0.201	-0.514
-333.245	144.020	-0.296	-0.393
-332.231	-108.186	-0.429	-0.092
-331.216	748.067	0.160	-0.429
-330.202	57.719	-0.195	0.190
-329.187	-45.071	0.555	-0.274
-328.172	-30.467	0.299	0.168
-327.158	-13.797	0.763	-0.490
-326.143	266.585	0.217	0.377
-325.129	800.000	-0.170	0.651
-324.114	-200.000	0.065	0.499
-323.099	223.112	-0.208	-0.333
-322.085	84.103	-0.906	0.983
-321.070	-200.000	-0.242	1.288
-320.056	800.000	0.179	0.493
-319.041	65.377	0.450	-0.452
-318.026	-99.641	-0.634	0.158
-317.012	-200.000	0.233	-1.299
-315.997	586.228	0.389	0.951
-314.983	-200.000	0.087	-0.595
-313.968	538.621	0.091	-0.214
-312.953	343.879	-0.268	-0.522
-311.939	-169.658	0.902	-0.032
-310.924	-200.000	-0.009	0.426
-309.910	-109.540	-0.748	0.157
-308.895	-200.000	0.183	-0.984
-307.880	148.827	-0.216	0.290
-306.866	100.765	-0.320	0.369
-305.851	-200.000	0.120	-0.876
-304.837	-47.606	0.409	0.197
-303.822	49.301	-0.112	-0.104
-302.807	-47.952	0.272	-0.131
-301.793	-105.092	-0.407	0.092
-300.778	-18.936	-0.836	0.516
-299.764	261.747	-0.326	-0.560
-298.749	-200.000	0.096	-0.703
-297.735	-200.000	0.064	-1.121
-296.720	-16.305	0.392	-0.247
-295.705	89.538	-0.409	-0.452
-294.691	71.033	0.424	0.436
-293.676	-92.914	-0.820	-0.227
-292.662	187.753	0.390	-0.577
-291.647	211.199	0.396	-0.618
-290.632	187.750	0.226	0.334
-289.618	129.768	-0.144	0.182
-288.603	800.000	0.078	0.275
-287.589	765.530	0.202	0.543
-286.574	7.677	0.362	-0.269
-285.559	-72.996	0.638	0.232
-284.545	-200.000	-0.224	-0.978
-283.530	-171.600	-0.902	-0.030
-282.516	64.671	-0.252	0.252
-281.501	-2.785	0.506	-0.351
-280.486	-200.000	0.043	0.866
-279.472	-200.000	-0.025	-0.637
-278.457	426.621	-0.240	-0.514
-277.443	141.517	0.290	-0.381
-276.428	-16.206	0.303	0.191
-275.413	800.000	0.252	0.927
-274.399	38.387	0.268	0.237
-273.384	-200.000	-0.012	0.304
-272.370	96.929	-0.186	-0.211
-271.355	196.832	-0.477	-0.721
-270.340	179.067	-0.292	0.423
-269.326	166.092	-0.707	0.993
-268.311	-95.358	0.850	-0.227
-267.297	385.693	0.141	0.289
-266.282	-74.936	0.052	0.018
-265.267	-84.714	-0.397	-0.124
-264.253	-200.000	0.099	0.440
-263.238	-38.939	-0.403	-0.210
-262.224	102.241	-0.130	-0.151
-261.209	-85.913	-0.805	0.247
-260.195	157.033	-0.438	0.601
-259.180	-23.958	-0.234	0.139
-258.165	-200.000	0.008	-0.445
-257.151	-75.215	-0.613	0.217
-256.136	-200.000	0.090	-1.390
-255.122	-54.268	0.293	-0.132
-254.107	-200.000	-0.002	0.020
-253.092	-177.402	-0.341	0.008
-252.078	800.000	-0.093	-0.374
-251.063	-200.000	0.018	-0.102
-250.049	-200.000	-0.015	-0.194
-249.034	800.000	0.155	0.425
-248.019	-104.000	-0.813	0.188
-247.005	-70.458	0.230	-0.086
-245.990	54.121	0.194	-0.185
-244.976	22.982	0.587	-0.477
-243.961	15.984	-1.177	0.918
-242.946	-25.964	-0.319	0.186
-241.932	-60.496	0.945	0.398
-240.917	-16.728	0.919	-0.576
-239.903	23.813	0.285	0.232
-238.888	313.143	0.344	-0.640
-237.873	-200.000	0.069	-0.552
-236.859	800.000	-0.093	-0.331
-235.844	-40.328	0.560	0.288
-234.830	-28.318	-0.424	0.242
-233.815	-186.364	-0.470	0.007
-232.800	328.066	0.265	-0.503
-231.786	-43.228	-0.221	-0.111
-230.771	140.985	0.308	0.403
-229.757	-124.416	-0.538	0.083
-228.742	-52.707	0.288	0.131
-227.727	366.036	-0.474	-0.945
-226.713	-169.979	0.916	0.032
-225.698	-117.698	0.347	0.062
-224.684	-200.000	0.027	-0.473
-223.669	397.925	-0.560	1.158
-222.655	186.557	0.232	0.342
-221.640	43.534	0.713	-0.646
-220.625	-24.467	-0.747	-0.440
-219.611	-57.120	-0.383	-0.167
-218.596	359.162	0.034	-0.067
-217.582	-200.000	-0.018	0.534
-216.567	197.690	0.389	-0.588
-215.552	3.554	-0.289	0.208
-214.538	-17.045	0.661	0.413
-213.523	-119.526	0.564	0.097
-212.509	-131.486	0.641	-0.084
-211.494	-200.000	-0.039	0.253
-210.479	-145.353	0.282	0.025
-209.465	302.733	0.329	0.602
-208.450	800.000	-0.102	0.363
-207.436	-67.880	0.483	0.187
-206.421	-61.534	-0.536	-0.223
-205.406	-200.000	0.085	-0.527
-204.392	628.240	0.236	-0.589
-203.377	-83.970	-0.406	-0.128
-202.363	698.573	-0.436	1.133
-201.348	477.008	0.230	0.514
-200.333	117.226	-0.421	0.511
-199.319	800.000	0.183	0.509
-198.304	337.645	-0.205	0.393
-197.290	-39.885	0.873	0.450
-196.275	4.211	-0.375	-0.271
-195.260	287.233	0.273	0.487
-194.246	-200.000	-0.010	-0.287
-193.231	-200.000	0.084	-1.086
-192.217	275.552	0.166	-0.291
-191.202	-125.149	0.885	0.134
-190.187	505.149	-0.108	-0.247
-189.173	-200.000	-0.015	-0.470
-188.158	-153.214	0.228	-0.016
-187.144	173.021	-0.225	-0.321
-186.129	-4.585	0.667	0.455
-185.114	43.168	-0.273	0.246
-184.100	-200.000	0.048	0.379
-183.085	-67.809	0.187	0.072
-182.071	255.150	-0.448	-0.757
-181.056	-200.000	-0.042	0.800
-180.042	2.567	0.315	0.226
-179.027	49.144	0.732	0.679
-178.012	-62.416	-0.622	0.256
-176.998	-200.000	-0.034	-0.494
-175.983	1.860	1.009	-0.719
-174.969	-200.000	0.086	0.452
-173.954	-200.000	-0.072	0.473
-172.939	34.225	0.450	-0.387
-171.925	-200.000	-0.034	-0.472
-170.910	-66.526	0.988	-0.387
-169.896	-64.163	0.367	0.148
-168.881	-200.000	-0.128	-0.576
-167.866	382.129	-0.251	-0.510
-166.852	41.302	0.346	-0.309
-165.837	-108.116	-1.014	-0.217
-164.823	53.933	-0.262	0.249
-163.808	16.816	-0.328	-0.256
-162.793	-112.277	-0.861	0.170
-161.779	-88.829	-0.368	0.108
-160.764	-200.000	0.033	-0.596
-159.750	-146.252	-0.573	-0.050
-158.735	-200.000	-0.012	0.399
-157.720	77.393	-0.744	-0.782
-156.706	800.000	0.274	0.891
-155.691	800.000	0.076	-0.308
-154.677	310.920	0.423	-0.783
-153.662	14.279	0.747	-0.574
-152.647	-200.000	0.037	-0.351
-151.633	-14.001	0.330	-0.210
-150.618	-57.222	-0.385	0.167
-149.604	800.000	0.052	-0.207
-148.589	-179.474	0.385	-0.008
-147.574	-60.443	-0.853	0.358
-146.560	-200.000	-0.139	0.710
-145.545	317.721	-0.430	0.802
-144.531	151.289	0.188	-0.252
-143.516	98.074	0.284	0.322
-142.502	128.064	0.462	-0.579
-141.487	-66.135	0.369	0.145
-140.472	8.276	-0.367	0.272
-139.458	-131.275	0.607	-0.079
-138.443	-25.283	0.553	-0.323
-137.429	40.188	0.809	0.717
-136.414	-72.820	-0.393	-0.143
-135.399	497.679	-0.162	-0.369
-134.385	510.251	0.043	-0.099
-133.370	647.674	-0.142	-0.357
-132.356	84.034	0.195	-0.210
-131.341	-133.808	-0.847	0.104
-130.326	-161.678	0.576	0.029
-129.312	-60.274	0.220	0.093
-128.297	-105.476	-0.434	0.097
-127.283	205.719	0.435	0.667
-126.268	-10.462	-0.215	-0.141
-125.253	62.317	0.748	-0.736
-124.239	253.279	0.170	-0.286
-123.224	-73.842	0.518	-0.186
-122.210	675.692	0.100	-0.255
-121.195	-69.979	-0.130	0.049
