DTS Sentinel unit serial number:	SN413079Multiplexer serial number:	ORYXHardware model number:	OX4-SRSoftware version number:	ORYX F/W v4.00 Oryx Data Collector v3.7.2.0data status	okinstallation	princeton_trtdifferential loss correction	single-endedforward channel	channel 3reverse channel	N/Adate	2019/09/13time	07:44:34forward acquisition time	60.00reverse acquisition time	0.00gamma	496.2192k internal	0.2336k external	0.2336temperature offset calibration	1.0137default loss term (dB/km)	0.3790temperature slope calibration	1.0000multiplexer offset coefficient	1.0000multiplexer slope coefficient	1.0000fibre end	0.00T internal ref (°C)	26.44T ext. ref 1 (°C)	4.21T ext. ref 2 (°C)	22.69length (m)	temperature (°C)	Stokes	anti-Stokes-747.200	341.133	0.016	0.032
-746.185	-120.886	0.210	-0.035
-745.171	-200.000	-0.020	0.172
-744.156	-138.056	-0.395	0.044
-743.142	-19.867	0.052	0.032
-742.127	800.000	-0.159	0.539
-741.112	-37.498	-0.206	0.111
-740.098	623.273	0.102	0.257
-739.083	-200.000	-0.023	0.241
-738.069	-164.573	0.078	0.004
-737.054	800.000	-0.010	0.029
-736.039	-46.380	-0.194	-0.096
-735.025	-200.000	0.013	0.113
-734.010	51.562	-0.067	0.064
-732.996	-200.000	-0.012	-0.145
-731.981	-199.472	-0.283	-0.001
-730.966	-200.000	-0.031	-0.347
-729.952	51.837	-0.052	-0.050
-728.937	351.970	0.084	-0.166
-727.923	-200.000	-0.003	0.176
-726.908	-200.000	-0.061	-0.323
-725.894	599.907	-0.073	-0.182
-724.879	271.970	0.085	-0.151
-723.864	197.708	0.092	-0.141
-722.850	-200.000	0.007	0.189
-721.835	-200.000	0.007	-0.293
-720.821	290.723	-0.115	0.210
-719.806	597.052	-0.087	0.217
-718.791	268.455	0.094	-0.165
-717.777	304.801	0.117	0.218
-716.762	329.475	-0.041	0.078
-715.748	-72.435	0.171	0.063
-714.733	-200.000	-0.022	0.198
-713.718	-111.457	-0.198	0.040
-712.704	72.895	-0.063	-0.066
-711.689	283.291	0.170	0.306
-710.675	-153.148	0.153	0.011
-709.660	-85.844	-0.294	-0.091
-708.645	1.355	0.102	0.073
-707.631	-158.081	-0.063	0.004
-706.616	-39.948	-0.158	-0.083
-705.602	61.873	-0.418	-0.418
-704.587	-8.585	0.268	0.180
-703.572	800.000	0.069	-0.249
-702.558	-69.299	0.362	-0.139
-701.543	-183.138	0.042	-0.001
-700.529	800.000	-0.023	-0.079
-699.514	45.362	-0.391	-0.362
-698.499	575.046	0.090	-0.220
-697.485	33.940	-0.325	0.284
-696.470	-161.869	-0.413	0.021
-695.456	-200.000	-0.031	-0.165
-694.441	-49.534	-0.074	-0.035
-693.426	-88.443	-0.315	0.094
-692.412	-200.000	-0.022	-0.131
-691.397	800.000	0.073	0.223
-690.383	-175.790	-0.214	0.006
-689.368	800.000	-0.072	-0.296
-688.354	-76.442	0.143	0.051
-687.339	4.423	0.486	-0.357
-686.324	800.000	0.038	0.155
-685.310	-153.540	-0.334	-0.023
-684.295	800.000	0.151	-0.445
-683.281	-197.798	-0.172	0.001
-682.266	21.114	-0.237	0.192
-681.251	-81.303	-0.201	0.066
-680.237	-148.302	0.090	-0.007
-679.222	425.835	-0.171	-0.369
-678.208	308.458	0.087	-0.163
-677.193	-200.000	-0.007	-0.199
-676.178	-200.000	-0.014	0.149
-675.164	180.839	0.239	0.351
-674.149	-143.940	-0.275	0.026
-673.135	-5.221	-0.288	0.198
-672.120	173.884	-0.149	-0.216
-671.105	671.505	-0.055	-0.144
-670.091	106.110	-0.116	-0.138
-669.076	21.592	0.248	-0.202
-668.062	-92.307	-0.323	-0.091
-667.047	-200.000	0.047	0.353
-666.032	-200.000	-0.017	0.247
-665.018	-101.106	-0.122	0.030
-664.003	-51.065	-0.075	0.035
-662.989	800.000	-0.091	0.252
-661.974	-200.000	0.020	0.163
-660.959	24.591	0.236	0.196
-659.945	25.159	0.146	0.121
-658.930	-0.616	-0.046	-0.033
-657.916	192.055	0.134	-0.202
-656.901	419.589	-0.145	0.311
-655.886	-178.010	-0.326	-0.008
-654.872	21.222	-0.263	0.214
-653.857	-68.302	0.101	0.039
-652.843	800.000	-0.150	-0.530
-651.828	800.000	-0.057	-0.221
-650.814	46.143	-0.105	0.097
-649.799	-37.702	-0.243	-0.130
-648.784	800.000	0.119	-0.329
-647.770	-38.583	-0.375	-0.198
-646.755	141.174	-0.230	-0.304
-645.741	-34.931	0.014	-0.008
-644.726	-65.578	0.119	-0.048
-643.711	713.512	0.134	0.356
-642.697	288.401	0.059	0.107
-641.682	-200.000	-0.003	-0.020
-640.668	-200.000	-0.157	0.001
-639.653	-90.522	-0.110	0.032
-638.638	-93.944	0.349	-0.096
-637.624	6.026	-0.163	0.121
-636.609	132.229	-0.044	-0.057
-635.595	-200.000	0.063	-0.390
-634.580	442.275	-0.040	0.088
-633.565	217.574	0.125	-0.200
-632.551	-17.676	0.138	-0.086
-631.536	-64.804	-0.233	-0.094
-630.522	63.619	-0.127	0.127
-629.507	-200.000	0.024	-0.202
-628.492	-71.590	0.348	-0.130
-627.478	-3.836	0.240	-0.166
-626.463	-36.802	0.372	-0.200
-625.449	-47.145	-0.239	-0.116
-624.434	350.419	-0.041	0.082
-623.419	-118.880	-0.100	0.018
-622.405	623.239	0.034	-0.086
-621.390	121.220	0.063	-0.078
-620.376	375.935	0.071	-0.145
-619.361	800.000	0.076	0.260
-618.346	106.038	-0.148	0.176
-617.332	319.605	-0.125	-0.236
-616.317	-200.000	0.013	0.176
-615.303	-90.318	0.279	0.081
-614.288	-198.794	0.187	-0.001
-613.273	68.022	0.085	0.087
-612.259	136.756	-0.062	0.081
-611.244	-95.202	0.163	0.044
-610.230	338.723	-0.099	0.193
-609.215	-54.270	0.230	-0.104
-608.201	353.560	-0.170	0.337
-607.186	-27.438	0.157	0.091
-606.171	0.607	-0.239	-0.171
-605.157	-136.499	-0.035	0.004
-604.142	-148.477	0.243	0.020
-603.128	-80.668	-0.280	-0.093
-602.113	-55.036	-0.325	-0.146
-601.098	126.771	-0.265	-0.335
-600.084	-97.805	0.369	-0.095
-599.069	800.000	0.021	-0.060
-598.055	249.890	0.059	-0.101
-597.040	337.542	-0.068	-0.131
-596.025	-96.783	0.211	-0.055
-595.011	-18.276	0.092	-0.058
-593.996	-118.787	-0.137	-0.024
-592.982	402.331	-0.129	-0.270
-591.967	277.838	0.035	-0.062
-590.952	-200.000	0.007	-0.332
-589.938	-37.283	-0.142	-0.076
-588.923	2.170	-0.121	-0.087
-587.909	128.352	0.065	0.082
-586.894	-200.000	-0.005	-0.084
-585.879	-140.739	-0.115	-0.012
-584.865	223.169	-0.109	-0.176
-583.850	-200.000	-0.019	0.148
-582.836	-112.755	-0.158	0.031
-581.821	-197.284	-0.376	0.002
-580.806	-128.429	-0.080	0.011
-579.792	738.406	-0.103	-0.276
-578.777	-55.908	-0.297	-0.132
-577.763	-65.597	-0.269	-0.108
-576.748	-17.114	-0.212	0.134
-575.733	221.446	0.078	-0.125
-574.719	800.000	0.117	-0.358
-573.704	-200.000	-0.048	0.397
-572.690	-12.570	-0.424	0.276
-571.675	-93.107	0.128	-0.036
-570.661	-41.938	-0.319	-0.163
-569.646	800.000	0.086	-0.269
-568.631	52.594	0.082	0.078
-567.617	-200.000	0.020	-0.152
-566.602	-115.734	-0.163	0.031
-565.588	800.000	0.031	-0.096
-564.573	-86.131	-0.027	0.008
-563.558	-200.000	0.012	-0.095
-562.544	-200.000	-0.040	0.235
-561.529	68.466	-0.249	0.254
-560.515	197.651	-0.132	-0.201
-559.500	-200.000	-0.038	-0.290
-558.485	-123.278	-0.108	0.017
-557.471	-38.822	0.078	0.041
-556.456	800.000	0.048	0.156
-555.442	380.862	0.104	0.212
-554.427	-124.532	-0.070	-0.011
-553.412	-72.744	-0.319	0.117
-552.398	-39.568	0.167	0.087
-551.383	-200.000	0.054	0.261
-550.369	120.382	0.182	0.225
-549.354	-200.000	-0.022	0.283
-548.339	-18.115	0.112	-0.070
-547.325	-35.529	-0.114	0.062
-546.310	-200.000	0.036	-0.293
-545.296	-85.961	0.102	0.032
-544.281	-1.172	-0.139	-0.098
-543.266	-200.000	-0.057	0.301
-542.252	-101.040	-0.317	-0.077
-541.237	-52.010	-0.226	0.104
-540.223	-123.372	-0.338	0.054
-539.208	147.311	-0.068	-0.092
-538.193	-200.000	-0.017	0.118
-537.179	-89.720	0.097	0.028
-536.164	38.969	-0.106	-0.095
-535.150	-151.148	-0.331	0.025
-534.135	-102.563	0.242	0.057
-533.121	-24.128	0.267	0.159
-532.106	63.865	0.115	0.115
-531.091	-100.494	-0.163	0.040
-530.077	102.657	0.140	0.163
-529.062	-20.760	0.170	0.104
-528.048	50.021	0.159	-0.149
-527.033	149.014	0.126	-0.169
-526.018	800.000	-0.026	0.090
-525.004	-87.974	0.081	0.024
-523.989	466.055	-0.045	-0.101
-522.975	-62.616	-0.263	0.109
-521.960	800.000	0.063	0.211
-520.945	-47.251	-0.068	0.033
-519.931	671.986	0.094	-0.243
-518.916	15.842	0.300	-0.235
-517.902	800.000	-0.065	-0.265
-516.887	-41.145	-0.466	0.239
-515.872	276.263	-0.082	0.145
-514.858	-200.000	0.001	0.026
-513.843	-34.225	0.117	0.064
-512.829	-28.650	0.088	0.051
-511.814	-70.454	0.175	0.066
-510.799	91.359	-0.058	0.065
-509.785	-76.314	0.052	-0.018
-508.770	800.000	-0.072	0.250
-507.756	41.301	0.204	0.184
-506.741	-200.000	-0.005	-0.133
-505.726	116.865	0.209	0.255
-504.712	-39.390	0.153	0.080
-503.697	-56.895	0.284	-0.125
-502.683	-101.833	-0.365	-0.088
-501.668	62.349	-0.094	0.093
-500.653	-93.628	-0.140	0.038
-499.639	83.582	-0.244	0.264
-498.624	63.503	0.242	0.242
-497.610	-103.436	-0.258	0.060
-496.595	17.817	0.155	-0.122
-495.581	-182.273	0.254	0.005
-494.566	-132.759	-0.354	0.045
-493.551	-94.835	0.228	-0.061
-492.537	345.252	-0.163	-0.319
-491.522	157.857	0.188	0.259
-490.508	84.841	0.123	0.133
-489.493	-50.144	-0.331	-0.156
-488.478	-159.453	0.367	0.020
-487.464	-23.893	0.068	-0.040
-486.449	-9.696	0.154	-0.102
-485.435	800.000	0.102	0.421
-484.420	454.756	-0.082	0.181
-483.405	212.205	-0.228	-0.357
-482.391	-52.468	0.120	-0.055
-481.376	12.878	0.464	0.357
-480.362	800.000	0.052	-0.185
-479.347	-34.583	0.452	0.246
-478.332	-200.000	0.025	-0.191
-477.318	81.107	0.238	-0.256
-476.303	-200.000	-0.039	-0.396
-475.289	41.207	0.102	0.092
-474.274	-81.985	0.179	0.058
-473.259	118.262	-0.336	-0.412
-472.245	-200.000	0.001	-0.516
-471.230	291.149	-0.069	0.125
-470.216	236.677	-0.245	-0.402
-469.201	-200.000	0.040	0.499
-468.186	800.000	-0.029	-0.121
-467.172	-61.693	0.104	0.043
-466.157	71.222	0.117	0.120
-465.143	-10.099	-0.074	-0.049
-464.128	522.377	0.075	-0.174
-463.113	-42.443	-0.164	0.083
-462.099	800.000	0.047	-0.202
-461.084	-46.610	-0.109	-0.053
-460.070	-200.000	-0.020	-0.134
-459.055	30.073	0.346	-0.293
-458.040	-70.487	-0.131	-0.049
-457.026	800.000	0.067	-0.219
-456.011	-128.247	0.168	-0.024
-454.997	-155.789	0.157	-0.010
-453.982	-87.028	0.454	-0.137
-452.968	137.304	-0.146	-0.189
-451.953	-115.250	-0.228	-0.043
-450.938	97.593	-0.147	-0.167
-449.924	-21.908	-0.239	0.144
-448.909	-108.956	0.283	0.060
-447.895	-151.267	0.204	0.015
-446.880	-38.274	-0.202	0.106
-445.865	1.041	0.178	0.126
-444.851	-70.808	-0.199	0.074
-443.836	-80.758	-0.331	0.109
-442.822	-16.944	0.201	0.126
-441.807	-4.891	0.162	-0.111
-440.792	-117.066	-0.093	-0.017
-439.778	604.830	-0.064	0.157
-438.763	-68.072	0.187	-0.072
-437.749	-67.722	0.329	0.128
-436.734	478.443	-0.077	-0.173
-435.719	-200.000	-0.016	0.131
-434.705	117.057	0.011	0.013
-433.690	-200.000	-0.038	0.318
-432.676	800.000	-0.097	0.366
-431.661	-154.011	-0.332	-0.022
-430.646	141.702	-0.096	-0.127
-429.632	-18.385	0.082	-0.051
-428.617	42.180	0.023	0.021
-427.603	329.974	0.160	0.305
-426.588	-30.690	-0.177	-0.099
-425.573	185.739	-0.055	-0.081
-424.559	228.430	-0.166	-0.267
-423.544	-64.594	-0.102	0.041
-422.530	782.297	0.099	-0.268
-421.515	-200.000	-0.014	-0.127
-420.500	34.450	0.092	-0.080
-419.486	545.667	0.133	0.315
-418.471	228.188	0.046	0.075
-417.457	697.679	0.065	-0.168
-416.442	-44.630	-0.322	-0.159
-415.428	505.565	0.097	-0.222
-414.413	89.018	0.079	-0.087
-413.398	-200.000	-0.007	-0.313
-412.384	375.594	0.100	-0.202
-411.369	94.429	-0.239	0.269
-410.355	800.000	0.033	0.091
-409.340	184.301	-0.119	0.174
-408.325	-200.000	0.000	0.108
-407.311	-135.113	-0.407	0.048
-406.296	455.835	0.093	0.205
-405.282	-200.000	-0.026	-0.122
-404.267	168.812	-0.042	-0.060
-403.252	-156.596	-0.268	0.016
-402.238	-106.498	-0.153	0.034
-401.223	-200.000	-0.013	0.092
-400.209	22.150	0.309	0.250
-399.194	22.295	-0.024	-0.019
-398.179	-200.000	0.038	-0.184
-397.165	-157.495	0.042	0.003
-396.150	194.093	0.138	0.207
-395.136	-109.654	-0.449	-0.094
-394.121	-79.361	-0.225	0.076
-393.106	-143.206	0.165	-0.016
-392.092	25.784	0.116	-0.096
-391.077	465.514	-0.089	0.196
-390.063	-68.793	0.212	-0.081
-389.048	-78.338	-0.154	-0.052
-388.033	-96.032	0.161	-0.042
-387.019	160.109	-0.075	-0.104
-386.004	-200.000	0.012	-0.090
-384.990	800.000	-0.063	-0.199
-383.975	11.150	-0.129	0.097
-382.960	196.114	0.144	0.218
-381.946	101.250	-0.094	0.108
-380.931	800.000	-0.036	-0.131
-379.917	2.548	-0.302	-0.217
-378.902	-8.708	0.047	0.031
-377.888	270.048	0.087	0.152
-376.873	-200.000	-0.049	0.348
-375.858	-74.312	-0.344	0.123
-374.844	337.096	0.035	0.068
-373.829	-72.000	0.093	0.034
-372.815	-19.056	-0.054	-0.033
-371.800	327.983	0.037	0.071
-370.785	-131.859	0.176	-0.023
-369.771	800.000	0.024	-0.086
-368.756	-108.397	-0.212	0.045
-367.742	-104.675	-0.256	-0.058
-366.727	795.199	0.062	0.168
-365.712	351.555	-0.039	-0.077
-364.698	98.450	0.031	-0.036
-363.683	-48.172	0.124	-0.059
-362.669	93.467	0.027	0.030
-361.654	-200.000	-0.025	0.213
-360.639	-98.266	0.113	0.029
-359.625	154.331	0.086	0.116
-358.610	562.297	0.104	0.249
-357.596	91.647	-0.197	0.219
-356.581	-168.105	0.258	0.010
-355.566	-92.488	0.358	-0.100
-354.552	-188.875	0.185	-0.002
-353.537	-126.322	0.532	-0.078
-352.523	-125.655	0.162	-0.024
-351.508	-175.035	-0.141	-0.004
-350.493	37.629	-0.030	0.026
-349.479	-43.926	0.152	0.076
-348.464	-200.000	-0.077	0.353
-347.450	-200.000	0.065	0.392
-346.435	23.894	0.181	0.148
-345.420	-41.761	0.045	0.023
-344.406	-119.635	0.271	0.046
-343.391	-84.699	0.129	0.040
-342.377	-200.000	-0.009	-0.471
-341.362	-200.000	-0.071	-0.344
-340.348	52.580	0.072	-0.068
-339.333	-95.941	-0.354	-0.093
-338.318	535.085	0.200	-0.469
-337.304	-200.000	-0.011	-0.376
-336.289	10.657	-0.185	-0.139
-335.275	311.239	0.106	-0.197
-334.260	-172.186	0.154	0.005
-333.245	1.391	0.296	0.210
-332.231	662.566	0.059	0.151
-331.216	-200.000	-0.037	0.185
-330.202	-113.650	0.084	0.016
-329.187	232.821	-0.192	0.312
-328.172	184.470	-0.034	0.049
-327.158	455.142	0.127	0.278
-326.143	-200.000	0.030	-0.323
-325.129	68.230	-0.084	0.085
-324.114	32.646	-0.235	0.201
-323.099	-31.565	0.116	-0.064
-322.085	207.224	0.080	0.122
-321.070	232.431	0.155	0.252
-320.056	428.683	-0.041	0.088
-319.041	-200.000	0.092	-0.410
-318.026	353.680	0.228	-0.448
-317.012	800.000	0.046	0.175
-315.997	-200.000	0.033	0.267
-314.983	800.000	-0.114	0.344
-313.968	224.761	0.055	0.088
-312.953	618.626	0.124	-0.308
-311.939	240.585	0.042	-0.069
-310.924	578.363	-0.088	-0.211
-309.910	-200.000	0.015	0.220
-308.895	361.560	0.030	0.060
-307.880	-200.000	0.011	0.406
-306.866	-112.883	0.212	0.041
-305.851	288.611	0.089	-0.159
-304.837	-200.000	0.019	0.153
-303.822	46.171	0.179	0.163
-302.807	800.000	-0.094	0.363
-301.793	104.847	-0.195	0.227
-300.778	-101.902	-0.277	-0.066
-299.764	-100.732	-0.290	-0.070
-298.749	28.661	0.597	0.499
-297.735	249.570	-0.117	0.195
-296.720	144.116	0.224	0.295
-295.705	18.402	-0.155	-0.122
-294.691	103.963	-0.222	0.258
-293.676	117.526	-0.081	0.099
-292.662	-20.278	0.302	-0.183
-291.647	-200.000	0.072	-0.388
-290.632	-78.293	0.166	-0.056
-289.618	-86.206	-0.327	0.100
-288.603	-133.485	0.148	-0.018
-287.589	-140.145	-0.182	0.019
-286.574	-137.692	0.083	-0.009
-285.559	800.000	0.054	-0.169
-284.545	-126.200	0.196	0.029
-283.530	-10.386	-0.126	-0.083
-282.516	-137.549	0.182	-0.020
-281.501	-200.000	0.041	-0.238
-280.486	800.000	-0.066	-0.243
-279.472	-200.000	0.018	-0.207
-278.457	-7.421	-0.100	0.067
-277.443	83.998	0.116	0.124
-276.428	583.452	-0.093	-0.225
-275.413	-72.183	0.187	-0.069
-274.399	589.321	0.124	-0.302
-273.384	-98.995	-0.078	-0.019
-272.370	-85.521	0.131	-0.040
-271.355	83.863	0.088	0.094
-270.340	125.380	0.086	0.107
-269.326	-200.000	0.052	-0.352
-268.311	121.258	0.093	-0.114
-267.297	-200.000	0.008	0.103
-266.282	800.000	-0.136	0.378
-265.267	-73.694	0.475	-0.170
-264.253	63.318	0.108	-0.107
-263.238	800.000	-0.130	-0.413
-262.224	14.324	-0.249	-0.191
-261.209	446.564	-0.179	0.388
-260.195	-200.000	0.040	-0.175
-259.180	116.756	-0.071	0.086
-258.165	-74.154	-0.225	0.080
-257.151	47.133	0.277	-0.254
-256.136	-73.351	0.239	-0.086
-255.122	167.896	-0.139	-0.194
-254.107	147.171	0.140	0.185
-253.092	599.512	0.037	-0.091
-252.078	-179.038	0.346	0.008
-251.063	-29.128	0.131	0.074
-250.049	-56.139	0.138	0.061
-249.034	423.043	-0.121	0.255
-248.019	-158.280	0.362	-0.021
-247.005	162.121	-0.156	0.215
-245.990	-9.718	-0.406	-0.266
-244.976	174.730	0.099	0.142
-243.961	64.350	-0.014	-0.013
-242.946	-111.690	-0.139	0.028
-241.932	-134.063	-0.095	-0.012
-240.917	-101.117	-0.216	0.052
-239.903	15.243	0.116	0.090
-238.888	-122.401	-0.111	-0.018
-237.873	55.566	-0.462	0.441
-236.859	112.055	-0.188	-0.223
-235.844	-36.298	0.198	0.105
-234.830	170.529	0.120	0.169
-233.815	166.996	-0.104	0.145
-232.800	79.722	0.176	-0.187
-231.786	-63.988	0.157	0.063
-230.771	115.552	0.216	0.260
-229.757	247.984	0.018	-0.030
-228.742	-107.175	-0.092	0.020
-227.727	17.514	0.132	0.103
-226.713	-200.000	0.008	-0.061
-225.698	476.183	0.064	-0.142
-224.684	-143.803	0.120	-0.011
-223.669	89.678	0.222	0.243
-222.655	800.000	-0.152	-0.451
-221.640	-125.983	-0.285	-0.042
-220.625	-49.713	0.060	0.028
-219.611	20.474	-0.264	-0.210
-218.596	800.000	0.071	-0.215
-217.582	48.777	-0.178	-0.164
-216.567	283.313	-0.167	-0.294
-215.552	-85.538	-0.156	-0.048
-214.538	800.000	0.060	0.203
-213.523	180.231	-0.136	-0.196
-212.509	-200.000	-0.031	0.142
-211.494	179.950	-0.070	-0.101
-210.479	167.260	-0.076	0.106
-209.465	-30.737	-0.316	0.176
-208.450	-99.417	0.117	-0.029
-207.436	649.461	-0.087	0.219
-206.421	56.241	0.173	-0.165
-205.406	240.159	0.107	-0.176
-204.392	160.476	0.066	-0.090
-203.377	-0.796	-0.333	-0.232
-202.363	800.000	-0.072	-0.209
-201.348	67.143	-0.152	-0.153
-200.333	-101.673	-0.147	0.035
-199.319	104.848	0.086	0.099
-198.304	-39.063	0.190	0.098
-197.290	-51.512	-0.092	0.042
-196.275	-200.000	0.000	0.105
-195.260	-189.377	-0.228	0.003
-194.246	15.575	-0.220	0.170
-193.231	-4.664	0.106	-0.072
-192.217	-62.254	0.321	0.132
-191.202	456.731	0.132	0.288
-190.187	-175.232	0.066	0.002
-189.173	111.759	0.222	-0.263
-188.158	800.000	0.029	0.087
-187.144	800.000	-0.034	0.132
-186.129	-89.218	-0.296	-0.086
-185.114	-61.941	0.268	0.110
-184.100	138.672	0.362	0.467
-183.085	-78.504	0.164	-0.055
-182.071	309.639	-0.112	0.205
-181.056	-200.000	-0.077	0.358
-180.042	-89.056	-0.155	0.045
-179.027	-200.000	-0.017	-0.218
-178.012	-200.000	0.027	0.143
-176.998	-91.681	-0.341	0.095
-175.983	-173.415	-0.110	0.003
-174.969	-149.699	0.183	-0.014
-173.954	-72.608	0.279	-0.101
-172.939	-37.203	-0.183	0.096
-171.925	800.000	0.052	-0.193
-170.910	7.221	-0.133	0.098
-169.896	-21.625	-0.233	0.140
-168.881	-84.428	-0.294	0.091
-167.866	-176.008	0.256	-0.007
-166.852	800.000	-0.041	-0.153
-165.837	384.253	-0.029	0.059
-164.823	-89.330	-0.077	0.022
-163.808	105.193	0.195	0.226
-162.793	800.000	-0.033	0.133
-161.779	-200.000	0.027	-0.236
-160.764	667.909	0.167	0.425
-159.750	130.687	-0.021	0.027
-158.735	-200.000	-0.046	-0.320
-157.720	-200.000	0.039	0.242
-156.706	-73.638	0.090	-0.032
-155.691	-17.404	-0.131	-0.081
-154.677	-69.131	-0.223	0.084
-153.662	232.536	-0.029	-0.047
-152.647	-200.000	0.031	-0.224
-151.633	-155.799	-0.111	-0.007
-150.618	365.073	-0.069	0.137
-149.604	17.136	-0.160	-0.124
-148.589	-38.915	0.290	-0.150
-147.574	-103.726	-0.114	-0.026
-146.560	14.105	-0.252	-0.192
-145.545	227.647	-0.109	0.174
-144.531	-200.000	-0.026	-0.198
-143.516	141.233	-0.092	-0.120
-142.502	-25.735	0.296	0.171
-141.487	542.748	-0.100	-0.234
-140.472	-72.349	0.285	0.103
-139.458	-200.000	0.001	0.333
-138.443	409.360	-0.047	0.099
-137.429	-200.000	-0.008	-0.104
-136.414	-200.000	-0.028	-0.133
-135.399	-130.120	0.358	-0.048
-134.385	-110.899	-0.058	0.012
-133.370	-132.186	0.127	-0.016
-132.356	118.963	0.136	0.165
-131.341	237.257	-0.133	0.216
-130.326	153.582	-0.083	0.111
-129.312	737.090	0.104	0.273
-128.297	44.467	0.150	-0.135
-127.283	-90.136	0.285	0.081
-126.268	276.627	-0.122	-0.212
-125.253	537.917	-0.111	-0.258
-124.239	162.533	-0.078	-0.107
-123.224	-48.860	0.213	-0.100
-122.210	16.335	0.213	0.165
-121.195	189.140	-0.147	0.215
