DTS Sentinel unit serial number:	SN413079Multiplexer serial number:	ORYXHardware model number:	OX4-SRSoftware version number:	ORYX F/W v4.00 Oryx Data Collector v3.7.2.0data status	okinstallation	princeton_trtdifferential loss correction	single-endedforward channel	channel 3reverse channel	N/Adate	2019/09/12time	09:22:11forward acquisition time	60.00reverse acquisition time	0.00gamma	496.2192k internal	0.2302k external	0.2302temperature offset calibration	1.0032default loss term (dB/km)	0.3790temperature slope calibration	1.0000multiplexer offset coefficient	1.0000multiplexer slope coefficient	1.0000fibre end	0.00T internal ref (°C)	35.14T ext. ref 1 (°C)	1.81T ext. ref 2 (°C)	33.70length (m)	temperature (°C)	Stokes	anti-Stokes-747.200	800.000	0.105	-0.335
-746.185	-56.675	-0.253	-0.114
-745.171	800.000	-0.106	0.354
-744.156	800.000	0.086	0.373
-743.142	41.441	0.158	-0.146
-742.127	-55.658	0.068	-0.031
-741.112	26.773	0.110	0.094
-740.098	-200.000	-0.049	0.461
-739.083	98.289	0.197	0.231
-738.069	-46.403	-0.316	-0.158
-737.054	-87.995	-0.240	0.073
-736.039	-200.000	0.018	0.248
-735.025	18.843	0.019	-0.016
-734.010	15.244	0.074	0.059
-732.996	-37.804	-0.092	-0.050
-731.981	67.474	-0.163	-0.170
-730.966	608.772	0.192	-0.489
-729.952	-20.989	0.343	-0.214
-728.937	-36.909	0.338	-0.185
-727.923	284.995	-0.173	-0.317
-726.908	420.700	-0.048	0.105
-725.894	545.742	-0.040	0.097
-724.879	-200.000	0.004	-0.082
-723.864	-27.748	-0.270	0.159
-722.850	-169.207	-0.233	-0.009
-721.835	-53.437	-0.146	-0.068
-720.821	642.105	-0.077	-0.200
-719.806	-77.460	0.051	-0.018
-718.791	-27.670	0.164	-0.097
-717.777	86.890	-0.061	-0.068
-716.762	184.519	0.271	-0.408
-715.748	121.293	0.240	-0.304
-714.733	479.432	0.092	0.213
-713.718	-15.575	0.197	-0.128
-712.704	-159.380	0.209	-0.012
-711.689	-61.821	-0.070	0.030
-710.675	-148.511	-0.109	-0.009
-709.660	-200.000	0.002	-0.206
-708.645	-15.419	-0.192	-0.125
-707.631	-4.582	0.320	-0.225
-706.616	-200.000	0.000	0.016
-705.602	-113.827	0.156	0.031
-704.587	-200.000	-0.031	-0.337
-703.572	108.636	-0.090	0.109
-702.558	-146.962	0.079	-0.007
-701.543	137.301	0.155	-0.207
-700.529	800.000	0.004	0.017
-699.514	23.104	0.063	-0.053
-698.499	800.000	0.061	-0.194
-697.485	32.592	0.098	-0.087
-696.470	-64.463	0.081	0.034
-695.456	-117.357	0.229	-0.042
-694.441	-74.781	0.158	0.058
-693.426	33.814	0.208	0.184
-692.412	2.239	0.177	-0.130
-691.397	-75.476	0.321	-0.116
-690.383	-115.461	-0.497	0.095
-689.368	-23.234	-0.209	0.128
-688.354	-118.295	-0.383	0.069
-687.339	360.796	-0.072	0.148
-686.324	696.813	0.068	0.183
-685.310	-42.941	-0.067	-0.035
-684.295	-171.153	-0.122	-0.004
-683.281	-95.805	0.125	0.034
-682.266	-50.681	0.162	0.078
-681.251	-16.433	-0.156	0.101
-680.237	224.290	-0.182	-0.299
-679.222	800.000	-0.086	-0.265
-678.208	174.185	-0.035	-0.052
-677.193	114.161	-0.066	-0.081
-676.178	-47.056	0.197	0.098
-675.164	62.394	0.044	0.045
-674.149	-200.000	-0.032	0.253
-673.135	-200.000	-0.001	0.160
-672.120	-167.605	0.144	-0.006
-671.105	-200.000	-0.040	-0.217
-670.091	63.156	-0.020	-0.021
-669.076	-122.315	0.122	-0.020
-668.062	12.272	0.228	-0.178
-667.047	-200.000	0.007	0.083
-666.032	62.829	0.100	-0.102
-665.018	244.794	-0.045	-0.078
-664.003	-180.456	-0.125	0.003
-662.989	22.695	-0.275	-0.228
-661.974	-165.520	0.298	0.013
-660.959	297.708	0.157	-0.293
-659.945	800.000	-0.061	-0.218
-658.930	-200.000	-0.029	-0.320
-657.916	39.378	-0.222	-0.202
-656.901	800.000	-0.110	-0.424
-655.886	-86.690	-0.079	-0.025
-654.872	-132.571	0.473	0.062
-653.857	-131.144	-0.345	-0.047
-652.843	110.372	-0.112	-0.136
-651.828	-15.303	0.179	-0.116
-650.814	15.908	0.082	-0.066
-649.799	800.000	-0.054	-0.227
-648.784	-200.000	-0.011	-0.171
-647.770	-100.712	-0.157	-0.039
-646.755	-53.102	-0.244	-0.114
-645.741	-73.383	-0.058	-0.021
-644.726	-64.769	0.371	0.152
-643.711	800.000	0.086	0.324
-642.697	38.780	0.270	0.244
-641.682	65.182	0.279	0.286
-640.668	-115.499	0.131	-0.025
-639.653	124.263	-0.166	-0.212
-638.638	-124.726	0.249	-0.039
-637.624	46.393	0.206	-0.194
-636.609	185.334	-0.188	-0.283
-635.595	159.320	0.187	0.264
-634.580	-19.576	-0.222	-0.139
-633.565	-128.167	-0.045	0.006
-632.551	-37.701	-0.083	0.045
-631.536	-36.503	0.052	0.028
-630.522	328.895	-0.083	0.161
-629.507	2.184	-0.152	-0.112
-628.492	-7.440	0.081	-0.056
-627.478	79.045	-0.144	-0.156
-626.463	3.388	-0.299	0.221
-625.449	442.688	-0.088	0.196
-624.434	-4.423	-0.076	-0.053
-623.419	-200.000	-0.002	0.070
-622.405	107.396	0.145	-0.175
-621.390	-200.000	0.003	-0.198
-620.376	-139.196	0.295	0.032
-619.361	127.745	0.286	-0.369
-618.346	-200.000	-0.015	0.295
-617.332	-136.409	-0.255	-0.030
-616.317	-79.727	-0.164	-0.056
-615.303	402.929	-0.025	0.053
-614.288	-12.551	0.257	0.170
-613.273	79.304	0.120	-0.130
-612.259	44.862	0.310	-0.289
-611.244	208.688	0.119	-0.189
-610.230	10.487	-0.177	-0.137
-609.215	-200.000	0.049	-0.311
-608.201	0.710	-0.188	0.136
-607.186	272.563	-0.040	-0.071
-606.171	-200.000	-0.026	0.147
-605.157	108.850	0.127	0.154
-604.142	-192.271	-0.136	-0.001
-603.128	282.927	0.171	0.311
-602.113	-153.134	-0.261	0.019
-601.098	-107.234	-0.368	0.082
-600.084	28.607	-0.104	0.089
-599.069	-200.000	-0.090	-0.419
-598.055	-200.000	0.069	-0.351
-597.040	226.669	-0.110	0.181
-596.025	-140.761	-0.251	0.026
-595.011	162.513	0.237	-0.337
-593.996	-168.404	0.253	0.010
-592.982	69.374	0.049	-0.051
-591.967	36.029	0.121	0.108
-590.952	14.213	-0.198	0.156
-589.938	773.101	0.083	-0.228
-588.923	0.066	-0.295	-0.213
-587.909	-8.072	0.167	-0.114
-586.894	800.000	-0.023	-0.103
-585.879	800.000	-0.058	0.167
-584.865	129.456	0.240	0.310
-583.850	-91.982	0.323	-0.093
-582.836	-113.326	0.411	-0.082
-581.821	320.411	0.131	-0.251
-580.806	-79.870	-0.188	-0.064
-579.792	800.000	-0.040	-0.169
-578.777	-38.180	-0.217	0.117
-577.763	68.973	-0.082	0.085
-576.748	-64.333	-0.184	-0.076
-575.733	98.545	-0.030	-0.035
-574.719	146.461	-0.146	-0.198
-573.704	-91.327	0.149	0.043
-572.690	27.781	0.299	0.255
-571.675	-118.914	-0.099	0.018
-570.661	-71.932	-0.247	0.093
-569.646	99.192	-0.166	0.194
-568.631	800.000	0.030	0.112
-567.617	101.076	0.100	-0.117
-566.602	-200.000	-0.021	-0.236
-565.588	159.398	-0.091	-0.128
-564.573	-200.000	0.040	-0.198
-563.558	-200.000	-0.005	-0.027
-562.544	800.000	-0.074	0.251
-561.529	-200.000	0.021	-0.240
-560.515	-136.272	0.358	-0.042
-559.500	8.380	0.179	0.136
-558.485	-46.095	-0.099	0.049
-557.471	-200.000	0.012	-0.325
-556.456	-200.000	-0.004	0.096
-555.442	104.294	0.070	0.083
-554.427	-200.000	-0.030	0.340
-553.412	82.640	0.051	-0.056
-552.398	613.929	-0.096	-0.244
-551.383	155.444	-0.301	-0.419
-550.369	340.859	-0.105	0.207
-549.354	162.329	-0.111	0.158
-548.339	-200.000	0.005	0.195
-547.325	-97.420	-0.277	0.073
-546.310	603.598	0.060	0.150
-545.296	284.792	-0.174	-0.317
-544.281	332.882	-0.113	-0.220
-543.266	800.000	0.036	0.121
-542.252	82.094	-0.081	0.088
-541.237	-200.000	-0.233	-0.001
-540.223	-16.240	0.192	-0.123
-539.208	122.148	-0.183	-0.231
-538.193	-197.291	-0.145	-0.001
-537.179	27.439	0.282	-0.239
-536.164	13.462	-0.256	0.200
-535.150	800.000	-0.123	0.402
-534.135	496.592	0.076	0.176
-533.121	-69.520	-0.352	0.136
-532.106	3.930	-0.015	-0.011
-531.091	0.600	0.162	0.117
-530.077	-29.279	-0.207	0.120
-529.062	-72.938	0.196	-0.073
-528.048	245.251	-0.062	0.105
-527.033	-77.822	-0.298	-0.104
-526.018	62.730	-0.035	-0.035
-525.004	60.863	0.223	-0.224
-523.989	-200.000	-0.026	0.307
-522.975	24.289	0.038	0.032
-521.960	-121.158	-0.067	-0.011
-520.945	-127.960	-0.255	0.037
-519.931	-177.859	0.136	-0.003
-518.916	-130.841	0.255	0.034
-517.902	373.617	0.186	0.381
-516.887	-200.000	-0.057	0.274
-515.872	-200.000	0.012	-0.373
-514.858	-11.289	0.100	0.067
-513.843	-37.868	-0.313	0.168
-512.829	147.579	-0.320	0.436
-511.814	-62.406	0.203	-0.085
-510.799	24.836	0.177	-0.148
-509.785	800.000	0.067	-0.258
-508.770	-190.325	0.145	-0.002
-507.756	-60.419	-0.098	-0.042
-506.741	-124.831	-0.046	-0.007
-505.726	5.087	-0.080	0.059
-504.712	800.000	0.069	-0.268
-503.697	121.791	-0.143	-0.181
-502.683	275.223	-0.116	0.208
-501.668	-58.147	0.227	-0.100
-500.653	-177.642	-0.074	0.002
-499.639	-83.936	0.421	0.135
-498.624	-146.276	-0.250	-0.022
-497.610	-8.690	0.283	-0.192
-496.595	300.593	0.087	0.161
-495.581	800.000	-0.067	0.269
-494.566	-200.000	-0.048	0.227
-493.551	-200.000	0.037	0.216
-492.537	179.081	0.115	-0.170
-491.522	-92.054	0.135	-0.038
-490.508	-31.818	-0.067	0.038
-489.493	-25.585	0.078	-0.046
-488.478	800.000	0.074	0.271
-487.464	-102.820	-0.055	-0.013
-486.449	232.023	-0.117	0.193
-485.435	128.898	-0.232	-0.299
-484.420	35.681	0.146	-0.130
-483.405	-200.000	-0.015	-0.193
-482.391	103.335	-0.152	-0.180
-481.376	7.446	-0.091	-0.069
-480.362	195.332	-0.087	0.134
-479.347	-87.948	0.121	-0.037
-478.332	800.000	0.084	-0.316
-477.318	-136.128	0.114	0.013
-476.303	-59.800	0.363	0.157
-475.289	800.000	-0.034	-0.130
-474.274	-66.803	0.071	0.028
-473.259	-4.219	-0.068	-0.048
-472.245	84.522	0.047	-0.052
-471.230	-184.922	-0.291	-0.005
-470.216	-128.464	0.123	0.018
-469.201	27.508	-0.140	-0.119
-468.186	-200.000	-0.026	-0.219
-467.172	800.000	0.030	0.105
-466.157	-200.000	-0.023	0.430
-465.143	273.329	0.135	0.241
-464.128	-200.000	0.006	-0.339
-463.113	59.645	0.087	0.087
-462.099	66.070	0.020	-0.020
-461.084	288.201	0.097	0.177
-460.070	-107.118	-0.208	0.046
-459.055	800.000	-0.088	0.265
-458.040	-200.000	-0.037	0.333
-457.026	-119.331	-0.179	0.031
-456.011	33.014	0.168	0.147
-454.997	-200.000	-0.005	0.234
-453.982	-14.022	-0.308	-0.200
-452.968	-200.000	-0.001	0.126
-451.953	1.028	-0.195	0.141
-450.938	-136.063	0.288	0.034
-449.924	-200.000	0.002	0.126
-448.909	-56.452	-0.305	0.137
-447.895	-43.325	0.036	0.018
-446.880	514.488	0.126	-0.296
-445.865	-200.000	-0.002	-0.094
-444.851	278.122	0.153	-0.274
-443.836	-200.000	0.004	-0.062
-442.822	-200.000	-0.054	-0.454
-441.807	800.000	0.081	0.247
-440.792	-120.235	-0.202	0.035
-439.778	800.000	-0.043	0.121
-438.763	-37.943	0.300	0.160
-437.749	-164.798	0.062	-0.003
-436.734	221.968	-0.162	-0.262
-435.719	-97.246	0.252	0.066
-434.705	-165.830	-0.128	-0.006
-433.690	-42.286	-0.196	0.101
-432.676	-99.607	-0.163	-0.041
-431.661	-154.298	0.173	0.012
-430.646	800.000	-0.034	-0.130
-429.632	-142.289	-0.218	-0.022
-428.617	-200.000	-0.014	-0.136
-427.603	-15.801	0.193	0.124
-426.588	-200.000	0.016	0.187
-425.573	80.197	0.172	-0.187
-424.559	-200.000	-0.011	0.235
-423.544	715.292	0.023	0.063
-422.530	6.070	-0.224	-0.167
-421.515	338.564	0.077	0.152
-420.500	-110.276	0.428	0.090
-419.486	44.410	-0.121	0.112
-418.471	-88.614	0.168	-0.050
-417.457	92.196	0.229	0.259
-416.442	-131.547	-0.150	-0.020
-415.428	-43.545	-0.197	-0.100
-414.413	-200.000	0.041	0.272
-413.398	-165.054	-0.159	-0.007
-412.384	-79.880	0.282	-0.095
-411.369	-2.385	0.242	-0.171
-410.355	259.060	0.095	-0.165
-409.340	21.871	0.264	0.216
-408.325	-104.420	0.228	-0.053
-407.311	-43.484	0.299	0.152
-406.296	-35.172	-0.216	0.118
-405.282	195.704	-0.144	-0.220
-404.267	-12.544	-0.063	0.041
-403.252	113.388	0.262	0.319
-402.238	-200.000	0.083	-0.482
-401.223	-141.834	-0.331	0.033
-400.209	414.121	0.068	0.146
-399.194	-112.930	-0.153	-0.030
-398.179	-200.000	-0.020	-0.117
-397.165	77.192	0.053	0.056
-396.150	216.691	-0.091	-0.145
-395.136	800.000	0.160	-0.458
-394.121	-54.923	0.149	-0.067
-393.106	-36.423	0.210	-0.114
-392.092	-63.788	-0.221	0.091
-391.077	286.666	0.094	-0.170
-390.063	-200.000	-0.058	0.391
-389.048	-198.265	-0.234	0.001
-388.033	-95.183	-0.265	0.072
-387.019	37.891	0.080	0.071
-386.004	-172.790	0.257	-0.008
-384.990	-200.000	0.012	-0.327
-383.975	-47.310	0.101	-0.049
-382.960	-90.356	0.200	-0.058
-381.946	293.736	-0.116	-0.213
-380.931	411.959	0.081	-0.174
-379.917	-200.000	0.045	-0.283
-378.902	277.430	0.072	-0.129
-377.888	800.000	0.049	0.144
-376.873	246.479	-0.089	0.151
-375.858	800.000	-0.139	-0.390
-374.844	-153.533	-0.358	-0.025
-373.829	-119.897	0.136	-0.023
-372.815	113.586	-0.204	-0.249
-371.800	109.848	-0.142	0.171
-370.785	23.917	0.252	0.209
-369.771	-1.848	-0.156	-0.110
-368.756	-156.360	-0.193	-0.012
-367.742	-142.789	0.240	-0.023
-366.727	-200.000	-0.041	0.290
-365.712	-65.302	0.168	0.068
-364.698	57.228	0.150	0.147
-363.683	-148.704	-0.081	0.007
-362.669	159.334	-0.209	0.292
-361.654	-121.787	-0.227	0.038
-360.639	-147.321	-0.437	0.037
-359.625	-106.822	-0.135	0.030
-358.610	-129.654	0.512	0.071
-357.596	-175.867	-0.359	0.010
-356.581	-80.666	-0.380	-0.127
-355.566	-63.614	0.253	-0.104
-354.552	800.000	-0.115	-0.426
-353.537	-8.178	-0.297	-0.201
-352.523	41.642	-0.173	0.157
-351.508	800.000	-0.050	0.186
-350.493	-200.000	-0.006	-0.245
-349.479	-58.463	0.059	-0.026
-348.464	576.271	0.016	-0.039
-347.450	-200.000	-0.013	-0.162
-346.435	-200.000	0.000	0.166
-345.420	697.638	0.164	-0.432
-344.406	-200.000	-0.047	-0.229
-343.391	489.014	-0.097	-0.222
-342.377	-200.000	0.013	-0.370
-341.362	-200.000	-0.019	0.155
-340.348	-3.632	-0.300	0.209
-339.333	-200.000	-0.027	0.201
-338.318	136.488	0.060	-0.078
-337.304	-200.000	0.003	0.039
-336.289	-3.984	-0.062	0.043
-335.275	-200.000	0.060	0.342
-334.260	398.131	0.002	0.005
-333.245	800.000	0.085	0.342
-332.231	303.727	-0.105	0.196
-331.216	800.000	0.057	0.196
-330.202	75.783	0.150	0.159
-329.187	11.385	-0.261	-0.201
-328.172	-69.317	-0.195	0.075
-327.158	535.190	-0.126	0.298
-326.143	-94.158	-0.213	-0.058
-325.129	27.871	0.113	-0.095
-324.114	-200.000	0.006	-0.059
-323.099	-3.475	-0.129	-0.090
-322.085	-9.237	0.300	0.201
-321.070	800.000	0.013	-0.041
-320.056	-200.000	0.009	-0.175
-319.041	-200.000	-0.016	-0.181
-318.026	800.000	0.088	0.245
-317.012	800.000	0.069	0.291
-315.997	163.636	0.019	0.027
-314.983	36.482	0.170	-0.151
-313.968	-200.000	0.006	-0.099
-312.953	-129.675	0.397	-0.055
-311.939	-169.908	-0.107	-0.004
-310.924	-155.905	-0.338	-0.022
-309.910	65.919	-0.131	0.133
-308.895	299.009	-0.147	0.271
-307.880	-101.578	-0.095	-0.023
-306.866	800.000	-0.054	0.220
-305.851	-200.000	-0.042	-0.290
-304.837	57.093	0.146	-0.143
-303.822	-42.315	0.084	-0.043
-302.807	-10.120	-0.100	-0.066
-301.793	-19.906	0.067	0.041
-300.778	-46.473	0.251	0.123
-299.764	800.000	-0.055	0.163
-298.749	30.996	-0.153	0.131
-297.735	437.255	0.129	0.280
-296.720	-50.948	-0.285	0.134
-295.705	73.299	0.198	0.208
-294.691	-166.318	0.216	-0.009
-293.676	-19.423	0.181	-0.113
-292.662	-161.477	-0.103	0.005
-291.647	800.000	-0.084	-0.251
-290.632	126.319	-0.196	0.248
-289.618	102.982	0.221	-0.259
-288.603	-135.019	-0.192	-0.023
-287.589	224.943	-0.114	0.184
-286.574	800.000	0.035	0.142
-285.559	800.000	-0.091	-0.356
-284.545	576.666	0.076	-0.186
-283.530	6.109	0.221	-0.164
-282.516	-107.003	-0.280	0.062
-281.501	614.201	0.072	0.180
-280.486	39.080	0.150	0.134
-279.472	-58.165	-0.088	0.038
-278.457	213.156	-0.095	0.151
-277.443	303.392	-0.292	-0.541
-276.428	300.403	0.164	0.302
-275.413	-182.456	-0.275	0.005
-274.399	800.000	-0.011	0.039
-273.384	-200.000	0.032	0.220
-272.370	-160.794	-0.040	-0.002
-271.355	225.380	-0.032	0.052
-270.340	-23.870	0.134	0.080
-269.326	-29.849	0.259	0.148
-268.311	260.594	0.137	0.237
-267.297	800.000	0.041	-0.140
-266.282	-60.590	-0.056	0.024
-265.267	-51.180	0.218	0.102
-264.253	206.214	-0.123	0.191
-263.238	-38.606	-0.182	0.096
-262.224	330.012	0.023	0.044
-261.209	800.000	-0.070	-0.247
-260.195	607.457	-0.088	-0.219
-259.180	-200.000	0.147	-0.694
-258.165	562.150	0.015	0.036
-257.151	472.703	0.053	-0.120
-256.136	-57.150	0.164	-0.072
-255.122	800.000	-0.044	-0.159
-254.107	221.753	0.132	0.213
-253.092	-16.919	0.169	0.107
-252.078	-118.820	-0.029	0.005
-251.063	-200.000	-0.025	-0.188
-250.049	401.499	0.032	0.067
-249.034	-71.811	-0.236	-0.088
-248.019	-104.111	0.151	-0.035
-247.005	173.284	0.164	0.237
-245.990	-200.000	0.021	-0.170
-244.976	18.021	0.315	0.251
-243.961	-200.000	0.027	0.251
-242.946	-200.000	0.039	0.449
-241.932	140.643	0.163	-0.215
-240.917	-22.494	0.159	-0.096
-239.903	30.985	0.197	-0.169
-238.888	717.222	-0.112	0.298
-237.873	551.782	0.150	-0.359
-236.859	-0.484	-0.095	0.068
-235.844	140.563	0.319	0.421
-234.830	-58.089	-0.335	0.146
-233.815	60.555	-0.222	0.219
-232.800	800.000	-0.080	0.265
-231.786	-80.583	0.248	-0.083
-230.771	210.380	-0.148	-0.233
-229.757	-193.254	0.503	0.004
-228.742	-15.529	-0.146	0.093
-227.727	-98.007	0.377	0.097
-226.713	172.032	0.229	-0.328
-225.698	155.018	0.074	0.102
-224.684	-200.000	0.009	-0.059
-223.669	76.158	0.098	0.104
-222.655	41.809	0.284	0.257
-221.640	111.243	-0.260	-0.313
-220.625	-29.291	0.319	0.183
-219.611	-130.362	0.116	0.016
-218.596	478.621	-0.087	-0.198
-217.582	800.000	-0.153	-0.466
-216.567	800.000	-0.065	0.227
-215.552	800.000	-0.085	0.361
-214.538	121.598	-0.306	-0.381
-213.523	-200.000	-0.000	-0.168
-212.509	-200.000	0.009	0.088
-211.494	423.304	-0.024	-0.052
-210.479	16.559	-0.179	-0.141
-209.465	-46.498	-0.196	-0.096
-208.450	800.000	-0.071	-0.214
-207.436	-130.114	0.464	-0.063
-206.421	800.000	-0.093	0.263
-205.406	341.396	-0.029	0.056
-204.392	200.578	-0.086	-0.133
-203.377	103.967	0.221	-0.259
-202.363	-200.000	-0.013	-0.134
-201.348	245.476	-0.155	0.260
-200.333	242.910	0.099	0.165
-199.319	792.109	0.049	0.134
-198.304	108.768	0.165	0.197
-197.290	800.000	0.114	0.340
-196.275	800.000	0.093	0.273
-195.260	-106.094	0.409	0.092
-194.246	-110.682	0.549	0.113
-193.231	-200.000	0.005	0.054
-192.217	506.604	-0.103	0.237
-191.202	800.000	0.070	-0.282
-190.187	227.829	-0.068	-0.110
-189.173	123.328	-0.237	0.296
-188.158	800.000	0.099	0.301
-187.144	-145.938	0.163	0.014
-186.129	554.524	0.129	-0.309
-185.114	-13.610	-0.378	-0.244
-184.100	-84.932	0.083	0.026
-183.085	-64.006	0.137	0.056
-182.071	124.899	-0.039	0.049
-181.056	-4.347	-0.076	-0.053
-180.042	-99.534	-0.296	0.074
-179.027	62.825	-0.288	-0.287
-178.012	-111.072	-0.046	-0.009
-176.998	414.916	-0.097	-0.207
-175.983	-85.953	-0.201	-0.062
-174.969	-33.202	-0.400	-0.221
-173.954	-6.519	0.221	-0.150
-172.939	494.222	0.094	-0.214
-171.925	800.000	-0.019	0.064
-170.910	-132.311	-0.103	-0.013
-169.896	602.705	0.117	0.289
-168.881	372.362	-0.051	0.104
-167.866	194.999	-0.179	0.270
-166.852	4.075	-0.134	-0.098
-165.837	-200.000	0.026	-0.288
-164.823	114.920	-0.124	-0.151
-163.808	47.285	0.164	-0.152
-162.793	-135.784	0.294	-0.035
-161.779	45.953	0.384	0.354
-160.764	389.409	0.140	-0.288
-159.750	-133.472	-0.239	0.030
-158.735	49.396	-0.051	-0.048
-157.720	338.125	0.119	-0.230
-156.706	29.221	-0.481	0.407
-155.691	-200.000	0.004	-0.324
-154.677	24.773	0.051	0.042
-153.662	-63.352	-0.288	-0.118
-152.647	352.869	-0.055	-0.108
-151.633	-30.321	0.106	0.060
-150.618	14.498	0.171	0.133
-149.604	-93.177	-0.145	-0.040
-148.589	-131.601	-0.345	-0.045
-147.574	39.745	-0.132	-0.118
-146.560	355.638	-0.155	0.308
-145.545	-41.794	0.312	-0.159
-144.531	-162.712	0.198	-0.010
-143.516	800.000	0.047	0.152
-142.502	-28.339	-0.128	-0.074
-141.487	171.509	-0.085	-0.122
-140.472	-181.138	0.121	-0.002
-139.458	12.558	-0.128	0.098
-138.443	800.000	0.018	-0.077
-137.429	-200.000	-0.043	-0.276
-136.414	151.366	-0.084	0.114
-135.399	-200.000	-0.003	0.071
-134.385	156.607	0.219	-0.301
-133.370	-106.802	0.272	-0.060
-132.356	-200.000	0.010	0.158
-131.341	259.098	0.115	0.198
-130.326	-81.457	-0.357	0.117
-129.312	-40.169	0.259	-0.134
-128.297	-86.970	-0.348	0.105
-127.283	-173.273	0.087	-0.003
-126.268	-26.920	-0.109	-0.063
-125.253	-200.000	0.038	0.192
-124.239	-90.681	-0.255	-0.073
-123.224	-132.209	0.156	-0.020
-122.210	-20.053	0.183	-0.112
-121.195	-130.089	-0.178	-0.024
