DTS Sentinel unit serial number:	SN413079Multiplexer serial number:	ORYXHardware model number:	OX4-SRSoftware version number:	ORYX F/W v4.00 Oryx Data Collector v3.7.2.0data status	okinstallation	princeton_trtdifferential loss correction	single-endedforward channel	channel 3reverse channel	N/Adate	2019/09/14time	07:00:35forward acquisition time	60.00reverse acquisition time	0.00gamma	496.2192k internal	0.2339k external	0.2339temperature offset calibration	1.0055default loss term (dB/km)	0.3790temperature slope calibration	1.0000multiplexer offset coefficient	1.0000multiplexer slope coefficient	1.0000fibre end	0.00T internal ref (°C)	26.19T ext. ref 1 (°C)	3.45T ext. ref 2 (°C)	20.96length (m)	temperature (°C)	Stokes	anti-Stokes-747.200	800.000	-0.099	-0.408
-746.185	-72.078	-0.209	0.078
-745.171	-39.686	-0.135	-0.071
-744.156	591.989	0.035	-0.087
-743.142	96.703	0.084	-0.097
-742.127	-164.994	-0.326	0.015
-741.112	-195.224	0.395	0.003
-740.098	112.603	0.168	0.204
-739.083	-25.275	0.196	-0.116
-738.069	-200.000	0.011	0.068
-737.054	800.000	-0.118	-0.384
-736.039	-164.650	-0.095	0.004
-735.025	-200.000	0.043	0.408
-734.010	-200.000	-0.010	-0.085
-732.996	548.972	0.033	-0.079
-731.981	-84.856	-0.206	0.065
-730.966	-103.546	-0.130	0.031
-729.952	382.774	-0.158	0.325
-728.937	89.474	0.210	-0.234
-727.923	7.243	-0.126	-0.094
-726.908	-49.194	-0.195	-0.094
-725.894	800.000	-0.007	-0.028
-724.879	152.044	-0.145	0.198
-723.864	590.485	0.065	0.160
-722.850	-84.379	-0.029	-0.009
-721.835	-45.410	-0.090	0.045
-720.821	-200.000	-0.007	-0.043
-719.806	26.916	-0.232	-0.195
-718.791	116.972	0.196	-0.241
-717.777	93.388	-0.194	-0.220
-716.762	130.398	-0.055	0.071
-715.748	183.829	0.174	-0.258
-714.733	152.891	-0.114	0.156
-713.718	16.175	0.136	-0.108
-712.704	145.975	-0.133	-0.179
-711.689	281.672	-0.065	-0.116
-710.675	-200.000	0.057	-0.349
-709.660	-200.000	0.039	-0.262
-708.645	229.887	-0.092	-0.151
-707.631	-42.963	0.216	-0.110
-706.616	800.000	0.022	0.088
-705.602	48.391	0.150	-0.140
-704.587	-183.754	-0.530	-0.009
-703.572	41.226	-0.150	0.136
-702.558	800.000	-0.069	0.214
-701.543	-112.197	0.177	0.036
-700.529	-200.000	0.016	-0.071
-699.514	800.000	0.042	-0.166
-698.499	4.903	-0.061	0.045
-697.485	83.607	-0.167	0.182
-696.470	-164.025	0.322	-0.015
-695.456	-200.000	-0.032	-0.145
-694.441	229.027	0.294	-0.480
-693.426	101.222	-0.021	0.024
-692.412	-12.764	-0.173	-0.113
-691.397	-175.194	-0.112	-0.003
-690.383	119.394	-0.156	-0.193
-689.368	-115.704	-0.132	0.025
-688.354	800.000	0.078	-0.228
-687.339	371.460	0.066	0.134
-686.324	551.667	0.097	-0.233
-685.310	-157.079	0.105	0.006
-684.295	800.000	-0.049	0.210
-683.281	297.423	0.100	-0.184
-682.266	-200.000	-0.051	-0.227
-681.251	42.596	-0.235	0.214
-680.237	-200.000	-0.004	-0.401
-679.222	-89.297	-0.178	0.053
-678.208	-101.669	-0.175	-0.042
-677.193	188.199	-0.128	-0.192
-676.178	-156.166	-0.292	-0.018
-675.164	-200.000	-0.054	-0.269
-674.149	-153.637	-0.333	-0.023
-673.135	656.635	-0.097	0.250
-672.120	-176.880	-0.282	0.007
-671.105	144.832	-0.055	0.074
-670.091	324.761	-0.089	0.170
-669.076	800.000	-0.091	-0.280
-668.062	18.087	0.317	-0.253
-667.047	-126.959	-0.257	-0.038
-666.032	-200.000	-0.008	0.281
-665.018	800.000	0.067	0.243
-664.003	119.047	0.071	-0.088
-662.989	-48.715	-0.150	-0.072
-661.974	-38.762	0.184	0.097
-660.959	-200.000	0.057	0.251
-659.945	-75.724	-0.305	-0.108
-658.930	-191.177	0.286	-0.003
-657.916	-127.285	0.210	0.031
-656.901	38.241	-0.070	0.062
-655.886	-200.000	-0.013	0.173
-654.872	105.272	-0.212	0.250
-653.857	38.755	0.072	0.065
-652.843	-61.809	-0.184	0.077
-651.828	791.288	-0.074	-0.204
-650.814	-200.000	0.014	0.115
-649.799	800.000	-0.018	-0.077
-648.784	-104.660	-0.080	-0.019
-647.770	113.679	0.150	-0.182
-646.755	-132.292	0.278	-0.036
-645.741	-169.290	0.233	-0.009
-644.726	16.778	-0.198	0.157
-643.711	-4.570	0.189	0.131
-642.697	800.000	0.106	0.404
-641.682	800.000	0.025	0.099
-640.668	-8.565	-0.049	0.033
-639.653	-200.000	-0.021	-0.232
-638.638	-89.099	-0.175	-0.052
-637.624	-148.886	0.228	0.018
-636.609	155.238	0.233	-0.320
-635.595	52.077	-0.098	0.094
-634.580	231.292	0.067	0.110
-633.565	800.000	-0.063	0.215
-632.551	-200.000	-0.039	-0.323
-631.536	-25.658	0.051	0.030
-630.522	-200.000	0.014	0.194
-629.507	-8.153	-0.172	-0.116
-628.492	-52.267	-0.257	-0.119
-627.478	-101.745	0.125	0.030
-626.463	386.844	0.101	0.209
-625.449	93.924	0.063	0.072
-624.434	-134.228	-0.361	0.044
-623.419	-89.838	0.190	-0.055
-622.405	-72.000	-0.151	0.056
-621.390	-200.000	-0.066	0.306
-620.376	-31.488	0.038	-0.021
-619.361	-99.203	-0.205	-0.052
-618.346	-184.142	0.294	-0.005
-617.332	-70.536	-0.083	0.031
-616.317	-200.000	-0.030	0.276
-615.303	115.119	-0.134	-0.163
-614.288	32.299	0.073	-0.063
-613.273	170.665	-0.029	0.041
-612.259	-56.598	0.176	-0.078
-611.244	-36.821	-0.219	-0.117
-610.230	-58.420	-0.023	-0.010
-609.215	-133.766	0.160	0.020
-608.201	139.937	-0.083	-0.109
-607.186	-200.000	-0.045	0.218
-606.171	169.559	-0.103	0.146
-605.157	-21.234	-0.083	-0.051
-604.142	-200.000	-0.018	-0.358
-603.128	800.000	-0.113	0.329
-602.113	154.561	0.074	0.101
-601.098	-101.009	-0.373	0.091
-600.084	-170.065	0.137	-0.005
-599.069	-200.000	-0.008	-0.079
-598.055	-200.000	-0.021	0.420
-597.040	757.037	-0.101	-0.272
-596.025	744.502	-0.065	0.174
-595.011	-17.104	0.268	0.169
-593.996	192.631	0.129	-0.194
-592.982	-200.000	0.008	-0.169
-591.967	12.628	-0.181	0.140
-590.952	-130.716	-0.495	-0.066
-589.938	-88.591	-0.047	0.014
-588.923	-200.000	-0.011	-0.164
-587.909	-98.944	-0.104	0.026
-586.894	288.391	-0.087	0.157
-585.879	-150.433	0.248	0.019
-584.865	-118.136	-0.085	-0.015
-583.850	-102.209	0.136	0.033
-582.836	189.046	0.061	-0.091
-581.821	-131.278	-0.385	-0.051
-580.806	800.000	-0.050	-0.164
-579.792	800.000	0.067	-0.230
-578.777	-111.601	-0.218	0.044
-577.763	-18.887	0.086	0.053
-576.748	10.037	-0.278	0.211
-575.733	185.080	0.185	-0.274
-574.719	88.223	-0.223	-0.246
-573.704	768.124	0.074	0.200
-572.690	-31.258	0.146	0.082
-571.675	-200.000	-0.015	0.126
-570.661	48.116	-0.189	-0.176
-569.646	-0.240	-0.093	-0.066
-568.631	-91.838	-0.035	0.010
-567.617	-200.000	-0.014	-0.155
-566.602	-93.704	0.200	0.055
-565.588	-59.447	0.088	-0.038
-564.573	96.910	0.139	-0.158
-563.558	459.738	0.070	0.156
-562.544	-163.816	-0.242	0.011
-561.529	122.579	-0.191	-0.237
-560.515	-113.860	-0.161	0.031
-559.500	-105.207	0.219	0.050
-558.485	455.934	-0.042	0.093
-557.471	-73.083	-0.148	0.054
-556.456	-68.647	-0.146	0.056
-555.442	-41.838	-0.194	-0.099
-554.427	2.033	0.102	-0.073
-553.412	486.281	0.086	0.196
-552.398	118.977	0.267	-0.329
-551.383	-79.583	-0.025	0.008
-550.369	-66.178	-0.399	-0.158
-549.354	-151.071	0.343	-0.026
-548.339	-56.306	-0.273	-0.121
-547.325	-179.441	0.447	-0.010
-546.310	266.151	-0.151	-0.262
-545.296	292.803	0.031	-0.056
-544.281	-82.462	0.258	0.083
-543.266	173.750	0.213	-0.305
-542.252	61.406	0.134	-0.133
-541.237	-200.000	-0.011	-0.172
-540.223	-64.632	-0.376	0.152
-539.208	-200.000	-0.016	-0.268
-538.193	170.749	0.168	0.239
-537.179	-135.261	0.091	-0.011
-536.164	-29.765	-0.197	0.112
-535.150	800.000	0.061	-0.260
-534.135	-73.078	0.296	-0.108
-533.121	-141.562	0.023	-0.002
-532.106	53.898	0.257	-0.246
-531.091	-82.789	0.026	0.008
-530.077	-81.134	0.168	0.055
-529.062	403.902	-0.162	-0.340
-528.048	-200.000	0.008	0.187
-527.033	148.042	0.301	0.404
-526.018	-200.000	-0.015	-0.119
-525.004	-200.000	0.011	0.130
-523.989	69.079	0.179	0.183
-522.975	800.000	-0.045	-0.185
-521.960	557.410	-0.099	0.236
-520.945	199.985	-0.116	0.177
-519.931	550.580	-0.098	-0.234
-518.916	-140.985	-0.283	0.029
-517.902	98.314	0.229	0.263
-516.887	-46.834	-0.363	0.177
-515.872	125.185	0.094	0.118
-514.858	236.512	0.124	-0.203
-513.843	-200.000	0.038	0.201
-512.829	-94.653	-0.028	-0.008
-511.814	139.072	-0.174	-0.227
-510.799	66.297	-0.409	-0.413
-509.785	-200.000	-0.025	0.147
-508.770	17.109	0.061	-0.048
-507.756	340.657	0.097	-0.189
-506.741	-200.000	-0.009	-0.090
-505.726	-109.792	0.328	0.069
-504.712	42.720	-0.094	0.085
-503.697	109.640	0.059	-0.071
-502.683	-200.000	-0.016	0.437
-501.668	800.000	-0.105	-0.445
-500.653	104.676	0.207	-0.243
-499.639	146.010	-0.101	-0.135
-498.624	-65.390	0.218	-0.087
-497.610	-200.000	0.002	-0.106
-496.595	-47.358	-0.255	-0.123
-495.581	-200.000	-0.012	0.313
-494.566	267.731	0.191	0.332
-493.551	-148.005	0.176	-0.015
-492.537	-131.752	-0.408	-0.053
-491.522	-46.091	0.079	0.039
-490.508	59.899	0.043	0.042
-489.493	-200.000	0.031	0.328
-488.478	-139.974	0.209	-0.022
-487.464	-187.242	0.318	-0.004
-486.449	-85.911	-0.210	-0.065
-485.435	-94.233	-0.196	0.053
-484.420	54.110	0.173	0.165
-483.405	800.000	-0.054	0.214
-482.391	314.598	-0.059	-0.110
-481.376	800.000	-0.073	-0.242
-480.362	-49.610	-0.219	-0.104
-479.347	260.931	-0.120	0.206
-478.332	-200.000	0.006	-0.136
-477.318	-200.000	-0.073	0.406
-476.303	-117.114	0.392	0.071
-475.289	-43.065	0.314	-0.158
-474.274	-200.000	0.016	0.306
-473.259	40.936	0.198	0.178
-472.245	-200.000	-0.021	-0.254
-471.230	800.000	-0.048	0.191
-470.216	-62.568	0.081	-0.033
-469.201	800.000	0.064	0.261
-468.186	465.930	-0.161	0.357
-467.172	800.000	0.079	-0.328
-466.157	12.849	-0.313	-0.240
-465.143	-200.000	0.014	-0.187
-464.128	-89.153	-0.246	-0.072
-463.113	-200.000	0.012	0.054
-462.099	800.000	0.066	-0.185
-461.084	-6.988	-0.382	-0.258
-460.070	-24.866	-0.050	0.030
-459.055	-200.000	-0.049	0.416
-458.040	548.215	-0.098	0.233
-457.026	-23.037	0.113	-0.068
-456.011	49.240	-0.180	-0.168
-454.997	30.477	-0.178	-0.150
-453.982	-200.000	-0.054	-0.262
-452.968	188.913	0.265	-0.394
-451.953	-85.489	-0.657	-0.203
-450.938	800.000	0.070	-0.215
-449.924	-120.347	0.160	0.027
-448.909	-139.406	0.107	-0.011
-447.895	71.596	-0.275	0.283
-446.880	-152.388	-0.239	0.017
-445.865	40.840	0.059	-0.053
-444.851	-54.213	0.278	0.125
-443.836	313.422	-0.025	0.047
-442.822	-200.000	-0.064	-0.304
-441.807	-200.000	0.049	0.306
-440.792	-14.825	0.084	0.054
-439.778	127.675	0.072	0.091
-438.763	-96.587	-0.120	-0.031
-437.749	219.674	0.126	0.200
-436.734	-6.475	0.259	-0.175
-435.719	-137.967	-0.132	0.015
-434.705	-75.266	-0.077	-0.027
-433.690	-53.989	0.177	0.080
-432.676	-94.551	-0.301	0.081
-431.661	-200.000	0.009	0.200
-430.646	89.006	-0.170	-0.187
-429.632	-112.636	-0.195	0.038
-428.617	-200.000	0.020	-0.313
-427.603	-11.840	-0.140	0.091
-426.588	-200.000	-0.010	0.070
-425.573	-41.344	-0.185	-0.094
-424.559	163.661	-0.168	0.234
-423.544	275.938	-0.126	-0.222
-422.530	-200.000	-0.020	0.295
-421.515	-87.914	0.258	0.077
-420.500	69.049	-0.283	-0.288
-419.486	5.383	0.299	-0.218
-418.471	5.447	0.162	0.118
-417.457	-200.000	0.031	0.155
-416.442	800.000	-0.015	-0.042
-415.428	153.635	-0.054	-0.073
-414.413	190.190	0.109	0.162
-413.398	432.514	-0.111	-0.239
-412.384	656.594	0.139	0.354
-411.369	-8.895	0.481	0.319
-410.355	-200.000	-0.006	0.282
-409.340	215.892	-0.109	-0.172
-408.325	-200.000	0.038	-0.211
-407.311	-200.000	0.019	-0.376
-406.296	-184.395	0.083	0.001
-405.282	-62.936	0.152	0.062
-404.267	-78.599	-0.261	-0.088
-403.252	-175.659	0.121	-0.003
-402.238	-70.662	-0.291	0.109
-401.223	60.391	-0.103	-0.101
-400.209	-2.496	-0.521	-0.361
-399.194	-113.995	-0.124	-0.024
-398.179	-72.590	-0.260	-0.095
-397.165	800.000	0.104	0.339
-396.150	-66.388	-0.194	0.076
-395.136	96.871	-0.129	0.146
-394.121	-200.000	-0.037	-0.267
-393.106	-53.960	0.153	-0.069
-392.092	-200.000	-0.016	0.115
-391.077	-200.000	-0.012	-0.358
-390.063	53.644	-0.138	-0.131
-389.048	-200.000	0.011	-0.084
-388.033	418.025	-0.109	-0.230
-387.019	-31.843	0.172	-0.095
-386.004	800.000	-0.068	-0.293
-384.990	-132.745	-0.149	-0.019
-383.975	-60.034	0.329	0.139
-382.960	-0.511	-0.250	-0.176
-381.946	-200.000	0.006	-0.161
-380.931	108.564	-0.177	0.208
-379.917	774.231	-0.073	0.197
-378.902	-200.000	-0.049	-0.354
-377.888	144.095	0.093	0.123
-376.873	-200.000	-0.002	0.112
-375.858	-21.827	0.166	-0.100
-374.844	343.492	-0.093	-0.180
-373.829	-93.641	-0.095	-0.026
-372.815	371.857	-0.079	-0.159
-371.800	-35.212	-0.210	-0.113
-370.785	-200.000	0.019	-0.176
-369.771	-26.872	0.224	0.129
-368.756	23.041	-0.042	0.034
-367.742	277.655	0.132	0.233
-366.727	-135.386	-0.122	-0.014
-365.712	-163.512	-0.092	-0.004
-364.698	367.094	-0.146	-0.292
-363.683	509.653	0.023	-0.053
-362.669	-51.039	-0.287	0.133
-361.654	-76.041	0.278	-0.097
-360.639	-22.401	0.182	0.109
-359.625	-78.684	-0.146	0.049
-358.610	-8.177	-0.172	-0.114
-357.596	-12.735	0.063	0.041
-356.581	24.850	0.158	0.130
-355.566	-165.960	-0.348	0.015
-354.552	-28.089	0.282	0.161
-353.537	-200.000	0.019	0.388
-352.523	-200.000	0.014	0.166
-351.508	-67.149	-0.098	0.038
-350.493	34.450	-0.187	-0.161
-349.479	15.859	-0.235	-0.183
-348.464	-200.000	0.013	0.194
-347.450	-78.275	0.105	-0.035
-346.435	68.833	-0.331	-0.335
-345.420	-69.273	0.453	-0.172
-344.406	-200.000	0.027	-0.175
-343.391	-62.956	0.111	-0.045
-342.377	-115.684	0.199	-0.037
-341.362	-3.585	-0.220	0.151
-340.348	-123.842	0.330	-0.051
-339.333	-200.000	0.014	-0.224
-338.318	800.000	0.016	0.060
-337.304	-133.555	-0.134	-0.017
-336.289	-200.000	-0.012	-0.136
-335.275	257.209	-0.069	0.117
-334.260	-180.409	0.442	0.009
-333.245	492.975	-0.041	0.093
-332.231	-200.000	-0.017	-0.109
-331.216	-40.537	-0.115	0.059
-330.202	251.334	-0.040	0.067
-329.187	331.851	-0.038	0.072
-328.172	766.272	0.068	0.182
-327.158	-108.337	0.294	-0.063
-326.143	-90.246	-0.260	0.075
-325.129	68.848	0.128	-0.130
-324.114	-39.336	-0.388	0.201
-323.099	-113.533	0.119	-0.023
-322.085	34.631	-0.073	-0.063
-321.070	-200.000	0.024	0.260
-320.056	-3.479	-0.134	0.092
-319.041	-21.848	0.229	0.137
-318.026	153.339	0.025	-0.033
-317.012	-41.017	0.411	-0.209
-315.997	-7.215	-0.200	0.134
-314.983	24.695	-0.100	0.082
-313.968	-154.683	-0.154	0.010
-312.953	79.829	0.069	0.073
-311.939	-200.000	-0.023	0.216
-310.924	-200.000	0.006	-0.246
-309.910	105.539	0.061	-0.071
-308.895	-200.000	-0.022	0.207
-307.880	-47.164	0.262	0.126
-306.866	-200.000	-0.024	-0.120
-305.851	139.489	0.151	-0.195
-304.837	800.000	-0.071	-0.264
-303.822	279.521	-0.264	-0.465
-302.807	-200.000	-0.002	-0.136
-301.793	-200.000	-0.010	0.208
-300.778	-133.279	0.115	0.014
-299.764	54.967	-0.154	0.146
-298.749	-200.000	0.016	-0.081
-297.735	504.343	-0.126	-0.287
-296.720	-200.000	0.031	0.294
-295.705	36.612	-0.080	-0.070
-294.691	-200.000	-0.015	0.081
-293.676	-135.129	0.271	0.032
-292.662	52.741	-0.100	0.094
-291.647	10.289	-0.188	0.141
-290.632	58.858	0.281	-0.272
-289.618	13.824	0.213	0.163
-288.603	-188.082	0.330	0.004
-287.589	188.594	0.138	0.203
-286.574	-10.484	-0.248	-0.162
-285.559	359.297	0.096	-0.188
-284.545	117.402	0.245	-0.297
-283.530	142.494	0.129	0.169
-282.516	-200.000	0.065	0.291
-281.501	-75.906	-0.037	-0.013
-280.486	14.289	-0.296	-0.227
-279.472	132.199	0.217	-0.275
-278.457	-68.602	-0.069	0.026
-277.443	-93.420	-0.178	0.049
-276.428	89.389	-0.044	-0.048
-275.413	800.000	0.068	-0.284
-274.399	65.791	0.248	0.248
-273.384	-83.972	-0.253	-0.079
-272.370	-200.000	0.006	-0.103
-271.355	-59.988	0.168	-0.071
-270.340	105.358	-0.022	0.025
-269.326	800.000	0.011	0.031
-268.311	-135.299	0.402	0.047
-267.297	62.071	0.277	0.272
-266.282	-192.783	-0.183	0.002
-265.267	-44.728	-0.181	-0.089
-264.253	62.114	-0.107	-0.105
-263.238	112.180	0.188	-0.223
-262.224	-200.000	0.006	-0.285
-261.209	-97.585	0.288	-0.073
-260.195	800.000	0.018	-0.055
-259.180	8.903	0.417	-0.310
-258.165	-82.132	-0.269	-0.086
-257.151	123.730	-0.108	-0.134
-256.136	-86.004	0.143	0.043
-255.122	75.811	-0.089	0.093
-254.107	-5.617	-0.124	0.083
-253.092	700.615	0.142	0.368
-252.078	800.000	-0.053	0.146
-251.063	-71.410	-0.112	0.041
-250.049	-132.607	0.182	0.023
-249.034	-41.687	-0.147	0.074
-248.019	-174.620	-0.043	0.001
-247.005	-110.675	0.055	0.011
-245.990	-35.951	0.187	0.099
-244.976	114.867	-0.118	0.142
-243.961	-200.000	-0.037	0.241
-242.946	120.641	0.119	-0.145
-241.932	108.294	0.159	-0.186
-240.917	800.000	0.048	-0.152
-239.903	220.447	-0.120	0.189
-238.888	-12.551	0.143	0.092
-237.873	-77.261	-0.150	-0.051
-236.859	92.981	0.083	-0.092
-235.844	106.598	0.311	0.363
-234.830	40.647	0.200	0.177
-233.815	-51.442	0.023	0.011
-232.800	487.754	-0.052	0.117
-231.786	588.213	0.081	0.196
-230.771	8.374	0.094	0.069
-229.757	387.850	0.134	0.273
-228.742	-113.510	-0.107	0.021
-227.727	326.805	-0.106	0.200
-226.713	-65.624	0.452	0.178
-225.698	61.714	0.292	0.286
-224.684	-83.992	-0.153	0.048
-223.669	31.970	0.155	0.132
-222.655	286.928	0.040	0.071
-221.640	-36.905	0.089	0.047
-220.625	121.172	-0.090	0.110
-219.611	-200.000	0.018	-0.119
-218.596	-200.000	0.032	0.267
-217.582	-200.000	0.017	0.093
-216.567	-200.000	-0.004	0.110
-215.552	-200.000	-0.000	0.127
-214.538	-26.222	0.192	-0.111
-213.523	-161.737	-0.252	-0.013
-212.509	45.476	0.255	0.232
-211.494	-69.062	0.237	0.090
-210.479	123.289	-0.070	0.086
-209.465	402.819	0.108	0.224
-208.450	-140.717	0.045	-0.005
-207.436	-127.929	-0.098	0.014
-206.421	-54.431	0.087	0.039
-205.406	41.933	-0.131	0.116
-204.392	-200.000	0.033	-0.380
-203.377	-200.000	-0.023	-0.263
-202.363	-200.000	0.025	0.183
-201.348	-74.964	-0.213	-0.075
-200.333	-200.000	0.033	0.316
-199.319	119.460	0.181	-0.220
-198.304	-32.997	0.140	0.076
-197.290	-182.482	-0.402	-0.007
-196.275	800.000	-0.085	-0.339
-195.260	800.000	-0.029	-0.090
-194.246	779.389	0.129	-0.347
-193.231	718.739	0.064	-0.168
-192.217	-200.000	0.001	0.081
-191.202	-200.000	0.011	-0.123
-190.187	-61.617	-0.321	0.132
-189.173	-5.038	0.206	0.139
-188.158	577.901	0.187	0.449
-187.144	-73.288	0.093	-0.033
-186.129	196.090	0.164	0.245
-185.114	-109.053	0.333	0.070
-184.100	395.096	-0.084	0.171
-183.085	-200.000	0.016	-0.086
-182.071	60.500	-0.119	0.116
-181.056	294.115	0.098	-0.176
-180.042	593.305	-0.096	-0.233
-179.027	-79.523	0.073	-0.024
-178.012	493.342	-0.090	-0.203
-176.998	623.683	-0.050	-0.125
-175.983	-33.919	-0.140	-0.076
-174.969	-45.992	-0.129	-0.062
-173.954	604.346	0.123	0.300
-172.939	-64.521	-0.297	0.118
-171.925	125.483	-0.249	0.308
-170.910	-200.000	-0.021	0.158
-169.896	-200.000	0.004	-0.138
-168.881	-91.969	0.258	0.072
-167.866	-190.893	0.046	0.000
-166.852	-48.379	-0.153	0.072
-165.837	469.627	-0.047	0.103
-164.823	-67.944	-0.319	0.122
-163.808	-153.065	-0.146	-0.010
-162.793	800.000	-0.023	0.065
-161.779	158.744	0.164	0.224
-160.764	-126.916	-0.107	0.015
-159.750	9.360	0.040	-0.029
-158.735	-200.000	0.009	-0.132
-157.720	-75.596	-0.241	-0.084
-156.706	-56.575	0.481	0.209
-155.691	-145.957	0.311	-0.027
-154.677	-200.000	-0.005	-0.039
-153.662	123.028	-0.077	-0.094
-152.647	-200.000	0.079	-0.390
-151.633	787.233	-0.025	-0.066
-150.618	-79.373	0.476	0.158
-149.604	-15.032	-0.409	0.257
-148.589	-200.000	0.021	-0.107
-147.574	360.503	0.048	0.095
-146.560	-200.000	0.037	-0.231
-145.545	-110.217	0.206	0.042
-144.531	-52.141	0.458	-0.208
-143.516	44.847	0.242	-0.219
-142.502	800.000	-0.035	0.147
-141.487	195.439	0.158	-0.235
-140.472	-20.347	-0.127	-0.077
-139.458	800.000	-0.073	0.238
-138.443	-32.971	-0.106	-0.058
-137.429	150.959	0.205	0.274
-136.414	-44.261	0.325	-0.160
-135.399	-50.980	0.291	-0.134
-134.385	169.817	0.110	0.154
-133.370	-100.231	0.168	0.041
-132.356	-101.499	-0.179	0.043
-131.341	89.364	-0.196	0.214
-130.326	-200.000	0.005	-0.077
-129.312	-64.589	-0.028	0.011
-128.297	-126.896	0.238	-0.034
-127.283	-200.000	-0.059	-0.261
-126.268	800.000	0.117	-0.442
-125.253	-200.000	-0.008	0.071
-124.239	205.807	-0.103	0.157
-123.224	313.886	-0.054	0.099
-122.210	-99.820	0.242	0.059
