DTS Sentinel unit serial number:	SN413079Multiplexer serial number:	ORYXHardware model number:	OX4-SRSoftware version number:	ORYX F/W v4.00 Oryx Data Collector v3.7.2.0data status	okinstallation	princeton_trtdifferential loss correction	single-endedforward channel	channel 3reverse channel	N/Adate	2019/09/15time	20:16:35forward acquisition time	60.00reverse acquisition time	0.00gamma	496.2192k internal	0.2319k external	0.2319temperature offset calibration	0.9941default loss term (dB/km)	0.3790temperature slope calibration	1.0000multiplexer offset coefficient	1.0000multiplexer slope coefficient	1.0000fibre end	0.00T internal ref (°C)	34.39T ext. ref 1 (°C)	7.69T ext. ref 2 (°C)	25.60length (m)	temperature (°C)	Stokes	anti-Stokes-747.200	800.000	-0.048	0.148
-746.185	-200.000	0.077	0.392
-745.171	-116.144	0.108	0.020
-744.156	193.443	-0.147	0.225
-743.142	243.975	0.146	-0.248
-742.127	553.740	-0.103	0.251
-741.112	155.342	0.281	0.392
-740.098	-200.000	-0.039	0.245
-739.083	-200.000	-0.074	-0.344
-738.069	-88.105	-0.166	0.050
-737.054	800.000	0.076	0.221
-736.039	174.782	-0.112	-0.164
-735.025	-99.485	0.190	0.048
-734.010	-200.000	-0.011	-0.071
-732.996	-200.000	0.034	-0.472
-731.981	166.874	0.188	0.269
-730.966	-32.121	-0.198	0.112
-729.952	26.320	-0.165	-0.139
-728.937	-27.908	-0.164	0.096
-727.923	323.075	-0.082	0.158
-726.908	28.828	-0.082	0.071
-725.894	-200.000	0.002	0.190
-724.879	800.000	-0.091	-0.329
-723.864	-86.920	0.134	0.041
-722.850	-82.197	0.159	0.052
-721.835	800.000	0.120	-0.351
-720.821	442.579	0.130	-0.288
-719.806	540.840	0.075	0.181
-718.791	22.346	0.175	0.145
-717.777	420.916	0.040	0.086
-716.762	-200.000	-0.019	0.179
-715.748	14.950	0.231	0.183
-714.733	800.000	-0.106	-0.304
-713.718	383.396	0.052	0.107
-712.704	-150.074	-0.203	0.016
-711.689	-200.000	-0.030	-0.203
-710.675	-90.335	0.398	-0.117
-709.660	-37.820	0.084	0.045
-708.645	-200.000	-0.048	0.383
-707.631	-16.327	-0.212	-0.136
-706.616	525.011	0.061	-0.145
-705.602	127.026	-0.172	-0.220
-704.587	1.100	0.230	0.167
-703.572	115.096	-0.170	0.210
-702.558	271.504	-0.093	-0.166
-701.543	5.897	0.130	-0.097
-700.529	91.871	0.046	-0.053
-699.514	-48.116	-0.240	-0.117
-698.499	461.354	0.049	0.111
-697.485	139.912	-0.212	-0.282
-696.470	72.674	0.084	0.089
-695.456	-200.000	0.014	-0.115
-694.441	16.868	-0.217	0.174
-693.426	-13.755	-0.160	0.104
-692.412	349.066	0.091	-0.181
-691.397	-200.000	-0.024	-0.154
-690.383	695.974	0.102	0.271
-689.368	182.251	0.016	-0.023
-688.354	19.725	-0.110	0.089
-687.339	-200.000	0.003	-0.568
-686.324	563.353	0.140	0.342
-685.310	30.945	0.182	-0.157
-684.295	402.475	-0.050	0.107
-683.281	-71.805	-0.169	0.064
-682.266	75.970	-0.258	-0.275
-681.251	-200.000	-0.032	0.252
-680.237	83.850	0.160	-0.176
-679.222	345.793	0.129	0.255
-678.208	144.008	0.101	0.137
-677.193	-200.000	-0.128	-0.575
-676.178	-32.665	-0.189	-0.106
-675.164	219.304	-0.059	-0.095
-674.149	106.613	0.220	-0.263
-673.135	71.563	-0.133	-0.139
-672.120	148.798	-0.089	0.122
-671.105	-200.000	0.082	0.462
-670.091	-140.110	-0.317	0.034
-669.076	-200.000	-0.012	-0.327
-668.062	38.554	-0.143	0.128
-667.047	-123.439	-0.337	0.054
-666.032	342.153	-0.053	0.105
-665.018	-112.860	-0.063	0.013
-664.003	-2.874	0.113	-0.079
-662.989	229.622	0.253	0.418
-661.974	-69.624	-0.365	0.141
-660.959	402.453	0.153	0.324
-659.945	-67.872	-0.339	0.133
-658.930	-200.000	-0.020	-0.348
-657.916	800.000	-0.074	0.232
-656.901	13.417	-0.212	-0.165
-655.886	-60.832	-0.077	-0.033
-654.872	-92.034	-0.117	0.033
-653.857	205.172	-0.103	-0.161
-652.843	81.514	-0.146	0.159
-651.828	800.000	-0.112	0.334
-650.814	345.477	-0.066	-0.131
-649.799	-200.000	-0.036	-0.228
-648.784	-87.724	-0.170	-0.052
-647.770	-168.195	-0.514	0.020
-646.755	32.933	-0.121	0.105
-645.741	-155.860	-0.207	-0.013
-644.726	232.950	0.091	0.151
-643.711	-200.000	-0.013	0.117
-642.697	-32.169	0.100	-0.056
-641.682	151.049	0.104	-0.143
-640.668	-200.000	-0.005	-0.098
-639.653	437.885	0.058	-0.128
-638.638	92.958	0.259	-0.294
-637.624	-200.000	0.018	0.149
-636.609	-161.421	0.092	0.005
-635.595	-53.893	0.525	0.241
-634.580	-77.570	-0.098	0.034
-633.565	745.742	-0.120	-0.327
-632.551	-29.832	0.352	-0.202
-631.536	-120.558	0.226	0.039
-630.522	-200.000	0.032	0.337
-629.507	86.576	0.105	0.117
-628.492	-95.899	0.170	0.046
-627.478	-164.336	0.275	-0.013
-626.463	-92.421	0.408	-0.115
-625.449	5.002	0.185	0.137
-624.434	55.666	0.213	0.208
-623.419	-65.992	0.187	0.075
-622.405	-113.891	0.217	-0.043
-621.390	-70.040	0.168	0.065
-620.376	-32.168	0.040	-0.023
-619.361	-176.783	-0.368	0.009
-618.346	-151.966	-0.188	0.014
-617.332	336.445	-0.067	-0.131
-616.317	668.875	-0.040	0.105
-615.303	-95.318	-0.137	-0.037
-614.288	-67.896	-0.073	0.029
-613.273	-32.052	-0.094	-0.053
-612.259	482.933	-0.026	-0.059
-611.244	45.362	-0.084	0.078
-610.230	105.975	0.270	0.321
-609.215	-60.930	-0.123	-0.052
-608.201	-45.978	0.200	-0.099
-607.186	-200.000	-0.028	-0.223
-606.171	-61.478	-0.373	-0.158
-605.157	800.000	-0.080	0.351
-604.142	105.999	0.191	0.227
-603.128	631.860	-0.103	0.262
-602.113	-101.714	0.016	-0.004
-601.098	-146.337	0.051	0.005
-600.084	370.343	-0.026	0.054
-599.069	535.585	-0.149	0.356
-598.055	-199.788	-0.428	-0.002
-597.040	800.000	-0.061	-0.243
-596.025	335.493	-0.032	-0.062
-595.011	211.090	-0.132	0.209
-593.996	27.937	-0.184	-0.156
-592.982	74.604	0.224	0.237
-591.967	-200.000	-0.033	0.262
-590.952	224.829	-0.078	0.127
-589.938	460.920	-0.136	-0.305
-588.923	393.245	0.068	0.143
-587.909	800.000	-0.086	0.266
-586.894	307.383	-0.018	-0.034
-585.879	-200.000	-0.018	0.346
-584.865	797.585	0.030	0.083
-583.850	-116.465	0.327	-0.061
-582.836	800.000	-0.064	0.220
-581.821	-2.671	-0.048	-0.034
-580.806	-160.539	-0.156	-0.008
-579.792	143.156	-0.184	0.246
-578.777	-126.325	0.316	-0.047
-577.763	84.441	-0.027	-0.029
-576.748	108.514	-0.058	-0.070
-575.733	174.612	-0.162	0.235
-574.719	-200.000	0.094	0.466
-573.704	132.887	0.114	-0.148
-572.690	-200.000	0.040	0.261
-571.675	770.457	0.065	-0.178
-570.661	-82.394	-0.159	0.052
-569.646	255.957	-0.040	-0.068
-568.631	134.886	0.181	-0.236
-567.617	-83.342	0.163	-0.053
-566.602	-200.000	-0.054	0.284
-565.588	800.000	0.057	-0.184
-564.573	131.476	0.128	-0.165
-563.558	-79.431	0.129	-0.044
-562.544	-1.786	-0.167	-0.118
-561.529	-178.410	0.195	-0.005
-560.515	-154.524	0.085	-0.006
-559.500	800.000	0.015	-0.049
-558.485	-83.829	0.170	0.054
-557.471	-200.000	0.030	-0.180
-556.456	266.584	-0.066	-0.115
-555.442	8.378	0.266	-0.201
-554.427	85.788	-0.094	-0.104
-553.412	-200.000	-0.075	0.532
-552.398	-121.678	0.329	-0.055
-551.383	-200.000	0.033	-0.211
-550.369	205.825	-0.144	0.224
-549.354	-65.876	-0.354	-0.142
-548.339	800.000	-0.034	-0.110
-547.325	-200.000	-0.042	0.202
-546.310	345.921	0.114	0.226
-545.296	-83.278	-0.323	0.104
-544.281	-35.047	-0.105	-0.057
-543.266	-200.000	0.052	-0.312
-542.252	-167.828	0.291	0.011
-541.237	475.943	-0.095	-0.216
-540.223	-172.465	-0.333	-0.011
-539.208	-200.000	-0.002	0.091
-538.193	125.583	0.133	-0.168
-537.179	-121.383	-0.289	0.048
-536.164	260.658	-0.068	-0.118
-535.150	449.827	-0.085	0.189
-534.135	-76.743	0.214	-0.075
-533.121	334.869	0.026	-0.051
-532.106	203.952	0.053	-0.082
-531.091	611.544	0.017	0.043
-530.077	-197.796	-0.306	-0.002
-529.062	-29.432	-0.251	-0.144
-528.048	187.369	0.061	0.091
-527.033	-48.710	0.161	0.078
-526.018	-200.000	-0.009	0.217
-525.004	-76.862	0.211	-0.074
-523.989	28.197	-0.258	-0.219
-522.975	354.668	-0.074	0.148
-521.960	212.535	0.159	0.252
-520.945	-38.539	0.284	0.151
-519.931	-146.324	0.031	-0.003
-518.916	-172.946	-0.288	0.009
-517.902	-90.729	-0.095	-0.028
-516.887	51.510	-0.170	-0.162
-515.872	-130.411	0.264	-0.036
-514.858	-200.000	-0.043	-0.299
-513.843	800.000	0.027	-0.094
-512.829	217.221	0.109	0.174
-511.814	31.468	-0.256	0.220
-510.799	-33.320	-0.147	-0.082
-509.785	-200.000	-0.011	-0.296
-508.770	-177.155	0.307	-0.008
-507.756	800.000	-0.036	0.120
-506.741	95.137	-0.099	-0.114
-505.726	233.861	-0.122	0.201
-504.712	-1.548	0.136	0.096
-503.697	-106.757	-0.170	-0.038
-502.683	-34.257	0.033	0.018
-501.668	325.093	-0.096	-0.184
-500.653	521.419	0.013	0.030
-499.639	43.111	0.110	-0.100
-498.624	202.128	-0.051	-0.079
-497.610	60.708	-0.186	-0.184
-496.595	201.536	-0.079	0.122
-495.581	-74.637	0.167	-0.060
-494.566	-96.190	-0.461	-0.122
-493.551	-78.551	-0.212	-0.073
-492.537	800.000	0.024	-0.093
-491.522	-54.214	0.211	0.096
-490.508	800.000	-0.035	0.102
-489.493	-123.147	0.403	0.065
-488.478	-176.301	0.197	-0.005
-487.464	144.982	0.188	0.252
-486.449	188.961	-0.148	-0.222
-485.435	-54.362	0.431	0.196
-484.420	8.062	-0.266	0.200
-483.405	-200.000	0.012	-0.122
-482.391	-200.000	0.014	0.077
-481.376	387.746	-0.216	-0.447
-480.362	-109.337	-0.172	-0.037
-479.347	6.390	-0.218	-0.162
-478.332	-45.487	0.052	0.026
-477.318	-72.915	-0.227	-0.084
-476.303	15.469	-0.340	-0.268
-475.289	9.323	0.114	-0.087
-474.274	800.000	0.127	0.389
-473.259	-28.035	0.332	0.192
-472.245	153.880	0.108	0.148
-471.230	275.811	0.074	0.131
-470.216	800.000	0.042	0.178
-469.201	-97.184	-0.168	0.044
-468.186	-87.402	0.217	-0.066
-467.172	-105.827	-0.174	-0.039
-466.157	-200.000	-0.067	-0.574
-465.143	414.853	-0.090	-0.193
-464.128	64.798	-0.234	0.237
-463.113	-28.166	0.196	-0.113
-462.099	800.000	0.057	0.251
-461.084	-116.825	-0.035	0.006
-460.070	-36.954	0.344	-0.185
-459.055	237.746	-0.114	0.190
-458.040	800.000	-0.057	0.223
-457.026	-134.079	-0.164	-0.020
-456.011	-64.409	0.143	0.058
-454.997	83.638	-0.099	-0.108
-453.982	-18.693	-0.355	0.221
-452.968	-200.000	-0.053	-0.345
-451.953	-51.248	-0.406	-0.190
-450.938	800.000	0.080	-0.247
-449.924	-169.192	0.175	-0.006
-448.909	23.578	-0.164	-0.135
-447.895	-200.000	0.007	-0.172
-446.880	-47.735	-0.599	0.290
-445.865	800.000	0.039	0.115
-444.851	-200.000	0.001	0.204
-443.836	-55.622	-0.109	0.049
-442.822	105.771	0.233	-0.275
-441.807	-3.919	0.199	-0.138
-440.792	-91.751	0.246	-0.070
-439.778	-143.877	0.307	0.029
-438.763	767.685	-0.153	0.415
-437.749	-200.000	0.027	0.287
-436.734	-67.298	-0.211	-0.083
-435.719	-200.000	-0.021	-0.153
-434.705	222.373	-0.095	0.153
-433.690	-86.689	-0.216	0.066
-432.676	331.945	0.196	-0.379
-431.661	-141.178	0.344	-0.035
-430.646	-170.717	0.213	0.007
-429.632	-88.047	-0.243	0.073
-428.617	170.726	-0.086	0.123
-427.603	-168.099	-0.058	0.002
-426.588	483.383	-0.165	0.375
-425.573	7.384	0.101	-0.075
-424.559	800.000	0.076	0.292
-423.544	13.503	-0.124	-0.096
-422.530	-99.756	-0.118	0.029
-421.515	800.000	-0.068	0.232
-420.500	800.000	0.047	0.172
-419.486	-3.853	0.090	-0.062
-418.471	20.253	0.125	-0.100
-417.457	129.901	-0.081	0.103
-416.442	37.120	0.207	0.183
-415.428	-200.000	0.011	0.066
-414.413	134.632	-0.118	0.153
-413.398	-67.627	0.236	0.092
-412.384	-31.605	0.196	0.110
-411.369	-84.336	-0.139	-0.044
-410.355	-200.000	0.011	-0.269
-409.340	108.574	0.065	0.077
-408.325	-186.562	0.256	-0.004
-407.311	-84.292	0.174	0.055
-406.296	-200.000	-0.076	-0.363
-405.282	-132.544	0.309	0.040
-404.267	3.282	0.244	-0.178
-403.252	-40.292	0.055	0.029
-402.238	-48.522	0.173	-0.083
-401.223	47.340	-0.180	-0.167
-400.209	74.290	-0.157	-0.165
-399.194	149.689	-0.169	-0.229
-398.179	-27.068	0.256	0.149
-397.165	800.000	0.110	0.394
-396.150	-200.000	-0.017	0.089
-395.136	-74.566	0.286	0.103
-394.121	-27.959	-0.093	-0.054
-393.106	-26.643	0.216	-0.126
-392.092	2.427	0.234	0.169
-391.077	800.000	0.040	-0.130
-390.063	-200.000	-0.081	0.440
-389.048	800.000	-0.011	0.033
-388.033	136.975	-0.100	-0.130
-387.019	184.480	0.179	-0.264
-386.004	327.393	0.261	-0.499
-384.990	30.125	0.192	-0.163
-383.975	-142.825	0.320	-0.031
-382.960	-23.224	-0.190	-0.114
-381.946	6.781	-0.194	-0.144
-380.931	-51.584	-0.237	-0.110
-379.917	-109.495	-0.032	-0.007
-378.902	566.231	-0.112	0.270
-377.888	59.242	0.078	-0.076
-376.873	289.736	-0.165	0.299
-375.858	-122.932	0.126	-0.020
-374.844	-61.981	0.076	-0.032
-373.829	800.000	0.136	0.389
-372.815	-200.000	0.037	0.237
-371.800	-135.329	0.260	-0.031
-370.785	-97.799	0.210	-0.054
-369.771	-27.521	0.276	-0.160
-368.756	156.326	0.120	-0.165
-367.742	-112.729	-0.265	0.052
-366.727	270.583	-0.109	-0.191
-365.712	91.978	-0.115	-0.129
-364.698	-6.527	-0.078	-0.053
-363.683	-44.192	0.206	-0.103
-362.669	-200.000	0.018	-0.183
-361.654	104.624	-0.185	-0.217
-360.639	124.392	0.008	0.010
-359.625	323.403	0.219	-0.416
-358.610	526.825	-0.086	0.201
-357.596	-16.515	0.078	-0.049
-356.581	-200.000	0.022	0.195
-355.566	33.369	0.208	0.180
-354.552	-39.078	-0.095	0.050
-353.537	800.000	0.093	-0.276
-352.523	22.984	0.213	0.174
-351.508	-79.541	0.228	0.077
-350.493	-16.974	-0.195	0.122
-349.479	409.087	-0.196	0.413
-348.464	220.470	-0.217	-0.347
-347.450	-200.000	-0.013	0.100
-346.435	800.000	-0.099	-0.334
-345.420	-24.546	0.116	-0.069
-344.406	-200.000	0.012	-0.088
-343.391	-93.838	-0.211	0.058
-342.377	-200.000	-0.004	0.166
-341.362	800.000	0.073	-0.251
-340.348	-129.899	0.055	0.007
-339.333	385.351	0.200	-0.411
-338.318	20.957	-0.080	0.064
-337.304	800.000	-0.099	0.331
-336.289	-0.654	-0.192	0.136
-335.275	-90.853	0.112	-0.032
-334.260	-125.173	-0.082	0.013
-333.245	-123.290	-0.398	-0.063
-332.231	758.722	-0.081	-0.218
-331.216	-33.874	0.110	0.061
-330.202	-47.705	-0.027	-0.013
-329.187	-40.289	-0.091	0.047
-328.172	-109.225	0.150	0.032
-327.158	189.394	-0.211	0.315
-326.143	84.057	0.298	-0.324
-325.129	-200.000	-0.005	0.089
-324.114	-200.000	-0.010	0.296
-323.099	182.606	-0.151	-0.221
-322.085	-132.456	0.235	-0.030
-321.070	48.250	0.081	0.075
-320.056	-200.000	0.023	0.145
-319.041	-61.770	0.205	0.085
-318.026	-200.000	0.019	0.123
-317.012	144.480	0.154	0.205
-315.997	-95.283	-0.180	0.048
-314.983	-200.000	0.030	-0.229
-313.968	-180.730	0.324	0.007
-312.953	249.064	-0.082	-0.139
-311.939	-54.858	-0.150	-0.067
-310.924	-101.081	0.058	-0.014
-309.910	-152.927	-0.248	-0.017
-308.895	78.550	-0.180	-0.191
-307.880	268.621	0.109	0.190
-306.866	-98.384	-0.202	-0.051
-305.851	51.490	0.049	0.046
-304.837	89.741	0.082	-0.091
-303.822	-61.947	0.207	0.086
-302.807	260.817	-0.101	-0.173
-301.793	17.685	0.075	0.060
-300.778	367.023	0.078	-0.156
-299.764	39.665	-0.146	0.130
-298.749	-200.000	-0.023	0.216
-297.735	138.565	0.081	-0.106
-296.720	559.635	-0.079	-0.190
-295.705	10.325	0.238	0.180
-294.691	33.168	-0.068	0.059
-293.676	-200.000	-0.010	0.121
-292.662	800.000	-0.126	0.488
-291.647	-53.822	0.047	0.021
-290.632	17.612	0.207	-0.164
-289.618	6.996	-0.184	-0.136
-288.603	34.872	0.250	-0.217
-287.589	-168.930	-0.248	0.009
-286.574	139.972	0.164	-0.215
-285.559	-83.769	0.212	-0.067
-284.545	356.602	0.093	0.184
-283.530	-0.221	-0.149	-0.105
-282.516	-200.000	-0.050	0.221
-281.501	-200.000	0.054	-0.282
-280.486	58.890	-0.036	0.035
-279.472	-19.717	0.295	-0.181
-278.457	-85.651	0.151	0.047
-277.443	56.570	-0.084	-0.081
-276.428	92.715	-0.271	-0.303
-275.413	-93.131	0.375	-0.104
-274.399	-39.356	-0.291	-0.152
-273.384	-200.000	-0.000	-0.255
-272.370	238.057	-0.156	0.258
-271.355	439.301	-0.148	-0.321
-270.340	-200.000	0.007	0.077
-269.326	-200.000	0.044	0.292
-268.311	-41.293	-0.143	0.073
-267.297	600.085	-0.036	0.088
-266.282	57.883	-0.271	-0.264
-265.267	-11.307	-0.076	0.049
-264.253	-200.000	0.053	-0.257
-263.238	-137.807	-0.194	-0.022
-262.224	-200.000	-0.010	0.255
-261.209	-195.273	-0.226	0.002
-260.195	-48.264	-0.197	0.094
-259.180	-200.000	0.043	-0.276
-258.165	-31.282	-0.393	-0.220
-257.151	-200.000	-0.010	-0.141
-256.136	61.176	-0.080	0.079
-255.122	-27.397	0.318	0.184
-254.107	-13.547	-0.205	0.132
-253.092	-200.000	-0.002	0.031
-252.078	2.201	-0.049	0.035
-251.063	-0.798	0.149	0.105
-250.049	800.000	-0.055	-0.182
-249.034	11.648	0.283	-0.215
-248.019	402.318	0.044	0.092
-247.005	-103.680	-0.241	-0.056
-245.990	104.839	-0.045	-0.053
-244.976	-63.171	-0.139	-0.057
-243.961	-19.992	-0.196	0.120
-242.946	-92.839	-0.039	-0.011
-241.932	-76.280	-0.303	-0.106
-240.917	74.865	-0.123	-0.129
-239.903	-179.020	0.043	0.001
-238.888	-139.216	-0.181	0.019
-237.873	-124.078	-0.147	-0.023
-236.859	601.374	0.070	0.173
-235.844	64.777	-0.085	-0.085
-234.830	-200.000	-0.001	-0.189
-233.815	-200.000	-0.005	-0.121
-232.800	-3.321	0.013	0.009
-231.786	668.202	0.095	-0.244
-230.771	47.108	0.197	-0.182
-229.757	-49.623	-0.214	0.101
-228.742	-35.792	-0.088	0.047
-227.727	78.741	0.391	-0.415
-226.713	177.334	0.097	0.140
-225.698	27.355	-0.036	-0.030
-224.684	230.535	-0.184	0.298
-223.669	528.862	0.053	0.124
-222.655	435.332	0.012	0.026
-221.640	67.196	-0.061	0.061
-220.625	-22.240	-0.180	0.108
-219.611	800.000	0.064	0.243
-218.596	-139.770	-0.487	-0.051
-217.582	-155.319	0.287	-0.018
-216.567	118.711	-0.165	0.201
-215.552	-24.073	-0.217	-0.129
-214.538	233.837	0.136	-0.223
-213.523	-171.542	0.210	0.007
-212.509	221.570	-0.189	-0.302
-211.494	8.481	-0.011	0.008
-210.479	-80.770	-0.210	-0.069
-209.465	800.000	0.023	-0.092
-208.450	-7.313	0.036	-0.024
-207.436	-200.000	-0.008	-0.198
-206.421	-0.570	0.315	0.221
-205.406	-106.485	-0.055	0.012
-204.392	314.281	-0.174	-0.325
-203.377	800.000	0.089	-0.250
-202.363	61.961	0.302	0.298
-201.348	-158.066	-0.154	0.009
-200.333	12.500	0.236	0.180
-199.319	-11.141	0.285	0.186
-198.304	-28.320	-0.193	-0.110
-197.290	-72.686	0.247	0.090
-196.275	-200.000	-0.051	-0.277
-195.260	-71.858	-0.331	-0.122
-194.246	-123.167	0.400	0.064
-193.231	-65.722	-0.102	-0.040
-192.217	-0.029	0.333	0.235
-191.202	-200.000	0.023	0.237
-190.187	-200.000	0.001	-0.039
-189.173	96.225	0.149	0.169
-188.158	-200.000	0.023	0.227
-187.144	163.405	-0.259	-0.360
-186.129	-80.643	-0.098	0.032
-185.114	-25.470	0.121	-0.071
-184.100	-150.042	0.279	-0.021
-183.085	-31.738	-0.227	0.126
-182.071	215.186	0.164	0.258
-181.056	349.519	0.096	0.188
-180.042	-139.081	-0.192	0.021
-179.027	-115.445	-0.400	0.075
-178.012	-200.000	0.019	0.097
-176.998	-25.626	0.073	0.043
-175.983	251.374	-0.167	-0.281
-174.969	-14.349	0.164	-0.104
-173.954	-95.560	0.327	0.087
-172.939	-8.557	-0.181	0.120
-171.925	386.393	0.083	-0.170
-170.910	-167.153	0.138	0.006
-169.896	-55.644	-0.122	-0.054
-168.881	-200.000	-0.031	-0.136
-167.866	-89.705	-0.305	-0.088
-166.852	8.768	0.200	0.149
-165.837	-109.607	-0.549	-0.114
-164.823	-200.000	0.020	0.239
-163.808	152.635	0.074	0.100
-162.793	638.687	0.057	0.142
-161.779	776.633	-0.031	-0.084
-160.764	172.847	-0.169	-0.240
-159.750	-102.132	0.264	0.063
-158.735	133.390	0.116	0.149
-157.720	-126.558	-0.165	0.024
-156.706	204.811	0.126	0.194
-155.691	607.803	-0.102	-0.252
-154.677	-200.000	0.003	0.128
-153.662	-130.399	-0.159	0.021
-152.647	-159.229	0.161	-0.009
-151.633	423.946	-0.047	0.100
-150.618	-109.472	-0.108	-0.023
-149.604	-200.000	0.094	-0.426
-148.589	179.682	0.110	0.160
-147.574	-99.590	0.512	0.127
-146.560	-145.911	-0.118	-0.010
-145.545	-32.027	-0.204	0.113
-144.531	800.000	-0.131	0.426
-143.516	80.999	0.029	0.031
-142.502	173.791	-0.102	0.146
-141.487	113.712	0.078	0.094
-140.472	258.138	0.153	-0.261
-139.458	-12.450	0.296	-0.191
-138.443	-34.458	-0.093	-0.050
-137.429	-200.000	-0.020	0.163
-136.414	134.607	0.221	0.283
-135.399	800.000	0.108	0.322
-134.385	762.368	-0.053	-0.143
-133.370	-200.000	0.018	-0.262
-132.356	-186.028	0.188	0.003
-131.341	320.725	-0.124	-0.232
-130.326	12.779	0.148	-0.113
-129.312	354.140	0.087	0.171
-128.297	-17.900	0.227	0.141
-127.283	257.263	0.032	-0.055
-126.268	-200.000	0.004	0.142
-125.253	-30.177	0.219	0.123
-124.239	79.246	-0.100	0.106
-123.224	248.649	0.084	-0.140
-122.210	-200.000	-0.029	-0.325
-121.195	-4.983	0.220	-0.150
