DTS Sentinel unit serial number:	SN413079Multiplexer serial number:	ORYXHardware model number:	OX4-SRSoftware version number:	ORYX F/W v4.00 Oryx Data Collector v3.7.2.0data status	okinstallation	princeton_trtdifferential loss correction	single-endedforward channel	channel 3reverse channel	N/Adate	2019/09/13time	01:12:35forward acquisition time	60.00reverse acquisition time	0.00gamma	496.2192k internal	0.2332k external	0.2332temperature offset calibration	1.0118default loss term (dB/km)	0.3790temperature slope calibration	1.0000multiplexer offset coefficient	1.0000multiplexer slope coefficient	1.0000fibre end	0.00T internal ref (°C)	27.94T ext. ref 1 (°C)	3.70T ext. ref 2 (°C)	22.56length (m)	temperature (°C)	Stokes	anti-Stokes-747.200	103.394	0.181	0.214
-746.185	12.736	-0.346	0.269
-745.171	309.490	-0.114	-0.214
-744.156	229.154	-0.122	0.201
-743.142	800.000	0.065	0.269
-742.127	800.000	-0.114	0.376
-741.112	-172.024	0.151	0.005
-740.098	-200.000	-0.066	0.361
-739.083	-13.095	0.128	-0.084
-738.069	-67.047	-0.323	0.128
-737.054	40.180	0.048	0.043
-736.039	-98.927	-0.207	-0.053
-735.025	-200.000	0.024	0.127
-734.010	-66.980	0.437	-0.174
-732.996	11.719	-0.261	-0.201
-731.981	16.182	0.297	0.235
-730.966	-75.435	-0.077	-0.028
-729.952	800.000	-0.051	-0.221
-728.937	187.972	-0.156	-0.234
-727.923	23.734	0.128	-0.106
-726.908	140.096	0.205	-0.271
-725.894	240.935	-0.045	0.075
-724.879	-112.879	-0.115	0.023
-723.864	-168.980	0.355	0.013
-722.850	427.281	-0.145	0.315
-721.835	11.539	-0.299	-0.230
-720.821	-3.950	0.230	-0.161
-719.806	-200.000	-0.030	-0.378
-718.791	30.592	-0.162	-0.140
-717.777	-30.951	0.148	0.084
-716.762	-147.970	-0.383	-0.032
-715.748	800.000	0.070	0.208
-714.733	800.000	0.117	-0.416
-713.718	-45.252	0.253	0.126
-712.704	-200.000	0.043	-0.196
-711.689	-112.653	-0.262	0.052
-710.675	599.041	-0.070	0.174
-709.660	-126.049	0.145	-0.022
-708.645	-200.000	-0.001	0.014
-707.631	-200.000	0.078	0.405
-706.616	-103.364	-0.183	0.043
-705.602	-59.648	0.085	-0.037
-704.587	-200.000	0.049	-0.228
-703.572	-154.400	-0.176	0.012
-702.558	11.223	0.186	0.143
-701.543	800.000	-0.006	0.028
-700.529	188.197	-0.047	-0.070
-699.514	147.618	0.116	-0.157
-698.499	-1.229	0.486	0.345
-697.485	235.754	-0.066	-0.110
-696.470	-12.330	-0.340	-0.223
-695.456	398.783	-0.061	0.129
-694.441	-35.322	-0.245	-0.134
-693.426	-3.255	0.209	-0.146
-692.412	800.000	0.033	0.103
-691.397	-78.436	-0.343	-0.118
-690.383	-31.642	0.232	0.131
-689.368	800.000	0.063	0.196
-688.354	-200.000	-0.002	0.056
-687.339	309.150	-0.112	-0.210
-686.324	368.262	-0.049	-0.099
-685.310	119.339	-0.161	-0.200
-684.295	-1.300	0.363	-0.257
-683.281	205.277	0.107	-0.167
-682.266	160.676	0.035	0.050
-681.251	-168.001	-0.193	0.008
-680.237	-187.330	0.194	-0.003
-679.222	664.621	0.008	-0.019
-678.208	-200.000	-0.009	-0.439
-677.193	-49.651	0.286	-0.137
-676.178	125.473	-0.111	-0.141
-675.164	411.065	0.167	-0.356
-674.149	-145.251	-0.169	0.015
-673.135	282.515	-0.151	0.273
-672.120	-7.529	-0.264	-0.179
-671.105	-200.000	-0.053	0.306
-670.091	24.959	-0.169	0.140
-669.076	-89.948	0.229	0.067
-668.062	-200.000	-0.021	-0.270
-667.047	-161.083	0.147	0.008
-666.032	682.772	0.050	0.132
-665.018	349.505	-0.127	0.251
-664.003	-11.125	0.360	-0.238
-662.989	-200.000	0.030	0.162
-661.974	-200.000	0.045	0.350
-660.959	48.150	0.106	0.100
-659.945	-200.000	0.064	0.438
-658.930	201.684	-0.026	0.040
-657.916	157.573	-0.153	0.213
-656.901	265.410	0.043	0.074
-655.886	800.000	-0.091	-0.324
-654.872	-200.000	-0.049	-0.323
-653.857	-76.250	0.240	-0.085
-652.843	123.089	0.118	0.148
-651.828	305.866	-0.102	0.191
-650.814	-22.540	-0.264	-0.160
-649.799	234.595	-0.157	-0.260
-648.784	-11.888	-0.129	-0.085
-647.770	-97.566	0.196	-0.051
-646.755	23.143	-0.076	0.063
-645.741	111.093	0.110	0.132
-644.726	-200.000	0.026	-0.140
-643.711	-0.834	-0.173	-0.123
-642.697	31.881	0.134	0.115
-641.682	245.737	-0.131	-0.221
-640.668	-79.369	-0.193	0.066
-639.653	-42.989	-0.277	-0.141
-638.638	-91.637	-0.222	-0.063
-637.624	65.617	0.184	0.187
-636.609	-87.583	0.096	-0.029
-635.595	-15.698	-0.090	-0.058
-634.580	-33.189	0.188	0.104
-633.565	-200.000	0.004	-0.124
-632.551	800.000	-0.064	-0.205
-631.536	-23.739	-0.237	-0.142
-630.522	-85.663	0.427	-0.133
-629.507	-200.000	0.013	-0.206
-628.492	800.000	-0.064	0.218
-627.478	-121.713	0.110	0.018
-626.463	127.965	0.139	0.176
-625.449	-200.000	-0.028	-0.227
-624.434	-27.880	-0.109	-0.063
-623.419	-102.393	-0.057	0.014
-622.405	-34.911	-0.183	0.100
-621.390	800.000	-0.072	0.240
-620.376	30.078	-0.142	-0.122
-619.361	-166.759	-0.243	-0.010
-618.346	-159.828	-0.146	-0.008
-617.332	506.347	-0.150	-0.348
-616.317	-200.000	-0.024	-0.172
-615.303	121.190	0.291	-0.362
-614.288	111.624	-0.175	0.212
-613.273	-173.033	0.340	-0.010
-612.259	-200.000	0.024	-0.255
-611.244	-129.180	0.319	-0.045
-610.230	-35.902	0.201	0.109
-609.215	-115.568	-0.207	0.039
-608.201	15.104	-0.097	0.076
-607.186	55.520	0.258	-0.250
-606.171	-13.912	0.242	-0.157
-605.157	6.835	-0.191	-0.142
-604.142	-34.612	0.333	-0.183
-603.128	-65.570	0.164	-0.066
-602.113	-200.000	0.005	-0.043
-601.098	-152.720	0.095	-0.007
-600.084	98.186	-0.148	0.171
-599.069	173.948	-0.039	-0.057
-598.055	463.969	-0.128	0.286
-597.040	-115.754	-0.224	0.042
-596.025	800.000	-0.080	0.236
-595.011	-200.000	-0.059	-0.278
-593.996	119.355	-0.167	-0.207
-592.982	74.797	-0.150	-0.158
-591.967	-42.164	-0.241	0.123
-590.952	-200.000	0.021	0.213
-589.938	800.000	-0.024	0.076
-588.923	-200.000	-0.008	0.067
-587.909	113.864	0.108	-0.131
-586.894	-43.283	0.207	0.105
-585.879	5.537	0.157	-0.116
-584.865	800.000	0.026	0.096
-583.850	-200.000	-0.029	0.231
-582.836	-200.000	-0.058	0.335
-581.821	-157.300	0.130	-0.008
-580.806	-200.000	-0.004	0.037
-579.792	-149.522	0.225	0.018
-578.777	174.608	0.132	-0.191
-577.763	-23.347	-0.298	-0.179
-576.748	183.407	0.197	-0.290
-575.733	690.874	-0.093	-0.244
-574.719	209.197	-0.113	0.176
-573.704	386.644	0.051	-0.105
-572.690	753.608	0.111	-0.301
-571.675	-116.660	-0.388	-0.071
-570.661	-45.370	-0.119	0.059
-569.646	800.000	-0.085	0.373
-568.631	800.000	-0.039	-0.160
-567.617	-200.000	-0.033	0.187
-566.602	317.606	-0.085	0.160
-565.588	398.467	0.014	-0.030
-564.573	-12.654	-0.157	0.102
-563.558	-200.000	-0.001	0.056
-562.544	43.358	-0.131	0.120
-561.529	-200.000	0.045	-0.393
-560.515	79.882	-0.061	-0.066
-559.500	-147.162	0.202	-0.017
-558.485	-124.345	0.219	0.034
-557.471	-172.819	-0.415	-0.013
-556.456	-165.579	-0.107	0.005
-555.442	-77.006	0.157	0.055
-554.427	-102.239	0.200	-0.048
-553.412	22.009	-0.117	-0.095
-552.398	800.000	-0.080	-0.289
-551.383	465.592	-0.123	-0.276
-550.369	235.371	0.248	0.409
-549.354	-88.489	-0.095	0.028
-548.339	-200.000	0.028	0.156
-547.325	53.373	0.260	0.249
-546.310	545.299	-0.039	0.092
-545.296	-103.866	0.507	0.118
-544.281	260.814	0.075	-0.130
-543.266	143.625	0.032	0.042
-542.252	-90.807	-0.073	-0.021
-541.237	-0.731	0.416	-0.295
-540.223	800.000	-0.049	0.177
-539.208	779.748	-0.152	0.414
-538.193	-102.598	-0.207	0.049
-537.179	-71.413	-0.252	-0.094
-536.164	144.488	0.174	-0.231
-535.150	-45.207	-0.092	-0.045
-534.135	800.000	0.041	-0.159
-533.121	-110.704	0.237	0.049
-532.106	-200.000	0.050	0.232
-531.091	-98.563	-0.205	0.052
-530.077	270.314	0.178	0.312
-529.062	591.628	-0.112	-0.275
-528.048	-73.484	0.202	-0.074
-527.033	-82.690	0.181	-0.059
-526.018	-123.139	-0.099	0.016
-525.004	15.292	0.322	0.252
-523.989	800.000	0.094	0.288
-522.975	-200.000	-0.047	0.334
-521.960	129.741	-0.191	0.244
-520.945	-100.577	0.305	0.075
-519.931	-200.000	0.028	0.126
-518.916	95.672	0.257	0.292
-517.902	146.341	0.091	0.122
-516.887	104.086	0.147	0.173
-515.872	-8.649	-0.293	-0.196
-514.858	-97.672	-0.158	0.041
-513.843	-200.000	0.019	-0.276
-512.829	248.580	-0.110	-0.186
-511.814	800.000	0.023	-0.094
-510.799	47.271	-0.170	-0.158
-509.785	-141.870	0.258	0.026
-508.770	-200.000	0.020	-0.390
-507.756	362.307	-0.121	0.242
-506.741	-200.000	-0.024	-0.135
-505.726	-67.818	-0.309	-0.120
-504.712	146.278	0.056	-0.074
-503.697	-200.000	0.050	-0.304
-502.683	207.877	-0.232	0.361
-501.668	53.394	0.109	0.105
-500.653	410.722	-0.067	0.142
-499.639	231.072	-0.079	-0.129
-498.624	13.526	0.164	-0.127
-497.610	-200.000	0.004	0.298
-496.595	-113.060	-0.219	-0.043
-495.581	573.289	-0.041	-0.100
-494.566	-200.000	0.040	-0.261
-493.551	-20.634	-0.139	-0.085
-492.537	-132.313	0.253	0.033
-491.522	-200.000	-0.068	0.318
-490.508	-114.233	0.310	-0.060
-489.493	83.725	-0.097	0.106
-488.478	-200.000	0.030	-0.203
-487.464	-200.000	-0.035	-0.211
-486.449	131.660	-0.117	0.150
-485.435	800.000	0.152	0.520
-484.420	86.186	-0.135	-0.148
-483.405	-2.146	0.219	-0.153
-482.391	-71.782	-0.088	0.033
-481.376	78.359	0.070	0.075
-480.362	102.338	0.171	-0.199
-479.347	438.818	0.021	0.046
-478.332	70.775	-0.149	-0.153
-477.318	-150.103	0.246	0.019
-476.303	-55.652	-0.101	0.045
-475.289	-114.799	-0.201	-0.038
-474.274	491.511	-0.062	-0.141
-473.259	350.030	-0.089	0.176
-472.245	-34.420	0.144	0.078
-471.230	-39.607	-0.176	-0.092
-470.216	800.000	0.101	0.329
-469.201	-200.000	-0.024	-0.206
-468.186	264.507	0.080	-0.139
-467.172	-73.290	-0.039	-0.014
-466.157	105.140	-0.206	-0.241
-465.143	7.349	0.122	-0.091
-464.128	-1.654	-0.081	0.057
-463.113	-49.080	-0.189	0.090
-462.099	102.641	-0.202	-0.235
-461.084	-200.000	0.022	-0.346
-460.070	303.743	0.189	0.348
-459.055	-58.661	-0.042	0.018
-458.040	61.763	-0.068	-0.068
-457.026	-0.184	0.130	-0.092
-456.011	800.000	-0.029	-0.088
-454.997	130.920	0.065	-0.083
-453.982	-92.214	0.130	-0.036
-452.968	-76.356	-0.087	-0.031
-451.953	-107.239	0.237	0.052
-450.938	-143.775	-0.359	-0.034
-449.924	389.047	0.272	-0.560
-448.909	-59.621	0.204	-0.087
-447.895	-152.884	0.217	-0.015
-446.880	-130.115	0.726	-0.098
-445.865	32.625	-0.112	0.097
-444.851	-200.000	-0.088	-0.430
-443.836	-121.414	-0.196	-0.032
-442.822	-124.994	0.334	0.051
-441.807	800.000	0.063	-0.218
-440.792	-107.962	-0.356	0.077
-439.778	-112.943	0.359	0.071
-438.763	157.708	-0.099	-0.136
-437.749	-6.394	-0.081	-0.055
-436.734	-200.000	-0.039	-0.211
-435.719	-200.000	-0.016	-0.165
-434.705	-200.000	-0.055	-0.294
-433.690	-200.000	0.004	0.086
-432.676	144.109	0.182	0.241
-431.661	101.205	0.202	-0.234
-430.646	-2.107	-0.051	-0.035
-429.632	-88.571	0.174	0.052
-428.617	396.123	0.189	0.393
-427.603	-200.000	-0.058	-0.320
-426.588	-200.000	-0.034	-0.174
-425.573	178.023	-0.072	0.104
-424.559	-86.746	-0.063	-0.019
-423.544	30.625	-0.078	-0.067
-422.530	225.238	-0.140	0.226
-421.515	-200.000	0.029	-0.156
-420.500	-77.741	0.317	-0.109
-419.486	-138.178	-0.114	0.013
-418.471	-70.637	0.057	0.021
-417.457	-114.831	-0.268	0.051
-416.442	417.531	0.083	0.175
-415.428	800.000	-0.097	0.275
-414.413	-16.232	-0.180	-0.113
-413.398	800.000	0.083	-0.250
-412.384	-200.000	-0.010	0.124
-411.369	-200.000	0.059	0.367
-410.355	55.709	-0.037	0.035
-409.340	-200.000	0.013	0.095
-408.325	184.567	0.222	-0.327
-407.311	209.921	-0.198	-0.309
-406.296	409.090	0.139	0.293
-405.282	6.162	0.142	-0.104
-404.267	521.973	-0.040	0.094
-403.252	-17.384	-0.125	-0.078
-402.238	40.183	0.299	-0.267
-401.223	-120.017	-0.158	-0.027
-400.209	-95.727	0.242	0.064
-399.194	-80.132	-0.211	0.070
-398.179	800.000	-0.079	0.250
-397.165	-17.412	-0.104	0.065
-396.150	-82.161	-0.200	0.065
-395.136	-14.584	0.235	0.150
-394.121	-66.796	-0.317	0.125
-393.106	15.186	0.071	0.055
-392.092	-200.000	-0.009	-0.067
-391.077	-78.707	-0.317	-0.108
-390.063	-1.965	0.192	0.134
-389.048	51.176	-0.031	0.030
-388.033	176.214	0.052	0.075
-387.019	581.093	0.032	-0.078
-386.004	-200.000	0.023	-0.186
-384.990	-200.000	0.021	-0.291
-383.975	43.719	-0.131	0.119
-382.960	12.131	-0.199	0.152
-381.946	800.000	-0.046	0.194
-380.931	-200.000	0.008	0.158
-379.917	87.100	-0.146	0.160
-378.902	-200.000	-0.077	-0.417
-377.888	-110.773	-0.091	-0.019
-376.873	14.015	0.260	-0.200
-375.858	-90.194	-0.053	0.015
-374.844	-134.141	0.181	0.022
-373.829	-97.097	-0.361	0.094
-372.815	-200.000	-0.021	0.318
-371.800	-61.549	0.045	0.019
-370.785	686.900	0.117	0.302
-369.771	-135.657	0.176	0.021
-368.756	-118.946	-0.303	0.053
-367.742	333.802	0.069	0.132
-366.727	800.000	-0.026	0.082
-365.712	-63.358	-0.269	-0.110
-364.698	800.000	0.049	0.156
-363.683	54.405	-0.190	0.182
-362.669	-99.308	-0.320	0.080
-361.654	-45.229	-0.192	-0.095
-360.639	-24.398	-0.166	0.098
-359.625	-200.000	0.005	-0.155
-358.610	-70.315	0.133	0.050
-357.596	800.000	0.163	-0.448
-356.581	-104.761	0.266	-0.061
-355.566	-50.523	-0.202	-0.094
-354.552	-200.000	-0.002	-0.074
-353.537	800.000	-0.045	-0.126
-352.523	-81.279	-0.088	0.029
-351.508	-90.637	0.131	-0.038
-350.493	-200.000	-0.012	-0.226
-349.479	-14.027	-0.037	-0.023
-348.464	-200.000	-0.061	0.348
-347.450	122.808	-0.225	0.279
-346.435	24.461	-0.270	0.221
-345.420	496.395	0.120	-0.274
-344.406	94.635	-0.195	-0.220
-343.391	304.404	-0.249	-0.457
-342.377	-60.020	0.282	0.119
-341.362	-54.405	-0.356	0.160
-340.348	-45.547	-0.263	-0.129
-339.333	31.017	-0.068	0.058
-338.318	-183.495	0.234	-0.004
-337.304	581.137	0.065	-0.158
-336.289	-136.731	-0.191	0.022
-335.275	282.793	0.156	0.276
-334.260	-90.023	0.227	0.065
-333.245	63.822	0.100	-0.100
-332.231	60.407	0.056	0.055
-331.216	25.832	-0.102	-0.084
-330.202	-82.384	0.492	0.158
-329.187	-114.034	-0.252	-0.048
-328.172	62.366	-0.230	0.227
-327.158	-200.000	-0.005	0.168
-326.143	-141.004	-0.101	-0.010
-325.129	110.650	-0.296	0.352
-324.114	-10.698	0.078	0.051
-323.099	98.023	-0.247	0.281
-322.085	-121.322	-0.466	0.077
-321.070	-16.496	0.220	0.138
-320.056	258.809	0.064	0.108
-319.041	123.399	0.102	-0.127
-318.026	108.742	-0.092	0.108
-317.012	-75.904	0.157	-0.055
-315.997	49.141	0.079	-0.073
-314.983	-200.000	-0.054	0.416
-313.968	372.999	-0.141	0.283
-312.953	-200.000	0.022	-0.153
-311.939	-200.000	-0.001	0.037
-310.924	-200.000	-0.009	-0.056
-309.910	238.433	-0.093	0.153
-308.895	22.268	-0.133	0.107
-307.880	630.604	0.143	-0.358
-306.866	431.993	-0.138	-0.296
-305.851	68.696	0.065	0.066
-304.837	800.000	-0.080	-0.243
-303.822	193.259	0.146	0.218
-302.807	144.978	0.098	-0.130
-301.793	-81.311	-0.153	0.050
-300.778	284.845	0.130	0.232
-299.764	-53.892	0.284	0.128
-298.749	-42.310	-0.109	0.055
-297.735	56.933	0.083	-0.080
-296.720	776.671	-0.010	-0.028
-295.705	124.391	0.063	-0.078
-294.691	-56.630	0.261	0.114
-293.676	170.175	-0.193	-0.273
-292.662	-137.986	0.103	0.011
-291.647	-87.350	-0.105	0.031
-290.632	163.866	0.122	-0.170
-289.618	-126.973	0.019	0.003
-288.603	-200.000	0.036	0.227
-287.589	134.619	-0.046	0.059
-286.574	-58.982	0.070	-0.030
-285.559	-137.484	0.186	0.021
-284.545	146.270	0.071	0.095
-283.530	800.000	-0.055	-0.175
-282.516	800.000	0.099	-0.320
-281.501	40.327	-0.161	-0.143
-280.486	7.533	0.277	0.205
-279.472	64.201	-0.291	0.290
-278.457	-62.777	0.237	-0.097
-277.443	168.428	0.088	-0.124
-276.428	-200.000	-0.060	0.346
-275.413	336.730	0.118	0.226
-274.399	45.305	0.181	-0.165
-273.384	-173.671	-0.221	-0.007
-272.370	-111.234	0.433	0.087
-271.355	710.697	-0.102	-0.266
-270.340	294.453	0.081	-0.147
-269.326	12.240	-0.100	-0.076
-268.311	625.029	-0.114	-0.285
-267.297	-137.446	-0.323	0.036
-266.282	800.000	0.044	-0.180
-265.267	-37.101	0.316	-0.167
-264.253	-91.202	-0.129	-0.036
-263.238	800.000	-0.094	0.283
-262.224	146.819	0.048	-0.064
-261.209	-200.000	-0.015	-0.109
-260.195	-200.000	-0.019	0.086
-259.180	-123.326	0.347	-0.055
-258.165	-57.514	-0.199	0.086
-257.151	800.000	0.046	-0.146
-256.136	0.805	0.080	0.057
-255.122	-26.877	0.211	0.121
-254.107	1.500	-0.175	-0.124
-253.092	-157.221	0.347	-0.021
-252.078	405.628	0.144	-0.300
-251.063	148.243	-0.074	-0.099
-250.049	-69.957	-0.210	0.079
-249.034	-184.061	-0.162	-0.003
-248.019	-98.665	0.296	-0.074
-247.005	74.241	-0.056	0.058
-245.990	-31.211	-0.123	0.069
-244.976	-64.310	0.168	-0.067
-243.961	220.980	-0.115	0.181
-242.946	-100.645	-0.274	0.067
-241.932	-53.841	-0.464	-0.209
-240.917	199.987	0.218	-0.330
-239.903	-38.924	0.142	0.074
-238.888	-100.358	-0.050	-0.012
-237.873	-40.808	-0.189	0.097
-236.859	185.499	0.012	-0.018
-235.844	455.235	-0.080	0.176
-234.830	5.892	0.248	0.181
-233.815	-169.583	0.303	0.011
-232.800	-73.512	-0.225	0.081
-231.786	-200.000	-0.030	-0.141
-230.771	20.349	0.129	-0.103
-229.757	243.257	0.134	-0.221
-228.742	37.044	0.224	0.195
-227.727	800.000	-0.022	0.085
-226.713	43.004	0.065	0.059
-225.698	-35.357	-0.407	0.218
-224.684	-200.000	-0.046	0.292
-223.669	104.554	-0.147	0.171
-222.655	614.837	0.144	0.355
-221.640	-55.829	0.268	0.118
-220.625	-187.571	-0.079	0.001
-219.611	800.000	-0.079	0.236
-218.596	55.715	-0.083	-0.080
-217.582	8.131	0.091	-0.067
-216.567	-91.374	0.364	0.102
-215.552	-144.501	0.112	-0.010
-214.538	-32.571	0.305	0.167
-213.523	500.520	0.093	0.212
-212.509	363.323	-0.078	-0.154
-211.494	-46.301	-0.194	0.094
-210.479	12.080	0.081	0.062
-209.465	-80.154	0.418	0.138
-208.450	-39.581	-0.182	-0.094
-207.436	18.812	-0.077	0.061
-206.421	613.546	-0.144	0.356
-205.406	408.519	0.077	0.160
-204.392	15.556	0.148	-0.114
-203.377	-200.000	0.012	-0.364
-202.363	784.800	-0.083	0.223
-201.348	800.000	-0.084	0.274
-200.333	800.000	0.051	-0.165
-199.319	-77.928	0.233	-0.079
-198.304	-87.310	-0.150	-0.045
-197.290	-54.972	0.209	0.093
-196.275	-5.219	-0.016	-0.011
-195.260	-200.000	-0.001	-0.203
-194.246	-149.155	-0.297	0.023
-193.231	-63.821	0.048	-0.019
-192.217	-16.056	-0.098	-0.061
-191.202	104.746	-0.256	0.297
-190.187	8.092	-0.182	0.135
-189.173	-79.209	-0.142	-0.048
-188.158	225.100	-0.139	-0.222
-187.144	-72.514	0.630	-0.229
-186.129	9.010	0.071	-0.053
-185.114	-200.000	0.046	0.215
-184.100	793.151	-0.079	-0.213
-183.085	254.679	-0.105	-0.177
-182.071	161.805	0.182	-0.251
-181.056	59.457	-0.262	0.254
-180.042	70.550	0.164	-0.167
-179.027	-107.332	-0.299	0.065
-178.012	-142.692	0.219	0.021
-176.998	112.359	-0.252	0.300
-175.983	-51.957	-0.054	-0.025
-174.969	61.746	0.232	0.227
-173.954	-200.000	0.014	-0.084
-172.939	338.328	-0.085	0.163
-171.925	-24.731	0.118	-0.069
-170.910	800.000	0.102	0.430
-169.896	-200.000	-0.019	0.201
-168.881	227.766	0.219	0.351
-167.866	23.441	-0.203	-0.164
-166.852	69.483	-0.091	0.092
-165.837	-164.019	0.253	-0.012
-164.823	50.117	-0.165	-0.153
-163.808	800.000	0.073	0.199
-162.793	363.240	0.084	-0.167
-161.779	-78.227	-0.305	-0.103
-160.764	-121.839	0.227	-0.037
-159.750	55.089	0.085	-0.080
-158.735	800.000	-0.129	-0.505
-157.720	-97.498	-0.349	0.089
-156.706	20.481	0.125	-0.099
-155.691	394.442	0.126	0.257
-154.677	-50.676	-0.234	0.108
-153.662	144.656	-0.063	-0.082
-152.647	-200.000	0.000	-0.171
-151.633	248.782	0.162	0.270
-150.618	-39.160	-0.309	0.160
-149.604	-12.985	0.205	-0.131
-148.589	-3.934	0.083	0.057
-147.574	-196.633	-0.315	0.002
-146.560	-32.987	-0.121	0.066
-145.545	98.801	0.081	0.092
-144.531	56.422	-0.126	-0.120
-143.516	153.513	-0.217	0.292
-142.502	-23.165	0.112	-0.066
-141.487	-200.000	0.002	-0.078
-140.472	-14.370	-0.102	0.065
-139.458	-68.529	0.217	0.083
-138.443	-89.322	-0.373	-0.108
-137.429	-46.979	-0.214	0.103
-136.414	-200.000	0.105	0.532
-135.399	800.000	-0.070	-0.192
-134.385	219.748	0.139	-0.219
-133.370	-95.220	-0.228	-0.060
-132.356	-89.634	0.193	-0.056
-131.341	-200.000	0.002	-0.168
-130.326	32.632	0.170	-0.144
-129.312	69.279	0.167	-0.169
-128.297	-200.000	0.021	-0.150
-127.283	800.000	0.174	0.499
-126.268	-74.240	-0.300	-0.106
-125.253	479.599	-0.056	-0.125
-124.239	415.054	0.135	0.283
-123.224	800.000	-0.085	-0.300
-122.210	-18.831	-0.225	0.138
-121.195	-76.331	-0.154	0.053
