DTS Sentinel unit serial number:	SN413079Multiplexer serial number:	ORYXHardware model number:	OX4-SRSoftware version number:	ORYX F/W v4.00 Oryx Data Collector v3.7.2.0data status	okinstallation	princeton_trtdifferential loss correction	single-endedforward channel	channel 3reverse channel	N/Adate	2019/09/18time	21:44:35forward acquisition time	60.00reverse acquisition time	0.00gamma	496.2192k internal	0.2345k external	0.2345temperature offset calibration	0.9991default loss term (dB/km)	0.3790temperature slope calibration	1.0000multiplexer offset coefficient	1.0000multiplexer slope coefficient	1.0000fibre end	0.00T internal ref (°C)	24.87T ext. ref 1 (°C)	0.82T ext. ref 2 (°C)	18.27length (m)	temperature (°C)	Stokes	anti-Stokes-747.200	-200.000	-0.031	-0.458
-746.185	226.260	-0.100	0.163
-745.171	-200.000	0.105	0.521
-744.156	-200.000	-0.020	0.231
-743.142	-200.000	-0.024	-0.206
-742.127	-200.000	-0.055	0.610
-741.112	443.765	0.041	0.090
-740.098	-200.000	-0.072	-0.346
-739.083	-106.790	-0.293	0.065
-738.069	22.952	-0.263	0.216
-737.054	-49.893	0.225	0.107
-736.039	-107.054	-0.461	-0.102
-735.025	-126.078	0.140	0.021
-734.010	800.000	0.023	0.082
-732.996	-118.580	-0.180	0.032
-731.981	15.906	-0.317	0.250
-730.966	313.814	-0.057	-0.107
-729.952	-60.173	-0.422	-0.180
-728.937	70.055	-0.053	-0.055
-727.923	-98.703	-0.403	-0.103
-726.908	116.030	-0.339	-0.414
-725.894	-124.940	-0.257	0.040
-724.879	-67.033	0.062	0.024
-723.864	115.186	-0.258	-0.315
-722.850	-45.143	-0.267	-0.133
-721.835	-200.000	-0.013	0.194
-720.821	121.468	0.219	-0.272
-719.806	-61.746	0.152	-0.064
-718.791	224.697	0.287	-0.464
-717.777	-115.953	-0.351	0.065
-716.762	55.331	0.301	-0.291
-715.748	-171.855	-0.081	0.003
-714.733	79.621	-0.077	-0.082
-713.718	311.207	-0.079	0.147
-712.704	384.499	-0.152	0.313
-711.689	27.043	-0.159	0.134
-710.675	-200.000	-0.038	0.225
-709.660	449.809	-0.201	-0.444
-708.645	-43.448	-0.376	0.190
-707.631	114.781	-0.183	-0.223
-706.616	-200.000	0.016	0.378
-705.602	157.058	0.074	0.103
-704.587	800.000	-0.034	0.101
-703.572	-87.443	-0.080	0.024
-702.558	159.615	0.145	-0.202
-701.543	-200.000	-0.026	0.215
-700.529	-18.130	0.331	-0.207
-699.514	22.238	-0.219	-0.179
-698.499	257.261	0.147	-0.253
-697.485	169.891	0.229	-0.327
-696.470	-98.241	0.398	-0.102
-695.456	92.981	-0.098	0.110
-694.441	-200.000	-0.074	0.336
-693.426	248.345	0.150	0.254
-692.412	-135.103	0.137	0.016
-691.397	800.000	-0.028	-0.091
-690.383	140.908	0.228	-0.301
-689.368	-142.673	-0.445	-0.043
-688.354	110.513	0.141	0.169
-687.339	-200.000	-0.010	0.076
-686.324	-133.765	-0.072	0.009
-685.310	46.301	-0.053	-0.049
-684.295	-200.000	0.019	-0.161
-683.281	-200.000	-0.002	0.157
-682.266	29.328	0.364	-0.309
-681.251	-104.690	0.366	-0.084
-680.237	-200.000	0.043	0.268
-679.222	-21.270	0.174	0.106
-678.208	-93.574	-0.056	0.015
-677.193	-87.195	-0.227	-0.069
-676.178	-79.797	-0.266	0.089
-675.164	-51.575	0.216	-0.101
-674.149	800.000	0.014	-0.045
-673.135	15.249	-0.019	-0.015
-672.120	-142.360	-0.287	-0.028
-671.105	70.931	-0.046	0.047
-670.091	24.462	-0.157	0.130
-669.076	45.470	0.293	0.270
-668.062	56.606	-0.234	-0.227
-667.047	-44.910	0.217	-0.108
-666.032	-24.781	0.215	-0.127
-665.018	20.403	-0.164	-0.132
-664.003	-200.000	-0.194	-0.001
-662.989	800.000	-0.069	-0.276
-661.974	-200.000	-0.008	-0.170
-660.959	-166.520	0.286	-0.012
-659.945	-104.770	-0.079	0.018
-658.930	6.195	-0.072	-0.053
-657.916	-109.601	-0.133	-0.028
-656.901	19.687	0.205	-0.165
-655.886	-43.094	-0.222	-0.112
-654.872	230.833	0.115	-0.188
-653.857	24.167	0.199	-0.164
-652.843	653.446	-0.096	-0.245
-651.828	264.038	-0.075	-0.129
-650.814	86.772	-0.118	0.129
-649.799	2.070	-0.266	-0.192
-648.784	615.273	-0.114	-0.284
-647.770	131.833	-0.226	-0.290
-646.755	-200.000	-0.035	0.318
-645.741	-200.000	-0.005	-0.021
-644.726	800.000	0.087	0.295
-643.711	203.139	-0.160	0.246
-642.697	179.806	0.136	-0.198
-641.682	-2.610	-0.299	-0.208
-640.668	-5.678	0.180	-0.123
-639.653	27.447	-0.483	0.405
-638.638	111.166	-0.097	-0.116
-637.624	-200.000	-0.050	0.281
-636.609	144.836	-0.138	0.184
-635.595	-200.000	0.001	-0.017
-634.580	-145.690	-0.459	-0.041
-633.565	-200.000	-0.005	-0.074
-632.551	-163.749	-0.191	-0.009
-631.536	-65.433	0.141	0.057
-630.522	-87.950	-0.302	0.090
-629.507	-200.000	0.010	-0.106
-628.492	-47.080	-0.166	-0.080
-627.478	-51.385	0.273	-0.127
-626.463	-93.751	-0.255	0.070
-625.449	-200.000	-0.037	0.376
-624.434	7.343	-0.069	-0.052
-623.419	-200.000	-0.057	-0.282
-622.405	800.000	-0.037	0.155
-621.390	800.000	0.039	-0.141
-620.376	-200.000	0.019	-0.477
-619.361	-8.018	0.352	-0.236
-618.346	272.601	0.002	0.004
-617.332	75.994	-0.178	-0.187
-616.317	-16.940	-0.183	0.115
-615.303	-29.128	0.228	0.130
-614.288	-101.075	-0.303	0.074
-613.273	420.404	-0.050	0.107
-612.259	89.976	0.111	0.123
-611.244	-101.782	0.172	-0.041
-610.230	800.000	-0.066	-0.256
-609.215	-67.640	-0.252	0.098
-608.201	-17.450	0.196	0.123
-607.186	-40.224	0.301	-0.156
-606.171	13.035	0.503	-0.387
-605.157	-90.338	-0.383	-0.111
-604.142	446.818	-0.042	-0.093
-603.128	479.824	-0.108	-0.243
-602.113	-36.544	0.099	-0.053
-601.098	-70.826	-0.249	-0.093
-600.084	-71.583	-0.365	-0.136
-599.069	2.132	0.125	-0.090
-598.055	596.706	0.043	-0.107
-597.040	-105.601	-0.288	0.065
-596.025	-200.000	-0.042	-0.228
-595.011	-131.431	-0.126	0.017
-593.996	176.379	-0.152	0.220
-592.982	-26.185	-0.281	-0.164
-591.967	10.567	-0.133	-0.101
-590.952	-150.277	-0.340	0.026
-589.938	204.953	-0.181	0.279
-588.923	613.631	-0.071	-0.177
-587.909	-132.623	-0.071	0.009
-586.894	687.519	0.078	0.201
-585.879	800.000	-0.034	-0.105
-584.865	-90.757	0.369	-0.106
-583.850	-74.040	-0.301	0.108
-582.836	-33.123	0.042	-0.023
-581.821	-200.000	0.082	-0.400
-580.806	-63.185	-0.032	-0.013
-579.792	-78.931	-0.025	-0.009
-578.777	-200.000	-0.030	-0.145
-577.763	-128.555	0.315	0.044
-576.748	143.404	-0.167	0.221
-575.733	555.933	-0.050	0.121
-574.719	126.250	-0.089	-0.111
-573.704	-200.000	0.011	0.209
-572.690	-138.839	-0.315	-0.034
-571.675	91.888	-0.282	-0.316
-570.661	-48.831	0.182	-0.087
-569.646	-200.000	0.019	-0.219
-568.631	800.000	-0.035	0.099
-567.617	-63.501	-0.023	0.009
-566.602	169.650	-0.250	0.354
-565.588	83.973	0.161	0.174
-564.573	800.000	0.143	-0.417
-563.558	-69.926	-0.408	-0.154
-562.544	-93.351	-0.204	-0.056
-561.529	-54.608	-0.244	-0.110
-560.515	800.000	-0.094	-0.295
-559.500	800.000	0.058	0.230
-558.485	-79.798	0.162	-0.054
-557.471	800.000	-0.088	0.381
-556.456	-200.000	0.010	0.058
-555.442	-200.000	0.002	0.322
-554.427	39.714	0.133	-0.118
-553.412	251.159	-0.039	0.066
-552.398	10.707	-0.043	-0.032
-551.383	65.708	-0.108	0.109
-550.369	407.849	0.089	-0.186
-549.354	121.820	0.063	0.078
-548.339	-146.327	-0.130	-0.011
-547.325	-44.395	0.077	-0.038
-546.310	261.316	0.154	-0.265
-545.296	253.199	0.070	-0.118
-544.281	106.464	0.196	-0.231
-543.266	243.370	-0.145	-0.241
-542.252	-200.000	0.001	0.037
-541.237	-200.000	-0.027	-0.203
-540.223	130.291	0.108	-0.137
-539.208	44.471	-0.187	-0.171
-538.193	588.410	-0.042	0.102
-537.179	-154.952	-0.141	-0.009
-536.164	195.288	0.166	0.251
-535.150	-80.140	-0.316	0.105
-534.135	800.000	-0.072	0.301
-533.121	-118.170	0.277	0.049
-532.106	261.157	-0.046	0.080
-531.091	-29.725	-0.072	0.041
-530.077	-177.256	-0.165	-0.004
-529.062	-200.000	-0.028	0.226
-528.048	-97.555	-0.127	0.033
-527.033	-140.227	-0.107	0.011
-526.018	568.348	0.036	0.087
-525.004	-34.729	0.256	0.139
-523.989	-140.215	-0.312	-0.032
-522.975	57.535	0.063	-0.061
-521.960	47.262	-0.148	0.137
-520.945	-91.418	-0.264	0.075
-519.931	-27.591	-0.188	-0.108
-518.916	-109.046	-0.241	-0.051
-517.902	-7.669	0.240	-0.161
-516.887	-57.938	-0.178	-0.077
-515.872	246.672	-0.047	0.078
-514.858	-200.000	0.005	-0.163
-513.843	-62.326	0.352	-0.145
-512.829	84.021	-0.130	-0.141
-511.814	-64.801	-0.080	0.032
-510.799	-200.000	0.007	0.074
-509.785	-200.000	0.026	-0.195
-508.770	-125.565	0.292	-0.044
-507.756	145.545	0.095	0.126
-506.741	-111.340	0.241	0.049
-505.726	-127.926	0.074	0.010
-504.712	-26.318	0.354	-0.206
-503.697	-84.516	-0.212	0.066
-502.683	78.958	0.116	0.123
-501.668	-200.000	-0.042	-0.270
-500.653	-70.894	0.307	-0.115
-499.639	257.787	-0.084	-0.144
-498.624	-200.000	-0.066	0.379
-497.610	-160.278	-0.192	-0.010
-496.595	312.177	-0.082	-0.152
-495.581	471.441	0.173	0.385
-494.566	-200.000	0.008	-0.141
-493.551	-159.612	0.174	-0.010
-492.537	-200.000	-0.053	0.235
-491.522	800.000	-0.039	-0.106
-490.508	-54.038	-0.047	-0.021
-489.493	-139.025	0.349	-0.037
-488.478	-70.848	-0.284	0.106
-487.464	800.000	0.046	-0.195
-486.449	-4.397	-0.130	0.089
-485.435	729.876	0.062	-0.164
-484.420	329.163	0.132	0.251
-483.405	800.000	-0.057	0.219
-482.391	-5.976	0.158	-0.107
-481.376	254.317	0.078	0.132
-480.362	-81.128	-0.177	-0.058
-479.347	-165.126	-0.395	0.017
-478.332	33.446	0.112	0.096
-477.318	-175.757	-0.043	0.001
-476.303	37.970	-0.260	0.229
-475.289	-191.112	-0.024	0.000
-474.274	-200.000	-0.022	0.156
-473.259	66.458	0.280	-0.282
-472.245	-75.555	0.219	0.077
-471.230	-200.000	-0.048	0.247
-470.216	179.236	0.116	0.167
-469.201	216.192	0.069	-0.108
-468.186	800.000	0.031	-0.103
-467.172	800.000	0.018	0.057
-466.157	164.579	-0.256	0.357
-465.143	-183.858	-0.127	-0.002
-464.128	63.391	-0.166	-0.165
-463.113	183.807	0.191	0.279
-462.099	-122.862	0.132	-0.021
-461.084	85.059	-0.077	0.083
-460.070	-7.814	0.258	-0.172
-459.055	-192.161	0.146	-0.001
-458.040	312.188	0.148	-0.274
-457.026	-200.000	0.045	0.252
-456.011	-106.544	-0.081	-0.018
-454.997	-200.000	0.064	0.321
-453.982	-200.000	-0.009	-0.050
-452.968	353.227	-0.048	0.094
-451.953	45.440	0.109	-0.100
-450.938	471.600	-0.042	0.094
-449.924	-122.271	-0.084	-0.014
-448.909	-200.000	-0.010	-0.322
-447.895	-99.451	0.125	0.031
-446.880	-28.626	0.076	0.043
-445.865	-200.000	-0.065	0.310
-444.851	800.000	0.086	-0.305
-443.836	77.912	0.234	-0.246
-442.822	-200.000	-0.023	-0.435
-441.807	127.897	0.173	-0.218
-440.792	472.217	-0.043	0.095
-439.778	51.854	0.159	-0.149
-438.763	255.563	0.124	0.209
-437.749	663.211	0.022	-0.056
-436.734	182.416	-0.097	-0.142
-435.719	-200.000	0.004	0.102
-434.705	102.961	-0.058	0.067
-433.690	205.165	-0.231	-0.355
-432.676	-63.130	0.032	0.013
-431.661	-118.785	-0.132	-0.023
-430.646	-65.414	0.168	0.067
-429.632	-16.268	-0.191	0.120
-428.617	187.088	-0.070	0.103
-427.603	-77.973	0.198	-0.067
-426.588	-7.964	0.173	0.115
-425.573	-194.877	-0.290	0.002
-424.559	400.326	0.030	0.062
-423.544	234.259	0.141	0.230
-422.530	-89.068	-0.209	-0.061
-421.515	-163.264	-0.214	-0.010
-420.500	195.812	-0.119	0.179
-419.486	800.000	0.065	-0.238
-418.471	186.580	0.070	0.103
-417.457	517.841	0.082	0.190
-416.442	108.552	0.231	-0.273
-415.428	284.543	0.074	-0.131
-414.413	-175.240	-0.291	-0.008
-413.398	-200.000	0.041	-0.323
-412.384	-137.384	0.065	0.007
-411.369	376.837	0.013	-0.027
-410.355	118.826	-0.098	0.120
-409.340	216.962	0.256	-0.402
-408.325	141.523	-0.049	-0.064
-407.311	511.651	0.052	-0.121
-406.296	800.000	0.068	-0.258
-405.282	-144.011	0.146	-0.014
-404.267	571.565	-0.074	0.178
-403.252	-157.010	0.330	0.020
-402.238	-200.000	0.028	0.262
-401.223	75.865	-0.250	0.261
-400.209	3.446	0.183	0.132
-399.194	90.371	-0.162	-0.178
-398.179	-87.080	-0.379	0.114
-397.165	-200.000	0.004	0.181
-396.150	47.449	0.274	0.252
-395.136	-115.067	-0.136	-0.026
-394.121	13.648	0.170	0.130
-393.106	133.230	0.107	-0.136
-392.092	59.133	-0.049	-0.048
-391.077	800.000	0.051	0.205
-390.063	309.883	0.037	-0.069
-389.048	-10.345	-0.229	0.150
-388.033	-1.229	0.222	-0.155
-387.019	-95.525	-0.327	-0.086
-386.004	800.000	-0.024	-0.079
-384.990	742.458	-0.059	-0.156
-383.975	38.113	-0.122	-0.107
-382.960	87.582	0.053	-0.058
-381.946	-58.320	-0.045	0.019
-380.931	-127.429	-0.132	0.019
-379.917	-99.877	0.179	-0.044
-378.902	-200.000	0.070	-0.326
-377.888	-57.888	-0.076	-0.033
-376.873	-29.040	0.315	0.178
-375.858	-65.255	-0.126	-0.050
-374.844	54.560	0.150	-0.143
-373.829	112.840	-0.219	0.262
-372.815	-138.496	-0.319	0.035
-371.800	800.000	0.054	0.163
-370.785	117.274	-0.187	-0.226
-369.771	-6.421	0.389	-0.262
-368.756	527.371	0.085	0.196
-367.742	730.022	0.034	-0.088
-366.727	64.419	0.068	-0.068
-365.712	633.065	-0.096	-0.239
-364.698	-50.440	-0.319	-0.149
-363.683	64.005	0.195	-0.194
-362.669	79.637	0.063	0.067
-361.654	-200.000	-0.000	-0.062
-360.639	16.955	-0.222	-0.173
-359.625	-123.569	0.141	0.022
-358.610	207.308	0.205	0.314
-357.596	-48.787	-0.293	-0.138
-356.581	-121.697	-0.212	0.035
-355.566	158.504	-0.108	0.147
-354.552	-200.000	0.003	-0.198
-353.537	800.000	0.077	0.220
-352.523	47.724	-0.140	0.128
-351.508	-121.132	-0.279	0.046
-350.493	-200.000	-0.006	-0.113
-349.479	77.415	-0.139	0.145
-348.464	-200.000	-0.055	0.285
-347.450	441.698	-0.098	0.212
-346.435	-16.443	0.679	-0.424
-345.420	800.000	0.054	-0.207
-344.406	800.000	-0.069	0.208
-343.391	-52.373	-0.234	-0.107
-342.377	41.235	0.129	0.115
-341.362	-25.930	-0.182	0.106
-340.348	333.936	0.073	0.139
-339.333	-4.579	-0.191	-0.130
-338.318	800.000	0.092	0.294
-337.304	-29.792	0.125	-0.070
-336.289	-14.278	-0.101	0.064
-335.275	-34.010	0.135	0.073
-334.260	800.000	-0.050	-0.184
-333.245	800.000	0.035	-0.095
-332.231	-41.970	0.098	0.050
-331.216	18.002	0.101	0.079
-330.202	-70.350	0.074	0.027
-329.187	-7.034	0.227	0.152
-328.172	97.205	-0.156	0.177
-327.158	-121.653	0.269	0.044
-326.143	42.789	0.075	0.067
-325.129	-17.438	-0.195	0.121
-324.114	-140.123	0.072	-0.007
-323.099	88.577	-0.149	0.163
-322.085	71.865	-0.200	0.204
-321.070	-86.757	-0.108	-0.033
-320.056	540.660	-0.067	0.158
-319.041	122.717	0.147	0.181
-318.026	104.514	-0.140	-0.162
-317.012	800.000	0.081	0.285
-315.997	278.696	-0.025	-0.045
-314.983	130.579	0.177	-0.223
-313.968	-29.009	-0.156	0.088
-312.953	10.632	-0.375	-0.281
-311.939	800.000	-0.066	0.270
-310.924	474.428	-0.093	-0.207
-309.910	2.202	-0.288	-0.205
-308.895	-6.433	-0.210	-0.141
-307.880	-76.094	0.398	0.138
-306.866	377.904	0.106	0.214
-305.851	59.717	0.102	0.099
-304.837	800.000	-0.090	0.250
-303.822	244.681	-0.035	-0.058
-302.807	64.947	0.049	0.049
-301.793	-47.156	-0.092	-0.044
-300.778	800.000	-0.046	0.126
-299.764	800.000	0.035	0.116
-298.749	-136.283	-0.293	0.034
-297.735	-200.000	-0.026	0.136
-296.720	-200.000	0.017	-0.195
-295.705	-41.966	0.234	-0.118
-294.691	28.399	-0.017	-0.014
-293.676	-61.384	0.006	0.003
-292.662	436.741	-0.058	0.124
-291.647	753.652	-0.051	-0.135
-290.632	-81.121	0.153	0.050
-289.618	170.507	0.188	0.265
-288.603	-200.000	-0.074	0.379
-287.589	266.095	-0.106	-0.181
-286.574	150.715	0.020	-0.026
-285.559	663.317	0.063	0.161
-284.545	-200.000	0.005	-0.107
-283.530	-111.485	-0.062	0.012
-282.516	-200.000	0.010	0.456
-281.501	-114.351	0.301	-0.057
-280.486	297.344	0.060	-0.107
-279.472	800.000	0.043	-0.141
-278.457	290.516	0.184	-0.328
-277.443	-89.955	0.210	-0.060
-276.428	-200.000	0.016	-0.122
-275.413	-200.000	-0.025	0.109
-274.399	-77.774	0.145	-0.049
-273.384	-5.057	0.366	-0.247
-272.370	-186.952	-0.266	-0.004
-271.355	123.623	0.176	0.217
-270.340	800.000	0.160	-0.468
-269.326	406.313	0.177	-0.366
-268.311	57.817	0.180	-0.173
-267.297	629.237	0.031	-0.077
-266.282	800.000	-0.047	-0.130
-265.267	-200.000	-0.019	0.167
-264.253	-72.592	-0.084	-0.030
-263.238	800.000	-0.040	0.123
-262.224	370.294	0.024	-0.048
-261.209	-200.000	0.053	-0.243
-260.195	495.670	-0.155	-0.351
-259.180	383.168	-0.060	-0.121
-258.165	241.510	0.215	0.353
-257.151	-200.000	0.029	-0.190
-256.136	-200.000	-0.009	-0.153
-255.122	-200.000	-0.024	-0.449
-254.107	-113.084	0.172	0.033
-253.092	-64.301	-0.184	-0.073
-252.078	800.000	0.079	0.242
-251.063	201.241	-0.091	0.137
-250.049	8.621	0.194	0.143
-249.034	-200.000	0.020	-0.131
-248.019	64.561	-0.058	0.057
-247.005	-69.514	0.124	-0.047
-245.990	-200.000	0.016	0.225
-244.976	-73.347	0.321	0.115
-243.961	-131.872	0.212	0.027
-242.946	-200.000	-0.028	0.457
-241.932	-36.227	-0.085	0.045
-240.917	-56.011	0.360	0.158
-239.903	-200.000	-0.024	0.129
-238.888	-99.412	0.134	0.033
-237.873	373.827	-0.041	0.081
-236.859	1.334	0.002	-0.001
-235.844	-9.069	0.238	0.156
-234.830	610.808	-0.016	0.039
-233.815	26.152	0.170	-0.139
-232.800	-114.052	-0.192	0.036
-231.786	-169.666	0.283	0.010
-230.771	-200.000	0.053	0.240
-229.757	-200.000	0.009	0.106
-228.742	499.599	0.076	-0.171
-227.727	17.128	0.074	0.058
-226.713	251.524	-0.045	0.075
-225.698	-200.000	-0.005	0.024
-224.684	-116.589	0.371	-0.067
-223.669	-200.000	-0.050	-0.437
-222.655	-60.316	0.169	0.071
-221.640	-59.796	-0.130	0.054
-220.625	-67.188	-0.272	-0.105
-219.611	-131.766	0.209	0.027
-218.596	-55.994	0.351	-0.153
-217.582	-112.753	-0.308	0.060
-216.567	-200.000	0.019	-0.204
-215.552	34.475	0.119	-0.102
-214.538	-130.647	-0.160	-0.021
-213.523	-109.253	-0.273	-0.057
-212.509	-64.066	0.058	0.023
-211.494	-37.426	0.130	0.068
-210.479	-18.445	0.259	0.158
-209.465	800.000	-0.087	0.305
-208.450	48.981	0.099	0.091
-207.436	-161.250	0.300	0.015
-206.421	-200.000	0.093	0.459
-205.406	800.000	-0.064	0.202
-204.392	32.030	0.324	-0.274
-203.377	-119.563	-0.152	-0.026
-202.363	-200.000	0.003	0.156
-201.348	-102.492	0.187	0.044
-200.333	-62.301	0.129	-0.053
-199.319	-200.000	0.011	-0.160
-198.304	-51.091	-0.211	0.097
-197.290	415.750	0.144	-0.302
-196.275	368.644	-0.078	0.154
-195.260	-121.788	0.179	-0.029
-194.246	-62.004	-0.168	0.069
-193.231	192.190	0.082	0.121
-192.217	235.760	-0.196	-0.316
-191.202	-49.913	0.099	-0.046
-190.187	-68.667	0.052	-0.020
-189.173	69.702	-0.211	-0.213
-188.158	-25.072	-0.356	-0.206
-187.144	-200.000	-0.075	-0.432
-186.129	469.776	0.054	-0.119
-185.114	-19.927	0.457	0.276
-184.100	-200.000	0.029	0.231
-183.085	-75.849	-0.437	0.152
-182.071	800.000	-0.069	0.279
-181.056	288.660	0.085	0.150
-180.042	-200.000	0.025	0.153
-179.027	-200.000	0.002	0.280
-178.012	215.227	-0.143	0.221
-176.998	-200.000	0.009	0.047
-175.983	119.514	0.106	-0.128
-174.969	-65.398	0.422	0.166
-173.954	-200.000	-0.045	0.233
-172.939	-200.000	-0.015	0.255
-171.925	132.616	-0.087	0.110
-170.910	72.094	0.019	-0.019
-169.896	-143.021	0.408	0.039
-168.881	335.492	-0.080	-0.151
-167.866	-184.131	-0.238	-0.004
-166.852	52.324	0.098	0.092
-165.837	175.628	0.169	0.240
-164.823	-47.972	0.144	-0.068
-163.808	553.796	0.138	-0.326
-162.793	-169.214	0.079	-0.003
-161.779	-18.292	-0.156	-0.095
-160.764	800.000	0.065	0.245
-159.750	-200.000	0.006	-0.099
-158.735	-200.000	0.084	-0.437
-157.720	-40.456	0.148	0.075
-156.706	-200.000	0.003	0.261
-155.691	26.668	0.183	-0.149
-154.677	-80.472	-0.067	0.022
-153.662	90.018	0.052	0.057
-152.647	800.000	0.019	-0.058
-151.633	161.467	0.118	0.161
-150.618	-93.241	0.221	-0.060
-149.604	530.851	-0.021	0.049
-148.589	800.000	-0.013	0.048
-147.574	-128.714	0.316	-0.044
-146.560	800.000	0.131	-0.411
-145.545	800.000	0.070	0.194
-144.531	-105.779	0.242	0.053
-143.516	315.342	-0.083	-0.153
-142.502	-128.524	0.199	-0.028
-141.487	-200.000	0.260	0.001
-140.472	-105.037	0.298	0.067
-139.458	5.631	0.321	0.232
-138.443	-105.369	0.137	0.031
-137.429	-122.521	-0.420	-0.067
-136.414	-138.580	0.467	0.050
-135.399	-200.000	-0.006	-0.147
-134.385	-91.979	-0.311	0.086
-133.370	800.000	-0.043	-0.168
-132.356	-145.091	0.262	0.023
-131.341	-86.129	0.223	-0.067
-130.326	-6.000	-0.181	0.121
-129.312	157.461	-0.132	-0.178
-128.297	-80.957	-0.045	0.015
-127.283	227.184	0.107	0.169
-126.268	-7.850	0.184	-0.121
-125.253	-143.181	0.191	0.018
-124.239	66.529	-0.073	-0.073
-123.224	-81.726	0.070	0.022
-122.210	-58.404	-0.038	-0.016
