DTS Sentinel unit serial number:	SN413079Multiplexer serial number:	ORYXHardware model number:	OX4-SRSoftware version number:	ORYX F/W v4.00 Oryx Data Collector v3.7.2.0data status	okinstallation	princeton_trtdifferential loss correction	single-endedforward channel	channel 3reverse channel	N/Adate	2019/09/19time	11:52:34forward acquisition time	60.00reverse acquisition time	0.00gamma	496.2192k internal	0.2341k external	0.2341temperature offset calibration	0.9986default loss term (dB/km)	0.3790temperature slope calibration	1.0000multiplexer offset coefficient	1.0000multiplexer slope coefficient	1.0000fibre end	0.00T internal ref (°C)	25.86T ext. ref 1 (°C)	0.82T ext. ref 2 (°C)	21.80length (m)	temperature (°C)	Stokes	anti-Stokes-747.200	-200.000	-0.033	-0.372
-746.185	-200.000	-0.027	0.161
-745.171	30.549	-0.247	-0.212
-744.156	46.504	0.145	0.135
-743.142	569.797	-0.032	-0.078
-742.127	203.444	0.143	-0.221
-741.112	-200.000	0.021	0.430
-740.098	148.037	-0.123	0.166
-739.083	-200.000	0.036	0.483
-738.069	-194.666	-0.469	-0.004
-737.054	544.995	-0.074	0.178
-736.039	0.137	0.244	-0.174
-735.025	-200.000	0.042	0.239
-734.010	125.866	0.212	-0.268
-732.996	61.041	-0.063	-0.062
-731.981	68.913	-0.086	0.088
-730.966	-200.000	0.005	-0.083
-729.952	404.808	0.110	-0.233
-728.937	-66.909	0.426	0.169
-727.923	-200.000	0.044	0.217
-726.908	-1.664	-0.164	-0.116
-725.894	195.043	-0.233	-0.354
-724.879	-5.063	-0.072	0.050
-723.864	-200.000	-0.000	0.154
-722.850	-76.905	-0.215	-0.075
-721.835	-25.257	-0.221	0.131
-720.821	-147.919	-0.395	-0.033
-719.806	800.000	-0.098	-0.368
-718.791	-146.772	0.163	0.014
-717.777	110.003	-0.238	0.286
-716.762	386.566	-0.178	-0.367
-715.748	-103.700	-0.300	-0.070
-714.733	-86.922	0.331	0.101
-713.718	-200.000	0.020	-0.318
-712.704	-134.861	-0.307	-0.037
-711.689	800.000	-0.060	0.168
-710.675	254.636	-0.102	0.175
-709.660	548.039	0.100	0.240
-708.645	-47.677	-0.254	0.124
-707.631	-79.124	-0.284	-0.096
-706.616	-37.101	0.084	-0.045
-705.602	-200.000	-0.077	0.356
-704.587	714.109	0.053	0.140
-703.572	-200.000	-0.024	0.205
-702.558	-63.938	0.021	0.009
-701.543	800.000	-0.048	0.182
-700.529	688.938	0.060	-0.157
-699.514	621.967	-0.130	-0.328
-698.499	45.202	0.240	0.222
-697.485	800.000	-0.055	0.207
-696.470	2.396	0.438	-0.317
-695.456	-97.894	-0.156	0.040
-694.441	800.000	0.074	0.301
-693.426	800.000	-0.099	0.369
-692.412	713.145	-0.106	0.280
-691.397	-131.747	-0.115	0.015
-690.383	-59.626	-0.469	0.201
-689.368	-20.405	-0.226	0.139
-688.354	59.286	-0.023	-0.023
-687.339	800.000	-0.035	-0.106
-686.324	108.297	0.057	-0.068
-685.310	103.859	0.246	0.289
-684.295	-107.915	0.124	0.027
-683.281	800.000	0.045	0.195
-682.266	57.187	-0.069	0.068
-681.251	800.000	0.063	0.250
-680.237	800.000	0.052	-0.171
-679.222	-2.725	-0.225	0.158
-678.208	-200.000	-0.081	-0.456
-677.193	25.319	-0.047	-0.039
-676.178	-80.267	-0.088	-0.029
-675.164	-154.758	0.258	0.017
-674.149	-137.117	-0.345	-0.039
-673.135	166.300	0.022	-0.031
-672.120	-42.823	0.068	0.035
-671.105	118.579	0.183	-0.226
-670.091	-9.767	0.190	0.126
-669.076	102.629	0.098	-0.114
-668.062	-53.367	-0.201	-0.092
-667.047	-165.925	0.163	-0.007
-666.032	69.605	0.022	0.023
-665.018	-82.860	0.190	-0.061
-664.003	26.309	-0.279	0.233
-662.989	-92.325	-0.453	0.128
-661.974	-200.000	-0.008	-0.182
-660.959	14.772	-0.104	0.081
-659.945	131.218	-0.099	-0.127
-658.930	800.000	-0.028	0.110
-657.916	800.000	0.086	-0.274
-656.901	-200.000	0.069	-0.324
-655.886	-102.239	0.316	-0.076
-654.872	-180.712	-0.159	-0.003
-653.857	-160.817	-0.270	-0.014
-652.843	800.000	-0.059	-0.208
-651.828	-200.000	0.027	-0.316
-650.814	800.000	-0.049	0.208
-649.799	160.671	-0.145	0.202
-648.784	152.562	-0.208	-0.283
-647.770	74.424	-0.101	-0.106
-646.755	138.953	-0.092	0.121
-645.741	119.570	-0.074	-0.091
-644.726	-29.787	0.161	0.092
-643.711	78.531	-0.055	-0.058
-642.697	-200.000	-0.049	-0.275
-641.682	800.000	-0.112	-0.317
-640.668	46.700	0.160	-0.148
-639.653	-146.749	-0.337	-0.029
-638.638	-200.000	0.013	0.317
-637.624	690.355	0.058	-0.151
-636.609	-54.469	-0.190	0.086
-635.595	52.664	-0.273	0.260
-634.580	4.731	0.179	0.131
-633.565	532.032	-0.125	-0.296
-632.551	185.023	0.057	0.084
-631.536	106.600	-0.283	0.335
-630.522	-1.006	0.095	0.067
-629.507	370.274	0.141	0.284
-628.492	-124.191	0.272	0.043
-627.478	171.413	-0.145	0.208
-626.463	223.187	-0.151	0.243
-625.449	-49.894	0.080	0.038
-624.434	-200.000	-0.013	0.074
-623.419	-200.000	0.009	0.185
-622.405	-200.000	-0.027	0.181
-621.390	800.000	0.092	0.275
-620.376	144.724	0.210	0.280
-619.361	14.215	0.120	-0.093
-618.346	141.237	-0.043	0.057
-617.332	-98.645	-0.134	-0.034
-616.317	333.643	-0.210	-0.405
-615.303	-200.000	0.017	0.097
-614.288	-37.224	0.250	-0.133
-613.273	-200.000	-0.042	-0.509
-612.259	275.042	-0.116	-0.204
-611.244	800.000	-0.141	-0.421
-610.230	-200.000	0.017	-0.270
-609.215	242.563	-0.150	-0.250
-608.201	-200.000	0.045	-0.357
-607.186	57.535	-0.128	-0.125
-606.171	-54.669	-0.085	0.038
-605.157	-5.176	0.076	-0.052
-604.142	-136.996	-0.278	0.032
-603.128	-200.000	-0.020	-0.121
-602.113	21.594	0.111	0.090
-601.098	-1.125	-0.329	0.232
-600.084	-17.692	-0.234	0.147
-599.069	4.913	-0.135	0.099
-598.055	-152.302	-0.074	0.005
-597.040	-144.748	-0.118	0.011
-596.025	-76.323	-0.134	0.047
-595.011	-67.264	-0.064	0.025
-593.996	582.677	-0.078	-0.190
-592.982	34.685	0.058	-0.051
-591.967	-162.158	-0.137	0.007
-590.952	-141.204	-0.240	-0.024
-589.938	-20.112	0.219	0.135
-588.923	-12.611	-0.047	0.031
-587.909	439.379	-0.021	0.045
-586.894	-101.803	0.025	0.006
-585.879	800.000	0.079	-0.228
-584.865	65.732	0.246	0.248
-583.850	-152.837	-0.315	-0.022
-582.836	-175.897	-0.273	0.007
-581.821	57.831	0.201	0.196
-580.806	-200.000	0.041	-0.182
-579.792	192.335	0.111	0.166
-578.777	-71.867	-0.203	-0.075
-577.763	48.448	-0.349	-0.325
-576.748	142.666	-0.026	-0.034
-575.733	-79.876	-0.441	0.148
-574.719	-29.226	-0.072	-0.041
-573.704	-42.764	0.113	0.057
-572.690	-166.692	-0.237	0.010
-571.675	16.318	-0.168	-0.132
-570.661	-64.691	-0.365	-0.147
-569.646	-200.000	-0.069	-0.302
-568.631	-200.000	0.011	-0.274
-567.617	-62.098	0.193	0.080
-566.602	-112.909	-0.162	0.032
-565.588	-40.812	-0.081	0.042
-564.573	-63.059	-0.318	-0.131
-563.558	35.290	-0.054	-0.047
-562.544	110.625	0.214	-0.256
-561.529	48.341	-0.367	-0.342
-560.515	800.000	-0.058	0.182
-559.500	-66.995	-0.390	-0.153
-558.485	-35.217	0.325	-0.176
-557.471	68.732	0.163	0.167
-556.456	-65.072	0.483	0.194
-555.442	126.111	0.055	0.069
-554.427	46.640	0.110	-0.101
-553.412	-200.000	0.009	0.194
-552.398	-13.561	0.234	-0.151
-551.383	-200.000	0.011	0.221
-550.369	340.191	0.060	-0.117
-549.354	-200.000	0.071	0.370
-548.339	-48.149	0.149	-0.071
-547.325	-140.506	-0.291	-0.030
-546.310	-160.555	-0.173	-0.009
-545.296	299.915	0.032	0.059
-544.281	800.000	-0.031	0.098
-543.266	-122.691	-0.226	-0.036
-542.252	-123.643	0.053	-0.008
-541.237	57.906	-0.179	-0.175
-540.223	-200.000	0.325	-0.001
-539.208	800.000	0.067	-0.198
-538.193	800.000	-0.025	-0.075
-537.179	-83.995	0.331	0.105
-536.164	15.182	-0.053	-0.042
-535.150	314.758	0.052	-0.097
-534.135	43.976	-0.169	-0.154
-533.121	-26.477	-0.088	-0.051
-532.106	540.684	0.128	0.303
-531.091	294.482	0.106	0.193
-530.077	800.000	0.068	0.253
-529.062	-59.635	-0.049	-0.021
-528.048	800.000	-0.042	-0.130
-527.033	-77.651	-0.201	-0.069
-526.018	274.626	-0.035	-0.062
-525.004	800.000	-0.039	0.112
-523.989	759.303	-0.036	-0.098
-522.975	63.352	0.235	0.234
-521.960	-200.000	-0.004	0.042
-520.945	-168.644	0.267	-0.010
-519.931	0.774	0.025	-0.018
-518.916	-96.272	0.161	0.042
-517.902	-76.757	-0.233	-0.081
-516.887	43.468	-0.159	-0.144
-515.872	-18.712	0.068	-0.042
-514.858	-72.875	-0.120	-0.044
-513.843	-8.371	-0.247	0.165
-512.829	-137.512	-0.251	-0.028
-511.814	-50.896	0.146	0.068
-510.799	800.000	-0.113	-0.468
-509.785	-107.954	0.440	0.095
-508.770	103.938	-0.070	-0.081
-507.756	423.637	0.108	-0.230
-506.741	92.496	0.184	-0.207
-505.726	-10.048	-0.147	0.097
-504.712	800.000	-0.058	0.158
-503.697	-200.000	-0.020	-0.420
-502.683	196.919	0.081	0.122
-501.668	-95.197	0.217	0.058
-500.653	-200.000	0.016	0.331
-499.639	-39.472	-0.171	-0.089
-498.624	167.775	-0.179	0.253
-497.610	12.522	0.207	0.159
-496.595	-76.145	0.224	-0.078
-495.581	377.378	0.014	0.029
-494.566	45.315	-0.157	0.144
-493.551	-118.701	-0.152	0.027
-492.537	197.600	0.129	0.195
-491.522	-14.961	0.214	0.136
-490.508	-156.867	-0.105	0.006
-489.493	-200.000	0.060	0.300
-488.478	279.009	0.203	-0.359
-487.464	490.794	0.061	0.139
-486.449	-98.942	0.109	0.027
-485.435	-6.554	0.062	0.042
-484.420	368.841	0.163	0.328
-483.405	-200.000	0.010	0.378
-482.391	-95.929	-0.141	-0.037
-481.376	-38.542	0.193	0.101
-480.362	111.898	-0.145	0.174
-479.347	-33.080	0.063	0.034
-478.332	534.929	-0.095	0.224
-477.318	-87.909	-0.229	-0.068
-476.303	144.319	-0.171	-0.226
-475.289	404.424	0.101	0.211
-474.274	31.958	0.272	-0.232
-473.259	261.668	0.061	-0.104
-472.245	9.498	-0.035	-0.027
-471.230	-125.957	-0.193	0.029
-470.216	-100.637	0.227	-0.055
-469.201	-121.965	-0.278	0.045
-468.186	-200.000	-0.083	0.524
-467.172	651.058	0.015	0.038
-466.157	-200.000	0.009	0.141
-465.143	-200.000	-0.015	0.185
-464.128	7.821	0.076	0.057
-463.113	-200.000	-0.055	0.260
-462.099	221.705	0.042	0.067
-461.084	142.373	-0.120	-0.157
-460.070	-200.000	-0.086	-0.388
-459.055	-151.815	0.126	0.009
-458.040	256.529	-0.082	-0.139
-457.026	67.593	-0.068	-0.069
-456.011	90.341	0.364	-0.404
-454.997	-200.000	-0.005	0.362
-453.982	221.177	0.021	0.034
-452.968	-63.163	0.120	-0.049
-451.953	-62.674	-0.341	0.140
-450.938	19.709	0.199	-0.159
-449.924	-92.535	-0.243	0.067
-448.909	-200.000	-0.029	0.304
-447.895	-49.770	0.093	0.044
-446.880	-53.406	-0.088	0.040
-445.865	-41.789	0.038	-0.019
-444.851	-200.000	-0.022	0.136
-443.836	-146.993	-0.258	0.022
-442.822	-145.464	0.175	-0.016
-441.807	-163.614	0.206	0.010
-440.792	-89.091	0.206	0.060
-439.778	111.639	0.217	0.259
-438.763	-66.013	0.161	-0.063
-437.749	236.309	-0.117	-0.191
-436.734	523.588	0.167	-0.389
-435.719	-200.000	0.082	0.436
-434.705	120.154	0.196	-0.241
-433.690	-200.000	-0.003	0.225
-432.676	97.232	-0.223	-0.253
-431.661	30.881	0.134	0.114
-430.646	-200.000	0.021	0.094
-429.632	-200.000	-0.035	-0.190
-428.617	267.941	-0.076	0.131
-427.603	-81.363	-0.415	0.135
-426.588	-15.890	-0.232	0.147
-425.573	-7.844	0.150	0.101
-424.559	-108.879	0.098	0.021
-423.544	800.000	-0.058	0.186
-422.530	506.076	0.033	-0.075
-421.515	-22.764	0.163	0.097
-420.500	-126.186	-0.319	-0.047
-419.486	800.000	-0.085	-0.256
-418.471	99.873	0.213	-0.244
-417.457	-200.000	0.033	-0.248
-416.442	-136.987	-0.380	-0.043
-415.428	-53.778	0.097	0.044
-414.413	-6.339	-0.248	0.167
-413.398	-26.929	-0.177	0.102
-412.384	-73.607	0.213	0.077
-411.369	-73.077	0.318	0.115
-410.355	151.304	0.054	0.072
-409.340	15.508	0.177	0.137
-408.325	64.535	0.240	0.239
-407.311	564.508	0.118	-0.284
-406.296	114.586	-0.157	-0.189
-405.282	189.054	0.111	-0.165
-404.267	47.477	0.128	-0.118
-403.252	52.348	0.136	0.128
-402.238	313.074	0.051	0.094
-401.223	119.384	-0.163	-0.199
-400.209	800.000	-0.081	0.272
-399.194	106.355	-0.150	0.176
-398.179	483.050	0.047	0.105
-397.165	-29.852	-0.162	-0.091
-396.150	-52.843	-0.216	-0.098
-395.136	-200.000	0.069	-0.383
-394.121	800.000	-0.048	0.192
-393.106	374.668	-0.025	-0.050
-392.092	800.000	-0.158	0.468
-391.077	60.121	0.102	0.100
-390.063	51.059	-0.065	-0.061
-389.048	-29.344	-0.505	-0.286
-388.033	-95.859	0.277	0.073
-387.019	-200.000	0.006	-0.215
-386.004	129.230	-0.247	-0.311
-384.990	685.689	-0.085	-0.218
-383.975	-123.269	-0.217	-0.034
-382.960	156.043	-0.083	0.112
-381.946	34.199	-0.067	0.058
-380.931	169.780	0.076	0.107
-379.917	513.398	0.113	0.261
-378.902	-53.494	-0.385	-0.174
-377.888	-200.000	0.055	-0.279
-376.873	159.842	-0.199	0.274
-375.858	-118.887	-0.173	0.030
-374.844	-89.809	0.187	-0.054
-373.829	29.597	-0.255	-0.214
-372.815	-200.000	-0.012	0.084
-371.800	116.159	0.068	-0.082
-370.785	-103.819	-0.216	-0.050
-369.771	-84.737	0.355	0.110
-368.756	-200.000	-0.036	0.205
-367.742	8.186	-0.351	0.260
-366.727	-200.000	-0.006	-0.188
-365.712	-84.843	-0.361	-0.112
-364.698	71.324	-0.107	0.109
-363.683	-65.467	0.445	-0.176
-362.669	-79.391	0.338	0.113
-361.654	259.282	-0.068	-0.117
-360.639	800.000	0.069	-0.226
-359.625	-96.862	0.295	0.076
-358.610	70.852	-0.170	0.174
-357.596	-38.715	0.217	0.113
-356.581	800.000	0.043	-0.119
-355.566	153.524	-0.149	0.202
-354.552	128.054	0.123	0.155
-353.537	-200.000	-0.026	-0.171
-352.523	-200.000	0.008	-0.249
-351.508	293.541	0.176	-0.317
-350.493	55.838	-0.277	-0.265
-349.479	307.196	-0.061	-0.111
-348.464	-187.072	0.131	-0.002
-347.450	-89.725	-0.383	-0.111
-346.435	-88.521	0.160	0.047
-345.420	-200.000	-0.003	-0.254
-344.406	173.806	0.092	0.132
-343.391	-49.371	0.207	0.098
-342.377	-113.238	0.099	0.019
-341.362	-66.062	0.317	0.125
-340.348	-68.457	-0.161	0.062
-339.333	-44.272	0.223	-0.110
-338.318	14.504	-0.040	-0.031
-337.304	-200.000	-0.003	-0.175
-336.289	66.562	-0.175	-0.176
-335.275	-120.160	-0.025	-0.004
-334.260	-51.922	0.133	-0.061
-333.245	-90.222	-0.190	-0.055
-332.231	10.124	-0.080	0.060
-331.216	747.858	0.071	-0.190
-330.202	68.905	0.268	0.272
-329.187	-33.508	0.199	0.108
-328.172	672.239	0.059	0.150
-327.158	800.000	0.119	0.414
-326.143	57.944	0.272	0.262
-325.129	-42.966	0.258	0.129
-324.114	800.000	-0.036	-0.150
-323.099	159.776	-0.212	0.291
-322.085	90.696	-0.221	0.244
-321.070	-196.182	0.240	-0.002
-320.056	124.875	0.131	-0.163
-319.041	117.880	0.025	-0.030
-318.026	17.436	-0.017	-0.013
-317.012	-76.193	0.312	-0.108
-315.997	-159.456	0.170	-0.009
-314.983	604.127	-0.082	0.202
-313.968	-34.912	0.239	-0.128
-312.953	-59.856	0.273	-0.115
-311.939	-93.268	0.271	-0.074
-310.924	28.238	-0.053	0.044
-309.910	800.000	0.048	0.146
-308.895	-8.287	-0.209	0.139
-307.880	19.917	-0.247	0.196
-306.866	-12.260	-0.070	-0.045
-305.851	8.687	0.157	0.116
-304.837	49.886	-0.124	0.116
-303.822	-121.378	0.294	-0.048
-302.807	-91.730	0.392	0.110
-301.793	87.332	0.050	0.055
-300.778	240.951	0.100	-0.164
-299.764	-100.173	-0.168	-0.041
-298.749	662.427	0.158	0.401
-297.735	-25.178	0.128	0.075
-296.720	206.602	-0.139	0.213
-295.705	-82.582	0.269	0.086
-294.691	481.910	-0.053	-0.120
-293.676	-66.046	0.196	0.077
-292.662	98.926	-0.271	0.308
-291.647	800.000	-0.039	0.109
-290.632	196.544	0.082	0.123
-289.618	800.000	0.097	0.409
-288.603	800.000	0.048	0.200
-287.589	565.114	0.069	0.164
-286.574	424.005	-0.052	-0.111
-285.559	-12.107	0.119	0.077
-284.545	48.151	-0.085	-0.078
-283.530	800.000	-0.141	-0.479
-282.516	-59.132	-0.355	-0.151
-281.501	552.165	-0.073	-0.174
-280.486	77.645	-0.221	-0.231
-279.472	-128.165	-0.165	-0.023
-278.457	646.630	0.078	-0.197
-277.443	620.754	-0.031	0.078
-276.428	-200.000	0.056	-0.357
-275.413	-103.421	-0.040	-0.009
-274.399	-200.000	-0.021	-0.270
-273.384	-152.145	0.158	-0.011
-272.370	42.279	-0.264	0.236
-271.355	389.638	-0.088	-0.180
-270.340	-200.000	0.061	-0.315
-269.326	-128.783	0.171	0.024
-268.311	-105.541	0.103	-0.023
-267.297	193.610	0.133	-0.198
-266.282	800.000	0.098	0.320
-265.267	-114.260	-0.219	-0.042
-264.253	-69.035	0.159	0.060
-263.238	-54.210	-0.105	0.047
-262.224	-142.597	0.548	-0.053
-261.209	-94.419	-0.234	0.063
-260.195	107.252	-0.142	-0.166
-259.180	168.876	0.150	-0.211
-258.165	366.464	-0.034	-0.067
-257.151	-55.113	-0.313	0.138
-256.136	112.285	0.183	-0.218
-255.122	250.249	-0.063	0.105
-254.107	188.636	0.243	-0.357
-253.092	19.371	-0.022	-0.017
-252.078	411.401	0.059	0.124
-251.063	-24.827	0.268	-0.156
-250.049	-21.644	-0.323	0.193
-249.034	336.930	0.102	0.196
-248.019	342.964	0.230	0.442
-247.005	-115.682	0.182	-0.034
-245.990	-62.509	0.115	0.047
-244.976	194.802	-0.262	-0.391
-243.961	156.792	-0.081	0.109
-242.946	-84.896	0.285	0.088
-241.932	-200.000	-0.034	-0.187
-240.917	-22.825	0.269	0.159
-239.903	-200.000	-0.021	-0.375
-238.888	46.949	0.175	0.160
-237.873	-140.785	0.261	-0.026
-236.859	106.997	-0.189	-0.220
-235.844	-200.000	0.068	0.312
-234.830	800.000	-0.048	-0.171
-233.815	245.430	0.098	0.162
-232.800	-75.202	-0.232	0.082
-231.786	43.797	-0.235	0.212
-230.771	-0.668	-0.047	0.033
-229.757	-104.238	0.227	-0.052
-228.742	247.988	0.054	0.090
-227.727	202.819	-0.054	0.082
-226.713	205.109	0.077	-0.117
-225.698	-137.130	-0.038	-0.004
-224.684	34.676	0.229	0.197
-223.669	89.257	-0.204	0.223
-222.655	550.869	0.123	0.290
-221.640	-166.984	0.273	0.011
-220.625	-103.361	0.093	0.022
-219.611	-49.754	0.204	-0.095
-218.596	-19.844	-0.137	-0.083
-217.582	-200.000	-0.033	-0.183
-216.567	296.201	-0.134	-0.242
-215.552	-12.880	-0.092	0.059
-214.538	676.917	0.075	-0.192
-213.523	80.653	-0.035	-0.037
-212.509	-132.463	-0.029	-0.004
-211.494	9.850	0.185	-0.137
-210.479	10.888	-0.117	-0.088
-209.465	-116.103	-0.171	-0.031
-208.450	-87.090	-0.169	-0.051
-207.436	244.092	-0.232	0.383
-206.421	-200.000	0.011	0.058
-205.406	503.069	0.221	-0.503
-204.392	-167.740	-0.180	0.007
-203.377	157.383	0.122	-0.166
-202.363	74.704	0.102	0.105
-201.348	521.402	0.071	0.163
-200.333	-178.412	-0.435	-0.010
-199.319	20.983	0.182	-0.145
-198.304	-200.000	-0.005	0.053
-197.290	-19.237	0.333	0.203
-196.275	258.384	-0.196	-0.330
-195.260	-5.992	-0.052	-0.035
-194.246	-200.000	-0.028	-0.177
-193.231	616.755	0.045	-0.112
-192.217	100.737	-0.049	-0.056
-191.202	220.577	-0.078	0.122
-190.187	406.808	0.142	0.295
-189.173	-61.959	-0.373	-0.153
-188.158	158.060	0.302	0.410
-187.144	239.837	0.166	0.272
-186.129	143.611	-0.043	-0.056
-185.114	-73.467	-0.049	0.017
-184.100	-200.000	-0.017	0.116
-183.085	-52.973	0.116	-0.052
-182.071	-200.000	0.002	-0.097
-181.056	-119.174	-0.187	0.032
-180.042	110.730	-0.166	-0.196
-179.027	-91.268	-0.290	-0.081
-178.012	800.000	0.140	-0.402
-176.998	-139.037	0.021	0.002
-175.983	307.315	0.105	0.191
-174.969	-128.727	-0.250	0.035
-173.954	707.034	0.086	0.222
-172.939	-80.052	-0.370	-0.122
-171.925	-29.715	-0.176	-0.098
-170.910	-61.360	-0.078	0.032
-169.896	-111.555	-0.132	-0.026
-168.881	-21.090	-0.044	0.027
-167.866	-104.983	0.162	0.036
-166.852	-177.618	0.088	-0.002
-165.837	-131.618	0.291	0.038
-164.823	181.188	-0.111	-0.159
-163.808	-111.279	0.094	0.019
-162.793	-126.992	0.319	-0.046
-161.779	-200.000	-0.068	-0.359
-160.764	-1.067	0.285	-0.197
-159.750	800.000	-0.035	0.135
-158.735	174.401	0.188	0.266
-157.720	-12.834	0.090	0.057
-156.706	-200.000	0.014	0.072
-155.691	800.000	0.055	-0.150
-154.677	192.080	0.303	-0.447
-153.662	241.659	0.106	0.174
-152.647	-84.373	-0.225	0.070
-151.633	96.633	0.431	-0.484
-150.618	100.192	0.327	0.371
-149.604	-122.552	0.201	-0.032
-148.589	-71.388	-0.209	0.077
-147.574	-200.000	-0.009	-0.160
-146.560	-200.000	0.001	-0.017
-145.545	651.847	-0.078	-0.195
-144.531	-200.000	-0.005	0.203
-143.516	-127.753	0.265	-0.038
-142.502	681.543	-0.055	0.141
-141.487	684.513	-0.107	-0.274
-140.472	-185.140	0.331	-0.005
-139.458	-200.000	-0.001	-0.034
-138.443	153.860	0.235	-0.315
-137.429	-48.174	0.182	0.086
-136.414	210.685	0.171	-0.264
-135.399	-84.329	0.259	0.080
-134.385	-48.662	0.022	0.010
-133.370	-126.348	-0.198	0.029
-132.356	-88.518	-0.122	-0.035
-131.341	-200.000	0.228	0.001
-130.326	-67.697	-0.258	0.099
-129.312	212.271	0.194	0.299
-128.297	-151.755	0.408	0.029
-127.283	531.172	-0.118	0.273
-126.268	-77.253	-0.332	-0.113
-125.253	-73.259	0.280	0.100
-124.239	197.245	-0.165	0.247
-123.224	-200.000	-0.037	0.179
-122.210	800.000	0.060	0.172
-121.195	25.075	0.346	-0.281
