DTS Sentinel unit serial number:	SN413079Multiplexer serial number:	ORYXHardware model number:	OX4-SRSoftware version number:	ORYX F/W v4.00 Oryx Data Collector v3.7.2.0data status	okinstallation	princeton_trtdifferential loss correction	single-endedforward channel	channel 3reverse channel	N/Adate	2019/09/17time	04:12:34forward acquisition time	60.00reverse acquisition time	0.00gamma	496.2192k internal	0.2323k external	0.2323temperature offset calibration	0.9945default loss term (dB/km)	0.3790temperature slope calibration	1.0000multiplexer offset coefficient	1.0000multiplexer slope coefficient	1.0000fibre end	0.00T internal ref (°C)	29.81T ext. ref 1 (°C)	0.12T ext. ref 2 (°C)	24.31length (m)	temperature (°C)	Stokes	anti-Stokes-747.200	57.105	-0.122	0.120
-746.185	27.864	-0.283	0.241
-745.171	-200.000	0.010	-0.203
-744.156	59.837	-0.056	0.055
-743.142	307.374	-0.155	-0.291
-742.127	-200.000	0.205	-0.001
-741.112	-200.000	0.006	-0.151
-740.098	-200.000	-0.092	0.523
-739.083	800.000	0.057	0.168
-738.069	-91.875	0.266	0.076
-737.054	-200.000	0.027	0.132
-736.039	769.028	0.051	0.141
-735.025	41.353	0.161	0.147
-734.010	356.739	0.050	0.101
-732.996	-35.697	-0.080	-0.044
-731.981	-94.966	-0.092	0.025
-730.966	-110.127	0.250	0.053
-729.952	-143.810	-0.235	-0.022
-728.937	-88.823	-0.143	-0.043
-727.923	434.618	-0.062	0.136
-726.908	617.202	-0.085	0.216
-725.894	-37.398	0.366	-0.197
-724.879	16.907	0.182	-0.146
-723.864	-122.091	-0.206	-0.034
-722.850	177.608	0.207	0.304
-721.835	-82.117	-0.192	-0.063
-720.821	6.292	0.216	-0.162
-719.806	-7.245	0.276	-0.189
-718.791	-66.355	-0.199	0.080
-717.777	-127.937	0.317	-0.046
-716.762	-200.000	0.001	0.029
-715.748	260.747	0.000	0.001
-714.733	-9.133	-0.118	0.079
-713.718	-109.072	-0.116	0.025
-712.704	-70.861	0.141	0.054
-711.689	-191.683	0.271	-0.003
-710.675	-11.974	0.069	0.046
-709.660	-41.741	-0.183	-0.095
-708.645	72.458	0.294	-0.309
-707.631	-24.629	-0.093	0.056
-706.616	-2.207	0.437	0.309
-705.602	-200.000	0.019	-0.179
-704.587	-190.613	-0.466	0.005
-703.572	-31.648	-0.052	0.030
-702.558	531.958	0.098	-0.234
-701.543	-127.835	0.128	-0.019
-700.529	800.000	-0.093	-0.264
-699.514	-112.939	-0.153	0.031
-698.499	380.955	-0.206	-0.425
-697.485	800.000	0.040	-0.143
-696.470	27.127	0.078	-0.066
-695.456	117.561	0.208	-0.259
-694.441	-200.000	0.055	-0.323
-693.426	539.212	0.057	0.138
-692.412	-135.512	0.142	0.017
-691.397	645.101	-0.057	-0.146
-690.383	97.362	0.304	-0.351
-689.368	-64.575	-0.257	0.105
-688.354	-139.810	-0.393	-0.042
-687.339	-200.000	-0.064	0.312
-686.324	-105.211	-0.132	0.030
-685.310	411.955	0.072	0.154
-684.295	-83.199	-0.132	-0.043
-683.281	-83.017	0.127	0.041
-682.266	-200.000	-0.025	-0.247
-681.251	-200.000	-0.020	0.252
-680.237	800.000	0.066	-0.184
-679.222	-200.000	-0.123	0.000
-678.208	-173.183	-0.159	-0.005
-677.193	-160.459	-0.417	0.022
-676.178	-36.582	-0.221	-0.120
-675.164	-18.903	-0.363	-0.227
-674.149	-134.665	0.125	-0.015
-673.135	-155.108	0.049	0.003
-672.120	44.897	0.120	0.111
-671.105	154.224	0.141	-0.195
-670.091	-151.776	0.178	-0.013
-669.076	128.714	0.015	-0.019
-668.062	-109.336	-0.099	-0.021
-667.047	800.000	-0.111	0.418
-666.032	-11.469	0.311	0.206
-665.018	800.000	0.042	-0.144
-664.003	-69.885	-0.209	-0.080
-662.989	30.300	-0.020	0.017
-661.974	-77.453	-0.386	0.135
-660.959	322.617	0.125	0.239
-659.945	-200.000	-0.017	-0.203
-658.930	-200.000	0.034	-0.166
-657.916	-200.000	0.027	-0.201
-656.901	29.764	0.114	0.098
-655.886	-129.237	-0.092	-0.013
-654.872	-35.998	-0.372	-0.202
-653.857	-49.928	-0.272	0.130
-652.843	-200.000	-0.017	0.280
-651.828	-200.000	-0.023	-0.195
-650.814	632.404	-0.189	0.481
-649.799	-66.478	-0.105	-0.042
-648.784	-200.000	-0.062	-0.328
-647.770	-127.655	0.132	-0.019
-646.755	34.755	-0.172	0.151
-645.741	733.862	-0.075	0.201
-644.726	-200.000	-0.041	0.399
-643.711	156.380	0.200	-0.278
-642.697	40.106	-0.196	-0.177
-641.682	-127.442	-0.270	0.039
-640.668	-101.053	0.220	-0.054
-639.653	335.256	0.100	0.195
-638.638	45.578	0.163	-0.152
-637.624	471.931	-0.050	-0.114
-636.609	376.065	0.108	0.222
-635.595	741.419	0.118	0.319
-634.580	0.140	-0.183	-0.131
-633.565	205.136	-0.104	-0.163
-632.551	-200.000	-0.009	-0.086
-631.536	35.062	-0.092	-0.081
-630.522	372.571	0.044	-0.089
-629.507	24.051	-0.150	-0.124
-628.492	129.394	0.147	0.189
-627.478	-71.863	-0.082	-0.031
-626.463	-200.000	0.014	0.422
-625.449	80.287	-0.135	-0.146
-624.434	193.924	-0.145	0.221
-623.419	800.000	-0.064	-0.223
-622.405	177.091	0.067	-0.098
-621.390	124.094	-0.202	-0.256
-620.376	297.800	-0.169	0.313
-619.361	-63.304	0.150	0.062
-618.346	800.000	-0.044	0.191
-617.332	61.760	-0.310	0.310
-616.317	208.851	-0.094	0.147
-615.303	-200.000	0.009	0.212
-614.288	800.000	-0.028	-0.088
-613.273	800.000	-0.080	0.223
-612.259	91.952	0.233	-0.264
-611.244	-200.000	0.004	-0.210
-610.230	406.009	-0.104	0.220
-609.215	-165.419	-0.152	-0.007
-608.201	93.966	0.044	0.050
-607.186	-9.787	-0.252	0.168
-606.171	-200.000	-0.020	0.104
-605.157	800.000	-0.076	-0.233
-604.142	-9.967	0.132	0.088
-603.128	127.886	0.211	-0.270
-602.113	-88.969	-0.223	-0.066
-601.098	-200.000	0.048	0.279
-600.084	-200.000	-0.002	0.124
-599.069	-80.789	-0.159	-0.053
-598.055	63.869	0.117	0.118
-597.040	-52.147	-0.090	-0.042
-596.025	-200.000	-0.012	-0.331
-595.011	78.846	0.052	-0.056
-593.996	-167.907	-0.603	-0.024
-592.982	-166.942	0.223	-0.009
-591.967	-200.000	-0.010	-0.108
-590.952	-184.217	-0.152	-0.003
-589.938	6.851	0.220	-0.165
-588.923	291.670	-0.185	-0.338
-587.909	-200.000	-0.008	-0.112
-586.894	295.692	0.121	-0.222
-585.879	-200.000	-0.019	-0.371
-584.865	-130.753	-0.141	-0.019
-583.850	800.000	-0.078	-0.249
-582.836	-176.084	-0.067	-0.002
-581.821	-18.892	-0.199	-0.124
-580.806	-56.469	0.070	-0.031
-579.792	800.000	-0.070	0.287
-578.777	74.241	-0.255	-0.269
-577.763	15.439	0.121	0.095
-576.748	332.139	-0.071	0.138
-575.733	369.831	-0.082	-0.167
-574.719	-200.000	-0.074	-0.374
-573.704	-53.172	-0.121	-0.056
-572.690	-99.797	-0.285	-0.072
-571.675	-200.000	-0.015	0.143
-570.661	9.085	-0.123	-0.093
-569.646	16.178	-0.038	-0.030
-568.631	-35.610	0.067	0.037
-567.617	-200.000	0.013	-0.063
-566.602	-51.672	0.098	-0.046
-565.588	-54.392	-0.202	0.092
-564.573	171.922	-0.152	0.219
-563.558	-12.116	0.177	-0.116
-562.544	716.517	-0.103	0.275
-561.529	-124.174	0.035	-0.006
-560.515	579.632	0.037	0.091
-559.500	33.295	0.219	-0.191
-558.485	-200.000	-0.030	-0.135
-557.471	800.000	-0.065	0.211
-556.456	347.872	0.103	-0.204
-555.442	10.881	0.230	-0.176
-554.427	-76.383	0.282	-0.100
-553.412	68.788	0.271	0.279
-552.398	-137.763	-0.157	0.018
-551.383	-83.844	-0.485	0.155
-550.369	-138.017	0.327	0.036
-549.354	-35.311	0.257	0.140
-548.339	-165.914	0.183	-0.008
-547.325	137.429	-0.161	-0.211
-546.310	-50.371	0.134	0.063
-545.296	532.143	-0.158	0.375
-544.281	800.000	0.021	-0.057
-543.266	-30.867	-0.214	0.121
-542.252	-51.029	-0.320	-0.150
-541.237	-44.017	-0.266	0.134
-540.223	800.000	-0.018	-0.075
-539.208	84.486	-0.106	-0.116
-538.193	-60.212	0.049	0.021
-537.179	-92.397	-0.156	-0.044
-536.164	-200.000	0.020	-0.195
-535.150	-77.612	0.227	0.079
-534.135	-200.000	0.030	0.141
-533.121	-122.688	0.156	0.025
-532.106	214.471	-0.089	-0.141
-531.091	-63.448	-0.143	0.059
-530.077	426.465	-0.085	-0.184
-529.062	-24.201	0.136	0.082
-528.048	-24.308	-0.180	0.108
-527.033	-200.000	0.047	0.469
-526.018	-200.000	0.018	-0.254
-525.004	-200.000	-0.101	-0.445
-523.989	-4.095	0.090	-0.062
-522.975	-66.102	0.396	-0.158
-521.960	127.904	-0.146	0.186
-520.945	507.851	-0.039	-0.091
-519.931	-200.000	-0.072	-0.330
-518.916	206.594	-0.060	0.094
-517.902	-178.284	0.373	0.009
-516.887	-62.675	0.475	0.197
-515.872	16.917	-0.102	-0.081
-514.858	-200.000	0.005	-0.144
-513.843	800.000	0.032	0.099
-512.829	9.990	-0.147	0.112
-511.814	-34.117	0.169	0.093
-510.799	-163.783	-0.217	0.010
-509.785	393.832	-0.144	0.300
-508.770	154.591	-0.135	-0.186
-507.756	-34.989	-0.358	0.196
-506.741	276.387	0.062	0.110
-505.726	800.000	0.043	-0.125
-504.712	-141.897	-0.312	-0.031
-503.697	-131.984	0.121	-0.016
-502.683	-173.357	-0.199	0.006
-501.668	666.309	-0.100	-0.259
-500.653	-200.000	0.036	-0.168
-499.639	800.000	-0.046	-0.171
-498.624	-200.000	-0.017	0.181
-497.610	204.028	-0.118	-0.182
-496.595	101.873	0.081	-0.094
-495.581	800.000	0.072	0.236
-494.566	109.304	0.026	-0.031
-493.551	-68.020	-0.082	-0.032
-492.537	-183.999	0.334	0.006
-491.522	2.589	0.193	0.140
-490.508	-101.805	0.367	0.089
-489.493	116.807	-0.211	-0.259
-488.478	-129.894	0.349	0.048
-487.464	96.107	0.069	-0.078
-486.449	65.007	-0.067	-0.068
-485.435	-26.432	0.042	-0.025
-484.420	57.463	0.070	-0.068
-483.405	-84.515	-0.115	-0.036
-482.391	115.020	-0.141	0.172
-481.376	57.305	-0.075	0.073
-480.362	59.931	-0.112	-0.110
-479.347	-146.928	0.148	-0.013
-478.332	-126.100	-0.416	-0.062
-477.318	-153.836	0.236	-0.016
-476.303	800.000	-0.036	-0.147
-475.289	493.364	-0.087	0.200
-474.274	-200.000	0.018	0.227
-473.259	-16.573	-0.373	-0.236
-472.245	-74.500	0.235	-0.085
-471.230	-49.114	-0.071	-0.034
-470.216	-200.000	-0.022	-0.260
-469.201	465.390	-0.101	-0.227
-468.186	-200.000	-0.002	0.323
-467.172	-80.414	-0.194	-0.065
-466.157	145.279	-0.040	0.053
-465.143	-200.000	0.011	-0.058
-464.128	23.867	0.148	-0.122
-463.113	379.368	-0.031	0.063
-462.099	367.138	-0.034	-0.069
-461.084	-46.540	0.199	0.098
-460.070	-200.000	-0.015	-0.265
-459.055	371.195	-0.049	-0.099
-458.040	229.189	-0.049	-0.080
-457.026	-148.936	-0.050	-0.004
-456.011	-80.400	-0.050	-0.017
-454.997	-79.227	0.288	-0.097
-453.982	-40.714	0.158	-0.082
-452.968	-46.524	-0.023	0.011
-451.953	12.303	0.135	0.104
-450.938	800.000	0.080	-0.256
-449.924	-200.000	0.016	0.104
-448.909	-19.196	-0.266	0.165
-447.895	-200.000	0.016	-0.138
-446.880	660.339	-0.176	0.452
-445.865	77.324	-0.129	-0.136
-444.851	314.970	0.162	0.305
-443.836	800.000	-0.049	-0.195
-442.822	764.250	0.027	0.073
-441.807	64.094	0.070	-0.070
-440.792	800.000	0.070	0.282
-439.778	-37.208	0.221	0.118
-438.763	-90.727	0.275	0.079
-437.749	-36.286	-0.271	-0.146
-436.734	214.158	0.106	-0.167
-435.719	-46.076	-0.039	0.019
-434.705	-16.867	0.296	0.186
-433.690	3.279	-0.080	-0.058
-432.676	-97.892	-0.173	-0.045
-431.661	607.339	-0.066	0.164
-430.646	353.638	-0.119	-0.235
-429.632	800.000	-0.078	-0.338
-428.617	203.732	-0.151	-0.234
-427.603	-91.868	0.273	0.077
-426.588	-58.702	0.213	0.092
-425.573	-200.000	0.005	0.073
-424.559	5.817	-0.032	-0.024
-423.544	-137.452	0.298	0.034
-422.530	188.629	0.265	0.396
-421.515	18.162	-0.114	-0.090
-420.500	586.416	-0.111	0.273
-419.486	-184.704	-0.207	-0.003
-418.471	-99.222	0.500	0.126
-417.457	-200.000	-0.023	0.152
-416.442	-100.142	0.347	-0.086
-415.428	-114.153	0.356	-0.069
-414.413	800.000	0.033	-0.104
-413.398	-116.769	0.236	-0.043
-412.384	800.000	0.077	0.329
-411.369	-159.485	0.274	0.015
-410.355	-48.037	-0.408	0.196
-409.340	531.091	0.067	0.159
-408.325	256.742	0.068	-0.116
-407.311	-19.202	-0.043	0.027
-406.296	-127.321	-0.353	-0.051
-405.282	370.620	-0.167	0.337
-404.267	-200.000	0.007	0.117
-403.252	75.017	-0.084	-0.089
-402.238	-131.609	-0.291	0.038
-401.223	-55.090	-0.070	-0.031
-400.209	140.653	0.225	-0.296
-399.194	800.000	0.034	-0.111
-398.179	-200.000	-0.009	-0.223
-397.165	-13.422	-0.197	-0.127
-396.150	-200.000	0.009	0.205
-395.136	-200.000	0.001	0.087
-394.121	21.519	-0.160	-0.130
-393.106	636.912	0.015	-0.038
-392.092	-155.262	-0.203	0.013
-391.077	800.000	-0.106	-0.293
-390.063	65.700	0.179	0.180
-389.048	562.488	0.093	0.223
-388.033	131.046	0.047	0.061
-387.019	84.034	0.105	0.115
-386.004	170.986	-0.208	0.297
-384.990	800.000	0.095	-0.295
-383.975	482.500	-0.053	-0.120
-382.960	800.000	0.154	-0.433
-381.946	62.038	0.206	0.205
-380.931	-94.380	0.227	-0.062
-379.917	19.645	0.084	-0.067
-378.902	507.264	-0.154	0.356
-377.888	-144.379	0.127	0.012
-376.873	150.027	0.161	0.217
-375.858	-51.690	-0.133	-0.062
-374.844	-19.572	0.112	0.069
-373.829	458.797	-0.125	-0.277
-372.815	-200.000	-0.002	-0.098
-371.800	-105.667	0.199	0.045
-370.785	800.000	-0.046	0.130
-369.771	-12.027	-0.253	-0.165
-368.756	-137.022	0.404	-0.046
-367.742	-200.000	0.005	0.212
-366.727	-81.836	-0.240	-0.078
-365.712	-200.000	-0.014	0.328
-364.698	156.862	-0.104	0.143
-363.683	51.173	-0.123	-0.116
-362.669	800.000	0.053	0.202
-361.654	106.624	0.247	0.292
-360.639	-105.610	-0.225	-0.051
-359.625	-200.000	0.005	-0.179
-358.610	-200.000	0.007	-0.061
-357.596	-200.000	0.032	-0.153
-356.581	321.095	-0.144	-0.271
-355.566	-73.418	0.164	0.060
-354.552	-99.595	-0.211	0.053
-353.537	-200.000	0.177	0.000
-352.523	2.551	0.019	0.014
-351.508	-44.863	-0.322	0.160
-350.493	13.711	-0.134	0.104
-349.479	-200.000	0.030	0.273
-348.464	7.086	0.234	0.174
-347.450	-15.253	0.255	-0.162
-346.435	800.000	0.120	0.519
-345.420	25.236	0.224	0.185
-344.406	800.000	-0.048	0.151
-343.391	18.070	0.064	-0.050
-342.377	-65.014	-0.396	0.159
-341.362	-161.849	0.082	0.004
-340.348	-122.969	0.355	-0.057
-339.333	148.018	-0.099	-0.132
-338.318	-24.528	0.282	0.167
-337.304	159.513	0.133	0.185
-336.289	-200.000	0.014	-0.144
-335.275	800.000	-0.141	0.596
-334.260	-28.156	-0.204	-0.117
-333.245	800.000	-0.056	0.158
-332.231	-160.213	-0.418	0.022
-331.216	-109.746	-0.290	0.061
-330.202	31.642	-0.258	-0.221
-329.187	103.857	0.265	-0.310
-328.172	58.996	0.089	0.087
-327.158	-173.377	-0.187	0.006
-326.143	95.954	0.198	-0.224
-325.129	800.000	-0.062	0.170
-324.114	-200.000	0.022	-0.232
-323.099	536.562	-0.116	0.274
-322.085	-10.053	0.289	0.191
-321.070	117.571	-0.124	-0.151
-320.056	-43.187	0.031	-0.016
-319.041	-200.000	-0.019	0.150
-318.026	304.782	0.036	0.067
-317.012	139.251	0.121	-0.159
-315.997	800.000	0.048	0.167
-314.983	-84.007	0.536	0.169
-313.968	103.193	-0.244	-0.284
-312.953	193.893	-0.102	-0.153
-311.939	39.767	-0.388	-0.345
-310.924	-161.206	0.166	-0.009
-309.910	-112.438	-0.141	-0.028
-308.895	124.890	0.218	-0.273
-307.880	65.020	0.292	-0.293
-306.866	5.744	0.091	0.067
-305.851	-180.971	0.124	0.002
-304.837	108.655	-0.153	-0.181
-303.822	-26.756	-0.302	-0.176
-302.807	17.105	0.194	0.153
-301.793	311.328	-0.333	0.620
-300.778	434.820	0.095	-0.205
-299.764	128.473	0.216	0.273
-298.749	549.490	0.055	-0.131
-297.735	697.517	0.086	-0.225
-296.720	53.240	0.241	-0.229
-295.705	141.230	0.051	0.067
-294.691	-182.512	0.114	0.002
-293.676	269.472	-0.100	-0.174
-292.662	56.690	-0.092	0.089
-291.647	111.074	-0.141	-0.169
-290.632	-145.259	0.155	0.014
-289.618	112.512	0.137	0.164
-288.603	625.945	0.077	-0.193
-287.589	31.044	0.105	0.089
-286.574	-200.000	-0.005	-0.075
-285.559	-200.000	0.054	-0.264
-284.545	-41.777	0.091	0.046
-283.530	-200.000	-0.006	-0.089
-282.516	-9.734	0.098	0.065
-281.501	48.955	-0.165	-0.154
-280.486	227.679	0.191	0.308
-279.472	800.000	0.131	0.509
-278.457	32.586	-0.134	-0.115
-277.443	6.122	0.139	-0.103
-276.428	-85.096	-0.135	0.042
-275.413	124.964	-0.173	-0.217
-274.399	99.268	-0.169	0.194
-273.384	-200.000	-0.009	-0.205
-272.370	114.656	0.193	0.233
-271.355	-123.240	0.175	0.028
-270.340	4.989	-0.288	0.210
-269.326	83.147	-0.196	-0.211
-268.311	-86.249	0.191	-0.058
-267.297	-115.554	-0.328	0.061
-266.282	-174.642	-0.147	-0.004
-265.267	280.135	-0.072	-0.128
-264.253	800.000	-0.016	-0.060
-263.238	800.000	0.018	-0.077
-262.224	-141.546	-0.196	-0.020
-261.209	50.401	-0.206	-0.193
-260.195	-170.425	0.141	0.005
-259.180	-200.000	0.003	0.201
-258.165	-94.911	-0.253	-0.068
-257.151	-200.000	-0.003	0.040
-256.136	44.176	0.127	0.115
-255.122	134.026	-0.175	-0.225
-254.107	800.000	0.044	0.162
-253.092	17.386	-0.236	-0.186
-252.078	238.459	0.082	-0.134
-251.063	-6.806	0.199	0.134
-250.049	125.077	0.034	0.043
-249.034	-43.445	-0.102	0.051
-248.019	800.000	-0.152	-0.502
-247.005	-88.444	-0.216	0.064
-245.990	-200.000	0.009	0.149
-244.976	-115.001	0.334	-0.063
-243.961	-200.000	0.022	0.234
-242.946	453.715	0.134	0.294
-241.932	-162.444	0.293	-0.014
-240.917	800.000	0.018	0.071
-239.903	14.542	0.206	-0.159
-238.888	800.000	0.163	-0.586
-237.873	-134.213	-0.222	0.027
-236.859	-3.847	0.174	0.119
-235.844	146.440	0.169	0.225
-234.830	-200.000	-0.054	0.277
-233.815	115.476	-0.174	0.211
-232.800	-105.049	0.105	-0.024
-231.786	316.394	-0.129	0.241
-230.771	800.000	-0.061	0.171
-229.757	-5.483	0.156	-0.106
-228.742	-139.596	-0.072	-0.008
-227.727	147.364	-0.138	-0.184
-226.713	58.949	-0.167	0.163
-225.698	-82.282	0.261	-0.084
-224.684	800.000	0.041	-0.127
-223.669	563.104	0.250	-0.599
-222.655	-161.801	-0.163	-0.008
-221.640	123.796	-0.133	-0.166
-220.625	125.898	0.154	-0.193
-219.611	800.000	0.172	0.483
-218.596	-47.957	-0.063	-0.030
-217.582	800.000	-0.067	-0.196
-216.567	-55.263	-0.382	-0.170
-215.552	-200.000	-0.019	-0.166
-214.538	-200.000	-0.023	0.144
-213.523	598.728	-0.112	0.274
-212.509	-120.363	0.333	0.056
-211.494	-50.880	0.131	0.061
-210.479	70.388	-0.079	0.081
-209.465	39.326	0.105	0.093
-208.450	-142.152	0.160	0.016
-207.436	26.018	0.103	-0.085
-206.421	-200.000	0.043	0.282
-205.406	-115.341	-0.237	-0.044
-204.392	110.143	0.127	0.151
-203.377	34.305	-0.280	-0.242
-202.363	-9.865	0.314	-0.207
-201.348	109.406	-0.175	0.208
-200.333	1.763	0.247	0.176
-199.319	290.369	0.094	-0.169
-198.304	-200.000	-0.021	0.195
-197.290	-200.000	0.100	0.442
-196.275	147.527	-0.177	0.236
-195.260	30.552	-0.141	0.119
-194.246	-200.000	-0.034	-0.304
-193.231	-178.709	0.308	-0.007
-192.217	-31.252	-0.138	0.077
-191.202	-154.243	0.449	-0.030
-190.187	107.253	0.105	-0.123
-189.173	-24.857	-0.470	-0.276
-188.158	800.000	0.084	0.344
-187.144	-59.999	-0.393	0.166
-186.129	-136.795	0.434	0.049
-185.114	-121.595	0.248	0.041
-184.100	74.506	-0.097	-0.101
-183.085	217.626	0.158	-0.249
-182.071	-129.689	0.410	0.056
-181.056	-150.932	0.151	-0.011
-180.042	182.618	-0.029	0.043
-179.027	-200.000	-0.001	-0.428
-178.012	92.855	0.193	-0.216
-176.998	-158.198	0.180	0.010
-175.983	-90.715	-0.280	-0.080
-174.969	-200.000	-0.004	0.200
-173.954	-111.176	0.310	-0.063
-172.939	26.908	-0.217	0.179
-171.925	-181.448	-0.209	-0.004
-170.910	-152.334	0.471	0.034
-169.896	-200.000	0.014	-0.257
-168.881	-84.268	-0.126	0.039
-167.866	-200.000	0.002	-0.016
-166.852	730.319	-0.090	0.237
-165.837	-14.291	-0.051	0.032
-164.823	87.749	-0.057	0.062
-163.808	-200.000	-0.008	-0.062
-162.793	-4.011	-0.226	0.155
-161.779	-15.627	-0.029	-0.018
-160.764	-200.000	0.025	-0.317
-159.750	800.000	-0.044	0.147
-158.735	-124.000	-0.076	-0.012
-157.720	232.538	0.045	0.073
-156.706	431.546	0.042	0.090
-155.691	423.836	-0.056	-0.118
-154.677	-100.947	0.146	0.035
-153.662	453.272	-0.048	-0.105
-152.647	304.696	-0.093	-0.171
-151.633	-200.000	0.041	0.298
-150.618	33.833	-0.251	0.216
-149.604	-89.718	0.409	-0.118
-148.589	178.986	-0.273	0.395
-147.574	-9.852	0.216	0.142
-146.560	-34.133	0.246	-0.133
-145.545	-9.395	-0.092	-0.061
-144.531	800.000	-0.069	0.195
-143.516	-200.000	0.029	0.185
-142.502	-200.000	-0.004	-0.134
-141.487	66.852	0.081	0.082
-140.472	-200.000	0.005	-0.171
-139.458	-21.466	-0.330	0.198
-138.443	-29.184	-0.090	0.051
-137.429	-39.665	0.236	0.122
-136.414	-52.413	0.170	-0.078
-135.399	-200.000	0.037	-0.168
-134.385	53.850	-0.252	0.239
-133.370	-147.580	0.129	-0.011
-132.356	-77.279	0.189	-0.065
-131.341	-80.228	-0.266	-0.088
-130.326	-110.632	-0.269	-0.055
-129.312	38.166	0.276	-0.243
-128.297	-134.999	0.173	0.021
-127.283	800.000	0.026	-0.110
-126.268	-82.502	0.173	-0.055
-125.253	-169.437	-0.151	0.005
-124.239	-31.892	0.325	-0.179
-123.224	423.121	0.131	0.277
-122.210	13.661	0.417	0.319
