DTS Sentinel unit serial number:	SN413079Multiplexer serial number:	ORYXHardware model number:	OX4-SRSoftware version number:	ORYX F/W v4.00 Oryx Data Collector v3.7.2.0data status	okinstallation	princeton_trtdifferential loss correction	single-endedforward channel	channel 3reverse channel	N/Adate	2019/09/12time	09:46:11forward acquisition time	60.00reverse acquisition time	0.00gamma	496.2192k internal	0.2300k external	0.2300temperature offset calibration	1.0036default loss term (dB/km)	0.3790temperature slope calibration	1.0000multiplexer offset coefficient	1.0000multiplexer slope coefficient	1.0000fibre end	0.00T internal ref (°C)	35.94T ext. ref 1 (°C)	1.83T ext. ref 2 (°C)	32.63length (m)	temperature (°C)	Stokes	anti-Stokes-747.200	-58.757	0.184	0.081
-746.185	-200.000	0.062	0.565
-745.171	800.000	-0.064	0.224
-744.156	-168.490	-0.144	0.006
-743.142	107.805	-0.084	-0.102
-742.127	-200.000	0.009	0.467
-741.112	-78.291	0.179	-0.063
-740.098	-200.000	0.010	0.246
-739.083	800.000	0.034	0.105
-738.069	446.120	-0.086	0.193
-737.054	16.237	0.281	0.226
-736.039	-142.808	-0.251	0.025
-735.025	-126.952	0.207	0.031
-734.010	189.123	-0.164	0.251
-732.996	800.000	0.073	0.245
-731.981	800.000	-0.076	-0.229
-730.966	-79.103	-0.343	-0.119
-729.952	-200.000	0.019	0.383
-728.937	-0.583	-0.213	0.154
-727.923	800.000	-0.018	-0.066
-726.908	-11.981	-0.176	0.118
-725.894	-169.588	0.081	-0.003
-724.879	-200.000	-0.049	0.286
-723.864	-189.398	0.450	-0.005
-722.850	-58.201	0.085	0.038
-721.835	-200.000	0.005	0.139
-720.821	144.449	0.202	-0.275
-719.806	-63.846	-0.190	0.079
-718.791	-6.483	-0.063	-0.044
-717.777	460.997	0.049	-0.111
-716.762	57.745	-0.167	0.166
-715.748	114.674	0.131	0.163
-714.733	212.964	-0.071	-0.114
-713.718	-113.531	0.111	-0.022
-712.704	-200.000	-0.003	-0.090
-711.689	800.000	-0.039	-0.164
-710.675	800.000	0.093	0.317
-709.660	800.000	-0.044	0.190
-708.645	-47.247	0.073	-0.036
-707.631	800.000	0.043	0.163
-706.616	-200.000	-0.031	0.258
-705.602	-200.000	-0.021	-0.106
-704.587	-69.675	-0.118	-0.046
-703.572	-108.027	-0.576	-0.127
-702.558	-12.551	0.346	0.230
-701.543	800.000	0.045	0.153
-700.529	-31.037	0.129	-0.074
-699.514	-152.387	0.352	0.026
-698.499	-97.894	-0.442	0.116
-697.485	111.852	-0.076	0.093
-696.470	800.000	-0.027	-0.089
-695.456	184.725	0.120	0.180
-694.441	29.245	0.125	0.108
-693.426	209.422	-0.162	-0.259
-692.412	-8.711	0.091	-0.062
-691.397	-200.000	-0.030	0.152
-690.383	-200.000	-0.016	-0.230
-689.368	90.473	-0.308	0.351
-688.354	800.000	0.109	0.436
-687.339	36.636	0.165	0.149
-686.324	14.963	-0.337	0.269
-685.310	-113.141	-0.542	-0.109
-684.295	275.959	0.082	-0.149
-683.281	-184.288	-0.414	0.007
-682.266	31.397	0.116	-0.101
-681.251	800.000	-0.104	-0.305
-680.237	-200.000	-0.006	-0.028
-679.222	-152.218	0.127	-0.009
-678.208	167.849	-0.200	0.290
-677.193	800.000	0.023	0.073
-676.178	1.089	0.115	0.084
-675.164	52.625	0.298	0.290
-674.149	569.387	-0.165	-0.409
-673.135	-53.944	-0.290	-0.134
-672.120	78.442	-0.048	-0.052
-671.105	313.251	0.108	-0.206
-670.091	-164.608	0.079	-0.004
-669.076	444.173	0.047	0.105
-668.062	-89.235	0.124	0.037
-667.047	-139.337	-0.217	0.024
-666.032	-7.579	-0.254	-0.175
-665.018	133.731	-0.134	-0.177
-664.003	36.848	0.116	-0.104
-662.989	22.795	-0.254	-0.211
-661.974	-91.831	0.235	0.068
-660.959	71.165	-0.058	0.062
-659.945	-110.814	0.110	0.023
-658.930	-74.427	-0.143	-0.052
-657.916	-200.000	0.003	-0.131
-656.901	-200.000	0.047	0.397
-655.886	-60.217	-0.068	0.029
-654.872	800.000	-0.082	0.281
-653.857	185.786	0.142	-0.215
-652.843	-200.000	-0.051	-0.416
-651.828	800.000	0.026	0.074
-650.814	-43.675	-0.392	-0.201
-649.799	-42.284	0.071	-0.037
-648.784	-200.000	-0.059	-0.301
-647.770	100.536	-0.244	-0.288
-646.755	800.000	-0.073	-0.216
-645.741	250.688	0.065	0.113
-644.726	-108.516	-0.260	-0.057
-643.711	-89.585	0.222	-0.066
-642.697	-19.366	0.163	-0.102
-641.682	42.141	0.223	-0.205
-640.668	666.518	0.081	0.213
-639.653	77.519	0.129	-0.140
-638.638	-133.750	0.289	-0.037
-637.624	-184.761	0.252	0.004
-636.609	800.000	0.098	-0.303
-635.595	-82.290	-0.023	-0.007
-634.580	227.517	-0.076	0.125
-633.565	-82.801	0.182	0.060
-632.551	-200.000	-0.040	-0.375
-631.536	11.302	-0.043	-0.034
-630.522	-136.520	-0.167	0.020
-629.507	-179.239	0.167	-0.004
-628.492	142.507	-0.038	0.051
-627.478	-150.692	-0.360	0.028
-626.463	352.718	0.190	-0.383
-625.449	-40.100	-0.391	-0.207
-624.434	19.136	-0.105	-0.086
-623.419	61.185	-0.034	-0.035
-622.405	-200.000	0.053	-0.244
-621.390	800.000	-0.089	-0.357
-620.376	91.411	0.204	-0.232
-619.361	566.753	-0.044	-0.108
-618.346	-196.431	-0.134	-0.001
-617.332	51.093	0.155	-0.150
-616.317	-13.091	-0.061	0.040
-615.303	800.000	-0.073	0.283
-614.288	-9.167	0.124	0.084
-613.273	800.000	-0.022	-0.089
-612.259	100.068	0.050	0.059
-611.244	-124.312	0.228	-0.036
-610.230	-120.658	-0.444	0.076
-609.215	800.000	-0.091	0.271
-608.201	236.243	-0.151	-0.253
-607.186	-109.125	-0.517	-0.112
-606.171	-200.000	-0.050	-0.406
-605.157	178.853	-0.068	-0.100
-604.142	-127.094	0.094	0.014
-603.128	-50.346	-0.174	-0.084
-602.113	-114.519	0.165	0.032
-601.098	7.772	0.456	-0.346
-600.084	-127.622	0.406	-0.060
-599.069	119.357	-0.120	0.151
-598.055	91.927	0.197	-0.225
-597.040	64.052	-0.140	-0.143
-596.025	-200.000	-0.014	-0.192
-595.011	-60.882	-0.168	-0.072
-593.996	-93.090	-0.180	-0.051
-592.982	-110.235	-0.406	0.086
-591.967	-200.000	-0.038	-0.197
-590.952	150.527	-0.146	-0.201
-589.938	-83.982	-0.284	-0.092
-588.923	18.751	-0.395	-0.321
-587.909	-200.000	-0.004	-0.161
-586.894	487.828	-0.118	-0.274
-585.879	-200.000	0.010	0.152
-584.865	-36.139	0.143	-0.078
-583.850	-31.797	-0.215	-0.122
-582.836	-102.013	0.263	0.064
-581.821	-58.299	-0.358	0.158
-580.806	-95.888	-0.473	0.128
-579.792	359.555	0.125	0.253
-578.777	800.000	-0.143	-0.408
-577.763	-94.393	-0.133	-0.037
-576.748	-200.000	-0.039	-0.298
-575.733	800.000	0.008	-0.028
-574.719	-200.000	0.023	0.165
-573.704	25.099	-0.209	0.176
-572.690	-73.203	0.361	-0.134
-571.675	85.692	0.131	-0.146
-570.661	-37.939	0.401	-0.216
-569.646	-100.361	-0.196	-0.049
-568.631	800.000	0.085	0.365
-567.617	-153.091	0.017	-0.001
-566.602	451.538	-0.026	-0.059
-565.588	-79.056	-0.200	-0.069
-564.573	659.643	0.038	0.098
-563.558	-74.858	-0.070	-0.025
-562.544	-39.961	-0.135	0.071
-561.529	-200.000	0.011	-0.120
-560.515	14.956	0.021	-0.017
-559.500	-22.887	0.514	-0.314
-558.485	102.689	0.132	-0.157
-557.471	-27.380	-0.227	-0.134
-556.456	776.534	0.163	0.451
-555.442	92.345	0.029	0.033
-554.427	800.000	-0.058	0.223
-553.412	800.000	0.054	0.203
-552.398	-78.573	-0.190	-0.066
-551.383	-200.000	-0.037	0.195
-550.369	-135.311	0.270	-0.033
-549.354	800.000	-0.048	0.164
-548.339	-64.792	-0.278	0.114
-547.325	314.445	-0.102	-0.195
-546.310	8.768	0.259	-0.198
-545.296	13.189	0.117	0.091
-544.281	-11.422	-0.052	-0.034
-543.266	573.460	0.060	0.149
-542.252	-72.986	-0.102	-0.038
-541.237	-120.368	0.053	0.009
-540.223	-83.721	0.189	0.061
-539.208	-200.000	-0.005	-0.071
-538.193	539.796	-0.109	-0.263
-537.179	-5.846	-0.039	0.027
-536.164	-65.101	-0.033	-0.013
-535.150	-89.881	0.169	-0.050
-534.135	133.124	0.164	-0.215
-533.121	-162.006	0.139	0.007
-532.106	389.031	-0.116	-0.244
-531.091	70.318	-0.144	-0.150
-530.077	-200.000	0.043	-0.370
-529.062	211.906	-0.108	-0.172
-528.048	-135.731	-0.316	-0.038
-527.033	-200.000	-0.035	0.307
-526.018	156.090	-0.186	-0.259
-525.004	-14.613	0.122	0.079
-523.989	310.906	-0.174	0.329
-522.975	-200.000	0.029	-0.246
-521.960	-45.687	-0.319	-0.159
-520.945	800.000	0.105	-0.308
-519.931	-69.481	-0.074	-0.029
-518.916	66.940	-0.178	-0.184
-517.902	800.000	0.129	-0.391
-516.887	153.526	-0.114	0.157
-515.872	-26.292	0.265	0.157
-514.858	-46.169	-0.031	-0.015
-513.843	-112.442	-0.127	-0.026
-512.829	-108.569	-0.299	-0.065
-511.814	-67.359	0.273	-0.108
-510.799	718.269	0.036	-0.097
-509.785	139.667	-0.173	-0.231
-508.770	315.042	-0.098	-0.186
-507.756	-29.293	-0.232	0.135
-506.741	-7.777	0.080	-0.054
-505.726	-94.138	0.203	-0.056
-504.712	800.000	-0.024	0.085
-503.697	-18.814	-0.328	0.207
-502.683	-0.655	-0.057	0.041
-501.668	46.334	0.337	0.316
-500.653	8.593	-0.225	0.171
-499.639	-200.000	0.035	0.187
-498.624	4.218	0.221	-0.163
-497.610	800.000	0.054	-0.156
-496.595	-0.623	0.153	0.109
-495.581	-100.959	-0.020	0.005
-494.566	18.545	-0.200	0.161
-493.551	51.814	0.173	-0.166
-492.537	34.645	0.276	0.243
-491.522	36.995	-0.078	-0.070
-490.508	97.313	-0.150	0.174
-489.493	-200.000	-0.008	-0.418
-488.478	242.134	-0.053	0.090
-487.464	590.570	0.053	0.133
-486.449	161.767	0.137	-0.194
-485.435	-122.140	-0.085	-0.014
-484.420	50.099	0.135	0.129
-483.405	-112.562	0.171	0.034
-482.391	-30.580	-0.308	-0.176
-481.376	-11.405	0.129	-0.086
-480.362	-158.080	0.182	0.011
-479.347	-41.445	0.274	-0.142
-478.332	65.766	0.111	0.114
-477.318	401.607	-0.141	0.298
-476.303	42.138	0.234	-0.214
-475.289	-43.510	0.160	0.081
-474.274	309.412	0.164	0.310
-473.259	97.415	0.181	0.210
-472.245	-18.463	0.064	-0.041
-471.230	-200.000	-0.037	0.202
-470.216	-200.000	0.035	0.268
-469.201	143.311	0.056	-0.075
-468.186	119.225	-0.068	0.085
-467.172	800.000	0.154	0.490
-466.157	-102.429	0.291	0.070
-465.143	-94.458	0.272	-0.075
-464.128	298.683	0.128	0.238
-463.113	101.583	-0.225	0.265
-462.099	-200.000	-0.020	-0.278
-461.084	192.885	-0.235	-0.359
-460.070	800.000	-0.114	0.324
-459.055	123.073	0.053	-0.067
-458.040	566.389	-0.140	0.343
-457.026	-106.950	0.056	0.012
-456.011	-73.368	-0.066	-0.024
-454.997	800.000	-0.123	0.406
-453.982	310.969	0.078	0.148
-452.968	111.093	-0.045	0.055
-451.953	464.652	0.091	-0.206
-450.938	-111.784	0.201	-0.041
-449.924	-70.241	0.214	-0.082
-448.909	44.667	0.210	-0.195
-447.895	61.055	0.112	-0.112
-446.880	-200.000	-0.024	-0.137
-445.865	800.000	-0.075	-0.258
-444.851	92.210	-0.202	-0.229
-443.836	36.801	-0.212	0.189
-442.822	-26.701	-0.285	-0.168
-441.807	-132.970	0.227	0.029
-440.792	800.000	0.056	-0.194
-439.778	291.327	0.055	0.100
-438.763	-46.638	-0.203	-0.100
-437.749	222.370	0.220	0.357
-436.734	-49.050	0.157	0.076
-435.719	18.747	-0.196	0.158
-434.705	-200.000	0.007	-0.162
-433.690	-108.654	0.118	-0.026
-432.676	-127.071	0.164	-0.024
-431.661	800.000	0.048	0.201
-430.646	-85.058	0.026	-0.008
-429.632	-200.000	-0.000	-0.364
-428.617	70.126	0.221	-0.230
-427.603	208.952	-0.044	0.069
-426.588	-200.000	-0.032	0.187
-425.573	-200.000	-0.035	0.250
-424.559	227.494	-0.211	0.346
-423.544	218.829	0.135	0.218
-422.530	160.189	-0.108	0.152
-421.515	190.183	0.222	-0.335
-420.500	291.878	0.044	0.081
-419.486	-200.000	0.045	-0.249
-418.471	800.000	-0.009	0.037
-417.457	-14.768	-0.306	-0.198
-416.442	800.000	-0.071	0.277
-415.428	-99.264	0.204	0.052
-414.413	73.369	0.143	-0.151
-413.398	-200.000	0.018	0.194
-412.384	-139.142	0.203	-0.022
-411.369	136.129	0.166	-0.218
-410.355	800.000	0.071	0.241
-409.340	-92.717	-0.081	-0.023
-408.325	639.850	-0.016	-0.042
-407.311	188.600	-0.027	-0.040
-406.296	97.676	-0.120	0.139
-405.282	800.000	0.106	0.353
-404.267	668.162	-0.044	-0.115
-403.252	75.489	-0.015	0.016
-402.238	64.355	-0.121	0.122
-401.223	91.671	-0.138	0.156
-400.209	-84.474	-0.144	-0.046
-399.194	-132.490	0.149	-0.019
-398.179	-33.260	0.177	0.099
-397.165	-51.579	-0.085	-0.040
-396.150	-111.811	-0.123	-0.025
-395.136	-60.080	-0.078	0.033
-394.121	-94.193	0.064	0.018
-393.106	-200.000	0.012	0.084
-392.092	216.416	-0.110	0.176
-391.077	-200.000	-0.031	-0.343
-390.063	252.229	0.024	0.041
-389.048	75.497	-0.397	-0.422
-388.033	-15.433	0.351	0.226
-387.019	-37.073	-0.461	0.248
-386.004	800.000	0.119	0.380
-384.990	-162.076	0.153	-0.008
-383.975	-200.000	0.016	0.301
-382.960	-94.019	0.024	0.006
-381.946	-82.715	-0.310	0.101
-380.931	-24.554	-0.143	0.086
-379.917	800.000	-0.179	0.524
-378.902	-200.000	0.042	-0.234
-377.888	10.473	0.237	0.182
-376.873	-200.000	-0.046	0.275
-375.858	-76.719	0.079	0.028
-374.844	18.387	-0.128	-0.103
-373.829	-108.244	-0.261	0.057
-372.815	-10.965	-0.310	0.206
-371.800	-200.000	0.066	0.362
-370.785	212.315	0.091	-0.144
-369.771	345.495	0.074	0.145
-368.756	21.260	0.085	-0.069
-367.742	469.528	0.057	-0.128
-366.727	89.238	0.179	0.200
-365.712	-168.362	0.144	-0.006
-364.698	517.463	0.066	0.156
-363.683	20.581	0.121	0.098
-362.669	-106.198	-0.105	0.024
-361.654	-200.000	-0.034	0.339
-360.639	-200.000	-0.032	-0.160
-359.625	45.672	-0.174	0.162
-358.610	-200.000	0.038	0.287
-357.596	-200.000	-0.037	-0.223
-356.581	-35.947	-0.034	-0.019
-355.566	800.000	0.099	0.370
-354.552	117.246	0.104	0.129
-353.537	-156.352	0.296	0.019
-352.523	630.504	-0.104	0.265
-351.508	228.619	-0.054	-0.088
-350.493	27.050	0.073	0.062
-349.479	173.064	0.116	0.168
-348.464	800.000	0.077	-0.277
-347.450	-155.144	0.308	-0.020
-346.435	800.000	0.021	-0.061
-345.420	-200.000	0.049	0.224
-344.406	-58.783	-0.109	-0.047
-343.391	-200.000	-0.027	0.558
-342.377	34.188	0.189	0.166
-341.362	51.359	0.195	-0.186
-340.348	385.639	-0.168	0.348
-339.333	-71.951	0.199	-0.074
-338.318	13.184	0.185	-0.144
-337.304	-200.000	-0.011	-0.139
-336.289	245.593	0.119	-0.201
-335.275	1.736	0.114	0.083
-334.260	198.523	0.107	-0.164
-333.245	-200.000	-0.020	-0.204
-332.231	-79.969	-0.056	-0.019
-331.216	-115.094	0.104	0.020
-330.202	-111.202	-0.063	0.013
-329.187	34.469	-0.088	-0.077
-328.172	-78.980	0.062	-0.021
-327.158	800.000	-0.097	-0.380
-326.143	-79.992	0.226	-0.076
-325.129	-95.133	0.155	0.042
-324.114	184.057	0.130	0.193
-323.099	-200.000	0.037	-0.203
-322.085	800.000	0.039	-0.133
-321.070	198.379	0.050	-0.076
-320.056	-39.987	-0.109	0.057
-319.041	800.000	-0.084	0.268
-318.026	800.000	-0.106	0.330
-317.012	777.272	-0.115	-0.315
-315.997	-160.199	0.165	-0.009
-314.983	-52.623	0.202	0.094
-313.968	564.889	-0.036	-0.088
-312.953	-8.064	-0.089	0.060
-311.939	-200.000	-0.014	-0.110
-310.924	-88.840	-0.108	0.032
-309.910	-139.790	-0.124	0.013
-308.895	262.308	0.209	-0.363
-307.880	295.295	-0.060	0.109
-306.866	37.849	-0.234	0.208
-305.851	-9.656	0.293	0.196
-304.837	-200.000	0.021	-0.096
-303.822	-55.219	0.321	0.145
-302.807	-106.653	0.167	0.037
-301.793	-131.209	-0.499	-0.067
-300.778	-180.332	-0.337	0.007
-299.764	-149.407	0.275	0.022
-298.749	-200.000	-0.057	0.434
-297.735	-40.369	-0.176	-0.092
-296.720	800.000	-0.070	0.206
-295.705	-200.000	0.005	-0.050
-294.691	-55.123	0.225	-0.102
-293.676	-33.292	-0.195	0.108
-292.662	800.000	0.057	-0.209
-291.647	1.446	0.195	-0.140
-290.632	178.342	-0.011	-0.016
-289.618	136.463	0.094	-0.124
-288.603	61.341	0.150	-0.150
-287.589	74.920	-0.252	-0.266
-286.574	557.413	-0.089	-0.215
-285.559	164.709	-0.308	-0.435
-284.545	155.221	0.083	0.115
-283.530	-52.329	-0.241	-0.112
-282.516	3.212	-0.114	0.083
-281.501	123.641	0.175	-0.221
-280.486	166.143	-0.117	0.167
-279.472	-182.579	0.120	0.002
-278.457	-60.161	0.177	0.076
-277.443	-200.000	-0.011	-0.064
-276.428	-200.000	-0.037	-0.165
-275.413	197.967	-0.115	0.176
-274.399	800.000	0.026	0.108
-273.384	-7.015	-0.278	-0.189
-272.370	48.368	-0.128	-0.120
-271.355	-71.915	-0.185	-0.069
-270.340	163.262	0.058	-0.082
-269.326	-200.000	-0.016	0.164
-268.311	169.071	0.198	0.283
-267.297	-116.942	0.181	-0.033
-266.282	41.096	-0.231	0.209
-265.267	-47.860	-0.082	0.040
-264.253	800.000	0.131	0.393
-263.238	38.231	0.246	-0.219
-262.224	-179.761	0.278	-0.006
-261.209	-200.000	0.011	0.371
-260.195	102.957	0.091	-0.107
-259.180	-32.167	0.112	-0.063
-258.165	800.000	0.079	-0.218
-257.151	800.000	0.089	0.247
-256.136	294.092	-0.153	0.280
-255.122	-200.000	-0.046	-0.224
-254.107	261.120	0.067	0.116
-253.092	270.383	0.117	0.206
-252.078	117.234	0.101	-0.125
-251.063	-9.056	-0.196	-0.131
-250.049	93.272	-0.223	-0.252
-249.034	229.804	0.085	0.139
-248.019	-15.789	-0.041	0.026
-247.005	-83.123	-0.212	0.068
-245.990	-200.000	0.037	-0.218
-244.976	19.270	0.224	0.180
-243.961	6.292	-0.091	0.067
-242.946	-134.429	-0.140	-0.017
-241.932	-67.335	-0.091	-0.036
-240.917	147.157	-0.211	-0.284
-239.903	-200.000	-0.003	-0.144
-238.888	-200.000	-0.063	0.336
-237.873	800.000	-0.029	-0.112
-236.859	-1.392	0.073	0.051
-235.844	-200.000	-0.000	0.193
-234.830	-163.115	0.215	0.010
-233.815	-102.336	0.161	-0.038
-232.800	345.940	-0.121	0.237
-231.786	149.663	0.097	-0.132
-230.771	85.711	0.175	-0.192
-229.757	800.000	-0.130	-0.429
-228.742	-77.126	-0.101	0.035
-227.727	-200.000	0.041	-0.215
-226.713	800.000	0.107	0.368
-225.698	800.000	-0.058	-0.192
-224.684	625.071	0.082	-0.206
-223.669	-166.800	-0.297	-0.012
-222.655	-102.425	0.170	-0.041
-221.640	-200.000	0.038	0.452
-220.625	-200.000	-0.022	0.147
-219.611	-200.000	0.018	0.270
-218.596	305.520	0.026	-0.048
-217.582	-60.330	-0.120	-0.051
-216.567	235.822	0.128	0.212
-215.552	-58.022	-0.175	-0.076
-214.538	-55.351	-0.082	-0.037
-213.523	-41.878	0.057	-0.029
-212.509	800.000	-0.043	-0.142
-211.494	-127.813	-0.160	0.023
-210.479	184.928	0.109	0.162
-209.465	43.012	-0.265	0.241
-208.450	-200.000	0.003	0.288
-207.436	179.005	-0.156	0.228
-206.421	-9.195	0.325	-0.217
-205.406	15.751	-0.037	0.029
-204.392	-61.691	0.063	0.026
-203.377	-3.179	0.071	0.050
-202.363	-200.000	-0.009	0.129
-201.348	-41.468	0.103	-0.053
-200.333	-200.000	0.002	0.019
-199.319	-58.332	-0.190	-0.083
-198.304	638.294	0.108	-0.274
-197.290	262.767	0.079	-0.137
-196.275	-141.326	-0.133	-0.014
-195.260	278.089	0.093	-0.166
-194.246	-124.732	0.286	0.044
-193.231	-50.540	0.151	0.071
-192.217	-138.252	-0.277	-0.031
-191.202	196.643	-0.183	0.279
-190.187	-105.430	-0.105	0.024
-189.173	-48.856	0.148	-0.071
-188.158	-154.514	-0.213	0.014
-187.144	42.732	-0.126	-0.114
-186.129	-200.000	0.037	0.309
-185.114	-0.494	-0.148	0.105
-184.100	55.168	0.142	0.136
-183.085	-200.000	0.028	0.277
-182.071	157.533	0.075	-0.103
-181.056	-200.000	0.019	-0.307
-180.042	199.620	-0.115	0.176
-179.027	-7.871	-0.142	-0.095
-178.012	114.455	0.077	0.094
-176.998	-200.000	0.009	0.103
-175.983	-200.000	0.020	-0.333
-174.969	460.882	0.067	-0.148
-173.954	6.545	0.106	0.079
-172.939	-25.744	0.099	0.058
-171.925	-200.000	-0.017	0.545
-170.910	216.295	-0.121	0.192
-169.896	265.994	-0.097	0.170
-168.881	-200.000	0.019	0.124
-167.866	-135.608	0.075	0.009
-166.852	-113.939	0.238	0.046
-165.837	116.787	-0.090	0.110
-164.823	40.162	0.059	-0.053
-163.808	-200.000	0.035	-0.295
-162.793	-200.000	0.016	-0.128
-161.779	18.290	-0.117	0.093
-160.764	-81.135	0.209	0.069
-159.750	488.029	-0.162	0.369
-158.735	-200.000	-0.018	-0.150
-157.720	-63.861	-0.322	0.131
-156.706	57.845	-0.326	-0.318
-155.691	-2.315	0.437	-0.306
-154.677	-90.896	0.106	0.031
-153.662	74.506	-0.167	-0.175
-152.647	33.688	-0.204	0.176
-151.633	282.547	-0.074	0.133
-150.618	-200.000	-0.029	-0.132
-149.604	11.513	-0.230	-0.175
-148.589	432.034	0.041	-0.089
-147.574	-200.000	-0.064	-0.557
-146.560	49.934	-0.234	0.220
-145.545	-111.566	-0.392	-0.079
-144.531	-200.000	0.037	-0.178
-143.516	-3.648	-0.301	-0.208
-142.502	-72.809	0.326	0.120
-141.487	-20.056	-0.264	-0.162
-140.472	-8.972	-0.087	0.058
-139.458	-152.162	-0.140	-0.010
-138.443	-62.642	0.132	0.055
-137.429	330.377	0.179	-0.343
-136.414	-173.824	0.268	-0.008
-135.399	351.387	0.133	0.262
-134.385	-114.807	0.446	0.085
-133.370	800.000	-0.081	-0.295
-132.356	800.000	0.020	0.062
-131.341	630.298	-0.143	-0.359
-130.326	-145.610	0.154	-0.014
-129.312	-21.377	0.132	0.080
-128.297	-200.000	-0.022	-0.109
-127.283	-200.000	0.029	0.205
-126.268	-156.152	-0.100	-0.006
-125.253	-174.525	0.119	0.003
-124.239	1.958	-0.201	0.144
-123.224	-200.000	0.270	-0.001
-122.210	669.451	0.038	-0.098
-121.195	207.842	0.183	0.285
