DTS Sentinel unit serial number:	SN413079Multiplexer serial number:	ORYXHardware model number:	OX4-SRSoftware version number:	ORYX F/W v4.00 Oryx Data Collector v3.7.2.0data status	okinstallation	princeton_trtdifferential loss correction	single-endedforward channel	channel 3reverse channel	N/Adate	2019/09/14time	22:40:35forward acquisition time	60.00reverse acquisition time	0.00gamma	496.2192k internal	0.2318k external	0.2318temperature offset calibration	0.9989default loss term (dB/km)	0.3790temperature slope calibration	1.0000multiplexer offset coefficient	1.0000multiplexer slope coefficient	1.0000fibre end	0.00T internal ref (°C)	32.50T ext. ref 1 (°C)	4.68T ext. ref 2 (°C)	27.55length (m)	temperature (°C)	Stokes	anti-Stokes-747.200	-200.000	-0.020	-0.120
-746.185	179.470	-0.204	-0.303
-745.171	-50.457	0.089	0.043
-744.156	-161.898	-0.390	-0.020
-743.142	-60.637	0.039	0.017
-742.127	46.594	-0.163	0.154
-741.112	-200.000	-0.024	0.243
-740.098	57.455	0.299	0.295
-739.083	242.457	0.195	0.331
-738.069	-88.756	-0.172	-0.052
-737.054	332.068	0.119	-0.233
-736.039	-200.000	-0.034	-0.309
-735.025	-58.843	0.228	-0.100
-734.010	75.641	-0.361	-0.385
-732.996	-131.480	-0.168	0.022
-731.981	-30.309	-0.056	0.032
-730.966	403.270	-0.199	-0.423
-729.952	-122.632	-0.110	0.018
-728.937	-97.014	-0.034	0.009
-727.923	-105.339	-0.309	-0.071
-726.908	-200.000	0.022	-0.217
-725.894	65.827	0.252	0.258
-724.879	-35.533	0.109	-0.060
-723.864	34.538	-0.178	-0.157
-722.850	262.303	-0.103	-0.181
-721.835	-55.619	-0.104	0.047
-720.821	273.097	0.209	-0.373
-719.806	156.152	-0.312	-0.435
-718.791	-3.733	0.121	-0.085
-717.777	378.606	-0.130	0.269
-716.762	-200.000	0.027	-0.250
-715.748	-84.906	-0.153	-0.049
-714.733	695.295	0.085	-0.227
-713.718	-67.416	0.383	-0.152
-712.704	-137.308	0.107	0.012
-711.689	-70.849	0.334	-0.127
-710.675	233.821	-0.141	0.235
-709.660	315.136	0.084	-0.160
-708.645	91.273	-0.323	-0.367
-707.631	-200.000	0.018	0.269
-706.616	800.000	-0.075	0.281
-705.602	-162.736	-0.338	-0.017
-704.587	-154.865	-0.113	0.008
-703.572	-111.429	-0.157	0.032
-702.558	-35.837	0.353	0.193
-701.543	-112.504	-0.442	-0.089
-700.529	215.824	-0.058	0.093
-699.514	14.311	-0.062	-0.049
-698.499	5.492	-0.240	-0.179
-697.485	-131.437	0.401	-0.054
-696.470	-118.767	0.138	0.024
-695.456	-120.271	-0.375	0.065
-694.441	-59.064	-0.089	0.039
-693.426	170.645	0.097	0.140
-692.412	3.071	-0.267	0.196
-691.397	383.573	0.126	-0.263
-690.383	800.000	-0.029	-0.083
-689.368	-200.000	-0.038	-0.225
-688.354	-12.255	-0.209	-0.138
-687.339	-33.569	-0.070	-0.039
-686.324	-118.234	-0.257	0.046
-685.310	70.298	-0.049	0.051
-684.295	-87.634	0.220	-0.067
-683.281	-20.140	-0.297	-0.185
-682.266	-200.000	-0.010	-0.322
-681.251	102.545	0.137	-0.162
-680.237	-43.726	-0.236	-0.120
-679.222	-147.963	0.290	0.024
-678.208	71.899	0.094	-0.099
-677.193	11.470	0.202	-0.157
-676.178	173.282	-0.064	-0.093
-675.164	-59.558	0.196	0.085
-674.149	-31.084	0.338	-0.192
-673.135	-200.000	-0.012	0.380
-672.120	-24.972	-0.263	-0.157
-671.105	800.000	0.059	-0.190
-670.091	-106.483	-0.255	-0.057
-669.076	320.807	-0.095	0.182
-668.062	116.841	-0.049	0.060
-667.047	800.000	0.119	0.335
-666.032	161.985	0.196	-0.277
-665.018	-169.410	-0.282	0.010
-664.003	-200.000	-0.032	0.219
-662.989	136.882	0.161	-0.212
-661.974	-90.911	-0.386	-0.112
-660.959	800.000	-0.070	0.232
-659.945	284.648	0.199	-0.362
-658.930	92.003	-0.113	-0.128
-657.916	-54.597	-0.382	-0.174
-656.901	-0.653	0.102	-0.073
-655.886	-99.236	-0.120	0.031
-654.872	675.206	-0.153	0.400
-653.857	166.777	-0.027	-0.039
-652.843	-102.816	0.491	0.118
-651.828	-98.177	-0.041	-0.011
-650.814	-74.943	0.160	-0.058
-649.799	13.262	0.038	0.030
-648.784	463.261	-0.130	0.293
-647.770	-200.000	-0.050	0.399
-646.755	245.066	-0.074	-0.125
-645.741	-120.701	0.278	-0.047
-644.726	21.869	0.124	-0.102
-643.711	-152.004	0.133	0.010
-642.697	28.867	-0.118	0.101
-641.682	140.327	-0.096	-0.128
-640.668	38.903	0.029	-0.026
-639.653	-84.315	0.059	-0.019
-638.638	-116.917	0.312	-0.058
-637.624	-200.000	0.010	0.422
-636.609	56.051	-0.266	-0.260
-635.595	-167.603	-0.051	0.002
-634.580	-34.183	-0.135	-0.075
-633.565	800.000	0.011	-0.042
-632.551	3.815	-0.223	0.164
-631.536	-200.000	0.000	0.110
-630.522	-187.641	-0.325	0.004
-629.507	-174.973	0.217	-0.006
-628.492	-102.829	-0.220	0.053
-627.478	-143.540	0.334	0.032
-626.463	800.000	0.096	-0.397
-625.449	-200.000	0.006	-0.132
-624.434	9.134	-0.115	0.087
-623.419	386.047	0.194	0.404
-622.405	177.386	0.102	-0.150
-621.390	-22.953	-0.121	-0.073
-620.376	-200.000	-0.348	-0.001
-619.361	16.592	0.077	-0.061
-618.346	60.316	0.307	0.306
-617.332	237.258	-0.179	0.298
-616.317	-34.733	0.169	-0.093
-615.303	-200.000	0.059	-0.390
-614.288	-200.000	0.016	-0.137
-613.273	-13.464	0.209	-0.137
-612.259	793.374	-0.084	0.232
-611.244	-200.000	0.006	0.068
-610.230	-130.276	-0.401	0.055
-609.215	800.000	0.074	-0.271
-608.201	59.378	-0.272	0.270
-607.186	290.005	-0.160	-0.293
-606.171	230.776	-0.149	-0.245
-605.157	-46.899	-0.225	0.111
-604.142	-200.000	-0.085	0.390
-603.128	-129.937	0.299	-0.041
-602.113	-200.000	-0.003	0.029
-601.098	56.562	0.176	0.172
-600.084	-154.736	-0.198	0.013
-599.069	-89.601	0.195	0.058
-598.055	13.150	-0.098	0.076
-597.040	445.576	0.044	0.098
-596.025	-117.779	0.049	0.009
-595.011	-200.000	-0.020	-0.376
-593.996	800.000	-0.050	-0.145
-592.982	-120.826	0.352	0.060
-591.967	-27.303	0.277	-0.162
-590.952	421.249	-0.091	0.197
-589.938	537.068	-0.030	0.072
-588.923	178.507	-0.037	-0.055
-587.909	7.895	0.157	-0.119
-586.894	-46.870	0.117	0.058
-585.879	334.483	0.098	0.190
-584.865	-65.963	0.132	0.053
-583.850	800.000	0.075	0.220
-582.836	92.559	-0.096	0.109
-581.821	-27.422	-0.161	0.094
-580.806	-150.959	-0.277	0.021
-579.792	-10.079	-0.184	-0.123
-578.777	231.868	-0.097	-0.159
-577.763	108.087	0.151	-0.181
-576.748	24.014	0.213	-0.177
-575.733	-10.216	0.062	-0.042
-574.719	-67.260	0.115	0.046
-573.704	-81.259	0.127	-0.042
-572.690	589.216	0.185	-0.459
-571.675	65.853	-0.062	-0.063
-570.661	-32.750	0.345	0.193
-569.646	-200.000	-0.062	0.309
-568.631	-99.586	0.034	-0.008
-567.617	-106.130	-0.407	0.092
-566.602	270.213	-0.004	-0.007
-565.588	-200.000	-0.019	0.154
-564.573	-102.716	-0.349	0.084
-563.558	-42.039	-0.131	0.067
-562.544	-151.067	-0.104	0.008
-561.529	-89.615	-0.151	-0.045
-560.515	800.000	-0.039	0.163
-559.500	326.201	0.144	-0.277
-558.485	186.235	-0.065	-0.097
-557.471	-200.000	0.094	0.414
-556.456	-165.259	-0.172	-0.008
-555.442	-200.000	-0.011	0.200
-554.427	19.844	0.071	0.057
-553.412	-152.490	-0.506	-0.036
-552.398	-92.031	-0.394	-0.112
-551.383	-200.000	-0.024	-0.183
-550.369	-102.628	0.286	-0.069
-549.354	-40.968	0.274	-0.142
-548.339	122.527	0.121	0.152
-547.325	44.670	-0.187	-0.172
-546.310	-200.000	-0.011	-0.172
-545.296	-114.017	0.280	0.055
-544.281	-19.808	0.192	0.119
-543.266	-200.000	-0.045	0.256
-542.252	223.570	0.066	-0.107
-541.237	-72.075	-0.138	0.052
-540.223	155.136	0.109	0.151
-539.208	319.818	0.054	0.102
-538.193	-83.036	0.301	-0.097
-537.179	-106.038	0.256	0.058
-536.164	-62.454	0.313	0.130
-535.150	-74.775	-0.094	-0.034
-534.135	-101.471	-0.329	-0.080
-533.121	-200.000	-0.006	0.278
-532.106	18.965	0.261	0.210
-531.091	-94.399	0.201	-0.055
-530.077	-200.000	-0.019	-0.361
-529.062	223.064	0.103	-0.167
-528.048	618.344	-0.063	-0.159
-527.033	-30.295	0.153	0.087
-526.018	-200.000	0.022	0.190
-525.004	197.405	-0.278	-0.426
-523.989	-94.999	0.128	0.035
-522.975	-174.041	0.304	0.009
-521.960	224.991	-0.074	-0.120
-520.945	800.000	0.041	0.155
-519.931	-105.723	-0.127	-0.029
-518.916	800.000	0.059	0.250
-517.902	800.000	-0.082	-0.308
-516.887	800.000	-0.061	0.192
-515.872	-169.709	-0.359	0.013
-514.858	-200.000	-0.013	-0.505
-513.843	-200.000	0.018	-0.156
-512.829	-23.734	0.227	-0.137
-511.814	-109.503	0.241	-0.051
-510.799	761.651	-0.089	0.242
-509.785	800.000	0.056	0.207
-508.770	114.777	-0.097	0.119
-507.756	-15.496	-0.307	0.197
-506.741	-132.435	0.269	-0.035
-505.726	-101.272	-0.339	0.083
-504.712	800.000	-0.062	-0.225
-503.697	-38.881	-0.233	0.123
-502.683	93.123	-0.194	0.220
-501.668	-166.682	0.271	0.011
-500.653	176.828	-0.094	-0.137
-499.639	171.423	-0.129	-0.186
-498.624	356.013	-0.016	0.031
-497.610	141.031	0.085	0.113
-496.595	-53.304	-0.431	-0.198
-495.581	-163.002	-0.138	-0.007
-494.566	131.450	-0.165	-0.212
-493.551	-22.167	0.071	-0.043
-492.537	-99.553	-0.545	0.137
-491.522	-101.822	0.138	-0.033
-490.508	-61.701	0.339	0.143
-489.493	257.983	-0.170	-0.293
-488.478	29.213	0.037	0.031
-487.464	-33.353	-0.286	-0.159
-486.449	170.529	-0.177	-0.255
-485.435	-45.509	-0.122	0.061
-484.420	-80.380	-0.063	-0.021
-483.405	-52.623	-0.258	0.119
-482.391	-89.199	-0.390	0.115
-481.376	-98.058	-0.186	-0.048
-480.362	40.168	-0.172	-0.155
-479.347	800.000	-0.042	0.130
-478.332	206.602	0.026	-0.040
-477.318	-200.000	0.013	-0.138
-476.303	149.833	0.100	-0.135
-475.289	373.217	0.042	-0.085
-474.274	-37.473	0.249	-0.133
-473.259	800.000	-0.036	0.157
-472.245	100.097	0.189	-0.220
-471.230	-160.614	-0.348	-0.019
-470.216	411.153	0.010	-0.021
-469.201	-136.697	0.199	0.023
-468.186	-78.714	0.268	0.092
-467.172	34.797	0.174	-0.152
-466.157	-148.760	-0.121	0.010
-465.143	-73.532	0.295	-0.108
-464.128	15.681	0.315	0.248
-463.113	107.166	0.283	0.336
-462.099	574.574	-0.043	-0.106
-461.084	-200.000	0.049	-0.229
-460.070	800.000	0.074	-0.289
-459.055	-200.000	0.043	-0.238
-458.040	-99.512	0.173	-0.043
-457.026	-62.603	0.050	-0.021
-456.011	80.466	0.144	-0.155
-454.997	-88.247	-0.504	0.151
-453.982	-97.797	-0.210	0.054
-452.968	-90.091	0.437	-0.127
-451.953	-104.398	-0.240	-0.056
-450.938	-200.000	-0.004	-0.249
-449.924	800.000	0.050	-0.214
-448.909	142.349	0.088	0.117
-447.895	-200.000	0.323	-0.001
-446.880	240.492	-0.133	-0.223
-445.865	-200.000	-0.072	0.318
-444.851	800.000	-0.073	0.308
-443.836	-142.509	-0.122	-0.012
-442.822	-127.576	0.411	-0.060
-441.807	91.089	-0.115	-0.129
-440.792	41.868	-0.059	0.053
-439.778	-49.863	-0.255	-0.121
-438.763	-200.000	-0.022	0.162
-437.749	451.829	0.163	-0.361
-436.734	-200.000	0.034	-0.257
-435.719	459.289	-0.136	0.303
-434.705	58.745	-0.006	0.006
-433.690	145.156	-0.162	-0.217
-432.676	-53.323	0.166	0.076
-431.661	103.254	0.180	0.211
-430.646	-124.886	-0.072	-0.011
-429.632	-130.811	-0.119	-0.016
-428.617	-200.000	-0.068	0.368
-427.603	-109.056	0.220	0.047
-426.588	-142.695	0.051	0.005
-425.573	-200.000	-0.024	-0.289
-424.559	-138.983	0.092	-0.010
-423.544	800.000	-0.120	0.360
-422.530	10.899	0.092	-0.071
-421.515	27.888	0.330	0.278
-420.500	572.183	-0.072	-0.176
-419.486	-68.174	0.229	-0.089
-418.471	154.063	0.121	0.167
-417.457	-24.949	-0.053	-0.031
-416.442	118.563	-0.168	-0.207
-415.428	-16.136	-0.207	0.131
-414.413	-139.725	-0.162	0.017
-413.398	32.910	0.327	0.283
-412.384	-200.000	-0.046	-0.361
-411.369	800.000	0.175	-0.497
-410.355	64.999	0.175	-0.177
-409.340	-45.930	-0.359	-0.177
-408.325	-200.000	0.028	0.366
-407.311	-200.000	0.016	0.078
-406.296	273.752	-0.127	-0.225
-405.282	26.008	0.064	-0.054
-404.267	-200.000	0.077	-0.474
-403.252	-54.996	0.187	-0.084
-402.238	-15.391	-0.312	0.199
-401.223	632.447	-0.148	-0.374
-400.209	-200.000	-0.001	-0.230
-399.194	-121.092	-0.168	-0.028
-398.179	314.528	-0.039	0.073
-397.165	314.796	0.036	-0.067
-396.150	800.000	0.044	0.144
-395.136	800.000	-0.038	-0.127
-394.121	-82.796	-0.252	-0.081
-393.106	-95.781	0.352	-0.094
-392.092	-71.050	-0.102	-0.038
-391.077	318.207	-0.039	-0.073
-390.063	542.653	0.152	0.363
-389.048	2.787	-0.095	-0.069
-388.033	-41.291	-0.195	0.100
-387.019	-73.318	-0.302	-0.110
-386.004	-91.422	-0.063	-0.018
-384.990	176.666	-0.187	-0.271
-383.975	-175.842	-0.057	-0.002
-382.960	-200.000	0.029	0.269
-381.946	-121.700	0.153	0.025
-380.931	13.394	-0.152	-0.118
-379.917	-15.694	-0.286	-0.182
-378.902	-200.000	0.001	0.067
-377.888	-200.000	0.029	-0.281
-376.873	-179.838	-0.154	0.003
-375.858	211.169	-0.166	-0.260
-374.844	-84.788	0.037	0.012
-373.829	-82.483	0.203	-0.066
-372.815	630.799	0.041	-0.103
-371.800	-53.286	-0.236	-0.108
-370.785	-97.931	-0.022	-0.006
-369.771	-200.000	-0.013	0.367
-368.756	283.276	0.109	-0.195
-367.742	22.041	-0.175	0.142
-366.727	800.000	0.044	0.187
-365.712	-1.522	-0.164	-0.116
-364.698	-19.683	-0.054	-0.033
-363.683	29.643	-0.385	-0.327
-362.669	-200.000	-0.014	0.086
-361.654	-200.000	-0.005	0.121
-360.639	-200.000	0.060	-0.309
-359.625	-169.258	-0.261	0.010
-358.610	800.000	-0.133	0.448
-357.596	-20.147	-0.425	0.261
-356.581	-200.000	-0.002	-0.020
-355.566	25.692	-0.305	-0.254
-354.552	91.692	0.118	-0.133
-353.537	-200.000	-0.014	0.284
-352.523	-67.187	0.221	-0.087
-351.508	800.000	-0.059	0.211
-350.493	485.575	0.140	0.318
-349.479	-31.488	0.060	-0.034
-348.464	-86.173	0.329	-0.101
-347.450	-149.856	-0.162	-0.013
-346.435	-80.009	0.144	0.048
-345.420	-68.539	0.168	0.065
-344.406	167.254	-0.219	-0.310
-343.391	177.484	-0.095	0.138
-342.377	-104.585	-0.152	0.035
-341.362	187.400	-0.181	0.269
-340.348	66.509	-0.092	-0.093
-339.333	233.249	0.091	-0.149
-338.318	-200.000	0.041	0.264
-337.304	800.000	-0.039	0.132
-336.289	294.011	-0.249	0.453
-335.275	83.183	0.108	0.117
-334.260	-113.537	-0.393	-0.077
-333.245	-200.000	-0.006	-0.279
-332.231	716.827	-0.058	-0.154
-331.216	800.000	-0.098	-0.276
-330.202	9.022	0.171	-0.128
-329.187	-27.066	-0.021	0.012
-328.172	-134.657	-0.201	0.024
-327.158	640.724	0.053	-0.135
-326.143	-200.000	-0.004	0.186
-325.129	-22.086	0.187	-0.113
-324.114	-45.868	0.351	0.173
-323.099	-200.000	-0.020	0.100
-322.085	496.086	0.084	0.193
-321.070	-200.000	0.021	-0.168
-320.056	550.340	0.097	0.232
-319.041	-90.143	-0.146	-0.042
-318.026	-200.000	-0.001	0.082
-317.012	-200.000	-0.039	-0.261
-315.997	-118.698	0.265	0.046
-314.983	-200.000	0.009	0.234
-313.968	30.095	0.039	0.033
-312.953	282.180	0.129	-0.230
-311.939	-107.825	0.063	0.014
-310.924	-200.000	-0.041	-0.370
-309.910	8.291	-0.192	-0.144
-308.895	-99.944	0.151	0.038
-307.880	-107.580	0.197	0.043
-306.866	79.890	0.224	0.239
-305.851	800.000	0.167	-0.533
-304.837	678.312	-0.082	-0.213
-303.822	23.245	0.155	0.127
-302.807	242.630	0.087	0.144
-301.793	-115.390	0.133	0.025
-300.778	187.015	0.090	-0.133
-299.764	800.000	-0.064	0.201
-298.749	-200.000	-0.024	0.132
-297.735	-59.557	0.365	-0.156
-296.720	-104.635	0.219	0.050
-295.705	800.000	0.072	-0.257
-294.691	43.305	0.127	-0.115
-293.676	-5.990	0.037	0.025
-292.662	-200.000	-0.005	-0.056
-291.647	319.497	0.149	0.281
-290.632	-139.492	-0.212	-0.023
-289.618	-180.110	-0.083	-0.002
-288.603	-169.903	-0.312	0.011
-287.589	110.774	-0.031	0.037
-286.574	521.277	-0.043	0.100
-285.559	36.437	0.136	0.120
-284.545	-14.987	-0.102	0.065
-283.530	800.000	0.017	0.061
-282.516	138.065	0.166	0.217
-281.501	6.877	0.264	-0.196
-280.486	-134.581	0.130	-0.016
-279.472	-200.000	0.004	0.179
-278.457	59.909	0.043	-0.042
-277.443	-200.000	-0.021	0.216
-276.428	800.000	0.092	0.268
-275.413	-200.000	0.021	0.177
-274.399	27.256	0.083	0.069
-273.384	96.083	0.355	-0.403
-272.370	-142.031	-0.240	0.024
-271.355	-200.000	0.044	0.270
-270.340	-200.000	-0.029	0.170
-269.326	234.833	-0.033	-0.054
-268.311	-59.507	0.209	0.089
-267.297	51.841	-0.179	0.169
-266.282	97.962	-0.134	-0.154
-265.267	410.503	0.104	0.220
-264.253	118.754	0.056	0.069
-263.238	111.228	0.112	0.133
-262.224	268.928	-0.160	-0.278
-261.209	-106.520	-0.283	-0.063
-260.195	84.429	-0.200	0.217
-259.180	792.390	-0.063	0.171
-258.165	-200.000	-0.004	0.102
-257.151	145.810	0.126	0.168
-256.136	-142.259	0.143	0.014
-255.122	213.897	0.095	-0.150
-254.107	327.818	-0.044	-0.084
-253.092	31.859	-0.125	-0.107
-252.078	-49.206	0.120	-0.057
-251.063	-52.841	0.223	0.102
-250.049	70.866	-0.130	-0.133
-249.034	800.000	-0.164	-0.471
-248.019	452.345	0.142	0.311
-247.005	27.330	-0.056	-0.047
-245.990	35.583	0.056	-0.049
-244.976	-150.545	-0.330	-0.025
-243.961	23.994	0.070	-0.057
-242.946	-114.415	-0.117	0.022
-241.932	38.814	0.165	-0.146
-240.917	88.564	0.200	0.221
-239.903	83.688	-0.137	0.149
-238.888	81.836	-0.239	-0.257
-237.873	38.417	0.193	-0.171
-236.859	-53.889	0.205	-0.093
-235.844	329.488	-0.141	-0.269
-234.830	-153.098	0.285	-0.020
-233.815	192.063	0.019	-0.028
-232.800	64.312	0.175	0.175
-231.786	-200.000	0.025	0.226
-230.771	-200.000	-0.045	0.278
-229.757	-200.000	-0.009	0.333
-228.742	113.986	-0.062	-0.075
-227.727	-143.464	-0.240	0.023
-226.713	-20.641	0.210	0.128
-225.698	354.423	0.031	0.061
-224.684	800.000	-0.031	-0.128
-223.669	-37.665	0.154	-0.082
-222.655	-113.579	0.132	-0.026
-221.640	220.126	0.113	-0.180
-220.625	-58.536	-0.097	-0.042
-219.611	-161.011	0.246	-0.013
-218.596	-108.237	0.505	0.108
-217.582	123.138	-0.104	-0.129
-216.567	-81.455	-0.166	-0.054
-215.552	-17.605	-0.158	-0.098
-214.538	-200.000	0.028	-0.259
-213.523	-46.589	0.416	-0.202
-212.509	-18.202	0.065	-0.040
-211.494	25.594	0.169	0.139
-210.479	33.262	-0.189	-0.162
-209.465	604.674	-0.058	0.144
-208.450	-123.319	0.397	0.063
-207.436	0.307	-0.256	0.181
-206.421	91.983	-0.059	0.066
-205.406	111.167	-0.107	-0.128
-204.392	-32.041	-0.266	0.148
-203.377	-169.435	0.269	0.010
-202.363	-114.065	0.250	0.048
-201.348	-46.079	-0.290	0.141
-200.333	-200.000	0.328	0.000
-199.319	-76.172	0.091	0.032
-198.304	616.915	-0.055	-0.137
-197.290	-50.444	0.032	0.015
-196.275	50.528	-0.201	-0.188
-195.260	-1.857	0.228	-0.159
-194.246	-147.325	-0.214	0.018
-193.231	-200.000	0.007	-0.059
-192.217	-153.597	-0.380	0.026
-191.202	779.905	-0.035	0.094
-190.187	-100.004	-0.052	0.013
-189.173	35.898	0.098	-0.086
-188.158	-0.834	0.220	-0.154
-187.144	-85.032	0.278	0.086
-186.129	-59.844	0.374	-0.159
-185.114	122.649	-0.137	-0.170
-184.100	165.553	0.140	-0.197
-183.085	384.321	-0.062	0.127
-182.071	-154.313	0.429	-0.029
-181.056	33.893	-0.050	0.043
-180.042	-200.000	-0.042	0.264
-179.027	800.000	0.021	-0.080
-178.012	32.265	-0.134	-0.114
-176.998	584.961	0.045	0.109
-175.983	-200.000	-0.091	0.412
-174.969	6.554	-0.133	-0.098
-173.954	-122.320	-0.209	-0.034
-172.939	-200.000	-0.072	0.327
-171.925	-200.000	0.008	0.109
-170.910	-22.545	0.099	0.059
-169.896	108.111	-0.150	0.177
-168.881	178.109	-0.118	0.171
-167.866	300.312	-0.097	-0.178
-166.852	220.258	-0.138	0.219
-165.837	303.876	-0.133	0.243
-164.823	19.285	0.058	0.046
-163.808	63.221	-0.136	0.135
-162.793	800.000	0.059	0.171
-161.779	-49.228	0.272	0.128
-160.764	-77.367	-0.322	-0.111
-159.750	430.877	-0.060	0.129
-158.735	127.244	0.177	0.222
-157.720	401.079	0.049	-0.102
-156.706	-137.350	0.226	0.025
-155.691	-200.000	-0.042	-0.270
-154.677	201.532	-0.125	0.191
-153.662	800.000	-0.091	0.262
-152.647	91.671	0.165	0.183
-151.633	96.661	-0.047	-0.053
-150.618	-170.313	-0.206	-0.007
-149.604	162.225	0.242	0.336
-148.589	472.186	0.107	-0.238
-147.574	-95.230	0.151	0.040
-146.560	-85.209	-0.098	-0.030
-145.545	-200.000	-0.011	0.174
-144.531	800.000	0.062	0.201
-143.516	-150.217	-0.311	0.024
-142.502	-200.000	0.003	-0.187
-141.487	759.665	0.062	0.167
-140.472	-35.953	-0.295	0.158
-139.458	-137.088	0.184	-0.021
-138.443	-46.411	-0.149	-0.072
-137.429	101.796	0.195	0.225
-136.414	-143.717	0.091	-0.008
-135.399	26.925	-0.111	0.092
-134.385	-153.017	0.122	-0.008
-133.370	402.552	-0.109	-0.227
-132.356	-61.192	0.102	-0.042
-131.341	-200.000	0.015	-0.185
-130.326	-200.000	0.009	-0.066
-129.312	68.048	0.052	0.053
-128.297	170.196	0.114	-0.162
-127.283	800.000	0.083	-0.301
-126.268	-169.503	-0.552	-0.020
-125.253	-200.000	-0.061	0.349
-124.239	321.078	-0.084	0.159
-123.224	326.887	0.022	-0.041
-122.210	0.497	0.484	0.341
