DTS Sentinel unit serial number:	SN413079Multiplexer serial number:	ORYXHardware model number:	OX4-SRSoftware version number:	ORYX F/W v4.00 Oryx Data Collector v3.7.2.0data status	okinstallation	princeton_trtdifferential loss correction	single-endedforward channel	channel 3reverse channel	N/Adate	2019/09/15time	00:08:35forward acquisition time	60.00reverse acquisition time	0.00gamma	496.2192k internal	0.2320k external	0.2320temperature offset calibration	0.9975default loss term (dB/km)	0.3790temperature slope calibration	1.0000multiplexer offset coefficient	1.0000multiplexer slope coefficient	1.0000fibre end	0.00T internal ref (°C)	32.19T ext. ref 1 (°C)	4.58T ext. ref 2 (°C)	27.18length (m)	temperature (°C)	Stokes	anti-Stokes-747.200	65.954	0.041	0.042
-746.185	-200.000	-0.062	0.382
-745.171	-22.994	0.205	0.125
-744.156	-54.837	0.110	-0.050
-743.142	232.001	0.151	-0.250
-742.127	-200.000	0.028	0.165
-741.112	-35.352	-0.388	0.214
-740.098	-174.761	-0.119	-0.003
-739.083	-10.021	0.176	-0.118
-738.069	107.578	-0.113	0.136
-737.054	425.901	0.132	0.287
-736.039	137.048	-0.205	0.271
-735.025	228.394	0.283	0.466
-734.010	92.947	-0.195	-0.222
-732.996	101.186	-0.207	-0.244
-731.981	543.605	-0.047	0.114
-730.966	-122.203	-0.140	0.023
-729.952	-200.000	0.021	0.100
-728.937	-200.000	0.000	0.078
-727.923	-200.000	-0.008	-0.220
-726.908	13.050	0.246	-0.192
-725.894	6.604	-0.126	0.095
-724.879	82.132	0.032	-0.035
-723.864	-200.000	0.004	-0.275
-722.850	-126.784	0.101	-0.015
-721.835	-200.000	-0.021	0.258
-720.821	-37.558	-0.174	-0.094
-719.806	-26.336	-0.263	-0.156
-718.791	527.284	-0.112	-0.266
-717.777	144.167	0.095	-0.128
-716.762	696.241	0.109	-0.288
-715.748	-90.235	-0.123	0.036
-714.733	144.216	-0.241	0.325
-713.718	-104.843	-0.412	0.096
-712.704	800.000	0.092	0.283
-711.689	800.000	-0.029	-0.116
-710.675	800.000	-0.073	-0.284
-709.660	-119.668	0.375	0.065
-708.645	-158.338	-0.185	-0.011
-707.631	228.884	0.056	-0.092
-706.616	487.709	-0.116	-0.268
-705.602	-200.000	0.029	-0.397
-704.587	102.197	0.052	-0.061
-703.572	78.061	0.185	0.199
-702.558	52.216	0.109	-0.105
-701.543	-200.000	0.068	-0.363
-700.529	-62.901	-0.293	-0.123
-699.514	202.830	-0.127	-0.198
-698.499	188.241	-0.151	-0.229
-697.485	86.256	-0.127	0.141
-696.470	-174.397	0.328	-0.010
-695.456	-62.869	0.103	-0.043
-694.441	-3.313	-0.196	0.138
-693.426	87.160	0.049	0.055
-692.412	24.016	-0.202	0.168
-691.397	-200.000	0.020	-0.133
-690.383	-113.585	0.069	-0.014
-689.368	-13.208	-0.273	-0.179
-688.354	-39.242	-0.092	0.049
-687.339	-200.000	0.047	-0.323
-686.324	-97.133	0.289	-0.076
-685.310	-110.540	-0.450	0.094
-684.295	446.213	-0.021	0.047
-683.281	350.446	0.070	-0.139
-682.266	-51.859	-0.262	-0.123
-681.251	800.000	0.017	-0.058
-680.237	-200.000	0.100	-0.459
-679.222	6.074	-0.107	0.080
-678.208	-117.211	0.191	0.035
-677.193	404.742	-0.094	-0.199
-676.178	487.978	0.082	-0.189
-675.164	-169.844	-0.041	0.001
-674.149	-102.152	0.406	0.098
-673.135	-77.436	-0.244	-0.085
-672.120	3.186	-0.217	0.160
-671.105	-200.000	0.024	0.124
-670.091	184.089	-0.118	0.176
-669.076	-45.116	-0.290	0.145
-668.062	-109.112	0.218	0.047
-667.047	-81.034	-0.271	0.091
-666.032	-200.000	0.018	0.085
-665.018	-200.000	0.031	-0.141
-664.003	-22.682	-0.179	0.109
-662.989	291.296	-0.190	0.348
-661.974	-32.690	-0.045	0.025
-660.959	-101.146	-0.198	0.049
-659.945	800.000	0.069	-0.222
-658.930	-79.543	0.393	0.134
-657.916	-60.192	0.061	0.026
-656.901	355.330	0.130	-0.262
-655.886	-69.097	0.221	0.086
-654.872	-20.903	-0.234	0.145
-653.857	-138.181	0.270	-0.030
-652.843	72.557	-0.263	-0.277
-651.828	-148.341	0.306	0.025
-650.814	132.557	-0.122	-0.158
-649.799	-114.219	0.148	-0.029
-648.784	800.000	0.084	0.252
-647.770	353.479	0.045	-0.091
-646.755	140.037	-0.114	0.151
-645.741	-24.995	-0.106	0.064
-644.726	557.540	-0.079	-0.192
-643.711	-97.890	-0.240	-0.062
-642.697	-90.626	0.275	-0.080
-641.682	-70.721	0.094	-0.036
-640.668	800.000	0.041	-0.149
-639.653	60.969	0.114	-0.114
-638.638	576.466	-0.028	0.068
-637.624	-200.000	0.022	-0.101
-636.609	1.936	-0.155	-0.113
-635.595	-50.752	-0.230	-0.109
-634.580	43.146	0.119	0.109
-633.565	-200.000	0.070	-0.375
-632.551	-35.483	-0.302	-0.165
-631.536	-165.245	-0.343	0.015
-630.522	-42.663	-0.105	0.054
-629.507	-200.000	0.004	0.266
-628.492	-65.693	-0.414	0.167
-627.478	-83.696	-0.303	0.098
-626.463	-200.000	-0.022	0.099
-625.449	-165.770	-0.206	-0.009
-624.434	46.931	-0.214	-0.200
-623.419	-168.721	-0.130	-0.005
-622.405	369.253	-0.125	-0.255
-621.390	-163.396	0.197	0.009
-620.376	50.177	0.125	0.119
-619.361	-160.463	-0.222	0.012
-618.346	34.581	0.267	-0.235
-617.332	71.005	-0.062	-0.065
-616.317	800.000	-0.075	0.216
-615.303	159.801	-0.094	-0.131
-614.288	-115.650	0.095	0.018
-613.273	-132.314	0.209	0.027
-612.259	800.000	-0.017	0.073
-611.244	800.000	0.051	0.182
-610.230	-47.399	0.180	0.088
-609.215	368.444	0.022	-0.044
-608.201	72.450	-0.072	0.075
-607.186	131.364	-0.138	0.178
-606.171	-6.745	-0.077	-0.053
-605.157	-150.014	-0.297	0.023
-604.142	97.087	-0.094	0.109
-603.128	800.000	-0.062	-0.250
-602.113	-95.421	-0.314	0.085
-601.098	62.135	0.076	-0.076
-600.084	-106.921	-0.166	-0.037
-599.069	119.788	0.279	0.347
-598.055	-127.465	0.194	0.028
-597.040	-172.507	-0.483	0.015
-596.025	-47.603	-0.158	-0.077
-595.011	800.000	0.066	-0.202
-593.996	-151.878	-0.073	-0.005
-592.982	-109.897	-0.302	0.064
-591.967	270.343	-0.282	0.498
-590.952	469.221	0.058	0.132
-589.938	17.635	-0.069	-0.055
-588.923	322.849	-0.115	-0.221
-587.909	10.785	-0.244	0.187
-586.894	286.753	0.143	0.261
-585.879	204.933	0.017	-0.027
-584.865	412.948	-0.143	-0.305
-583.850	28.108	-0.254	-0.216
-582.836	-128.826	-0.366	0.052
-581.821	800.000	-0.057	0.215
-580.806	-200.000	0.066	-0.295
-579.792	220.042	-0.095	-0.152
-578.777	561.385	-0.116	-0.282
-577.763	800.000	-0.082	-0.239
-576.748	-65.183	0.067	0.027
-575.733	-180.470	0.328	0.007
-574.719	800.000	0.071	-0.296
-573.704	-200.000	0.014	-0.066
-572.690	800.000	0.033	-0.111
-571.675	130.371	-0.057	-0.073
-570.661	-109.469	0.254	-0.054
-569.646	3.425	-0.299	-0.219
-568.631	109.618	0.115	0.138
-567.617	-200.000	0.018	0.098
-566.602	-108.438	-0.155	0.033
-565.588	-71.831	-0.356	0.133
-564.573	-41.939	0.233	0.120
-563.558	-128.485	-0.186	-0.027
-562.544	16.809	-0.243	0.193
-561.529	-164.626	-0.160	0.007
-560.515	-200.000	0.007	0.100
-559.500	-26.140	-0.253	0.149
-558.485	126.522	-0.127	0.161
-557.471	3.451	-0.074	-0.054
-556.456	-42.600	0.052	0.026
-555.442	83.781	-0.138	0.151
-554.427	-200.000	-0.029	0.000
-553.412	-71.082	-0.202	-0.076
-552.398	366.917	0.134	0.272
-551.383	9.198	-0.327	0.248
-550.369	682.565	-0.021	-0.054
-549.354	-42.999	-0.167	0.085
-548.339	-100.360	-0.177	-0.044
-547.325	800.000	0.051	0.208
-546.310	61.800	-0.348	-0.347
-545.296	618.920	0.146	-0.368
-544.281	800.000	0.036	0.109
-543.266	-200.000	0.037	0.209
-542.252	800.000	-0.027	-0.086
-541.237	-68.538	-0.036	-0.014
-540.223	-200.000	-0.011	-0.137
-539.208	-200.000	0.014	0.144
-538.193	-200.000	0.004	0.195
-537.179	154.516	0.236	0.325
-536.164	-39.707	-0.073	0.038
-535.150	-69.697	-0.044	-0.017
-534.135	-189.655	0.177	0.002
-533.121	146.326	0.064	0.087
-532.106	-124.407	0.060	-0.009
-531.091	-33.941	0.032	0.017
-530.077	800.000	-0.106	-0.379
-529.062	108.655	0.090	-0.108
-528.048	800.000	-0.018	-0.075
-527.033	111.666	0.096	-0.116
-526.018	15.546	0.275	0.217
-525.004	-70.036	0.227	-0.087
-523.989	-93.310	0.192	0.053
-522.975	97.698	0.093	-0.107
-521.960	-200.000	0.011	0.212
-520.945	800.000	-0.089	-0.279
-519.931	-200.000	0.018	-0.272
-518.916	-6.591	0.125	-0.085
-517.902	800.000	-0.024	0.086
-516.887	136.750	0.213	-0.279
-515.872	-46.948	0.095	0.047
-514.858	101.869	-0.216	-0.252
-513.843	-81.317	-0.127	0.042
-512.829	-122.008	0.113	0.019
-511.814	-44.722	-0.338	0.169
-510.799	-200.000	-0.019	-0.171
-509.785	-53.694	0.084	-0.039
-508.770	-200.000	0.015	-0.311
-507.756	-70.194	-0.303	-0.116
-506.741	-200.000	-0.008	-0.239
-505.726	484.458	-0.057	-0.130
-504.712	-49.850	0.124	-0.059
-503.697	-34.412	0.332	-0.183
-502.683	547.320	0.145	0.348
-501.668	-17.241	0.143	0.090
-500.653	-78.568	-0.130	0.045
-499.639	341.228	0.038	-0.075
-498.624	80.362	0.103	0.111
-497.610	212.632	-0.096	-0.151
-496.595	11.024	0.133	-0.102
-495.581	-72.967	0.011	0.004
-494.566	-1.412	0.228	-0.161
-493.551	483.062	-0.061	-0.139
-492.537	-200.000	0.054	-0.410
-491.522	401.823	-0.009	-0.020
-490.508	-140.367	0.233	0.024
-489.493	119.286	-0.050	-0.061
-488.478	-108.934	-0.341	-0.073
-487.464	162.293	-0.087	-0.122
-486.449	-200.000	-0.017	-0.244
-485.435	134.711	0.096	0.124
-484.420	-156.420	-0.299	0.019
-483.405	-115.646	-0.301	-0.057
-482.391	800.000	-0.057	0.161
-481.376	31.116	0.311	-0.267
-480.362	10.101	-0.193	0.147
-479.347	155.440	-0.164	0.226
-478.332	800.000	-0.096	0.271
-477.318	-42.346	0.292	0.149
-476.303	-14.326	0.026	0.017
-475.289	-94.821	-0.264	-0.072
-474.274	-48.015	0.385	-0.186
-473.259	234.293	0.134	-0.221
-472.245	82.767	0.160	-0.174
-471.230	-47.493	0.444	-0.216
-470.216	-200.000	-0.073	-0.349
-469.201	61.705	-0.155	-0.155
-468.186	2.321	-0.215	-0.156
-467.172	191.436	-0.027	0.041
-466.157	328.542	0.109	-0.209
-465.143	-200.000	0.005	0.024
-464.128	-12.371	0.178	0.116
-463.113	-74.535	-0.265	0.095
-462.099	-200.000	0.000	0.319
-461.084	-137.319	0.115	0.013
-460.070	107.014	-0.212	0.252
-459.055	-52.911	-0.253	-0.116
-458.040	133.219	0.234	-0.302
-457.026	43.536	0.056	-0.051
-456.011	356.651	0.091	-0.180
-454.997	12.209	0.170	-0.131
-453.982	-36.908	0.321	0.172
-452.968	170.393	0.142	-0.203
-451.953	-200.000	0.009	-0.205
-450.938	-68.866	0.312	0.120
-449.924	800.000	0.035	0.130
-448.909	31.728	0.120	0.103
-447.895	-112.393	-0.361	0.072
-446.880	386.525	0.033	0.068
-445.865	7.392	-0.062	0.046
-444.851	-23.050	-0.239	-0.144
-443.836	-200.000	0.009	0.214
-442.822	-138.744	0.120	-0.013
-441.807	-132.371	0.220	-0.028
-440.792	-184.713	0.234	-0.004
-439.778	-182.039	-0.298	0.006
-438.763	-143.475	0.016	-0.002
-437.749	-200.000	0.050	-0.342
-436.734	-105.703	0.222	0.050
-435.719	-200.000	-0.068	0.312
-434.705	293.877	0.119	-0.216
-433.690	-81.003	-0.189	-0.063
-432.676	-29.211	-0.401	-0.229
-431.661	800.000	-0.018	-0.076
-430.646	-140.913	0.351	0.036
-429.632	109.577	-0.059	-0.071
-428.617	55.538	-0.159	-0.154
-427.603	-94.674	0.386	0.105
-426.588	-30.375	0.216	0.122
-425.573	800.000	-0.026	-0.095
-424.559	-118.032	0.238	0.043
-423.544	213.802	-0.251	-0.396
-422.530	-200.000	-0.049	-0.336
-421.515	447.283	-0.128	0.281
-420.500	97.150	-0.061	0.070
-419.486	-164.153	0.090	0.004
-418.471	-19.470	-0.162	0.101
-417.457	-200.000	-0.095	-0.475
-416.442	-91.934	-0.230	0.065
-415.428	-31.501	-0.375	-0.210
-414.413	800.000	-0.050	-0.154
-413.398	-117.476	0.155	0.028
-412.384	-85.350	0.173	0.054
-411.369	-72.511	-0.143	-0.053
-410.355	-128.059	-0.170	0.024
-409.340	264.701	0.077	0.135
-408.325	626.767	0.154	0.388
-407.311	800.000	0.014	0.060
-406.296	439.822	0.036	0.078
-405.282	-11.266	-0.246	-0.161
-404.267	36.521	-0.043	0.038
-403.252	-127.273	-0.096	-0.014
-402.238	-200.000	-0.041	0.413
-401.223	-200.000	0.042	0.235
-400.209	785.620	-0.092	-0.251
-399.194	800.000	0.065	0.183
-398.179	-125.840	-0.150	0.023
-397.165	296.683	-0.056	-0.102
-396.150	-200.000	-0.001	-0.283
-395.136	-34.433	0.162	0.089
-394.121	800.000	-0.142	0.426
-393.106	-77.327	0.170	-0.059
-392.092	-0.169	0.268	0.190
-391.077	102.976	-0.081	0.094
-390.063	-141.631	-0.329	0.033
-389.048	-67.497	-0.188	-0.074
-388.033	800.000	0.070	-0.201
-387.019	67.699	-0.385	0.393
-386.004	-135.666	-0.212	0.025
-384.990	-141.891	0.042	0.004
-383.975	-148.850	-0.202	0.016
-382.960	-69.564	0.169	-0.064
-381.946	66.982	0.207	0.211
-380.931	-200.000	0.064	0.346
-379.917	800.000	-0.081	0.328
-378.902	244.369	0.121	0.202
-377.888	-53.687	0.241	0.110
-376.873	46.922	-0.147	-0.136
-375.858	758.985	-0.091	-0.246
-374.844	-2.207	-0.088	-0.061
-373.829	35.425	0.183	0.160
-372.815	-130.495	-0.191	-0.026
-371.800	-93.288	0.098	-0.027
-370.785	-95.993	-0.113	0.030
-369.771	7.290	-0.117	-0.087
-368.756	-28.596	-0.335	0.192
-367.742	23.346	0.109	-0.089
-366.727	-86.579	0.140	-0.043
-365.712	728.202	0.122	0.324
-364.698	645.029	0.044	-0.112
-363.683	-200.000	-0.039	0.342
-362.669	265.180	-0.144	0.250
-361.654	22.242	-0.049	-0.040
-360.639	800.000	0.095	-0.290
-359.625	166.574	0.161	-0.227
-358.610	696.954	-0.101	0.264
-357.596	27.900	-0.281	-0.236
-356.581	-122.778	0.242	-0.039
-355.566	-143.806	-0.111	-0.010
-354.552	-200.000	0.009	0.221
-353.537	-80.498	-0.185	-0.061
-352.523	-200.000	0.058	0.283
-351.508	-200.000	-0.016	-0.436
-350.493	-35.925	0.119	-0.064
-349.479	-200.000	0.009	-0.109
-348.464	295.422	-0.076	0.139
-347.450	201.935	-0.129	-0.198
-346.435	-119.095	0.494	-0.086
-345.420	0.950	-0.427	0.305
-344.406	6.176	-0.229	0.169
-343.391	-200.000	0.004	-0.065
-342.377	-200.000	0.025	-0.211
-341.362	365.833	0.203	-0.408
-340.348	-73.775	0.348	-0.126
-339.333	177.244	-0.159	0.231
-338.318	-178.070	0.138	-0.003
-337.304	-200.000	-0.003	0.417
-336.289	303.860	0.128	-0.236
-335.275	-160.001	0.039	-0.002
-334.260	-200.000	-0.053	0.382
-333.245	-90.045	-0.346	0.100
-332.231	-200.000	0.020	0.222
-331.216	106.498	-0.207	0.244
-330.202	-180.769	-0.154	-0.003
-329.187	800.000	0.044	-0.126
-328.172	109.643	-0.176	-0.210
-327.158	85.149	0.208	0.227
-326.143	678.621	0.028	0.073
-325.129	-200.000	-0.026	-0.153
-324.114	147.094	-0.056	-0.075
-323.099	-108.318	0.301	-0.065
-322.085	-133.484	0.102	0.013
-321.070	800.000	-0.032	-0.127
-320.056	590.107	-0.132	0.324
-319.041	-23.933	0.204	-0.121
-318.026	800.000	0.050	-0.193
-317.012	11.660	-0.076	0.058
-315.997	320.017	-0.087	0.164
-314.983	-130.159	-0.050	0.007
-313.968	-144.137	-0.311	-0.029
-312.953	-51.999	0.364	-0.168
-311.939	28.908	0.108	-0.091
-310.924	-0.527	0.254	0.179
-309.910	-200.000	-0.009	-0.051
-308.895	771.185	0.092	0.250
-307.880	5.348	0.165	-0.121
-306.866	-108.647	-0.071	-0.015
-305.851	-87.609	0.226	-0.068
-304.837	-93.142	-0.097	0.027
-303.822	43.455	-0.103	0.093
-302.807	270.630	0.051	0.089
-301.793	-134.258	0.189	-0.023
-300.778	-200.000	-0.022	-0.127
-299.764	-58.495	0.105	0.045
-298.749	110.724	0.090	0.107
-297.735	-7.568	0.317	-0.213
-296.720	-200.000	-0.006	0.187
-295.705	-182.753	0.173	-0.003
-294.691	328.056	-0.087	0.165
-293.676	-174.429	0.405	-0.012
-292.662	-68.406	-0.375	0.145
-291.647	137.866	0.073	0.096
-290.632	363.966	0.117	0.233
-289.618	414.893	0.076	0.161
-288.603	-110.804	0.326	0.067
-287.589	93.493	-0.104	0.117
-286.574	390.454	0.138	0.284
-285.559	-104.665	0.131	0.030
-284.545	266.024	0.120	0.207
-283.530	800.000	0.142	-0.452
-282.516	574.251	0.071	0.173
-281.501	-141.088	-0.238	0.024
-280.486	-86.629	0.148	-0.045
-279.472	800.000	0.047	-0.190
-278.457	116.115	0.101	-0.123
-277.443	-200.000	0.058	-0.285
-276.428	355.450	-0.052	-0.103
-275.413	-200.000	-0.020	-0.161
-274.399	-138.105	0.351	-0.039
-273.384	-45.298	-0.232	-0.114
-272.370	198.620	-0.221	0.335
-271.355	800.000	-0.079	0.294
-270.340	93.250	-0.081	0.091
-269.326	-118.235	-0.268	0.047
-268.311	528.833	0.006	-0.015
-267.297	-92.804	0.198	-0.055
-266.282	-84.060	-0.487	-0.154
-265.267	154.020	0.219	0.297
-264.253	-124.877	0.255	0.039
-263.238	-18.919	-0.212	0.131
-262.224	-167.363	-0.124	-0.005
-261.209	-200.000	-0.086	-0.509
-260.195	-32.768	0.118	0.065
-259.180	52.041	0.227	0.215
-258.165	-87.704	-0.126	-0.038
-257.151	499.745	0.074	0.169
-256.136	-93.664	-0.092	0.025
-255.122	-141.043	0.479	0.049
-254.107	120.639	0.138	-0.170
-253.092	800.000	-0.089	-0.295
-252.078	-28.340	-0.150	0.086
-251.063	-200.000	-0.049	0.416
-250.049	143.790	0.163	-0.215
-249.034	-27.355	-0.148	-0.086
-248.019	800.000	0.027	0.090
-247.005	-200.000	0.047	0.241
-245.990	-106.014	0.239	-0.053
-244.976	6.695	0.279	0.206
-243.961	-32.659	-0.294	0.162
-242.946	160.624	-0.079	-0.110
-241.932	81.450	0.130	0.139
-240.917	237.075	0.180	0.296
-239.903	-121.690	0.165	-0.027
-238.888	-54.456	-0.274	-0.123
-237.873	-149.585	-0.205	-0.016
-236.859	-145.298	0.472	-0.042
-235.844	111.148	-0.097	0.116
-234.830	-75.946	-0.118	-0.041
-233.815	-53.955	0.127	0.057
-232.800	483.365	0.087	-0.195
-231.786	-152.462	0.190	-0.014
-230.771	-39.393	0.131	0.068
-229.757	-128.659	-0.178	-0.025
-228.742	88.464	-0.057	0.062
-227.727	143.644	0.237	-0.313
-226.713	-121.047	-0.153	-0.026
-225.698	24.527	0.077	-0.063
-224.684	71.940	0.097	0.100
-223.669	-200.000	0.021	0.103
-222.655	-200.000	0.067	0.357
-221.640	-57.541	-0.146	0.064
-220.625	-123.688	-0.197	-0.031
-219.611	-119.615	0.207	0.036
-218.596	-200.000	0.009	-0.060
-217.582	-40.923	-0.115	-0.059
-216.567	-200.000	0.043	-0.297
-215.552	-200.000	0.000	-0.025
-214.538	-83.637	-0.327	0.104
-213.523	92.657	0.126	0.141
-212.509	800.000	-0.046	-0.176
-211.494	-39.106	0.266	-0.139
-210.479	-37.140	-0.211	0.112
-209.465	20.472	0.078	0.063
-208.450	71.833	0.096	0.099
-207.436	-200.000	0.051	-0.334
-206.421	-19.122	-0.169	0.104
-205.406	-93.622	0.171	0.047
-204.392	800.000	-0.040	-0.140
-203.377	800.000	0.054	0.171
-202.363	482.254	0.075	0.169
-201.348	-136.065	-0.294	-0.034
-200.333	64.901	-0.104	-0.104
-199.319	-29.883	-0.238	-0.134
-198.304	8.307	-0.255	-0.189
-197.290	64.907	-0.314	-0.314
-196.275	-40.788	0.126	-0.064
-195.260	-76.768	0.263	0.091
-194.246	317.007	0.119	0.222
-193.231	-200.000	0.029	-0.152
-192.217	-135.414	0.168	0.020
-191.202	-200.000	0.013	-0.271
-190.187	-36.918	0.363	-0.192
-189.173	-120.592	0.404	0.068
-188.158	-200.000	-0.027	-0.137
-187.144	122.340	0.215	0.265
-186.129	-121.511	0.170	-0.028
-185.114	-19.709	0.320	-0.196
-184.100	-77.639	0.055	-0.019
-183.085	-200.000	-0.013	0.129
-182.071	-33.953	-0.237	-0.129
-181.056	18.387	-0.241	-0.191
-180.042	432.229	-0.152	0.325
-179.027	367.011	-0.088	0.175
-178.012	2.808	-0.263	-0.189
-176.998	-141.371	0.125	-0.012
-175.983	-158.231	0.295	0.017
-174.969	-44.394	0.221	0.109
-173.954	-141.939	0.041	-0.004
-172.939	-128.744	-0.366	-0.051
-171.925	200.778	0.060	-0.092
-170.910	-16.616	-0.135	0.085
-169.896	610.730	0.194	-0.480
-168.881	-127.105	0.298	-0.043
-167.866	-124.237	0.347	-0.054
-166.852	-71.229	0.157	0.058
-165.837	20.044	0.312	0.249
-164.823	306.568	-0.198	0.365
-163.808	44.691	0.106	0.096
-162.793	-200.000	-0.177	0.000
-161.779	3.085	0.160	-0.115
-160.764	-29.770	0.231	0.130
-159.750	800.000	0.129	0.447
-158.735	800.000	-0.084	0.307
-157.720	298.774	0.113	0.206
-156.706	163.518	0.166	-0.230
-155.691	-82.050	0.306	-0.099
-154.677	277.603	-0.069	-0.122
-153.662	65.713	-0.082	-0.082
-152.647	-109.456	0.076	0.016
-151.633	800.000	0.085	0.335
-150.618	13.679	0.188	-0.144
-149.604	800.000	-0.060	-0.227
-148.589	353.551	0.111	-0.219
-147.574	-200.000	-0.057	-0.430
-146.560	54.951	-0.281	-0.268
-145.545	-142.193	-0.191	-0.019
-144.531	800.000	0.071	0.228
-143.516	9.249	0.130	0.097
-142.502	144.096	0.047	-0.062
-141.487	278.035	-0.160	-0.281
-140.472	-51.350	-0.330	0.152
-139.458	-5.422	0.085	-0.057
-138.443	46.781	0.157	-0.144
-137.429	12.211	0.185	0.141
-136.414	-129.028	-0.010	0.001
-135.399	-200.000	-0.009	0.133
-134.385	-11.344	0.113	-0.073
-133.370	-200.000	0.012	0.220
-132.356	-200.000	-0.038	0.301
-131.341	621.800	0.102	0.253
-130.326	364.254	0.189	0.375
-129.312	-160.078	-0.157	-0.008
-128.297	687.946	-0.088	-0.228
-127.283	-21.324	0.429	-0.258
-126.268	-200.000	0.005	-0.170
-125.253	-131.081	-0.192	-0.025
-124.239	385.759	0.135	0.274
-123.224	229.526	0.103	-0.166
-122.210	-94.323	0.115	0.031
-121.195	-27.713	0.019	0.011
