DTS Sentinel unit serial number:	SN413079Multiplexer serial number:	ORYXHardware model number:	OX4-SRSoftware version number:	ORYX F/W v4.00 Oryx Data Collector v3.7.2.0data status	okinstallation	princeton_trtdifferential loss correction	single-endedforward channel	channel 3reverse channel	N/Adate	2019/09/14time	02:04:35forward acquisition time	60.00reverse acquisition time	0.00gamma	496.2192k internal	0.2339k external	0.2339temperature offset calibration	1.0053default loss term (dB/km)	0.3790temperature slope calibration	1.0000multiplexer offset coefficient	1.0000multiplexer slope coefficient	1.0000fibre end	0.00T internal ref (°C)	26.50T ext. ref 1 (°C)	3.21T ext. ref 2 (°C)	21.48length (m)	temperature (°C)	Stokes	anti-Stokes-747.200	-200.000	-0.008	0.152
-746.185	-153.010	0.058	-0.004
-745.171	146.464	-0.071	-0.096
-744.156	-200.000	0.092	0.421
-743.142	124.855	-0.072	0.090
-742.127	-73.858	0.152	0.055
-741.112	-200.000	0.002	-0.146
-740.098	-100.336	-0.350	0.087
-739.083	-39.948	0.087	0.046
-738.069	-131.849	-0.194	0.025
-737.054	800.000	-0.032	0.120
-736.039	-134.377	-0.590	-0.073
-735.025	85.955	0.149	0.164
-734.010	-148.772	-0.222	0.018
-732.996	-104.821	-0.571	-0.132
-731.981	-95.641	0.228	-0.061
-730.966	-3.569	-0.183	-0.127
-729.952	-40.553	0.107	0.055
-728.937	323.660	-0.141	-0.270
-727.923	-68.331	0.286	-0.111
-726.908	62.456	-0.061	-0.061
-725.894	-18.649	-0.339	0.212
-724.879	647.650	-0.182	-0.467
-723.864	208.745	-0.163	0.255
-722.850	-110.496	0.117	0.024
-721.835	603.371	0.099	-0.248
-720.821	15.036	-0.039	0.031
-719.806	55.202	-0.202	0.196
-718.791	800.000	-0.063	-0.231
-717.777	3.300	-0.106	0.077
-716.762	-115.850	0.075	-0.014
-715.748	-83.314	0.172	-0.055
-714.733	-27.435	-0.100	0.058
-713.718	-102.471	0.236	0.057
-712.704	371.009	-0.149	-0.303
-711.689	88.617	0.191	-0.212
-710.675	-53.237	-0.162	0.074
-709.660	38.576	0.041	0.037
-708.645	165.048	-0.005	0.007
-707.631	-83.408	0.088	-0.028
-706.616	-22.351	-0.082	0.050
-705.602	-175.343	0.144	-0.004
-704.587	-200.000	-0.013	-0.375
-703.572	-129.024	-0.135	0.019
-702.558	-83.147	0.184	0.059
-701.543	252.027	-0.193	-0.329
-700.529	-63.842	-0.469	-0.192
-699.514	-200.000	0.004	-0.194
-698.499	165.722	-0.141	0.200
-697.485	415.875	0.115	-0.245
-696.470	55.246	-0.222	0.215
-695.456	-65.121	-0.273	0.110
-694.441	-121.219	-0.251	0.042
-693.426	-200.000	-0.022	-0.413
-692.412	-93.501	-0.182	-0.050
-691.397	-200.000	-0.087	-0.437
-690.383	800.000	-0.012	0.050
-689.368	34.139	0.156	-0.136
-688.354	194.098	-0.143	-0.217
-687.339	215.851	0.169	-0.269
-686.324	-200.000	0.003	-0.122
-685.310	800.000	0.090	0.261
-684.295	244.894	0.116	-0.196
-683.281	-50.076	-0.143	-0.068
-682.266	328.109	0.199	0.383
-681.251	800.000	0.079	-0.242
-680.237	-137.099	-0.085	0.010
-679.222	798.619	-0.023	-0.064
-678.208	800.000	-0.031	-0.101
-677.193	-200.000	-0.032	-0.210
-676.178	575.707	-0.021	0.052
-675.164	-200.000	0.016	0.121
-674.149	35.391	-0.184	0.162
-673.135	158.217	0.301	-0.417
-672.120	-118.031	-0.175	0.031
-671.105	12.660	0.133	0.103
-670.091	129.313	-0.031	0.039
-669.076	-200.000	0.023	0.156
-668.062	-30.179	-0.311	-0.177
-667.047	82.872	-0.234	0.254
-666.032	-134.356	0.206	-0.025
-665.018	77.257	-0.213	-0.226
-664.003	-48.355	0.109	-0.053
-662.989	800.000	-0.117	0.355
-661.974	-30.763	-0.333	0.188
-660.959	144.606	-0.294	0.393
-659.945	11.787	-0.302	-0.232
-658.930	-61.299	0.117	-0.049
-657.916	-200.000	-0.024	-0.182
-656.901	-30.806	-0.197	-0.111
-655.886	66.265	0.188	-0.191
-654.872	-74.396	0.161	-0.058
-653.857	-160.545	-0.309	-0.017
-652.843	800.000	-0.093	0.270
-651.828	30.303	0.089	-0.076
-650.814	-101.465	-0.158	0.038
-649.799	800.000	-0.036	-0.131
-648.784	220.313	-0.068	-0.108
-647.770	-113.276	0.078	0.015
-646.755	76.993	-0.176	-0.187
-645.741	-125.559	0.278	-0.042
-644.726	800.000	0.040	0.156
-643.711	-117.676	-0.149	0.027
-642.697	-138.350	-0.170	-0.019
-641.682	-67.031	0.255	0.100
-640.668	-73.821	-0.082	0.030
-639.653	238.011	0.091	-0.151
-638.638	123.506	0.035	0.044
-637.624	-200.000	-0.053	0.273
-636.609	272.612	0.133	0.234
-635.595	-183.778	-0.046	-0.001
-634.580	-70.099	0.251	0.095
-633.565	-66.655	-0.433	-0.171
-632.551	-200.000	-0.016	-0.745
-631.536	197.902	0.302	0.461
-630.522	17.518	0.111	-0.088
-629.507	73.236	0.126	0.132
-628.492	738.827	0.022	0.060
-627.478	-95.795	0.149	-0.040
-626.463	-172.450	-0.101	-0.003
-625.449	-105.322	0.104	0.024
-624.434	50.872	-0.147	0.139
-623.419	-88.130	0.266	0.080
-622.405	-200.000	-0.024	-0.262
-621.390	-1.669	0.226	-0.159
-620.376	73.481	-0.106	0.111
-619.361	-112.905	-0.100	0.020
-618.346	72.787	-0.292	0.304
-617.332	800.000	-0.120	0.347
-616.317	27.189	0.061	0.051
-615.303	-84.840	-0.246	0.077
-614.288	-156.291	-0.098	0.006
-613.273	-85.865	0.122	0.038
-612.259	800.000	0.096	-0.358
-611.244	-27.920	-0.182	-0.105
-610.230	18.576	0.181	0.144
-609.215	-14.125	-0.343	-0.221
-608.201	-200.000	-0.009	-0.049
-607.186	62.970	-0.111	0.111
-606.171	356.135	0.157	0.312
-605.157	156.874	0.018	-0.025
-604.142	420.486	0.122	-0.261
-603.128	-124.802	0.393	0.061
-602.113	218.021	-0.123	0.196
-601.098	413.813	0.107	-0.227
-600.084	-9.619	0.154	-0.102
-599.069	-200.000	0.049	0.243
-598.055	79.450	0.227	0.243
-597.040	198.997	0.091	-0.140
-596.025	-102.949	0.375	0.089
-595.011	173.957	-0.175	0.253
-593.996	-200.000	-0.003	-0.055
-592.982	71.173	-0.125	-0.129
-591.967	60.686	0.129	0.128
-590.952	60.190	-0.167	0.165
-589.938	203.109	0.123	-0.189
-588.923	800.000	0.015	0.051
-587.909	800.000	0.014	-0.054
-586.894	-1.720	-0.156	-0.110
-585.879	-135.589	-0.259	0.031
-584.865	-153.511	-0.235	-0.016
-583.850	800.000	-0.103	-0.332
-582.836	135.458	-0.074	-0.096
-581.821	-22.053	-0.078	-0.047
-580.806	800.000	0.049	-0.171
-579.792	-200.000	-0.023	-0.190
-578.777	-8.150	0.220	-0.148
-577.763	-54.306	0.152	-0.069
-576.748	-146.761	-0.219	-0.019
-575.733	-141.197	-0.159	-0.016
-574.719	-200.000	-0.001	0.065
-573.704	-114.128	0.190	0.037
-572.690	-200.000	-0.063	0.343
-571.675	-200.000	-0.014	-0.114
-570.661	-64.464	0.410	-0.166
-569.646	59.440	-0.063	0.062
-568.631	-200.000	0.045	-0.196
-567.617	265.609	-0.052	0.090
-566.602	-17.146	0.209	-0.131
-565.588	-200.000	0.041	0.320
-564.573	-29.429	-0.188	0.107
-563.558	589.675	-0.080	-0.197
-562.544	202.634	-0.026	-0.040
-561.529	-130.562	-0.193	-0.026
-560.515	-34.634	0.121	0.066
-559.500	-159.424	0.097	0.005
-558.485	62.963	0.045	-0.045
-557.471	116.248	0.120	-0.146
-556.456	800.000	0.091	-0.320
-555.442	41.123	-0.251	0.225
-554.427	372.075	0.058	0.116
-553.412	-200.000	0.029	0.188
-552.398	426.828	-0.076	0.163
-551.383	16.860	-0.254	-0.200
-550.369	-45.029	-0.227	0.112
-549.354	24.653	-0.232	-0.191
-548.339	-91.010	0.367	-0.105
-547.325	110.626	0.100	-0.120
-546.310	800.000	-0.015	-0.040
-545.296	323.837	-0.113	0.215
-544.281	200.334	-0.296	-0.453
-543.266	-200.000	0.018	-0.237
-542.252	-103.589	-0.083	0.019
-541.237	800.000	-0.064	0.184
-540.223	-6.560	-0.258	0.175
-539.208	-46.441	0.184	-0.090
-538.193	216.934	0.203	-0.321
-537.179	113.766	0.114	-0.137
-536.164	800.000	0.058	-0.232
-535.150	-75.685	0.250	0.088
-534.135	0.654	-0.154	-0.110
-533.121	-200.000	-0.010	-0.197
-532.106	-122.595	-0.099	0.016
-531.091	20.391	-0.057	0.046
-530.077	-88.717	0.305	-0.090
-529.062	265.751	0.106	-0.184
-528.048	250.044	-0.130	0.219
-527.033	163.859	0.272	-0.381
-526.018	-19.207	0.098	-0.061
-525.004	524.444	0.074	-0.173
-523.989	800.000	0.098	-0.287
-522.975	98.039	0.172	0.197
-521.960	265.557	-0.062	-0.108
-520.945	800.000	0.061	0.236
-519.931	76.142	0.360	0.378
-518.916	-117.962	-0.362	-0.064
-517.902	-15.195	0.208	-0.132
-516.887	101.768	0.102	-0.119
-515.872	311.077	0.071	0.132
-514.858	79.716	0.142	0.152
-513.843	-15.756	-0.163	0.103
-512.829	263.394	-0.074	0.128
-511.814	800.000	-0.040	-0.122
-510.799	800.000	-0.023	-0.076
-509.785	42.287	0.145	0.131
-508.770	800.000	-0.015	-0.044
-507.756	-200.000	-0.029	-0.263
-506.741	-88.595	0.245	0.073
-505.726	100.589	-0.296	0.341
-504.712	-90.014	-0.122	0.035
-503.697	11.176	0.185	-0.141
-502.683	-88.505	-0.223	-0.066
-501.668	730.885	-0.097	0.257
-500.653	-151.646	0.349	-0.026
-499.639	107.518	0.055	0.065
-498.624	-82.359	-0.260	-0.084
-497.610	122.372	0.068	-0.085
-496.595	363.385	0.073	-0.146
-495.581	-200.000	-0.029	0.138
-494.566	165.155	0.132	0.185
-493.551	724.954	-0.054	-0.143
-492.537	800.000	0.057	-0.166
-491.522	-59.489	-0.367	0.157
-490.508	-138.562	0.297	0.032
-489.493	-200.000	-0.046	-0.358
-488.478	53.199	0.214	0.203
-487.464	185.359	0.112	0.165
-486.449	29.702	-0.316	-0.267
-485.435	-179.535	0.330	-0.007
-484.420	800.000	0.083	-0.233
-483.405	-0.420	-0.212	-0.150
-482.391	-200.000	-0.047	-0.213
-481.376	93.966	-0.076	-0.086
-480.362	22.585	-0.141	-0.115
-479.347	165.252	-0.084	0.118
-478.332	31.441	0.072	-0.061
-477.318	-126.722	0.202	0.030
-476.303	37.071	0.163	0.143
-475.289	-186.218	-0.650	-0.009
-474.274	148.401	0.041	-0.055
-473.259	-200.000	0.033	-0.337
-472.245	100.821	0.109	-0.126
-471.230	453.185	-0.134	0.294
-470.216	744.175	0.078	-0.208
-469.201	-9.203	-0.118	-0.079
-468.186	-35.680	0.077	-0.041
-467.172	-200.000	-0.078	-0.499
-466.157	-200.000	-0.016	0.250
-465.143	70.025	0.113	-0.115
-464.128	-200.000	0.025	0.163
-463.113	31.616	-0.101	-0.086
-462.099	-96.686	0.225	-0.059
-461.084	-96.914	0.189	0.049
-460.070	75.004	0.200	0.209
-459.055	102.489	-0.088	0.102
-458.040	98.624	-0.135	0.155
-457.026	-28.521	-0.044	0.025
-456.011	800.000	0.092	0.316
-454.997	-200.000	-0.010	0.168
-453.982	40.352	-0.081	-0.072
-452.968	-200.000	-0.031	0.185
-451.953	-23.326	-0.277	0.165
-450.938	51.758	-0.177	-0.167
-449.924	259.149	-0.066	-0.113
-448.909	800.000	-0.024	0.086
-447.895	-96.491	-0.174	-0.046
-446.880	142.856	-0.106	-0.139
-445.865	185.464	-0.216	-0.318
-444.851	800.000	0.035	0.126
-443.836	-7.015	-0.309	0.208
-442.822	-94.064	-0.177	0.048
-441.807	58.316	0.044	0.043
-440.792	-70.169	0.119	-0.045
-439.778	48.375	-0.137	-0.127
-438.763	800.000	0.038	-0.138
-437.749	74.655	0.236	0.246
-436.734	-67.477	0.116	-0.045
-435.719	-22.000	-0.218	-0.131
-434.705	233.842	-0.202	0.329
-433.690	-200.000	0.006	-0.074
-432.676	-94.612	-0.267	-0.072
-431.661	419.024	0.133	-0.281
-430.646	-24.911	-0.441	-0.259
-429.632	-176.411	0.425	-0.011
-428.617	254.491	0.039	0.066
-427.603	-163.564	-0.144	0.007
-426.588	-126.388	-0.123	0.018
-425.573	-120.927	0.105	-0.017
-424.559	336.919	0.148	0.284
-423.544	-75.404	-0.260	0.092
-422.530	-8.349	0.281	-0.187
-421.515	-20.439	0.084	0.051
-420.500	-59.436	0.122	-0.052
-419.486	326.172	0.127	0.241
-418.471	-112.226	0.321	-0.064
-417.457	62.759	-0.224	-0.222
-416.442	363.992	-0.106	-0.210
-415.428	-81.901	-0.186	-0.060
-414.413	-63.425	-0.169	-0.069
-413.398	-43.495	-0.314	0.157
-412.384	-79.880	-0.107	-0.036
-411.369	-17.299	-0.297	0.185
-410.355	-69.255	0.260	-0.099
-409.340	-8.308	0.116	0.077
-408.325	-130.431	-0.097	-0.013
-407.311	143.501	0.279	0.368
-406.296	-200.000	-0.040	0.217
-405.282	-152.552	-0.066	0.005
-404.267	-144.430	0.183	-0.017
-403.252	-200.000	-0.028	0.131
-402.238	-200.000	-0.018	0.103
-401.223	56.998	0.064	-0.061
-400.209	-200.000	-0.007	0.190
-399.194	52.144	-0.119	0.113
-398.179	-17.539	0.328	0.204
-397.165	68.504	-0.074	0.075
-396.150	-145.309	-0.126	0.011
-395.136	-200.000	-0.019	-0.132
-394.121	99.124	-0.274	-0.314
-393.106	569.540	0.126	-0.304
-392.092	86.469	0.160	0.174
-391.077	-174.030	-0.249	-0.007
-390.063	24.725	0.318	0.261
-389.048	3.489	0.137	0.099
-388.033	780.894	-0.100	-0.271
-387.019	101.971	-0.056	0.065
-386.004	-92.697	-0.181	0.050
-384.990	117.446	-0.074	0.090
-383.975	-27.572	-0.116	-0.067
-382.960	-19.190	-0.128	-0.079
-381.946	800.000	0.028	0.114
-380.931	-90.806	-0.062	-0.018
-379.917	234.694	0.158	-0.258
-378.902	800.000	-0.013	-0.040
-377.888	-153.777	0.433	0.029
-376.873	-32.981	-0.102	-0.056
-375.858	19.341	-0.046	0.037
-374.844	-48.600	0.096	0.046
-373.829	241.851	0.328	0.542
-372.815	-128.474	-0.098	-0.014
-371.800	110.601	-0.205	-0.244
-370.785	-86.305	-0.369	0.112
-369.771	138.417	-0.173	-0.225
-368.756	17.641	0.168	0.132
-367.742	-76.211	-0.176	-0.061
-366.727	-131.087	-0.266	0.035
-365.712	-200.000	0.016	0.145
-364.698	-157.858	-0.407	0.024
-363.683	-192.492	0.302	0.003
-362.669	-200.000	-0.021	-0.103
-361.654	-200.000	0.037	-0.174
-360.639	168.017	0.095	-0.134
-359.625	-200.000	-0.005	-0.090
-358.610	55.083	-0.240	-0.229
-357.596	98.014	-0.102	0.116
-356.581	20.380	-0.128	-0.102
-355.566	70.840	0.221	-0.226
-354.552	-22.108	-0.108	0.065
-353.537	-178.105	0.087	0.002
-352.523	590.087	0.075	0.183
-351.508	-200.000	-0.003	-0.117
-350.493	-178.846	0.150	-0.003
-349.479	387.592	-0.080	-0.164
-348.464	-200.000	-0.006	0.213
-347.450	3.182	-0.142	0.102
-346.435	711.180	0.063	0.164
-345.420	-56.028	-0.092	0.040
-344.406	-53.492	-0.144	0.065
-343.391	-132.531	0.102	-0.013
-342.377	125.311	0.089	0.110
-341.362	122.557	0.059	0.073
-340.348	424.716	0.172	0.364
-339.333	-200.000	0.065	-0.298
-338.318	185.821	0.038	0.055
-337.304	-200.000	0.027	0.152
-336.289	-40.887	0.191	-0.098
-335.275	-159.259	-0.248	0.014
-334.260	-76.405	-0.200	0.069
-333.245	208.793	0.252	0.390
-332.231	10.575	0.387	0.291
-331.216	235.780	0.058	0.094
-330.202	-102.345	-0.213	0.051
-329.187	-8.061	0.130	0.086
-328.172	267.379	0.126	0.217
-327.158	800.000	-0.011	-0.038
-326.143	59.899	0.240	0.234
-325.129	-100.375	-0.218	0.053
-324.114	800.000	-0.092	0.318
-323.099	-126.269	0.141	0.021
-322.085	233.399	0.138	-0.224
-321.070	-72.261	0.251	-0.092
-320.056	-192.011	-0.177	0.002
-319.041	-178.601	0.132	-0.003
-318.026	372.404	-0.083	0.165
-317.012	-11.913	0.202	-0.131
-315.997	286.506	-0.094	-0.167
-314.983	-85.877	0.153	-0.047
-313.968	39.616	-0.098	0.087
-312.953	-147.404	0.446	-0.037
-311.939	187.166	0.191	0.281
-310.924	-19.736	-0.122	-0.074
-309.910	177.826	-0.113	-0.163
-308.895	-107.116	-0.259	0.056
-307.880	-35.845	-0.382	0.204
-306.866	4.377	-0.140	0.101
-305.851	-178.457	0.275	0.006
-304.837	-14.883	0.198	0.125
-303.822	-113.317	0.070	0.014
-302.807	-37.972	-0.090	-0.047
-301.793	261.989	-0.116	0.198
-300.778	400.548	-0.061	-0.125
-299.764	-200.000	-0.023	-0.172
-298.749	-92.129	0.170	-0.047
-297.735	-48.221	0.172	-0.082
-296.720	13.863	0.152	-0.117
-295.705	-10.333	0.207	-0.135
-294.691	800.000	0.040	-0.135
-293.676	-51.695	-0.128	0.059
-292.662	71.731	0.059	0.060
-291.647	-47.679	-0.290	-0.138
-290.632	469.278	0.032	0.070
-289.618	800.000	-0.110	-0.402
-288.603	-56.351	-0.381	0.167
-287.589	658.213	-0.076	-0.192
-286.574	-98.331	-0.175	-0.044
-285.559	257.600	-0.066	0.112
-284.545	-200.000	-0.068	0.355
-283.530	126.572	0.047	0.059
-282.516	-200.000	-0.027	0.203
-281.501	-135.006	-0.124	0.015
-280.486	249.695	-0.166	-0.277
-279.472	648.065	-0.086	0.216
-278.457	-93.699	-0.271	-0.073
-277.443	639.211	0.017	-0.043
-276.428	-172.753	0.122	-0.004
-275.413	63.757	0.280	0.277
-274.399	216.109	-0.111	0.174
-273.384	24.756	0.157	-0.128
-272.370	112.606	0.118	0.141
-271.355	402.098	-0.058	0.121
-270.340	90.490	0.214	-0.236
-269.326	-200.000	-0.040	0.261
-268.311	-200.000	-0.044	0.235
-267.297	-200.000	-0.016	0.182
-266.282	-200.000	-0.085	-0.430
-265.267	-76.620	0.017	-0.006
-264.253	800.000	0.011	0.038
-263.238	800.000	-0.012	-0.050
-262.224	-200.000	-0.033	0.174
-261.209	-200.000	-0.021	0.233
-260.195	51.456	-0.048	0.045
-259.180	-66.770	-0.116	0.045
-258.165	38.122	-0.243	0.213
-257.151	-200.000	-0.038	0.208
-256.136	-93.966	0.390	-0.105
-255.122	-200.000	0.041	-0.194
-254.107	-95.555	0.141	0.037
-253.092	-48.402	0.201	-0.095
-252.078	305.009	0.136	0.249
-251.063	84.410	0.019	-0.021
-250.049	-41.641	-0.243	-0.123
-249.034	225.825	-0.034	0.054
-248.019	68.229	0.101	-0.102
-247.005	391.545	-0.060	-0.122
-245.990	-135.142	-0.148	0.017
-244.976	-169.211	-0.125	-0.005
-243.961	111.648	-0.075	-0.089
-242.946	-135.406	0.223	0.026
-241.932	177.939	0.106	0.152
-240.917	13.164	0.362	0.276
-239.903	-9.269	-0.062	-0.041
-238.888	133.171	0.110	0.140
-237.873	-200.000	-0.040	0.196
-236.859	-134.341	-0.282	-0.034
-235.844	379.302	-0.139	-0.280
-234.830	5.688	-0.065	-0.048
-233.815	-65.628	-0.126	-0.050
-232.800	99.243	-0.137	-0.155
-231.786	-200.000	-0.015	-0.160
-230.771	307.753	-0.066	0.121
-229.757	13.563	0.190	0.145
-228.742	-200.000	-0.050	-0.251
-227.727	-117.137	-0.209	0.037
-226.713	27.812	-0.281	-0.233
-225.698	-31.014	0.060	-0.033
-224.684	-200.000	-0.003	0.080
-223.669	-162.051	-0.157	-0.008
-222.655	-94.415	-0.159	0.043
-221.640	800.000	0.038	-0.152
-220.625	-113.108	0.462	0.090
-219.611	-50.892	0.042	-0.019
-218.596	-108.416	0.157	0.033
-217.582	125.612	0.179	0.222
-216.567	-197.650	-0.237	-0.001
-215.552	-37.926	0.283	0.148
-214.538	-200.000	-0.012	-0.081
-213.523	757.781	-0.028	0.075
-212.509	-61.231	0.116	0.048
-211.494	-200.000	0.022	-0.166
-210.479	241.994	0.133	-0.219
-209.465	3.722	0.224	-0.160
-208.450	-200.000	0.012	-0.078
-207.436	88.750	0.116	-0.127
-206.421	800.000	-0.077	-0.274
-205.406	85.793	0.007	-0.008
-204.392	-200.000	-0.001	-0.129
-203.377	-110.156	0.040	0.008
-202.363	-110.082	0.202	-0.041
-201.348	-200.000	0.041	-0.202
-200.333	16.476	0.146	-0.113
-199.319	-22.700	0.281	0.166
-198.304	-200.000	0.010	-0.051
-197.290	-88.452	0.167	-0.049
-196.275	-200.000	-0.000	0.043
-195.260	13.093	0.047	0.036
-194.246	-108.927	0.510	0.107
-193.231	137.105	0.042	-0.055
-192.217	563.692	-0.099	-0.234
-191.202	19.836	0.119	-0.094
-190.187	-69.796	0.111	-0.042
-189.173	-55.321	-0.198	-0.087
-188.158	-200.000	-0.010	0.066
-187.144	32.511	0.279	-0.237
-186.129	139.291	-0.072	-0.093
-185.114	392.089	-0.031	0.063
-184.100	800.000	-0.031	-0.113
-183.085	-118.276	-0.383	0.067
-182.071	65.263	-0.145	0.144
-181.056	-200.000	-0.034	0.238
-180.042	175.009	-0.005	0.008
-179.027	423.348	-0.085	0.180
-178.012	12.719	0.083	-0.063
-176.998	-55.152	-0.197	0.087
-175.983	707.119	0.112	-0.291
-174.969	-67.886	0.152	0.058
-173.954	-116.443	0.234	-0.042
-172.939	43.452	-0.103	-0.092
-171.925	137.687	0.187	0.240
-170.910	6.788	-0.323	0.236
-169.896	-185.617	-0.264	0.004
-168.881	-56.029	-0.267	0.117
-167.866	90.482	0.269	-0.295
-166.852	-22.465	-0.386	0.229
-165.837	-200.000	-0.006	-0.272
-164.823	-63.561	-0.216	-0.087
-163.808	-148.960	0.219	0.017
-162.793	-27.405	-0.209	-0.119
-161.779	-38.026	-0.148	-0.077
-160.764	130.969	-0.129	0.163
-159.750	-1.397	0.069	-0.048
-158.735	62.094	0.148	0.145
-157.720	515.061	-0.080	0.184
-156.706	388.942	-0.083	-0.169
-155.691	-83.832	-0.169	0.053
-154.677	-55.344	-0.108	0.047
-153.662	-200.000	-0.027	0.299
-152.647	-67.690	0.384	0.147
-151.633	293.848	-0.072	-0.130
-150.618	54.121	0.140	-0.132
-149.604	358.746	0.176	-0.344
-148.589	319.254	0.055	0.102
-147.574	70.500	0.222	0.225
-146.560	71.866	-0.200	-0.204
-145.545	-200.000	0.024	-0.228
-144.531	-109.585	0.193	-0.040
-143.516	6.785	0.148	-0.108
-142.502	-92.972	-0.297	-0.081
-141.487	-18.440	-0.428	0.262
-140.472	-200.000	-0.044	0.192
-139.458	166.703	0.283	0.393
-138.443	659.310	-0.154	0.389
-137.429	-51.448	0.153	0.070
-136.414	20.023	-0.156	-0.124
-135.399	184.051	-0.263	-0.381
-134.385	-24.348	0.232	-0.135
-133.370	800.000	-0.115	-0.365
-132.356	-4.221	-0.203	-0.138
-131.341	-63.505	-0.309	-0.124
-130.326	230.608	0.267	0.428
-129.312	529.300	-0.042	-0.096
-128.297	205.991	-0.127	-0.193
-127.283	337.069	0.063	0.119
-126.268	259.682	-0.028	0.048
-125.253	135.740	0.060	0.076
-124.239	-200.000	-0.025	-0.214
-123.224	26.934	0.162	-0.133
-122.210	-104.541	-0.214	-0.048
-121.195	-106.915	-0.300	-0.065
