DTS Sentinel unit serial number:	SN413079Multiplexer serial number:	ORYXHardware model number:	OX4-SRSoftware version number:	ORYX F/W v4.00 Oryx Data Collector v3.7.2.0data status	okinstallation	princeton_trtdifferential loss correction	single-endedforward channel	channel 3reverse channel	N/Adate	2019/09/12time	13:54:10forward acquisition time	60.00reverse acquisition time	0.00gamma	496.2192k internal	0.2292k external	0.2292temperature offset calibration	1.0051default loss term (dB/km)	0.3790temperature slope calibration	1.0000multiplexer offset coefficient	1.0000multiplexer slope coefficient	1.0000fibre end	0.00T internal ref (°C)	40.80T ext. ref 1 (°C)	2.18T ext. ref 2 (°C)	34.76length (m)	temperature (°C)	Stokes	anti-Stokes-747.200	0.124	-0.412	0.301
-746.185	716.791	0.156	0.424
-745.171	-115.721	0.411	-0.079
-744.156	-200.000	0.041	0.265
-743.142	186.858	-0.172	-0.262
-742.127	24.743	0.054	-0.045
-741.112	150.343	0.168	0.233
-740.098	-1.859	0.073	-0.052
-739.083	-200.000	-0.051	0.409
-738.069	-200.000	0.074	0.339
-737.054	-200.000	0.047	0.300
-736.039	38.815	-0.335	-0.306
-735.025	800.000	0.060	0.266
-734.010	89.316	-0.222	-0.253
-732.996	-124.168	0.031	-0.005
-731.981	187.124	-0.146	-0.223
-730.966	231.929	-0.166	0.279
-729.952	26.824	0.121	0.103
-728.937	364.270	-0.152	0.313
-727.923	-24.537	-0.412	0.251
-726.908	-185.039	-0.094	0.002
-725.894	276.177	-0.038	0.069
-724.879	-28.166	-0.144	-0.085
-723.864	-115.204	-0.216	-0.042
-722.850	620.570	0.146	-0.375
-721.835	-53.405	-0.192	-0.090
-720.821	525.937	-0.123	0.296
-719.806	-102.205	-0.091	0.022
-718.791	-200.000	-0.039	0.278
-717.777	15.555	-0.138	-0.111
-716.762	-134.620	0.123	0.015
-715.748	6.481	-0.136	0.103
-714.733	271.200	-0.126	-0.227
-713.718	529.002	-0.045	0.108
-712.704	-38.999	0.089	0.048
-711.689	-90.902	-0.166	0.049
-710.675	100.340	0.117	0.139
-709.660	244.032	-0.113	0.194
-708.645	63.447	-0.276	0.283
-707.631	-200.000	-0.082	0.552
-706.616	-44.326	-0.243	0.124
-705.602	-178.971	-0.232	-0.005
-704.587	-200.000	-0.008	-0.053
-703.572	-97.840	0.314	-0.083
-702.558	19.854	-0.217	0.179
-701.543	172.424	-0.133	0.196
-700.529	-115.614	0.117	0.022
-699.514	-129.738	-0.033	-0.005
-698.499	-75.818	-0.028	0.010
-697.485	144.234	0.048	-0.065
-696.470	24.089	0.137	-0.116
-695.456	-200.000	0.003	0.102
-694.441	800.000	0.128	-0.500
-693.426	160.689	-0.111	-0.158
-692.412	-131.647	-0.238	0.032
-691.397	76.449	-0.283	0.306
-690.383	-188.349	0.125	-0.002
-689.368	344.942	0.028	-0.056
-688.354	-88.199	0.199	0.061
-687.339	81.949	0.181	0.200
-686.324	-59.016	-0.276	-0.122
-685.310	-33.382	0.374	0.211
-684.295	199.223	-0.078	0.122
-683.281	-154.792	-0.202	0.014
-682.266	800.000	-0.067	-0.230
-681.251	-200.000	0.012	0.306
-680.237	800.000	-0.079	-0.257
-679.222	-200.000	-0.015	-0.295
-678.208	-86.872	-0.380	0.118
-677.193	-99.812	-0.282	-0.072
-676.178	-100.008	0.196	-0.050
-675.164	-71.160	0.151	0.058
-674.149	-91.402	-0.091	0.026
-673.135	477.454	0.099	-0.229
-672.120	74.329	-0.024	-0.026
-671.105	1.582	0.432	0.317
-670.091	-112.506	0.290	0.059
-669.076	25.515	0.252	-0.214
-668.062	4.643	-0.144	-0.108
-667.047	-58.505	0.237	0.105
-666.032	-200.000	-0.003	0.157
-665.018	-66.671	-0.131	0.053
-664.003	-103.027	-0.441	-0.107
-662.989	-46.442	-0.269	-0.135
-661.974	26.346	-0.110	-0.094
-660.959	600.720	0.102	-0.258
-659.945	-200.000	0.061	-0.277
-658.930	127.931	0.327	0.425
-657.916	-48.796	-0.131	0.064
-656.901	114.144	-0.041	0.051
-655.886	410.076	0.075	0.163
-654.872	-200.000	0.008	-0.104
-653.857	-200.000	0.011	-0.377
-652.843	-116.291	0.127	0.024
-651.828	-200.000	-0.014	-0.129
-650.814	-35.735	-0.138	-0.077
-649.799	-200.000	-0.024	0.171
-648.784	106.097	-0.185	0.224
-647.770	-45.483	-0.235	-0.119
-646.755	-2.370	-0.163	-0.116
-645.741	-98.352	-0.201	-0.052
-644.726	239.150	-0.066	-0.111
-643.711	-61.681	-0.317	-0.136
-642.697	710.055	-0.029	0.078
-641.682	-74.910	0.155	-0.056
-640.668	-71.639	-0.068	0.026
-639.653	48.685	-0.077	0.073
-638.638	116.423	0.194	0.242
-637.624	-200.000	-0.060	0.284
-636.609	54.763	-0.123	-0.121
-635.595	9.938	0.217	0.168
-634.580	-200.000	0.011	0.141
-633.565	315.489	0.191	0.367
-632.551	800.000	-0.042	0.150
-631.536	58.604	0.280	-0.280
-630.522	-97.689	0.224	-0.059
-629.507	-103.224	-0.229	0.055
-628.492	-81.876	-0.299	0.100
-627.478	37.111	0.198	-0.179
-626.463	158.062	-0.051	0.072
-625.449	4.206	0.087	-0.065
-624.434	800.000	0.111	-0.408
-623.419	583.339	-0.017	0.043
-622.405	-142.354	-0.061	-0.006
-621.390	357.689	0.180	0.366
-620.376	44.006	-0.174	0.162
-619.361	-65.936	0.094	-0.038
-618.346	-63.558	0.046	0.019
-617.332	-200.000	0.014	-0.296
-616.317	-28.147	0.366	-0.215
-615.303	188.003	0.134	0.204
-614.288	196.795	-0.142	0.221
-613.273	800.000	0.090	-0.254
-612.259	-129.212	0.501	-0.071
-611.244	-53.312	0.101	-0.047
-610.230	65.687	-0.076	-0.079
-609.215	354.676	0.043	-0.087
-608.201	101.487	0.219	0.260
-607.186	-200.000	-0.016	0.103
-606.171	61.072	-0.030	-0.031
-605.157	14.917	-0.271	-0.216
-604.142	-140.353	-0.300	0.032
-603.128	-200.000	-0.038	0.203
-602.113	-200.000	0.084	-0.000
-601.098	7.930	-0.111	-0.085
-600.084	19.007	0.355	-0.290
-599.069	-31.640	0.027	-0.015
-598.055	-32.702	-0.126	-0.071
-597.040	-13.230	-0.132	-0.087
-596.025	618.139	0.063	-0.161
-595.011	153.632	0.057	0.079
-593.996	311.456	0.167	-0.319
-592.982	13.928	-0.207	0.164
-591.967	1.803	-0.121	0.089
-590.952	84.202	-0.203	-0.225
-589.938	-37.447	-0.209	0.113
-588.923	640.553	-0.129	0.333
-587.909	665.137	0.124	0.326
-586.894	-29.353	-0.332	0.193
-585.879	127.545	-0.182	0.235
-584.865	-17.033	0.145	-0.093
-583.850	-30.589	0.303	-0.175
-582.836	800.000	-0.081	0.234
-581.821	143.032	-0.229	-0.309
-580.806	232.397	-0.118	0.196
-579.792	2.107	0.221	0.163
-578.777	26.707	-0.187	-0.159
-577.763	81.473	0.207	0.228
-576.748	-200.000	-0.001	-0.013
-575.733	34.660	-0.260	0.231
-574.719	-73.457	0.046	0.017
-573.704	19.781	-0.176	0.144
-572.690	175.891	0.067	0.100
-571.675	287.458	0.087	0.160
-570.661	92.172	0.132	-0.151
-569.646	262.620	0.153	-0.269
-568.631	-200.000	0.003	0.251
-567.617	-200.000	-0.019	-0.117
-566.602	800.000	0.094	-0.283
-565.588	-125.336	-0.196	-0.030
-564.573	-16.158	-0.051	0.033
-563.558	800.000	0.080	0.228
-562.544	-74.447	-0.169	0.062
-561.529	698.290	0.144	0.384
-560.515	70.122	-0.256	-0.269
-559.500	-6.330	-0.238	0.165
-558.485	-42.467	-0.108	0.056
-557.471	-0.787	-0.228	0.164
-556.456	-177.996	0.308	0.007
-555.442	174.044	-0.132	-0.193
-554.427	74.036	0.211	-0.225
-553.412	9.629	0.108	0.083
-552.398	-88.028	-0.230	0.070
-551.383	16.403	0.227	-0.182
-550.369	-77.404	-0.286	0.101
-549.354	800.000	-0.052	0.187
-548.339	-80.560	0.142	-0.048
-547.325	-200.000	0.060	-0.291
-546.310	-81.948	-0.138	0.046
-545.296	211.500	0.177	0.283
-544.281	257.107	0.209	0.365
-543.266	544.975	-0.067	0.162
-542.252	-158.744	0.313	-0.018
-541.237	739.622	0.084	0.229
-540.223	-166.570	-0.066	-0.003
-539.208	800.000	-0.103	0.289
-538.193	9.859	0.276	0.212
-537.179	-92.667	-0.332	0.095
-536.164	-58.749	0.082	0.036
-535.150	-42.681	0.066	0.034
-534.135	15.046	-0.267	-0.212
-533.121	-200.000	0.000	-0.029
-532.106	-13.131	0.059	-0.039
-531.091	-58.122	-0.128	0.056
-530.077	287.408	-0.086	0.158
-529.062	-200.000	-0.044	0.206
-528.048	-45.812	-0.133	0.067
-527.033	114.793	-0.095	-0.118
-526.018	-200.000	0.052	0.369
-525.004	-46.235	0.387	0.193
-523.989	-101.718	-0.283	-0.070
-522.975	800.000	-0.110	0.347
-521.960	800.000	0.086	0.268
-520.945	299.961	0.134	0.250
-519.931	-85.015	-0.118	0.037
-518.916	-191.315	-0.114	0.001
-517.902	101.794	-0.031	0.037
-516.887	27.375	0.037	0.032
-515.872	-17.899	-0.130	0.083
-514.858	26.730	0.055	-0.047
-513.843	173.672	-0.054	-0.079
-512.829	5.651	-0.288	-0.216
-511.814	81.755	0.126	-0.138
-510.799	8.583	-0.180	-0.137
-509.785	-155.239	-0.106	0.007
-508.770	-111.133	0.059	-0.012
-507.756	800.000	-0.023	-0.080
-506.741	-160.491	0.213	-0.012
-505.726	201.197	-0.124	0.193
-504.712	607.479	-0.019	0.047
-503.697	259.691	-0.201	-0.352
-502.683	102.165	-0.150	-0.178
-501.668	-56.070	0.192	-0.087
-500.653	136.249	-0.174	-0.230
-499.639	270.798	-0.159	-0.283
-498.624	-46.103	-0.331	0.165
-497.610	36.943	-0.030	-0.027
-496.595	156.516	0.139	0.194
-495.581	-44.711	0.408	-0.206
-494.566	369.848	0.149	-0.306
-493.551	33.196	0.246	-0.217
-492.537	79.314	0.096	0.104
-491.522	122.200	0.102	0.129
-490.508	-162.478	-0.133	0.007
-489.493	318.756	-0.082	-0.157
-488.478	-200.000	-0.022	-0.226
-487.464	71.301	0.075	-0.079
-486.449	-84.668	-0.314	0.100
-485.435	12.438	-0.243	-0.190
-484.420	-164.682	0.136	0.006
-483.405	-44.800	0.192	-0.097
-482.391	211.273	0.159	-0.254
-481.376	597.854	0.109	-0.273
-480.362	57.629	0.106	-0.105
-479.347	-143.996	-0.217	0.021
-478.332	-61.934	-0.350	0.148
-477.318	-200.000	-0.043	0.210
-476.303	800.000	0.066	0.265
-475.289	743.362	0.103	0.281
-474.274	89.948	0.218	0.246
-473.259	-200.000	0.003	0.099
-472.245	114.711	-0.038	0.047
-471.230	-60.480	-0.289	0.124
-470.216	800.000	-0.110	-0.450
-469.201	-24.980	-0.084	-0.050
-468.186	-17.248	0.319	0.203
-467.172	-36.672	0.178	-0.097
-466.157	-85.299	0.058	0.018
-465.143	63.049	-0.066	0.067
-464.128	-85.997	0.382	-0.120
-463.113	-72.170	-0.118	-0.044
-462.099	-200.000	-0.047	-0.444
-461.084	-19.526	0.184	-0.116
-460.070	800.000	-0.059	-0.203
-459.055	-39.563	0.110	-0.059
-458.040	-163.933	-0.161	-0.008
-457.026	295.679	-0.135	-0.250
-456.011	676.321	-0.101	-0.265
-454.997	-200.000	-0.010	-0.069
-453.982	800.000	-0.041	-0.139
-452.968	100.796	0.053	0.063
-451.953	763.332	-0.136	-0.373
-450.938	-155.433	-0.435	-0.028
-449.924	800.000	-0.069	-0.237
-448.909	-200.000	-0.033	-0.276
-447.895	-200.000	0.010	0.103
-446.880	-23.224	0.093	-0.057
-445.865	-34.228	-0.057	0.032
-444.851	-55.961	0.068	0.031
-443.836	5.448	-0.350	-0.262
-442.822	-39.849	-0.096	-0.051
-441.807	-75.451	-0.135	-0.049
-440.792	-110.643	-0.340	0.071
-439.778	800.000	-0.050	0.222
-438.763	513.932	-0.078	0.183
-437.749	-80.997	-0.179	0.060
-436.734	800.000	-0.056	0.228
-435.719	429.460	0.071	0.154
-434.705	57.959	-0.115	0.114
-433.690	-200.000	0.004	-0.323
-432.676	-19.935	0.195	-0.122
-431.661	800.000	0.081	-0.260
-430.646	-200.000	-0.038	-0.372
-429.632	-200.000	0.007	0.115
-428.617	-200.000	0.366	0.001
-427.603	-17.269	-0.058	0.037
-426.588	-200.000	-0.034	-0.270
-425.573	-93.611	0.182	-0.051
-424.559	800.000	-0.054	0.172
-423.544	-21.140	-0.019	-0.012
-422.530	-200.000	0.042	-0.191
-421.515	-200.000	-0.017	-0.136
-420.500	-103.730	0.144	-0.034
-419.486	76.092	-0.152	-0.163
-418.471	-108.710	-0.089	0.019
-417.457	-3.774	0.215	-0.151
-416.442	-66.719	-0.273	-0.109
-415.428	-200.000	-0.007	-0.387
-414.413	115.925	-0.118	-0.146
-413.398	-200.000	0.001	-0.201
-412.384	-19.211	-0.195	-0.122
-411.369	309.169	0.127	0.240
-410.355	27.094	-0.202	-0.171
-409.340	11.989	0.187	-0.145
-408.325	-33.082	-0.105	0.059
-407.311	446.053	-0.099	-0.219
-406.296	-52.457	-0.276	-0.129
-405.282	53.787	0.124	0.121
-404.267	599.657	-0.097	0.243
-403.252	-151.770	0.084	-0.006
-402.238	800.000	0.094	0.379
-401.223	-200.000	0.019	0.109
-400.209	-24.440	0.071	0.043
-399.194	-148.577	-0.315	-0.026
-398.179	-200.000	0.007	0.103
-397.165	192.991	0.140	0.213
-396.150	-94.466	-0.234	0.065
-395.136	-143.890	0.182	-0.017
-394.121	-200.000	-0.068	-0.528
-393.106	800.000	0.036	0.109
-392.092	-200.000	-0.038	-0.231
-391.077	35.895	-0.209	0.186
-390.063	42.999	0.362	0.333
-389.048	224.153	0.079	0.128
-388.033	-200.000	-0.013	-0.187
-387.019	407.102	0.109	-0.232
-386.004	202.353	0.089	-0.138
-384.990	310.251	0.110	0.207
-383.975	-200.000	0.026	0.274
-382.960	148.191	-0.142	-0.193
-381.946	36.940	0.334	-0.298
-380.931	-47.822	-0.197	-0.096
-379.917	-195.214	-0.094	-0.001
-378.902	364.259	-0.066	0.133
-377.888	-86.899	-0.279	0.086
-376.873	800.000	-0.068	0.210
-375.858	-200.000	-0.068	-0.312
-374.844	125.041	0.206	-0.262
-373.829	-114.115	0.244	0.048
-372.815	694.237	-0.075	-0.199
-371.800	0.547	-0.167	-0.120
-370.785	352.766	-0.080	0.160
-369.771	199.575	0.137	-0.212
-368.756	-48.153	0.176	-0.086
-367.742	282.569	-0.114	-0.206
-366.727	-200.000	-0.001	0.067
-365.712	121.357	0.073	0.092
-364.698	800.000	-0.047	-0.168
-363.683	-149.038	-0.274	-0.022
-362.669	-106.556	0.262	-0.059
-361.654	-200.000	0.102	0.470
-360.639	-200.000	0.070	-0.359
-359.625	-143.189	0.231	0.022
-358.610	295.078	-0.117	0.216
-357.596	-73.371	-0.280	-0.103
-356.581	50.630	0.145	-0.138
-355.566	-10.279	0.085	0.057
-354.552	-200.000	0.014	-0.252
-353.537	-7.724	0.282	0.192
-352.523	710.214	0.154	-0.411
-351.508	68.578	0.089	0.092
-350.493	-3.132	0.136	0.095
-349.479	26.861	-0.273	0.230
-348.464	-81.315	0.192	-0.064
-347.450	-200.000	-0.221	0.000
-346.435	650.877	-0.085	-0.220
-345.420	61.424	0.069	-0.069
-344.406	800.000	-0.076	0.304
-343.391	-165.154	0.064	0.003
-342.377	247.555	0.204	0.347
-341.362	-21.416	-0.197	0.121
-340.348	592.431	-0.009	-0.023
-339.333	-42.480	-0.113	-0.058
-338.318	-1.839	-0.077	0.055
-337.304	39.045	-0.204	0.184
-336.289	-119.625	-0.159	-0.028
-335.275	340.427	0.211	0.415
-334.260	356.008	0.135	-0.270
-333.245	58.573	-0.116	0.115
-332.231	66.716	0.186	-0.190
-331.216	-46.809	0.266	-0.131
-330.202	16.659	0.141	0.112
-329.187	-62.113	0.198	-0.083
-328.172	102.779	-0.072	-0.085
-327.158	151.888	-0.123	-0.169
-326.143	198.352	0.061	-0.094
-325.129	-200.000	0.021	0.127
-324.114	-58.916	0.259	0.113
-323.099	118.815	-0.140	0.174
-322.085	92.874	-0.231	-0.262
-321.070	-78.995	0.150	-0.051
-320.056	-62.392	0.109	-0.046
-319.041	-195.425	0.116	-0.001
-318.026	54.184	0.141	-0.137
-317.012	350.597	0.063	-0.126
-315.997	-44.338	0.037	-0.019
-314.983	-56.141	-0.275	0.123
-313.968	149.192	-0.120	0.163
-312.953	800.000	-0.075	0.212
-311.939	267.038	0.109	0.191
-310.924	-200.000	0.013	-0.067
-309.910	-200.000	-0.050	-0.316
-308.895	-200.000	-0.012	0.155
-307.880	59.354	-0.169	0.167
-306.866	-92.073	0.238	-0.068
-305.851	139.328	-0.100	-0.132
-304.837	478.052	0.127	-0.290
-303.822	-71.341	0.407	0.153
-302.807	-48.118	0.071	0.035
-301.793	271.743	-0.185	0.328
-300.778	-49.515	-0.045	0.022
-299.764	-200.000	-0.028	-0.139
-298.749	-148.880	-0.216	0.018
-297.735	-200.000	-0.002	0.071
-296.720	-46.218	0.396	0.196
-295.705	516.628	-0.019	-0.045
-294.691	459.503	-0.159	-0.356
-293.676	-132.311	0.177	-0.023
-292.662	371.416	-0.004	0.008
-291.647	-26.835	0.218	-0.128
-290.632	-120.812	0.128	-0.022
-289.618	259.115	0.079	0.138
-288.603	-22.477	0.270	-0.164
-287.589	800.000	0.053	-0.197
-286.574	620.719	-0.106	-0.267
-285.559	143.776	0.204	0.274
-284.545	-115.804	-0.199	0.037
-283.530	-55.210	0.089	-0.040
-282.516	123.388	0.269	0.339
-281.501	-102.061	-0.121	0.029
-280.486	-3.656	0.152	-0.106
-279.472	-3.506	-0.066	-0.046
-278.457	340.829	-0.033	-0.064
-277.443	-200.000	-0.035	0.274
-276.428	26.634	0.224	-0.189
-275.413	-122.987	0.027	0.004
-274.399	-193.064	0.096	-0.001
-273.384	-20.742	0.067	0.042
-272.370	100.547	-0.102	-0.119
-271.355	2.598	0.042	-0.031
-270.340	-121.290	0.071	-0.012
-269.326	106.188	-0.065	0.077
-268.311	-2.816	0.172	0.121
-267.297	-8.986	0.096	0.064
-266.282	518.172	0.058	0.137
-265.267	70.967	0.368	0.383
-264.253	800.000	0.022	0.097
-263.238	-101.478	0.424	0.104
-262.224	800.000	0.109	0.420
-261.209	46.076	0.201	-0.187
-260.195	68.332	0.220	-0.226
-259.180	465.052	0.081	-0.181
-258.165	-185.462	0.279	-0.004
-257.151	800.000	0.090	0.265
-256.136	-105.545	0.195	-0.044
-255.122	-95.976	-0.232	-0.062
-254.107	177.776	0.058	0.085
-253.092	-156.498	0.245	-0.015
-252.078	-56.642	0.164	-0.073
-251.063	-156.962	-0.473	-0.029
-250.049	666.426	-0.051	0.133
-249.034	596.220	-0.086	0.213
-248.019	-200.000	0.015	-0.067
-247.005	-51.045	0.172	0.081
-245.990	-124.471	0.499	0.078
-244.976	193.132	-0.053	-0.081
-243.961	-38.840	-0.160	-0.085
-242.946	167.880	0.205	0.292
-241.932	87.620	-0.215	0.239
-240.917	271.813	-0.047	0.084
-239.903	231.147	-0.092	-0.151
-238.888	16.546	0.249	0.198
-237.873	-78.040	0.071	0.024
-236.859	-92.343	-0.466	0.132
-235.844	800.000	-0.036	-0.118
-234.830	92.657	-0.149	0.169
-233.815	183.016	-0.081	-0.120
-232.800	-200.000	0.004	0.172
-231.786	3.025	-0.219	0.159
-230.771	-128.403	-0.126	0.018
-229.757	-200.000	-0.014	0.148
-228.742	-200.000	0.042	0.186
-227.727	169.533	-0.193	-0.276
-226.713	-200.000	-0.019	0.320
-225.698	277.571	0.225	0.402
-224.684	5.625	-0.225	-0.167
-223.669	77.384	0.243	0.259
-222.655	-141.895	-0.084	0.008
-221.640	800.000	-0.115	0.355
-220.625	-200.000	-0.015	-0.086
-219.611	-200.000	-0.045	0.350
-218.596	-200.000	0.017	-0.091
-217.582	-122.425	0.014	0.002
-216.567	131.015	0.148	-0.190
-215.552	-200.000	-0.043	0.445
-214.538	-200.000	-0.043	0.208
-213.523	-200.000	0.065	-0.347
-212.509	41.601	-0.304	-0.276
-211.494	-200.000	-0.033	0.303
-210.479	-25.095	-0.252	0.150
-209.465	-108.874	0.132	0.028
-208.450	-86.179	0.143	0.044
-207.436	-65.147	0.037	-0.015
-206.421	-153.807	-0.285	0.020
-205.406	-200.000	-0.006	-0.569
-204.392	-114.860	0.227	-0.043
-203.377	128.814	0.030	0.038
-202.363	-145.418	0.082	-0.007
-201.348	166.507	-0.103	0.146
-200.333	-86.342	-0.141	-0.043
-199.319	-99.246	0.040	-0.010
-198.304	-153.659	-0.060	-0.004
-197.290	800.000	-0.094	0.277
-196.275	203.428	0.042	-0.065
-195.260	6.055	-0.045	0.033
-194.246	-104.016	0.127	-0.030
-193.231	-74.643	0.294	0.106
-192.217	-200.000	0.010	-0.096
-191.202	-200.000	0.032	-0.290
-190.187	98.238	-0.133	0.154
-189.173	18.666	-0.087	0.070
-188.158	26.419	-0.156	0.130
-187.144	118.601	0.068	0.084
-186.129	70.952	-0.195	-0.202
-185.114	15.753	-0.176	-0.139
-184.100	-200.000	-0.012	-0.104
-183.085	529.460	-0.145	-0.343
-182.071	203.461	0.024	0.037
-181.056	-200.000	-0.004	-0.261
-180.042	-65.442	0.156	-0.063
-179.027	800.000	0.034	0.100
-178.012	-200.000	0.023	0.231
-176.998	-133.709	-0.091	-0.011
-175.983	-102.979	-0.179	0.042
-174.969	514.021	-0.135	-0.315
-173.954	-13.762	-0.169	-0.109
-172.939	-27.106	0.204	0.119
-171.925	17.128	0.279	0.221
-170.910	22.720	0.248	-0.203
-169.896	105.776	0.022	-0.026
-168.881	800.000	0.044	0.166
-167.866	-68.804	0.241	-0.093
-166.852	-67.760	-0.083	-0.032
-165.837	-21.029	-0.073	-0.045
-164.823	800.000	0.104	0.369
-163.808	0.970	-0.293	-0.210
-162.793	283.597	0.088	-0.158
-161.779	65.709	-0.252	0.256
-160.764	45.798	0.227	-0.210
-159.750	187.763	0.127	-0.189
-158.735	-200.000	0.030	-0.208
-157.720	83.532	-0.247	-0.269
-156.706	701.953	0.066	0.175
-155.691	-137.089	-0.078	-0.009
-154.677	-200.000	-0.028	-0.178
-153.662	389.273	-0.135	-0.279
-152.647	8.389	-0.116	-0.087
-151.633	800.000	-0.028	0.086
-150.618	800.000	-0.081	0.263
-149.604	-83.598	0.129	-0.041
-148.589	-200.000	-0.032	-0.272
-147.574	-200.000	0.001	0.119
-146.560	-69.943	0.160	0.061
-145.545	800.000	-0.051	-0.188
-144.531	646.327	0.059	0.151
-143.516	800.000	0.056	-0.156
-142.502	503.247	-0.038	0.088
-141.487	-12.699	0.285	0.186
-140.472	260.037	0.109	0.188
-139.458	-153.703	-0.028	0.002
-138.443	800.000	-0.057	0.220
-137.429	-47.390	-0.248	0.120
-136.414	-133.827	-0.238	0.030
-135.399	275.332	0.124	0.219
-134.385	437.308	-0.043	0.095
-133.370	-200.000	-0.002	0.320
-132.356	-88.303	0.201	-0.060
-131.341	-163.759	-0.171	-0.008
-130.326	310.116	0.089	0.166
-129.312	-200.000	0.007	0.292
-128.297	45.329	-0.095	-0.088
-127.283	261.369	-0.102	0.176
-126.268	800.000	0.051	-0.198
-125.253	-30.350	-0.122	0.069
-124.239	-118.358	0.058	-0.010
-123.224	-200.000	0.007	-0.043
-122.210	-7.907	0.200	0.135
-121.195	222.396	0.156	0.251
-120.180	536.408	-0.174	-0.413
