DTS Sentinel unit serial number:	SN413079Multiplexer serial number:	ORYXHardware model number:	OX4-SRSoftware version number:	ORYX F/W v4.00 Oryx Data Collector v3.7.2.0data status	okinstallation	princeton_trtdifferential loss correction	single-endedforward channel	channel 3reverse channel	N/Adate	2019/09/11time	08:06:11forward acquisition time	60.00reverse acquisition time	0.00gamma	496.2192k internal	0.2318k external	0.2318temperature offset calibration	1.1245default loss term (dB/km)	0.3790temperature slope calibration	1.0000multiplexer offset coefficient	1.0000multiplexer slope coefficient	1.0000fibre end	0.00T internal ref (°C)	32.27T ext. ref 1 (°C)	19.88T ext. ref 2 (°C)	28.58length (m)	temperature (°C)	Stokes	anti-Stokes-747.200	-62.657	-0.105	0.044
-746.185	800.000	0.047	-0.195
-745.171	-115.475	0.219	-0.042
-744.156	107.096	0.154	0.185
-743.142	-183.129	0.140	0.003
-742.127	800.000	0.051	0.156
-741.112	-200.000	0.067	-0.367
-740.098	19.847	0.162	0.132
-739.083	-61.517	-0.145	0.062
-738.069	71.877	0.259	0.272
-737.054	-200.000	-0.035	-0.325
-736.039	55.204	-0.163	-0.159
-735.025	-200.000	0.012	0.187
-734.010	-142.970	0.066	-0.007
-732.996	-200.000	0.003	-0.271
-731.981	-46.001	-0.165	0.082
-730.966	-84.498	-0.518	-0.166
-729.952	-200.000	-0.084	-0.411
-728.937	22.610	0.119	0.098
-727.923	800.000	0.117	0.401
-726.908	206.412	0.019	0.029
-725.894	70.808	0.063	0.066
-724.879	-9.192	0.177	-0.120
-723.864	-200.000	-0.032	-0.186
-722.850	135.321	0.182	-0.239
-721.835	-11.902	0.185	0.123
-720.821	693.991	-0.090	0.239
-719.806	-56.930	0.161	0.072
-718.791	532.516	-0.105	-0.252
-717.777	-111.582	-0.412	0.085
-716.762	538.648	-0.137	-0.330
-715.748	699.060	-0.109	-0.289
-714.733	-12.069	-0.032	0.021
-713.718	47.505	-0.196	-0.185
-712.704	22.262	-0.135	-0.112
-711.689	-85.949	0.271	-0.085
-710.675	402.842	0.135	-0.286
-709.660	-177.216	-0.064	-0.002
-708.645	153.717	-0.064	0.088
-707.631	758.484	0.090	-0.246
-706.616	113.178	-0.139	-0.170
-705.602	-94.701	0.117	0.032
-704.587	-93.570	0.131	0.037
-703.572	311.734	-0.180	-0.341
-702.558	800.000	0.093	0.314
-701.543	37.120	0.163	0.145
-700.529	-86.423	0.207	-0.064
-699.514	-200.000	0.040	-0.382
-698.499	85.652	-0.144	-0.160
-697.485	-90.446	0.182	-0.053
-696.470	352.703	0.197	-0.395
-695.456	205.381	0.147	-0.231
-694.441	13.500	-0.172	-0.135
-693.426	2.944	0.273	0.200
-692.412	-8.274	0.182	-0.124
-691.397	186.998	-0.154	-0.232
-690.383	148.999	0.173	-0.236
-689.368	141.349	0.085	0.113
-688.354	-92.335	0.129	-0.037
-687.339	-200.000	-0.004	-0.132
-686.324	-98.524	0.396	-0.102
-685.310	-14.979	0.045	0.029
-684.295	-200.000	0.036	0.229
-683.281	-69.565	-0.178	-0.069
-682.266	1.388	-0.112	-0.082
-681.251	-14.968	0.408	0.264
-680.237	71.018	-0.248	-0.260
-679.222	800.000	0.032	-0.091
-678.208	-200.000	0.028	0.165
-677.193	51.223	0.141	-0.135
-676.178	-200.000	-0.070	-0.314
-675.164	-200.000	-0.003	-0.101
-674.149	483.651	-0.110	0.254
-673.135	203.974	0.115	-0.180
-672.120	-40.204	-0.123	-0.065
-671.105	336.247	0.158	-0.309
-670.091	526.470	-0.097	-0.230
-669.076	-80.193	-0.228	-0.077
-668.062	-200.000	0.067	-0.527
-667.047	102.299	-0.265	-0.312
-666.032	-200.000	0.032	0.297
-665.018	-200.000	-0.003	0.159
-664.003	119.759	0.080	0.100
-662.989	-42.895	-0.134	0.069
-661.974	68.780	-0.026	-0.027
-660.959	-160.516	-0.140	0.008
-659.945	-28.616	-0.027	0.015
-658.930	67.513	-0.144	-0.148
-657.916	-84.247	0.129	-0.041
-656.901	-47.656	-0.159	0.078
-655.886	-102.324	0.124	-0.030
-654.872	273.016	0.160	-0.285
-653.857	800.000	-0.054	-0.230
-652.843	-200.000	0.012	0.169
-651.828	-43.020	0.110	-0.057
-650.814	32.998	-0.079	-0.069
-649.799	77.929	0.227	0.244
-648.784	624.787	0.046	-0.116
-647.770	280.058	-0.225	-0.406
-646.755	-200.000	0.019	-0.422
-645.741	-200.000	-0.036	-0.392
-644.726	-200.000	0.008	-0.044
-643.711	-24.156	0.503	-0.303
-642.697	-94.798	0.270	0.074
-641.682	-54.889	0.456	-0.207
-640.668	-77.188	-0.122	-0.043
-639.653	56.868	-0.204	0.200
-638.638	315.544	-0.112	0.213
-637.624	-129.285	-0.235	0.033
-636.609	265.820	0.147	-0.259
-635.595	-18.116	-0.131	0.083
-634.580	-121.968	-0.121	0.020
-633.565	491.605	-0.030	0.069
-632.551	-200.000	-0.010	-0.252
-631.536	-37.001	-0.005	0.003
-630.522	212.404	-0.052	0.082
-629.507	-200.000	0.007	0.032
-628.492	130.030	-0.027	0.034
-627.478	-19.306	-0.089	-0.055
-626.463	-114.309	-0.366	0.071
-625.449	-200.000	0.010	-0.104
-624.434	-200.000	-0.010	-0.255
-623.419	349.065	0.052	0.104
-622.405	-200.000	0.013	-0.117
-621.390	-200.000	0.035	-0.363
-620.376	-127.233	-0.175	0.026
-619.361	73.570	-0.103	-0.109
-618.346	-32.473	-0.256	0.144
-617.332	-117.791	-0.184	-0.033
-616.317	-200.000	-0.017	-0.208
-615.303	-200.000	0.039	-0.355
-614.288	432.264	0.052	-0.113
-613.273	37.100	0.241	0.215
-612.259	237.450	-0.061	0.102
-611.244	-0.192	-0.252	-0.180
-610.230	460.073	-0.192	-0.430
-609.215	27.855	0.188	-0.159
-608.201	585.114	-0.094	0.233
-607.186	397.901	-0.038	0.080
-606.171	238.273	-0.147	0.246
-605.157	50.265	-0.129	-0.123
-604.142	-200.000	0.044	0.369
-603.128	-200.000	0.018	0.081
-602.113	-59.393	-0.044	0.019
-601.098	92.974	-0.054	-0.062
-600.084	608.612	-0.019	0.049
-599.069	-135.004	-0.179	0.022
-598.055	-200.000	0.024	0.123
-597.040	-200.000	0.034	0.376
-596.025	-72.113	-0.314	-0.117
-595.011	119.767	-0.144	-0.180
-593.996	-113.025	0.159	0.032
-592.982	-68.828	0.098	-0.038
-591.967	-78.044	0.122	0.042
-590.952	-136.487	0.584	0.068
-589.938	-138.695	-0.295	-0.032
-588.923	293.086	0.115	0.211
-587.909	232.651	0.064	0.106
-586.894	-137.151	0.343	-0.039
-585.879	-128.604	0.141	-0.020
-584.865	-173.789	0.198	0.006
-583.850	-111.623	-0.434	0.089
-582.836	-48.403	0.082	0.040
-581.821	-200.000	0.018	-0.108
-580.806	402.667	0.252	-0.532
-579.792	800.000	0.048	0.211
-578.777	-68.184	0.280	0.110
-577.763	69.545	0.235	0.243
-576.748	800.000	-0.082	0.353
-575.733	180.250	0.143	-0.211
-574.719	-200.000	-0.019	-0.216
-573.704	-200.000	0.023	-0.328
-572.690	-54.829	-0.138	0.063
-571.675	-200.000	-0.024	-0.136
-570.661	-84.031	-0.247	-0.079
-569.646	378.897	-0.163	0.334
-568.631	-63.716	-0.116	0.048
-567.617	800.000	0.036	0.117
-566.602	-106.254	-0.321	-0.072
-565.588	-120.723	0.351	0.060
-564.573	437.567	-0.092	0.201
-563.558	-37.769	0.228	-0.122
-562.544	800.000	0.108	0.367
-561.529	800.000	-0.103	0.286
-560.515	-200.000	0.094	0.000
-559.500	54.209	0.049	0.047
-558.485	-200.000	0.014	0.120
-557.471	5.866	-0.128	-0.095
-556.456	146.175	-0.032	-0.043
-555.442	286.596	0.051	0.092
-554.427	97.419	-0.184	0.213
-553.412	137.663	-0.246	-0.324
-552.398	634.195	-0.114	-0.291
-551.383	800.000	0.030	-0.090
-550.369	-200.000	0.030	-0.282
-549.354	126.090	0.129	0.163
-548.339	41.823	-0.191	0.173
-547.325	466.578	0.026	-0.057
-546.310	-121.272	-0.203	-0.034
-545.296	800.000	0.012	-0.039
-544.281	-200.000	0.018	-0.190
-543.266	19.032	-0.043	0.035
-542.252	-112.809	-0.214	-0.043
-541.237	-55.875	-0.064	0.029
-540.223	-140.177	-0.231	0.024
-539.208	-119.689	-0.109	0.019
-538.193	-200.000	-0.033	0.158
-537.179	17.808	-0.022	-0.017
-536.164	-23.475	0.134	0.081
-535.150	-120.655	0.121	0.021
-534.135	1.679	-0.044	0.032
-533.121	-119.433	0.180	0.031
-532.106	114.231	-0.087	0.106
-531.091	190.532	0.201	-0.303
-530.077	-200.000	0.062	-0.343
-529.062	-86.448	-0.277	0.085
-528.048	-167.588	-0.045	-0.002
-527.033	-2.912	0.102	0.071
-526.018	-200.000	-0.025	0.251
-525.004	129.193	-0.139	0.178
-523.989	-114.889	-0.260	-0.050
-522.975	-57.996	-0.216	0.095
-521.960	-137.314	0.210	-0.024
-520.945	178.268	-0.167	-0.244
-519.931	760.000	0.036	0.098
-518.916	-143.989	0.028	0.003
-517.902	-200.000	0.037	-0.188
-516.887	-91.383	-0.083	0.024
-515.872	800.000	0.090	0.392
-514.858	42.766	0.198	-0.180
-513.843	199.578	0.125	0.193
-512.829	-17.094	0.244	-0.154
-511.814	68.507	-0.142	0.146
-510.799	305.195	-0.127	0.236
-509.785	-200.000	-0.042	0.198
-508.770	7.828	-0.125	-0.094
-507.756	-128.962	0.305	0.043
-506.741	-10.685	0.229	0.152
-505.726	349.781	-0.121	-0.240
-504.712	-200.000	-0.003	0.099
-503.697	41.120	-0.096	0.087
-502.683	-200.000	0.099	-0.000
-501.668	-157.199	-0.344	0.021
-500.653	-104.006	-0.239	-0.056
-499.639	-68.240	0.111	-0.043
-498.624	-130.855	0.156	-0.021
-497.610	800.000	0.072	-0.282
-496.595	-63.299	-0.132	0.054
-495.581	691.383	0.086	-0.227
-494.566	290.954	0.042	0.076
-493.551	460.056	0.061	0.135
-492.537	800.000	-0.071	0.271
-491.522	701.139	-0.150	-0.397
-490.508	-152.343	-0.183	-0.013
-489.493	334.905	-0.169	0.328
-488.478	-137.432	-0.202	0.023
-487.464	8.045	0.258	-0.194
-486.449	36.992	0.195	0.173
-485.435	203.703	0.341	0.529
-484.420	-98.043	-0.269	0.069
-483.405	12.886	0.288	0.223
-482.391	3.712	0.032	-0.023
-481.376	-63.436	0.168	-0.069
-480.362	-73.860	0.225	0.082
-479.347	4.678	-0.113	0.083
-478.332	-101.177	-0.079	0.019
-477.318	-52.218	0.186	0.086
-476.303	645.988	-0.040	-0.101
-475.289	139.099	0.159	0.210
-474.274	-97.467	0.080	0.021
-473.259	-64.904	0.348	0.141
-472.245	-92.197	-0.251	0.071
-471.230	25.276	0.165	-0.137
-470.216	-124.858	-0.110	0.017
-469.201	-200.000	-0.015	0.114
-468.186	-200.000	-0.012	-0.449
-467.172	800.000	-0.028	0.094
-466.157	-140.280	-0.427	-0.045
-465.143	-21.157	0.172	0.105
-464.128	800.000	-0.041	-0.144
-463.113	85.300	-0.098	-0.108
-462.099	-200.000	-0.003	0.389
-461.084	539.355	0.126	0.299
-460.070	-32.195	-0.284	0.159
-459.055	43.335	-0.169	0.155
-458.040	44.155	0.125	-0.114
-457.026	-133.216	-0.149	0.019
-456.011	-49.177	-0.134	-0.064
-454.997	-17.446	-0.309	-0.195
-453.982	138.614	0.207	-0.273
-452.968	-84.477	-0.222	0.070
-451.953	-139.287	0.303	-0.033
-450.938	-136.312	-0.257	0.030
-449.924	-1.160	0.075	-0.053
-448.909	-78.624	-0.510	0.175
-447.895	502.455	0.115	0.266
-446.880	-51.743	0.166	-0.077
-445.865	-200.000	-0.001	-0.154
-444.851	-91.443	-0.061	-0.017
-443.836	-132.937	0.235	0.030
-442.822	430.585	0.100	-0.216
-441.807	421.027	0.195	-0.417
-440.792	136.342	-0.042	0.055
-439.778	-200.000	0.052	-0.317
-438.763	-200.000	0.014	-0.124
-437.749	-17.710	-0.087	-0.055
-436.734	26.921	0.208	-0.175
-435.719	50.407	-0.157	0.148
-434.705	327.595	0.055	0.105
-433.690	-148.914	0.182	0.015
-432.676	-122.735	-0.397	0.064
-431.661	89.067	0.183	-0.204
-430.646	527.398	-0.031	-0.074
-429.632	-59.541	0.030	0.013
-428.617	-200.000	0.022	-0.244
-427.603	-200.000	-0.048	-0.406
-426.588	-172.295	-0.468	0.015
-425.573	57.247	-0.109	-0.106
-424.559	-103.438	-0.165	-0.039
-423.544	800.000	-0.023	-0.065
-422.530	-22.795	0.415	0.250
-421.515	800.000	0.006	0.023
-420.500	178.024	0.199	0.289
-419.486	-200.000	0.010	0.280
-418.471	-126.198	-0.271	-0.040
-417.457	-22.902	-0.071	-0.043
-416.442	-42.375	0.091	-0.046
-415.428	-108.566	-0.390	0.084
-414.413	-200.000	-0.001	-0.114
-413.398	800.000	-0.099	0.306
-412.384	800.000	-0.035	0.134
-411.369	-200.000	-0.040	-0.374
-410.355	-114.293	-0.213	-0.041
-409.340	177.316	0.333	-0.484
-408.325	-80.302	-0.076	0.025
-407.311	-200.000	-0.009	0.171
-406.296	-94.330	-0.168	0.046
-405.282	800.000	0.048	0.168
-404.267	-88.625	-0.198	0.059
-403.252	-4.994	0.123	0.085
-402.238	-200.000	0.039	-0.283
-401.223	-200.000	-0.018	-0.171
-400.209	348.744	0.021	0.041
-399.194	-200.000	0.071	0.328
-398.179	-69.910	0.225	0.086
-397.165	217.912	0.193	-0.308
-396.150	-18.925	0.212	0.132
-395.136	13.701	-0.090	0.070
-394.121	393.974	-0.083	0.172
-393.106	342.935	-0.167	-0.326
-392.092	-176.626	0.052	0.001
-391.077	-200.000	-0.035	-0.276
-390.063	800.000	-0.124	-0.344
-389.048	-128.795	0.521	0.073
-388.033	800.000	0.041	-0.137
-387.019	-73.093	-0.112	0.041
-386.004	-50.609	-0.169	-0.079
-384.990	800.000	0.085	-0.288
-383.975	-9.198	0.102	-0.068
-382.960	18.144	-0.250	-0.199
-381.946	-171.067	0.267	0.009
-380.931	-7.063	0.133	0.090
-379.917	-200.000	0.031	-0.177
-378.902	-111.938	-0.401	0.081
-377.888	-200.000	-0.020	0.317
-376.873	52.775	0.086	0.082
-375.858	72.118	-0.251	-0.261
-374.844	-160.939	-0.161	0.008
-373.829	-44.941	-0.233	0.116
-372.815	-107.405	0.285	0.062
-371.800	408.891	-0.039	-0.082
-370.785	54.763	0.043	-0.042
-369.771	-84.681	-0.295	0.093
-368.756	106.081	0.045	0.053
-367.742	1.444	0.097	-0.070
-366.727	206.002	0.054	-0.083
-365.712	-27.777	0.193	-0.112
-364.698	-66.694	0.220	-0.087
-363.683	800.000	0.124	-0.381
-362.669	-153.207	-0.264	0.018
-361.654	38.841	0.066	-0.059
-360.639	-85.710	0.206	0.064
-359.625	-14.972	-0.558	0.356
-358.610	72.894	0.238	-0.248
-357.596	-83.334	-0.033	0.011
-356.581	122.296	0.182	-0.227
-355.566	-79.397	-0.138	0.046
-354.552	53.418	0.207	0.198
-353.537	-200.000	-0.007	-0.323
-352.523	-42.853	-0.340	-0.172
-351.508	320.570	0.052	0.098
-350.493	-190.990	0.184	-0.002
-349.479	-200.000	0.062	-0.272
-348.464	50.050	0.174	0.163
-347.450	457.415	-0.081	-0.180
-346.435	-200.000	0.015	0.145
-345.420	203.257	0.239	-0.369
-344.406	800.000	0.081	-0.265
-343.391	407.648	0.061	0.129
-342.377	800.000	0.066	0.230
-341.362	-7.137	-0.269	0.182
-340.348	-20.087	0.149	0.091
-339.333	-71.059	0.349	-0.131
-338.318	132.475	0.042	0.054
-337.304	-130.999	-0.238	-0.032
-336.289	800.000	0.068	0.202
-335.275	147.231	-0.109	-0.146
-334.260	-24.022	0.151	0.090
-333.245	15.027	0.072	-0.056
-332.231	78.662	0.245	0.261
-331.216	-200.000	-0.038	-0.429
-330.202	5.086	0.292	-0.214
-329.187	335.456	0.067	0.129
-328.172	10.299	0.348	0.264
-327.158	5.602	0.160	0.118
-326.143	-51.036	0.316	-0.148
-325.129	213.993	-0.124	0.195
-324.114	329.277	-0.152	0.290
-323.099	20.065	-0.111	0.089
-322.085	70.771	0.069	0.071
-321.070	-44.569	-0.145	-0.072
-320.056	-7.188	-0.022	-0.015
-319.041	129.959	-0.025	0.032
-318.026	709.819	0.027	-0.072
-317.012	94.926	0.262	-0.296
-315.997	18.866	-0.331	-0.264
-314.983	55.477	-0.258	0.249
-313.968	-200.000	0.028	-0.238
-312.953	-200.000	0.319	0.001
-311.939	528.530	-0.074	-0.173
-310.924	800.000	-0.074	-0.254
-309.910	-37.236	0.231	-0.123
-308.895	-3.305	-0.139	-0.096
-307.880	-110.609	0.312	0.064
-306.866	-143.669	-0.200	-0.019
-305.851	408.828	-0.049	0.104
-304.837	-68.430	0.074	-0.029
-303.822	29.827	0.155	0.132
-302.807	800.000	0.087	-0.319
-301.793	-174.592	-0.231	0.007
-300.778	121.743	0.281	-0.349
-299.764	-75.658	-0.048	0.017
-298.749	-95.191	-0.296	-0.079
-297.735	-181.117	-0.472	0.009
-296.720	-200.000	-0.039	-0.229
-295.705	-114.225	0.149	-0.029
-294.691	-200.000	0.002	0.102
-293.676	67.937	0.123	0.125
-292.662	166.890	0.059	0.083
-291.647	-200.000	-0.030	-0.234
-290.632	-200.000	0.009	0.172
-289.618	-72.843	0.292	0.107
-288.603	-200.000	0.095	0.444
-287.589	246.608	0.037	0.062
-286.574	-177.154	0.126	-0.003
-285.559	268.619	-0.153	0.266
-284.545	36.878	-0.054	0.047
-283.530	230.375	0.126	-0.205
-282.516	-17.525	0.407	-0.255
-281.501	-49.405	0.180	-0.085
-280.486	102.325	0.234	0.272
-279.472	732.613	0.186	0.494
-278.457	-200.000	0.009	-0.223
-277.443	-74.766	0.120	0.043
-276.428	-66.809	0.452	-0.178
-275.413	-200.000	0.019	-0.091
-274.399	121.209	-0.236	0.292
-273.384	90.970	-0.121	0.135
-272.370	-14.914	-0.161	0.103
-271.355	98.628	-0.143	-0.164
-270.340	-7.435	0.168	-0.113
-269.326	-152.436	-0.102	0.007
-268.311	166.082	0.207	0.291
-267.297	48.215	0.276	0.257
-266.282	27.668	-0.137	-0.115
-265.267	39.920	0.128	-0.114
-264.253	134.829	-0.017	-0.023
-263.238	218.409	-0.099	-0.157
-262.224	-102.130	-0.284	-0.068
-261.209	636.090	-0.063	0.160
-260.195	-110.084	-0.148	-0.031
-259.180	-200.000	-0.027	0.289
-258.165	426.372	0.073	-0.156
-257.151	-200.000	0.017	0.108
-256.136	427.587	-0.094	0.200
-255.122	-200.000	0.016	0.134
-254.107	-200.000	0.019	-0.225
-253.092	-167.527	-0.224	-0.009
-252.078	-200.000	-0.047	-0.245
-251.063	800.000	-0.072	-0.214
-250.049	19.648	0.108	0.086
-249.034	-200.000	-0.038	-0.167
-248.019	-14.668	-0.320	0.204
-247.005	320.399	-0.187	-0.352
-245.990	-91.421	-0.201	-0.057
-244.976	-72.273	0.120	0.044
-243.961	-196.463	0.351	0.002
-242.946	67.392	0.093	-0.094
-241.932	95.608	-0.168	0.191
-240.917	706.520	-0.105	0.274
-239.903	261.598	-0.090	0.155
-238.888	-200.000	-0.033	-0.250
-237.873	-152.149	0.171	-0.012
-236.859	-200.000	-0.010	-0.104
-235.844	-130.455	0.127	-0.017
-234.830	79.095	0.173	0.184
-233.815	-200.000	0.017	-0.133
-232.800	61.127	-0.138	0.136
-231.786	-13.216	-0.264	0.170
-230.771	-130.636	-0.112	-0.015
-229.757	-124.431	0.130	-0.020
-228.742	-68.762	-0.273	0.105
-227.727	800.000	-0.073	0.235
-226.713	40.425	0.243	0.217
-225.698	322.732	0.112	0.211
-224.684	-4.998	-0.144	0.099
-223.669	104.567	0.152	-0.177
-222.655	800.000	-0.078	0.222
-221.640	45.566	0.172	-0.158
-220.625	-200.000	-0.011	-0.145
-219.611	-35.570	0.425	-0.229
-218.596	-107.460	0.166	-0.036
-217.582	-200.000	-0.043	0.336
-216.567	-170.203	-0.186	-0.007
-215.552	125.359	-0.240	-0.300
-214.538	-151.327	-0.315	0.023
-213.523	52.435	0.236	-0.223
-212.509	120.938	-0.047	0.058
-211.494	-148.500	0.344	0.028
-210.479	-19.873	-0.213	0.130
-209.465	293.415	0.140	0.254
-208.450	-53.897	0.190	0.086
-207.436	172.112	0.076	0.108
-206.421	1.048	-0.099	0.070
-205.406	114.304	0.138	0.166
-204.392	660.488	-0.062	0.158
-203.377	-34.844	-0.110	0.059
-202.363	25.950	0.061	-0.050
-201.348	-200.000	-0.008	-0.053
-200.333	-200.000	-0.026	0.195
-199.319	388.884	0.025	0.052
-198.304	-147.112	-0.277	-0.023
-197.290	3.895	-0.062	-0.045
-196.275	800.000	-0.042	0.170
-195.260	165.565	-0.081	0.114
-194.246	-200.000	-0.007	-0.055
-193.231	-32.871	-0.096	-0.053
-192.217	169.593	0.265	-0.374
-191.202	90.496	0.190	0.210
-190.187	-27.436	0.194	0.112
-189.173	-45.430	-0.188	0.093
-188.158	-200.000	-0.205	-0.000
-187.144	50.579	-0.160	0.149
-186.129	800.000	0.142	-0.431
-185.114	-177.322	0.243	-0.006
-184.100	-2.390	-0.330	-0.229
-183.085	-101.979	0.143	-0.034
-182.071	-74.824	0.255	0.090
-181.056	72.331	-0.212	0.219
-180.042	12.504	-0.136	-0.104
-179.027	113.110	0.237	0.284
-178.012	800.000	-0.069	-0.222
-176.998	33.359	-0.166	-0.143
-175.983	-29.406	0.197	0.112
-174.969	-200.000	0.020	-0.180
-173.954	-33.091	-0.246	0.135
-172.939	591.065	-0.133	0.324
-171.925	371.674	0.090	0.180
-170.910	800.000	-0.058	-0.196
-169.896	86.156	0.081	-0.088
-168.881	-35.538	-0.182	0.098
-167.866	-200.000	-0.007	0.372
-166.852	41.769	-0.165	0.148
-165.837	-200.000	-0.007	0.062
-164.823	34.293	0.073	0.063
-163.808	-47.861	-0.093	-0.044
-162.793	104.104	-0.035	0.041
-161.779	196.669	-0.132	0.199
-160.764	-97.375	0.062	0.016
-159.750	48.001	0.104	0.096
-158.735	621.782	-0.072	-0.179
-157.720	-200.000	-0.036	-0.196
-156.706	800.000	0.055	0.167
-155.691	-200.000	-0.026	0.135
-154.677	683.282	0.127	0.327
-153.662	160.558	-0.120	0.165
-152.647	479.298	0.057	-0.127
-151.633	94.379	0.074	0.083
-150.618	-200.000	-0.060	0.266
-149.604	800.000	0.142	0.459
-148.589	-42.373	-0.032	0.016
-147.574	-31.379	-0.263	-0.146
-146.560	-18.269	0.254	-0.157
-145.545	-129.041	-0.051	-0.007
-144.531	-66.113	0.166	0.066
-143.516	148.168	0.079	-0.106
-142.502	-103.580	0.269	-0.062
-141.487	346.849	0.130	-0.253
-140.472	209.123	-0.047	-0.073
-139.458	262.344	0.024	0.042
-138.443	654.984	-0.053	-0.135
-137.429	63.814	0.214	-0.212
-136.414	33.918	0.378	-0.325
-135.399	-13.463	0.343	0.220
-134.385	-200.000	0.050	0.241
-133.370	102.672	0.113	0.131
-132.356	-4.890	0.271	-0.185
-131.341	259.980	0.135	0.230
-130.326	-200.000	-0.026	0.125
-129.312	-129.552	-0.228	-0.031
-128.297	-200.000	-0.004	0.133
-127.283	136.742	0.173	-0.224
-126.268	75.914	-0.074	-0.077
-125.253	57.163	-0.322	-0.310
-124.239	-111.534	-0.134	0.027
-123.224	800.000	0.004	0.012
-122.210	-200.000	-0.003	0.047
-121.195	-168.252	-0.307	0.012
-120.180	800.000	-0.090	0.266
