DTS Sentinel unit serial number:	SN413079Multiplexer serial number:	ORYXHardware model number:	OX4-SRSoftware version number:	ORYX F/W v4.00 Oryx Data Collector v3.7.2.0data status	okinstallation	princeton_trtdifferential loss correction	single-endedforward channel	channel 3reverse channel	N/Adate	2019/09/12time	15:22:11forward acquisition time	60.00reverse acquisition time	0.00gamma	496.2192k internal	0.2292k external	0.2292temperature offset calibration	1.0058default loss term (dB/km)	0.3790temperature slope calibration	1.0000multiplexer offset coefficient	1.0000multiplexer slope coefficient	1.0000fibre end	0.00T internal ref (°C)	40.77T ext. ref 1 (°C)	2.42T ext. ref 2 (°C)	35.79length (m)	temperature (°C)	Stokes	anti-Stokes-747.200	347.939	-0.053	0.107
-746.185	-45.605	-0.450	0.228
-745.171	3.047	0.088	-0.065
-744.156	800.000	0.046	-0.133
-743.142	-75.845	-0.114	0.041
-742.127	123.921	-0.230	0.296
-741.112	-14.366	0.022	0.015
-740.098	72.936	0.062	0.066
-739.083	-139.347	0.164	0.018
-738.069	-35.607	0.161	0.090
-737.054	210.765	-0.253	-0.406
-736.039	141.653	-0.145	-0.196
-735.025	-184.679	-0.142	-0.002
-734.010	-30.654	-0.226	0.131
-732.996	800.000	-0.148	-0.490
-731.981	-200.000	0.012	-0.182
-730.966	99.956	0.201	-0.238
-729.952	-55.995	-0.078	-0.036
-728.937	-200.000	-0.033	-0.210
-727.923	-64.381	-0.212	-0.088
-726.908	-128.931	0.170	-0.024
-725.894	-152.106	-0.253	-0.019
-724.879	-103.078	-0.240	-0.058
-723.864	800.000	-0.059	0.187
-722.850	-30.037	0.147	-0.085
-721.835	32.811	-0.169	-0.150
-720.821	800.000	0.088	-0.261
-719.806	-131.122	0.287	-0.039
-718.791	-114.433	0.408	0.080
-717.777	-200.000	0.037	-0.433
-716.762	46.253	-0.134	-0.127
-715.748	-114.142	0.430	-0.085
-714.733	44.473	-0.366	0.344
-713.718	-23.601	-0.130	-0.080
-712.704	229.773	0.139	-0.232
-711.689	207.908	-0.020	0.032
-710.675	175.428	0.085	-0.126
-709.660	134.550	0.067	-0.089
-708.645	43.853	-0.177	-0.166
-707.631	219.623	0.089	0.145
-706.616	-200.000	-0.046	0.216
-705.602	79.877	0.108	-0.119
-704.587	-112.537	-0.087	0.018
-703.572	-200.000	0.029	-0.324
-702.558	-200.000	0.177	0.001
-701.543	800.000	0.049	-0.212
-700.529	-200.000	0.093	-0.485
-699.514	-79.688	0.140	0.048
-698.499	217.065	0.054	-0.088
-697.485	800.000	-0.059	-0.250
-696.470	188.902	-0.084	-0.129
-695.456	142.573	-0.101	-0.136
-694.441	756.643	0.075	0.208
-693.426	332.992	0.113	-0.224
-692.412	-85.753	0.184	0.058
-691.397	-200.000	0.016	0.314
-690.383	-3.774	-0.235	-0.167
-689.368	-37.932	0.118	-0.064
-688.354	352.623	0.086	-0.174
-687.339	-200.000	-0.029	0.139
-686.324	74.516	-0.258	-0.278
-685.310	165.841	-0.197	-0.285
-684.295	223.733	-0.058	-0.096
-683.281	-200.000	0.001	-0.111
-682.266	91.635	0.120	-0.138
-681.251	800.000	-0.059	-0.229
-680.237	800.000	-0.110	0.340
-679.222	34.908	-0.296	0.265
-678.208	800.000	0.056	0.207
-677.193	40.178	-0.306	-0.281
-676.178	-18.291	0.106	-0.068
-675.164	504.398	-0.065	0.154
-674.149	42.647	-0.056	0.052
-673.135	9.567	-0.145	-0.112
-672.120	-14.682	-0.186	-0.122
-671.105	167.889	0.097	0.142
-670.091	-126.066	0.053	0.008
-669.076	141.071	-0.052	-0.070
-668.062	-28.777	0.035	-0.021
-667.047	-147.070	0.241	-0.021
-666.032	-200.000	0.362	0.001
-665.018	-12.918	-0.141	0.094
-664.003	800.000	0.046	-0.131
-662.989	192.830	0.210	-0.324
-661.974	559.379	-0.055	-0.136
-660.959	154.875	-0.232	0.325
-659.945	-36.295	-0.172	-0.095
-658.930	-41.681	-0.082	0.043
-657.916	-115.542	-0.249	-0.048
-656.901	135.448	-0.220	-0.292
-655.886	-200.000	-0.005	-0.025
-654.872	-78.301	-0.222	-0.078
-653.857	-85.307	-0.158	-0.050
-652.843	-36.280	0.197	-0.109
-651.828	-14.545	-0.091	-0.060
-650.814	-200.000	-0.064	-0.372
-649.799	-90.966	-0.266	-0.078
-648.784	293.290	0.025	-0.047
-647.770	4.537	-0.286	0.214
-646.755	-144.718	-0.181	0.017
-645.741	-200.000	0.093	-0.527
-644.726	800.000	0.113	0.345
-643.711	632.621	-0.027	0.069
-642.697	-200.000	-0.008	0.069
-641.682	800.000	-0.056	0.249
-640.668	-200.000	-0.005	-0.189
-639.653	35.449	-0.144	-0.129
-638.638	-186.965	0.139	0.002
-637.624	-85.367	-0.058	0.019
-636.609	-200.000	0.016	0.120
-635.595	48.134	0.118	-0.113
-634.580	-7.023	-0.111	0.077
-633.565	800.000	-0.032	-0.114
-632.551	126.318	0.108	-0.139
-631.536	-157.127	-0.261	0.016
-630.522	-84.465	-0.135	0.043
-629.507	19.442	0.237	-0.194
-628.492	204.679	0.182	0.287
-627.478	-200.000	-0.000	-0.008
-626.463	153.127	-0.071	0.098
-625.449	-200.000	0.005	-0.292
-624.434	322.189	0.086	-0.166
-623.419	44.105	-0.112	0.105
-622.405	-200.000	-0.011	0.134
-621.390	800.000	0.024	0.086
-620.376	2.550	-0.251	0.185
-619.361	-74.024	-0.222	0.082
-618.346	-12.860	0.357	-0.237
-617.332	-200.000	0.006	-0.103
-616.317	-200.000	-0.020	-0.139
-615.303	225.310	-0.065	0.107
-614.288	193.763	0.092	0.141
-613.273	576.016	0.107	0.267
-612.259	-200.000	-0.014	-0.106
-611.244	585.608	-0.152	-0.380
-610.230	665.560	-0.070	-0.184
-609.215	550.046	-0.058	-0.141
-608.201	277.021	-0.184	-0.333
-607.186	-200.000	0.011	-0.088
-606.171	-94.420	-0.262	0.073
-605.157	-63.333	-0.385	-0.161
-604.142	-67.598	0.201	-0.080
-603.128	-200.000	-0.011	0.310
-602.113	-52.701	-0.275	-0.129
-601.098	-108.916	0.105	0.023
-600.084	-200.000	0.077	0.383
-599.069	-200.000	-0.028	0.154
-598.055	126.205	-0.136	-0.175
-597.040	-200.000	-0.011	-0.069
-596.025	-9.667	-0.174	-0.118
-595.011	413.937	0.128	-0.276
-593.996	-200.000	0.028	-0.141
-592.982	138.979	0.046	-0.062
-591.967	-200.000	-0.026	0.140
-590.952	608.230	-0.026	-0.066
-589.938	800.000	-0.129	0.525
-588.923	-200.000	-0.039	0.213
-587.909	-91.938	0.210	0.061
-586.894	-200.000	-0.024	-0.154
-585.879	59.115	-0.123	-0.123
-584.865	-200.000	0.060	0.313
-583.850	-101.727	-0.525	-0.129
-582.836	-200.000	0.021	-0.280
-581.821	-77.807	0.151	-0.053
-580.806	-35.963	0.317	0.175
-579.792	6.293	-0.035	0.027
-578.777	-38.847	-0.207	0.111
-577.763	800.000	0.053	0.170
-576.748	254.874	-0.128	0.222
-575.733	-13.988	0.273	0.179
-574.719	-109.253	0.374	0.081
-573.704	-115.537	0.244	0.047
-572.690	-164.331	-0.074	0.003
-571.675	37.438	-0.294	-0.265
-570.661	-200.000	0.000	-0.202
-569.646	209.402	0.046	0.073
-568.631	-35.059	-0.154	0.085
-567.617	-61.011	0.088	-0.038
-566.602	800.000	-0.068	-0.202
-565.588	67.064	-0.183	0.190
-564.573	-122.782	0.057	0.009
-563.558	800.000	0.051	-0.149
-562.544	-38.158	-0.238	0.128
-561.529	7.010	0.094	-0.071
-560.515	-200.000	-0.012	-0.059
-559.500	279.674	0.109	-0.199
-558.485	-63.102	-0.099	-0.041
-557.471	668.299	-0.061	-0.160
-556.456	-200.000	-0.006	0.109
-555.442	-111.657	-0.142	0.029
-554.427	800.000	-0.103	-0.434
-553.412	-29.980	0.282	-0.163
-552.398	15.384	0.242	-0.193
-551.383	-56.103	0.157	0.071
-550.369	-44.272	0.236	-0.120
-549.354	244.937	0.063	-0.108
-548.339	-200.000	0.011	0.131
-547.325	-200.000	-0.030	0.170
-546.310	335.045	-0.043	-0.084
-545.296	800.000	-0.043	-0.175
-544.281	-45.137	-0.381	0.193
-543.266	-176.629	-0.161	0.004
-542.252	-200.000	-0.025	0.343
-541.237	5.106	0.246	-0.184
-540.223	184.154	0.157	-0.235
-539.208	413.637	-0.094	0.203
-538.193	-110.983	-0.049	0.010
-537.179	800.000	-0.052	-0.190
-536.164	-156.894	-0.247	-0.015
-535.150	-20.169	0.152	-0.095
-534.135	-169.853	-0.174	-0.006
-533.121	121.948	-0.088	-0.111
-532.106	0.944	0.195	0.142
-531.091	1.645	-0.190	-0.139
-530.077	197.407	-0.133	0.206
-529.062	-78.209	0.309	-0.108
-528.048	-173.721	-0.040	0.001
-527.033	33.065	-0.187	-0.165
-526.018	-200.000	0.028	-0.302
-525.004	656.207	0.025	0.065
-523.989	-155.348	-0.509	0.034
-522.975	800.000	-0.027	-0.096
-521.960	-200.000	-0.006	0.131
-520.945	-200.000	0.025	-0.263
-519.931	-112.154	0.154	0.031
-518.916	228.067	-0.204	-0.338
-517.902	800.000	0.051	-0.171
-516.887	728.443	-0.087	-0.235
-515.872	800.000	0.010	-0.028
-514.858	38.835	-0.161	-0.146
-513.843	-129.630	0.363	-0.051
-512.829	-80.690	-0.311	-0.105
-511.814	-82.177	-0.505	0.167
-510.799	800.000	-0.074	-0.296
-509.785	-139.130	0.135	-0.015
-508.770	-132.953	0.272	-0.035
-507.756	-95.887	0.196	0.053
-506.741	-16.975	0.126	0.081
-505.726	800.000	-0.090	-0.265
-504.712	-21.929	0.045	-0.028
-503.697	-1.505	-0.077	0.055
-502.683	488.704	0.107	-0.247
-501.668	-200.000	-0.002	0.103
-500.653	-200.000	0.062	-0.275
-499.639	463.123	0.065	-0.148
-498.624	114.314	-0.104	-0.128
-497.610	711.140	0.079	-0.213
-496.595	-200.000	0.047	0.299
-495.581	-200.000	-0.016	0.124
-494.566	-200.000	0.002	0.119
-493.551	465.008	0.162	-0.366
-492.537	-200.000	-0.002	0.262
-491.522	-200.000	0.056	-0.354
-490.508	96.621	-0.201	0.233
-489.493	9.941	-0.152	0.117
-488.478	-48.029	0.339	0.166
-487.464	321.776	0.019	-0.037
-486.449	-121.224	-0.215	-0.036
-485.435	-200.000	-0.047	0.322
-484.420	800.000	0.053	-0.200
-483.405	-128.317	0.314	-0.045
-482.391	800.000	0.044	0.164
-481.376	-200.000	-0.028	0.179
-480.362	126.712	-0.172	0.221
-479.347	149.657	-0.306	-0.420
-478.332	-171.212	0.114	0.004
-477.318	244.365	0.062	0.105
-476.303	468.826	0.108	-0.245
-475.289	40.727	0.149	0.136
-474.274	98.914	0.076	0.089
-473.259	136.917	0.119	-0.157
-472.245	800.000	0.003	0.012
-471.230	36.358	-0.479	0.428
-470.216	-24.015	0.307	-0.186
-469.201	800.000	-0.171	0.617
-468.186	349.283	0.051	0.101
-467.172	2.951	0.263	0.194
-466.157	52.452	-0.104	0.101
-465.143	-200.000	-0.064	0.369
-464.128	-2.112	-0.143	-0.102
-463.113	-200.000	0.058	-0.349
-462.099	-23.866	0.211	-0.128
-461.084	220.972	0.118	-0.191
-460.070	284.078	0.119	-0.216
-459.055	405.962	0.127	0.270
-458.040	800.000	-0.160	-0.593
-457.026	158.304	-0.264	0.370
-456.011	-77.382	-0.023	-0.008
-454.997	-110.743	0.161	0.034
-453.982	31.943	0.194	-0.169
-452.968	8.427	0.241	-0.183
-451.953	783.640	-0.054	0.150
-450.938	234.074	0.057	0.095
-449.924	274.828	0.177	0.317
-448.909	13.296	0.217	-0.171
-447.895	800.000	-0.062	0.184
-446.880	-184.151	0.355	0.006
-445.865	63.974	0.158	-0.161
-444.851	-159.326	0.436	-0.025
-443.836	189.971	-0.062	-0.093
-442.822	87.923	0.151	-0.169
-441.807	-101.700	0.127	-0.031
-440.792	-66.165	0.282	0.114
-439.778	95.447	-0.135	-0.156
-438.763	-133.304	-0.324	0.041
-437.749	-200.000	-0.012	-0.104
-436.734	311.832	0.106	-0.202
-435.719	-3.635	0.097	0.068
-434.705	218.712	-0.092	-0.149
-433.690	-103.714	0.060	-0.014
-432.676	-61.343	-0.273	-0.116
-431.661	-200.000	0.030	0.143
-430.646	-20.916	0.172	-0.107
-429.632	223.841	-0.161	0.262
-428.617	33.936	-0.136	0.120
-427.603	114.440	-0.042	0.052
-426.588	800.000	-0.079	0.344
-425.573	119.276	0.071	0.089
-424.559	-63.418	0.046	-0.019
-423.544	-46.200	-0.098	0.049
-422.530	-63.538	0.407	0.169
-421.515	-200.000	0.026	0.192
-420.500	-91.113	-0.058	0.017
-419.486	-113.327	0.229	0.045
-418.471	338.878	0.181	-0.357
-417.457	-14.320	0.079	0.051
-416.442	333.632	-0.092	-0.180
-415.428	226.803	0.189	0.311
-414.413	-200.000	-0.012	-0.205
-413.398	-191.190	-0.225	-0.002
-412.384	455.456	-0.126	0.282
-411.369	272.703	0.160	-0.285
-410.355	800.000	0.106	0.393
-409.340	-9.299	-0.101	0.068
-408.325	-149.838	0.116	-0.009
-407.311	56.201	-0.130	0.128
-406.296	28.068	-0.082	-0.070
-405.282	721.899	-0.074	-0.198
-404.267	47.296	-0.147	0.138
-403.252	81.043	-0.122	0.133
-402.238	-87.717	-0.209	0.064
-401.223	-200.000	-0.026	-0.367
-400.209	510.897	0.139	0.327
-399.194	-182.797	0.498	0.009
-398.179	472.644	0.041	-0.093
-397.165	-189.221	0.257	-0.003
-396.150	52.016	0.282	-0.271
-395.136	-1.277	-0.144	-0.103
-394.121	-200.000	0.006	0.074
-393.106	33.282	0.174	-0.153
-392.092	-21.083	0.218	0.135
-391.077	629.509	0.034	0.087
-390.063	428.043	0.126	-0.274
-389.048	5.632	0.229	-0.171
-388.033	704.339	0.079	0.212
-387.019	55.476	0.162	0.159
-386.004	-200.000	-0.020	0.310
-384.990	-13.043	0.124	0.082
-383.975	586.488	-0.045	-0.111
-382.960	-200.000	0.006	0.245
-381.946	114.784	-0.032	-0.039
-380.931	-11.062	-0.173	0.115
-379.917	145.110	-0.087	-0.117
-378.902	114.415	-0.074	0.091
-377.888	-109.603	0.212	0.045
-376.873	-128.522	0.238	-0.034
-375.858	-148.065	-0.138	-0.012
-374.844	383.996	0.068	0.142
-373.829	800.000	-0.072	0.226
-372.815	-155.972	-0.417	0.027
-371.800	-148.591	-0.142	-0.012
-370.785	44.329	-0.142	0.131
-369.771	-200.000	-0.017	0.211
-368.756	-200.000	0.016	0.227
-367.742	-132.004	-0.458	-0.060
-366.727	15.281	0.137	-0.108
-365.712	-69.962	-0.066	0.025
-364.698	800.000	-0.097	0.312
-363.683	80.781	-0.028	-0.031
-362.669	-19.507	-0.204	0.127
-361.654	-117.762	0.141	0.026
-360.639	76.294	0.187	0.200
-359.625	295.682	0.070	0.128
-358.610	678.762	-0.041	0.107
-357.596	605.218	-0.078	0.196
-356.581	-55.823	0.174	-0.079
-355.566	142.657	-0.122	0.163
-354.552	-173.651	-0.159	0.005
-353.537	-95.854	0.199	-0.054
-352.523	-136.613	0.065	0.008
-351.508	-8.350	-0.142	0.096
-350.493	-200.000	0.004	0.235
-349.479	133.557	0.100	0.130
-348.464	-145.549	0.233	0.021
-347.450	800.000	-0.094	0.356
-346.435	-6.303	0.169	0.116
-345.420	-131.251	0.540	-0.072
-344.406	-200.000	0.081	-0.374
-343.391	-132.662	-0.359	-0.046
-342.377	-162.448	-0.204	-0.010
-341.362	800.000	-0.049	-0.193
-340.348	-27.819	-0.019	0.011
-339.333	800.000	-0.132	0.374
-338.318	-114.182	-0.092	0.018
-337.304	-30.597	0.303	0.173
-336.289	260.908	0.108	0.187
-335.275	-18.898	0.260	0.163
-334.260	800.000	0.032	0.098
-333.245	-200.000	-0.004	-0.281
-332.231	-121.860	0.298	0.049
-331.216	606.299	0.044	-0.111
-330.202	73.050	0.449	-0.473
-329.187	-129.415	-0.177	-0.025
-328.172	-100.165	0.043	0.011
-327.158	-0.431	-0.091	-0.065
-326.143	-200.000	-0.023	0.114
-325.129	-94.267	0.010	-0.003
-324.114	-200.000	0.010	-0.323
-323.099	-200.000	-0.026	-0.185
-322.085	-4.884	0.318	0.221
-321.070	-11.569	-0.058	-0.038
-320.056	-103.611	0.077	0.018
-319.041	127.122	-0.135	0.173
-318.026	1.310	0.015	0.011
-317.012	157.485	0.143	0.199
-315.997	-53.165	0.212	0.098
-314.983	-21.406	-0.120	0.074
-313.968	-154.984	-0.248	-0.016
-312.953	350.478	0.089	0.178
-311.939	-101.793	0.007	-0.002
-310.924	-167.686	0.281	-0.011
-309.910	-117.283	-0.252	-0.046
-308.895	-200.000	-0.025	-0.206
-307.880	-85.401	-0.087	-0.027
-306.866	485.941	-0.027	0.062
-305.851	-80.607	0.128	0.043
-304.837	-200.000	0.079	0.499
-303.822	-156.580	-0.085	-0.005
-302.807	-73.032	0.272	-0.101
-301.793	-18.412	-0.185	0.116
-300.778	-150.251	-0.142	0.011
-299.764	78.311	-0.276	-0.296
-298.749	278.363	-0.332	-0.595
-297.735	-200.000	-0.059	-0.272
-296.720	-166.641	-0.116	-0.005
-295.705	-152.748	0.283	0.020
-294.691	31.163	0.192	-0.166
-293.676	-153.302	-0.164	-0.012
-292.662	176.330	0.169	-0.247
-291.647	648.095	-0.113	-0.290
-290.632	85.781	-0.247	0.273
-289.618	-1.923	-0.287	0.203
-288.603	-200.000	0.001	0.037
-287.589	687.363	0.111	0.292
-286.574	91.364	0.079	0.090
-285.559	21.860	0.275	0.225
-284.545	88.199	-0.161	-0.180
-283.530	-79.244	-0.235	0.080
-282.516	-93.958	-0.273	-0.075
-281.501	-60.330	0.158	0.068
-280.486	-113.801	-0.080	0.016
-279.472	800.000	0.042	0.149
-278.457	135.081	-0.049	0.064
-277.443	-139.520	0.046	0.005
-276.428	88.503	-0.096	0.107
-275.413	-121.251	0.245	-0.041
-274.399	-200.000	0.020	0.193
-273.384	-92.507	0.158	0.045
-272.370	-67.654	0.246	0.097
-271.355	269.728	-0.242	-0.428
-270.340	-200.000	0.049	0.306
-269.326	-200.000	0.038	0.279
-268.311	-200.000	0.050	-0.271
-267.297	-200.000	-0.072	0.404
-266.282	539.792	-0.133	0.318
-265.267	258.840	0.101	0.175
-264.253	-119.264	-0.178	0.031
-263.238	73.358	0.071	-0.075
-262.224	159.312	0.185	-0.258
-261.209	-93.566	-0.193	0.054
-260.195	800.000	-0.103	-0.318
-259.180	665.978	-0.097	-0.251
-258.165	160.057	0.145	-0.203
-257.151	-103.716	-0.272	-0.064
-256.136	-200.000	-0.025	-0.212
-255.122	800.000	-0.038	0.145
-254.107	26.956	-0.027	-0.023
-253.092	64.459	0.162	0.164
-252.078	-82.496	0.159	-0.052
-251.063	631.234	-0.166	0.422
-250.049	-39.697	-0.246	0.129
-249.034	32.273	-0.250	0.216
-248.019	-200.000	-0.025	-0.140
-247.005	71.967	-0.195	0.203
-245.990	716.977	0.150	-0.400
-244.976	-200.000	0.022	0.112
-243.961	-200.000	-0.016	0.144
-242.946	563.889	-0.192	-0.468
-241.932	800.000	-0.051	-0.211
-240.917	60.282	0.115	-0.114
-239.903	-29.937	-0.163	0.093
-238.888	122.150	0.124	-0.155
-237.873	-200.000	0.006	0.185
-236.859	-200.000	-0.031	0.270
-235.844	268.714	-0.078	0.136
-234.830	-200.000	0.016	-0.162
-233.815	-74.096	-0.404	-0.147
-232.800	-61.738	0.140	-0.059
-231.786	-33.594	0.185	-0.102
-230.771	105.341	-0.045	-0.053
-229.757	111.991	0.102	-0.123
-228.742	-200.000	-0.003	-0.051
-227.727	343.559	-0.081	0.160
-226.713	-147.093	-0.427	0.037
-225.698	208.610	-0.098	0.154
-224.684	633.382	0.107	0.272
-223.669	86.354	0.110	0.122
-222.655	266.720	-0.107	0.188
-221.640	626.564	-0.154	-0.390
-220.625	-200.000	0.008	0.076
-219.611	-158.064	0.350	0.021
-218.596	-200.000	-0.023	0.377
-217.582	701.964	0.021	0.056
-216.567	-200.000	-0.001	-0.076
-215.552	112.188	0.118	-0.143
-214.538	22.721	-0.183	-0.150
-213.523	147.783	0.139	-0.187
-212.509	-200.000	0.005	0.142
-211.494	74.997	-0.035	0.037
-210.479	800.000	-0.106	0.320
-209.465	-192.881	0.380	0.003
-208.450	800.000	-0.078	-0.232
-207.436	-200.000	0.048	-0.255
-206.421	19.133	-0.354	-0.284
-205.406	-74.990	0.339	-0.122
-204.392	800.000	-0.045	-0.133
-203.377	607.440	-0.052	-0.130
-202.363	800.000	0.047	-0.198
-201.348	800.000	-0.039	0.126
-200.333	-200.000	-0.004	0.243
-199.319	-87.804	0.121	-0.036
-198.304	800.000	0.073	-0.286
-197.290	800.000	0.069	-0.293
-196.275	800.000	-0.047	0.138
-195.260	-200.000	0.024	0.275
-194.246	681.747	0.129	-0.336
-193.231	800.000	0.027	-0.078
-192.217	-200.000	0.005	0.042
-191.202	-25.310	-0.330	0.196
-190.187	-145.070	-0.303	0.028
-189.173	-103.737	0.221	0.052
-188.158	218.864	-0.127	-0.204
-187.144	-200.000	0.007	-0.060
-186.129	-116.773	-0.224	-0.041
-185.114	-66.383	0.238	0.095
-184.100	-78.704	-0.186	-0.064
-183.085	-200.000	-0.039	-0.347
-182.071	575.392	0.087	-0.213
-181.056	-152.018	0.120	0.009
-180.042	373.702	0.109	-0.221
-179.027	-19.898	-0.142	-0.088
-178.012	-116.354	0.515	0.095
-176.998	472.636	0.080	-0.180
-175.983	-85.309	0.244	0.076
-174.969	800.000	0.094	0.327
-173.954	-200.000	0.013	0.132
-172.939	-200.000	0.036	0.194
-171.925	-132.402	0.264	0.034
-170.910	2.041	0.186	-0.135
-169.896	-43.416	0.106	-0.054
-168.881	328.895	0.093	0.178
-167.866	138.895	-0.133	-0.175
-166.852	-200.000	0.049	-0.309
-165.837	800.000	-0.124	0.360
-164.823	217.159	-0.209	-0.333
-163.808	53.104	0.108	-0.103
-162.793	-31.658	-0.383	0.215
-161.779	-60.133	-0.392	0.167
-160.764	-1.821	-0.112	0.079
-159.750	-100.496	0.309	0.077
-158.735	366.560	0.135	-0.272
-157.720	-33.634	-0.200	0.110
-156.706	-200.000	-0.030	0.261
-155.691	-161.518	-0.076	0.004
-154.677	0.262	-0.217	0.155
-153.662	435.541	-0.048	0.104
-152.647	142.904	-0.083	0.111
-151.633	221.254	-0.147	-0.237
-150.618	-49.252	-0.105	-0.050
-149.604	472.860	0.099	0.223
-148.589	-152.332	0.413	-0.030
-147.574	800.000	-0.115	-0.340
-146.560	-146.244	0.105	0.009
-145.545	36.528	0.069	0.061
-144.531	134.422	0.231	-0.300
-143.516	42.417	0.271	0.247
-142.502	-124.174	0.244	-0.038
-141.487	795.544	-0.097	-0.266
-140.472	63.743	-0.131	-0.132
-139.458	83.178	-0.091	-0.099
-138.443	-79.174	0.194	-0.066
-137.429	-135.653	-0.249	-0.029
-136.414	614.749	0.019	0.047
-135.399	-38.945	0.172	-0.091
-134.385	-27.183	-0.112	-0.065
-133.370	-71.617	-0.206	0.077
-132.356	-11.763	0.337	0.221
-131.341	-200.000	-0.015	-0.307
-130.326	800.000	0.057	-0.230
-129.312	105.645	0.105	0.124
-128.297	129.182	-0.056	0.071
-127.283	-43.228	-0.084	0.043
-126.268	-166.188	-0.066	-0.003
-125.253	-106.294	0.400	-0.089
-124.239	-68.003	0.098	0.038
-123.224	-78.164	-0.336	-0.115
-122.210	491.479	0.100	-0.228
