DTS Sentinel unit serial number:	SN413079Multiplexer serial number:	ORYXHardware model number:	OX4-SRSoftware version number:	ORYX F/W v4.00 Oryx Data Collector v3.7.2.0data status	okinstallation	princeton_trtdifferential loss correction	single-endedforward channel	channel 3reverse channel	N/Adate	2019/09/13time	22:12:35forward acquisition time	60.00reverse acquisition time	0.00gamma	496.2192k internal	0.2336k external	0.2336temperature offset calibration	1.0062default loss term (dB/km)	0.3790temperature slope calibration	1.0000multiplexer offset coefficient	1.0000multiplexer slope coefficient	1.0000fibre end	0.00T internal ref (°C)	27.91T ext. ref 1 (°C)	3.24T ext. ref 2 (°C)	22.65length (m)	temperature (°C)	Stokes	anti-Stokes-747.200	38.737	-0.213	-0.191
-746.185	-86.000	0.099	-0.031
-745.171	41.683	-0.073	0.067
-744.156	549.093	0.080	0.193
-743.142	300.464	0.122	-0.226
-742.127	-30.113	-0.296	0.169
-741.112	800.000	0.075	-0.215
-740.098	14.663	-0.050	0.039
-739.083	-178.215	-0.226	0.005
-738.069	-200.000	0.007	0.240
-737.054	46.994	-0.221	-0.207
-736.039	-131.680	-0.470	-0.062
-735.025	59.093	0.166	-0.164
-734.010	471.955	-0.254	0.574
-732.996	77.721	-0.210	0.225
-731.981	374.606	0.146	-0.300
-730.966	8.911	-0.202	-0.153
-729.952	-200.000	0.129	0.000
-728.937	38.462	-0.187	-0.167
-727.923	-58.419	0.177	0.077
-726.908	-110.624	-0.102	-0.021
-725.894	-200.000	-0.044	0.245
-724.879	406.389	-0.108	0.230
-723.864	376.077	0.053	0.108
-722.850	-200.000	0.075	-0.428
-721.835	-84.266	0.102	-0.032
-720.821	-200.000	-0.003	0.164
-719.806	-84.037	-0.137	0.044
-718.791	-200.000	-0.010	-0.195
-717.777	-70.529	-0.074	-0.028
-716.762	-153.905	0.048	0.003
-715.748	449.267	0.062	-0.137
-714.733	256.733	0.092	-0.158
-713.718	800.000	-0.160	-0.482
-712.704	-84.374	-0.146	0.046
-711.689	110.011	0.171	-0.206
-710.675	-56.463	-0.343	-0.152
-709.660	800.000	-0.037	0.137
-708.645	45.282	0.252	-0.233
-707.631	-200.000	0.009	-0.188
-706.616	329.134	-0.085	-0.164
-705.602	-98.646	0.094	0.024
-704.587	-2.411	-0.178	0.125
-703.572	-69.736	-0.364	0.139
-702.558	295.534	-0.118	-0.216
-701.543	2.291	-0.280	-0.203
-700.529	-77.082	-0.282	-0.099
-699.514	-39.529	0.235	0.124
-698.499	24.630	-0.083	-0.069
-697.485	375.865	-0.230	-0.470
-696.470	270.117	0.049	-0.086
-695.456	-112.439	-0.128	0.026
-694.441	-37.561	-0.132	-0.070
-693.426	-200.000	-0.051	-0.433
-692.412	12.939	0.048	0.038
-691.397	800.000	0.041	0.127
-690.383	31.343	0.188	-0.162
-689.368	736.297	-0.104	-0.280
-688.354	-25.714	0.044	0.026
-687.339	40.009	0.238	-0.215
-686.324	-193.211	-0.100	-0.001
-685.310	-116.606	-0.394	-0.073
-684.295	-108.500	0.376	0.081
-683.281	632.320	0.033	-0.083
-682.266	-151.925	0.182	-0.013
-681.251	-164.460	-0.495	0.023
-680.237	-17.721	0.275	0.173
-679.222	-122.215	0.167	0.027
-678.208	64.599	0.155	0.157
-677.193	125.251	-0.067	-0.084
-676.178	92.731	-0.142	0.161
-675.164	-101.678	0.234	0.057
-674.149	227.364	0.075	-0.123
-673.135	33.005	-0.193	-0.167
-672.120	-169.777	-0.230	0.008
-671.105	-164.552	0.285	0.013
-670.091	176.721	-0.173	-0.252
-669.076	800.000	-0.012	-0.041
-668.062	1.817	0.061	0.044
-667.047	-200.000	0.019	0.194
-666.032	-101.936	0.183	0.044
-665.018	-200.000	0.032	0.427
-664.003	800.000	0.046	0.170
-662.989	-161.347	-0.210	0.011
-661.974	240.018	0.101	-0.169
-660.959	54.179	-0.093	0.089
-659.945	-200.000	-0.015	0.216
-658.930	263.439	0.059	-0.102
-657.916	-193.630	-0.087	0.001
-656.901	-189.475	-0.492	-0.006
-655.886	-46.651	-0.044	-0.021
-654.872	800.000	-0.071	0.239
-653.857	736.758	-0.133	0.358
-652.843	-87.706	-0.066	0.020
-651.828	-173.815	-0.250	-0.007
-650.814	13.185	-0.339	-0.263
-649.799	-200.000	-0.042	-0.377
-648.784	78.924	-0.242	0.259
-647.770	18.396	-0.291	0.233
-646.755	-9.871	0.262	-0.175
-645.741	-200.000	-0.000	-0.495
-644.726	-61.009	0.329	-0.139
-643.711	-39.838	-0.329	0.172
-642.697	252.981	-0.051	0.087
-641.682	209.127	0.139	0.218
-640.668	-99.648	0.246	0.062
-639.653	67.016	0.066	-0.067
-638.638	-9.160	0.096	-0.064
-637.624	52.096	-0.116	-0.110
-636.609	-200.000	-0.045	-0.206
-635.595	-200.000	-0.020	0.104
-634.580	-62.754	0.294	0.122
-633.565	-200.000	0.026	0.403
-632.551	800.000	0.057	-0.164
-631.536	232.973	-0.052	0.085
-630.522	800.000	0.015	0.064
-629.507	-200.000	0.020	0.162
-628.492	563.434	-0.070	0.170
-627.478	570.918	0.037	-0.090
-626.463	145.176	0.036	-0.048
-625.449	110.007	0.042	0.050
-624.434	-200.000	-0.007	-0.086
-623.419	17.006	-0.114	0.090
-622.405	-133.903	0.121	0.015
-621.390	800.000	-0.047	0.178
-620.376	135.963	-0.153	0.199
-619.361	88.372	0.013	0.014
-618.346	-78.446	0.235	-0.080
-617.332	553.141	-0.042	0.100
-616.317	175.524	-0.223	0.323
-615.303	-131.923	-0.554	0.072
-614.288	800.000	-0.051	0.181
-613.273	-115.506	-0.125	0.024
-612.259	-107.705	0.293	-0.064
-611.244	800.000	-0.027	0.108
-610.230	263.479	-0.212	-0.369
-609.215	66.434	0.226	-0.230
-608.201	-91.721	-0.391	-0.111
-607.186	508.504	-0.050	-0.116
-606.171	344.190	0.072	-0.141
-605.157	-138.742	0.190	0.021
-604.142	116.331	-0.228	-0.279
-603.128	-200.000	0.020	0.154
-602.113	46.071	-0.091	0.084
-601.098	-15.243	0.062	0.040
-600.084	-94.032	-0.211	0.058
-599.069	800.000	-0.074	-0.267
-598.055	-31.408	-0.072	0.041
-597.040	185.984	-0.190	-0.283
-596.025	-106.375	-0.072	0.016
-595.011	142.118	0.151	-0.199
-593.996	192.018	-0.030	-0.045
-592.982	194.621	0.085	-0.129
-591.967	-163.245	-0.135	-0.006
-590.952	225.338	0.161	-0.260
-589.938	-64.927	-0.414	-0.167
-588.923	0.985	0.150	-0.107
-587.909	125.716	-0.239	-0.301
-586.894	-200.000	-0.063	-0.447
-585.879	-67.538	0.106	-0.041
-584.865	425.722	-0.080	-0.171
-583.850	-70.673	-0.338	0.128
-582.836	41.725	0.086	-0.078
-581.821	32.116	0.134	-0.115
-580.806	-200.000	-0.008	-0.062
-579.792	-61.263	-0.171	-0.072
-578.777	-200.000	-0.032	-0.264
-577.763	-178.218	-0.084	0.002
-576.748	-84.708	-0.089	-0.028
-575.733	261.322	-0.070	-0.121
-574.719	-119.774	0.090	-0.015
-573.704	723.949	-0.105	-0.280
-572.690	217.200	-0.035	-0.056
-571.675	-89.087	0.144	-0.043
-570.661	-149.750	-0.157	-0.012
-569.646	18.902	0.076	0.060
-568.631	-200.000	-0.050	0.317
-567.617	-27.456	0.160	-0.093
-566.602	304.054	0.061	-0.113
-565.588	576.615	0.087	0.212
-564.573	126.184	0.121	0.152
-563.558	-146.858	-0.150	-0.013
-562.544	205.295	-0.109	-0.169
-561.529	330.122	0.042	-0.080
-560.515	-200.000	-0.001	0.162
-559.500	187.459	0.041	-0.061
-558.485	800.000	-0.028	-0.097
-557.471	800.000	-0.025	-0.073
-556.456	172.458	0.114	-0.163
-555.442	800.000	-0.104	-0.400
-554.427	-81.094	0.244	-0.081
-553.412	-124.488	0.417	-0.065
-552.398	-79.733	-0.305	-0.102
-551.383	800.000	-0.092	-0.317
-550.369	-200.000	0.021	-0.240
-549.354	178.366	0.109	-0.159
-548.339	-200.000	-0.039	-0.476
-547.325	800.000	0.113	0.324
-546.310	-200.000	-0.001	-0.213
-545.296	-45.312	0.242	-0.120
-544.281	194.706	-0.256	0.386
-543.266	-15.647	-0.326	0.208
-542.252	800.000	0.058	-0.192
-541.237	-142.649	0.112	-0.011
-540.223	421.936	-0.081	0.174
-539.208	462.328	0.085	-0.189
-538.193	34.166	0.346	0.300
-537.179	-54.604	0.141	-0.063
-536.164	-200.000	0.012	-0.244
-535.150	-200.000	-0.036	-0.367
-534.135	43.107	0.056	-0.051
-533.121	-200.000	-0.006	-0.140
-532.106	75.029	-0.085	-0.089
-531.091	-89.144	-0.447	-0.132
-530.077	-113.009	0.347	-0.068
-529.062	257.941	0.182	0.312
-528.048	65.787	-0.132	-0.133
-527.033	-200.000	0.002	0.066
-526.018	-91.669	-0.446	0.126
-525.004	-76.554	-0.126	-0.044
-523.989	103.618	-0.155	0.181
-522.975	189.530	0.206	-0.307
-521.960	-200.000	-0.043	-0.238
-520.945	-21.469	-0.072	-0.044
-519.931	-200.000	-0.015	0.244
-518.916	-200.000	0.035	0.390
-517.902	-200.000	0.023	0.632
-516.887	-104.604	0.321	0.074
-515.872	5.933	0.110	-0.081
-514.858	166.421	0.163	0.230
-513.843	-44.553	-0.366	-0.182
-512.829	-127.735	-0.190	-0.027
-511.814	10.903	-0.204	0.155
-510.799	117.269	0.075	0.092
-509.785	-128.520	0.281	0.040
-508.770	529.615	0.133	0.313
-507.756	-135.083	-0.187	-0.022
-506.741	200.482	0.125	0.192
-505.726	-200.000	0.002	0.077
-504.712	800.000	-0.052	-0.196
-503.697	-97.117	0.137	-0.036
-502.683	-132.983	-0.185	0.023
-501.668	-38.345	0.190	-0.100
-500.653	-5.556	0.114	-0.078
-499.639	-120.880	0.502	0.084
-498.624	92.839	-0.061	0.069
-497.610	241.899	0.045	-0.075
-496.595	-180.090	0.342	-0.007
-495.581	-120.583	-0.120	-0.020
-494.566	-112.485	-0.195	-0.039
-493.551	-200.000	-0.042	-0.195
-492.537	74.615	-0.023	0.024
-491.522	-200.000	0.004	0.287
-490.508	-200.000	-0.048	0.312
-489.493	86.225	-0.088	0.096
-488.478	800.000	-0.089	0.371
-487.464	42.125	0.132	-0.119
-486.449	-24.986	-0.232	-0.137
-485.435	156.007	0.220	-0.302
-484.420	-200.000	-0.094	-0.513
-483.405	-2.884	-0.162	0.113
-482.391	-145.290	0.100	0.009
-481.376	529.330	-0.096	0.225
-480.362	356.433	-0.063	0.125
-479.347	-200.000	0.023	-0.283
-478.332	-147.293	-0.068	-0.006
-477.318	-62.710	0.195	0.080
-476.303	-51.994	-0.280	-0.130
-475.289	612.877	-0.148	0.368
-474.274	410.487	-0.102	0.214
-473.259	-200.000	0.000	-0.202
-472.245	-100.962	-0.197	0.048
-471.230	-174.392	0.212	-0.006
-470.216	-9.076	-0.231	-0.154
-469.201	454.755	0.093	-0.204
-468.186	279.751	-0.047	0.083
-467.172	73.080	-0.255	-0.265
-466.157	734.567	-0.121	-0.321
-465.143	613.440	-0.071	-0.176
-464.128	547.595	0.032	-0.077
-463.113	-112.796	-0.141	0.028
-462.099	-72.504	0.326	-0.120
-461.084	354.821	-0.120	-0.237
-460.070	53.120	-0.170	0.161
-459.055	409.258	-0.034	0.072
-458.040	-200.000	-0.034	0.176
-457.026	-200.000	-0.048	0.396
-456.011	185.986	0.055	0.081
-454.997	-115.869	-0.082	-0.015
-453.982	6.068	0.101	-0.074
-452.968	382.693	-0.162	0.332
-451.953	-67.497	0.029	-0.011
-450.938	800.000	-0.077	0.249
-449.924	115.716	0.057	0.069
-448.909	-137.663	-0.194	0.022
-447.895	-200.000	-0.006	0.054
-446.880	176.076	-0.119	-0.171
-445.865	352.250	0.191	0.376
-444.851	-99.379	0.121	0.030
-443.836	-200.000	-0.006	0.043
-442.822	-55.290	-0.083	-0.037
-441.807	-27.689	0.128	0.074
-440.792	20.898	-0.096	-0.077
-439.778	-79.286	-0.211	0.071
-438.763	-105.945	0.607	0.136
-437.749	-27.258	0.103	0.059
-436.734	-143.186	0.088	-0.008
-435.719	-79.920	-0.301	0.100
-434.705	-200.000	0.001	-0.150
-433.690	-55.615	0.156	-0.069
-432.676	153.508	-0.040	-0.054
-431.661	-12.651	0.180	0.116
-430.646	-136.551	0.187	0.022
-429.632	-200.000	-0.006	0.042
-428.617	800.000	-0.046	-0.168
-427.603	138.240	-0.243	0.317
-426.588	45.686	0.175	-0.161
-425.573	-67.281	0.230	0.090
-424.559	-94.202	-0.252	-0.068
-423.544	800.000	0.130	-0.367
-422.530	-101.891	0.182	-0.044
-421.515	30.292	-0.370	0.314
-420.500	-31.894	0.137	-0.076
-419.486	-148.663	0.080	-0.006
-418.471	-200.000	0.043	0.241
-417.457	-176.649	0.242	0.006
-416.442	-61.143	-0.236	0.099
-415.428	-10.129	-0.096	0.063
-414.413	-108.836	-0.181	0.038
-413.398	-200.000	0.074	-0.398
-412.384	-200.000	0.054	0.243
-411.369	-197.753	-0.157	0.001
-410.355	427.680	-0.043	-0.093
-409.340	95.709	-0.104	-0.118
-408.325	-200.000	0.007	0.119
-407.311	-142.963	-0.338	-0.032
-406.296	101.101	0.119	-0.138
-405.282	433.150	0.037	-0.079
-404.267	610.172	-0.106	0.264
-403.252	-78.465	-0.223	0.076
-402.238	-117.775	0.137	0.024
-401.223	-200.000	0.017	0.247
-400.209	39.104	-0.241	0.213
-399.194	255.029	0.197	0.334
-398.179	-85.609	0.272	0.084
-397.165	629.450	-0.141	-0.354
-396.150	248.608	0.219	0.367
-395.136	-136.768	0.201	-0.023
-394.121	-159.579	0.332	-0.018
-393.106	94.775	-0.150	0.169
-392.092	-13.863	-0.173	-0.111
-391.077	-200.000	0.021	-0.153
-390.063	-200.000	0.002	0.061
-389.048	-200.000	0.042	-0.331
-388.033	21.185	-0.091	0.073
-387.019	-146.630	-0.177	-0.015
-386.004	400.214	0.135	-0.281
-384.990	21.222	-0.280	-0.225
-383.975	217.163	0.055	-0.087
-382.960	-129.164	-0.354	0.049
-381.946	-200.000	0.027	-0.139
-380.931	557.559	0.139	-0.331
-379.917	-152.073	0.124	0.009
-378.902	207.150	-0.220	0.340
-377.888	-200.000	0.005	-0.172
-376.873	800.000	-0.076	-0.233
-375.858	-200.000	-0.032	0.173
-374.844	83.677	0.161	0.174
-373.829	246.903	-0.150	-0.250
-372.815	-27.541	0.280	-0.161
-371.800	114.588	-0.120	-0.145
-370.785	-89.502	-0.154	-0.045
-369.771	-127.344	0.236	0.034
-368.756	-159.167	-0.475	-0.026
-367.742	-110.586	-0.366	-0.075
-366.727	610.312	-0.007	-0.016
-365.712	104.338	0.087	0.101
-364.698	-123.222	0.191	-0.030
-363.683	-58.010	-0.383	0.165
-362.669	800.000	-0.035	0.125
-361.654	-200.000	-0.020	0.107
-360.639	-22.471	-0.032	0.019
-359.625	-200.000	0.030	0.191
-358.610	294.923	-0.021	0.037
-357.596	-143.004	0.037	-0.004
-356.581	-200.000	-0.020	0.315
-355.566	-200.000	-0.017	-0.086
-354.552	170.819	-0.127	-0.179
-353.537	-200.000	0.026	0.170
-352.523	488.475	-0.091	-0.205
-351.508	-200.000	-0.001	-0.249
-350.493	800.000	-0.021	-0.064
-349.479	800.000	-0.055	0.224
-348.464	8.501	0.112	0.083
-347.450	372.598	-0.090	-0.181
-346.435	173.986	-0.087	-0.124
-345.420	-62.086	-0.180	-0.074
-344.406	-77.334	0.258	-0.089
-343.391	-173.892	0.234	0.007
-342.377	-72.417	0.210	0.077
-341.362	109.738	0.127	0.150
-340.348	-200.000	0.028	-0.122
-339.333	3.497	0.110	-0.079
-338.318	26.054	-0.102	-0.084
-337.304	-23.153	-0.134	-0.079
-336.289	81.355	-0.041	0.044
-335.275	196.840	-0.024	0.037
-334.260	-53.107	0.226	0.103
-333.245	139.544	0.189	0.246
-332.231	634.198	-0.128	0.321
-331.216	800.000	0.147	0.458
-330.202	213.226	-0.120	0.187
-329.187	77.738	0.125	-0.132
-328.172	-200.000	-0.093	0.409
-327.158	129.210	-0.035	-0.045
-326.143	-119.146	-0.114	-0.020
-325.129	41.746	-0.175	0.157
-324.114	-136.284	0.185	-0.021
-323.099	-200.000	-0.006	0.281
-322.085	800.000	0.059	0.234
-321.070	93.017	0.108	-0.120
-320.056	14.047	0.121	-0.093
-319.041	203.935	0.074	-0.113
-318.026	-132.879	0.320	0.040
-317.012	-108.322	-0.122	-0.026
-315.997	149.854	0.224	-0.300
-314.983	86.702	-0.238	-0.260
-313.968	101.620	0.172	0.198
-312.953	800.000	-0.108	-0.310
-311.939	345.123	0.078	-0.150
-310.924	-59.599	0.169	0.072
-309.910	67.404	0.222	0.224
-308.895	-141.183	-0.320	0.032
-307.880	-87.932	-0.270	0.080
-306.866	-200.000	0.032	0.476
-305.851	420.733	-0.066	0.140
-304.837	65.454	0.078	-0.078
-303.822	-69.940	-0.251	-0.095
-302.807	-88.214	0.359	-0.106
-301.793	800.000	0.149	0.446
-300.778	481.529	0.057	0.127
-299.764	-26.463	0.084	-0.049
-298.749	-24.165	-0.360	-0.212
-297.735	-96.098	0.265	-0.069
-296.720	-200.000	-0.033	-0.205
-295.705	408.627	-0.210	0.440
-294.691	-125.854	-0.062	0.009
-293.676	-200.000	0.001	-0.208
-292.662	73.173	-0.100	0.103
-291.647	-200.000	-0.022	-0.487
-290.632	800.000	-0.059	-0.216
-289.618	-81.124	-0.107	0.035
-288.603	48.299	-0.183	-0.169
-287.589	122.183	0.133	-0.164
-286.574	109.842	0.204	-0.241
-285.559	-24.377	0.053	0.031
-284.545	-200.000	0.045	0.258
-283.530	300.947	0.080	0.145
-282.516	81.210	0.192	0.204
-281.501	84.073	0.321	0.346
-280.486	-200.000	0.021	-0.185
-279.472	-200.000	0.054	0.285
-278.457	20.353	-0.347	-0.277
-277.443	81.462	0.006	0.006
-276.428	-200.000	0.040	0.215
-275.413	800.000	0.008	0.024
-274.399	-200.000	-0.030	0.483
-273.384	-122.053	-0.105	0.017
-272.370	326.616	0.149	-0.282
-271.355	-74.561	0.244	0.087
-270.340	-54.928	0.361	-0.160
-269.326	153.503	-0.169	-0.228
-268.311	-112.582	0.416	0.082
-267.297	-200.000	-0.039	-0.381
-266.282	-63.195	-0.262	0.106
-265.267	1.332	0.216	-0.153
-264.253	225.305	0.155	-0.247
-263.238	44.542	0.238	-0.215
-262.224	-18.170	-0.314	0.194
-261.209	444.883	-0.036	0.078
-260.195	36.371	0.330	0.287
-259.180	-85.257	0.102	-0.032
-258.165	-91.523	0.180	0.051
-257.151	389.219	-0.147	-0.300
-256.136	118.629	-0.100	0.122
-255.122	-57.695	0.225	-0.097
-254.107	306.644	-0.051	0.094
-253.092	-200.000	-0.001	0.139
-252.078	800.000	-0.035	0.118
-251.063	-21.066	0.068	0.041
-250.049	-90.387	-0.395	0.113
-249.034	800.000	-0.055	0.229
-248.019	-200.000	-0.036	-0.205
-247.005	-47.791	-0.256	-0.122
-245.990	-192.255	-0.111	-0.001
-244.976	66.056	0.271	-0.271
-243.961	-82.836	-0.152	-0.048
-242.946	-200.000	0.037	0.185
-241.932	55.983	0.258	0.247
-240.917	-77.137	0.222	0.076
-239.903	569.023	-0.068	0.162
-238.888	-73.463	-0.209	0.075
-237.873	77.991	0.156	-0.163
-236.859	-67.892	0.122	-0.047
-235.844	800.000	-0.046	0.143
-234.830	-128.538	-0.394	0.055
-233.815	146.243	0.102	0.135
-232.800	209.309	-0.060	-0.092
-231.786	-169.628	0.303	0.011
-230.771	-161.382	0.552	0.028
-229.757	-9.476	-0.122	0.080
-228.742	75.952	0.133	-0.139
-227.727	24.178	-0.375	0.305
-226.713	-200.000	0.076	0.526
-225.698	-200.000	-0.032	-0.235
-224.684	-28.527	0.162	0.092
-223.669	-200.000	-0.027	-0.211
-222.655	578.909	-0.088	0.213
-221.640	-25.810	0.334	0.194
-220.625	-28.593	0.282	-0.160
-219.611	190.032	0.088	-0.130
-218.596	96.847	-0.223	-0.252
-217.582	-36.501	0.214	-0.113
-216.567	-41.186	-0.067	-0.034
-215.552	45.775	-0.229	-0.208
-214.538	27.965	-0.288	0.239
-213.523	459.586	-0.143	-0.314
-212.509	-150.991	-0.197	-0.015
-211.494	-103.666	0.057	-0.013
-210.479	-20.423	0.347	0.210
-209.465	129.178	0.061	0.076
-208.450	-76.943	-0.343	-0.118
-207.436	4.218	0.033	0.023
-206.421	-200.000	-0.022	0.336
-205.406	151.433	0.097	0.130
-204.392	-92.783	-0.072	0.020
-203.377	-52.545	-0.182	-0.083
-202.363	800.000	0.100	-0.285
-201.348	-76.526	0.301	-0.104
-200.333	-66.421	-0.405	0.158
-199.319	-80.827	0.288	0.094
-198.304	-105.569	-0.373	0.083
-197.290	-17.458	0.117	-0.073
-196.275	384.803	-0.090	-0.182
-195.260	-90.673	-0.148	-0.042
-194.246	-122.195	0.137	-0.022
-193.231	418.045	-0.036	-0.077
-192.217	-55.544	0.241	0.106
-191.202	259.635	0.033	0.055
-190.187	33.857	-0.157	-0.134
-189.173	-161.097	-0.202	0.010
-188.158	-200.000	-0.009	-0.238
-187.144	-2.873	0.176	-0.121
-186.129	239.037	0.071	0.115
-185.114	-9.154	-0.148	0.097
-184.100	311.690	-0.041	-0.075
-183.085	14.060	-0.022	-0.017
-182.071	-86.778	-0.088	-0.026
-181.056	-63.066	0.069	0.028
-180.042	21.658	0.068	-0.055
-179.027	352.483	-0.088	0.172
-178.012	-58.421	0.146	-0.063
-176.998	68.274	-0.174	-0.175
-175.983	-119.657	0.239	-0.041
-174.969	-41.134	0.248	-0.126
-173.954	-151.265	-0.195	-0.014
-172.939	-200.000	0.002	0.034
-171.925	174.195	0.189	-0.269
-170.910	-106.087	-0.330	0.073
-169.896	-93.254	0.497	0.136
-168.881	85.199	-0.051	-0.054
-167.866	-41.255	0.036	0.018
-166.852	-200.000	0.083	0.474
-165.837	148.044	0.122	0.161
-164.823	-165.409	0.310	0.013
-163.808	-62.406	-0.111	-0.045
-162.793	92.890	0.108	0.120
-161.779	-95.239	-0.062	0.016
-160.764	-32.606	0.315	0.172
-159.750	-1.575	0.146	0.101
-158.735	2.429	0.102	0.072
-157.720	-200.000	0.018	0.184
-156.706	157.536	0.058	-0.079
-155.691	-45.688	-0.214	-0.104
-154.677	800.000	-0.055	0.209
-153.662	-148.007	-0.173	0.014
-152.647	-100.982	-0.100	-0.024
-151.633	-73.484	0.368	0.132
-150.618	-64.303	0.048	0.019
-149.604	800.000	0.052	-0.189
-148.589	800.000	-0.092	-0.328
-147.574	800.000	0.060	-0.185
-146.560	-159.928	-0.428	0.023
-145.545	-32.031	-0.086	-0.047
-144.531	235.961	-0.082	-0.133
-143.516	800.000	0.029	-0.082
-142.502	-118.439	0.298	0.052
-141.487	501.870	0.131	0.297
-140.472	-68.942	0.292	0.111
-139.458	-41.059	-0.259	0.131
-138.443	160.238	-0.106	0.145
-137.429	-37.634	-0.263	0.138
-136.414	-53.237	0.213	0.096
-135.399	-170.833	-0.151	0.005
-134.385	-137.079	-0.326	0.036
-133.370	-52.262	0.155	0.070
-132.356	303.982	-0.119	0.216
-131.341	-200.000	-0.009	0.113
-130.326	68.641	0.162	-0.163
-129.312	-57.781	-0.121	0.052
-128.297	511.934	0.050	0.115
-127.283	-30.870	-0.271	-0.150
-126.268	-200.000	-0.024	-0.127
-125.253	-107.940	0.146	-0.031
-124.239	-200.000	0.033	-0.168
-123.224	-200.000	-0.005	-0.096
-122.210	-164.293	-0.455	-0.020
