DTS Sentinel unit serial number:	SN413079Multiplexer serial number:	ORYXHardware model number:	OX4-SRSoftware version number:	ORYX F/W v4.00 Oryx Data Collector v3.7.2.0data status	okinstallation	princeton_trtdifferential loss correction	single-endedforward channel	channel 3reverse channel	N/Adate	2019/09/17time	19:32:35forward acquisition time	60.00reverse acquisition time	0.00gamma	496.2192k internal	0.2311k external	0.2311temperature offset calibration	0.9952default loss term (dB/km)	0.3790temperature slope calibration	1.0000multiplexer offset coefficient	1.0000multiplexer slope coefficient	1.0000fibre end	0.00T internal ref (°C)	36.39T ext. ref 1 (°C)	0.26T ext. ref 2 (°C)	24.97length (m)	temperature (°C)	Stokes	anti-Stokes-747.200	25.192	0.369	0.311
-746.185	-30.323	-0.071	-0.041
-745.171	-200.000	0.029	-0.185
-744.156	279.528	-0.266	0.482
-743.142	-143.135	0.034	-0.003
-742.127	-200.000	0.002	0.221
-741.112	1.120	0.147	0.107
-740.098	-51.109	0.268	0.128
-739.083	256.845	-0.033	-0.058
-738.069	463.757	-0.104	0.236
-737.054	356.570	-0.085	0.173
-736.039	-135.428	-0.146	-0.018
-735.025	-152.488	-0.103	0.007
-734.010	-40.982	0.133	0.070
-732.996	115.417	-0.127	-0.158
-731.981	206.399	-0.203	-0.321
-730.966	112.719	-0.153	-0.188
-729.952	37.278	0.160	-0.144
-728.937	-52.889	0.207	0.097
-727.923	58.693	-0.057	-0.057
-726.908	-34.950	-0.263	-0.146
-725.894	17.777	0.122	-0.099
-724.879	800.000	0.194	-0.592
-723.864	73.058	0.193	-0.204
-722.850	-93.848	-0.151	0.042
-721.835	-200.000	-0.131	-0.000
-720.821	-109.168	-0.240	0.052
-719.806	-101.286	-0.037	-0.009
-718.791	-200.000	-0.064	-0.289
-717.777	163.981	-0.117	-0.167
-716.762	629.746	0.077	-0.197
-715.748	-200.000	-0.005	-0.226
-714.733	-108.757	-0.149	0.032
-713.718	688.038	0.025	0.067
-712.704	319.469	-0.112	0.216
-711.689	6.324	-0.171	-0.129
-710.675	26.330	-0.207	-0.175
-709.660	505.775	0.101	-0.237
-708.645	-200.000	-0.018	0.307
-707.631	800.000	0.086	-0.341
-706.616	166.299	-0.091	0.130
-705.602	-93.384	-0.102	-0.029
-704.587	128.089	-0.088	-0.113
-703.572	-200.000	-0.009	0.320
-702.558	-59.411	0.275	0.120
-701.543	-76.265	0.067	-0.024
-700.529	800.000	0.081	-0.299
-699.514	-101.173	0.304	0.075
-698.499	72.712	0.148	0.156
-697.485	-135.219	0.350	-0.043
-696.470	-133.721	0.257	0.033
-695.456	800.000	0.017	0.063
-694.441	-200.000	-0.052	-0.440
-693.426	-28.193	-0.146	-0.086
-692.412	-103.364	-0.151	-0.036
-691.397	-200.000	0.021	-0.388
-690.383	17.568	0.083	0.067
-689.368	-26.263	0.359	0.214
-688.354	800.000	0.040	0.161
-687.339	-141.778	-0.146	0.015
-686.324	304.182	0.197	0.370
-685.310	103.674	-0.188	0.223
-684.295	-31.640	-0.380	0.216
-683.281	31.108	-0.206	0.179
-682.266	190.215	-0.015	0.022
-681.251	-127.488	0.170	-0.025
-680.237	-57.164	-0.221	-0.099
-679.222	-148.132	0.260	0.022
-678.208	573.317	0.054	0.133
-677.193	-77.951	-0.223	-0.078
-676.178	112.948	0.088	0.108
-675.164	545.049	0.084	0.203
-674.149	-41.612	0.177	-0.092
-673.135	-142.526	0.248	-0.025
-672.120	-200.000	-0.002	-0.046
-671.105	800.000	-0.045	-0.144
-670.091	-99.810	0.541	-0.137
-669.076	-119.261	-0.169	-0.030
-668.062	-19.755	-0.079	-0.050
-667.047	800.000	0.092	-0.303
-666.032	66.564	-0.134	-0.138
-665.018	59.307	-0.161	-0.160
-664.003	-36.674	-0.266	0.145
-662.989	759.765	0.041	0.113
-661.974	407.288	0.058	-0.124
-660.959	417.849	0.155	0.335
-659.945	162.257	0.183	0.260
-658.930	25.142	0.067	0.057
-657.916	91.061	-0.136	0.155
-656.901	-77.185	-0.126	-0.045
-655.886	-139.432	-0.385	-0.042
-654.872	-7.492	-0.187	-0.128
-653.857	-200.000	-0.022	-0.304
-652.843	42.335	-0.294	-0.270
-651.828	474.290	-0.057	0.131
-650.814	390.537	-0.047	-0.099
-649.799	-186.371	-0.248	0.004
-648.784	-200.000	-0.000	0.163
-647.770	-200.000	-0.033	-0.194
-646.755	-50.011	-0.117	0.056
-645.741	-93.786	-0.155	-0.043
-644.726	-200.000	-0.002	-0.097
-643.711	4.569	-0.142	-0.106
-642.697	800.000	-0.084	0.271
-641.682	-200.000	-0.007	0.565
-640.668	-89.455	0.068	-0.020
-639.653	-44.211	-0.191	0.097
-638.638	-200.000	0.053	0.404
-637.624	69.940	-0.280	0.292
-636.609	-200.000	0.003	0.436
-635.595	30.085	0.096	-0.083
-634.580	317.168	0.089	0.171
-633.565	800.000	0.049	-0.212
-632.551	-41.747	-0.254	0.132
-631.536	-186.140	-0.214	0.003
-630.522	273.543	-0.158	0.283
-629.507	128.117	-0.051	0.065
-628.492	-32.056	-0.132	-0.075
-627.478	-121.819	0.191	0.032
-626.463	-23.754	0.134	-0.081
-625.449	117.601	0.114	-0.141
-624.434	-2.254	-0.026	-0.019
-623.419	-129.574	-0.208	0.029
-622.405	-200.000	0.006	-0.051
-621.390	-200.000	0.004	-0.050
-620.376	800.000	0.083	0.278
-619.361	-200.000	0.010	-0.154
-618.346	86.235	-0.056	-0.062
-617.332	667.014	-0.048	-0.124
-616.317	-131.160	0.139	-0.019
-615.303	204.704	0.095	0.149
-614.288	6.619	-0.162	0.122
-613.273	-103.008	-0.202	0.048
-612.259	89.339	-0.094	-0.106
-611.244	7.363	-0.134	0.101
-610.230	-180.751	0.259	-0.005
-609.215	-6.767	-0.104	-0.071
-608.201	320.212	-0.075	0.143
-607.186	-200.000	0.029	-0.225
-606.171	239.196	-0.182	-0.306
-605.157	800.000	-0.145	-0.623
-604.142	124.288	0.066	-0.083
-603.128	97.790	0.065	-0.076
-602.113	-200.000	-0.011	0.261
-601.098	-85.945	0.129	-0.040
-600.084	-52.515	-0.237	-0.111
-599.069	23.063	-0.219	-0.182
-598.055	324.797	-0.187	-0.362
-597.040	45.627	-0.163	0.152
-596.025	-20.519	-0.188	-0.116
-595.011	8.069	-0.263	-0.199
-593.996	221.939	0.056	-0.092
-592.982	-200.000	0.017	0.162
-591.967	279.443	-0.206	-0.371
-590.952	-25.948	0.267	-0.159
-589.938	71.204	-0.133	-0.139
-588.923	197.533	0.124	0.191
-587.909	-112.768	-0.130	-0.026
-586.894	254.132	0.226	0.390
-585.879	-69.224	0.183	0.071
-584.865	12.226	0.087	-0.068
-583.850	800.000	0.014	0.038
-582.836	-107.751	0.099	0.022
-581.821	-140.289	0.266	-0.028
-580.806	30.544	0.135	0.116
-579.792	83.283	-0.254	0.279
-578.777	-200.000	0.030	-0.167
-577.763	524.440	-0.135	0.320
-576.748	182.967	0.108	0.161
-575.733	800.000	-0.080	-0.321
-574.719	80.845	0.189	-0.205
-573.704	800.000	-0.055	-0.242
-572.690	50.985	-0.161	0.154
-571.675	345.267	-0.128	-0.253
-570.661	-71.037	0.128	0.049
-569.646	-200.000	-0.052	-0.237
-568.631	-200.000	-0.053	-0.479
-567.617	-192.669	0.128	0.001
-566.602	232.917	0.163	-0.270
-565.588	-125.617	0.055	0.008
-564.573	135.148	-0.079	-0.103
-563.558	-200.000	0.047	0.446
-562.544	16.766	0.138	-0.110
-561.529	800.000	0.034	-0.124
-560.515	-73.861	0.245	0.090
-559.500	-10.197	-0.185	-0.124
-558.485	463.735	-0.067	-0.151
-557.471	-200.000	-0.050	0.307
-556.456	30.093	-0.168	-0.144
-555.442	-178.268	-0.289	0.007
-554.427	-10.447	-0.323	-0.216
-553.412	-105.422	-0.134	-0.031
-552.398	444.584	-0.060	-0.132
-551.383	-37.667	-0.274	0.147
-550.369	-66.020	-0.173	0.069
-549.354	-200.000	-0.025	-0.441
-548.339	-200.000	-0.043	0.191
-547.325	-168.824	0.109	0.004
-546.310	54.834	0.174	0.170
-545.296	-115.892	-0.148	-0.028
-544.281	477.312	-0.087	-0.198
-543.266	800.000	0.042	-0.164
-542.252	65.660	-0.198	0.202
-541.237	25.622	-0.113	-0.095
-540.223	800.000	-0.071	0.237
-539.208	-48.753	-0.203	-0.098
-538.193	35.633	0.203	0.179
-537.179	250.750	0.163	-0.278
-536.164	151.029	0.180	-0.247
-535.150	57.131	-0.169	0.166
-534.135	-125.142	-0.284	-0.044
-533.121	1.085	-0.320	-0.231
-532.106	-80.156	0.078	-0.026
-531.091	800.000	0.022	-0.070
-530.077	-81.036	-0.189	-0.063
-529.062	30.395	-0.220	-0.189
-528.048	-69.084	-0.159	0.062
-527.033	-97.329	-0.071	0.019
-526.018	-50.344	0.200	-0.095
-525.004	0.544	-0.140	-0.101
-523.989	200.229	-0.048	0.075
-522.975	-34.188	0.139	-0.077
-521.960	-85.150	-0.027	0.009
-520.945	-54.143	-0.168	0.077
-519.931	27.174	-0.038	0.032
-518.916	674.874	0.056	0.145
-517.902	-66.560	-0.190	0.076
-516.887	-57.964	0.187	0.082
-515.872	-200.000	-0.051	-0.234
-514.858	24.967	-0.394	-0.329
-513.843	-95.681	0.276	0.074
-512.829	-5.403	-0.121	0.084
-511.814	393.387	0.011	-0.023
-510.799	-200.000	0.040	-0.410
-509.785	185.332	0.171	0.255
-508.770	800.000	-0.104	-0.390
-507.756	717.066	0.058	-0.154
-506.741	411.152	0.077	0.164
-505.726	-200.000	-0.017	-0.088
-504.712	-200.000	-0.000	-0.012
-503.697	713.975	0.106	0.283
-502.683	-200.000	-0.033	0.233
-501.668	-109.543	-0.385	-0.082
-500.653	130.662	0.126	0.163
-499.639	135.308	0.158	0.207
-498.624	-200.000	0.019	-0.224
-497.610	-140.938	0.402	-0.041
-496.595	130.006	-0.049	-0.063
-495.581	-45.689	-0.069	0.034
-494.566	-36.837	0.340	-0.183
-493.551	65.683	0.183	-0.187
-492.537	800.000	0.033	-0.109
-491.522	0.574	-0.232	-0.167
-490.508	25.741	-0.144	-0.121
-489.493	232.839	-0.053	-0.088
-488.478	147.835	-0.052	0.070
-487.464	-1.718	-0.161	-0.114
-486.449	450.668	-0.083	0.184
-485.435	-50.869	-0.231	-0.109
-484.420	-45.484	-0.235	0.117
-483.405	-200.000	-0.056	0.260
-482.391	101.252	0.141	-0.165
-481.376	-159.936	-0.211	0.012
-480.362	-200.000	0.010	-0.238
-479.347	-49.614	-0.074	-0.036
-478.332	-8.724	0.210	0.141
-477.318	-200.000	0.041	-0.254
-476.303	356.111	-0.071	-0.142
-475.289	800.000	0.079	-0.314
-474.274	-79.895	-0.121	0.041
-473.259	-200.000	-0.024	-0.207
-472.245	-34.071	-0.131	-0.073
-471.230	134.641	0.139	0.181
-470.216	139.026	0.115	0.152
-469.201	-63.928	-0.144	-0.059
-468.186	800.000	-0.014	0.052
-467.172	-93.133	0.073	0.021
-466.157	221.098	-0.032	0.052
-465.143	702.639	-0.055	0.145
-464.128	-25.717	0.108	0.064
-463.113	-181.752	-0.118	0.002
-462.099	-200.000	0.004	-0.092
-461.084	208.360	-0.161	0.253
-460.070	-55.670	0.251	-0.113
-459.055	56.971	0.052	0.051
-458.040	-200.000	-0.011	-0.176
-457.026	-135.095	0.056	0.007
-456.011	-166.818	-0.147	-0.006
-454.997	-200.000	0.003	0.080
-453.982	159.194	0.057	-0.080
-452.968	156.222	0.264	0.365
-451.953	-85.418	-0.360	-0.113
-450.938	-200.000	0.010	0.130
-449.924	-100.841	0.297	0.073
-448.909	-200.000	-0.017	0.263
-447.895	263.124	-0.060	-0.105
-446.880	99.570	-0.082	0.095
-445.865	253.363	0.061	0.104
-444.851	71.560	-0.128	-0.134
-443.836	800.000	0.066	-0.236
-442.822	-104.262	0.210	-0.049
-441.807	169.299	0.086	-0.123
-440.792	-200.000	-0.039	0.227
-439.778	-145.691	0.202	-0.018
-438.763	800.000	0.077	-0.263
-437.749	-156.148	-0.300	0.019
-436.734	-200.000	0.003	-0.210
-435.719	-200.000	-0.038	0.217
-434.705	183.686	-0.107	0.158
-433.690	800.000	0.098	0.314
-432.676	150.490	-0.040	0.054
-431.661	240.086	0.211	-0.353
-430.646	-200.000	0.039	-0.228
-429.632	-110.987	-0.161	0.033
-428.617	-142.275	0.170	-0.017
-427.603	655.097	-0.066	-0.170
-426.588	21.727	-0.121	0.099
-425.573	800.000	-0.114	-0.366
-424.559	-44.834	0.266	0.133
-423.544	800.000	0.065	0.181
-422.530	147.563	0.150	0.203
-421.515	-73.778	-0.148	0.054
-420.500	-17.814	-0.197	-0.124
-419.486	653.344	-0.091	0.235
-418.471	-200.000	0.025	-0.116
-417.457	759.176	0.056	0.153
-416.442	-7.081	-0.071	0.048
-415.428	-200.000	-0.052	-0.468
-414.413	-103.272	-0.327	0.077
-413.398	451.702	0.031	0.068
-412.384	-43.879	-0.147	0.074
-411.369	-200.000	0.032	0.268
-410.355	-17.767	0.097	-0.061
-409.340	109.918	0.308	-0.371
-408.325	134.737	0.269	0.350
-407.311	22.200	-0.287	0.235
-406.296	-156.096	-0.461	-0.029
-405.282	111.149	0.126	-0.153
-404.267	9.646	-0.326	0.248
-403.252	-100.692	-0.372	0.092
-402.238	106.387	-0.044	-0.052
-401.223	-107.676	0.016	-0.004
-400.209	-19.610	-0.031	-0.019
-399.194	-119.215	0.127	-0.022
-398.179	-200.000	-0.033	0.153
-397.165	-91.519	0.159	0.046
-396.150	-108.225	0.309	-0.067
-395.136	-26.992	-0.271	-0.158
-394.121	90.769	-0.235	-0.263
-393.106	12.885	0.175	-0.135
-392.092	32.408	-0.077	0.066
-391.077	204.831	-0.119	0.185
-390.063	800.000	0.077	0.223
-389.048	-98.157	0.216	-0.055
-388.033	-131.003	0.136	0.018
-387.019	-200.000	0.075	0.334
-386.004	303.565	0.035	0.065
-384.990	791.740	0.166	0.458
-383.975	-200.000	-0.018	0.368
-382.960	177.039	0.064	0.093
-381.946	-68.770	0.043	0.017
-380.931	415.081	-0.026	0.056
-379.917	71.326	0.109	0.114
-378.902	-85.749	0.277	0.086
-377.888	-200.000	0.077	0.373
-376.873	-31.715	-0.174	-0.098
-375.858	-200.000	-0.033	-0.167
-374.844	-112.526	0.413	0.082
-373.829	32.901	0.223	-0.193
-372.815	556.340	-0.091	-0.219
-371.800	-63.021	-0.129	-0.053
-370.785	-8.872	-0.030	0.020
-369.771	112.624	-0.214	0.260
-368.756	85.659	0.032	0.035
-367.742	122.569	0.154	0.193
-366.727	-26.552	0.244	-0.143
-365.712	118.262	-0.089	-0.110
-364.698	-200.000	0.001	-0.223
-363.683	-178.913	0.330	0.007
-362.669	-126.443	0.322	-0.048
-361.654	-120.356	-0.054	-0.009
-360.639	800.000	0.052	0.187
-359.625	-90.573	0.320	-0.093
-358.610	145.843	-0.185	0.249
-357.596	-129.323	-0.225	0.031
-356.581	-140.941	0.417	0.043
-355.566	800.000	0.071	0.242
-354.552	800.000	0.036	-0.111
-353.537	-114.285	-0.085	-0.016
-352.523	-21.120	0.305	0.187
-351.508	530.695	-0.048	0.113
-350.493	103.977	0.200	0.235
-349.479	-57.582	0.100	-0.044
-348.464	668.930	0.029	-0.076
-347.450	122.591	-0.180	0.225
-346.435	-101.417	0.113	-0.028
-345.420	-200.000	0.073	0.458
-344.406	-200.000	0.005	0.199
-343.391	-200.000	-0.022	0.249
-342.377	36.581	0.215	0.190
-341.362	-200.000	0.007	-0.104
-340.348	216.859	0.015	-0.023
-339.333	1.434	0.151	0.108
-338.318	40.458	-0.147	-0.132
-337.304	-85.751	0.307	0.095
-336.289	-131.659	-0.114	0.015
-335.275	290.258	-0.122	0.221
-334.260	-71.453	0.072	-0.027
-333.245	800.000	-0.089	-0.266
-332.231	-139.136	0.206	0.022
-331.216	-38.080	0.188	-0.100
-330.202	95.455	0.071	-0.081
-329.187	21.873	0.172	0.140
-328.172	-2.470	0.204	0.142
-327.158	40.149	-0.132	0.119
-326.143	111.552	-0.165	0.199
-325.129	24.454	0.155	-0.128
-324.114	119.226	0.040	-0.049
-323.099	147.330	-0.042	-0.056
-322.085	-103.909	-0.175	0.041
-321.070	800.000	-0.097	0.344
-320.056	-118.685	0.238	-0.042
-319.041	-170.929	-0.042	-0.001
-318.026	-200.000	0.022	0.236
-317.012	395.861	0.120	-0.251
-315.997	92.120	0.055	0.062
-314.983	29.234	-0.210	-0.178
-313.968	522.170	0.134	0.315
-312.953	317.634	0.150	-0.284
-311.939	-56.604	-0.070	-0.031
-310.924	186.269	0.145	0.215
-309.910	800.000	0.056	-0.196
-308.895	-141.000	0.128	0.013
-307.880	74.225	0.152	0.159
-306.866	216.132	0.054	-0.086
-305.851	-200.000	0.043	-0.272
-304.837	-200.000	-0.042	-0.263
-303.822	-83.181	0.146	-0.047
-302.807	-13.046	-0.458	-0.297
-301.793	754.780	0.057	-0.154
-300.778	800.000	-0.075	0.241
-299.764	80.969	0.279	0.300
-298.749	-200.000	0.021	-0.221
-297.735	-200.000	-0.044	-0.251
-296.720	345.440	-0.121	-0.237
-295.705	190.154	0.108	0.162
-294.691	37.222	0.310	-0.274
-293.676	-200.000	-0.013	-0.164
-292.662	-200.000	0.033	-0.244
-291.647	596.453	-0.121	0.298
-290.632	-200.000	0.047	-0.301
-289.618	800.000	-0.058	-0.219
-288.603	-200.000	0.008	0.095
-287.589	146.512	-0.054	0.072
-286.574	109.195	-0.094	-0.112
-285.559	104.012	0.166	-0.194
-284.545	24.828	0.101	0.084
-283.530	118.139	-0.130	0.160
-282.516	-131.025	0.114	0.015
-281.501	104.925	0.214	-0.252
-280.486	312.477	0.122	-0.228
-279.472	-156.554	0.263	-0.016
-278.457	800.000	0.048	-0.158
-277.443	133.302	-0.107	0.138
-276.428	-200.000	-0.062	0.272
-275.413	39.414	-0.250	-0.223
-274.399	-26.648	0.097	0.056
-273.384	-92.501	-0.409	0.115
-272.370	569.989	-0.120	-0.292
-271.355	800.000	-0.168	-0.625
-270.340	-74.651	-0.137	-0.049
-269.326	19.343	0.230	-0.184
-268.311	-200.000	0.015	-0.203
-267.297	-63.567	0.190	0.078
-266.282	-200.000	-0.038	0.316
-265.267	-112.437	0.095	0.019
-264.253	-200.000	-0.012	0.337
-263.238	539.443	-0.134	0.317
-262.224	407.493	-0.027	0.056
-261.209	-184.833	-0.047	0.001
-260.195	382.680	0.097	0.199
-259.180	9.299	0.153	0.115
-258.165	-46.566	0.306	-0.150
-257.151	-8.770	0.090	0.060
-256.136	-148.344	-0.239	-0.020
-255.122	-200.000	-0.027	-0.189
-254.107	4.705	0.264	-0.193
-253.092	800.000	-0.074	0.300
-252.078	-73.016	0.308	0.113
-251.063	800.000	0.056	0.198
-250.049	-200.000	-0.023	-0.185
-249.034	-62.872	0.120	-0.049
-248.019	-19.766	0.072	0.045
-247.005	313.768	0.061	0.115
-245.990	-22.291	0.109	0.066
-244.976	6.513	-0.289	-0.214
-243.961	-123.443	0.204	-0.032
-242.946	800.000	-0.110	-0.342
-241.932	-200.000	-0.054	-0.282
-240.917	20.600	0.245	0.197
-239.903	-126.834	0.141	0.021
-238.888	292.254	0.165	0.299
-237.873	132.258	-0.154	0.198
-236.859	81.285	-0.033	0.035
-235.844	800.000	-0.056	-0.207
-234.830	-34.109	0.364	0.199
-233.815	800.000	-0.150	-0.455
-232.800	-182.739	0.173	0.003
-231.786	-178.043	0.243	-0.006
-230.771	-200.000	0.033	0.437
-229.757	177.073	0.076	-0.110
-228.742	-98.780	0.174	-0.044
-227.727	-44.082	-0.171	-0.086
-226.713	622.187	-0.136	-0.340
-225.698	58.525	-0.281	-0.274
-224.684	-38.840	0.524	-0.275
-223.669	-45.296	-0.320	0.158
-222.655	-183.164	-0.161	-0.003
-221.640	-200.000	-0.012	0.117
-220.625	46.418	0.070	-0.065
-219.611	-67.482	0.152	-0.059
-218.596	-94.153	-0.160	-0.043
-217.582	800.000	-0.040	0.160
-216.567	-85.532	0.026	0.008
-215.552	-31.988	0.338	-0.188
-214.538	77.434	-0.267	0.283
-213.523	-164.305	0.450	0.021
-212.509	88.808	-0.130	-0.143
-211.494	-40.151	0.049	0.025
-210.479	113.974	-0.137	-0.165
-209.465	249.123	-0.247	-0.417
-208.450	-200.000	0.017	-0.372
-207.436	-173.299	-0.239	-0.007
-206.421	34.829	-0.230	-0.200
-205.406	223.703	-0.113	0.181
-204.392	-200.000	-0.021	0.370
-203.377	-158.410	-0.205	-0.012
-202.363	-200.000	0.011	0.242
-201.348	-200.000	0.010	0.135
-200.333	-145.525	0.236	0.021
-199.319	7.592	0.112	0.083
-198.304	-200.000	-0.042	-0.233
-197.290	80.306	0.147	-0.157
-196.275	299.649	0.137	0.251
-195.260	800.000	-0.040	0.117
-194.246	-91.829	-0.237	0.067
-193.231	-31.407	0.142	0.079
-192.217	-128.275	0.031	0.004
-191.202	-192.759	-0.158	-0.001
-190.187	164.783	-0.213	-0.299
-189.173	-113.340	-0.077	-0.015
-188.158	-104.990	-0.156	0.036
-187.144	-48.223	-0.147	-0.070
-186.129	219.818	0.220	0.350
-185.114	-137.156	0.245	0.028
-184.100	-71.828	-0.214	0.079
-183.085	211.968	0.139	-0.218
-182.071	-200.000	0.072	-0.329
-181.056	-200.000	-0.017	0.248
-180.042	45.316	-0.190	0.174
-179.027	472.006	-0.050	0.113
-178.012	286.554	-0.033	0.059
-176.998	-7.423	-0.163	-0.109
-175.983	-140.670	-0.090	-0.009
-174.969	-70.072	-0.249	0.094
-173.954	8.686	-0.221	0.165
-172.939	-88.153	0.427	0.127
-171.925	-55.989	-0.397	0.176
-170.910	1.011	0.030	-0.021
-169.896	-43.055	0.337	-0.170
-168.881	-70.131	-0.271	-0.102
-167.866	75.194	0.081	-0.084
-166.852	58.523	0.185	-0.181
-165.837	800.000	-0.109	0.327
-164.823	-200.000	0.042	0.374
-163.808	126.234	0.271	0.340
-162.793	283.008	0.067	0.119
-161.779	-109.422	0.186	0.039
-160.764	-200.000	-0.015	0.162
-159.750	598.433	-0.057	-0.141
-158.735	-200.000	0.014	0.232
-157.720	-172.873	0.341	0.011
-156.706	374.832	-0.096	0.195
-155.691	-200.000	0.019	-0.150
-154.677	-157.582	0.277	-0.016
-153.662	-200.000	0.017	0.124
-152.647	-50.399	0.197	-0.092
-151.633	-147.099	-0.247	0.021
-150.618	-200.000	-0.010	-0.281
-149.604	-54.961	-0.103	0.046
-148.589	800.000	0.064	0.178
-147.574	-200.000	0.022	-0.184
-146.560	195.196	0.279	0.421
-145.545	180.330	-0.113	0.165
-144.531	-24.736	0.063	-0.037
-143.516	800.000	-0.106	0.292
-142.502	77.151	0.165	-0.174
-141.487	-66.944	-0.041	0.016
-140.472	800.000	-0.046	-0.129
-139.458	-89.762	0.197	0.057
-138.443	35.733	-0.046	-0.040
-137.429	-200.000	-0.010	0.476
-136.414	-33.956	-0.148	-0.081
-135.399	-200.000	0.036	0.245
-134.385	629.673	0.088	0.221
-133.370	-200.000	-0.024	0.191
-132.356	800.000	-0.104	0.402
-131.341	-49.568	0.365	0.172
-130.326	800.000	0.078	-0.282
-129.312	6.377	-0.202	-0.149
-128.297	-83.094	0.492	0.157
-127.283	-169.363	0.371	-0.014
-126.268	800.000	0.140	-0.440
-125.253	-200.000	0.063	-0.305
-124.239	-106.157	0.121	-0.027
-123.224	-200.000	0.031	0.178
-122.210	237.560	-0.107	-0.176
-121.195	-200.000	0.035	0.525
