DTS Sentinel unit serial number:	SN413079Multiplexer serial number:	ORYXHardware model number:	OX4-SRSoftware version number:	ORYX F/W v4.00 Oryx Data Collector v3.7.2.0data status	okinstallation	princeton_trtdifferential loss correction	single-endedforward channel	channel 3reverse channel	N/Adate	2019/09/13time	12:40:35forward acquisition time	60.00reverse acquisition time	0.00gamma	496.2192k internal	0.2303k external	0.2303temperature offset calibration	1.0151default loss term (dB/km)	0.3790temperature slope calibration	1.0000multiplexer offset coefficient	1.0000multiplexer slope coefficient	1.0000fibre end	0.00T internal ref (°C)	34.62T ext. ref 1 (°C)	4.61T ext. ref 2 (°C)	31.43length (m)	temperature (°C)	Stokes	anti-Stokes-747.200	39.626	0.052	0.048
-746.185	75.735	-0.232	0.250
-745.171	3.028	0.193	0.143
-744.156	111.584	-0.292	0.358
-743.142	800.000	-0.052	-0.196
-742.127	-200.000	-0.033	0.221
-741.112	98.660	0.140	0.164
-740.098	-200.000	-0.003	0.318
-739.083	156.186	-0.146	-0.205
-738.069	226.941	0.128	0.212
-737.054	16.888	-0.081	0.066
-736.039	435.155	0.124	-0.274
-735.025	-89.264	0.099	-0.030
-734.010	-33.575	-0.182	0.102
-732.996	3.428	-0.196	-0.145
-731.981	-148.909	0.388	-0.032
-730.966	-128.985	-0.169	0.024
-729.952	-200.000	-0.020	-0.243
-728.937	683.025	0.042	-0.112
-727.923	-112.583	-0.153	0.031
-726.908	800.000	-0.062	-0.235
-725.894	800.000	-0.033	-0.134
-724.879	24.383	-0.172	-0.145
-723.864	160.289	-0.202	-0.286
-722.850	-6.471	-0.352	-0.244
-721.835	-112.618	-0.211	-0.043
-720.821	57.259	0.126	-0.125
-719.806	56.457	0.090	-0.089
-718.791	-138.962	0.119	-0.013
-717.777	-200.000	-0.000	0.003
-716.762	-122.063	-0.127	0.021
-715.748	-106.638	-0.573	0.130
-714.733	36.606	-0.113	0.101
-713.718	-113.977	0.391	-0.077
-712.704	800.000	-0.034	-0.144
-711.689	12.923	0.089	-0.070
-710.675	-121.593	-0.159	-0.027
-709.660	-132.568	-0.158	-0.021
-708.645	-61.251	-0.068	-0.029
-707.631	51.887	-0.082	-0.079
-706.616	-68.344	0.162	-0.064
-705.602	74.809	-0.150	-0.161
-704.587	573.163	-0.017	0.043
-703.572	-200.000	-0.051	-0.238
-702.558	800.000	-0.087	0.319
-701.543	-200.000	-0.003	-0.019
-700.529	561.055	0.025	0.062
-699.514	5.729	0.149	0.112
-698.499	800.000	-0.059	-0.221
-697.485	256.258	-0.116	0.203
-696.470	800.000	0.066	-0.258
-695.456	17.056	-0.266	-0.214
-694.441	-169.941	-0.113	-0.004
-693.426	800.000	0.055	-0.193
-692.412	800.000	-0.080	-0.258
-691.397	287.362	-0.121	-0.223
-690.383	100.996	-0.307	-0.362
-689.368	332.199	0.108	0.212
-688.354	-69.820	-0.195	0.076
-687.339	759.750	0.167	-0.461
-686.324	-68.185	-0.464	0.183
-685.310	42.714	0.136	-0.126
-684.295	-19.669	-0.194	-0.122
-683.281	-36.305	0.141	-0.077
-682.266	273.606	-0.221	-0.398
-681.251	162.815	0.085	0.121
-680.237	-128.800	0.181	0.026
-679.222	16.418	-0.040	-0.032
-678.208	397.873	0.111	-0.236
-677.193	176.255	-0.112	-0.166
-676.178	-200.000	0.021	-0.138
-675.164	-118.155	0.081	0.015
-674.149	192.422	0.141	0.216
-673.135	-162.694	-0.269	0.013
-672.120	760.372	0.097	0.268
-671.105	-22.648	0.252	-0.155
-670.091	428.883	0.041	0.090
-669.076	-200.000	-0.001	0.128
-668.062	112.036	-0.175	-0.215
-667.047	800.000	-0.109	0.320
-666.032	-38.284	0.354	-0.190
-665.018	-76.747	0.186	0.066
-664.003	-155.782	0.217	-0.014
-662.989	116.852	-0.092	-0.115
-661.974	-135.827	0.508	0.061
-660.959	41.639	-0.038	0.035
-659.945	-24.140	-0.030	-0.018
-658.930	-36.939	-0.354	-0.193
-657.916	-49.585	-0.049	0.024
-656.901	232.286	0.018	-0.029
-655.886	-200.000	0.038	0.193
-654.872	800.000	-0.060	-0.168
-653.857	-200.000	-0.016	0.101
-652.843	-200.000	-0.081	0.451
-651.828	800.000	0.008	-0.023
-650.814	226.915	0.065	0.108
-649.799	800.000	0.065	-0.287
-648.784	304.367	-0.114	-0.214
-647.770	282.446	0.009	0.016
-646.755	176.267	-0.102	-0.150
-645.741	-18.948	0.131	-0.083
-644.726	-88.031	0.192	-0.058
-643.711	-23.361	-0.174	-0.106
-642.697	142.752	-0.119	-0.160
-641.682	-144.097	-0.072	-0.007
-640.668	-200.000	-0.010	-0.252
-639.653	33.754	-0.276	-0.244
-638.638	-8.325	-0.125	-0.085
-637.624	-122.572	-0.085	-0.014
-636.609	39.545	-0.163	0.148
-635.595	76.050	-0.196	0.211
-634.580	330.894	0.063	-0.123
-633.565	149.100	-0.125	0.171
-632.551	770.251	0.113	0.313
-631.536	674.135	0.067	-0.176
-630.522	100.502	0.072	-0.085
-629.507	-146.433	0.034	0.003
-628.492	-200.000	0.069	-0.342
-627.478	-200.000	0.017	-0.119
-626.463	30.767	-0.148	0.129
-625.449	-70.530	-0.307	-0.118
-624.434	-172.550	-0.072	-0.002
-623.419	-116.776	-0.193	0.036
-622.405	-118.147	0.138	-0.025
-621.390	-58.891	-0.485	-0.213
-620.376	-54.135	-0.411	-0.190
-619.361	-56.955	0.042	-0.019
-618.346	180.501	0.178	-0.264
-617.332	657.992	0.063	0.165
-616.317	40.574	-0.145	0.132
-615.303	-200.000	0.023	-0.160
-614.288	800.000	-0.034	-0.147
-613.273	800.000	0.059	-0.256
-612.259	129.784	-0.186	-0.240
-611.244	-168.525	0.408	0.016
-610.230	-149.407	0.243	-0.020
-609.215	-48.652	-0.356	-0.173
-608.201	171.462	-0.167	-0.243
-607.186	452.233	0.082	0.183
-606.171	-68.322	-0.180	0.071
-605.157	630.113	-0.097	-0.250
-604.142	121.922	0.088	-0.111
-603.128	-200.000	-0.014	0.106
-602.113	243.785	-0.144	0.245
-601.098	-91.627	-0.108	0.031
-600.084	-200.000	0.013	0.166
-599.069	-200.000	0.001	-0.289
-598.055	-200.000	0.016	-0.245
-597.040	-156.330	0.080	0.005
-596.025	337.398	0.079	0.155
-595.011	-151.695	-0.263	0.020
-593.996	-151.762	0.137	-0.010
-592.982	-13.076	-0.293	0.193
-591.967	-200.000	-0.029	0.206
-590.952	-53.142	0.183	0.085
-589.938	372.487	-0.080	-0.164
-588.923	800.000	-0.076	-0.275
-587.909	526.258	0.074	0.175
-586.894	259.425	-0.095	0.166
-585.879	-98.171	0.220	-0.057
-584.865	-37.794	-0.250	0.135
-583.850	800.000	0.123	0.425
-582.836	-132.930	-0.438	0.056
-581.821	-113.700	-0.147	-0.029
-580.806	-42.756	-0.330	0.170
-579.792	800.000	0.061	0.208
-578.777	-200.000	-0.015	-0.322
-577.763	-67.520	-0.151	0.060
-576.748	-29.654	-0.306	-0.177
-575.733	-76.181	-0.194	-0.069
-574.719	-111.636	0.248	0.051
-573.704	327.688	0.003	-0.007
-572.690	157.503	-0.183	0.256
-571.675	32.818	0.122	-0.107
-570.661	338.916	0.111	0.219
-569.646	237.501	0.083	0.139
-568.631	-200.000	-0.021	-0.286
-567.617	-111.038	0.284	0.059
-566.602	19.869	0.136	-0.110
-565.588	168.688	0.104	-0.150
-564.573	-152.764	-0.279	-0.020
-563.558	-16.802	0.203	-0.130
-562.544	-198.289	0.222	-0.001
-561.529	-74.354	0.367	-0.134
-560.515	-6.272	0.364	0.251
-559.500	-106.015	-0.289	-0.066
-558.485	-88.701	0.064	-0.019
-557.471	51.186	-0.068	0.066
-556.456	2.071	0.290	-0.212
-555.442	-127.936	0.159	0.023
-554.427	-111.984	0.289	-0.059
-553.412	285.695	0.017	-0.031
-552.398	118.575	-0.102	-0.127
-551.383	-142.671	0.366	-0.036
-550.369	204.006	-0.113	0.177
-549.354	528.078	0.101	0.241
-548.339	-200.000	-0.034	0.279
-547.325	584.134	0.068	-0.168
-546.310	-185.064	-0.274	0.004
-545.296	73.899	0.041	0.043
-544.281	387.855	0.036	0.076
-543.266	-200.000	-0.006	0.357
-542.252	-35.435	-0.044	0.024
-541.237	71.216	0.048	-0.051
-540.223	-127.227	0.162	-0.024
-539.208	4.788	0.190	0.141
-538.193	225.123	0.282	-0.461
-537.179	119.158	-0.078	0.098
-536.164	76.409	-0.193	0.207
-535.150	111.514	-0.086	0.105
-534.135	25.101	0.141	-0.119
-533.121	253.123	0.060	0.103
-532.106	-25.123	0.351	-0.210
-531.091	-54.233	-0.183	-0.084
-530.077	44.645	0.124	0.115
-529.062	-200.000	0.028	0.132
-528.048	-99.995	-0.216	-0.054
-527.033	-200.000	-0.023	0.264
-526.018	394.104	0.093	-0.195
-525.004	134.542	-0.276	0.362
-523.989	-15.828	-0.075	0.048
-522.975	800.000	-0.074	0.308
-521.960	-200.000	0.081	-0.542
-520.945	-200.000	0.001	-0.207
-519.931	-200.000	-0.026	0.200
-518.916	76.181	-0.137	0.146
-517.902	800.000	-0.040	0.164
-516.887	-200.000	-0.029	0.322
-515.872	170.407	0.081	-0.118
-514.858	800.000	0.055	0.167
-513.843	45.913	-0.104	0.097
-512.829	-200.000	-0.027	0.209
-511.814	91.204	0.160	-0.181
-510.799	-88.960	-0.079	0.024
-509.785	800.000	-0.074	0.261
-508.770	-126.100	-0.098	-0.015
-507.756	-200.000	-0.008	-0.119
-506.741	-200.000	0.002	-0.373
-505.726	72.996	0.028	-0.029
-504.712	-0.140	0.243	-0.175
-503.697	17.101	-0.172	-0.138
-502.683	-138.949	-0.136	0.015
-501.668	800.000	0.044	0.155
-500.653	543.178	-0.084	0.203
-499.639	-26.242	-0.267	-0.158
-498.624	696.793	-0.162	-0.428
-497.610	442.175	-0.027	0.060
-496.595	-200.000	-0.014	0.312
-495.581	-29.398	-0.135	-0.078
-494.566	54.484	-0.219	-0.213
-493.551	-99.606	0.219	0.055
-492.537	101.063	0.070	0.082
-491.522	24.826	0.065	0.054
-490.508	-200.000	-0.026	0.464
-489.493	-140.162	0.106	-0.011
-488.478	-35.196	0.111	-0.061
-487.464	-27.538	-0.369	0.216
-486.449	66.808	-0.166	-0.170
-485.435	-200.000	-0.035	-0.200
-484.420	57.424	0.140	-0.138
-483.405	-1.916	-0.108	0.077
-482.391	308.500	-0.103	-0.193
-481.376	487.782	-0.148	-0.341
-480.362	-12.527	-0.300	0.197
-479.347	-200.000	-0.002	-0.128
-478.332	800.000	0.017	-0.068
-477.318	-200.000	-0.010	-0.335
-476.303	110.719	0.062	-0.075
-475.289	42.730	0.083	-0.076
-474.274	-107.565	-0.098	0.022
-473.259	-80.151	0.020	-0.007
-472.245	-45.018	-0.306	0.153
-471.230	51.996	0.098	0.094
-470.216	-75.144	0.305	-0.110
-469.201	700.064	0.027	-0.072
-468.186	376.336	-0.077	0.158
-467.172	-180.564	0.202	0.004
-466.157	-200.000	0.018	-0.210
-465.143	254.856	-0.138	-0.238
-464.128	-200.000	-0.051	0.382
-463.113	222.745	-0.172	0.279
-462.099	-200.000	-0.001	0.036
-461.084	-10.030	0.111	0.074
-460.070	147.655	0.144	0.196
-459.055	213.665	0.100	-0.159
-458.040	-200.000	0.026	-0.313
-457.026	135.700	-0.198	-0.260
-456.011	-4.507	0.364	-0.253
-454.997	-13.131	-0.207	-0.135
-453.982	98.308	0.337	0.391
-452.968	111.028	-0.148	-0.179
-451.953	-18.819	0.281	-0.176
-450.938	-200.000	0.029	0.452
-449.924	-200.000	-0.010	0.216
-448.909	390.364	-0.148	0.309
-447.895	-166.812	0.255	0.011
-446.880	-116.406	0.283	0.053
-445.865	800.000	0.023	-0.085
-444.851	-200.000	-0.035	-0.182
-443.836	-69.797	-0.108	-0.042
-442.822	800.000	0.055	0.192
-441.807	-87.906	0.245	-0.074
-440.792	-200.000	-0.019	-0.264
-439.778	-143.404	-0.129	0.012
-438.763	-159.224	-0.195	0.011
-437.749	53.319	0.136	-0.131
-436.734	-100.592	0.071	0.018
-435.719	49.340	-0.085	-0.080
-434.705	-200.000	0.039	-0.291
-433.690	-5.313	-0.248	0.171
-432.676	400.918	-0.034	-0.073
-431.661	128.242	-0.049	0.063
-430.646	289.283	-0.208	-0.379
-429.632	-78.919	0.257	0.088
-428.617	-25.785	0.182	0.108
-427.603	66.947	0.070	-0.072
-426.588	-105.955	0.112	0.025
-425.573	-124.100	-0.070	0.011
-424.559	390.122	0.092	0.191
-423.544	-111.618	-0.098	0.020
-422.530	520.874	0.075	-0.177
-421.515	-70.966	-0.186	0.070
-420.500	227.785	0.170	0.278
-419.486	-98.325	-0.275	0.071
-418.471	-61.236	-0.186	0.079
-417.457	-153.856	0.433	-0.030
-416.442	-200.000	0.051	0.261
-415.428	-200.000	0.043	0.220
-414.413	-64.426	0.141	0.058
-413.398	-6.963	-0.154	-0.105
-412.384	-142.470	0.177	-0.017
-411.369	48.914	0.043	-0.041
-410.355	85.515	-0.127	-0.140
-409.340	58.361	0.217	-0.214
-408.325	11.423	-0.177	-0.136
-407.311	123.879	0.278	0.351
-406.296	-200.000	0.032	-0.261
-405.282	-24.706	-0.054	0.032
-404.267	800.000	-0.049	0.184
-403.252	-114.019	0.338	0.066
-402.238	395.267	0.167	0.350
-401.223	-100.272	0.235	-0.059
-400.209	399.127	0.091	0.191
-399.194	800.000	-0.088	0.281
-398.179	-200.000	-0.111	0.531
-397.165	800.000	-0.142	0.477
-396.150	800.000	0.109	0.458
-395.136	-91.290	0.212	-0.061
-394.121	-81.097	-0.410	-0.136
-393.106	-80.287	0.205	-0.069
-392.092	-86.979	-0.014	0.004
-391.077	-200.000	-0.005	0.075
-390.063	201.784	-0.155	-0.240
-389.048	800.000	0.099	0.312
-388.033	190.349	-0.110	-0.167
-387.019	-107.197	-0.314	-0.069
-386.004	106.246	-0.156	0.186
-384.990	-95.340	-0.197	0.053
-383.975	64.422	0.065	-0.066
-382.960	599.764	-0.033	0.082
-381.946	-175.071	-0.031	-0.001
-380.931	-85.213	0.100	-0.031
-379.917	-200.000	0.005	-0.319
-378.902	-200.000	0.052	-0.336
-377.888	-149.646	0.130	0.010
-376.873	5.947	0.134	0.099
-375.858	-200.000	-0.032	-0.242
-374.844	-176.569	-0.257	-0.007
-373.829	371.535	-0.025	0.051
-372.815	102.630	0.199	0.234
-371.800	36.275	-0.255	-0.226
-370.785	-116.569	-0.152	-0.028
-369.771	-137.187	0.098	-0.011
-368.756	-11.004	-0.324	-0.215
-367.742	261.764	0.104	-0.181
-366.727	-181.919	0.275	0.005
-365.712	59.144	0.156	-0.154
-364.698	-24.528	0.308	-0.184
-363.683	22.400	0.167	0.137
-362.669	190.220	-0.056	-0.084
-361.654	800.000	-0.065	0.232
-360.639	342.455	0.105	0.206
-359.625	756.060	0.086	0.232
-358.610	-9.566	-0.383	0.256
-357.596	-200.000	-0.011	0.067
-356.581	634.923	-0.040	0.103
-355.566	-53.320	-0.078	-0.036
-354.552	64.868	-0.019	-0.019
-353.537	57.551	0.131	0.128
-352.523	84.312	0.159	0.174
-351.508	-35.536	-0.122	-0.066
-350.493	567.269	0.097	-0.237
-349.479	-157.708	-0.064	-0.004
-348.464	131.089	0.322	-0.415
-347.450	800.000	0.080	-0.342
-346.435	-99.456	0.159	0.040
-345.420	800.000	-0.055	-0.195
-344.406	20.345	0.254	-0.206
-343.391	-139.691	0.128	0.014
-342.377	-48.814	-0.130	0.063
-341.362	44.670	-0.079	-0.073
-340.348	-49.491	0.175	0.084
-339.333	40.837	-0.276	0.249
-338.318	501.122	0.052	-0.121
-337.304	4.804	-0.248	-0.183
-336.289	453.503	0.149	-0.331
-335.275	-91.125	0.093	-0.027
-334.260	800.000	-0.019	-0.080
-333.245	551.646	-0.070	-0.170
-332.231	-200.000	0.004	-0.140
-331.216	-33.997	0.359	-0.198
-330.202	257.156	-0.144	-0.249
-329.187	-3.691	-0.101	0.071
-328.172	-200.000	0.004	0.258
-327.158	418.955	0.132	0.284
-326.143	23.316	-0.348	0.287
-325.129	91.838	-0.052	0.059
-324.114	101.772	0.259	-0.303
-323.099	800.000	-0.076	0.220
-322.085	-103.502	-0.045	-0.011
-321.070	680.859	-0.048	0.124
-320.056	-200.000	-0.065	-0.321
-319.041	-200.000	-0.037	0.188
-318.026	343.715	-0.093	0.182
-317.012	-200.000	0.041	0.240
-315.997	278.112	-0.080	0.142
-314.983	-200.000	-0.009	-0.060
-313.968	34.810	0.117	0.103
-312.953	-4.738	0.126	0.087
-311.939	-2.920	0.090	-0.063
-310.924	-78.132	-0.074	-0.026
-309.910	87.584	-0.171	-0.190
-308.895	-152.006	-0.191	-0.014
-307.880	-200.000	-0.029	0.372
-306.866	-86.610	-0.190	0.058
-305.851	-200.000	0.006	-0.071
-304.837	-150.207	0.108	0.008
-303.822	-200.000	0.027	-0.276
-302.807	36.303	0.106	-0.094
-301.793	95.426	0.388	0.443
-300.778	-114.671	-0.191	0.037
-299.764	-52.228	-0.430	-0.200
-298.749	-200.000	0.050	0.329
-297.735	150.155	0.024	0.033
-296.720	-77.564	0.280	-0.097
-295.705	71.431	-0.024	0.025
-294.691	439.404	0.135	0.294
-293.676	-10.729	-0.154	0.102
-292.662	-139.044	-0.178	0.019
-291.647	-200.000	-0.026	-0.310
-290.632	-124.370	0.200	0.031
-289.618	69.341	0.097	0.100
-288.603	22.251	-0.268	0.219
-287.589	-73.542	-0.261	-0.095
-286.574	324.506	0.200	-0.381
-285.559	-170.439	-0.104	0.004
-284.545	-128.743	0.110	-0.016
-283.530	16.195	-0.241	-0.190
-282.516	34.193	-0.133	-0.116
-281.501	385.702	-0.111	-0.228
-280.486	-55.411	-0.191	0.086
-279.472	51.128	-0.030	-0.029
-278.457	-73.386	0.271	0.099
-277.443	-145.538	0.312	-0.028
-276.428	23.679	0.079	0.065
-275.413	71.607	0.109	-0.113
-274.399	233.358	0.162	-0.267
-273.384	800.000	0.101	-0.385
-272.370	-200.000	-0.014	0.099
-271.355	-84.570	-0.257	-0.081
-270.340	-200.000	0.011	0.113
-269.326	366.110	-0.050	0.101
-268.311	-56.657	0.165	0.073
-267.297	-200.000	0.006	0.350
-266.282	-38.874	0.371	0.195
-265.267	-44.975	-0.076	0.038
-264.253	-9.682	0.250	-0.167
-263.238	-37.611	-0.115	0.061
-262.224	61.799	-0.257	-0.256
-261.209	-57.788	-0.244	0.107
-260.195	53.390	-0.097	0.093
-259.180	-200.000	-0.071	0.340
-258.165	-58.541	0.242	0.105
-257.151	-107.474	-0.313	-0.069
-256.136	54.092	0.187	-0.180
-255.122	36.860	-0.105	-0.093
-254.107	-165.373	0.148	-0.007
-253.092	800.000	0.032	-0.118
-252.078	88.627	0.110	0.122
-251.063	207.009	0.087	-0.135
-250.049	-104.050	-0.244	0.057
-249.034	4.208	-0.154	0.113
-248.019	-74.540	0.093	-0.033
-247.005	-28.607	-0.066	-0.038
-245.990	502.740	0.019	0.043
-244.976	-87.827	-0.256	-0.077
-243.961	331.372	-0.069	-0.132
-242.946	800.000	-0.051	0.188
-241.932	431.847	0.140	0.302
-240.917	-200.000	-0.248	-0.001
-239.903	-177.679	-0.075	0.002
-238.888	-193.089	0.344	-0.003
-237.873	369.439	-0.103	-0.207
-236.859	800.000	0.108	0.420
-235.844	-152.436	0.193	0.014
-234.830	-115.287	0.188	0.035
-233.815	-200.000	0.031	0.256
-232.800	82.337	0.097	0.105
-231.786	58.826	-0.248	0.243
-230.771	22.474	0.152	-0.124
-229.757	-72.344	-0.177	0.065
-228.742	-46.993	0.040	-0.020
-227.727	-90.814	-0.365	-0.105
-226.713	-23.050	-0.203	0.122
-225.698	-14.970	0.203	0.130
-224.684	272.677	-0.048	-0.084
-223.669	41.675	0.159	-0.144
-222.655	-200.000	0.013	-0.068
-221.640	-39.272	0.099	0.052
-220.625	-65.451	0.148	-0.060
-219.611	-16.409	0.069	-0.043
-218.596	-71.668	0.104	0.039
-217.582	-200.000	0.004	0.025
-216.567	-200.000	-0.044	-0.339
-215.552	-136.711	0.170	-0.020
-214.538	-86.076	-0.023	0.007
-213.523	800.000	0.032	-0.102
-212.509	541.350	-0.079	0.189
-211.494	-161.099	-0.083	0.004
-210.479	322.802	0.100	-0.189
-209.465	134.255	-0.100	-0.129
-208.450	165.021	-0.109	0.153
-207.436	98.397	0.096	0.110
-206.421	800.000	0.074	0.204
-205.406	800.000	0.063	-0.251
-204.392	-52.716	-0.207	0.095
-203.377	-114.540	-0.278	0.053
-202.363	2.696	-0.071	0.051
-201.348	-12.685	0.408	-0.266
-200.333	310.044	-0.141	0.264
-199.319	-37.963	0.294	0.156
-198.304	800.000	-0.107	-0.349
-197.290	800.000	0.039	-0.134
-196.275	132.970	0.099	0.127
-195.260	-83.110	0.139	0.044
-194.246	-200.000	-0.033	-0.326
-193.231	-56.550	0.343	-0.151
-192.217	656.960	-0.067	0.171
-191.202	-115.772	0.097	-0.018
-190.187	251.830	-0.199	-0.338
-189.173	-178.390	-0.424	0.010
-188.158	-38.053	0.188	0.100
-187.144	286.515	0.197	0.354
-186.129	9.074	-0.077	0.058
-185.114	131.929	-0.010	0.013
-184.100	-169.875	-0.272	0.010
-183.085	-116.392	0.193	0.036
-182.071	96.687	-0.034	0.039
-181.056	-200.000	-0.036	0.166
-180.042	800.000	0.069	-0.225
-179.027	643.623	-0.100	-0.255
-178.012	-20.073	-0.062	-0.038
-176.998	-144.735	0.279	0.026
-175.983	-40.724	0.231	-0.119
-174.969	-136.123	-0.371	0.043
-173.954	176.896	-0.106	0.153
-172.939	110.043	0.253	0.303
-171.925	-200.000	-0.042	-0.342
-170.910	441.569	-0.146	0.318
-169.896	69.660	0.087	0.089
-168.881	800.000	0.032	0.093
-167.866	352.617	0.224	-0.443
-166.852	117.569	-0.135	0.165
-165.837	526.727	0.041	-0.097
-164.823	-30.070	0.170	-0.096
-163.808	-200.000	-0.395	0.000
-162.793	15.085	0.104	0.081
-161.779	307.740	0.163	-0.303
-160.764	115.486	0.083	0.101
-159.750	-28.840	-0.032	-0.018
-158.735	-112.290	-0.164	-0.033
-157.720	91.972	0.165	0.185
-156.706	120.539	0.190	0.235
-155.691	-31.730	-0.081	0.045
-154.677	-168.180	0.461	-0.018
-153.662	-200.000	0.012	-0.146
-152.647	-200.000	0.043	0.324
-151.633	-139.527	0.099	-0.010
-150.618	309.144	-0.085	0.159
-149.604	31.225	-0.182	-0.155
-148.589	-78.262	0.077	0.026
-147.574	-142.833	-0.209	0.020
-146.560	-19.869	0.120	0.074
-145.545	-200.000	0.001	-0.104
-144.531	-200.000	0.002	0.091
-143.516	-129.323	0.078	0.011
-142.502	-6.393	-0.202	-0.137
-141.487	-17.992	-0.257	-0.160
-140.472	-165.754	-0.343	0.015
-139.458	190.566	-0.198	0.296
-138.443	104.300	-0.154	-0.180
-137.429	148.606	0.141	0.189
-136.414	77.378	0.038	0.040
-135.399	-81.684	0.278	0.091
-134.385	-200.000	-0.020	0.306
-133.370	-166.804	0.168	0.007
-132.356	22.753	0.360	-0.294
-131.341	-55.353	0.055	-0.025
-130.326	800.000	0.017	0.046
-129.312	800.000	-0.081	-0.240
-128.297	-76.247	0.503	-0.176
-127.283	-96.431	-0.172	0.045
-126.268	-200.000	0.031	-0.336
-125.253	-200.000	-0.045	-0.364
-124.239	-29.858	0.285	-0.162
-123.224	-1.307	0.182	0.128
-122.210	-10.103	0.106	0.070
-121.195	-19.926	0.058	0.036
