DTS Sentinel unit serial number:	SN413079Multiplexer serial number:	ORYXHardware model number:	OX4-SRSoftware version number:	ORYX F/W v4.00 Oryx Data Collector v3.7.2.0data status	okinstallation	princeton_trtdifferential loss correction	single-endedforward channel	channel 3reverse channel	N/Adate	2019/09/17time	20:40:35forward acquisition time	60.00reverse acquisition time	0.00gamma	496.2192k internal	0.2332k external	0.2332temperature offset calibration	0.9956default loss term (dB/km)	0.3790temperature slope calibration	1.0000multiplexer offset coefficient	1.0000multiplexer slope coefficient	1.0000fibre end	0.00T internal ref (°C)	29.89T ext. ref 1 (°C)	0.20T ext. ref 2 (°C)	20.85length (m)	temperature (°C)	Stokes	anti-Stokes-747.200	708.452	0.084	0.224
-746.185	800.000	-0.076	0.274
-745.171	331.520	-0.038	0.074
-744.156	-200.000	0.000	0.041
-743.142	318.084	0.049	0.094
-742.127	800.000	-0.082	0.247
-741.112	-177.682	0.052	0.001
-740.098	345.452	-0.156	0.309
-739.083	-16.889	-0.173	0.110
-738.069	-200.000	-0.003	0.122
-737.054	-200.000	0.004	0.157
-736.039	15.337	-0.176	0.139
-735.025	-200.000	-0.003	0.092
-734.010	-200.000	-0.007	0.229
-732.996	358.879	-0.132	0.265
-731.981	-106.736	-0.060	-0.013
-730.966	488.386	0.126	-0.290
-729.952	-200.000	-0.023	0.145
-728.937	61.347	-0.160	-0.160
-727.923	33.701	0.110	-0.096
-726.908	-200.000	-0.005	-0.090
-725.894	174.599	-0.067	-0.098
-724.879	525.802	-0.104	0.245
-723.864	27.867	-0.159	-0.134
-722.850	800.000	-0.034	0.098
-721.835	800.000	0.092	0.369
-720.821	18.095	-0.166	0.133
-719.806	-15.565	0.334	0.214
-718.791	43.219	0.201	0.184
-717.777	185.465	-0.119	0.178
-716.762	128.018	-0.018	0.023
-715.748	800.000	0.048	0.151
-714.733	435.397	-0.133	0.290
-713.718	488.660	-0.032	-0.075
-712.704	90.566	-0.061	-0.069
-711.689	52.850	0.274	-0.263
-710.675	-176.212	0.132	-0.003
-709.660	20.412	-0.083	-0.067
-708.645	81.834	0.076	-0.083
-707.631	8.791	0.104	0.079
-706.616	-118.439	-0.213	-0.038
-705.602	-200.000	0.051	0.341
-704.587	-200.000	0.011	-0.292
-703.572	800.000	0.070	0.199
-702.558	76.435	-0.332	0.354
-701.543	-28.698	-0.102	0.059
-700.529	-200.000	0.016	-0.142
-699.514	66.497	0.252	-0.257
-698.499	-200.000	-0.005	-0.441
-697.485	76.646	0.171	0.182
-696.470	-117.649	-0.068	-0.012
-695.456	215.994	0.134	0.213
-694.441	31.565	-0.414	0.358
-693.426	800.000	-0.029	0.094
-692.412	-112.253	-0.021	0.004
-691.397	172.785	0.094	-0.136
-690.383	210.801	0.258	-0.407
-689.368	312.602	-0.130	0.244
-688.354	-60.549	-0.129	-0.055
-687.339	-10.713	0.215	-0.143
-686.324	-122.880	-0.323	0.052
-685.310	265.289	-0.023	-0.041
-684.295	67.374	-0.161	-0.165
-683.281	-82.600	0.337	-0.110
-682.266	-200.000	0.005	0.024
-681.251	-200.000	-0.015	-0.162
-680.237	0.762	-0.195	0.140
-679.222	117.785	0.277	-0.342
-678.208	-84.784	0.181	-0.057
-677.193	135.447	0.052	0.068
-676.178	800.000	-0.020	0.062
-675.164	428.452	0.081	-0.176
-674.149	-200.000	0.115	0.000
-673.135	638.199	0.194	-0.496
-672.120	147.931	-0.187	-0.253
-671.105	-31.709	-0.111	-0.063
-670.091	-200.000	-0.006	0.133
-669.076	45.739	-0.217	-0.201
-668.062	-200.000	0.021	-0.147
-667.047	-79.745	-0.234	-0.079
-666.032	-28.164	-0.344	-0.200
-665.018	-200.000	0.002	-0.232
-664.003	-200.000	0.000	-0.121
-662.989	-200.000	0.056	-0.288
-661.974	-31.050	0.082	0.047
-660.959	-14.153	-0.436	0.282
-659.945	800.000	0.080	-0.281
-658.930	149.337	-0.084	-0.114
-657.916	482.305	-0.112	0.255
-656.901	122.969	0.189	0.238
-655.886	4.698	0.162	0.120
-654.872	-72.898	-0.166	0.061
-653.857	800.000	-0.085	-0.272
-652.843	-200.000	0.043	-0.260
-651.828	-200.000	0.012	-0.062
-650.814	4.503	0.253	0.186
-649.799	-119.007	-0.197	-0.035
-648.784	800.000	-0.056	-0.201
-647.770	-33.858	0.140	-0.077
-646.755	-73.730	-0.131	-0.048
-645.741	-45.381	-0.263	-0.131
-644.726	224.659	-0.140	-0.226
-643.711	38.291	0.107	-0.096
-642.697	800.000	-0.085	-0.322
-641.682	215.114	-0.123	-0.195
-640.668	522.310	-0.096	0.225
-639.653	800.000	-0.056	-0.175
-638.638	800.000	0.110	-0.315
-637.624	-157.387	-0.213	0.013
-636.609	-29.836	-0.265	0.151
-635.595	-27.553	0.207	-0.121
-634.580	68.627	-0.063	-0.065
-633.565	58.453	0.110	-0.109
-632.551	-200.000	0.034	-0.230
-631.536	13.794	-0.050	0.039
-630.522	43.156	-0.124	0.114
-629.507	-166.240	-0.142	-0.006
-628.492	703.066	-0.079	0.209
-627.478	256.514	-0.328	-0.565
-626.463	140.801	-0.194	-0.257
-625.449	29.782	-0.183	0.156
-624.434	47.426	-0.191	0.178
-623.419	-163.580	0.174	-0.008
-622.405	721.628	0.075	0.200
-621.390	-43.953	-0.169	-0.085
-620.376	-78.967	-0.217	-0.074
-619.361	441.540	0.060	0.132
-618.346	-2.280	0.062	0.043
-617.332	285.186	-0.153	0.276
-616.317	-78.243	0.273	-0.094
-615.303	-11.622	-0.059	-0.039
-614.288	-86.784	-0.168	-0.051
-613.273	-77.709	0.092	-0.032
-612.259	800.000	0.017	0.076
-611.244	-57.782	-0.312	-0.137
-610.230	90.567	-0.221	-0.247
-609.215	-66.008	-0.139	-0.056
-608.201	295.463	0.042	0.077
-607.186	-51.660	0.191	0.089
-606.171	-200.000	0.309	-0.001
-605.157	-93.248	0.146	-0.041
-604.142	216.423	0.201	0.320
-603.128	449.234	0.051	-0.112
-602.113	800.000	-0.081	-0.290
-601.098	-200.000	0.037	-0.262
-600.084	-139.160	0.194	0.021
-599.069	32.228	0.054	0.046
-598.055	101.211	0.213	0.248
-597.040	-172.504	-0.274	0.009
-596.025	-81.012	0.371	0.123
-595.011	800.000	-0.055	0.206
-593.996	-87.776	0.171	0.052
-592.982	208.381	-0.087	0.137
-591.967	59.573	-0.111	-0.109
-590.952	-20.632	0.144	-0.088
-589.938	-190.764	-0.319	-0.003
-588.923	-56.686	-0.170	-0.075
-587.909	403.040	0.044	-0.093
-586.894	-34.411	-0.373	-0.205
-585.879	45.211	0.133	-0.123
-584.865	320.389	-0.193	0.366
-583.850	-117.511	-0.314	0.057
-582.836	-62.457	-0.328	0.136
-581.821	-148.654	0.032	-0.003
-580.806	-200.000	-0.019	-0.136
-579.792	800.000	-0.101	-0.391
-578.777	-108.158	-0.123	-0.027
-577.763	-64.472	-0.232	0.094
-576.748	-89.766	0.226	0.066
-575.733	-200.000	0.037	0.374
-574.719	-102.975	0.282	-0.067
-573.704	-52.205	-0.170	0.079
-572.690	27.757	0.178	0.150
-571.675	296.458	-0.099	0.182
-570.661	-106.064	0.024	-0.005
-569.646	-200.000	0.001	0.017
-568.631	26.506	0.077	0.065
-567.617	-132.022	0.114	0.015
-566.602	800.000	0.145	-0.422
-565.588	376.379	-0.135	-0.275
-564.573	-138.948	-0.282	0.031
-563.558	371.883	0.140	-0.285
-562.544	88.849	-0.123	0.137
-561.529	-60.765	0.087	-0.037
-560.515	-154.322	-0.222	0.015
-559.500	-22.092	-0.110	-0.067
-558.485	-200.000	-0.014	0.364
-557.471	728.842	0.056	0.150
-556.456	14.729	-0.064	0.050
-555.442	-4.288	0.070	-0.048
-554.427	-200.000	-0.004	0.126
-553.412	-200.000	0.004	0.184
-552.398	-35.883	0.146	-0.079
-551.383	-200.000	-0.011	0.117
-550.369	-94.084	0.147	-0.040
-549.354	363.330	-0.072	0.145
-548.339	-195.541	0.232	-0.002
-547.325	165.361	-0.135	-0.190
-546.310	-20.486	0.130	0.080
-545.296	-76.503	-0.078	-0.027
-544.281	800.000	0.046	0.136
-543.266	-30.861	-0.105	0.059
-542.252	-38.661	-0.105	0.055
-541.237	-200.000	-0.043	0.302
-540.223	696.058	-0.078	-0.206
-539.208	-130.403	0.399	-0.054
-538.193	-48.211	0.357	-0.172
-537.179	-169.874	-0.049	-0.002
-536.164	-200.000	-0.006	-0.299
-535.150	-68.423	-0.395	0.153
-534.135	-148.789	0.076	-0.006
-533.121	269.060	0.072	0.126
-532.106	-32.087	-0.161	-0.090
-531.091	55.093	0.070	0.067
-530.077	-200.000	-0.010	0.220
-529.062	28.254	-0.192	-0.162
-528.048	-130.142	-0.345	0.047
-527.033	0.881	0.245	0.175
-526.018	-16.943	-0.266	-0.168
-525.004	-200.000	-0.002	-0.050
-523.989	172.843	-0.139	-0.200
-522.975	-172.303	0.097	-0.003
-521.960	-157.977	0.397	-0.023
-520.945	124.138	0.086	0.107
-519.931	-200.000	0.015	0.598
-518.916	800.000	0.085	-0.264
-517.902	-141.132	0.222	-0.023
-516.887	800.000	-0.024	-0.079
-515.872	800.000	0.044	-0.183
-514.858	-23.110	-0.100	0.060
-513.843	800.000	0.086	0.275
-512.829	-66.577	-0.074	0.029
-511.814	40.047	0.061	-0.054
-510.799	2.309	0.164	-0.118
-509.785	717.228	-0.029	0.077
-508.770	198.920	0.147	0.225
-507.756	-200.000	-0.010	-0.051
-506.741	27.326	0.143	-0.119
-505.726	-158.686	-0.256	0.015
-504.712	92.913	-0.096	0.108
-503.697	-81.397	-0.381	0.125
-502.683	-200.000	0.044	0.214
-501.668	371.282	-0.125	-0.253
-500.653	-14.660	0.067	-0.043
-499.639	-200.000	-0.062	0.293
-498.624	-200.000	0.030	0.220
-497.610	-200.000	0.040	0.230
-496.595	800.000	-0.040	-0.168
-495.581	-89.054	-0.071	0.021
-494.566	73.725	-0.138	0.144
-493.551	215.003	0.186	-0.293
-492.537	-8.692	0.015	0.010
-491.522	-68.375	0.420	-0.162
-490.508	482.496	-0.034	0.077
-489.493	-61.364	0.134	0.056
-488.478	127.336	-0.247	0.312
-487.464	-151.868	0.499	0.036
-486.449	-66.528	0.265	-0.105
-485.435	80.282	0.194	-0.208
-484.420	20.533	-0.164	0.132
-483.405	95.236	0.158	0.179
-482.391	112.341	0.020	0.024
-481.376	245.918	-0.073	0.123
-480.362	378.671	0.093	-0.189
-479.347	599.209	0.053	0.132
-478.332	-103.923	-0.133	-0.031
-477.318	0.182	-0.039	0.027
-476.303	-32.530	0.166	-0.092
-475.289	180.317	0.104	-0.152
-474.274	431.856	-0.207	-0.447
-473.259	5.973	0.361	-0.266
-472.245	76.154	0.165	-0.174
-471.230	225.526	0.198	0.320
-470.216	683.735	0.046	0.118
-469.201	29.371	0.261	0.221
-468.186	800.000	-0.026	-0.079
-467.172	-71.979	-0.035	0.013
-466.157	-87.077	-0.421	0.128
-465.143	368.582	-0.009	0.018
-464.128	800.000	-0.027	-0.080
-463.113	-200.000	0.040	0.253
-462.099	-38.426	0.514	-0.270
-461.084	483.001	-0.120	0.271
-460.070	-200.000	-0.089	-0.406
-459.055	-24.403	0.146	-0.087
-458.040	-152.174	-0.129	-0.009
-457.026	201.561	-0.218	-0.333
-456.011	800.000	-0.074	0.213
-454.997	90.238	0.127	-0.141
-453.982	-134.294	-0.338	-0.041
-452.968	302.137	0.063	0.117
-451.953	-138.155	-0.130	-0.014
-450.938	-200.000	0.023	-0.395
-449.924	-65.615	0.086	0.034
-448.909	-31.859	-0.282	0.157
-447.895	-120.406	0.362	0.061
-446.880	722.319	-0.037	0.098
-445.865	-130.971	-0.198	-0.026
-444.851	763.635	0.113	0.304
-443.836	391.292	-0.082	-0.169
-442.822	180.497	0.170	-0.248
-441.807	418.965	0.100	-0.213
-440.792	590.231	0.022	0.054
-439.778	9.298	-0.316	-0.238
-438.763	-136.510	0.381	-0.044
-437.749	641.254	-0.190	-0.481
-436.734	-200.000	0.030	0.281
-435.719	-200.000	-0.030	-0.236
-434.705	53.252	0.064	-0.061
-433.690	-65.108	0.323	-0.130
-432.676	614.016	-0.017	0.043
-431.661	52.989	0.119	-0.113
-430.646	-88.021	-0.351	0.105
-429.632	-200.000	0.042	0.326
-428.617	-200.000	-0.359	0.002
-427.603	-104.694	-0.066	0.015
-426.588	103.764	-0.045	0.052
-425.573	-83.918	-0.181	0.057
-424.559	-117.339	-0.213	0.038
-423.544	-33.323	-0.145	-0.080
-422.530	333.753	0.028	0.053
-421.515	-103.865	0.405	-0.094
-420.500	800.000	-0.058	-0.178
-419.486	-108.215	0.188	-0.040
-418.471	109.986	-0.148	-0.176
-417.457	-64.677	0.538	0.217
-416.442	-200.000	-0.035	-0.194
-415.428	-139.044	0.287	0.031
-414.413	-200.000	-0.042	-0.396
-413.398	800.000	0.065	0.234
-412.384	-11.438	-0.254	-0.166
-411.369	-179.272	0.069	0.002
-410.355	-17.419	-0.336	-0.210
-409.340	-167.980	0.081	0.003
-408.325	142.673	0.223	-0.294
-407.311	800.000	-0.034	-0.136
-406.296	-63.404	-0.134	-0.055
-405.282	-83.997	0.245	0.077
-404.267	66.350	0.074	-0.074
-403.252	47.831	-0.238	-0.221
-402.238	23.465	0.213	0.174
-401.223	85.833	-0.121	0.132
-400.209	-200.000	-0.018	-0.174
-399.194	-39.995	0.097	0.050
-398.179	-20.284	0.126	0.077
-397.165	-200.000	-0.011	0.153
-396.150	-70.925	-0.268	0.100
-395.136	-113.766	-0.311	-0.060
-394.121	800.000	-0.085	-0.264
-393.106	-101.928	-0.192	0.046
-392.092	45.439	0.187	-0.171
-391.077	-156.690	0.331	-0.020
-390.063	800.000	0.041	-0.128
-389.048	-187.847	-0.445	-0.006
-388.033	800.000	0.040	-0.158
-387.019	800.000	0.065	0.225
-386.004	780.745	0.125	0.340
-384.990	-147.515	-0.314	0.026
-383.975	235.490	0.198	0.324
-382.960	800.000	0.040	0.143
-381.946	135.949	0.163	-0.211
-380.931	-156.637	-0.176	-0.011
-379.917	186.062	0.046	-0.068
-378.902	242.126	0.120	0.200
-377.888	-200.000	0.003	-0.032
-376.873	800.000	-0.043	0.165
-375.858	215.748	0.024	-0.038
-374.844	800.000	0.039	0.114
-373.829	152.722	0.364	-0.494
-372.815	-200.000	-0.020	-0.157
-371.800	-135.432	0.398	-0.047
-370.785	-158.198	-0.226	0.013
-369.771	49.732	0.126	-0.118
-368.756	157.310	-0.105	0.143
-367.742	-76.789	-0.084	-0.029
-366.727	36.929	0.253	-0.222
-365.712	-200.000	-0.037	-0.259
-364.698	-200.000	0.013	-0.350
-363.683	-106.534	-0.069	-0.015
-362.669	391.088	-0.133	-0.273
-361.654	65.379	0.018	-0.018
-360.639	645.260	-0.089	0.225
-359.625	269.104	-0.142	0.247
-358.610	-39.899	0.143	-0.074
-357.596	183.188	0.175	-0.257
-356.581	220.292	-0.096	-0.152
-355.566	-200.000	0.044	0.264
-354.552	-157.364	0.102	0.006
-353.537	787.198	0.023	-0.063
-352.523	-39.492	-0.206	0.107
-351.508	-42.368	-0.183	-0.092
-350.493	-154.168	-0.267	-0.018
-349.479	269.208	0.040	-0.069
-348.464	156.792	-0.051	0.069
-347.450	-119.259	-0.114	-0.020
-346.435	-38.909	0.195	0.102
-345.420	170.471	0.051	-0.073
-344.406	-18.282	-0.177	-0.110
-343.391	-87.123	-0.323	0.097
-342.377	-2.728	0.172	0.119
-341.362	-79.447	0.272	0.091
-340.348	435.396	-0.114	0.247
-339.333	233.845	0.167	0.273
-338.318	39.269	0.307	-0.272
-337.304	-152.978	-0.107	-0.007
-336.289	-20.812	-0.204	0.124
-335.275	-200.000	0.015	0.175
-334.260	-127.524	-0.303	0.043
-333.245	45.056	-0.288	0.262
-332.231	-155.342	0.069	-0.004
-331.216	163.827	0.082	0.114
-330.202	-165.753	0.511	0.022
-329.187	-200.000	-0.028	-0.150
-328.172	-56.370	-0.469	-0.206
-327.158	107.371	0.067	-0.079
-326.143	-107.866	0.167	-0.036
-325.129	273.063	0.102	0.179
-324.114	206.949	-0.098	-0.151
-323.099	-141.384	-0.321	-0.032
-322.085	-97.754	0.204	0.052
-321.070	-65.013	0.025	0.010
-320.056	26.301	-0.311	0.257
-319.041	322.000	-0.087	-0.164
-318.026	51.416	0.237	-0.223
-317.012	5.457	-0.053	-0.039
-315.997	96.604	-0.106	-0.120
-314.983	418.688	-0.217	-0.458
-313.968	-132.143	0.219	-0.028
-312.953	800.000	0.093	0.334
-311.939	-158.543	-0.202	-0.012
-310.924	800.000	-0.014	0.048
-309.910	457.737	-0.024	0.053
-308.895	6.823	0.027	0.020
-307.880	-200.000	-0.026	-0.121
-306.866	101.673	-0.127	0.147
-305.851	-33.138	-0.351	0.192
-304.837	57.095	0.283	-0.272
-303.822	800.000	0.080	0.291
-302.807	-200.000	0.019	0.366
-301.793	-200.000	-0.017	-0.074
-300.778	-200.000	-0.041	0.283
-299.764	-21.036	0.201	0.122
-298.749	-81.676	-0.110	-0.036
-297.735	408.310	-0.165	0.346
-296.720	-200.000	0.024	-0.303
-295.705	-119.816	0.224	-0.038
-294.691	661.594	0.058	-0.149
-293.676	800.000	-0.097	-0.369
-292.662	533.653	-0.052	-0.122
-291.647	423.261	-0.039	-0.083
-290.632	11.929	-0.204	0.155
-289.618	30.251	0.168	-0.142
-288.603	13.642	0.180	-0.138
-287.589	-200.000	0.026	-0.192
-286.574	-121.300	0.109	0.018
-285.559	800.000	-0.077	0.216
-284.545	-78.793	-0.243	-0.082
-283.530	9.246	0.185	-0.138
-282.516	2.293	-0.213	0.152
-281.501	89.692	0.065	-0.071
-280.486	47.429	-0.258	-0.237
-279.472	9.773	0.288	-0.216
-278.457	-63.881	-0.303	0.123
-277.443	-137.057	-0.093	-0.011
-276.428	158.978	-0.170	0.233
-275.413	68.819	0.220	0.223
-274.399	168.063	-0.097	-0.136
-273.384	800.000	0.075	0.229
-272.370	-118.338	-0.130	-0.023
-271.355	95.755	0.169	0.190
-270.340	42.873	-0.186	0.168
-269.326	754.698	-0.004	0.012
-268.311	162.873	0.066	0.092
-267.297	-33.634	-0.226	0.123
-266.282	89.243	-0.219	-0.241
-265.267	800.000	0.016	-0.067
-264.253	-200.000	0.014	0.149
-263.238	-21.083	-0.155	-0.094
-262.224	800.000	-0.040	-0.165
-261.209	12.505	0.150	0.115
-260.195	115.519	-0.086	-0.103
-259.180	-51.359	0.075	0.035
-258.165	800.000	0.073	-0.276
-257.151	522.820	0.060	0.138
-256.136	40.483	0.232	0.206
-255.122	-24.612	0.252	0.148
-254.107	28.318	0.163	0.136
-253.092	94.976	0.065	0.073
-252.078	-200.000	0.053	0.231
-251.063	-200.000	0.004	-0.111
-250.049	-200.000	0.166	0.000
-249.034	148.238	0.087	-0.117
-248.019	-140.732	0.558	0.057
-247.005	118.652	0.112	0.137
-245.990	-45.114	0.209	-0.103
-244.976	-200.000	-0.052	-0.342
-243.961	-37.585	-0.075	0.039
-242.946	-200.000	0.002	0.135
-241.932	800.000	-0.023	0.084
-240.917	-94.842	0.769	0.206
-239.903	-114.557	0.116	0.022
-238.888	800.000	-0.011	0.045
-237.873	61.746	-0.238	-0.234
-236.859	-200.000	0.026	0.291
-235.844	22.170	0.082	0.066
-234.830	-200.000	-0.019	-0.159
-233.815	-25.266	-0.223	0.130
-232.800	-99.150	0.129	-0.032
-231.786	-76.154	0.264	0.092
-230.771	36.755	0.155	0.135
-229.757	152.878	-0.167	0.225
-228.742	72.382	0.167	0.172
-227.727	218.166	0.275	0.432
-226.713	-115.807	-0.241	0.044
-225.698	81.591	-0.090	-0.096
-224.684	-200.000	0.024	0.364
-223.669	328.149	-0.159	0.301
-222.655	-200.000	-0.058	-0.278
-221.640	-117.166	-0.193	0.035
-220.625	-200.000	0.024	-0.124
-219.611	-36.501	0.167	-0.088
-218.596	47.712	0.196	0.180
-217.582	800.000	-0.047	-0.160
-216.567	-114.679	0.244	0.046
-215.552	-64.811	0.411	0.164
-214.538	-200.000	-0.041	-0.228
-213.523	-15.808	0.143	0.090
-212.509	800.000	-0.013	0.039
-211.494	332.942	-0.152	-0.290
-210.479	275.262	0.216	-0.377
-209.465	103.661	0.181	-0.209
-208.450	-79.161	-0.385	0.129
-207.436	69.551	0.176	0.179
-206.421	123.786	0.154	0.190
-205.406	148.587	-0.198	-0.263
-204.392	194.853	0.084	0.126
-203.377	800.000	-0.047	0.191
-202.363	-42.487	-0.125	-0.063
-201.348	-154.000	0.184	-0.012
-200.333	157.686	-0.185	-0.252
-199.319	77.788	-0.242	0.254
-198.304	76.162	-0.074	0.077
-197.290	385.652	-0.058	-0.119
-196.275	-200.000	-0.020	-0.157
-195.260	101.616	-0.056	-0.064
-194.246	-170.775	-0.332	-0.011
-193.231	-47.157	0.580	-0.278
-192.217	-123.343	-0.203	0.032
-191.202	800.000	-0.156	0.464
-190.187	112.617	0.044	0.053
-189.173	-172.225	-0.294	0.009
-188.158	7.067	0.254	0.186
-187.144	-54.750	0.301	-0.134
-186.129	-40.465	0.101	0.052
-185.114	94.205	-0.125	0.139
-184.100	-80.696	0.186	0.061
-183.085	-80.139	0.214	0.071
-182.071	-57.195	-0.388	-0.168
-181.056	-91.486	0.231	0.065
-180.042	29.405	-0.259	-0.216
-179.027	-66.738	-0.231	-0.090
-178.012	800.000	-0.051	-0.184
-176.998	800.000	-0.102	0.284
-175.983	261.761	0.003	0.006
-174.969	283.084	0.027	-0.047
-173.954	-96.584	0.263	-0.068
-172.939	96.900	0.187	-0.211
-171.925	-200.000	-0.019	0.266
-170.910	-200.000	0.015	0.129
-169.896	-56.985	0.261	0.113
-168.881	234.619	-0.200	0.325
-167.866	800.000	-0.098	0.365
-166.852	188.952	-0.097	0.143
-165.837	-47.446	-0.254	-0.121
-164.823	800.000	-0.025	0.093
-163.808	-139.124	0.194	-0.021
-162.793	-200.000	0.042	0.284
-161.779	42.875	-0.080	0.072
-160.764	800.000	-0.056	-0.153
-159.750	-172.637	-0.397	-0.012
-158.735	-146.759	0.262	-0.022
-157.720	160.980	0.054	0.075
-156.706	-10.888	-0.107	0.070
-155.691	704.354	-0.019	-0.048
-154.677	757.919	-0.126	0.336
-153.662	106.087	-0.151	0.176
-152.647	230.091	0.136	-0.219
-151.633	-70.204	0.302	-0.113
-150.618	-14.823	-0.202	-0.127
-149.604	-101.071	0.141	-0.034
-148.589	-140.362	-0.174	0.018
-147.574	-100.688	-0.212	0.051
-146.560	-75.058	0.242	-0.085
-145.545	-52.058	-0.244	-0.111
-144.531	298.338	0.030	-0.054
-143.516	151.763	0.037	0.050
-142.502	-200.000	-0.028	-0.149
-141.487	-57.503	-0.214	0.092
-140.472	327.354	-0.147	0.276
-139.458	-42.090	-0.063	0.031
-138.443	-4.188	0.043	-0.030
-137.429	-132.850	-0.033	-0.004
-136.414	133.893	-0.212	0.269
-135.399	-91.533	0.069	-0.019
-134.385	-200.000	0.041	-0.289
-133.370	261.025	0.042	-0.072
-132.356	-30.762	0.104	0.058
-131.341	200.360	0.276	-0.417
-130.326	-39.050	0.362	0.187
-129.312	-77.419	-0.329	-0.112
-128.297	-193.801	-0.240	-0.002
-127.283	-72.985	0.181	-0.065
-126.268	-55.417	0.191	-0.084
-125.253	-200.000	0.014	-0.246
-124.239	-130.435	-0.139	0.018
-123.224	800.000	0.043	-0.162
-122.210	407.549	-0.248	-0.515
-121.195	264.879	-0.054	0.093
