DTS Sentinel unit serial number:	SN413079Multiplexer serial number:	ORYXHardware model number:	OX4-SRSoftware version number:	ORYX F/W v4.00 Oryx Data Collector v3.7.2.0data status	okinstallation	princeton_trtdifferential loss correction	single-endedforward channel	channel 3reverse channel	N/Adate	2019/09/16time	01:48:35forward acquisition time	60.00reverse acquisition time	0.00gamma	496.2192k internal	0.2337k external	0.2337temperature offset calibration	0.9954default loss term (dB/km)	0.3790temperature slope calibration	1.0000multiplexer offset coefficient	1.0000multiplexer slope coefficient	1.0000fibre end	0.00T internal ref (°C)	27.37T ext. ref 1 (°C)	10.02T ext. ref 2 (°C)	22.25length (m)	temperature (°C)	Stokes	anti-Stokes-747.200	-96.104	-0.561	0.150
-746.185	7.718	-0.401	0.301
-745.171	68.481	-0.023	0.024
-744.156	800.000	-0.092	0.281
-743.142	-34.088	0.313	0.173
-742.127	800.000	-0.019	0.069
-741.112	-69.723	0.303	0.116
-740.098	-7.603	-0.234	0.159
-739.083	-81.623	-0.254	-0.084
-738.069	131.310	-0.097	0.125
-737.054	304.812	0.079	-0.147
-736.039	-125.914	-0.250	-0.038
-735.025	-101.526	0.336	0.082
-734.010	-198.923	-0.423	0.002
-732.996	321.956	0.043	-0.083
-731.981	-200.000	0.049	-0.431
-730.966	414.086	-0.220	-0.471
-729.952	-151.787	0.043	-0.003
-728.937	-85.357	-0.340	-0.106
-727.923	13.436	0.137	0.106
-726.908	-21.788	0.098	0.060
-725.894	-169.845	-0.137	-0.005
-724.879	-200.000	-0.030	-0.323
-723.864	43.169	0.159	-0.146
-722.850	-56.119	-0.206	-0.092
-721.835	333.636	0.112	-0.218
-720.821	79.491	-0.071	0.077
-719.806	-18.993	-0.249	-0.155
-718.791	166.897	0.030	0.042
-717.777	353.295	0.046	0.091
-716.762	278.482	0.142	0.253
-715.748	25.766	0.112	0.094
-714.733	27.663	0.243	0.205
-713.718	64.229	0.290	-0.293
-712.704	-17.903	0.144	0.091
-711.689	315.577	0.186	0.352
-710.675	-200.000	0.022	-0.159
-709.660	677.730	-0.077	-0.200
-708.645	-29.684	0.190	0.109
-707.631	800.000	0.054	0.217
-706.616	73.322	0.119	0.124
-705.602	-99.554	0.222	-0.056
-704.587	-25.211	-0.256	-0.152
-703.572	351.100	-0.127	-0.253
-702.558	-200.000	-0.072	0.417
-701.543	-121.533	0.302	-0.050
-700.529	99.227	-0.130	-0.151
-699.514	-139.747	-0.166	-0.018
-698.499	-200.000	-0.025	0.341
-697.485	800.000	0.119	0.404
-696.470	258.307	-0.222	0.382
-695.456	-92.722	-0.175	-0.049
-694.441	34.938	-0.041	-0.036
-693.426	800.000	-0.095	-0.370
-692.412	537.203	0.058	-0.137
-691.397	-109.842	0.473	0.100
-690.383	-154.487	-0.239	0.016
-689.368	261.556	-0.081	-0.141
-688.354	-200.000	-0.027	-0.311
-687.339	-73.632	-0.162	0.059
-686.324	62.016	0.173	-0.173
-685.310	90.981	-0.211	-0.237
-684.295	-108.746	-0.148	-0.032
-683.281	-115.243	-0.346	-0.066
-682.266	180.788	-0.016	0.023
-681.251	-79.595	-0.116	-0.039
-680.237	524.339	-0.091	0.215
-679.222	-100.527	-0.362	-0.090
-678.208	208.051	-0.191	0.298
-677.193	300.109	-0.069	-0.127
-676.178	-200.000	0.042	-0.232
-675.164	-61.196	-0.264	0.111
-674.149	103.686	-0.180	0.212
-673.135	800.000	-0.128	-0.368
-672.120	-37.412	-0.103	-0.055
-671.105	-200.000	-0.001	-0.290
-670.091	565.527	-0.053	0.128
-669.076	-152.802	-0.189	-0.013
-668.062	338.600	-0.129	-0.252
-667.047	-155.597	0.132	-0.009
-666.032	800.000	-0.075	-0.220
-665.018	800.000	-0.057	-0.188
-664.003	208.404	0.039	-0.061
-662.989	0.221	0.168	-0.120
-661.974	348.386	-0.238	-0.470
-660.959	235.326	-0.112	0.185
-659.945	-55.199	0.220	0.099
-658.930	-69.305	0.291	0.112
-657.916	-36.955	0.140	-0.075
-656.901	739.875	-0.092	-0.247
-655.886	55.612	0.084	-0.082
-654.872	374.052	0.126	0.257
-653.857	800.000	0.057	0.227
-652.843	118.298	-0.161	-0.198
-651.828	-200.000	0.022	0.439
-650.814	171.182	0.097	0.139
-649.799	383.762	-0.073	0.151
-648.784	-34.762	-0.355	-0.194
-647.770	-49.423	0.252	0.120
-646.755	-144.024	0.189	-0.018
-645.741	800.000	0.019	-0.060
-644.726	180.883	-0.165	-0.243
-643.711	362.069	0.171	0.343
-642.697	-55.573	0.390	0.175
-641.682	50.529	-0.313	-0.296
-640.668	-200.000	-0.029	-0.497
-639.653	-31.805	-0.267	0.150
-638.638	668.561	0.050	0.129
-637.624	-147.139	0.146	0.012
-636.609	250.664	0.175	0.298
-635.595	-120.151	-0.330	-0.056
-634.580	800.000	0.052	0.185
-633.565	-47.832	-0.276	0.134
-632.551	-144.963	0.080	-0.007
-631.536	244.207	0.058	0.097
-630.522	800.000	-0.042	0.159
-629.507	-58.837	-0.061	0.026
-628.492	-8.832	-0.320	-0.214
-627.478	-200.000	-0.043	-0.265
-626.463	-28.659	-0.172	0.099
-625.449	800.000	-0.063	-0.177
-624.434	-94.975	-0.269	-0.073
-623.419	19.059	0.151	-0.121
-622.405	-84.898	0.116	0.036
-621.390	-64.303	0.384	-0.156
-620.376	566.899	0.021	0.050
-619.361	-95.247	-0.263	0.071
-618.346	-179.441	-0.320	-0.007
-617.332	-90.383	-0.108	-0.031
-616.317	320.723	-0.208	0.395
-615.303	-168.874	-0.446	0.017
-614.288	-92.185	0.289	0.082
-613.273	-12.375	0.228	0.149
-612.259	21.925	0.085	0.069
-611.244	-62.918	0.051	0.021
-610.230	75.830	-0.036	0.038
-609.215	-40.345	0.288	0.150
-608.201	-49.216	0.342	-0.163
-607.186	-134.269	0.088	-0.011
-606.171	800.000	-0.015	-0.049
-605.157	191.450	0.188	0.282
-604.142	-152.624	0.128	-0.009
-603.128	800.000	-0.069	-0.242
-602.113	-200.000	-0.026	-0.196
-601.098	595.228	-0.059	0.147
-600.084	572.791	-0.079	-0.193
-599.069	18.051	-0.189	-0.151
-598.055	51.053	0.348	0.330
-597.040	-149.677	0.532	0.042
-596.025	-80.556	-0.215	0.072
-595.011	800.000	-0.105	0.352
-593.996	-42.422	-0.262	0.133
-592.982	-165.028	0.261	-0.012
-591.967	-19.368	-0.186	-0.115
-590.952	-200.000	0.049	-0.221
-589.938	101.727	-0.100	0.117
-588.923	-53.114	0.237	-0.109
-587.909	-103.435	-0.039	-0.009
-586.894	-74.711	-0.278	-0.100
-585.879	-73.260	0.058	0.021
-584.865	-114.541	0.078	0.015
-583.850	631.557	-0.082	-0.207
-582.836	-100.061	0.111	-0.027
-581.821	653.758	-0.026	-0.067
-580.806	-102.370	-0.304	-0.073
-579.792	-200.000	0.051	-0.347
-578.777	-170.234	-0.459	0.016
-577.763	-43.055	-0.207	0.105
-576.748	-82.885	-0.205	0.066
-575.733	800.000	0.066	-0.239
-574.719	800.000	0.047	0.173
-573.704	297.170	-0.159	-0.291
-572.690	-200.000	-0.006	-0.184
-571.675	113.609	-0.162	-0.197
-570.661	211.619	0.140	-0.220
-569.646	-93.061	-0.142	0.039
-568.631	243.457	0.108	0.181
-567.617	226.995	-0.090	-0.146
-566.602	-116.263	0.043	-0.008
-565.588	800.000	-0.073	-0.301
-564.573	-27.577	0.056	-0.032
-563.558	-89.381	0.326	-0.096
-562.544	356.939	0.133	-0.263
-561.529	433.391	0.013	-0.029
-560.515	-200.000	0.029	-0.339
-559.500	512.438	0.183	0.425
-558.485	-17.741	-0.273	0.171
-557.471	-200.000	0.012	-0.097
-556.456	21.952	-0.187	-0.152
-555.442	-200.000	-0.087	0.390
-554.427	800.000	0.074	-0.276
-553.412	46.337	0.352	-0.325
-552.398	-200.000	-0.040	-0.257
-551.383	-73.700	0.231	0.084
-550.369	-2.711	-0.044	-0.031
-549.354	732.715	0.078	-0.209
-548.339	376.519	-0.049	0.101
-547.325	800.000	0.029	-0.087
-546.310	-158.934	-0.170	0.010
-545.296	210.980	-0.203	-0.318
-544.281	25.725	-0.152	-0.126
-543.266	-120.955	-0.330	-0.055
-542.252	-200.000	-0.038	0.312
-541.237	323.508	-0.050	0.095
-540.223	29.045	-0.326	0.275
-539.208	-2.286	0.203	-0.142
-538.193	800.000	-0.093	0.261
-537.179	-95.341	-0.073	-0.020
-536.164	-180.664	0.319	0.007
-535.150	800.000	0.084	0.250
-534.135	313.836	0.296	0.554
-533.121	-128.747	0.037	-0.005
-532.106	-18.333	-0.344	0.214
-531.091	318.458	-0.164	-0.309
-530.077	297.691	0.127	-0.232
-529.062	-169.843	-0.223	0.008
-528.048	77.127	0.074	0.079
-527.033	-200.000	0.017	-0.104
-526.018	-20.771	-0.405	-0.248
-525.004	20.926	0.107	0.086
-523.989	-7.064	-0.242	-0.164
-522.975	-200.000	0.023	-0.196
-521.960	-61.190	0.318	-0.134
-520.945	455.604	0.084	-0.186
-519.931	-156.697	0.367	-0.023
-518.916	-147.095	-0.465	0.040
-517.902	800.000	0.158	-0.485
-516.887	144.664	-0.064	0.085
-515.872	800.000	0.061	-0.210
-514.858	-37.015	-0.153	0.081
-513.843	-200.000	0.000	-0.026
-512.829	-172.600	-0.259	0.008
-511.814	-200.000	-0.012	-0.255
-510.799	-200.000	-0.045	-0.235
-509.785	-63.829	-0.154	0.063
-508.770	-42.493	0.356	-0.180
-507.756	-20.506	0.303	0.185
-506.741	392.946	0.124	-0.256
-505.726	-109.128	0.350	0.074
-504.712	-200.000	0.006	0.065
-503.697	-5.824	0.059	-0.040
-502.683	-4.500	-0.160	0.110
-501.668	375.532	-0.135	0.273
-500.653	-110.718	0.177	-0.036
-499.639	127.796	-0.169	-0.213
-498.624	579.616	0.042	0.102
-497.610	-153.325	0.145	0.010
-496.595	800.000	0.157	-0.436
-495.581	800.000	-0.042	0.123
-494.566	500.856	-0.049	-0.112
-493.551	-88.503	-0.121	0.036
-492.537	-75.814	-0.145	-0.051
-491.522	-111.019	-0.143	0.029
-490.508	-200.000	-0.013	-0.135
-489.493	-163.991	0.179	0.008
-488.478	-96.797	-0.048	0.012
-487.464	-200.000	0.019	-0.275
-486.449	800.000	-0.056	-0.172
-485.435	-200.000	-0.016	-0.227
-484.420	800.000	0.097	0.276
-483.405	76.668	-0.111	0.117
-482.391	-125.907	0.073	0.011
-481.376	-0.124	0.094	0.066
-480.362	-159.472	0.425	-0.024
-479.347	-85.578	-0.215	0.066
-478.332	-165.646	0.122	-0.005
-477.318	-161.569	-0.266	-0.014
-476.303	1.419	0.261	0.186
-475.289	-102.781	-0.305	-0.072
-474.274	-126.999	-0.159	-0.023
-473.259	165.618	0.128	-0.180
-472.245	310.216	0.189	0.351
-471.230	-200.000	-0.007	-0.105
-470.216	514.332	0.034	0.079
-469.201	135.364	-0.127	-0.164
-468.186	143.372	-0.110	0.146
-467.172	-131.012	-0.135	0.018
-466.157	-200.000	0.031	0.136
-465.143	-159.010	0.319	0.018
-464.128	21.882	0.289	-0.234
-463.113	-108.481	0.208	-0.044
-462.099	-64.733	0.487	-0.196
-461.084	-200.000	-0.027	-0.125
-460.070	800.000	0.041	-0.151
-459.055	138.036	0.206	-0.268
-458.040	144.828	-0.110	-0.146
-457.026	-12.451	-0.084	0.055
-456.011	342.899	0.111	0.216
-454.997	-200.000	-0.006	0.147
-453.982	-25.346	-0.176	-0.103
-452.968	-98.345	0.288	0.073
-451.953	-148.152	0.456	-0.037
-450.938	205.949	-0.099	-0.153
-449.924	58.312	-0.336	0.327
-448.909	-95.312	0.256	0.068
-447.895	-35.118	-0.438	0.237
-446.880	251.980	-0.133	-0.225
-445.865	40.731	0.234	-0.209
-444.851	-125.978	-0.390	-0.058
-443.836	-111.383	0.165	-0.033
-442.822	19.793	-0.130	0.104
-441.807	-58.600	-0.328	-0.141
-440.792	196.193	-0.170	-0.257
-439.778	-87.918	0.092	0.027
-438.763	800.000	0.092	-0.332
-437.749	86.859	-0.274	-0.300
-436.734	-64.973	0.058	0.023
-435.719	384.318	-0.061	-0.126
-434.705	100.180	0.057	-0.065
-433.690	22.793	0.069	-0.056
-432.676	81.284	-0.252	0.270
-431.661	-23.316	0.078	-0.046
-430.646	26.518	-0.353	0.293
-429.632	112.739	-0.101	-0.122
-428.617	-129.956	-0.281	-0.038
-427.603	48.102	-0.042	0.039
-426.588	329.159	0.084	-0.161
-425.573	-117.187	0.325	0.059
-424.559	-67.660	-0.264	-0.102
-423.544	-127.777	-0.140	-0.020
-422.530	277.303	-0.062	-0.110
-421.515	305.540	-0.146	-0.268
-420.500	800.000	0.027	0.099
-419.486	-200.000	0.001	0.230
-418.471	-33.377	0.128	-0.070
-417.457	106.114	0.101	0.118
-416.442	131.317	0.134	0.170
-415.428	21.514	-0.260	-0.209
-414.413	601.948	-0.129	0.317
-413.398	41.507	0.198	0.178
-412.384	461.547	0.228	-0.504
-411.369	-200.000	0.012	-0.096
-410.355	654.511	-0.038	0.098
-409.340	-59.247	-0.131	0.056
-408.325	-200.000	-0.008	-0.301
-407.311	2.685	-0.065	0.046
-406.296	181.431	-0.086	-0.125
-405.282	-200.000	0.043	0.193
-404.267	-77.372	0.045	-0.015
-403.252	-200.000	-0.072	-0.338
-402.238	92.070	0.152	-0.170
-401.223	-200.000	-0.004	-0.156
-400.209	-9.899	-0.084	-0.055
-399.194	378.184	0.044	-0.089
-398.179	-19.326	0.304	-0.187
-397.165	522.739	-0.090	0.210
-396.150	36.922	-0.305	-0.267
-395.136	-101.341	0.059	-0.014
-394.121	-200.000	-0.026	0.405
-393.106	-78.115	-0.286	-0.097
-392.092	-79.377	-0.278	0.093
-391.077	145.436	0.157	0.208
-390.063	-200.000	-0.028	-0.423
-389.048	800.000	-0.099	0.354
-388.033	-200.000	0.020	0.122
-387.019	-200.000	0.012	0.315
-386.004	601.846	-0.093	0.229
-384.990	-200.000	-0.007	-0.193
-383.975	-93.643	0.039	0.011
-382.960	81.996	-0.266	-0.286
-381.946	133.589	0.030	-0.039
-380.931	208.226	-0.063	-0.098
-379.917	-13.095	-0.302	-0.195
-378.902	61.112	0.355	0.349
-377.888	-5.619	-0.145	0.098
-376.873	-200.000	-0.024	-0.246
-375.858	-200.000	0.008	0.066
-374.844	-91.888	0.093	0.026
-373.829	-149.793	0.297	-0.023
-372.815	800.000	-0.047	-0.196
-371.800	-200.000	0.027	-0.169
-370.785	-37.638	-0.257	0.135
-369.771	-7.847	0.039	0.026
-368.756	50.435	0.210	0.196
-367.742	-44.124	-0.283	-0.140
-366.727	-167.772	0.153	-0.006
-365.712	-89.352	0.358	0.104
-364.698	74.420	0.204	-0.212
-363.683	-2.899	-0.165	0.114
-362.669	4.914	0.156	-0.113
-361.654	-83.042	0.253	-0.081
-360.639	-200.000	-0.029	-0.193
-359.625	-114.535	0.152	0.029
-358.610	-200.000	-0.051	0.304
-357.596	-37.236	-0.171	0.090
-356.581	104.400	0.105	0.122
-355.566	25.799	0.115	0.095
-354.552	159.234	0.161	0.221
-353.537	-200.000	0.024	0.220
-352.523	516.476	-0.054	0.125
-351.508	163.388	-0.048	-0.066
-350.493	-7.558	0.243	0.162
-349.479	319.487	0.166	-0.311
-348.464	141.124	-0.187	-0.245
-347.450	-200.000	0.040	0.329
-346.435	-200.000	-0.001	-0.104
-345.420	800.000	-0.040	0.159
-344.406	-128.047	0.153	-0.022
-343.391	89.288	0.138	-0.152
-342.377	-60.920	-0.308	0.129
-341.362	58.575	0.239	0.232
-340.348	-28.862	0.140	0.080
-339.333	-200.000	0.001	0.138
-338.318	-172.910	-0.171	-0.005
-337.304	-200.000	-0.019	0.356
-336.289	-200.000	-0.015	0.492
-335.275	-0.055	0.177	-0.125
-334.260	-125.786	-0.222	-0.033
-333.245	373.495	0.112	0.226
-332.231	-102.569	0.203	-0.048
-331.216	-200.000	-0.039	0.219
-330.202	800.000	0.028	-0.107
-329.187	-85.792	0.293	-0.090
-328.172	142.730	0.032	0.042
-327.158	800.000	-0.054	0.188
-326.143	-172.422	0.320	0.010
-325.129	-200.000	0.012	-0.169
-324.114	-200.000	0.011	-0.077
-323.099	-43.098	0.214	-0.107
-322.085	-94.425	-0.157	-0.042
-321.070	-157.688	0.078	0.005
-320.056	-76.425	0.090	-0.031
-319.041	404.283	0.092	0.191
-318.026	-180.382	-0.046	-0.001
-317.012	-14.888	0.115	0.073
-315.997	-200.000	0.016	0.082
-314.983	-200.000	0.002	-0.022
-313.968	-200.000	-0.007	-0.112
-312.953	-200.000	0.036	0.213
-311.939	592.258	-0.035	-0.085
-310.924	-41.234	-0.345	-0.175
-309.910	-150.809	-0.259	0.019
-308.895	224.224	0.107	0.170
-307.880	800.000	-0.113	-0.458
-306.866	371.381	-0.038	-0.077
-305.851	800.000	0.112	0.317
-304.837	554.334	-0.042	0.100
-303.822	184.562	-0.078	0.113
-302.807	-140.447	-0.387	-0.040
-301.793	-117.417	-0.164	0.029
-300.778	-117.863	-0.191	-0.034
-299.764	800.000	0.006	-0.019
-298.749	-200.000	-0.016	0.124
-297.735	800.000	-0.072	0.217
-296.720	9.566	0.381	-0.285
-295.705	240.725	0.069	-0.113
-294.691	-89.304	0.140	0.041
-293.676	-46.719	0.075	-0.036
-292.662	2.331	-0.301	0.215
-291.647	293.735	0.135	0.243
-290.632	-56.906	0.288	0.126
-289.618	-4.050	0.272	0.186
-288.603	-74.845	-0.157	-0.056
-287.589	-53.355	0.069	0.031
-286.574	-200.000	-0.023	-0.118
-285.559	-77.770	0.224	0.076
-284.545	146.380	0.156	-0.207
-283.530	-54.480	-0.164	-0.073
-282.516	8.857	0.340	-0.253
-281.501	250.489	-0.098	-0.164
-280.486	68.476	-0.049	0.049
-279.472	-200.000	0.002	0.344
-278.457	-78.338	0.078	0.026
-277.443	-133.624	0.104	0.013
-276.428	-167.516	-0.180	0.007
-275.413	141.384	-0.053	-0.069
-274.399	-200.000	-0.015	0.156
-273.384	-10.723	-0.199	-0.130
-272.370	147.204	0.004	0.005
-271.355	5.300	0.227	0.165
-270.340	297.037	0.141	0.255
-269.326	397.304	-0.109	0.225
-268.311	-136.043	-0.360	0.042
-267.297	148.186	-0.082	0.109
-266.282	110.926	-0.014	-0.017
-265.267	-3.611	-0.358	-0.245
-264.253	-142.647	0.318	-0.031
-263.238	-129.943	0.152	-0.021
-262.224	-9.795	-0.232	0.152
-261.209	-84.443	-0.178	-0.055
-260.195	92.877	0.094	-0.105
-259.180	-103.986	0.237	-0.054
-258.165	292.633	0.122	-0.218
-257.151	-35.312	0.116	-0.062
-256.136	-117.740	0.431	0.076
-255.122	-21.641	0.240	0.144
-254.107	800.000	0.040	-0.134
-253.092	-200.000	0.024	0.236
-252.078	118.423	0.212	0.257
-251.063	52.024	0.023	-0.021
-250.049	59.836	-0.115	0.112
-249.034	-34.000	-0.104	-0.056
-248.019	-99.356	0.217	-0.054
-247.005	-72.771	0.413	-0.150
-245.990	224.485	-0.107	0.170
-244.976	17.133	-0.179	-0.139
-243.961	322.878	0.048	0.089
-242.946	-134.225	-0.223	-0.027
-241.932	800.000	-0.029	-0.120
-240.917	800.000	-0.076	0.214
-239.903	-109.322	-0.105	-0.022
-238.888	-200.000	0.228	-0.000
-237.873	-118.782	-0.029	-0.005
-236.859	-64.635	-0.296	-0.118
-235.844	118.999	-0.097	-0.117
-234.830	-94.130	0.146	-0.039
-233.815	107.094	0.035	-0.041
-232.800	18.823	0.098	0.077
-231.786	800.000	-0.072	0.206
-230.771	182.847	0.167	0.242
-229.757	115.217	-0.046	-0.055
-228.742	-200.000	0.025	0.332
-227.727	800.000	0.063	0.237
-226.713	-84.097	0.333	0.104
-225.698	-200.000	-0.009	0.112
-224.684	-200.000	0.014	-0.064
-223.669	77.323	0.261	-0.274
-222.655	-200.000	0.012	-0.218
-221.640	-115.763	0.157	-0.029
-220.625	-84.232	-0.090	0.028
-219.611	73.182	0.094	0.097
-218.596	-200.000	0.003	-0.302
-217.582	1.308	0.206	0.146
-216.567	800.000	-0.023	0.089
-215.552	220.920	-0.070	0.110
-214.538	-36.010	-0.478	-0.254
-213.523	310.328	0.108	-0.200
-212.509	-200.000	-0.016	0.247
-211.494	166.836	0.157	-0.219
-210.479	800.000	-0.066	-0.273
-209.465	448.116	0.116	0.252
-208.450	800.000	-0.080	0.246
-207.436	800.000	-0.075	0.269
-206.421	-10.917	-0.075	-0.049
-205.406	-96.993	-0.115	-0.030
-204.392	-176.883	0.205	-0.005
-203.377	199.133	0.172	0.260
-202.363	-91.273	0.128	0.036
-201.348	-200.000	-0.046	-0.427
-200.333	800.000	-0.101	0.284
-199.319	-148.973	0.212	0.017
-198.304	283.104	-0.136	-0.241
-197.290	-1.932	0.207	0.143
-196.275	-100.004	0.216	0.053
-195.260	-51.407	-0.233	0.107
-194.246	247.872	-0.098	-0.162
-193.231	-123.424	-0.089	0.014
-192.217	800.000	0.026	-0.107
-191.202	-200.000	-0.028	0.216
-190.187	-5.302	-0.068	-0.046
-189.173	-200.000	-0.027	0.140
-188.158	166.068	-0.191	0.266
-187.144	7.123	-0.049	0.036
-186.129	-36.437	-0.132	-0.070
-185.114	47.770	-0.258	-0.236
-184.100	-200.000	0.003	-0.034
-183.085	119.716	0.221	-0.268
-182.071	-200.000	0.013	-0.145
-181.056	-113.222	-0.108	-0.021
-180.042	151.223	0.104	0.139
-179.027	294.353	0.021	0.037
-178.012	-72.311	0.167	-0.061
-176.998	800.000	-0.105	0.286
-175.983	146.963	-0.095	-0.126
-174.969	130.981	-0.114	-0.144
-173.954	55.667	0.247	0.235
-172.939	20.211	-0.185	-0.147
-171.925	-105.492	0.143	-0.032
-170.910	-42.316	-0.306	-0.154
-169.896	-200.000	-0.069	0.366
-168.881	-25.741	0.108	0.063
-167.866	-33.432	-0.145	-0.079
-166.852	-26.901	-0.091	-0.052
-165.837	-141.876	-0.328	0.032
-164.823	-104.950	-0.339	-0.076
-163.808	119.632	0.179	0.218
-162.793	623.165	-0.159	0.392
-161.779	-26.451	-0.167	0.096
-160.764	317.372	-0.132	0.246
-159.750	-200.000	-0.072	0.352
-158.735	-83.723	0.302	0.095
-157.720	176.735	-0.219	0.312
-156.706	-40.903	0.117	0.059
-155.691	225.009	0.119	0.189
-154.677	360.929	-0.020	0.040
-153.662	-84.872	0.115	-0.036
-152.647	-48.800	0.080	-0.037
-151.633	800.000	0.042	0.153
-150.618	15.336	0.248	0.191
-149.604	100.433	-0.154	0.175
-148.589	144.638	-0.333	0.436
-147.574	800.000	0.050	0.168
-146.560	-200.000	-0.015	-0.133
-145.545	-200.000	-0.001	0.068
-144.531	215.146	-0.142	0.221
-143.516	-114.105	0.173	0.033
-142.502	429.631	-0.191	-0.406
-141.487	74.857	-0.217	0.224
-140.472	21.553	-0.077	0.062
-139.458	263.576	0.113	-0.192
-138.443	-96.624	0.126	0.033
-137.429	-115.920	0.177	0.032
-136.414	-47.420	0.049	-0.023
-135.399	791.400	0.160	0.432
-134.385	208.157	0.139	-0.214
-133.370	177.547	0.064	0.092
-132.356	594.537	0.095	-0.230
-131.341	101.660	-0.035	0.040
-130.326	282.588	-0.147	-0.258
-129.312	48.578	-0.207	-0.191
-128.297	87.631	-0.108	-0.117
-127.283	-103.811	0.201	0.046
-126.268	-200.000	-0.070	0.504
-125.253	-200.000	-0.060	0.318
-124.239	-156.808	0.217	-0.013
-123.224	800.000	-0.124	-0.339
-122.210	-104.363	-0.079	0.018
