DTS Sentinel unit serial number:	SN413079Multiplexer serial number:	ORYXHardware model number:	OX4-SRSoftware version number:	ORYX F/W v4.00 Oryx Data Collector v3.7.2.0data status	okinstallation	princeton_trtdifferential loss correction	single-endedforward channel	channel 3reverse channel	N/Adate	2019/09/18time	19:44:35forward acquisition time	60.00reverse acquisition time	0.00gamma	496.2192k internal	0.2327k external	0.2327temperature offset calibration	1.0003default loss term (dB/km)	0.3790temperature slope calibration	1.0000multiplexer offset coefficient	1.0000multiplexer slope coefficient	1.0000fibre end	0.00T internal ref (°C)	31.61T ext. ref 1 (°C)	1.02T ext. ref 2 (°C)	22.09length (m)	temperature (°C)	Stokes	anti-Stokes-747.200	-13.310	-0.150	0.098
-746.185	44.172	0.195	0.180
-745.171	-147.247	0.204	-0.017
-744.156	258.533	0.174	0.302
-743.142	-152.589	-0.381	0.027
-742.127	-200.000	0.048	0.289
-741.112	-97.417	0.317	0.083
-740.098	-66.497	0.264	0.106
-739.083	-200.000	-0.014	-0.197
-738.069	488.952	0.117	0.269
-737.054	260.458	-0.220	0.384
-736.039	-104.435	-0.193	-0.045
-735.025	-200.000	-0.025	0.349
-734.010	105.853	0.247	-0.295
-732.996	-200.000	-0.025	0.147
-731.981	-200.000	-0.025	0.165
-730.966	-100.485	0.091	-0.023
-729.952	38.786	-0.191	-0.172
-728.937	-48.500	-0.072	0.035
-727.923	-154.810	-0.257	-0.017
-726.908	-4.276	0.264	-0.184
-725.894	186.129	-0.065	0.097
-724.879	-140.467	0.215	0.023
-723.864	-200.000	-0.003	-0.073
-722.850	-67.808	-0.221	-0.087
-721.835	-200.000	0.053	-0.278
-720.821	800.000	-0.085	-0.284
-719.806	-200.000	0.009	-0.085
-718.791	-12.200	0.098	0.065
-717.777	-48.985	-0.076	-0.037
-716.762	81.428	-0.084	0.092
-715.748	-200.000	-0.025	0.298
-714.733	-143.181	-0.087	0.008
-713.718	21.829	0.082	0.068
-712.704	-35.621	0.311	0.170
-711.689	308.302	-0.025	0.047
-710.675	363.684	-0.076	-0.155
-709.660	181.691	0.129	-0.191
-708.645	-200.000	-0.060	0.285
-707.631	417.999	-0.071	0.153
-706.616	226.133	0.085	-0.139
-705.602	800.000	0.017	-0.057
-704.587	448.589	-0.132	0.292
-703.572	203.095	0.092	-0.143
-702.558	-75.174	-0.209	0.075
-701.543	301.890	0.069	-0.128
-700.529	150.166	0.064	-0.087
-699.514	-75.835	0.317	-0.113
-698.499	-200.000	-0.027	-0.184
-697.485	-89.784	0.025	0.007
-696.470	-21.675	0.310	-0.190
-695.456	-36.199	0.024	-0.013
-694.441	48.343	-0.336	0.317
-693.426	22.829	-0.301	-0.248
-692.412	34.173	-0.095	-0.083
-691.397	-6.173	-0.063	0.043
-690.383	38.246	-0.018	0.016
-689.368	60.079	-0.101	0.101
-688.354	-61.170	-0.043	0.018
-687.339	143.228	-0.080	-0.107
-686.324	-47.790	-0.088	-0.043
-685.310	-108.892	-0.004	-0.001
-684.295	800.000	-0.090	-0.295
-683.281	-200.000	-0.053	-0.350
-682.266	87.360	0.311	0.346
-681.251	22.256	-0.224	0.184
-680.237	-200.000	-0.023	-0.396
-679.222	21.754	-0.242	0.198
-678.208	-19.435	0.069	0.043
-677.193	78.552	0.180	-0.194
-676.178	-79.402	0.184	-0.063
-675.164	-31.584	-0.110	0.062
-674.149	204.641	-0.156	0.243
-673.135	183.312	-0.174	-0.259
-672.120	-52.294	-0.270	0.126
-671.105	-200.000	0.028	-0.263
-670.091	-200.000	0.014	0.122
-669.076	-99.402	-0.265	0.067
-668.062	-200.000	-0.027	-0.265
-667.047	249.822	-0.043	0.072
-666.032	-111.284	-0.138	-0.028
-665.018	555.044	0.081	0.196
-664.003	20.882	0.120	-0.098
-662.989	-2.308	0.173	-0.122
-661.974	-45.263	-0.121	0.061
-660.959	-126.658	0.087	0.013
-659.945	13.634	-0.175	0.136
-658.930	-88.019	-0.119	-0.036
-657.916	341.553	0.141	0.278
-656.901	-25.989	0.216	-0.128
-655.886	-72.081	-0.240	-0.089
-654.872	215.967	0.081	0.130
-653.857	-183.997	0.211	-0.004
-652.843	-98.310	0.110	-0.028
-651.828	-39.306	-0.416	-0.219
-650.814	107.883	-0.102	-0.122
-649.799	159.363	0.034	-0.047
-648.784	800.000	0.079	0.269
-647.770	107.643	0.107	-0.128
-646.755	4.354	0.224	-0.165
-645.741	-112.238	-0.173	0.035
-644.726	-127.565	-0.310	-0.045
-643.711	500.414	0.076	0.175
-642.697	345.579	0.083	0.164
-641.682	-55.797	0.182	0.082
-640.668	-200.000	0.022	-0.329
-639.653	-200.000	-0.012	-0.157
-638.638	-43.717	0.013	0.006
-637.624	-29.173	-0.317	-0.183
-636.609	379.930	0.032	-0.066
-635.595	-64.211	-0.394	0.161
-634.580	-89.592	-0.397	0.117
-633.565	108.137	-0.050	-0.060
-632.551	124.140	0.229	-0.288
-631.536	-10.093	0.080	-0.053
-630.522	234.381	-0.220	0.364
-629.507	42.605	-0.025	-0.023
-628.492	194.191	-0.088	0.133
-627.478	-200.000	0.003	-0.534
-626.463	45.531	0.211	-0.195
-625.449	260.176	0.110	-0.190
-624.434	800.000	-0.049	-0.207
-623.419	-200.000	0.045	-0.251
-622.405	225.760	-0.075	-0.121
-621.390	800.000	0.075	0.225
-620.376	-78.744	-0.123	0.042
-619.361	-14.698	-0.014	0.009
-618.346	-7.685	0.224	0.152
-617.332	167.261	-0.050	-0.071
-616.317	-200.000	-0.045	0.256
-615.303	-200.000	-0.011	-0.118
-614.288	-150.329	0.008	-0.001
-613.273	154.968	0.106	0.147
-612.259	800.000	0.116	-0.348
-611.244	97.331	0.096	-0.110
-610.230	-129.888	0.397	-0.055
-609.215	28.733	0.117	-0.100
-608.201	-14.626	0.145	0.093
-607.186	185.259	-0.093	-0.138
-606.171	249.308	0.154	-0.262
-605.157	-32.915	0.052	-0.029
-604.142	1.176	-0.453	-0.326
-603.128	800.000	0.033	0.105
-602.113	-200.000	-0.029	0.200
-601.098	266.201	-0.122	0.214
-600.084	-177.636	-0.193	0.005
-599.069	95.121	-0.031	-0.035
-598.055	-130.984	-0.326	-0.044
-597.040	-10.774	0.520	-0.344
-596.025	-200.000	0.030	0.133
-595.011	-53.356	-0.213	0.098
-593.996	-49.388	0.383	0.183
-592.982	130.503	-0.226	0.291
-591.967	-150.960	0.324	-0.025
-590.952	217.113	-0.113	-0.180
-589.938	800.000	-0.095	-0.281
-588.923	372.633	0.105	0.214
-587.909	-105.655	0.142	0.032
-586.894	-105.606	0.336	-0.076
-585.879	497.821	-0.035	0.081
-584.865	-200.000	-0.037	-0.207
-583.850	-81.827	-0.131	-0.043
-582.836	231.797	0.052	0.086
-581.821	800.000	-0.116	-0.400
-580.806	-52.464	-0.149	-0.069
-579.792	37.347	0.256	0.227
-578.777	46.116	0.144	-0.134
-577.763	121.858	-0.081	-0.101
-576.748	197.125	0.096	-0.147
-575.733	-200.000	-0.017	-0.203
-574.719	-44.302	-0.566	0.284
-573.704	-200.000	-0.097	0.509
-572.690	-68.229	-0.048	-0.019
-571.675	182.917	0.074	0.109
-570.661	80.876	-0.307	-0.332
-569.646	-32.534	-0.275	0.153
-568.631	44.651	0.236	-0.217
-567.617	-200.000	0.036	-0.369
-566.602	-200.000	-0.012	-0.058
-565.588	49.405	0.210	-0.198
-564.573	147.245	-0.109	0.147
-563.558	-200.000	0.018	0.192
-562.544	-141.935	0.092	0.009
-561.529	-75.105	-0.145	-0.052
-560.515	-200.000	-0.038	-0.235
-559.500	110.648	-0.213	-0.256
-558.485	-28.347	-0.244	-0.141
-557.471	135.385	0.148	-0.193
-556.456	-169.096	0.056	0.002
-555.442	58.845	-0.162	0.160
-554.427	-68.660	0.255	0.099
-553.412	376.822	0.095	0.194
-552.398	7.236	0.202	0.151
-551.383	-96.659	0.232	-0.061
-550.369	790.595	0.123	-0.337
-549.354	25.279	0.068	0.057
-548.339	-26.920	0.070	-0.041
-547.325	-49.122	-0.248	-0.119
-546.310	-200.000	0.011	-0.383
-545.296	48.067	-0.174	0.162
-544.281	184.392	-0.253	0.374
-543.266	401.412	-0.061	-0.128
-542.252	767.938	-0.099	-0.268
-541.237	-179.483	-0.160	0.004
-540.223	800.000	0.060	-0.195
-539.208	4.254	0.102	-0.075
-538.193	-80.682	0.249	-0.083
-537.179	800.000	0.025	0.107
-536.164	749.505	0.042	-0.113
-535.150	-53.139	0.144	0.066
-534.135	-153.077	-0.190	0.013
-533.121	425.866	-0.032	-0.069
-532.106	-7.697	-0.155	-0.105
-531.091	-200.000	0.057	-0.253
-530.077	-21.349	-0.054	0.033
-529.062	-143.123	-0.317	-0.031
-528.048	-137.624	-0.250	0.028
-527.033	112.928	-0.356	0.431
-526.018	-200.000	0.005	-0.160
-525.004	318.935	-0.117	0.222
-523.989	706.227	0.088	0.231
-522.975	-35.552	0.129	-0.070
-521.960	-200.000	0.000	0.271
-520.945	34.670	0.192	0.168
-519.931	-172.547	0.178	-0.006
-518.916	236.029	0.035	-0.058
-517.902	-200.000	-0.041	-0.238
-516.887	478.175	-0.160	0.362
-515.872	-106.329	0.154	-0.034
-514.858	107.722	0.249	-0.297
-513.843	-63.006	-0.144	-0.059
-512.829	-114.419	-0.102	0.020
-511.814	176.022	0.144	0.209
-510.799	-200.000	0.006	-0.083
-509.785	-200.000	0.006	0.081
-508.770	52.203	0.046	0.044
-507.756	-200.000	0.001	-0.092
-506.741	-112.179	0.242	-0.049
-505.726	-155.434	0.133	-0.009
-504.712	-19.773	-0.245	0.151
-503.697	77.010	-0.137	0.146
-502.683	800.000	-0.010	0.035
-501.668	-31.304	0.082	0.046
-500.653	216.452	-0.071	-0.112
-499.639	61.826	0.226	0.225
-498.624	800.000	0.073	0.234
-497.610	-46.026	-0.224	0.110
-496.595	-200.000	-0.022	-0.141
-495.581	-69.417	0.258	0.099
-494.566	33.945	-0.197	0.172
-493.551	-200.000	0.001	0.159
-492.537	-200.000	-0.034	0.155
-491.522	-200.000	-0.027	0.123
-490.508	329.718	-0.033	0.063
-489.493	-124.058	-0.493	-0.077
-488.478	-132.447	0.198	0.025
-487.464	800.000	0.007	-0.021
-486.449	461.009	-0.094	-0.209
-485.435	-200.000	-0.045	0.240
-484.420	333.384	0.043	-0.083
-483.405	-200.000	0.025	0.362
-482.391	800.000	-0.056	0.171
-481.376	215.456	-0.144	0.229
-480.362	-200.000	-0.032	-0.170
-479.347	62.108	0.009	-0.009
-478.332	56.427	0.164	-0.159
-477.318	13.778	0.116	-0.090
-476.303	61.170	0.213	-0.211
-475.289	198.365	-0.181	-0.276
-474.274	-65.662	0.407	-0.163
-473.259	489.128	-0.062	-0.142
-472.245	325.895	0.109	0.209
-471.230	-200.000	0.021	0.110
-470.216	-47.889	-0.459	-0.222
-469.201	212.978	0.090	-0.143
-468.186	390.008	-0.178	0.368
-467.172	-38.023	0.243	0.129
-466.157	-26.382	0.126	0.074
-465.143	-200.000	-0.024	0.238
-464.128	800.000	-0.040	0.154
-463.113	-200.000	0.005	0.048
-462.099	310.306	-0.019	-0.035
-461.084	-161.296	0.316	0.016
-460.070	710.555	0.052	-0.138
-459.055	14.690	-0.330	-0.257
-458.040	-10.695	0.259	0.171
-457.026	-88.111	-0.177	-0.053
-456.011	-124.473	0.051	-0.008
-454.997	-145.134	0.480	-0.043
-453.982	-40.021	-0.056	0.029
-452.968	-97.210	-0.355	-0.092
-451.953	-118.973	0.297	-0.052
-450.938	-119.455	-0.358	-0.062
-449.924	384.682	-0.040	0.082
-448.909	-200.000	0.002	0.132
-447.895	-107.146	0.230	0.051
-446.880	557.677	0.131	-0.314
-445.865	262.012	-0.037	0.063
-444.851	-64.340	0.269	-0.109
-443.836	-156.554	-0.252	-0.016
-442.822	741.144	-0.070	0.187
-441.807	-25.976	-0.312	-0.183
-440.792	-10.215	0.071	-0.047
-439.778	-99.632	-0.399	-0.100
-438.763	-8.073	0.180	-0.121
-437.749	-200.000	0.001	-0.103
-436.734	800.000	-0.032	0.092
-435.719	224.470	0.109	0.176
-434.705	547.233	0.044	0.105
-433.690	-99.221	0.016	-0.004
-432.676	88.118	-0.079	-0.088
-431.661	800.000	0.031	-0.088
-430.646	-61.563	-0.268	0.112
-429.632	-33.934	-0.163	0.089
-428.617	229.670	-0.152	-0.248
-427.603	-49.838	-0.203	0.096
-426.588	505.802	0.102	0.234
-425.573	-145.037	0.099	0.009
-424.559	-200.000	0.021	-0.254
-423.544	-87.043	-0.612	-0.186
-422.530	56.487	0.089	0.086
-421.515	-7.903	0.429	0.288
-420.500	637.265	0.094	0.239
-419.486	7.154	-0.214	0.159
-418.471	-33.308	-0.290	0.160
-417.457	-28.671	-0.242	0.138
-416.442	22.265	0.233	0.190
-415.428	-65.289	-0.144	0.058
-414.413	90.729	0.155	-0.173
-413.398	-164.822	0.203	-0.009
-412.384	-43.005	-0.267	0.135
-411.369	158.154	0.097	-0.134
-410.355	-200.000	0.072	-0.386
-409.340	-49.612	-0.211	-0.100
-408.325	800.000	0.044	0.186
-407.311	-22.378	-0.383	-0.231
-406.296	-70.197	0.233	-0.088
-405.282	64.180	-0.194	-0.194
-404.267	-54.865	0.196	0.088
-403.252	-83.371	-0.382	0.122
-402.238	-14.479	0.157	0.100
-401.223	265.313	0.113	0.197
-400.209	-8.189	-0.104	0.069
-399.194	-86.744	-0.319	-0.097
-398.179	273.694	0.062	0.110
-397.165	-123.901	-0.058	0.009
-396.150	-200.000	-0.028	-0.147
-395.136	800.000	0.073	-0.261
-394.121	-200.000	0.007	-0.199
-393.106	-167.888	0.438	-0.017
-392.092	-112.445	0.110	0.022
-391.077	586.655	-0.153	0.374
-390.063	685.870	-0.060	-0.157
-389.048	82.117	-0.155	0.167
-388.033	485.927	0.011	-0.025
-387.019	-65.732	0.253	0.101
-386.004	155.537	0.086	-0.118
-384.990	33.252	-0.162	0.139
-383.975	10.444	-0.065	-0.049
-382.960	-107.692	0.313	-0.068
-381.946	180.092	-0.042	0.061
-380.931	585.758	0.155	-0.380
-379.917	304.401	-0.170	0.314
-378.902	165.025	-0.174	-0.244
-377.888	70.416	-0.290	0.298
-376.873	19.546	-0.259	-0.207
-375.858	-200.000	0.021	0.102
-374.844	-35.530	0.066	-0.036
-373.829	800.000	-0.020	0.060
-372.815	92.541	-0.124	0.139
-371.800	136.530	-0.277	-0.359
-370.785	50.222	-0.107	-0.100
-369.771	111.573	0.307	0.368
-368.756	-200.000	-0.024	0.271
-367.742	137.267	-0.181	0.235
-366.727	-200.000	-0.028	0.124
-365.712	-127.909	0.313	0.045
-364.698	-118.322	-0.330	0.058
-363.683	-36.810	0.182	-0.097
-362.669	96.042	-0.149	-0.169
-361.654	7.506	0.102	-0.075
-360.639	-200.000	-0.008	0.247
-359.625	-47.620	0.278	-0.134
-358.610	-200.000	-0.012	0.221
-357.596	-200.000	-0.032	-0.272
-356.581	-45.340	-0.338	0.167
-355.566	-200.000	0.029	0.172
-354.552	283.949	0.089	-0.160
-353.537	127.010	0.159	0.200
-352.523	66.861	-0.274	0.277
-351.508	-95.756	-0.125	0.033
-350.493	43.153	0.202	0.183
-349.479	-59.904	0.251	-0.106
-348.464	72.498	-0.134	-0.139
-347.450	-200.000	-0.052	-0.280
-346.435	208.089	0.184	-0.285
-345.420	79.930	0.044	-0.047
-344.406	-98.553	0.182	0.046
-343.391	267.026	-0.089	0.155
-342.377	-130.159	0.099	-0.013
-341.362	-200.000	-0.031	0.143
-340.348	-69.060	0.456	-0.174
-339.333	85.782	-0.139	0.151
-338.318	101.748	0.133	0.154
-337.304	-76.376	0.193	0.067
-336.289	39.335	-0.232	0.206
-335.275	-118.122	-0.163	0.029
-334.260	800.000	-0.087	-0.257
-333.245	-37.374	0.069	-0.036
-332.231	-200.000	-0.020	-0.156
-331.216	-10.261	0.331	0.218
-330.202	-56.203	-0.314	-0.138
-329.187	39.496	0.039	0.035
-328.172	-73.199	-0.207	0.075
-327.158	73.636	-0.209	-0.217
-326.143	225.503	-0.098	-0.157
-325.129	-67.253	0.199	0.078
-324.114	-200.000	0.014	0.181
-323.099	57.781	0.120	0.116
-322.085	-200.000	0.331	0.000
-321.070	228.051	0.193	-0.312
-320.056	138.079	0.209	0.272
-319.041	-37.509	0.031	0.016
-318.026	80.705	-0.151	0.161
-317.012	800.000	-0.105	0.457
-315.997	-168.891	-0.106	0.004
-314.983	-36.413	0.161	0.086
-313.968	417.086	0.041	-0.087
-312.953	-154.961	0.014	0.001
-311.939	800.000	-0.112	-0.327
-310.924	-30.127	-0.262	-0.148
-309.910	-41.325	-0.310	0.158
-308.895	-138.563	-0.113	0.012
-307.880	-153.258	-0.493	-0.034
-306.866	-124.083	-0.126	0.020
-305.851	63.725	0.087	0.087
-304.837	-133.484	0.466	-0.058
-303.822	-200.000	-0.030	-0.170
-302.807	116.677	-0.197	-0.240
-301.793	800.000	-0.113	-0.450
-300.778	-200.000	0.009	-0.117
-299.764	563.304	-0.040	-0.096
-298.749	-33.984	-0.266	-0.145
-297.735	-200.000	0.036	0.238
-296.720	57.697	-0.202	0.196
-295.705	-35.528	0.220	0.118
-294.691	92.902	-0.133	0.148
-293.676	-30.342	0.143	-0.080
-292.662	-67.250	-0.073	-0.028
-291.647	16.982	0.130	0.102
-290.632	-13.172	0.304	-0.196
-289.618	-200.000	-0.023	0.275
-288.603	-103.522	0.075	0.018
-287.589	-19.959	-0.099	0.061
-286.574	247.459	0.069	-0.116
-285.559	-118.450	0.304	0.053
-284.545	343.179	-0.200	-0.389
-283.530	-53.698	-0.478	0.216
-282.516	-67.761	0.332	-0.129
-281.501	54.030	0.189	-0.180
-280.486	-200.000	-0.003	-0.053
-279.472	-35.482	0.185	0.099
-278.457	98.628	-0.115	0.132
-277.443	800.000	0.103	0.412
-276.428	-200.000	-0.079	0.364
-275.413	-200.000	0.002	0.095
-274.399	-200.000	0.080	0.408
-273.384	1.425	0.066	0.047
-272.370	800.000	0.056	-0.177
-271.355	-33.302	0.376	-0.206
-270.340	64.331	0.229	0.229
-269.326	11.758	-0.288	0.219
-268.311	529.280	0.112	0.261
-267.297	31.712	-0.111	0.094
-266.282	-45.247	0.044	0.022
-265.267	-61.054	0.028	0.012
-264.253	-200.000	-0.004	0.285
-263.238	19.284	0.096	0.077
-262.224	-86.860	-0.513	-0.155
-261.209	-200.000	-0.064	-0.284
-260.195	28.850	0.073	-0.061
-259.180	72.132	0.233	-0.240
-258.165	-143.796	0.066	-0.006
-257.151	13.681	0.242	-0.186
-256.136	142.903	0.177	0.232
-255.122	-79.396	-0.233	-0.078
-254.107	-55.299	0.130	-0.058
-253.092	-114.253	-0.058	0.011
-252.078	-103.921	0.044	0.010
-251.063	-127.837	0.023	-0.003
-250.049	-116.052	-0.326	-0.060
-249.034	-38.551	0.174	0.091
-248.019	-87.015	0.181	-0.055
-247.005	264.661	-0.096	-0.166
-245.990	450.063	-0.013	-0.027
-244.976	-71.487	0.434	-0.160
-243.961	-200.000	0.008	-0.179
-242.946	-200.000	-0.029	-0.249
-241.932	-200.000	-0.017	0.200
-240.917	-78.580	0.039	0.013
-239.903	-70.169	0.147	0.055
-238.888	-46.429	-0.401	0.195
-237.873	135.772	-0.079	0.101
-236.859	4.297	0.207	0.150
-235.844	284.576	-0.107	-0.190
-234.830	-151.447	0.212	0.016
-233.815	203.335	0.084	-0.129
-232.800	-144.463	-0.130	-0.012
-231.786	800.000	0.051	-0.217
-230.771	37.670	0.296	-0.260
-229.757	110.677	-0.047	0.055
-228.742	795.543	0.074	0.202
-227.727	-200.000	-0.043	-0.234
-226.713	-20.905	-0.082	0.049
-225.698	-64.732	0.210	0.084
-224.684	-113.410	0.218	-0.042
-223.669	101.100	0.163	0.187
-222.655	800.000	-0.068	0.258
-221.640	307.330	0.078	-0.143
-220.625	143.840	0.105	0.138
-219.611	-3.917	-0.310	-0.212
-218.596	-200.000	0.037	0.162
-217.582	62.559	0.251	0.248
-216.567	-200.000	-0.061	-0.357
-215.552	377.372	-0.087	0.176
-214.538	-200.000	-0.004	-0.045
-213.523	-95.106	0.126	0.034
-212.509	96.821	-0.111	-0.126
-211.494	214.693	-0.149	0.234
-210.479	-167.120	-0.136	0.005
-209.465	-176.799	-0.196	0.005
-208.450	-165.374	0.361	-0.016
-207.436	-36.973	-0.112	-0.059
-206.421	-14.888	-0.153	-0.097
-205.406	800.000	0.022	-0.074
-204.392	800.000	0.111	-0.453
-203.377	-123.111	-0.436	0.069
-202.363	-12.006	0.342	0.221
-201.348	800.000	-0.059	0.163
-200.333	198.923	0.136	0.206
-199.319	-150.044	0.118	-0.009
-198.304	-86.942	0.143	-0.043
-197.290	-40.027	0.130	-0.067
-196.275	-56.076	0.151	-0.066
-195.260	233.655	-0.101	-0.164
-194.246	11.354	-0.230	-0.174
-193.231	-135.098	0.238	-0.028
-192.217	-200.000	-0.002	0.090
-191.202	-200.000	-0.005	0.258
-190.187	-200.000	0.040	-0.194
-189.173	-75.437	-0.387	-0.136
-188.158	-133.383	0.276	-0.034
-187.144	360.875	0.058	0.115
-186.129	-132.220	-0.253	0.032
-185.114	-200.000	0.045	-0.246
-184.100	800.000	0.080	0.244
-183.085	214.644	-0.103	0.161
-182.071	-138.461	0.173	0.019
-181.056	800.000	-0.105	0.293
-180.042	46.981	0.388	0.355
-179.027	99.093	0.221	0.252
-178.012	24.975	-0.184	-0.151
-176.998	-200.000	-0.024	-0.121
-175.983	-141.470	0.275	-0.027
-174.969	152.453	0.241	0.325
-173.954	484.193	-0.089	0.199
-172.939	800.000	0.051	0.152
-171.925	-64.524	0.214	0.086
-170.910	430.322	0.034	-0.072
-169.896	16.952	0.144	-0.113
-168.881	81.779	-0.060	0.064
-167.866	-65.670	0.335	-0.132
-166.852	14.380	0.043	-0.033
-165.837	-81.073	-0.128	-0.042
-164.823	-16.367	-0.289	-0.181
-163.808	-53.329	0.132	-0.060
-162.793	333.137	-0.172	-0.328
-161.779	-44.745	0.207	0.102
-160.764	800.000	-0.044	0.142
-159.750	433.427	0.081	0.173
-158.735	-141.303	-0.127	-0.013
-157.720	-48.773	-0.183	-0.087
-156.706	65.809	-0.201	-0.201
-155.691	203.898	-0.162	-0.247
-154.677	-79.576	-0.097	0.032
-153.662	-25.777	0.101	-0.059
-152.647	-145.700	-0.100	0.009
-151.633	-200.000	0.018	-0.108
-150.618	197.135	0.042	0.063
-149.604	-3.058	0.182	0.125
-148.589	-200.000	0.007	0.158
-147.574	-200.000	-0.011	-0.072
-146.560	-200.000	0.005	0.022
-145.545	-49.260	0.275	-0.129
-144.531	32.379	-0.079	0.067
-143.516	797.109	-0.021	-0.057
-142.502	16.980	-0.168	-0.131
-141.487	-64.477	-0.300	-0.120
-140.472	231.128	0.193	-0.311
-139.458	-133.758	0.041	-0.005
-138.443	-100.293	-0.196	0.048
-137.429	6.602	-0.111	0.081
-136.414	-200.000	-0.015	0.185
-135.399	-200.000	0.083	-0.400
-134.385	-124.258	-0.341	0.053
-133.370	800.000	-0.056	-0.210
-132.356	225.635	-0.170	-0.271
-131.341	800.000	-0.073	-0.200
-130.326	-200.000	-0.006	-0.262
-129.312	-200.000	-0.007	-0.186
-128.297	599.954	-0.081	0.198
-127.283	-200.000	-0.002	-0.205
-126.268	800.000	-0.071	-0.209
-125.253	-200.000	0.000	-0.176
-124.239	-129.888	0.134	0.018
-123.224	-120.119	0.097	0.016
-122.210	5.635	-0.319	0.232
-121.195	-200.000	0.053	-0.355
