DTS Sentinel unit serial number:	SN413079Multiplexer serial number:	ORYXHardware model number:	OX4-SRSoftware version number:	ORYX F/W v4.00 Oryx Data Collector v3.7.2.0data status	okinstallation	princeton_trtdifferential loss correction	single-endedforward channel	channel 3reverse channel	N/Adate	2019/09/13time	11:36:35forward acquisition time	60.00reverse acquisition time	0.00gamma	496.2192k internal	0.2312k external	0.2312temperature offset calibration	1.0140default loss term (dB/km)	0.3790temperature slope calibration	1.0000multiplexer offset coefficient	1.0000multiplexer slope coefficient	1.0000fibre end	0.00T internal ref (°C)	32.94T ext. ref 1 (°C)	4.43T ext. ref 2 (°C)	30.07length (m)	temperature (°C)	Stokes	anti-Stokes-747.200	-49.465	0.302	0.146
-746.185	162.886	0.163	-0.232
-745.171	71.188	0.228	0.240
-744.156	-155.774	-0.272	-0.018
-743.142	320.967	0.146	-0.281
-742.127	177.179	0.042	-0.061
-741.112	-29.164	-0.306	0.178
-740.098	43.258	0.024	0.022
-739.083	-57.780	-0.016	0.007
-738.069	-121.771	0.201	0.034
-737.054	23.300	-0.134	-0.111
-736.039	-200.000	0.006	-0.131
-735.025	176.027	0.230	0.338
-734.010	413.555	0.165	-0.356
-732.996	103.966	-0.159	0.190
-731.981	131.402	-0.050	-0.065
-730.966	800.000	-0.130	-0.461
-729.952	452.712	-0.083	-0.186
-728.937	-130.962	-0.297	-0.040
-727.923	299.158	-0.073	0.136
-726.908	-151.992	0.266	-0.020
-725.894	-127.299	-0.188	0.028
-724.879	92.985	-0.163	0.187
-723.864	319.804	0.147	-0.283
-722.850	85.822	-0.158	0.176
-721.835	63.633	-0.132	-0.134
-720.821	-200.000	0.003	0.286
-719.806	-200.000	0.002	0.252
-718.791	800.000	-0.058	0.217
-717.777	293.013	-0.080	-0.149
-716.762	18.543	-0.120	-0.097
-715.748	-108.595	-0.142	-0.031
-714.733	137.660	-0.021	-0.028
-713.718	55.569	-0.108	0.106
-712.704	12.483	0.085	0.066
-711.689	-200.000	0.054	-0.424
-710.675	17.094	-0.214	-0.172
-709.660	-97.976	-0.211	0.055
-708.645	800.000	0.069	0.262
-707.631	-81.030	-0.139	0.047
-706.616	-6.927	0.159	0.109
-705.602	794.820	0.059	-0.164
-704.587	37.415	-0.189	0.170
-703.572	-49.949	0.311	-0.150
-702.558	-147.952	0.088	0.007
-701.543	755.850	-0.063	-0.173
-700.529	-200.000	-0.074	-0.344
-699.514	800.000	-0.095	-0.290
-698.499	-117.353	0.165	-0.030
-697.485	-200.000	-0.079	0.596
-696.470	86.183	0.123	-0.137
-695.456	748.851	-0.056	0.154
-694.441	46.397	-0.186	-0.174
-693.426	-151.328	-0.142	0.011
-692.412	-19.971	0.108	0.068
-691.397	-113.166	0.281	-0.056
-690.383	-120.685	-0.448	0.077
-689.368	-3.397	0.123	-0.087
-688.354	800.000	0.068	0.250
-687.339	-39.835	0.204	0.108
-686.324	-200.000	-0.012	-0.086
-685.310	76.539	0.226	-0.243
-684.295	-99.700	-0.500	0.127
-683.281	-37.045	0.203	0.110
-682.266	122.230	0.096	-0.121
-681.251	-139.082	0.224	0.025
-680.237	139.195	0.098	0.131
-679.222	454.292	-0.103	0.230
-678.208	-104.054	0.075	-0.018
-677.193	81.330	0.037	0.040
-676.178	443.435	0.065	-0.144
-675.164	-200.000	0.017	-0.089
-674.149	10.611	0.297	-0.229
-673.135	-74.362	-0.330	-0.121
-672.120	-200.000	0.022	-0.229
-671.105	-54.654	0.238	0.109
-670.091	-47.783	-0.309	-0.152
-669.076	638.128	-0.063	0.163
-668.062	-168.389	-0.280	0.011
-667.047	200.969	-0.047	0.074
-666.032	-200.000	0.046	0.475
-665.018	-104.747	-0.155	-0.036
-664.003	-104.932	-0.255	0.059
-662.989	-198.149	-0.318	-0.002
-661.974	-200.000	0.026	0.544
-660.959	-200.000	0.043	0.304
-659.945	-28.561	0.209	0.121
-658.930	-68.049	-0.258	-0.102
-657.916	166.942	-0.095	0.136
-656.901	-155.437	0.088	-0.006
-655.886	-146.126	-0.371	-0.033
-654.872	47.633	0.078	0.074
-653.857	-119.587	0.117	0.021
-652.843	9.383	-0.398	-0.304
-651.828	12.512	0.083	0.065
-650.814	716.603	0.031	-0.082
-649.799	-71.303	0.404	0.153
-648.784	-53.824	0.359	0.166
-647.770	-92.281	0.082	-0.023
-646.755	138.347	-0.114	0.152
-645.741	-200.000	-0.015	0.229
-644.726	216.326	-0.015	0.023
-643.711	800.000	-0.091	-0.353
-642.697	306.276	-0.175	-0.329
-641.682	235.606	-0.040	-0.066
-640.668	-131.844	0.238	0.031
-639.653	22.445	-0.089	0.073
-638.638	800.000	-0.014	-0.041
-637.624	452.692	-0.024	-0.053
-636.609	617.345	0.024	-0.062
-635.595	-156.607	-0.115	-0.007
-634.580	-132.549	-0.269	-0.035
-633.565	-81.869	-0.238	-0.079
-632.551	-200.000	-0.010	0.172
-631.536	-36.608	0.174	-0.095
-630.522	729.637	-0.095	-0.257
-629.507	65.221	-0.149	0.152
-628.492	800.000	0.039	-0.140
-627.478	-54.620	-0.173	0.079
-626.463	-127.498	0.144	-0.021
-625.449	-200.000	0.279	-0.001
-624.434	-145.191	0.221	0.020
-623.419	-112.655	0.129	0.026
-622.405	-183.713	-0.299	-0.005
-621.390	-63.564	0.162	-0.067
-620.376	-172.748	-0.205	-0.006
-619.361	-180.400	-0.175	-0.004
-618.346	190.980	-0.102	0.156
-617.332	-114.883	0.050	0.010
-616.317	-200.000	-0.004	-0.074
-615.303	58.125	0.187	0.185
-614.288	-15.564	0.249	0.160
-613.273	207.960	0.104	0.163
-612.259	-114.769	0.040	0.008
-611.244	399.374	-0.082	0.173
-610.230	-38.508	0.279	0.149
-609.215	-61.545	-0.189	0.080
-608.201	-5.101	-0.093	0.064
-607.186	800.000	0.094	-0.325
-606.171	800.000	-0.071	0.199
-605.157	141.891	0.156	0.209
-604.142	-128.849	0.100	0.014
-603.128	143.733	0.287	0.386
-602.113	-200.000	0.007	0.389
-601.098	-13.328	-0.136	-0.089
-600.084	-199.719	0.383	0.002
-599.069	-200.000	-0.016	-0.248
-598.055	-0.938	0.364	-0.260
-597.040	-81.309	0.311	-0.103
-596.025	103.329	0.067	0.080
-595.011	-84.541	-0.260	0.083
-593.996	-200.000	0.037	-0.187
-592.982	800.000	0.096	-0.268
-591.967	-11.851	-0.084	-0.055
-590.952	448.988	0.070	0.156
-589.938	-200.000	-0.091	0.538
-588.923	-200.000	0.058	-0.271
-587.909	74.048	0.153	0.162
-586.894	220.067	0.360	-0.582
-585.879	800.000	0.043	-0.123
-584.865	800.000	-0.099	-0.362
-583.850	29.926	-0.170	0.146
-582.836	-200.000	0.029	0.134
-581.821	-37.618	-0.192	-0.103
-580.806	60.792	0.109	-0.109
-579.792	607.105	-0.039	0.097
-578.777	-60.489	0.106	0.045
-577.763	800.000	0.083	0.296
-576.748	-57.223	-0.047	-0.021
-575.733	3.746	0.245	-0.180
-574.719	-1.947	0.201	0.142
-573.704	-39.296	0.118	-0.063
-572.690	-48.068	-0.272	0.132
-571.675	-99.621	0.333	0.084
-570.661	-105.980	-0.463	-0.105
-569.646	-20.820	-0.356	-0.220
-568.631	-94.946	-0.203	-0.055
-567.617	800.000	-0.016	-0.068
-566.602	301.329	-0.127	-0.237
-565.588	-47.823	-0.257	0.126
-564.573	278.087	0.167	0.300
-563.558	-95.799	-0.295	0.079
-562.544	-200.000	-0.023	-0.157
-561.529	-36.120	0.162	-0.088
-560.515	-13.921	0.160	0.104
-559.500	201.913	-0.141	0.219
-558.485	-131.878	-0.213	-0.028
-557.471	-200.000	-0.005	-0.047
-556.456	-125.340	0.345	-0.053
-555.442	800.000	-0.045	0.148
-554.427	448.698	0.067	-0.150
-553.412	-200.000	0.032	0.149
-552.398	-200.000	0.042	0.213
-551.383	-146.719	-0.128	0.011
-550.369	800.000	0.060	-0.208
-549.354	12.895	0.203	0.158
-548.339	800.000	-0.016	-0.067
-547.325	179.854	-0.129	-0.191
-546.310	689.122	-0.054	-0.142
-545.296	-90.152	0.107	-0.031
-544.281	259.989	0.137	0.238
-543.266	800.000	0.087	0.299
-542.252	-6.870	0.295	0.202
-541.237	-58.760	0.294	0.128
-540.223	146.380	-0.326	-0.440
-539.208	10.142	0.114	-0.087
-538.193	800.000	0.069	0.235
-537.179	-74.231	-0.397	0.144
-536.164	233.486	-0.123	-0.204
-535.150	-200.000	0.053	-0.326
-534.135	-200.000	0.044	-0.403
-533.121	-144.050	0.387	0.037
-532.106	735.312	0.144	-0.388
-531.091	800.000	0.038	-0.114
-530.077	18.365	0.075	0.061
-529.062	800.000	-0.085	-0.307
-528.048	-35.860	0.132	0.072
-527.033	-84.658	-0.331	0.105
-526.018	33.496	0.087	-0.076
-525.004	-180.407	-0.268	-0.006
-523.989	-175.115	0.163	-0.005
-522.975	23.754	-0.193	-0.160
-521.960	650.083	-0.035	-0.091
-520.945	283.249	-0.089	0.161
-519.931	800.000	-0.007	-0.022
-518.916	41.807	0.215	0.196
-517.902	62.824	-0.368	0.370
-516.887	231.299	-0.085	0.140
-515.872	629.774	0.141	0.359
-514.858	-106.537	0.348	-0.078
-513.843	-55.923	-0.297	-0.133
-512.829	-200.000	-0.023	-0.288
-511.814	-186.147	0.331	-0.005
-510.799	214.275	-0.120	0.190
-509.785	-76.301	-0.359	-0.127
-508.770	-200.000	-0.032	-0.149
-507.756	21.061	-0.239	0.195
-506.741	-200.000	0.005	-0.042
-505.726	162.402	-0.066	0.093
-504.712	-5.102	-0.129	-0.090
-503.697	-123.214	0.161	0.026
-502.683	-200.000	-0.013	0.315
-501.668	-200.000	0.029	-0.148
-500.653	301.184	0.054	0.099
-499.639	-156.889	0.307	-0.019
-498.624	-200.000	0.054	-0.315
-497.610	-106.460	0.379	-0.085
-496.595	243.474	-0.042	0.070
-495.581	-116.300	-0.126	-0.024
-494.566	200.857	-0.142	0.219
-493.551	-80.733	0.215	0.072
-492.537	154.407	-0.186	-0.257
-491.522	8.797	0.216	-0.164
-490.508	602.474	-0.056	0.140
-489.493	-200.000	-0.066	-0.420
-488.478	-93.543	-0.171	0.047
-487.464	623.000	0.132	-0.335
-486.449	-200.000	0.017	-0.307
-485.435	-97.501	0.242	-0.063
-484.420	10.108	0.149	0.114
-483.405	-200.000	0.053	0.373
-482.391	-200.000	-0.012	0.187
-481.376	800.000	0.143	0.407
-480.362	188.624	0.160	-0.240
-479.347	-4.519	-0.446	-0.309
-478.332	-116.090	0.084	-0.016
-477.318	-35.924	-0.193	0.105
-476.303	133.199	-0.270	0.350
-475.289	-133.681	0.303	0.038
-474.274	-175.878	-0.109	-0.003
-473.259	681.131	-0.071	0.186
-472.245	800.000	-0.053	0.198
-471.230	-45.946	0.101	0.050
-470.216	51.506	0.070	0.067
-469.201	-13.697	0.082	0.053
-468.186	800.000	-0.061	-0.248
-467.172	174.183	-0.358	-0.519
-466.157	491.316	0.135	-0.309
-465.143	-92.167	-0.299	0.085
-464.128	-123.718	0.246	-0.039
-463.113	566.646	0.119	-0.289
-462.099	67.270	0.275	-0.281
-461.084	-6.666	-0.190	0.130
-460.070	-108.210	-0.192	0.042
-459.055	27.301	-0.150	0.126
-458.040	-114.659	0.215	0.041
-457.026	-200.000	0.020	-0.130
-456.011	52.149	-0.187	-0.179
-454.997	-200.000	-0.003	0.421
-453.982	-168.947	0.334	-0.013
-452.968	-200.000	-0.003	-0.205
-451.953	-200.000	0.103	-0.570
-450.938	-200.000	-0.049	0.230
-449.924	-46.180	-0.380	0.188
-448.909	193.560	0.249	-0.379
-447.895	-97.468	-0.232	0.060
-446.880	-200.000	-0.024	-0.215
-445.865	-27.122	-0.226	0.132
-444.851	47.870	0.045	-0.042
-443.836	74.818	-0.157	-0.166
-442.822	-89.646	-0.331	-0.097
-441.807	142.327	-0.092	0.122
-440.792	-200.000	-0.012	0.078
-439.778	-171.787	0.254	0.008
-438.763	-200.000	-0.026	0.349
-437.749	419.686	0.124	-0.266
-436.734	-39.289	-0.368	0.194
-435.719	-33.301	0.178	0.099
-434.705	-141.753	-0.036	-0.004
-433.690	-98.731	-0.028	-0.007
-432.676	127.520	0.121	0.154
-431.661	-69.910	-0.315	-0.120
-430.646	800.000	-0.034	0.129
-429.632	-29.792	-0.066	0.038
-428.617	-162.570	-0.038	-0.002
-427.603	-200.000	-0.001	0.033
-426.588	196.424	0.194	0.296
-425.573	-133.997	-0.295	-0.037
-424.559	-35.112	0.130	-0.071
-423.544	39.260	0.206	-0.185
-422.530	234.685	-0.153	0.253
-421.515	61.706	0.197	-0.196
-420.500	-44.707	0.266	-0.133
-419.486	264.073	0.094	-0.164
-418.471	42.934	0.059	0.054
-417.457	-37.429	0.236	0.126
-416.442	-136.948	0.036	0.004
-415.428	-86.949	0.365	-0.112
-414.413	-200.000	0.013	-0.207
-413.398	78.904	0.204	0.219
-412.384	206.597	-0.120	0.186
-411.369	124.886	0.037	0.047
-410.355	-5.357	0.293	0.201
-409.340	43.291	-0.136	-0.124
-408.325	-82.985	0.237	0.076
-407.311	-82.090	-0.345	-0.113
-406.296	-63.973	-0.156	0.064
-405.282	650.675	-0.048	0.122
-404.267	-200.000	-0.043	-0.313
-403.252	-200.000	-0.052	-0.275
-402.238	538.005	-0.032	-0.075
-401.223	-200.000	0.022	-0.137
-400.209	-200.000	0.006	-0.037
-399.194	671.589	0.099	-0.257
-398.179	117.992	-0.203	0.250
-397.165	800.000	0.065	-0.226
-396.150	-52.694	0.310	0.143
-395.136	40.658	-0.172	0.155
-394.121	562.544	-0.095	0.230
-393.106	70.593	-0.077	0.080
-392.092	800.000	0.069	0.248
-391.077	418.719	0.023	-0.049
-390.063	-200.000	-0.017	0.276
-389.048	-55.667	0.287	-0.129
-388.033	-200.000	0.024	-0.144
-387.019	-200.000	0.019	0.083
-386.004	-143.523	-0.203	0.019
-384.990	-184.257	-0.294	-0.005
-383.975	-117.329	-0.335	-0.061
-382.960	-70.135	0.159	-0.060
-381.946	-150.965	0.157	-0.012
-380.931	12.846	-0.264	-0.204
-379.917	28.038	0.105	-0.088
-378.902	-200.000	0.006	0.072
-377.888	-121.077	-0.176	0.030
-376.873	-200.000	-0.009	0.282
-375.858	-164.073	-0.262	-0.012
-374.844	800.000	-0.023	-0.074
-373.829	746.322	-0.100	-0.268
-372.815	80.484	0.255	-0.275
-371.800	-200.000	0.001	0.055
-370.785	364.917	0.102	0.206
-369.771	-200.000	-0.042	-0.212
-368.756	265.001	-0.048	0.084
-367.742	615.288	0.104	0.259
-366.727	173.559	-0.124	0.179
-365.712	-111.268	0.381	0.078
-364.698	-9.549	-0.334	-0.223
-363.683	10.883	0.232	0.177
-362.669	85.415	0.154	-0.169
-361.654	-200.000	-0.008	0.241
-360.639	26.065	0.198	-0.165
-359.625	-144.644	-0.120	0.011
-358.610	-21.914	-0.206	0.125
-357.596	-200.000	-0.018	0.130
-356.581	-200.000	0.294	-0.001
-355.566	-151.055	-0.295	-0.022
-354.552	-200.000	-0.031	0.376
-353.537	800.000	-0.053	0.168
-352.523	-22.974	-0.187	-0.113
-351.508	473.477	-0.051	0.116
-350.493	-93.978	0.123	-0.034
-349.479	36.877	-0.141	0.124
-348.464	-15.151	-0.053	0.034
-347.450	-200.000	-0.062	0.354
-346.435	-130.861	-0.271	0.036
-345.420	-200.000	-0.058	-0.385
-344.406	612.006	0.108	0.270
-343.391	-145.128	0.252	0.023
-342.377	-200.000	-0.017	0.163
-341.362	41.149	-0.185	0.167
-340.348	-200.000	0.001	0.284
-339.333	-80.805	-0.196	-0.065
-338.318	-65.205	0.147	0.059
-337.304	-37.532	0.147	-0.078
-336.289	-47.922	0.433	-0.209
-335.275	600.115	0.155	0.384
-334.260	-14.081	-0.136	-0.088
-333.245	-141.223	0.142	0.014
-332.231	-152.472	0.129	0.009
-331.216	-45.399	-0.204	-0.101
-330.202	160.671	-0.086	-0.120
-329.187	-75.873	-0.159	-0.056
-328.172	171.098	0.154	-0.220
-327.158	36.756	0.341	-0.301
-326.143	-200.000	-0.055	-0.256
-325.129	201.679	-0.237	-0.364
-324.114	325.522	0.127	-0.242
-323.099	34.972	0.089	0.078
-322.085	21.456	-0.166	-0.135
-321.070	-70.769	0.023	0.008
-320.056	-0.656	0.145	0.103
-319.041	102.224	-0.093	-0.108
-318.026	-170.673	0.238	0.008
-317.012	95.746	0.075	-0.086
-315.997	-39.619	-0.232	-0.121
-314.983	-126.730	-0.327	0.048
-313.968	47.027	-0.190	-0.176
-312.953	-53.822	0.156	0.071
-311.939	-94.242	0.255	-0.070
-310.924	-171.680	-0.236	0.008
-309.910	48.140	-0.129	0.121
-308.895	800.000	0.103	-0.325
-307.880	102.114	-0.089	-0.104
-306.866	1.362	-0.067	-0.048
-305.851	26.390	-0.128	0.107
-304.837	-23.887	0.339	-0.203
-303.822	-57.226	-0.101	-0.044
-302.807	-30.945	0.111	-0.062
-301.793	3.570	-0.274	-0.199
-300.778	-121.875	-0.263	0.043
-299.764	-5.614	0.294	0.201
-298.749	357.729	0.069	0.137
-297.735	52.537	-0.087	-0.083
-296.720	800.000	-0.055	-0.164
-295.705	-54.982	-0.096	-0.043
-294.691	243.243	0.030	0.050
-293.676	-105.141	0.371	0.085
-292.662	68.300	-0.138	-0.141
-291.647	-101.258	-0.108	-0.026
-290.632	106.750	-0.072	0.086
-289.618	-92.802	-0.125	0.035
-288.603	-9.824	-0.119	-0.079
-287.589	82.616	0.266	0.288
-286.574	800.000	0.055	0.212
-285.559	1.867	-0.219	0.157
-284.545	336.641	-0.061	0.118
-283.530	-200.000	-0.057	0.340
-282.516	320.890	-0.104	0.197
-281.501	381.078	0.035	-0.071
-280.486	-200.000	0.018	0.245
-279.472	-108.309	0.193	0.041
-278.457	-200.000	-0.005	-0.071
-277.443	-200.000	0.037	-0.463
-276.428	-200.000	-0.026	-0.296
-275.413	384.481	-0.158	-0.325
-274.399	-165.760	-0.434	-0.019
-273.384	-93.733	0.143	0.039
-272.370	301.464	-0.095	0.175
-271.355	-172.521	0.227	0.007
-270.340	-44.033	-0.104	0.052
-269.326	203.734	-0.055	-0.085
-268.311	-200.000	0.006	-0.108
-267.297	75.679	0.064	-0.068
-266.282	562.705	-0.198	-0.477
-265.267	-57.644	-0.318	-0.139
-264.253	800.000	0.057	-0.234
-263.238	74.276	0.067	-0.070
-262.224	376.859	-0.037	0.075
-261.209	131.179	-0.157	-0.201
-260.195	83.791	0.225	-0.244
-259.180	210.659	0.192	-0.300
-258.165	207.987	-0.084	-0.131
-257.151	-153.317	-0.237	-0.016
-256.136	-117.318	0.379	0.068
-255.122	3.738	-0.109	0.079
-254.107	413.350	0.061	-0.128
-253.092	697.093	-0.043	0.113
-252.078	257.613	-0.025	-0.043
-251.063	176.025	0.040	0.058
-250.049	-151.539	-0.380	-0.028
-249.034	-199.324	0.233	0.001
-248.019	-77.805	0.213	-0.073
-247.005	370.686	-0.047	0.095
-245.990	-16.471	0.134	0.085
-244.976	-24.717	0.482	0.285
-243.961	-150.664	-0.357	-0.027
-242.946	81.546	-0.203	0.219
-241.932	800.000	-0.043	0.149
-240.917	800.000	0.016	0.053
-239.903	351.225	0.073	-0.144
-238.888	-88.384	-0.287	0.085
-237.873	794.571	-0.060	-0.165
-236.859	800.000	-0.052	0.183
-235.844	-91.900	0.091	-0.026
-234.830	479.436	-0.048	-0.109
-233.815	-62.308	-0.097	0.040
-232.800	-200.000	0.021	0.131
-231.786	125.717	-0.083	0.104
-230.771	-40.388	0.068	0.035
-229.757	-70.237	0.123	0.047
-228.742	-200.000	0.010	-0.205
-227.727	-39.274	0.193	0.101
-226.713	800.000	-0.059	0.197
-225.698	-200.000	-0.006	-0.358
-224.684	201.013	-0.099	-0.152
-223.669	-149.555	-0.249	-0.020
-222.655	402.280	-0.194	-0.406
-221.640	-200.000	0.041	0.205
-220.625	-200.000	-0.070	-0.362
-219.611	-200.000	0.002	0.040
-218.596	-159.022	0.065	-0.004
-217.582	-200.000	0.024	0.405
-216.567	800.000	-0.124	0.536
-215.552	-50.991	-0.391	0.183
-214.538	-39.162	-0.261	-0.136
-213.523	69.164	0.280	0.286
-212.509	9.571	0.075	-0.056
-211.494	-200.000	0.010	0.147
-210.479	726.128	0.141	0.375
-209.465	-46.918	0.193	0.094
-208.450	-90.953	0.303	-0.087
-207.436	-10.199	-0.113	0.074
-206.421	339.342	-0.074	-0.144
-205.406	661.344	0.084	0.214
-204.392	-114.681	-0.522	-0.099
-203.377	27.937	-0.328	-0.275
-202.363	287.247	0.058	0.104
-201.348	261.125	-0.057	-0.097
-200.333	-134.559	-0.108	0.013
-199.319	-200.000	-0.004	0.078
-198.304	276.429	-0.091	-0.161
-197.290	12.092	0.137	0.105
-196.275	-162.421	0.370	-0.018
-195.260	-9.882	0.236	0.156
-194.246	-200.000	0.041	0.226
-193.231	35.842	0.181	0.158
-192.217	246.106	-0.201	0.337
-191.202	800.000	0.046	0.149
-190.187	93.028	0.131	0.147
-189.173	143.232	0.218	-0.288
-188.158	-65.918	0.176	0.070
-187.144	25.629	0.131	0.108
-186.129	242.778	0.022	0.037
-185.114	20.018	-0.050	-0.040
-184.100	-200.000	-0.008	0.060
-183.085	-63.876	-0.373	-0.152
-182.071	-66.256	0.159	0.063
-181.056	-154.015	0.232	-0.016
-180.042	-28.981	-0.128	0.073
-179.027	-200.000	0.076	-0.354
-178.012	562.904	0.033	-0.078
-176.998	-44.835	-0.177	-0.088
-175.983	-143.926	-0.270	0.025
-174.969	-72.984	0.211	0.077
-173.954	179.682	-0.168	-0.245
-172.939	20.224	0.242	-0.194
-171.925	287.556	0.141	-0.253
-170.910	79.628	-0.158	0.169
-169.896	207.144	-0.107	-0.166
-168.881	-96.121	0.249	0.066
-167.866	52.541	-0.109	0.103
-166.852	111.542	-0.199	-0.238
-165.837	-34.417	0.223	0.121
-164.823	-22.066	-0.303	0.183
-163.808	-108.057	0.123	-0.026
-162.793	312.669	-0.022	0.042
-161.779	-200.000	0.004	0.446
-160.764	-200.000	0.003	-0.195
-159.750	800.000	-0.097	-0.290
-158.735	9.850	0.029	0.022
-157.720	-200.000	0.058	0.315
-156.706	-114.943	0.214	-0.040
-155.691	-200.000	0.024	0.243
-154.677	-67.806	-0.242	0.094
-153.662	241.032	-0.074	0.123
-152.647	-200.000	-0.030	0.316
-151.633	800.000	0.096	0.306
-150.618	259.636	0.114	-0.195
-149.604	251.299	-0.214	-0.361
-148.589	173.255	0.139	0.198
-147.574	800.000	-0.066	-0.181
-146.560	279.117	0.042	0.074
-145.545	-165.427	0.309	0.013
-144.531	-112.062	-0.160	0.032
-143.516	186.485	-0.066	-0.098
-142.502	-200.000	-0.033	0.412
-141.487	800.000	-0.058	0.187
-140.472	-147.319	-0.594	0.050
-139.458	-129.678	0.178	0.024
-138.443	62.792	0.080	0.080
-137.429	-24.884	-0.125	0.073
-136.414	-58.723	-0.163	-0.070
-135.399	98.655	0.133	0.152
-134.385	-128.624	-0.163	0.023
-133.370	116.180	-0.100	-0.121
-132.356	-37.646	0.073	-0.039
-131.341	800.000	-0.095	-0.350
-130.326	-200.000	0.009	-0.141
-129.312	-39.064	0.262	0.137
-128.297	-64.188	0.107	-0.043
-127.283	-45.589	0.310	0.152
-126.268	-156.823	-0.255	-0.016
-125.253	-94.968	-0.206	0.055
-124.239	-67.916	0.040	0.015
-123.224	639.309	-0.028	0.071
-122.210	-200.000	-0.034	-0.181
