DTS Sentinel unit serial number:	SN413079Multiplexer serial number:	ORYXHardware model number:	OX4-SRSoftware version number:	ORYX F/W v4.00 Oryx Data Collector v3.7.2.0data status	okinstallation	princeton_trtdifferential loss correction	single-endedforward channel	channel 3reverse channel	N/Adate	2019/09/18time	18:40:35forward acquisition time	60.00reverse acquisition time	0.00gamma	496.2192k internal	0.2299k external	0.2299temperature offset calibration	0.9997default loss term (dB/km)	0.3790temperature slope calibration	1.0000multiplexer offset coefficient	1.0000multiplexer slope coefficient	1.0000fibre end	0.00T internal ref (°C)	37.84T ext. ref 1 (°C)	0.94T ext. ref 2 (°C)	29.08length (m)	temperature (°C)	Stokes	anti-Stokes-747.200	-57.720	0.373	0.167
-746.185	92.623	-0.127	0.147
-745.171	-85.078	-0.276	-0.088
-744.156	-200.000	0.028	0.238
-743.142	-67.308	-0.063	-0.025
-742.127	226.207	-0.058	0.096
-741.112	65.288	0.037	0.038
-740.098	169.144	-0.125	0.182
-739.083	-192.034	-0.342	0.003
-738.069	-171.422	-0.091	0.003
-737.054	218.046	-0.049	0.079
-736.039	-58.670	0.082	-0.036
-735.025	-13.163	0.148	0.098
-734.010	-48.298	-0.287	-0.141
-732.996	67.699	0.091	0.095
-731.981	-200.000	0.017	-0.125
-730.966	-37.741	-0.119	0.065
-729.952	24.212	0.076	0.064
-728.937	-200.000	0.015	-0.171
-727.923	60.806	0.348	-0.352
-726.908	90.213	0.232	0.265
-725.894	-115.505	-0.353	-0.068
-724.879	-153.116	0.236	0.017
-723.864	-80.086	0.202	-0.069
-722.850	87.405	0.063	-0.071
-721.835	-32.845	-0.072	0.041
-720.821	-180.293	-0.308	-0.007
-719.806	126.259	0.150	0.194
-718.791	-36.599	0.204	-0.112
-717.777	538.408	0.114	0.277
-716.762	226.764	0.279	0.463
-715.748	-165.564	-0.191	-0.008
-714.733	20.894	-0.308	-0.255
-713.718	800.000	-0.042	-0.122
-712.704	-143.500	-0.256	0.025
-711.689	-150.964	0.270	0.021
-710.675	800.000	0.098	0.414
-709.660	-200.000	0.059	-0.404
-708.645	-195.140	0.178	-0.001
-707.631	-200.000	-0.003	-0.363
-706.616	299.765	-0.059	-0.110
-705.602	-82.378	-0.219	-0.073
-704.587	800.000	0.093	0.320
-703.572	-99.454	-0.467	-0.120
-702.558	-48.860	-0.174	-0.085
-701.543	55.361	-0.223	-0.220
-700.529	-18.052	-0.032	0.020
-699.514	-192.066	0.149	0.001
-698.499	20.033	-0.247	0.203
-697.485	-200.000	-0.009	-0.241
-696.470	800.000	-0.023	-0.066
-695.456	223.702	-0.126	0.206
-694.441	-76.458	0.402	0.144
-693.426	36.649	0.259	0.233
-692.412	-94.671	-0.382	-0.106
-691.397	-47.518	0.247	-0.122
-690.383	674.705	-0.138	-0.366
-689.368	-200.000	0.036	-0.256
-688.354	155.235	-0.128	0.179
-687.339	145.254	-0.091	-0.123
-686.324	36.980	0.126	-0.114
-685.310	366.814	-0.086	0.177
-684.295	-4.149	-0.073	-0.052
-683.281	-125.417	0.160	-0.025
-682.266	-48.815	0.091	-0.045
-681.251	-10.898	-0.080	0.054
-680.237	-146.927	-0.426	-0.037
-679.222	-200.000	0.047	-0.251
-678.208	-93.444	-0.193	0.055
-677.193	59.104	-0.051	-0.051
-676.178	-18.895	0.096	0.061
-675.164	800.000	-0.125	-0.396
-674.149	183.385	0.224	-0.337
-673.135	303.638	-0.176	-0.333
-672.120	95.585	0.182	-0.211
-671.105	-115.711	-0.105	-0.020
-670.091	268.067	0.124	-0.220
-669.076	-144.682	-0.160	-0.015
-668.062	59.073	0.183	-0.183
-667.047	-72.068	-0.122	-0.046
-666.032	7.559	0.303	-0.230
-665.018	-96.696	-0.077	-0.021
-664.003	-70.637	-0.211	0.081
-662.989	-140.392	-0.169	-0.018
-661.974	42.493	0.121	0.112
-660.959	250.408	-0.215	-0.372
-659.945	-200.000	-0.000	0.316
-658.930	-200.000	-0.004	0.487
-657.916	113.619	-0.106	0.130
-656.901	-200.000	0.002	-0.023
-655.886	-107.253	-0.071	0.016
-654.872	518.262	-0.108	-0.258
-653.857	-46.853	0.564	-0.281
-652.843	800.000	-0.039	0.152
-651.828	-50.811	-0.238	0.114
-650.814	88.942	0.169	-0.191
-649.799	-71.654	-0.116	0.044
-648.784	-200.000	0.001	0.283
-647.770	-99.352	0.280	0.072
-646.755	23.260	-0.186	-0.155
-645.741	67.195	0.251	0.260
-644.726	484.323	-0.082	-0.189
-643.711	-39.518	-0.023	-0.013
-642.697	-155.651	0.184	-0.012
-641.682	6.403	0.058	0.044
-640.668	21.625	-0.085	0.070
-639.653	20.177	0.218	-0.179
-638.638	-188.863	-0.278	-0.003
-637.624	800.000	0.128	-0.567
-636.609	-13.647	-0.385	0.253
-635.595	-46.032	-0.260	-0.130
-634.580	-67.836	-0.242	0.096
-633.565	-200.000	-0.030	0.194
-632.551	-148.590	-0.489	-0.041
-631.536	402.716	0.182	-0.389
-630.522	-155.057	-0.240	0.016
-629.507	-65.036	0.389	0.159
-628.492	574.459	0.113	-0.280
-627.478	-149.670	0.054	-0.004
-626.463	-91.169	0.264	-0.077
-625.449	424.484	-0.133	-0.290
-624.434	482.765	0.098	-0.226
-623.419	-5.783	0.221	0.154
-622.405	-131.017	0.182	-0.025
-621.390	-42.696	0.402	-0.208
-620.376	800.000	0.046	-0.129
-619.361	-32.049	-0.146	0.083
-618.346	-0.881	-0.187	-0.134
-617.332	-71.137	-0.092	-0.035
-616.317	115.551	0.072	0.090
-615.303	800.000	-0.080	0.237
-614.288	-200.000	0.013	-0.088
-613.273	-200.000	0.047	-0.230
-612.259	-200.000	-0.092	0.410
-611.244	44.805	-0.151	-0.141
-610.230	78.087	-0.078	-0.084
-609.215	-79.321	-0.249	0.086
-608.201	-37.291	0.162	0.088
-607.186	800.000	0.097	0.358
-606.171	-119.226	0.230	0.041
-605.157	194.615	0.030	0.047
-604.142	44.123	-0.321	-0.298
-603.128	-91.726	0.315	-0.091
-602.113	-200.000	0.041	0.194
-601.098	-200.000	0.010	-0.098
-600.084	124.965	-0.161	0.206
-599.069	142.295	-0.122	0.164
-598.055	69.188	0.124	0.129
-597.040	-31.395	0.464	0.265
-596.025	-82.700	0.211	-0.069
-595.011	8.304	-0.243	-0.185
-593.996	46.411	0.016	-0.015
-592.982	-200.000	-0.034	0.238
-591.967	-200.000	-0.079	-0.368
-590.952	228.715	0.191	0.316
-589.938	-147.241	-0.232	0.020
-588.923	-92.637	0.277	0.079
-587.909	-55.734	0.048	-0.022
-586.894	-156.685	-0.099	0.006
-585.879	353.090	0.015	-0.031
-584.865	570.024	-0.133	0.328
-583.850	-158.829	-0.143	0.008
-582.836	175.618	0.111	0.164
-581.821	46.940	-0.102	-0.097
-580.806	-67.907	-0.217	-0.086
-579.792	-185.593	0.114	0.002
-578.777	-85.253	-0.114	0.036
-577.763	-80.739	0.215	-0.073
-576.748	49.531	0.295	-0.282
-575.733	65.110	0.160	0.163
-574.719	-200.000	0.012	-0.351
-573.704	-116.250	-0.156	0.029
-572.690	47.285	0.319	0.301
-571.675	-60.716	0.032	0.014
-570.661	602.935	0.218	0.550
-569.646	156.240	0.121	-0.169
-568.631	49.128	-0.277	-0.264
-567.617	-127.372	-0.237	-0.035
-566.602	800.000	0.086	0.263
-565.588	-66.762	-0.082	0.033
-564.573	-64.326	-0.218	-0.090
-563.558	-200.000	0.048	-0.354
-562.544	-200.000	-0.008	0.155
-561.529	52.670	0.175	0.170
-560.515	3.815	0.218	-0.161
-559.500	-21.883	0.289	-0.178
-558.485	-143.543	-0.206	-0.020
-557.471	-118.077	-0.205	0.037
-556.456	-64.133	0.375	0.155
-555.442	76.748	-0.080	-0.086
-554.427	-42.711	-0.209	0.108
-553.412	164.832	-0.067	0.096
-552.398	359.241	-0.123	-0.248
-551.383	173.003	0.051	-0.075
-550.369	-200.000	0.007	-0.145
-549.354	0.444	0.063	0.046
-548.339	-0.904	0.360	-0.258
-547.325	351.284	-0.065	-0.130
-546.310	800.000	-0.069	-0.307
-545.296	257.034	0.087	0.152
-544.281	634.097	-0.120	-0.307
-543.266	-66.324	0.140	0.056
-542.252	29.799	-0.046	-0.040
-541.237	-184.360	0.249	0.004
-540.223	-57.119	-0.132	-0.059
-539.208	-152.397	0.199	0.015
-538.193	-179.531	0.038	0.001
-537.179	476.766	-0.082	0.187
-536.164	-98.611	0.112	-0.029
-535.150	227.321	0.086	0.142
-534.135	146.157	0.158	-0.215
-533.121	626.779	-0.112	-0.286
-532.106	-133.033	-0.154	-0.020
-531.091	-20.811	-0.237	-0.147
-530.077	434.272	-0.156	-0.344
-529.062	-134.606	0.271	-0.033
-528.048	-34.133	-0.093	0.052
-527.033	24.863	-0.159	0.133
-526.018	-200.000	0.024	0.133
-525.004	399.236	0.138	0.292
-523.989	74.482	0.102	0.109
-522.975	-200.000	0.057	-0.425
-521.960	95.009	0.230	-0.265
-520.945	-131.588	-0.248	0.033
-519.931	-70.430	0.232	-0.089
-518.916	-48.168	-0.185	0.090
-517.902	297.018	-0.093	0.172
-516.887	30.073	-0.144	-0.124
-515.872	28.980	-0.057	-0.049
-514.858	-86.015	-0.134	-0.042
-513.843	446.261	0.124	0.276
-512.829	-10.125	0.064	0.043
-511.814	48.466	-0.101	-0.096
-510.799	-14.192	0.280	0.183
-509.785	101.213	-0.217	0.256
-508.770	140.078	-0.071	-0.094
-507.756	-173.057	-0.180	0.006
-506.741	-0.777	-0.253	0.181
-505.726	-200.000	0.010	0.198
-504.712	800.000	0.087	0.266
-503.697	153.131	-0.176	0.243
-502.683	128.800	0.072	0.092
-501.668	-200.000	0.154	0.000
-500.653	109.434	-0.261	0.316
-499.639	-109.826	0.304	-0.065
-498.624	-123.691	-0.184	-0.029
-497.610	-70.511	-0.425	-0.162
-496.595	-86.920	-0.276	-0.085
-495.581	800.000	-0.055	-0.174
-494.566	-86.620	-0.370	-0.115
-493.551	-200.000	-0.012	-0.154
-492.537	-200.000	-0.003	-0.149
-491.522	22.048	0.140	-0.115
-490.508	-159.867	-0.232	0.013
-489.493	76.554	0.131	0.140
-488.478	299.596	-0.131	0.244
-487.464	-74.882	0.319	0.116
-486.449	-166.354	0.129	0.005
-485.435	-86.065	-0.133	-0.042
-484.420	-200.000	0.006	0.071
-483.405	-31.036	-0.179	-0.102
-482.391	-165.632	0.115	0.005
-481.376	800.000	0.106	-0.358
-480.362	-25.629	0.290	-0.173
-479.347	800.000	0.056	0.164
-478.332	38.398	-0.199	-0.180
-477.318	629.540	-0.065	-0.166
-476.303	-200.000	-0.406	0.002
-475.289	-63.216	-0.716	-0.298
-474.274	327.902	-0.168	0.326
-473.259	17.387	-0.234	-0.188
-472.245	-39.514	0.080	0.042
-471.230	-200.000	-0.053	0.294
-470.216	-48.284	0.177	-0.086
-469.201	-200.000	-0.004	0.247
-468.186	133.226	0.152	0.198
-467.172	-172.455	0.133	0.004
-466.157	265.417	-0.137	-0.241
-465.143	57.999	0.129	0.128
-464.128	-140.977	-0.315	0.033
-463.113	222.878	-0.046	0.074
-462.099	100.404	-0.085	0.100
-461.084	-200.000	0.015	-0.165
-460.070	-105.774	0.360	-0.082
-459.055	-200.000	-0.014	0.071
-458.040	219.271	0.067	-0.108
-457.026	-200.000	-0.048	0.265
-456.011	-200.000	0.072	0.407
-454.997	-95.203	0.077	-0.021
-453.982	111.661	-0.162	0.198
-452.968	166.236	0.052	0.075
-451.953	-200.000	-0.025	-0.279
-450.938	-86.914	-0.305	0.094
-449.924	47.857	-0.070	-0.066
-448.909	178.899	0.197	-0.291
-447.895	-121.339	0.340	-0.057
-446.880	248.807	-0.046	-0.078
-445.865	-153.741	0.373	-0.026
-444.851	-24.795	-0.095	0.057
-443.836	-129.341	-0.020	-0.003
-442.822	-101.190	-0.259	-0.064
-441.807	-200.000	-0.019	0.174
-440.792	-97.329	0.348	-0.092
-439.778	-103.595	-0.043	0.010
-438.763	-48.033	0.287	0.140
-437.749	399.278	-0.080	0.169
-436.734	-96.881	-0.035	0.009
-435.719	161.022	-0.094	0.132
-434.705	-50.440	-0.089	-0.042
-433.690	-200.000	-0.034	-0.458
-432.676	69.861	-0.166	0.173
-431.661	-200.000	0.078	-0.358
-430.646	44.226	0.190	0.176
-429.632	692.979	0.071	0.187
-428.617	-37.274	-0.128	0.069
-427.603	-124.432	-0.456	0.072
-426.588	-82.441	-0.162	-0.053
-425.573	446.839	-0.107	-0.238
-424.559	-26.849	0.091	0.053
-423.544	-200.000	-0.003	-0.094
-422.530	110.369	0.220	0.267
-421.515	68.576	0.121	0.125
-420.500	-12.299	0.292	-0.192
-419.486	757.463	0.062	0.169
-418.471	-200.000	0.007	-0.120
-417.457	-68.624	-0.290	0.113
-416.442	-173.874	0.176	-0.005
-415.428	154.955	0.059	-0.081
-414.413	-49.032	-0.267	-0.129
-413.398	16.111	-0.098	-0.077
-412.384	105.464	0.160	-0.191
-411.369	-61.688	-0.178	0.075
-410.355	-40.957	0.063	-0.033
-409.340	-27.985	0.060	0.035
-408.325	-49.230	-0.130	0.062
-407.311	-119.055	0.145	0.026
-406.296	-145.500	-0.315	-0.029
-405.282	-200.000	0.001	-0.032
-404.267	-200.000	-0.034	-0.328
-403.252	-196.758	0.264	0.002
-402.238	312.616	0.063	0.118
-401.223	-84.445	-0.222	-0.071
-400.209	-54.555	0.193	-0.088
-399.194	192.973	0.271	-0.413
-398.179	-200.000	-0.007	-0.120
-397.165	-200.000	-0.036	-0.280
-396.150	-36.252	-0.083	0.045
-395.136	1.169	0.435	-0.314
-394.121	-146.979	0.212	-0.018
-393.106	220.011	0.131	0.211
-392.092	-8.469	-0.232	-0.157
-391.077	-200.000	-0.002	-0.066
-390.063	37.015	0.257	-0.229
-389.048	254.030	-0.091	0.157
-388.033	156.992	-0.292	0.406
-387.019	-85.591	-0.322	-0.101
-386.004	-89.929	-0.063	-0.019
-384.990	-200.000	0.007	-0.067
-383.975	270.393	0.073	0.129
-382.960	-110.204	-0.058	-0.012
-381.946	-200.000	-0.002	-0.276
-380.931	800.000	-0.102	-0.336
-379.917	-200.000	-0.028	-0.254
-378.902	1.202	0.352	-0.254
-377.888	134.094	0.044	0.058
-376.873	-125.836	0.311	-0.047
-375.858	-123.423	-0.278	-0.045
-374.844	-200.000	-0.039	0.208
-373.829	88.718	0.103	-0.115
-372.815	-101.039	0.243	0.060
-371.800	-48.370	0.533	0.258
-370.785	243.990	0.060	-0.102
-369.771	106.935	-0.159	-0.190
-368.756	-81.077	0.169	-0.056
-367.742	-200.000	-0.030	-0.433
-366.727	800.000	-0.058	-0.183
-365.712	-105.089	0.194	-0.045
-364.698	701.036	-0.162	0.430
-363.683	-145.242	0.248	-0.023
-362.669	-152.982	0.171	0.012
-361.654	-68.906	-0.091	0.035
-360.639	439.845	0.106	0.232
-359.625	45.277	-0.054	0.050
-358.610	-200.000	-0.011	-0.299
-357.596	228.518	-0.172	-0.282
-356.581	210.000	0.086	0.136
-355.566	-200.000	0.030	0.204
-354.552	-15.615	0.102	-0.066
-353.537	324.958	0.079	0.151
-352.523	800.000	0.118	0.388
-351.508	-67.555	0.283	-0.112
-350.493	581.459	0.107	-0.263
-349.479	2.128	0.127	-0.092
-348.464	535.194	0.123	-0.294
-347.450	62.314	-0.310	0.311
-346.435	-86.796	0.294	0.090
-345.420	297.970	-0.065	0.119
-344.406	245.490	0.126	-0.213
-343.391	-150.232	-0.048	-0.004
-342.377	-65.190	0.137	-0.056
-341.362	-29.248	-0.052	0.030
-340.348	173.080	-0.250	-0.362
-339.333	-145.603	-0.327	-0.029
-338.318	800.000	0.115	0.344
-337.304	-200.000	0.010	-0.140
-336.289	-14.264	0.236	0.153
-335.275	23.564	0.143	0.118
-334.260	35.742	0.235	0.207
-333.245	-101.620	-0.200	-0.049
-332.231	-52.006	-0.173	0.081
-331.216	85.775	0.159	-0.175
-330.202	668.580	0.063	0.162
-329.187	800.000	-0.008	-0.023
-328.172	-200.000	-0.046	0.223
-327.158	800.000	-0.088	-0.330
-326.143	-122.354	0.286	0.047
-325.129	52.719	0.141	-0.135
-324.114	-94.237	0.138	0.038
-323.099	308.552	-0.153	0.287
-322.085	-36.682	-0.078	-0.042
-321.070	32.980	-0.162	0.141
-320.056	-200.000	-0.036	-0.378
-319.041	800.000	-0.059	0.188
-318.026	-200.000	-0.001	0.113
-317.012	121.721	-0.021	-0.026
-315.997	-77.819	-0.340	-0.118
-314.983	474.029	-0.131	0.297
-313.968	378.098	-0.105	-0.215
-312.953	-200.000	-0.017	-0.214
-311.939	-12.993	-0.213	-0.139
-310.924	-65.145	0.171	-0.069
-309.910	44.032	-0.245	-0.225
-308.895	526.450	0.073	-0.171
-307.880	-200.000	0.009	-0.285
-306.866	-116.853	-0.198	0.036
-305.851	-128.625	-0.250	-0.035
-304.837	167.086	-0.020	0.028
-303.822	-200.000	0.018	-0.119
-302.807	759.261	-0.059	-0.159
-301.793	-103.760	-0.308	-0.072
-300.778	1.906	0.138	0.100
-299.764	-88.647	0.145	0.043
-298.749	-164.761	-0.295	0.013
-297.735	-67.212	0.151	-0.060
-296.720	293.687	0.252	0.461
-295.705	169.440	0.205	-0.294
-294.691	194.927	-0.153	0.233
-293.676	800.000	0.032	-0.096
-292.662	-100.707	-0.351	-0.087
-291.647	623.623	0.041	0.103
-290.632	-95.656	-0.048	0.013
-289.618	108.647	-0.090	0.107
-288.603	18.287	0.198	0.159
-287.589	-75.237	-0.205	0.073
-286.574	50.009	-0.298	0.282
-285.559	67.708	0.041	-0.042
-284.545	150.807	-0.111	-0.152
-283.530	-200.000	0.312	-0.000
-282.516	-200.000	-0.048	0.266
-281.501	407.599	-0.095	-0.201
-280.486	272.993	0.221	0.392
-279.472	800.000	-0.050	0.151
-278.457	800.000	0.062	-0.179
-277.443	62.624	-0.024	0.024
-276.428	-60.439	-0.229	-0.098
-275.413	156.072	-0.110	0.153
-274.399	-51.656	0.232	-0.108
-273.384	-200.000	-0.016	-0.237
-272.370	-12.242	-0.034	-0.022
-271.355	-127.950	-0.274	0.039
-270.340	-200.000	0.023	-0.148
-269.326	113.959	0.284	0.347
-268.311	-103.064	0.310	-0.073
-267.297	116.384	-0.178	-0.219
-266.282	176.250	0.248	0.361
-265.267	-25.643	-0.198	0.117
-264.253	-200.000	0.032	-0.217
-263.238	78.227	-0.132	-0.141
-262.224	222.536	-0.132	-0.213
-261.209	-43.115	0.358	0.182
-260.195	-3.438	0.103	-0.072
-259.180	63.118	0.112	0.113
-258.165	-200.000	-0.016	0.281
-257.151	-59.633	-0.200	0.086
-256.136	-200.000	0.001	0.093
-255.122	-39.341	0.135	0.071
-254.107	282.102	0.054	0.097
-253.092	-122.247	-0.112	0.018
-252.078	-81.833	0.208	-0.068
-251.063	60.440	-0.123	-0.122
-250.049	211.121	-0.026	0.040
-249.034	223.896	0.154	-0.249
-248.019	-32.283	-0.090	0.050
-247.005	800.000	0.076	-0.227
-245.990	-72.963	-0.513	-0.189
-244.976	-61.522	-0.330	0.139
-243.961	86.633	0.177	0.195
-242.946	283.766	0.089	-0.160
-241.932	573.079	0.101	-0.246
-240.917	-141.401	-0.112	0.011
-239.903	28.830	0.028	0.024
-238.888	231.040	-0.143	0.235
-237.873	-70.213	0.247	0.094
-236.859	-63.519	0.423	-0.174
-235.844	40.684	-0.185	0.167
-234.830	346.659	-0.156	-0.306
-233.815	14.361	-0.219	-0.171
-232.800	-200.000	0.022	0.278
-231.786	365.078	0.080	-0.162
-230.771	494.956	-0.110	0.253
-229.757	-200.000	0.038	-0.245
-228.742	-168.997	0.249	0.009
-227.727	800.000	-0.030	-0.131
-226.713	-125.944	-0.279	0.042
-225.698	-200.000	-0.006	0.539
-224.684	40.951	0.089	0.081
-223.669	108.970	0.086	0.102
-222.655	-119.857	-0.102	0.018
-221.640	-200.000	-0.090	-0.000
-220.625	136.886	0.121	0.158
-219.611	407.297	0.066	0.139
-218.596	-200.000	0.100	0.476
-217.582	-89.829	-0.065	0.019
-216.567	-64.270	0.105	0.043
-215.552	76.164	-0.283	-0.299
-214.538	-27.771	-0.203	0.118
-213.523	-200.000	0.019	0.325
-212.509	157.207	-0.087	0.120
-211.494	-200.000	0.054	-0.284
-210.479	-70.974	0.300	0.113
-209.465	-71.500	0.099	-0.037
-208.450	177.448	0.037	-0.054
-207.436	130.173	-0.017	0.022
-206.421	479.994	0.096	-0.217
-205.406	-45.368	0.108	-0.053
-204.392	201.754	0.238	0.366
-203.377	-200.000	-0.030	0.210
-202.363	114.054	0.080	0.097
-201.348	-60.461	-0.306	0.130
-200.333	-124.159	0.232	0.036
-199.319	758.999	0.012	0.034
-198.304	800.000	-0.041	-0.166
-197.290	424.611	0.162	-0.349
-196.275	477.326	0.041	0.092
-195.260	77.394	0.151	0.161
-194.246	131.956	-0.174	0.223
-193.231	-110.553	-0.200	0.041
-192.217	-40.297	0.096	0.050
-191.202	800.000	-0.065	-0.273
-190.187	90.104	0.103	-0.115
-189.173	-200.000	-0.025	0.288
-188.158	-160.536	-0.141	0.008
-187.144	153.427	0.123	0.168
-186.129	-92.793	0.182	-0.051
-185.114	126.370	-0.115	-0.145
-184.100	800.000	0.050	-0.209
-183.085	-124.386	-0.085	0.013
-182.071	228.395	0.183	0.298
-181.056	382.751	-0.205	0.422
-180.042	6.095	-0.092	-0.068
-179.027	-200.000	-0.001	-0.199
-178.012	-200.000	-0.003	-0.114
-176.998	22.577	0.138	-0.113
-175.983	800.000	0.036	0.158
-174.969	71.309	0.217	0.224
-173.954	18.101	0.274	0.218
-172.939	323.274	0.133	0.253
-171.925	-200.000	0.207	0.001
-170.910	18.038	-0.097	-0.077
-169.896	-200.000	-0.047	0.230
-168.881	-40.244	-0.320	0.166
-167.866	546.702	-0.075	-0.179
-166.852	50.672	0.070	0.066
-165.837	247.701	0.102	0.172
-164.823	74.093	-0.060	-0.063
-163.808	349.219	0.073	0.144
-162.793	460.775	0.117	-0.261
-161.779	-127.160	-0.244	-0.036
-160.764	-54.865	-0.159	-0.071
-159.750	-200.000	-0.036	0.218
-158.735	-67.512	-0.299	-0.117
-157.720	308.653	-0.065	-0.121
-156.706	631.900	-0.038	0.096
-155.691	-179.025	-0.127	-0.003
-154.677	-34.607	0.231	0.126
-153.662	91.477	0.145	-0.162
-152.647	-157.839	-0.424	0.025
-151.633	135.576	-0.140	0.181
-150.618	53.814	0.026	-0.025
-149.604	-175.254	-0.265	-0.007
-148.589	-137.124	-0.291	-0.033
-147.574	110.887	0.077	-0.092
-146.560	-200.000	0.037	0.261
-145.545	206.068	-0.239	-0.371
-144.531	44.711	0.153	-0.140
-143.516	153.341	-0.311	-0.424
-142.502	24.441	-0.054	0.045
-141.487	-174.619	0.287	0.008
-140.472	-66.291	-0.115	0.046
-139.458	158.682	-0.162	0.224
-138.443	-5.921	-0.254	0.174
-137.429	-102.284	-0.073	-0.017
-136.414	139.613	0.149	-0.196
-135.399	-40.187	-0.258	-0.134
-134.385	152.611	0.150	0.205
-133.370	-200.000	0.053	0.353
-132.356	-138.063	-0.053	-0.006
-131.341	-53.138	0.147	0.067
-130.326	-200.000	0.007	0.087
-129.312	800.000	0.139	-0.411
-128.297	29.678	-0.087	-0.074
-127.283	12.769	-0.121	-0.093
-126.268	510.928	-0.016	-0.037
-125.253	-103.788	0.176	0.041
-124.239	792.952	-0.014	0.039
-123.224	-200.000	-0.086	-0.408
-122.210	-171.548	0.417	0.014
