DTS Sentinel unit serial number:	SN413079Multiplexer serial number:	ORYXHardware model number:	OX4-SRSoftware version number:	ORYX F/W v4.00 Oryx Data Collector v3.7.2.0data status	okinstallation	princeton_trtdifferential loss correction	single-endedforward channel	channel 3reverse channel	N/Adate	2019/09/10time	17:26:11forward acquisition time	60.00reverse acquisition time	0.00gamma	496.2192k internal	0.2298k external	0.2298temperature offset calibration	0.9907default loss term (dB/km)	0.3790temperature slope calibration	1.0000multiplexer offset coefficient	1.0000multiplexer slope coefficient	1.0000fibre end	0.00T internal ref (°C)	37.69T ext. ref 1 (°C)	-0.35T ext. ref 2 (°C)	32.26length (m)	temperature (°C)	Stokes	anti-Stokes-747.200	-40.588	-0.124	0.066
-746.185	380.671	-0.060	-0.125
-745.171	51.175	0.082	0.079
-744.156	440.329	0.089	0.197
-743.142	-200.000	0.012	0.060
-742.127	173.149	-0.152	0.223
-741.112	-129.385	-0.168	0.024
-740.098	35.394	0.149	0.134
-739.083	-130.362	0.345	0.048
-738.069	-177.762	-0.240	0.006
-737.054	-200.000	-0.035	0.225
-736.039	15.372	-0.135	-0.108
-735.025	800.000	-0.008	0.022
-734.010	-184.506	0.163	-0.003
-732.996	-200.000	0.013	-0.272
-731.981	-83.436	0.225	-0.073
-730.966	24.265	-0.303	-0.255
-729.952	48.618	-0.135	-0.129
-728.937	-62.814	-0.344	-0.146
-727.923	-45.681	-0.233	-0.118
-726.908	197.592	0.089	-0.138
-725.894	-67.794	-0.055	-0.022
-724.879	-200.000	-0.005	-0.214
-723.864	173.960	0.150	-0.220
-722.850	-101.137	-0.214	-0.053
-721.835	-87.778	-0.439	-0.135
-720.821	-107.599	-0.208	0.046
-719.806	515.832	-0.141	-0.337
-718.791	459.473	-0.145	-0.330
-717.777	-200.000	0.021	-0.163
-716.762	-131.827	-0.256	-0.034
-715.748	305.054	-0.132	0.251
-714.733	-200.000	0.015	-0.103
-713.718	-200.000	-0.001	0.063
-712.704	-39.585	0.086	0.046
-711.689	-114.656	-0.183	-0.036
-710.675	-80.592	0.441	0.150
-709.660	-3.369	-0.170	0.121
-708.645	-200.000	-0.029	0.173
-707.631	107.051	0.086	-0.104
-706.616	-12.883	0.230	0.153
-705.602	-200.000	0.045	0.307
-704.587	800.000	-0.074	-0.293
-703.572	452.091	-0.060	-0.135
-702.558	800.000	-0.083	-0.356
-701.543	-200.000	-0.010	0.143
-700.529	-70.394	-0.363	0.140
-699.514	-26.590	-0.157	-0.093
-698.499	163.808	-0.101	-0.144
-697.485	100.135	0.138	0.163
-696.470	614.285	0.066	0.170
-695.456	71.831	-0.150	-0.159
-694.441	10.154	0.310	-0.240
-693.426	246.316	0.056	-0.096
-692.412	72.484	-0.184	-0.196
-691.397	-68.171	-0.256	0.102
-690.383	800.000	-0.038	-0.115
-689.368	39.148	0.186	0.169
-688.354	800.000	-0.029	-0.126
-687.339	-200.000	-0.011	0.302
-686.324	800.000	-0.070	-0.274
-685.310	-89.007	0.169	0.051
-684.295	-97.546	-0.208	-0.055
-683.281	-153.198	-0.198	-0.014
-682.266	-22.688	0.074	0.046
-681.251	-131.242	0.283	0.038
-680.237	333.167	0.196	-0.385
-679.222	117.368	-0.075	-0.094
-678.208	9.519	0.260	-0.201
-677.193	-128.293	-0.220	-0.032
-676.178	133.049	-0.163	-0.214
-675.164	-200.000	0.003	0.170
-674.149	-157.294	0.215	-0.013
-673.135	-61.101	-0.307	-0.132
-672.120	5.468	-0.213	0.160
-671.105	-17.812	0.092	-0.059
-670.091	8.997	-0.153	-0.117
-669.076	800.000	0.010	0.045
-668.062	433.510	-0.094	0.208
-667.047	80.968	-0.035	-0.038
-666.032	197.211	-0.094	-0.146
-665.018	-156.126	-0.326	-0.021
-664.003	-61.646	0.519	0.222
-662.989	-200.000	-0.013	-0.087
-661.974	12.868	0.189	0.149
-660.959	-200.000	0.000	-0.151
-659.945	294.727	0.117	-0.218
-658.930	560.215	-0.083	-0.204
-657.916	-200.000	-0.018	-0.264
-656.901	451.955	-0.055	0.124
-655.886	761.879	0.071	0.195
-654.872	6.545	-0.180	-0.136
-653.857	-155.746	0.307	0.020
-652.843	-200.000	0.020	0.197
-651.828	21.903	-0.040	-0.034
-650.814	17.378	0.179	0.145
-649.799	257.788	-0.129	-0.226
-648.784	14.196	-0.082	0.065
-647.770	-125.833	0.314	-0.048
-646.755	800.000	0.025	0.085
-645.741	62.464	-0.135	-0.137
-644.726	7.256	0.086	-0.065
-643.711	-200.000	0.012	-0.247
-642.697	14.929	-0.094	-0.074
-641.682	800.000	-0.087	-0.356
-640.668	-112.585	0.283	0.057
-639.653	800.000	0.100	-0.296
-638.638	37.043	-0.327	0.294
-637.624	-181.138	0.188	0.004
-636.609	80.425	-0.217	0.238
-635.595	348.296	-0.032	0.065
-634.580	800.000	0.043	0.146
-633.565	111.438	-0.046	-0.057
-632.551	55.163	-0.197	0.194
-631.536	73.411	-0.089	-0.095
-630.522	-22.287	-0.384	-0.237
-629.507	78.985	0.025	0.027
-628.492	-132.940	0.280	-0.036
-627.478	-65.729	-0.247	-0.100
-626.463	-0.240	-0.235	-0.170
-625.449	-62.190	0.084	-0.036
-624.434	-68.795	-0.276	0.108
-623.419	-122.529	0.341	-0.056
-622.405	-118.807	0.318	0.057
-621.390	-200.000	-0.011	0.508
-620.376	122.583	-0.108	-0.137
-619.361	174.119	-0.021	0.031
-618.346	7.250	0.426	0.323
-617.332	0.057	-0.169	-0.123
-616.317	-171.481	0.058	-0.002
-615.303	-200.000	-0.030	-0.172
-614.288	-36.199	-0.094	-0.052
-613.273	-14.395	0.207	-0.135
-612.259	-200.000	-0.022	-0.115
-611.244	-22.863	0.221	-0.135
-610.230	-84.862	-0.332	-0.106
-609.215	194.714	-0.084	-0.129
-608.201	-85.924	0.567	-0.178
-607.186	800.000	-0.059	-0.223
-606.171	-200.000	0.012	0.069
-605.157	-154.213	-0.451	0.031
-604.142	-200.000	-0.048	-0.259
-603.128	-81.860	-0.258	-0.086
-602.113	422.132	-0.103	0.225
-601.098	78.429	0.157	-0.170
-600.084	-149.991	0.114	0.009
-599.069	-126.343	0.111	0.017
-598.055	-51.008	-0.178	-0.085
-597.040	56.513	-0.099	-0.098
-596.025	172.499	-0.146	-0.214
-595.011	133.790	0.036	0.047
-593.996	108.299	-0.042	-0.051
-592.982	133.169	-0.148	0.194
-591.967	-3.584	0.137	0.096
-590.952	-22.905	0.233	-0.143
-589.938	-107.312	0.084	-0.019
-588.923	-114.829	-0.021	-0.004
-587.909	-79.600	-0.364	-0.125
-586.894	-200.000	-0.010	-0.083
-585.879	158.526	-0.282	-0.397
-584.865	76.052	0.042	0.045
-583.850	444.098	-0.100	0.222
-582.836	-80.510	-0.217	0.073
-581.821	-3.731	-0.085	-0.060
-580.806	-89.524	0.131	-0.039
-579.792	800.000	-0.047	0.188
-578.777	230.950	-0.093	0.154
-577.763	167.838	-0.150	0.217
-576.748	-2.484	-0.131	-0.093
-575.733	-91.887	-0.090	0.026
-574.719	-41.033	0.190	-0.100
-573.704	8.890	0.081	-0.062
-572.690	591.558	0.075	-0.187
-571.675	251.311	0.067	-0.115
-570.661	-70.779	-0.022	0.009
-569.646	78.168	0.129	-0.140
-568.631	-119.355	-0.017	0.003
-567.617	-152.878	0.050	-0.004
-566.602	800.000	-0.044	-0.131
-565.588	222.383	0.130	0.213
-564.573	151.285	-0.048	-0.066
-563.558	4.653	-0.154	-0.114
-562.544	368.950	0.151	0.310
-561.529	-98.768	0.213	-0.055
-560.515	-200.000	-0.001	-0.009
-559.500	197.923	-0.140	0.217
-558.485	-114.403	-0.203	-0.039
-557.471	-144.454	-0.161	0.015
-556.456	-200.000	-0.055	-0.301
-555.442	53.855	0.121	-0.118
-554.427	541.883	-0.095	0.230
-553.412	206.027	0.027	-0.043
-552.398	62.817	-0.145	-0.147
-551.383	-6.030	0.235	0.162
-550.369	-21.251	0.179	0.111
-549.354	-121.606	-0.063	-0.011
-548.339	-200.000	0.004	-0.071
-547.325	340.181	0.028	-0.056
-546.310	-160.524	0.131	0.007
-545.296	45.318	0.318	-0.297
-544.281	-200.000	-0.032	0.169
-543.266	-99.182	0.116	-0.030
-542.252	-200.000	0.011	0.240
-541.237	181.102	0.039	-0.058
-540.223	-129.855	-0.223	-0.031
-539.208	-129.658	-0.104	-0.015
-538.193	-200.000	-0.010	0.183
-537.179	-200.000	-0.055	0.245
-536.164	-200.000	-0.002	0.121
-535.150	105.655	-0.256	0.307
-534.135	51.753	0.290	-0.279
-533.121	-200.000	0.012	0.134
-532.106	108.017	0.132	0.160
-531.091	321.760	-0.113	-0.217
-530.077	-194.168	-0.353	0.003
-529.062	357.355	0.078	0.158
-528.048	448.544	-0.084	0.187
-527.033	-200.000	0.003	0.096
-526.018	-200.000	-0.053	0.252
-525.004	-113.750	-0.035	0.007
-523.989	-15.485	-0.055	0.036
-522.975	-106.037	0.207	0.047
-521.960	279.289	0.013	0.024
-520.945	-67.856	-0.210	0.083
-519.931	-200.000	-0.020	0.311
-518.916	115.784	-0.133	-0.165
-517.902	-138.702	-0.079	0.009
-516.887	374.318	0.100	-0.206
-515.872	100.626	0.148	0.174
-514.858	-81.695	0.272	0.090
-513.843	33.176	-0.087	-0.076
-512.829	-49.501	0.162	0.078
-511.814	-200.000	-0.032	0.280
-510.799	-5.030	-0.071	0.050
-509.785	150.731	0.075	0.103
-508.770	314.703	-0.071	-0.135
-507.756	800.000	0.034	-0.107
-506.741	124.018	0.170	0.216
-505.726	-45.693	-0.360	-0.180
-504.712	-34.732	0.124	-0.069
-503.697	158.848	-0.151	-0.213
-502.683	-101.587	-0.121	-0.030
-501.668	800.000	0.056	-0.181
-500.653	-69.334	0.234	0.091
-499.639	-200.000	-0.005	0.026
-498.624	12.828	0.206	0.161
-497.610	-154.898	-0.114	-0.008
-496.595	800.000	-0.027	-0.087
-495.581	800.000	0.096	-0.292
-494.566	106.704	-0.191	0.230
-493.551	179.146	0.170	0.251
-492.537	154.333	0.179	0.249
-491.522	173.720	0.038	0.055
-490.508	-109.734	-0.087	-0.019
-489.493	-43.779	-0.187	-0.095
-488.478	261.180	0.089	0.156
-487.464	131.642	-0.150	-0.194
-486.449	93.454	-0.140	-0.160
-485.435	-200.000	-0.196	-0.001
-484.420	35.947	-0.206	-0.183
-483.405	15.957	-0.277	-0.220
-482.391	-121.314	0.202	0.034
-481.376	-21.337	0.087	-0.054
-480.362	-54.039	0.311	0.143
-479.347	-87.821	-0.097	-0.030
-478.332	3.088	-0.308	-0.226
-477.318	441.912	-0.105	-0.232
-476.303	800.000	-0.120	0.495
-475.289	-98.428	-0.359	-0.093
-474.274	-10.956	0.105	0.070
-473.259	14.202	0.237	-0.186
-472.245	800.000	0.019	-0.076
-471.230	110.103	0.057	-0.069
-470.216	-79.907	0.299	-0.102
-469.201	-188.012	-0.247	0.003
-468.186	76.716	-0.220	0.235
-467.172	-127.552	0.153	0.022
-466.157	-53.766	-0.177	0.082
-465.143	91.440	-0.073	0.082
-464.128	179.603	-0.062	-0.092
-463.113	-59.152	-0.216	0.094
-462.099	16.216	0.266	0.212
-461.084	-45.285	-0.218	0.109
-460.070	617.351	-0.189	-0.478
-459.055	-51.747	0.166	-0.078
-458.040	-200.000	0.019	0.263
-457.026	-76.948	-0.399	-0.141
-456.011	234.104	-0.154	-0.256
-454.997	-132.352	-0.105	-0.014
-453.982	-200.000	0.024	0.212
-452.968	-98.990	-0.229	0.059
-451.953	566.500	0.062	0.152
-450.938	-152.529	0.159	-0.011
-449.924	-92.777	-0.050	0.014
-448.909	-141.376	0.189	0.019
-447.895	800.000	0.026	-0.117
-446.880	52.470	0.160	-0.155
-445.865	-152.962	-0.217	-0.015
-444.851	43.740	-0.098	-0.091
-443.836	-46.414	0.317	0.157
-442.822	-103.921	0.356	0.084
-441.807	87.188	0.095	0.106
-440.792	135.354	-0.184	-0.241
-439.778	-163.736	-0.296	0.014
-438.763	88.293	0.167	0.187
-437.749	343.393	0.194	0.383
-436.734	30.410	-0.236	0.204
-435.719	800.000	-0.113	-0.348
-434.705	253.338	0.166	-0.286
-433.690	166.547	0.110	-0.157
-432.676	-43.506	0.261	0.133
-431.661	166.251	0.091	-0.130
-430.646	-200.000	0.026	-0.284
-429.632	-8.727	0.144	0.097
-428.617	-30.394	0.237	0.136
-427.603	421.010	0.090	0.195
-426.588	188.867	0.074	0.111
-425.573	800.000	-0.057	0.245
-424.559	-144.013	0.469	0.044
-423.544	95.624	0.167	-0.192
-422.530	-37.909	0.092	-0.049
-421.515	-200.000	-0.013	-0.112
-420.500	-23.250	0.170	0.103
-419.486	-90.380	-0.333	0.097
-418.471	247.888	0.096	0.164
-417.457	279.874	-0.088	-0.159
-416.442	-126.586	0.367	0.055
-415.428	800.000	0.045	-0.131
-414.413	-200.000	0.049	0.263
-413.398	-62.256	-0.377	0.158
-412.384	126.241	0.105	-0.134
-411.369	-17.874	-0.473	-0.299
-410.355	-200.000	-0.004	0.127
-409.340	-100.446	-0.304	0.076
-408.325	71.635	0.184	-0.193
-407.311	-20.846	-0.122	0.075
-406.296	-200.000	0.030	-0.255
-405.282	-1.065	-0.296	-0.211
-404.267	-200.000	-0.062	-0.372
-403.252	-200.000	0.038	-0.252
-402.238	585.198	-0.015	-0.037
-401.223	19.080	0.318	-0.257
-400.209	480.354	0.023	0.052
-399.194	-131.518	-0.124	0.016
-398.179	233.126	-0.167	0.277
-397.165	-106.778	0.088	0.020
-396.150	279.829	0.030	0.054
-395.136	47.130	-0.299	-0.280
-394.121	-200.000	-0.024	-0.119
-393.106	2.115	0.112	0.082
-392.092	-200.000	0.060	0.442
-391.077	800.000	-0.126	-0.373
-390.063	-20.603	0.174	-0.108
-389.048	256.130	0.233	-0.403
-388.033	-200.000	-0.214	0.001
-387.019	-126.261	-0.551	-0.083
-386.004	83.356	0.182	0.200
-384.990	57.775	0.281	0.276
-383.975	-128.816	0.293	0.041
-382.960	46.359	0.230	-0.215
-381.946	800.000	-0.100	0.355
-380.931	128.538	0.229	-0.294
-379.917	-200.000	0.022	-0.155
-378.902	24.647	-0.161	-0.134
-377.888	-117.572	0.230	-0.042
-376.873	-29.082	0.275	0.159
-375.858	-200.000	-0.062	0.368
-374.844	2.101	-0.117	0.085
-373.829	188.878	-0.106	0.160
-372.815	-200.000	-0.062	-0.396
-371.800	24.271	-0.135	-0.112
-370.785	-200.000	-0.042	0.242
-369.771	158.282	0.212	-0.296
-368.756	-39.926	-0.072	0.038
-367.742	-188.691	0.069	0.001
-366.727	800.000	-0.029	-0.092
-365.712	0.081	0.316	-0.226
-364.698	-83.303	0.144	0.047
-363.683	41.808	0.135	0.123
-362.669	18.630	-0.094	0.076
-361.654	89.401	-0.176	0.197
-360.639	-8.338	0.141	-0.095
-359.625	-188.781	0.232	-0.003
-358.610	-52.939	0.166	0.077
-357.596	800.000	-0.057	0.249
-356.581	800.000	-0.078	-0.267
-355.566	-200.000	-0.012	0.438
-354.552	-147.924	0.174	-0.015
-353.537	-8.906	-0.300	-0.202
-352.523	189.942	0.033	-0.050
-351.508	800.000	-0.064	-0.240
-350.493	800.000	-0.011	0.035
-349.479	75.165	-0.064	0.068
-348.464	-72.844	-0.226	0.084
-347.450	-140.395	-0.237	0.025
-346.435	166.742	0.139	-0.198
-345.420	116.508	0.341	0.420
-344.406	-80.070	-0.182	-0.061
-343.391	-92.222	0.387	0.110
-342.377	800.000	-0.022	0.093
-341.362	25.414	-0.162	-0.135
-340.348	-74.501	0.098	-0.035
-339.333	73.361	0.198	0.208
-338.318	-115.764	-0.133	0.025
-337.304	507.785	-0.088	-0.206
-336.289	-185.779	0.264	0.004
-335.275	524.646	-0.087	0.206
-334.260	-78.052	-0.130	0.045
-333.245	62.087	0.053	0.053
-332.231	-111.684	0.246	-0.050
-331.216	155.794	0.052	0.072
-330.202	-41.590	0.258	-0.133
-329.187	800.000	-0.024	-0.100
-328.172	-107.996	-0.136	-0.030
-327.158	-93.672	0.075	0.021
-326.143	-200.000	0.006	0.107
-325.129	158.478	0.049	-0.069
-324.114	-122.470	0.207	-0.034
-323.099	800.000	-0.048	-0.144
-322.085	-148.685	-0.279	0.023
-321.070	-64.588	-0.138	0.056
-320.056	800.000	-0.058	-0.241
-319.041	-45.350	-0.331	-0.165
-318.026	-200.000	-0.027	0.474
-317.012	-200.000	-0.016	-0.095
-315.997	-141.350	-0.151	0.015
-314.983	176.565	-0.187	0.273
-313.968	113.184	0.012	-0.014
-312.953	800.000	-0.015	0.057
-311.939	168.033	0.172	0.246
-310.924	328.702	-0.091	0.176
-309.910	-124.515	-0.102	-0.016
-308.895	5.377	-0.137	-0.102
-307.880	-200.000	-0.072	-0.334
-306.866	-115.265	-0.257	-0.049
-305.851	-75.940	0.220	-0.078
-304.837	383.827	0.077	-0.158
-303.822	108.908	0.111	0.134
-302.807	76.650	0.233	0.247
-301.793	800.000	0.063	-0.211
-300.778	800.000	0.081	-0.239
-299.764	800.000	-0.049	0.142
-298.749	-200.000	0.024	0.409
-297.735	98.172	-0.176	0.204
-296.720	99.617	-0.162	-0.189
-295.705	339.753	0.098	0.191
-294.691	151.813	0.006	0.008
-293.676	-200.000	0.022	-0.124
-292.662	-96.601	-0.304	0.080
-291.647	151.904	0.192	-0.262
-290.632	-88.593	0.052	-0.015
-289.618	-200.000	0.023	-0.287
-288.603	-18.742	-0.258	-0.161
-287.589	-79.740	-0.163	-0.055
-286.574	-33.801	0.170	-0.094
-285.559	-43.178	0.072	-0.037
-284.545	-57.683	-0.183	0.080
-283.530	-28.812	-0.266	-0.153
-282.516	88.606	0.185	0.206
-281.501	142.095	-0.187	-0.248
-280.486	38.281	0.152	-0.136
-279.472	16.625	-0.177	0.140
-278.457	-51.022	0.185	0.087
-277.443	53.006	-0.100	0.095
-276.428	-200.000	0.049	0.277
-275.413	-94.140	0.246	0.067
-274.399	-33.230	-0.146	-0.081
-273.384	-69.079	0.132	-0.051
-272.370	346.015	-0.082	-0.162
-271.355	-200.000	-0.026	0.162
-270.340	135.967	-0.161	-0.211
-269.326	-51.662	0.180	0.084
-268.311	-127.331	-0.218	0.032
-267.297	-80.291	-0.357	0.120
-266.282	148.798	0.136	0.184
-265.267	-35.711	0.189	0.103
-264.253	-47.692	0.130	0.063
-263.238	-92.358	-0.428	0.121
-262.224	206.374	-0.163	0.254
-261.209	51.381	0.131	0.125
-260.195	-2.834	0.247	-0.173
-259.180	84.002	-0.337	-0.368
-258.165	71.066	-0.021	-0.022
-257.151	516.496	0.137	0.320
-256.136	-55.164	0.145	-0.065
-255.122	130.028	0.120	-0.154
-254.107	-200.000	0.025	0.160
-253.092	-55.850	0.569	0.255
-252.078	491.003	0.051	-0.118
-251.063	-200.000	0.105	0.465
-250.049	676.159	0.054	0.141
-249.034	88.507	0.173	-0.193
-248.019	71.766	-0.249	-0.259
-247.005	487.056	-0.086	0.197
-245.990	145.625	0.111	0.148
-244.976	-200.000	0.071	0.317
-243.961	800.000	0.044	0.185
-242.946	-133.587	0.266	0.033
-241.932	302.349	0.164	-0.304
-240.917	299.302	-0.152	-0.281
-239.903	800.000	-0.071	0.245
-238.888	-135.141	0.339	0.041
-237.873	-62.027	0.309	-0.129
-236.859	57.798	0.075	-0.074
-235.844	-200.000	-0.070	0.316
-234.830	130.094	-0.161	0.207
-233.815	114.494	0.199	0.242
-232.800	112.660	0.301	0.364
-231.786	-200.000	0.016	0.191
-230.771	-59.267	0.313	-0.135
-229.757	197.986	-0.104	0.159
-228.742	23.958	0.095	0.078
-227.727	-16.877	-0.152	0.096
-226.713	-89.434	-0.233	-0.069
-225.698	9.738	-0.180	-0.136
-224.684	578.142	-0.056	-0.137
-223.669	-56.062	-0.366	-0.163
-222.655	751.047	0.044	0.118
-221.640	800.000	-0.154	-0.469
-220.625	514.147	-0.177	-0.412
-219.611	-190.418	0.276	-0.003
-218.596	10.558	-0.099	0.076
-217.582	206.068	0.173	0.269
-216.567	-200.000	0.004	-0.056
-215.552	663.164	-0.037	0.094
-214.538	-129.075	0.290	0.041
-213.523	-200.000	-0.011	-0.291
-212.509	66.847	-0.133	-0.136
-211.494	248.321	0.156	-0.263
-210.479	38.588	0.165	-0.147
-209.465	-95.581	0.174	0.047
-208.450	37.296	0.095	0.084
-207.436	49.936	0.061	0.057
-206.421	-28.342	0.161	-0.093
-205.406	-200.000	-0.014	0.069
-204.392	-22.154	0.483	-0.293
-203.377	-38.506	0.325	0.172
-202.363	-5.385	-0.054	-0.037
-201.348	-200.000	-0.026	0.220
-200.333	-200.000	-0.013	0.261
-199.319	567.880	-0.078	-0.190
-198.304	-38.627	0.066	-0.035
-197.290	152.455	0.058	-0.079
-196.275	-151.225	0.116	-0.009
-195.260	-15.542	-0.108	-0.069
-194.246	-200.000	-0.028	-0.141
-193.231	-102.835	-0.198	0.047
-192.217	-83.622	-0.242	0.077
-191.202	330.139	0.156	-0.300
-190.187	42.268	0.071	0.064
-189.173	50.349	0.304	-0.287
-188.158	800.000	-0.047	0.165
-187.144	-14.594	-0.373	-0.239
-186.129	106.472	0.013	-0.016
-185.114	183.332	-0.180	-0.266
-184.100	-71.943	-0.324	0.120
-183.085	-88.551	0.223	0.066
-182.071	-200.000	0.022	0.266
-181.056	-98.110	0.229	-0.059
-180.042	161.721	0.200	-0.280
-179.027	800.000	-0.098	0.324
-178.012	39.764	-0.115	0.103
-176.998	65.871	-0.107	0.108
-175.983	77.795	-0.040	-0.042
-174.969	-200.000	0.031	0.143
-173.954	153.682	0.060	0.082
-172.939	181.319	0.127	0.186
-171.925	-200.000	-0.002	-0.165
-170.910	-22.566	-0.271	0.163
-169.896	93.968	-0.027	0.030
-168.881	-23.774	-0.104	-0.062
-167.866	-165.094	-0.394	0.017
-166.852	4.477	0.147	-0.108
-165.837	-163.067	0.218	0.010
-164.823	-200.000	-0.010	0.134
-163.808	-136.153	-0.125	0.015
-162.793	-18.433	-0.091	0.056
-161.779	800.000	-0.092	0.305
-160.764	602.689	-0.066	0.164
-159.750	-44.941	-0.089	-0.044
-158.735	-121.023	-0.257	-0.043
-157.720	-200.000	-0.016	0.156
-156.706	340.444	0.060	0.117
-155.691	572.294	-0.068	0.166
-154.677	83.144	0.097	-0.105
-153.662	-200.000	0.022	-0.251
-152.647	-29.610	0.065	0.037
-151.633	658.799	0.092	-0.236
-150.618	-200.000	0.008	0.259
-149.604	-98.623	0.190	-0.048
-148.589	88.017	0.087	-0.096
-147.574	57.320	0.065	-0.063
-146.560	208.701	-0.134	0.209
-145.545	-144.599	0.318	-0.029
-144.531	619.352	0.039	-0.097
-143.516	-82.493	0.222	0.072
-142.502	598.896	0.025	-0.061
-141.487	-131.179	0.106	0.014
-140.472	-200.000	-0.060	0.440
-139.458	-55.246	-0.195	-0.087
-138.443	140.955	0.079	-0.104
-137.429	762.595	-0.059	0.160
-136.414	-56.110	-0.172	-0.077
-135.399	401.837	-0.072	0.150
-134.385	-61.676	0.171	0.071
-133.370	74.100	-0.137	0.143
-132.356	54.850	-0.086	0.083
-131.341	-200.000	-0.024	0.156
-130.326	800.000	-0.123	0.451
-129.312	223.504	0.182	0.293
-128.297	69.769	0.390	0.400
-127.283	-88.481	0.330	0.098
-126.268	-122.046	0.455	0.074
-125.253	196.178	0.031	-0.046
-124.239	-200.000	-0.027	0.221
-123.224	50.870	-0.057	0.053
-122.210	-8.206	-0.170	0.114
-121.195	17.560	0.288	-0.228
-120.180	-102.849	-0.218	0.052
