DTS Sentinel unit serial number:	SN413079Multiplexer serial number:	ORYXHardware model number:	OX4-SRSoftware version number:	ORYX F/W v4.00 Oryx Data Collector v3.7.2.0data status	okinstallation	princeton_trtdifferential loss correction	single-endedforward channel	channel 3reverse channel	N/Adate	2019/09/18time	22:20:34forward acquisition time	60.00reverse acquisition time	0.00gamma	496.2192k internal	0.2345k external	0.2345temperature offset calibration	0.9992default loss term (dB/km)	0.3790temperature slope calibration	1.0000multiplexer offset coefficient	1.0000multiplexer slope coefficient	1.0000fibre end	0.00T internal ref (°C)	24.31T ext. ref 1 (°C)	0.80T ext. ref 2 (°C)	18.06length (m)	temperature (°C)	Stokes	anti-Stokes-747.200	-200.000	0.032	-0.143
-746.185	-200.000	0.004	-0.169
-745.171	800.000	-0.077	-0.212
-744.156	-36.102	0.108	0.059
-743.142	-21.498	-0.136	0.083
-742.127	619.349	-0.011	-0.027
-741.112	172.271	0.168	-0.242
-740.098	-59.249	0.028	0.012
-739.083	-146.415	0.157	0.014
-738.069	27.929	-0.125	-0.105
-737.054	800.000	0.083	0.260
-736.039	-17.267	-0.185	-0.117
-735.025	132.237	0.136	0.175
-734.010	308.518	-0.108	-0.201
-732.996	582.604	0.025	0.062
-731.981	-200.000	-0.034	0.292
-730.966	800.000	0.017	-0.060
-729.952	800.000	-0.132	-0.483
-728.937	125.540	-0.167	0.211
-727.923	-200.000	0.021	0.397
-726.908	16.015	-0.089	-0.070
-725.894	-27.442	0.281	0.163
-724.879	-200.000	0.030	-0.232
-723.864	22.451	-0.124	-0.102
-722.850	-89.906	-0.182	0.053
-721.835	-82.307	-0.217	0.071
-720.821	-25.393	-0.259	-0.153
-719.806	393.222	-0.036	0.075
-718.791	-133.742	-0.114	-0.014
-717.777	683.700	-0.037	-0.097
-716.762	-143.317	-0.437	0.042
-715.748	-45.031	-0.261	-0.130
-714.733	-93.782	0.075	0.021
-713.718	378.503	0.045	-0.091
-712.704	-61.184	0.462	0.194
-711.689	58.835	-0.125	0.123
-710.675	31.998	-0.311	-0.268
-709.660	179.564	-0.122	0.178
-708.645	215.265	0.043	-0.068
-707.631	-82.738	-0.338	0.109
-706.616	800.000	0.073	0.253
-705.602	702.273	0.146	0.384
-704.587	-184.908	0.352	0.006
-703.572	-119.277	-0.182	-0.032
-702.558	21.038	0.045	-0.036
-701.543	-114.071	0.060	-0.012
-700.529	-24.504	0.261	0.155
-699.514	-81.517	-0.016	-0.005
-698.499	-114.586	-0.560	0.107
-697.485	432.666	0.148	0.321
-696.470	571.988	0.076	-0.184
-695.456	-39.512	0.114	-0.060
-694.441	-200.000	0.003	-0.328
-693.426	-90.849	0.234	0.067
-692.412	-200.000	-0.061	0.000
-691.397	48.722	-0.219	0.205
-690.383	131.822	-0.100	-0.129
-689.368	-39.407	0.147	-0.077
-688.354	-170.637	-0.500	0.017
-687.339	-200.000	-0.232	-0.001
-686.324	-0.591	-0.081	0.058
-685.310	-22.065	0.123	-0.074
-684.295	-200.000	0.043	0.197
-683.281	-77.899	-0.202	-0.070
-682.266	708.047	0.079	0.209
-681.251	-108.003	0.136	-0.029
-680.237	-47.161	0.014	-0.007
-679.222	800.000	-0.154	-0.555
-678.208	315.974	-0.182	-0.344
-677.193	800.000	0.035	0.120
-676.178	316.850	-0.196	0.370
-675.164	-200.000	-0.007	0.070
-674.149	-160.838	-0.137	-0.007
-673.135	-163.696	0.137	0.006
-672.120	-200.000	-0.013	0.117
-671.105	154.276	-0.060	0.082
-670.091	180.149	0.163	0.239
-669.076	-19.920	0.144	-0.088
-668.062	-200.000	0.031	-0.146
-667.047	-200.000	0.007	0.192
-666.032	-114.026	0.120	0.023
-665.018	-91.637	0.263	-0.075
-664.003	-28.187	-0.390	-0.225
-662.989	-200.000	-0.006	0.127
-661.974	65.813	0.040	0.041
-660.959	45.531	-0.155	-0.143
-659.945	21.663	0.091	-0.074
-658.930	-75.865	-0.190	0.067
-657.916	128.469	-0.304	0.386
-656.901	53.628	-0.118	0.112
-655.886	-78.728	-0.205	-0.070
-654.872	125.987	0.014	0.017
-653.857	192.568	-0.136	-0.205
-652.843	202.782	0.080	0.123
-651.828	-6.873	0.187	-0.127
-650.814	139.328	0.167	0.219
-649.799	-35.085	0.085	-0.046
-648.784	-17.980	-0.164	-0.102
-647.770	-200.000	-0.025	-0.216
-646.755	130.413	0.267	-0.340
-645.741	-114.020	-0.465	0.090
-644.726	-200.000	-0.017	0.158
-643.711	-109.130	0.324	0.069
-642.697	447.227	-0.077	-0.170
-641.682	192.904	-0.138	0.208
-640.668	-200.000	0.081	0.377
-639.653	-114.095	0.042	0.008
-638.638	10.808	-0.326	0.248
-637.624	-21.554	0.354	-0.215
-636.609	-98.440	-0.311	-0.079
-635.595	-21.631	0.088	0.053
-634.580	84.671	0.232	-0.253
-633.565	180.307	0.053	0.077
-632.551	-30.988	0.121	0.068
-631.536	70.428	-0.190	-0.195
-630.522	-28.558	0.298	0.171
-629.507	-75.994	-0.340	0.120
-628.492	-200.000	0.023	-0.183
-627.478	63.389	-0.273	-0.273
-626.463	-200.000	-0.001	-0.137
-625.449	800.000	-0.067	-0.280
-624.434	756.990	0.052	-0.141
-623.419	50.893	-0.068	0.064
-622.405	-17.830	0.077	-0.048
-621.390	-110.296	0.012	0.002
-620.376	-116.600	-0.156	0.029
-619.361	-113.613	-0.270	-0.052
-618.346	-82.177	-0.330	-0.107
-617.332	-22.470	0.190	0.115
-616.317	-200.000	0.029	0.160
-615.303	0.046	-0.120	0.085
-614.288	9.550	0.101	0.076
-613.273	-9.095	-0.205	0.137
-612.259	-178.024	0.021	0.001
-611.244	31.248	-0.216	-0.184
-610.230	104.233	-0.187	-0.219
-609.215	69.761	0.080	-0.082
-608.201	25.861	0.177	-0.146
-607.186	72.402	0.246	0.256
-606.171	-100.945	0.252	-0.061
-605.157	-200.000	-0.008	-0.351
-604.142	-200.000	-0.029	-0.314
-603.128	-150.523	0.322	-0.025
-602.113	47.251	-0.339	0.314
-601.098	-42.296	-0.170	-0.087
-600.084	800.000	-0.083	-0.353
-599.069	205.884	0.098	-0.152
-598.055	46.965	0.097	0.090
-597.040	16.583	-0.126	0.099
-596.025	-200.000	-0.009	0.180
-595.011	489.717	0.061	-0.139
-593.996	-200.000	-0.005	-0.369
-592.982	-144.149	0.221	-0.021
-591.967	297.025	0.151	-0.277
-590.952	100.485	-0.071	-0.082
-589.938	13.268	0.142	0.109
-588.923	509.087	0.029	-0.067
-587.909	-200.000	-0.035	-0.269
-586.894	-20.517	0.090	0.055
-585.879	786.994	-0.032	0.086
-584.865	-141.601	0.378	-0.038
-583.850	-95.171	-0.555	0.149
-582.836	193.112	-0.067	-0.100
-581.821	-12.357	0.203	-0.132
-580.806	123.868	0.265	-0.330
-579.792	-200.000	-0.014	-0.231
-578.777	3.616	-0.229	0.166
-577.763	447.145	-0.057	-0.124
-576.748	55.962	0.104	-0.100
-575.733	800.000	-0.016	0.056
-574.719	-130.041	-0.446	0.061
-573.704	-157.495	-0.086	-0.005
-572.690	-39.468	-0.158	-0.082
-571.675	107.418	0.185	-0.219
-570.661	800.000	0.122	0.394
-569.646	-57.853	-0.156	0.068
-568.631	-104.839	-0.317	-0.072
-567.617	-200.000	0.010	-0.313
-566.602	-54.210	0.205	-0.093
-565.588	153.613	0.250	0.340
-564.573	-200.000	-0.020	0.088
-563.558	800.000	0.043	0.182
-562.544	-101.754	-0.185	-0.044
-561.529	-200.000	-0.045	0.207
-560.515	-200.000	0.044	-0.233
-559.500	-141.947	-0.276	-0.027
-558.485	-115.231	0.113	-0.021
-557.471	-0.779	0.330	0.232
-556.456	451.629	-0.090	-0.198
-555.442	800.000	-0.065	-0.199
-554.427	64.473	-0.186	0.186
-553.412	-33.119	-0.046	0.025
-552.398	-68.471	-0.300	-0.116
-551.383	800.000	0.018	0.078
-550.369	-200.000	-0.024	0.183
-549.354	-111.994	0.125	-0.025
-548.339	422.213	-0.122	0.259
-547.325	-143.262	-0.284	0.027
-546.310	496.892	0.143	-0.326
-545.296	-150.959	0.148	-0.011
-544.281	-122.280	-0.286	0.046
-543.266	-17.598	-0.242	0.151
-542.252	333.570	0.023	-0.045
-541.237	-40.878	0.189	-0.097
-540.223	2.982	-0.048	-0.034
-539.208	-19.655	0.342	0.210
-538.193	-132.482	-0.138	0.018
-537.179	-45.692	-0.308	-0.151
-536.164	-97.211	0.226	0.059
-535.150	-176.843	-0.157	-0.004
-534.135	-25.348	-0.383	-0.225
-533.121	-145.703	0.334	-0.030
-532.106	-126.795	0.244	0.036
-531.091	-58.109	-0.059	0.026
-530.077	800.000	0.085	-0.316
-529.062	800.000	-0.008	-0.029
-528.048	-126.052	-0.086	0.013
-527.033	106.532	-0.304	0.358
-526.018	20.649	0.209	-0.168
-525.004	500.665	-0.020	-0.047
-523.989	454.534	0.047	0.103
-522.975	-116.092	-0.161	-0.030
-521.960	20.084	0.050	0.040
-520.945	800.000	-0.054	-0.158
-519.931	506.436	-0.025	0.056
-518.916	37.958	0.146	0.128
-517.902	-49.123	0.183	-0.087
-516.887	-173.213	-0.111	-0.003
-515.872	391.771	0.137	0.282
-514.858	-20.735	0.227	-0.138
-513.843	1.216	-0.317	-0.225
-512.829	-200.000	0.043	0.263
-511.814	-59.536	-0.293	0.125
-510.799	800.000	0.051	0.152
-509.785	-168.629	-0.211	-0.008
-508.770	-12.947	-0.262	-0.169
-507.756	-9.676	0.370	-0.244
-506.741	-130.940	-0.094	0.013
-505.726	77.023	-0.039	-0.041
-504.712	-200.000	0.034	-0.362
-503.697	-153.979	0.339	-0.023
-502.683	-200.000	-0.035	-0.262
-501.668	-191.300	0.081	-0.001
-500.653	527.989	-0.156	0.364
-499.639	-168.501	0.166	0.006
-498.624	-140.010	-0.331	0.035
-497.610	-104.177	0.429	0.099
-496.595	224.205	0.087	-0.139
-495.581	800.000	0.096	0.274
-494.566	106.492	-0.050	-0.059
-493.551	4.814	-0.180	-0.131
-492.537	-42.494	0.129	-0.065
-491.522	800.000	-0.017	-0.057
-490.508	252.177	0.026	0.045
-489.493	-200.000	0.021	0.154
-488.478	583.040	-0.124	-0.302
-487.464	293.707	0.147	0.266
-486.449	800.000	-0.074	0.321
-485.435	-54.210	0.028	0.012
-484.420	45.858	0.171	-0.157
-483.405	-200.000	-0.036	-0.176
-482.391	-200.000	-0.006	-0.076
-481.376	-116.648	0.180	0.033
-480.362	299.123	-0.027	-0.049
-479.347	87.115	0.198	0.216
-478.332	7.422	0.131	-0.097
-477.318	394.418	0.046	0.094
-476.303	-19.169	0.088	0.054
-475.289	297.465	-0.129	0.235
-474.274	-77.842	-0.154	0.053
-473.259	-140.527	-0.048	0.005
-472.245	92.724	0.286	0.320
-471.230	-140.447	0.099	-0.010
-470.216	800.000	-0.073	0.244
-469.201	68.108	-0.045	-0.046
-468.186	-59.951	0.405	0.171
-467.172	41.138	-0.265	-0.237
-466.157	-10.270	0.259	-0.170
-465.143	-145.583	-0.170	0.015
-464.128	67.477	0.271	0.274
-463.113	-122.050	0.175	-0.028
-462.099	-200.000	-0.015	0.151
-461.084	-200.000	-0.024	0.116
-460.070	61.458	-0.026	-0.026
-459.055	-149.773	0.072	0.006
-458.040	-31.063	-0.363	0.203
-457.026	-15.410	-0.032	0.020
-456.011	28.683	0.201	-0.168
-454.997	63.458	-0.337	0.334
-453.982	129.471	0.144	-0.182
-452.968	-100.639	-0.462	0.113
-451.953	-200.000	-0.019	-0.107
-450.938	28.793	-0.118	0.099
-449.924	168.812	0.080	-0.112
-448.909	-64.995	0.095	-0.038
-447.895	519.532	-0.034	0.079
-446.880	-103.193	0.147	-0.034
-445.865	-28.515	-0.336	-0.191
-444.851	95.196	-0.182	0.205
-443.836	91.363	-0.061	-0.067
-442.822	399.829	0.036	0.074
-441.807	-84.311	0.118	0.037
-440.792	-95.797	-0.314	0.083
-439.778	-200.000	-0.019	0.123
-438.763	216.051	0.194	-0.304
-437.749	164.191	-0.037	-0.052
-436.734	202.968	0.165	-0.252
-435.719	113.314	0.149	0.178
-434.705	-200.000	0.020	-0.550
-433.690	-200.000	-0.017	-0.235
-432.676	238.276	-0.117	-0.192
-431.661	-19.223	0.180	-0.110
-430.646	800.000	-0.094	-0.282
-429.632	-172.395	0.149	-0.005
-428.617	-153.717	0.165	-0.011
-427.603	78.877	-0.167	0.177
-426.588	800.000	-0.071	-0.284
-425.573	-200.000	0.006	0.112
-424.559	-166.139	0.278	0.012
-423.544	20.999	-0.169	-0.135
-422.530	98.551	-0.180	0.205
-421.515	-65.402	-0.245	-0.097
-420.500	-200.000	0.056	0.305
-419.486	82.756	-0.143	0.153
-418.471	-200.000	-0.002	-0.034
-417.457	63.623	-0.073	0.073
-416.442	-130.907	0.271	0.036
-415.428	45.997	-0.387	0.354
-414.413	596.990	-0.028	0.069
-413.398	-200.000	-0.054	0.253
-412.384	199.403	0.054	0.082
-411.369	-80.421	0.100	0.033
-410.355	242.353	-0.157	0.260
-409.340	-26.883	-0.259	0.149
-408.325	-200.000	-0.010	0.173
-407.311	99.650	0.084	-0.096
-406.296	108.246	0.166	0.195
-405.282	-160.868	-0.368	0.019
-404.267	-53.326	0.413	0.187
-403.252	-43.900	0.172	0.085
-402.238	161.291	-0.251	0.347
-401.223	94.331	0.186	0.209
-400.209	27.595	0.255	0.212
-399.194	212.991	-0.085	-0.132
-398.179	-200.000	0.000	0.048
-397.165	-161.289	-0.152	-0.008
-396.150	-87.179	0.159	0.048
-395.136	-54.984	-0.127	0.057
-394.121	-124.122	-0.287	-0.044
-393.106	-200.000	0.038	-0.538
-392.092	-122.797	-0.124	-0.020
-391.077	-84.572	-0.258	0.080
-390.063	10.921	0.270	0.203
-389.048	800.000	0.052	0.208
-388.033	-200.000	-0.031	-0.444
-387.019	788.364	0.055	0.148
-386.004	-131.875	-0.328	-0.042
-384.990	-75.374	0.368	-0.129
-383.975	77.393	0.275	0.289
-382.960	369.472	0.175	-0.349
-381.946	-151.879	0.163	0.012
-380.931	-97.569	-0.147	-0.038
-379.917	165.706	-0.097	0.136
-378.902	-81.942	-0.186	-0.060
-377.888	-46.287	-0.239	-0.116
-376.873	-185.545	-0.132	0.002
-375.858	-200.000	-0.017	0.189
-374.844	50.705	-0.262	0.244
-373.829	223.307	0.166	0.264
-372.815	-69.104	0.200	-0.076
-371.800	22.292	0.103	-0.083
-370.785	-94.908	0.485	-0.129
-369.771	-200.000	0.048	0.236
-368.756	470.531	-0.085	-0.189
-367.742	14.382	0.232	-0.178
-366.727	-150.941	-0.124	0.009
-365.712	-129.134	0.030	0.004
-364.698	610.442	-0.091	-0.224
-363.683	194.172	0.207	-0.309
-362.669	303.160	-0.175	-0.319
-361.654	800.000	-0.022	0.084
-360.639	147.469	-0.198	0.263
-359.625	-118.752	0.190	0.033
-358.610	332.099	-0.200	0.380
-357.596	-200.000	-0.000	-0.048
-356.581	-200.000	-0.066	-0.292
-355.566	148.038	-0.162	-0.216
-354.552	-103.944	0.039	0.009
-353.537	-200.000	0.001	-0.256
-352.523	38.057	0.102	-0.089
-351.508	-158.938	-0.086	-0.005
-350.493	-200.000	0.044	-0.333
-349.479	380.014	0.141	-0.284
-348.464	-77.237	-0.075	-0.026
-347.450	800.000	0.024	-0.092
-346.435	19.324	0.270	-0.213
-345.420	-200.000	-0.034	-0.199
-344.406	43.140	0.038	-0.034
-343.391	-139.632	0.160	-0.017
-342.377	-18.215	-0.163	-0.100
-341.362	623.323	0.042	-0.104
-340.348	-112.503	-0.020	-0.004
-339.333	-15.949	-0.392	0.246
-338.318	-200.000	-0.011	0.272
-337.304	-84.592	-0.100	0.031
-336.289	800.000	-0.044	0.145
-335.275	-96.928	0.133	-0.034
-334.260	-200.000	-0.047	0.240
-333.245	511.637	0.057	-0.131
-332.231	129.223	-0.152	0.192
-331.216	-68.732	0.209	-0.079
-330.202	20.743	0.099	0.079
-329.187	99.168	0.031	-0.036
-328.172	-200.000	0.005	-0.043
-327.158	-200.000	0.009	-0.260
-326.143	800.000	-0.111	-0.338
-325.129	-200.000	0.001	-0.123
-324.114	-130.707	0.119	0.016
-323.099	154.019	-0.072	-0.097
-322.085	-22.981	-0.188	0.111
-321.070	800.000	-0.111	0.411
-320.056	130.049	0.175	0.221
-319.041	-77.919	0.281	0.095
-318.026	181.816	-0.069	0.100
-317.012	589.033	-0.079	-0.192
-315.997	-173.137	0.164	0.005
-314.983	-200.000	-0.052	-0.257
-313.968	172.414	-0.145	0.206
-312.953	103.687	0.158	0.182
-311.939	-9.517	-0.095	-0.063
-310.924	80.677	-0.091	0.096
-309.910	-200.000	0.038	-0.283
-308.895	3.381	0.099	-0.071
-307.880	-91.921	-0.216	0.060
-306.866	168.802	-0.055	0.077
-305.851	142.391	-0.285	0.372
-304.837	-81.848	-0.101	0.032
-303.822	384.824	-0.140	0.283
-302.807	-169.367	0.191	0.007
-301.793	-10.866	0.091	-0.059
-300.778	79.706	-0.130	-0.138
-299.764	-200.000	0.012	0.246
-298.749	-200.000	0.069	-0.437
-297.735	474.188	0.153	0.339
-296.720	73.705	0.186	0.191
-295.705	-53.126	-0.178	-0.080
-294.691	800.000	-0.035	0.144
-293.676	58.077	-0.092	0.089
-292.662	-13.575	0.264	-0.168
-291.647	-200.000	-0.046	-0.371
-290.632	45.623	-0.106	-0.097
-289.618	118.758	0.115	-0.140
-288.603	-24.578	0.214	0.125
-287.589	-200.000	-0.025	-0.234
-286.574	-200.000	-0.007	-0.160
-285.559	16.102	0.201	0.155
-284.545	-200.000	-0.023	0.278
-283.530	159.812	0.109	0.149
-282.516	-200.000	-0.032	-0.178
-281.501	-200.000	0.053	-0.391
-280.486	-19.633	-0.232	0.141
-279.472	-118.660	0.256	0.044
-278.457	-43.479	-0.087	0.043
-277.443	222.498	0.129	-0.204
-276.428	-53.903	0.381	-0.170
-275.413	83.024	-0.249	-0.266
-274.399	223.390	-0.180	-0.285
-273.384	111.836	-0.125	0.148
-272.370	152.367	0.100	0.134
-271.355	348.311	-0.170	0.329
-270.340	-183.666	0.481	-0.008
-269.326	-64.704	0.198	-0.079
-268.311	-131.252	-0.342	0.045
-267.297	-62.899	0.165	0.067
-266.282	-35.077	0.365	-0.195
-265.267	800.000	-0.041	-0.125
-264.253	110.491	-0.047	-0.055
-263.238	-123.026	0.329	-0.052
-262.224	-200.000	0.048	0.497
-261.209	-200.000	0.008	0.101
-260.195	-32.182	0.238	0.131
-259.180	119.574	0.334	-0.406
-258.165	-30.698	0.251	0.140
-257.151	-151.284	0.293	-0.021
-256.136	365.687	-0.064	-0.126
-255.122	43.770	-0.205	0.184
-254.107	-148.003	-0.152	0.012
-253.092	-200.000	0.032	0.239
-252.078	-130.492	0.075	0.010
-251.063	7.181	-0.111	-0.082
-250.049	481.534	0.072	0.161
-249.034	800.000	0.113	0.371
-248.019	-75.260	-0.061	0.021
-247.005	-50.179	-0.064	0.030
-245.990	-19.545	-0.156	-0.095
-244.976	-200.000	-0.018	0.188
-243.961	-200.000	0.009	-0.066
-242.946	314.548	-0.104	-0.191
-241.932	-200.000	0.009	-0.057
-240.917	-200.000	0.032	0.223
-239.903	800.000	-0.028	0.105
-238.888	419.331	0.202	0.424
-237.873	356.294	-0.130	-0.254
-236.859	-42.156	0.130	-0.065
-235.844	354.724	0.085	0.165
-234.830	-88.278	-0.278	-0.082
-233.815	-200.000	-0.006	0.292
-232.800	800.000	-0.082	-0.260
-231.786	800.000	-0.033	-0.096
-230.771	442.984	-0.132	0.283
-229.757	-140.679	-0.300	-0.030
-228.742	800.000	-0.031	-0.111
-227.727	183.573	-0.021	-0.031
-226.713	-200.000	0.059	-0.436
-225.698	800.000	-0.135	0.368
-224.684	21.383	-0.306	-0.244
-223.669	28.230	0.190	0.157
-222.655	245.530	-0.120	0.198
-221.640	-8.085	-0.316	0.209
-220.625	-30.639	0.245	0.136
-219.611	471.879	-0.129	0.285
-218.596	-123.039	0.174	0.027
-217.582	-83.053	-0.415	-0.131
-216.567	-107.105	-0.332	0.072
-215.552	-200.000	0.008	-0.097
-214.538	-40.461	0.232	0.118
-213.523	-39.483	-0.030	-0.016
-212.509	-200.000	0.025	0.295
-211.494	-134.237	-0.438	-0.053
-210.479	-115.381	-0.174	0.032
-209.465	-95.443	0.052	0.014
-208.450	-54.574	-0.245	-0.109
-207.436	-130.704	-0.250	-0.033
-206.421	170.522	0.230	0.322
-205.406	238.911	0.362	0.589
-204.392	-18.152	0.183	0.112
-203.377	-29.465	-0.214	0.120
-202.363	-200.000	0.084	-0.472
-201.348	-85.505	0.228	-0.069
-200.333	-142.578	0.198	0.019
-199.319	-112.143	0.039	0.008
-198.304	-18.250	0.058	-0.035
-197.290	-125.908	-0.383	-0.057
-196.275	-200.000	-0.040	0.229
-195.260	-59.782	0.101	-0.042
-194.246	233.112	0.092	0.149
-193.231	92.731	0.193	0.213
-192.217	-77.656	0.161	-0.055
-191.202	-109.695	0.233	0.048
-190.187	-200.000	-0.013	0.122
-189.173	98.416	-0.104	-0.117
-188.158	167.732	-0.199	-0.277
-187.144	-124.385	0.213	0.033
-186.129	-200.000	-0.010	0.174
-185.114	-178.165	-0.318	0.007
-184.100	714.411	0.114	-0.295
-183.085	800.000	-0.007	-0.024
-182.071	-122.729	0.191	0.030
-181.056	30.404	-0.048	-0.040
-180.042	-200.000	0.306	-0.000
-179.027	-145.487	0.092	0.008
-178.012	-200.000	-0.001	0.217
-176.998	-141.501	0.133	0.013
-175.983	112.888	-0.146	-0.173
-174.969	304.266	-0.073	0.133
-173.954	800.000	-0.057	0.184
-172.939	-22.924	-0.206	-0.122
-171.925	-200.000	0.028	-0.322
-170.910	-158.477	-0.077	-0.004
-169.896	-11.249	-0.085	-0.055
-168.881	223.015	-0.018	-0.028
-167.866	114.685	0.009	-0.010
-166.852	89.223	-0.167	0.182
-165.837	4.667	0.185	-0.133
-164.823	49.167	0.154	0.142
-163.808	-177.158	0.241	-0.006
-162.793	-76.791	-0.099	-0.034
-161.779	800.000	0.100	0.359
-160.764	380.304	0.154	-0.308
-159.750	-133.746	0.225	0.027
-158.735	704.420	-0.110	-0.284
-157.720	-200.000	-0.029	0.152
-156.706	367.096	0.094	0.185
-155.691	-193.862	0.246	-0.002
-154.677	1.349	0.084	-0.059
-153.662	-159.331	-0.167	-0.009
-152.647	-200.000	-0.007	0.046
-151.633	367.184	0.199	-0.393
-150.618	15.358	0.168	0.129
-149.604	326.403	-0.133	0.249
-148.589	-106.592	-0.333	-0.073
-147.574	112.720	0.085	0.100
-146.560	122.863	0.068	0.083
-145.545	231.064	0.111	0.178
-144.531	16.377	0.317	0.245
-143.516	-135.568	-0.142	-0.017
-142.502	207.288	-0.136	-0.207
-141.487	354.792	0.176	0.342
-140.472	800.000	-0.188	0.560
-139.458	-197.352	-0.250	0.002
-138.443	13.465	-0.202	-0.153
-137.429	61.613	0.123	-0.119
-136.414	-72.593	-0.027	-0.010
-135.399	164.103	0.285	-0.392
-134.385	-200.000	-0.029	0.231
-133.370	27.690	0.196	0.161
-132.356	-124.052	0.057	0.009
-131.341	-111.161	0.331	0.066
-130.326	-111.602	0.216	-0.043
-129.312	-41.208	0.312	0.157
-128.297	-200.000	0.067	0.389
-127.283	-4.456	0.112	0.076
-126.268	-49.449	0.074	-0.035
-125.253	-142.690	0.293	-0.028
-124.239	-77.349	-0.050	-0.017
-123.224	-29.493	0.280	0.156
-122.210	27.007	-0.141	-0.115
