DTS Sentinel unit serial number:	SN413079Multiplexer serial number:	ORYXHardware model number:	OX4-SRSoftware version number:	ORYX F/W v4.00 Oryx Data Collector v3.7.2.0data status	okinstallation	princeton_trtdifferential loss correction	single-endedforward channel	channel 3reverse channel	N/Adate	2019/09/14time	05:00:35forward acquisition time	60.00reverse acquisition time	0.00gamma	496.2192k internal	0.2338k external	0.2338temperature offset calibration	1.0053default loss term (dB/km)	0.3790temperature slope calibration	1.0000multiplexer offset coefficient	1.0000multiplexer slope coefficient	1.0000fibre end	0.00T internal ref (°C)	26.87T ext. ref 1 (°C)	3.37T ext. ref 2 (°C)	22.01length (m)	temperature (°C)	Stokes	anti-Stokes-747.200	111.548	-0.214	0.259
-746.185	13.876	0.070	0.055
-745.171	-95.246	0.303	-0.082
-744.156	223.910	0.062	-0.100
-743.142	-87.072	0.174	0.053
-742.127	-12.196	-0.271	0.178
-741.112	-200.000	-0.057	0.000
-740.098	-40.849	-0.311	0.161
-739.083	800.000	0.073	0.265
-738.069	120.350	0.179	-0.223
-737.054	220.187	0.100	-0.161
-736.039	14.605	-0.069	-0.054
-735.025	546.103	0.069	0.167
-734.010	288.532	-0.092	-0.168
-732.996	-72.994	-0.375	-0.138
-731.981	45.919	0.016	0.015
-730.966	161.189	-0.054	0.076
-729.952	611.450	0.095	0.237
-728.937	529.652	-0.053	0.127
-727.923	339.778	-0.102	0.199
-726.908	-7.574	-0.202	0.137
-725.894	800.000	-0.115	-0.322
-724.879	-23.790	-0.252	0.151
-723.864	-54.040	0.202	0.092
-722.850	-156.008	-0.444	0.028
-721.835	485.693	0.168	0.383
-720.821	560.173	0.046	-0.111
-719.806	-131.624	-0.312	-0.041
-718.791	-200.000	-0.015	-0.291
-717.777	-200.000	-0.051	0.305
-716.762	468.895	0.035	-0.080
-715.748	-200.000	0.030	0.428
-714.733	-88.766	0.120	-0.036
-713.718	-57.991	-0.215	-0.094
-712.704	-105.641	-0.232	-0.053
-711.689	-83.645	-0.103	0.033
-710.675	800.000	0.040	0.131
-709.660	-57.875	0.134	-0.059
-708.645	83.622	-0.215	-0.235
-707.631	285.634	-0.061	-0.109
-706.616	-135.832	-0.184	-0.022
-705.602	81.472	-0.177	-0.192
-704.587	-200.000	-0.014	-0.066
-703.572	-20.742	0.222	-0.137
-702.558	609.481	-0.087	-0.217
-701.543	113.867	-0.126	0.153
-700.529	-81.151	-0.285	0.095
-699.514	800.000	-0.092	-0.295
-698.499	-141.405	0.170	-0.017
-697.485	154.957	0.104	-0.144
-696.470	800.000	0.022	-0.082
-695.456	722.854	0.031	-0.082
-694.441	1.537	-0.215	0.155
-693.426	800.000	0.052	-0.218
-692.412	800.000	-0.085	-0.255
-691.397	56.187	0.229	-0.223
-690.383	92.075	-0.131	0.147
-689.368	6.432	-0.262	0.195
-688.354	-100.268	0.259	-0.064
-687.339	-109.340	-0.328	0.070
-686.324	-182.337	0.308	-0.006
-685.310	-110.285	0.405	0.084
-684.295	-107.800	0.115	0.025
-683.281	-200.000	-0.040	0.217
-682.266	-12.432	0.175	-0.114
-681.251	-160.865	0.252	0.013
-680.237	800.000	0.050	-0.207
-679.222	-132.555	0.122	0.016
-678.208	671.874	0.085	-0.221
-677.193	-136.739	0.194	0.022
-676.178	-172.029	-0.299	0.010
-675.164	-141.897	-0.297	-0.030
-674.149	-109.121	-0.382	0.081
-673.135	-200.000	-0.046	-0.372
-672.120	-51.660	-0.102	0.048
-671.105	-200.000	-0.015	-0.263
-670.091	226.769	-0.186	-0.303
-669.076	-39.132	-0.091	0.048
-668.062	-200.000	0.003	0.030
-667.047	-11.486	0.217	0.143
-666.032	82.105	-0.164	0.178
-665.018	-60.618	0.239	0.101
-664.003	-86.052	-0.129	0.040
-662.989	-110.624	-0.395	-0.082
-661.974	152.369	0.076	0.104
-660.959	-200.000	0.010	-0.108
-659.945	-200.000	0.045	-0.332
-658.930	-78.312	0.094	0.032
-657.916	26.673	-0.101	0.084
-656.901	5.704	-0.171	0.126
-655.886	451.124	-0.148	0.328
-654.872	-154.755	-0.298	-0.020
-653.857	-109.454	-0.263	-0.056
-652.843	-142.765	-0.224	-0.022
-651.828	35.180	-0.106	-0.093
-650.814	271.893	-0.038	0.067
-649.799	-200.000	-0.023	-0.105
-648.784	165.606	0.085	0.120
-647.770	206.833	0.119	-0.186
-646.755	-167.181	-0.186	0.008
-645.741	-155.036	-0.071	-0.005
-644.726	800.000	-0.061	0.245
-643.711	-85.758	0.141	-0.044
-642.697	-200.000	0.076	-0.558
-641.682	31.275	-0.149	-0.127
-640.668	-80.499	-0.260	0.087
-639.653	-157.214	0.158	0.010
-638.638	92.335	0.033	-0.037
-637.624	180.795	0.269	-0.394
-636.609	-86.102	-0.098	0.030
-635.595	690.152	-0.022	0.057
-634.580	-35.981	-0.204	0.110
-633.565	223.645	0.055	0.089
-632.551	-132.740	-0.048	-0.006
-631.536	-177.149	0.068	0.002
-630.522	-107.490	0.410	0.090
-629.507	-200.000	-0.029	-0.397
-628.492	105.885	-0.225	-0.266
-627.478	90.536	0.028	0.031
-626.463	800.000	0.069	0.198
-625.449	1.096	-0.079	0.056
-624.434	265.357	0.154	-0.268
-623.419	800.000	0.032	0.122
-622.405	37.101	-0.350	-0.309
-621.390	156.097	-0.133	0.183
-620.376	-21.696	0.169	-0.103
-619.361	800.000	0.079	0.281
-618.346	35.839	0.198	-0.174
-617.332	-200.000	-0.012	-0.157
-616.317	252.726	-0.169	0.288
-615.303	-140.149	-0.201	0.021
-614.288	212.266	-0.080	0.126
-613.273	-36.195	-0.238	0.128
-612.259	-1.909	0.096	-0.067
-611.244	-65.080	0.095	0.038
-610.230	-200.000	0.002	-0.121
-609.215	-96.422	-0.100	-0.026
-608.201	249.256	0.136	-0.230
-607.186	-126.730	-0.376	0.056
-606.171	268.277	0.088	0.153
-605.157	273.510	-0.131	-0.232
-604.142	-47.039	0.348	0.169
-603.128	-88.180	-0.156	-0.047
-602.113	-7.424	0.108	-0.073
-601.098	-200.000	-0.005	0.197
-600.084	-200.000	-0.016	-0.156
-599.069	-37.132	-0.089	0.048
-598.055	-74.746	0.241	0.086
-597.040	69.567	-0.064	-0.065
-596.025	-75.745	-0.094	-0.033
-595.011	177.628	-0.147	-0.214
-593.996	32.775	0.108	-0.093
-592.982	-47.089	-0.201	0.098
-591.967	-45.435	-0.262	-0.130
-590.952	109.691	0.180	-0.215
-589.938	-200.000	0.041	0.317
-588.923	-95.801	-0.199	-0.053
-587.909	12.772	-0.062	0.048
-586.894	-200.000	-0.006	0.062
-585.879	100.563	-0.082	0.095
-584.865	89.097	0.291	0.323
-583.850	800.000	0.050	-0.174
-582.836	-200.000	0.036	-0.269
-581.821	-161.367	0.182	-0.009
-580.806	-49.366	-0.225	-0.107
-579.792	187.087	-0.226	0.336
-578.777	76.469	0.131	-0.139
-577.763	244.390	-0.106	0.177
-576.748	800.000	-0.115	0.454
-575.733	74.094	0.018	-0.019
-574.719	-200.000	0.022	0.406
-573.704	86.986	-0.190	-0.209
-572.690	-53.632	-0.118	-0.054
-571.675	26.085	-0.127	0.106
-570.661	-16.094	0.043	-0.027
-569.646	-57.489	0.452	0.198
-568.631	98.129	0.087	0.099
-567.617	555.356	0.015	0.036
-566.602	-66.075	-0.068	0.027
-565.588	213.996	0.053	0.084
-564.573	48.691	-0.098	0.092
-563.558	-98.458	-0.515	-0.131
-562.544	-180.062	0.201	-0.004
-561.529	-111.129	-0.132	-0.027
-560.515	123.898	0.190	0.237
-559.500	254.830	-0.107	0.183
-558.485	-94.540	-0.177	-0.048
-557.471	800.000	-0.042	0.144
-556.456	-9.100	-0.170	0.114
-555.442	508.715	0.068	-0.157
-554.427	8.944	-0.358	-0.269
-553.412	43.441	0.081	0.073
-552.398	46.562	-0.063	0.059
-551.383	-39.689	-0.024	-0.013
-550.369	16.396	0.353	0.278
-549.354	-13.907	0.200	0.129
-548.339	-158.774	-0.262	-0.015
-547.325	-200.000	-0.005	-0.203
-546.310	88.329	-0.160	-0.177
-545.296	-200.000	-0.023	0.279
-544.281	-29.812	-0.397	0.225
-543.266	-133.952	-0.230	-0.028
-542.252	297.350	-0.050	0.092
-541.237	350.047	0.134	0.263
-540.223	235.415	-0.017	-0.028
-539.208	-61.407	-0.052	-0.022
-538.193	62.903	0.242	0.241
-537.179	-200.000	0.084	0.430
-536.164	-166.803	0.295	-0.012
-535.150	-200.000	0.000	-0.269
-534.135	149.678	-0.076	-0.103
-533.121	27.284	0.185	0.155
-532.106	334.948	0.073	0.141
-531.091	-18.720	-0.325	-0.202
-530.077	198.938	0.009	0.013
-529.062	-200.000	-0.012	0.225
-528.048	-198.282	-0.036	0.000
-527.033	143.261	0.138	-0.182
-526.018	120.493	0.061	0.075
-525.004	2.141	-0.307	0.221
-523.989	236.028	-0.068	-0.113
-522.975	262.110	-0.065	0.113
-521.960	106.494	0.073	-0.086
-520.945	0.163	-0.273	-0.194
-519.931	-172.545	-0.201	-0.006
-518.916	555.409	0.041	-0.099
-517.902	560.580	0.115	0.275
-516.887	51.994	0.225	0.213
-515.872	800.000	-0.086	-0.277
-514.858	155.059	0.105	0.144
-513.843	-96.690	0.248	0.065
-512.829	-200.000	-0.249	0.000
-511.814	-200.000	0.010	-0.262
-510.799	47.943	0.191	-0.177
-509.785	55.173	-0.318	-0.306
-508.770	47.338	0.201	0.186
-507.756	-26.559	0.165	-0.096
-506.741	-103.729	0.053	0.012
-505.726	36.173	0.096	-0.084
-504.712	150.014	0.136	-0.183
-503.697	-9.145	-0.126	0.084
-502.683	-66.224	-0.295	0.117
-501.668	457.136	-0.079	0.175
-500.653	-69.404	-0.233	-0.089
-499.639	499.854	0.090	0.207
-498.624	131.224	-0.143	0.183
-497.610	19.322	-0.316	-0.252
-496.595	-200.000	-0.011	0.124
-495.581	-200.000	0.044	-0.451
-494.566	74.467	-0.077	0.080
-493.551	-187.746	0.527	0.007
-492.537	-112.913	0.172	0.034
-491.522	4.597	-0.053	0.039
-490.508	188.434	-0.107	-0.159
-489.493	-106.491	-0.387	-0.086
-488.478	-200.000	0.017	-0.158
-487.464	-78.688	-0.124	-0.042
-486.449	111.434	-0.111	-0.132
-485.435	-80.507	0.247	-0.082
-484.420	800.000	-0.097	-0.364
-483.405	52.223	-0.054	-0.051
-482.391	556.013	0.159	-0.381
-481.376	-33.477	0.101	0.055
-480.362	-200.000	-0.045	-0.201
-479.347	800.000	-0.027	-0.104
-478.332	-200.000	0.013	-0.349
-477.318	294.096	0.039	0.071
-476.303	459.178	0.090	0.198
-475.289	-200.000	0.013	0.232
-474.274	-200.000	-0.027	-0.258
-473.259	446.706	-0.132	0.289
-472.245	-13.384	-0.091	-0.059
-471.230	-36.244	0.242	0.130
-470.216	111.390	0.151	0.180
-469.201	-200.000	-0.023	-0.406
-468.186	355.938	-0.082	-0.163
-467.172	-30.090	-0.418	-0.236
-466.157	-111.366	-0.385	-0.078
-465.143	-200.000	-0.041	0.219
-464.128	800.000	-0.023	-0.086
-463.113	-50.083	-0.298	-0.140
-462.099	44.437	-0.299	-0.273
-461.084	199.238	0.083	0.127
-460.070	800.000	0.051	0.209
-459.055	-154.460	-0.249	0.017
-458.040	-33.716	-0.260	-0.142
-457.026	40.095	-0.208	0.185
-456.011	800.000	0.056	0.189
-454.997	115.952	0.013	0.015
-453.982	554.587	-0.084	0.202
-452.968	-200.000	-0.012	-0.081
-451.953	-111.960	0.372	0.074
-450.938	800.000	0.069	-0.203
-449.924	69.257	-0.272	-0.277
-448.909	-5.667	0.443	0.301
-447.895	-200.000	-0.016	-0.198
-446.880	-113.795	0.087	-0.017
-445.865	68.664	0.169	0.172
-444.851	358.804	-0.139	-0.275
-443.836	8.834	-0.136	0.102
-442.822	91.834	-0.025	-0.028
-441.807	-34.214	0.277	0.151
-440.792	391.719	0.167	-0.345
-439.778	30.759	-0.141	-0.120
-438.763	497.477	-0.037	-0.084
-437.749	-200.000	-0.052	-0.258
-436.734	32.396	-0.197	-0.169
-435.719	15.639	0.178	-0.138
-434.705	-7.042	0.154	-0.104
-433.690	-131.150	0.099	0.013
-432.676	-91.163	0.182	-0.052
-431.661	-200.000	-0.049	0.349
-430.646	49.354	0.187	0.174
-429.632	-200.000	0.042	0.187
-428.617	-200.000	-0.004	0.232
-427.603	-145.212	-0.076	-0.007
-426.588	-200.000	0.025	0.205
-425.573	75.631	-0.141	-0.148
-424.559	-200.000	0.007	-0.237
-423.544	760.481	0.136	-0.367
-422.530	48.004	-0.079	0.073
-421.515	96.422	-0.062	0.071
-420.500	-63.175	-0.074	0.030
-419.486	11.650	-0.245	-0.186
-418.471	44.426	0.086	0.078
-417.457	-148.485	0.182	0.015
-416.442	-92.797	-0.075	-0.021
-415.428	-20.255	-0.228	-0.139
-414.413	9.016	0.219	0.164
-413.398	531.574	-0.053	0.123
-412.384	-136.567	-0.307	-0.035
-411.369	8.211	0.201	0.150
-410.355	-66.635	0.237	0.093
-409.340	800.000	0.033	0.136
-408.325	-200.000	0.032	0.144
-407.311	-97.048	-0.213	-0.055
-406.296	-200.000	-0.026	-0.443
-405.282	-136.797	0.094	-0.011
-404.267	-132.556	-0.043	-0.005
-403.252	-200.000	-0.046	-0.315
-402.238	-200.000	-0.015	-0.206
-401.223	-200.000	0.042	0.310
-400.209	-69.328	0.046	-0.017
-399.194	-200.000	0.001	-0.111
-398.179	12.735	-0.051	-0.039
-397.165	-128.514	-0.138	0.019
-396.150	174.864	0.186	0.267
-395.136	-52.286	-0.325	-0.149
-394.121	343.848	-0.042	-0.082
-393.106	188.315	0.151	0.223
-392.092	-200.000	-0.019	0.398
-391.077	177.317	0.032	-0.045
-390.063	284.867	0.089	-0.158
-389.048	-88.182	0.238	0.071
-388.033	442.307	0.152	-0.330
-387.019	-174.173	0.119	-0.003
-386.004	120.218	0.305	-0.375
-384.990	-200.000	-0.015	-0.383
-383.975	-117.201	0.177	0.032
-382.960	181.798	-0.064	-0.093
-381.946	-200.000	0.020	-0.126
-380.931	280.970	-0.051	0.090
-379.917	236.937	-0.075	0.123
-378.902	-120.139	-0.131	-0.022
-377.888	-19.261	0.301	-0.185
-376.873	-13.838	0.227	-0.145
-375.858	-133.913	-0.131	0.016
-374.844	75.268	0.090	0.094
-373.829	384.672	-0.135	0.275
-372.815	-170.344	-0.127	0.004
-371.800	800.000	0.126	0.509
-370.785	800.000	-0.026	-0.086
-369.771	-111.488	0.040	-0.008
-368.756	7.876	0.086	0.064
-367.742	252.778	0.030	-0.051
-366.727	800.000	0.094	0.276
-365.712	-115.732	-0.160	0.030
-364.698	17.927	-0.088	-0.069
-363.683	-200.000	-0.037	0.185
-362.669	800.000	-0.129	0.366
-361.654	624.308	-0.054	0.135
-360.639	-188.751	-0.303	0.004
-359.625	109.891	0.248	-0.294
-358.610	50.266	0.370	0.345
-357.596	800.000	0.095	-0.298
-356.581	490.338	-0.068	-0.154
-355.566	-83.057	-0.274	-0.087
-354.552	800.000	-0.080	0.225
-353.537	644.065	-0.046	0.117
-352.523	-15.318	-0.429	-0.271
-351.508	-2.735	0.008	-0.006
-350.493	216.990	0.179	0.282
-349.479	377.962	-0.086	0.173
-348.464	-55.655	0.138	0.061
-347.450	-13.400	0.264	0.169
-346.435	478.548	-0.107	0.238
-345.420	-48.814	0.227	0.108
-344.406	239.104	0.168	-0.276
-343.391	-175.076	-0.229	0.006
-342.377	-95.241	-0.247	-0.066
-341.362	2.265	-0.183	0.131
-340.348	195.845	-0.167	0.251
-339.333	800.000	0.062	-0.255
-338.318	-133.350	0.127	0.016
-337.304	-59.014	0.184	0.079
-336.289	-200.000	-0.016	-0.123
-335.275	-160.727	0.061	-0.003
-334.260	63.945	0.237	-0.236
-333.245	-65.823	-0.303	0.120
-332.231	800.000	0.045	0.177
-331.216	-22.356	-0.260	0.156
-330.202	800.000	0.130	0.392
-329.187	800.000	0.057	0.233
-328.172	-200.000	0.021	-0.159
-327.158	-142.684	-0.162	0.016
-326.143	9.874	0.339	0.254
-325.129	-17.290	-0.297	-0.185
-324.114	-24.859	0.126	0.074
-323.099	-171.113	0.216	-0.007
-322.085	249.452	-0.084	-0.140
-321.070	-101.286	-0.294	0.071
-320.056	-200.000	-0.014	-0.194
-319.041	-63.106	-0.284	0.116
-318.026	81.721	0.326	0.349
-317.012	800.000	0.075	0.238
-315.997	505.676	-0.029	-0.066
-314.983	186.796	0.214	0.315
-313.968	15.352	-0.009	-0.007
-312.953	33.975	0.098	-0.084
-311.939	800.000	-0.035	0.108
-310.924	-23.401	-0.317	-0.188
-309.910	-55.465	-0.150	-0.066
-308.895	485.535	-0.098	0.219
-307.880	-4.500	-0.231	-0.158
-306.866	800.000	0.043	0.165
-305.851	-200.000	-0.017	-0.204
-304.837	-29.514	0.314	0.177
-303.822	-200.000	-0.010	0.153
-302.807	-117.269	0.454	-0.081
-301.793	-200.000	0.028	0.193
-300.778	-137.553	-0.402	0.045
-299.764	-200.000	0.004	-0.088
-298.749	-21.728	0.129	0.077
-297.735	261.286	-0.096	0.164
-296.720	-125.132	0.270	-0.041
-295.705	-70.500	-0.183	-0.068
-294.691	-29.381	0.403	0.227
-293.676	-200.000	0.014	0.352
-292.662	-31.085	0.120	-0.067
-291.647	-78.275	-0.168	0.057
-290.632	-52.235	0.107	-0.049
-289.618	222.966	-0.287	-0.457
-288.603	-127.909	0.152	0.022
-287.589	480.419	0.175	-0.391
-286.574	-200.000	0.010	0.171
-285.559	-200.000	0.020	0.091
-284.545	-195.556	0.214	0.002
-283.530	115.274	0.221	-0.266
-282.516	800.000	-0.046	-0.157
-281.501	129.840	0.090	-0.113
-280.486	502.564	-0.091	-0.207
-279.472	-51.247	0.129	-0.060
-278.457	56.124	-0.192	-0.184
-277.443	-200.000	-0.006	0.288
-276.428	-40.190	-0.269	-0.138
-275.413	-87.684	-0.308	0.092
-274.399	800.000	-0.027	-0.113
-273.384	614.361	0.022	0.055
-272.370	-31.794	-0.149	-0.082
-271.355	-88.655	0.144	0.042
-270.340	680.854	0.128	0.329
-269.326	178.027	-0.178	0.256
-268.311	227.742	0.112	0.179
-267.297	-200.000	0.005	0.203
-266.282	-200.000	-0.027	-0.338
-265.267	-64.705	0.367	-0.147
-264.253	-200.000	0.001	-0.089
-263.238	-165.258	0.233	-0.010
-262.224	-125.324	-0.390	-0.059
-261.209	122.867	-0.225	0.278
-260.195	-61.063	0.144	-0.060
-259.180	-29.939	-0.096	0.054
-258.165	800.000	-0.038	0.109
-257.151	367.905	0.058	0.116
-256.136	-166.130	0.190	-0.008
-255.122	0.369	0.213	-0.150
-254.107	243.718	0.108	-0.179
-253.092	19.358	0.119	-0.094
-252.078	-13.945	-0.112	-0.071
-251.063	-200.000	-0.028	-0.379
-250.049	-34.124	0.263	0.142
-249.034	26.270	0.157	-0.129
-248.019	79.161	-0.081	-0.086
-247.005	-200.000	0.059	-0.272
-245.990	150.134	-0.175	0.234
-244.976	-15.010	0.483	0.305
-243.961	-103.324	-0.274	-0.064
-242.946	58.420	0.087	-0.084
-241.932	-86.617	0.442	0.133
-240.917	-70.143	0.196	-0.073
-239.903	-169.746	-0.048	-0.002
-238.888	60.852	-0.208	0.203
-237.873	167.601	0.158	-0.220
-236.859	1.839	-0.067	-0.047
-235.844	506.406	0.142	-0.324
-234.830	800.000	0.046	-0.135
-233.815	-107.428	0.086	-0.018
-232.800	800.000	-0.036	0.124
-231.786	99.247	-0.160	-0.182
-230.771	-9.632	-0.150	-0.099
-229.757	-14.924	-0.030	-0.019
-228.742	304.669	-0.077	-0.140
-227.727	98.500	-0.071	0.080
-226.713	-200.000	-0.038	0.258
-225.698	-73.021	-0.195	0.071
-224.684	-90.419	0.224	-0.064
-223.669	36.258	0.208	-0.180
-222.655	197.495	-0.103	-0.155
-221.640	-102.491	-0.267	0.063
-220.625	-154.696	-0.082	-0.005
-219.611	326.821	0.060	0.114
-218.596	-20.912	-0.298	-0.180
-217.582	324.296	0.221	-0.415
-216.567	529.856	-0.098	-0.227
-215.552	268.014	-0.231	-0.398
-214.538	409.584	0.097	0.202
-213.523	-6.661	-0.176	0.118
-212.509	-140.692	-0.165	-0.017
-211.494	-200.000	-0.029	-0.182
-210.479	59.180	0.172	0.167
-209.465	-192.556	0.221	-0.002
-208.450	-21.424	-0.082	-0.049
-207.436	-35.683	-0.296	0.158
-206.421	-98.772	0.159	0.040
-205.406	112.918	-0.246	-0.293
-204.392	74.835	0.149	-0.155
-203.377	-8.795	0.250	0.165
-202.363	314.716	0.153	-0.283
-201.348	89.909	0.096	-0.106
-200.333	-37.825	-0.337	-0.176
-199.319	48.158	-0.163	-0.150
-198.304	-77.082	0.348	-0.119
-197.290	178.968	0.243	-0.349
-196.275	-168.208	-0.246	-0.009
-195.260	-200.000	0.055	0.263
-194.246	800.000	0.058	-0.209
-193.231	-71.693	0.156	-0.057
-192.217	250.884	-0.079	0.131
-191.202	-200.000	-0.009	0.151
-190.187	-55.876	0.311	-0.136
-189.173	261.836	0.268	0.457
-188.158	345.167	-0.045	-0.088
-187.144	483.691	-0.060	0.135
-186.129	152.407	-0.041	0.055
-185.114	465.184	0.211	0.463
-184.100	-97.892	0.175	0.044
-183.085	253.021	0.110	-0.184
-182.071	-200.000	-0.022	0.198
-181.056	-200.000	-0.009	-0.474
-180.042	-148.190	0.111	0.009
-179.027	17.297	-0.186	0.145
-178.012	800.000	-0.077	0.320
-176.998	52.409	-0.082	-0.077
-175.983	800.000	0.045	0.154
-174.969	67.187	0.060	-0.060
-173.954	-72.621	-0.094	0.034
-172.939	54.088	-0.062	0.058
-171.925	-63.777	0.379	-0.152
-170.910	-88.488	0.191	0.056
-169.896	36.656	0.118	-0.102
-168.881	-34.678	-0.241	-0.130
-167.866	-79.672	0.230	-0.076
-166.852	800.000	-0.093	-0.356
-165.837	-48.353	-0.076	0.036
-164.823	420.873	0.100	0.211
-163.808	143.609	0.092	0.121
-162.793	39.604	0.389	0.342
-161.779	-24.254	-0.221	0.130
-160.764	314.766	-0.185	0.341
-159.750	-117.930	-0.199	0.035
-158.735	767.512	0.093	-0.249
-157.720	800.000	-0.025	0.079
-156.706	-182.502	-0.324	0.006
-155.691	-6.270	0.169	0.113
-154.677	-59.988	0.475	0.199
-153.662	-24.325	0.081	0.048
-152.647	800.000	0.104	0.299
-151.633	244.745	0.147	0.243
-150.618	-131.281	0.131	-0.017
-149.604	306.771	0.074	0.136
-148.589	248.003	-0.129	-0.213
-147.574	-114.027	0.090	-0.017
-146.560	3.343	-0.120	-0.086
-145.545	-34.104	0.431	-0.232
-144.531	-15.283	0.060	0.038
-143.516	-167.131	-0.295	-0.012
-142.502	-200.000	-0.012	0.132
-141.487	-200.000	-0.009	-0.086
-140.472	-34.375	-0.246	-0.132
-139.458	9.431	0.336	0.250
-138.443	7.209	0.284	0.208
-137.429	-30.148	0.163	0.091
-136.414	-119.181	-0.104	0.018
-135.399	3.487	-0.174	0.124
-134.385	-151.009	0.561	-0.041
-133.370	120.565	-0.015	-0.018
-132.356	-200.000	0.086	-0.399
-131.341	448.855	0.068	-0.147
-130.326	-200.000	-0.001	-0.140
-129.312	-200.000	-0.001	0.231
-128.297	197.281	0.129	-0.193
-127.283	-81.124	0.072	-0.023
-126.268	-43.930	0.031	-0.015
-125.253	302.946	-0.107	-0.194
-124.239	53.080	0.224	0.210
-123.224	447.062	-0.067	0.144
-122.210	525.476	0.113	-0.261
-121.195	-0.975	-0.135	0.093
