DTS Sentinel unit serial number:	SN413079Multiplexer serial number:	ORYXHardware model number:	OX4-SRSoftware version number:	ORYX F/W v4.00 Oryx Data Collector v3.7.2.0data status	okinstallation	princeton_trtdifferential loss correction	single-endedforward channel	channel 3reverse channel	N/Adate	2019/09/15time	05:00:35forward acquisition time	60.00reverse acquisition time	0.00gamma	496.2192k internal	0.2324k external	0.2324temperature offset calibration	0.9982default loss term (dB/km)	0.3790temperature slope calibration	1.0000multiplexer offset coefficient	1.0000multiplexer slope coefficient	1.0000fibre end	0.00T internal ref (°C)	30.69T ext. ref 1 (°C)	4.85T ext. ref 2 (°C)	25.12length (m)	temperature (°C)	Stokes	anti-Stokes-747.200	58.773	-0.089	0.088
-746.185	46.358	-0.163	0.152
-745.171	41.189	0.148	0.135
-744.156	-97.091	-0.039	-0.010
-743.142	44.813	0.391	-0.363
-742.127	-200.000	-0.023	0.440
-741.112	800.000	0.046	0.135
-740.098	-200.000	0.002	0.208
-739.083	-200.000	0.055	-0.000
-738.069	-22.471	-0.177	0.108
-737.054	-47.010	-0.387	0.191
-736.039	-12.726	0.160	-0.105
-735.025	-129.606	-0.123	0.017
-734.010	-67.108	-0.096	0.038
-732.996	-200.000	0.010	-0.357
-731.981	391.872	-0.246	0.515
-730.966	250.836	-0.043	-0.074
-729.952	8.543	0.198	-0.150
-728.937	-6.286	-0.305	-0.210
-727.923	-200.000	0.006	-0.050
-726.908	-200.000	0.015	-0.241
-725.894	-200.000	-0.025	0.327
-724.879	330.911	0.028	-0.054
-723.864	147.233	-0.151	-0.205
-722.850	-57.054	0.290	0.129
-721.835	-200.000	0.022	-0.145
-720.821	210.579	-0.117	-0.185
-719.806	-76.973	-0.184	-0.065
-718.791	-89.164	-0.518	0.154
-717.777	-197.998	-0.177	0.001
-716.762	21.699	0.105	-0.086
-715.748	45.796	-0.155	-0.144
-714.733	-75.685	-0.300	0.107
-713.718	-146.436	0.418	0.037
-712.704	-200.000	-0.029	-0.595
-711.689	11.523	-0.092	0.071
-710.675	498.645	-0.041	-0.096
-709.660	-116.894	0.126	-0.023
-708.645	-22.889	-0.213	0.129
-707.631	79.279	-0.049	0.053
-706.616	-103.890	0.327	0.077
-705.602	99.604	-0.190	-0.222
-704.587	398.494	0.013	-0.027
-703.572	3.016	0.282	-0.207
-702.558	-200.000	-0.024	-0.206
-701.543	-200.000	-0.051	0.243
-700.529	-14.565	0.152	-0.099
-699.514	-77.320	-0.076	-0.027
-698.499	102.376	-0.221	-0.260
-697.485	800.000	-0.063	-0.227
-696.470	-55.148	-0.159	0.072
-695.456	-183.858	0.147	-0.002
-694.441	-105.164	0.160	-0.037
-693.426	198.942	-0.122	0.189
-692.412	-200.000	0.009	0.315
-691.397	328.353	-0.146	0.283
-690.383	-200.000	-0.038	-0.263
-689.368	317.731	0.128	-0.245
-688.354	-71.139	0.181	-0.068
-687.339	-82.820	-0.193	-0.063
-686.324	-200.000	-0.027	0.235
-685.310	-145.936	0.236	-0.021
-684.295	-78.460	-0.237	-0.082
-683.281	-80.900	0.088	0.029
-682.266	-62.988	0.035	-0.015
-681.251	-50.115	-0.185	-0.088
-680.237	-103.492	0.109	0.026
-679.222	-27.647	-0.312	0.183
-678.208	53.857	-0.095	-0.092
-677.193	800.000	0.033	0.146
-676.178	195.128	-0.144	0.221
-675.164	4.490	-0.164	-0.121
-674.149	255.977	-0.188	-0.324
-673.135	-78.466	-0.073	-0.025
-672.120	-107.726	0.351	-0.077
-671.105	-200.000	-0.017	-0.156
-670.091	47.152	-0.386	-0.362
-669.076	-110.178	-0.316	-0.066
-668.062	507.267	0.033	-0.078
-667.047	70.643	0.121	-0.126
-666.032	356.563	0.142	0.284
-665.018	205.083	0.095	0.148
-664.003	-117.037	-0.055	-0.010
-662.989	242.978	0.106	0.179
-661.974	181.138	-0.201	-0.297
-660.959	37.708	-0.123	0.110
-659.945	-70.421	0.201	0.076
-658.930	-115.997	0.349	0.065
-657.916	102.220	-0.323	-0.379
-656.901	1.316	0.040	0.029
-655.886	-50.870	-0.217	-0.103
-654.872	125.933	-0.120	0.152
-653.857	800.000	0.110	-0.317
-652.843	-25.713	0.226	0.134
-651.828	70.805	-0.097	-0.101
-650.814	-44.460	0.302	0.152
-649.799	800.000	0.095	0.271
-648.784	-3.551	0.133	-0.093
-647.770	103.651	0.154	-0.181
-646.755	14.616	-0.162	0.127
-645.741	-200.000	0.013	-0.182
-644.726	-200.000	-0.059	-0.372
-643.711	800.000	-0.080	-0.237
-642.697	-170.623	0.093	-0.003
-641.682	49.822	0.167	-0.159
-640.668	-112.215	-0.317	-0.064
-639.653	233.279	0.074	-0.123
-638.638	-109.551	-0.043	-0.009
-637.624	-153.689	-0.280	0.019
-636.609	-37.392	-0.246	0.132
-635.595	-33.964	0.140	-0.077
-634.580	-81.608	0.107	0.035
-633.565	-200.000	-0.022	-0.225
-632.551	800.000	-0.119	0.440
-631.536	800.000	-0.069	-0.257
-630.522	108.598	-0.126	0.151
-629.507	-98.269	0.599	-0.154
-628.492	556.692	-0.106	-0.257
-627.478	-200.000	-0.004	0.024
-626.463	-96.541	-0.130	-0.034
-625.449	225.672	-0.180	0.293
-624.434	70.433	-0.032	-0.033
-623.419	766.870	-0.038	-0.104
-622.405	-168.636	-0.222	0.008
-621.390	13.970	0.212	0.166
-620.376	-114.235	-0.213	-0.041
-619.361	-105.682	0.021	-0.005
-618.346	-142.741	-0.138	0.014
-617.332	30.565	-0.217	-0.186
-616.317	218.466	-0.207	-0.331
-615.303	143.390	0.111	0.149
-614.288	194.934	-0.162	-0.247
-613.273	-200.000	-0.001	-0.156
-612.259	-98.317	0.407	0.105
-611.244	-9.358	-0.277	0.186
-610.230	135.667	0.209	-0.273
-609.215	-108.821	-0.138	0.030
-608.201	800.000	-0.037	-0.124
-607.186	383.105	-0.069	-0.143
-606.171	-185.910	0.191	0.003
-605.157	301.648	-0.117	0.217
-604.142	-51.598	-0.098	-0.046
-603.128	-38.514	-0.287	0.153
-602.113	-172.031	0.323	-0.011
-601.098	-184.293	0.113	0.002
-600.084	-89.499	0.195	-0.058
-599.069	169.630	0.066	-0.094
-598.055	318.394	-0.140	0.266
-597.040	2.834	-0.043	-0.031
-596.025	-44.902	0.389	0.194
-595.011	-50.144	-0.181	-0.086
-593.996	43.271	0.247	-0.226
-592.982	36.991	-0.161	0.143
-591.967	-36.483	0.093	-0.050
-590.952	-63.466	-0.377	0.155
-589.938	332.322	0.109	0.212
-588.923	-200.000	0.006	-0.149
-587.909	800.000	0.086	0.297
-586.894	137.653	0.059	-0.077
-585.879	177.509	-0.140	-0.205
-584.865	-159.997	-0.210	-0.011
-583.850	329.920	0.088	0.170
-582.836	48.496	-0.253	-0.237
-581.821	-64.191	0.129	-0.053
-580.806	-200.000	-0.029	-0.262
-579.792	28.539	0.151	0.128
-578.777	-69.501	-0.079	-0.030
-577.763	603.917	0.026	0.065
-576.748	98.902	-0.136	0.158
-575.733	251.005	0.140	0.238
-574.719	800.000	-0.037	-0.137
-573.704	211.479	0.177	0.280
-572.690	-200.000	-0.072	0.467
-571.675	-200.000	0.081	0.434
-570.661	138.985	-0.179	-0.236
-569.646	800.000	0.013	0.047
-568.631	114.797	0.223	-0.272
-567.617	109.482	0.128	-0.154
-566.602	-74.249	0.144	-0.052
-565.588	340.168	-0.054	-0.106
-564.573	585.407	0.057	0.142
-563.558	-200.000	0.033	-0.394
-562.544	-200.000	0.015	-0.336
-561.529	47.916	-0.023	-0.021
-560.515	207.167	0.168	0.262
-559.500	468.526	-0.089	-0.201
-558.485	90.012	-0.134	0.150
-557.471	-139.919	0.452	-0.048
-556.456	800.000	0.021	-0.070
-555.442	-200.000	-0.022	-0.249
-554.427	-125.772	-0.117	-0.018
-553.412	62.208	0.379	0.378
-552.398	161.451	-0.176	0.247
-551.383	122.025	-0.043	-0.054
-550.369	-54.535	-0.205	0.093
-549.354	-200.000	0.071	-0.347
-548.339	-200.000	0.006	0.185
-547.325	-55.004	0.356	0.161
-546.310	57.602	-0.133	0.130
-545.296	800.000	-0.072	0.216
-544.281	10.394	0.215	0.164
-543.266	-96.802	0.458	0.120
-542.252	139.604	-0.115	0.151
-541.237	-200.000	-0.020	0.369
-540.223	-200.000	-0.034	0.242
-539.208	-105.030	0.248	-0.057
-538.193	-177.508	0.136	-0.003
-537.179	-96.395	0.081	0.021
-536.164	-82.416	0.247	-0.080
-535.150	800.000	0.091	0.322
-534.135	-112.201	-0.512	0.103
-533.121	-130.617	0.407	0.055
-532.106	202.907	0.131	-0.203
-531.091	-200.000	-0.044	0.220
-530.077	-63.651	0.096	-0.039
-529.062	800.000	0.071	-0.198
-528.048	-200.000	-0.025	-0.199
-527.033	800.000	-0.006	-0.025
-526.018	-200.000	0.023	0.178
-525.004	-56.998	0.101	0.045
-523.989	118.722	0.102	0.126
-522.975	-200.000	0.034	-0.284
-521.960	56.548	0.110	0.107
-520.945	30.333	0.109	0.093
-519.931	42.885	-0.022	0.020
-518.916	800.000	0.029	-0.082
-517.902	-200.000	-0.023	0.133
-516.887	387.049	0.113	-0.233
-515.872	-20.429	-0.147	0.091
-514.858	-140.839	-0.215	0.022
-513.843	-82.551	-0.289	-0.094
-512.829	-31.837	-0.136	-0.076
-511.814	800.000	0.031	-0.087
-510.799	-126.636	0.408	0.061
-509.785	-200.000	-0.025	-0.225
-508.770	263.549	-0.147	0.255
-507.756	-40.337	0.321	-0.167
-506.741	325.782	-0.038	0.072
-505.726	-200.000	-0.032	0.200
-504.712	-2.593	0.230	-0.161
-503.697	-200.000	-0.032	-0.149
-502.683	11.721	0.062	-0.048
-501.668	31.962	0.131	0.113
-500.653	107.504	-0.186	0.221
-499.639	202.575	0.088	0.137
-498.624	-88.734	-0.175	-0.052
-497.610	0.778	0.178	0.128
-496.595	-0.042	-0.280	0.199
-495.581	800.000	-0.028	-0.088
-494.566	142.137	-0.104	0.139
-493.551	308.506	0.039	0.073
-492.537	-151.048	0.191	-0.014
-491.522	6.465	0.053	0.040
-490.508	18.864	-0.122	-0.097
-489.493	62.574	0.225	-0.225
-488.478	-157.231	0.302	0.018
-487.464	349.415	-0.108	-0.213
-486.449	255.620	0.024	0.041
-485.435	-143.986	0.187	-0.018
-484.420	-73.072	0.037	0.014
-483.405	-153.395	0.251	0.017
-482.391	133.635	-0.162	0.209
-481.376	284.590	-0.173	-0.311
-480.362	-98.140	-0.327	-0.084
-479.347	-82.157	0.261	-0.085
-478.332	109.752	0.302	0.361
-477.318	73.075	0.098	0.103
-476.303	-12.819	0.136	-0.088
-475.289	25.008	-0.137	0.114
-474.274	-91.697	-0.091	0.026
-473.259	41.537	-0.150	0.135
-472.245	106.095	0.184	-0.218
-471.230	-149.640	-0.135	0.011
-470.216	-110.242	-0.254	-0.053
-469.201	-135.312	-0.049	-0.006
-468.186	-200.000	0.009	-0.263
-467.172	29.904	0.085	0.073
-466.157	-12.520	0.368	0.240
-465.143	-200.000	-0.027	0.264
-464.128	162.293	-0.208	0.291
-463.113	-101.495	-0.229	-0.056
-462.099	800.000	0.050	-0.175
-461.084	-200.000	0.033	0.000
-460.070	200.943	0.227	-0.348
-459.055	513.000	-0.041	0.096
-458.040	-64.776	-0.278	-0.113
-457.026	36.669	-0.079	0.069
-456.011	-171.394	0.063	0.002
-454.997	-143.092	-0.281	-0.027
-453.982	311.071	0.059	-0.111
-452.968	-141.707	0.523	-0.052
-451.953	800.000	-0.099	0.318
-450.938	800.000	-0.048	0.163
-449.924	-91.945	-0.164	-0.046
-448.909	34.151	0.129	-0.112
-447.895	-200.000	-0.014	0.520
-446.880	-72.075	-0.144	0.053
-445.865	-183.582	-0.442	0.008
-444.851	-98.256	0.110	0.028
-443.836	-55.100	0.124	-0.056
-442.822	48.647	0.071	-0.066
-441.807	72.986	-0.171	0.178
-440.792	-43.805	0.302	0.151
-439.778	488.448	0.112	0.256
-438.763	-200.000	-0.024	-0.394
-437.749	-200.000	-0.003	-0.253
-436.734	-99.126	-0.108	0.027
-435.719	-53.067	0.412	-0.189
-434.705	-95.890	0.105	0.028
-433.690	-200.000	0.009	0.324
-432.676	140.667	-0.175	-0.230
-431.661	230.152	-0.081	0.133
-430.646	-200.000	-0.060	0.292
-429.632	701.235	0.093	0.245
-428.617	63.040	0.162	0.162
-427.603	532.177	-0.149	0.351
-426.588	-53.102	-0.283	0.130
-425.573	30.793	0.100	0.086
-424.559	-200.000	-0.056	-0.401
-423.544	-200.000	0.006	-0.432
-422.530	662.182	-0.117	0.300
-421.515	-104.505	0.124	-0.029
-420.500	-94.234	0.172	0.047
-419.486	-200.000	0.038	-0.231
-418.471	-80.506	-0.060	-0.020
-417.457	-200.000	-0.019	-0.267
-416.442	123.913	-0.247	-0.309
-415.428	109.403	-0.100	0.120
-414.413	-135.332	-0.287	-0.034
-413.398	-29.238	0.052	0.030
-412.384	13.765	-0.160	-0.124
-411.369	93.983	0.232	0.262
-410.355	-200.000	-0.018	0.252
-409.340	148.286	-0.097	0.130
-408.325	800.000	0.075	-0.302
-407.311	-48.605	-0.388	-0.186
-406.296	-101.254	0.056	0.014
-405.282	13.405	-0.304	0.235
-404.267	-200.000	0.013	0.098
-403.252	800.000	0.041	0.166
-402.238	-200.000	0.060	0.349
-401.223	374.764	-0.114	0.231
-400.209	-127.444	-0.052	0.008
-399.194	-145.284	-0.368	0.033
-398.179	-167.497	0.293	0.012
-397.165	151.862	-0.084	0.115
-396.150	-87.650	0.163	-0.049
-395.136	237.801	-0.134	-0.221
-394.121	-181.512	-0.356	0.007
-393.106	800.000	0.118	0.481
-392.092	800.000	0.019	0.058
-391.077	-43.923	-0.445	0.223
-390.063	-10.069	0.082	-0.054
-389.048	800.000	-0.058	-0.195
-388.033	-38.084	-0.087	-0.046
-387.019	-200.000	0.023	0.146
-386.004	598.538	0.115	-0.283
-384.990	749.673	-0.122	-0.328
-383.975	678.113	-0.034	0.088
-382.960	315.234	0.059	0.111
-381.946	184.686	0.153	-0.226
-380.931	29.471	0.129	0.109
-379.917	44.759	0.060	-0.055
-378.902	115.469	0.074	-0.091
-377.888	55.306	0.095	-0.091
-376.873	9.255	-0.237	-0.178
-375.858	647.791	-0.035	0.090
-374.844	800.000	-0.102	-0.400
-373.829	-197.059	0.101	-0.001
-372.815	8.715	0.199	-0.149
-371.800	202.963	0.177	-0.272
-370.785	800.000	-0.019	0.056
-369.771	25.708	0.067	0.056
-368.756	-61.046	0.126	0.053
-367.742	22.561	-0.140	-0.114
-366.727	-160.979	-0.216	0.011
-365.712	-8.951	0.064	-0.043
-364.698	-200.000	0.003	-0.198
-363.683	-182.820	-0.104	0.002
-362.669	-43.668	-0.182	-0.091
-361.654	-200.000	-0.079	0.353
-360.639	36.407	0.101	0.089
-359.625	575.182	0.073	-0.177
-358.610	-69.706	-0.196	-0.074
-357.596	222.921	0.126	0.201
-356.581	800.000	0.087	-0.335
-355.566	800.000	-0.123	-0.519
-354.552	-200.000	-0.012	0.175
-353.537	-171.455	-0.167	-0.006
-352.523	216.698	-0.062	0.099
-351.508	-112.153	-0.059	-0.012
-350.493	-200.000	-0.054	-0.322
-349.479	44.975	0.334	0.305
-348.464	800.000	0.019	-0.070
-347.450	800.000	-0.031	0.133
-346.435	583.266	-0.009	0.023
-345.420	-105.262	-0.247	-0.056
-344.406	314.060	-0.018	0.034
-343.391	707.217	0.099	-0.259
-342.377	-2.767	-0.105	-0.073
-341.362	-200.000	-0.005	-0.252
-340.348	-131.771	-0.358	0.047
-339.333	386.101	-0.115	-0.237
-338.318	-133.121	0.418	-0.053
-337.304	-111.988	-0.457	0.091
-336.289	-200.000	-0.021	0.125
-335.275	-60.041	-0.006	0.003
-334.260	-200.000	0.005	-0.071
-333.245	-41.862	-0.159	0.081
-332.231	705.201	0.038	-0.100
-331.216	-8.004	0.313	0.210
-330.202	173.570	0.060	-0.086
-329.187	63.403	-0.034	0.034
-328.172	137.513	0.158	0.206
-327.158	-71.442	0.164	0.061
-326.143	243.444	0.065	-0.108
-325.129	800.000	0.099	0.277
-324.114	800.000	-0.030	0.083
-323.099	-72.762	-0.096	-0.035
-322.085	649.642	0.043	0.108
-321.070	-7.690	0.081	0.054
-320.056	-200.000	-0.115	0.552
-319.041	-33.219	-0.104	0.057
-318.026	24.274	-0.199	0.163
-317.012	-200.000	0.015	-0.275
-315.997	-113.813	0.262	0.051
-314.983	103.338	-0.210	0.244
-313.968	127.960	-0.069	-0.087
-312.953	12.198	0.175	0.134
-311.939	-88.120	0.224	-0.067
-310.924	-53.621	0.155	0.070
-309.910	75.408	0.077	-0.081
-308.895	50.491	-0.151	0.142
-307.880	-200.000	0.013	0.322
-306.866	-200.000	-0.053	-0.399
-305.851	-200.000	-0.003	0.109
-304.837	-52.798	-0.310	-0.142
-303.822	-60.587	-0.025	0.010
-302.807	-0.736	0.428	0.301
-301.793	31.617	0.212	0.181
-300.778	-124.175	0.095	-0.015
-299.764	-188.857	-0.392	-0.005
-298.749	-122.025	0.019	0.003
-297.735	149.720	-0.166	-0.223
-296.720	9.244	-0.268	-0.201
-295.705	-115.624	0.098	0.018
-294.691	-68.784	0.333	0.128
-293.676	103.150	0.042	-0.049
-292.662	-200.000	0.058	-0.505
-291.647	45.279	-0.076	-0.069
-290.632	211.244	-0.060	0.094
-289.618	-85.277	-0.080	0.025
-288.603	227.275	-0.186	-0.300
-287.589	800.000	0.076	0.278
-286.574	-147.826	-0.072	-0.006
-285.559	-139.647	0.313	0.033
-284.545	800.000	-0.053	-0.191
-283.530	-162.679	0.074	0.004
-282.516	-129.837	0.195	-0.027
-281.501	28.125	-0.139	0.116
-280.486	323.866	0.146	-0.275
-279.472	646.122	0.095	-0.240
-278.457	-70.183	-0.193	0.073
-277.443	-50.622	0.215	-0.100
-276.428	4.981	-0.177	0.129
-275.413	-200.000	0.032	-0.195
-274.399	-54.408	-0.212	0.095
-273.384	-54.224	-0.064	0.029
-272.370	-106.143	0.187	0.042
-271.355	-200.000	-0.057	-0.438
-270.340	340.259	0.034	0.066
-269.326	-91.522	-0.134	-0.038
-268.311	-114.044	-0.123	0.024
-267.297	-164.903	0.174	0.008
-266.282	416.485	0.016	-0.034
-265.267	45.998	-0.087	-0.080
-264.253	-200.000	0.014	-0.200
-263.238	-200.000	0.021	-0.104
-262.224	800.000	-0.037	0.135
-261.209	-127.257	0.269	0.039
-260.195	73.608	0.171	0.178
-259.180	4.763	0.286	-0.208
-258.165	-42.551	-0.336	-0.169
-257.151	800.000	0.009	-0.037
-256.136	618.728	-0.104	-0.258
-255.122	337.803	-0.146	-0.282
-254.107	275.649	0.100	-0.175
-253.092	311.912	0.041	-0.075
-252.078	-200.000	0.024	0.128
-251.063	-72.580	-0.279	-0.102
-250.049	-8.753	0.224	0.149
-249.034	90.066	-0.088	-0.098
-248.019	19.871	0.084	-0.067
-247.005	-133.898	-0.270	0.033
-245.990	-39.176	0.119	-0.062
-244.976	657.384	-0.143	-0.365
-243.961	230.054	0.164	0.265
-242.946	-101.744	-0.270	-0.065
-241.932	48.522	0.132	0.122
-240.917	-68.760	0.262	0.100
-239.903	-200.000	-0.011	0.191
-238.888	-200.000	-0.018	-0.153
-237.873	-20.663	0.194	0.118
-236.859	21.579	-0.087	-0.070
-235.844	74.838	0.238	-0.248
-234.830	-89.936	-0.378	-0.109
-233.815	-45.739	-0.295	-0.144
-232.800	-145.883	-0.040	-0.004
-231.786	-200.000	0.036	0.434
-230.771	209.335	0.094	0.146
-229.757	-12.858	-0.166	-0.107
-228.742	800.000	-0.098	-0.287
-227.727	-131.476	-0.155	0.020
-226.713	-200.000	-0.062	-0.453
-225.698	-200.000	-0.035	0.248
-224.684	800.000	-0.016	0.056
-223.669	-200.000	-0.047	0.216
-222.655	123.016	-0.071	0.088
-221.640	285.373	0.038	-0.069
-220.625	80.016	-0.204	0.217
-219.611	5.522	0.149	-0.109
-218.596	-36.003	0.138	-0.074
-217.582	-119.240	0.109	0.019
-216.567	8.229	0.064	0.047
-215.552	-33.634	0.063	0.034
-214.538	-200.000	-0.005	-0.187
-213.523	-200.000	0.150	0.000
-212.509	104.653	0.132	0.154
-211.494	800.000	0.042	0.166
-210.479	-21.411	-0.050	-0.030
-209.465	-148.720	-0.110	0.009
-208.450	-94.402	-0.220	0.059
-207.436	337.426	-0.227	-0.436
-206.421	-86.246	0.309	0.094
-205.406	-1.758	-0.150	0.104
-204.392	-61.240	-0.057	0.024
-203.377	-200.000	-0.028	-0.242
-202.363	-57.013	0.188	-0.082
-201.348	-109.365	0.207	0.043
-200.333	10.999	-0.013	0.010
-199.319	272.895	0.243	0.424
-198.304	282.004	0.092	0.163
-197.290	-34.053	0.281	-0.153
-196.275	-49.332	-0.219	0.103
-195.260	-63.117	-0.253	-0.103
-194.246	5.940	0.190	0.139
-193.231	133.160	-0.074	0.094
-192.217	-200.000	0.006	-0.100
-191.202	-95.257	-0.239	-0.064
-190.187	-200.000	0.069	-0.352
-189.173	-52.922	0.228	0.103
-188.158	231.407	0.237	0.383
-187.144	201.268	0.069	0.104
-186.129	463.116	0.079	-0.174
-185.114	2.317	-0.298	0.213
-184.100	-85.224	-0.482	0.149
-183.085	-200.000	-0.026	0.131
-182.071	-65.625	0.070	-0.028
-181.056	800.000	0.036	-0.139
-180.042	22.170	0.113	-0.091
-179.027	271.575	0.098	-0.170
-178.012	-52.677	-0.192	0.088
-176.998	54.774	0.087	0.083
-175.983	171.405	0.072	0.102
-174.969	2.270	0.109	0.078
-173.954	-56.724	0.065	0.028
-172.939	98.879	0.282	0.321
-171.925	-42.517	-0.306	-0.154
-170.910	-156.961	0.325	-0.020
-169.896	-200.000	0.003	-0.160
-168.881	-11.353	-0.174	-0.113
-167.866	-73.112	-0.293	0.106
-166.852	260.247	0.084	0.143
-165.837	-23.495	0.159	-0.094
-164.823	-145.758	0.073	-0.006
-163.808	39.072	-0.336	-0.296
-162.793	-59.764	-0.029	0.012
-161.779	-110.126	0.240	0.049
-160.764	-45.436	0.025	-0.012
-159.750	-20.991	-0.315	0.190
-158.735	-41.497	0.107	0.054
-157.720	-200.000	-0.136	-0.001
-156.706	351.867	0.104	0.202
-155.691	120.587	0.050	0.062
-154.677	520.206	0.042	-0.097
-153.662	542.172	-0.211	-0.497
-152.647	-85.519	-0.136	0.042
-151.633	800.000	-0.052	0.155
-150.618	-24.511	-0.136	-0.080
-149.604	-166.372	-0.208	0.009
-148.589	-167.940	0.109	-0.004
-147.574	-143.828	-0.292	0.027
-146.560	-166.553	0.204	0.008
-145.545	160.102	0.098	0.134
-144.531	-12.473	-0.077	-0.050
-143.516	245.558	0.024	0.040
-142.502	-200.000	0.037	0.237
-141.487	214.444	-0.050	0.079
-140.472	-200.000	0.109	0.605
-139.458	-53.132	-0.278	-0.126
-138.443	-200.000	-0.044	0.380
-137.429	-67.884	0.152	0.059
-136.414	168.316	0.023	-0.033
-135.399	601.459	0.078	-0.191
-134.385	-151.913	0.433	-0.031
-133.370	-142.366	0.192	-0.019
-132.356	-142.489	-0.249	-0.024
-131.341	413.304	-0.149	-0.311
-130.326	800.000	0.075	0.217
-129.312	-3.959	-0.211	0.144
-128.297	313.671	-0.025	0.046
-127.283	-66.372	0.313	-0.122
-126.268	-200.000	-0.065	0.396
-125.253	-200.000	-0.012	-0.097
-124.239	-82.654	0.267	-0.085
-123.224	71.886	-0.117	-0.119
-122.210	120.373	0.147	0.180
-121.195	800.000	-0.034	-0.098
