DTS Sentinel unit serial number:	SN413079Multiplexer serial number:	ORYXHardware model number:	OX4-SRSoftware version number:	ORYX F/W v4.00 Oryx Data Collector v3.7.2.0data status	okinstallation	princeton_trtdifferential loss correction	single-endedforward channel	channel 3reverse channel	N/Adate	2019/09/15time	15:32:35forward acquisition time	60.00reverse acquisition time	0.00gamma	496.2192k internal	0.2291k external	0.2291temperature offset calibration	0.9944default loss term (dB/km)	0.3790temperature slope calibration	1.0000multiplexer offset coefficient	1.0000multiplexer slope coefficient	1.0000fibre end	0.00T internal ref (°C)	41.31T ext. ref 1 (°C)	5.13T ext. ref 2 (°C)	38.81length (m)	temperature (°C)	Stokes	anti-Stokes-747.200	88.936	0.293	0.334
-746.185	10.072	-0.278	0.216
-745.171	-54.715	0.316	0.146
-744.156	-68.296	0.213	0.085
-743.142	121.274	0.195	0.249
-742.127	-158.790	0.139	-0.008
-741.112	723.613	0.050	0.137
-740.098	-18.012	-0.035	0.023
-739.083	-95.330	-0.244	0.067
-738.069	238.309	-0.112	0.191
-737.054	142.816	-0.033	0.045
-736.039	131.339	0.093	0.122
-735.025	-200.000	0.044	0.292
-734.010	-50.110	-0.459	-0.222
-732.996	309.301	-0.128	-0.245
-731.981	-77.029	0.152	0.054
-730.966	-200.000	-0.002	-0.090
-729.952	-3.977	-0.368	0.261
-728.937	800.000	-0.112	0.329
-727.923	-105.835	-0.320	-0.074
-726.908	-200.000	0.040	-0.230
-725.894	66.441	-0.227	-0.236
-724.879	78.858	0.150	0.164
-723.864	-89.227	-0.347	-0.105
-722.850	-200.000	-0.008	0.046
-721.835	-113.403	0.297	-0.060
-720.821	-37.244	-0.173	0.095
-719.806	365.689	-0.195	-0.402
-718.791	162.059	0.084	-0.120
-717.777	800.000	-0.154	0.591
-716.762	263.031	0.120	-0.213
-715.748	220.005	0.139	-0.228
-714.733	-200.000	0.044	-0.641
-713.718	-125.748	-0.276	0.043
-712.704	800.000	-0.111	0.431
-711.689	-34.396	0.204	0.114
-710.675	360.835	0.036	0.075
-709.660	800.000	-0.074	-0.219
-708.645	645.136	-0.038	-0.099
-707.631	49.594	-0.133	0.128
-706.616	51.740	0.179	0.174
-705.602	-86.612	0.192	0.060
-704.587	101.977	0.169	-0.202
-703.572	95.242	-0.026	0.030
-702.558	17.637	-0.254	0.206
-701.543	-156.501	0.330	-0.021
-700.529	-104.707	-0.123	0.029
-699.514	330.217	0.232	0.456
-698.499	488.354	-0.020	-0.046
-697.485	22.153	0.161	-0.135
-696.470	549.900	0.195	0.478
-695.456	-99.012	0.122	-0.032
-694.441	-200.000	-0.000	-0.102
-693.426	168.357	-0.078	-0.113
-692.412	177.465	0.169	-0.251
-691.397	-3.122	0.017	0.012
-690.383	570.800	0.080	-0.199
-689.368	-39.933	0.245	0.131
-688.354	-125.373	-0.140	0.022
-687.339	697.319	-0.030	-0.081
-686.324	5.995	0.224	0.170
-685.310	240.347	0.212	-0.362
-684.295	206.843	-0.091	0.144
-683.281	61.190	0.132	-0.134
-682.266	800.000	-0.057	-0.193
-681.251	-200.000	-0.001	-0.286
-680.237	-200.000	0.008	-0.295
-679.222	-142.814	-0.129	-0.013
-678.208	728.597	-0.076	0.207
-677.193	530.832	-0.086	-0.208
-676.178	-105.614	-0.207	-0.048
-675.164	-200.000	-0.083	0.385
-674.149	-21.134	0.219	0.137
-673.135	231.693	0.138	0.230
-672.120	-12.429	0.350	0.234
-671.105	-133.277	-0.167	-0.021
-670.091	16.904	0.153	0.123
-669.076	-71.797	0.189	0.072
-668.062	106.806	0.178	-0.216
-667.047	-139.420	0.109	0.012
-666.032	800.000	-0.054	-0.190
-665.018	-194.523	0.115	0.001
-664.003	92.663	-0.197	0.227
-662.989	-133.504	0.494	-0.063
-661.974	2.533	-0.121	0.089
-660.959	164.669	-0.145	-0.209
-659.945	693.800	-0.072	0.192
-658.930	503.326	0.058	0.136
-657.916	800.000	0.099	0.288
-656.901	307.156	0.078	-0.148
-655.886	62.506	-0.150	-0.153
-654.872	211.126	-0.138	-0.222
-653.857	53.680	-0.168	-0.165
-652.843	-99.339	-0.054	0.014
-651.828	-37.092	-0.088	0.048
-650.814	800.000	0.061	0.249
-649.799	153.504	0.101	-0.141
-648.784	-183.997	0.319	-0.005
-647.770	-175.852	0.216	-0.006
-646.755	29.320	-0.387	0.336
-645.741	211.302	-0.060	0.096
-644.726	171.438	0.106	0.155
-643.711	-200.000	-0.039	0.199
-642.697	292.694	-0.057	0.107
-641.682	89.314	0.160	0.182
-640.668	710.166	0.065	-0.175
-639.653	-99.809	-0.133	0.034
-638.638	-165.966	0.142	-0.006
-637.624	800.000	-0.111	-0.319
-636.609	212.197	0.070	0.113
-635.595	-138.013	0.088	0.010
-634.580	800.000	0.079	-0.243
-633.565	122.785	-0.078	-0.100
-632.551	-200.000	-0.024	-0.117
-631.536	-17.736	0.121	-0.077
-630.522	-8.612	-0.095	0.065
-629.507	138.082	-0.169	-0.226
-628.492	-89.071	0.119	0.036
-627.478	2.832	0.138	0.102
-626.463	81.024	-0.260	-0.286
-625.449	-40.694	0.064	0.034
-624.434	-198.374	-0.159	0.001
-623.419	590.723	-0.120	-0.302
-622.405	435.958	-0.052	-0.115
-621.390	241.711	-0.133	0.226
-620.376	225.409	-0.161	0.267
-619.361	143.710	0.213	-0.290
-618.346	-200.000	-0.012	-0.222
-617.332	-28.161	-0.071	-0.042
-616.317	-60.392	-0.264	0.114
-615.303	673.460	0.145	-0.382
-614.288	-200.000	-0.008	-0.101
-613.273	-46.855	-0.539	0.268
-612.259	55.195	0.235	-0.231
-611.244	800.000	-0.059	0.218
-610.230	24.034	-0.079	0.067
-609.215	-200.000	0.034	0.389
-608.201	141.187	-0.020	-0.027
-607.186	64.848	0.192	-0.197
-606.171	258.335	-0.170	-0.298
-605.157	-200.000	0.045	0.267
-604.142	297.992	0.027	-0.051
-603.128	800.000	0.122	-0.494
-602.113	-200.000	0.025	-0.509
-601.098	-89.849	-0.147	0.044
-600.084	800.000	-0.092	-0.299
-599.069	784.577	-0.101	0.281
-598.055	-200.000	-0.015	0.374
-597.040	-75.420	0.164	-0.060
-596.025	-161.120	0.137	0.007
-595.011	-154.902	0.355	0.024
-593.996	452.794	-0.149	-0.336
-592.982	-49.377	-0.329	-0.160
-591.967	67.289	0.085	-0.089
-590.952	-86.978	0.231	-0.072
-589.938	136.644	-0.199	-0.264
-588.923	-129.564	-0.382	0.054
-587.909	-200.000	-0.015	-0.138
-586.894	-101.701	-0.304	-0.075
-585.879	79.535	-0.303	0.331
-584.865	-60.985	0.225	-0.097
-583.850	-16.879	-0.138	-0.089
-582.836	800.000	0.050	-0.176
-581.821	800.000	-0.107	0.309
-580.806	234.259	-0.026	0.044
-579.792	-51.604	-0.099	0.047
-578.777	800.000	-0.059	-0.172
-577.763	83.878	-0.113	0.125
-576.748	792.931	-0.113	-0.317
-575.733	-57.570	-0.376	-0.168
-574.719	529.339	-0.079	0.191
-573.704	-154.730	-0.498	-0.034
-572.690	-69.661	-0.302	-0.117
-571.675	553.646	0.085	0.209
-570.661	478.878	-0.091	-0.210
-569.646	20.463	-0.292	-0.240
-568.631	179.479	0.203	-0.302
-567.617	-164.686	0.266	0.012
-566.602	-91.854	-0.269	0.078
-565.588	-190.819	0.073	0.001
-564.573	220.886	0.081	0.132
-563.558	-70.020	0.230	0.089
-562.544	-144.216	0.323	-0.031
-561.529	800.000	-0.082	0.249
-560.515	421.262	-0.076	0.165
-559.500	400.464	-0.057	0.121
-558.485	-100.318	0.246	-0.062
-557.471	-152.591	-0.144	-0.010
-556.456	473.146	0.041	0.095
-555.442	-63.563	-0.191	-0.080
-554.427	97.609	0.121	-0.142
-553.412	82.558	0.342	-0.377
-552.398	538.060	0.063	0.152
-551.383	369.844	-0.098	0.202
-550.369	-126.870	0.343	-0.051
-549.354	-96.098	-0.062	-0.017
-548.339	-53.385	-0.254	0.118
-547.325	-62.727	-0.172	-0.073
-546.310	647.803	0.066	0.171
-545.296	5.927	0.196	-0.147
-544.281	-8.505	0.196	0.134
-543.266	109.557	0.289	-0.352
-542.252	-18.736	-0.188	-0.119
-541.237	-119.465	0.208	0.037
-540.223	330.202	-0.195	0.381
-539.208	800.000	0.032	0.122
-538.193	-200.000	0.037	0.238
-537.179	546.706	0.054	0.130
-536.164	-100.295	-0.097	-0.024
-535.150	-112.222	-0.079	-0.016
-534.135	86.669	0.305	0.342
-533.121	108.422	-0.022	0.027
-532.106	800.000	-0.019	0.066
-531.091	-200.000	-0.058	0.484
-530.077	-171.893	-0.218	-0.007
-529.062	117.399	0.072	-0.090
-528.048	-200.000	-0.026	-0.159
-527.033	800.000	0.097	-0.288
-526.018	38.575	-0.168	-0.152
-525.004	-96.662	0.078	0.021
-523.989	800.000	-0.038	-0.151
-522.975	800.000	-0.009	-0.025
-521.960	-114.946	0.389	0.075
-520.945	163.774	-0.066	-0.095
-519.931	-200.000	-0.024	-0.447
-518.916	-200.000	0.015	-0.081
-517.902	670.677	-0.074	-0.194
-516.887	-68.374	0.239	0.094
-515.872	66.239	-0.013	0.013
-514.858	800.000	-0.025	-0.105
-513.843	-45.960	-0.257	0.128
-512.829	3.980	-0.071	-0.052
-511.814	240.039	-0.189	-0.320
-510.799	1.123	0.227	-0.165
-509.785	-200.000	-0.070	-0.330
-508.770	-63.255	-0.274	-0.115
-507.756	48.041	0.365	0.346
-506.741	-125.084	-0.376	0.059
-505.726	800.000	-0.038	0.151
-504.712	209.478	0.058	0.091
-503.697	-110.824	-0.417	-0.087
-502.683	800.000	-0.023	-0.074
-501.668	52.610	-0.178	0.173
-500.653	378.156	0.132	-0.274
-499.639	-126.833	-0.195	0.029
-498.624	316.281	-0.090	0.172
-497.610	-124.657	0.242	-0.038
-496.595	800.000	0.072	0.241
-495.581	-71.506	-0.077	0.029
-494.566	-200.000	-0.040	0.396
-493.551	-33.291	0.232	0.130
-492.537	-44.100	0.186	-0.094
-491.522	-94.204	-0.113	-0.031
-490.508	-46.798	0.248	0.123
-489.493	800.000	-0.070	0.259
-488.478	-200.000	0.035	-0.169
-487.464	800.000	0.040	-0.113
-486.449	-23.239	0.161	0.098
-485.435	-8.721	0.123	-0.083
-484.420	42.989	-0.216	0.200
-483.405	-200.000	-0.055	0.280
-482.391	-200.000	-0.012	-0.144
-481.376	-200.000	-0.038	-0.428
-480.362	-44.788	0.093	0.047
-479.347	153.620	-0.120	-0.167
-478.332	-16.256	0.218	-0.140
-477.318	124.435	-0.138	0.176
-476.303	-46.082	-0.080	0.040
-475.289	800.000	0.038	0.111
-474.274	20.639	-0.273	-0.224
-473.259	29.124	-0.120	0.103
-472.245	-200.000	-0.026	0.447
-471.230	-85.985	0.228	-0.071
-470.216	-86.601	-0.165	-0.051
-469.201	800.000	-0.029	-0.094
-468.186	-1.004	-0.213	-0.152
-467.172	27.911	-0.175	-0.149
-466.157	-13.113	-0.117	-0.077
-465.143	106.195	-0.278	0.334
-464.128	186.052	0.208	-0.314
-463.113	-165.607	0.252	-0.011
-462.099	-84.266	-0.336	-0.108
-461.084	-153.243	0.206	0.015
-460.070	-59.916	-0.148	0.064
-459.055	-200.000	-0.037	-0.380
-458.040	800.000	0.074	-0.306
-457.026	-5.860	0.084	0.058
-456.011	9.497	-0.107	0.082
-454.997	392.302	-0.163	-0.343
-453.982	245.827	0.104	-0.177
-452.968	-200.000	0.041	-0.190
-451.953	-200.000	0.020	-0.178
-450.938	87.277	-0.081	0.091
-449.924	82.063	0.061	-0.067
-448.909	800.000	-0.068	-0.269
-447.895	456.116	-0.042	-0.093
-446.880	-60.496	-0.319	-0.137
-445.865	-118.219	-0.338	-0.061
-444.851	444.778	0.110	-0.244
-443.836	-48.554	0.388	0.189
-442.822	-156.527	0.197	-0.012
-441.807	31.071	-0.331	-0.287
-440.792	-17.452	0.217	0.138
-439.778	-93.334	-0.268	0.075
-438.763	53.744	-0.305	-0.296
-437.749	-200.000	-0.008	-0.114
-436.734	-68.837	0.463	-0.181
-435.719	-116.531	-0.147	0.027
-434.705	226.315	0.223	0.367
-433.690	-63.124	0.200	-0.083
-432.676	62.881	-0.238	-0.241
-431.661	-95.300	0.187	-0.051
-430.646	462.578	-0.086	-0.195
-429.632	48.095	-0.121	0.114
-428.617	-165.799	0.206	-0.009
-427.603	-73.939	0.431	0.158
-426.588	-200.000	-0.015	-0.567
-425.573	-93.437	-0.064	0.018
-424.559	-69.864	-0.305	-0.118
-423.544	-66.188	-0.251	-0.101
-422.530	463.437	-0.229	0.517
-421.515	-200.000	-0.031	-0.146
-420.500	-200.000	-0.009	-0.050
-419.486	-110.740	0.153	-0.032
-418.471	-200.000	-0.043	-0.362
-417.457	-200.000	0.021	0.352
-416.442	-200.000	-0.021	0.177
-415.428	71.836	0.271	0.285
-414.413	345.392	0.019	-0.039
-413.398	-200.000	-0.024	0.122
-412.384	503.727	-0.125	0.292
-411.369	470.284	0.081	-0.184
-410.355	-107.867	-0.416	0.091
-409.340	-31.618	0.151	0.086
-408.325	5.141	0.284	0.211
-407.311	800.000	0.091	0.266
-406.296	-200.000	0.013	0.326
-405.282	-19.762	0.136	0.085
-404.267	19.852	-0.360	-0.293
-403.252	56.509	-0.130	0.127
-402.238	-113.723	0.345	0.068
-401.223	800.000	-0.081	0.286
-400.209	-67.471	-0.187	-0.074
-399.194	313.398	-0.136	-0.259
-398.179	-99.162	0.296	-0.076
-397.165	104.772	-0.272	0.324
-396.150	113.236	-0.148	0.182
-395.136	654.144	0.065	-0.168
-394.121	529.966	0.171	0.409
-393.106	42.739	0.111	-0.102
-392.092	158.095	-0.047	0.065
-391.077	202.607	0.158	0.246
-390.063	-200.000	0.065	-0.367
-389.048	800.000	0.008	-0.036
-388.033	35.709	-0.101	0.089
-387.019	-114.034	-0.369	0.072
-386.004	-107.047	-0.020	0.004
-384.990	68.892	-0.236	0.245
-383.975	-200.000	0.017	-0.286
-382.960	-124.906	0.077	-0.012
-381.946	144.215	0.095	-0.129
-380.931	-92.962	0.075	-0.021
-379.917	25.445	-0.142	0.119
-378.902	-91.035	0.058	0.017
-377.888	608.456	-0.103	0.260
-376.873	-198.703	0.308	-0.002
-375.858	97.013	-0.226	0.261
-374.844	58.730	0.157	-0.156
-373.829	-53.147	0.190	0.088
-372.815	800.000	-0.079	0.306
-371.800	-18.069	0.133	0.084
-370.785	36.165	-0.106	0.094
-369.771	-200.000	-0.042	-0.346
-368.756	-31.680	0.208	0.118
-367.742	-53.627	-0.046	0.021
-366.727	-113.816	-0.144	-0.028
-365.712	-85.436	0.301	-0.095
-364.698	-111.565	0.236	-0.048
-363.683	90.749	-0.070	-0.079
-362.669	-22.087	0.037	0.023
-361.654	245.015	-0.175	0.296
-360.639	98.727	0.125	0.145
-359.625	10.695	0.078	-0.060
-358.610	-128.358	0.193	0.028
-357.596	570.076	0.029	0.072
-356.581	546.274	-0.119	-0.288
-355.566	-31.902	0.098	-0.055
-354.552	220.390	0.061	-0.098
-353.537	-200.000	0.052	0.280
-352.523	-88.306	0.328	-0.099
-351.508	81.570	0.148	-0.161
-350.493	-54.073	0.119	0.054
-349.479	619.463	-0.066	-0.168
-348.464	55.751	0.211	0.206
-347.450	800.000	0.067	0.253
-346.435	-200.000	-0.001	-0.183
-345.420	0.618	0.154	0.111
-344.406	-200.000	0.008	-0.192
-343.391	-78.598	0.072	-0.025
-342.377	-51.743	-0.083	-0.039
-341.362	-200.000	0.010	-0.189
-340.348	246.509	-0.091	0.155
-339.333	-68.563	0.108	-0.042
-338.318	-200.000	0.064	-0.406
-337.304	515.402	0.047	-0.110
-336.289	498.798	-0.099	0.230
-335.275	-200.000	0.030	0.169
-334.260	45.152	-0.236	0.219
-333.245	-93.331	0.108	-0.030
-332.231	483.413	-0.097	0.221
-331.216	36.310	0.115	0.102
-330.202	-34.172	0.251	-0.139
-329.187	80.638	-0.117	0.127
-328.172	515.041	-0.079	0.187
-327.158	61.338	0.261	-0.262
-326.143	800.000	-0.025	-0.078
-325.129	-58.112	-0.187	-0.082
-324.114	639.346	0.027	0.068
-323.099	-200.000	0.034	0.182
-322.085	-200.000	-0.017	0.109
-321.070	-180.770	-0.256	0.005
-320.056	152.723	0.110	-0.151
-319.041	640.555	0.133	0.342
-318.026	182.013	0.189	0.280
-317.012	49.617	-0.170	-0.162
-315.997	-200.000	0.034	0.224
-314.983	37.784	-0.110	-0.098
-313.968	-22.096	-0.085	-0.052
-312.953	-42.511	0.276	-0.142
-311.939	155.460	-0.208	0.289
-310.924	-200.000	0.004	0.191
-309.910	-185.647	-0.193	-0.003
-308.895	-10.348	0.192	0.128
-307.880	-131.658	0.157	0.021
-306.866	-200.000	-0.007	-0.219
-305.851	-135.342	-0.181	-0.022
-304.837	-37.869	0.116	-0.062
-303.822	-95.453	0.413	-0.112
-302.807	-170.149	0.127	-0.005
-301.793	-200.000	-0.226	0.000
-300.778	-48.293	0.053	0.026
-299.764	800.000	-0.111	0.401
-298.749	297.466	0.075	0.139
-297.735	213.347	-0.149	-0.238
-296.720	2.465	0.203	-0.148
-295.705	-48.907	-0.343	0.165
-294.691	35.460	0.143	0.126
-293.676	-200.000	0.000	-0.045
-292.662	57.331	-0.170	0.167
-291.647	62.721	-0.120	0.121
-290.632	96.130	-0.051	-0.059
-289.618	-173.256	-0.166	0.005
-288.603	-82.114	-0.327	-0.107
-287.589	-61.659	0.260	-0.110
-286.574	-108.812	0.103	0.022
-285.559	-70.286	0.476	-0.182
-284.545	420.076	-0.093	-0.201
-283.530	121.897	0.270	-0.339
-282.516	-12.969	-0.095	-0.062
-281.501	-160.602	-0.333	0.018
-280.486	191.082	-0.219	0.331
-279.472	108.935	0.146	0.176
-278.457	800.000	-0.021	0.088
-277.443	-3.318	0.201	-0.140
-276.428	240.504	-0.074	-0.124
-275.413	102.253	0.135	-0.159
-274.399	-18.278	-0.050	-0.032
-273.384	-24.122	-0.281	-0.169
-272.370	-46.361	-0.221	0.109
-271.355	-200.000	0.009	0.175
-270.340	-200.000	0.010	0.236
-269.326	125.719	0.092	0.117
-268.311	-138.845	-0.282	0.031
-267.297	800.000	0.086	0.262
-266.282	-90.663	0.047	0.014
-265.267	-200.000	0.006	0.201
-264.253	477.154	0.048	0.109
-263.238	-47.089	0.231	-0.113
-262.224	131.806	0.322	0.417
-261.209	-79.171	-0.183	0.063
-260.195	29.264	-0.343	0.293
-259.180	-54.602	-0.435	-0.198
-258.165	-89.512	-0.066	-0.020
-257.151	94.895	0.053	-0.060
-256.136	41.430	-0.181	-0.165
-255.122	-200.000	-0.026	0.195
-254.107	-136.926	0.292	-0.034
-253.092	668.787	0.123	0.320
-252.078	-200.000	-0.025	0.249
-251.063	-112.587	0.169	-0.034
-250.049	800.000	0.092	0.300
-249.034	-200.000	-0.011	-0.099
-248.019	800.000	0.095	-0.293
-247.005	-200.000	-0.007	0.061
-245.990	-52.216	0.124	0.058
-244.976	-109.872	-0.103	0.022
-243.961	123.562	-0.072	-0.091
-242.946	230.570	-0.124	-0.204
-241.932	130.084	-0.137	0.176
-240.917	-97.924	0.374	-0.097
-239.903	-200.000	0.093	0.491
-238.888	526.903	-0.054	-0.128
-237.873	-140.774	-0.104	0.011
-236.859	-23.669	-0.083	0.050
-235.844	-142.015	0.296	0.030
-234.830	-17.706	-0.284	0.179
-233.815	74.074	0.090	-0.095
-232.800	-42.443	-0.269	-0.138
-231.786	35.677	0.105	-0.093
-230.771	36.713	0.223	0.198
-229.757	-134.694	-0.192	-0.023
-228.742	-144.878	-0.050	-0.005
-227.727	800.000	0.033	-0.143
-226.713	242.267	0.083	0.140
-225.698	107.365	0.105	-0.126
-224.684	284.893	-0.099	-0.179
-223.669	-200.000	0.015	0.404
-222.655	-5.768	0.196	0.135
-221.640	62.449	0.026	-0.026
-220.625	-200.000	0.003	0.021
-219.611	-99.171	-0.276	-0.070
-218.596	156.318	0.166	0.230
-217.582	800.000	0.096	0.279
-216.567	-10.820	-0.065	0.043
-215.552	218.179	0.245	-0.392
-214.538	-27.788	0.224	0.130
-213.523	-200.000	0.001	-0.047
-212.509	53.210	0.241	-0.232
-211.494	-200.000	0.014	-0.068
-210.479	-93.735	-0.103	0.029
-209.465	-200.000	-0.018	-0.177
-208.450	-200.000	-0.033	-0.173
-207.436	-200.000	-0.012	-0.087
-206.421	-200.000	-0.010	-0.063
-205.406	-102.103	0.351	0.085
-204.392	-6.434	0.329	0.225
-203.377	517.687	0.061	-0.143
-202.363	131.178	0.263	-0.338
-201.348	800.000	0.065	0.210
-200.333	800.000	0.103	0.288
-199.319	75.161	0.085	-0.089
-198.304	136.556	-0.196	-0.256
-197.290	-45.640	-0.138	-0.068
-196.275	145.589	0.207	0.278
-195.260	-200.000	-0.006	0.062
-194.246	63.168	0.128	0.129
-193.231	546.827	-0.138	0.332
-192.217	800.000	-0.093	-0.350
-191.202	800.000	-0.106	-0.362
-190.187	727.764	0.045	-0.121
-189.173	-57.815	0.111	-0.048
-188.158	74.827	-0.286	0.302
-187.144	-200.000	-0.021	0.104
-186.129	-38.852	0.121	0.064
-185.114	-38.206	-0.305	0.162
-184.100	80.705	0.393	-0.425
-183.085	-79.571	-0.062	-0.021
-182.071	-0.383	0.102	-0.073
-181.056	-127.601	0.187	-0.027
-180.042	392.264	0.024	0.049
-179.027	-47.392	0.408	-0.199
-178.012	-113.002	-0.237	0.047
-176.998	64.960	0.158	0.160
-175.983	46.318	0.177	0.164
-174.969	234.351	-0.059	-0.097
-173.954	800.000	-0.059	0.213
-172.939	-200.000	-0.125	0.629
-171.925	129.620	0.057	0.073
-170.910	-76.181	-0.521	-0.184
-169.896	156.040	-0.212	0.292
-168.881	-112.284	0.421	-0.085
-167.866	75.535	0.028	0.029
-166.852	292.426	0.044	-0.080
-165.837	-200.000	0.033	-0.250
-164.823	85.073	-0.191	0.209
-163.808	206.519	-0.051	-0.079
-162.793	-200.000	0.001	-0.018
-161.779	-200.000	-0.034	-0.257
-160.764	165.349	-0.065	-0.092
-159.750	-193.134	0.088	0.001
-158.735	-109.670	0.124	-0.026
-157.720	800.000	-0.014	-0.045
-156.706	-75.755	0.186	-0.066
-155.691	800.000	-0.040	-0.126
-154.677	-108.891	0.066	-0.014
-153.662	-47.273	-0.134	-0.066
-152.647	-75.350	-0.066	0.024
-151.633	-108.019	0.143	0.031
-150.618	-47.193	-0.256	-0.125
-149.604	184.539	0.129	-0.192
-148.589	-72.723	0.139	0.051
-147.574	-200.000	0.055	-0.249
-146.560	233.317	0.090	-0.147
-145.545	-85.024	-0.485	0.152
-144.531	320.907	-0.132	-0.251
-143.516	183.557	-0.086	-0.127
-142.502	-200.000	0.058	0.301
-141.487	-67.802	0.168	-0.066
-140.472	-200.000	-0.016	-0.127
-139.458	104.953	-0.200	0.236
-138.443	-150.928	0.054	-0.004
-137.429	800.000	-0.041	-0.178
-136.414	-88.182	0.242	-0.073
-135.399	800.000	0.076	0.249
-134.385	88.491	-0.185	0.206
-133.370	-15.487	-0.195	0.125
-132.356	3.170	0.030	-0.022
-131.341	-114.078	0.492	-0.095
-130.326	136.860	0.153	0.200
-129.312	800.000	0.012	-0.044
-128.297	228.050	0.187	-0.305
-127.283	118.228	-0.233	-0.287
-126.268	-134.719	-0.069	-0.008
-125.253	-91.408	-0.206	0.059
-124.239	800.000	-0.043	0.172
-123.224	6.373	0.168	-0.125
-122.210	786.069	-0.125	0.342
-121.195	-64.789	0.117	-0.047
