DTS Sentinel unit serial number:	SN413079Multiplexer serial number:	ORYXHardware model number:	OX4-SRSoftware version number:	ORYX F/W v4.00 Oryx Data Collector v3.7.2.0data status	okinstallation	princeton_trtdifferential loss correction	single-endedforward channel	channel 3reverse channel	N/Adate	2019/09/13time	11:08:35forward acquisition time	60.00reverse acquisition time	0.00gamma	496.2192k internal	0.2317k external	0.2317temperature offset calibration	1.0143default loss term (dB/km)	0.3790temperature slope calibration	1.0000multiplexer offset coefficient	1.0000multiplexer slope coefficient	1.0000fibre end	0.00T internal ref (°C)	32.06T ext. ref 1 (°C)	4.66T ext. ref 2 (°C)	29.43length (m)	temperature (°C)	Stokes	anti-Stokes-747.200	-125.215	-0.038	0.006
-746.185	-166.228	-0.010	0.000
-745.171	268.735	0.158	-0.281
-744.156	342.615	0.027	-0.053
-743.142	2.594	-0.159	-0.117
-742.127	55.653	-0.111	0.109
-741.112	-146.954	-0.226	-0.020
-740.098	-54.357	-0.228	0.105
-739.083	-82.796	-0.252	-0.082
-738.069	702.492	-0.183	0.488
-737.054	509.606	0.013	-0.030
-736.039	105.122	-0.081	-0.097
-735.025	800.000	-0.038	0.107
-734.010	800.000	0.075	-0.252
-732.996	-87.356	0.141	-0.043
-731.981	-200.000	0.002	-0.304
-730.966	-83.406	-0.090	-0.029
-729.952	431.819	-0.071	0.156
-728.937	800.000	-0.037	-0.165
-727.923	-119.835	-0.182	0.032
-726.908	25.319	0.093	0.078
-725.894	99.848	-0.214	-0.251
-724.879	800.000	0.018	-0.054
-723.864	69.112	0.134	0.139
-722.850	12.176	-0.061	0.048
-721.835	-125.971	0.104	0.016
-720.821	57.338	0.148	0.146
-719.806	-195.200	-0.191	0.001
-718.791	-200.000	0.044	0.212
-717.777	-200.000	-0.018	-0.166
-716.762	-200.000	0.017	-0.252
-715.748	101.302	-0.154	-0.181
-714.733	-200.000	-0.009	-0.316
-713.718	-14.503	-0.202	-0.131
-712.704	101.886	-0.172	0.203
-711.689	-200.000	-0.064	0.325
-710.675	56.203	-0.274	-0.269
-709.660	53.448	-0.170	-0.165
-708.645	-14.407	-0.132	0.086
-707.631	123.237	-0.046	0.059
-706.616	-200.000	-0.017	0.231
-705.602	529.809	-0.061	-0.146
-704.587	2.469	-0.214	0.156
-703.572	-9.221	0.054	0.036
-702.558	124.932	0.094	0.119
-701.543	318.286	0.029	0.055
-700.529	-200.000	-0.027	0.203
-699.514	-64.002	0.308	-0.127
-698.499	710.434	-0.036	-0.096
-697.485	-45.025	-0.359	-0.181
-696.470	326.530	0.100	-0.194
-695.456	258.665	0.124	-0.216
-694.441	548.724	-0.099	0.239
-693.426	-200.000	-0.024	0.458
-692.412	-65.433	-0.355	0.144
-691.397	210.879	-0.180	0.286
-690.383	800.000	0.060	-0.197
-689.368	-50.908	0.027	0.013
-688.354	3.741	-0.424	-0.313
-687.339	23.433	-0.108	-0.089
-686.324	40.371	0.293	-0.266
-685.310	-157.187	-0.200	0.012
-684.295	21.828	-0.128	0.105
-683.281	5.219	-0.325	0.242
-682.266	309.300	0.133	-0.251
-681.251	-74.538	0.150	0.055
-680.237	-173.321	-0.292	0.009
-679.222	-50.069	-0.088	0.042
-678.208	-76.638	-0.227	-0.080
-677.193	-200.000	-0.110	0.580
-676.178	-200.000	0.044	-0.262
-675.164	-107.645	-0.383	-0.085
-674.149	-200.000	-0.043	-0.198
-673.135	90.132	0.178	-0.201
-672.120	800.000	-0.043	0.163
-671.105	-117.598	-0.299	0.054
-670.091	-200.000	0.032	-0.160
-669.076	-134.317	0.082	0.010
-668.062	-119.604	0.232	0.041
-667.047	-200.000	-0.010	-0.193
-666.032	167.823	-0.108	-0.154
-665.018	-53.246	-0.152	-0.070
-664.003	3.469	0.120	-0.088
-662.989	-122.178	0.192	0.032
-661.974	18.628	0.210	-0.170
-660.959	-200.000	0.153	0.000
-659.945	-200.000	-0.017	0.131
-658.930	197.477	-0.051	0.079
-657.916	-47.978	-0.377	-0.184
-656.901	-200.000	0.059	0.309
-655.886	-95.068	0.087	0.024
-654.872	-78.875	-0.188	-0.065
-653.857	-200.000	-0.000	-0.182
-652.843	643.155	-0.122	-0.314
-651.828	800.000	0.052	0.162
-650.814	-143.890	0.441	0.042
-649.799	654.118	-0.115	0.297
-648.784	196.082	-0.103	-0.159
-647.770	800.000	0.045	-0.177
-646.755	-151.281	-0.100	0.008
-645.741	800.000	-0.040	-0.158
-644.726	-200.000	-0.038	-0.392
-643.711	-82.427	0.091	0.030
-642.697	-10.249	-0.280	-0.187
-641.682	86.446	0.139	0.154
-640.668	219.594	0.075	-0.121
-639.653	-200.000	0.004	-0.042
-638.638	-15.526	0.325	0.209
-637.624	-124.138	-0.173	-0.027
-636.609	-200.000	-0.030	0.161
-635.595	800.000	0.050	0.180
-634.580	33.840	-0.162	0.142
-633.565	322.969	0.028	-0.053
-632.551	314.281	0.154	-0.292
-631.536	-200.000	-0.016	-0.251
-630.522	800.000	0.051	-0.179
-629.507	-95.622	0.241	0.065
-628.492	-71.083	-0.189	0.072
-627.478	-73.320	0.258	-0.095
-626.463	-27.027	-0.442	0.260
-625.449	379.118	0.085	-0.176
-624.434	-66.238	0.106	0.043
-623.419	-200.000	0.007	-0.178
-622.405	196.115	-0.046	-0.070
-621.390	-200.000	-0.003	0.090
-620.376	108.127	-0.239	0.287
-619.361	376.057	-0.098	-0.201
-618.346	-8.919	-0.275	0.186
-617.332	106.161	-0.228	-0.272
-616.317	-45.613	-0.083	0.041
-615.303	69.889	0.170	0.176
-614.288	270.879	-0.068	0.120
-613.273	391.790	0.050	-0.105
-612.259	-200.000	0.036	0.168
-611.244	-42.436	-0.284	0.146
-610.230	800.000	0.097	0.401
-609.215	-151.792	0.079	-0.006
-608.201	-5.879	0.114	-0.079
-607.186	-101.346	-0.161	-0.040
-606.171	-65.264	0.478	0.194
-605.157	-59.629	-0.141	0.061
-604.142	57.958	-0.321	-0.317
-603.128	-20.897	-0.094	-0.058
-602.113	678.262	-0.064	-0.167
-601.098	-200.000	-0.035	-0.166
-600.084	90.086	-0.040	-0.045
-599.069	463.083	-0.063	-0.141
-598.055	336.397	0.043	-0.084
-597.040	243.988	0.273	-0.462
-596.025	209.633	0.115	0.182
-595.011	447.160	0.076	0.168
-593.996	-200.000	-0.010	-0.259
-592.982	-100.991	0.099	-0.024
-591.967	217.202	-0.052	0.083
-590.952	-55.214	-0.126	0.057
-589.938	-121.318	0.133	-0.022
-588.923	-200.000	0.026	0.283
-587.909	-75.394	-0.051	0.018
-586.894	-100.947	-0.456	0.113
-585.879	-67.585	0.405	-0.160
-584.865	-200.000	-0.033	-0.240
-583.850	739.040	-0.071	0.191
-582.836	-74.262	0.312	0.114
-581.821	308.564	-0.109	-0.204
-580.806	-200.000	-0.042	0.282
-579.792	-62.593	-0.263	-0.110
-578.777	-100.901	-0.277	-0.068
-577.763	-200.000	-0.006	-0.166
-576.748	-84.231	-0.093	-0.030
-575.733	35.740	-0.161	-0.142
-574.719	689.844	0.120	-0.317
-573.704	-92.607	-0.200	-0.057
-572.690	-200.000	0.016	-0.319
-571.675	-131.099	-0.154	-0.021
-570.661	800.000	-0.105	-0.293
-569.646	-57.949	0.267	-0.117
-568.631	-53.181	-0.284	0.131
-567.617	-200.000	0.017	-0.143
-566.602	-193.803	-0.376	-0.003
-565.588	2.549	0.107	0.078
-564.573	-79.507	0.082	0.028
-563.558	-95.774	-0.102	0.027
-562.544	376.152	-0.089	0.182
-561.529	302.894	0.014	-0.026
-560.515	-96.914	-0.158	0.042
-559.500	-100.550	-0.226	-0.056
-558.485	-47.501	0.192	0.094
-557.471	800.000	0.138	-0.387
-556.456	84.116	-0.058	0.064
-555.442	169.251	0.078	0.111
-554.427	349.685	-0.092	0.182
-553.412	-90.343	-0.314	0.092
-552.398	-109.575	0.237	0.050
-551.383	-66.711	-0.276	0.110
-550.369	-200.000	0.011	-0.106
-549.354	-200.000	0.038	0.247
-548.339	-131.157	0.146	0.020
-547.325	800.000	0.041	-0.125
-546.310	-6.988	0.242	0.165
-545.296	-112.959	-0.312	-0.062
-544.281	-149.572	0.337	0.027
-543.266	294.788	0.077	0.142
-542.252	173.291	0.143	0.208
-541.237	-200.000	0.036	0.171
-540.223	343.851	-0.173	0.342
-539.208	110.171	0.079	-0.095
-538.193	298.257	-0.052	-0.097
-537.179	-200.000	-0.136	0.000
-536.164	-102.040	-0.173	0.042
-535.150	-200.000	-0.017	-0.095
-534.135	33.388	0.161	-0.141
-533.121	437.360	0.111	-0.243
-532.106	13.759	0.225	0.176
-531.091	-48.192	-0.186	0.090
-530.077	800.000	-0.052	-0.185
-529.062	41.461	-0.120	-0.109
-528.048	-23.555	-0.083	-0.050
-527.033	8.641	0.201	-0.152
-526.018	-59.162	0.140	-0.061
-525.004	-10.376	0.245	-0.163
-523.989	-57.616	0.141	0.062
-522.975	-47.330	0.176	0.086
-521.960	-117.741	-0.198	0.036
-520.945	-109.151	0.460	0.098
-519.931	-105.659	0.310	0.070
-518.916	-135.888	-0.278	0.033
-517.902	-82.928	-0.204	-0.066
-516.887	800.000	0.043	0.139
-515.872	-170.199	0.349	-0.012
-514.858	-122.740	0.223	-0.036
-513.843	72.608	0.110	0.115
-512.829	-74.417	-0.282	0.102
-511.814	223.483	0.071	-0.114
-510.799	-4.650	0.128	0.089
-509.785	184.635	0.113	-0.168
-508.770	-91.601	0.145	0.041
-507.756	-152.366	0.171	0.012
-506.741	704.501	-0.047	-0.126
-505.726	232.118	0.102	0.168
-504.712	675.236	-0.084	0.218
-503.697	672.267	0.064	0.165
-502.683	-140.428	0.066	0.007
-501.668	-200.000	-0.030	-0.480
-500.653	-200.000	-0.059	-0.442
-499.639	-52.579	-0.163	0.076
-498.624	-122.396	-0.106	-0.017
-497.610	-32.671	-0.281	-0.157
-496.595	-200.000	0.020	-0.114
-495.581	800.000	-0.084	-0.285
-494.566	597.159	0.092	0.229
-493.551	18.066	0.158	-0.126
-492.537	800.000	-0.081	-0.333
-491.522	-186.035	0.116	0.002
-490.508	6.755	-0.126	0.094
-489.493	-75.601	0.171	-0.061
-488.478	426.117	0.068	-0.148
-487.464	8.558	-0.128	0.096
-486.449	-200.000	0.043	0.314
-485.435	-44.858	-0.160	-0.080
-484.420	800.000	-0.058	0.173
-483.405	339.793	0.160	0.314
-482.391	-200.000	-0.007	-0.203
-481.376	145.042	-0.077	0.104
-480.362	55.902	-0.128	0.125
-479.347	-5.725	0.143	-0.098
-478.332	237.814	-0.088	0.146
-477.318	-114.794	0.273	-0.052
-476.303	-200.000	-0.062	0.349
-475.289	800.000	0.082	0.231
-474.274	-49.209	-0.128	0.061
-473.259	514.311	-0.051	0.120
-472.245	229.784	-0.178	-0.292
-471.230	-200.000	0.346	0.001
-470.216	-200.000	-0.050	0.240
-469.201	-64.592	0.121	-0.049
-468.186	-113.297	-0.256	-0.050
-467.172	-104.927	-0.285	0.065
-466.157	-82.955	0.169	0.055
-465.143	40.055	-0.140	-0.126
-464.128	137.271	0.166	0.217
-463.113	-121.601	0.350	0.058
-462.099	-47.784	0.196	0.095
-461.084	-62.616	0.336	0.140
-460.070	352.601	-0.111	-0.221
-459.055	-200.000	-0.047	0.398
-458.040	800.000	-0.029	-0.113
-457.026	-56.476	-0.202	0.089
-456.011	424.382	0.073	0.157
-454.997	30.539	0.102	0.088
-453.982	56.791	-0.229	-0.223
-452.968	70.352	-0.232	0.240
-451.953	-119.225	-0.197	-0.034
-450.938	123.895	-0.097	0.122
-449.924	-186.706	-0.139	-0.002
-448.909	-200.000	-0.002	-0.074
-447.895	-200.000	0.073	-0.327
-446.880	42.261	-0.233	0.212
-445.865	25.725	0.188	-0.157
-444.851	36.909	-0.173	-0.153
-443.836	22.021	0.106	0.087
-442.822	-72.077	0.415	0.154
-441.807	-63.711	0.093	0.038
-440.792	800.000	-0.076	-0.238
-439.778	452.053	-0.051	-0.113
-438.763	-31.490	-0.080	0.045
-437.749	23.316	0.146	0.120
-436.734	281.341	0.142	-0.255
-435.719	63.374	-0.313	0.314
-434.705	-6.876	0.163	0.111
-433.690	-138.906	-0.107	-0.012
-432.676	42.850	0.046	0.042
-431.661	515.537	-0.118	0.276
-430.646	511.983	0.034	-0.080
-429.632	45.396	-0.103	0.095
-428.617	-65.423	0.081	-0.033
-427.603	140.607	-0.013	-0.017
-426.588	-200.000	-0.030	0.256
-425.573	11.684	0.113	0.087
-424.559	-70.950	0.084	-0.032
-423.544	800.000	0.027	-0.084
-422.530	800.000	-0.043	-0.154
-421.515	96.155	-0.262	0.300
-420.500	-200.000	-0.030	-0.251
-419.486	-200.000	0.060	0.413
-418.471	30.598	0.243	0.208
-417.457	302.291	0.124	0.230
-416.442	-200.000	0.015	-0.207
-415.428	21.727	-0.152	0.124
-414.413	34.786	0.186	-0.162
-413.398	-129.740	0.126	0.017
-412.384	83.707	0.142	0.155
-411.369	-17.062	-0.109	0.068
-410.355	-200.000	0.046	0.300
-409.340	4.416	-0.217	0.159
-408.325	-71.637	-0.310	0.116
-407.311	119.725	-0.179	0.222
-406.296	-200.000	-0.037	0.216
-405.282	126.040	-0.184	0.233
-404.267	169.664	0.056	-0.080
-403.252	-139.187	0.220	0.024
-402.238	268.502	0.125	0.219
-401.223	-200.000	0.010	0.226
-400.209	800.000	0.042	-0.163
-399.194	249.456	0.062	0.105
-398.179	90.039	-0.288	-0.321
-397.165	800.000	-0.099	-0.317
-396.150	-195.212	0.266	-0.002
-395.136	-123.257	-0.282	0.045
-394.121	-183.942	-0.048	-0.001
-393.106	-47.353	-0.184	-0.089
-392.092	-88.070	0.547	-0.164
-391.077	-119.011	0.196	-0.034
-390.063	36.436	0.073	0.064
-389.048	-200.000	-0.061	-0.286
-388.033	21.405	0.176	0.143
-387.019	-15.881	-0.423	-0.269
-386.004	-200.000	-0.028	-0.262
-384.990	282.763	0.048	0.086
-383.975	-25.118	-0.264	0.156
-382.960	-200.000	0.018	-0.179
-381.946	138.555	0.206	-0.270
-380.931	52.754	0.129	0.123
-379.917	-26.848	-0.131	0.076
-378.902	-200.000	-0.061	0.410
-377.888	158.752	-0.102	0.141
-376.873	-54.509	0.162	-0.073
-375.858	92.160	-0.105	0.118
-374.844	-80.367	0.199	-0.066
-373.829	16.321	0.026	-0.020
-372.815	800.000	-0.100	0.320
-371.800	569.359	0.097	0.236
-370.785	-55.764	0.331	0.148
-369.771	-97.951	-0.035	-0.009
-368.756	155.844	0.098	0.135
-367.742	800.000	0.169	-0.498
-366.727	-200.000	-0.027	-0.200
-365.712	-200.000	-0.007	-0.070
-364.698	-60.811	-0.240	0.101
-363.683	-102.325	-0.152	0.036
-362.669	-164.792	0.409	0.018
-361.654	-153.327	0.093	0.006
-360.639	-68.763	0.194	0.075
-359.625	-122.648	-0.142	0.023
-358.610	-67.140	-0.334	0.131
-357.596	477.685	-0.016	0.036
-356.581	37.483	0.132	-0.116
-355.566	-149.650	-0.237	0.019
-354.552	-200.000	-0.049	-0.349
-353.537	623.289	-0.093	0.233
-352.523	-75.959	-0.080	-0.028
-351.508	-48.825	-0.116	-0.055
-350.493	289.515	0.026	-0.047
-349.479	79.274	0.098	-0.105
-348.464	-106.976	0.118	0.026
-347.450	-200.000	-0.033	0.243
-346.435	87.282	0.069	-0.076
-345.420	-44.516	-0.141	-0.070
-344.406	800.000	0.048	0.147
-343.391	43.306	0.125	0.114
-342.377	41.432	0.153	-0.138
-341.362	-188.406	-0.480	-0.006
-340.348	-48.736	0.180	-0.086
-339.333	-134.948	0.020	0.002
-338.318	800.000	0.055	-0.196
-337.304	458.470	0.108	0.238
-336.289	-98.961	-0.142	0.036
-335.275	-89.707	0.367	-0.107
-334.260	800.000	-0.085	-0.241
-333.245	-70.815	-0.378	0.142
-332.231	-200.000	-0.007	0.254
-331.216	800.000	-0.058	0.161
-330.202	786.735	0.074	-0.203
-329.187	800.000	0.053	-0.167
-328.172	-200.000	0.008	-0.196
-327.158	76.770	-0.142	0.150
-326.143	460.992	0.083	0.185
-325.129	-194.962	0.184	0.001
-324.114	158.028	-0.141	0.195
-323.099	-168.759	0.317	0.012
-322.085	800.000	-0.063	0.197
-321.070	-45.900	-0.138	0.068
-320.056	12.445	0.157	0.121
-319.041	-5.941	0.257	-0.175
-318.026	304.668	0.073	-0.134
-317.012	-52.834	-0.057	-0.026
-315.997	-121.767	0.062	-0.010
-314.983	149.619	0.058	0.079
-313.968	-71.886	-0.219	-0.081
-312.953	800.000	-0.092	-0.385
-311.939	-34.807	-0.072	0.039
-310.924	31.638	0.337	0.288
-309.910	35.120	-0.163	0.142
-308.895	-110.377	-0.142	0.029
-307.880	800.000	0.068	0.251
-306.866	800.000	-0.129	0.355
-305.851	-63.531	0.141	0.058
-304.837	-118.605	0.540	0.095
-303.822	6.624	0.167	0.123
-302.807	-138.289	-0.175	-0.019
-301.793	14.316	-0.039	0.031
-300.778	-200.000	-0.030	-0.253
-299.764	397.931	0.063	0.130
-298.749	-200.000	-0.023	-0.196
-297.735	-100.824	-0.253	-0.062
-296.720	-2.976	-0.263	0.183
-295.705	-200.000	0.020	0.130
-294.691	-110.492	-0.338	-0.070
-293.676	48.625	-0.134	-0.125
-292.662	-91.861	-0.123	-0.035
-291.647	499.693	-0.175	-0.401
-290.632	800.000	0.060	0.188
-289.618	332.040	0.065	-0.125
-288.603	-83.182	-0.049	-0.016
-287.589	-200.000	-0.040	0.445
-286.574	139.402	-0.067	-0.087
-285.559	-200.000	0.018	0.149
-284.545	-93.035	-0.220	0.061
-283.530	-130.897	-0.245	0.033
-282.516	-24.246	0.124	-0.073
-281.501	-114.675	-0.070	-0.013
-280.486	-47.556	-0.207	0.100
-279.472	-53.466	-0.026	-0.012
-278.457	-13.814	0.090	0.058
-277.443	800.000	0.081	-0.229
-276.428	-61.720	0.147	-0.061
-275.413	130.232	0.119	-0.151
-274.399	340.803	-0.111	0.216
-273.384	-145.201	0.517	-0.047
-272.370	33.204	0.140	0.121
-271.355	398.838	0.097	-0.201
-270.340	-112.325	-0.104	0.021
-269.326	-139.018	-0.142	-0.015
-268.311	800.000	0.010	-0.037
-267.297	-143.282	0.356	0.034
-266.282	-98.166	-0.109	-0.028
-265.267	182.119	0.040	0.059
-264.253	28.186	-0.128	-0.108
-263.238	-15.246	-0.008	-0.005
-262.224	-200.000	0.076	0.456
-261.209	3.961	-0.095	0.069
-260.195	-32.216	-0.213	-0.118
-259.180	30.144	0.175	0.148
-258.165	-200.000	0.008	0.247
-257.151	-65.336	-0.046	0.018
-256.136	2.265	-0.225	0.162
-255.122	-67.501	0.252	0.098
-254.107	-200.000	0.010	-0.380
-253.092	-15.587	-0.054	-0.034
-252.078	-8.895	-0.131	0.087
-251.063	241.098	0.113	0.188
-250.049	774.401	0.101	0.273
-249.034	27.469	0.185	-0.154
-248.019	-52.429	-0.195	0.090
-247.005	30.832	0.190	-0.161
-245.990	380.905	-0.114	0.233
-244.976	-40.114	-0.220	0.114
-243.961	800.000	0.120	-0.420
-242.946	-200.000	-0.009	0.248
-241.932	-156.245	-0.429	0.027
-240.917	29.180	0.098	-0.082
-239.903	-52.622	0.203	-0.093
-238.888	260.217	0.091	-0.157
-237.873	-34.669	0.105	-0.057
-236.859	586.436	0.108	-0.264
-235.844	97.860	-0.093	-0.106
-234.830	-13.434	0.301	-0.193
-233.815	311.937	-0.037	-0.069
-232.800	-200.000	-0.019	-0.262
-231.786	800.000	0.050	-0.204
-230.771	539.874	0.186	0.440
-229.757	-200.000	-0.028	-0.328
-228.742	-112.934	0.278	0.055
-227.727	285.992	0.043	0.078
-226.713	-84.704	0.170	-0.053
-225.698	800.000	-0.049	-0.191
-224.684	-24.818	0.156	-0.092
-223.669	66.082	-0.305	0.307
-222.655	-78.460	0.114	-0.039
-221.640	209.996	-0.155	-0.241
-220.625	-136.816	0.210	0.024
-219.611	89.754	0.161	-0.178
-218.596	-200.000	-0.001	-0.186
-217.582	134.173	0.336	-0.432
-216.567	-154.690	0.349	-0.023
-215.552	-38.042	-0.289	0.152
-214.538	-200.000	-0.053	0.302
-213.523	-200.000	-0.077	-0.380
-212.509	-58.708	-0.197	0.085
-211.494	66.403	-0.229	0.231
-210.479	76.669	-0.207	-0.217
-209.465	800.000	0.137	0.381
-208.450	-65.856	-0.165	-0.066
-207.436	517.673	-0.031	0.073
-206.421	160.268	0.126	0.175
-205.406	-132.217	-0.550	-0.071
-204.392	125.641	-0.172	-0.216
-203.377	-11.070	0.099	-0.065
-202.363	-24.675	-0.129	-0.076
-201.348	59.308	0.128	-0.125
-200.333	-200.000	0.040	-0.178
-199.319	665.156	0.075	0.192
-198.304	-90.354	-0.284	-0.082
-197.290	-200.000	-0.000	0.172
-196.275	-78.155	-0.047	0.016
-195.260	17.450	0.253	0.199
-194.246	-28.743	0.380	0.217
-193.231	303.262	0.096	-0.176
-192.217	-198.793	0.114	-0.001
-191.202	-5.979	-0.275	-0.186
-190.187	-155.572	0.383	0.024
-189.173	189.002	0.130	-0.193
-188.158	-111.994	-0.363	-0.072
-187.144	-200.000	-0.011	-0.090
-186.129	-18.478	-0.197	0.122
-185.114	-187.264	0.116	0.002
-184.100	-113.649	-0.211	0.041
-183.085	95.044	0.250	0.282
-182.071	61.301	0.080	-0.079
-181.056	215.323	-0.061	-0.095
-180.042	174.429	0.168	0.241
-179.027	-67.554	0.258	0.100
-178.012	-179.548	0.095	0.002
-176.998	-65.731	0.050	-0.020
-175.983	-200.000	-0.002	-0.174
-174.969	145.218	-0.283	0.375
-173.954	-101.342	0.217	0.052
-172.939	-29.738	0.077	-0.043
-171.925	372.887	0.142	-0.286
-170.910	133.745	0.228	-0.292
-169.896	21.003	-0.248	-0.199
-168.881	800.000	-0.025	-0.103
-167.866	-120.862	0.150	-0.025
-166.852	800.000	-0.076	-0.280
-165.837	-200.000	-0.027	-0.318
-164.823	-11.271	0.150	0.098
-163.808	647.457	0.024	-0.061
-162.793	-115.310	-0.115	0.021
-161.779	-200.000	-0.040	-0.317
-160.764	-93.710	-0.226	-0.062
-159.750	-177.495	-0.513	0.012
-158.735	-151.040	0.079	-0.006
-157.720	8.206	0.200	0.148
-156.706	-37.117	-0.228	0.121
-155.691	23.236	0.193	-0.157
-154.677	380.196	-0.072	-0.146
-153.662	-86.006	0.063	0.019
-152.647	209.865	-0.128	-0.199
-151.633	385.062	-0.086	-0.175
-150.618	-176.767	-0.221	0.006
-149.604	-9.940	-0.230	0.151
-148.589	-200.000	0.022	0.119
-147.574	-50.402	0.392	0.183
-146.560	-93.867	0.082	0.022
-145.545	-92.238	-0.034	0.010
-144.531	37.459	-0.186	-0.163
-143.516	800.000	-0.038	0.108
-142.502	70.947	-0.137	-0.141
-141.487	358.192	-0.099	-0.196
-140.472	-70.594	-0.288	0.108
-139.458	-79.840	0.154	0.051
-138.443	-200.000	-0.077	0.351
-137.429	64.928	-0.285	0.285
-136.414	-58.351	-0.252	-0.108
-135.399	-200.000	0.026	0.167
-134.385	-200.000	-0.004	-0.020
-133.370	-200.000	0.034	0.304
-132.356	800.000	-0.083	0.326
-131.341	566.884	-0.079	-0.190
-130.326	241.651	0.095	-0.157
-129.312	-200.000	-0.004	-0.236
-128.297	800.000	-0.059	-0.195
-127.283	36.508	-0.097	0.084
-126.268	800.000	-0.023	0.080
-125.253	-99.481	-0.337	-0.084
-124.239	713.005	-0.137	-0.359
-123.224	-200.000	0.004	0.066
-122.210	31.931	-0.273	-0.233
-121.195	456.421	0.141	-0.310
