DTS Sentinel unit serial number:	SN413079Multiplexer serial number:	ORYXHardware model number:	OX4-SRSoftware version number:	ORYX F/W v4.00 Oryx Data Collector v3.7.2.0data status	okinstallation	princeton_trtdifferential loss correction	single-endedforward channel	channel 3reverse channel	N/Adate	2019/09/14time	07:56:34forward acquisition time	60.00reverse acquisition time	0.00gamma	496.2192k internal	0.2337k external	0.2337temperature offset calibration	1.0046default loss term (dB/km)	0.3790temperature slope calibration	1.0000multiplexer offset coefficient	1.0000multiplexer slope coefficient	1.0000fibre end	0.00T internal ref (°C)	26.69T ext. ref 1 (°C)	3.52T ext. ref 2 (°C)	23.85length (m)	temperature (°C)	Stokes	anti-Stokes-747.200	568.318	-0.100	-0.243
-746.185	-143.073	-0.374	0.036
-745.171	-200.000	-0.038	0.305
-744.156	532.180	0.075	0.178
-743.142	-76.188	0.100	-0.035
-742.127	-10.119	-0.137	-0.091
-741.112	-86.503	0.053	-0.016
-740.098	346.453	-0.085	0.167
-739.083	691.320	0.095	0.250
-738.069	-102.022	0.212	0.051
-737.054	-96.939	-0.358	0.094
-736.039	143.302	0.095	-0.127
-735.025	28.808	0.215	0.183
-734.010	138.783	-0.043	0.056
-732.996	-35.155	0.074	-0.040
-731.981	-200.000	0.044	-0.195
-730.966	-8.072	-0.170	-0.115
-729.952	52.295	0.037	0.035
-728.937	-115.860	0.167	0.031
-727.923	-186.247	-0.526	-0.008
-726.908	-15.611	0.228	-0.146
-725.894	1.664	-0.109	-0.079
-724.879	323.896	0.089	-0.170
-723.864	-79.997	-0.313	-0.105
-722.850	-200.000	-0.008	-0.198
-721.835	-200.000	0.040	-0.262
-720.821	255.818	0.135	-0.232
-719.806	-90.251	-0.427	-0.125
-718.791	-152.106	-0.125	-0.009
-717.777	-130.556	-0.364	0.049
-716.762	-160.791	0.169	0.009
-715.748	800.000	-0.025	0.079
-714.733	-200.000	0.021	0.379
-713.718	-59.667	-0.184	-0.079
-712.704	-14.258	0.213	0.138
-711.689	242.817	-0.080	0.134
-710.675	18.480	-0.041	-0.033
-709.660	-73.294	-0.305	0.112
-708.645	24.424	-0.076	-0.063
-707.631	476.777	-0.019	0.042
-706.616	-71.694	0.100	0.037
-705.602	-200.000	0.047	0.210
-704.587	-200.000	0.011	-0.156
-703.572	190.082	0.059	-0.088
-702.558	-50.731	-0.139	-0.065
-701.543	-91.834	0.260	0.074
-700.529	23.151	-0.117	-0.097
-699.514	-0.173	-0.154	0.110
-698.499	432.002	-0.017	-0.036
-697.485	99.241	-0.241	-0.279
-696.470	-77.754	0.237	0.082
-695.456	-84.689	-0.188	-0.059
-694.441	800.000	-0.129	-0.375
-693.426	-200.000	-0.286	-0.001
-692.412	-92.498	0.210	-0.059
-691.397	-157.782	-0.181	-0.011
-690.383	-200.000	-0.015	-0.333
-689.368	21.885	0.338	-0.276
-688.354	-129.723	-0.061	0.008
-687.339	299.581	-0.050	-0.092
-686.324	-110.611	-0.147	-0.030
-685.310	-200.000	-0.001	-0.238
-684.295	13.853	-0.303	-0.236
-683.281	-66.421	0.062	0.025
-682.266	133.334	0.127	-0.164
-681.251	-143.254	-0.389	0.037
-680.237	-21.749	0.164	0.100
-679.222	-200.000	0.048	0.375
-678.208	-165.186	-0.123	-0.005
-677.193	-25.932	-0.552	0.325
-676.178	400.594	0.109	-0.229
-675.164	-62.682	-0.480	-0.199
-674.149	800.000	-0.033	-0.114
-673.135	358.701	-0.253	-0.507
-672.120	-98.711	-0.384	-0.098
-671.105	37.045	0.036	0.032
-670.091	-126.770	-0.234	0.035
-669.076	-135.159	-0.282	-0.034
-668.062	62.286	0.456	0.455
-667.047	-67.056	-0.262	-0.103
-666.032	-161.910	-0.256	0.013
-665.018	72.755	0.119	-0.124
-664.003	149.608	-0.154	-0.209
-662.989	-114.581	0.359	0.069
-661.974	-177.870	0.170	-0.004
-660.959	-87.004	0.073	-0.022
-659.945	-82.793	-0.143	0.046
-658.930	-200.000	-0.031	0.356
-657.916	800.000	0.067	-0.196
-656.901	-93.924	0.215	0.059
-655.886	-200.000	-0.034	-0.286
-654.872	-157.101	-0.222	0.014
-653.857	511.396	-0.174	-0.404
-652.843	446.349	0.132	-0.290
-651.828	-81.648	0.440	-0.144
-650.814	-77.019	-0.113	-0.040
-649.799	126.236	-0.214	-0.270
-648.784	156.003	-0.225	-0.311
-647.770	800.000	0.066	-0.285
-646.755	-154.327	-0.546	-0.037
-645.741	-134.863	-0.255	-0.031
-644.726	-98.761	-0.071	-0.018
-643.711	99.629	0.166	0.193
-642.697	-23.066	-0.136	0.082
-641.682	-47.592	0.146	-0.071
-640.668	-200.000	0.037	0.183
-639.653	230.514	-0.209	-0.342
-638.638	-200.000	0.020	-0.093
-637.624	800.000	0.044	0.174
-636.609	-200.000	-0.009	0.102
-635.595	4.889	-0.136	-0.100
-634.580	78.597	-0.051	-0.055
-633.565	223.948	-0.108	-0.174
-632.551	-94.575	-0.343	0.093
-631.536	-200.000	-0.030	-0.523
-630.522	-200.000	-0.003	-0.091
-629.507	-200.000	0.013	-0.284
-628.492	-200.000	0.045	0.368
-627.478	82.731	-0.245	0.266
-626.463	-200.000	0.025	-0.490
-625.449	800.000	-0.059	-0.243
-624.434	-83.091	0.139	0.045
-623.419	-192.725	0.301	-0.003
-622.405	272.540	0.184	-0.325
-621.390	379.639	-0.106	-0.218
-620.376	-200.000	-0.009	-0.248
-619.361	20.037	0.038	-0.030
-618.346	56.146	-0.116	0.113
-617.332	-200.000	0.002	0.232
-616.317	549.371	-0.042	0.099
-615.303	409.091	0.075	0.158
-614.288	662.124	0.126	-0.326
-613.273	-75.379	-0.403	0.143
-612.259	-200.000	0.028	-0.351
-611.244	-200.000	0.016	-0.102
-610.230	-200.000	-0.003	-0.189
-609.215	-27.595	-0.192	-0.111
-608.201	-168.553	-0.204	0.008
-607.186	27.960	-0.180	-0.152
-606.171	342.783	0.086	-0.167
-605.157	-153.226	-0.379	-0.026
-604.142	136.960	-0.196	0.256
-603.128	-34.992	-0.118	0.064
-602.113	272.349	0.155	0.273
-601.098	-200.000	0.005	0.100
-600.084	800.000	-0.028	0.099
-599.069	-57.923	0.228	0.100
-598.055	-113.364	0.206	0.040
-597.040	-68.552	0.185	0.072
-596.025	-200.000	0.010	-0.128
-595.011	-59.238	0.071	-0.030
-593.996	6.273	0.382	-0.283
-592.982	-62.568	0.185	0.077
-591.967	-53.799	0.277	0.126
-590.952	-2.043	-0.372	-0.261
-589.938	-42.888	0.271	-0.137
-588.923	-200.000	0.003	-0.190
-587.909	-83.037	-0.075	0.024
-586.894	78.878	-0.113	-0.121
-585.879	-200.000	0.054	-0.237
-584.865	-130.281	0.189	-0.026
-583.850	800.000	-0.045	-0.133
-582.836	-180.302	0.196	-0.004
-581.821	-200.000	-0.040	-0.179
-580.806	-200.000	0.022	0.213
-579.792	-200.000	0.024	0.133
-578.777	800.000	0.136	0.408
-577.763	-55.733	-0.104	-0.046
-576.748	-200.000	0.024	0.155
-575.733	-200.000	0.026	-0.300
-574.719	17.184	-0.115	-0.091
-573.704	-32.485	0.140	0.078
-572.690	49.524	0.153	-0.144
-571.675	-90.274	-0.386	0.112
-570.661	169.730	0.057	-0.081
-569.646	129.216	0.153	0.195
-568.631	28.695	-0.058	-0.049
-567.617	-94.669	0.099	-0.027
-566.602	97.422	-0.223	-0.255
-565.588	-103.191	-0.082	0.019
-564.573	-89.208	0.260	-0.077
-563.558	-5.278	0.165	-0.113
-562.544	375.188	-0.087	0.176
-561.529	166.492	0.118	-0.167
-560.515	-83.302	0.135	0.043
-559.500	-11.017	-0.275	0.181
-558.485	-153.209	-0.173	0.012
-557.471	-58.457	0.029	-0.013
-556.456	-132.889	-0.396	-0.050
-555.442	171.545	0.209	0.299
-554.427	-77.890	-0.351	-0.121
-553.412	-53.004	0.225	-0.103
-552.398	-73.837	0.470	-0.170
-551.383	-76.602	-0.170	0.060
-550.369	-10.758	-0.073	0.048
-549.354	-132.333	0.023	-0.003
-548.339	78.319	0.195	-0.207
-547.325	800.000	-0.139	-0.458
-546.310	5.700	0.147	0.108
-545.296	-200.000	-0.005	-0.259
-544.281	-200.000	0.008	0.170
-543.266	-200.000	0.028	0.233
-542.252	800.000	0.113	0.420
-541.237	107.826	-0.156	-0.185
-540.223	-44.508	0.153	0.076
-539.208	-40.935	-0.152	0.078
-538.193	-200.000	0.002	-0.218
-537.179	142.826	0.103	-0.136
-536.164	-200.000	0.012	0.094
-535.150	-200.000	0.013	-0.085
-534.135	-76.983	0.112	0.039
-533.121	-183.754	0.195	0.003
-532.106	800.000	0.105	-0.336
-531.091	444.870	0.169	0.370
-530.077	-34.739	-0.123	-0.067
-529.062	144.474	-0.107	-0.142
-528.048	-9.185	-0.386	0.257
-527.033	-36.448	-0.078	0.042
-526.018	-200.000	-0.056	0.280
-525.004	800.000	0.102	-0.346
-523.989	-58.433	0.180	-0.078
-522.975	106.756	-0.173	-0.204
-521.960	-200.000	0.001	0.216
-520.945	-200.000	0.003	0.343
-519.931	-37.171	-0.266	-0.142
-518.916	-115.113	-0.191	-0.036
-517.902	-131.893	-0.204	-0.026
-516.887	-80.446	-0.110	0.037
-515.872	-200.000	-0.008	0.097
-514.858	-187.639	0.432	0.006
-513.843	-32.793	0.218	-0.121
-512.829	-65.622	0.344	-0.137
-511.814	-50.550	-0.321	0.151
-510.799	-200.000	0.020	-0.142
-509.785	-200.000	0.012	0.121
-508.770	659.944	-0.135	0.344
-507.756	-200.000	-0.005	0.163
-506.741	-68.357	-0.265	0.102
-505.726	261.495	0.106	-0.183
-504.712	78.786	0.164	0.174
-503.697	28.779	0.231	-0.194
-502.683	90.372	-0.044	-0.049
-501.668	-145.823	0.232	-0.021
-500.653	254.976	0.069	-0.118
-499.639	-138.733	0.059	0.006
-498.624	-200.000	0.003	0.381
-497.610	271.244	0.145	-0.253
-496.595	-94.982	-0.276	0.074
-495.581	-99.203	-0.124	-0.031
-494.566	-200.000	-0.046	-0.226
-493.551	-7.651	0.155	0.104
-492.537	-37.943	-0.239	0.126
-491.522	131.738	0.202	0.258
-490.508	-200.000	-0.187	-0.000
-489.493	800.000	-0.097	-0.305
-488.478	198.830	0.255	-0.388
-487.464	800.000	-0.077	0.229
-486.449	-21.189	0.077	-0.047
-485.435	199.671	-0.142	0.217
-484.420	-200.000	0.011	0.134
-483.405	278.899	-0.113	-0.200
-482.391	60.691	0.196	-0.193
-481.376	392.398	-0.092	-0.190
-480.362	-200.000	-0.051	0.329
-479.347	800.000	-0.102	0.350
-478.332	800.000	0.083	0.344
-477.318	113.030	-0.220	0.265
-476.303	737.774	-0.060	0.160
-475.289	-68.676	-0.268	-0.103
-474.274	356.026	-0.091	0.180
-473.259	-157.041	0.339	-0.021
-472.245	800.000	-0.069	0.292
-471.230	0.580	0.161	0.114
-470.216	-157.339	0.254	-0.015
-469.201	-76.427	0.176	-0.062
-468.186	-200.000	-0.058	-0.320
-467.172	56.432	-0.254	-0.246
-466.157	-200.000	-0.010	0.050
-465.143	-149.531	0.165	0.013
-464.128	-77.599	-0.154	0.053
-463.113	-54.338	0.227	0.102
-462.099	46.943	-0.217	0.200
-461.084	800.000	0.074	-0.220
-460.070	307.607	-0.060	0.112
-459.055	-86.162	0.096	0.029
-458.040	154.996	-0.122	0.167
-457.026	800.000	0.019	-0.061
-456.011	-114.781	0.261	-0.049
-454.997	800.000	-0.046	0.156
-453.982	9.969	-0.259	0.195
-452.968	17.708	0.110	0.087
-451.953	22.404	-0.038	0.031
-450.938	-200.000	0.019	0.133
-449.924	354.805	0.143	-0.282
-448.909	-84.578	-0.335	-0.105
-447.895	800.000	-0.043	-0.121
-446.880	272.760	-0.088	-0.153
-445.865	-144.655	-0.120	-0.011
-444.851	362.410	0.089	-0.177
-443.836	-110.685	-0.056	-0.012
-442.822	-200.000	0.022	0.284
-441.807	-200.000	-0.098	-0.441
-440.792	-86.031	0.089	-0.027
-439.778	800.000	0.116	-0.405
-438.763	221.459	-0.043	0.068
-437.749	122.124	0.139	0.172
-436.734	-8.169	0.031	-0.021
-435.719	528.613	0.141	-0.330
-434.705	-30.666	0.196	0.110
-433.690	37.483	-0.250	-0.220
-432.676	-116.662	-0.235	0.043
-431.661	614.135	0.019	0.048
-430.646	85.630	0.084	-0.091
-429.632	268.202	0.084	-0.145
-428.617	-84.201	0.367	-0.115
-427.603	-200.000	-0.042	0.302
-426.588	-200.000	-0.045	-0.334
-425.573	-200.000	-0.019	-0.138
-424.559	-59.700	0.151	0.064
-423.544	391.807	-0.087	-0.178
-422.530	-130.060	0.196	0.027
-421.515	52.610	0.032	0.031
-420.500	-0.795	0.084	0.059
-419.486	800.000	-0.021	-0.073
-418.471	366.504	-0.102	0.204
-417.457	627.897	-0.119	0.298
-416.442	-76.074	0.315	-0.110
-415.428	-29.282	0.293	-0.166
-414.413	229.786	-0.015	0.025
-413.398	-111.246	-0.226	0.046
-412.384	-200.000	-0.025	-0.158
-411.369	12.606	0.341	0.260
-410.355	-82.670	0.377	0.121
-409.340	433.554	0.091	0.195
-408.325	800.000	0.116	-0.319
-407.311	-101.632	0.402	-0.097
-406.296	4.339	0.297	0.216
-405.282	-200.000	-0.015	-0.203
-404.267	128.094	0.043	-0.054
-403.252	388.891	-0.086	-0.177
-402.238	86.182	-0.101	-0.110
-401.223	-200.000	0.002	0.254
-400.209	166.405	-0.144	0.202
-399.194	-200.000	0.038	0.223
-398.179	-200.000	0.030	0.175
-397.165	-40.195	-0.197	-0.102
-396.150	-41.171	0.218	-0.112
-395.136	67.193	0.104	-0.105
-394.121	-57.490	-0.305	-0.132
-393.106	90.159	-0.185	-0.205
-392.092	-200.000	0.039	-0.333
-391.077	116.313	-0.055	-0.066
-390.063	57.987	-0.113	-0.110
-389.048	-200.000	0.016	-0.269
-388.033	-165.007	-0.176	0.008
-387.019	173.407	-0.149	0.213
-386.004	-200.000	-0.018	-0.128
-384.990	49.045	0.227	0.211
-383.975	44.575	0.222	-0.202
-382.960	-139.360	-0.268	-0.028
-381.946	-200.000	0.015	-0.189
-380.931	-31.958	-0.252	0.139
-379.917	-142.907	-0.237	-0.023
-378.902	-200.000	0.019	0.142
-377.888	74.208	0.257	0.267
-376.873	-135.468	0.144	0.017
-375.858	21.179	-0.099	-0.080
-374.844	307.108	0.053	0.097
-373.829	194.086	-0.137	0.206
-372.815	-132.367	0.148	0.019
-371.800	-40.126	-0.115	0.059
-370.785	242.177	-0.058	-0.096
-369.771	-117.746	-0.032	0.006
-368.756	193.031	-0.097	-0.145
-367.742	800.000	-0.105	0.338
-366.727	-27.568	-0.096	0.055
-365.712	-200.000	-0.004	0.224
-364.698	84.027	-0.013	0.015
-363.683	-48.807	0.244	0.116
-362.669	-116.325	0.081	0.015
-361.654	279.410	-0.113	-0.200
-360.639	466.997	0.074	0.163
-359.625	-146.074	-0.144	-0.013
-358.610	76.313	0.152	0.159
-357.596	-78.096	0.323	0.110
-356.581	-51.620	0.249	-0.115
-355.566	-171.688	0.057	0.002
-354.552	373.719	0.096	0.194
-353.537	-116.738	0.066	-0.012
-352.523	-99.692	0.246	-0.061
-351.508	12.581	-0.247	0.188
-350.493	52.882	-0.009	-0.009
-349.479	498.514	-0.197	-0.447
-348.464	-13.802	-0.260	0.166
-347.450	-11.761	0.148	0.096
-346.435	-140.903	0.278	0.028
-345.420	-111.094	-0.251	0.051
-344.406	-33.737	0.057	-0.031
-343.391	-200.000	-0.021	0.115
-342.377	715.769	0.025	-0.065
-341.362	-200.000	0.038	0.172
-340.348	22.877	-0.432	-0.349
-339.333	69.021	0.112	0.114
-338.318	-200.000	-0.069	-0.305
-337.304	-131.947	-0.223	-0.029
-336.289	-159.883	0.280	0.015
-335.275	-200.000	-0.008	0.052
-334.260	348.033	-0.041	0.080
-333.245	-98.247	-0.064	-0.016
-332.231	240.509	-0.081	-0.133
-331.216	-118.075	-0.297	-0.052
-330.202	-200.000	-0.030	0.175
-329.187	587.330	-0.102	-0.248
-328.172	800.000	0.095	0.297
-327.158	-200.000	0.042	0.322
-326.143	57.268	-0.144	-0.139
-325.129	-68.700	0.105	0.040
-324.114	13.601	0.199	0.153
-323.099	65.140	-0.111	0.111
-322.085	-200.000	0.003	0.076
-321.070	15.738	0.186	-0.144
-320.056	28.885	0.022	0.019
-319.041	-14.540	0.267	0.170
-318.026	-28.058	-0.064	0.037
-317.012	-36.903	-0.313	-0.166
-315.997	800.000	0.040	-0.149
-314.983	185.435	0.109	-0.160
-313.968	800.000	0.084	0.335
-312.953	494.246	-0.076	0.173
-311.939	-200.000	0.043	0.323
-310.924	245.608	-0.080	-0.134
-309.910	-8.266	0.220	0.146
-308.895	-200.000	-0.005	0.310
-307.880	-200.000	-0.018	-0.239
-306.866	206.968	-0.131	-0.201
-305.851	-123.243	-0.148	-0.023
-304.837	-88.467	0.057	0.017
-303.822	41.708	-0.158	0.141
-302.807	-160.136	0.447	0.024
-301.793	380.489	-0.046	0.094
-300.778	31.509	-0.056	-0.048
-299.764	27.452	-0.135	0.112
-298.749	-200.000	-0.004	0.210
-297.735	185.071	0.094	-0.138
-296.720	566.714	0.058	-0.139
-295.705	-142.078	-0.182	0.018
-294.691	-34.569	-0.126	0.068
-293.676	-105.708	-0.057	-0.013
-292.662	800.000	-0.096	0.319
-291.647	28.530	-0.121	0.101
-290.632	-80.012	-0.152	-0.050
-289.618	27.586	-0.146	0.121
-288.603	-200.000	0.120	-0.535
-287.589	-122.792	0.151	-0.024
-286.574	362.431	0.066	0.131
-285.559	-7.774	0.055	-0.037
-284.545	-200.000	0.016	0.108
-283.530	165.184	-0.097	0.135
-282.516	-62.582	0.104	0.042
-281.501	507.780	-0.144	0.329
-280.486	682.065	-0.106	0.272
-279.472	399.575	0.138	-0.284
-278.457	-88.879	0.344	0.101
-277.443	800.000	0.078	0.272
-276.428	17.349	-0.227	0.177
-275.413	-91.774	0.433	-0.121
-274.399	-16.943	0.217	0.135
-273.384	-10.956	-0.071	0.046
-272.370	-200.000	-0.025	0.223
-271.355	800.000	-0.053	-0.224
-270.340	-91.653	-0.185	0.052
-269.326	7.336	-0.219	0.161
-268.311	-12.046	0.195	-0.126
-267.297	107.005	0.028	0.033
-266.282	-20.271	0.229	0.139
-265.267	800.000	0.028	-0.095
-264.253	774.123	-0.160	0.429
-263.238	-7.949	-0.157	-0.104
-262.224	-152.426	-0.234	-0.017
-261.209	148.975	0.111	-0.148
-260.195	-106.467	-0.188	-0.041
-259.180	113.794	-0.112	0.135
-258.165	360.172	-0.034	-0.066
-257.151	29.764	0.322	-0.270
-256.136	-200.000	-0.033	0.306
-255.122	-132.580	-0.045	0.006
-254.107	93.685	-0.070	-0.078
-253.092	800.000	0.031	0.089
-252.078	290.083	0.203	-0.362
-251.063	93.709	-0.129	-0.144
-250.049	513.673	0.134	0.308
-249.034	800.000	0.062	-0.220
-248.019	-119.169	-0.244	0.042
-247.005	-200.000	-0.003	0.346
-245.990	30.854	-0.119	-0.100
-244.976	-200.000	0.007	0.246
-243.961	-136.112	-0.219	0.025
-242.946	-75.904	-0.170	0.059
-241.932	-169.368	-0.093	-0.003
-240.917	-200.000	-0.024	0.408
-239.903	507.765	-0.040	-0.091
-238.888	349.143	-0.032	-0.062
-237.873	-85.611	0.278	-0.085
-236.859	-86.331	0.265	0.080
-235.844	800.000	-0.126	0.385
-234.830	-200.000	0.031	0.217
-233.815	15.756	0.015	0.012
-232.800	-141.026	-0.200	-0.020
-231.786	141.771	-0.016	-0.021
-230.771	-22.343	0.071	-0.043
-229.757	-73.456	-0.255	-0.092
-228.742	-92.559	-0.182	-0.050
-227.727	589.284	0.061	0.147
-226.713	56.319	-0.083	0.079
-225.698	-57.510	0.324	0.140
-224.684	-47.544	-0.051	0.025
-223.669	-200.000	-0.023	-0.119
-222.655	800.000	-0.028	-0.080
-221.640	-40.789	0.248	0.126
-220.625	315.709	-0.212	-0.394
-219.611	-129.268	0.158	-0.022
-218.596	-199.798	0.009	0.000
-217.582	-200.000	0.001	-0.242
-216.567	800.000	-0.022	-0.082
-215.552	96.420	0.029	0.033
-214.538	14.413	0.147	-0.113
-213.523	724.211	-0.040	-0.106
-212.509	236.971	0.070	0.113
-211.494	76.627	-0.197	-0.205
-210.479	-73.542	0.043	-0.016
-209.465	-55.028	-0.070	-0.031
-208.450	50.543	0.259	0.241
-207.436	-120.000	0.145	0.025
-206.421	-200.000	-0.002	-0.043
-205.406	-73.690	-0.199	-0.071
-204.392	-200.000	-0.004	0.028
-203.377	-174.940	-0.153	0.004
-202.363	800.000	0.034	-0.133
-201.348	102.623	0.103	0.118
-200.333	148.772	0.122	-0.162
-199.319	-55.727	0.197	-0.086
-198.304	-200.000	-0.069	0.453
-197.290	165.913	0.106	0.148
-196.275	326.203	-0.295	0.555
-195.260	103.309	0.201	0.232
-194.246	221.900	0.169	0.267
-193.231	800.000	0.052	0.171
-192.217	-101.241	-0.005	-0.001
-191.202	-92.713	0.203	0.056
-190.187	94.231	-0.134	-0.149
-189.173	-103.504	0.235	-0.054
-188.158	198.973	0.161	-0.242
-187.144	-128.091	0.134	-0.019
-186.129	800.000	0.103	0.403
-185.114	-76.030	-0.245	0.085
-184.100	-200.000	-0.011	-0.153
-183.085	98.489	-0.196	-0.222
-182.071	43.789	-0.353	-0.317
-181.056	-131.095	0.072	-0.009
-180.042	-60.370	0.256	-0.107
-179.027	372.476	-0.181	-0.360
-178.012	81.072	-0.180	-0.191
-176.998	46.749	0.193	0.176
-175.983	91.501	-0.128	-0.141
-174.969	185.740	0.062	-0.091
-173.954	-200.000	-0.020	-0.321
-172.939	800.000	-0.037	-0.103
-171.925	-92.737	0.251	-0.069
-170.910	26.577	-0.162	-0.133
-169.896	87.322	0.285	-0.310
-168.881	-127.043	0.179	-0.026
-167.866	-58.256	0.073	0.031
-166.852	-91.728	-0.079	0.022
-165.837	-66.482	-0.190	0.074
-164.823	-123.975	-0.068	0.010
-163.808	-1.647	-0.221	0.153
-162.793	13.091	-0.032	-0.024
-161.779	800.000	-0.127	0.481
-160.764	-24.122	-0.215	0.126
-159.750	259.630	-0.135	-0.229
-158.735	163.203	-0.041	-0.056
-157.720	113.730	0.207	0.247
-156.706	800.000	-0.070	-0.206
-155.691	-115.416	0.158	0.029
-154.677	-84.854	0.152	0.047
-153.662	-200.000	-0.004	-0.114
-152.647	69.794	-0.060	-0.061
-151.633	-13.197	0.170	0.108
-150.618	-134.200	-0.359	-0.043
-149.604	80.746	0.201	-0.213
-148.589	97.894	-0.261	0.294
-147.574	-200.000	0.084	-0.363
-146.560	-200.000	-0.003	-0.048
-145.545	-200.000	-0.044	0.248
-144.531	-200.000	0.009	0.262
-143.516	155.473	0.160	-0.216
-142.502	80.589	-0.172	0.182
-141.487	-109.793	-0.291	-0.060
-140.472	87.561	0.163	0.176
-139.458	223.813	0.256	0.405
-138.443	-112.356	-0.226	0.044
-137.429	-77.336	0.228	-0.078
-136.414	800.000	0.043	-0.181
-135.399	-103.363	-0.185	0.043
-134.385	316.962	-0.107	0.198
-133.370	-148.189	-0.265	-0.021
-132.356	800.000	-0.050	-0.158
-131.341	-165.187	0.159	0.007
-130.326	-54.193	0.173	-0.077
-129.312	-95.847	0.144	0.038
-128.297	-113.536	0.283	-0.054
-127.283	195.377	0.194	-0.289
-126.268	194.254	-0.191	-0.284
-125.253	31.377	0.157	0.132
-124.239	72.702	-0.063	-0.064
-123.224	-136.228	-0.243	0.028
-122.210	800.000	-0.075	-0.236
