DTS Sentinel unit serial number:	SN413079Multiplexer serial number:	ORYXHardware model number:	OX4-SRSoftware version number:	ORYX F/W v4.00 Oryx Data Collector v3.7.2.0data status	okinstallation	princeton_trtdifferential loss correction	single-endedforward channel	channel 3reverse channel	N/Adate	2019/09/14time	12:56:35forward acquisition time	60.00reverse acquisition time	0.00gamma	496.2192k internal	0.2294k external	0.2294temperature offset calibration	1.0070default loss term (dB/km)	0.3790temperature slope calibration	1.0000multiplexer offset coefficient	1.0000multiplexer slope coefficient	1.0000fibre end	0.00T internal ref (°C)	38.02T ext. ref 1 (°C)	4.86T ext. ref 2 (°C)	33.69length (m)	temperature (°C)	Stokes	anti-Stokes-747.200	132.434	0.160	0.210
-746.185	-200.000	0.010	-0.162
-745.171	-200.000	-0.026	-0.251
-744.156	-22.207	-0.237	0.147
-743.142	702.599	0.056	-0.151
-742.127	-184.956	0.072	-0.001
-741.112	119.231	0.089	-0.113
-740.098	419.668	0.040	0.086
-739.083	20.758	-0.272	0.225
-738.069	192.402	0.095	-0.147
-737.054	40.608	-0.089	-0.082
-736.039	-106.320	-0.430	-0.098
-735.025	402.823	-0.042	0.089
-734.010	2.076	0.360	-0.266
-732.996	24.330	-0.129	0.109
-731.981	36.044	-0.160	-0.144
-730.966	-125.291	-0.119	0.019
-729.952	42.876	0.253	-0.236
-728.937	-200.000	-0.057	-0.422
-727.923	-84.798	-0.302	0.097
-726.908	800.000	-0.094	-0.295
-725.894	95.934	0.166	0.194
-724.879	383.505	0.033	0.070
-723.864	14.121	-0.347	-0.277
-722.850	-200.000	0.003	0.013
-721.835	-32.039	-0.161	-0.092
-720.821	-44.192	0.285	0.146
-719.806	503.925	-0.118	-0.279
-718.791	-200.000	0.030	0.137
-717.777	-44.631	-0.170	-0.087
-716.762	84.005	0.169	0.188
-715.748	-200.000	0.028	-0.304
-714.733	588.966	0.080	-0.202
-713.718	-59.130	-0.272	-0.120
-712.704	-1.640	-0.228	0.164
-711.689	33.857	-0.042	0.037
-710.675	-122.356	-0.057	-0.010
-709.660	489.138	-0.103	0.240
-708.645	297.332	-0.138	-0.259
-707.631	-200.000	-0.004	-0.133
-706.616	91.740	0.074	-0.085
-705.602	-59.880	-0.456	-0.199
-704.587	89.196	-0.271	0.308
-703.572	73.435	0.121	-0.130
-702.558	167.477	-0.152	0.221
-701.543	195.830	-0.084	0.131
-700.529	-21.289	0.041	0.026
-699.514	-96.206	0.270	-0.073
-698.499	-50.416	-0.016	0.008
-697.485	-49.746	-0.288	-0.140
-696.470	101.581	0.168	-0.200
-695.456	-71.610	-0.139	-0.053
-694.441	-200.000	-0.003	-0.167
-693.426	175.442	0.148	-0.219
-692.412	-200.000	-0.005	0.084
-691.397	141.604	-0.138	0.187
-690.383	4.099	-0.063	-0.047
-689.368	4.892	-0.411	-0.309
-688.354	-34.179	-0.056	0.032
-687.339	-130.418	0.237	-0.033
-686.324	-200.000	0.015	-0.192
-685.310	-200.000	0.051	-0.327
-684.295	321.168	-0.265	0.514
-683.281	-73.091	0.096	0.036
-682.266	800.000	-0.018	-0.062
-681.251	-200.000	0.088	0.404
-680.237	-200.000	0.037	-0.424
-679.222	456.192	-0.094	-0.213
-678.208	-181.540	0.079	0.002
-677.193	661.135	-0.059	0.154
-676.178	-46.100	0.075	0.038
-675.164	800.000	0.046	-0.161
-674.149	-39.126	-0.092	0.049
-673.135	118.152	0.145	-0.183
-672.120	-131.124	0.249	-0.034
-671.105	512.730	-0.096	0.227
-670.091	-80.076	-0.289	0.099
-669.076	-8.182	0.097	-0.067
-668.062	-200.000	-0.033	-0.302
-667.047	106.513	0.198	-0.239
-666.032	342.679	-0.034	0.067
-665.018	-22.602	0.056	-0.034
-664.003	17.526	0.176	-0.143
-662.989	59.280	-0.055	0.055
-661.974	-200.000	0.027	-0.289
-660.959	5.622	-0.281	-0.212
-659.945	30.296	0.200	0.174
-658.930	382.705	-0.037	0.077
-657.916	800.000	-0.105	-0.346
-656.901	-75.258	0.189	-0.069
-655.886	17.483	0.202	-0.164
-654.872	-21.314	-0.213	-0.133
-653.857	800.000	-0.044	0.181
-652.843	154.392	-0.211	-0.295
-651.828	-167.229	0.347	-0.014
-650.814	-22.463	0.147	0.091
-649.799	800.000	0.115	-0.382
-648.784	-44.214	0.115	-0.059
-647.770	56.340	0.143	-0.142
-646.755	800.000	0.066	-0.198
-645.741	660.281	0.149	-0.392
-644.726	-135.499	-0.216	0.026
-643.711	8.248	-0.100	0.077
-642.697	36.188	-0.247	-0.222
-641.682	17.791	-0.187	0.152
-640.668	213.413	-0.247	-0.397
-639.653	-121.362	-0.237	-0.040
-638.638	-200.000	0.248	-0.001
-637.624	-84.113	0.113	0.036
-636.609	-6.018	0.229	0.159
-635.595	65.799	0.053	-0.055
-634.580	-6.429	0.174	0.121
-633.565	186.327	-0.132	0.199
-632.551	-67.368	-0.105	-0.042
-631.536	89.161	0.299	-0.339
-630.522	800.000	0.095	0.303
-629.507	-182.915	0.135	0.002
-628.492	-22.081	-0.264	-0.163
-627.478	11.180	0.164	-0.128
-626.463	-62.151	0.180	0.077
-625.449	-42.280	0.208	-0.108
-624.434	-0.136	-0.377	-0.273
-623.419	-64.280	-0.234	-0.097
-622.405	374.245	0.019	0.040
-621.390	-200.000	-0.017	-0.231
-620.376	-14.589	-0.132	0.087
-619.361	50.868	0.097	-0.094
-618.346	800.000	-0.062	-0.223
-617.332	777.147	-0.115	-0.320
-616.317	138.289	0.086	-0.115
-615.303	-61.944	-0.203	-0.086
-614.288	-75.193	-0.137	0.050
-613.273	87.662	0.066	0.075
-612.259	-200.000	-0.040	0.248
-611.244	-112.851	-0.186	0.037
-610.230	201.957	0.230	0.360
-609.215	17.706	-0.091	0.074
-608.201	53.600	0.177	0.172
-607.186	-50.891	0.230	-0.110
-606.171	118.209	0.224	0.281
-605.157	105.881	-0.077	0.092
-604.142	96.885	0.164	-0.191
-603.128	-200.000	0.002	-0.034
-602.113	587.847	-0.115	0.287
-601.098	-200.000	-0.049	0.223
-600.084	800.000	0.117	-0.475
-599.069	3.908	-0.156	-0.116
-598.055	-106.343	-0.261	-0.059
-597.040	202.068	0.140	0.219
-596.025	17.351	0.122	0.098
-595.011	800.000	0.029	0.096
-593.996	250.389	-0.004	0.008
-592.982	387.134	0.073	0.154
-591.967	117.036	0.039	0.049
-590.952	258.520	0.161	0.282
-589.938	353.328	0.060	-0.120
-588.923	125.600	-0.008	0.010
-587.909	-200.000	-0.019	-0.112
-586.894	172.034	0.043	-0.063
-585.879	-99.019	-0.310	-0.080
-584.865	200.905	0.166	-0.259
-583.850	62.791	0.110	-0.112
-582.836	-124.871	-0.204	0.032
-581.821	174.891	0.107	-0.158
-580.806	212.603	0.206	0.330
-579.792	246.011	0.114	0.195
-578.777	-64.095	0.136	0.056
-577.763	-199.172	0.186	-0.001
-576.748	800.000	-0.039	0.160
-575.733	-118.578	-0.243	-0.044
-574.719	437.840	-0.060	0.133
-573.704	800.000	0.029	-0.099
-572.690	292.314	-0.028	0.051
-571.675	-200.000	0.018	-0.388
-570.661	-60.583	0.155	-0.067
-569.646	-20.686	0.159	-0.099
-568.631	366.030	0.290	-0.595
-567.617	115.521	0.140	-0.173
-566.602	-133.370	-0.175	0.022
-565.588	-173.020	-0.256	0.008
-564.573	-200.000	-0.020	-0.116
-563.558	-90.118	-0.299	0.088
-562.544	-200.000	-0.033	0.170
-561.529	545.976	-0.048	-0.117
-560.515	-60.760	-0.087	0.037
-559.500	122.469	-0.028	0.035
-558.485	31.850	0.101	0.088
-557.471	-42.291	0.140	0.073
-556.456	-150.628	-0.242	-0.019
-555.442	157.813	0.193	-0.272
-554.427	605.236	-0.128	-0.323
-553.412	-190.004	0.302	0.003
-552.398	94.389	0.128	0.147
-551.383	-42.613	-0.254	0.131
-550.369	-113.064	-0.105	-0.021
-549.354	32.171	0.268	0.235
-548.339	-200.000	0.013	0.190
-547.325	37.294	-0.059	-0.053
-546.310	800.000	-0.038	-0.118
-545.296	205.111	-0.100	0.158
-544.281	90.141	-0.100	0.113
-543.266	-200.000	-0.058	0.281
-542.252	70.359	-0.126	0.132
-541.237	92.565	-0.077	0.089
-540.223	800.000	0.114	-0.343
-539.208	-134.724	0.167	-0.021
-538.193	13.651	0.251	-0.198
-537.179	-84.302	0.240	0.077
-536.164	-107.067	0.133	-0.030
-535.150	123.650	0.071	0.090
-534.135	99.728	0.165	0.193
-533.121	-56.694	-0.076	0.034
-532.106	26.391	-0.183	-0.155
-531.091	141.693	-0.118	0.158
-530.077	-63.232	0.124	-0.052
-529.062	279.242	-0.078	-0.142
-528.048	-82.937	-0.147	-0.048
-527.033	98.266	-0.131	-0.153
-526.018	346.517	0.117	0.234
-525.004	185.726	-0.104	-0.157
-523.989	-200.000	0.031	-0.163
-522.975	181.486	-0.119	-0.177
-521.960	291.135	-0.019	-0.035
-520.945	-53.648	-0.224	-0.104
-519.931	-126.997	0.134	0.020
-518.916	-200.000	0.017	0.204
-517.902	16.318	0.109	0.087
-516.887	-129.154	-0.287	0.041
-515.872	-11.999	0.196	-0.130
-514.858	701.369	0.101	0.269
-513.843	-41.842	0.271	0.141
-512.829	13.438	0.369	-0.290
-511.814	442.140	0.046	0.102
-510.799	-200.000	0.014	-0.124
-509.785	-200.000	0.010	-0.046
-508.770	389.309	-0.065	0.137
-507.756	-100.323	-0.108	0.027
-506.741	683.136	-0.037	-0.097
-505.726	616.550	-0.123	0.314
-504.712	190.541	-0.041	-0.063
-503.697	93.371	-0.094	-0.108
-502.683	256.756	0.042	0.073
-501.668	-80.349	-0.398	0.135
-500.653	-200.000	-0.067	-0.332
-499.639	-70.467	-0.269	-0.103
-498.624	-108.041	-0.141	0.031
-497.610	-157.329	0.060	0.004
-496.595	40.030	-0.254	-0.231
-495.581	126.803	-0.134	-0.172
-494.566	800.000	-0.007	0.030
-493.551	35.967	-0.140	0.125
-492.537	-62.702	-0.392	-0.164
-491.522	-46.870	0.084	0.042
-490.508	-143.618	0.382	0.037
-489.493	33.976	0.173	-0.152
-488.478	-163.916	-0.191	-0.009
-487.464	-200.000	-0.025	0.131
-486.449	-179.253	-0.348	-0.008
-485.435	-52.349	-0.486	0.228
-484.420	-118.172	0.100	0.018
-483.405	-200.000	0.009	-0.226
-482.391	-168.034	0.161	-0.006
-481.376	27.530	0.278	0.237
-480.362	800.000	-0.040	0.167
-479.347	800.000	-0.056	-0.193
-478.332	-200.000	-0.011	0.066
-477.318	129.581	-0.065	-0.084
-476.303	-32.981	0.480	-0.270
-475.289	800.000	-0.078	-0.312
-474.274	313.444	-0.083	-0.159
-473.259	-200.000	0.057	-0.273
-472.245	145.096	0.157	-0.212
-471.230	-25.332	0.342	0.205
-470.216	-200.000	0.045	0.271
-469.201	800.000	-0.045	0.168
-468.186	800.000	-0.017	0.064
-467.172	-54.600	-0.317	-0.145
-466.157	-57.233	-0.041	0.018
-465.143	-19.391	-0.047	0.030
-464.128	-200.000	0.013	0.124
-463.113	-15.238	0.063	0.041
-462.099	180.633	0.077	-0.114
-461.084	800.000	0.078	0.337
-460.070	632.391	-0.236	-0.604
-459.055	-200.000	0.025	-0.124
-458.040	800.000	0.035	0.144
-457.026	34.071	0.064	-0.057
-456.011	202.806	0.057	-0.088
-454.997	800.000	-0.076	-0.277
-453.982	506.455	0.147	0.345
-452.968	2.131	-0.094	-0.069
-451.953	800.000	-0.092	-0.285
-450.938	-25.190	-0.217	-0.130
-449.924	106.229	-0.289	-0.346
-448.909	-200.000	0.009	0.117
-447.895	695.746	-0.105	0.278
-446.880	-175.188	-0.246	-0.007
-445.865	-25.071	0.335	0.201
-444.851	132.554	-0.224	0.292
-443.836	-102.507	0.193	0.047
-442.822	695.758	-0.064	0.169
-441.807	800.000	-0.088	-0.316
-440.792	-1.806	0.175	0.125
-439.778	800.000	0.089	0.262
-438.763	-200.000	0.015	0.110
-437.749	348.218	0.051	0.102
-436.734	-103.401	0.389	-0.093
-435.719	-46.582	-0.202	0.100
-434.705	-54.201	0.237	0.109
-433.690	-93.852	-0.272	-0.076
-432.676	114.541	0.085	0.104
-431.661	-143.730	-0.349	0.033
-430.646	-200.000	-0.038	-0.190
-429.632	-119.881	0.154	-0.027
-428.617	-200.000	0.063	0.437
-427.603	-112.269	-0.249	-0.050
-426.588	500.353	0.040	0.092
-425.573	573.453	-0.065	-0.161
-424.559	-174.114	-0.194	0.006
-423.544	255.657	-0.103	0.178
-422.530	-130.456	-0.233	-0.032
-421.515	335.615	0.093	-0.182
-420.500	156.779	0.219	0.306
-419.486	58.923	-0.180	0.179
-418.471	-113.619	-0.164	0.032
-417.457	-68.551	0.130	-0.051
-416.442	-160.505	-0.059	-0.003
-415.428	-200.000	0.002	-0.126
-414.413	-65.726	0.042	-0.017
-413.398	-167.451	-0.128	-0.005
-412.384	42.645	0.086	0.079
-411.369	-20.105	-0.215	0.134
-410.355	-126.549	0.132	-0.020
-409.340	38.522	-0.236	-0.212
-408.325	83.205	0.160	0.176
-407.311	221.895	-0.231	0.375
-406.296	-29.396	-0.040	-0.023
-405.282	595.231	0.076	0.191
-404.267	240.977	0.251	0.422
-403.252	800.000	0.067	0.232
-402.238	-29.265	-0.258	0.149
-401.223	416.614	0.087	0.188
-400.209	4.937	-0.119	-0.088
-399.194	-31.978	-0.204	0.115
-398.179	-114.901	-0.095	0.018
-397.165	-55.450	0.272	0.123
-396.150	800.000	-0.134	-0.471
-395.136	800.000	-0.098	0.402
-394.121	-139.658	-0.311	0.033
-393.106	-73.883	-0.271	-0.099
-392.092	-200.000	0.033	0.365
-391.077	-63.744	-0.064	0.026
-390.063	-13.694	-0.213	-0.139
-389.048	-200.000	-0.044	-0.289
-388.033	51.893	0.132	-0.127
-387.019	122.744	-0.107	0.135
-386.004	800.000	-0.123	0.349
-384.990	153.914	0.119	-0.165
-383.975	800.000	0.080	-0.255
-382.960	34.242	0.127	-0.112
-381.946	-132.768	-0.056	-0.007
-380.931	299.568	0.149	0.276
-379.917	-48.539	-0.258	0.125
-378.902	330.193	-0.185	-0.359
-377.888	49.542	0.133	-0.126
-376.873	-101.054	0.366	-0.091
-375.858	800.000	0.130	-0.379
-374.844	800.000	-0.014	0.059
-373.829	187.880	0.007	-0.010
-372.815	98.449	-0.187	0.218
-371.800	-33.648	0.163	-0.091
-370.785	387.733	0.264	0.550
-369.771	800.000	-0.082	0.341
-368.756	164.195	0.076	0.108
-367.742	344.405	-0.012	0.024
-366.727	-35.993	-0.226	-0.123
-365.712	-11.932	-0.345	-0.228
-364.698	104.619	-0.079	0.094
-363.683	62.388	-0.333	-0.335
-362.669	800.000	-0.130	-0.427
-361.654	-100.566	0.203	-0.050
-360.639	188.425	-0.041	-0.061
-359.625	539.335	0.051	-0.123
-358.610	-164.157	0.338	0.016
-357.596	-22.863	-0.314	-0.191
-356.581	-162.965	0.495	0.024
-355.566	-28.872	0.103	0.060
-354.552	161.717	-0.197	0.278
-353.537	-1.971	0.170	0.120
-352.523	-200.000	0.009	0.109
-351.508	28.769	0.120	0.103
-350.493	118.004	-0.150	-0.186
-349.479	-116.095	0.462	0.087
-348.464	32.367	0.063	0.055
-347.450	51.179	-0.105	0.101
-346.435	131.522	0.116	0.150
-345.420	800.000	0.032	0.118
-344.406	53.476	0.137	-0.132
-343.391	-200.000	0.003	-0.100
-342.377	9.774	0.264	0.202
-341.362	-103.240	0.299	0.071
-340.348	-200.000	-0.023	-0.214
-339.333	-166.167	-0.345	-0.015
-338.318	42.016	-0.106	0.096
-337.304	136.191	-0.189	-0.248
-336.289	-145.219	0.311	0.028
-335.275	-170.769	-0.105	0.004
-334.260	-200.000	-0.334	-0.001
-333.245	7.083	0.238	0.179
-332.231	-73.768	-0.151	0.055
-331.216	-87.354	-0.487	0.149
-330.202	9.849	0.255	-0.195
-329.187	-30.084	-0.183	0.105
-328.172	-135.672	0.252	-0.030
-327.158	-3.371	-0.257	0.180
-326.143	-200.000	0.003	0.340
-325.129	-200.000	0.047	0.499
-324.114	13.488	-0.197	-0.154
-323.099	-81.945	0.398	0.131
-322.085	144.172	-0.164	0.220
-321.070	-200.000	-0.010	-0.297
-320.056	-116.373	0.379	-0.071
-319.041	800.000	-0.052	0.201
-318.026	800.000	0.059	-0.163
-317.012	-157.058	-0.182	-0.011
-315.997	-80.235	0.293	0.098
-314.983	-61.475	-0.273	-0.115
-313.968	-26.377	0.057	0.034
-312.953	-127.600	-0.247	-0.036
-311.939	224.214	0.022	-0.035
-310.924	800.000	0.055	0.222
-309.910	124.396	-0.117	0.148
-308.895	682.438	-0.033	0.086
-307.880	38.334	-0.107	0.096
-306.866	-200.000	0.083	-0.000
-305.851	-42.295	-0.116	-0.059
-304.837	-99.259	0.141	0.036
-303.822	-200.000	0.024	-0.142
-302.807	63.800	-0.338	-0.342
-301.793	-200.000	-0.055	-0.257
-300.778	-200.000	-0.002	0.175
-299.764	-35.945	0.056	0.030
-298.749	-200.000	0.036	0.181
-297.735	-6.479	-0.119	0.081
-296.720	278.953	-0.084	-0.150
-295.705	108.656	-0.013	-0.015
-294.691	-200.000	0.026	-0.372
-293.676	-200.000	0.000	-0.302
-292.662	-10.409	-0.040	-0.027
-291.647	-79.601	-0.111	0.038
-290.632	69.625	-0.261	-0.271
-289.618	-15.354	-0.177	-0.113
-288.603	70.831	-0.100	0.104
-287.589	-40.814	0.180	0.094
-286.574	197.599	0.094	-0.145
-285.559	24.771	0.142	0.118
-284.545	800.000	0.158	-0.447
-283.530	800.000	0.039	-0.118
-282.516	154.492	0.154	0.212
-281.501	-93.001	0.164	0.046
-280.486	-200.000	-0.001	0.160
-279.472	800.000	-0.089	-0.319
-278.457	374.242	-0.128	-0.263
-277.443	-81.151	-0.039	0.013
-276.428	800.000	0.083	-0.356
-275.413	94.381	-0.153	-0.175
-274.399	-200.000	-0.009	-0.296
-273.384	252.946	0.034	-0.058
-272.370	-167.955	0.097	0.004
-271.355	77.922	-0.231	0.247
-270.340	47.007	0.175	0.164
-269.326	316.982	0.072	-0.137
-268.311	87.167	-0.011	0.013
-267.297	0.296	-0.230	-0.165
-266.282	137.430	0.170	0.224
-265.267	-200.000	0.089	-0.462
-264.253	-44.009	-0.251	0.127
-263.238	72.046	-0.206	-0.216
-262.224	-200.000	0.031	-0.188
-261.209	-48.777	0.263	0.127
-260.195	-157.040	0.202	-0.012
-259.180	432.035	0.093	-0.202
-258.165	-200.000	0.010	-0.071
-257.151	-200.000	0.046	0.310
-256.136	501.536	0.117	-0.272
-255.122	-5.069	-0.035	-0.024
-254.107	800.000	0.090	0.341
-253.092	-200.000	-0.005	0.077
-252.078	-200.000	-0.095	-0.536
-251.063	-200.000	0.021	-0.208
-250.049	800.000	0.058	-0.173
-249.034	-200.000	0.035	-0.225
-248.019	106.984	0.046	0.055
-247.005	-128.814	-0.220	-0.031
-245.990	-117.777	0.136	0.025
-244.976	-200.000	-0.021	0.403
-243.961	-21.053	-0.199	0.122
-242.946	313.082	0.114	0.215
-241.932	-200.000	-0.057	-0.290
-240.917	800.000	-0.055	0.188
-239.903	-200.000	-0.022	0.301
-238.888	-177.953	0.175	0.004
-237.873	-30.866	0.196	0.111
-236.859	-200.000	0.024	-0.233
-235.844	37.020	0.070	0.062
-234.830	30.144	-0.149	-0.127
-233.815	-67.132	0.306	0.121
-232.800	454.744	-0.076	0.169
-231.786	374.536	-0.038	-0.079
-230.771	-200.000	0.002	-0.177
-229.757	213.876	0.207	0.328
-228.742	-136.823	0.157	-0.018
-227.727	-9.532	-0.215	-0.144
-226.713	95.225	0.037	0.043
-225.698	-91.899	0.085	0.024
-224.684	-139.736	0.081	0.009
-223.669	-200.000	0.013	-0.261
-222.655	800.000	-0.028	-0.091
-221.640	238.285	0.271	-0.451
-220.625	93.880	-0.194	-0.221
-219.611	-87.959	0.116	-0.035
-218.596	334.496	-0.100	-0.195
-217.582	-200.000	-0.022	0.139
-216.567	-50.653	0.532	0.251
-215.552	144.069	-0.046	0.061
-214.538	-67.983	-0.040	0.016
-213.523	304.765	-0.087	-0.162
-212.509	800.000	-0.054	0.209
-211.494	-200.000	-0.004	-0.131
-210.479	800.000	0.088	0.263
-209.465	106.699	0.045	0.053
-208.450	-167.702	-0.322	0.013
-207.436	-152.892	-0.076	-0.005
-206.421	800.000	0.138	-0.394
-205.406	138.477	0.123	-0.162
-204.392	265.521	0.042	0.074
-203.377	3.601	0.138	-0.101
-202.363	-97.080	0.148	-0.039
-201.348	-144.238	0.172	0.016
-200.333	393.614	-0.161	0.336
-199.319	-53.491	0.194	-0.089
-198.304	298.647	0.080	0.148
-197.290	-65.719	-0.046	0.018
-196.275	-200.000	-0.022	0.244
-195.260	-125.711	0.325	0.049
-194.246	7.026	-0.184	0.137
-193.231	800.000	0.028	0.092
-192.217	414.010	0.118	-0.252
-191.202	422.729	0.023	0.049
-190.187	1.765	0.097	0.070
-189.173	-166.710	-0.317	0.013
-188.158	766.550	-0.054	0.147
-187.144	-200.000	0.000	0.371
-186.129	25.879	0.030	-0.025
-185.114	-191.483	0.289	0.003
-184.100	800.000	-0.054	0.195
-183.085	70.207	0.181	0.188
-182.071	-200.000	0.001	-0.053
-181.056	-200.000	-0.023	0.365
-180.042	56.387	-0.083	0.081
-179.027	-200.000	0.054	0.301
-178.012	-188.500	0.335	0.004
-176.998	92.191	0.156	-0.176
-175.983	-189.090	0.196	-0.002
-174.969	-111.646	-0.150	0.030
-173.954	800.000	-0.013	-0.048
-172.939	-134.338	-0.232	-0.029
-171.925	-22.424	-0.164	-0.099
-170.910	-200.000	0.003	-0.201
-169.896	42.704	-0.078	-0.071
-168.881	-200.000	0.015	0.113
-167.866	-200.000	-0.004	0.069
-166.852	-180.274	0.174	0.004
-165.837	-200.000	-0.068	0.373
-164.823	-200.000	0.036	-0.213
-163.808	7.548	0.032	-0.024
-162.793	-24.664	0.263	0.157
-161.779	800.000	0.071	0.244
-160.764	-86.383	-0.301	-0.093
-159.750	-70.363	0.207	0.079
-158.735	720.186	-0.149	0.397
-157.720	99.239	-0.041	-0.048
-156.706	-18.085	-0.199	-0.124
-155.691	-80.545	0.363	0.121
-154.677	715.721	-0.079	0.210
-153.662	-49.251	-0.141	-0.067
-152.647	92.161	-0.235	0.265
-151.633	-126.180	0.156	0.023
-150.618	800.000	0.069	0.219
-149.604	320.494	-0.058	0.111
-148.589	-169.821	-0.220	-0.008
-147.574	182.446	0.121	-0.178
-146.560	35.569	-0.225	-0.197
-145.545	86.541	0.139	0.154
-144.531	-140.370	0.075	0.008
-143.516	-66.989	-0.107	-0.042
-142.502	204.157	-0.139	0.215
-141.487	800.000	0.074	-0.290
-140.472	61.228	0.061	0.060
-139.458	-7.355	-0.302	0.205
-138.443	-132.407	-0.160	0.021
-137.429	800.000	-0.049	-0.200
-136.414	-23.212	-0.128	0.077
-135.399	-90.379	-0.558	0.162
-134.385	69.771	0.140	0.144
-133.370	94.115	0.162	-0.184
-132.356	-60.049	0.180	0.077
-131.341	-4.675	-0.104	0.072
-130.326	595.627	-0.085	-0.210
-129.312	163.727	0.084	-0.118
-128.297	434.840	0.149	0.323
-127.283	-43.245	0.138	0.070
-126.268	-47.807	0.011	0.005
-125.253	54.006	0.287	-0.275
-124.239	-200.000	0.059	0.295
-123.224	432.627	-0.089	0.192
-122.210	69.902	0.130	0.133
-121.195	185.881	0.062	-0.092
-120.180	-49.047	-0.255	-0.122
