DTS Sentinel unit serial number:	SN413079Multiplexer serial number:	ORYXHardware model number:	OX4-SRSoftware version number:	ORYX F/W v4.00 Oryx Data Collector v3.7.2.0data status	okinstallation	princeton_trtdifferential loss correction	single-endedforward channel	channel 3reverse channel	N/Adate	2019/09/16time	00:08:35forward acquisition time	60.00reverse acquisition time	0.00gamma	496.2192k internal	0.2337k external	0.2337temperature offset calibration	0.9950default loss term (dB/km)	0.3790temperature slope calibration	1.0000multiplexer offset coefficient	1.0000multiplexer slope coefficient	1.0000fibre end	0.00T internal ref (°C)	27.78T ext. ref 1 (°C)	9.43T ext. ref 2 (°C)	21.70length (m)	temperature (°C)	Stokes	anti-Stokes-747.200	712.843	-0.101	-0.268
-746.185	8.321	-0.218	0.164
-745.171	-200.000	0.016	0.130
-744.156	-2.837	0.285	0.200
-743.142	-200.000	0.028	0.182
-742.127	-200.000	-0.014	-0.087
-741.112	-63.397	0.321	-0.133
-740.098	266.636	-0.059	-0.104
-739.083	-200.000	0.005	-0.106
-738.069	-98.085	-0.134	0.035
-737.054	206.624	0.041	-0.064
-736.039	126.324	0.172	-0.218
-735.025	256.264	0.158	-0.271
-734.010	0.709	0.155	-0.111
-732.996	-34.650	0.132	0.073
-731.981	-23.568	-0.127	0.077
-730.966	76.558	0.134	0.143
-729.952	-136.417	0.122	-0.014
-728.937	-27.634	0.207	0.121
-727.923	-193.319	-0.168	0.001
-726.908	-200.000	0.008	0.307
-725.894	52.139	-0.209	0.199
-724.879	-46.719	-0.155	0.076
-723.864	-81.176	0.356	0.118
-722.850	267.854	0.103	0.181
-721.835	-122.542	0.179	0.029
-720.821	12.270	0.174	0.135
-719.806	-200.000	-0.050	0.473
-718.791	-31.580	-0.169	-0.095
-717.777	674.701	-0.100	-0.261
-716.762	297.821	0.136	-0.250
-715.748	800.000	-0.034	-0.144
-714.733	256.790	0.174	-0.299
-713.718	84.330	-0.064	-0.070
-712.704	645.241	-0.123	0.315
-711.689	-28.001	0.071	-0.041
-710.675	800.000	0.103	0.412
-709.660	411.897	0.097	0.206
-708.645	800.000	0.086	-0.284
-707.631	-134.228	0.249	0.031
-706.616	-124.282	0.236	-0.037
-705.602	163.669	-0.082	-0.115
-704.587	273.045	0.137	0.243
-703.572	93.058	-0.125	-0.141
-702.558	-33.931	0.168	0.093
-701.543	-13.395	-0.141	0.092
-700.529	87.791	0.248	0.276
-699.514	-61.708	0.177	0.074
-698.499	-45.428	-0.196	0.097
-697.485	-200.000	-0.035	-0.213
-696.470	-55.893	-0.245	-0.110
-695.456	53.007	-0.107	0.103
-694.441	800.000	-0.069	0.237
-693.426	132.981	-0.131	-0.170
-692.412	338.402	0.041	-0.080
-691.397	-200.000	-0.023	-0.356
-690.383	-69.699	0.215	0.082
-689.368	70.844	-0.057	0.059
-688.354	-111.026	-0.389	0.080
-687.339	-200.000	-0.033	-0.179
-686.324	425.483	0.194	-0.418
-685.310	800.000	0.053	0.193
-684.295	72.065	0.027	0.028
-683.281	-73.238	-0.164	0.060
-682.266	-102.918	-0.220	-0.052
-681.251	32.013	-0.164	-0.142
-680.237	-42.322	-0.178	-0.091
-679.222	-42.002	-0.147	0.076
-678.208	-124.531	-0.132	-0.021
-677.193	10.495	-0.104	0.080
-676.178	281.071	0.135	-0.242
-675.164	173.124	0.130	-0.188
-674.149	-35.866	-0.235	0.127
-673.135	-121.355	-0.232	0.039
-672.120	196.517	-0.114	-0.174
-671.105	-41.131	-0.232	0.120
-670.091	-163.535	0.136	-0.006
-669.076	-87.678	0.064	0.019
-668.062	-200.000	0.039	-0.179
-667.047	293.470	-0.100	0.184
-666.032	-148.184	-0.119	0.010
-665.018	650.108	0.091	-0.234
-664.003	-58.514	0.148	0.064
-662.989	-200.000	0.036	-0.247
-661.974	-70.938	-0.296	-0.112
-660.959	652.255	0.038	-0.097
-659.945	-11.602	-0.184	-0.121
-658.930	-200.000	-0.023	-0.256
-657.916	181.063	-0.172	-0.252
-656.901	-15.076	-0.190	-0.122
-655.886	-157.097	-0.196	-0.012
-654.872	73.574	-0.153	0.161
-653.857	800.000	-0.028	-0.119
-652.843	109.995	-0.078	-0.094
-651.828	304.930	-0.060	0.111
-650.814	800.000	0.127	0.434
-649.799	56.541	-0.376	-0.366
-648.784	-122.605	0.179	-0.029
-647.770	-200.000	-0.052	-0.252
-646.755	116.436	-0.179	-0.219
-645.741	111.343	-0.148	-0.178
-644.726	168.769	-0.057	-0.082
-643.711	207.152	0.079	0.122
-642.697	-52.171	-0.221	0.103
-641.682	7.380	-0.236	-0.177
-640.668	6.493	-0.122	-0.091
-639.653	-160.162	0.065	-0.004
-638.638	45.392	-0.193	0.178
-637.624	-38.530	-0.250	0.132
-636.609	-98.593	-0.414	0.106
-635.595	800.000	0.081	-0.269
-634.580	-176.754	0.263	-0.007
-633.565	-74.443	0.242	0.087
-632.551	-200.000	0.047	0.272
-631.536	573.633	-0.035	-0.084
-630.522	-177.887	-0.142	0.003
-629.507	-200.000	-0.041	-0.308
-628.492	-200.000	-0.046	-0.255
-627.478	-133.131	-0.171	0.022
-626.463	217.171	-0.064	-0.101
-625.449	800.000	-0.093	0.283
-624.434	-200.000	-0.222	-0.000
-623.419	-27.154	-0.304	-0.177
-622.405	6.306	-0.057	0.042
-621.390	800.000	0.054	-0.149
-620.376	-179.209	0.147	-0.003
-619.361	42.457	0.133	-0.121
-618.346	-31.495	0.177	0.099
-617.332	800.000	-0.072	0.227
-616.317	63.152	-0.094	-0.094
-615.303	68.661	0.077	-0.079
-614.288	-200.000	-0.009	-0.117
-613.273	226.589	0.084	-0.136
-612.259	72.285	0.094	-0.098
-611.244	130.682	-0.044	-0.056
-610.230	239.494	0.145	0.242
-609.215	-187.760	-0.494	-0.006
-608.201	479.948	0.079	-0.179
-607.186	264.085	-0.054	-0.094
-606.171	-90.469	0.374	-0.108
-605.157	-200.000	0.010	-0.128
-604.142	-173.900	-0.172	-0.005
-603.128	591.703	-0.122	-0.301
-602.113	-154.113	0.123	-0.008
-601.098	800.000	-0.104	-0.416
-600.084	156.364	-0.128	0.176
-599.069	-200.000	0.056	0.536
-598.055	-36.789	-0.444	-0.238
-597.040	-23.972	-0.262	0.157
-596.025	-30.286	0.172	0.097
-595.011	-200.000	0.206	0.001
-593.996	-126.442	-0.123	-0.018
-592.982	0.349	0.115	0.082
-591.967	0.549	-0.184	0.131
-590.952	-200.000	0.050	0.232
-589.938	609.979	-0.113	0.281
-588.923	553.439	0.148	-0.356
-587.909	302.103	0.154	-0.284
-586.894	-200.000	0.061	-0.289
-585.879	66.893	0.174	-0.176
-584.865	-200.000	0.209	0.000
-583.850	-120.213	0.066	-0.011
-582.836	-88.087	0.195	-0.058
-581.821	-200.000	-0.020	-0.127
-580.806	159.985	0.308	-0.428
-579.792	114.066	0.211	-0.256
-578.777	-133.171	-0.021	-0.003
-577.763	-200.000	-0.015	-0.072
-576.748	61.309	0.156	0.154
-575.733	138.029	0.145	-0.189
-574.719	-200.000	0.009	0.335
-573.704	-92.837	-0.247	0.069
-572.690	68.032	0.122	0.124
-571.675	-81.855	-0.121	0.039
-570.661	42.376	0.119	-0.108
-569.646	-60.111	-0.247	0.105
-568.631	800.000	-0.045	0.145
-567.617	-15.677	0.066	0.042
-566.602	129.964	-0.051	0.065
-565.588	142.604	0.234	-0.310
-564.573	800.000	-0.050	-0.196
-563.558	344.151	0.131	-0.256
-562.544	-15.686	-0.177	-0.112
-561.529	800.000	0.206	-0.573
-560.515	58.074	0.071	0.069
-559.500	132.789	0.168	0.216
-558.485	547.169	-0.047	0.113
-557.471	17.774	0.268	-0.213
-556.456	-86.944	0.123	-0.037
-555.442	166.870	-0.025	-0.035
-554.427	-200.000	-0.000	0.355
-553.412	800.000	0.090	-0.348
-552.398	108.228	0.134	0.160
-551.383	-83.313	0.216	-0.069
-550.369	-200.000	-0.025	0.177
-549.354	321.728	-0.110	0.208
-548.339	241.400	-0.154	0.257
-547.325	56.870	0.072	-0.070
-546.310	37.979	0.167	0.148
-545.296	7.971	-0.440	0.329
-544.281	-200.000	-0.040	-0.197
-543.266	800.000	0.040	-0.145
-542.252	800.000	-0.035	0.125
-541.237	-137.253	0.253	0.029
-540.223	322.524	-0.055	0.104
-539.208	24.518	-0.210	-0.173
-538.193	-200.000	0.036	-0.236
-537.179	680.245	-0.020	0.052
-536.164	-80.787	0.142	0.047
-535.150	-200.000	0.036	-0.227
-534.135	367.545	-0.025	0.051
-533.121	-63.766	-0.195	0.079
-532.106	-3.946	-0.266	-0.183
-531.091	215.151	0.127	-0.200
-530.077	757.178	-0.110	-0.297
-529.062	-91.412	-0.026	0.007
-528.048	800.000	-0.077	-0.295
-527.033	7.222	-0.191	0.142
-526.018	-200.000	0.060	0.344
-525.004	-200.000	0.024	0.137
-523.989	156.986	0.169	0.233
-522.975	-15.434	-0.058	-0.037
-521.960	-117.224	0.247	0.045
-520.945	-13.975	-0.167	-0.108
-519.931	129.851	-0.075	-0.095
-518.916	-38.016	-0.148	-0.078
-517.902	249.685	0.178	0.301
-516.887	674.707	-0.169	0.437
-515.872	287.493	0.149	-0.268
-514.858	-200.000	0.013	-0.267
-513.843	57.199	0.098	0.095
-512.829	-13.664	-0.054	-0.035
-511.814	25.062	0.256	-0.212
-510.799	800.000	-0.027	-0.087
-509.785	800.000	-0.020	-0.085
-508.770	-91.594	-0.420	0.119
-507.756	171.696	0.161	0.230
-506.741	-57.730	0.252	0.110
-505.726	-73.687	0.377	-0.136
-504.712	170.531	-0.119	-0.169
-503.697	679.047	0.107	-0.277
-502.683	5.451	-0.117	-0.086
-501.668	149.737	-0.233	-0.314
-500.653	4.580	0.209	0.153
-499.639	-69.862	0.057	-0.022
-498.624	-200.000	-0.038	0.398
-497.610	-158.274	-0.168	-0.010
-496.595	317.324	-0.120	-0.226
-495.581	588.519	-0.017	0.041
-494.566	-200.000	0.014	0.106
-493.551	624.816	-0.131	0.328
-492.537	-108.176	0.094	0.020
-491.522	-200.000	-0.014	0.224
-490.508	-60.708	0.166	0.070
-489.493	-134.804	-0.427	-0.051
-488.478	800.000	-0.050	0.186
-487.464	-135.986	0.229	-0.027
-486.449	-46.236	-0.177	-0.086
-485.435	800.000	0.095	0.289
-484.420	-200.000	0.089	0.389
-483.405	-200.000	0.015	0.141
-482.391	-88.349	0.037	-0.011
-481.376	-200.000	-0.040	0.277
-480.362	-18.157	0.033	-0.020
-479.347	-97.792	0.227	-0.058
-478.332	-134.259	-0.040	-0.005
-477.318	-85.047	-0.165	-0.051
-476.303	382.536	-0.200	0.408
-475.289	-42.156	0.294	-0.149
-474.274	-103.693	-0.395	0.092
-473.259	399.234	0.037	0.077
-472.245	18.455	0.087	-0.069
-471.230	-40.960	-0.351	-0.180
-470.216	-28.125	-0.097	-0.056
-469.201	51.177	-0.141	0.133
-468.186	-44.204	-0.029	0.014
-467.172	-200.000	-0.027	-0.151
-466.157	-46.024	0.365	0.179
-465.143	-197.336	-0.461	0.003
-464.128	-57.220	-0.107	0.047
-463.113	121.002	-0.265	0.327
-462.099	-22.899	0.072	0.043
-461.084	378.648	0.066	-0.134
-460.070	-65.686	-0.118	0.047
-459.055	800.000	0.060	0.213
-458.040	-56.972	-0.391	-0.172
-457.026	50.774	0.125	0.117
-456.011	-200.000	0.045	0.262
-454.997	-83.323	0.168	0.054
-453.982	549.479	0.173	0.411
-452.968	315.496	-0.110	0.206
-451.953	-60.553	0.315	0.133
-450.938	97.586	0.109	-0.124
-449.924	-37.196	0.150	0.080
-448.909	245.850	0.033	-0.055
-447.895	468.863	-0.069	0.154
-446.880	-50.367	0.130	0.061
-445.865	-73.340	-0.185	0.067
-444.851	-25.684	0.051	0.030
-443.836	173.032	0.128	0.183
-442.822	562.747	0.046	0.111
-441.807	52.731	0.208	0.197
-440.792	-76.050	0.251	0.088
-439.778	-60.657	-0.181	-0.076
-438.763	534.735	-0.072	-0.170
-437.749	-141.922	-0.108	-0.011
-436.734	-200.000	-0.040	0.191
-435.719	800.000	0.049	-0.212
-434.705	800.000	-0.156	0.459
-433.690	-200.000	0.016	-0.104
-432.676	73.405	-0.094	0.098
-431.661	800.000	0.123	-0.381
-430.646	291.553	-0.257	-0.465
-429.632	-200.000	-0.036	0.230
-428.617	78.282	0.070	0.074
-427.603	800.000	0.088	0.280
-426.588	219.615	0.178	-0.283
-425.573	-127.901	0.085	-0.012
-424.559	134.104	0.042	-0.054
-423.544	136.202	0.119	0.153
-422.530	218.121	-0.083	-0.131
-421.515	800.000	0.029	-0.124
-420.500	120.729	0.103	-0.127
-419.486	75.873	0.224	0.235
-418.471	12.613	0.163	0.124
-417.457	215.020	-0.055	-0.087
-416.442	-200.000	-0.020	0.108
-415.428	-200.000	-0.003	-0.190
-414.413	5.617	-0.104	-0.076
-413.398	-141.947	0.210	-0.021
-412.384	-72.513	-0.227	-0.083
-411.369	800.000	0.124	0.467
-410.355	-103.233	0.115	-0.027
-409.340	420.925	-0.123	-0.262
-408.325	172.328	-0.097	0.138
-407.311	800.000	0.037	-0.128
-406.296	143.858	-0.228	-0.301
-405.282	199.882	-0.142	0.216
-404.267	607.664	-0.130	0.320
-403.252	-169.398	-0.147	0.005
-402.238	17.932	-0.214	-0.169
-401.223	800.000	-0.103	-0.338
-400.209	136.070	-0.027	-0.035
-399.194	-173.310	0.098	0.003
-398.179	-60.448	0.196	-0.082
-397.165	800.000	0.086	-0.318
-396.150	-20.685	-0.129	-0.078
-395.136	140.059	0.180	-0.235
-394.121	222.234	-0.215	-0.343
-393.106	-130.470	0.116	-0.016
-392.092	-123.607	0.356	0.056
-391.077	380.209	-0.014	-0.029
-390.063	5.508	0.054	0.039
-389.048	-77.705	0.110	0.038
-388.033	-83.842	-0.221	0.070
-387.019	-173.048	0.288	-0.009
-386.004	-105.134	0.310	-0.070
-384.990	33.365	0.318	-0.273
-383.975	-178.972	-0.149	0.003
-382.960	-155.425	0.385	-0.025
-381.946	800.000	-0.045	0.191
-380.931	-152.658	0.362	-0.026
-379.917	128.609	-0.124	-0.157
-378.902	-200.000	0.004	0.068
-377.888	37.263	-0.073	-0.064
-376.873	-106.016	-0.239	-0.053
-375.858	800.000	0.045	0.167
-374.844	-20.594	-0.076	0.046
-373.829	-186.239	-0.397	0.006
-372.815	27.621	0.108	-0.090
-371.800	51.392	0.175	-0.164
-370.785	-27.501	-0.272	0.157
-369.771	30.744	0.285	0.242
-368.756	800.000	-0.053	0.156
-367.742	-72.526	-0.388	-0.142
-366.727	800.000	-0.069	-0.259
-365.712	-9.137	0.243	-0.161
-364.698	83.796	0.177	0.191
-363.683	443.753	-0.108	0.234
-362.669	-13.144	-0.240	0.154
-361.654	411.447	-0.082	-0.173
-360.639	-200.000	0.046	-0.000
-359.625	-72.355	0.229	0.084
-358.610	493.724	-0.018	-0.041
-357.596	366.773	-0.158	0.316
-356.581	-126.676	-0.223	-0.033
-355.566	25.646	-0.201	-0.166
-354.552	-31.864	-0.202	0.112
-353.537	-200.000	0.035	-0.190
-352.523	-44.233	-0.256	0.127
-351.508	272.540	-0.212	0.371
-350.493	-21.486	0.222	0.134
-349.479	800.000	-0.147	-0.494
-348.464	-142.683	-0.232	-0.022
-347.450	-134.921	-0.189	-0.023
-346.435	-87.136	-0.109	0.033
-345.420	-66.408	-0.154	0.060
-344.406	87.165	-0.062	0.067
-343.391	-73.872	-0.159	-0.057
-342.377	10.234	0.122	0.091
-341.362	7.970	0.094	0.069
-340.348	163.697	-0.126	-0.175
-339.333	241.519	0.092	0.152
-338.318	-23.152	0.239	0.142
-337.304	792.286	0.009	0.025
-336.289	-200.000	0.023	0.480
-335.275	-79.359	-0.109	-0.036
-334.260	-81.742	-0.346	0.112
-333.245	-170.875	0.213	0.007
-332.231	-200.000	-0.019	-0.082
-331.216	-175.852	-0.160	0.004
-330.202	275.369	0.162	-0.283
-329.187	39.773	-0.009	0.008
-328.172	103.938	-0.213	-0.247
-327.158	443.503	0.127	-0.274
-326.143	-24.617	-0.138	-0.081
-325.129	800.000	-0.029	0.119
-324.114	-200.000	0.026	-0.543
-323.099	-72.003	0.095	-0.035
-322.085	328.016	-0.043	0.081
-321.070	33.054	0.318	-0.272
-320.056	92.650	-0.084	-0.093
-319.041	140.854	0.127	-0.166
-318.026	-171.444	0.234	0.008
-317.012	200.551	-0.074	-0.112
-315.997	-200.000	0.000	-0.066
-314.983	-200.000	0.016	0.091
-313.968	116.389	-0.009	0.011
-312.953	726.940	0.032	0.084
-311.939	800.000	-0.159	0.440
-310.924	234.889	0.141	0.230
-309.910	115.897	0.137	0.165
-308.895	18.202	-0.178	0.140
-307.880	-14.821	-0.140	0.089
-306.866	800.000	-0.025	0.099
-305.851	0.464	0.147	0.103
-304.837	272.307	-0.064	-0.111
-303.822	-171.752	0.114	0.004
-302.807	-141.189	0.261	-0.026
-301.793	-114.692	-0.011	-0.002
-300.778	-153.079	-0.194	-0.013
-299.764	118.936	-0.222	-0.271
-298.749	-200.000	0.035	-0.300
-297.735	-200.000	-0.032	-0.248
-296.720	196.455	0.120	-0.180
-295.705	-176.677	-0.218	-0.006
-294.691	296.624	-0.100	0.182
-293.676	800.000	0.056	-0.157
-292.662	128.611	0.048	-0.060
-291.647	534.154	0.102	0.238
-290.632	372.177	-0.044	0.088
-289.618	227.389	-0.087	0.139
-288.603	-99.080	-0.253	0.063
-287.589	61.968	0.074	0.072
-286.574	715.117	-0.066	0.173
-285.559	-186.416	0.073	0.001
-284.545	147.267	-0.309	0.410
-283.530	-141.392	0.082	0.008
-282.516	-129.499	0.130	-0.018
-281.501	-200.000	-0.008	-0.144
-280.486	800.000	0.033	0.139
-279.472	-30.311	0.113	-0.063
-278.457	21.669	0.327	0.263
-277.443	156.895	0.140	0.191
-276.428	-67.790	-0.206	-0.079
-275.413	-200.000	-0.020	0.404
-274.399	99.904	-0.150	-0.171
-273.384	-84.589	0.236	0.073
-272.370	-131.755	-0.107	0.014
-271.355	314.958	0.249	-0.463
-270.340	800.000	-0.049	-0.178
-269.326	-124.794	0.275	0.042
-268.311	-1.516	0.151	0.105
-267.297	1.289	-0.150	-0.106
-266.282	91.238	-0.166	-0.183
-265.267	800.000	0.041	-0.152
-264.253	266.007	0.189	0.325
-263.238	35.868	0.138	0.120
-262.224	159.205	0.103	-0.141
-261.209	800.000	0.077	-0.252
-260.195	-200.000	0.010	-0.173
-259.180	-200.000	-0.046	-0.331
-258.165	-11.114	-0.108	0.070
-257.151	430.929	0.034	0.072
-256.136	800.000	0.080	-0.219
-255.122	314.833	0.126	0.235
-254.107	72.292	0.067	0.069
-253.092	60.772	0.322	-0.314
-252.078	-200.000	0.058	0.294
-251.063	-200.000	-0.007	0.362
-250.049	-156.968	-0.477	-0.029
-249.034	148.541	-0.091	-0.121
-248.019	-200.000	-0.006	0.445
-247.005	-40.602	0.086	0.044
-245.990	-200.000	-0.020	0.159
-244.976	-47.375	-0.252	-0.121
-243.961	-110.347	0.248	-0.051
-242.946	176.134	0.172	0.245
-241.932	226.585	0.135	0.215
-240.917	-1.519	-0.399	0.277
-239.903	-22.366	-0.261	-0.155
-238.888	800.000	0.082	-0.342
-237.873	-25.599	-0.348	-0.202
-236.859	189.757	0.128	-0.189
-235.844	-200.000	-0.026	0.330
-234.830	-99.720	0.057	-0.014
-233.815	800.000	-0.163	0.688
-232.800	296.810	0.125	0.226
-231.786	-114.427	-0.050	0.009
-230.771	255.634	-0.165	0.278
-229.757	-190.212	-0.074	0.001
-228.742	-109.177	0.039	-0.008
-227.727	-200.000	0.013	-0.089
-226.713	-8.030	0.110	-0.073
-225.698	273.363	-0.138	-0.240
-224.684	-16.119	0.112	-0.070
-223.669	-89.668	0.300	-0.087
-222.655	633.806	-0.059	0.148
-221.640	28.409	-0.101	-0.084
-220.625	322.021	0.120	-0.226
-219.611	-55.347	0.326	-0.144
-218.596	353.910	-0.095	-0.186
-217.582	263.374	0.255	0.437
-216.567	10.096	0.216	0.161
-215.552	-143.471	0.388	0.036
-214.538	-43.510	0.095	0.047
-213.523	372.216	-0.056	0.111
-212.509	598.974	-0.171	0.417
-211.494	175.441	0.026	0.037
-210.479	-57.600	0.108	-0.046
-209.465	348.790	0.084	0.162
-208.450	-28.698	0.349	-0.197
-207.436	-22.982	0.330	-0.195
-206.421	-148.967	-0.236	-0.019
-205.406	661.125	0.163	-0.412
-204.392	-110.607	-0.209	-0.042
-203.377	-13.039	0.194	-0.124
-202.363	-200.000	-0.002	0.397
-201.348	-75.405	0.194	-0.068
-200.333	174.111	-0.254	0.360
-199.319	-65.000	0.277	-0.110
-198.304	-80.815	0.096	0.031
-197.290	-200.000	0.017	0.250
-196.275	-200.000	0.029	0.375
-195.260	61.390	0.142	-0.138
-194.246	80.769	-0.216	0.229
-193.231	634.611	-0.058	-0.145
-192.217	800.000	-0.033	-0.134
-191.202	800.000	0.008	0.031
-190.187	-200.000	0.039	-0.286
-189.173	63.797	0.083	0.082
-188.158	624.934	0.075	0.185
-187.144	24.782	-0.090	-0.073
-186.129	-200.000	0.283	0.001
-185.114	-118.815	0.170	0.029
-184.100	681.228	-0.090	-0.231
-183.085	242.676	0.265	0.435
-182.071	107.204	-0.182	0.213
-181.056	-33.050	0.019	-0.010
-180.042	139.499	-0.083	0.108
-179.027	411.639	0.104	0.216
-178.012	219.899	-0.152	-0.239
-176.998	-200.000	0.027	-0.199
-175.983	192.950	-0.188	-0.279
-174.969	800.000	0.096	-0.396
-173.954	36.216	0.056	-0.049
-172.939	-200.000	0.052	-0.301
-171.925	800.000	0.025	-0.083
-170.910	17.529	-0.132	-0.103
-169.896	276.013	0.069	0.120
-168.881	-200.000	0.095	0.504
-167.866	-200.000	-0.040	-0.449
-166.852	-200.000	-0.022	0.189
-165.837	-169.371	0.136	-0.005
-164.823	167.166	0.200	-0.278
-163.808	-102.899	0.133	-0.031
-162.793	-112.247	-0.191	-0.038
-161.779	90.556	0.040	0.044
-160.764	-103.937	0.172	-0.039
-159.750	-33.777	-0.146	-0.079
-158.735	-57.462	-0.412	0.177
-157.720	-165.518	0.173	0.007
-156.706	-6.216	-0.295	-0.198
-155.691	-52.158	-0.226	-0.103
-154.677	-200.000	-0.013	0.107
-153.662	-47.363	-0.153	0.073
-152.647	800.000	0.017	-0.066
-151.633	-86.870	-0.198	-0.059
-150.618	-200.000	-0.016	0.117
-149.604	55.370	-0.133	0.126
-148.589	764.257	0.064	-0.171
-147.574	-15.049	-0.086	-0.054
-146.560	-125.455	-0.098	0.015
-145.545	-88.097	-0.177	0.052
-144.531	61.930	-0.037	-0.036
-143.516	-2.445	0.316	-0.217
-142.502	495.907	-0.029	-0.065
-141.487	435.006	-0.064	0.136
-140.472	-48.519	0.170	-0.080
-139.458	-178.239	-0.355	-0.008
-138.443	-117.856	0.085	-0.015
-137.429	173.641	-0.074	0.105
-136.414	116.388	-0.102	0.122
-135.399	-200.000	-0.055	-0.275
-134.385	388.573	0.108	-0.220
-133.370	-181.190	-0.358	0.007
-132.356	-200.000	-0.027	-0.175
-131.341	-96.278	0.112	0.029
-130.326	-143.018	-0.385	-0.036
-129.312	67.583	-0.081	-0.081
-128.297	800.000	-0.106	0.365
-127.283	-200.000	0.023	-0.121
-126.268	12.057	0.235	0.177
-125.253	-34.662	-0.209	-0.112
-124.239	100.180	-0.264	0.300
-123.224	-172.654	0.531	-0.016
-122.210	252.043	0.117	-0.195
-121.195	-38.080	0.266	0.138
