DTS Sentinel unit serial number:	SN413079Multiplexer serial number:	ORYXHardware model number:	OX4-SRSoftware version number:	ORYX F/W v4.00 Oryx Data Collector v3.7.2.0data status	okinstallation	princeton_trtdifferential loss correction	single-endedforward channel	channel 3reverse channel	N/Adate	2019/09/13time	02:40:35forward acquisition time	60.00reverse acquisition time	0.00gamma	496.2192k internal	0.2334k external	0.2334temperature offset calibration	1.0141default loss term (dB/km)	0.3790temperature slope calibration	1.0000multiplexer offset coefficient	1.0000multiplexer slope coefficient	1.0000fibre end	0.00T internal ref (°C)	27.44T ext. ref 1 (°C)	3.99T ext. ref 2 (°C)	22.27length (m)	temperature (°C)	Stokes	anti-Stokes-747.200	-200.000	0.002	0.061
-746.185	-200.000	0.005	0.339
-745.171	-200.000	-0.015	-0.506
-744.156	0.255	0.120	0.086
-743.142	530.649	-0.097	0.231
-742.127	100.911	0.154	0.180
-741.112	3.344	0.167	-0.122
-740.098	800.000	0.082	0.248
-739.083	-50.911	0.161	-0.076
-738.069	-21.277	-0.270	0.166
-737.054	-68.954	-0.183	0.071
-736.039	58.659	-0.355	-0.350
-735.025	-200.000	0.009	0.217
-734.010	-96.454	0.445	0.118
-732.996	692.848	-0.015	0.040
-731.981	79.525	0.186	-0.200
-730.966	522.726	-0.109	-0.258
-729.952	153.828	-0.258	-0.355
-728.937	-200.000	-0.017	0.208
-727.923	268.472	-0.053	0.093
-726.908	240.399	0.151	-0.253
-725.894	131.151	-0.234	-0.302
-724.879	-153.620	-0.024	0.002
-723.864	-5.634	0.151	0.104
-722.850	-38.838	-0.127	0.067
-721.835	32.731	0.264	0.229
-720.821	-68.629	-0.421	0.164
-719.806	35.633	-0.268	-0.236
-718.791	-93.894	-0.353	0.098
-717.777	-98.286	0.072	-0.019
-716.762	33.090	0.128	0.112
-715.748	800.000	-0.040	0.169
-714.733	-142.847	-0.214	0.021
-713.718	-137.804	-0.202	-0.023
-712.704	2.967	-0.060	-0.044
-711.689	-200.000	-0.020	-0.144
-710.675	-116.084	-0.392	0.073
-709.660	156.593	-0.188	-0.261
-708.645	800.000	0.078	-0.323
-707.631	129.979	-0.058	-0.075
-706.616	-137.310	-0.297	-0.034
-705.602	-19.967	-0.273	0.169
-704.587	21.353	-0.355	-0.289
-703.572	800.000	0.027	0.095
-702.558	35.265	0.043	0.038
-701.543	381.394	0.138	-0.285
-700.529	11.900	-0.082	-0.063
-699.514	800.000	0.067	0.206
-698.499	-84.369	-0.205	0.065
-697.485	-42.235	-0.136	-0.070
-696.470	-35.453	-0.119	0.065
-695.456	415.712	0.058	-0.123
-694.441	-200.000	0.003	0.019
-693.426	-200.000	-0.060	-0.322
-692.412	-71.028	0.271	-0.102
-691.397	-18.364	-0.081	-0.051
-690.383	7.539	-0.365	0.274
-689.368	-124.187	0.268	-0.042
-688.354	56.238	0.265	0.258
-687.339	507.702	0.123	-0.287
-686.324	-113.390	0.179	0.035
-685.310	-200.000	0.053	0.296
-684.295	325.234	-0.135	-0.259
-683.281	427.297	0.072	0.156
-682.266	-200.000	-0.006	-0.169
-681.251	67.342	-0.192	0.197
-680.237	-182.906	-0.038	-0.001
-679.222	-165.096	-0.521	0.023
-678.208	192.664	-0.132	0.200
-677.193	-200.000	-0.014	-0.176
-676.178	655.563	0.040	-0.104
-675.164	99.161	-0.145	-0.168
-674.149	783.834	-0.113	-0.310
-673.135	800.000	0.077	-0.261
-672.120	303.035	-0.219	0.407
-671.105	139.325	0.149	0.196
-670.091	-200.000	-0.029	-0.314
-669.076	-200.000	-0.012	-0.057
-668.062	-51.486	-0.170	-0.080
-667.047	-31.682	0.153	0.086
-666.032	203.225	0.051	-0.078
-665.018	-87.542	-0.502	0.152
-664.003	18.682	-0.057	0.046
-662.989	800.000	-0.021	0.086
-661.974	-78.378	-0.338	0.116
-660.959	-93.533	0.377	-0.104
-659.945	-200.000	0.015	0.277
-658.930	-43.631	-0.199	0.101
-657.916	-89.860	-0.212	0.062
-656.901	800.000	-0.119	0.397
-655.886	205.069	-0.124	-0.194
-654.872	-118.083	-0.403	0.072
-653.857	-126.579	0.129	-0.019
-652.843	800.000	-0.084	0.286
-651.828	-38.254	0.101	-0.054
-650.814	-130.058	0.116	0.016
-649.799	37.242	0.113	0.100
-648.784	-200.000	0.007	-0.076
-647.770	220.007	-0.072	-0.116
-646.755	800.000	0.073	0.207
-645.741	-149.389	0.344	-0.027
-644.726	11.261	-0.117	-0.090
-643.711	-139.024	0.321	0.035
-642.697	-43.290	-0.446	0.226
-641.682	94.621	-0.082	-0.093
-640.668	-30.120	0.417	0.237
-639.653	-200.000	0.013	0.136
-638.638	-95.533	-0.280	-0.075
-637.624	80.817	0.387	-0.418
-636.609	-39.849	-0.105	-0.055
-635.595	-151.339	0.240	0.018
-634.580	45.421	-0.194	-0.179
-633.565	191.460	-0.117	-0.176
-632.551	191.920	0.063	-0.095
-631.536	-80.454	-0.235	-0.078
-630.522	94.115	-0.338	-0.384
-629.507	-63.020	0.127	0.052
-628.492	23.427	0.078	-0.064
-627.478	320.387	-0.177	-0.336
-626.463	409.031	-0.086	0.182
-625.449	279.578	-0.124	0.221
-624.434	-12.362	-0.305	0.199
-623.419	-133.779	-0.197	0.025
-622.405	44.434	-0.112	0.103
-621.390	169.167	-0.067	-0.096
-620.376	-69.130	-0.217	-0.084
-619.361	-147.964	0.313	0.026
-618.346	68.736	-0.119	-0.122
-617.332	432.051	0.058	-0.125
-616.317	-57.070	0.349	-0.154
-615.303	-200.000	-0.014	-0.195
-614.288	-200.000	-0.019	-0.136
-613.273	429.789	-0.104	0.226
-612.259	-200.000	0.051	-0.410
-611.244	49.944	0.133	-0.125
-610.230	-160.349	0.096	-0.005
-609.215	294.296	-0.292	0.534
-608.201	-200.000	0.010	0.286
-607.186	-186.623	-0.206	-0.003
-606.171	765.150	-0.120	-0.325
-605.157	-157.798	-0.279	-0.017
-604.142	-46.227	-0.216	-0.106
-603.128	235.435	-0.076	-0.125
-602.113	-159.375	0.003	0.000
-601.098	11.760	0.096	-0.073
-600.084	-115.519	0.113	-0.021
-599.069	323.612	0.079	-0.150
-598.055	800.000	0.065	-0.192
-597.040	-125.831	0.091	0.014
-596.025	-149.516	-0.267	0.021
-595.011	-97.015	0.044	0.012
-593.996	52.827	-0.069	-0.066
-592.982	-155.966	0.224	-0.014
-591.967	-78.179	0.191	0.066
-590.952	170.235	0.073	0.104
-589.938	73.599	0.164	-0.172
-588.923	90.662	0.244	0.273
-587.909	-115.710	0.206	0.038
-586.894	649.281	-0.047	0.121
-585.879	331.670	0.101	0.194
-584.865	-89.046	-0.130	0.038
-583.850	443.865	-0.087	-0.191
-582.836	-139.522	0.091	0.010
-581.821	-25.217	-0.408	-0.241
-580.806	-93.440	-0.381	-0.105
-579.792	-162.949	-0.138	0.007
-578.777	800.000	-0.065	0.236
-577.763	286.932	-0.069	-0.125
-576.748	-137.604	-0.254	-0.029
-575.733	-200.000	0.054	0.267
-574.719	-200.000	0.040	-0.277
-573.704	-18.715	-0.279	0.173
-572.690	-43.925	-0.157	0.079
-571.675	-111.609	0.105	-0.021
-570.661	-69.108	-0.047	-0.018
-569.646	237.897	-0.058	0.097
-568.631	-26.904	-0.180	-0.105
-567.617	-152.879	-0.156	0.011
-566.602	-200.000	0.016	-0.070
-565.588	333.770	-0.062	0.119
-564.573	532.364	0.110	0.260
-563.558	-90.449	-0.148	0.043
-562.544	49.414	-0.141	0.132
-561.529	800.000	-0.076	-0.304
-560.515	452.587	0.096	-0.212
-559.500	-200.000	0.014	-0.200
-558.485	-131.570	0.330	0.043
-557.471	-123.920	0.266	0.042
-556.456	-156.036	-0.199	-0.013
-555.442	-20.842	0.188	0.115
-554.427	46.969	0.351	0.326
-553.412	112.914	-0.228	-0.275
-552.398	-15.789	-0.140	0.089
-551.383	62.609	-0.235	-0.235
-550.369	-200.000	0.042	0.282
-549.354	162.695	0.157	0.220
-548.339	1.965	-0.117	-0.085
-547.325	97.227	-0.218	0.250
-546.310	-100.331	-0.215	0.053
-545.296	71.069	-0.226	-0.234
-544.281	250.277	-0.099	0.168
-543.266	-66.626	0.334	-0.132
-542.252	-89.627	-0.295	-0.086
-541.237	451.545	-0.062	0.136
-540.223	259.739	0.067	-0.116
-539.208	269.076	-0.100	-0.174
-538.193	-117.361	-0.044	0.008
-537.179	416.501	-0.160	0.340
-536.164	55.547	0.068	-0.066
-535.150	284.287	0.144	-0.258
-534.135	-48.222	-0.274	-0.132
-533.121	-106.802	-0.208	0.046
-532.106	-2.493	0.149	-0.104
-531.091	-95.769	-0.398	0.106
-530.077	178.988	0.037	-0.054
-529.062	-65.657	0.248	0.099
-528.048	-23.105	-0.108	0.065
-527.033	800.000	0.043	-0.147
-526.018	145.288	0.272	-0.362
-525.004	12.238	-0.129	0.099
-523.989	-48.283	0.342	0.164
-522.975	791.447	0.084	0.230
-521.960	139.120	-0.050	0.066
-520.945	-69.771	0.372	0.142
-519.931	222.976	-0.216	-0.346
-518.916	-200.000	-0.040	-0.173
-517.902	151.117	0.155	0.211
-516.887	82.650	-0.134	-0.145
-515.872	169.823	0.055	-0.078
-514.858	463.503	-0.106	-0.236
-513.843	-200.000	-0.007	-0.265
-512.829	-200.000	-0.048	-0.288
-511.814	-52.697	-0.225	0.103
-510.799	-200.000	0.039	0.200
-509.785	-100.989	0.153	-0.037
-508.770	366.550	0.184	-0.369
-507.756	-200.000	0.071	0.405
-506.741	98.471	0.208	0.238
-505.726	-200.000	0.010	0.045
-504.712	62.432	0.219	0.218
-503.697	800.000	-0.078	-0.310
-502.683	24.573	-0.067	0.055
-501.668	458.650	0.119	0.263
-500.653	800.000	0.021	-0.077
-499.639	-200.000	0.011	0.092
-498.624	800.000	0.075	0.208
-497.610	-72.381	0.033	-0.012
-496.595	800.000	0.108	0.323
-495.581	67.612	0.036	-0.037
-494.566	37.047	0.121	0.107
-493.551	47.058	-0.180	0.167
-492.537	-123.414	0.038	0.006
-491.522	-65.668	0.324	-0.129
-490.508	-119.024	-0.108	-0.019
-489.493	100.570	0.047	0.054
-488.478	-18.423	0.180	-0.112
-487.464	-10.810	-0.115	-0.076
-486.449	154.666	0.149	-0.203
-485.435	-132.586	-0.194	-0.025
-484.420	11.260	0.119	-0.090
-483.405	112.203	-0.161	-0.193
-482.391	-108.290	-0.193	-0.041
-481.376	209.141	-0.083	-0.130
-480.362	800.000	-0.045	0.172
-479.347	-172.515	-0.129	0.004
-478.332	3.542	0.125	0.091
-477.318	112.520	0.127	-0.153
-476.303	18.616	0.131	-0.104
-475.289	-24.244	-0.097	-0.058
-474.274	59.941	0.094	0.093
-473.259	-59.915	0.184	-0.078
-472.245	800.000	-0.100	-0.338
-471.230	489.905	-0.171	-0.388
-470.216	-17.577	0.023	-0.015
-469.201	800.000	0.043	0.136
-468.186	-77.919	-0.204	-0.070
-467.172	180.673	0.059	0.086
-466.157	-200.000	0.073	0.343
-465.143	85.036	0.125	0.136
-464.128	-200.000	-0.037	0.195
-463.113	-94.917	0.142	-0.038
-462.099	206.805	0.140	0.216
-461.084	-12.695	-0.268	-0.174
-460.070	-200.000	-0.035	-0.161
-459.055	-14.833	-0.043	-0.027
-458.040	-101.595	0.215	0.052
-457.026	-0.575	-0.045	0.032
-456.011	-200.000	-0.002	-0.217
-454.997	44.962	0.121	0.111
-453.982	17.644	0.312	-0.247
-452.968	37.494	0.109	0.096
-451.953	39.439	-0.213	0.189
-450.938	-200.000	0.051	0.338
-449.924	245.376	0.079	0.131
-448.909	-65.072	0.028	-0.011
-447.895	-59.091	0.050	0.021
-446.880	178.564	0.177	0.257
-445.865	-200.000	-0.045	0.249
-444.851	-68.842	0.267	0.102
-443.836	-200.000	0.062	-0.298
-442.822	-179.876	-0.170	0.004
-441.807	-200.000	0.026	-0.221
-440.792	419.580	-0.082	-0.175
-439.778	-16.340	-0.127	-0.080
-438.763	-200.000	-0.012	-0.104
-437.749	800.000	0.132	-0.447
-436.734	-167.082	0.237	-0.010
-435.719	800.000	0.031	-0.106
-434.705	58.290	-0.179	-0.174
-433.690	-200.000	-0.004	-0.042
-432.676	-54.115	0.190	-0.086
-431.661	301.715	-0.149	-0.273
-430.646	-58.087	0.027	-0.012
-429.632	-200.000	-0.016	0.160
-428.617	-86.432	-0.222	0.068
-427.603	800.000	-0.061	0.186
-426.588	-41.483	0.216	0.110
-425.573	-102.967	-0.243	0.057
-424.559	-200.000	-0.031	0.321
-423.544	-200.000	0.014	-0.209
-422.530	70.168	-0.139	-0.142
-421.515	-167.999	0.230	0.009
-420.500	-68.828	0.116	-0.044
-419.486	20.309	-0.148	0.119
-418.471	546.393	-0.104	-0.247
-417.457	10.573	-0.291	-0.220
-416.442	-71.984	-0.348	-0.128
-415.428	-200.000	0.013	0.283
-414.413	153.592	0.021	0.029
-413.398	-200.000	0.080	-0.351
-412.384	-142.925	-0.152	0.015
-411.369	-200.000	-0.026	0.173
-410.355	73.472	0.043	-0.044
-409.340	-129.730	0.506	-0.069
-408.325	-200.000	0.011	-0.283
-407.311	-9.314	-0.080	0.053
-406.296	-0.652	-0.306	0.215
-405.282	-17.290	0.094	0.059
-404.267	-200.000	-0.013	-0.114
-403.252	-152.483	-0.207	0.015
-402.238	103.706	0.051	-0.059
-401.223	349.209	-0.158	-0.310
-400.209	87.107	-0.093	-0.102
-399.194	95.236	-0.058	-0.065
-398.179	-11.096	-0.268	0.175
-397.165	112.738	0.204	0.245
-396.150	286.838	-0.182	0.326
-395.136	-143.493	-0.404	0.038
-394.121	-94.593	0.325	-0.088
-393.106	-200.000	-0.006	-0.199
-392.092	-200.000	-0.048	-0.280
-391.077	-63.191	0.236	0.096
-390.063	-29.039	0.290	0.165
-389.048	86.286	-0.171	0.186
-388.033	-46.058	0.021	-0.010
-387.019	7.744	-0.088	-0.065
-386.004	-81.952	0.332	0.108
-384.990	-200.000	0.013	-0.255
-383.975	-13.176	-0.097	-0.063
-382.960	800.000	0.045	0.189
-381.946	-30.101	-0.185	0.104
-380.931	-200.000	0.007	0.042
-379.917	-200.000	-0.018	0.281
-378.902	-200.000	-0.052	-0.241
-377.888	104.275	-0.037	-0.043
-376.873	-143.286	0.373	-0.035
-375.858	-115.946	-0.081	-0.015
-374.844	-169.758	-0.356	-0.013
-373.829	800.000	0.029	-0.100
-372.815	574.684	-0.157	0.380
-371.800	129.534	0.106	-0.134
-370.785	138.011	0.114	0.148
-369.771	-63.430	0.216	0.088
-368.756	800.000	-0.055	-0.152
-367.742	-200.000	-0.012	0.096
-366.727	154.540	0.079	0.108
-365.712	-79.500	0.088	-0.029
-364.698	392.843	0.180	0.371
-363.683	-83.813	-0.177	0.056
-362.669	800.000	0.016	0.062
-361.654	-102.952	-0.208	-0.049
-360.639	-200.000	0.013	0.134
-359.625	-129.528	-0.311	0.043
-358.610	-200.000	-0.082	-0.412
-357.596	211.400	0.184	-0.287
-356.581	800.000	0.093	0.255
-355.566	71.863	0.172	-0.177
-354.552	48.774	0.188	-0.175
-353.537	800.000	-0.177	0.530
-352.523	29.061	-0.210	-0.176
-351.508	379.808	0.059	0.120
-350.493	463.457	0.087	-0.193
-349.479	-93.167	0.272	-0.075
-348.464	479.115	-0.120	0.268
-347.450	54.509	-0.160	0.153
-346.435	800.000	0.028	-0.109
-345.420	48.151	0.205	0.190
-344.406	-71.232	0.105	-0.039
-343.391	96.272	0.014	-0.015
-342.377	206.282	-0.046	0.071
-341.362	292.770	0.007	0.012
-340.348	60.867	0.290	-0.284
-339.333	303.187	0.094	-0.173
-338.318	-79.023	-0.279	0.094
-337.304	493.663	0.059	-0.133
-336.289	-87.596	0.214	0.064
-335.275	-45.275	-0.155	0.076
-334.260	-130.084	0.138	-0.019
-333.245	-74.954	-0.096	0.034
-332.231	800.000	-0.040	0.131
-331.216	191.230	-0.222	0.330
-330.202	166.631	-0.135	0.189
-329.187	800.000	-0.043	-0.154
-328.172	8.163	-0.078	0.058
-327.158	800.000	-0.060	-0.189
-326.143	-97.164	0.309	0.080
-325.129	203.727	-0.151	-0.232
-324.114	-200.000	0.039	-0.187
-323.099	-138.626	-0.306	0.033
-322.085	67.694	-0.062	-0.063
-321.070	800.000	0.048	-0.145
-320.056	800.000	-0.054	0.173
-319.041	732.026	-0.035	0.092
-318.026	800.000	-0.054	0.174
-317.012	-200.000	0.018	-0.130
-315.997	482.421	0.116	-0.261
-314.983	-200.000	-0.008	-0.054
-313.968	-34.925	0.104	-0.056
-312.953	800.000	0.032	-0.103
-311.939	-200.000	0.002	0.140
-310.924	-194.828	0.220	0.002
-309.910	-144.179	-0.164	0.015
-308.895	46.037	-0.088	-0.081
-307.880	238.470	0.130	-0.214
-306.866	195.026	-0.135	-0.203
-305.851	130.288	0.079	0.100
-304.837	442.051	-0.085	-0.183
-303.822	-167.910	-0.246	0.010
-302.807	-200.000	0.008	0.241
-301.793	-116.218	0.065	-0.012
-300.778	-189.893	0.101	-0.001
-299.764	-200.000	-0.013	-0.067
-298.749	336.064	-0.112	-0.216
-297.735	-88.074	0.063	0.019
-296.720	473.259	0.115	-0.255
-295.705	702.462	-0.104	-0.271
-294.691	114.655	-0.136	0.163
-293.676	159.650	0.134	-0.185
-292.662	88.255	0.179	-0.197
-291.647	92.138	0.160	0.178
-290.632	-64.647	0.262	0.105
-289.618	169.029	-0.178	0.250
-288.603	419.952	0.105	-0.221
-287.589	800.000	-0.033	0.109
-286.574	-92.581	0.226	0.063
-285.559	160.272	-0.214	-0.295
-284.545	-23.705	0.298	-0.176
-283.530	800.000	-0.054	0.151
-282.516	-96.652	-0.116	0.030
-281.501	120.885	0.148	0.182
-280.486	7.462	-0.131	-0.096
-279.472	-87.398	0.100	-0.030
-278.457	-3.967	0.198	0.136
-277.443	41.129	-0.230	-0.205
-276.428	-105.692	0.050	0.011
-275.413	-57.393	0.330	0.143
-274.399	236.969	0.113	0.185
-273.384	0.605	-0.126	0.089
-272.370	-79.618	-0.027	0.009
-271.355	-162.158	-0.101	-0.005
-270.340	-187.730	0.153	0.002
-269.326	237.509	0.077	0.125
-268.311	219.294	-0.203	0.321
-267.297	-92.524	0.080	0.022
-266.282	-200.000	-0.041	0.347
-265.267	1.979	0.015	-0.011
-264.253	-165.486	0.161	-0.007
-263.238	800.000	0.169	0.522
-262.224	-171.172	-0.275	-0.009
-261.209	-200.000	-0.046	-0.217
-260.195	-200.000	-0.024	-0.153
-259.180	-109.644	0.140	-0.029
-258.165	-200.000	0.020	0.165
-257.151	800.000	0.071	0.241
-256.136	-89.316	-0.177	-0.051
-255.122	46.872	-0.454	0.416
-254.107	-129.280	-0.016	-0.002
-253.092	-196.530	0.196	-0.001
-252.078	58.586	0.380	0.368
-251.063	800.000	0.062	-0.187
-250.049	800.000	-0.016	0.046
-249.034	88.225	0.166	-0.182
-248.019	800.000	-0.115	-0.453
-247.005	-29.772	-0.222	-0.125
-245.990	-200.000	0.065	-0.310
-244.976	-200.000	-0.017	-0.162
-243.961	-131.120	-0.261	-0.034
-242.946	800.000	-0.093	0.281
-241.932	-19.291	0.136	-0.083
-240.917	-31.066	-0.058	-0.032
-239.903	65.760	0.201	-0.201
-238.888	-139.910	-0.140	0.015
-237.873	-200.000	0.054	-0.360
-236.859	320.095	0.045	0.085
-235.844	-68.099	-0.250	0.096
-234.830	-200.000	0.022	0.176
-233.815	152.064	-0.130	0.175
-232.800	103.479	-0.182	-0.210
-231.786	236.725	0.238	0.388
-230.771	-181.898	0.168	0.003
-229.757	-93.914	-0.148	-0.040
-228.742	93.400	-0.171	0.190
-227.727	-98.499	0.262	0.066
-226.713	-200.000	-0.005	-0.321
-225.698	-200.000	0.005	-0.284
-224.684	-200.000	0.020	0.092
-223.669	-131.809	0.407	0.052
-222.655	-98.250	0.176	0.045
-221.640	546.904	-0.128	0.301
-220.625	-83.395	0.302	0.095
-219.611	149.142	-0.206	0.274
-218.596	-200.000	-0.004	-0.134
-217.582	-200.000	-0.024	-0.341
-216.567	253.178	0.094	-0.159
-215.552	-38.221	0.189	-0.099
-214.538	-169.031	0.104	-0.004
-213.523	-7.609	-0.033	0.022
-212.509	21.754	0.089	0.072
-211.494	66.639	0.367	-0.367
-210.479	-200.000	-0.011	0.158
-209.465	-86.692	0.098	-0.030
-208.450	-3.627	-0.072	-0.049
-207.436	195.942	-0.094	0.141
-206.421	-65.737	-0.264	0.104
-205.406	-200.000	-0.012	0.456
-204.392	-31.705	0.218	0.120
-203.377	737.884	0.112	0.297
-202.363	387.231	-0.047	-0.096
-201.348	128.507	0.121	0.151
-200.333	397.440	0.134	0.275
-199.319	351.943	-0.150	0.292
-198.304	220.545	-0.114	-0.179
-197.290	123.454	-0.137	-0.169
-196.275	-151.265	0.440	-0.032
-195.260	-66.725	0.150	0.059
-194.246	-200.000	-0.026	0.189
-193.231	125.491	-0.257	-0.319
-192.217	-2.789	0.070	-0.048
-191.202	592.867	-0.100	-0.244
-190.187	-200.000	0.024	-0.107
-189.173	-12.133	0.015	0.010
-188.158	44.564	-0.059	0.053
-187.144	800.000	0.011	0.044
-186.129	-103.423	-0.148	0.034
-185.114	-62.497	0.169	-0.069
-184.100	-146.594	0.341	0.029
-183.085	125.742	-0.133	0.165
-182.071	-200.000	-0.039	0.217
-181.056	0.781	-0.422	-0.297
-180.042	238.712	0.161	0.263
-179.027	70.055	0.161	0.163
-178.012	-31.865	0.207	-0.114
-176.998	-18.632	-0.141	0.086
-175.983	-168.021	-0.113	0.004
-174.969	-200.000	-0.038	0.243
-173.954	-79.521	-0.073	0.024
-172.939	800.000	0.072	0.215
-171.925	-200.000	-0.026	0.116
-170.910	800.000	-0.060	0.172
-169.896	12.298	0.236	0.179
-168.881	-142.691	0.165	0.016
-167.866	-67.811	0.225	-0.086
-166.852	-81.764	-0.073	-0.024
-165.837	-107.942	0.113	0.024
-164.823	583.468	0.052	-0.126
-163.808	-12.982	-0.150	0.096
-162.793	-108.216	0.172	0.037
-161.779	92.488	-0.108	0.120
-160.764	85.987	-0.236	0.255
-159.750	800.000	-0.033	-0.112
-158.735	-67.739	0.256	-0.099
-157.720	244.001	-0.050	0.082
-156.706	93.541	0.099	-0.111
-155.691	88.772	-0.196	-0.215
-154.677	-32.286	-0.211	0.116
-153.662	-200.000	-0.059	0.266
-152.647	-68.750	-0.181	0.069
-151.633	-200.000	0.040	-0.224
-150.618	-89.031	-0.019	-0.006
-149.604	-200.000	-0.053	-0.250
-148.589	-120.829	0.042	-0.007
-147.574	320.821	-0.024	-0.044
-146.560	281.572	-0.230	-0.405
-145.545	-10.140	0.154	-0.100
-144.531	83.185	-0.089	0.095
-143.516	22.406	-0.186	-0.149
-142.502	88.853	-0.045	0.049
-141.487	23.419	-0.079	-0.064
-140.472	464.094	-0.074	0.162
-139.458	13.590	0.138	-0.105
-138.443	-200.000	0.052	0.310
-137.429	-200.000	-0.032	0.186
-136.414	14.227	-0.203	-0.155
-135.399	-200.000	0.033	0.206
-134.385	-165.002	0.321	-0.014
-133.370	360.130	0.172	0.338
-132.356	-134.306	-0.326	-0.039
-131.341	-200.000	-0.003	0.083
-130.326	51.462	-0.094	-0.087
-129.312	800.000	0.099	0.285
-128.297	-28.941	0.440	0.248
-127.283	-153.288	0.197	-0.013
-126.268	34.633	-0.158	0.136
-125.253	-85.150	0.266	-0.082
-124.239	374.718	-0.123	0.247
-123.224	-92.039	0.261	-0.072
-122.210	-116.281	-0.212	-0.039
-121.195	-12.491	0.110	0.070
