DTS Sentinel unit serial number:	SN413079Multiplexer serial number:	ORYXHardware model number:	OX4-SRSoftware version number:	ORYX F/W v4.00 Oryx Data Collector v3.7.2.0data status	okinstallation	princeton_trtdifferential loss correction	single-endedforward channel	channel 3reverse channel	N/Adate	2019/09/16time	09:16:35forward acquisition time	60.00reverse acquisition time	0.00gamma	496.2192k internal	0.2323k external	0.2323temperature offset calibration	0.9954default loss term (dB/km)	0.3790temperature slope calibration	1.0000multiplexer offset coefficient	1.0000multiplexer slope coefficient	1.0000fibre end	0.00T internal ref (°C)	31.19T ext. ref 1 (°C)	12.13T ext. ref 2 (°C)	28.57length (m)	temperature (°C)	Stokes	anti-Stokes-747.200	800.000	-0.092	-0.295
-746.185	-26.736	-0.187	-0.110
-745.171	-200.000	0.067	0.453
-744.156	580.846	0.047	0.116
-743.142	590.621	0.129	0.321
-742.127	-32.161	0.171	-0.097
-741.112	-40.607	0.190	0.100
-740.098	64.354	-0.083	0.084
-739.083	-137.095	0.157	-0.018
-738.069	-200.000	-0.091	0.404
-737.054	26.519	-0.185	-0.156
-736.039	-115.146	-0.102	0.019
-735.025	397.739	-0.087	0.184
-734.010	139.105	-0.242	0.321
-732.996	-65.593	0.041	0.017
-731.981	281.397	-0.082	-0.148
-730.966	-200.000	0.020	0.210
-729.952	-56.163	-0.324	0.146
-728.937	-102.773	-0.123	-0.030
-727.923	106.144	-0.138	0.165
-726.908	800.000	-0.142	-0.475
-725.894	-74.513	-0.629	-0.229
-724.879	-35.608	0.165	0.091
-723.864	37.103	-0.229	-0.204
-722.850	92.842	0.167	0.190
-721.835	800.000	-0.038	0.163
-720.821	451.412	0.189	-0.422
-719.806	-200.000	-0.019	0.120
-718.791	800.000	-0.038	-0.107
-717.777	155.960	-0.107	-0.149
-716.762	412.557	0.084	0.180
-715.748	-136.501	-0.179	0.021
-714.733	168.188	0.110	0.158
-713.718	800.000	0.013	0.052
-712.704	-160.437	0.148	-0.008
-711.689	34.066	-0.315	-0.277
-710.675	180.447	-0.112	0.166
-709.660	19.589	-0.143	-0.116
-708.645	-133.499	0.161	-0.020
-707.631	25.499	-0.017	-0.014
-706.616	-137.792	-0.155	-0.017
-705.602	76.240	0.192	0.205
-704.587	281.647	-0.179	-0.323
-703.572	394.029	-0.163	-0.343
-702.558	800.000	0.032	-0.128
-701.543	36.679	-0.224	0.200
-700.529	-90.339	0.105	0.031
-699.514	-66.726	0.189	0.075
-698.499	800.000	-0.090	-0.262
-697.485	-200.000	-0.021	0.125
-696.470	-95.017	-0.192	0.052
-695.456	-67.943	0.141	-0.056
-694.441	361.006	-0.092	0.187
-693.426	-66.530	-0.085	0.034
-692.412	-25.911	0.084	-0.050
-691.397	-59.203	-0.147	0.064
-690.383	-200.000	0.024	0.117
-689.368	105.505	-0.142	-0.169
-688.354	-84.182	-0.367	-0.117
-687.339	-68.859	0.221	0.086
-686.324	-71.787	0.162	-0.061
-685.310	717.208	0.081	-0.217
-684.295	269.839	-0.108	-0.191
-683.281	800.000	-0.148	0.439
-682.266	-109.062	0.117	0.025
-681.251	-105.015	-0.411	-0.095
-680.237	-200.000	0.015	0.168
-679.222	-34.859	-0.180	0.099
-678.208	293.508	0.067	-0.124
-677.193	-200.000	0.002	-0.233
-676.178	-200.000	0.017	0.224
-675.164	-25.343	-0.335	-0.200
-674.149	-87.969	0.176	-0.053
-673.135	-116.548	0.024	0.004
-672.120	40.832	-0.126	0.114
-671.105	-200.000	-0.004	-0.045
-670.091	-122.855	-0.133	0.022
-669.076	-200.000	0.055	-0.311
-668.062	-200.000	-0.042	-0.187
-667.047	-200.000	-0.030	-0.368
-666.032	-64.856	-0.275	-0.112
-665.018	-3.636	-0.156	-0.109
-664.003	800.000	-0.007	-0.031
-662.989	-200.000	0.022	0.342
-661.974	248.913	-0.120	-0.204
-660.959	-135.016	0.344	0.042
-659.945	-200.000	-0.077	-0.360
-658.930	-33.829	-0.108	-0.060
-657.916	-107.196	-0.265	0.059
-656.901	-96.609	0.203	-0.054
-655.886	-200.000	-0.021	-0.500
-654.872	800.000	-0.144	-0.543
-653.857	139.276	-0.140	-0.185
-652.843	800.000	-0.072	-0.203
-651.828	800.000	-0.082	0.283
-650.814	545.378	-0.136	0.327
-649.799	-96.349	0.071	0.019
-648.784	21.296	-0.064	-0.052
-647.770	-76.060	-0.183	0.065
-646.755	63.712	0.148	0.149
-645.741	233.415	0.116	-0.192
-644.726	-200.000	0.000	-0.047
-643.711	-102.980	-0.183	0.044
-642.697	-200.000	-0.002	0.245
-641.682	324.256	0.082	0.158
-640.668	-200.000	0.020	0.132
-639.653	232.253	-0.089	-0.146
-638.638	-96.878	0.296	0.078
-637.624	275.805	0.069	0.123
-636.609	-12.826	0.188	0.123
-635.595	-200.000	0.033	0.364
-634.580	-58.255	-0.187	-0.082
-633.565	-152.969	-0.322	-0.023
-632.551	-138.417	-0.190	0.021
-631.536	6.855	-0.161	-0.120
-630.522	82.004	0.233	-0.254
-629.507	-87.071	-0.091	0.028
-628.492	448.370	0.082	0.181
-627.478	-4.174	-0.209	-0.145
-626.463	86.270	-0.162	0.180
-625.449	140.144	-0.128	-0.170
-624.434	-72.408	0.087	0.032
-623.419	229.130	0.094	0.155
-622.405	93.692	-0.120	0.137
-621.390	-112.572	0.200	0.040
-620.376	-200.000	-0.092	-0.465
-619.361	-37.551	0.151	-0.081
-618.346	-85.155	0.064	0.020
-617.332	13.944	-0.182	0.142
-616.317	64.177	-0.125	0.126
-615.303	93.799	0.224	0.255
-614.288	-96.072	-0.203	-0.054
-613.273	-200.000	-0.004	-0.103
-612.259	-151.029	0.141	-0.011
-611.244	667.600	-0.096	-0.249
-610.230	75.039	-0.138	-0.146
-609.215	800.000	-0.047	0.136
-608.201	800.000	0.108	0.404
-607.186	-39.034	-0.150	0.079
-606.171	271.960	-0.112	0.199
-605.157	-200.000	-0.038	-0.205
-604.142	-106.749	-0.101	-0.023
-603.128	-81.611	-0.029	-0.010
-602.113	-38.534	0.194	0.103
-601.098	541.752	-0.013	-0.031
-600.084	800.000	-0.089	-0.362
-599.069	141.723	-0.218	-0.291
-598.055	-200.000	-0.080	-0.000
-597.040	-72.510	-0.153	0.057
-596.025	476.672	-0.050	0.114
-595.011	-200.000	-0.008	0.045
-593.996	125.426	0.051	0.065
-592.982	109.973	0.209	0.252
-591.967	4.954	-0.256	-0.189
-590.952	91.710	-0.160	-0.181
-589.938	69.658	0.240	-0.248
-588.923	62.410	-0.161	0.162
-587.909	641.395	0.025	0.065
-586.894	800.000	0.035	0.104
-585.879	-48.217	0.135	0.066
-584.865	88.438	-0.033	-0.037
-583.850	61.253	-0.128	0.128
-582.836	-200.000	-0.024	0.127
-581.821	-76.887	0.230	-0.081
-580.806	63.140	0.286	-0.288
-579.792	800.000	0.069	0.202
-578.777	342.002	0.039	0.076
-577.763	-17.193	-0.347	0.220
-576.748	-43.531	0.254	-0.129
-575.733	800.000	-0.046	0.191
-574.719	65.584	0.097	-0.098
-573.704	-200.000	-0.007	0.113
-572.690	-200.000	-0.009	0.162
-571.675	-200.000	0.008	0.471
-570.661	-111.313	0.138	0.028
-569.646	2.391	-0.141	0.102
-568.631	-66.625	-0.052	0.021
-567.617	-135.797	0.174	-0.021
-566.602	195.728	-0.169	-0.258
-565.588	800.000	-0.061	0.193
-564.573	163.993	0.081	0.115
-563.558	-200.000	-0.052	-0.350
-562.544	-107.948	0.438	-0.095
-561.529	-166.567	-0.348	-0.015
-560.515	-69.464	-0.091	-0.035
-559.500	-97.318	-0.169	-0.044
-558.485	-22.443	-0.360	-0.218
-557.471	24.044	0.064	0.053
-556.456	174.006	0.159	0.230
-555.442	9.541	0.077	0.059
-554.427	-200.000	0.020	0.145
-553.412	266.809	0.209	0.365
-552.398	162.083	-0.103	-0.145
-551.383	3.098	-0.321	-0.234
-550.369	22.034	-0.141	0.115
-549.354	-125.467	-0.085	-0.013
-548.339	-83.276	-0.065	-0.021
-547.325	-127.195	0.184	0.027
-546.310	-25.775	0.091	-0.054
-545.296	-98.369	-0.019	0.005
-544.281	-142.292	-0.243	-0.024
-543.266	-68.810	0.289	0.112
-542.252	117.610	-0.129	0.159
-541.237	8.814	-0.244	0.185
-540.223	-200.000	-0.056	0.258
-539.208	559.771	0.045	0.109
-538.193	-200.000	0.017	0.079
-537.179	-200.000	0.028	-0.329
-536.164	-144.212	0.224	-0.021
-535.150	224.104	-0.131	0.211
-534.135	-200.000	-0.030	0.179
-533.121	250.230	-0.086	0.146
-532.106	120.516	0.277	-0.344
-531.091	-99.702	-0.118	0.030
-530.077	12.573	0.256	0.198
-529.062	-200.000	-0.001	-0.090
-528.048	800.000	-0.094	-0.333
-527.033	701.606	-0.075	-0.198
-526.018	25.782	-0.119	-0.099
-525.004	218.033	0.040	-0.064
-523.989	-55.987	-0.229	0.102
-522.975	800.000	0.050	-0.158
-521.960	-94.468	-0.229	-0.063
-520.945	-126.608	-0.185	-0.027
-519.931	-33.355	-0.157	0.087
-518.916	-52.719	-0.184	0.085
-517.902	800.000	0.056	-0.246
-516.887	428.327	0.063	-0.137
-515.872	322.384	0.049	-0.094
-514.858	-200.000	-0.015	-0.113
-513.843	220.511	-0.096	-0.155
-512.829	-45.035	0.098	0.049
-511.814	-200.000	0.001	-0.076
-510.799	-134.999	0.232	0.028
-509.785	619.835	-0.110	0.276
-508.770	-16.315	-0.122	0.078
-507.756	-29.171	-0.109	0.062
-506.741	22.221	0.035	-0.028
-505.726	365.350	-0.162	-0.327
-504.712	-139.310	-0.113	-0.012
-503.697	-187.101	0.262	0.004
-502.683	84.280	0.124	-0.136
-501.668	800.000	0.054	0.197
-500.653	36.077	-0.182	-0.161
-499.639	-200.000	-0.008	-0.095
-498.624	-108.574	0.256	-0.055
-497.610	178.947	0.269	0.393
-496.595	-184.062	0.258	0.004
-495.581	-126.340	-0.242	-0.036
-494.566	40.543	-0.097	-0.087
-493.551	-102.686	0.357	0.085
-492.537	727.078	0.024	-0.065
-491.522	427.039	-0.145	0.312
-490.508	-89.546	0.128	-0.038
-489.493	800.000	-0.071	0.238
-488.478	35.520	-0.144	-0.126
-487.464	-200.000	0.030	-0.174
-486.449	525.784	0.094	-0.221
-485.435	66.969	-0.059	-0.060
-484.420	-200.000	0.031	0.275
-483.405	23.274	0.054	0.045
-482.391	-166.535	-0.217	0.009
-481.376	595.972	0.193	0.479
-480.362	-200.000	-0.100	-0.496
-479.347	-200.000	0.042	-0.184
-478.332	385.063	0.068	-0.141
-477.318	159.558	0.088	-0.122
-476.303	-200.000	-0.027	-0.172
-475.289	-120.086	-0.129	-0.022
-474.274	-200.000	0.030	-0.230
-473.259	-110.493	-0.401	0.083
-472.245	-64.874	0.495	-0.200
-471.230	-89.474	0.184	-0.054
-470.216	203.430	0.134	-0.208
-469.201	149.380	-0.164	-0.222
-468.186	77.853	0.194	-0.206
-467.172	-200.000	-0.013	0.142
-466.157	-200.000	0.092	0.466
-465.143	104.923	-0.140	0.165
-464.128	215.186	0.021	-0.034
-463.113	800.000	0.039	-0.116
-462.099	800.000	-0.015	0.050
-461.084	-51.319	-0.204	-0.095
-460.070	26.869	-0.050	0.042
-459.055	-200.000	0.033	-0.150
-458.040	-107.478	0.216	0.047
-457.026	-189.588	0.260	0.003
-456.011	-172.615	-0.373	-0.012
-454.997	68.813	-0.128	0.131
-453.982	30.081	0.048	-0.041
-452.968	-113.824	0.188	-0.037
-451.953	-24.776	-0.069	0.041
-450.938	10.067	-0.098	-0.075
-449.924	4.008	-0.319	-0.233
-448.909	96.030	-0.106	0.121
-447.895	-11.225	-0.190	-0.125
-446.880	-64.506	-0.476	-0.193
-445.865	-78.225	-0.234	-0.080
-444.851	-120.099	0.148	-0.025
-443.836	-200.000	0.036	-0.178
-442.822	-99.408	0.253	-0.064
-441.807	-96.950	0.059	-0.015
-440.792	-164.909	0.362	-0.016
-439.778	-153.039	-0.148	0.010
-438.763	690.387	-0.154	-0.403
-437.749	-75.267	-0.335	0.119
-436.734	-3.500	-0.049	-0.034
-435.719	-59.708	-0.247	0.105
-434.705	45.248	-0.016	-0.015
-433.690	347.818	0.110	0.216
-432.676	302.643	-0.095	0.175
-431.661	-65.990	-0.206	0.082
-430.646	-91.683	-0.243	0.069
-429.632	-200.000	0.028	-0.149
-428.617	800.000	0.053	-0.176
-427.603	-109.368	0.207	0.044
-426.588	800.000	0.035	0.134
-425.573	-24.767	0.385	0.228
-424.559	-140.982	0.088	-0.009
-423.544	-200.000	0.011	0.131
-422.530	-67.009	0.342	-0.135
-421.515	-140.144	0.160	0.017
-420.500	-200.000	0.038	0.262
-419.486	-120.004	-0.339	-0.058
-418.471	-51.144	0.275	-0.129
-417.457	226.976	-0.061	-0.098
-416.442	37.971	0.066	-0.059
-415.428	-154.812	-0.212	-0.014
-414.413	-16.835	0.126	0.079
-413.398	85.085	-0.252	0.276
-412.384	36.735	0.029	-0.026
-411.369	249.608	-0.053	0.090
-410.355	39.125	-0.196	0.175
-409.340	-78.872	-0.226	-0.077
-408.325	18.147	-0.053	-0.042
-407.311	-200.000	0.017	-0.135
-406.296	116.271	-0.096	0.118
-405.282	-200.000	0.004	0.086
-404.267	289.438	-0.045	0.081
-403.252	-48.779	-0.257	-0.123
-402.238	800.000	-0.059	-0.207
-401.223	-46.323	-0.119	-0.059
-400.209	1.366	0.106	0.076
-399.194	-166.398	0.337	0.014
-398.179	104.534	-0.174	-0.204
-397.165	181.168	-0.137	0.200
-396.150	800.000	0.093	-0.258
-395.136	-200.000	0.017	-0.165
-394.121	428.010	-0.112	0.242
-393.106	800.000	0.060	0.165
-392.092	-130.782	-0.287	-0.038
-391.077	109.033	0.156	-0.185
-390.063	51.916	0.237	-0.225
-389.048	-0.358	-0.281	-0.199
-388.033	-67.230	0.261	-0.102
-387.019	270.479	0.029	-0.050
-386.004	-129.028	-0.345	-0.048
-384.990	356.587	0.076	-0.152
-383.975	41.403	0.188	-0.170
-382.960	-100.671	0.322	0.079
-381.946	-42.655	-0.372	0.188
-380.931	-134.730	0.156	-0.019
-379.917	248.745	0.233	-0.392
-378.902	96.803	0.096	0.110
-377.888	126.199	0.156	0.196
-376.873	-119.049	-0.246	-0.043
-375.858	137.481	0.088	0.115
-374.844	-200.000	0.004	-0.336
-373.829	160.477	0.068	0.095
-372.815	-79.191	0.231	0.078
-371.800	126.443	-0.149	0.188
-370.785	-171.590	-0.135	0.004
-369.771	-200.000	-0.022	-0.287
-368.756	-200.000	0.023	-0.441
-367.742	70.819	-0.153	-0.158
-366.727	215.549	-0.141	0.222
-365.712	-44.023	-0.492	0.246
-364.698	800.000	-0.027	0.081
-363.683	409.946	-0.026	-0.054
-362.669	-200.000	0.003	0.081
-361.654	93.494	0.103	-0.116
-360.639	-200.000	0.017	0.261
-359.625	-200.000	0.084	0.474
-358.610	-121.897	-0.450	-0.074
-357.596	-138.130	0.077	0.008
-356.581	-200.000	0.035	0.295
-355.566	-200.000	0.026	-0.278
-354.552	265.296	-0.078	0.135
-353.537	-200.000	-0.021	0.488
-352.523	-68.072	0.363	0.141
-351.508	-119.297	0.089	-0.015
-350.493	-123.700	-0.109	0.017
-349.479	-162.328	-0.120	0.006
-348.464	94.869	-0.335	0.379
-347.450	238.582	0.113	-0.186
-346.435	800.000	-0.064	-0.237
-345.420	618.155	0.048	0.121
-344.406	10.531	0.226	-0.171
-343.391	800.000	0.069	0.233
-342.377	-200.000	0.008	-0.390
-341.362	111.425	0.049	0.059
-340.348	-72.830	0.171	0.063
-339.333	62.009	0.186	0.184
-338.318	157.016	0.118	0.163
-337.304	217.808	-0.100	0.159
-336.289	401.149	-0.119	0.248
-335.275	-9.035	-0.311	0.207
-334.260	-76.127	-0.072	0.025
-333.245	800.000	-0.038	-0.149
-332.231	104.221	-0.070	-0.082
-331.216	-200.000	-0.082	-0.422
-330.202	203.919	-0.128	-0.197
-329.187	41.156	0.195	0.175
-328.172	280.103	0.118	0.209
-327.158	800.000	0.065	0.228
-326.143	-130.461	0.294	0.039
-325.129	76.994	-0.103	-0.109
-324.114	-116.060	0.408	-0.075
-323.099	7.442	-0.116	-0.086
-322.085	-146.813	0.014	-0.001
-321.070	-84.845	0.051	-0.016
-320.056	316.112	0.121	-0.227
-319.041	-47.062	-0.281	-0.136
-318.026	-11.621	0.116	-0.076
-317.012	-104.968	-0.354	0.081
-315.997	-130.746	0.403	0.054
-314.983	663.554	0.029	0.073
-313.968	-171.997	0.134	0.004
-312.953	-90.304	0.318	0.092
-311.939	32.278	0.226	-0.194
-310.924	-140.748	-0.116	-0.012
-309.910	-200.000	-0.019	-0.107
-308.895	800.000	0.031	-0.123
-307.880	-128.541	-0.328	0.046
-306.866	-194.053	0.160	-0.001
-305.851	85.190	0.352	-0.384
-304.837	-200.000	-0.003	-0.358
-303.822	-151.005	-0.157	0.012
-302.807	50.974	-0.152	-0.143
-301.793	120.744	-0.038	0.047
-300.778	-200.000	0.015	0.066
-299.764	-200.000	-0.037	-0.178
-298.749	-200.000	-0.026	-0.265
-297.735	800.000	0.064	0.178
-296.720	-112.311	0.284	-0.056
-295.705	225.496	0.183	0.294
-294.691	-40.874	-0.156	-0.080
-293.676	24.662	-0.152	-0.125
-292.662	195.674	0.188	0.283
-291.647	-7.326	-0.152	-0.102
-290.632	237.471	-0.030	-0.049
-289.618	-89.292	0.198	-0.058
-288.603	-200.000	-0.022	0.100
-287.589	-121.080	0.050	0.008
-286.574	42.417	-0.150	-0.135
-285.559	211.020	-0.059	-0.093
-284.545	42.582	0.129	-0.117
-283.530	-100.048	0.400	0.099
-282.516	-200.000	0.033	0.206
-281.501	-200.000	-0.005	-0.054
-280.486	484.445	0.042	0.094
-279.472	52.914	-0.212	0.201
-278.457	286.814	-0.069	-0.124
-277.443	-200.000	-0.038	-0.372
-276.428	40.271	-0.248	0.221
-275.413	248.389	-0.043	-0.073
-274.399	-200.000	-0.022	0.331
-273.384	800.000	0.079	0.289
-272.370	67.301	0.148	-0.150
-271.355	54.905	0.192	-0.184
-270.340	-79.039	-0.094	-0.032
-269.326	228.595	0.102	0.164
-268.311	-90.679	0.340	0.097
-267.297	-90.687	-0.371	-0.106
-266.282	13.649	0.073	-0.056
-265.267	-195.117	-0.257	-0.002
-264.253	-143.117	0.105	-0.010
-263.238	-64.713	0.054	-0.022
-262.224	120.901	0.150	-0.185
-261.209	426.500	-0.102	-0.219
-260.195	-200.000	-0.053	-0.304
-259.180	-200.000	-0.009	0.076
-258.165	-13.371	0.043	0.027
-257.151	230.095	-0.093	-0.150
-256.136	-16.456	0.191	0.120
-255.122	-42.313	-0.020	-0.010
-254.107	128.352	-0.079	0.099
-253.092	-17.757	0.309	-0.192
-252.078	754.433	0.084	0.224
-251.063	566.195	0.070	-0.167
-250.049	-200.000	-0.039	-0.282
-249.034	-200.000	0.017	0.096
-248.019	0.048	0.079	-0.056
-247.005	-200.000	-0.017	0.449
-245.990	10.865	0.173	0.131
-244.976	104.669	0.184	0.215
-243.961	348.577	-0.066	0.130
-242.946	-200.000	-0.041	0.276
-241.932	-10.576	-0.132	-0.087
-240.917	-148.180	-0.381	-0.031
-239.903	-69.271	-0.155	0.059
-238.888	-79.684	0.286	0.095
-237.873	52.708	0.286	-0.271
-236.859	800.000	0.069	-0.244
-235.844	-200.000	0.009	0.388
-234.830	-74.604	0.117	0.042
-233.815	800.000	0.083	-0.239
-232.800	402.587	0.128	0.266
-231.786	216.631	0.043	0.067
-230.771	-169.208	0.300	0.011
-229.757	-8.394	0.254	-0.169
-228.742	186.830	-0.127	0.187
-227.727	-119.573	0.314	-0.054
-226.713	-200.000	-0.020	-0.230
-225.698	-165.548	-0.238	0.010
-224.684	-200.000	0.041	-0.628
-223.669	-86.928	0.330	-0.100
-222.655	50.494	-0.103	-0.096
-221.640	-72.389	-0.094	-0.034
-220.625	-200.000	-0.045	0.242
-219.611	-28.445	0.021	0.012
-218.596	-91.502	-0.243	-0.068
-217.582	-12.249	-0.075	0.048
-216.567	-95.535	-0.316	-0.084
-215.552	-200.000	-0.009	0.256
-214.538	94.734	0.249	-0.280
-213.523	-126.689	0.173	0.025
-212.509	800.000	-0.051	0.159
-211.494	-82.110	0.237	0.077
-210.479	-135.995	0.259	-0.030
-209.465	-200.000	-0.006	-0.186
-208.450	-88.861	-0.048	-0.014
-207.436	-65.753	0.254	0.101
-206.421	-200.000	-0.019	0.274
-205.406	-17.161	-0.266	-0.166
-204.392	423.249	-0.054	0.114
-203.377	800.000	0.050	0.206
-202.363	-55.725	0.423	0.187
-201.348	-88.318	0.038	-0.011
-200.333	-200.000	-0.006	-0.071
-199.319	510.309	-0.092	-0.211
-198.304	378.061	0.143	-0.289
-197.290	-200.000	-0.012	0.282
-196.275	30.485	0.183	0.154
-195.260	426.273	0.047	0.100
-194.246	419.790	-0.119	-0.252
-193.231	-15.252	0.175	-0.111
-192.217	180.631	0.222	0.322
-191.202	800.000	-0.071	-0.218
-190.187	551.172	-0.074	0.176
-189.173	-75.241	0.099	0.035
-188.158	-164.208	-0.280	0.013
-187.144	-129.077	0.195	0.027
-186.129	515.308	0.129	0.299
-185.114	180.736	-0.206	0.298
-184.100	47.717	0.178	-0.164
-183.085	105.324	-0.124	0.145
-182.071	37.432	-0.093	-0.081
-181.056	-200.000	0.003	0.167
-180.042	-67.565	-0.342	0.133
-179.027	-154.224	0.189	-0.013
-178.012	-65.826	-0.111	-0.044
-176.998	-107.547	-0.449	-0.097
-175.983	-133.531	-0.145	-0.018
-174.969	-200.000	0.000	-0.125
-173.954	364.096	0.088	0.175
-172.939	-95.809	-0.133	-0.035
-171.925	-134.094	-0.176	-0.022
-170.910	-14.786	-0.352	-0.223
-169.896	-112.249	-0.115	0.023
-168.881	84.924	-0.114	-0.124
-167.866	-48.969	-0.281	-0.133
-166.852	800.000	0.063	0.188
-165.837	-83.304	0.237	-0.075
-164.823	-67.106	0.365	-0.142
-163.808	74.343	-0.134	-0.139
-162.793	-1.391	0.246	0.172
-161.779	108.480	0.044	-0.052
-160.764	-100.687	-0.075	-0.018
-159.750	179.889	-0.098	0.141
-158.735	-87.165	0.034	0.010
-157.720	57.568	0.224	0.216
-156.706	47.596	0.128	-0.118
-155.691	347.764	0.057	0.110
-154.677	-93.921	-0.103	0.028
-153.662	-120.005	0.274	0.046
-152.647	310.097	0.042	-0.077
-151.633	293.148	0.038	-0.068
-150.618	-54.877	-0.011	-0.005
-149.604	-112.800	-0.287	-0.056
-148.589	-200.000	-0.011	0.218
-147.574	-180.316	0.130	-0.003
-146.560	-108.634	-0.466	0.099
-145.545	38.830	-0.172	0.151
-144.531	319.857	-0.037	-0.070
-143.516	800.000	-0.037	-0.126
-142.502	28.215	-0.152	-0.126
-141.487	143.960	0.099	-0.130
-140.472	-96.839	0.352	-0.091
-139.458	-171.099	-0.382	0.013
-138.443	-17.087	-0.312	-0.194
-137.429	56.221	-0.171	0.164
-136.414	60.367	0.239	-0.233
-135.399	-200.000	0.044	0.251
-134.385	800.000	-0.029	0.093
-133.370	15.409	0.211	0.163
-132.356	800.000	0.035	0.103
-131.341	113.781	0.057	0.069
-130.326	-98.667	0.477	0.120
-129.312	31.826	0.342	0.291
-128.297	91.220	0.194	0.215
-127.283	-200.000	0.003	0.256
-126.268	-200.000	0.001	0.230
-125.253	-71.297	0.089	0.033
-124.239	800.000	0.054	-0.152
-123.224	269.575	0.183	0.317
-122.210	800.000	0.121	0.445
