DTS Sentinel unit serial number:	SN413079Multiplexer serial number:	ORYXHardware model number:	OX4-SRSoftware version number:	ORYX F/W v4.00 Oryx Data Collector v3.7.2.0data status	okinstallation	princeton_trtdifferential loss correction	single-endedforward channel	channel 3reverse channel	N/Adate	2019/09/16time	08:56:35forward acquisition time	60.00reverse acquisition time	0.00gamma	496.2192k internal	0.2324k external	0.2324temperature offset calibration	0.9959default loss term (dB/km)	0.3790temperature slope calibration	1.0000multiplexer offset coefficient	1.0000multiplexer slope coefficient	1.0000fibre end	0.00T internal ref (°C)	30.28T ext. ref 1 (°C)	12.03T ext. ref 2 (°C)	27.95length (m)	temperature (°C)	Stokes	anti-Stokes-747.200	77.912	-0.294	-0.317
-746.185	200.892	0.030	0.046
-745.171	9.906	0.042	0.032
-744.156	-104.917	0.136	0.032
-743.142	-146.243	0.199	-0.018
-742.127	122.297	-0.359	0.453
-741.112	18.010	0.153	0.123
-740.098	175.912	0.092	0.135
-739.083	138.276	0.042	-0.055
-738.069	695.752	-0.086	0.228
-737.054	-20.432	0.212	0.132
-736.039	681.314	-0.056	-0.148
-735.025	443.273	-0.240	0.530
-734.010	-132.650	-0.469	-0.061
-732.996	-10.515	-0.086	0.058
-731.981	-200.000	0.002	0.097
-730.966	800.000	-0.074	-0.257
-729.952	-102.521	-0.244	-0.059
-728.937	4.740	-0.057	-0.042
-727.923	-56.359	-0.149	0.067
-726.908	-60.576	-0.191	-0.082
-725.894	-85.521	-0.063	-0.020
-724.879	-39.663	0.024	-0.013
-723.864	-70.394	0.061	0.023
-722.850	-84.129	-0.251	-0.080
-721.835	-80.626	-0.089	-0.030
-720.821	387.291	-0.068	-0.142
-719.806	-200.000	0.017	-0.092
-718.791	-51.605	-0.206	0.097
-717.777	-90.388	-0.059	-0.017
-716.762	16.980	-0.117	0.094
-715.748	-78.971	0.068	-0.023
-714.733	800.000	0.020	0.061
-713.718	-162.411	-0.227	0.011
-712.704	-5.236	0.231	0.160
-711.689	-168.347	0.100	-0.004
-710.675	139.411	0.038	-0.050
-709.660	-128.255	-0.207	0.030
-708.645	250.850	-0.062	0.106
-707.631	-108.138	-0.328	-0.072
-706.616	5.833	0.314	0.234
-705.602	135.316	0.162	0.213
-704.587	589.138	0.075	-0.186
-703.572	-173.616	-0.126	0.004
-702.558	-39.519	0.082	-0.043
-701.543	3.656	0.130	0.095
-700.529	535.785	-0.116	0.278
-699.514	-200.000	0.031	-0.312
-698.499	1.886	0.117	0.085
-697.485	-136.870	0.181	-0.021
-696.470	86.863	-0.079	-0.088
-695.456	-135.977	0.266	0.032
-694.441	16.918	-0.270	-0.215
-693.426	184.769	-0.142	-0.212
-692.412	-25.717	-0.096	0.057
-691.397	-9.866	-0.197	-0.132
-690.383	-69.399	0.188	-0.072
-689.368	-86.444	-0.158	0.049
-688.354	210.697	-0.145	-0.230
-687.339	-102.915	-0.130	0.031
-686.324	-73.131	0.383	-0.142
-685.310	-200.000	-0.035	-0.406
-684.295	-131.839	-0.165	0.022
-683.281	-126.100	0.270	0.041
-682.266	-200.000	0.038	0.203
-681.251	123.209	0.079	-0.100
-680.237	-52.482	-0.214	-0.099
-679.222	800.000	0.136	-0.439
-678.208	406.403	0.122	0.259
-677.193	-200.000	-0.025	0.271
-676.178	-200.000	-0.014	0.147
-675.164	-53.473	0.104	0.048
-674.149	-94.325	-0.310	0.085
-673.135	-200.000	-0.039	0.243
-672.120	-117.306	-0.096	0.018
-671.105	52.998	0.160	0.154
-670.091	-200.000	0.030	0.385
-669.076	-74.439	0.109	0.040
-668.062	-13.600	-0.180	0.117
-667.047	66.919	0.192	0.196
-666.032	565.688	0.109	0.265
-665.018	800.000	-0.072	0.300
-664.003	-135.270	-0.102	0.012
-662.989	800.000	-0.066	0.232
-661.974	531.469	-0.006	0.014
-660.959	24.305	-0.144	-0.119
-659.945	146.377	-0.094	-0.127
-658.930	-200.000	-0.438	-0.001
-657.916	2.852	-0.047	0.035
-656.901	105.478	-0.097	0.115
-655.886	-82.779	0.412	-0.134
-654.872	115.132	-0.061	0.074
-653.857	94.965	-0.116	0.133
-652.843	-16.495	-0.044	0.028
-651.828	-90.229	0.189	-0.055
-650.814	333.766	0.075	-0.146
-649.799	348.076	-0.099	0.196
-648.784	-200.000	0.040	-0.226
-647.770	79.181	0.106	-0.114
-646.755	55.810	0.019	-0.018
-645.741	234.447	0.190	-0.315
-644.726	98.530	0.115	0.133
-643.711	768.783	0.096	-0.263
-642.697	123.317	0.071	0.090
-641.682	103.094	-0.100	0.117
-640.668	-155.032	0.289	0.019
-639.653	209.272	-0.049	0.077
-638.638	-200.000	0.044	-0.376
-637.624	535.701	0.138	-0.329
-636.609	-0.556	0.076	0.055
-635.595	-147.975	0.051	-0.004
-634.580	-49.740	-0.041	0.019
-633.565	-200.000	-0.017	0.117
-632.551	208.399	0.073	0.114
-631.536	36.567	-0.165	0.146
-630.522	21.296	-0.055	0.045
-629.507	212.961	-0.168	-0.266
-628.492	800.000	0.038	-0.114
-627.478	-38.470	0.337	-0.179
-626.463	-139.084	0.474	0.052
-625.449	800.000	0.092	0.270
-624.434	-166.204	-0.263	-0.011
-623.419	800.000	0.081	0.295
-622.405	-56.438	0.112	-0.050
-621.390	163.203	-0.137	-0.193
-620.376	7.705	0.135	-0.101
-619.361	210.086	0.333	-0.525
-618.346	183.586	-0.210	-0.311
-617.332	96.404	-0.364	-0.418
-616.317	-200.000	-0.053	-0.261
-615.303	-200.000	0.041	0.317
-614.288	146.279	0.095	0.128
-613.273	-77.275	-0.257	0.090
-612.259	-2.933	-0.384	0.270
-611.244	-109.955	-0.198	0.042
-610.230	51.058	0.125	-0.119
-609.215	-14.187	-0.202	0.131
-608.201	-70.618	0.500	-0.190
-607.186	-41.647	-0.029	0.015
-606.171	242.907	-0.091	-0.154
-605.157	622.381	-0.038	-0.096
-604.142	87.734	-0.029	-0.032
-603.128	-200.000	0.034	-0.337
-602.113	-56.835	-0.125	0.056
-601.098	280.250	0.157	0.282
-600.084	-149.496	0.181	-0.014
-599.069	-110.303	0.504	0.105
-598.055	84.480	-0.136	0.150
-597.040	538.310	-0.091	0.217
-596.025	-98.783	0.241	0.062
-595.011	-112.076	0.224	0.045
-593.996	329.358	0.209	0.404
-592.982	649.448	-0.116	0.298
-591.967	-200.000	-0.006	0.201
-590.952	800.000	0.041	-0.118
-589.938	69.524	-0.112	0.116
-588.923	-39.266	-0.191	0.101
-587.909	-200.000	0.007	-0.128
-586.894	-160.496	0.467	0.025
-585.879	216.215	-0.100	-0.160
-584.865	-11.734	-0.204	0.134
-583.850	261.113	0.126	0.218
-582.836	179.572	-0.266	0.391
-581.821	68.400	-0.260	0.267
-580.806	760.599	-0.140	-0.380
-579.792	-200.000	0.025	-0.238
-578.777	-149.212	-0.350	0.028
-577.763	800.000	0.062	0.226
-576.748	29.565	-0.041	0.035
-575.733	-200.000	0.027	-0.138
-574.719	-161.573	-0.352	0.018
-573.704	-51.483	0.122	0.057
-572.690	646.546	-0.041	0.106
-571.675	-165.392	0.441	0.019
-570.661	-37.566	-0.234	0.125
-569.646	-200.000	-0.055	-0.271
-568.631	190.819	0.057	-0.086
-567.617	-200.000	0.034	-0.249
-566.602	800.000	0.109	-0.365
-565.588	185.842	0.103	0.153
-564.573	50.491	-0.189	0.179
-563.558	800.000	0.045	-0.150
-562.544	-200.000	-0.035	0.230
-561.529	-91.755	-0.386	0.110
-560.515	-74.994	-0.138	-0.050
-559.500	548.512	-0.034	-0.083
-558.485	-108.579	0.259	0.056
-557.471	-171.064	0.191	0.006
-556.456	-139.292	-0.198	0.021
-555.442	-159.483	-0.126	-0.007
-554.427	-77.922	0.344	-0.119
-553.412	-19.323	-0.201	-0.125
-552.398	-98.533	-0.102	0.026
-551.383	147.367	0.246	0.332
-550.369	-105.449	0.283	0.065
-549.354	-120.679	-0.345	0.059
-548.339	-44.724	-0.248	-0.124
-547.325	-120.354	0.033	-0.006
-546.310	381.587	-0.143	-0.294
-545.296	-54.833	0.277	0.125
-544.281	-200.000	-0.015	0.092
-543.266	-63.021	0.062	0.026
-542.252	-29.906	-0.123	-0.070
-541.237	-200.000	0.019	-0.197
-540.223	-151.682	-0.337	-0.025
-539.208	800.000	0.023	0.097
-538.193	-31.054	0.090	0.051
-537.179	-185.208	0.241	-0.004
-536.164	386.432	-0.070	-0.144
-535.150	28.610	0.220	0.187
-534.135	800.000	-0.051	0.164
-533.121	-51.019	0.140	-0.066
-532.106	245.932	-0.075	-0.126
-531.091	-200.000	-0.006	-0.124
-530.077	359.519	-0.026	0.053
-529.062	800.000	0.025	0.092
-528.048	73.686	0.108	0.114
-527.033	-98.015	0.190	-0.049
-526.018	41.083	-0.247	-0.223
-525.004	800.000	-0.018	-0.076
-523.989	-72.280	-0.064	-0.024
-522.975	800.000	-0.112	-0.366
-521.960	-10.277	0.170	0.113
-520.945	-200.000	-0.011	-0.520
-519.931	-96.024	0.045	0.012
-518.916	-200.000	0.036	-0.234
-517.902	800.000	0.069	-0.301
-516.887	-200.000	0.041	0.184
-515.872	16.321	0.197	-0.156
-514.858	197.889	-0.134	-0.205
-513.843	65.600	0.059	-0.060
-512.829	168.419	0.064	0.091
-511.814	-6.317	0.314	-0.215
-510.799	-170.702	0.128	0.004
-509.785	-200.000	-0.061	-0.333
-508.770	398.833	0.073	-0.153
-507.756	-200.000	-0.015	0.169
-506.741	-27.872	-0.282	-0.163
-505.726	31.238	0.320	-0.275
-504.712	800.000	-0.094	-0.367
-503.697	7.740	0.051	0.038
-502.683	-175.894	0.421	0.011
-501.668	197.582	-0.133	-0.203
-500.653	-121.941	0.174	-0.029
-499.639	341.518	-0.115	0.226
-498.624	800.000	-0.045	0.136
-497.610	-122.630	-0.223	-0.036
-496.595	-200.000	-0.033	0.292
-495.581	800.000	0.064	0.181
-494.566	318.684	-0.121	0.229
-493.551	-148.044	0.108	0.009
-492.537	264.330	0.021	-0.037
-491.522	514.929	0.079	0.184
-490.508	800.000	0.053	-0.202
-489.493	142.886	0.042	-0.056
-488.478	35.915	-0.253	0.222
-487.464	-125.932	0.254	-0.038
-486.449	-107.687	-0.221	-0.048
-485.435	7.239	-0.169	0.126
-484.420	-200.000	-0.024	-0.290
-483.405	-61.514	0.322	-0.135
-482.391	-89.319	0.192	0.057
-481.376	437.640	-0.101	0.220
-480.362	-200.000	-0.047	-0.470
-479.347	-76.512	-0.351	0.123
-478.332	283.703	0.023	0.041
-477.318	17.853	0.168	-0.134
-476.303	275.293	0.075	0.133
-475.289	-13.774	-0.104	0.067
-474.274	242.074	-0.130	0.217
-473.259	-200.000	-0.003	-0.061
-472.245	800.000	-0.060	0.201
-471.230	-11.341	-0.191	0.126
-470.216	-200.000	-0.002	-0.350
-469.201	-60.046	-0.101	0.043
-468.186	89.260	0.121	0.135
-467.172	-80.816	-0.101	0.033
-466.157	-200.000	0.058	-0.270
-465.143	-200.000	0.025	0.258
-464.128	-200.000	-0.010	-0.067
-463.113	-43.321	-0.357	-0.180
-462.099	-200.000	-0.024	0.304
-461.084	787.369	-0.098	-0.270
-460.070	-67.406	0.308	-0.121
-459.055	-200.000	0.007	-0.031
-458.040	-53.046	-0.260	0.119
-457.026	-112.970	-0.219	-0.043
-456.011	173.256	-0.051	-0.074
-454.997	42.066	0.139	-0.126
-453.982	-200.000	-0.044	0.246
-452.968	108.278	0.050	0.060
-451.953	-200.000	0.016	0.247
-450.938	4.450	0.122	-0.089
-449.924	212.389	-0.127	0.199
-448.909	800.000	-0.061	0.171
-447.895	-200.000	-0.043	-0.301
-446.880	-20.213	-0.270	0.166
-445.865	404.444	0.077	0.162
-444.851	-200.000	0.018	-0.207
-443.836	800.000	0.054	-0.212
-442.822	146.340	-0.166	0.222
-441.807	80.131	0.260	-0.279
-440.792	-109.485	0.187	0.039
-439.778	800.000	0.061	-0.207
-438.763	800.000	0.072	0.209
-437.749	-81.629	-0.055	0.018
-436.734	-102.151	-0.068	0.016
-435.719	90.975	-0.173	0.193
-434.705	-130.087	0.271	0.037
-433.690	-200.000	0.001	0.303
-432.676	27.344	-0.039	0.032
-431.661	-200.000	0.002	-0.044
-430.646	-90.550	0.239	0.069
-429.632	-124.755	-0.353	-0.054
-428.617	46.195	0.215	-0.199
-427.603	-24.285	0.166	-0.099
-426.588	-73.090	0.233	-0.085
-425.573	664.354	0.042	-0.108
-424.559	9.015	0.079	0.060
-423.544	4.307	-0.274	-0.200
-422.530	361.058	-0.093	0.186
-421.515	-38.208	0.097	-0.051
-420.500	9.213	-0.118	0.089
-419.486	61.375	0.099	-0.099
-418.471	-99.084	-0.148	0.037
-417.457	-133.071	0.190	0.024
-416.442	-142.578	-0.305	-0.030
-415.428	-47.742	-0.049	0.024
-414.413	107.489	-0.032	0.038
-413.398	-47.519	-0.075	-0.036
-412.384	-52.015	0.306	0.142
-411.369	-200.000	0.016	0.200
-410.355	800.000	0.075	-0.230
-409.340	251.813	0.084	-0.143
-408.325	92.467	-0.107	-0.120
-407.311	355.586	0.056	-0.112
-406.296	3.569	0.234	-0.170
-405.282	-200.000	-0.026	-0.156
-404.267	-172.526	-0.163	-0.005
-403.252	61.928	-0.037	0.037
-402.238	-120.704	-0.322	0.054
-401.223	34.480	0.233	-0.203
-400.209	-200.000	-0.003	-0.200
-399.194	35.728	-0.102	0.089
-398.179	556.532	-0.110	0.263
-397.165	276.713	-0.163	0.289
-396.150	-200.000	-0.041	0.244
-395.136	-125.980	-0.032	-0.005
-394.121	-81.622	0.191	-0.063
-393.106	800.000	0.111	-0.392
-392.092	-200.000	-0.003	-0.016
-391.077	297.154	-0.160	0.293
-390.063	140.205	0.131	0.173
-389.048	-200.000	0.001	0.008
-388.033	556.937	-0.104	-0.249
-387.019	800.000	0.131	-0.431
-386.004	-76.031	0.226	-0.079
-384.990	95.192	-0.077	0.087
-383.975	-200.000	0.012	0.094
-382.960	800.000	0.081	0.275
-381.946	778.653	0.036	-0.097
-380.931	-102.625	-0.092	0.022
-379.917	-172.117	0.334	0.011
-378.902	-103.168	-0.136	0.032
-377.888	-108.698	-0.307	0.065
-376.873	-148.899	-0.142	0.011
-375.858	-200.000	-0.028	0.201
-374.844	-14.320	-0.029	0.018
-373.829	657.593	-0.156	-0.400
-372.815	4.335	-0.168	-0.122
-371.800	358.197	0.107	0.212
-370.785	50.348	0.113	0.107
-369.771	-97.271	-0.092	-0.024
-368.756	800.000	-0.083	0.279
-367.742	136.106	-0.122	0.158
-366.727	-64.960	-0.386	0.155
-365.712	74.799	0.113	0.118
-364.698	35.554	0.188	-0.164
-363.683	161.695	-0.232	-0.322
-362.669	64.463	0.158	0.158
-361.654	709.832	-0.062	0.164
-360.639	-24.439	0.099	0.058
-359.625	446.501	-0.111	0.242
-358.610	394.167	0.108	0.223
-357.596	-200.000	-0.094	0.479
-356.581	-200.000	0.014	0.094
-355.566	-57.652	0.281	0.122
-354.552	-59.510	-0.127	0.054
-353.537	10.030	0.293	-0.221
-352.523	170.556	-0.143	0.203
-351.508	102.269	0.139	0.162
-350.493	800.000	0.081	0.331
-349.479	-200.000	0.030	-0.132
-348.464	220.065	-0.082	0.131
-347.450	800.000	0.119	-0.342
-346.435	7.860	-0.083	-0.062
-345.420	382.038	-0.192	0.393
-344.406	-200.000	-0.001	-0.058
-343.391	-200.000	-0.009	0.137
-342.377	800.000	-0.024	0.091
-341.362	58.425	-0.105	-0.102
-340.348	-116.216	-0.139	-0.026
-339.333	800.000	0.082	0.241
-338.318	326.959	-0.078	0.149
-337.304	158.676	0.153	0.212
-336.289	-200.000	-0.036	-0.280
-335.275	-134.080	0.090	-0.011
-334.260	47.479	0.062	0.057
-333.245	32.495	-0.073	0.063
-332.231	-180.800	-0.093	0.002
-331.216	11.153	-0.108	-0.082
-330.202	-89.600	-0.382	-0.111
-329.187	-200.000	0.091	-0.404
-328.172	800.000	0.041	-0.115
-327.158	157.055	-0.239	-0.328
-326.143	-129.695	-0.034	-0.005
-325.129	-70.830	0.321	-0.120
-324.114	264.201	-0.228	0.393
-323.099	800.000	-0.067	0.286
-322.085	-200.000	-0.057	0.312
-321.070	-25.479	0.176	-0.103
-320.056	-91.363	0.211	0.060
-319.041	-200.000	0.080	0.458
-318.026	-125.819	-0.095	0.014
-317.012	800.000	0.027	0.101
-315.997	-200.000	-0.036	-0.391
-314.983	-116.689	-0.228	0.042
-313.968	-49.217	-0.346	-0.164
-312.953	-57.783	0.288	-0.125
-311.939	800.000	-0.074	0.273
-310.924	-49.678	0.359	0.169
-309.910	427.089	0.027	-0.057
-308.895	-200.000	-0.005	0.105
-307.880	13.374	-0.266	-0.205
-306.866	69.736	0.183	-0.187
-305.851	-87.448	-0.205	0.062
-304.837	368.668	0.048	0.097
-303.822	-200.000	-0.009	-0.177
-302.807	212.331	0.283	-0.443
-301.793	-179.862	0.364	-0.008
-300.778	-112.668	-0.081	0.016
-299.764	-40.360	0.108	0.056
-298.749	-145.926	0.267	0.023
-297.735	15.653	-0.225	-0.175
-296.720	-200.000	-0.022	-0.208
-295.705	-85.871	0.144	0.044
-294.691	-55.105	0.262	-0.117
-293.676	401.310	-0.095	0.197
-292.662	28.858	-0.260	0.219
-291.647	15.281	-0.286	-0.222
-290.632	114.738	0.079	0.096
-289.618	390.364	0.124	-0.254
-288.603	-200.000	0.318	0.001
-287.589	-135.028	-0.116	0.014
-286.574	-5.958	0.086	-0.058
-285.559	-200.000	0.023	-0.190
-284.545	176.997	-0.014	0.020
-283.530	-22.680	0.091	0.054
-282.516	-37.847	0.288	0.152
-281.501	-46.976	-0.273	0.132
-280.486	-72.184	0.165	-0.061
-279.472	-30.438	0.122	-0.068
-278.457	55.469	-0.120	-0.115
-277.443	-10.827	-0.208	0.137
-276.428	63.937	0.160	-0.160
-275.413	-162.617	0.183	-0.009
-274.399	800.000	0.108	0.322
-273.384	26.846	0.133	0.110
-272.370	-200.000	-0.018	0.085
-271.355	208.929	-0.168	0.260
-270.340	83.293	0.205	-0.221
-269.326	64.713	-0.295	0.294
-268.311	-104.864	-0.169	-0.039
-267.297	-54.131	-0.214	-0.096
-266.282	-73.317	-0.151	-0.055
-265.267	-161.049	0.448	0.023
-264.253	800.000	-0.144	-0.420
-263.238	800.000	0.106	0.402
-262.224	118.692	-0.278	-0.340
-261.209	-200.000	0.009	0.230
-260.195	-200.000	-0.018	0.286
-259.180	-93.948	0.143	0.039
-258.165	-69.980	-0.105	-0.040
-257.151	-200.000	0.029	0.452
-256.136	132.415	-0.119	-0.152
-255.122	800.000	-0.076	-0.280
-254.107	-200.000	0.012	0.350
-253.092	-107.369	0.138	0.030
-252.078	800.000	-0.024	-0.102
-251.063	41.780	0.217	-0.195
-250.049	691.138	0.055	-0.142
-249.034	-120.497	-0.355	0.060
-248.019	-83.735	-0.270	-0.085
-247.005	79.396	-0.115	-0.122
-245.990	149.650	-0.092	0.123
-244.976	645.887	-0.047	0.118
-243.961	31.826	-0.333	0.283
-242.946	-46.993	-0.241	-0.117
-241.932	-35.625	-0.225	0.121
-240.917	800.000	-0.041	0.170
-239.903	3.755	-0.241	0.174
-238.888	63.247	-0.116	-0.116
-237.873	-200.000	0.019	0.208
-236.859	301.578	-0.026	0.048
-235.844	800.000	-0.086	0.367
-234.830	-53.396	0.478	0.217
-233.815	771.821	-0.058	-0.158
-232.800	147.703	0.060	-0.081
-231.786	-188.900	0.157	-0.002
-230.771	-27.512	-0.188	-0.108
-229.757	-200.000	-0.033	-0.399
-228.742	300.774	0.168	0.307
-227.727	-126.154	0.191	0.028
-226.713	663.362	0.041	0.103
-225.698	27.079	-0.111	0.092
-224.684	22.506	0.381	-0.308
-223.669	-34.261	-0.242	0.131
-222.655	-17.438	-0.149	-0.093
-221.640	-200.000	-0.034	0.157
-220.625	-14.667	-0.094	0.059
-219.611	-182.844	0.139	-0.002
-218.596	112.490	-0.258	-0.308
-217.582	-115.640	0.210	-0.039
-216.567	61.241	-0.176	0.173
-215.552	267.177	-0.220	0.381
-214.538	800.000	0.085	-0.237
-213.523	-200.000	0.053	-0.325
-212.509	16.355	0.067	-0.052
-211.494	-15.049	0.212	0.134
-210.479	-112.337	0.275	-0.054
-209.465	-18.486	-0.095	0.059
-208.450	-18.985	-0.238	0.146
-207.436	645.821	-0.050	-0.126
-206.421	403.900	-0.064	-0.134
-205.406	394.801	0.181	-0.373
-204.392	41.536	-0.201	-0.179
-203.377	-43.047	0.128	0.064
-202.363	716.898	-0.046	0.121
-201.348	702.530	-0.111	-0.288
-200.333	-200.000	-0.048	-0.327
-199.319	-4.983	-0.115	-0.078
-198.304	144.613	-0.254	0.335
-197.290	-144.464	0.294	0.027
-196.275	123.963	-0.192	0.238
-195.260	-101.444	-0.108	0.026
-194.246	800.000	-0.081	-0.254
-193.231	60.054	0.218	-0.213
-192.217	-186.366	0.045	-0.001
-191.202	-200.000	-0.007	0.144
-190.187	772.728	0.067	0.179
-189.173	-104.869	0.156	0.035
-188.158	-73.320	0.220	-0.080
-187.144	-200.000	-0.062	-0.378
-186.129	800.000	0.101	-0.291
-185.114	-2.027	0.024	-0.016
-184.100	800.000	0.099	0.404
-183.085	342.806	0.023	-0.045
-182.071	-200.000	-0.030	-0.264
-181.056	-200.000	-0.032	-0.370
-180.042	-145.438	0.458	0.041
-179.027	-41.114	-0.137	-0.070
-178.012	-192.479	-0.060	0.001
-176.998	782.563	0.029	0.078
-175.983	41.985	-0.143	-0.128
-174.969	-200.000	0.099	-0.469
-173.954	-162.377	0.206	-0.010
-172.939	129.332	-0.194	-0.245
-171.925	-53.349	-0.030	-0.013
-170.910	-24.847	0.279	0.163
-169.896	-126.506	0.274	-0.040
-168.881	800.000	0.017	-0.058
-167.866	-70.082	-0.260	0.098
-166.852	-200.000	0.028	0.226
-165.837	750.398	0.100	-0.266
-164.823	165.161	0.305	0.426
-163.808	-200.000	-0.012	0.162
-162.793	62.323	-0.067	-0.066
-161.779	99.603	-0.093	-0.106
-160.764	800.000	-0.009	-0.028
-159.750	-195.912	-0.175	-0.001
-158.735	212.674	-0.165	0.257
-157.720	-200.000	-0.029	0.196
-156.706	-116.074	0.061	-0.011
-155.691	71.952	0.154	0.158
-154.677	117.156	-0.206	0.250
-153.662	-37.348	0.248	0.130
-152.647	58.496	-0.242	0.234
-151.633	296.961	-0.046	0.084
-150.618	4.713	-0.068	-0.049
-149.604	-95.655	0.218	-0.057
-148.589	800.000	0.099	-0.351
-147.574	-200.000	-0.002	-0.110
-146.560	372.499	-0.099	0.199
-145.545	105.825	-0.264	-0.308
-144.531	225.876	0.241	0.385
-143.516	-55.560	-0.230	-0.102
-142.502	-65.865	0.202	0.080
-141.487	-200.000	-0.388	0.000
-140.472	-200.000	0.001	0.056
-139.458	771.297	0.139	0.374
-138.443	800.000	0.112	-0.388
-137.429	167.036	-0.145	-0.203
-136.414	86.408	-0.017	0.018
-135.399	220.597	0.107	-0.170
-134.385	-200.000	0.055	-0.303
-133.370	800.000	-0.167	0.543
-132.356	-165.882	-0.244	-0.010
-131.341	84.594	0.162	-0.174
-130.326	-20.355	0.247	0.150
-129.312	83.753	0.050	0.054
-128.297	-96.870	-0.268	0.069
-127.283	-11.381	-0.203	0.131
-126.268	354.738	-0.035	0.068
-125.253	75.192	0.160	-0.166
-124.239	-45.096	0.231	-0.113
-123.224	-120.499	-0.210	-0.035
-122.210	-161.183	0.144	-0.007
-121.195	29.511	0.149	-0.125
