DTS Sentinel unit serial number:	SN413079Multiplexer serial number:	ORYXHardware model number:	OX4-SRSoftware version number:	ORYX F/W v4.00 Oryx Data Collector v3.7.2.0data status	okinstallation	princeton_trtdifferential loss correction	single-endedforward channel	channel 3reverse channel	N/Adate	2019/09/14time	17:20:35forward acquisition time	60.00reverse acquisition time	0.00gamma	496.2192k internal	0.2296k external	0.2296temperature offset calibration	1.0030default loss term (dB/km)	0.3790temperature slope calibration	1.0000multiplexer offset coefficient	1.0000multiplexer slope coefficient	1.0000fibre end	0.00T internal ref (°C)	37.87T ext. ref 1 (°C)	5.06T ext. ref 2 (°C)	32.72length (m)	temperature (°C)	Stokes	anti-Stokes-747.200	693.878	0.087	0.234
-746.185	13.405	-0.116	0.092
-745.171	800.000	0.059	-0.255
-744.156	282.335	0.151	0.277
-743.142	-26.605	0.130	-0.077
-742.127	170.932	0.116	-0.170
-741.112	246.046	0.259	0.445
-740.098	-200.000	-0.015	0.172
-739.083	-111.902	-0.217	0.045
-738.069	-23.595	0.414	-0.253
-737.054	-104.506	-0.176	-0.041
-736.039	77.379	-0.081	0.088
-735.025	202.802	-0.072	-0.114
-734.010	-200.000	0.041	-0.222
-732.996	441.593	-0.070	-0.156
-731.981	-200.000	0.014	0.301
-730.966	-48.488	0.247	-0.121
-729.952	67.519	-0.267	-0.279
-728.937	633.437	-0.146	-0.379
-727.923	-200.000	-0.035	-0.190
-726.908	-96.652	-0.378	0.102
-725.894	165.768	0.161	0.232
-724.879	-200.000	0.006	0.251
-723.864	-200.000	0.010	-0.304
-722.850	-168.305	0.315	-0.012
-721.835	-200.000	-0.003	-0.123
-720.821	209.172	-0.034	-0.055
-719.806	-84.310	-0.361	-0.117
-718.791	800.000	0.056	-0.219
-717.777	163.902	-0.107	-0.154
-716.762	-66.911	-0.293	-0.118
-715.748	347.299	-0.146	0.294
-714.733	54.650	-0.121	0.119
-713.718	85.015	-0.115	-0.128
-712.704	670.958	0.119	-0.313
-711.689	-200.000	-0.009	-0.079
-710.675	147.348	0.262	0.360
-709.660	-47.859	0.219	0.108
-708.645	-104.350	-0.140	-0.033
-707.631	-6.354	-0.225	-0.157
-706.616	-200.000	0.088	0.436
-705.602	403.053	-0.104	-0.222
-704.587	-14.880	0.321	-0.210
-703.572	-85.877	0.150	0.047
-702.558	800.000	0.057	-0.184
-701.543	142.106	-0.201	0.272
-700.529	-42.016	-0.346	0.181
-699.514	9.664	-0.021	-0.016
-698.499	206.854	0.072	-0.114
-697.485	-200.000	0.001	-0.079
-696.470	187.550	0.212	-0.323
-695.456	532.015	-0.195	0.470
-694.441	800.000	-0.132	-0.437
-693.426	-24.563	0.248	0.150
-692.412	800.000	0.055	-0.185
-691.397	-40.394	-0.334	-0.177
-690.383	-148.734	-0.261	-0.022
-689.368	438.457	0.021	-0.046
-688.354	292.292	0.064	-0.119
-687.339	-133.304	-0.155	-0.020
-686.324	-200.000	-0.009	-0.103
-685.310	7.299	-0.063	-0.048
-684.295	353.622	-0.124	0.250
-683.281	-63.588	0.177	0.074
-682.266	318.293	0.075	-0.145
-681.251	-27.222	-0.276	-0.164
-680.237	-200.000	0.068	0.390
-679.222	-43.907	-0.317	0.162
-678.208	-100.267	0.074	0.019
-677.193	203.695	-0.141	-0.222
-676.178	28.091	-0.273	-0.234
-675.164	281.762	0.056	0.102
-674.149	-200.000	-0.001	-0.154
-673.135	-89.609	0.114	0.034
-672.120	-200.000	-0.016	-0.252
-671.105	219.007	-0.127	-0.206
-670.091	-200.000	-0.020	-0.183
-669.076	-200.000	0.014	0.123
-668.062	-40.294	0.309	-0.164
-667.047	97.351	0.126	-0.147
-666.032	-2.738	-0.045	-0.032
-665.018	196.769	0.051	-0.079
-664.003	800.000	-0.056	0.163
-662.989	244.069	-0.169	-0.288
-661.974	99.069	0.044	0.052
-660.959	-200.000	0.038	-0.217
-659.945	-153.744	-0.279	0.019
-658.930	-55.273	-0.316	0.145
-657.916	101.956	0.030	-0.036
-656.901	-149.301	-0.233	-0.019
-655.886	-200.000	0.047	0.232
-654.872	90.104	-0.094	-0.107
-653.857	800.000	-0.059	0.202
-652.843	-200.000	-0.029	0.158
-651.828	121.707	-0.146	0.186
-650.814	-200.000	-0.016	0.167
-649.799	-200.000	-0.014	-0.098
-648.784	800.000	0.033	0.097
-647.770	395.067	-0.121	0.256
-646.755	153.421	-0.166	-0.232
-645.741	-102.416	0.143	0.035
-644.726	227.685	0.164	-0.272
-643.711	0.275	-0.188	0.136
-642.697	253.772	0.182	-0.316
-641.682	-38.155	0.090	0.049
-640.668	-47.801	-0.194	0.096
-639.653	800.000	-0.064	0.284
-638.638	2.046	0.067	-0.049
-637.624	-95.965	-0.212	-0.057
-636.609	350.348	-0.156	-0.314
-635.595	76.585	0.137	0.148
-634.580	-33.234	0.202	0.114
-633.565	-136.055	-0.169	0.020
-632.551	14.765	-0.090	-0.072
-631.536	10.026	-0.191	-0.148
-630.522	-149.306	0.138	0.011
-629.507	-146.381	-0.119	0.011
-628.492	248.706	0.099	0.170
-627.478	800.000	-0.177	-0.593
-626.463	477.222	0.091	-0.208
-625.449	20.208	-0.171	0.140
-624.434	-200.000	-0.005	-0.103
-623.419	769.842	0.055	-0.153
-622.405	-46.878	-0.194	-0.096
-621.390	-68.600	-0.075	0.030
-620.376	399.582	-0.287	0.611
-619.361	-40.497	-0.195	0.103
-618.346	800.000	-0.050	0.146
-617.332	-200.000	0.001	0.023
-616.317	194.828	0.172	0.266
-615.303	-140.213	0.264	0.028
-614.288	-22.386	-0.149	-0.092
-613.273	385.080	-0.170	0.356
-612.259	24.938	0.216	-0.182
-611.244	132.192	0.072	0.094
-610.230	517.409	-0.072	-0.171
-609.215	235.836	0.097	-0.163
-608.201	128.798	-0.166	-0.215
-607.186	5.929	0.143	0.107
-606.171	148.643	0.195	0.268
-605.157	115.024	0.182	0.225
-604.142	-68.699	0.106	0.042
-603.128	-200.000	0.017	0.082
-602.113	-24.612	-0.188	0.114
-601.098	-200.000	0.042	-0.247
-600.084	-24.389	-0.279	-0.169
-599.069	-27.978	-0.079	-0.046
-598.055	15.573	0.045	0.036
-597.040	473.191	0.110	-0.253
-596.025	-177.273	0.063	-0.002
-595.011	-200.000	-0.010	-0.303
-593.996	-59.691	-0.461	-0.201
-592.982	-165.051	-0.120	-0.005
-591.967	-33.381	-0.129	-0.072
-590.952	-108.087	-0.408	-0.090
-589.938	-92.084	-0.204	-0.059
-588.923	-82.127	-0.334	0.111
-587.909	61.418	-0.176	0.178
-586.894	-91.370	-0.170	0.049
-585.879	-40.537	0.017	-0.009
-584.865	229.246	-0.140	0.232
-583.850	17.368	0.076	-0.061
-582.836	-200.000	-0.001	0.152
-581.821	-46.343	-0.423	0.211
-580.806	-127.506	-0.277	-0.041
-579.792	-109.060	-0.138	-0.030
-578.777	6.551	0.095	-0.072
-577.763	58.733	-0.082	0.082
-576.748	-200.000	-0.009	0.370
-575.733	66.409	-0.276	0.285
-574.719	-110.471	0.050	0.010
-573.704	136.797	0.053	0.071
-572.690	-200.000	-0.001	0.055
-571.675	-150.151	-0.109	-0.009
-570.661	-88.911	0.122	0.037
-569.646	-91.450	-0.069	-0.020
-568.631	4.835	-0.130	-0.097
-567.617	-74.664	0.200	0.073
-566.602	800.000	-0.023	-0.083
-565.588	90.081	0.085	0.097
-564.573	35.566	-0.095	0.085
-563.558	-113.673	0.282	0.056
-562.544	-37.011	0.380	0.207
-561.529	800.000	0.133	0.445
-560.515	328.419	-0.107	0.208
-559.500	-70.338	0.136	-0.052
-558.485	137.251	0.150	0.199
-557.471	115.901	0.139	-0.173
-556.456	174.707	-0.140	0.205
-555.442	368.591	0.129	0.264
-554.427	-54.517	-0.103	0.047
-553.412	511.643	-0.121	0.286
-552.398	-200.000	0.039	0.282
-551.383	187.295	-0.115	0.174
-550.369	399.290	-0.118	-0.251
-549.354	-29.939	-0.151	-0.087
-548.339	5.503	0.130	0.097
-547.325	-200.000	0.001	-0.390
-546.310	638.888	0.063	0.162
-545.296	-200.000	0.027	0.213
-544.281	84.732	-0.211	0.235
-543.266	-133.031	-0.229	-0.029
-542.252	800.000	0.098	-0.299
-541.237	-200.000	0.056	-0.447
-540.223	98.752	-0.092	0.107
-539.208	382.326	-0.110	0.229
-538.193	106.444	-0.064	-0.077
-537.179	-152.459	0.068	0.005
-536.164	-105.018	-0.272	0.063
-535.150	311.419	0.030	0.056
-534.135	-200.000	0.045	-0.495
-533.121	156.496	-0.143	0.200
-532.106	-42.628	-0.119	0.062
-531.091	-118.511	0.212	0.038
-530.077	-86.109	-0.091	0.029
-529.062	355.686	0.121	-0.244
-528.048	-133.027	0.081	-0.010
-527.033	-167.652	0.279	-0.011
-526.018	-84.647	0.200	0.064
-525.004	219.693	0.100	0.161
-523.989	264.127	0.048	-0.085
-522.975	798.420	-0.149	-0.416
-521.960	-159.168	0.440	0.025
-520.945	-104.040	-0.080	-0.019
-519.931	171.810	-0.201	-0.292
-518.916	-195.392	0.112	-0.001
-517.902	137.082	-0.063	0.084
-516.887	72.169	-0.012	0.013
-515.872	-200.000	-0.012	-0.304
-514.858	-171.693	-0.265	-0.009
-513.843	-51.879	-0.267	-0.126
-512.829	494.174	0.101	0.235
-511.814	-200.000	-0.014	-0.159
-510.799	127.519	0.135	-0.174
-509.785	800.000	-0.021	-0.086
-508.770	757.648	0.043	-0.119
-507.756	289.293	-0.117	-0.216
-506.741	33.503	0.238	-0.209
-505.726	-200.000	-0.010	-0.104
-504.712	57.895	0.039	-0.038
-503.697	-102.038	0.312	-0.076
-502.683	-100.795	-0.247	0.062
-501.668	-1.872	-0.073	-0.052
-500.653	0.528	-0.224	-0.162
-499.639	-44.573	0.262	-0.133
-498.624	-182.602	-0.083	0.002
-497.610	338.784	0.094	0.186
-496.595	800.000	0.078	0.298
-495.581	53.874	-0.111	-0.108
-494.566	271.371	0.197	-0.351
-493.551	-50.443	-0.335	0.160
-492.537	309.877	-0.073	-0.139
-491.522	25.219	-0.067	0.056
-490.508	800.000	-0.019	-0.082
-489.493	800.000	0.052	-0.166
-488.478	-181.902	0.282	-0.005
-487.464	800.000	-0.070	0.276
-486.449	39.365	0.163	-0.147
-485.435	-200.000	-0.084	-0.401
-484.420	-45.738	-0.181	0.091
-483.405	-154.176	0.315	-0.022
-482.391	-89.843	0.275	-0.081
-481.376	-200.000	0.010	0.198
-480.362	-200.000	-0.008	0.277
-479.347	-98.117	-0.111	0.029
-478.332	59.611	0.186	-0.186
-477.318	168.773	0.108	-0.156
-476.303	-200.000	-0.004	0.172
-475.289	-158.303	0.150	-0.009
-474.274	-118.759	0.284	0.051
-473.259	-55.306	0.046	-0.021
-472.245	-62.237	0.192	0.081
-471.230	-152.166	-0.292	-0.021
-470.216	-200.000	0.016	-0.127
-469.201	294.813	-0.115	0.213
-468.186	800.000	0.049	-0.154
-467.172	800.000	-0.046	0.163
-466.157	102.884	-0.060	-0.072
-465.143	31.646	0.154	-0.134
-464.128	342.347	0.143	0.282
-463.113	586.992	0.156	0.389
-462.099	-187.470	-0.223	0.003
-461.084	25.177	0.213	0.179
-460.070	-30.456	0.327	-0.188
-459.055	-200.000	0.014	-0.243
-458.040	-71.445	-0.275	-0.104
-457.026	-10.614	0.252	0.168
-456.011	214.811	0.018	0.029
-454.997	-12.246	0.121	-0.080
-453.982	14.081	-0.300	0.236
-452.968	-93.345	-0.157	-0.044
-451.953	800.000	-0.072	-0.243
-450.938	30.855	0.153	0.132
-449.924	-129.183	-0.190	-0.027
-448.909	-153.773	0.136	0.009
-447.895	38.384	0.074	0.066
-446.880	289.979	-0.050	-0.092
-445.865	-200.000	-0.037	-0.177
-444.851	91.305	-0.022	-0.025
-443.836	-100.744	-0.110	0.027
-442.822	291.530	0.126	0.231
-441.807	700.001	0.156	0.413
-440.792	74.720	-0.031	-0.033
-439.778	-200.000	-0.123	-0.001
-438.763	-5.884	-0.440	-0.304
-437.749	110.243	0.265	0.322
-436.734	-84.302	-0.312	-0.100
-435.719	-34.072	0.082	0.045
-434.705	-132.965	0.320	0.041
-433.690	-124.708	-0.397	0.062
-432.676	43.819	-0.211	0.195
-431.661	-200.000	-0.019	-0.187
-430.646	51.967	0.347	0.334
-429.632	-4.402	0.305	0.213
-428.617	-200.000	-0.006	0.141
-427.603	-104.045	-0.117	-0.028
-426.588	-114.530	-0.291	-0.056
-425.573	-200.000	0.006	0.062
-424.559	316.272	0.102	-0.195
-423.544	800.000	0.076	0.261
-422.530	-98.862	0.107	-0.028
-421.515	27.247	0.142	0.120
-420.500	-153.203	-0.257	0.018
-419.486	-119.790	-0.241	0.042
-418.471	800.000	-0.025	-0.080
-417.457	-200.000	-0.023	-0.131
-416.442	-200.000	-0.006	0.132
-415.428	-42.111	-0.320	0.165
-414.413	800.000	0.045	0.147
-413.398	126.886	-0.105	-0.135
-412.384	-25.712	-0.168	-0.100
-411.369	-29.176	-0.226	0.131
-410.355	54.107	-0.197	-0.191
-409.340	251.312	-0.144	-0.247
-408.325	800.000	-0.047	-0.165
-407.311	-19.419	0.088	0.055
-406.296	8.600	-0.286	0.217
-405.282	14.726	-0.242	-0.191
-404.267	-46.087	0.211	-0.105
-403.252	-118.322	0.126	-0.023
-402.238	53.309	0.302	0.292
-401.223	238.822	0.013	-0.022
-400.209	800.000	-0.092	0.330
-399.194	-58.355	-0.259	-0.114
-398.179	-200.000	0.001	-0.060
-397.165	-200.000	0.062	-0.343
-396.150	-200.000	-0.044	-0.259
-395.136	-103.926	0.217	-0.051
-394.121	-104.237	0.329	-0.077
-393.106	160.904	-0.312	-0.439
-392.092	366.803	0.086	-0.175
-391.077	112.580	-0.109	-0.132
-390.063	-174.623	-0.188	0.005
-389.048	-18.456	-0.223	0.140
-388.033	-200.000	0.030	-0.154
-387.019	752.127	0.073	-0.199
-386.004	-200.000	0.015	-0.291
-384.990	800.000	-0.085	-0.307
-383.975	-75.624	-0.281	0.101
-382.960	-32.882	-0.080	-0.045
-381.946	-174.004	0.132	0.004
-380.931	-61.415	0.193	0.082
-379.917	-36.819	-0.129	-0.070
-378.902	-162.339	-0.113	0.006
-377.888	285.139	-0.075	0.137
-376.873	-105.773	0.150	-0.034
-375.858	-92.737	-0.134	0.038
-374.844	800.000	0.062	0.222
-373.829	-200.000	0.013	-0.198
-372.815	-21.220	-0.136	0.084
-371.800	-50.837	-0.065	-0.031
-370.785	-200.000	-0.002	0.383
-369.771	-114.914	-0.142	-0.027
-368.756	-118.447	-0.363	-0.065
-367.742	87.559	0.077	0.086
-366.727	50.760	0.348	0.332
-365.712	800.000	-0.053	-0.162
-364.698	-24.242	-0.068	-0.041
-363.683	346.360	0.057	0.112
-362.669	-151.481	0.402	0.030
-361.654	270.453	-0.112	0.198
-360.639	105.816	0.044	0.053
-359.625	800.000	0.097	-0.312
-358.610	-200.000	0.011	-0.146
-357.596	-63.092	-0.344	0.143
-356.581	371.599	-0.063	-0.128
-355.566	-200.000	0.021	-0.534
-354.552	55.719	0.098	-0.095
-353.537	153.349	-0.193	-0.266
-352.523	-79.227	-0.334	0.114
-351.508	316.003	0.184	-0.350
-350.493	-200.000	0.043	-0.232
-349.479	210.127	0.117	-0.185
-348.464	-112.194	-0.161	0.033
-347.450	-115.933	-0.369	0.069
-346.435	800.000	0.040	-0.160
-345.420	-43.217	-0.100	0.051
-344.406	156.343	0.132	0.183
-343.391	-200.000	0.083	0.382
-342.377	26.876	-0.132	0.111
-341.362	70.461	0.205	0.213
-340.348	107.830	0.187	0.224
-339.333	800.000	0.049	-0.211
-338.318	-105.978	0.270	-0.061
-337.304	-200.000	-0.007	-0.061
-336.289	71.734	-0.174	-0.181
-335.275	10.418	-0.122	0.093
-334.260	439.880	-0.115	-0.252
-333.245	15.718	0.331	-0.262
-332.231	-124.844	0.312	-0.048
-331.216	-26.283	-0.372	-0.220
-330.202	45.671	-0.199	0.185
-329.187	338.433	0.187	0.367
-328.172	22.373	-0.221	0.182
-327.158	-96.206	0.286	0.076
-326.143	-102.663	0.115	0.028
-325.129	8.568	0.113	0.085
-324.114	-9.654	0.091	0.061
-323.099	-24.470	-0.046	0.028
-322.085	-38.198	0.586	-0.312
-321.070	-66.278	-0.063	-0.025
-320.056	-200.000	0.027	0.241
-319.041	112.031	-0.086	0.104
-318.026	162.124	-0.164	-0.231
-317.012	-36.808	-0.175	-0.094
-315.997	-101.890	0.128	0.031
-314.983	209.468	0.210	0.331
-313.968	-64.151	0.351	-0.144
-312.953	228.340	-0.159	-0.260
-311.939	800.000	-0.043	0.127
-310.924	-50.247	0.118	0.056
-309.910	-38.192	0.265	-0.141
-308.895	-65.950	0.151	-0.061
-307.880	-133.429	-0.280	-0.035
-306.866	-200.000	0.001	0.138
-305.851	62.977	-0.094	0.095
-304.837	-43.119	0.094	0.048
-303.822	-51.475	-0.184	-0.086
-302.807	184.190	0.010	0.015
-301.793	7.169	-0.119	0.089
-300.778	330.220	-0.176	-0.339
-299.764	-53.609	0.210	0.097
-298.749	77.607	0.264	0.282
-297.735	800.000	0.106	0.400
-296.720	82.683	0.139	0.151
-295.705	-200.000	0.001	-0.039
-294.691	-86.569	-0.101	0.031
-293.676	729.040	0.053	0.141
-292.662	-34.179	0.198	0.109
-291.647	435.393	0.099	0.216
-290.632	25.864	-0.110	0.092
-289.618	-81.450	0.238	-0.079
-288.603	21.699	-0.114	-0.093
-287.589	413.958	-0.107	0.228
-286.574	86.656	-0.136	0.150
-285.559	310.510	0.133	0.251
-284.545	-200.000	-0.046	0.249
-283.530	-200.000	-0.020	-0.117
-282.516	-200.000	0.014	0.103
-281.501	-95.661	0.183	0.049
-280.486	-200.000	-0.018	-0.125
-279.472	-200.000	-0.001	0.398
-278.457	799.173	0.179	-0.496
-277.443	405.933	0.224	0.473
-276.428	445.599	0.098	-0.216
-275.413	698.868	0.105	-0.277
-274.399	800.000	-0.080	0.270
-273.384	646.853	-0.112	-0.288
-272.370	487.213	0.130	-0.297
-271.355	800.000	0.018	0.053
-270.340	-102.186	-0.276	0.067
-269.326	131.657	-0.124	-0.160
-268.311	14.781	-0.132	0.103
-267.297	-200.000	-0.012	-0.189
-266.282	800.000	0.157	-0.437
-265.267	51.761	0.028	0.027
-264.253	-52.695	-0.281	0.130
-263.238	460.161	0.056	-0.124
-262.224	-73.189	-0.192	0.070
-261.209	17.423	0.055	0.044
-260.195	-4.656	-0.034	0.024
-259.180	747.710	0.058	0.157
-258.165	35.203	0.131	0.115
-257.151	-200.000	-0.018	-0.302
-256.136	-132.381	0.192	0.025
-255.122	291.451	0.034	-0.062
-254.107	10.632	-0.160	0.123
-253.092	-13.091	0.239	-0.156
-252.078	537.255	0.097	0.230
-251.063	172.544	-0.176	0.254
-250.049	-140.836	0.559	0.058
-249.034	297.660	0.072	-0.133
-248.019	234.418	0.121	0.199
-247.005	-25.397	-0.206	-0.122
-245.990	-108.295	0.339	0.073
-244.976	800.000	-0.056	0.218
-243.961	275.545	-0.080	-0.142
-242.946	-200.000	0.001	-0.026
-241.932	-46.149	-0.102	-0.050
-240.917	-200.000	-0.001	0.076
-239.903	-158.757	0.177	0.010
-238.888	8.318	-0.234	-0.176
-237.873	-30.648	-0.205	-0.116
-236.859	-96.643	0.150	0.040
-235.844	31.644	0.075	-0.065
-234.830	-200.000	0.021	-0.268
-233.815	-120.902	0.182	0.031
-232.800	15.516	-0.104	-0.081
-231.786	-200.000	0.007	0.032
-230.771	-68.930	0.074	-0.028
-229.757	-165.464	0.205	0.009
-228.742	304.666	0.113	0.211
-227.727	-35.056	0.352	0.192
-226.713	-200.000	-0.064	0.425
-225.698	257.098	-0.006	-0.010
-224.684	127.165	0.092	0.117
-223.669	-37.758	0.044	-0.024
-222.655	-200.000	0.025	0.270
-221.640	686.610	-0.033	-0.087
-220.625	69.925	0.185	-0.191
-219.611	-200.000	-0.036	-0.230
-218.596	442.342	-0.099	0.216
-217.582	-172.003	0.204	-0.007
-216.567	106.434	-0.137	-0.163
-215.552	327.842	-0.062	0.119
-214.538	-132.369	0.264	0.034
-213.523	113.080	0.080	0.097
-212.509	212.588	0.170	0.269
-211.494	-200.000	0.017	-0.096
-210.479	-103.583	0.252	-0.059
-209.465	-121.835	0.106	0.018
-208.450	330.599	-0.079	-0.153
-207.436	279.609	-0.029	0.053
-206.421	109.736	-0.244	-0.292
-205.406	66.766	0.352	-0.358
-204.392	24.868	-0.169	0.140
-203.377	-21.202	-0.111	0.068
-202.363	148.885	0.237	-0.321
-201.348	-19.682	-0.215	-0.133
-200.333	-77.794	-0.246	0.085
-199.319	-169.202	-0.170	-0.006
-198.304	155.968	0.087	0.119
-197.290	410.495	-0.064	0.135
-196.275	477.001	0.107	-0.242
-195.260	11.234	0.360	-0.276
-194.246	85.099	-0.015	0.016
-193.231	672.610	-0.116	0.301
-192.217	-21.782	0.038	-0.023
-191.202	-138.429	-0.158	-0.017
-190.187	-116.805	0.205	0.038
-189.173	-29.667	0.132	-0.075
-188.158	-34.948	-0.470	-0.256
-187.144	-200.000	0.032	0.333
-186.129	-118.520	-0.116	0.021
-185.114	240.918	-0.141	0.236
-184.100	210.054	0.151	0.237
-183.085	131.831	-0.178	0.229
-182.071	800.000	0.079	0.324
-181.056	-155.022	0.349	0.023
-180.042	-18.830	-0.279	-0.174
-179.027	26.592	-0.079	0.066
-178.012	203.361	0.129	0.200
-176.998	-126.642	0.300	-0.044
-175.983	36.852	0.112	-0.099
-174.969	169.477	0.152	-0.217
-173.954	-71.243	0.177	-0.066
-172.939	-59.597	-0.180	-0.077
-171.925	499.719	-0.194	-0.447
-170.910	-132.942	0.237	0.030
-169.896	-200.000	0.040	0.426
-168.881	-84.537	-0.229	0.072
-167.866	52.763	-0.184	-0.176
-166.852	43.566	0.216	-0.197
-165.837	-129.377	0.210	0.029
-164.823	-200.000	0.087	-0.393
-163.808	417.885	-0.133	-0.283
-162.793	794.815	0.120	-0.329
-161.779	14.559	0.089	-0.069
-160.764	-2.612	-0.236	0.165
-159.750	-185.583	-0.287	0.004
-158.735	800.000	0.044	0.129
-157.720	50.686	-0.058	0.055
-156.706	800.000	0.019	0.057
-155.691	325.972	0.205	0.391
-154.677	-144.606	-0.049	0.005
-153.662	-200.000	-0.034	-0.321
-152.647	-90.818	0.315	-0.091
-151.633	408.379	0.056	-0.119
-150.618	-109.383	-0.255	-0.054
-149.604	-87.378	-0.367	-0.111
-148.589	-60.137	0.043	-0.018
-147.574	3.830	0.506	0.369
-146.560	-99.316	-0.192	0.048
-145.545	39.299	0.084	-0.075
-144.531	-126.237	-0.062	0.009
-143.516	-155.428	0.256	-0.017
-142.502	106.203	-0.208	-0.246
-141.487	-19.267	-0.126	-0.078
-140.472	-32.907	0.023	-0.013
-139.458	-148.644	-0.088	0.007
-138.443	-170.111	0.140	-0.005
-137.429	-200.000	-0.003	0.073
-136.414	-162.043	-0.172	0.009
-135.399	-200.000	-0.005	0.023
-134.385	-53.001	-0.059	0.027
-133.370	-134.433	0.201	0.025
-132.356	-200.000	0.020	0.274
-131.341	-200.000	-0.087	-0.391
-130.326	-43.518	-0.140	-0.071
-129.312	-180.171	-0.167	-0.004
-128.297	-137.786	0.298	0.033
-127.283	23.596	-0.184	0.151
-126.268	-152.521	0.219	-0.016
-125.253	-94.943	0.107	0.029
-124.239	7.608	-0.116	-0.087
-123.224	-200.000	0.023	0.203
-122.210	-54.647	0.078	0.035
-121.195	-101.723	0.318	-0.077
