DTS Sentinel unit serial number:	SN413079Multiplexer serial number:	ORYXHardware model number:	OX4-SRSoftware version number:	ORYX F/W v4.00 Oryx Data Collector v3.7.2.0data status	okinstallation	princeton_trtdifferential loss correction	single-endedforward channel	channel 3reverse channel	N/Adate	2019/09/15time	01:36:35forward acquisition time	60.00reverse acquisition time	0.00gamma	496.2192k internal	0.2321k external	0.2321temperature offset calibration	0.9965default loss term (dB/km)	0.3790temperature slope calibration	1.0000multiplexer offset coefficient	1.0000multiplexer slope coefficient	1.0000fibre end	0.00T internal ref (°C)	31.84T ext. ref 1 (°C)	4.52T ext. ref 2 (°C)	26.75length (m)	temperature (°C)	Stokes	anti-Stokes-747.200	-200.000	0.012	0.184
-746.185	44.603	0.335	0.311
-745.171	67.091	0.217	0.224
-744.156	-200.000	-0.043	0.208
-743.142	35.739	0.271	0.241
-742.127	-200.000	-0.041	0.301
-741.112	-58.413	0.294	0.129
-740.098	-106.570	0.417	-0.094
-739.083	522.312	-0.050	0.118
-738.069	528.860	0.135	0.321
-737.054	165.690	0.201	-0.288
-736.039	-75.631	-0.577	0.207
-735.025	10.491	0.066	0.051
-734.010	186.937	-0.077	-0.116
-732.996	-200.000	-0.029	-0.255
-731.981	47.254	0.089	-0.084
-730.966	588.773	-0.081	-0.201
-729.952	206.893	-0.239	-0.376
-728.937	94.083	-0.070	0.080
-727.923	-166.888	0.077	0.003
-726.908	800.000	-0.104	-0.388
-725.894	170.997	-0.137	-0.199
-724.879	-104.576	-0.314	-0.073
-723.864	77.726	0.153	-0.165
-722.850	179.034	0.148	-0.218
-721.835	-143.651	-0.187	-0.018
-720.821	-200.000	0.005	-0.040
-719.806	-160.756	-0.265	0.014
-718.791	-114.686	0.122	-0.024
-717.777	154.768	0.068	-0.095
-716.762	334.196	0.100	-0.196
-715.748	800.000	-0.019	0.070
-714.733	114.939	0.216	0.266
-713.718	22.666	0.314	-0.259
-712.704	562.767	-0.055	-0.134
-711.689	-36.480	-0.284	0.154
-710.675	195.877	-0.085	-0.131
-709.660	-69.084	-0.273	0.106
-708.645	-29.331	0.134	0.078
-707.631	237.631	0.078	0.131
-706.616	90.155	0.042	-0.048
-705.602	-200.000	0.031	-0.141
-704.587	-52.378	0.129	-0.060
-703.572	110.926	-0.105	0.127
-702.558	16.937	0.112	0.089
-701.543	-79.918	0.236	0.080
-700.529	35.743	-0.257	-0.228
-699.514	245.884	0.067	-0.114
-698.499	337.490	0.100	-0.196
-697.485	-200.000	0.039	-0.240
-696.470	-158.321	0.429	0.025
-695.456	151.437	0.046	-0.063
-694.441	-200.000	-0.051	-0.350
-693.426	-8.835	-0.083	-0.056
-692.412	-200.000	0.017	0.145
-691.397	-62.562	-0.065	-0.027
-690.383	19.593	-0.029	-0.024
-689.368	-56.250	0.304	-0.137
-688.354	-23.967	-0.227	-0.137
-687.339	68.551	0.253	0.262
-686.324	-71.467	-0.163	0.061
-685.310	75.584	0.175	-0.186
-684.295	-28.700	-0.251	-0.146
-683.281	-200.000	0.018	-0.136
-682.266	265.031	0.071	0.124
-681.251	-15.927	0.067	0.043
-680.237	-200.000	-0.017	-0.253
-679.222	-200.000	-0.015	-0.226
-678.208	-66.681	0.221	0.088
-677.193	-200.000	-0.000	0.039
-676.178	134.564	-0.177	-0.231
-675.164	-200.000	-0.013	-0.175
-674.149	-200.000	0.031	0.180
-673.135	59.757	-0.289	-0.287
-672.120	150.387	0.167	-0.229
-671.105	-50.488	0.213	-0.101
-670.091	-140.275	0.302	0.032
-669.076	-112.994	-0.206	-0.041
-668.062	302.898	-0.130	-0.242
-667.047	800.000	0.079	-0.244
-666.032	0.130	-0.305	-0.219
-665.018	-49.982	0.124	-0.059
-664.003	-144.529	0.294	-0.027
-662.989	484.628	-0.020	-0.045
-661.974	81.539	-0.118	0.129
-660.959	257.360	-0.070	-0.121
-659.945	24.676	-0.045	0.038
-658.930	-200.000	0.041	-0.458
-657.916	-100.472	-0.228	-0.057
-656.901	183.036	-0.106	-0.158
-655.886	24.014	0.183	0.152
-654.872	528.071	-0.046	-0.109
-653.857	-170.533	0.247	-0.009
-652.843	-174.005	-0.208	0.006
-651.828	231.050	0.099	0.164
-650.814	102.629	0.081	-0.096
-649.799	295.577	-0.160	-0.295
-648.784	-200.000	-0.012	-0.540
-647.770	-200.000	0.043	-0.423
-646.755	68.709	-0.106	0.109
-645.741	65.670	-0.092	0.094
-644.726	-13.159	-0.158	0.103
-643.711	-105.644	-0.291	0.066
-642.697	349.575	0.075	0.149
-641.682	93.941	-0.043	0.050
-640.668	77.157	0.120	0.128
-639.653	800.000	0.028	0.090
-638.638	-128.180	-0.230	0.033
-637.624	184.538	0.056	0.084
-636.609	-200.000	0.033	0.180
-635.595	61.251	-0.073	-0.073
-634.580	-200.000	-0.011	0.089
-633.565	16.423	-0.192	-0.153
-632.551	-97.663	0.185	0.048
-631.536	-200.000	-0.009	-0.116
-630.522	-78.919	-0.095	0.032
-629.507	48.185	-0.123	0.115
-628.492	-200.000	-0.005	0.397
-627.478	78.913	-0.122	-0.131
-626.463	66.944	-0.257	-0.263
-625.449	-200.000	-0.007	-0.229
-624.434	-116.594	-0.282	-0.052
-623.419	-99.860	0.319	0.080
-622.405	-200.000	-0.034	0.168
-621.390	-200.000	0.012	-0.158
-620.376	-23.240	0.268	0.162
-619.361	-200.000	-0.024	0.141
-618.346	-26.478	-0.281	0.166
-617.332	-32.462	0.116	0.065
-616.317	97.599	0.131	0.151
-615.303	73.589	-0.138	0.145
-614.288	-94.931	0.100	-0.027
-613.273	-98.818	-0.153	-0.039
-612.259	-133.936	-0.054	-0.007
-611.244	49.619	-0.274	-0.260
-610.230	-139.854	-0.381	-0.041
-609.215	-200.000	-0.025	0.203
-608.201	-125.863	-0.227	0.034
-607.186	800.000	-0.155	-0.544
-606.171	-48.075	-0.124	0.060
-605.157	-136.397	0.055	0.006
-604.142	590.014	-0.031	-0.076
-603.128	-200.000	-0.011	0.052
-602.113	-200.000	0.013	-0.141
-601.098	-46.357	0.316	0.156
-600.084	-21.613	-0.180	0.110
-599.069	-143.962	0.301	0.028
-598.055	290.693	-0.044	0.080
-597.040	-78.711	0.494	0.170
-596.025	-110.047	0.121	-0.025
-595.011	-73.580	0.161	0.059
-593.996	-200.000	0.000	-0.403
-592.982	-200.000	-0.029	0.377
-591.967	88.504	-0.175	-0.195
-590.952	-16.556	-0.108	-0.069
-589.938	-79.243	-0.148	0.050
-588.923	23.821	-0.072	-0.059
-587.909	-25.364	-0.130	0.077
-586.894	456.148	-0.091	-0.203
-585.879	-100.221	-0.085	-0.021
-584.865	30.699	-0.269	-0.231
-583.850	280.048	0.058	-0.104
-582.836	2.219	0.273	-0.198
-581.821	-126.215	0.098	-0.015
-580.806	-65.384	0.032	-0.013
-579.792	-24.260	0.238	-0.142
-578.777	-3.418	0.142	-0.099
-577.763	800.000	0.058	0.175
-576.748	-50.842	0.112	-0.053
-575.733	-121.012	0.099	-0.017
-574.719	-46.396	0.163	-0.080
-573.704	-139.328	-0.191	0.021
-572.690	257.210	-0.088	-0.152
-571.675	-168.561	0.359	-0.014
-570.661	-78.260	-0.341	0.118
-569.646	-12.885	0.158	-0.103
-568.631	6.161	-0.233	0.174
-567.617	514.786	0.052	-0.121
-566.602	800.000	0.073	0.277
-565.588	120.245	0.053	-0.066
-564.573	346.574	0.015	0.030
-563.558	-19.902	-0.176	0.109
-562.544	497.030	0.083	0.191
-561.529	-56.420	-0.319	0.142
-560.515	430.665	0.047	0.102
-559.500	-200.000	-0.032	-0.245
-558.485	-88.152	-0.180	-0.054
-557.471	-27.471	0.246	0.143
-556.456	-94.406	0.031	-0.008
-555.442	-146.939	0.387	0.033
-554.427	-8.083	-0.118	0.080
-553.412	-200.000	-0.006	-0.117
-552.398	-50.761	-0.193	-0.091
-551.383	-169.409	0.123	-0.005
-550.369	150.719	-0.077	-0.105
-549.354	-200.000	-0.057	-0.283
-548.339	330.869	-0.153	-0.295
-547.325	5.815	0.299	-0.222
-546.310	13.568	-0.233	-0.182
-545.296	96.254	-0.099	-0.113
-544.281	-133.354	-0.121	0.015
-543.266	114.961	0.056	-0.069
-542.252	-35.996	-0.229	0.124
-541.237	-200.000	-0.096	0.557
-540.223	-7.400	0.349	0.237
-539.208	270.836	0.109	0.192
-538.193	-124.168	-0.169	0.027
-537.179	-18.825	-0.174	-0.109
-536.164	-46.022	-0.153	0.075
-535.150	-177.486	0.100	-0.002
-534.135	-3.446	0.351	-0.245
-533.121	-200.000	-0.024	-0.324
-532.106	151.681	0.068	-0.092
-531.091	29.439	0.196	0.167
-530.077	-100.490	0.437	-0.108
-529.062	377.644	-0.113	0.231
-528.048	-75.093	-0.176	-0.063
-527.033	-98.712	0.082	-0.021
-526.018	638.624	-0.043	0.109
-525.004	75.466	-0.071	-0.075
-523.989	800.000	-0.093	-0.346
-522.975	-71.211	-0.246	-0.093
-521.960	-15.404	-0.155	-0.099
-520.945	46.362	-0.218	-0.202
-519.931	-17.534	0.153	0.096
-518.916	270.476	-0.095	0.167
-517.902	-200.000	0.016	-0.097
-516.887	70.995	0.025	0.025
-515.872	-125.498	0.146	0.022
-514.858	198.134	-0.203	-0.310
-513.843	476.114	0.049	-0.111
-512.829	173.214	-0.041	-0.060
-511.814	-40.821	-0.266	-0.138
-510.799	-140.951	-0.048	-0.005
-509.785	-57.965	0.078	-0.034
-508.770	391.647	0.109	-0.228
-507.756	-126.191	-0.520	0.078
-506.741	121.009	-0.061	-0.077
-505.726	800.000	-0.062	-0.233
-504.712	800.000	-0.040	0.131
-503.697	-81.814	-0.123	0.040
-502.683	-99.119	-0.220	-0.056
-501.668	-200.000	-0.056	-0.338
-500.653	65.746	-0.234	0.238
-499.639	94.082	-0.044	0.050
-498.624	-11.170	-0.380	0.251
-497.610	485.359	0.095	0.217
-496.595	-182.864	0.268	0.005
-495.581	48.387	-0.106	-0.100
-494.566	-136.222	-0.333	0.039
-493.551	800.000	0.059	-0.180
-492.537	0.340	0.039	0.028
-491.522	-156.648	0.293	-0.018
-490.508	-37.030	0.160	0.086
-489.493	40.050	-0.147	-0.132
-488.478	438.606	-0.096	-0.210
-487.464	-84.461	-0.324	0.103
-486.449	-87.073	0.444	0.135
-485.435	48.279	-0.127	0.119
-484.420	510.460	-0.167	0.388
-483.405	-82.281	-0.285	0.093
-482.391	125.783	-0.096	-0.122
-481.376	-200.000	0.038	-0.265
-480.362	-107.858	0.111	-0.024
-479.347	523.514	-0.075	0.176
-478.332	-12.906	0.041	0.027
-477.318	-92.208	0.280	-0.079
-476.303	392.976	0.127	-0.265
-475.289	-37.126	-0.297	-0.159
-474.274	-78.971	0.237	0.081
-473.259	-49.470	-0.222	0.106
-472.245	-130.411	-0.176	0.024
-471.230	752.585	-0.055	0.149
-470.216	136.299	-0.011	-0.014
-469.201	90.235	-0.125	0.140
-468.186	-66.738	-0.385	-0.152
-467.172	27.579	0.183	-0.154
-466.157	-152.288	0.347	0.025
-465.143	34.619	-0.011	0.010
-464.128	312.219	0.123	-0.230
-463.113	800.000	-0.119	0.339
-462.099	-81.453	-0.130	-0.043
-461.084	800.000	-0.084	-0.275
-460.070	-200.000	0.024	0.249
-459.055	-200.000	-0.012	-0.142
-458.040	50.430	0.112	-0.106
-457.026	-81.462	-0.183	0.060
-456.011	-11.817	0.059	0.038
-454.997	-55.911	-0.100	-0.045
-453.982	118.135	0.190	-0.234
-452.968	39.923	-0.117	-0.105
-451.953	-6.294	-0.136	0.093
-450.938	-163.762	0.229	-0.011
-449.924	-200.000	-0.007	-0.175
-448.909	-127.121	0.160	-0.023
-447.895	-133.330	0.209	0.026
-446.880	-18.828	-0.141	-0.087
-445.865	379.589	-0.038	-0.078
-444.851	800.000	-0.184	0.701
-443.836	-61.575	-0.209	-0.088
-442.822	139.285	-0.239	0.315
-441.807	518.839	0.080	-0.187
-440.792	55.802	-0.073	0.071
-439.778	-200.000	0.009	0.067
-438.763	94.681	-0.146	-0.165
-437.749	17.445	-0.247	0.196
-436.734	66.149	-0.163	-0.165
-435.719	153.948	0.127	-0.174
-434.705	202.085	-0.103	-0.159
-433.690	800.000	-0.047	0.202
-432.676	-159.702	0.100	-0.006
-431.661	800.000	0.054	0.195
-430.646	-159.067	-0.206	-0.012
-429.632	-185.369	0.092	-0.001
-428.617	-16.399	0.246	0.156
-427.603	665.599	-0.126	0.324
-426.588	196.600	-0.147	0.224
-425.573	-92.490	-0.151	0.042
-424.559	-41.863	-0.070	0.036
-423.544	17.248	-0.183	-0.145
-422.530	-111.192	-0.197	0.040
-421.515	-148.239	-0.143	-0.012
-420.500	-200.000	-0.013	-0.112
-419.486	511.697	0.036	0.083
-418.471	800.000	0.050	-0.204
-417.457	37.056	0.294	-0.260
-416.442	-200.000	0.009	0.205
-415.428	-109.007	0.251	-0.053
-414.413	68.160	-0.237	0.242
-413.398	800.000	-0.050	-0.139
-412.384	-200.000	0.019	0.206
-411.369	96.878	-0.338	0.387
-410.355	800.000	0.073	0.231
-409.340	410.147	0.125	-0.264
-408.325	800.000	0.111	-0.316
-407.311	800.000	-0.069	-0.238
-406.296	431.583	-0.006	0.014
-405.282	57.240	0.209	0.204
-404.267	563.419	0.058	-0.140
-403.252	24.243	-0.274	-0.226
-402.238	119.862	-0.195	-0.242
-401.223	-200.000	-0.044	0.196
-400.209	101.689	0.218	-0.253
-399.194	-132.908	-0.162	0.021
-398.179	-200.000	0.073	0.464
-397.165	-65.412	-0.176	-0.071
-396.150	-22.561	0.191	0.115
-395.136	310.407	0.044	-0.083
-394.121	41.659	-0.052	0.047
-393.106	73.313	0.236	0.246
-392.092	28.083	-0.165	-0.139
-391.077	-200.000	0.052	0.409
-390.063	36.857	0.087	-0.076
-389.048	-32.441	0.091	0.051
-388.033	800.000	0.092	0.324
-387.019	800.000	-0.098	0.309
-386.004	384.379	0.133	0.272
-384.990	-65.384	0.272	-0.109
-383.975	-138.904	0.209	-0.023
-382.960	140.858	0.098	0.129
-381.946	31.450	0.157	-0.135
-380.931	734.371	-0.089	-0.237
-379.917	-200.000	-0.008	-0.043
-378.902	9.554	0.059	-0.044
-377.888	115.004	-0.075	0.091
-376.873	-139.988	-0.254	-0.027
-375.858	47.423	-0.222	-0.206
-374.844	-13.030	0.237	-0.153
-373.829	122.893	-0.100	-0.125
-372.815	277.673	0.096	0.170
-371.800	800.000	0.041	-0.175
-370.785	-0.688	-0.280	-0.198
-369.771	-160.195	0.006	-0.000
-368.756	39.281	0.101	0.090
-367.742	-184.206	-0.201	-0.003
-366.727	-7.174	0.090	0.061
-365.712	-110.188	0.278	0.058
-364.698	311.858	-0.130	0.242
-363.683	-200.000	0.020	-0.169
-362.669	405.867	0.059	-0.124
-361.654	145.574	0.037	-0.050
-360.639	378.451	0.076	0.156
-359.625	31.391	-0.222	0.190
-358.610	45.442	-0.125	-0.115
-357.596	32.746	0.111	0.096
-356.581	-142.480	-0.326	0.032
-355.566	-98.705	0.248	-0.063
-354.552	-54.723	-0.273	0.123
-353.537	91.935	0.076	-0.085
-352.523	-117.378	0.350	-0.063
-351.508	800.000	0.101	0.293
-350.493	1.303	-0.155	0.111
-349.479	629.596	-0.030	0.074
-348.464	800.000	0.040	-0.157
-347.450	-200.000	-0.018	-0.097
-346.435	-147.265	0.178	-0.015
-345.420	237.134	-0.225	0.371
-344.406	4.702	-0.072	-0.053
-343.391	-106.066	0.316	0.071
-342.377	-106.323	0.458	-0.102
-341.362	800.000	0.077	0.263
-340.348	-200.000	0.061	0.349
-339.333	-200.000	0.013	0.253
-338.318	-86.616	0.109	0.033
-337.304	-108.225	0.336	0.072
-336.289	126.597	-0.335	0.422
-335.275	513.649	0.074	-0.171
-334.260	-91.952	-0.201	-0.057
-333.245	-41.489	0.284	0.145
-332.231	800.000	-0.094	0.302
-331.216	191.971	-0.074	0.111
-330.202	4.026	-0.187	0.136
-329.187	660.736	0.053	-0.135
-328.172	-12.667	0.149	0.097
-327.158	-41.776	0.187	0.096
-326.143	209.316	-0.179	0.278
-325.129	-200.000	0.001	-0.252
-324.114	-200.000	-0.010	0.264
-323.099	274.513	-0.145	0.255
-322.085	-200.000	0.048	-0.293
-321.070	18.358	-0.088	0.070
-320.056	398.098	-0.045	-0.093
-319.041	-83.831	-0.511	0.162
-318.026	-67.873	0.307	0.119
-317.012	-21.612	0.092	0.056
-315.997	151.400	0.109	0.147
-314.983	403.874	0.044	0.092
-313.968	475.889	0.045	-0.102
-312.953	472.650	0.148	-0.330
-311.939	116.429	0.140	0.171
-310.924	168.144	0.050	0.070
-309.910	81.912	0.115	-0.124
-308.895	-31.576	-0.056	-0.032
-307.880	407.921	-0.203	-0.426
-306.866	352.497	-0.083	0.163
-305.851	44.335	-0.017	-0.016
-304.837	-20.672	0.382	0.233
-303.822	611.412	0.125	0.311
-302.807	-200.000	0.001	0.187
-301.793	-15.109	0.006	-0.004
-300.778	68.358	0.225	0.229
-299.764	-153.756	0.210	0.014
-298.749	-19.732	-0.110	0.068
-297.735	-81.784	0.414	-0.135
-296.720	-200.000	-0.041	-0.344
-295.705	-140.732	-0.235	-0.024
-294.691	-115.876	0.045	0.008
-293.676	-9.572	0.077	-0.051
-292.662	-151.468	0.063	-0.005
-291.647	5.962	-0.056	-0.041
-290.632	262.432	0.070	0.120
-289.618	-115.397	0.176	-0.033
-288.603	-138.951	-0.260	0.028
-287.589	-126.859	-0.205	-0.030
-286.574	149.759	0.233	0.314
-285.559	-119.406	-0.278	-0.048
-284.545	321.946	0.052	0.098
-283.530	800.000	0.011	0.038
-282.516	202.472	-0.114	0.175
-281.501	-154.775	-0.207	0.014
-280.486	194.766	0.144	0.216
-279.472	-57.689	0.243	-0.106
-278.457	-99.194	0.315	-0.079
-277.443	-115.007	-0.204	0.039
-276.428	-200.000	0.007	0.094
-275.413	48.412	-0.087	0.080
-274.399	-200.000	-0.015	-0.108
-273.384	621.908	-0.079	-0.198
-272.370	800.000	-0.072	-0.263
-271.355	-150.397	0.221	0.017
-270.340	800.000	-0.192	-0.543
-269.326	199.337	0.119	-0.181
-268.311	-140.389	0.095	-0.010
-267.297	-7.258	-0.154	0.104
-266.282	-94.655	0.440	-0.119
-265.267	244.623	0.105	0.175
-264.253	212.365	-0.207	0.324
-263.238	17.564	0.161	-0.127
-262.224	309.212	0.080	0.148
-261.209	-89.554	0.108	0.031
-260.195	-200.000	-0.012	0.149
-259.180	-1.740	-0.086	0.060
-258.165	74.298	0.217	0.226
-257.151	37.268	0.419	0.368
-256.136	90.794	-0.128	-0.142
-255.122	-100.262	0.242	0.060
-254.107	-136.554	0.193	-0.022
-253.092	-200.000	-0.017	-0.131
-252.078	226.876	-0.057	-0.092
-251.063	-60.027	0.098	0.041
-250.049	-200.000	-0.003	0.188
-249.034	-107.281	0.166	-0.036
-248.019	800.000	-0.037	-0.129
-247.005	-33.931	-0.368	-0.201
-245.990	-185.087	0.179	0.003
-244.976	800.000	-0.042	0.131
-243.961	-74.135	-0.044	0.016
-242.946	-75.631	0.040	-0.014
-241.932	-47.615	0.244	0.117
-240.917	292.395	0.044	-0.080
-239.903	141.540	-0.226	0.296
-238.888	9.363	0.167	-0.125
-237.873	-11.077	-0.273	-0.178
-236.859	135.016	-0.051	0.066
-235.844	48.106	0.264	0.245
-234.830	800.000	0.084	-0.290
-233.815	800.000	0.067	0.184
-232.800	-54.131	0.240	0.108
-231.786	800.000	0.026	0.083
-230.771	74.763	0.224	-0.234
-229.757	-19.764	0.294	0.180
-228.742	89.521	-0.185	0.205
-227.727	5.419	0.161	-0.117
-226.713	710.970	-0.104	0.272
-225.698	-154.619	0.086	-0.006
-224.684	-50.350	0.366	-0.171
-223.669	417.506	-0.043	-0.091
-222.655	193.127	0.041	-0.061
-221.640	343.135	-0.075	-0.145
-220.625	77.278	-0.201	0.212
-219.611	29.832	0.105	0.089
-218.596	-150.086	0.184	0.014
-217.582	385.892	-0.054	-0.110
-216.567	120.074	0.292	-0.358
-215.552	32.641	0.221	0.189
-214.538	800.000	-0.093	-0.290
-213.523	33.637	0.139	-0.119
-212.509	-102.864	-0.133	-0.031
-211.494	-29.032	0.137	0.078
-210.479	-77.110	-0.176	0.061
-209.465	110.336	-0.067	-0.079
-208.450	-61.862	0.373	0.154
-207.436	800.000	0.021	-0.059
-206.421	671.197	-0.035	-0.090
-205.406	800.000	-0.043	-0.132
-204.392	-35.104	-0.364	-0.196
-203.377	-63.575	0.154	0.062
-202.363	-21.075	-0.120	-0.073
-201.348	-185.508	0.371	0.006
-200.333	-103.418	0.221	0.051
-199.319	124.561	0.018	0.022
-198.304	800.000	-0.019	-0.078
-197.290	-144.871	-0.240	-0.022
-196.275	-20.208	-0.082	-0.050
-195.260	19.942	-0.355	-0.283
-194.246	656.554	-0.007	0.019
-193.231	124.792	0.222	-0.276
-192.217	800.000	-0.151	0.431
-191.202	154.903	0.046	0.063
-190.187	90.264	0.174	-0.192
-189.173	-116.696	-0.178	-0.032
-188.158	-72.618	0.303	-0.111
-187.144	-127.451	0.243	-0.035
-186.129	203.387	-0.133	-0.203
-185.114	-50.205	-0.290	-0.136
-184.100	351.900	0.140	-0.274
-183.085	-200.000	0.022	-0.225
-182.071	212.778	-0.114	0.178
-181.056	-69.081	0.337	-0.128
-180.042	-200.000	0.006	0.393
-179.027	800.000	-0.058	-0.222
-178.012	-200.000	-0.046	-0.281
-176.998	800.000	0.010	-0.040
-175.983	-200.000	0.018	-0.540
-174.969	297.100	-0.032	-0.059
-173.954	-200.000	-0.011	0.051
-172.939	4.383	-0.217	-0.157
-171.925	800.000	0.043	-0.169
-170.910	-200.000	0.029	-0.216
-169.896	-197.946	0.038	-0.000
-168.881	-58.656	0.166	0.071
-167.866	3.219	0.130	0.093
-166.852	98.538	-0.345	0.393
-165.837	205.699	-0.144	0.221
-164.823	-73.637	-0.087	0.031
-163.808	-200.000	0.013	-0.302
-162.793	81.665	-0.162	0.173
-161.779	293.537	-0.105	0.189
-160.764	-108.966	0.259	-0.055
-159.750	149.471	-0.115	-0.154
-158.735	-43.702	-0.236	0.118
-157.720	363.966	-0.044	0.087
-156.706	-162.019	0.427	-0.021
-155.691	766.191	-0.094	0.253
-154.677	-135.784	0.387	-0.045
-153.662	-61.457	0.180	0.075
-152.647	800.000	-0.129	-0.357
-151.633	-200.000	0.047	-0.333
-150.618	108.008	0.158	0.186
-149.604	-23.773	-0.342	0.203
-148.589	48.491	0.255	0.236
-147.574	-2.339	0.098	0.068
-146.560	610.767	0.116	-0.287
-145.545	-77.594	-0.306	-0.105
-144.531	-200.000	0.015	0.200
-143.516	99.757	0.096	-0.109
-142.502	-18.712	0.079	0.049
-141.487	-76.250	0.140	0.049
-140.472	273.935	-0.150	0.261
-139.458	-121.383	0.180	0.030
-138.443	403.311	-0.088	-0.183
-137.429	-107.826	-0.406	0.087
-136.414	88.066	-0.118	0.129
-135.399	-86.413	0.255	0.077
-134.385	-91.702	-0.385	-0.108
-133.370	-124.412	0.276	-0.042
-132.356	-200.000	0.023	0.229
-131.341	37.392	-0.223	0.195
-130.326	-90.860	0.145	0.041
-129.312	800.000	0.071	0.261
-128.297	800.000	0.050	-0.191
-127.283	54.714	-0.157	-0.150
-126.268	111.576	0.091	0.109
-125.253	25.681	0.256	0.210
-124.239	378.812	-0.101	0.204
-123.224	688.831	0.053	0.138
-122.210	800.000	-0.050	0.140
-121.195	58.165	-0.139	0.134
-120.180	-58.927	-0.218	-0.093
