DTS Sentinel unit serial number:	SN413079Multiplexer serial number:	ORYXHardware model number:	OX4-SRSoftware version number:	ORYX F/W v4.00 Oryx Data Collector v3.7.2.0data status	okinstallation	princeton_trtdifferential loss correction	single-endedforward channel	channel 3reverse channel	N/Adate	2019/09/14time	07:24:35forward acquisition time	60.00reverse acquisition time	0.00gamma	496.2192k internal	0.2340k external	0.2340temperature offset calibration	1.0055default loss term (dB/km)	0.3790temperature slope calibration	1.0000multiplexer offset coefficient	1.0000multiplexer slope coefficient	1.0000fibre end	0.00T internal ref (°C)	26.19T ext. ref 1 (°C)	3.47T ext. ref 2 (°C)	21.00length (m)	temperature (°C)	Stokes	anti-Stokes-747.200	-0.135	0.203	0.145
-746.185	-200.000	0.055	0.298
-745.171	-108.827	0.055	0.012
-744.156	800.000	0.072	0.210
-743.142	726.808	-0.111	0.298
-742.127	-118.567	-0.432	0.077
-741.112	-11.700	0.040	-0.027
-740.098	149.514	-0.210	0.286
-739.083	34.915	0.103	-0.090
-738.069	232.837	0.322	0.530
-737.054	245.978	0.123	0.208
-736.039	-163.885	-0.289	0.014
-735.025	-200.000	-0.024	0.424
-734.010	-12.936	0.207	0.135
-732.996	153.152	-0.090	-0.124
-731.981	105.215	0.064	-0.075
-730.966	-60.086	0.171	-0.073
-729.952	-155.414	-0.045	-0.003
-728.937	-31.003	0.210	-0.119
-727.923	94.828	-0.152	-0.173
-726.908	46.761	-0.342	-0.319
-725.894	-101.530	-0.150	-0.037
-724.879	-1.160	-0.126	0.089
-723.864	149.296	0.037	-0.050
-722.850	142.333	-0.167	-0.222
-721.835	-200.000	-0.020	-0.101
-720.821	279.085	0.132	-0.236
-719.806	-200.000	0.030	0.263
-718.791	-16.276	-0.257	0.163
-717.777	143.094	0.029	0.039
-716.762	-200.000	-0.007	-0.122
-715.748	9.138	0.215	0.163
-714.733	-65.496	-0.325	0.131
-713.718	-63.257	0.273	0.113
-712.704	102.141	-0.194	-0.226
-711.689	142.531	0.146	-0.195
-710.675	800.000	-0.042	-0.153
-709.660	168.793	0.268	-0.382
-708.645	5.697	0.249	0.185
-707.631	101.425	-0.191	-0.222
-706.616	-200.000	-0.018	0.219
-705.602	325.006	-0.091	-0.173
-704.587	-200.000	0.042	-0.251
-703.572	563.362	-0.122	-0.295
-702.558	74.187	-0.275	0.289
-701.543	73.677	-0.135	0.142
-700.529	319.500	0.067	-0.126
-699.514	765.741	-0.052	0.143
-698.499	174.062	-0.162	0.234
-697.485	-19.927	-0.084	0.052
-696.470	-124.501	-0.278	0.043
-695.456	-11.624	0.105	-0.069
-694.441	-110.220	-0.153	0.032
-693.426	-200.000	0.032	-0.154
-692.412	35.247	-0.139	0.122
-691.397	-142.880	0.138	0.013
-690.383	-14.394	0.136	-0.088
-689.368	115.703	0.262	0.321
-688.354	202.817	-0.150	0.231
-687.339	800.000	-0.041	0.173
-686.324	118.769	0.031	-0.038
-685.310	-114.216	-0.206	0.040
-684.295	800.000	0.060	-0.261
-683.281	800.000	0.069	-0.225
-682.266	-93.164	0.160	-0.044
-681.251	71.933	-0.201	-0.210
-680.237	800.000	0.127	-0.366
-679.222	97.005	0.126	0.145
-678.208	-56.817	0.155	-0.068
-677.193	800.000	0.064	0.187
-676.178	44.273	0.162	-0.149
-675.164	165.518	-0.153	0.216
-674.149	-200.000	-0.031	0.139
-673.135	-200.000	0.002	0.192
-672.120	-67.492	-0.045	-0.017
-671.105	-200.000	-0.024	-0.274
-670.091	77.335	0.134	0.143
-669.076	-12.144	-0.175	-0.114
-668.062	11.488	-0.094	0.072
-667.047	-200.000	0.026	-0.230
-666.032	-74.524	0.114	0.041
-665.018	-88.459	0.141	-0.042
-664.003	-181.064	-0.542	0.011
-662.989	-29.966	-0.253	-0.144
-661.974	-200.000	-0.001	-0.167
-660.959	-145.504	0.199	0.018
-659.945	-200.000	0.079	0.349
-658.930	72.370	-0.257	-0.268
-657.916	-11.290	-0.171	-0.113
-656.901	-140.280	-0.410	0.043
-655.886	-200.000	0.009	0.148
-654.872	-200.000	0.027	-0.232
-653.857	800.000	0.018	0.057
-652.843	66.656	-0.140	0.142
-651.828	-82.031	-0.226	0.074
-650.814	-200.000	0.115	0.599
-649.799	-71.075	0.402	-0.151
-648.784	-26.206	0.051	0.030
-647.770	-200.000	-0.048	-0.460
-646.755	-50.036	-0.269	-0.127
-645.741	173.907	0.225	-0.324
-644.726	12.478	-0.141	-0.108
-643.711	-171.922	0.119	0.004
-642.697	21.498	-0.171	-0.139
-641.682	-90.408	0.211	0.061
-640.668	208.977	-0.200	0.313
-639.653	287.343	-0.107	0.193
-638.638	-16.329	-0.136	0.086
-637.624	-119.453	0.049	0.008
-636.609	-141.636	0.108	0.011
-635.595	-62.624	0.137	-0.057
-634.580	34.581	-0.125	0.109
-633.565	-200.000	0.002	0.055
-632.551	48.788	-0.169	0.159
-631.536	-146.102	-0.164	0.014
-630.522	800.000	0.099	-0.283
-629.507	-200.000	-0.009	-0.251
-628.492	-84.485	0.385	-0.121
-627.478	15.583	-0.134	0.105
-626.463	800.000	0.033	-0.122
-625.449	191.003	-0.082	-0.123
-624.434	-120.507	-0.134	-0.023
-623.419	-125.076	-0.342	0.052
-622.405	-200.000	0.006	0.172
-621.390	364.643	0.103	0.206
-620.376	-28.252	0.150	0.086
-619.361	-86.244	-0.324	-0.099
-618.346	15.544	0.188	-0.147
-617.332	78.432	-0.355	0.378
-616.317	437.621	-0.110	0.239
-615.303	258.544	0.070	0.120
-614.288	-200.000	0.033	-0.329
-613.273	800.000	-0.074	0.241
-612.259	800.000	-0.071	0.199
-611.244	-200.000	0.005	-0.195
-610.230	372.535	-0.102	-0.206
-609.215	-41.059	0.285	0.147
-608.201	131.557	-0.154	-0.197
-607.186	-101.844	-0.254	-0.061
-606.171	244.688	-0.089	0.149
-605.157	91.282	-0.118	-0.132
-604.142	246.971	0.186	0.314
-603.128	-200.000	0.035	-0.236
-602.113	57.836	-0.189	-0.184
-601.098	389.482	0.067	0.138
-600.084	477.803	-0.121	-0.272
-599.069	110.041	0.246	-0.294
-598.055	163.789	0.055	0.077
-597.040	-200.000	0.009	-0.300
-596.025	-46.701	-0.210	0.103
-595.011	481.386	-0.049	0.112
-593.996	-118.491	0.251	-0.044
-592.982	-200.000	0.014	0.210
-591.967	-200.000	-0.028	0.173
-590.952	800.000	-0.025	0.105
-589.938	-200.000	0.019	0.140
-588.923	-200.000	0.042	0.280
-587.909	-172.180	-0.249	-0.008
-586.894	109.274	0.053	-0.063
-585.879	-54.059	0.243	-0.110
-584.865	176.492	-0.041	0.060
-583.850	800.000	0.064	-0.207
-582.836	612.282	0.026	-0.065
-581.821	87.699	-0.127	-0.141
-580.806	0.537	0.424	0.302
-579.792	-103.714	-0.270	0.063
-578.777	-200.000	0.008	-0.160
-577.763	136.738	-0.272	-0.354
-576.748	-22.746	0.148	-0.089
-575.733	-97.306	-0.162	0.042
-574.719	42.626	0.185	0.168
-573.704	279.526	0.097	0.172
-572.690	-31.783	0.143	0.080
-571.675	-119.341	-0.267	0.046
-570.661	202.614	-0.087	0.133
-569.646	-157.835	0.284	0.017
-568.631	-0.192	0.180	-0.128
-567.617	-162.469	-0.085	0.004
-566.602	-200.000	-0.065	-0.336
-565.588	800.000	-0.038	0.144
-564.573	800.000	0.049	0.201
-563.558	528.772	-0.053	0.125
-562.544	157.766	-0.205	-0.282
-561.529	-200.000	0.010	-0.181
-560.515	-62.076	0.119	-0.050
-559.500	132.474	-0.164	-0.211
-558.485	-15.707	-0.214	-0.136
-557.471	-149.591	0.207	-0.016
-556.456	-200.000	0.003	0.231
-555.442	-141.657	0.532	0.053
-554.427	195.892	0.075	0.114
-553.412	22.793	-0.152	0.124
-552.398	84.051	-0.095	-0.103
-551.383	-74.019	-0.229	-0.083
-550.369	-2.948	0.159	-0.111
-549.354	-200.000	-0.045	0.298
-548.339	-93.922	0.180	-0.049
-547.325	-12.995	-0.234	0.152
-546.310	-112.305	-0.263	0.053
-545.296	-34.832	-0.271	-0.147
-544.281	-84.488	-0.219	0.069
-543.266	57.800	0.089	0.087
-542.252	800.000	-0.094	-0.367
-541.237	-40.227	-0.136	0.071
-540.223	-200.000	-0.012	-0.057
-539.208	183.389	0.083	0.121
-538.193	-138.576	-0.359	0.039
-537.179	-89.959	0.233	0.068
-536.164	-112.446	0.093	0.019
-535.150	-200.000	0.008	0.127
-534.135	-54.887	-0.362	-0.162
-533.121	800.000	-0.070	-0.304
-532.106	-104.694	-0.265	-0.061
-531.091	800.000	0.080	-0.239
-530.077	-19.948	-0.186	-0.114
-529.062	-200.000	-0.020	-0.126
-528.048	20.322	0.259	0.208
-527.033	144.334	0.037	0.049
-526.018	408.138	-0.051	0.107
-525.004	800.000	0.061	0.217
-523.989	-45.266	-0.246	0.121
-522.975	199.145	0.221	0.337
-521.960	5.455	-0.214	-0.157
-520.945	30.685	0.103	-0.087
-519.931	19.975	-0.311	0.249
-518.916	193.609	-0.042	0.063
-517.902	-3.969	0.136	0.094
-516.887	126.194	-0.019	-0.024
-515.872	800.000	0.074	-0.229
-514.858	392.108	0.098	-0.202
-513.843	800.000	-0.103	0.368
-512.829	800.000	-0.036	0.132
-511.814	550.284	0.027	0.063
-510.799	217.350	0.203	-0.321
-509.785	-110.531	0.101	0.021
-508.770	-107.729	-0.272	-0.059
-507.756	-200.000	-0.010	0.413
-506.741	305.128	0.065	-0.120
-505.726	37.188	0.166	0.146
-504.712	-67.749	0.074	0.029
-503.697	251.616	0.081	-0.137
-502.683	128.340	0.315	-0.399
-501.668	-200.000	-0.022	-0.193
-500.653	-200.000	-0.056	-0.386
-499.639	285.417	-0.169	0.302
-498.624	48.880	-0.202	0.188
-497.610	-85.877	0.200	0.061
-496.595	206.386	0.119	-0.183
-495.581	289.341	0.063	0.114
-494.566	242.404	0.043	-0.071
-493.551	-141.617	0.375	-0.037
-492.537	556.451	-0.191	0.456
-491.522	-125.616	-0.223	-0.034
-490.508	97.067	-0.237	-0.270
-489.493	-200.000	0.024	-0.179
-488.478	-200.000	0.003	0.174
-487.464	-28.102	0.228	0.131
-486.449	-200.000	0.040	-0.208
-485.435	725.931	-0.141	-0.373
-484.420	-115.511	-0.036	-0.007
-483.405	554.471	-0.049	-0.117
-482.391	-144.209	-0.172	-0.016
-481.376	-168.598	0.330	0.012
-480.362	-168.050	-0.231	0.009
-479.347	-90.964	0.222	0.063
-478.332	-200.000	0.031	0.277
-477.318	211.234	0.112	-0.174
-476.303	-200.000	-0.007	-0.174
-475.289	10.502	-0.257	0.194
-474.274	87.467	0.301	0.330
-473.259	-200.000	-0.007	-0.118
-472.245	533.801	-0.103	0.243
-471.230	-51.662	0.196	-0.091
-470.216	-88.528	-0.516	-0.153
-469.201	-77.623	-0.079	-0.027
-468.186	68.824	0.316	-0.322
-467.172	28.352	0.313	-0.263
-466.157	38.324	0.100	-0.088
-465.143	-48.824	-0.190	0.090
-464.128	-151.419	0.242	0.018
-463.113	-170.798	-0.260	-0.009
-462.099	-79.315	-0.374	-0.126
-461.084	5.802	-0.067	-0.049
-460.070	-163.980	-0.173	-0.008
-459.055	-200.000	-0.026	-0.466
-458.040	306.410	0.105	0.194
-457.026	-81.274	-0.216	-0.071
-456.011	-200.000	0.024	-0.272
-454.997	-20.885	-0.044	-0.027
-453.982	711.643	0.064	-0.167
-452.968	650.785	0.081	-0.206
-451.953	-31.184	0.157	0.088
-450.938	548.908	0.060	-0.143
-449.924	49.849	-0.074	0.069
-448.909	-2.051	-0.171	-0.119
-447.895	287.316	0.064	0.114
-446.880	-65.536	0.269	-0.107
-445.865	-81.505	0.190	-0.062
-444.851	-54.169	-0.122	-0.055
-443.836	-158.990	0.119	0.007
-442.822	-60.705	-0.207	0.087
-441.807	358.443	-0.126	-0.249
-440.792	530.776	-0.027	0.064
-439.778	-148.677	0.527	0.042
-438.763	95.486	0.061	-0.069
-437.749	197.109	0.141	0.213
-436.734	-191.323	-0.252	0.003
-435.719	-6.344	0.057	-0.039
-434.705	800.000	-0.067	0.210
-433.690	71.178	0.128	-0.131
-432.676	2.043	0.108	0.077
-431.661	357.010	-0.045	-0.089
-430.646	575.031	0.194	-0.468
-429.632	-76.457	0.186	-0.065
-428.617	-35.832	0.087	0.047
-427.603	105.496	-0.119	-0.140
-426.588	82.548	0.115	0.124
-425.573	2.602	0.201	-0.145
-424.559	544.516	-0.058	-0.137
-423.544	146.306	-0.075	0.099
-422.530	-51.056	0.209	-0.097
-421.515	-200.000	-0.003	0.315
-420.500	-179.300	-0.488	0.011
-419.486	-69.933	0.260	-0.098
-418.471	-106.334	0.321	-0.071
-417.457	2.846	0.312	-0.224
-416.442	189.646	0.234	0.348
-415.428	405.368	0.082	0.172
-414.413	-200.000	0.002	-0.009
-413.398	95.684	0.153	0.173
-412.384	-200.000	-0.037	-0.211
-411.369	492.030	-0.105	0.239
-410.355	-79.694	0.158	0.053
-409.340	-200.000	0.030	-0.216
-408.325	-200.000	0.018	-0.102
-407.311	2.896	0.115	-0.083
-406.296	-23.946	-0.268	0.159
-405.282	-69.547	0.108	-0.041
-404.267	-162.249	-0.045	0.002
-403.252	26.488	-0.178	0.147
-402.238	-27.517	-0.245	-0.141
-401.223	-107.072	-0.441	0.096
-400.209	800.000	-0.074	0.229
-399.194	-43.124	-0.213	0.107
-398.179	30.110	-0.158	0.133
-397.165	-164.013	-0.112	-0.005
-396.150	625.707	0.116	0.290
-395.136	-114.641	-0.268	-0.051
-394.121	-162.093	0.123	0.006
-393.106	-101.139	-0.131	0.032
-392.092	183.669	-0.224	-0.328
-391.077	-200.000	-0.033	0.241
-390.063	-86.721	0.060	0.018
-389.048	-18.058	-0.021	-0.013
-388.033	-200.000	-0.023	-0.241
-387.019	800.000	-0.030	0.106
-386.004	-200.000	-0.055	0.248
-384.990	184.405	-0.108	-0.158
-383.975	-146.952	-0.297	0.025
-382.960	-115.987	-0.198	-0.036
-381.946	35.277	-0.298	0.258
-380.931	-200.000	-0.057	0.307
-379.917	346.292	0.110	-0.214
-378.902	22.070	0.269	-0.217
-377.888	-112.140	-0.195	0.039
-376.873	604.586	0.070	0.172
-375.858	-64.690	-0.088	0.035
-374.844	-200.000	-0.003	-0.017
-373.829	-200.000	-0.060	0.278
-372.815	-200.000	-0.069	0.363
-371.800	36.095	-0.201	-0.175
-370.785	43.776	-0.127	-0.115
-369.771	105.409	-0.122	0.143
-368.756	-25.674	0.063	-0.037
-367.742	-8.285	0.165	-0.110
-366.727	-120.208	-0.182	0.031
-365.712	61.668	-0.119	0.117
-364.698	0.910	-0.244	-0.173
-363.683	-96.050	0.218	-0.057
-362.669	800.000	-0.162	0.457
-361.654	-148.115	-0.321	0.026
-360.639	82.246	0.319	-0.342
-359.625	-68.895	-0.073	-0.028
-358.610	5.785	-0.121	0.088
-357.596	366.118	0.071	0.142
-356.581	800.000	-0.120	-0.386
-355.566	176.080	0.086	0.123
-354.552	800.000	0.012	0.050
-353.537	-200.000	0.001	-0.094
-352.523	-63.106	0.331	-0.135
-351.508	59.109	0.102	0.100
-350.493	-59.920	-0.055	0.023
-349.479	11.759	0.290	-0.220
-348.464	-200.000	-0.045	-0.333
-347.450	-200.000	0.045	0.281
-346.435	-63.789	0.045	0.018
-345.420	800.000	0.115	-0.316
-344.406	191.690	-0.133	0.198
-343.391	800.000	-0.094	-0.279
-342.377	36.241	-0.256	-0.223
-341.362	-200.000	0.001	0.055
-340.348	-152.961	0.209	0.015
-339.333	3.882	-0.065	-0.047
-338.318	40.801	0.164	-0.146
-337.304	-73.739	-0.342	0.123
-336.289	-200.000	-0.036	0.420
-335.275	376.429	0.071	0.143
-334.260	48.343	0.112	-0.103
-333.245	-127.050	-0.148	0.021
-332.231	383.771	0.083	0.169
-331.216	-200.000	0.019	0.171
-330.202	800.000	-0.064	0.195
-329.187	12.221	0.244	-0.186
-328.172	29.857	0.165	0.138
-327.158	-77.441	-0.130	0.045
-326.143	-3.237	0.362	0.249
-325.129	-123.057	-0.633	-0.100
-324.114	62.820	-0.180	-0.177
-323.099	-42.272	0.188	0.094
-322.085	-200.000	0.010	-0.110
-321.070	246.791	0.185	0.309
-320.056	-96.918	0.370	-0.096
-319.041	-104.325	0.409	0.094
-318.026	296.701	-0.108	-0.196
-317.012	-81.813	0.376	0.121
-315.997	149.892	0.042	-0.056
-314.983	123.602	0.133	-0.165
-313.968	-200.000	0.090	0.457
-312.953	56.102	-0.167	0.160
-311.939	74.239	0.263	0.272
-310.924	-146.775	-0.150	-0.013
-309.910	800.000	-0.039	-0.163
-308.895	-200.000	-0.017	0.424
-307.880	464.125	0.065	0.144
-306.866	800.000	-0.054	-0.167
-305.851	92.830	-0.148	0.164
-304.837	-200.000	0.006	0.186
-303.822	64.586	0.083	-0.083
-302.807	7.101	0.275	0.202
-301.793	235.613	-0.152	-0.248
-300.778	-200.000	0.006	0.111
-299.764	48.955	0.072	-0.067
-298.749	-200.000	0.007	0.100
-297.735	-200.000	-0.033	0.170
-296.720	172.350	0.090	-0.128
-295.705	-0.991	0.431	-0.301
-294.691	57.403	-0.283	0.272
-293.676	65.617	0.035	-0.035
-292.662	86.695	-0.220	-0.240
-291.647	100.156	-0.121	0.139
-290.632	211.327	0.014	0.022
-289.618	263.915	0.138	0.236
-288.603	783.045	0.070	0.188
-287.589	249.980	0.220	-0.367
-286.574	-200.000	0.022	-0.106
-285.559	311.191	0.140	0.259
-284.545	-31.281	-0.249	0.138
-283.530	125.877	-0.134	0.167
-282.516	-114.078	0.349	0.066
-281.501	-2.343	0.327	-0.226
-280.486	-130.449	-0.156	-0.021
-279.472	332.680	0.072	-0.138
-278.457	-82.565	0.021	-0.007
-277.443	-114.427	-0.160	-0.030
-276.428	141.516	-0.060	-0.078
-275.413	272.621	0.061	-0.106
-274.399	294.939	-0.065	-0.117
-273.384	-200.000	0.050	0.241
-272.370	800.000	0.055	-0.195
-271.355	-53.014	-0.134	-0.060
-270.340	-200.000	0.009	0.212
-269.326	-200.000	-0.014	0.198
-268.311	-36.707	0.285	0.151
-267.297	-84.789	0.108	-0.033
-266.282	-64.253	0.170	0.068
-265.267	800.000	-0.039	-0.157
-264.253	2.738	0.049	0.035
-263.238	-117.855	0.469	0.083
-262.224	-200.000	-0.217	-0.001
-261.209	238.096	-0.097	-0.158
-260.195	-168.259	-0.116	-0.004
-259.180	-78.022	0.123	-0.042
-258.165	22.999	0.214	-0.173
-257.151	207.223	-0.205	0.315
-256.136	-4.198	-0.047	-0.032
-255.122	18.772	-0.088	0.069
-254.107	86.500	-0.101	0.110
-253.092	4.394	-0.139	-0.100
-252.078	-111.365	-0.200	0.040
-251.063	-84.671	-0.393	0.122
-250.049	-158.198	-0.111	-0.006
-249.034	-200.000	0.020	0.141
-248.019	-53.078	0.121	0.055
-247.005	-9.607	-0.144	-0.094
-245.990	-7.936	0.258	0.171
-244.976	-55.534	-0.094	-0.041
-243.961	-200.000	0.034	0.375
-242.946	29.588	0.110	-0.092
-241.932	-121.398	-0.123	0.020
-240.917	-200.000	-0.011	0.164
-239.903	45.015	0.134	0.122
-238.888	272.016	0.208	0.361
-237.873	800.000	-0.115	0.352
-236.859	-200.000	-0.049	0.254
-235.844	125.002	0.126	0.156
-234.830	61.826	0.139	-0.136
-233.815	800.000	-0.047	0.159
-232.800	-107.565	0.221	0.048
-231.786	-200.000	0.024	0.132
-230.771	-200.000	0.017	-0.137
-229.757	-142.026	0.299	0.029
-228.742	35.336	0.091	0.079
-227.727	340.911	-0.096	0.185
-226.713	-180.055	0.126	-0.003
-225.698	-200.000	0.032	0.146
-224.684	47.787	0.140	0.128
-223.669	451.236	0.180	0.391
-222.655	13.407	0.236	-0.180
-221.640	-89.173	0.388	-0.113
-220.625	-200.000	0.009	0.082
-219.611	-200.000	-0.008	0.093
-218.596	253.900	-0.121	-0.203
-217.582	-200.000	0.013	-0.144
-216.567	247.259	-0.075	-0.125
-215.552	493.117	0.144	-0.324
-214.538	38.724	-0.159	-0.139
-213.523	-200.000	-0.010	-0.058
-212.509	-200.000	-0.398	-0.002
-211.494	-55.104	-0.157	0.070
-210.479	-200.000	0.040	0.329
-209.465	-84.646	-0.066	-0.020
-208.450	-92.414	0.241	-0.067
-207.436	-38.227	0.176	0.092
-206.421	15.172	-0.100	-0.077
-205.406	113.519	0.161	-0.192
-204.392	177.290	0.109	0.156
-203.377	-200.000	0.017	-0.099
-202.363	800.000	-0.177	0.514
-201.348	-200.000	-0.027	-0.262
-200.333	800.000	-0.072	0.200
-199.319	-135.951	-0.042	-0.005
-198.304	-200.000	0.045	0.264
-197.290	24.828	0.069	0.056
-196.275	-83.988	-0.113	-0.035
-195.260	-200.000	0.027	0.206
-194.246	90.652	0.056	-0.062
-193.231	-200.000	0.072	0.380
-192.217	-97.512	0.087	0.022
-191.202	-45.132	-0.202	0.099
-190.187	-136.894	0.155	-0.017
-189.173	800.000	-0.058	-0.209
-188.158	-1.810	0.118	-0.081
-187.144	-200.000	0.027	-0.235
-186.129	-200.000	0.007	-0.394
-185.114	-74.219	0.156	-0.055
-184.100	4.314	-0.201	0.145
-183.085	71.778	-0.281	-0.286
-182.071	356.622	-0.135	0.264
-181.056	-200.000	0.051	0.285
-180.042	800.000	-0.097	0.375
-179.027	94.626	-0.135	0.151
-178.012	363.422	-0.161	-0.318
-176.998	175.866	0.142	-0.202
-175.983	-16.913	-0.103	0.064
-174.969	214.123	-0.225	-0.349
-173.954	118.972	0.176	-0.213
-172.939	-200.000	0.038	-0.240
-171.925	-143.799	-0.112	-0.010
-170.910	-83.345	0.224	-0.070
-169.896	-200.000	0.039	0.188
-168.881	-200.000	0.004	0.035
-167.866	-92.763	-0.304	0.084
-166.852	260.599	0.021	0.036
-165.837	-138.209	-0.158	-0.017
-164.823	76.347	0.159	-0.165
-163.808	69.234	-0.037	-0.038
-162.793	60.892	0.331	-0.322
-161.779	226.369	-0.232	-0.368
-160.764	-65.738	-0.072	0.028
-159.750	59.015	0.304	-0.293
-158.735	800.000	0.076	-0.277
-157.720	-200.000	0.039	-0.182
-156.706	-88.866	-0.252	-0.073
-155.691	-200.000	0.019	-0.284
-154.677	-200.000	0.067	-0.592
-153.662	-36.005	0.310	0.164
-152.647	-18.510	0.040	0.025
-151.633	165.094	-0.203	-0.281
-150.618	97.417	0.388	0.437
-149.604	-33.922	-0.299	-0.161
-148.589	-48.449	-0.376	-0.177
-147.574	699.510	0.026	-0.067
-146.560	-54.315	0.243	-0.108
-145.545	-200.000	-0.025	-0.359
-144.531	-60.721	0.365	-0.152
-143.516	25.465	0.038	0.031
-142.502	-38.218	-0.036	-0.019
-141.487	-200.000	-0.067	-0.458
-140.472	638.070	0.166	0.413
-139.458	174.729	-0.117	0.166
-138.443	-200.000	-0.027	-0.150
-137.429	117.710	0.331	0.399
-136.414	-200.000	-0.016	-0.268
-135.399	800.000	-0.079	0.252
-134.385	800.000	0.070	0.203
-133.370	40.429	0.357	0.314
-132.356	-54.179	-0.353	0.157
-131.341	133.134	0.138	-0.174
-130.326	655.820	-0.034	0.084
-129.312	-200.000	-0.037	0.339
-128.297	212.616	0.109	0.169
-127.283	88.567	0.106	0.116
-126.268	-200.000	0.020	0.270
-125.253	-11.662	-0.194	-0.125
-124.239	33.877	-0.106	-0.090
-123.224	-200.000	0.083	0.382
-122.210	175.747	0.089	0.127
-121.195	54.508	-0.105	0.099
-120.180	526.571	-0.030	0.070
