DTS Sentinel unit serial number:	SN413079Multiplexer serial number:	ORYXHardware model number:	OX4-SRSoftware version number:	ORYX F/W v4.00 Oryx Data Collector v3.7.2.0data status	okinstallation	princeton_trtdifferential loss correction	single-endedforward channel	channel 3reverse channel	N/Adate	2019/09/12time	16:06:11forward acquisition time	60.00reverse acquisition time	0.00gamma	496.2192k internal	0.2299k external	0.2299temperature offset calibration	1.0068default loss term (dB/km)	0.3790temperature slope calibration	1.0000multiplexer offset coefficient	1.0000multiplexer slope coefficient	1.0000fibre end	0.00T internal ref (°C)	38.69T ext. ref 1 (°C)	2.51T ext. ref 2 (°C)	31.64length (m)	temperature (°C)	Stokes	anti-Stokes-747.200	-44.361	0.492	0.251
-746.185	800.000	0.020	-0.061
-745.171	800.000	0.073	-0.264
-744.156	-200.000	0.020	0.279
-743.142	-200.000	0.003	0.054
-742.127	-200.000	-0.014	-0.068
-741.112	-200.000	-0.028	-0.136
-740.098	800.000	0.020	0.068
-739.083	-152.759	-0.212	-0.015
-738.069	149.753	0.078	0.108
-737.054	82.434	-0.032	0.036
-736.039	349.061	0.101	0.203
-735.025	-96.914	0.352	-0.094
-734.010	-200.000	0.012	-0.101
-732.996	97.335	-0.066	0.078
-731.981	-84.738	-0.461	0.148
-730.966	85.112	-0.074	0.083
-729.952	-103.390	-0.307	0.074
-728.937	177.977	-0.253	-0.376
-727.923	800.000	-0.050	-0.154
-726.908	-81.368	0.229	0.077
-725.894	-140.426	0.090	0.010
-724.879	-200.000	0.016	-0.257
-723.864	162.339	-0.048	-0.069
-722.850	69.328	0.359	-0.377
-721.835	-98.137	-0.107	-0.028
-720.821	136.649	0.274	-0.364
-719.806	-162.484	0.261	0.013
-718.791	-56.041	-0.091	-0.041
-717.777	800.000	-0.161	-0.458
-716.762	800.000	0.074	-0.236
-715.748	-49.008	-0.193	0.094
-714.733	-106.788	-0.255	-0.058
-713.718	-66.044	-0.110	0.045
-712.704	-125.659	0.285	-0.044
-711.689	-121.017	-0.115	-0.020
-710.675	-30.448	-0.300	-0.174
-709.660	-165.498	0.109	0.005
-708.645	800.000	0.019	0.066
-707.631	483.446	0.086	-0.200
-706.616	-70.002	0.370	0.144
-705.602	-46.303	0.067	0.033
-704.587	350.519	0.080	0.160
-703.572	-173.662	-0.410	-0.012
-702.558	-200.000	0.014	0.099
-701.543	88.962	0.031	0.035
-700.529	800.000	0.096	-0.369
-699.514	-160.712	-0.066	-0.004
-698.499	-68.721	-0.168	-0.066
-697.485	-33.554	-0.148	-0.083
-696.470	-115.353	0.213	-0.041
-695.456	-200.000	0.040	-0.355
-694.441	-43.710	0.315	0.162
-693.426	187.233	0.060	-0.091
-692.412	800.000	-0.034	-0.125
-691.397	-162.368	0.149	0.008
-690.383	-116.821	0.347	0.065
-689.368	-200.000	0.082	0.505
-688.354	-54.020	-0.269	0.125
-687.339	54.034	0.178	0.174
-686.324	69.193	0.192	0.201
-685.310	-91.236	-0.277	-0.081
-684.295	-200.000	0.059	-0.272
-683.281	730.891	-0.097	-0.264
-682.266	-67.252	-0.223	0.089
-681.251	800.000	0.088	-0.337
-680.237	-200.000	0.020	0.163
-679.222	-200.000	-0.002	0.234
-678.208	-28.738	0.150	0.088
-677.193	-167.439	0.406	0.017
-676.178	-200.000	-0.009	-0.061
-675.164	-90.396	-0.307	-0.091
-674.149	-149.629	0.328	-0.026
-673.135	800.000	0.026	0.080
-672.120	-200.000	-0.010	-0.235
-671.105	-109.751	-0.239	0.051
-670.091	-17.535	-0.057	0.036
-669.076	-87.285	-0.070	-0.022
-668.062	-22.524	-0.220	-0.135
-667.047	-105.948	0.275	-0.063
-666.032	-200.000	0.009	0.098
-665.018	250.604	0.097	-0.168
-664.003	-30.739	0.102	0.058
-662.989	-46.556	-0.197	0.098
-661.974	-71.163	0.025	0.010
-660.959	-200.000	0.019	0.423
-659.945	65.921	0.316	-0.326
-658.930	800.000	0.067	-0.196
-657.916	-84.785	-0.173	-0.055
-656.901	-119.981	0.165	0.029
-655.886	-152.378	-0.193	0.014
-654.872	-73.188	-0.331	-0.123
-653.857	198.637	-0.077	-0.119
-652.843	123.710	-0.126	0.161
-651.828	149.723	-0.168	0.232
-650.814	-19.818	-0.157	-0.098
-649.799	-81.913	-0.229	-0.076
-648.784	17.680	-0.122	0.099
-647.770	-200.000	0.003	0.157
-646.755	-80.120	0.013	-0.004
-645.741	-166.762	-0.199	0.008
-644.726	647.723	0.086	0.224
-643.711	174.806	-0.071	-0.104
-642.697	-158.696	0.071	0.004
-641.682	800.000	0.066	0.187
-640.668	-34.569	-0.315	0.175
-639.653	107.514	-0.192	-0.233
-638.638	27.319	-0.259	0.221
-637.624	-78.632	-0.476	0.165
-636.609	185.297	-0.114	-0.171
-635.595	-124.854	-0.276	0.043
-634.580	800.000	0.052	0.192
-633.565	-200.000	0.036	0.212
-632.551	-25.832	-0.119	0.071
-631.536	8.289	0.174	-0.133
-630.522	-2.520	-0.244	0.173
-629.507	249.711	0.090	0.155
-628.492	800.000	0.074	0.279
-627.478	-154.673	-0.249	0.017
-626.463	6.123	0.235	-0.177
-625.449	-51.761	-0.129	-0.061
-624.434	-200.000	0.052	0.401
-623.419	-84.454	0.302	0.097
-622.405	13.613	0.192	-0.151
-621.390	273.579	-0.055	-0.099
-620.376	302.250	0.040	0.075
-619.361	-200.000	-0.020	-0.184
-618.346	-200.000	0.023	-0.234
-617.332	260.845	-0.107	0.188
-616.317	800.000	-0.084	-0.291
-615.303	-106.938	0.490	0.110
-614.288	-57.205	0.196	-0.088
-613.273	-200.000	-0.026	0.133
-612.259	800.000	0.043	0.166
-611.244	-110.943	-0.142	-0.030
-610.230	-135.624	0.281	-0.034
-609.215	328.816	-0.088	-0.172
-608.201	348.118	0.047	0.095
-607.186	-200.000	0.044	-0.200
-606.171	-106.165	0.076	0.017
-605.157	90.365	0.143	0.163
-604.142	-68.140	-0.105	0.042
-603.128	-200.000	-0.017	0.203
-602.113	230.186	-0.164	-0.272
-601.098	209.666	0.075	0.119
-600.084	-84.127	-0.333	-0.107
-599.069	66.431	0.138	0.142
-598.055	258.383	-0.169	0.295
-597.040	163.473	-0.056	0.080
-596.025	35.292	-0.405	0.360
-595.011	-6.675	-0.219	0.151
-593.996	-132.351	-0.467	0.061
-592.982	225.948	0.002	-0.003
-591.967	-130.848	-0.157	-0.021
-590.952	-95.808	0.299	-0.081
-589.938	-82.579	-0.077	0.025
-588.923	13.750	0.104	0.082
-587.909	-18.676	0.085	0.054
-586.894	20.619	-0.055	-0.045
-585.879	226.218	-0.028	0.047
-584.865	116.427	0.087	-0.108
-583.850	-200.000	-0.045	0.428
-582.836	160.720	-0.100	0.141
-581.821	-139.222	0.114	0.012
-580.806	-200.000	-0.004	-0.226
-579.792	800.000	-0.041	-0.138
-578.777	800.000	0.088	-0.335
-577.763	35.693	0.209	0.187
-576.748	341.155	0.122	-0.241
-575.733	117.906	0.084	0.105
-574.719	-103.666	-0.452	-0.107
-573.704	-89.386	0.319	0.095
-572.690	-200.000	-0.028	0.274
-571.675	189.938	-0.078	-0.119
-570.661	101.759	0.111	0.131
-569.646	-37.255	-0.098	0.053
-568.631	58.690	0.094	0.093
-567.617	-200.000	0.032	-0.190
-566.602	31.093	0.095	-0.082
-565.588	-200.000	-0.031	0.258
-564.573	800.000	0.032	0.104
-563.558	98.706	0.061	-0.071
-562.544	148.402	0.094	0.128
-561.529	109.853	0.117	-0.142
-560.515	57.795	-0.094	0.093
-559.500	628.703	0.046	0.119
-558.485	29.068	-0.165	-0.142
-557.471	74.112	-0.297	0.316
-556.456	-41.898	0.206	0.107
-555.442	-200.000	0.007	0.193
-554.427	46.568	0.066	-0.062
-553.412	186.281	-0.178	0.269
-552.398	234.344	-0.231	0.386
-551.383	-123.826	0.168	-0.027
-550.369	-117.682	0.069	0.013
-549.354	103.087	0.125	-0.148
-548.339	96.808	-0.125	0.145
-547.325	800.000	-0.049	-0.160
-546.310	-165.780	-0.148	-0.006
-545.296	-135.627	-0.121	0.015
-544.281	429.851	0.221	0.484
-543.266	-80.224	-0.180	-0.061
-542.252	-200.000	-0.003	-0.079
-541.237	-200.000	0.042	0.333
-540.223	1.220	0.150	0.109
-539.208	-200.000	-0.023	-0.165
-538.193	384.645	0.107	-0.223
-537.179	234.525	0.139	-0.233
-536.164	-142.225	-0.336	0.034
-535.150	104.292	-0.170	-0.202
-534.135	129.062	0.156	-0.202
-533.121	800.000	0.045	0.142
-532.106	163.298	0.127	0.181
-531.091	-200.000	-0.027	-0.222
-530.077	95.005	-0.095	0.110
-529.062	-153.124	0.051	-0.004
-528.048	-200.000	-0.008	-0.302
-527.033	-86.400	0.222	-0.069
-526.018	201.582	-0.114	0.178
-525.004	5.219	0.188	-0.140
-523.989	-107.925	0.238	-0.052
-522.975	404.047	0.064	-0.137
-521.960	412.103	-0.094	0.202
-520.945	-200.000	0.033	0.198
-519.931	129.413	0.120	0.155
-518.916	46.283	0.225	-0.211
-517.902	-200.000	0.000	-0.161
-516.887	76.108	-0.058	0.062
-515.872	70.070	0.119	0.124
-514.858	-169.683	0.133	0.005
-513.843	-175.729	-0.652	-0.018
-512.829	-153.671	-0.128	-0.009
-511.814	216.628	0.108	-0.174
-510.799	800.000	-0.111	-0.421
-509.785	-87.753	-0.617	-0.188
-508.770	-89.696	-0.151	-0.045
-507.756	-200.000	-0.027	0.159
-506.741	15.258	0.185	0.146
-505.726	83.439	-0.084	0.092
-504.712	-82.617	0.443	-0.145
-503.697	-200.000	0.039	-0.406
-502.683	144.658	-0.226	-0.305
-501.668	-200.000	0.027	-0.359
-500.653	179.088	0.189	0.279
-499.639	-100.495	0.338	-0.085
-498.624	-66.817	0.268	0.107
-497.610	118.197	-0.257	-0.320
-496.595	9.527	0.181	-0.139
-495.581	-165.308	-0.231	0.010
-494.566	-200.000	-0.033	0.260
-493.551	-145.543	0.323	0.029
-492.537	-200.000	-0.003	-0.116
-491.522	574.795	0.062	0.152
-490.508	631.823	-0.065	0.167
-489.493	-19.031	0.137	-0.086
-488.478	-129.751	-0.179	0.025
-487.464	-200.000	0.005	0.297
-486.449	-70.000	0.395	-0.152
-485.435	800.000	-0.048	-0.212
-484.420	-200.000	0.029	-0.415
-483.405	36.182	-0.350	0.311
-482.391	-200.000	-0.027	0.172
-481.376	57.480	-0.096	0.094
-480.362	-200.000	-0.041	-0.366
-479.347	216.008	-0.121	-0.193
-478.332	-45.659	0.247	0.124
-477.318	-200.000	0.036	-0.205
-476.303	-200.000	0.003	-0.145
-475.289	-200.000	0.147	-0.001
-474.274	-109.467	-0.237	-0.051
-473.259	-38.417	0.047	0.025
-472.245	-60.605	0.637	0.273
-471.230	268.191	0.019	0.033
-470.216	-200.000	0.014	-0.464
-469.201	311.864	0.129	-0.244
-468.186	60.648	-0.259	-0.259
-467.172	525.094	0.119	-0.283
-466.157	104.934	0.125	-0.149
-465.143	-13.806	-0.292	0.191
-464.128	448.909	-0.083	-0.184
-463.113	-92.123	-0.551	0.157
-462.099	-200.000	-0.014	-0.459
-461.084	-200.000	0.022	-0.104
-460.070	-200.000	0.043	-0.222
-459.055	65.194	-0.288	0.294
-458.040	156.411	-0.147	0.204
-457.026	8.638	0.217	0.165
-456.011	-71.712	0.053	0.020
-454.997	-31.912	0.326	-0.184
-453.982	264.186	0.043	-0.076
-452.968	-46.511	-0.268	-0.133
-451.953	81.584	-0.277	-0.302
-450.938	-40.945	0.474	-0.247
-449.924	58.333	-0.303	0.300
-448.909	31.656	-0.084	0.073
-447.895	-93.564	0.153	-0.043
-446.880	49.460	0.098	-0.093
-445.865	-124.969	-0.205	0.032
-444.851	-47.165	0.212	0.104
-443.836	-200.000	-0.001	0.118
-442.822	-200.000	0.050	-0.325
-441.807	-120.188	0.136	-0.023
-440.792	-28.883	0.136	0.079
-439.778	-34.899	0.199	0.110
-438.763	800.000	-0.104	-0.369
-437.749	-38.541	0.202	0.108
-436.734	42.063	-0.171	-0.156
-435.719	520.419	0.022	0.051
-434.705	133.322	-0.021	-0.027
-433.690	687.234	0.114	0.300
-432.676	-200.000	0.005	-0.157
-431.661	-200.000	-0.026	-0.231
-430.646	-152.117	0.333	0.024
-429.632	-25.819	-0.326	-0.194
-428.617	-75.986	0.095	-0.034
-427.603	99.833	0.114	0.133
-426.588	441.477	0.120	0.266
-425.573	294.875	0.096	-0.177
-424.559	171.996	0.116	-0.168
-423.544	-63.593	-0.306	-0.127
-422.530	-60.052	-0.094	-0.041
-421.515	287.301	0.081	0.148
-420.500	50.608	0.054	0.051
-419.486	156.446	0.073	-0.101
-418.471	-200.000	0.012	0.299
-417.457	-10.038	-0.237	0.159
-416.442	-200.000	-0.066	-0.340
-415.428	-103.383	0.299	0.071
-414.413	571.117	-0.070	0.172
-413.398	-200.000	-0.070	0.387
-412.384	61.226	0.079	-0.079
-411.369	23.791	-0.216	-0.179
-410.355	-67.631	-0.094	0.037
-409.340	-79.824	-0.091	-0.031
-408.325	-60.595	0.388	0.166
-407.311	-124.048	0.173	-0.027
-406.296	89.928	0.179	0.202
-405.282	-55.710	-0.178	0.080
-404.267	-191.347	0.064	0.001
-403.252	-200.000	-0.010	0.113
-402.238	-138.490	-0.243	0.027
-401.223	-99.832	-0.305	0.077
-400.209	-200.000	0.005	-0.193
-399.194	-200.000	0.025	-0.120
-398.179	-124.429	0.131	0.021
-397.165	-90.368	-0.187	-0.055
-396.150	800.000	-0.085	0.325
-395.136	21.386	-0.324	0.265
-394.121	155.586	0.191	0.265
-393.106	-39.276	-0.302	0.160
-392.092	-72.849	-0.306	0.113
-391.077	-200.000	0.021	0.371
-390.063	-88.158	0.119	0.036
-389.048	-41.959	0.265	0.137
-388.033	800.000	0.051	0.168
-387.019	-147.356	0.198	-0.017
-386.004	-51.410	0.347	-0.163
-384.990	-42.087	-0.121	0.062
-383.975	-78.076	0.305	0.106
-382.960	-35.889	0.178	0.097
-381.946	-97.014	0.179	-0.047
-380.931	0.620	-0.248	-0.178
-379.917	8.636	-0.090	-0.068
-378.902	235.022	0.039	-0.064
-377.888	-200.000	-0.025	0.170
-376.873	185.316	-0.226	-0.337
-375.858	-82.631	-0.140	-0.046
-374.844	-200.000	-0.002	0.230
-373.829	-200.000	0.002	0.052
-372.815	-97.137	-0.252	0.066
-371.800	491.493	-0.134	-0.308
-370.785	-57.634	0.133	0.059
-369.771	-100.724	-0.255	0.063
-368.756	-200.000	-0.031	0.195
-367.742	-200.000	0.002	0.186
-366.727	-185.440	-0.268	0.004
-365.712	71.369	0.249	-0.260
-364.698	241.440	0.102	-0.171
-363.683	88.069	-0.258	0.287
-362.669	51.475	-0.020	-0.019
-361.654	-200.000	0.019	0.099
-360.639	-136.566	-0.451	-0.053
-359.625	60.491	0.192	0.191
-358.610	800.000	-0.082	-0.259
-357.596	232.266	0.117	-0.194
-356.581	315.074	0.103	-0.195
-355.566	360.414	-0.034	-0.068
-354.552	-180.967	0.229	-0.005
-353.537	63.930	-0.123	-0.124
-352.523	666.459	-0.142	-0.368
-351.508	58.542	0.108	0.106
-350.493	322.593	0.106	-0.203
-349.479	-58.653	-0.217	0.094
-348.464	-200.000	-0.008	0.231
-347.450	-107.623	0.463	0.102
-346.435	-76.620	0.280	-0.099
-345.420	-65.272	0.254	0.103
-344.406	98.812	-0.096	-0.112
-343.391	44.228	0.302	0.278
-342.377	-82.089	-0.464	0.152
-341.362	64.945	-0.110	-0.111
-340.348	-89.646	-0.270	-0.080
-339.333	-76.331	0.266	0.094
-338.318	195.046	-0.128	-0.195
-337.304	-200.000	0.044	-0.205
-336.289	-121.756	0.131	-0.022
-335.275	99.360	0.143	-0.166
-334.260	-200.000	0.046	0.259
-333.245	-200.000	-0.049	0.402
-332.231	-80.028	-0.139	-0.047
-331.216	138.829	-0.172	0.228
-330.202	-200.000	-0.069	0.381
-329.187	-200.000	0.014	-0.153
-328.172	73.483	0.159	0.167
-327.158	-44.733	0.200	-0.100
-326.143	-200.000	0.032	0.607
-325.129	-20.695	-0.172	0.106
-324.114	-200.000	-0.046	0.304
-323.099	-95.578	0.053	-0.014
-322.085	-134.039	0.383	-0.048
-321.070	-134.767	0.068	-0.008
-320.056	70.763	0.142	-0.148
-319.041	312.235	0.115	-0.217
-318.026	604.593	-0.087	-0.217
-317.012	135.044	-0.219	0.285
-315.997	501.635	0.152	0.352
-314.983	-200.000	0.063	0.311
-313.968	-77.711	-0.040	0.014
-312.953	119.678	0.080	-0.099
-311.939	-98.153	0.102	-0.026
-310.924	90.965	0.321	-0.361
-309.910	8.770	0.185	-0.140
-308.895	800.000	-0.094	0.273
-307.880	326.402	-0.035	-0.067
-306.866	800.000	0.118	0.338
-305.851	-57.544	-0.153	-0.068
-304.837	634.493	-0.058	-0.147
-303.822	47.302	0.336	-0.314
-302.807	93.228	0.196	-0.222
-301.793	-148.366	0.272	-0.022
-300.778	-29.859	-0.297	0.170
-299.764	-180.786	0.246	0.005
-298.749	800.000	0.015	0.044
-297.735	98.700	0.278	0.321
-296.720	-200.000	0.000	0.065
-295.705	-200.000	-0.079	-0.405
-294.691	-154.436	0.491	-0.033
-293.676	-100.453	-0.209	-0.052
-292.662	-200.000	-0.022	-0.178
-291.647	405.186	-0.123	-0.260
-290.632	433.966	-0.007	-0.016
-289.618	-109.385	-0.285	0.060
-288.603	302.450	0.053	0.099
-287.589	242.155	-0.109	-0.183
-286.574	-143.031	-0.227	-0.022
-285.559	-200.000	-0.027	-0.123
-284.545	27.684	0.120	0.101
-283.530	-65.622	0.111	-0.045
-282.516	-200.000	-0.050	-0.404
-281.501	800.000	0.084	0.332
-280.486	-155.051	0.163	0.011
-279.472	268.993	0.055	0.097
-278.457	-86.556	0.273	-0.084
-277.443	-106.108	-0.161	0.036
-276.428	-88.688	-0.315	-0.094
-275.413	115.503	-0.091	-0.111
-274.399	749.209	-0.091	-0.246
-273.384	601.680	0.072	0.179
-272.370	-200.000	0.067	0.364
-271.355	301.902	0.174	0.323
-270.340	-110.941	-0.331	0.068
-269.326	-61.388	0.437	0.184
-268.311	-58.625	-0.345	-0.150
-267.297	42.150	0.082	0.075
-266.282	-38.959	-0.210	0.111
-265.267	162.703	0.067	0.095
-264.253	-128.976	-0.299	-0.042
-263.238	370.451	-0.215	-0.436
-262.224	29.116	0.249	0.211
-261.209	62.037	0.090	0.090
-260.195	107.927	-0.113	0.135
-259.180	634.965	0.015	0.038
-258.165	48.528	0.309	0.290
-257.151	164.500	0.117	-0.165
-256.136	-52.325	-0.258	0.120
-255.122	226.847	-0.047	0.076
-254.107	800.000	0.036	-0.140
-253.092	471.286	-0.083	-0.187
-252.078	-50.196	0.119	-0.056
-251.063	-96.852	0.159	-0.042
-250.049	-42.849	-0.081	-0.041
-249.034	123.297	-0.157	0.197
-248.019	800.000	-0.047	-0.180
-247.005	734.809	0.081	-0.217
-245.990	-155.587	-0.468	0.030
-244.976	-101.739	0.186	0.045
-243.961	272.369	-0.238	0.421
-242.946	-59.158	0.186	-0.080
-241.932	-200.000	-0.011	-0.078
-240.917	-148.793	0.289	-0.023
-239.903	-200.000	0.002	0.092
-238.888	106.010	0.152	0.180
-237.873	-12.467	0.225	0.147
-236.859	-200.000	0.038	-0.406
-235.844	-141.371	0.106	0.011
-234.830	14.535	0.233	0.182
-233.815	55.157	-0.253	-0.245
-232.800	-150.531	-0.140	-0.011
-231.786	115.279	0.199	-0.243
-230.771	-200.000	-0.027	-0.406
-229.757	-75.916	-0.433	-0.153
-228.742	-176.192	-0.157	0.004
-227.727	-91.501	-0.141	-0.040
-226.713	158.228	0.118	0.164
-225.698	-68.998	0.146	-0.056
-224.684	520.273	-0.067	-0.157
-223.669	17.139	0.139	0.110
-222.655	-120.692	-0.168	0.028
-221.640	-49.320	-0.068	-0.032
-220.625	-200.000	0.002	-0.103
-219.611	277.881	-0.036	0.064
-218.596	-143.564	0.187	0.018
-217.582	800.000	-0.099	-0.342
-216.567	124.795	-0.259	0.326
-215.552	-200.000	-0.028	-0.173
-214.538	-119.804	0.098	0.017
-213.523	206.995	0.120	-0.188
-212.509	-41.667	0.142	-0.073
-211.494	90.748	0.081	-0.091
-210.479	184.974	0.169	0.250
-209.465	1.246	0.206	0.148
-208.450	16.944	-0.314	-0.249
-207.436	445.928	0.110	-0.241
-206.421	-29.530	-0.153	0.088
-205.406	-91.371	-0.161	-0.046
-204.392	-200.000	-0.011	-0.065
-203.377	800.000	0.063	0.188
-202.363	-79.120	-0.282	-0.096
-201.348	120.619	0.184	-0.228
-200.333	363.845	0.047	-0.095
-199.319	37.172	-0.294	0.260
-198.304	-200.000	-0.045	0.293
-197.290	-91.800	-0.127	0.036
-196.275	-23.728	-0.200	0.120
-195.260	-14.957	-0.155	-0.099
-194.246	511.130	-0.069	0.160
-193.231	-171.870	-0.353	-0.012
-192.217	-75.977	0.190	-0.067
-191.202	-200.000	-0.030	0.144
-190.187	393.150	0.220	-0.457
-189.173	114.535	0.115	-0.140
-188.158	21.222	-0.257	0.208
-187.144	-79.111	0.141	-0.048
-186.129	187.207	0.140	-0.208
-185.114	96.259	-0.189	0.215
-184.100	11.994	-0.083	-0.064
-183.085	-101.189	-0.060	-0.015
-182.071	-27.321	0.041	0.024
-181.056	-200.000	0.021	-0.162
-180.042	536.172	0.052	-0.123
-179.027	-124.037	-0.105	-0.016
-178.012	51.337	-0.067	0.063
-176.998	-200.000	-0.038	0.211
-175.983	-200.000	0.016	-0.155
-174.969	800.000	0.022	0.062
-173.954	47.516	0.203	0.189
-172.939	222.815	0.099	-0.160
-171.925	687.016	0.184	-0.479
-170.910	800.000	-0.097	-0.292
-169.896	-45.316	-0.233	0.115
-168.881	-2.567	0.160	-0.112
-167.866	46.218	-0.241	0.223
-166.852	-46.722	-0.290	-0.142
-165.837	-28.484	0.126	0.072
-164.823	228.408	0.036	-0.058
-163.808	-200.000	0.013	0.365
-162.793	-19.335	0.251	0.155
-161.779	-200.000	-0.014	-0.133
-160.764	-110.851	0.059	-0.012
-159.750	-200.000	-0.007	0.307
-158.735	58.815	0.480	-0.471
-157.720	-60.340	-0.184	0.078
-156.706	-103.377	0.103	0.024
-155.691	-200.000	0.030	-0.201
-154.677	355.684	0.017	-0.033
-153.662	-200.000	0.015	-0.220
-152.647	88.490	-0.141	-0.156
-151.633	55.171	0.290	-0.280
-150.618	-23.366	0.240	-0.144
-149.604	-147.700	0.221	0.019
-148.589	-61.666	0.081	0.034
-147.574	800.000	-0.038	-0.163
-146.560	-35.235	0.178	0.097
-145.545	393.148	0.075	0.155
-144.531	-200.000	-0.025	0.447
-143.516	-200.000	-0.030	0.240
-142.502	-130.063	-0.053	-0.007
-141.487	-105.959	-0.342	-0.077
-140.472	32.135	0.252	-0.217
-139.458	-143.875	0.210	-0.020
-138.443	800.000	-0.140	-0.416
-137.429	-196.426	0.367	0.002
-136.414	-200.000	0.041	0.204
-135.399	-41.344	0.533	-0.274
-134.385	-126.978	-0.316	-0.046
-133.370	0.243	0.136	-0.097
-132.356	-200.000	-0.062	-0.330
-131.341	-200.000	-0.002	-0.174
-130.326	-73.310	0.049	-0.018
-129.312	102.902	-0.100	0.117
-128.297	141.002	0.135	-0.178
-127.283	-200.000	-0.013	-0.403
-126.268	-146.995	-0.179	0.015
-125.253	209.308	0.170	-0.266
-124.239	54.437	0.212	-0.203
-123.224	-22.314	-0.257	0.155
-122.210	290.358	0.174	0.315
-121.195	800.000	-0.028	0.099
