DTS Sentinel unit serial number:	SN413079Multiplexer serial number:	ORYXHardware model number:	OX4-SRSoftware version number:	ORYX F/W v4.00 Oryx Data Collector v3.7.2.0data status	okinstallation	princeton_trtdifferential loss correction	single-endedforward channel	channel 3reverse channel	N/Adate	2019/09/14time	05:12:34forward acquisition time	60.00reverse acquisition time	0.00gamma	496.2192k internal	0.2337k external	0.2337temperature offset calibration	1.0053default loss term (dB/km)	0.3790temperature slope calibration	1.0000multiplexer offset coefficient	1.0000multiplexer slope coefficient	1.0000fibre end	0.00T internal ref (°C)	26.92T ext. ref 1 (°C)	3.38T ext. ref 2 (°C)	21.97length (m)	temperature (°C)	Stokes	anti-Stokes-747.200	-168.337	0.247	-0.010
-746.185	-200.000	-0.041	-0.220
-745.171	-92.603	-0.106	-0.030
-744.156	800.000	-0.082	0.251
-743.142	-164.037	-0.031	0.001
-742.127	-200.000	-0.073	0.499
-741.112	-154.357	-0.504	-0.034
-740.098	-99.160	-0.217	0.055
-739.083	50.479	-0.074	0.071
-738.069	-106.117	-0.070	0.016
-737.054	157.179	0.074	0.102
-736.039	-98.972	-0.182	0.046
-735.025	-28.756	-0.027	-0.015
-734.010	379.712	0.024	-0.050
-732.996	-153.624	-0.203	0.014
-731.981	-21.695	-0.128	-0.078
-730.966	278.864	0.049	0.087
-729.952	-90.616	0.192	0.056
-728.937	-145.106	-0.106	-0.010
-727.923	-128.210	-0.225	-0.032
-726.908	42.559	0.130	-0.119
-725.894	98.894	0.247	0.286
-724.879	-175.837	-0.131	0.004
-723.864	-67.700	-0.355	0.140
-722.850	-145.784	-0.301	-0.027
-721.835	-79.827	-0.039	-0.013
-720.821	800.000	0.080	-0.299
-719.806	49.970	0.162	-0.153
-718.791	9.663	0.089	-0.067
-717.777	40.102	-0.177	0.160
-716.762	-30.888	0.404	-0.229
-715.748	265.911	-0.056	-0.098
-714.733	578.153	-0.072	-0.176
-713.718	473.942	-0.061	0.139
-712.704	134.922	-0.052	0.067
-711.689	82.671	0.090	-0.098
-710.675	-145.508	0.429	0.039
-709.660	266.421	0.091	-0.159
-708.645	161.115	-0.160	0.224
-707.631	-48.221	-0.225	-0.109
-706.616	800.000	0.064	-0.208
-705.602	-121.979	0.156	0.026
-704.587	-75.636	0.135	0.048
-703.572	-200.000	-0.059	-0.472
-702.558	-79.418	0.257	-0.087
-701.543	-185.975	-0.112	0.002
-700.529	300.593	-0.119	-0.219
-699.514	-200.000	-0.047	-0.208
-698.499	43.370	0.229	0.209
-697.485	410.069	-0.031	0.066
-696.470	206.609	0.028	0.043
-695.456	-31.363	0.119	0.067
-694.441	139.448	0.216	-0.284
-693.426	-48.336	0.464	0.224
-692.412	-97.112	-0.340	-0.089
-691.397	-79.191	0.171	-0.058
-690.383	-47.370	-0.223	0.109
-689.368	-2.676	-0.204	-0.143
-688.354	-200.000	0.008	-0.359
-687.339	116.218	-0.149	-0.183
-686.324	-169.086	0.217	0.008
-685.310	40.158	-0.193	-0.173
-684.295	37.005	-0.168	0.149
-683.281	78.970	-0.139	-0.149
-682.266	83.609	-0.115	0.126
-681.251	364.927	0.052	0.105
-680.237	172.321	-0.256	-0.369
-679.222	92.965	-0.160	-0.181
-678.208	59.414	-0.128	0.126
-677.193	348.778	0.116	0.230
-676.178	420.309	-0.098	0.210
-675.164	-200.000	-0.027	-0.132
-674.149	-23.162	-0.121	-0.073
-673.135	1.839	-0.181	0.130
-672.120	-92.020	-0.151	0.043
-671.105	-200.000	-0.007	0.086
-670.091	97.301	-0.189	-0.217
-669.076	800.000	-0.080	-0.335
-668.062	-200.000	-0.030	0.175
-667.047	-33.614	-0.184	-0.102
-666.032	-128.425	-0.298	-0.042
-665.018	156.611	0.239	0.330
-664.003	800.000	-0.050	0.189
-662.989	800.000	0.176	-0.556
-661.974	-130.763	0.209	0.028
-660.959	178.454	0.118	-0.172
-659.945	103.194	-0.067	0.079
-658.930	42.056	-0.191	-0.173
-657.916	-42.046	0.018	-0.009
-656.901	-200.000	-0.008	-0.329
-655.886	664.570	0.129	-0.333
-654.872	800.000	0.039	-0.140
-653.857	800.000	0.154	-0.491
-652.843	42.364	-0.136	-0.124
-651.828	116.332	0.142	-0.174
-650.814	658.342	0.020	-0.051
-649.799	799.472	0.106	0.294
-648.784	-142.022	-0.286	0.029
-647.770	-171.170	-0.252	-0.009
-646.755	-200.000	-0.035	-0.261
-645.741	-200.000	0.005	0.137
-644.726	800.000	0.102	-0.352
-643.711	800.000	0.098	0.333
-642.697	800.000	-0.024	0.071
-641.682	800.000	-0.015	0.062
-640.668	214.856	-0.159	-0.251
-639.653	242.686	0.130	-0.217
-638.638	29.516	-0.059	-0.050
-637.624	-110.689	-0.345	0.071
-636.609	-115.163	0.162	-0.031
-635.595	191.810	0.251	0.378
-634.580	-200.000	-0.006	0.036
-633.565	-43.060	-0.221	0.112
-632.551	-200.000	-0.035	-0.169
-631.536	800.000	-0.145	-0.432
-630.522	800.000	-0.049	0.140
-629.507	-47.633	-0.271	0.131
-628.492	-200.000	0.024	0.278
-627.478	13.107	0.041	0.032
-626.463	-178.655	0.309	-0.007
-625.449	78.900	-0.018	-0.019
-624.434	-40.914	0.180	-0.093
-623.419	53.469	-0.186	0.178
-622.405	-200.000	0.058	-0.378
-621.390	541.696	0.061	-0.144
-620.376	-194.679	-0.147	-0.001
-619.361	-112.884	-0.301	-0.060
-618.346	-145.028	-0.063	-0.006
-617.332	-200.000	0.017	-0.133
-616.317	50.812	-0.070	-0.066
-615.303	210.511	0.215	-0.338
-614.288	-14.373	-0.229	-0.147
-613.273	-99.214	-0.144	0.036
-612.259	30.002	-0.166	0.141
-611.244	-48.521	-0.280	0.135
-610.230	34.763	-0.109	0.095
-609.215	-53.079	0.108	-0.050
-608.201	-160.208	0.215	0.012
-607.186	153.267	-0.041	-0.057
-606.171	-83.221	0.239	-0.077
-605.157	-200.000	0.031	0.241
-604.142	146.943	0.241	0.323
-603.128	204.655	0.119	-0.184
-602.113	39.488	0.201	-0.180
-601.098	800.000	0.066	-0.231
-600.084	-131.873	-0.315	0.041
-599.069	76.050	0.044	0.047
-598.055	88.548	0.091	-0.101
-597.040	77.232	0.167	0.177
-596.025	-200.000	-0.034	-0.314
-595.011	-70.663	-0.441	-0.166
-593.996	-121.958	-0.314	-0.052
-592.982	800.000	-0.008	-0.024
-591.967	-144.035	0.095	0.009
-590.952	69.545	0.025	0.026
-589.938	-115.886	-0.194	0.036
-588.923	-80.436	0.261	0.087
-587.909	77.176	0.089	0.095
-586.894	-92.646	-0.238	-0.066
-585.879	202.132	-0.023	-0.035
-584.865	525.588	0.033	-0.079
-583.850	-187.557	0.148	0.002
-582.836	-170.950	0.186	0.006
-581.821	53.355	0.258	0.247
-580.806	131.865	-0.068	0.088
-579.792	-200.000	0.039	0.280
-578.777	-140.990	-0.096	-0.010
-577.763	290.885	0.223	-0.403
-576.748	-200.000	-0.075	0.345
-575.733	-126.313	0.144	0.021
-574.719	-18.971	-0.130	-0.081
-573.704	-103.342	0.226	-0.053
-572.690	-69.604	-0.320	-0.122
-571.675	-44.908	-0.243	-0.121
-570.661	-200.000	-0.077	-0.455
-569.646	609.654	0.114	-0.285
-568.631	357.380	-0.047	0.094
-567.617	-200.000	0.022	0.197
-566.602	800.000	0.048	-0.139
-565.588	78.021	-0.218	-0.231
-564.573	-4.844	-0.298	-0.204
-563.558	-15.783	-0.246	-0.156
-562.544	800.000	0.083	-0.286
-561.529	-14.270	-0.120	-0.077
-560.515	-62.008	-0.251	-0.105
-559.500	409.734	0.051	-0.107
-558.485	800.000	0.057	-0.178
-557.471	-66.945	-0.154	-0.060
-556.456	-27.682	0.118	-0.068
-555.442	-159.192	0.277	-0.016
-554.427	800.000	0.045	-0.178
-553.412	-113.882	-0.178	-0.034
-552.398	-200.000	0.026	0.319
-551.383	-0.563	0.045	-0.032
-550.369	-106.081	0.459	-0.103
-549.354	-200.000	0.026	0.213
-548.339	800.000	-0.091	-0.329
-547.325	-147.636	0.262	-0.022
-546.310	-167.382	-0.164	-0.007
-545.296	-200.000	-0.012	-0.107
-544.281	242.253	-0.063	-0.105
-543.266	262.071	-0.112	-0.193
-542.252	-200.000	0.045	0.200
-541.237	-71.503	0.278	0.103
-540.223	800.000	0.014	0.046
-539.208	-200.000	0.022	0.156
-538.193	68.946	0.166	-0.169
-537.179	-108.168	-0.292	-0.063
-536.164	-200.000	-0.015	0.202
-535.150	-16.196	-0.159	0.100
-534.135	1.456	-0.221	-0.158
-533.121	146.686	-0.107	-0.144
-532.106	-132.580	0.204	0.026
-531.091	-137.796	-0.182	-0.020
-530.077	-24.704	-0.286	0.169
-529.062	327.403	-0.073	-0.138
-528.048	-78.122	-0.112	0.038
-527.033	243.133	0.064	0.106
-526.018	-161.791	-0.166	0.008
-525.004	41.619	-0.167	0.150
-523.989	-200.000	0.105	0.522
-522.975	472.578	-0.210	-0.471
-521.960	-45.337	0.151	0.074
-520.945	-123.085	0.146	-0.023
-519.931	34.866	0.146	-0.127
-518.916	597.904	0.150	-0.371
-517.902	280.924	-0.068	0.121
-516.887	-16.350	-0.082	0.052
-515.872	11.123	0.184	-0.140
-514.858	764.337	-0.009	0.023
-513.843	-91.270	0.390	0.111
-512.829	-91.368	0.247	0.070
-511.814	-54.229	0.335	0.151
-510.799	-200.000	0.004	0.209
-509.785	239.334	0.145	0.240
-508.770	800.000	-0.093	-0.288
-507.756	519.664	-0.013	-0.030
-506.741	-18.447	0.242	0.150
-505.726	103.800	-0.286	0.334
-504.712	53.670	-0.168	-0.160
-503.697	-122.266	0.176	-0.029
-502.683	675.052	0.135	-0.348
-501.668	2.102	-0.127	-0.091
-500.653	10.528	-0.235	0.178
-499.639	569.692	-0.075	0.182
-498.624	-140.226	0.136	0.014
-497.610	-73.643	-0.300	0.108
-496.595	156.019	-0.343	-0.470
-495.581	-68.116	0.239	-0.092
-494.566	70.139	-0.136	0.139
-493.551	-107.856	-0.231	0.050
-492.537	663.079	-0.136	-0.350
-491.522	800.000	0.150	-0.424
-490.508	-200.000	-0.009	0.098
-489.493	193.238	0.127	0.191
-488.478	-157.433	-0.138	-0.008
-487.464	214.252	0.079	-0.125
-486.449	-133.147	-0.131	0.016
-485.435	-110.125	0.163	-0.034
-484.420	800.000	0.116	-0.373
-483.405	497.007	-0.102	0.233
-482.391	800.000	0.027	-0.104
-481.376	-125.711	0.334	0.050
-480.362	191.421	0.070	-0.105
-479.347	607.323	-0.115	-0.285
-478.332	62.506	0.138	-0.137
-477.318	-91.483	0.093	-0.026
-476.303	77.806	0.190	-0.201
-475.289	173.885	-0.091	-0.130
-474.274	30.480	-0.064	-0.055
-473.259	258.345	-0.112	0.192
-472.245	568.271	-0.087	0.210
-471.230	24.080	0.045	-0.037
-470.216	-37.168	-0.147	0.078
-469.201	-65.310	0.259	-0.103
-468.186	501.491	-0.019	0.044
-467.172	-200.000	-0.028	0.292
-466.157	89.724	-0.105	-0.116
-465.143	-200.000	-0.015	-0.124
-464.128	181.044	0.161	0.234
-463.113	-200.000	0.023	0.192
-462.099	800.000	-0.066	-0.266
-461.084	57.840	-0.268	-0.260
-460.070	-88.644	0.198	0.059
-459.055	-200.000	-0.029	0.159
-458.040	512.438	0.093	0.215
-457.026	174.312	-0.084	-0.120
-456.011	-37.681	0.144	0.076
-454.997	14.969	0.091	0.070
-453.982	-100.785	-0.073	-0.018
-452.968	304.101	-0.076	-0.140
-451.953	42.794	0.144	-0.130
-450.938	31.427	0.280	-0.239
-449.924	-96.068	0.059	0.016
-448.909	-85.845	-0.222	0.068
-447.895	241.066	0.117	0.193
-446.880	-33.143	-0.285	-0.157
-445.865	799.936	-0.042	-0.114
-444.851	75.929	-0.119	0.125
-443.836	800.000	0.115	0.319
-442.822	7.893	-0.267	0.199
-441.807	143.820	0.075	-0.099
-440.792	160.498	-0.279	-0.387
-439.778	-87.579	0.086	0.026
-438.763	-118.548	-0.108	-0.019
-437.749	-49.823	-0.196	-0.093
-436.734	42.664	-0.295	-0.266
-435.719	-181.129	0.122	0.002
-434.705	-200.000	0.022	0.463
-433.690	293.546	0.052	0.094
-432.676	76.789	0.208	-0.219
-431.661	416.126	-0.112	0.237
-430.646	-141.610	0.143	0.014
-429.632	-103.001	0.430	0.101
-428.617	141.257	-0.187	-0.245
-427.603	800.000	0.050	-0.167
-426.588	28.457	-0.222	-0.186
-425.573	-200.000	-0.031	0.206
-424.559	-133.421	-0.203	0.025
-423.544	800.000	0.081	0.225
-422.530	-21.406	0.287	0.174
-421.515	22.182	0.163	-0.132
-420.500	-73.411	0.184	0.067
-419.486	800.000	-0.090	0.318
-418.471	-60.608	0.320	0.134
-417.457	-21.553	-0.201	-0.121
-416.442	206.326	0.079	0.123
-415.428	70.569	-0.348	-0.357
-414.413	53.125	0.033	0.031
-413.398	50.278	-0.023	0.022
-412.384	97.434	0.371	0.422
-411.369	-200.000	0.026	-0.136
-410.355	6.156	-0.101	0.074
-409.340	759.295	0.059	0.158
-408.325	-32.876	0.193	-0.106
-407.311	-80.745	-0.067	0.022
-406.296	694.533	0.042	-0.108
-405.282	176.906	-0.040	-0.058
-404.267	-87.831	0.296	0.088
-403.252	-103.154	-0.309	-0.072
-402.238	-200.000	0.026	0.164
-401.223	376.184	-0.017	-0.035
-400.209	-200.000	-0.028	-0.239
-399.194	-200.000	0.015	0.187
-398.179	-200.000	0.014	0.067
-397.165	-200.000	0.176	-0.001
-396.150	426.081	0.051	0.108
-395.136	137.090	0.310	-0.401
-394.121	-200.000	-0.017	-0.196
-393.106	-33.966	0.076	-0.041
-392.092	-187.767	-0.142	-0.002
-391.077	-200.000	0.006	0.241
-390.063	10.568	-0.083	-0.063
-389.048	-149.167	0.456	-0.036
-388.033	800.000	0.095	-0.313
-387.019	-124.553	0.079	-0.012
-386.004	-77.505	-0.147	0.051
-384.990	250.725	-0.216	0.364
-383.975	800.000	0.082	-0.240
-382.960	-114.206	0.193	-0.037
-381.946	19.489	-0.220	0.175
-380.931	255.250	0.158	0.268
-379.917	-125.050	0.151	0.023
-378.902	-85.445	0.257	0.079
-377.888	-78.803	-0.097	-0.033
-376.873	-200.000	0.064	-0.423
-375.858	342.252	0.132	-0.256
-374.844	89.512	-0.144	-0.159
-373.829	-152.129	0.073	-0.005
-372.815	-91.253	-0.163	0.046
-371.800	-200.000	-0.023	-0.100
-370.785	-66.770	0.354	-0.139
-369.771	-135.664	-0.199	0.023
-368.756	-36.403	0.281	0.150
-367.742	800.000	-0.046	-0.128
-366.727	-200.000	0.028	-0.319
-365.712	96.879	0.063	0.071
-364.698	-25.712	0.279	-0.163
-363.683	13.781	0.157	0.120
-362.669	800.000	0.058	0.231
-361.654	31.950	0.189	0.161
-360.639	106.690	-0.009	-0.011
-359.625	101.736	0.125	-0.145
-358.610	9.777	-0.223	-0.167
-357.596	-54.314	-0.035	0.016
-356.581	11.337	-0.095	0.072
-355.566	-30.610	-0.248	-0.139
-354.552	800.000	-0.114	0.424
-353.537	34.949	-0.187	-0.162
-352.523	162.071	-0.139	-0.193
-351.508	375.205	0.057	-0.115
-350.493	-200.000	-0.023	0.135
-349.479	-47.698	0.061	-0.029
-348.464	800.000	0.038	0.159
-347.450	-200.000	0.001	0.099
-346.435	-70.141	-0.110	-0.041
-345.420	29.721	0.276	-0.232
-344.406	-68.514	-0.125	0.048
-343.391	125.116	0.130	-0.162
-342.377	17.816	-0.099	0.078
-341.362	11.346	-0.095	-0.072
-340.348	477.058	0.048	0.108
-339.333	-8.412	0.074	-0.049
-338.318	800.000	0.029	0.106
-337.304	800.000	-0.022	0.073
-336.289	-11.022	0.108	-0.071
-335.275	800.000	-0.054	0.154
-334.260	96.061	-0.181	0.204
-333.245	76.594	0.290	0.304
-332.231	711.919	0.155	0.406
-331.216	-87.597	0.184	0.055
-330.202	499.987	0.054	0.124
-329.187	-7.232	0.086	0.058
-328.172	300.665	0.172	-0.313
-327.158	46.420	-0.405	-0.371
-326.143	-200.000	-0.028	0.196
-325.129	-86.475	-0.138	-0.042
-324.114	312.341	-0.094	-0.174
-323.099	121.519	-0.175	0.216
-322.085	-72.377	-0.500	-0.183
-321.070	44.198	-0.196	0.177
-320.056	-200.000	-0.023	0.116
-319.041	-45.452	0.167	-0.082
-318.026	-200.000	-0.005	0.034
-317.012	757.510	0.118	0.315
-315.997	376.334	-0.055	-0.111
-314.983	-167.229	0.183	-0.007
-313.968	371.559	0.056	-0.113
-312.953	171.088	-0.210	0.297
-311.939	69.967	0.060	0.061
-310.924	-56.634	0.079	0.034
-309.910	-200.000	-0.031	0.176
-308.895	763.022	0.126	-0.339
-307.880	152.886	-0.185	-0.249
-306.866	-70.975	-0.191	0.071
-305.851	-26.260	0.271	0.157
-304.837	-147.551	-0.183	-0.015
-303.822	109.365	0.170	0.201
-302.807	409.256	0.216	0.451
-301.793	331.214	0.070	0.133
-300.778	800.000	0.111	-0.368
-299.764	-200.000	-0.015	-0.081
-298.749	158.576	0.032	0.044
-297.735	-200.000	0.047	-0.343
-296.720	-69.576	-0.464	-0.175
-295.705	-43.554	0.112	0.056
-294.691	800.000	0.067	0.210
-293.676	-75.591	-0.116	0.041
-292.662	266.312	0.081	0.140
-291.647	170.932	-0.069	-0.098
-290.632	-45.546	-0.180	-0.088
-289.618	-200.000	-0.009	0.140
-288.603	-50.304	-0.086	-0.040
-287.589	308.461	-0.169	0.310
-286.574	86.523	0.151	-0.164
-285.559	800.000	-0.074	0.226
-284.545	-11.499	0.065	0.042
-283.530	138.463	-0.143	0.185
-282.516	318.807	0.150	-0.280
-281.501	8.207	0.241	0.179
-280.486	328.990	0.047	-0.089
-279.472	91.568	0.185	0.205
-278.457	32.770	0.120	0.103
-277.443	-181.419	-0.121	-0.002
-276.428	170.644	0.066	-0.093
-275.413	-200.000	0.019	0.325
-274.399	800.000	-0.136	0.387
-273.384	-97.938	0.090	-0.023
-272.370	-142.761	0.183	0.018
-271.355	-21.890	-0.232	-0.139
-270.340	67.669	-0.138	-0.139
-269.326	486.219	-0.153	-0.343
-268.311	22.418	0.154	0.124
-267.297	347.387	-0.080	0.155
-266.282	800.000	0.016	-0.052
-265.267	176.150	0.070	-0.101
-264.253	800.000	-0.094	0.314
-263.238	32.761	-0.354	0.301
-262.224	514.263	0.041	-0.093
-261.209	-19.690	-0.149	0.091
-260.195	-99.635	0.507	-0.125
-259.180	109.091	0.326	0.384
-258.165	144.583	-0.119	0.157
-257.151	-103.294	-0.333	-0.077
-256.136	73.966	0.285	-0.294
-255.122	-200.000	0.052	-0.224
-254.107	-87.599	0.218	0.065
-253.092	344.362	-0.224	0.433
-252.078	-156.823	-0.187	-0.011
-251.063	429.002	-0.152	0.323
-250.049	-200.000	0.022	-0.328
-249.034	685.589	-0.105	-0.271
-248.019	800.000	-0.032	0.089
-247.005	-97.307	0.148	-0.038
-245.990	800.000	0.160	-0.458
-244.976	-73.322	0.084	-0.030
-243.961	11.216	-0.080	0.060
-242.946	-200.000	-0.016	-0.082
-241.932	800.000	-0.094	0.274
-240.917	-200.000	0.004	0.042
-239.903	244.891	0.046	-0.076
-238.888	-200.000	-0.103	0.518
-237.873	800.000	-0.044	0.186
-236.859	-200.000	-0.005	0.162
-235.844	-200.000	0.074	0.362
-234.830	34.859	-0.133	-0.114
-233.815	93.754	-0.183	0.204
-232.800	-129.757	-0.102	-0.014
-231.786	-16.861	0.056	0.035
-230.771	800.000	-0.100	0.279
-229.757	22.590	-0.284	-0.228
-228.742	134.813	0.087	0.111
-227.727	-200.000	0.017	-0.328
-226.713	-50.652	-0.228	-0.106
-225.698	-28.877	-0.133	-0.075
-224.684	-67.014	0.374	0.145
-223.669	-200.000	-0.016	-0.083
-222.655	-200.000	-0.008	-0.342
-221.640	-165.949	-0.228	0.010
-220.625	800.000	-0.050	-0.175
-219.611	-64.057	-0.113	0.045
-218.596	0.340	-0.407	0.286
-217.582	59.047	0.174	0.168
-216.567	498.872	-0.010	0.023
-215.552	-90.849	-0.231	0.065
-214.538	-200.000	-0.030	-0.168
-213.523	-100.379	0.238	-0.058
-212.509	800.000	-0.023	-0.063
-211.494	46.616	-0.240	0.219
-210.479	-200.000	-0.016	-0.096
-209.465	37.117	0.042	-0.036
-208.450	-155.601	0.178	-0.011
-207.436	239.022	0.093	0.152
-206.421	87.981	0.322	0.351
-205.406	265.824	0.110	0.188
-204.392	237.099	0.143	-0.233
-203.377	-125.922	0.358	0.053
-202.363	-57.577	-0.299	0.129
-201.348	800.000	0.051	-0.147
-200.333	494.603	0.111	-0.250
-199.319	-50.478	0.079	0.037
-198.304	-136.027	-0.185	0.021
-197.290	307.350	0.091	0.168
-196.275	800.000	0.049	-0.146
-195.260	-118.752	-0.192	0.033
-194.246	-200.000	0.001	-0.191
-193.231	-200.000	-0.012	-0.305
-192.217	40.434	0.035	-0.031
-191.202	90.919	-0.102	0.112
-190.187	-15.369	0.108	0.068
-189.173	295.867	0.076	-0.137
-188.158	31.504	0.317	0.267
-187.144	503.163	0.090	0.204
-186.129	-45.140	0.260	-0.127
-185.114	554.190	-0.017	0.040
-184.100	-178.968	-0.088	0.002
-183.085	-137.782	-0.154	-0.017
-182.071	-200.000	0.086	0.452
-181.056	-49.503	0.150	-0.070
-180.042	-103.700	0.204	-0.047
-179.027	-130.665	0.153	-0.020
-178.012	800.000	-0.057	0.218
-176.998	-79.946	-0.207	-0.068
-175.983	254.067	0.054	0.090
-174.969	-50.080	0.007	-0.003
-173.954	235.533	0.198	0.321
-172.939	-49.638	0.216	-0.101
-171.925	80.126	0.202	-0.214
-170.910	-200.000	-0.007	-0.105
-169.896	21.434	-0.239	-0.191
-168.881	71.419	0.140	0.143
-167.866	76.984	0.217	-0.227
-166.852	636.291	0.055	0.136
-165.837	71.100	0.163	-0.166
-164.823	-109.942	0.287	-0.059
-163.808	149.525	-0.129	0.171
-162.793	-200.000	-0.035	0.277
-161.779	-108.396	-0.430	0.091
-160.764	-50.511	-0.210	-0.097
-159.750	-200.000	-0.037	-0.467
-158.735	-96.916	0.186	-0.048
-157.720	65.760	-0.150	0.149
-156.706	-17.178	-0.290	0.180
-155.691	308.688	-0.111	0.204
-154.677	800.000	-0.056	-0.155
-153.662	60.777	-0.108	0.105
-152.647	-55.174	-0.199	0.088
-151.633	24.455	-0.060	0.048
-150.618	390.985	0.099	-0.201
-149.604	70.583	-0.113	0.115
-148.589	-60.360	-0.161	0.067
-147.574	425.175	0.119	-0.251
-146.560	800.000	-0.094	-0.280
-145.545	80.810	0.217	-0.229
-144.531	-200.000	0.025	0.119
-143.516	96.793	0.145	0.163
-142.502	-200.000	-0.050	-0.230
-141.487	15.502	-0.082	0.064
-140.472	118.967	-0.071	0.086
-139.458	77.426	0.074	0.077
-138.443	48.967	0.194	0.179
-137.429	-200.000	-0.019	0.230
-136.414	-75.371	-0.208	0.073
-135.399	-200.000	0.003	-0.129
-134.385	153.561	-0.091	-0.122
-133.370	-200.000	0.017	-0.167
-132.356	101.227	-0.266	0.303
-131.341	-200.000	-0.098	0.448
-130.326	-156.330	-0.187	0.012
-129.312	-28.421	-0.104	0.059
-128.297	-23.079	0.181	0.107
-127.283	-31.519	-0.179	-0.099
-126.268	-149.269	-0.244	-0.019
-125.253	100.100	-0.043	-0.049
-124.239	216.148	-0.063	-0.098
-123.224	-10.676	0.150	-0.097
-122.210	-47.519	-0.345	0.164
-121.195	41.507	0.150	0.133
