DTS Sentinel unit serial number:	SN413079Multiplexer serial number:	ORYXHardware model number:	OX4-SRSoftware version number:	ORYX F/W v4.00 Oryx Data Collector v3.7.2.0data status	okinstallation	princeton_trtdifferential loss correction	single-endedforward channel	channel 3reverse channel	N/Adate	2019/09/16time	19:44:35forward acquisition time	60.00reverse acquisition time	0.00gamma	496.2192k internal	0.2318k external	0.2318temperature offset calibration	0.9941default loss term (dB/km)	0.3790temperature slope calibration	1.0000multiplexer offset coefficient	1.0000multiplexer slope coefficient	1.0000fibre end	0.00T internal ref (°C)	33.94T ext. ref 1 (°C)	0.09T ext. ref 2 (°C)	26.95length (m)	temperature (°C)	Stokes	anti-Stokes-747.200	3.483	0.172	-0.127
-746.185	68.313	-0.173	-0.180
-745.171	-6.727	-0.172	-0.118
-744.156	-150.246	-0.081	0.006
-743.142	-113.368	0.263	-0.052
-742.127	-101.000	-0.187	0.046
-741.112	-159.216	0.142	0.008
-740.098	800.000	0.110	0.320
-739.083	73.356	-0.229	-0.243
-738.069	142.071	-0.181	0.242
-737.054	459.441	-0.134	0.301
-736.039	-162.498	-0.139	0.007
-735.025	-29.138	0.220	0.128
-734.010	394.350	-0.108	-0.227
-732.996	34.557	-0.038	-0.034
-731.981	284.402	0.138	0.251
-730.966	-200.000	-0.005	0.474
-729.952	53.714	-0.140	0.136
-728.937	41.690	-0.051	0.047
-727.923	800.000	0.039	0.110
-726.908	-19.900	-0.414	-0.258
-725.894	-103.610	-0.210	-0.050
-724.879	-31.910	-0.040	0.023
-723.864	269.090	0.193	0.342
-722.850	5.142	0.056	-0.042
-721.835	-200.000	0.016	-0.172
-720.821	294.974	-0.118	0.218
-719.806	60.341	-0.068	-0.068
-718.791	-200.000	-0.031	0.212
-717.777	327.361	-0.062	-0.121
-716.762	115.281	-0.092	0.113
-715.748	-200.000	-0.014	-0.260
-714.733	800.000	0.038	0.154
-713.718	800.000	0.071	-0.309
-712.704	-200.000	0.000	0.061
-711.689	171.723	0.052	-0.075
-710.675	800.000	0.044	-0.158
-709.660	-94.939	-0.272	0.074
-708.645	800.000	0.035	-0.106
-707.631	223.702	-0.024	0.040
-706.616	-200.000	0.021	-0.188
-705.602	17.050	0.153	0.122
-704.587	-200.000	-0.032	0.273
-703.572	-200.000	0.006	0.259
-702.558	-200.000	0.053	0.280
-701.543	-63.029	0.199	0.083
-700.529	-200.000	0.011	-0.282
-699.514	-200.000	0.061	0.326
-698.499	-200.000	0.056	0.264
-697.485	-96.217	0.135	0.036
-696.470	-95.331	-0.034	0.009
-695.456	189.603	-0.123	-0.187
-694.441	-98.187	-0.559	0.145
-693.426	453.238	0.075	-0.169
-692.412	597.771	0.006	-0.014
-691.397	250.444	0.139	-0.238
-690.383	-200.000	-0.154	-0.000
-689.368	46.577	0.512	0.480
-688.354	-200.000	-0.011	-0.198
-687.339	164.218	-0.125	-0.178
-686.324	-67.301	-0.061	0.024
-685.310	-200.000	0.059	-0.276
-684.295	28.559	-0.113	-0.097
-683.281	146.915	0.032	0.043
-682.266	800.000	0.094	-0.318
-681.251	-94.885	0.207	0.057
-680.237	344.542	0.094	0.187
-679.222	9.622	0.223	0.171
-678.208	153.088	-0.044	0.061
-677.193	104.532	-0.064	0.076
-676.178	103.998	-0.319	0.379
-675.164	800.000	0.015	0.058
-674.149	800.000	-0.063	-0.185
-673.135	-132.589	-0.171	0.022
-672.120	-189.066	-0.251	-0.003
-671.105	-200.000	0.003	0.363
-670.091	-200.000	0.006	-0.104
-669.076	337.952	-0.121	0.237
-668.062	-50.206	-0.133	0.063
-667.047	-101.617	0.554	-0.136
-666.032	340.686	-0.055	0.108
-665.018	-77.239	-0.043	-0.015
-664.003	255.184	-0.170	-0.294
-662.989	-200.000	0.001	-0.236
-661.974	-46.104	-0.211	-0.105
-660.959	113.248	0.051	0.062
-659.945	149.245	0.140	0.191
-658.930	-4.774	-0.249	-0.174
-657.916	228.793	-0.335	0.552
-656.901	78.065	-0.329	-0.354
-655.886	-11.101	-0.182	0.121
-654.872	-24.004	-0.040	-0.024
-653.857	-179.938	0.382	-0.008
-652.843	-24.288	-0.185	0.111
-651.828	242.614	-0.081	-0.136
-650.814	-97.420	0.177	0.046
-649.799	40.005	-0.131	-0.119
-648.784	152.850	-0.135	0.186
-647.770	29.705	0.174	0.150
-646.755	-44.232	-0.169	0.086
-645.741	-145.688	-0.172	0.016
-644.726	-113.463	-0.371	0.073
-643.711	800.000	-0.015	0.064
-642.697	6.062	-0.050	0.038
-641.682	75.116	0.189	-0.201
-640.668	107.509	0.118	-0.142
-639.653	226.862	0.112	-0.184
-638.638	-200.000	0.002	-0.157
-637.624	800.000	-0.030	0.125
-636.609	-44.888	-0.142	-0.071
-635.595	-200.000	0.058	-0.401
-634.580	-40.212	-0.269	-0.141
-633.565	800.000	0.063	0.208
-632.551	618.038	0.067	0.170
-631.536	-160.558	-0.181	-0.010
-630.522	-56.009	0.246	-0.111
-629.507	22.614	0.372	-0.306
-628.492	-26.295	0.213	-0.126
-627.478	800.000	-0.058	-0.192
-626.463	-82.677	-0.052	-0.017
-625.449	121.446	0.256	-0.321
-624.434	800.000	0.064	-0.263
-623.419	8.130	-0.266	0.201
-622.405	477.194	0.110	0.251
-621.390	-200.000	0.013	0.143
-620.376	15.780	-0.223	0.177
-619.361	-69.813	-0.203	0.078
-618.346	-100.903	-0.096	0.024
-617.332	333.178	-0.112	-0.219
-616.317	32.425	0.102	0.089
-615.303	-9.507	-0.123	0.083
-614.288	413.923	-0.049	-0.106
-613.273	-110.536	0.121	0.025
-612.259	800.000	-0.119	-0.379
-611.244	-200.000	-0.034	-0.247
-610.230	622.205	0.027	0.069
-609.215	-45.054	-0.260	-0.130
-608.201	-39.691	0.191	0.101
-607.186	-200.000	0.065	-0.299
-606.171	-22.991	0.215	-0.131
-605.157	-56.812	0.184	-0.082
-604.142	19.584	0.166	-0.135
-603.128	-70.375	-0.294	-0.112
-602.113	-93.985	0.093	0.026
-601.098	-152.290	-0.220	0.016
-600.084	-57.158	-0.285	-0.126
-599.069	169.192	-0.086	-0.124
-598.055	-108.501	0.273	0.059
-597.040	-91.233	-0.177	-0.051
-596.025	311.620	-0.101	-0.191
-595.011	-157.312	0.265	-0.016
-593.996	-200.000	-0.014	-0.095
-592.982	465.541	0.149	-0.335
-591.967	125.927	-0.090	0.115
-590.952	36.292	0.132	0.117
-589.938	-64.556	-0.172	-0.070
-588.923	800.000	-0.037	0.116
-587.909	430.117	-0.085	-0.186
-586.894	145.525	-0.136	-0.184
-585.879	-200.000	0.008	0.039
-584.865	-32.711	0.262	-0.146
-583.850	-71.904	0.176	-0.066
-582.836	503.649	0.082	-0.190
-581.821	-90.752	-0.168	-0.049
-580.806	-200.000	0.004	-0.104
-579.792	-161.999	-0.232	-0.012
-578.777	-119.251	-0.378	0.066
-577.763	800.000	-0.055	-0.163
-576.748	315.800	-0.093	0.176
-575.733	99.380	0.035	0.041
-574.719	-200.000	-0.030	0.211
-573.704	800.000	-0.014	0.061
-572.690	-14.031	-0.247	-0.160
-571.675	-92.585	0.236	-0.067
-570.661	-170.814	0.274	0.009
-569.646	-93.237	-0.045	0.013
-568.631	76.916	-0.097	-0.104
-567.617	-200.000	0.049	0.219
-566.602	108.373	-0.169	0.203
-565.588	-96.486	0.166	-0.044
-564.573	-200.000	-0.026	-0.118
-563.558	220.592	-0.110	0.178
-562.544	-65.856	-0.315	0.127
-561.529	-52.763	0.160	-0.074
-560.515	-111.764	0.184	-0.037
-559.500	174.625	-0.026	-0.038
-558.485	298.027	-0.080	-0.147
-557.471	800.000	0.051	-0.151
-556.456	20.963	-0.114	0.093
-555.442	42.165	0.126	-0.115
-554.427	-38.803	-0.233	-0.123
-553.412	-45.554	-0.122	0.061
-552.398	25.570	0.152	-0.127
-551.383	400.887	-0.119	-0.250
-550.369	-9.148	0.331	0.222
-549.354	-185.567	-0.274	-0.004
-548.339	73.195	-0.057	0.060
-547.325	-200.000	0.012	-0.120
-546.310	-155.351	-0.090	0.006
-545.296	-109.093	-0.282	-0.060
-544.281	425.756	-0.052	-0.114
-543.266	98.926	0.228	-0.264
-542.252	216.662	-0.045	-0.072
-541.237	-43.454	0.265	-0.134
-540.223	478.659	0.045	0.101
-539.208	-118.927	-0.191	-0.034
-538.193	290.356	-0.047	-0.085
-537.179	-90.262	-0.208	0.061
-536.164	-200.000	-0.050	0.496
-535.150	-162.582	0.133	-0.007
-534.135	88.391	0.166	-0.185
-533.121	53.872	-0.049	-0.047
-532.106	-200.000	0.006	0.025
-531.091	800.000	-0.017	-0.059
-530.077	728.014	0.064	-0.172
-529.062	-92.630	-0.094	-0.026
-528.048	-200.000	-0.036	-0.269
-527.033	377.772	0.121	0.249
-526.018	800.000	-0.063	0.243
-525.004	9.686	-0.145	0.110
-523.989	14.816	0.195	0.153
-522.975	-63.654	0.041	0.017
-521.960	-200.000	-0.019	0.296
-520.945	107.902	-0.098	0.117
-519.931	4.045	0.101	-0.074
-518.916	-58.711	0.340	0.148
-517.902	-200.000	0.004	-0.156
-516.887	-45.445	0.249	-0.124
-515.872	-62.357	0.162	0.068
-514.858	39.484	-0.121	-0.109
-513.843	-200.000	-0.051	-0.244
-512.829	1.654	-0.164	-0.119
-511.814	70.724	-0.051	-0.053
-510.799	-200.000	-0.041	-0.197
-509.785	-200.000	0.021	0.222
-508.770	800.000	0.053	0.223
-507.756	218.261	-0.086	-0.138
-506.741	-143.722	0.319	-0.030
-505.726	-109.970	-0.198	-0.042
-504.712	-21.774	0.262	-0.160
-503.697	254.490	0.103	-0.177
-502.683	770.749	0.037	0.102
-501.668	-200.000	0.087	0.420
-500.653	123.217	0.079	0.099
-499.639	-167.723	-0.260	0.010
-498.624	-102.071	-0.323	-0.078
-497.610	-200.000	0.001	0.247
-496.595	-131.131	-0.405	0.054
-495.581	350.909	0.052	0.103
-494.566	-80.156	-0.218	0.073
-493.551	319.512	0.072	0.137
-492.537	-200.000	-0.036	0.185
-491.522	-200.000	-0.035	0.230
-490.508	-82.532	0.132	-0.043
-489.493	27.001	0.176	-0.148
-488.478	-181.590	0.299	-0.006
-487.464	-86.374	-0.211	0.065
-486.449	8.626	-0.048	0.037
-485.435	-200.000	0.122	0.000
-484.420	-141.032	0.191	-0.020
-483.405	-4.237	-0.350	-0.243
-482.391	800.000	-0.057	0.239
-481.376	-200.000	0.027	-0.181
-480.362	-71.494	-0.446	-0.167
-479.347	79.148	-0.217	-0.233
-478.332	132.736	-0.162	0.210
-477.318	-99.309	-0.402	0.102
-476.303	328.034	-0.090	0.173
-475.289	741.951	0.071	0.190
-474.274	468.390	-0.090	-0.203
-473.259	670.876	-0.085	0.222
-472.245	800.000	0.020	-0.065
-471.230	-200.000	0.026	-0.222
-470.216	800.000	-0.029	-0.081
-469.201	21.459	-0.218	0.178
-468.186	237.232	-0.143	0.237
-467.172	264.036	-0.069	0.119
-466.157	-195.750	0.374	-0.003
-465.143	466.617	0.120	-0.268
-464.128	224.297	0.172	0.278
-463.113	-6.278	-0.042	0.029
-462.099	1.301	0.156	0.112
-461.084	-38.255	-0.190	0.101
-460.070	800.000	0.056	-0.212
-459.055	134.618	-0.292	-0.380
-458.040	181.314	-0.148	-0.218
-457.026	58.009	0.106	0.104
-456.011	358.935	-0.128	0.256
-454.997	325.802	-0.040	0.077
-453.982	32.392	-0.104	0.090
-452.968	191.405	-0.067	0.102
-451.953	-14.427	-0.366	0.236
-450.938	364.192	-0.102	-0.205
-449.924	97.916	0.145	-0.167
-448.909	-200.000	-0.027	-0.146
-447.895	286.450	-0.038	0.069
-446.880	-200.000	0.003	0.083
-445.865	800.000	0.028	0.090
-444.851	70.171	-0.077	-0.079
-443.836	-115.646	0.194	0.036
-442.822	329.498	0.127	0.244
-441.807	236.769	0.108	0.179
-440.792	-27.067	-0.148	0.086
-439.778	-83.226	0.377	0.121
-438.763	159.706	0.189	0.263
-437.749	102.830	-0.300	-0.351
-436.734	-200.000	-0.026	-0.145
-435.719	-69.809	0.452	-0.173
-434.705	-9.121	-0.138	-0.092
-433.690	-138.483	-0.172	-0.019
-432.676	-37.969	-0.385	0.204
-431.661	77.063	-0.050	0.053
-430.646	-16.519	0.222	-0.141
-429.632	384.868	-0.052	-0.108
-428.617	701.917	0.150	0.395
-427.603	-200.000	0.013	0.105
-426.588	-92.987	-0.308	-0.086
-425.573	-13.089	0.265	0.172
-424.559	394.784	0.083	-0.174
-423.544	526.601	0.062	0.145
-422.530	-34.289	0.324	-0.178
-421.515	-200.000	0.006	-0.066
-420.500	800.000	-0.034	0.142
-419.486	207.375	-0.205	-0.320
-418.471	769.067	0.054	-0.147
-417.457	20.368	0.110	-0.089
-416.442	-196.623	-0.257	0.002
-415.428	98.531	-0.266	0.307
-414.413	-45.657	0.051	-0.025
-413.398	-15.411	0.220	0.140
-412.384	-173.575	-0.102	0.003
-411.369	-71.873	0.160	-0.060
-410.355	2.338	-0.224	0.162
-409.340	-46.050	0.370	-0.182
-408.325	-96.819	-0.231	-0.061
-407.311	218.670	-0.139	-0.222
-406.296	267.298	0.102	0.179
-405.282	146.396	-0.065	0.087
-404.267	-66.443	-0.182	-0.072
-403.252	-69.346	0.102	-0.039
-402.238	800.000	-0.076	0.277
-401.223	19.899	0.334	0.269
-400.209	354.492	-0.002	-0.003
-399.194	731.215	0.117	-0.313
-398.179	297.848	0.040	0.074
-397.165	-13.457	-0.152	-0.099
-396.150	157.580	0.205	0.283
-395.136	89.830	0.259	0.289
-394.121	15.135	0.152	-0.119
-393.106	442.136	-0.078	0.171
-392.092	229.528	-0.120	-0.195
-391.077	8.856	0.126	-0.095
-390.063	-82.571	0.120	-0.039
-389.048	-36.427	0.151	0.081
-388.033	-109.720	0.182	-0.038
-387.019	-200.000	-0.026	-0.257
-386.004	-200.000	-0.300	-0.001
-384.990	623.150	-0.028	-0.069
-383.975	16.650	-0.206	-0.163
-382.960	144.264	-0.098	0.131
-381.946	-31.922	0.210	0.117
-380.931	-93.941	-0.172	-0.047
-379.917	-46.473	0.405	0.198
-378.902	71.470	-0.091	0.094
-377.888	143.931	0.088	0.118
-376.873	127.074	0.085	0.108
-375.858	688.437	-0.038	-0.100
-374.844	-53.890	0.338	-0.154
-373.829	-83.259	0.263	-0.084
-372.815	52.365	0.152	0.145
-371.800	-200.000	-0.082	-0.402
-370.785	735.254	-0.037	0.099
-369.771	-200.000	-0.023	-0.107
-368.756	303.240	-0.111	-0.205
-367.742	28.718	-0.141	0.119
-366.727	-74.602	-0.169	-0.061
-365.712	15.803	-0.229	-0.180
-364.698	-57.783	-0.476	-0.208
-363.683	36.594	0.222	-0.195
-362.669	-137.418	0.125	0.014
-361.654	-200.000	-0.011	0.174
-360.639	-26.221	0.115	0.067
-359.625	-104.210	0.166	-0.038
-358.610	-94.765	-0.169	-0.046
-357.596	-200.000	-0.007	-0.045
-356.581	-200.000	0.095	-0.634
-355.566	118.176	-0.118	0.145
-354.552	270.359	-0.142	0.249
-353.537	-103.262	0.103	0.024
-352.523	389.522	0.087	0.180
-351.508	59.399	-0.140	0.137
-350.493	-124.394	0.115	0.018
-349.479	207.681	-0.050	-0.078
-348.464	194.104	-0.102	-0.154
-347.450	-200.000	-0.027	-0.405
-346.435	800.000	0.123	-0.397
-345.420	45.578	0.211	0.195
-344.406	-81.894	-0.030	-0.010
-343.391	799.706	-0.042	-0.117
-342.377	602.568	-0.156	0.387
-341.362	5.719	0.214	-0.158
-340.348	-143.372	-0.165	0.016
-339.333	244.718	0.088	0.148
-338.318	24.148	-0.156	0.128
-337.304	334.343	-0.111	-0.214
-336.289	-55.948	0.161	0.072
-335.275	312.658	0.053	0.099
-334.260	-164.597	-0.085	0.004
-333.245	-200.000	0.062	0.310
-332.231	800.000	-0.101	-0.318
-331.216	6.046	0.131	-0.097
-330.202	-200.000	-0.001	-0.041
-329.187	-129.142	-0.252	-0.035
-328.172	-1.055	0.267	-0.188
-327.158	168.840	0.128	-0.182
-326.143	800.000	-0.061	0.209
-325.129	-64.976	0.197	0.079
-324.114	248.380	0.188	-0.317
-323.099	-74.193	-0.166	0.060
-322.085	-90.196	-0.078	0.023
-321.070	-200.000	0.019	0.379
-320.056	609.440	-0.083	0.206
-319.041	473.244	0.036	0.081
-318.026	800.000	-0.061	-0.184
-317.012	-200.000	-0.024	0.371
-315.997	-104.605	0.366	0.084
-314.983	782.955	-0.020	0.055
-313.968	-178.511	-0.347	0.008
-312.953	177.098	-0.035	-0.050
-311.939	-177.678	-0.282	0.007
-310.924	511.381	-0.067	0.154
-309.910	116.101	-0.112	-0.137
-308.895	-80.288	-0.219	0.073
-307.880	-139.969	-0.329	0.035
-306.866	-83.350	-0.119	-0.038
-305.851	-79.453	-0.121	-0.041
-304.837	-131.930	-0.269	0.035
-303.822	-78.185	-0.281	-0.096
-302.807	228.413	-0.065	0.105
-301.793	8.903	0.207	0.156
-300.778	800.000	-0.014	0.048
-299.764	502.187	-0.112	0.258
-298.749	515.797	-0.104	-0.241
-297.735	-36.457	-0.050	0.027
-296.720	-200.000	0.045	-0.738
-295.705	188.870	0.133	0.198
-294.691	-133.776	0.478	-0.059
-293.676	42.559	-0.122	0.110
-292.662	-28.104	0.193	0.111
-291.647	134.924	0.262	-0.338
-290.632	-121.133	0.554	0.092
-289.618	-116.188	0.117	-0.022
-288.603	-200.000	0.047	0.371
-287.589	140.820	0.221	0.290
-286.574	469.803	0.055	-0.123
-285.559	-200.000	0.035	0.311
-284.545	141.729	-0.165	0.217
-283.530	145.184	-0.128	-0.171
-282.516	-95.301	0.173	0.046
-281.501	-45.820	-0.186	-0.091
-280.486	-124.957	-0.291	-0.044
-279.472	28.688	-0.123	-0.104
-278.457	-200.000	0.012	0.314
-277.443	800.000	-0.053	-0.218
-276.428	-84.763	0.214	-0.067
-275.413	-8.746	0.088	-0.059
-274.399	800.000	0.047	0.202
-273.384	18.650	0.043	-0.034
-272.370	-200.000	0.013	-0.220
-271.355	-60.048	-0.159	0.067
-270.340	115.592	0.092	-0.111
-269.326	-101.981	-0.369	-0.088
-268.311	-83.180	0.314	0.100
-267.297	29.985	0.154	0.130
-266.282	-35.855	0.384	0.206
-265.267	16.269	0.137	-0.108
-264.253	-25.278	-0.067	0.039
-263.238	-140.719	-0.242	-0.025
-262.224	72.268	-0.124	-0.129
-261.209	-32.186	0.045	0.025
-260.195	-200.000	-0.058	-0.264
-259.180	67.135	-0.132	0.133
-258.165	-200.000	-0.003	0.285
-257.151	800.000	-0.094	0.369
-256.136	-111.862	0.142	0.028
-255.122	-200.000	-0.012	-0.092
-254.107	-25.492	-0.139	0.081
-253.092	-59.572	0.171	0.073
-252.078	800.000	0.110	-0.313
-251.063	-143.944	0.165	-0.015
-250.049	213.441	0.180	0.282
-249.034	458.838	-0.100	-0.221
-248.019	303.546	-0.042	-0.077
-247.005	14.629	-0.251	-0.195
-245.990	-5.747	-0.036	-0.024
-244.976	-164.069	-0.187	0.009
-243.961	162.380	-0.310	0.432
-242.946	132.315	0.170	0.218
-241.932	-200.000	-0.004	0.307
-240.917	36.860	0.133	-0.117
-239.903	-200.000	0.022	0.251
-238.888	800.000	-0.085	0.284
-237.873	-47.265	-0.099	0.048
-236.859	-200.000	0.018	-0.158
-235.844	74.332	-0.182	0.190
-234.830	412.312	-0.051	0.108
-233.815	278.578	0.084	0.149
-232.800	107.170	0.131	0.155
-231.786	-200.000	-0.026	-0.150
-230.771	-200.000	0.010	0.072
-229.757	-123.702	0.249	-0.039
-228.742	-113.336	0.188	-0.037
-227.727	-28.719	0.165	0.094
-226.713	800.000	0.058	0.240
-225.698	66.650	-0.038	0.038
-224.684	-200.000	0.052	-0.372
-223.669	-56.201	0.203	0.090
-222.655	-71.828	0.259	0.096
-221.640	63.103	-0.039	0.039
-220.625	-152.123	-0.206	0.015
-219.611	-135.033	0.285	0.034
-218.596	673.005	0.148	0.380
-217.582	-200.000	0.041	0.205
-216.567	21.914	0.046	-0.037
-215.552	800.000	0.007	-0.028
-214.538	-193.332	-0.259	-0.002
-213.523	153.102	0.090	-0.121
-212.509	-200.000	-0.046	-0.289
-211.494	800.000	-0.063	0.247
-210.479	520.013	0.040	0.092
-209.465	37.458	0.138	-0.121
-208.450	631.153	0.014	0.035
-207.436	-5.523	0.147	-0.100
-206.421	223.843	0.101	0.161
-205.406	-200.000	0.036	-0.303
-204.392	346.077	0.085	-0.165
-203.377	800.000	-0.027	0.102
-202.363	216.643	-0.237	0.373
-201.348	190.211	0.056	0.083
-200.333	544.200	-0.076	0.179
-199.319	800.000	-0.007	-0.025
-198.304	-79.548	-0.063	-0.021
-197.290	-21.698	0.201	-0.121
-196.275	-162.987	-0.185	0.009
-195.260	314.748	0.083	0.155
-194.246	800.000	0.098	0.359
-193.231	800.000	0.055	-0.180
-192.217	336.316	-0.088	-0.168
-191.202	-200.000	-0.010	0.135
-190.187	253.697	-0.191	0.322
-189.173	-120.893	-0.315	0.053
-188.158	-107.525	0.097	-0.021
-187.144	80.173	0.147	-0.156
-186.129	-123.411	0.369	-0.058
-185.114	-46.183	0.147	-0.072
-184.100	358.905	-0.046	-0.091
-183.085	-200.000	-0.013	-0.091
-182.071	-96.582	-0.279	-0.073
-181.056	-139.500	-0.151	-0.016
-180.042	-68.016	0.137	-0.053
-179.027	-27.146	-0.243	0.140
-178.012	18.462	0.350	0.277
-176.998	-200.000	-0.009	0.288
-175.983	-112.701	0.184	-0.036
-174.969	-200.000	-0.005	0.167
-173.954	-63.929	0.101	-0.041
-172.939	-86.093	-0.324	0.099
-171.925	800.000	-0.049	0.159
-170.910	114.515	0.009	0.010
-169.896	19.349	-0.106	-0.084
-168.881	54.208	0.373	-0.355
-167.866	-84.035	0.141	-0.044
-166.852	-46.422	-0.213	0.103
-165.837	2.224	0.241	0.173
-164.823	-200.000	-0.001	0.094
-163.808	-200.000	0.056	-0.352
-162.793	156.473	0.075	-0.102
-161.779	-71.075	0.210	0.078
-160.764	-200.000	-0.022	-0.107
-159.750	27.280	-0.104	-0.087
-158.735	283.679	0.066	-0.117
-157.720	-48.831	0.081	-0.039
-156.706	647.299	0.116	-0.294
-155.691	8.993	0.290	0.216
-154.677	-129.180	0.260	-0.036
-153.662	217.910	0.029	-0.046
-152.647	556.257	0.117	-0.278
-151.633	-79.624	-0.093	-0.031
-150.618	800.000	-0.045	0.171
-149.604	172.773	0.205	0.293
-148.589	-73.902	-0.148	-0.053
-147.574	-170.492	0.294	-0.010
-146.560	-200.000	-0.007	-0.089
-145.545	-126.124	0.310	-0.046
-144.531	278.795	0.053	-0.093
-143.516	-200.000	-0.027	0.429
-142.502	-81.195	0.202	-0.066
-141.487	-200.000	0.018	-0.321
-140.472	72.859	-0.171	0.177
-139.458	59.565	0.161	0.157
-138.443	414.649	-0.072	0.151
-137.429	123.835	0.097	-0.120
-136.414	-12.009	-0.206	0.133
-135.399	-200.000	0.033	-0.466
-134.385	800.000	0.060	-0.223
-133.370	308.801	-0.242	-0.446
-132.356	141.240	0.073	0.096
-131.341	-200.000	-0.047	-0.238
-130.326	310.970	-0.073	-0.136
-129.312	562.352	0.265	-0.634
-128.297	219.274	0.148	-0.234
-127.283	-3.870	-0.155	-0.107
-126.268	-200.000	0.004	-0.105
-125.253	191.445	-0.047	0.070
-124.239	-106.687	-0.073	0.016
-123.224	-200.000	0.014	0.134
-122.210	142.456	-0.182	0.238
-121.195	-200.000	-0.009	0.101
