DTS Sentinel unit serial number:	SN413079Multiplexer serial number:	ORYXHardware model number:	OX4-SRSoftware version number:	ORYX F/W v4.00 Oryx Data Collector v3.7.2.0data status	okinstallation	princeton_trtdifferential loss correction	single-endedforward channel	channel 3reverse channel	N/Adate	2019/09/12time	22:52:35forward acquisition time	60.00reverse acquisition time	0.00gamma	496.2192k internal	0.2327k external	0.2327temperature offset calibration	1.0130default loss term (dB/km)	0.3790temperature slope calibration	1.0000multiplexer offset coefficient	1.0000multiplexer slope coefficient	1.0000fibre end	0.00T internal ref (°C)	29.42T ext. ref 1 (°C)	3.73T ext. ref 2 (°C)	23.96length (m)	temperature (°C)	Stokes	anti-Stokes-747.200	224.843	0.231	0.377
-746.185	214.850	0.061	0.097
-745.171	-164.853	-0.278	0.013
-744.156	-93.571	0.151	-0.042
-743.142	572.364	0.031	0.075
-742.127	800.000	-0.086	0.306
-741.112	-44.883	-0.115	-0.058
-740.098	-183.870	-0.181	0.003
-739.083	-200.000	0.004	0.229
-738.069	179.436	-0.209	-0.308
-737.054	137.638	0.157	0.207
-736.039	-119.537	-0.118	-0.021
-735.025	-200.000	0.032	0.370
-734.010	-200.000	-0.024	-0.187
-732.996	-142.912	-0.339	-0.033
-731.981	-51.688	0.259	-0.122
-730.966	735.653	-0.107	0.289
-729.952	-109.833	-0.274	0.058
-728.937	150.367	-0.055	-0.075
-727.923	-93.804	0.110	0.031
-726.908	-101.094	-0.241	-0.059
-725.894	-200.000	-0.036	0.273
-724.879	-200.000	-0.006	0.120
-723.864	-200.000	0.069	-0.484
-722.850	654.130	-0.047	-0.121
-721.835	-39.005	-0.076	-0.041
-720.821	800.000	-0.023	0.078
-719.806	272.388	0.163	0.290
-718.791	-200.000	-0.357	-0.000
-717.777	16.894	-0.272	0.217
-716.762	-200.000	-0.026	-0.205
-715.748	-200.000	-0.010	0.153
-714.733	-99.512	-0.449	-0.114
-713.718	332.654	0.093	-0.182
-712.704	-102.831	-0.115	0.028
-711.689	-156.562	-0.410	0.026
-710.675	-200.000	-0.021	0.304
-709.660	-139.996	0.285	-0.030
-708.645	-14.042	0.210	-0.137
-707.631	381.878	-0.044	-0.092
-706.616	-200.000	0.017	0.120
-705.602	-28.161	0.014	-0.008
-704.587	-139.298	0.370	-0.040
-703.572	-200.000	0.010	0.231
-702.558	-200.000	-0.023	0.115
-701.543	-31.982	0.046	-0.026
-700.529	-141.984	0.040	-0.004
-699.514	-200.000	0.015	-0.268
-698.499	197.561	-0.118	0.182
-697.485	-200.000	0.036	-0.163
-696.470	-200.000	-0.022	0.187
-695.456	71.252	-0.028	0.029
-694.441	-24.597	-0.081	-0.048
-693.426	-200.000	0.028	-0.208
-692.412	19.508	-0.153	-0.124
-691.397	210.954	0.038	-0.060
-690.383	150.857	0.118	0.161
-689.368	14.575	0.162	-0.127
-688.354	-200.000	-0.002	-0.087
-687.339	566.788	-0.019	0.046
-686.324	-200.000	0.012	-0.243
-685.310	-200.000	-0.014	0.162
-684.295	167.216	0.115	-0.165
-683.281	484.604	0.031	0.070
-682.266	263.627	-0.060	-0.105
-681.251	-43.019	0.177	0.090
-680.237	18.688	-0.036	0.029
-679.222	63.862	-0.377	-0.381
-678.208	130.348	0.150	-0.194
-677.193	-40.847	-0.139	-0.072
-676.178	-69.133	-0.115	-0.045
-675.164	85.535	-0.075	-0.083
-674.149	745.017	0.041	0.110
-673.135	-200.000	-0.011	-0.090
-672.120	-166.030	-0.253	-0.011
-671.105	-90.533	-0.376	0.109
-670.091	73.280	-0.310	-0.326
-669.076	-200.000	-0.006	0.242
-668.062	-29.172	-0.186	0.107
-667.047	800.000	0.049	-0.152
-666.032	27.327	-0.113	0.095
-665.018	-69.993	-0.314	0.120
-664.003	-7.045	0.147	0.100
-662.989	-155.012	0.205	-0.014
-661.974	800.000	-0.134	-0.408
-660.959	-24.770	0.131	0.078
-659.945	18.394	-0.157	-0.126
-658.930	98.579	-0.091	-0.106
-657.916	73.927	0.104	0.109
-656.901	605.920	0.022	0.055
-655.886	-124.936	-0.137	0.021
-654.872	-84.350	-0.328	0.104
-653.857	121.937	-0.246	0.308
-652.843	-40.198	0.268	0.140
-651.828	25.368	0.149	-0.124
-650.814	270.934	0.094	-0.167
-649.799	-200.000	0.013	-0.093
-648.784	800.000	-0.106	-0.436
-647.770	-200.000	-0.006	-0.255
-646.755	39.480	0.135	-0.121
-645.741	-32.063	-0.234	0.131
-644.726	-200.000	0.009	0.103
-643.711	-200.000	-0.031	-0.306
-642.697	-9.738	-0.114	-0.076
-641.682	-28.747	-0.269	-0.155
-640.668	-42.709	0.194	0.099
-639.653	-200.000	-0.000	-0.132
-638.638	37.691	0.309	-0.275
-637.624	226.191	0.052	0.085
-636.609	-19.379	-0.282	-0.175
-635.595	-200.000	0.018	-0.170
-634.580	-200.000	0.018	0.285
-633.565	13.042	0.429	-0.333
-632.551	163.198	-0.371	-0.524
-631.536	-200.000	0.018	-0.245
-630.522	262.131	-0.084	0.146
-629.507	-22.427	-0.169	0.103
-628.492	368.298	0.129	0.261
-627.478	0.326	-0.213	0.152
-626.463	-51.506	0.224	-0.105
-625.449	14.434	0.012	-0.009
-624.434	-22.381	-0.247	0.150
-623.419	-98.876	0.224	0.057
-622.405	193.114	-0.036	-0.055
-621.390	-73.047	0.233	-0.086
-620.376	-101.746	0.259	0.063
-619.361	-84.991	-0.437	0.138
-618.346	-200.000	-0.151	0.000
-617.332	-112.857	-0.303	-0.060
-616.317	800.000	-0.065	0.277
-615.303	8.897	-0.100	0.076
-614.288	-111.516	-0.266	-0.054
-613.273	-161.128	-0.544	-0.029
-612.259	37.455	-0.156	0.139
-611.244	-69.392	-0.110	-0.042
-610.230	-94.574	-0.127	0.035
-609.215	-48.427	0.064	-0.031
-608.201	49.105	0.232	0.219
-607.186	800.000	0.085	-0.290
-606.171	800.000	-0.019	-0.066
-605.157	-200.000	-0.087	0.445
-604.142	-156.341	-0.083	-0.005
-603.128	-80.734	-0.178	0.059
-602.113	-200.000	-0.009	0.169
-601.098	-200.000	-0.002	-0.124
-600.084	674.681	0.100	-0.259
-599.069	800.000	-0.035	0.111
-598.055	127.804	0.200	0.255
-597.040	-92.538	-0.284	0.080
-596.025	-200.000	-0.216	-0.000
-595.011	-50.268	-0.396	-0.188
-593.996	141.867	-0.080	-0.107
-592.982	3.051	0.119	-0.087
-591.967	800.000	-0.061	0.204
-590.952	-129.451	-0.406	0.056
-589.938	-66.412	-0.167	0.066
-588.923	-57.169	-0.109	0.048
-587.909	-74.069	-0.356	0.129
-586.894	-79.873	-0.275	0.093
-585.879	-200.000	0.032	-0.150
-584.865	88.079	-0.096	0.107
-583.850	129.860	0.172	-0.221
-582.836	-114.010	-0.279	-0.054
-581.821	105.944	-0.104	0.123
-580.806	191.582	0.162	0.244
-579.792	-200.000	-0.030	0.208
-578.777	173.144	0.187	-0.269
-577.763	-200.000	-0.284	0.001
-576.748	494.104	-0.075	-0.172
-575.733	85.060	0.125	-0.137
-574.719	-48.839	0.190	0.091
-573.704	124.668	0.159	-0.200
-572.690	33.041	0.332	-0.288
-571.675	170.187	-0.149	0.214
-570.661	-123.698	0.324	0.051
-569.646	-109.070	-0.275	0.059
-568.631	219.676	-0.037	-0.060
-567.617	-54.933	-0.192	0.087
-566.602	-96.015	0.256	0.068
-565.588	-200.000	-0.067	-0.409
-564.573	-200.000	0.026	-0.139
-563.558	36.425	0.081	0.071
-562.544	-25.248	0.109	0.065
-561.529	69.157	-0.182	-0.188
-560.515	-119.252	0.095	-0.017
-559.500	-101.336	0.092	0.023
-558.485	800.000	-0.029	0.104
-557.471	22.133	-0.152	-0.124
-556.456	116.865	-0.113	-0.138
-555.442	26.113	0.159	-0.132
-554.427	800.000	0.048	-0.177
-553.412	-90.042	-0.281	0.082
-552.398	-32.113	0.287	0.161
-551.383	-200.000	-0.001	-0.125
-550.369	-200.000	-0.036	-0.238
-549.354	-99.319	0.225	-0.057
-548.339	708.548	-0.094	-0.248
-547.325	480.824	0.086	-0.195
-546.310	800.000	-0.060	-0.219
-545.296	-71.974	-0.302	-0.112
-544.281	32.491	0.050	0.043
-543.266	-85.701	-0.190	-0.059
-542.252	-56.256	0.151	0.067
-541.237	274.168	-0.035	0.062
-540.223	219.149	-0.129	-0.207
-539.208	-150.111	0.327	-0.025
-538.193	-91.251	-0.101	0.029
-537.179	-91.308	0.014	0.004
-536.164	556.974	0.076	-0.183
-535.150	-21.616	-0.172	-0.105
-534.135	-200.000	0.038	0.243
-533.121	-83.419	0.244	-0.078
-532.106	346.003	0.092	0.181
-531.091	800.000	0.053	-0.163
-530.077	37.302	0.417	-0.369
-529.062	-52.716	0.244	-0.113
-528.048	19.482	0.129	0.103
-527.033	-140.244	0.382	0.040
-526.018	800.000	-0.102	-0.379
-525.004	-200.000	-0.041	0.220
-523.989	-13.845	-0.351	0.227
-522.975	-177.265	0.148	0.004
-521.960	-132.328	-0.107	-0.014
-520.945	198.647	0.176	0.269
-519.931	-106.578	-0.151	0.034
-518.916	-200.000	0.058	0.363
-517.902	-33.573	0.234	-0.129
-516.887	-2.164	-0.156	-0.109
-515.872	800.000	-0.156	-0.537
-514.858	-37.828	0.333	0.177
-513.843	29.090	-0.207	-0.175
-512.829	8.223	0.046	0.035
-511.814	220.624	-0.207	-0.331
-510.799	354.494	0.093	0.184
-509.785	27.261	0.087	0.073
-508.770	-123.829	0.276	0.044
-507.756	-69.970	0.130	-0.050
-506.741	-200.000	0.025	-0.120
-505.726	111.828	-0.153	0.185
-504.712	507.276	0.103	0.239
-503.697	636.336	0.149	-0.378
-502.683	-33.280	-0.154	0.085
-501.668	469.069	0.136	0.306
-500.653	-200.000	0.052	-0.241
-499.639	92.296	0.078	-0.088
-498.624	-80.011	0.063	-0.021
-497.610	61.703	0.131	0.130
-496.595	57.269	0.120	0.117
-495.581	55.913	0.098	-0.095
-494.566	242.843	0.180	-0.301
-493.551	-4.145	0.226	-0.156
-492.537	32.628	-0.058	0.050
-491.522	-123.149	0.328	0.052
-490.508	-149.964	-0.220	0.017
-489.493	-200.000	-0.013	-0.139
-488.478	800.000	0.107	-0.374
-487.464	-41.487	0.045	-0.023
-486.449	22.901	0.195	0.159
-485.435	800.000	-0.031	-0.122
-484.420	116.057	-0.096	0.118
-483.405	-139.782	-0.091	-0.010
-482.391	51.873	-0.259	0.246
-481.376	800.000	0.021	0.075
-480.362	134.615	0.162	0.209
-479.347	69.367	0.045	-0.046
-478.332	112.074	-0.153	-0.184
-477.318	800.000	0.075	0.230
-476.303	-106.426	0.196	-0.044
-475.289	456.019	0.071	0.156
-474.274	145.350	-0.045	-0.061
-473.259	-200.000	-0.016	0.184
-472.245	252.527	-0.147	0.249
-471.230	-200.000	0.010	-0.286
-470.216	-200.000	0.046	0.269
-469.201	169.278	0.311	0.442
-468.186	101.865	0.266	0.309
-467.172	159.167	0.150	-0.208
-466.157	-43.082	-0.082	0.041
-465.143	-200.000	0.032	-0.169
-464.128	248.691	-0.155	0.261
-463.113	191.905	0.149	-0.224
-462.099	25.411	-0.217	0.180
-461.084	-39.618	0.086	-0.045
-460.070	800.000	0.029	-0.106
-459.055	66.831	0.186	0.189
-458.040	-53.303	0.197	-0.090
-457.026	-192.082	-0.121	0.001
-456.011	-96.773	0.223	-0.058
-454.997	777.684	-0.034	-0.092
-453.982	-196.648	-0.117	-0.001
-452.968	57.942	0.182	-0.178
-451.953	-200.000	-0.008	0.239
-450.938	-200.000	-0.025	0.375
-449.924	130.139	0.112	-0.143
-448.909	-200.000	-0.002	0.115
-447.895	-94.127	-0.184	0.050
-446.880	-200.000	-0.034	-0.149
-445.865	-200.000	-0.013	0.101
-444.851	29.888	-0.169	0.143
-443.836	3.924	-0.106	-0.077
-442.822	-69.681	-0.526	-0.201
-441.807	54.690	-0.156	-0.150
-440.792	523.407	0.059	0.138
-439.778	87.224	-0.077	-0.085
-438.763	-159.176	-0.110	0.006
-437.749	-200.000	-0.039	0.278
-436.734	800.000	-0.084	-0.263
-435.719	104.945	0.068	0.080
-434.705	213.837	-0.082	0.129
-433.690	-101.399	-0.196	-0.047
-432.676	-200.000	-0.011	-0.057
-431.661	-200.000	-0.043	-0.237
-430.646	119.893	-0.117	0.144
-429.632	-100.275	0.224	0.055
-428.617	-133.653	-0.165	-0.020
-427.603	-200.000	0.005	0.025
-426.588	800.000	0.112	-0.342
-425.573	-130.757	-0.082	0.011
-424.559	-7.810	-0.096	0.064
-423.544	-104.478	-0.453	0.104
-422.530	62.869	-0.077	0.077
-421.515	-93.047	0.366	-0.102
-420.500	800.000	0.078	0.253
-419.486	133.113	-0.091	0.117
-418.471	-8.447	0.153	-0.102
-417.457	-91.113	0.394	0.112
-416.442	-200.000	0.045	-0.252
-415.428	-60.448	-0.155	-0.066
-414.413	-147.356	0.225	0.019
-413.398	-36.157	-0.177	-0.095
-412.384	-200.000	0.000	-0.003
-411.369	-200.000	-0.019	0.209
-410.355	-52.444	0.318	0.146
-409.340	-38.455	0.161	-0.085
-408.325	788.837	-0.088	0.241
-407.311	9.981	0.178	0.135
-406.296	800.000	-0.042	0.135
-405.282	-200.000	0.028	-0.125
-404.267	-184.106	0.118	-0.002
-403.252	271.494	0.190	0.333
-402.238	-200.000	-0.016	0.074
-401.223	-200.000	0.005	-0.058
-400.209	-200.000	0.024	-0.146
-399.194	196.312	0.161	-0.244
-398.179	-71.578	-0.171	0.064
-397.165	-200.000	-0.042	-0.216
-396.150	-179.529	0.179	-0.004
-395.136	-200.000	-0.008	-0.101
-394.121	67.657	-0.215	0.218
-393.106	677.693	0.078	0.202
-392.092	-125.586	0.167	0.025
-391.077	800.000	-0.161	0.525
-390.063	-106.747	0.507	-0.112
-389.048	-36.658	-0.043	0.023
-388.033	87.261	-0.152	0.167
-387.019	150.985	-0.122	-0.165
-386.004	43.392	-0.173	0.157
-384.990	46.804	0.171	-0.158
-383.975	-83.430	-0.198	0.063
-382.960	-96.210	-0.504	-0.133
-381.946	127.423	0.202	-0.255
-380.931	-89.690	0.621	0.181
-379.917	198.061	-0.144	0.219
-378.902	104.554	-0.258	-0.302
-377.888	19.906	-0.328	0.262
-376.873	-28.074	0.323	-0.186
-375.858	-161.856	0.380	-0.019
-374.844	26.651	-0.206	-0.171
-373.829	346.731	0.040	-0.078
-372.815	-35.819	0.221	-0.119
-371.800	-116.734	0.127	0.023
-370.785	-82.955	0.070	0.022
-369.771	-156.508	-0.063	-0.004
-368.756	159.785	0.205	0.284
-367.742	329.153	0.023	-0.044
-366.727	-200.000	-0.013	-0.354
-365.712	125.460	-0.042	-0.052
-364.698	-59.598	-0.143	-0.061
-363.683	-152.216	-0.093	-0.007
-362.669	-177.597	-0.471	0.011
-361.654	222.525	0.039	-0.062
-360.639	-155.211	0.129	-0.008
-359.625	-22.813	-0.270	-0.162
-358.610	156.746	0.156	0.214
-357.596	-200.000	-0.025	0.265
-356.581	-200.000	-0.033	0.443
-355.566	-200.000	0.081	0.395
-354.552	-164.181	0.456	0.021
-353.537	-32.163	0.242	0.134
-352.523	-84.926	-0.149	-0.046
-351.508	800.000	0.043	-0.143
-350.493	-122.867	-0.328	-0.053
-349.479	-22.570	-0.145	-0.087
-348.464	-36.512	-0.323	-0.173
-347.450	210.380	-0.082	-0.128
-346.435	-107.068	-0.230	-0.050
-345.420	36.026	0.207	0.181
-344.406	-145.198	-0.096	-0.009
-343.391	104.201	-0.144	0.169
-342.377	228.400	0.097	-0.156
-341.362	150.007	-0.107	0.144
-340.348	504.403	0.054	0.125
-339.333	-200.000	0.053	0.269
-338.318	203.225	0.041	-0.063
-337.304	-13.797	0.290	0.186
-336.289	119.010	-0.295	0.362
-335.275	16.924	0.181	-0.142
-334.260	-68.249	-0.177	-0.068
-333.245	-61.786	-0.181	0.075
-332.231	-91.752	0.368	-0.104
-331.216	-105.614	-0.110	-0.025
-330.202	-200.000	-0.014	-0.130
-329.187	-33.355	0.220	-0.120
-328.172	500.348	0.069	0.158
-327.158	38.932	-0.275	0.243
-326.143	-81.246	0.358	0.117
-325.129	-109.824	-0.261	0.054
-324.114	172.983	0.033	0.048
-323.099	800.000	-0.059	-0.171
-322.085	-200.000	0.069	-0.360
-321.070	-63.895	0.105	-0.043
-320.056	-53.981	0.113	-0.051
-319.041	191.880	0.197	0.295
-318.026	91.959	-0.084	-0.094
-317.012	323.598	-0.138	-0.261
-315.997	-76.501	-0.006	0.002
-314.983	238.598	0.077	0.126
-313.968	41.246	-0.143	-0.128
-312.953	392.242	-0.087	0.178
-311.939	229.045	-0.068	-0.110
-310.924	566.135	-0.021	-0.052
-309.910	800.000	-0.043	-0.184
-308.895	-141.500	0.073	-0.007
-307.880	-52.163	-0.127	0.058
-306.866	-29.378	-0.272	-0.154
-305.851	-38.744	-0.114	-0.060
-304.837	35.684	-0.167	-0.145
-303.822	181.421	-0.234	0.341
-302.807	800.000	-0.042	0.150
-301.793	-114.443	-0.094	-0.018
-300.778	296.605	0.092	0.167
-299.764	-60.632	-0.195	-0.082
-298.749	190.165	-0.076	-0.114
-297.735	800.000	0.079	-0.231
-296.720	-200.000	0.007	-0.178
-295.705	179.528	0.162	-0.235
-294.691	235.080	0.199	0.325
-293.676	14.285	0.166	0.129
-292.662	256.713	0.057	0.097
-291.647	109.010	-0.085	-0.101
-290.632	-200.000	-0.002	0.389
-289.618	-200.000	0.012	-0.171
-288.603	-7.889	-0.303	0.203
-287.589	116.403	-0.100	-0.121
-286.574	-81.784	0.161	0.052
-285.559	231.562	0.026	-0.042
-284.545	448.826	-0.151	-0.330
-283.530	-200.000	0.049	-0.316
-282.516	-71.223	-0.214	-0.080
-281.501	102.276	0.050	-0.058
-280.486	49.161	0.275	0.256
-279.472	-200.000	0.009	0.334
-278.457	800.000	0.079	-0.261
-277.443	-200.000	0.052	-0.312
-276.428	-27.955	0.134	-0.077
-275.413	6.689	-0.117	0.086
-274.399	-200.000	-0.006	0.164
-273.384	46.503	0.347	-0.318
-272.370	-144.688	0.254	0.023
-271.355	-40.678	0.115	-0.059
-270.340	-39.062	-0.115	0.060
-269.326	-200.000	0.064	0.296
-268.311	130.422	-0.123	-0.155
-267.297	-46.027	-0.133	-0.065
-266.282	-200.000	0.040	0.304
-265.267	-162.791	0.122	0.006
-264.253	92.418	0.233	-0.259
-263.238	800.000	0.117	0.427
-262.224	800.000	-0.070	0.238
-261.209	-136.597	0.057	-0.007
-260.195	-140.784	0.130	-0.013
-259.180	338.259	-0.198	0.381
-258.165	-200.000	0.063	0.393
-257.151	800.000	0.146	0.515
-256.136	-18.460	0.334	-0.206
-255.122	131.128	-0.153	-0.194
-254.107	-98.240	0.341	0.087
-253.092	-200.000	0.093	-0.436
-252.078	-118.891	0.140	0.024
-251.063	-16.188	-0.192	-0.120
-250.049	364.742	-0.097	-0.192
-249.034	21.913	0.088	0.071
-248.019	9.425	0.119	-0.089
-247.005	-200.000	0.009	0.086
-245.990	-135.423	-0.118	0.014
-244.976	800.000	0.037	-0.112
-243.961	360.193	-0.130	0.258
-242.946	247.720	-0.043	-0.071
-241.932	705.997	0.039	0.101
-240.917	-62.024	0.139	-0.057
-239.903	-162.312	-0.199	-0.010
-238.888	81.117	0.045	0.048
-237.873	221.719	-0.023	-0.036
-236.859	49.737	-0.160	-0.149
-235.844	508.032	0.025	-0.057
-234.830	-24.254	-0.151	0.089
-233.815	482.174	-0.137	0.308
-232.800	296.715	-0.085	0.154
-231.786	471.557	-0.086	-0.191
-230.771	-102.776	0.242	-0.057
-229.757	-162.941	0.022	-0.001
-228.742	758.110	0.063	0.170
-227.727	800.000	0.005	0.018
-226.713	-57.235	-0.242	-0.105
-225.698	-59.868	-0.327	0.138
-224.684	756.062	0.062	0.165
-223.669	19.507	0.130	-0.103
-222.655	-75.005	-0.200	-0.071
-221.640	48.752	0.132	0.122
-220.625	233.996	-0.161	0.261
-219.611	-132.320	-0.041	-0.005
-218.596	28.779	0.056	-0.046
-217.582	417.190	0.053	0.111
-216.567	800.000	0.021	-0.061
-215.552	95.415	-0.142	-0.160
-214.538	285.388	0.081	-0.144
-213.523	800.000	-0.066	-0.280
-212.509	179.654	0.219	-0.317
-211.494	-200.000	-0.008	0.128
-210.479	-200.000	0.021	0.090
-209.465	79.058	0.153	-0.162
-208.450	674.657	0.061	0.155
-207.436	-94.473	-0.401	0.108
-206.421	73.519	0.034	-0.035
-205.406	-200.000	-0.007	0.056
-204.392	337.606	-0.072	0.138
-203.377	-8.108	-0.186	0.124
-202.363	-200.000	0.020	-0.133
-201.348	-200.000	-0.035	0.244
-200.333	293.748	-0.086	0.155
-199.319	-60.170	0.035	-0.015
-198.304	-151.838	0.221	0.016
-197.290	81.264	0.099	-0.105
-196.275	25.391	-0.360	0.296
-195.260	-100.807	0.052	0.013
-194.246	-42.613	0.096	-0.048
-193.231	-155.416	0.072	0.005
-192.217	-200.000	0.008	-0.073
-191.202	-109.053	-0.027	-0.006
-190.187	-158.769	0.195	-0.011
-189.173	648.862	-0.046	0.117
-188.158	-200.000	-0.044	-0.203
-187.144	-160.044	0.267	0.014
-186.129	-27.667	-0.253	0.145
-185.114	-135.829	0.365	0.043
-184.100	244.606	-0.079	0.131
-183.085	28.622	0.040	0.033
-182.071	216.790	-0.030	0.047
-181.056	250.162	-0.188	-0.314
-180.042	6.367	-0.195	-0.143
-179.027	-39.388	0.230	-0.119
-178.012	94.996	0.032	0.036
-176.998	-47.435	0.413	0.198
-175.983	-46.268	0.225	0.109
-174.969	93.892	-0.145	-0.163
-173.954	800.000	-0.005	0.019
-172.939	800.000	-0.055	0.198
-171.925	34.869	0.104	0.090
-170.910	10.274	-0.259	-0.195
-169.896	469.492	0.076	-0.168
-168.881	-200.000	-0.005	0.098
-167.866	-151.763	-0.042	0.003
-166.852	757.634	0.069	-0.184
-165.837	-66.503	0.095	0.037
-164.823	-200.000	0.012	-0.059
-163.808	800.000	-0.052	-0.200
-162.793	-200.000	0.028	0.187
-161.779	-83.707	0.311	0.098
-160.764	7.087	0.020	0.015
-159.750	-32.557	0.036	0.020
-158.735	800.000	-0.045	0.141
-157.720	105.696	-0.098	-0.114
-156.706	54.740	0.103	0.098
-155.691	170.761	0.114	-0.161
-154.677	81.723	-0.158	-0.168
-153.662	800.000	-0.045	-0.161
-152.647	-17.975	-0.198	0.122
-151.633	-200.000	0.021	0.210
-150.618	-4.400	0.180	-0.123
-149.604	-89.694	0.104	0.030
-148.589	800.000	-0.009	0.027
-147.574	255.909	-0.109	-0.184
-146.560	34.712	-0.274	-0.236
-145.545	183.143	0.167	-0.243
-144.531	-63.206	-0.167	0.068
-143.516	-200.000	0.018	0.417
-142.502	-98.558	0.074	0.019
-141.487	100.544	0.177	0.203
-140.472	23.711	0.094	0.076
-139.458	569.035	0.049	0.116
-138.443	-101.695	0.195	-0.047
-137.429	-96.758	-0.077	-0.020
-136.414	-80.553	-0.373	0.122
-135.399	89.815	-0.336	0.369
-134.385	-150.177	-0.042	0.003
-133.370	-200.000	0.027	-0.268
-132.356	-113.498	0.131	0.025
-131.341	-148.772	0.068	0.005
-130.326	50.318	-0.213	-0.198
-129.312	-200.000	0.017	0.422
-128.297	351.537	0.088	0.171
-127.283	-132.817	-0.235	-0.030
-126.268	35.001	0.351	-0.303
-125.253	800.000	0.049	0.138
-124.239	80.059	-0.041	0.043
-123.224	800.000	0.038	-0.131
-122.210	-88.695	-0.272	-0.080
-121.195	66.053	0.141	0.141
