DTS Sentinel unit serial number:	SN413079Multiplexer serial number:	ORYXHardware model number:	OX4-SRSoftware version number:	ORYX F/W v4.00 Oryx Data Collector v3.7.2.0data status	okinstallation	princeton_trtdifferential loss correction	single-endedforward channel	channel 3reverse channel	N/Adate	2019/09/19time	14:44:35forward acquisition time	60.00reverse acquisition time	0.00gamma	496.2192k internal	0.2318k external	0.2318temperature offset calibration	1.0006default loss term (dB/km)	0.3790temperature slope calibration	1.0000multiplexer offset coefficient	1.0000multiplexer slope coefficient	1.0000fibre end	0.00T internal ref (°C)	32.62T ext. ref 1 (°C)	1.09T ext. ref 2 (°C)	29.58length (m)	temperature (°C)	Stokes	anti-Stokes-747.200	-94.437	0.229	0.063
-746.185	278.527	0.189	0.341
-745.171	-121.534	0.048	-0.008
-744.156	124.274	0.350	0.445
-743.142	391.112	0.121	-0.254
-742.127	-125.128	-0.267	0.041
-741.112	135.687	0.049	-0.065
-740.098	48.344	-0.095	0.090
-739.083	-12.729	-0.389	0.257
-738.069	800.000	0.137	0.482
-737.054	310.735	0.158	0.299
-736.039	2.710	-0.257	-0.189
-735.025	244.144	-0.091	-0.155
-734.010	-4.412	-0.108	-0.076
-732.996	538.693	-0.146	-0.351
-731.981	-75.938	-0.352	0.126
-730.966	263.494	-0.166	-0.291
-729.952	800.000	0.126	-0.435
-728.937	-47.594	-0.444	-0.218
-727.923	-200.000	-0.055	-0.311
-726.908	103.816	-0.154	-0.183
-725.894	60.879	-0.334	-0.335
-724.879	-10.693	-0.036	0.024
-723.864	-47.096	0.240	-0.119
-722.850	-200.000	0.011	-0.049
-721.835	-89.630	-0.381	-0.113
-720.821	-53.972	0.547	-0.252
-719.806	-18.918	0.142	-0.090
-718.791	732.646	0.089	0.239
-717.777	153.861	0.108	-0.149
-716.762	800.000	0.059	-0.192
-715.748	-200.000	0.023	0.251
-714.733	-1.559	-0.099	-0.070
-713.718	-200.000	0.022	0.214
-712.704	3.859	-0.036	-0.027
-711.689	-112.279	-0.290	-0.059
-710.675	321.365	0.100	0.192
-709.660	-200.000	-0.030	0.169
-708.645	11.299	0.166	-0.129
-707.631	319.436	-0.099	0.190
-706.616	-67.475	0.291	-0.115
-705.602	-135.396	-0.189	0.023
-704.587	-200.000	0.172	0.000
-703.572	529.015	0.034	-0.080
-702.558	202.028	0.131	-0.205
-701.543	529.860	-0.108	0.257
-700.529	-46.694	0.083	-0.041
-699.514	-200.000	-0.025	0.424
-698.499	-88.047	-0.387	0.117
-697.485	-200.000	0.068	0.301
-696.470	-200.000	-0.013	-0.218
-695.456	800.000	0.062	0.226
-694.441	48.447	0.053	-0.050
-693.426	191.402	-0.117	-0.179
-692.412	208.093	-0.092	-0.145
-691.397	187.805	-0.044	0.067
-690.383	-102.152	-0.124	-0.030
-689.368	-59.143	-0.185	0.081
-688.354	116.833	0.050	0.062
-687.339	-118.901	0.217	0.039
-686.324	-65.109	-0.298	-0.121
-685.310	93.835	-0.086	0.099
-684.295	174.291	-0.105	-0.153
-683.281	7.930	-0.175	0.133
-682.266	764.135	0.084	-0.231
-681.251	-60.490	-0.118	0.051
-680.237	-200.000	0.000	-0.329
-679.222	44.970	0.079	-0.073
-678.208	-97.175	-0.070	0.018
-677.193	-53.221	-0.127	0.059
-676.178	-200.000	0.007	0.055
-675.164	-200.000	0.012	-0.093
-674.149	-200.000	-0.039	0.309
-673.135	-119.954	-0.251	-0.043
-672.120	41.268	-0.185	-0.169
-671.105	-109.780	-0.294	-0.062
-670.091	-130.429	-0.069	0.009
-669.076	-39.532	0.256	-0.135
-668.062	-27.399	0.139	-0.082
-667.047	-26.024	-0.176	-0.104
-666.032	800.000	0.039	0.140
-665.018	461.377	-0.155	-0.348
-664.003	-200.000	-0.087	-0.401
-662.989	-200.000	-0.001	0.136
-661.974	173.374	0.088	0.128
-660.959	30.975	0.183	0.158
-659.945	-171.603	-0.091	-0.003
-658.930	-30.964	0.054	0.031
-657.916	-155.641	0.237	-0.015
-656.901	-164.727	-0.212	-0.010
-655.886	-100.243	-0.113	0.028
-654.872	-11.564	-0.173	0.114
-653.857	101.476	0.354	-0.416
-652.843	100.633	0.131	-0.154
-651.828	88.668	0.056	-0.063
-650.814	-54.739	-0.099	-0.045
-649.799	-188.911	-0.081	0.001
-648.784	-71.872	-0.123	0.046
-647.770	25.326	0.016	-0.013
-646.755	-99.425	0.142	0.036
-645.741	-29.483	0.343	-0.198
-644.726	550.125	0.021	-0.050
-643.711	-117.396	-0.213	-0.039
-642.697	-98.488	0.265	-0.068
-641.682	-200.000	0.070	-0.427
-640.668	800.000	0.046	0.168
-639.653	66.284	0.094	0.097
-638.638	-168.825	-0.137	-0.005
-637.624	77.499	-0.053	-0.056
-636.609	-23.088	-0.140	-0.085
-635.595	-200.000	-0.005	-0.279
-634.580	26.356	0.061	0.051
-633.565	-117.786	0.455	-0.082
-632.551	-116.993	0.024	0.004
-631.536	20.389	0.025	0.021
-630.522	-91.287	-0.343	-0.099
-629.507	-200.000	0.028	-0.211
-628.492	800.000	-0.038	0.167
-627.478	481.891	0.059	0.134
-626.463	25.571	-0.416	-0.349
-625.449	-22.084	-0.173	-0.106
-624.434	-147.563	0.133	-0.011
-623.419	-200.000	-0.014	0.144
-622.405	603.168	-0.055	-0.138
-621.390	211.311	-0.219	-0.348
-620.376	800.000	0.039	0.118
-619.361	35.863	-0.127	0.113
-618.346	105.090	0.239	-0.284
-617.332	800.000	0.059	-0.244
-616.317	61.761	-0.366	0.367
-615.303	-52.166	-0.135	-0.063
-614.288	-133.333	0.086	0.011
-613.273	122.223	-0.074	-0.093
-612.259	-200.000	0.025	-0.284
-611.244	-106.826	-0.047	-0.011
-610.230	-200.000	0.015	-0.088
-609.215	800.000	-0.127	-0.403
-608.201	123.532	-0.123	0.156
-607.186	800.000	-0.084	-0.243
-606.171	-200.000	0.043	-0.320
-605.157	7.517	0.181	-0.137
-604.142	206.745	-0.113	-0.178
-603.128	-71.393	-0.276	-0.104
-602.113	-144.128	-0.200	0.019
-601.098	-196.407	0.051	-0.000
-600.084	145.365	-0.094	-0.126
-599.069	152.542	-0.265	0.364
-598.055	-106.096	0.395	0.089
-597.040	120.666	0.233	0.291
-596.025	-4.552	-0.062	0.043
-595.011	-200.000	-0.012	-0.078
-593.996	-158.388	-0.145	-0.008
-592.982	-74.561	0.137	-0.050
-591.967	-200.000	0.021	-0.206
-590.952	54.323	0.199	0.193
-589.938	-2.697	-0.027	-0.019
-588.923	4.591	-0.256	0.189
-587.909	206.777	0.176	-0.275
-586.894	-100.666	0.103	0.025
-585.879	-200.000	-0.078	0.483
-584.865	167.802	-0.119	0.170
-583.850	-200.000	0.004	0.122
-582.836	800.000	0.033	0.124
-581.821	-200.000	-0.019	-0.097
-580.806	787.444	-0.081	-0.223
-579.792	-29.902	-0.124	-0.071
-578.777	-118.779	-0.297	-0.053
-577.763	-66.192	0.072	0.029
-576.748	-200.000	0.035	-0.361
-575.733	345.875	-0.021	0.041
-574.719	-200.000	-0.193	0.000
-573.704	5.140	0.155	-0.115
-572.690	8.249	-0.191	-0.144
-571.675	-92.482	-0.197	0.056
-570.661	287.866	0.094	0.170
-569.646	420.961	-0.087	0.187
-568.631	92.116	-0.092	0.104
-567.617	-174.176	-0.163	-0.005
-566.602	-200.000	-0.001	-0.224
-565.588	291.165	-0.193	-0.354
-564.573	-200.000	-0.021	-0.289
-563.558	347.043	0.089	-0.175
-562.544	-200.000	0.002	0.198
-561.529	264.673	-0.142	-0.248
-560.515	-2.137	0.194	-0.137
-559.500	-5.029	0.219	-0.151
-558.485	265.734	-0.052	-0.090
-557.471	148.765	0.143	0.194
-556.456	404.267	0.090	0.191
-555.442	146.784	-0.073	0.098
-554.427	-200.000	-0.058	-0.256
-553.412	-63.153	0.289	0.120
-552.398	88.261	-0.128	0.142
-551.383	800.000	-0.096	-0.289
-550.369	-200.000	-0.026	0.236
-549.354	25.621	-0.118	-0.099
-548.339	525.625	-0.118	0.278
-547.325	800.000	-0.083	0.342
-546.310	-25.585	0.116	0.069
-545.296	-104.618	-0.281	-0.065
-544.281	-200.000	0.011	0.343
-543.266	226.170	-0.166	0.270
-542.252	79.600	-0.194	-0.209
-541.237	45.489	0.147	-0.137
-540.223	800.000	-0.130	0.469
-539.208	-75.048	0.081	-0.029
-538.193	-16.701	-0.295	0.188
-537.179	-137.792	0.192	0.022
-536.164	644.911	-0.072	0.184
-535.150	800.000	-0.087	0.264
-534.135	-174.073	0.225	0.007
-533.121	-63.110	0.331	0.137
-532.106	-116.885	0.203	0.037
-531.091	-63.358	-0.250	-0.103
-530.077	197.629	0.221	0.338
-529.062	-200.000	-0.019	0.145
-528.048	-200.000	0.007	0.145
-527.033	82.007	0.125	0.135
-526.018	-200.000	0.015	0.205
-525.004	54.385	0.228	-0.220
-523.989	19.307	-0.173	-0.139
-522.975	-162.251	-0.240	-0.012
-521.960	-107.129	0.220	-0.049
-520.945	299.942	0.204	0.378
-519.931	35.672	0.168	0.148
-518.916	-3.600	-0.278	0.194
-517.902	-84.745	-0.229	0.072
-516.887	322.177	-0.184	0.351
-515.872	-200.000	0.045	0.207
-514.858	79.137	-0.015	-0.016
-513.843	800.000	0.014	0.058
-512.829	-52.692	-0.335	0.155
-511.814	31.335	0.119	-0.102
-510.799	-200.000	0.056	0.259
-509.785	-84.710	0.091	0.029
-508.770	-13.858	-0.078	-0.050
-507.756	113.722	0.197	0.240
-506.741	119.169	0.131	-0.162
-505.726	-192.090	-0.144	-0.001
-504.712	348.789	0.185	-0.366
-503.697	-200.000	0.012	-0.141
-502.683	-145.601	0.273	0.024
-501.668	-200.000	-0.003	0.030
-500.653	21.961	0.081	-0.066
-499.639	55.771	0.174	-0.169
-498.624	-36.846	0.126	0.068
-497.610	541.205	-0.130	-0.310
-496.595	800.000	0.033	0.114
-495.581	-200.000	0.000	-0.099
-494.566	150.758	-0.132	0.179
-493.551	181.624	-0.145	-0.214
-492.537	286.526	-0.099	-0.179
-491.522	33.173	0.074	-0.064
-490.508	-2.845	-0.255	-0.179
-489.493	680.347	-0.077	0.200
-488.478	-82.465	-0.168	0.055
-487.464	-125.447	0.218	-0.033
-486.449	800.000	0.088	-0.335
-485.435	-200.000	0.006	0.282
-484.420	-133.141	-0.317	0.040
-483.405	565.654	-0.085	0.207
-482.391	-0.402	0.232	-0.165
-481.376	541.564	-0.127	0.303
-480.362	341.080	-0.056	0.110
-479.347	-87.926	0.070	0.021
-478.332	-92.732	0.200	-0.056
-477.318	70.326	0.140	0.145
-476.303	5.867	0.174	0.129
-475.289	-154.083	-0.187	0.013
-474.274	-52.841	0.183	-0.085
-473.259	67.401	-0.041	0.042
-472.245	-173.567	0.355	0.011
-471.230	-118.928	0.135	-0.024
-470.216	86.215	-0.253	-0.279
-469.201	82.302	-0.215	-0.233
-468.186	-58.784	0.142	-0.061
-467.172	-65.693	0.147	0.059
-466.157	-93.678	0.302	0.083
-465.143	347.597	0.089	-0.176
-464.128	800.000	-0.030	0.103
-463.113	-70.498	-0.061	0.023
-462.099	76.927	-0.121	-0.129
-461.084	4.047	-0.117	0.086
-460.070	-104.108	-0.326	0.076
-459.055	162.012	-0.131	0.184
-458.040	-81.841	-0.062	0.020
-457.026	-200.000	-0.029	0.144
-456.011	260.669	-0.225	-0.390
-454.997	51.360	0.051	-0.049
-453.982	-200.000	0.009	0.077
-452.968	-112.281	-0.127	0.025
-451.953	581.846	0.069	-0.170
-450.938	24.718	-0.185	0.154
-449.924	200.822	0.130	0.201
-448.909	-10.153	-0.232	0.154
-447.895	800.000	0.093	-0.287
-446.880	-200.000	-0.025	0.184
-445.865	169.567	0.281	-0.401
-444.851	-55.978	0.091	-0.040
-443.836	78.246	-0.128	-0.137
-442.822	-200.000	0.000	-0.080
-441.807	141.414	-0.060	-0.079
-440.792	-38.438	0.324	-0.171
-439.778	-97.065	-0.271	-0.071
-438.763	620.838	-0.136	-0.343
-437.749	-200.000	0.048	0.339
-436.734	59.649	0.031	0.031
-435.719	-118.394	-0.551	0.098
-434.705	-33.540	0.078	-0.043
-433.690	747.374	0.078	-0.211
-432.676	778.747	-0.093	-0.253
-431.661	183.387	0.027	-0.039
-430.646	800.000	-0.083	0.338
-429.632	-120.710	-0.287	-0.049
-428.617	-200.000	-0.035	0.180
-427.603	-200.000	0.019	-0.214
-426.588	-92.706	0.293	-0.082
-425.573	79.981	-0.073	-0.078
-424.559	-11.088	-0.320	-0.211
-423.544	-21.612	0.137	-0.084
-422.530	-125.391	0.189	-0.029
-421.515	117.192	0.126	0.155
-420.500	-99.841	0.371	0.093
-419.486	800.000	0.016	0.061
-418.471	235.509	0.072	-0.120
-417.457	67.350	-0.198	0.202
-416.442	-200.000	0.055	-0.342
-415.428	-200.000	-0.002	0.112
-414.413	556.014	-0.007	0.016
-413.398	800.000	0.032	-0.114
-412.384	-200.000	-0.011	0.232
-411.369	-200.000	0.075	0.000
-410.355	-26.568	0.305	-0.179
-409.340	228.381	0.085	0.139
-408.325	216.031	-0.062	0.098
-407.311	-38.285	0.151	0.080
-406.296	61.619	0.204	-0.203
-405.282	260.213	-0.153	-0.264
-404.267	-200.000	0.006	0.079
-403.252	180.230	-0.295	-0.432
-402.238	327.196	0.132	-0.252
-401.223	242.387	0.118	-0.198
-400.209	143.584	-0.234	0.311
-399.194	83.100	0.023	0.025
-398.179	131.187	0.176	0.226
-397.165	76.376	-0.058	-0.061
-396.150	-121.628	0.109	-0.018
-395.136	-101.524	-0.244	0.059
-394.121	644.380	0.059	-0.149
-393.106	-200.000	0.031	0.138
-392.092	-148.732	0.403	-0.033
-391.077	-200.000	-0.012	0.214
-390.063	-200.000	-0.009	-0.221
-389.048	42.077	-0.128	0.116
-388.033	581.856	0.104	0.255
-387.019	17.839	-0.302	0.240
-386.004	-39.131	0.286	-0.150
-384.990	-200.000	-0.062	-0.308
-383.975	-151.362	0.278	-0.021
-382.960	0.988	0.141	-0.101
-381.946	-151.458	-0.147	0.011
-380.931	205.602	0.060	0.094
-379.917	-200.000	-0.018	0.104
-378.902	-137.220	0.210	-0.024
-377.888	-1.951	-0.157	0.110
-376.873	374.041	0.049	-0.100
-375.858	312.370	0.128	-0.240
-374.844	244.115	0.027	0.046
-373.829	-124.166	-0.309	0.048
-372.815	-200.000	0.009	0.386
-371.800	-138.771	0.324	-0.035
-370.785	-153.708	0.344	-0.024
-369.771	-38.801	-0.225	0.118
-368.756	-200.000	0.018	0.198
-367.742	-178.015	-0.223	0.005
-366.727	75.930	-0.056	-0.059
-365.712	-106.081	-0.030	0.007
-364.698	-125.523	0.261	-0.039
-363.683	-126.383	-0.157	0.023
-362.669	535.631	-0.095	0.225
-361.654	-140.342	-0.423	0.044
-360.639	-56.127	0.027	-0.012
-359.625	800.000	-0.153	0.466
-358.610	800.000	-0.098	0.273
-357.596	-200.000	-0.024	-0.221
-356.581	433.600	0.153	-0.332
-355.566	-77.249	-0.260	-0.090
-354.552	-129.091	0.292	0.041
-353.537	-36.790	-0.228	-0.122
-352.523	-200.000	0.010	0.222
-351.508	43.792	0.127	0.116
-350.493	129.136	-0.093	-0.118
-349.479	-99.013	-0.176	-0.044
-348.464	113.659	0.080	-0.097
-347.450	87.430	-0.204	0.224
-346.435	-20.060	-0.153	0.094
-345.420	-135.871	-0.401	0.047
-344.406	307.636	0.064	0.118
-343.391	1.292	0.041	0.029
-342.377	-77.104	0.492	-0.171
-341.362	-200.000	-0.002	0.065
-340.348	-200.000	0.011	-0.110
-339.333	-200.000	-0.009	-0.220
-338.318	-200.000	0.017	0.093
-337.304	-97.103	0.102	0.027
-336.289	25.218	0.181	-0.150
-335.275	-103.532	-0.052	-0.012
-334.260	131.247	-0.148	0.189
-333.245	228.190	0.192	-0.312
-332.231	-29.536	-0.323	0.184
-331.216	179.115	-0.055	-0.080
-330.202	-200.000	-0.020	0.092
-329.187	38.049	-0.261	0.231
-328.172	-85.671	0.163	-0.050
-327.158	52.767	-0.263	-0.250
-326.143	619.204	0.059	0.148
-325.129	-62.229	0.380	0.158
-324.114	360.587	-0.076	-0.152
-323.099	-97.063	0.236	0.061
-322.085	-3.504	0.263	-0.182
-321.070	-31.882	0.090	0.050
-320.056	800.000	0.050	-0.145
-319.041	-34.683	0.248	0.135
-318.026	188.436	0.158	-0.234
-317.012	294.651	0.054	-0.098
-315.997	-200.000	-0.017	-0.214
-314.983	652.807	0.135	0.346
-313.968	-200.000	-0.008	0.117
-312.953	112.880	-0.152	-0.183
-311.939	-75.887	-0.085	-0.030
-310.924	-200.000	0.032	0.148
-309.910	66.943	0.193	-0.195
-308.895	-200.000	-0.021	0.097
-307.880	-45.116	0.224	0.111
-306.866	39.824	0.194	0.173
-305.851	-24.876	-0.114	-0.067
-304.837	-84.588	0.193	0.061
-303.822	-130.397	-0.265	0.036
-302.807	628.360	0.005	0.014
-301.793	572.124	0.028	0.069
-300.778	-200.000	0.014	0.096
-299.764	10.576	-0.228	0.173
-298.749	-12.144	-0.169	-0.110
-297.735	-55.131	-0.209	-0.093
-296.720	-14.752	0.154	-0.098
-295.705	-67.309	0.182	0.071
-294.691	-130.234	-0.161	0.022
-293.676	-200.000	-0.009	0.104
-292.662	-32.821	0.248	-0.137
-291.647	-127.594	0.168	0.024
-290.632	228.260	-0.125	0.203
-289.618	449.499	-0.147	0.322
-288.603	-77.303	0.380	-0.131
-287.589	-2.692	-0.172	0.120
-286.574	-81.490	0.348	0.114
-285.559	-167.331	0.401	-0.016
-284.545	188.359	0.190	-0.282
-283.530	688.536	-0.127	0.331
-282.516	501.744	0.048	0.110
-281.501	31.041	-0.268	-0.228
-280.486	613.463	0.079	0.196
-279.472	-59.170	0.340	0.146
-278.457	-69.048	0.071	-0.027
-277.443	3.159	0.086	-0.062
-276.428	63.705	0.067	0.067
-275.413	97.798	-0.025	-0.029
-274.399	-95.680	0.136	0.036
-273.384	800.000	0.086	0.247
-272.370	-102.778	-0.277	-0.066
-271.355	37.873	0.322	-0.284
-270.340	260.344	0.058	0.100
-269.326	455.238	-0.062	0.137
-268.311	543.315	-0.051	-0.120
-267.297	-18.971	0.182	0.112
-266.282	39.305	0.093	-0.082
-265.267	-71.408	-0.223	-0.083
-264.253	-200.000	0.006	0.151
-263.238	-6.782	-0.113	0.077
-262.224	-186.530	0.119	-0.002
-261.209	-64.214	-0.229	0.093
-260.195	-200.000	0.044	-0.227
-259.180	11.303	-0.151	-0.115
-258.165	69.102	0.108	0.110
-257.151	-200.000	0.036	0.566
-256.136	-185.656	-0.145	0.002
-255.122	-142.583	0.216	0.021
-254.107	-23.417	-0.369	-0.220
-253.092	46.656	0.220	0.203
-252.078	783.764	-0.192	-0.523
-251.063	549.471	-0.066	-0.157
-250.049	-45.833	0.170	0.083
-249.034	65.493	-0.076	-0.076
-248.019	-87.658	-0.393	-0.118
-247.005	-200.000	0.013	-0.095
-245.990	123.088	-0.201	-0.250
-244.976	112.196	0.083	-0.099
-243.961	473.665	-0.079	-0.176
-242.946	-76.372	0.396	-0.138
-241.932	-70.735	0.157	0.059
-240.917	241.758	-0.184	-0.305
-239.903	-13.199	-0.081	0.052
-238.888	29.174	0.154	0.130
-237.873	-200.000	0.040	-0.355
-236.859	-61.769	-0.112	-0.047
-235.844	-35.225	0.126	-0.068
-234.830	123.697	-0.188	-0.234
-233.815	-111.677	-0.081	-0.016
-232.800	-3.538	-0.093	-0.064
-231.786	196.502	-0.066	-0.100
-230.771	-7.494	0.051	0.034
-229.757	271.210	0.045	0.078
-228.742	112.152	0.192	-0.230
-227.727	800.000	-0.047	-0.196
-226.713	-10.669	0.101	0.066
-225.698	-200.000	-0.068	0.376
-224.684	-86.381	0.209	0.064
-223.669	-200.000	-0.006	-0.038
-222.655	-200.000	0.029	-0.139
-221.640	800.000	0.036	0.106
-220.625	-112.807	-0.444	-0.087
-219.611	43.726	-0.080	0.073
-218.596	-82.417	-0.081	-0.026
-217.582	-23.598	0.180	0.107
-216.567	7.583	0.290	-0.215
-215.552	-200.000	0.021	-0.191
-214.538	180.056	0.149	0.217
-213.523	-92.552	0.296	0.082
-212.509	308.250	-0.072	0.133
-211.494	100.846	0.059	-0.068
-210.479	-200.000	0.016	0.199
-209.465	-200.000	-0.088	0.548
-208.450	-143.602	-0.376	0.035
-207.436	497.172	-0.166	-0.378
-206.421	-148.007	-0.245	-0.020
-205.406	-114.631	-0.176	0.033
-204.392	-29.151	-0.177	-0.100
-203.377	51.054	0.244	-0.229
-202.363	-159.120	0.326	0.018
-201.348	800.000	0.066	0.269
-200.333	-20.220	-0.218	-0.133
-199.319	-102.439	-0.231	0.055
-198.304	-106.127	0.062	-0.014
-197.290	-60.066	-0.369	-0.156
-196.275	471.989	-0.096	0.215
-195.260	290.780	-0.077	-0.139
-194.246	-101.968	0.201	0.048
-193.231	-200.000	0.023	0.113
-192.217	334.760	0.135	-0.259
-191.202	719.191	-0.076	0.200
-190.187	-81.862	-0.229	0.074
-189.173	251.858	-0.021	-0.035
-188.158	-200.000	-0.005	0.073
-187.144	-118.412	0.235	-0.041
-186.129	204.561	0.066	0.101
-185.114	-118.602	0.341	-0.060
-184.100	150.069	0.244	-0.328
-183.085	370.383	-0.093	-0.186
-182.071	-157.611	0.108	-0.006
-181.056	800.000	0.067	-0.274
-180.042	-118.048	0.192	0.034
-179.027	-79.734	-0.093	0.031
-178.012	-200.000	-0.003	-0.130
-176.998	-200.000	-0.018	-0.132
-175.983	485.188	0.118	0.265
-174.969	56.971	0.176	0.170
-173.954	-40.340	-0.137	0.071
-172.939	67.582	-0.268	-0.271
-171.925	-70.430	-0.514	0.193
-170.910	-156.215	-0.214	0.013
-169.896	-44.993	-0.049	0.024
-168.881	258.140	-0.095	0.162
-167.866	422.383	0.150	0.319
-166.852	209.798	0.086	0.133
-165.837	-200.000	-0.008	0.059
-164.823	-142.248	-0.161	-0.016
-163.808	-2.393	0.344	-0.239
-162.793	-200.000	-0.027	0.382
-161.779	150.693	-0.209	0.281
-160.764	704.710	0.057	-0.149
-159.750	-49.246	0.289	0.137
-158.735	-200.000	0.013	0.183
-157.720	-40.266	-0.102	0.052
-156.706	655.122	-0.165	0.420
-155.691	697.479	-0.077	0.199
-154.677	-63.351	0.108	-0.044
-153.662	-107.961	-0.177	-0.038
-152.647	-5.438	0.529	-0.359
-151.633	16.200	0.169	0.132
-150.618	-117.996	0.108	-0.019
-149.604	263.336	0.092	-0.158
-148.589	-27.412	0.239	0.137
-147.574	-200.000	0.006	0.158
-146.560	10.843	0.165	-0.125
-145.545	260.153	0.148	-0.252
-144.531	-200.000	-0.025	0.288
-143.516	-183.125	0.279	0.005
-142.502	-200.000	-0.049	-0.255
-141.487	-200.000	-0.007	-0.181
-140.472	800.000	0.003	-0.010
-139.458	92.074	-0.281	-0.313
-138.443	33.098	0.025	0.021
-137.429	-82.512	0.435	0.140
-136.414	-58.359	-0.051	-0.022
-135.399	-112.009	-0.073	-0.015
-134.385	-93.016	-0.364	0.100
-133.370	129.381	-0.020	0.025
-132.356	-109.960	0.033	0.007
-131.341	800.000	-0.077	0.226
-130.326	-38.294	0.075	0.039
-129.312	341.390	0.155	0.299
-128.297	-200.000	0.002	-0.024
-127.283	20.720	-0.119	0.095
-126.268	-200.000	-0.026	-0.187
-125.253	-200.000	-0.000	-0.047
-124.239	800.000	0.045	0.163
-123.224	51.999	0.016	0.015
-122.210	150.760	0.080	0.107
-121.195	164.743	0.126	-0.175
