DTS Sentinel unit serial number:	SN413079Multiplexer serial number:	ORYXHardware model number:	OX4-SRSoftware version number:	ORYX F/W v4.00 Oryx Data Collector v3.7.2.0data status	okinstallation	princeton_trtdifferential loss correction	single-endedforward channel	channel 3reverse channel	N/Adate	2019/09/17time	11:20:35forward acquisition time	60.00reverse acquisition time	0.00gamma	496.2192k internal	0.2323k external	0.2323temperature offset calibration	0.9949default loss term (dB/km)	0.3790temperature slope calibration	1.0000multiplexer offset coefficient	1.0000multiplexer slope coefficient	1.0000fibre end	0.00T internal ref (°C)	30.55T ext. ref 1 (°C)	0.31T ext. ref 2 (°C)	26.28length (m)	temperature (°C)	Stokes	anti-Stokes-747.200	134.148	-0.116	0.151
-746.185	-6.253	-0.052	0.036
-745.171	73.991	0.045	0.048
-744.156	-100.446	-0.136	-0.034
-743.142	-77.643	0.174	-0.061
-742.127	513.081	-0.139	0.328
-741.112	-53.689	-0.149	-0.069
-740.098	-175.270	0.184	-0.005
-739.083	112.661	0.165	0.201
-738.069	800.000	-0.065	0.194
-737.054	104.189	-0.114	-0.135
-736.039	329.448	0.008	0.016
-735.025	-165.133	-0.363	0.016
-734.010	46.866	-0.318	-0.298
-732.996	214.010	0.174	-0.278
-731.981	-200.000	-0.037	-0.169
-730.966	800.000	-0.180	-0.546
-729.952	14.817	0.090	-0.071
-728.937	-200.000	-0.029	-0.148
-727.923	166.541	0.220	0.314
-726.908	-174.199	-0.291	0.009
-725.894	724.548	0.030	-0.080
-724.879	-116.488	-0.240	-0.045
-723.864	-170.776	-0.357	-0.012
-722.850	298.442	0.212	-0.393
-721.835	-188.457	0.170	0.002
-720.821	-172.975	-0.055	0.002
-719.806	-35.879	-0.306	0.167
-718.791	-20.429	-0.070	0.043
-717.777	-175.884	0.378	-0.010
-716.762	-51.440	-0.114	-0.054
-715.748	-119.052	-0.190	-0.034
-714.733	-96.744	-0.044	-0.012
-713.718	-26.661	-0.369	-0.218
-712.704	107.944	-0.029	0.035
-711.689	-200.000	-0.044	-0.610
-710.675	307.788	0.124	0.234
-709.660	182.521	0.237	0.353
-708.645	-58.813	-0.260	-0.113
-707.631	-200.000	-0.054	-0.386
-706.616	3.445	0.098	0.072
-705.602	-77.452	0.036	0.013
-704.587	44.084	0.039	0.036
-703.572	-29.600	-0.147	0.084
-702.558	-200.000	0.028	-0.276
-701.543	119.392	-0.026	0.033
-700.529	-23.209	-0.091	-0.055
-699.514	172.871	0.155	0.226
-698.499	-116.299	0.223	-0.042
-697.485	-200.000	0.028	-0.160
-696.470	-113.216	-0.243	0.048
-695.456	-200.000	-0.051	-0.369
-694.441	800.000	-0.048	-0.155
-693.426	-108.718	0.160	-0.034
-692.412	-200.000	-0.022	0.184
-691.397	-134.557	0.110	0.014
-690.383	237.239	0.042	0.069
-689.368	476.187	0.044	0.101
-688.354	-101.367	0.063	0.015
-687.339	-39.880	0.268	0.141
-686.324	-200.000	0.053	-0.268
-685.310	19.745	0.129	-0.104
-684.295	800.000	-0.102	-0.381
-683.281	-60.980	-0.305	0.130
-682.266	37.963	-0.272	-0.244
-681.251	-183.768	-0.178	-0.003
-680.237	-135.890	0.302	0.036
-679.222	-200.000	-0.035	0.180
-678.208	88.779	-0.112	-0.125
-677.193	-48.934	0.087	-0.042
-676.178	56.590	-0.194	-0.190
-675.164	-73.093	0.212	0.078
-674.149	-18.390	0.123	-0.077
-673.135	88.560	-0.134	-0.150
-672.120	593.440	0.102	-0.255
-671.105	114.358	0.092	-0.113
-670.091	35.703	-0.117	0.104
-669.076	116.213	0.319	0.393
-668.062	-200.000	-0.095	0.520
-667.047	-154.024	0.233	0.016
-666.032	457.839	0.038	0.084
-665.018	-76.652	0.058	0.020
-664.003	536.782	-0.140	-0.335
-662.989	-140.919	0.213	-0.022
-661.974	-45.206	0.241	0.120
-660.959	-200.000	-0.017	0.329
-659.945	-200.000	-0.001	-0.237
-658.930	-84.473	-0.245	0.078
-657.916	57.223	-0.174	0.171
-656.901	-125.479	-0.248	0.038
-655.886	-108.606	-0.115	-0.025
-654.872	107.954	-0.179	-0.215
-653.857	-148.631	-0.343	0.028
-652.843	171.798	-0.093	-0.134
-651.828	800.000	-0.142	-0.410
-650.814	-67.180	0.206	0.082
-649.799	800.000	-0.093	-0.315
-648.784	-144.813	-0.118	-0.011
-647.770	-78.820	-0.426	-0.146
-646.755	168.344	-0.074	0.106
-645.741	496.500	0.073	0.168
-644.726	186.151	0.130	0.194
-643.711	-65.507	-0.502	-0.203
-642.697	-200.000	0.045	-0.213
-641.682	171.548	-0.034	-0.049
-640.668	-46.693	-0.047	-0.023
-639.653	800.000	0.015	-0.056
-638.638	-118.843	0.191	0.034
-637.624	22.146	-0.203	0.167
-636.609	-85.989	0.273	-0.085
-635.595	56.111	-0.195	-0.190
-634.580	-119.378	-0.564	-0.099
-633.565	100.110	-0.171	-0.200
-632.551	-128.381	-0.454	-0.065
-631.536	223.411	-0.069	-0.112
-630.522	-14.117	-0.041	0.027
-629.507	-90.794	-0.075	-0.022
-628.492	-19.872	0.127	0.079
-627.478	-200.000	-0.068	0.309
-626.463	-126.187	-0.038	0.006
-625.449	480.984	0.158	-0.361
-624.434	112.484	-0.059	-0.072
-623.419	-200.000	0.049	-0.374
-622.405	-200.000	-0.015	0.146
-621.390	-200.000	0.025	0.356
-620.376	38.708	-0.209	0.188
-619.361	54.691	-0.282	-0.273
-618.346	-33.685	0.125	-0.069
-617.332	800.000	-0.132	-0.389
-616.317	29.555	-0.078	0.067
-615.303	-77.665	-0.415	-0.144
-614.288	-200.000	0.032	-0.208
-613.273	-166.727	-0.358	-0.015
-612.259	-81.738	-0.182	-0.060
-611.244	-137.234	-0.145	-0.017
-610.230	-76.130	0.181	-0.064
-609.215	-200.000	-0.030	-0.296
-608.201	426.728	-0.174	0.377
-607.186	-58.718	0.123	-0.054
-606.171	-80.411	0.124	0.042
-605.157	128.679	-0.078	0.100
-604.142	-73.906	-0.143	0.052
-603.128	241.535	-0.163	0.274
-602.113	32.904	0.056	0.048
-601.098	-176.840	-0.142	-0.004
-600.084	-60.842	-0.129	-0.055
-599.069	343.302	0.053	-0.105
-598.055	558.060	-0.025	-0.061
-597.040	-83.754	0.188	-0.060
-596.025	70.628	0.222	-0.230
-595.011	506.453	-0.087	-0.202
-593.996	-127.269	-0.169	-0.025
-592.982	-67.908	0.094	-0.037
-591.967	-102.062	0.210	0.051
-590.952	-80.938	0.215	-0.072
-589.938	735.665	-0.186	0.500
-588.923	-200.000	0.024	0.219
-587.909	-200.000	-0.442	-0.001
-586.894	776.601	-0.047	-0.129
-585.879	397.898	-0.055	-0.116
-584.865	10.710	-0.109	-0.083
-583.850	445.966	0.039	-0.087
-582.836	-70.413	-0.227	0.086
-581.821	50.003	-0.328	-0.310
-580.806	53.541	-0.263	-0.254
-579.792	-200.000	-0.057	0.369
-578.777	128.855	0.166	0.212
-577.763	-200.000	-0.017	0.290
-576.748	-62.914	0.116	0.048
-575.733	405.921	0.130	-0.275
-574.719	41.278	-0.189	-0.171
-573.704	-200.000	-0.021	-0.273
-572.690	-89.498	0.123	0.036
-571.675	-55.038	0.125	-0.057
-570.661	-118.568	0.272	0.048
-569.646	372.299	0.117	0.239
-568.631	-132.590	-0.023	-0.003
-567.617	-28.965	0.297	-0.171
-566.602	-4.429	-0.145	-0.100
-565.588	-200.000	0.004	-0.224
-564.573	-79.505	-0.149	-0.051
-563.558	-83.177	0.268	-0.086
-562.544	800.000	0.083	-0.331
-561.529	19.486	-0.139	-0.112
-560.515	-23.254	0.354	0.213
-559.500	544.978	-0.085	0.203
-558.485	-78.831	-0.171	0.058
-557.471	45.898	0.055	-0.051
-556.456	-39.499	0.242	0.127
-555.442	-200.000	0.066	-0.361
-554.427	-126.796	-0.146	-0.022
-553.412	56.073	0.104	-0.101
-552.398	-200.000	0.003	-0.230
-551.383	96.505	0.186	-0.214
-550.369	-69.476	0.235	0.090
-549.354	-66.015	0.277	0.111
-548.339	-120.148	-0.268	-0.046
-547.325	109.384	0.184	-0.221
-546.310	-200.000	-0.029	-0.456
-545.296	-114.316	-0.400	-0.077
-544.281	31.084	0.144	-0.123
-543.266	-200.000	0.040	-0.264
-542.252	800.000	0.016	-0.048
-541.237	-4.472	0.088	-0.061
-540.223	80.161	0.017	0.019
-539.208	102.599	-0.185	-0.217
-538.193	-156.589	-0.170	-0.011
-537.179	394.032	-0.112	-0.233
-536.164	-128.492	0.224	-0.032
-535.150	71.436	-0.170	-0.177
-534.135	146.607	0.115	-0.155
-533.121	354.280	0.155	-0.309
-532.106	-200.000	0.033	0.266
-531.091	0.410	-0.039	0.028
-530.077	-10.296	-0.318	0.211
-529.062	147.744	0.078	-0.105
-528.048	800.000	0.036	-0.128
-527.033	99.721	-0.213	0.248
-526.018	217.362	-0.052	-0.083
-525.004	91.627	0.092	-0.104
-523.989	800.000	-0.047	-0.152
-522.975	730.072	-0.047	-0.125
-521.960	18.719	0.277	0.222
-520.945	-115.340	-0.082	0.015
-519.931	7.061	-0.139	-0.104
-518.916	-19.778	-0.179	-0.111
-517.902	-130.421	-0.310	0.042
-516.887	266.542	0.131	-0.230
-515.872	117.245	0.190	0.234
-514.858	-6.178	-0.143	-0.098
-513.843	-10.405	-0.153	-0.101
-512.829	-200.000	-0.010	0.151
-511.814	-48.035	-0.141	-0.068
-510.799	-180.195	0.074	-0.002
-509.785	717.742	0.151	0.402
-508.770	735.698	-0.015	-0.039
-507.756	413.161	-0.042	0.090
-506.741	184.612	-0.066	0.097
-505.726	-200.000	0.008	-0.070
-504.712	-15.353	-0.151	-0.097
-503.697	-200.000	0.063	-0.463
-502.683	-33.263	-0.197	-0.109
-501.668	176.055	0.200	0.291
-500.653	-200.000	-0.020	0.150
-499.639	659.841	-0.045	-0.115
-498.624	-200.000	0.011	0.064
-497.610	-91.596	0.118	-0.034
-496.595	661.046	0.100	-0.257
-495.581	-125.069	0.383	-0.059
-494.566	800.000	0.055	-0.238
-493.551	800.000	-0.041	0.155
-492.537	36.789	-0.215	-0.190
-491.522	-200.000	0.001	-0.047
-490.508	197.866	-0.114	-0.174
-489.493	607.369	0.030	0.075
-488.478	346.839	-0.055	-0.108
-487.464	531.296	0.034	0.079
-486.449	-200.000	0.001	0.210
-485.435	-43.149	-0.345	-0.175
-484.420	214.767	-0.171	0.271
-483.405	-128.090	-0.341	-0.049
-482.391	-141.795	0.349	-0.035
-481.376	-129.086	0.143	0.020
-480.362	-24.378	0.071	0.042
-479.347	687.552	-0.022	0.058
-478.332	-46.735	-0.095	-0.046
-477.318	48.814	-0.117	-0.110
-476.303	-99.338	0.120	-0.030
-475.289	-150.915	0.425	-0.032
-474.274	-158.921	-0.549	-0.031
-473.259	800.000	0.043	0.143
-472.245	-122.188	-0.117	-0.019
-471.230	-2.912	0.096	0.067
-470.216	488.309	-0.040	0.090
-469.201	34.915	0.107	0.094
-468.186	-200.000	-0.019	-0.363
-467.172	112.086	-0.149	-0.179
-466.157	-66.651	-0.102	0.040
-465.143	-88.265	-0.050	0.015
-464.128	-200.000	0.000	-0.247
-463.113	800.000	-0.053	0.176
-462.099	-112.181	-0.321	0.064
-461.084	112.818	-0.039	-0.047
-460.070	282.147	-0.108	0.194
-459.055	520.450	-0.043	0.100
-458.040	60.940	-0.117	-0.116
-457.026	207.745	-0.085	-0.133
-456.011	267.768	0.038	0.067
-454.997	-200.000	0.007	-0.184
-453.982	800.000	0.031	-0.126
-452.968	-200.000	0.018	0.225
-451.953	-118.622	0.175	-0.031
-450.938	-105.049	0.118	0.027
-449.924	70.740	0.244	-0.252
-448.909	-200.000	0.085	-0.417
-447.895	302.737	0.096	-0.177
-446.880	-109.178	0.135	0.029
-445.865	800.000	0.038	0.148
-444.851	-133.755	-0.263	-0.033
-443.836	136.339	-0.128	-0.166
-442.822	170.675	0.142	-0.204
-441.807	-122.589	-0.156	-0.025
-440.792	540.792	0.129	0.306
-439.778	-200.000	-0.010	0.166
-438.763	800.000	0.080	0.252
-437.749	32.938	0.252	0.218
-436.734	-200.000	0.023	-0.363
-435.719	-70.134	0.081	0.031
-434.705	119.922	-0.049	-0.060
-433.690	-135.688	0.191	-0.023
-432.676	-25.751	-0.328	0.193
-431.661	800.000	-0.012	0.035
-430.646	-83.469	0.450	0.144
-429.632	-88.193	0.133	0.040
-428.617	-200.000	-0.084	0.428
-427.603	74.486	0.168	-0.176
-426.588	-200.000	0.020	-0.471
-425.573	339.552	0.121	0.235
-424.559	-200.000	0.007	0.264
-423.544	-75.676	-0.325	-0.115
-422.530	800.000	-0.030	-0.084
-421.515	-17.436	0.135	-0.084
-420.500	144.681	0.090	0.120
-419.486	353.156	0.043	-0.085
-418.471	-200.000	0.056	0.267
-417.457	-200.000	0.007	0.154
-416.442	-200.000	0.022	-0.244
-415.428	75.900	0.159	-0.167
-414.413	-100.328	0.329	0.081
-413.398	800.000	-0.048	0.210
-412.384	371.599	0.092	0.186
-411.369	94.524	-0.139	-0.158
-410.355	112.811	0.154	0.186
-409.340	-43.710	0.082	0.041
-408.325	-40.537	-0.095	-0.049
-407.311	242.660	0.229	0.381
-406.296	800.000	-0.084	0.303
-405.282	-200.000	0.028	0.227
-404.267	18.534	0.207	0.165
-403.252	-63.663	-0.340	-0.139
-402.238	-200.000	0.015	0.166
-401.223	148.981	-0.089	-0.119
-400.209	91.664	-0.330	0.370
-399.194	225.925	-0.125	-0.202
-398.179	800.000	-0.085	-0.284
-397.165	-200.000	-0.029	0.212
-396.150	-142.840	-0.174	-0.017
-395.136	104.002	-0.117	-0.137
-394.121	252.489	-0.185	-0.314
-393.106	483.989	-0.061	-0.138
-392.092	-68.135	-0.052	0.020
-391.077	-200.000	-0.003	0.292
-390.063	392.987	-0.122	0.254
-389.048	-200.000	-0.027	-0.218
-388.033	-96.651	0.173	0.045
-387.019	-84.684	-0.342	-0.107
-386.004	101.835	0.027	-0.032
-384.990	-200.000	0.007	0.286
-383.975	-94.840	-0.270	-0.073
-382.960	512.081	-0.075	-0.174
-381.946	377.003	0.076	-0.154
-380.931	-162.106	-0.405	-0.020
-379.917	-200.000	0.023	0.135
-378.902	-200.000	-0.018	0.284
-377.888	-200.000	0.013	0.103
-376.873	345.288	0.064	-0.125
-375.858	440.102	0.110	-0.240
-374.844	143.767	0.022	0.030
-373.829	539.549	-0.038	-0.089
-372.815	55.214	0.224	0.216
-371.800	-200.000	0.005	0.126
-370.785	-62.828	-0.256	-0.106
-369.771	127.612	0.185	0.234
-368.756	76.895	0.066	0.069
-367.742	238.159	-0.175	0.289
-366.727	-60.646	-0.248	0.105
-365.712	-200.000	0.070	-0.329
-364.698	-200.000	0.090	0.472
-363.683	800.000	0.026	0.086
-362.669	800.000	0.030	-0.107
-361.654	577.235	-0.065	0.158
-360.639	41.716	-0.284	0.256
-359.625	-30.932	0.094	0.053
-358.610	-86.157	-0.486	0.149
-357.596	-156.736	-0.195	0.012
-356.581	800.000	-0.090	-0.295
-355.566	138.729	0.245	0.320
-354.552	800.000	-0.047	0.202
-353.537	800.000	0.064	-0.227
-352.523	-200.000	0.029	0.135
-351.508	81.175	-0.132	-0.142
-350.493	-200.000	-0.018	0.350
-349.479	389.386	0.228	-0.471
-348.464	290.699	0.122	0.220
-347.450	-99.751	0.343	0.085
-346.435	324.503	-0.141	-0.268
-345.420	91.849	0.154	0.172
-344.406	-38.955	0.087	0.045
-343.391	-77.289	-0.066	-0.023
-342.377	-78.129	0.171	-0.059
-341.362	18.613	0.175	0.139
-340.348	-115.741	0.404	-0.075
-339.333	-200.000	0.009	0.300
-338.318	108.997	0.258	0.307
-337.304	-100.451	0.348	0.086
-336.289	800.000	-0.048	0.206
-335.275	-200.000	0.044	-0.243
-334.260	10.405	0.250	-0.189
-333.245	-100.591	-0.049	-0.012
-332.231	-11.773	-0.047	-0.031
-331.216	-87.569	0.232	0.070
-330.202	-126.190	-0.136	-0.020
-329.187	-115.310	0.144	-0.027
-328.172	-200.000	0.023	0.166
-327.158	96.761	0.226	-0.257
-326.143	800.000	-0.095	-0.299
-325.129	-29.261	-0.159	-0.091
-324.114	-200.000	0.017	-0.268
-323.099	-49.817	0.496	-0.234
-322.085	-57.156	0.199	-0.087
-321.070	-43.241	-0.321	-0.162
-320.056	181.990	0.147	-0.215
-319.041	104.775	-0.124	0.145
-318.026	-75.243	0.151	-0.054
-317.012	-141.628	-0.185	0.018
-315.997	516.140	0.056	0.130
-314.983	3.295	-0.148	0.107
-313.968	334.041	-0.167	-0.321
-312.953	17.907	-0.306	0.242
-311.939	135.323	-0.224	0.289
-310.924	-200.000	-0.016	0.104
-309.910	-25.253	0.169	-0.100
-308.895	-200.000	0.013	-0.174
-307.880	-139.721	-0.247	0.026
-306.866	134.259	0.200	-0.258
-305.851	800.000	0.096	0.352
-304.837	800.000	0.013	0.047
-303.822	-136.776	0.356	0.041
-302.807	139.735	-0.128	0.167
-301.793	158.665	0.059	0.082
-300.778	-200.000	0.018	0.147
-299.764	800.000	-0.089	-0.327
-298.749	800.000	-0.102	-0.341
-297.735	9.621	0.246	0.185
-296.720	597.485	-0.108	0.266
-295.705	-200.000	0.045	0.273
-294.691	800.000	0.118	0.374
-293.676	258.434	0.193	0.329
-292.662	318.677	0.090	-0.169
-291.647	-60.611	-0.066	0.028
-290.632	-200.000	0.040	0.242
-289.618	-200.000	-0.002	-0.250
-288.603	-200.000	-0.021	0.181
-287.589	184.225	-0.155	-0.228
-286.574	507.313	-0.123	-0.282
-285.559	-126.650	-0.268	0.039
-284.545	25.828	0.150	0.124
-283.530	57.485	0.095	0.092
-282.516	-56.421	0.183	0.081
-281.501	-20.667	-0.245	-0.149
-280.486	-200.000	0.082	0.000
-279.472	76.784	0.280	0.295
-278.457	422.211	0.077	0.163
-277.443	-51.035	-0.171	0.079
-276.428	800.000	0.017	0.070
-275.413	403.174	0.053	-0.111
-274.399	-28.398	0.023	-0.013
-273.384	-200.000	-0.024	-0.168
-272.370	-160.444	0.303	0.016
-271.355	-200.000	0.065	0.363
-270.340	-22.905	-0.098	-0.058
-269.326	-111.637	0.374	0.075
-268.311	-85.291	-0.156	-0.048
-267.297	541.428	-0.084	-0.198
-266.282	-93.878	-0.096	-0.026
-265.267	466.656	-0.145	-0.322
-264.253	-70.259	-0.131	-0.049
-263.238	800.000	0.019	0.078
-262.224	800.000	-0.004	-0.011
-261.209	-13.809	0.219	0.140
-260.195	-74.086	-0.213	-0.076
-259.180	-120.909	-0.284	-0.047
-258.165	108.980	0.192	0.227
-257.151	-149.434	0.380	0.030
-256.136	-200.000	-0.041	-0.316
-255.122	567.011	0.131	0.316
-254.107	243.570	0.141	0.234
-253.092	7.323	-0.104	-0.077
-252.078	586.942	0.125	0.305
-251.063	299.167	0.031	-0.057
-250.049	-200.000	0.008	-0.239
-249.034	-2.294	0.199	0.138
-248.019	65.919	-0.135	0.135
-247.005	800.000	0.034	0.123
-245.990	-25.856	-0.375	-0.219
-244.976	175.745	-0.151	-0.217
-243.961	60.371	-0.083	-0.081
-242.946	800.000	0.030	-0.089
-241.932	-59.684	0.035	-0.015
-240.917	12.505	-0.112	0.086
-239.903	7.728	0.190	0.141
-238.888	182.201	-0.105	-0.154
-237.873	39.341	0.404	0.358
-236.859	-64.551	0.436	0.175
-235.844	61.580	-0.049	0.048
-234.830	-174.144	-0.316	0.009
-233.815	366.863	-0.111	-0.221
-232.800	-140.592	0.175	-0.018
-231.786	-200.000	0.002	0.224
-230.771	277.017	-0.177	0.312
-229.757	800.000	-0.057	-0.173
-228.742	226.423	0.060	-0.096
-227.727	-200.000	-0.037	0.262
-226.713	-138.356	0.248	0.027
-225.698	800.000	0.038	-0.115
-224.684	-200.000	0.008	0.163
-223.669	-69.932	-0.210	-0.079
-222.655	800.000	-0.067	0.245
-221.640	-100.180	0.443	0.109
-220.625	27.557	-0.395	0.329
-219.611	-119.502	0.171	-0.029
-218.596	722.278	-0.103	-0.270
-217.582	280.124	0.112	-0.199
-216.567	395.412	0.041	-0.085
-215.552	11.519	0.153	-0.116
-214.538	10.354	0.304	-0.229
-213.523	130.963	-0.314	0.398
-212.509	-98.130	0.454	0.115
-211.494	596.556	0.096	-0.235
-210.479	3.048	0.336	0.241
-209.465	-38.029	-0.349	0.184
-208.450	31.467	-0.141	0.119
-207.436	90.625	0.127	0.140
-206.421	-200.000	0.032	-0.177
-205.406	-40.100	-0.098	-0.051
-204.392	-200.000	0.015	-0.200
-203.377	-109.598	0.110	-0.023
-202.363	-63.278	0.108	0.044
-201.348	87.359	0.132	-0.145
-200.333	-200.000	-0.008	-0.153
-199.319	800.000	0.058	0.181
-198.304	-52.563	-0.530	0.242
-197.290	-120.027	-0.412	-0.070
-196.275	-83.729	0.127	-0.040
-195.260	-200.000	-0.003	0.441
-194.246	800.000	-0.039	0.152
-193.231	29.415	-0.225	-0.189
-192.217	87.564	0.134	0.146
-191.202	94.152	0.085	-0.096
-190.187	800.000	0.071	0.204
-189.173	326.045	0.058	0.110
-188.158	-15.417	0.295	-0.186
-187.144	225.800	-0.106	0.169
-186.129	208.264	0.222	0.343
-185.114	-25.516	0.253	-0.147
-184.100	362.081	-0.032	0.064
-183.085	-200.000	-0.004	-0.088
-182.071	667.279	0.111	0.283
-181.056	745.540	-0.094	0.250
-180.042	-12.368	0.182	-0.117
-179.027	235.203	0.199	0.325
-178.012	800.000	-0.058	-0.186
-176.998	-6.807	0.182	0.122
-175.983	-182.332	0.360	0.007
-174.969	-200.000	0.007	-0.223
-173.954	800.000	0.085	0.291
-172.939	252.975	0.084	-0.142
-171.925	57.476	0.062	-0.060
-170.910	645.353	-0.034	0.087
-169.896	-34.230	-0.530	-0.288
-168.881	-200.000	0.017	-0.159
-167.866	201.140	0.145	0.221
-166.852	-200.000	-0.023	-0.126
-165.837	-34.067	0.115	-0.063
-164.823	-200.000	0.032	0.327
-163.808	643.371	0.027	-0.067
-162.793	18.076	0.167	-0.132
-161.779	-200.000	0.010	-0.087
-160.764	800.000	-0.062	-0.209
-159.750	-200.000	-0.010	-0.180
-158.735	250.619	0.012	-0.021
-157.720	5.139	0.247	0.179
-156.706	169.259	0.041	-0.058
-155.691	-30.074	-0.041	0.023
-154.677	-200.000	-0.041	0.202
-153.662	332.257	0.050	0.096
-152.647	4.533	0.146	-0.106
-151.633	67.925	0.191	0.193
-150.618	113.263	-0.095	-0.113
-149.604	-31.513	0.200	-0.111
-148.589	-105.256	0.120	-0.027
-147.574	-200.000	-0.001	-0.231
-146.560	-200.000	0.018	-0.230
-145.545	24.563	0.225	0.184
-144.531	-200.000	0.027	-0.203
-143.516	-200.000	-0.026	0.442
-142.502	-57.742	-0.127	-0.055
-141.487	-200.000	-0.008	0.100
-140.472	-13.671	-0.038	-0.024
-139.458	800.000	-0.126	0.370
-138.443	-200.000	-0.011	-0.087
-137.429	-200.000	0.030	-0.305
-136.414	424.116	0.097	0.207
-135.399	-200.000	-0.001	-0.396
-134.385	-200.000	-0.022	-0.131
-133.370	474.703	-0.032	0.071
-132.356	-93.110	0.059	-0.016
-131.341	-129.300	0.495	-0.068
-130.326	-7.028	0.538	0.360
-129.312	-87.999	-0.292	-0.086
-128.297	83.448	0.159	-0.171
-127.283	-118.611	0.212	0.037
-126.268	196.840	-0.085	-0.128
-125.253	80.747	-0.176	-0.188
-124.239	-200.000	0.003	0.262
-123.224	-111.002	0.049	0.010
-122.210	800.000	-0.049	0.154
