DTS Sentinel unit serial number:	SN413079Multiplexer serial number:	ORYXHardware model number:	OX4-SRSoftware version number:	ORYX F/W v4.00 Oryx Data Collector v3.7.2.0data status	okinstallation	princeton_trtdifferential loss correction	single-endedforward channel	channel 3reverse channel	N/Adate	2019/09/19time	03:28:34forward acquisition time	60.00reverse acquisition time	0.00gamma	496.2192k internal	0.2348k external	0.2348temperature offset calibration	0.9989default loss term (dB/km)	0.3790temperature slope calibration	1.0000multiplexer offset coefficient	1.0000multiplexer slope coefficient	1.0000fibre end	0.00T internal ref (°C)	20.64T ext. ref 1 (°C)	0.65T ext. ref 2 (°C)	14.27length (m)	temperature (°C)	Stokes	anti-Stokes-747.200	23.045	-0.248	0.204
-746.185	-26.326	-0.186	0.109
-745.171	-65.503	-0.287	-0.115
-744.156	294.933	0.099	0.181
-743.142	800.000	0.095	0.289
-742.127	-131.463	0.154	0.020
-741.112	717.675	-0.134	-0.355
-740.098	375.093	0.166	-0.337
-739.083	441.750	-0.034	-0.075
-738.069	800.000	0.092	0.333
-737.054	299.743	-0.310	0.570
-736.039	-200.000	0.021	0.111
-735.025	110.639	0.111	-0.133
-734.010	800.000	0.112	0.458
-732.996	-66.061	0.302	-0.120
-731.981	-48.688	-0.126	0.061
-730.966	2.322	0.173	0.125
-729.952	-79.451	-0.204	0.069
-728.937	618.362	0.125	-0.315
-727.923	100.362	0.084	0.097
-726.908	800.000	0.049	-0.147
-725.894	547.360	-0.049	-0.116
-724.879	297.603	-0.194	-0.355
-723.864	-173.980	-0.392	-0.012
-722.850	-121.844	0.034	-0.006
-721.835	-15.875	-0.227	-0.144
-720.821	125.315	0.106	-0.134
-719.806	42.508	-0.200	-0.181
-718.791	280.396	-0.079	0.141
-717.777	477.883	-0.136	0.306
-716.762	-50.995	-0.228	0.107
-715.748	-120.212	-0.027	-0.005
-714.733	450.088	-0.115	0.253
-713.718	-6.320	-0.088	0.060
-712.704	-12.581	-0.023	-0.015
-711.689	800.000	-0.058	0.197
-710.675	-134.076	-0.318	-0.039
-709.660	61.119	0.066	-0.065
-708.645	800.000	0.050	-0.178
-707.631	6.339	0.228	-0.169
-706.616	-125.535	-0.066	0.010
-705.602	17.544	0.131	0.104
-704.587	800.000	-0.027	-0.104
-703.572	-200.000	-0.006	-0.139
-702.558	-137.587	0.080	-0.009
-701.543	-200.000	0.001	0.188
-700.529	210.955	-0.064	0.100
-699.514	-200.000	0.080	0.357
-698.499	-98.474	-0.061	0.016
-697.485	800.000	0.121	0.365
-696.470	32.064	0.208	0.178
-695.456	16.514	0.129	-0.102
-694.441	-76.544	-0.284	0.099
-693.426	800.000	-0.104	0.349
-692.412	-80.093	0.316	-0.106
-691.397	-200.000	-0.028	0.131
-690.383	-17.729	-0.237	-0.148
-689.368	561.311	0.175	-0.422
-688.354	-47.697	0.082	-0.040
-687.339	-28.703	0.165	0.095
-686.324	161.386	0.107	-0.149
-685.310	-109.063	0.131	-0.028
-684.295	-200.000	0.001	0.154
-683.281	-26.580	-0.302	-0.176
-682.266	80.358	0.115	0.124
-681.251	-64.089	-0.258	0.105
-680.237	-120.628	-0.280	0.047
-679.222	-82.644	0.470	-0.152
-678.208	17.627	0.055	-0.043
-677.193	-68.143	0.462	-0.179
-676.178	-17.228	0.250	-0.157
-675.164	-147.779	-0.090	0.007
-674.149	174.919	-0.052	0.075
-673.135	-200.000	-0.019	0.082
-672.120	800.000	0.088	0.318
-671.105	211.400	-0.087	0.137
-670.091	12.008	-0.205	0.157
-669.076	297.022	0.157	-0.287
-668.062	-200.000	-0.019	-0.122
-667.047	800.000	-0.056	0.160
-666.032	674.627	-0.110	-0.284
-665.018	800.000	0.088	0.247
-664.003	-70.243	-0.076	-0.029
-662.989	162.023	0.230	-0.321
-661.974	-101.983	-0.153	-0.037
-660.959	-111.789	-0.071	-0.014
-659.945	-57.435	-0.299	0.131
-658.930	-36.920	0.328	-0.175
-657.916	203.980	0.084	-0.130
-656.901	800.000	0.061	-0.193
-655.886	800.000	-0.122	-0.359
-654.872	-13.525	0.141	0.091
-653.857	800.000	-0.108	-0.363
-652.843	281.927	-0.139	-0.248
-651.828	-137.149	0.216	0.025
-650.814	-149.979	0.257	-0.020
-649.799	-12.269	-0.283	-0.184
-648.784	-99.048	-0.037	0.009
-647.770	-200.000	0.005	-0.355
-646.755	179.526	-0.134	0.196
-645.741	549.966	0.147	-0.351
-644.726	-200.000	0.025	0.462
-643.711	800.000	-0.062	-0.202
-642.697	512.311	-0.183	0.425
-641.682	-34.173	-0.183	0.100
-640.668	466.517	-0.251	-0.559
-639.653	-136.151	-0.263	0.031
-638.638	44.294	0.038	-0.034
-637.624	-101.299	-0.291	-0.071
-636.609	-81.843	-0.102	-0.033
-635.595	800.000	0.138	-0.423
-634.580	-200.000	-0.014	-0.083
-633.565	-112.492	-0.200	-0.040
-632.551	83.598	-0.112	0.122
-631.536	-200.000	0.010	-0.078
-630.522	311.586	-0.093	-0.173
-629.507	213.732	0.053	-0.083
-628.492	84.019	-0.101	0.110
-627.478	800.000	0.067	-0.206
-626.463	-114.062	0.079	0.015
-625.449	800.000	0.045	0.127
-624.434	-59.833	0.213	-0.091
-623.419	-200.000	0.018	0.098
-622.405	-200.000	-0.002	0.023
-621.390	-113.945	-0.226	-0.044
-620.376	-113.575	0.115	0.022
-619.361	-53.749	-0.430	-0.195
-618.346	-1.031	-0.099	0.070
-617.332	-40.728	-0.052	-0.027
-616.317	253.786	-0.145	-0.246
-615.303	800.000	0.015	0.058
-614.288	-85.271	0.257	-0.080
-613.273	-75.382	-0.245	-0.087
-612.259	64.842	0.086	-0.086
-611.244	-13.805	-0.193	-0.124
-610.230	800.000	0.053	-0.203
-609.215	66.429	0.110	-0.111
-608.201	-161.299	-0.261	-0.013
-607.186	-125.286	0.264	0.040
-606.171	743.128	-0.040	0.106
-605.157	-13.229	0.324	-0.209
-604.142	-200.000	0.043	-0.263
-603.128	-65.726	0.136	-0.054
-602.113	91.195	0.211	-0.235
-601.098	-146.303	-0.381	0.033
-600.084	800.000	0.044	0.184
-599.069	381.536	-0.041	-0.084
-598.055	-91.551	-0.131	-0.037
-597.040	-125.855	0.277	0.041
-596.025	-140.946	-0.284	0.029
-595.011	37.521	0.369	-0.325
-593.996	348.147	-0.025	-0.049
-592.982	-200.000	0.057	0.524
-591.967	-60.947	0.156	-0.065
-590.952	-38.966	0.205	0.107
-589.938	-200.000	-0.149	0.000
-588.923	-33.698	-0.418	-0.229
-587.909	800.000	0.097	-0.306
-586.894	-200.000	0.073	0.333
-585.879	381.727	-0.070	0.143
-584.865	-5.260	0.119	0.081
-583.850	-200.000	0.003	0.316
-582.836	800.000	-0.079	0.262
-581.821	-18.401	-0.312	0.193
-580.806	-80.306	-0.070	-0.023
-579.792	-185.120	0.293	-0.005
-578.777	95.463	-0.079	-0.089
-577.763	50.428	-0.067	-0.063
-576.748	139.387	0.107	0.140
-575.733	21.789	0.087	-0.070
-574.719	-73.645	-0.201	-0.073
-573.704	-83.032	0.182	-0.058
-572.690	513.360	-0.115	0.267
-571.675	-104.320	0.105	-0.024
-570.661	-200.000	0.038	0.221
-569.646	-200.000	-0.012	-0.192
-568.631	-104.901	0.182	0.041
-567.617	418.020	0.049	0.104
-566.602	131.544	0.254	-0.323
-565.588	-36.105	-0.507	-0.272
-564.573	236.046	0.173	-0.285
-563.558	-152.567	-0.220	0.016
-562.544	370.730	0.008	-0.016
-561.529	8.240	0.029	-0.021
-560.515	57.170	-0.195	0.189
-559.500	163.296	-0.076	-0.106
-558.485	-9.167	-0.293	0.194
-557.471	-77.319	0.354	0.122
-556.456	-67.050	-0.276	-0.108
-555.442	2.632	0.248	-0.179
-554.427	-200.000	-0.010	0.116
-553.412	190.211	-0.194	0.289
-552.398	18.639	-0.153	0.122
-551.383	-41.955	-0.331	-0.168
-550.369	-138.075	0.194	-0.021
-549.354	-69.358	0.197	-0.075
-548.339	256.320	0.196	-0.333
-547.325	2.193	-0.314	0.225
-546.310	-139.342	-0.035	-0.004
-545.296	37.628	0.351	0.309
-544.281	800.000	-0.017	-0.065
-543.266	-86.908	-0.247	0.075
-542.252	70.658	0.199	-0.204
-541.237	3.475	-0.237	0.171
-540.223	14.255	0.121	0.093
-539.208	-150.160	0.061	0.005
-538.193	258.656	0.046	-0.079
-537.179	800.000	-0.099	0.385
-536.164	180.977	0.174	-0.253
-535.150	161.606	0.115	0.159
-534.135	800.000	0.055	0.152
-533.121	69.692	0.076	-0.078
-532.106	-19.813	-0.292	0.179
-531.091	10.348	0.240	-0.181
-530.077	-72.196	-0.341	0.125
-529.062	63.093	-0.113	-0.112
-528.048	-95.230	0.161	0.043
-527.033	-200.000	0.034	0.258
-526.018	-116.010	0.055	0.010
-525.004	-200.000	-0.005	-0.094
-523.989	208.115	-0.198	0.306
-522.975	-162.823	-0.321	-0.016
-521.960	-200.000	0.028	0.164
-520.945	26.836	0.142	-0.118
-519.931	31.695	0.296	-0.252
-518.916	9.619	-0.185	-0.139
-517.902	-200.000	-0.028	-0.124
-516.887	-136.886	-0.366	0.042
-515.872	-133.843	-0.363	-0.045
-514.858	-187.648	-0.256	-0.003
-513.843	-115.112	0.333	0.063
-512.829	51.772	-0.209	-0.197
-511.814	101.510	-0.115	-0.133
-510.799	138.713	-0.132	0.172
-509.785	348.964	0.040	-0.078
-508.770	-200.000	0.016	0.129
-507.756	294.963	0.081	0.147
-506.741	-200.000	0.067	0.354
-505.726	223.404	0.112	-0.179
-504.712	-41.799	-0.137	0.070
-503.697	800.000	-0.126	0.462
-502.683	-200.000	0.030	0.204
-501.668	-72.267	-0.201	0.074
-500.653	120.679	-0.116	-0.143
-499.639	-49.388	-0.214	-0.101
-498.624	800.000	0.032	0.114
-497.610	-65.801	-0.031	0.012
-496.595	-120.163	-0.497	-0.084
-495.581	-37.118	-0.269	-0.142
-494.566	-200.000	-0.040	-0.198
-493.551	-112.869	0.077	-0.015
-492.537	800.000	0.040	-0.167
-491.522	236.297	0.042	0.069
-490.508	-118.532	0.205	0.036
-489.493	-53.367	-0.097	0.044
-488.478	-101.642	-0.315	-0.076
-487.464	-77.161	-0.354	-0.122
-486.449	-200.000	0.002	-0.063
-485.435	236.250	0.166	-0.272
-484.420	800.000	-0.098	-0.299
-483.405	-60.772	0.180	-0.076
-482.391	-162.620	0.389	-0.019
-481.376	31.420	-0.276	-0.235
-480.362	-103.453	0.030	0.007
-479.347	-18.494	-0.205	0.126
-478.332	-150.342	0.118	0.009
-477.318	276.426	0.210	0.369
-476.303	-50.826	0.253	-0.118
-475.289	29.669	-0.080	-0.068
-474.274	-36.365	-0.280	-0.149
-473.259	35.996	0.230	-0.200
-472.245	582.549	0.197	-0.477
-471.230	-20.484	-0.078	-0.048
-470.216	42.655	0.123	-0.111
-469.201	377.202	0.143	0.289
-468.186	32.155	-0.124	-0.106
-467.172	107.408	-0.098	0.116
-466.157	234.047	0.208	0.338
-465.143	800.000	0.030	-0.103
-464.128	-164.812	0.285	0.013
-463.113	-94.173	-0.354	0.096
-462.099	-186.467	-0.245	0.003
-461.084	-30.681	-0.183	0.102
-460.070	5.185	-0.159	-0.115
-459.055	800.000	0.085	0.316
-458.040	-17.843	0.022	0.014
-457.026	800.000	0.034	0.103
-456.011	-200.000	-0.039	0.391
-454.997	-38.550	-0.071	0.037
-453.982	-200.000	-0.031	-0.266
-452.968	298.863	-0.033	0.060
-451.953	-98.881	0.107	0.027
-450.938	-18.958	0.222	0.137
-449.924	800.000	0.049	-0.173
-448.909	15.250	-0.071	0.055
-447.895	-42.406	0.080	0.040
-446.880	376.808	-0.133	-0.268
-445.865	-200.000	0.020	-0.249
-444.851	-141.664	-0.266	-0.026
-443.836	-200.000	-0.027	-0.207
-442.822	40.783	-0.134	-0.119
-441.807	-141.145	-0.012	0.001
-440.792	151.490	-0.128	-0.173
-439.778	-74.855	0.166	-0.059
-438.763	21.607	0.037	-0.029
-437.749	82.495	-0.044	0.047
-436.734	-122.762	0.069	-0.011
-435.719	-104.202	0.334	0.077
-434.705	-65.858	-0.244	-0.096
-433.690	174.039	0.053	-0.075
-432.676	800.000	0.159	-0.503
-431.661	-96.135	-0.270	0.071
-430.646	-140.829	0.240	0.024
-429.632	-91.918	0.451	-0.126
-428.617	-200.000	0.001	0.009
-427.603	-119.319	-0.131	0.022
-426.588	-200.000	-0.010	0.085
-425.573	-74.193	-0.288	0.103
-424.559	324.827	-0.167	0.315
-423.544	-179.868	-0.234	0.005
-422.530	-47.783	0.252	-0.120
-421.515	62.451	-0.112	0.110
-420.500	-200.000	0.023	-0.250
-419.486	-114.558	-0.319	0.060
-418.471	49.615	-0.371	0.345
-417.457	-90.929	0.119	0.034
-416.442	241.627	0.156	-0.257
-415.428	800.000	-0.066	0.182
-414.413	20.006	0.113	-0.090
-413.398	-97.575	-0.056	-0.014
-412.384	150.660	0.104	0.139
-411.369	-200.000	0.005	-0.193
-410.355	-200.000	-0.024	-0.302
-409.340	36.546	0.097	-0.085
-408.325	-198.716	-0.279	-0.002
-407.311	-123.455	-0.130	-0.020
-406.296	-200.000	0.091	0.448
-405.282	-67.151	-0.234	0.091
-404.267	-200.000	0.182	-0.001
-403.252	-173.422	-0.057	0.002
-402.238	-80.988	-0.112	0.036
-401.223	-151.218	0.367	0.027
-400.209	464.417	-0.131	0.289
-399.194	-200.000	0.024	0.304
-398.179	115.122	-0.135	-0.163
-397.165	115.742	-0.057	-0.069
-396.150	-200.000	-0.001	0.121
-395.136	38.884	-0.061	0.053
-394.121	459.841	-0.022	0.049
-393.106	199.716	0.228	-0.344
-392.092	112.589	-0.171	0.204
-391.077	-166.028	0.188	0.008
-390.063	-90.703	0.336	-0.096
-389.048	20.550	-0.327	0.261
-388.033	255.296	-0.214	0.361
-387.019	-104.667	-0.181	0.041
-386.004	-107.255	-0.333	0.072
-384.990	47.240	0.183	-0.168
-383.975	94.231	0.216	0.242
-382.960	-84.023	0.219	0.068
-381.946	8.032	-0.146	0.108
-380.931	800.000	0.048	0.186
-379.917	800.000	-0.022	-0.064
-378.902	46.893	-0.101	-0.093
-377.888	-142.495	-0.221	-0.021
-376.873	800.000	-0.082	-0.323
-375.858	264.526	0.113	-0.193
-374.844	138.091	-0.207	-0.267
-373.829	-109.266	0.229	-0.048
-372.815	67.330	-0.223	0.224
-371.800	-200.000	-0.043	-0.401
-370.785	800.000	0.052	-0.155
-369.771	-200.000	0.074	-0.446
-368.756	-60.701	0.356	0.149
-367.742	548.999	0.076	-0.180
-366.727	-52.213	0.260	-0.119
-365.712	-42.094	0.048	0.024
-364.698	-36.681	-0.334	-0.177
-363.683	-200.000	0.019	0.102
-362.669	-200.000	0.027	-0.145
-361.654	75.109	-0.346	0.359
-360.639	113.759	0.200	0.239
-359.625	800.000	-0.018	0.072
-358.610	800.000	-0.095	-0.309
-357.596	25.500	-0.206	0.168
-356.581	186.056	-0.020	-0.029
-355.566	-116.983	0.170	0.030
-354.552	251.647	0.088	0.147
-353.537	-200.000	0.003	0.036
-352.523	65.279	0.038	0.038
-351.508	-121.585	0.043	0.007
-350.493	-200.000	-0.026	0.473
-349.479	-200.000	-0.014	0.217
-348.464	-56.387	-0.104	0.045
-347.450	131.665	-0.167	-0.211
-346.435	-30.102	0.062	-0.034
-345.420	219.662	0.081	-0.128
-344.406	56.487	0.147	-0.141
-343.391	13.898	0.105	-0.080
-342.377	-57.868	-0.292	-0.126
-341.362	-44.006	0.267	0.132
-340.348	800.000	-0.181	-0.495
-339.333	258.294	0.048	0.081
-338.318	800.000	0.032	0.100
-337.304	800.000	-0.004	0.015
-336.289	-61.464	-0.096	0.040
-335.275	-200.000	0.064	-0.381
-334.260	-200.000	-0.035	-0.364
-333.245	-200.000	-0.011	0.172
-332.231	-68.617	-0.152	0.058
-331.216	800.000	0.037	-0.119
-330.202	-80.250	0.240	0.079
-329.187	239.970	-0.085	0.139
-328.172	-200.000	0.000	-0.430
-327.158	311.274	0.069	0.127
-326.143	140.584	0.163	-0.211
-325.129	389.894	-0.095	-0.193
-324.114	409.153	0.170	0.354
-323.099	-200.000	-0.030	0.290
-322.085	17.033	0.269	0.210
-321.070	-135.048	-0.196	0.023
-320.056	-200.000	-0.027	0.140
-319.041	111.585	0.178	-0.211
-318.026	67.926	-0.182	-0.183
-317.012	98.801	-0.071	-0.081
-315.997	-200.000	-0.000	0.092
-314.983	167.906	0.166	-0.232
-313.968	-200.000	0.077	-0.333
-312.953	72.830	0.108	0.110
-311.939	-91.620	-0.183	-0.051
-310.924	430.712	-0.115	0.244
-309.910	291.406	0.184	0.329
-308.895	800.000	0.087	0.250
-307.880	356.806	0.108	-0.212
-306.866	99.783	-0.204	-0.232
-305.851	321.591	0.200	-0.375
-304.837	-75.219	-0.218	0.076
-303.822	-200.000	0.010	-0.473
-302.807	4.478	-0.174	0.125
-301.793	-200.000	-0.029	-0.278
-300.778	800.000	-0.026	-0.103
-299.764	-140.460	0.121	-0.012
-298.749	-200.000	-0.043	0.298
-297.735	800.000	-0.031	0.087
-296.720	307.457	-0.042	-0.077
-295.705	92.196	0.084	-0.093
-294.691	-33.559	0.043	0.023
-293.676	-130.618	0.230	-0.030
-292.662	157.193	-0.151	-0.204
-291.647	123.123	-0.244	-0.300
-290.632	-38.581	0.296	0.154
-289.618	-200.000	0.011	-0.094
-288.603	-200.000	-0.003	0.090
-287.589	-200.000	-0.035	0.178
-286.574	91.464	0.124	0.137
-285.559	159.825	0.170	-0.233
-284.545	-88.700	0.062	-0.018
-283.530	-59.337	-0.285	0.120
-282.516	-17.469	0.416	0.257
-281.501	800.000	-0.114	0.352
-280.486	800.000	0.028	-0.084
-279.472	-200.000	-0.036	0.305
-278.457	-120.654	0.262	-0.044
-277.443	549.066	0.104	-0.244
-276.428	261.987	-0.134	-0.228
-275.413	264.836	0.052	-0.089
-274.399	-162.297	-0.257	0.013
-273.384	800.000	-0.035	0.098
-272.370	-155.762	0.162	-0.010
-271.355	97.290	0.106	0.119
-270.340	-200.000	-0.028	-0.208
-269.326	-200.000	-0.030	-0.172
-268.311	800.000	-0.053	-0.215
-267.297	-50.743	0.158	0.073
-266.282	-10.204	-0.118	0.077
-265.267	-200.000	-0.007	0.330
-264.253	83.950	0.207	-0.221
-263.238	77.791	0.155	0.162
-262.224	95.885	0.231	-0.259
-261.209	-150.106	0.094	0.007
-260.195	-85.779	-0.214	-0.065
-259.180	103.204	0.208	0.239
-258.165	8.179	0.105	-0.078
-257.151	-200.000	-0.007	-0.235
-256.136	782.056	0.103	-0.277
-255.122	-89.719	0.291	-0.084
-254.107	-4.353	-0.047	-0.032
-253.092	800.000	0.022	-0.085
-252.078	-200.000	-0.024	-0.225
-251.063	-157.074	0.294	0.018
-250.049	-77.730	0.362	0.123
-249.034	-167.062	0.199	-0.008
-248.019	-200.000	-0.038	0.000
-247.005	-105.277	-0.065	-0.015
-245.990	243.487	0.197	0.324
-244.976	-159.905	0.206	-0.011
-243.961	-200.000	0.001	0.033
-242.946	-200.000	-0.001	-0.235
-241.932	-150.665	-0.158	0.012
-240.917	-144.716	-0.370	-0.033
-239.903	-58.911	0.059	0.025
-238.888	591.997	-0.126	0.305
-237.873	220.602	0.183	0.287
-236.859	-50.457	0.170	-0.079
-235.844	-22.942	-0.279	-0.165
-234.830	-27.572	0.134	-0.076
-233.815	-63.524	-0.160	-0.065
-232.800	80.188	0.126	0.133
-231.786	474.028	0.027	-0.061
-230.771	-147.978	0.150	0.012
-229.757	-82.135	0.269	-0.086
-228.742	258.475	0.108	0.182
-227.727	699.199	0.054	0.139
-226.713	-83.028	0.202	-0.064
-225.698	-126.911	0.434	-0.063
-224.684	261.568	0.148	0.251
-223.669	-92.406	-0.120	0.033
-222.655	522.204	0.082	0.188
-221.640	60.833	0.120	-0.116
-220.625	-98.789	0.088	0.022
-219.611	-110.508	-0.138	-0.028
-218.596	152.775	-0.143	0.191
-217.582	172.159	0.170	0.239
-216.567	192.546	-0.046	-0.068
-215.552	800.000	0.064	0.206
-214.538	800.000	-0.111	-0.409
-213.523	507.736	0.072	0.164
-212.509	66.920	-0.033	-0.032
-211.494	-200.000	-0.022	0.212
-210.479	-63.663	0.305	-0.123
-209.465	-47.905	-0.038	-0.018
-208.450	-200.000	-0.023	0.152
-207.436	800.000	0.057	0.236
-206.421	65.853	-0.108	0.107
-205.406	-28.442	-0.215	-0.122
-204.392	-200.000	-0.023	0.393
-203.377	87.361	0.009	0.009
-202.363	33.549	-0.259	0.220
-201.348	219.185	0.136	-0.213
-200.333	-120.265	0.201	-0.034
-199.319	-200.000	-0.009	-0.156
-198.304	-57.164	-0.153	0.066
-197.290	-64.681	0.446	0.177
-196.275	-111.469	-0.044	-0.009
-195.260	800.000	-0.028	0.104
-194.246	-50.953	-0.071	-0.033
-193.231	-98.144	-0.208	-0.052
-192.217	-79.206	0.316	0.105
-191.202	-110.941	0.037	0.007
-190.187	76.746	0.031	-0.033
-189.173	-14.305	-0.182	0.115
-188.158	-15.577	0.137	-0.086
-187.144	-23.225	-0.117	-0.069
-186.129	-115.492	-0.121	-0.022
-185.114	749.577	0.048	-0.126
-184.100	264.285	-0.162	0.276
-183.085	-56.544	0.141	-0.061
-182.071	145.353	-0.190	0.248
-181.056	109.510	0.086	-0.101
-180.042	509.254	-0.079	-0.180
-179.027	330.983	0.080	0.151
-178.012	800.000	-0.050	0.180
-176.998	118.181	0.178	-0.215
-175.983	71.236	0.117	0.119
-174.969	-9.893	0.230	0.149
-173.954	-200.000	-0.022	0.110
-172.939	51.386	0.227	0.211
-171.925	114.416	0.080	-0.095
-170.910	-94.279	-0.126	0.034
-169.896	-142.970	-0.062	0.006
-168.881	20.694	0.281	0.222
-167.866	-200.000	-0.015	0.400
-166.852	-153.826	0.318	-0.021
-165.837	800.000	-0.084	0.278
-164.823	122.606	0.118	0.145
-163.808	800.000	-0.068	0.214
-162.793	-117.622	0.356	0.063
-161.779	7.693	0.151	-0.111
-160.764	-58.128	-0.349	0.149
-159.750	-200.000	0.063	0.315
-158.735	-44.691	0.260	0.127
-157.720	-83.855	-0.150	-0.047
-156.706	-69.672	-0.167	0.063
-155.691	-28.919	0.329	0.184
-154.677	-23.401	-0.218	0.128
-153.662	29.953	0.157	-0.130
-152.647	40.986	0.111	-0.098
-151.633	33.077	-0.120	0.102
-150.618	58.846	0.060	0.057
-149.604	-149.287	0.372	0.029
-148.589	40.080	0.047	0.042
-147.574	74.996	0.281	0.289
-146.560	-200.000	-0.069	0.363
-145.545	-189.247	-0.200	-0.002
-144.531	-106.150	0.515	-0.113
-143.516	-55.256	-0.191	-0.084
-142.502	19.804	0.216	-0.170
-141.487	-86.496	0.301	0.090
-140.472	-60.711	-0.293	-0.121
-139.458	-140.965	-0.153	-0.015
-138.443	253.832	-0.205	0.342
-137.429	26.367	-0.096	0.079
-136.414	489.978	-0.055	0.122
-135.399	-200.000	0.009	-0.085
-134.385	-200.000	-0.043	0.292
-133.370	103.726	0.340	0.389
-132.356	15.529	-0.059	-0.046
-131.341	152.850	-0.130	-0.174
-130.326	-72.641	0.368	0.132
-129.312	-75.887	0.250	-0.086
-128.297	800.000	-0.055	0.148
-127.283	27.935	0.310	0.255
-126.268	-10.579	-0.081	0.052
-125.253	345.773	0.144	-0.276
-124.239	-33.799	-0.222	0.119
-123.224	450.716	0.080	0.171
-122.210	-56.267	0.151	0.066
-121.195	-36.392	-0.080	0.042
