DTS Sentinel unit serial number:	SN413079Multiplexer serial number:	ORYXHardware model number:	OX4-SRSoftware version number:	ORYX F/W v4.00 Oryx Data Collector v3.7.2.0data status	okinstallation	princeton_trtdifferential loss correction	single-endedforward channel	channel 3reverse channel	N/Adate	2019/09/15time	04:56:35forward acquisition time	60.00reverse acquisition time	0.00gamma	496.2192k internal	0.2324k external	0.2324temperature offset calibration	0.9983default loss term (dB/km)	0.3790temperature slope calibration	1.0000multiplexer offset coefficient	1.0000multiplexer slope coefficient	1.0000fibre end	0.00T internal ref (°C)	30.70T ext. ref 1 (°C)	4.84T ext. ref 2 (°C)	25.18length (m)	temperature (°C)	Stokes	anti-Stokes-747.200	-2.839	-0.284	0.200
-746.185	-42.651	-0.310	0.159
-745.171	-52.260	-0.127	-0.059
-744.156	243.428	-0.112	0.189
-743.142	-43.595	0.179	-0.091
-742.127	188.006	-0.154	0.232
-741.112	-166.932	-0.159	-0.007
-740.098	-200.000	-0.033	0.559
-739.083	-200.000	0.009	0.227
-738.069	-200.000	-0.038	0.178
-737.054	278.942	0.029	0.052
-736.039	-36.380	-0.062	-0.034
-735.025	95.876	-0.081	0.093
-734.010	-93.785	-0.123	0.034
-732.996	198.714	-0.277	-0.427
-731.981	18.257	-0.191	-0.154
-730.966	-102.580	0.037	-0.009
-729.952	-35.930	0.228	-0.125
-728.937	-145.411	-0.285	-0.026
-727.923	179.434	0.059	-0.088
-726.908	-65.503	0.271	-0.110
-725.894	6.533	-0.184	0.138
-724.879	-127.511	-0.382	0.056
-723.864	-200.000	0.020	-0.151
-722.850	424.474	0.126	0.272
-721.835	-34.887	0.093	0.051
-720.821	-77.196	0.057	-0.020
-719.806	391.003	0.051	0.106
-718.791	-190.674	-0.092	0.001
-717.777	175.913	-0.099	-0.144
-716.762	12.368	-0.370	-0.287
-715.748	23.976	0.324	-0.269
-714.733	-157.047	-0.297	-0.018
-713.718	-200.000	0.009	0.196
-712.704	-25.623	-0.107	0.063
-711.689	-200.000	0.012	0.141
-710.675	21.684	0.039	-0.032
-709.660	360.461	-0.129	-0.261
-708.645	743.491	0.023	-0.064
-707.631	40.883	0.056	0.051
-706.616	800.000	0.009	-0.035
-705.602	-200.000	0.052	-0.465
-704.587	104.473	0.101	0.120
-703.572	-140.751	0.452	0.047
-702.558	-200.000	-0.034	0.312
-701.543	124.898	0.021	0.026
-700.529	-200.000	-0.033	-0.230
-699.514	-200.000	0.039	-0.347
-698.499	26.477	-0.271	-0.228
-697.485	96.495	0.125	0.145
-696.470	235.160	-0.077	0.129
-695.456	523.602	-0.158	0.373
-694.441	-61.636	-0.077	0.033
-693.426	-96.309	-0.306	0.082
-692.412	-27.572	-0.350	-0.205
-691.397	-200.000	-0.011	-0.213
-690.383	-58.805	-0.367	-0.160
-689.368	134.233	0.135	0.177
-688.354	-104.540	0.168	0.039
-687.339	36.466	-0.193	0.171
-686.324	241.620	0.139	-0.233
-685.310	-200.000	0.012	-0.089
-684.295	-200.000	0.044	-0.231
-683.281	66.127	-0.189	-0.194
-682.266	-193.186	0.272	-0.002
-681.251	-37.940	0.040	-0.022
-680.237	-69.538	-0.192	-0.074
-679.222	14.289	0.176	0.138
-678.208	4.132	0.140	0.103
-677.193	-117.502	-0.230	-0.042
-676.178	-50.600	0.107	-0.051
-675.164	73.544	-0.257	-0.271
-674.149	-81.644	-0.313	-0.103
-673.135	0.655	-0.266	-0.192
-672.120	-69.367	-0.197	-0.076
-671.105	-16.986	0.130	-0.082
-670.091	-79.527	0.323	0.110
-669.076	182.366	-0.085	-0.126
-668.062	138.751	0.283	0.375
-667.047	210.884	-0.090	0.142
-666.032	-24.192	0.122	-0.073
-665.018	-32.384	-0.187	0.105
-664.003	-200.000	0.004	0.024
-662.989	-110.252	-0.374	-0.078
-661.974	88.413	0.114	0.127
-660.959	273.686	-0.070	0.124
-659.945	228.183	-0.039	-0.064
-658.930	-151.604	-0.049	-0.004
-657.916	-164.339	0.250	0.012
-656.901	-200.000	0.013	-0.095
-655.886	800.000	-0.065	-0.204
-654.872	-200.000	0.004	-0.034
-653.857	-196.191	-0.184	0.001
-652.843	-200.000	0.018	-0.136
-651.828	800.000	-0.063	-0.237
-650.814	335.668	0.112	-0.218
-649.799	195.507	-0.053	0.081
-648.784	138.455	0.176	0.233
-647.770	800.000	-0.077	-0.227
-646.755	323.501	-0.032	-0.062
-645.741	-150.005	0.256	-0.020
-644.726	-41.674	-0.193	-0.099
-643.711	-200.000	-0.040	-0.195
-642.697	92.798	-0.169	-0.192
-641.682	47.922	-0.155	-0.145
-640.668	406.487	0.137	-0.292
-639.653	-200.000	-0.130	0.000
-638.638	193.259	-0.196	-0.298
-637.624	158.329	-0.018	0.025
-636.609	2.117	-0.353	0.257
-635.595	-200.000	-0.018	-0.490
-634.580	-89.728	0.194	-0.057
-633.565	51.760	-0.062	-0.059
-632.551	-87.231	0.225	-0.069
-631.536	130.423	0.096	0.124
-630.522	-191.360	0.138	-0.001
-629.507	-9.178	0.113	-0.076
-628.492	319.593	-0.017	0.033
-627.478	-70.148	0.350	0.134
-626.463	769.536	0.027	-0.074
-625.449	-79.971	-0.284	-0.096
-624.434	36.538	0.143	0.127
-623.419	-83.100	0.246	0.080
-622.405	4.473	0.188	0.139
-621.390	-24.128	-0.072	0.043
-620.376	-200.000	0.020	-0.267
-619.361	75.061	-0.139	0.147
-618.346	-21.527	-0.158	-0.097
-617.332	-200.000	0.017	-0.157
-616.317	-49.331	0.082	0.039
-615.303	-87.328	-0.196	0.060
-614.288	185.600	0.043	-0.064
-613.273	-80.634	0.240	0.080
-612.259	99.908	0.172	0.200
-611.244	312.676	-0.070	-0.133
-610.230	-126.940	0.194	0.029
-609.215	430.986	-0.106	0.231
-608.201	-23.936	-0.046	0.028
-607.186	-150.523	-0.205	-0.016
-606.171	-116.812	-0.100	0.018
-605.157	107.395	-0.123	-0.147
-604.142	-170.067	-0.334	0.012
-603.128	-31.917	-0.075	-0.042
-602.113	-200.000	-0.052	0.449
-601.098	77.308	-0.065	-0.070
-600.084	-50.373	-0.072	-0.034
-599.069	-50.690	-0.138	-0.065
-598.055	-200.000	-0.003	-0.074
-597.040	87.934	-0.094	-0.105
-596.025	-200.000	0.023	0.126
-595.011	-97.084	-0.469	-0.123
-593.996	275.703	-0.032	0.056
-592.982	-144.816	-0.223	0.021
-591.967	30.811	0.408	0.351
-590.952	-200.000	0.044	0.338
-589.938	800.000	0.130	-0.399
-588.923	-183.179	-0.098	0.002
-587.909	800.000	-0.044	0.192
-586.894	800.000	0.070	0.293
-585.879	286.095	-0.133	0.240
-584.865	-200.000	0.025	0.111
-583.850	-200.000	0.005	0.497
-582.836	449.699	-0.075	-0.167
-581.821	178.223	-0.129	0.188
-580.806	35.228	0.064	0.056
-579.792	-9.886	0.204	0.136
-578.777	15.552	-0.105	-0.083
-577.763	-174.944	-0.251	-0.007
-576.748	-200.000	0.007	-0.042
-575.733	800.000	0.035	-0.147
-574.719	-143.060	-0.220	0.021
-573.704	800.000	0.155	-0.570
-572.690	524.402	0.025	-0.058
-571.675	-200.000	-0.031	-0.455
-570.661	-200.000	0.002	-0.202
-569.646	317.323	0.086	0.162
-568.631	-105.873	-0.036	0.008
-567.617	94.202	-0.113	0.129
-566.602	-21.708	0.198	-0.121
-565.588	-23.279	-0.315	-0.190
-564.573	-44.907	-0.131	-0.065
-563.558	-151.700	-0.182	0.013
-562.544	165.469	0.044	0.062
-561.529	334.998	0.172	0.334
-560.515	636.897	-0.117	-0.299
-559.500	-139.926	0.299	0.032
-558.485	-71.344	0.053	-0.020
-557.471	-45.406	0.335	0.167
-556.456	-98.521	0.128	0.033
-555.442	-121.090	-0.186	0.031
-554.427	-25.161	0.181	0.107
-553.412	800.000	-0.055	-0.164
-552.398	-102.874	0.331	0.079
-551.383	-76.099	-0.078	-0.028
-550.369	83.647	0.205	-0.224
-549.354	-88.888	-0.154	0.046
-548.339	321.034	0.044	-0.084
-547.325	209.080	-0.257	-0.403
-546.310	111.543	0.105	-0.127
-545.296	-75.264	0.189	0.068
-544.281	-200.000	-0.012	-0.121
-543.266	800.000	-0.035	-0.151
-542.252	-69.507	-0.412	-0.158
-541.237	800.000	-0.045	-0.129
-540.223	-29.382	-0.291	-0.167
-539.208	800.000	-0.034	-0.120
-538.193	800.000	0.038	-0.135
-537.179	26.375	-0.101	-0.084
-536.164	5.985	0.055	0.041
-535.150	-74.803	0.204	0.073
-534.135	-12.767	0.121	0.079
-533.121	461.799	0.086	-0.191
-532.106	800.000	0.085	-0.329
-531.091	-200.000	0.026	-0.121
-530.077	27.622	-0.138	0.117
-529.062	800.000	0.033	-0.140
-528.048	800.000	-0.078	0.317
-527.033	-106.901	-0.241	0.053
-526.018	351.398	-0.175	-0.348
-525.004	19.483	-0.384	-0.309
-523.989	800.000	-0.044	-0.176
-522.975	68.464	-0.048	0.049
-521.960	569.501	-0.141	0.344
-520.945	-119.442	-0.325	0.056
-519.931	-119.066	0.288	0.051
-518.916	705.653	0.068	-0.179
-517.902	502.931	-0.048	-0.111
-516.887	-48.215	-0.130	0.063
-515.872	13.843	0.141	-0.110
-514.858	244.242	-0.334	-0.561
-513.843	-33.173	0.122	-0.068
-512.829	233.658	0.155	-0.255
-511.814	-200.000	0.070	-0.369
-510.799	291.671	0.136	-0.247
-509.785	800.000	-0.074	0.281
-508.770	44.538	0.228	0.210
-507.756	-78.264	0.203	-0.070
-506.741	80.067	0.029	-0.031
-505.726	-96.442	-0.369	-0.098
-504.712	6.317	-0.212	0.157
-503.697	-97.440	0.253	-0.066
-502.683	-157.271	-0.092	-0.006
-501.668	-200.000	-0.033	-0.185
-500.653	103.049	0.275	0.322
-499.639	-200.000	0.027	-0.178
-498.624	-104.587	-0.375	0.087
-497.610	-140.883	0.234	-0.024
-496.595	551.032	-0.080	0.192
-495.581	-34.340	0.201	0.110
-494.566	-200.000	-0.006	-0.445
-493.551	396.524	0.039	0.081
-492.537	-200.000	0.001	0.253
-491.522	-200.000	0.021	0.118
-490.508	271.848	-0.136	0.239
-489.493	195.015	0.041	-0.062
-488.478	66.769	0.152	-0.154
-487.464	-87.514	0.193	-0.058
-486.449	-9.538	0.173	-0.115
-485.435	-91.497	0.108	0.031
-484.420	27.596	-0.170	0.143
-483.405	727.147	0.071	-0.189
-482.391	84.159	-0.147	-0.161
-481.376	410.874	0.107	0.226
-480.362	-200.000	-0.003	0.088
-479.347	-1.256	0.256	-0.181
-478.332	393.627	0.091	0.189
-477.318	34.524	-0.065	-0.057
-476.303	-200.000	0.033	-0.180
-475.289	-200.000	-0.004	0.058
-474.274	186.384	0.097	-0.145
-473.259	104.190	-0.296	-0.348
-472.245	223.153	-0.141	-0.228
-471.230	121.107	0.088	-0.109
-470.216	480.296	0.045	-0.102
-469.201	18.838	-0.268	0.215
-468.186	1.580	-0.179	-0.129
-467.172	156.684	-0.048	0.066
-466.157	470.356	-0.101	0.227
-465.143	-200.000	0.026	0.126
-464.128	-200.000	-0.033	0.184
-463.113	18.481	0.233	-0.186
-462.099	-119.729	-0.139	-0.024
-461.084	-200.000	0.005	0.205
-460.070	-89.930	-0.125	0.036
-459.055	-70.505	0.305	-0.115
-458.040	-200.000	0.065	0.361
-457.026	-128.531	-0.327	-0.046
-456.011	800.000	0.053	-0.165
-454.997	-97.314	0.424	-0.110
-453.982	-200.000	-0.009	0.279
-452.968	358.104	0.240	0.478
-451.953	-126.652	-0.099	-0.015
-450.938	-121.208	-0.145	0.024
-449.924	-20.372	0.065	-0.040
-448.909	241.867	-0.142	-0.236
-447.895	800.000	0.009	0.038
-446.880	-83.663	-0.144	-0.046
-445.865	-69.628	-0.120	0.046
-444.851	39.464	-0.193	-0.173
-443.836	-72.508	0.047	0.017
-442.822	-49.965	-0.083	-0.039
-441.807	19.009	0.108	0.086
-440.792	-200.000	-0.013	0.066
-439.778	-159.853	-0.120	-0.007
-438.763	-41.657	-0.368	0.189
-437.749	-127.379	0.122	0.018
-436.734	-3.370	-0.090	-0.062
-435.719	800.000	0.123	0.398
-434.705	-69.970	-0.365	0.139
-433.690	223.139	0.193	0.310
-432.676	-104.958	-0.313	-0.072
-431.661	-85.105	-0.214	0.067
-430.646	-30.493	0.167	-0.095
-429.632	-31.892	-0.077	-0.043
-428.617	8.394	-0.242	0.182
-427.603	-112.634	-0.150	0.030
-426.588	78.750	-0.263	0.281
-425.573	517.048	-0.138	0.322
-424.559	-69.135	0.228	0.088
-423.544	-97.064	0.096	0.025
-422.530	-54.209	-0.197	-0.089
-421.515	-64.880	-0.123	0.050
-420.500	53.935	0.081	-0.078
-419.486	76.957	-0.021	0.022
-418.471	-60.674	-0.190	0.080
-417.457	118.209	0.199	0.245
-416.442	-106.793	-0.196	0.043
-415.428	-110.468	0.210	0.043
-414.413	-200.000	0.042	-0.201
-413.398	640.465	0.070	-0.179
-412.384	-58.966	0.095	0.041
-411.369	-1.492	0.242	-0.170
-410.355	444.661	-0.092	-0.201
-409.340	557.085	-0.147	-0.352
-408.325	16.686	0.148	0.117
-407.311	-118.796	-0.293	-0.051
-406.296	-200.000	0.029	0.226
-405.282	-71.089	-0.470	-0.176
-404.267	-24.333	0.139	0.083
-403.252	-17.807	-0.209	0.131
-402.238	528.395	0.061	0.142
-401.223	133.626	0.030	0.038
-400.209	-65.699	0.229	-0.091
-399.194	-21.469	-0.132	-0.080
-398.179	-18.744	0.125	-0.078
-397.165	-200.000	0.012	0.127
-396.150	-73.465	0.612	0.223
-395.136	-93.064	0.154	-0.043
-394.121	-200.000	-0.001	0.201
-393.106	66.317	-0.303	0.306
-392.092	-200.000	0.011	-0.213
-391.077	-64.309	0.430	-0.174
-390.063	-200.000	-0.012	-0.149
-389.048	99.602	-0.055	0.063
-388.033	-189.159	-0.058	0.001
-387.019	-115.525	-0.330	0.062
-386.004	201.719	0.082	-0.126
-384.990	-200.000	-0.012	-0.087
-383.975	82.405	0.102	-0.110
-382.960	-114.159	-0.120	-0.023
-381.946	-150.806	0.105	0.008
-380.931	-200.000	0.028	-0.300
-379.917	-77.999	-0.279	-0.096
-378.902	175.177	-0.034	-0.049
-377.888	-200.000	-0.053	0.310
-376.873	-169.680	0.039	-0.001
-375.858	-6.884	0.356	-0.241
-374.844	-27.075	-0.172	-0.100
-373.829	200.678	-0.159	-0.243
-372.815	42.572	-0.167	-0.151
-371.800	-134.042	0.103	-0.013
-370.785	144.728	-0.207	0.275
-369.771	-143.969	0.260	-0.024
-368.756	800.000	-0.063	0.251
-367.742	72.163	0.092	0.096
-366.727	39.644	0.209	-0.187
-365.712	-117.447	0.335	0.060
-364.698	-0.171	0.265	0.188
-363.683	-175.070	-0.277	0.008
-362.669	458.707	0.229	0.507
-361.654	800.000	-0.092	-0.285
-360.639	-116.375	0.171	-0.031
-359.625	800.000	0.140	0.448
-358.610	248.736	0.059	0.100
-357.596	-36.642	0.477	-0.255
-356.581	-103.549	0.075	-0.017
-355.566	213.133	-0.156	0.244
-354.552	800.000	0.037	-0.109
-353.537	488.375	-0.083	0.188
-352.523	47.219	-0.129	-0.119
-351.508	-106.728	-0.200	0.044
-350.493	-140.655	-0.185	-0.019
-349.479	800.000	-0.091	0.364
-348.464	-70.594	-0.107	-0.040
-347.450	-87.987	-0.233	-0.070
-346.435	-126.002	0.340	-0.051
-345.420	-122.119	0.049	-0.008
-344.406	-200.000	0.020	-0.243
-343.391	82.585	0.041	-0.044
-342.377	158.852	0.091	-0.126
-341.362	800.000	-0.207	-0.575
-340.348	201.393	0.131	-0.201
-339.333	152.110	-0.159	-0.216
-338.318	77.365	-0.084	-0.089
-337.304	105.127	0.258	0.303
-336.289	107.888	-0.130	-0.154
-335.275	515.858	-0.066	-0.152
-334.260	89.243	0.044	-0.049
-333.245	-200.000	0.056	-0.308
-332.231	-144.802	-0.181	-0.017
-331.216	177.864	-0.142	0.205
-330.202	-66.961	0.095	0.037
-329.187	-18.216	-0.033	-0.021
-328.172	183.323	-0.081	0.118
-327.158	-200.000	-0.052	-0.234
-326.143	385.938	-0.105	0.216
-325.129	152.485	0.211	0.286
-324.114	-147.535	-0.357	0.030
-323.099	392.173	0.107	0.220
-322.085	-172.351	-0.209	0.007
-321.070	-7.439	-0.113	0.076
-320.056	800.000	0.087	-0.321
-319.041	138.792	0.106	-0.139
-318.026	-17.367	-0.063	0.039
-317.012	148.684	0.117	0.157
-315.997	800.000	-0.051	0.178
-314.983	-200.000	-0.013	-0.189
-313.968	191.970	-0.098	-0.147
-312.953	-200.000	0.010	-0.250
-311.939	-157.591	0.246	-0.015
-310.924	-118.163	0.239	-0.042
-309.910	-67.642	0.125	-0.049
-308.895	-136.160	0.335	0.039
-307.880	164.067	0.034	-0.047
-306.866	-23.214	0.101	0.061
-305.851	-116.640	0.140	-0.026
-304.837	-25.861	-0.140	-0.082
-303.822	-134.065	0.338	-0.041
-302.807	-147.710	-0.318	0.026
-301.793	-96.270	0.335	-0.088
-300.778	43.895	-0.134	-0.122
-299.764	228.062	-0.131	-0.212
-298.749	-83.209	0.182	-0.058
-297.735	623.627	0.040	-0.101
-296.720	-200.000	-0.018	0.310
-295.705	241.735	0.100	0.166
-294.691	-200.000	-0.021	-0.173
-293.676	-200.000	0.027	0.206
-292.662	-154.168	0.406	0.027
-291.647	-186.291	0.253	0.004
-290.632	499.881	-0.121	-0.277
-289.618	-136.488	0.150	-0.017
-288.603	29.706	-0.118	0.100
-287.589	-38.812	-0.149	-0.078
-286.574	-113.858	-0.273	0.053
-285.559	506.595	0.086	-0.198
-284.545	-127.042	0.380	-0.055
-283.530	497.218	0.066	0.150
-282.516	476.051	0.058	0.130
-281.501	9.090	-0.341	-0.255
-280.486	773.860	-0.054	0.145
-279.472	-200.000	0.050	0.231
-278.457	800.000	0.051	-0.198
-277.443	26.400	0.204	-0.169
-276.428	-101.207	0.155	-0.038
-275.413	102.336	0.124	0.144
-274.399	-200.000	0.003	0.136
-273.384	493.534	-0.123	-0.280
-272.370	-200.000	0.086	0.489
-271.355	-178.607	0.367	-0.008
-270.340	800.000	-0.091	-0.268
-269.326	800.000	0.174	0.515
-268.311	-200.000	0.064	-0.292
-267.297	-128.123	0.243	0.034
-266.282	35.101	0.154	0.133
-265.267	-132.603	0.116	0.015
-264.253	-200.000	-0.022	0.272
-263.238	-200.000	0.037	0.192
-262.224	50.194	-0.347	0.325
-261.209	-85.608	-0.063	0.020
-260.195	-200.000	-0.016	-0.146
-259.180	176.419	0.178	-0.256
-258.165	-200.000	0.015	0.071
-257.151	-127.321	0.105	0.015
-256.136	-148.361	-0.276	0.022
-255.122	-200.000	0.029	0.138
-254.107	-154.303	0.146	0.010
-253.092	-71.973	-0.276	0.102
-252.078	-200.000	0.019	0.093
-251.063	372.908	0.079	0.160
-250.049	-175.782	-0.071	0.002
-249.034	-200.000	-0.045	0.327
-248.019	-191.721	-0.298	0.003
-247.005	800.000	0.050	0.142
-245.990	27.374	-0.168	0.140
-244.976	800.000	-0.061	-0.195
-243.961	-68.326	0.129	0.049
-242.946	-200.000	-0.071	-0.398
-241.932	-21.038	-0.290	-0.176
-240.917	-127.727	-0.270	0.039
-239.903	-104.654	-0.058	-0.013
-238.888	-133.571	-0.051	0.006
-237.873	-5.154	-0.293	0.200
-236.859	-200.000	0.007	0.150
-235.844	156.617	0.265	-0.362
-234.830	-65.005	0.228	-0.091
-233.815	71.790	-0.088	0.090
-232.800	-152.394	-0.113	-0.008
-231.786	459.509	-0.212	0.467
-230.771	231.211	0.021	0.034
-229.757	-81.846	0.250	-0.081
-228.742	-97.548	0.104	0.027
-227.727	800.000	0.056	0.165
-226.713	-95.866	-0.104	0.028
-225.698	34.808	-0.229	0.198
-224.684	-102.246	0.276	0.065
-223.669	-98.337	0.199	0.051
-222.655	136.315	-0.214	-0.277
-221.640	-200.000	-0.002	-0.014
-220.625	-31.672	-0.343	-0.190
-219.611	-23.593	0.081	-0.048
-218.596	218.514	0.144	0.228
-217.582	800.000	-0.113	0.316
-216.567	-5.924	0.458	0.310
-215.552	-56.889	-0.115	-0.050
-214.538	280.661	-0.044	0.078
-213.523	-200.000	-0.029	0.344
-212.509	129.642	0.104	0.132
-211.494	-182.153	-0.133	0.002
-210.479	-125.326	0.164	-0.025
-209.465	-159.908	0.437	0.024
-208.450	352.182	-0.180	-0.352
-207.436	-100.652	0.244	0.059
-206.421	68.586	-0.111	0.112
-205.406	333.584	0.135	-0.258
-204.392	-4.651	0.171	0.117
-203.377	800.000	-0.043	0.133
-202.363	-145.108	-0.138	-0.012
-201.348	35.264	-0.267	0.231
-200.333	800.000	0.114	-0.320
-199.319	46.034	-0.047	0.043
-198.304	-47.121	-0.190	0.091
-197.290	-200.000	-0.070	0.352
-196.275	-165.053	-0.278	-0.012
-195.260	-112.397	0.051	0.010
-194.246	-200.000	0.042	0.257
-193.231	800.000	0.045	0.177
-192.217	-91.766	0.243	-0.068
-191.202	184.013	-0.079	0.116
-190.187	66.924	0.212	0.213
-189.173	269.606	0.215	0.373
-188.158	-93.470	0.493	0.135
-187.144	-200.000	-0.012	0.285
-186.129	564.164	-0.017	0.041
-185.114	136.482	0.122	-0.158
-184.100	-87.560	0.143	-0.043
-183.085	504.009	-0.068	-0.156
-182.071	412.859	-0.090	0.189
-181.056	98.362	-0.139	-0.159
-180.042	398.609	-0.186	-0.385
-179.027	-80.520	-0.196	-0.065
-178.012	-200.000	0.011	0.130
-176.998	800.000	0.041	0.134
-175.983	83.873	-0.123	0.133
-174.969	-33.522	0.211	-0.115
-173.954	46.517	0.163	-0.149
-172.939	-136.475	0.157	0.018
-171.925	-200.000	-0.031	0.270
-170.910	147.318	-0.104	-0.139
-169.896	-76.190	0.162	0.056
-168.881	-200.000	-0.025	-0.122
-167.866	6.475	-0.225	-0.165
-166.852	9.280	-0.311	0.232
-165.837	393.928	0.069	-0.142
-164.823	-34.676	0.086	-0.047
-163.808	-200.000	0.133	0.000
-162.793	-33.561	0.143	0.078
-161.779	-75.003	0.157	-0.055
-160.764	203.155	-0.026	-0.039
-159.750	473.504	0.067	-0.150
-158.735	-87.561	0.091	-0.027
-157.720	46.337	-0.230	-0.211
-156.706	85.124	0.112	-0.121
-155.691	-94.163	0.235	0.064
-154.677	724.936	0.125	0.328
-153.662	-200.000	0.016	-0.174
-152.647	800.000	-0.032	-0.131
-151.633	-25.763	-0.328	0.191
-150.618	-200.000	-0.067	0.574
-149.604	366.124	0.118	0.236
-148.589	305.764	0.046	0.085
-147.574	-200.000	-0.026	0.221
-146.560	-34.369	0.331	-0.179
-145.545	-162.333	-0.110	-0.005
-144.531	800.000	-0.009	0.037
-143.516	-95.077	-0.219	0.058
-142.502	-61.065	-0.337	0.140
-141.487	79.249	-0.158	0.167
-140.472	-71.677	0.346	0.127
-139.458	-44.437	-0.126	-0.062
-138.443	125.985	0.150	0.187
-137.429	30.331	0.230	0.194
-136.414	227.638	0.062	0.099
-135.399	-200.000	0.008	0.060
-134.385	-200.000	0.003	0.158
-133.370	236.448	-0.167	-0.273
-132.356	65.447	-0.306	-0.305
-131.341	-200.000	-0.011	0.186
-130.326	509.446	0.078	0.179
-129.312	-54.978	-0.101	0.045
-128.297	-144.254	0.295	0.027
-127.283	16.761	0.242	0.189
-126.268	51.676	-0.127	0.119
-125.253	-129.743	-0.202	0.027
-124.239	-18.864	-0.094	0.058
-123.224	9.685	-0.194	0.145
-122.210	-37.391	-0.198	0.104
-121.195	800.000	0.048	0.136
