DTS Sentinel unit serial number:	SN413079Multiplexer serial number:	ORYXHardware model number:	OX4-SRSoftware version number:	ORYX F/W v4.00 Oryx Data Collector v3.7.2.0data status	okinstallation	princeton_trtdifferential loss correction	single-endedforward channel	channel 3reverse channel	N/Adate	2019/09/13time	04:20:35forward acquisition time	60.00reverse acquisition time	0.00gamma	496.2192k internal	0.2337k external	0.2337temperature offset calibration	1.0139default loss term (dB/km)	0.3790temperature slope calibration	1.0000multiplexer offset coefficient	1.0000multiplexer slope coefficient	1.0000fibre end	0.00T internal ref (°C)	26.81T ext. ref 1 (°C)	4.05T ext. ref 2 (°C)	21.19length (m)	temperature (°C)	Stokes	anti-Stokes-747.200	-200.000	0.001	0.338
-746.185	747.484	0.050	-0.136
-745.171	-4.044	0.210	0.146
-744.156	52.212	-0.140	0.134
-743.142	-178.881	0.026	0.001
-742.127	-70.177	-0.120	0.046
-741.112	800.000	-0.056	0.214
-740.098	230.726	0.246	0.405
-739.083	-6.188	-0.047	-0.032
-738.069	-200.000	-0.049	0.354
-737.054	110.153	-0.075	0.090
-736.039	-200.000	0.035	-0.543
-735.025	768.420	0.054	-0.148
-734.010	10.147	-0.228	-0.174
-732.996	37.266	-0.244	-0.217
-731.981	249.999	-0.192	-0.327
-730.966	-200.000	0.018	0.233
-729.952	-90.357	0.215	-0.063
-728.937	-42.484	0.156	0.080
-727.923	-37.942	-0.131	-0.070
-726.908	-96.441	-0.175	-0.046
-725.894	-104.993	0.170	-0.039
-724.879	99.648	-0.078	0.090
-723.864	440.823	0.098	-0.214
-722.850	4.547	0.102	-0.075
-721.835	-51.132	-0.263	-0.123
-720.821	731.818	0.042	-0.112
-719.806	-118.626	-0.238	-0.042
-718.791	212.814	0.063	0.100
-717.777	-41.714	-0.277	0.143
-716.762	52.958	0.136	0.130
-715.748	-169.700	-0.077	0.003
-714.733	800.000	0.087	0.350
-713.718	-77.904	-0.108	-0.037
-712.704	-183.783	-0.235	-0.004
-711.689	-116.587	-0.094	-0.017
-710.675	-45.009	0.231	-0.115
-709.660	-119.328	0.044	-0.008
-708.645	-143.644	0.303	0.029
-707.631	-149.462	-0.339	0.027
-706.616	-111.042	0.291	-0.060
-705.602	-23.587	-0.329	0.198
-704.587	120.110	-0.305	0.379
-703.572	800.000	-0.037	-0.132
-702.558	105.882	0.121	0.144
-701.543	800.000	0.065	0.241
-700.529	114.347	-0.035	-0.043
-699.514	-200.000	-0.004	-0.414
-698.499	-123.020	0.333	-0.054
-697.485	-34.425	0.273	-0.150
-696.470	-36.222	-0.220	0.119
-695.456	541.069	-0.077	0.183
-694.441	-3.429	0.206	-0.144
-693.426	4.378	-0.078	0.057
-692.412	260.472	0.086	0.148
-691.397	-88.619	-0.047	0.014
-690.383	800.000	-0.086	0.332
-689.368	800.000	0.046	-0.166
-688.354	-200.000	-0.057	0.321
-687.339	227.226	-0.192	-0.312
-686.324	141.189	-0.119	0.158
-685.310	-200.000	-0.017	-0.131
-684.295	15.977	0.110	-0.087
-683.281	89.907	0.101	-0.113
-682.266	-87.846	-0.111	-0.034
-681.251	50.222	-0.112	-0.106
-680.237	-144.449	0.222	-0.021
-679.222	-117.137	0.269	-0.049
-678.208	-34.673	0.137	0.075
-677.193	-168.868	-0.133	0.005
-676.178	256.934	-0.140	-0.240
-675.164	-21.267	0.108	-0.066
-674.149	-24.062	0.066	-0.039
-673.135	336.642	0.062	0.121
-672.120	25.878	-0.221	0.184
-671.105	-54.120	0.223	-0.102
-670.091	420.794	0.078	0.168
-669.076	-124.275	0.167	-0.026
-668.062	800.000	-0.135	-0.408
-667.047	5.118	0.097	-0.071
-666.032	-12.096	-0.032	-0.021
-665.018	537.646	0.025	0.060
-664.003	41.822	-0.076	-0.069
-662.989	42.613	0.227	-0.206
-661.974	122.894	0.191	-0.239
-660.959	-190.277	-0.220	-0.002
-659.945	-83.464	-0.163	0.052
-658.930	-200.000	0.075	0.400
-657.916	-82.289	0.136	-0.044
-656.901	71.175	0.355	0.369
-655.886	-157.614	-0.171	0.010
-654.872	-111.468	0.279	0.057
-653.857	263.296	-0.081	-0.141
-652.843	235.949	-0.189	-0.313
-651.828	74.050	0.248	-0.261
-650.814	419.276	-0.184	-0.394
-649.799	-200.000	-0.016	0.202
-648.784	-119.255	-0.387	0.067
-647.770	-200.000	0.026	0.130
-646.755	-63.976	0.124	-0.051
-645.741	-38.091	-0.064	-0.034
-644.726	800.000	0.019	-0.081
-643.711	187.117	0.153	0.229
-642.697	300.702	-0.021	-0.040
-641.682	-2.241	-0.236	-0.165
-640.668	-200.000	0.024	0.276
-639.653	645.466	-0.049	0.126
-638.638	64.559	-0.018	-0.018
-637.624	800.000	0.092	0.370
-636.609	-114.560	0.352	0.068
-635.595	-200.000	0.032	0.482
-634.580	86.021	-0.151	-0.167
-633.565	198.902	-0.117	0.179
-632.551	-40.681	-0.319	0.165
-631.536	-117.424	-0.096	-0.017
-630.522	-200.000	0.033	-0.313
-629.507	-200.000	-0.025	-0.137
-628.492	119.693	-0.100	-0.124
-627.478	-139.482	-0.151	0.016
-626.463	-78.507	0.174	0.059
-625.449	84.331	0.255	-0.279
-624.434	-137.963	0.236	-0.026
-623.419	-172.215	0.023	0.001
-622.405	-60.727	0.169	0.071
-621.390	214.709	-0.106	0.167
-620.376	-87.567	0.246	-0.074
-619.361	7.835	-0.238	-0.178
-618.346	-71.912	0.232	0.086
-617.332	51.980	0.083	0.079
-616.317	-56.279	-0.339	0.151
-615.303	-19.779	-0.254	-0.157
-614.288	-137.965	-0.302	0.034
-613.273	0.319	0.107	-0.076
-612.259	-150.465	-0.266	-0.020
-611.244	-47.119	0.156	0.076
-610.230	-6.098	-0.328	0.224
-609.215	325.573	-0.062	0.118
-608.201	-75.209	0.166	-0.059
-607.186	-81.441	-0.157	-0.052
-606.171	39.591	-0.351	0.314
-605.157	-200.000	0.004	-0.094
-604.142	-140.646	-0.085	-0.009
-603.128	-152.829	-0.264	-0.019
-602.113	16.342	-0.123	0.097
-601.098	-185.781	-0.358	-0.005
-600.084	140.642	0.153	-0.202
-599.069	-48.120	0.311	-0.150
-598.055	154.330	-0.085	-0.117
-597.040	447.745	0.029	0.064
-596.025	48.343	-0.218	0.203
-595.011	-200.000	0.022	0.214
-593.996	800.000	-0.074	-0.266
-592.982	53.268	-0.225	0.215
-591.967	13.746	0.216	-0.167
-590.952	-119.967	0.281	-0.048
-589.938	-200.000	-0.030	0.253
-588.923	-200.000	0.049	-0.312
-587.909	26.470	-0.018	0.015
-586.894	137.602	-0.131	-0.171
-585.879	800.000	-0.047	-0.192
-584.865	139.639	0.138	-0.181
-583.850	-70.659	0.330	0.124
-582.836	-30.761	0.155	0.087
-581.821	-101.614	0.265	0.064
-580.806	-55.796	-0.412	-0.184
-579.792	-87.558	-0.325	0.098
-578.777	800.000	-0.103	-0.377
-577.763	-90.457	-0.074	-0.021
-576.748	-71.335	-0.206	-0.077
-575.733	182.463	0.061	-0.089
-574.719	13.572	0.325	0.252
-573.704	800.000	-0.056	-0.164
-572.690	-200.000	-0.024	-0.285
-571.675	-162.289	0.128	0.006
-570.661	-100.800	0.317	0.078
-569.646	-200.000	0.004	0.262
-568.631	190.789	-0.125	0.187
-567.617	-9.657	-0.265	-0.176
-566.602	800.000	-0.082	-0.297
-565.588	87.878	0.201	-0.222
-564.573	-106.498	-0.092	0.020
-563.558	32.739	-0.133	0.115
-562.544	-200.000	0.005	0.050
-561.529	800.000	-0.105	-0.297
-560.515	-194.447	-0.503	0.004
-559.500	25.205	-0.149	-0.123
-558.485	415.403	-0.055	0.116
-557.471	-70.914	-0.148	0.056
-556.456	-200.000	-0.001	0.477
-555.442	-120.383	-0.404	-0.068
-554.427	636.137	0.088	0.222
-553.412	29.910	-0.044	-0.038
-552.398	35.655	0.213	0.187
-551.383	800.000	-0.082	0.271
-550.369	-196.348	0.457	-0.003
-549.354	92.404	0.114	0.127
-548.339	-39.650	0.101	0.053
-547.325	-121.163	-0.019	0.003
-546.310	86.793	-0.015	0.017
-545.296	-122.187	-0.059	-0.010
-544.281	-29.854	-0.061	-0.034
-543.266	800.000	-0.112	-0.483
-542.252	-147.453	0.079	-0.007
-541.237	-129.195	0.564	-0.078
-540.223	322.568	0.143	-0.272
-539.208	-200.000	0.025	-0.169
-538.193	-200.000	0.003	0.320
-537.179	-47.751	0.044	0.021
-536.164	-200.000	-0.014	-0.383
-535.150	-59.012	0.205	0.088
-534.135	800.000	-0.061	-0.222
-533.121	4.654	0.226	-0.165
-532.106	-200.000	-0.036	-0.543
-531.091	-200.000	-0.007	0.086
-530.077	504.669	-0.010	0.023
-529.062	-93.400	-0.117	0.032
-528.048	-113.603	-0.186	0.036
-527.033	92.182	0.114	-0.127
-526.018	-51.927	0.270	-0.125
-525.004	-200.000	0.036	0.225
-523.989	55.305	0.132	-0.127
-522.975	-161.846	-0.165	-0.008
-521.960	-90.029	0.155	-0.045
-520.945	576.483	-0.019	-0.047
-519.931	-200.000	-0.001	0.011
-518.916	164.719	0.190	-0.266
-517.902	-17.357	-0.277	0.174
-516.887	-98.724	0.210	-0.053
-515.872	-200.000	0.044	-0.367
-514.858	800.000	0.096	-0.290
-513.843	-200.000	-0.002	0.254
-512.829	-54.147	0.343	0.155
-511.814	800.000	0.041	-0.163
-510.799	29.527	-0.004	-0.003
-509.785	-200.000	0.062	-0.356
-508.770	-69.252	0.478	0.183
-507.756	-73.324	-0.227	-0.083
-506.741	138.637	-0.169	0.220
-505.726	-200.000	0.005	-0.225
-504.712	158.359	0.028	-0.039
-503.697	800.000	0.063	0.221
-502.683	19.249	-0.060	0.048
-501.668	-163.760	0.324	-0.015
-500.653	80.263	0.272	0.291
-499.639	643.171	0.059	-0.150
-498.624	-100.971	0.146	-0.036
-497.610	-200.000	-0.006	0.029
-496.595	-116.816	-0.230	-0.042
-495.581	250.144	-0.150	-0.253
-494.566	-78.840	0.205	0.069
-493.551	235.560	-0.107	0.175
-492.537	131.652	0.226	0.289
-491.522	-39.084	0.241	0.126
-490.508	-200.000	0.307	-0.001
-489.493	66.229	0.160	0.162
-488.478	-200.000	0.012	-0.115
-487.464	103.345	-0.284	0.331
-486.449	37.154	0.075	0.066
-485.435	0.657	-0.114	-0.081
-484.420	18.906	0.077	-0.061
-483.405	-121.865	0.105	0.017
-482.391	-103.502	0.402	-0.094
-481.376	-200.000	-0.057	-0.257
-480.362	-200.000	-0.008	-0.299
-479.347	-68.210	-0.076	0.029
-478.332	-154.522	0.131	0.009
-477.318	-200.000	0.005	0.044
-476.303	-137.909	-0.088	0.010
-475.289	800.000	0.039	-0.151
-474.274	-113.996	0.327	0.063
-473.259	-200.000	0.011	0.059
-472.245	-16.873	-0.039	-0.025
-471.230	-5.272	-0.443	-0.302
-470.216	-5.260	-0.144	-0.098
-469.201	505.865	0.096	0.222
-468.186	-97.060	0.092	-0.024
-467.172	-92.015	-0.370	-0.104
-466.157	174.191	-0.131	0.188
-465.143	-19.024	-0.167	-0.103
-464.128	269.010	-0.050	-0.087
-463.113	532.789	-0.042	-0.098
-462.099	-85.012	0.211	0.066
-461.084	-16.380	0.291	-0.183
-460.070	-82.325	-0.230	-0.074
-459.055	466.536	-0.052	0.116
-458.040	-104.759	0.335	-0.077
-457.026	800.000	0.063	0.273
-456.011	-108.397	0.264	0.057
-454.997	625.700	-0.094	0.236
-453.982	18.452	0.090	-0.071
-452.968	71.369	-0.121	0.125
-451.953	-13.537	0.134	-0.086
-450.938	-76.268	0.117	-0.041
-449.924	-189.179	-0.185	0.002
-448.909	-200.000	0.056	-0.283
-447.895	19.433	-0.320	-0.255
-446.880	148.873	-0.182	0.243
-445.865	-54.131	0.112	-0.051
-444.851	65.463	0.103	0.103
-443.836	-37.050	-0.048	0.025
-442.822	-200.000	0.025	-0.206
-441.807	-200.000	0.016	0.334
-440.792	-69.498	-0.120	-0.046
-439.778	149.325	0.083	0.111
-438.763	-99.023	0.255	0.064
-437.749	152.695	0.108	0.147
-436.734	800.000	0.059	-0.220
-435.719	-135.108	0.200	0.024
-434.705	488.264	0.149	0.338
-433.690	-139.252	-0.254	0.027
-432.676	800.000	-0.044	0.193
-431.661	-107.746	-0.153	-0.033
-430.646	-8.229	0.210	-0.140
-429.632	-57.721	-0.225	-0.098
-428.617	466.630	0.041	-0.090
-427.603	800.000	-0.041	0.141
-426.588	119.938	0.141	0.173
-425.573	800.000	0.026	-0.078
-424.559	116.558	0.038	-0.047
-423.544	800.000	-0.096	-0.316
-422.530	-200.000	-0.012	-0.091
-421.515	76.267	-0.174	-0.182
-420.500	401.773	0.146	0.304
-419.486	284.350	0.174	0.309
-418.471	112.168	0.160	0.192
-417.457	-58.695	-0.232	0.100
-416.442	-106.186	-0.111	-0.025
-415.428	88.476	0.112	0.123
-414.413	-141.784	0.408	0.041
-413.398	-200.000	0.016	-0.187
-412.384	263.150	0.069	-0.119
-411.369	-91.261	-0.250	0.071
-410.355	-72.136	0.217	0.080
-409.340	205.362	0.204	-0.314
-408.325	-200.000	0.027	0.183
-407.311	-121.867	-0.183	0.030
-406.296	765.522	-0.068	0.184
-405.282	735.101	-0.104	-0.275
-404.267	-109.458	-0.204	-0.043
-403.252	572.283	-0.022	0.054
-402.238	-102.693	-0.194	0.046
-401.223	207.472	-0.132	-0.204
-400.209	71.309	0.388	-0.399
-399.194	-200.000	0.025	-0.292
-398.179	257.396	0.196	0.333
-397.165	-200.000	0.022	0.285
-396.150	-16.107	-0.058	0.036
-395.136	-104.667	-0.158	-0.036
-394.121	-200.000	-0.050	0.491
-393.106	-124.541	0.272	-0.042
-392.092	-124.853	-0.208	-0.032
-391.077	-200.000	-0.011	0.077
-390.063	-130.889	0.122	-0.016
-389.048	-28.661	-0.109	0.062
-388.033	-124.280	0.094	-0.015
-387.019	-109.008	0.286	-0.060
-386.004	4.516	-0.196	-0.142
-384.990	-100.431	0.187	-0.046
-383.975	705.182	-0.053	0.139
-382.960	-67.537	0.333	-0.129
-381.946	800.000	0.021	0.084
-380.931	673.184	-0.109	0.281
-379.917	-98.292	-0.244	0.062
-378.902	16.430	-0.179	0.140
-377.888	-136.137	0.298	0.035
-376.873	-15.749	0.046	-0.029
-375.858	32.817	0.146	-0.125
-374.844	57.609	-0.153	-0.148
-373.829	-194.444	-0.262	-0.002
-372.815	-200.000	-0.040	0.315
-371.800	22.127	0.104	-0.084
-370.785	-139.541	-0.263	-0.028
-369.771	237.391	0.089	-0.146
-368.756	-85.599	-0.398	0.122
-367.742	-200.000	-0.025	0.297
-366.727	76.158	0.260	0.273
-365.712	404.053	-0.143	-0.299
-364.698	-55.936	-0.178	-0.078
-363.683	321.439	-0.106	0.200
-362.669	466.458	0.024	0.054
-361.654	-200.000	0.009	-0.093
-360.639	129.888	-0.207	-0.262
-359.625	118.926	-0.099	-0.120
-358.610	78.375	0.138	0.146
-357.596	106.338	-0.127	0.148
-356.581	-200.000	0.027	-0.173
-355.566	217.425	-0.063	-0.099
-354.552	-89.499	0.278	0.081
-353.537	487.998	-0.150	-0.338
-352.523	800.000	-0.047	0.194
-351.508	-200.000	0.024	0.240
-350.493	-36.358	0.202	-0.108
-349.479	63.589	0.342	0.339
-348.464	-63.670	-0.254	0.103
-347.450	-38.741	-0.151	0.079
-346.435	-149.905	-0.043	-0.003
-345.420	-85.089	-0.183	0.057
-344.406	800.000	0.051	0.153
-343.391	-190.704	0.226	0.002
-342.377	1.058	-0.361	0.256
-341.362	-29.505	-0.159	0.090
-340.348	-69.696	-0.137	0.052
-339.333	-200.000	0.011	-0.084
-338.318	800.000	-0.078	0.234
-337.304	8.039	-0.030	0.022
-336.289	-56.753	0.200	-0.087
-335.275	-103.109	0.143	0.033
-334.260	800.000	-0.080	0.225
-333.245	-200.000	0.011	-0.253
-332.231	-93.260	-0.410	0.113
-331.216	-116.395	0.082	0.015
-330.202	87.562	0.135	-0.147
-329.187	800.000	-0.051	-0.163
-328.172	10.753	0.044	-0.033
-327.158	-99.808	0.248	0.061
-326.143	-53.213	0.053	0.024
-325.129	38.714	-0.018	0.016
-324.114	7.562	0.149	0.110
-323.099	212.249	-0.116	0.180
-322.085	-33.115	-0.123	-0.067
-321.070	238.869	-0.253	-0.415
-320.056	123.770	0.116	0.144
-319.041	133.455	-0.162	0.207
-318.026	-64.115	0.173	-0.070
-317.012	-63.653	-0.200	0.081
-315.997	-50.138	0.296	0.138
-314.983	113.225	0.232	-0.277
-313.968	-200.000	0.023	-0.509
-312.953	-19.190	0.098	0.060
-311.939	-200.000	-0.081	-0.432
-310.924	296.180	0.122	-0.221
-309.910	39.202	0.257	0.227
-308.895	-17.086	0.338	0.210
-307.880	-200.000	0.007	-0.215
-306.866	-69.038	0.050	-0.019
-305.851	-160.311	-0.102	0.005
-304.837	-112.317	-0.184	-0.036
-303.822	-166.306	-0.360	0.015
-302.807	5.787	0.235	0.172
-301.793	265.675	0.122	-0.210
-300.778	-200.000	-0.059	0.358
-299.764	84.116	-0.080	-0.086
-298.749	24.895	-0.180	-0.147
-297.735	-38.996	0.446	-0.231
-296.720	-3.962	0.173	-0.118
-295.705	-200.000	-0.044	0.281
-294.691	800.000	0.064	0.214
-293.676	29.961	0.205	-0.173
-292.662	236.591	0.083	-0.135
-291.647	169.300	0.042	-0.059
-290.632	-200.000	0.001	0.036
-289.618	-125.520	-0.210	-0.032
-288.603	-85.928	-0.306	-0.093
-287.589	-26.017	0.302	0.175
-286.574	-161.879	0.238	0.012
-285.559	800.000	-0.095	0.371
-284.545	373.813	-0.040	0.081
-283.530	800.000	-0.068	0.187
-282.516	-71.537	-0.310	0.114
-281.501	10.924	-0.140	0.105
-280.486	31.061	0.321	0.272
-279.472	601.003	-0.067	-0.164
-278.457	57.908	-0.158	-0.153
-277.443	800.000	-0.039	0.122
-276.428	271.450	0.176	-0.305
-275.413	43.969	0.229	0.207
-274.399	800.000	-0.043	-0.154
-273.384	15.742	0.191	0.148
-272.370	-76.811	0.266	0.092
-271.355	-8.353	-0.157	0.104
-270.340	800.000	-0.124	0.368
-269.326	41.937	-0.229	0.204
-268.311	-50.020	0.217	0.101
-267.297	-126.863	0.138	-0.020
-266.282	167.470	0.160	-0.224
-265.267	-34.409	-0.082	-0.044
-264.253	-200.000	-0.021	-0.213
-263.238	-200.000	-0.012	-0.168
-262.224	-153.566	0.347	0.024
-261.209	44.487	0.112	0.102
-260.195	173.886	-0.016	0.023
-259.180	800.000	-0.109	0.320
-258.165	-200.000	0.017	0.076
-257.151	-200.000	0.016	0.069
-256.136	-57.307	-0.310	-0.134
-255.122	-200.000	0.003	0.029
-254.107	800.000	0.066	-0.226
-253.092	-95.640	-0.178	-0.047
-252.078	194.743	0.069	0.104
-251.063	51.934	-0.142	-0.134
-250.049	20.835	0.087	0.070
-249.034	-200.000	-0.022	0.097
-248.019	-170.306	-0.433	0.015
-247.005	-13.761	-0.061	-0.039
-245.990	139.524	-0.068	-0.089
-244.976	52.977	0.090	-0.085
-243.961	800.000	0.043	-0.118
-242.946	-200.000	-0.004	-0.100
-241.932	-122.776	-0.155	0.025
-240.917	-153.557	-0.434	0.030
-239.903	331.654	0.084	0.159
-238.888	274.090	-0.051	-0.089
-237.873	-78.687	-0.061	0.020
-236.859	-178.365	-0.241	-0.006
-235.844	576.467	0.033	-0.079
-234.830	-14.359	0.284	-0.180
-233.815	800.000	-0.012	-0.033
-232.800	-153.645	0.299	0.020
-231.786	103.928	0.120	0.138
-230.771	1.509	-0.219	0.155
-229.757	-200.000	0.022	0.275
-228.742	-86.599	-0.430	-0.130
-227.727	-141.749	-0.215	0.021
-226.713	-118.657	-0.040	-0.007
-225.698	403.388	-0.121	-0.250
-224.684	679.938	0.099	-0.253
-223.669	464.915	0.029	0.064
-222.655	661.033	0.021	-0.052
-221.640	207.564	-0.205	-0.314
-220.625	342.615	-0.075	0.144
-219.611	441.030	0.078	-0.168
-218.596	800.000	0.091	-0.373
-217.582	224.893	0.048	0.077
-216.567	331.084	0.139	0.264
-215.552	514.826	-0.121	0.277
-214.538	-200.000	0.002	-0.259
-213.523	-186.045	0.072	-0.001
-212.509	-200.000	0.000	-0.073
-211.494	132.826	-0.122	-0.155
-210.479	98.988	0.342	-0.389
-209.465	800.000	-0.079	-0.322
-208.450	-107.115	0.061	-0.013
-207.436	68.387	-0.047	-0.047
-206.421	-49.979	0.044	0.021
-205.406	-33.076	0.324	0.177
-204.392	42.092	-0.294	0.262
-203.377	800.000	0.091	0.298
-202.363	-200.000	-0.021	0.185
-201.348	-32.702	0.475	-0.260
-200.333	-39.761	-0.340	0.174
-199.319	-44.237	0.114	-0.056
-198.304	711.608	0.111	0.289
-197.290	-11.023	0.309	-0.200
-196.275	198.188	0.127	-0.190
-195.260	-31.131	-0.087	-0.048
-194.246	-200.000	0.006	0.214
-193.231	304.297	0.092	-0.167
-192.217	317.227	-0.066	-0.122
-191.202	800.000	-0.095	0.338
-190.187	90.296	-0.164	-0.180
-189.173	800.000	-0.024	0.096
-188.158	4.894	-0.104	-0.075
-187.144	157.011	-0.080	-0.108
-186.129	-60.529	-0.453	-0.189
-185.114	-98.368	0.176	-0.044
-184.100	800.000	0.066	0.246
-183.085	800.000	0.080	0.284
-182.071	-200.000	-0.006	0.047
-181.056	42.070	-0.221	-0.197
-180.042	218.670	0.016	0.025
-179.027	-16.283	-0.161	0.100
-178.012	-66.191	0.267	-0.105
-176.998	189.979	0.063	0.093
-175.983	-200.000	0.024	-0.184
-174.969	-79.953	0.086	-0.028
-173.954	800.000	-0.021	-0.086
-172.939	765.396	-0.062	-0.164
-171.925	-89.993	-0.218	0.062
-170.910	52.299	-0.160	-0.149
-169.896	-25.416	-0.237	0.138
-168.881	276.221	-0.133	-0.233
-167.866	67.260	0.110	-0.111
-166.852	174.436	-0.242	0.343
-165.837	-200.000	0.012	0.095
-164.823	-8.493	0.192	0.127
-163.808	-5.280	0.187	0.126
-162.793	-29.507	-0.414	-0.232
-161.779	314.705	-0.090	0.166
-160.764	42.860	0.101	-0.091
-159.750	502.600	-0.086	0.195
-158.735	-171.431	-0.082	0.003
-157.720	-27.704	-0.040	0.023
-156.706	-42.393	-0.224	-0.112
-155.691	-148.002	0.132	-0.011
-154.677	-40.660	-0.108	0.055
-153.662	128.276	0.141	-0.176
-152.647	175.722	0.059	0.084
-151.633	305.364	0.121	-0.221
-150.618	40.814	-0.277	0.245
-149.604	-9.695	-0.169	0.110
-148.589	-29.654	0.269	0.151
-147.574	-22.398	0.275	0.163
-146.560	-49.492	0.193	-0.090
-145.545	-96.184	0.147	-0.038
-144.531	800.000	0.124	0.361
-143.516	-44.023	0.362	0.178
-142.502	-22.853	-0.239	0.142
-141.487	-63.050	-0.202	-0.082
-140.472	-140.260	0.129	0.013
-139.458	-57.253	0.351	-0.151
-138.443	-87.135	0.132	0.039
-137.429	-80.784	-0.185	0.060
-136.414	572.160	-0.152	-0.362
-135.399	-153.197	0.325	-0.022
-134.385	-103.363	-0.089	-0.021
-133.370	-60.650	0.137	0.057
-132.356	-200.000	0.013	-0.221
-131.341	32.317	-0.224	0.190
-130.326	81.640	-0.055	0.058
-129.312	800.000	-0.078	-0.254
-128.297	300.229	0.146	0.265
-127.283	-0.491	-0.172	0.120
-126.268	-125.214	-0.437	-0.065
-125.253	22.845	-0.253	0.204
-124.239	-137.074	0.216	0.024
-123.224	10.772	-0.302	-0.226
-122.210	-41.241	-0.135	-0.068
-121.195	129.533	0.088	-0.110
