DTS Sentinel unit serial number:	SN413079Multiplexer serial number:	ORYXHardware model number:	OX4-SRSoftware version number:	ORYX F/W v4.00 Oryx Data Collector v3.7.2.0data status	okinstallation	princeton_trtdifferential loss correction	single-endedforward channel	channel 3reverse channel	N/Adate	2019/09/14time	22:48:35forward acquisition time	60.00reverse acquisition time	0.00gamma	496.2192k internal	0.2319k external	0.2319temperature offset calibration	0.9987default loss term (dB/km)	0.3790temperature slope calibration	1.0000multiplexer offset coefficient	1.0000multiplexer slope coefficient	1.0000fibre end	0.00T internal ref (°C)	32.50T ext. ref 1 (°C)	4.68T ext. ref 2 (°C)	27.49length (m)	temperature (°C)	Stokes	anti-Stokes-747.200	15.470	0.191	0.152
-746.185	-200.000	-0.002	0.268
-745.171	340.117	0.088	0.174
-744.156	26.999	-0.120	0.102
-743.142	162.378	-0.171	0.243
-742.127	134.520	-0.037	0.049
-741.112	-200.000	-0.005	-0.087
-740.098	39.969	-0.344	0.312
-739.083	252.088	0.098	0.168
-738.069	36.464	-0.208	0.185
-737.054	-96.439	-0.073	-0.019
-736.039	77.808	-0.316	-0.340
-735.025	143.893	-0.106	0.143
-734.010	202.783	-0.154	-0.241
-732.996	160.942	0.203	-0.287
-731.981	-125.838	0.201	0.031
-730.966	67.007	0.118	-0.122
-729.952	-79.337	0.232	0.080
-728.937	89.456	-0.160	-0.180
-727.923	-200.000	0.016	-0.220
-726.908	607.074	-0.153	-0.387
-725.894	594.736	-0.079	-0.196
-724.879	-167.915	-0.139	-0.006
-723.864	-132.803	0.190	0.025
-722.850	268.845	-0.031	0.055
-721.835	800.000	0.035	0.098
-720.821	-77.276	-0.292	-0.103
-719.806	-149.011	-0.575	0.047
-718.791	30.826	0.127	-0.110
-717.777	28.111	-0.113	0.096
-716.762	74.177	-0.280	-0.297
-715.748	8.092	-0.122	0.093
-714.733	-65.161	-0.189	-0.077
-713.718	82.812	-0.168	-0.184
-712.704	-42.002	0.275	0.142
-711.689	-200.000	0.033	-0.422
-710.675	800.000	0.021	-0.069
-709.660	-19.168	0.126	0.079
-708.645	714.040	-0.074	0.199
-707.631	32.189	0.078	0.068
-706.616	800.000	-0.073	-0.299
-705.602	334.449	-0.068	0.132
-704.587	-60.502	0.157	0.067
-703.572	-5.941	0.052	0.036
-702.558	85.706	0.059	-0.066
-701.543	47.209	-0.139	0.130
-700.529	-14.805	0.054	0.035
-699.514	328.825	0.080	0.155
-698.499	-200.000	-0.053	-0.283
-697.485	-166.743	0.155	-0.006
-696.470	265.484	0.067	0.118
-695.456	-200.000	-0.007	0.197
-694.441	-72.104	-0.160	-0.060
-693.426	37.578	-0.145	-0.130
-692.412	-24.012	0.125	0.075
-691.397	120.116	-0.085	-0.107
-690.383	-147.401	-0.106	-0.009
-689.368	269.765	-0.084	-0.150
-688.354	138.022	-0.097	0.128
-687.339	-99.090	0.270	0.069
-686.324	-200.000	0.055	-0.270
-685.310	245.472	-0.064	-0.108
-684.295	-179.630	0.242	0.005
-683.281	800.000	-0.014	-0.056
-682.266	26.763	-0.200	0.169
-681.251	116.610	-0.183	0.227
-680.237	-200.000	0.020	-0.109
-679.222	177.709	-0.061	0.090
-678.208	-200.000	-0.012	0.145
-677.193	-140.556	0.106	-0.011
-676.178	102.767	-0.116	0.136
-675.164	-200.000	0.033	-0.326
-674.149	800.000	-0.101	-0.354
-673.135	-74.595	-0.226	-0.082
-672.120	800.000	-0.083	0.260
-671.105	-52.330	0.389	0.182
-670.091	110.585	0.053	0.064
-669.076	-83.228	-0.263	0.085
-668.062	400.369	-0.071	-0.151
-667.047	-130.721	0.338	0.046
-666.032	53.529	0.066	0.064
-665.018	22.195	0.279	0.230
-664.003	229.655	-0.121	0.199
-662.989	64.488	0.244	-0.248
-661.974	-44.661	0.148	-0.074
-660.959	194.893	0.112	-0.171
-659.945	-37.487	-0.278	-0.150
-658.930	-166.900	-0.561	-0.023
-657.916	-83.812	-0.126	0.040
-656.901	95.634	-0.169	0.194
-655.886	53.371	-0.027	0.026
-654.872	-60.432	-0.081	-0.035
-653.857	175.024	-0.305	-0.445
-652.843	-84.361	0.024	-0.008
-651.828	136.307	0.082	-0.108
-650.814	-171.093	-0.311	-0.011
-649.799	800.000	0.071	-0.262
-648.784	10.672	0.196	-0.151
-647.770	-98.868	-0.295	-0.076
-646.755	-200.000	0.049	-0.227
-645.741	-6.198	-0.323	-0.223
-644.726	172.897	-0.238	0.345
-643.711	-200.000	-0.002	-0.079
-642.697	31.452	0.164	-0.142
-641.682	-200.000	0.017	-0.168
-640.668	-129.385	0.106	0.015
-639.653	-142.133	-0.175	0.017
-638.638	-5.298	-0.278	-0.192
-637.624	177.678	0.052	-0.076
-636.609	-117.676	0.383	0.069
-635.595	-47.310	0.090	0.044
-634.580	-29.899	0.093	-0.053
-633.565	123.249	-0.120	-0.152
-632.551	-162.113	0.266	-0.013
-631.536	115.881	-0.189	0.233
-630.522	-12.878	-0.292	0.191
-629.507	800.000	-0.043	-0.123
-628.492	269.320	-0.067	-0.119
-627.478	-23.548	0.118	0.071
-626.463	-72.325	0.314	-0.117
-625.449	-61.922	-0.134	-0.056
-624.434	-200.000	-0.026	-0.196
-623.419	800.000	0.141	-0.471
-622.405	-179.506	-0.016	0.000
-621.390	137.699	-0.221	-0.292
-620.376	-200.000	0.038	-0.196
-619.361	747.921	0.065	-0.176
-618.346	-128.792	0.116	-0.016
-617.332	85.710	-0.193	-0.213
-616.317	-135.896	0.083	0.010
-615.303	-200.000	-0.005	0.158
-614.288	307.799	0.128	0.241
-613.273	84.770	-0.231	-0.254
-612.259	-41.531	-0.192	0.099
-611.244	-200.000	-0.046	0.237
-610.230	4.621	-0.115	-0.085
-609.215	59.456	-0.129	0.128
-608.201	-98.482	-0.118	0.030
-607.186	-74.848	-0.024	0.009
-606.171	-200.000	-0.016	0.265
-605.157	-200.000	0.028	-0.139
-604.142	265.123	-0.105	-0.185
-603.128	140.510	-0.315	-0.418
-602.113	-12.048	-0.051	-0.033
-601.098	622.432	0.085	-0.214
-600.084	800.000	0.090	-0.266
-599.069	61.979	0.278	-0.278
-598.055	293.259	-0.114	-0.208
-597.040	-200.000	-0.000	-0.071
-596.025	375.420	-0.047	-0.096
-595.011	262.729	-0.094	0.164
-593.996	17.974	0.107	0.086
-592.982	-72.348	0.287	-0.107
-591.967	-200.000	-0.010	-0.135
-590.952	59.724	0.105	0.104
-589.938	0.198	0.117	0.084
-588.923	-20.669	-0.280	-0.173
-587.909	800.000	0.059	0.213
-586.894	-118.295	-0.169	0.030
-585.879	85.949	-0.324	0.358
-584.865	-60.020	-0.214	0.092
-583.850	-200.000	-0.017	-0.255
-582.836	-17.380	0.244	-0.155
-581.821	800.000	0.045	-0.135
-580.806	-160.704	-0.095	-0.005
-579.792	90.429	0.062	-0.069
-578.777	15.390	-0.216	-0.170
-577.763	-112.063	-0.280	0.057
-576.748	-43.505	0.241	-0.122
-575.733	55.325	0.315	-0.307
-574.719	-200.000	-0.027	0.196
-573.704	-148.952	-0.329	-0.027
-572.690	173.508	-0.103	-0.150
-571.675	184.044	0.239	-0.355
-570.661	365.993	-0.165	-0.335
-569.646	165.297	0.130	0.184
-568.631	558.193	0.041	-0.100
-567.617	512.230	-0.139	-0.324
-566.602	-99.577	-0.392	0.099
-565.588	-111.142	0.036	-0.008
-564.573	-170.940	0.243	-0.008
-563.558	17.149	-0.064	-0.051
-562.544	249.471	-0.105	-0.179
-561.529	-168.767	-0.362	-0.014
-560.515	800.000	-0.011	0.041
-559.500	24.294	-0.221	0.184
-558.485	-98.697	0.103	-0.026
-557.471	-145.566	0.222	-0.020
-556.456	800.000	-0.026	-0.110
-555.442	-36.183	-0.139	0.075
-554.427	148.171	0.215	0.292
-553.412	800.000	-0.040	-0.133
-552.398	176.178	0.158	-0.230
-551.383	-28.069	-0.170	0.099
-550.369	-55.384	-0.171	0.077
-549.354	-77.333	-0.503	-0.176
-548.339	-11.131	0.362	0.240
-547.325	17.075	0.254	-0.202
-546.310	-21.403	-0.346	-0.212
-545.296	-138.999	-0.133	-0.014
-544.281	-200.000	0.035	0.161
-543.266	149.026	-0.090	0.122
-542.252	45.620	0.203	0.188
-541.237	42.550	0.235	-0.214
-540.223	-150.062	0.203	0.016
-539.208	46.824	-0.072	0.067
-538.193	-24.509	-0.272	-0.162
-537.179	-200.000	0.028	-0.240
-536.164	-124.213	-0.252	-0.040
-535.150	610.384	0.143	0.359
-534.135	-200.000	0.034	-0.362
-533.121	143.329	0.154	-0.205
-532.106	101.716	-0.169	0.198
-531.091	47.296	0.148	0.138
-530.077	82.857	0.282	0.308
-529.062	316.162	0.036	-0.068
-528.048	140.126	-0.138	0.183
-527.033	120.379	-0.081	0.101
-526.018	800.000	-0.020	0.064
-525.004	-200.000	-0.028	-0.141
-523.989	-132.691	-0.100	0.013
-522.975	205.312	-0.083	-0.129
-521.960	-34.965	-0.053	0.029
-520.945	-200.000	0.009	-0.243
-519.931	-116.091	-0.246	0.046
-518.916	42.551	0.214	-0.195
-517.902	92.384	-0.144	0.163
-516.887	23.724	-0.095	0.079
-515.872	-67.146	-0.191	0.075
-514.858	-53.016	0.270	-0.125
-513.843	-188.038	-0.301	-0.004
-512.829	12.517	0.162	-0.126
-511.814	-96.586	-0.129	-0.034
-510.799	81.266	0.108	0.117
-509.785	-200.000	0.048	0.671
-508.770	201.328	-0.067	0.103
-507.756	-40.159	0.227	0.118
-506.741	-137.880	0.157	0.018
-505.726	-75.164	0.198	-0.071
-504.712	100.021	-0.119	-0.138
-503.697	3.458	0.189	0.138
-502.683	-156.239	0.103	-0.006
-501.668	-200.000	-0.034	0.469
-500.653	-32.729	0.304	0.169
-499.639	501.459	0.091	0.209
-498.624	-26.000	0.168	0.099
-497.610	291.002	0.074	-0.135
-496.595	800.000	0.085	0.244
-495.581	181.962	0.324	0.478
-494.566	-114.824	-0.375	-0.072
-493.551	29.051	0.028	-0.023
-492.537	261.227	-0.095	0.165
-491.522	800.000	-0.069	0.195
-490.508	774.142	0.036	-0.098
-489.493	-59.829	0.213	-0.091
-488.478	-67.329	0.145	0.057
-487.464	-123.008	0.132	-0.021
-486.449	514.609	-0.142	-0.333
-485.435	-16.227	-0.046	0.029
-484.420	261.169	0.153	-0.265
-483.405	613.260	0.116	0.290
-482.391	-123.408	0.071	-0.011
-481.376	139.806	-0.009	-0.012
-480.362	-200.000	0.025	-0.124
-479.347	-200.000	0.021	-0.221
-478.332	-56.266	-0.109	0.048
-477.318	-176.410	0.147	0.004
-476.303	-200.000	0.014	0.313
-475.289	40.718	0.082	-0.074
-474.274	165.611	-0.110	-0.156
-473.259	-48.821	-0.260	-0.125
-472.245	-200.000	0.013	0.197
-471.230	-164.318	0.185	-0.008
-470.216	-171.216	-0.306	-0.010
-469.201	-200.000	-0.081	0.548
-468.186	-22.625	0.051	-0.031
-467.172	-79.012	-0.436	-0.148
-466.157	168.955	0.086	-0.122
-465.143	-119.591	-0.104	-0.018
-464.128	566.031	-0.110	-0.268
-463.113	195.519	0.103	-0.156
-462.099	407.224	-0.165	-0.349
-461.084	107.850	0.242	-0.288
-460.070	-120.054	0.241	0.041
-459.055	617.005	0.091	0.228
-458.040	306.526	0.113	0.211
-457.026	567.093	-0.082	-0.198
-456.011	-93.077	0.259	-0.072
-454.997	329.097	-0.080	-0.153
-453.982	800.000	0.031	0.090
-452.968	-200.000	-0.026	0.185
-451.953	106.827	0.176	-0.210
-450.938	800.000	-0.041	0.116
-449.924	800.000	-0.062	0.230
-448.909	16.377	-0.229	-0.181
-447.895	364.908	-0.055	0.110
-446.880	-27.935	0.079	-0.046
-445.865	12.612	-0.316	-0.244
-444.851	-135.449	0.188	0.022
-443.836	-200.000	0.001	-0.037
-442.822	-153.793	-0.180	-0.012
-441.807	-102.528	0.032	-0.008
-440.792	-200.000	-0.002	-0.213
-439.778	125.553	-0.061	0.077
-438.763	350.428	-0.091	-0.180
-437.749	-171.037	-0.412	0.014
-436.734	-156.014	-0.297	0.019
-435.719	-200.000	-0.023	0.230
-434.705	1.936	0.271	0.196
-433.690	19.508	0.198	-0.159
-432.676	-57.038	-0.211	0.093
-431.661	-200.000	-0.007	-0.033
-430.646	196.760	0.198	-0.302
-429.632	-0.330	0.077	0.055
-428.617	125.695	-0.216	-0.272
-427.603	272.194	0.155	-0.273
-426.588	51.079	0.325	-0.308
-425.573	-127.483	0.113	-0.016
-424.559	-32.908	-0.101	0.056
-423.544	-200.000	0.000	-0.133
-422.530	28.922	0.098	-0.083
-421.515	46.366	0.061	0.056
-420.500	-169.182	0.141	-0.005
-419.486	-147.128	0.124	-0.011
-418.471	-52.635	-0.322	-0.148
-417.457	-26.687	0.135	0.079
-416.442	-59.516	0.190	-0.081
-415.428	153.673	-0.032	-0.044
-414.413	-14.360	0.114	0.073
-413.398	-200.000	-0.025	0.175
-412.384	-153.467	-0.042	0.003
-411.369	30.649	-0.160	-0.136
-410.355	-200.000	-0.006	-0.297
-409.340	94.446	0.052	0.059
-408.325	117.280	0.136	0.167
-407.311	220.794	-0.157	-0.252
-406.296	-200.000	0.009	-0.076
-405.282	-57.493	-0.144	-0.063
-404.267	23.473	-0.046	-0.038
-403.252	-88.529	-0.181	0.054
-402.238	203.691	0.157	0.242
-401.223	-16.388	-0.220	-0.139
-400.209	800.000	0.073	-0.207
-399.194	-39.709	0.196	0.102
-398.179	800.000	0.067	-0.211
-397.165	393.860	-0.079	0.165
-396.150	21.880	-0.136	-0.111
-395.136	800.000	0.082	0.253
-394.121	-7.468	0.317	-0.214
-393.106	-200.000	0.000	-0.114
-392.092	-200.000	0.014	-0.101
-391.077	-200.000	-0.037	0.268
-390.063	732.540	-0.040	-0.106
-389.048	-139.159	-0.177	0.019
-388.033	-107.491	-0.220	-0.048
-387.019	800.000	-0.046	-0.139
-386.004	-24.341	-0.079	0.047
-384.990	-191.507	-0.304	-0.003
-383.975	353.857	0.048	-0.094
-382.960	800.000	0.053	0.175
-381.946	125.573	-0.140	0.176
-380.931	-200.000	-0.030	0.136
-379.917	79.033	0.176	0.188
-378.902	62.408	-0.105	0.104
-377.888	157.023	0.264	0.364
-376.873	-84.458	0.052	0.017
-375.858	-67.883	0.058	-0.022
-374.844	-21.309	0.284	0.173
-373.829	-200.000	-0.016	0.085
-372.815	-200.000	-0.018	0.113
-371.800	-116.879	0.123	0.022
-370.785	-172.959	-0.113	0.003
-369.771	-137.784	-0.235	0.026
-368.756	-200.000	0.035	-0.173
-367.742	-93.622	0.174	-0.048
-366.727	100.186	-0.138	-0.160
-365.712	90.398	0.121	-0.135
-364.698	-96.362	-0.238	0.063
-363.683	-200.000	0.062	-0.306
-362.669	800.000	-0.061	0.204
-361.654	4.112	0.269	-0.196
-360.639	-28.754	-0.328	0.188
-359.625	309.345	0.049	0.092
-358.610	130.016	-0.074	0.094
-357.596	-115.636	0.188	-0.035
-356.581	-36.942	0.234	0.125
-355.566	146.838	-0.200	0.267
-354.552	800.000	0.040	0.120
-353.537	-98.296	0.457	0.117
-352.523	800.000	0.064	0.230
-351.508	429.211	0.013	-0.029
-350.493	-33.902	0.246	-0.135
-349.479	800.000	-0.073	0.297
-348.464	133.175	0.057	-0.073
-347.450	-10.801	-0.222	-0.146
-346.435	91.368	0.177	0.198
-345.420	614.075	-0.065	-0.163
-344.406	62.845	0.050	-0.049
-343.391	-76.024	-0.648	-0.228
-342.377	-135.598	-0.228	-0.027
-341.362	1.994	0.319	-0.229
-340.348	-122.829	-0.443	-0.071
-339.333	-65.791	0.029	0.012
-338.318	-200.000	-0.002	-0.288
-337.304	-125.539	-0.100	0.015
-336.289	-200.000	0.097	0.469
-335.275	-175.372	-0.369	0.010
-334.260	-72.452	-0.183	-0.067
-333.245	-126.617	-0.143	0.021
-332.231	161.099	-0.140	-0.194
-331.216	313.370	0.069	0.129
-330.202	-10.036	0.163	-0.108
-329.187	241.869	-0.151	0.252
-328.172	-200.000	0.013	-0.114
-327.158	-180.280	-0.215	-0.004
-326.143	440.886	0.118	-0.256
-325.129	-63.300	0.225	-0.092
-324.114	-93.262	0.336	0.093
-323.099	800.000	0.033	0.098
-322.085	-200.000	0.043	0.280
-321.070	800.000	0.026	0.111
-320.056	117.281	-0.230	-0.281
-319.041	-111.501	0.266	-0.054
-318.026	-93.966	-0.349	-0.095
-317.012	18.816	0.124	0.099
-315.997	-150.568	0.319	0.024
-314.983	401.802	0.146	0.305
-313.968	-87.152	-0.252	0.076
-312.953	-9.789	-0.273	-0.181
-311.939	-53.506	0.408	0.186
-310.924	-155.854	0.251	-0.016
-309.910	-20.997	-0.023	-0.014
-308.895	48.916	-0.172	0.161
-307.880	207.649	-0.186	0.289
-306.866	-185.931	-0.163	-0.002
-305.851	800.000	0.091	-0.315
-304.837	-200.000	0.039	-0.249
-303.822	-200.000	0.003	0.168
-302.807	800.000	0.056	0.210
-301.793	-200.000	0.012	0.260
-300.778	-200.000	0.070	0.309
-299.764	719.334	0.038	0.099
-298.749	43.570	0.162	0.148
-297.735	119.493	0.068	0.084
-296.720	612.988	-0.117	-0.292
-295.705	-47.115	0.312	-0.151
-294.691	-70.821	-0.163	-0.061
-293.676	-200.000	-0.014	-0.068
-292.662	-31.091	0.148	-0.083
-291.647	149.559	0.105	-0.142
-290.632	557.792	-0.200	-0.480
-289.618	-110.520	-0.315	-0.065
-288.603	-155.742	0.238	-0.015
-287.589	334.759	0.081	-0.156
-286.574	181.031	-0.063	0.092
-285.559	50.655	0.349	-0.329
-284.545	198.163	0.108	0.164
-283.530	16.707	-0.116	0.091
-282.516	259.466	0.096	0.165
-281.501	433.662	-0.197	-0.425
-280.486	367.948	0.176	-0.352
-279.472	471.965	-0.103	0.231
-278.457	-123.966	-0.075	0.012
-277.443	-18.240	0.113	0.070
-276.428	205.019	0.050	0.077
-275.413	-62.057	-0.282	0.117
-274.399	-96.598	0.096	-0.025
-273.384	-167.084	0.259	-0.010
-272.370	800.000	0.091	0.358
-271.355	162.479	0.190	0.265
-270.340	-46.723	0.224	0.109
-269.326	800.000	-0.055	-0.161
-268.311	568.941	-0.076	-0.184
-267.297	82.297	0.344	0.370
-266.282	22.066	-0.215	-0.174
-265.267	-172.667	0.126	0.004
-264.253	-28.225	0.075	0.043
-263.238	-200.000	0.090	0.563
-262.224	192.098	0.052	0.078
-261.209	-200.000	0.015	0.306
-260.195	788.280	0.067	0.184
-259.180	-161.086	-0.255	0.013
-258.165	-157.535	0.424	-0.025
-257.151	-169.409	-0.059	-0.002
-256.136	-200.000	-0.016	0.182
-255.122	121.613	0.109	-0.134
-254.107	-135.636	0.265	0.031
-253.092	-200.000	-0.003	-0.114
-252.078	-30.349	-0.289	-0.163
-251.063	101.601	-0.213	-0.247
-250.049	-116.003	-0.355	0.066
-249.034	-51.858	-0.140	-0.065
-248.019	-200.000	-0.024	0.431
-247.005	283.642	0.148	0.265
-245.990	229.834	0.104	0.169
-244.976	-64.607	-0.307	-0.123
-243.961	13.212	-0.332	-0.255
-242.946	-200.000	0.034	0.174
-241.932	-170.034	0.341	-0.012
-240.917	458.928	-0.083	-0.182
-239.903	48.350	-0.203	0.189
-238.888	76.945	0.292	-0.308
-237.873	-55.138	0.129	-0.058
-236.859	-120.120	-0.259	0.044
-235.844	-65.151	0.403	-0.161
-234.830	-152.969	-0.334	-0.023
-233.815	-123.910	0.259	0.040
-232.800	323.540	-0.131	-0.248
-231.786	-21.842	-0.192	-0.116
-230.771	-66.763	-0.117	-0.046
-229.757	-33.269	0.246	-0.135
-228.742	128.587	0.244	0.308
-227.727	-69.310	0.209	-0.080
-226.713	-129.022	0.089	0.012
-225.698	-200.000	-0.051	0.314
-224.684	600.208	0.014	-0.035
-223.669	-200.000	-0.085	-0.372
-222.655	-69.493	0.104	-0.040
-221.640	157.243	0.093	-0.127
-220.625	-200.000	-0.027	0.176
-219.611	-3.874	0.283	0.195
-218.596	-200.000	0.019	0.233
-217.582	-200.000	-0.009	-0.057
-216.567	73.118	0.181	-0.187
-215.552	-85.434	0.288	0.089
-214.538	-135.597	-0.227	0.027
-213.523	-200.000	0.006	-0.336
-212.509	588.386	0.187	0.457
-211.494	-116.088	-0.302	-0.056
-210.479	-200.000	-0.030	-0.184
-209.465	-154.752	0.273	0.018
-208.450	187.014	0.010	-0.014
-207.436	-136.267	-0.185	-0.021
-206.421	114.621	0.125	-0.151
-205.406	337.357	-0.075	0.145
-204.392	-200.000	-0.015	-0.156
-203.377	-76.558	0.173	-0.060
-202.363	238.449	0.204	0.336
-201.348	201.242	0.283	0.431
-200.333	-45.392	-0.449	0.220
-199.319	-41.515	0.272	0.138
-198.304	-200.000	-0.003	0.141
-197.290	-163.319	-0.139	-0.007
-196.275	255.144	0.057	0.096
-195.260	518.848	0.104	0.242
-194.246	-85.305	0.061	-0.019
-193.231	50.389	0.130	-0.121
-192.217	394.595	-0.065	0.135
-191.202	800.000	-0.072	0.307
-190.187	-63.198	-0.086	0.035
-189.173	18.862	0.176	0.139
-188.158	14.848	0.305	0.236
-187.144	-118.837	-0.119	-0.021
-186.129	-200.000	0.011	0.124
-185.114	13.089	-0.011	0.008
-184.100	-78.960	-0.312	0.105
-183.085	-118.607	-0.259	0.045
-182.071	800.000	-0.033	-0.108
-181.056	-30.941	-0.166	0.093
-180.042	-5.815	-0.186	-0.126
-179.027	81.714	-0.253	0.271
-178.012	173.152	0.111	0.158
-176.998	-200.000	0.019	0.088
-175.983	-31.017	-0.316	-0.176
-174.969	-200.000	-0.040	0.241
-173.954	-153.712	0.239	0.016
-172.939	68.845	-0.237	-0.241
-171.925	-34.177	0.260	0.141
-170.910	-200.000	0.042	0.360
-169.896	287.453	0.055	0.099
-168.881	-109.511	-0.194	0.040
-167.866	17.188	0.046	-0.036
-166.852	-3.615	-0.137	-0.094
-165.837	-31.648	0.254	-0.141
-164.823	-84.085	-0.075	0.024
-163.808	-12.300	-0.271	-0.175
-162.793	-200.000	-0.008	0.231
-161.779	-109.640	0.339	0.071
-160.764	-200.000	-0.002	0.279
-159.750	357.898	0.163	0.321
-158.735	169.874	0.103	-0.146
-157.720	259.715	0.083	-0.142
-156.706	800.000	-0.043	-0.142
-155.691	-116.111	-0.143	0.026
-154.677	124.236	-0.152	0.188
-153.662	800.000	0.072	0.281
-152.647	229.479	0.033	0.054
-151.633	63.216	-0.138	-0.137
-150.618	-144.023	0.445	-0.041
-149.604	-117.087	0.067	-0.012
-148.589	6.656	0.144	-0.106
-147.574	800.000	-0.076	0.208
-146.560	-126.611	-0.073	-0.011
-145.545	800.000	-0.073	0.200
-144.531	17.708	0.137	-0.108
-143.516	800.000	-0.055	-0.159
-142.502	18.241	-0.137	-0.108
-141.487	79.920	0.160	-0.170
-140.472	800.000	-0.010	0.030
-139.458	122.539	0.227	0.280
-138.443	10.320	-0.125	-0.094
-137.429	116.792	-0.241	-0.292
-136.414	-200.000	0.025	0.117
-135.399	800.000	0.022	0.061
-134.385	800.000	-0.083	0.271
-133.370	204.822	0.149	0.229
-132.356	-136.208	-0.253	0.029
-131.341	-67.281	-0.105	0.041
-130.326	-41.306	-0.054	-0.028
-129.312	800.000	-0.044	0.134
-128.297	-200.000	-0.002	0.240
-127.283	-200.000	-0.024	0.217
-126.268	-6.383	0.118	-0.079
-125.253	189.243	-0.090	0.133
-124.239	-200.000	0.066	0.473
-123.224	-175.835	0.396	0.010
-122.210	53.691	0.334	0.317
