DTS Sentinel unit serial number:	SN413079Multiplexer serial number:	ORYXHardware model number:	OX4-SRSoftware version number:	ORYX F/W v4.00 Oryx Data Collector v3.7.2.0data status	okinstallation	princeton_trtdifferential loss correction	single-endedforward channel	channel 3reverse channel	N/Adate	2019/09/17time	19:16:35forward acquisition time	60.00reverse acquisition time	0.00gamma	496.2192k internal	0.2300k external	0.2300temperature offset calibration	0.9947default loss term (dB/km)	0.3790temperature slope calibration	1.0000multiplexer offset coefficient	1.0000multiplexer slope coefficient	1.0000fibre end	0.00T internal ref (°C)	38.50T ext. ref 1 (°C)	0.27T ext. ref 2 (°C)	26.80length (m)	temperature (°C)	Stokes	anti-Stokes-747.200	-200.000	-0.027	0.414
-746.185	-200.000	0.035	-0.188
-745.171	-36.879	0.071	-0.039
-744.156	-200.000	0.051	0.425
-743.142	-157.053	-0.313	-0.019
-742.127	518.860	-0.167	0.399
-741.112	11.585	-0.045	0.035
-740.098	-121.933	-0.118	-0.020
-739.083	281.831	0.049	0.089
-738.069	74.506	-0.148	-0.159
-737.054	-61.395	-0.033	-0.014
-736.039	137.476	0.079	0.106
-735.025	189.781	-0.040	0.061
-734.010	708.399	-0.066	-0.177
-732.996	-200.000	-0.011	-0.225
-731.981	-6.545	-0.192	0.134
-730.966	-75.070	0.231	0.084
-729.952	145.051	-0.139	-0.190
-728.937	95.052	-0.188	-0.218
-727.923	-156.064	-0.256	-0.016
-726.908	-22.981	-0.085	-0.052
-725.894	-168.038	-0.142	-0.006
-724.879	-200.000	0.024	-0.110
-723.864	102.078	0.111	-0.132
-722.850	-114.244	-0.170	-0.033
-721.835	800.000	-0.038	-0.170
-720.821	45.383	-0.212	-0.200
-719.806	515.778	-0.098	-0.234
-718.791	-76.858	-0.136	0.048
-717.777	160.125	-0.104	0.148
-716.762	174.606	0.068	0.100
-715.748	310.251	-0.158	0.302
-714.733	40.870	0.094	-0.087
-713.718	800.000	0.021	-0.071
-712.704	501.863	0.032	0.074
-711.689	591.577	0.122	-0.306
-710.675	-155.264	0.143	-0.010
-709.660	800.000	0.061	-0.242
-708.645	-10.663	-0.134	0.090
-707.631	50.574	0.044	0.043
-706.616	-200.000	0.000	0.115
-705.602	-84.405	0.144	-0.046
-704.587	-87.723	-0.305	0.094
-703.572	-200.000	0.031	0.163
-702.558	124.661	0.156	0.200
-701.543	800.000	0.007	-0.019
-700.529	-45.306	0.382	0.193
-699.514	-136.020	-0.140	0.017
-698.499	-11.595	-0.030	0.020
-697.485	-200.000	-0.003	0.073
-696.470	800.000	-0.037	0.150
-695.456	800.000	-0.036	0.145
-694.441	-30.454	-0.083	-0.048
-693.426	-82.560	0.291	0.096
-692.412	-53.691	-0.276	0.128
-691.397	-133.250	-0.242	0.031
-690.383	95.517	0.210	-0.244
-689.368	280.699	0.070	-0.127
-688.354	98.919	-0.250	0.294
-687.339	682.719	0.043	0.114
-686.324	-3.212	-0.050	0.036
-685.310	74.461	0.115	0.123
-684.295	285.005	0.164	0.300
-683.281	103.681	0.028	-0.033
-682.266	-27.128	-0.042	-0.025
-681.251	800.000	0.073	-0.287
-680.237	213.656	-0.092	-0.148
-679.222	-115.612	-0.081	-0.015
-678.208	-144.959	0.427	-0.040
-677.193	-200.000	0.020	-0.204
-676.178	795.352	0.042	-0.119
-675.164	-37.087	-0.090	-0.049
-674.149	-22.278	-0.175	0.108
-673.135	111.503	-0.188	0.231
-672.120	-200.000	-0.010	-0.202
-671.105	-161.778	-0.029	-0.002
-670.091	-17.595	-0.231	0.148
-669.076	-116.068	0.372	-0.070
-668.062	-32.720	0.091	-0.052
-667.047	751.855	-0.047	-0.129
-666.032	-127.347	-0.382	-0.057
-665.018	-200.000	0.011	0.082
-664.003	-128.756	0.321	-0.046
-662.989	-134.391	-0.106	-0.013
-661.974	-200.000	0.012	-0.115
-660.959	-74.530	0.180	-0.066
-659.945	-100.630	0.132	0.033
-658.930	-189.259	0.405	0.005
-657.916	87.828	-0.032	0.036
-656.901	800.000	-0.088	-0.341
-655.886	-200.000	0.015	-0.197
-654.872	-9.366	-0.201	-0.137
-653.857	-60.873	-0.159	-0.069
-652.843	-131.621	0.284	-0.038
-651.828	-80.811	-0.098	0.033
-650.814	-113.618	-0.019	0.004
-649.799	-141.481	-0.143	0.015
-648.784	605.621	-0.066	0.166
-647.770	351.871	0.121	0.244
-646.755	-200.000	-0.061	0.438
-645.741	-66.086	0.276	0.112
-644.726	69.694	-0.147	0.154
-643.711	-110.099	-0.383	-0.081
-642.697	-161.181	0.134	0.007
-641.682	-200.000	-0.026	-0.142
-640.668	800.000	-0.044	-0.153
-639.653	96.409	-0.193	-0.224
-638.638	-114.830	-0.342	-0.066
-637.624	800.000	-0.002	0.005
-636.609	-73.776	0.114	0.042
-635.595	695.585	0.125	-0.333
-634.580	-200.000	-0.032	-0.286
-633.565	-200.000	0.008	0.050
-632.551	56.546	-0.073	-0.072
-631.536	32.114	0.223	0.196
-630.522	-92.999	0.071	0.020
-629.507	123.543	-0.134	0.170
-628.492	-72.967	0.193	-0.072
-627.478	154.262	-0.026	0.036
-626.463	93.747	-0.269	-0.310
-625.449	800.000	-0.043	0.188
-624.434	-200.000	-0.032	-0.280
-623.419	-14.998	0.371	-0.242
-622.405	-200.000	0.041	-0.224
-621.390	1.068	0.297	0.216
-620.376	120.190	-0.068	0.085
-619.361	-20.935	0.171	-0.106
-618.346	-16.796	-0.302	-0.194
-617.332	-61.646	0.122	-0.052
-616.317	-200.000	-0.029	0.248
-615.303	-123.258	0.090	-0.015
-614.288	-104.219	-0.239	-0.056
-613.273	-200.000	0.042	-0.193
-612.259	508.326	-0.052	-0.123
-611.244	-99.683	-0.343	0.087
-610.230	13.325	-0.213	0.167
-609.215	169.883	-0.136	-0.197
-608.201	-58.426	0.147	0.065
-607.186	-189.968	0.235	-0.003
-606.171	8.164	0.398	-0.303
-605.157	168.707	-0.163	0.235
-604.142	-33.841	-0.376	-0.210
-603.128	103.750	-0.140	0.167
-602.113	-53.179	0.331	0.154
-601.098	114.074	-0.170	0.209
-600.084	-200.000	-0.040	0.220
-599.069	-80.120	-0.069	0.024
-598.055	-68.781	0.223	-0.088
-597.040	-139.239	0.279	-0.030
-596.025	800.000	0.017	0.073
-595.011	-97.666	-0.243	-0.064
-593.996	-200.000	-0.003	0.121
-592.982	800.000	-0.089	0.311
-591.967	7.378	0.045	0.034
-590.952	-0.912	-0.222	0.159
-589.938	-139.827	0.271	-0.029
-588.923	-21.013	0.077	0.048
-587.909	197.095	0.060	0.093
-586.894	-47.645	-0.205	-0.101
-585.879	41.545	-0.273	0.250
-584.865	-93.786	-0.124	-0.035
-583.850	493.872	-0.130	-0.303
-582.836	-138.366	-0.247	0.028
-581.821	91.612	0.077	-0.088
-580.806	-55.633	-0.084	0.038
-579.792	-143.342	0.252	0.024
-578.777	-67.156	0.112	0.045
-577.763	-37.102	-0.104	0.056
-576.748	-69.575	0.119	-0.046
-575.733	-150.479	-0.068	0.005
-574.719	546.373	0.258	-0.626
-573.704	-9.031	-0.155	-0.105
-572.690	206.187	0.042	0.066
-571.675	215.395	-0.072	-0.116
-570.661	-18.583	-0.161	-0.102
-569.646	-71.393	0.139	-0.053
-568.631	178.406	0.078	0.115
-567.617	800.000	-0.054	-0.193
-566.602	-34.963	0.167	0.092
-565.588	-110.539	0.035	0.007
-564.573	7.850	0.206	0.157
-563.558	800.000	-0.091	0.402
-562.544	8.283	-0.235	-0.179
-561.529	-200.000	-0.027	-0.180
-560.515	-91.326	0.227	-0.066
-559.500	-200.000	-0.002	0.093
-558.485	-200.000	0.055	0.382
-557.471	-200.000	0.032	0.208
-556.456	-200.000	-0.068	0.302
-555.442	618.520	-0.041	0.105
-554.427	-200.000	0.038	0.238
-553.412	-169.314	-0.156	-0.006
-552.398	-54.428	-0.054	0.025
-551.383	-82.808	-0.125	-0.041
-550.369	383.354	0.162	-0.338
-549.354	-200.000	-0.003	0.175
-548.339	41.950	-0.037	-0.034
-547.325	-200.000	0.002	-0.105
-546.310	-200.000	-0.076	-0.361
-545.296	3.167	-0.167	-0.123
-544.281	800.000	-0.090	-0.288
-543.266	160.414	0.027	0.039
-542.252	-137.584	-0.444	-0.051
-541.237	88.161	-0.128	-0.144
-540.223	242.072	0.088	0.148
-539.208	50.366	-0.088	-0.084
-538.193	434.610	-0.091	0.200
-537.179	-35.757	-0.123	0.067
-536.164	-20.108	-0.328	-0.205
-535.150	-200.000	0.047	-0.250
-534.135	-8.118	0.104	0.071
-533.121	-200.000	-0.019	0.132
-532.106	-104.968	0.190	-0.044
-531.091	411.563	-0.176	-0.379
-530.077	800.000	0.069	0.261
-529.062	495.557	0.092	-0.215
-528.048	-16.554	0.190	0.122
-527.033	229.665	-0.322	-0.532
-526.018	123.085	-0.389	0.492
-525.004	-70.690	-0.095	-0.036
-523.989	-200.000	0.007	-0.308
-522.975	278.587	-0.095	0.171
-521.960	-200.000	0.026	-0.159
-520.945	-71.396	-0.334	-0.127
-519.931	455.976	-0.045	-0.101
-518.916	800.000	0.049	-0.161
-517.902	57.634	-0.335	0.331
-516.887	110.678	0.110	0.134
-515.872	111.988	-0.096	-0.118
-514.858	-7.773	0.148	-0.101
-513.843	800.000	0.035	-0.135
-512.829	-34.073	0.164	-0.091
-511.814	-2.486	0.111	0.079
-510.799	-14.997	0.223	-0.144
-509.785	800.000	0.063	-0.235
-508.770	48.631	0.170	-0.161
-507.756	291.230	-0.061	-0.111
-506.741	-155.796	0.186	0.012
-505.726	428.796	0.110	0.241
-504.712	-200.000	0.002	-0.214
-503.697	-200.000	0.008	-0.238
-502.683	101.778	-0.149	-0.175
-501.668	440.314	-0.085	-0.189
-500.653	-13.262	-0.151	-0.099
-499.639	-138.372	-0.245	-0.027
-498.624	-69.616	-0.321	-0.124
-497.610	-200.000	-0.088	-0.486
-496.595	43.024	-0.238	0.219
-495.581	-24.782	-0.067	-0.040
-494.566	-73.813	0.197	0.072
-493.551	-76.612	-0.227	-0.081
-492.537	310.747	0.156	0.294
-491.522	-6.869	0.072	-0.049
-490.508	69.260	0.139	-0.145
-489.493	-31.627	-0.273	0.155
-488.478	-22.070	-0.112	0.069
-487.464	17.005	0.060	-0.048
-486.449	-200.000	-0.000	0.145
-485.435	253.971	0.149	0.256
-484.420	-104.151	-0.128	-0.030
-483.405	-200.000	0.046	-0.231
-482.391	-41.383	-0.207	0.108
-481.376	-100.188	0.085	0.021
-480.362	46.901	0.122	-0.114
-479.347	-54.207	0.019	0.009
-478.332	800.000	-0.060	-0.219
-477.318	81.360	-0.153	-0.166
-476.303	-70.509	-0.130	-0.050
-475.289	-200.000	-0.027	-0.258
-474.274	-200.000	-0.010	-0.071
-473.259	-36.991	-0.277	0.150
-472.245	333.691	-0.075	-0.146
-471.230	309.600	-0.037	-0.070
-470.216	-76.761	0.378	-0.133
-469.201	49.350	-0.197	-0.187
-468.186	-108.919	-0.218	0.047
-467.172	137.955	-0.116	-0.154
-466.157	-160.628	0.370	-0.020
-465.143	-45.829	-0.063	-0.031
-464.128	-200.000	0.040	0.277
-463.113	-4.778	0.280	0.195
-462.099	-61.150	0.246	-0.105
-461.084	-110.065	-0.205	0.043
-460.070	135.210	0.203	-0.267
-459.055	-52.866	0.053	-0.024
-458.040	-133.059	-0.256	0.033
-457.026	-200.000	-0.003	-0.275
-456.011	-14.076	-0.187	-0.122
-454.997	-200.000	0.001	-0.270
-453.982	129.710	-0.155	-0.200
-452.968	800.000	-0.086	0.250
-451.953	-115.917	-0.173	0.033
-450.938	-200.000	-0.013	0.122
-449.924	-200.000	-0.031	0.209
-448.909	102.598	0.161	0.190
-447.895	-200.000	0.084	-0.432
-446.880	-200.000	-0.000	-0.157
-445.865	539.692	0.123	0.294
-444.851	-200.000	-0.070	0.364
-443.836	-200.000	-0.032	0.145
-442.822	-200.000	0.029	0.262
-441.807	647.983	-0.107	0.275
-440.792	-200.000	0.011	-0.128
-439.778	-200.000	-0.035	-0.443
-438.763	154.169	0.071	-0.099
-437.749	-200.000	-0.010	-0.108
-436.734	341.423	0.124	0.244
-435.719	-60.065	0.201	0.086
-434.705	-86.303	0.350	-0.108
-433.690	130.520	0.147	0.189
-432.676	-200.000	-0.009	0.193
-431.661	-102.032	0.142	-0.035
-430.646	33.603	0.123	0.108
-429.632	-68.981	0.297	-0.115
-428.617	285.144	0.126	0.229
-427.603	-105.145	-0.456	0.105
-426.588	-200.000	0.026	0.156
-425.573	-24.376	-0.290	0.174
-424.559	161.873	-0.104	-0.147
-423.544	-8.169	-0.119	0.081
-422.530	311.102	-0.085	0.160
-421.515	108.148	-0.149	-0.179
-420.500	-200.000	0.024	-0.232
-419.486	-0.799	0.154	-0.110
-418.471	800.000	-0.079	0.275
-417.457	-71.001	-0.277	-0.105
-416.442	171.329	0.194	-0.280
-415.428	800.000	0.037	0.155
-414.413	-55.626	0.342	0.154
-413.398	-179.807	0.403	0.009
-412.384	-103.741	-0.204	-0.048
-411.369	413.050	-0.131	-0.280
-410.355	695.616	-0.190	-0.502
-409.340	610.525	0.119	0.299
-408.325	166.618	-0.232	0.331
-407.311	-200.000	-0.029	0.320
-406.296	58.806	-0.105	0.104
-405.282	-87.468	0.297	0.090
-404.267	-16.767	0.165	-0.105
-403.252	800.000	0.068	0.204
-402.238	-200.000	0.017	-0.214
-401.223	99.891	0.236	-0.275
-400.209	-200.000	-0.005	-0.180
-399.194	-104.385	-0.211	0.049
-398.179	210.845	0.121	0.192
-397.165	5.482	-0.077	-0.057
-396.150	-116.681	-0.244	0.045
-395.136	-200.000	0.071	-0.316
-394.121	344.168	0.108	-0.213
-393.106	179.897	0.091	0.134
-392.092	-200.000	0.009	-0.050
-391.077	-60.598	-0.182	0.078
-390.063	-200.000	-0.076	0.362
-389.048	629.172	0.079	0.202
-388.033	670.868	-0.012	0.030
-387.019	-200.000	0.063	0.337
-386.004	-200.000	0.024	0.416
-384.990	800.000	0.109	-0.397
-383.975	-116.752	-0.248	-0.046
-382.960	21.096	-0.114	-0.093
-381.946	-104.342	0.259	0.060
-380.931	57.238	-0.097	0.095
-379.917	-14.332	-0.133	-0.086
-378.902	800.000	0.029	-0.116
-377.888	776.736	-0.078	0.213
-376.873	800.000	-0.113	-0.313
-375.858	290.159	0.121	0.221
-374.844	754.980	-0.117	0.317
-373.829	-187.910	-0.090	0.001
-372.815	-23.303	-0.160	0.096
-371.800	-200.000	-0.006	0.064
-370.785	60.953	0.142	-0.142
-369.771	29.430	0.239	0.204
-368.756	-15.015	0.027	-0.017
-367.742	533.239	0.031	0.075
-366.727	-200.000	0.074	0.000
-365.712	106.628	0.171	-0.203
-364.698	-129.725	0.133	0.018
-363.683	800.000	0.052	-0.178
-362.669	800.000	-0.072	-0.260
-361.654	198.383	0.065	-0.099
-360.639	-74.764	0.120	-0.043
-359.625	537.212	0.083	-0.198
-358.610	361.592	0.048	-0.096
-357.596	358.069	-0.127	0.255
-356.581	-150.664	-0.246	-0.019
-355.566	371.387	-0.018	-0.038
-354.552	-200.000	-0.012	-0.104
-353.537	-103.134	0.205	-0.049
-352.523	32.845	-0.091	-0.079
-351.508	9.641	-0.096	0.073
-350.493	-70.287	0.271	-0.103
-349.479	-96.627	-0.313	-0.083
-348.464	109.518	-0.083	-0.099
-347.450	-200.000	0.043	0.364
-346.435	-200.000	0.014	-0.126
-345.420	181.194	-0.096	0.142
-344.406	-121.689	-0.203	0.034
-343.391	100.535	0.154	0.180
-342.377	-200.000	0.160	-0.000
-341.362	-60.795	-0.162	-0.069
-340.348	173.118	0.248	0.358
-339.333	-98.158	0.064	-0.016
-338.318	-26.923	-0.132	0.077
-337.304	3.752	0.089	0.065
-336.289	800.000	-0.022	-0.093
-335.275	-1.415	-0.302	-0.214
-334.260	-78.929	0.093	0.032
-333.245	281.867	0.086	0.155
-332.231	-113.178	-0.304	-0.060
-331.216	675.016	-0.065	-0.168
-330.202	-29.928	-0.249	0.142
-329.187	-108.735	0.262	-0.056
-328.172	0.356	-0.127	0.091
-327.158	-43.129	-0.278	-0.142
-326.143	-115.958	-0.122	0.023
-325.129	513.179	0.044	-0.103
-324.114	256.575	-0.155	-0.267
-323.099	136.929	-0.101	-0.133
-322.085	-125.612	0.378	-0.058
-321.070	408.718	0.046	-0.098
-320.056	336.091	-0.125	-0.244
-319.041	800.000	0.048	0.149
-318.026	-200.000	0.007	0.042
-317.012	-200.000	0.005	0.107
-315.997	70.170	0.068	-0.071
-314.983	87.100	0.171	-0.189
-313.968	-200.000	0.038	0.295
-312.953	17.907	-0.048	0.039
-311.939	18.247	-0.083	-0.066
-310.924	-200.000	0.053	-0.398
-309.910	144.165	0.293	0.392
-308.895	-141.697	-0.165	0.017
-307.880	516.380	0.060	-0.140
-306.866	147.791	0.145	-0.196
-305.851	800.000	-0.151	0.419
-304.837	-200.000	0.010	-0.074
-303.822	126.013	0.156	-0.197
-302.807	-99.769	0.251	-0.063
-301.793	76.361	0.216	0.229
-300.778	2.079	-0.065	-0.047
-299.764	640.557	-0.040	0.102
-298.749	-200.000	0.009	0.341
-297.735	48.524	0.113	-0.106
-296.720	21.875	-0.263	-0.215
-295.705	662.040	-0.044	0.115
-294.691	11.260	0.101	-0.077
-293.676	-51.994	-0.215	0.100
-292.662	-27.601	-0.103	-0.060
-291.647	-121.910	-0.125	-0.021
-290.632	-200.000	-0.015	-0.102
-289.618	-24.851	-0.404	-0.240
-288.603	-200.000	0.065	-0.371
-287.589	228.575	0.094	0.153
-286.574	-109.676	0.079	-0.017
-285.559	88.701	0.161	-0.179
-284.545	-13.699	0.249	0.162
-283.530	-90.433	-0.108	0.031
-282.516	-67.052	-0.145	-0.057
-281.501	800.000	0.135	-0.409
-280.486	-200.000	0.044	-0.382
-279.472	329.060	0.081	0.155
-278.457	-91.581	-0.101	0.029
-277.443	-162.824	0.303	0.015
-276.428	-42.806	-0.137	-0.070
-275.413	-42.239	-0.224	-0.115
-274.399	-69.316	-0.194	-0.074
-273.384	-200.000	-0.000	0.071
-272.370	58.431	-0.040	0.039
-271.355	27.181	-0.027	0.023
-270.340	158.753	-0.127	0.177
-269.326	62.547	0.164	-0.164
-268.311	-200.000	-0.026	0.408
-267.297	-72.836	-0.116	0.043
-266.282	-45.883	0.367	-0.181
-265.267	-200.000	-0.012	0.366
-264.253	-20.320	-0.106	-0.065
-263.238	154.606	0.081	-0.111
-262.224	-71.639	-0.179	-0.067
-261.209	-50.005	0.228	-0.108
-260.195	226.390	0.125	-0.203
-259.180	11.773	-0.174	-0.133
-258.165	-184.573	-0.322	-0.005
-257.151	333.487	-0.138	0.267
-256.136	-101.563	0.226	0.055
-255.122	34.926	-0.199	0.174
-254.107	-139.863	-0.296	-0.031
-253.092	-58.206	-0.173	0.075
-252.078	-200.000	0.023	0.132
-251.063	-66.452	0.240	0.095
-250.049	-22.027	-0.162	-0.098
-249.034	-114.871	-0.171	0.033
-248.019	47.102	0.166	0.154
-247.005	-77.564	0.173	-0.060
-245.990	800.000	-0.052	-0.158
-244.976	-147.127	-0.123	0.011
-243.961	84.992	-0.073	0.080
-242.946	800.000	0.066	0.224
-241.932	-81.436	0.189	0.062
-240.917	38.323	0.409	-0.365
-239.903	265.762	0.116	0.202
-238.888	256.748	0.024	-0.041
-237.873	-173.556	-0.360	0.011
-236.859	54.576	0.184	0.177
-235.844	-200.000	0.012	0.130
-234.830	140.165	-0.085	-0.112
-233.815	91.339	0.139	-0.156
-232.800	325.878	-0.091	0.175
-231.786	63.597	0.074	-0.074
-230.771	41.048	-0.177	-0.160
-229.757	335.727	-0.095	-0.184
-228.742	800.000	-0.099	-0.342
-227.727	-52.409	0.436	0.202
-226.713	-91.042	-0.197	-0.057
-225.698	36.676	0.189	0.167
-224.684	-22.685	0.284	0.172
-223.669	73.363	-0.092	0.096
-222.655	-200.000	0.038	-0.252
-221.640	130.896	-0.067	0.086
-220.625	-200.000	-0.056	0.385
-219.611	800.000	0.043	-0.185
-218.596	198.567	0.170	0.260
-217.582	-72.699	0.256	-0.094
-216.567	-200.000	-0.007	0.125
-215.552	800.000	0.046	0.163
-214.538	350.928	0.167	0.331
-213.523	127.821	0.087	0.110
-212.509	429.411	-0.027	0.059
-211.494	2.056	-0.136	0.098
-210.479	-28.399	0.189	0.109
-209.465	-200.000	0.004	-0.293
-208.450	800.000	0.092	-0.340
-207.436	-137.473	-0.138	-0.016
-206.421	269.954	-0.039	-0.069
-205.406	-25.225	0.305	-0.180
-204.392	-53.711	0.274	-0.125
-203.377	-91.371	0.416	-0.119
-202.363	-200.000	-0.045	0.239
-201.348	15.391	-0.100	-0.078
-200.333	-200.000	0.070	0.410
-199.319	-170.390	0.132	-0.005
-198.304	301.663	-0.257	0.474
-197.290	6.679	0.149	-0.111
-196.275	-119.154	0.496	0.086
-195.260	74.384	-0.086	0.090
-194.246	-95.688	0.117	0.031
-193.231	223.598	0.193	-0.310
-192.217	-21.797	-0.053	-0.032
-191.202	78.028	-0.157	0.167
-190.187	800.000	-0.037	0.105
-189.173	-200.000	0.013	-0.076
-188.158	1.321	0.061	0.044
-187.144	55.189	-0.406	0.391
-186.129	-150.176	0.211	0.016
-185.114	106.537	0.247	0.293
-184.100	-89.849	-0.136	-0.040
-183.085	308.948	0.101	-0.188
-182.071	316.131	0.079	-0.149
-181.056	-200.000	0.027	0.235
-180.042	60.658	0.284	0.281
-179.027	-52.430	-0.076	-0.035
-178.012	17.630	0.187	-0.148
-176.998	-13.706	-0.293	0.189
-175.983	-18.842	0.259	-0.161
-174.969	204.727	0.126	-0.195
-173.954	800.000	-0.164	0.523
-172.939	-200.000	0.014	0.156
-171.925	47.660	-0.304	0.283
-170.910	82.348	0.237	-0.256
-169.896	-167.245	0.409	-0.016
-168.881	480.475	-0.037	0.084
-167.866	-200.000	-0.038	0.340
-166.852	-84.376	0.309	0.097
-165.837	-82.834	0.301	-0.097
-164.823	800.000	-0.060	0.256
-163.808	128.765	-0.064	0.082
-162.793	-80.649	-0.200	-0.066
-161.779	-200.000	-0.008	0.131
-160.764	-48.541	0.201	0.096
-159.750	-162.508	0.127	-0.006
-158.735	66.882	-0.102	0.103
-157.720	2.577	-0.092	-0.066
-156.706	-38.047	0.466	-0.246
-155.691	84.948	-0.109	0.119
-154.677	-200.000	0.084	0.383
-153.662	-143.742	-0.265	0.025
-152.647	323.102	-0.048	-0.091
-151.633	-45.859	0.153	-0.075
-150.618	253.857	0.045	0.077
-149.604	103.534	0.087	0.101
-148.589	-46.933	-0.242	0.118
-147.574	-200.000	-0.038	0.378
-146.560	800.000	0.038	0.153
-145.545	800.000	-0.138	-0.413
-144.531	24.224	-0.159	0.131
-143.516	1.903	0.074	0.053
-142.502	-55.240	0.392	-0.175
-141.487	-109.193	-0.231	-0.049
-140.472	143.577	0.203	-0.269
-139.458	-99.120	-0.201	-0.051
-138.443	-75.880	0.283	-0.100
-137.429	132.629	0.119	0.153
-136.414	-65.866	-0.321	0.128
-135.399	-200.000	0.009	-0.066
-134.385	-200.000	-0.005	0.079
-133.370	112.875	-0.128	0.154
-132.356	-141.124	0.233	-0.024
-131.341	-54.215	0.274	0.124
-130.326	103.277	0.095	-0.111
-129.312	169.566	0.260	-0.370
-128.297	21.329	0.091	0.074
-127.283	-60.413	0.389	-0.165
-126.268	-171.663	0.402	0.013
-125.253	397.638	-0.100	-0.207
-124.239	-200.000	0.000	0.062
-123.224	800.000	0.019	0.077
-122.210	132.494	-0.137	0.176
