DTS Sentinel unit serial number:	SN413079Multiplexer serial number:	ORYXHardware model number:	OX4-SRSoftware version number:	ORYX F/W v4.00 Oryx Data Collector v3.7.2.0data status	okinstallation	princeton_trtdifferential loss correction	single-endedforward channel	channel 3reverse channel	N/Adate	2019/09/13time	02:56:34forward acquisition time	60.00reverse acquisition time	0.00gamma	496.2192k internal	0.2334k external	0.2334temperature offset calibration	1.0143default loss term (dB/km)	0.3790temperature slope calibration	1.0000multiplexer offset coefficient	1.0000multiplexer slope coefficient	1.0000fibre end	0.00T internal ref (°C)	27.41T ext. ref 1 (°C)	4.05T ext. ref 2 (°C)	22.25length (m)	temperature (°C)	Stokes	anti-Stokes-747.200	-131.142	0.207	0.028
-746.185	-97.420	-0.440	0.115
-745.171	56.703	0.112	0.110
-744.156	-67.847	-0.115	-0.045
-743.142	9.538	-0.280	0.213
-742.127	-58.777	-0.134	0.058
-741.112	21.192	0.201	-0.164
-740.098	649.233	-0.083	-0.214
-739.083	-178.304	-0.259	-0.006
-738.069	-110.126	-0.128	-0.027
-737.054	-36.768	0.099	-0.054
-736.039	-28.034	-0.097	-0.056
-735.025	692.031	-0.044	0.116
-734.010	524.331	-0.134	-0.316
-732.996	9.404	-0.406	-0.309
-731.981	-74.755	0.086	0.031
-730.966	137.414	-0.093	-0.122
-729.952	-200.000	0.045	0.430
-728.937	6.587	-0.276	-0.206
-727.923	-130.307	-0.663	-0.090
-726.908	-14.948	-0.418	-0.269
-725.894	-30.068	0.311	0.178
-724.879	-171.800	-0.166	0.005
-723.864	470.893	-0.099	0.224
-722.850	185.897	-0.239	-0.357
-721.835	-196.422	-0.254	-0.002
-720.821	-40.343	-0.159	-0.083
-719.806	520.192	0.141	-0.331
-718.791	-145.714	-0.214	-0.019
-717.777	800.000	0.029	0.117
-716.762	76.524	-0.192	-0.205
-715.748	645.121	0.019	0.049
-714.733	-200.000	-0.023	0.145
-713.718	-59.696	0.215	-0.092
-712.704	-200.000	-0.044	-0.210
-711.689	130.642	-0.066	0.084
-710.675	-76.004	-0.088	-0.031
-709.660	-19.185	-0.184	-0.115
-708.645	98.574	-0.045	-0.052
-707.631	800.000	-0.041	-0.150
-706.616	208.829	0.082	-0.129
-705.602	800.000	-0.044	-0.145
-704.587	104.461	0.129	0.152
-703.572	-90.264	0.179	0.052
-702.558	-21.135	0.090	-0.055
-701.543	-75.154	-0.261	0.093
-700.529	63.015	-0.169	-0.170
-699.514	-52.381	0.223	0.104
-698.499	172.130	-0.185	-0.268
-697.485	122.593	0.153	0.192
-696.470	-200.000	0.008	-0.193
-695.456	-5.247	0.172	-0.119
-694.441	-54.083	-0.140	-0.064
-693.426	-10.161	-0.240	0.160
-692.412	-200.000	-0.054	-0.237
-691.397	-13.126	0.279	0.182
-690.383	352.446	-0.055	-0.110
-689.368	-68.619	-0.179	0.070
-688.354	183.179	-0.171	-0.253
-687.339	-200.000	-0.031	0.200
-686.324	-46.627	0.296	-0.145
-685.310	800.000	-0.029	0.103
-684.295	-99.927	0.192	0.048
-683.281	456.461	0.153	-0.341
-682.266	-135.265	-0.137	0.016
-681.251	-137.941	-0.067	0.007
-680.237	800.000	-0.030	0.103
-679.222	-200.000	0.011	-0.117
-678.208	125.619	0.214	-0.271
-677.193	241.847	0.127	-0.214
-676.178	18.481	-0.140	-0.112
-675.164	-77.133	0.269	0.094
-674.149	-200.000	0.042	0.217
-673.135	-17.274	-0.135	0.085
-672.120	289.294	-0.090	-0.163
-671.105	3.302	-0.107	-0.078
-670.091	-66.908	-0.184	-0.073
-669.076	117.239	-0.150	0.184
-668.062	-134.782	-0.113	0.014
-667.047	-200.000	-0.034	-0.185
-666.032	-200.000	-0.069	0.325
-665.018	-41.315	0.280	-0.145
-664.003	-4.283	-0.270	-0.187
-662.989	82.721	-0.073	-0.079
-661.974	31.099	-0.211	-0.182
-660.959	800.000	0.125	0.404
-659.945	-116.144	-0.289	-0.054
-658.930	68.524	-0.149	-0.153
-657.916	-200.000	0.002	-0.323
-656.901	-72.116	0.093	0.034
-655.886	74.412	0.227	0.239
-654.872	22.370	-0.159	0.131
-653.857	-97.496	0.203	0.053
-652.843	-83.987	0.231	-0.074
-651.828	-200.000	0.016	-0.167
-650.814	172.491	-0.110	-0.159
-649.799	-34.315	0.195	-0.107
-648.784	23.116	0.200	0.165
-647.770	333.716	-0.109	0.212
-646.755	184.376	-0.116	0.172
-645.741	450.628	0.105	0.231
-644.726	245.628	-0.145	-0.245
-643.711	-20.967	0.376	0.230
-642.697	-43.874	0.175	-0.088
-641.682	720.802	-0.051	0.135
-640.668	36.250	-0.052	0.046
-639.653	-13.634	-0.223	0.145
-638.638	-47.480	-0.334	0.162
-637.624	-81.593	0.083	0.027
-636.609	800.000	0.044	0.167
-635.595	-49.276	0.051	-0.024
-634.580	-200.000	0.005	-0.146
-633.565	430.468	0.073	-0.158
-632.551	-200.000	0.025	-0.146
-631.536	-94.930	0.392	-0.106
-630.522	20.517	-0.036	0.029
-629.507	-90.609	-0.382	-0.110
-628.492	-7.592	0.277	-0.187
-627.478	-73.165	0.452	0.166
-626.463	800.000	-0.053	-0.200
-625.449	-10.162	-0.173	-0.115
-624.434	-98.041	0.176	0.045
-623.419	-84.154	0.133	-0.042
-622.405	-193.704	0.145	0.001
-621.390	-96.891	-0.171	-0.045
-620.376	800.000	-0.031	-0.107
-619.361	294.205	0.049	0.089
-618.346	92.033	0.079	-0.089
-617.332	382.904	-0.051	-0.105
-616.317	83.529	-0.081	0.088
-615.303	-15.465	-0.454	-0.290
-614.288	23.989	-0.350	-0.289
-613.273	201.758	0.165	-0.254
-612.259	495.995	-0.173	-0.397
-611.244	-200.000	-0.007	0.181
-610.230	673.071	-0.021	0.054
-609.215	-200.000	-0.026	-0.226
-608.201	-112.370	0.390	0.078
-607.186	-74.646	-0.101	0.036
-606.171	771.177	0.033	0.089
-605.157	-200.000	-0.042	-0.205
-604.142	-23.330	-0.146	-0.088
-603.128	-200.000	0.009	0.062
-602.113	-2.463	0.058	0.041
-601.098	25.370	-0.197	-0.164
-600.084	-92.845	0.148	-0.041
-599.069	-200.000	-0.017	-0.312
-598.055	-46.462	0.238	-0.117
-597.040	185.921	-0.103	-0.154
-596.025	-200.000	0.001	0.063
-595.011	-200.000	-0.022	-0.128
-593.996	153.784	-0.184	-0.251
-592.982	80.740	0.082	0.088
-591.967	154.232	0.141	0.193
-590.952	800.000	0.018	0.054
-589.938	18.421	-0.143	-0.114
-588.923	-108.732	-0.333	-0.071
-587.909	151.200	-0.094	0.128
-586.894	-130.752	-0.114	0.015
-585.879	-109.136	0.114	-0.024
-584.865	-110.863	-0.265	-0.054
-583.850	-83.347	-0.285	0.091
-582.836	-25.871	0.181	-0.106
-581.821	-109.484	-0.328	0.069
-580.806	-35.988	0.169	-0.091
-579.792	256.879	0.100	0.172
-578.777	-200.000	-0.063	0.300
-577.763	-151.200	-0.453	0.034
-576.748	-200.000	0.044	0.194
-575.733	800.000	-0.064	-0.207
-574.719	30.684	0.194	-0.166
-573.704	800.000	-0.097	0.317
-572.690	58.977	0.075	-0.074
-571.675	17.395	-0.157	0.124
-570.661	757.327	-0.136	0.368
-569.646	-51.503	-0.318	-0.148
-568.631	-90.099	0.342	0.099
-567.617	421.465	-0.042	-0.090
-566.602	39.103	-0.385	-0.343
-565.588	-200.000	-0.009	0.129
-564.573	-62.606	-0.111	0.046
-563.558	800.000	0.028	-0.083
-562.544	351.281	-0.056	-0.112
-561.529	14.840	0.243	-0.190
-560.515	391.405	-0.011	0.023
-559.500	102.734	-0.150	-0.175
-558.485	-200.000	-0.002	-0.051
-557.471	478.381	-0.099	-0.223
-556.456	-44.824	-0.326	0.162
-555.442	-200.000	-0.003	-0.273
-554.427	56.196	-0.060	-0.058
-553.412	701.221	-0.039	-0.103
-552.398	-147.858	0.271	-0.023
-551.383	-70.175	-0.224	0.085
-550.369	-146.095	0.361	0.032
-549.354	-10.351	-0.254	0.168
-548.339	-193.182	-0.136	-0.001
-547.325	-164.287	-0.297	-0.014
-546.310	-200.000	-0.123	-0.000
-545.296	-200.000	-0.025	-0.222
-544.281	-140.633	-0.099	-0.010
-543.266	-139.553	0.286	-0.031
-542.252	-36.021	-0.175	0.094
-541.237	106.388	-0.139	0.164
-540.223	607.207	0.079	0.197
-539.208	-200.000	-0.024	-0.138
-538.193	-17.612	-0.108	0.068
-537.179	144.267	-0.116	0.154
-536.164	-149.327	-0.172	-0.014
-535.150	800.000	-0.142	-0.475
-534.135	800.000	-0.054	0.230
-533.121	-126.066	0.110	0.017
-532.106	-74.281	0.158	-0.057
-531.091	237.478	0.097	0.160
-530.077	-200.000	0.031	-0.147
-529.062	-3.527	-0.235	0.163
-528.048	-196.711	0.181	-0.001
-527.033	-83.567	0.331	0.105
-526.018	-53.976	-0.214	-0.097
-525.004	798.101	0.084	-0.230
-523.989	-200.000	-0.149	0.000
-522.975	-81.974	-0.107	0.035
-521.960	-51.187	0.048	0.022
-520.945	82.220	0.145	0.156
-519.931	800.000	0.043	0.182
-518.916	-96.990	0.254	0.066
-517.902	158.563	0.091	-0.126
-516.887	800.000	0.013	0.042
-515.872	316.728	0.118	0.221
-514.858	72.115	0.249	-0.258
-513.843	17.792	0.131	0.104
-512.829	-102.086	0.201	0.048
-511.814	800.000	-0.071	-0.237
-510.799	-3.683	-0.470	0.325
-509.785	800.000	-0.033	-0.140
-508.770	-23.162	0.084	-0.050
-507.756	-171.031	-0.272	-0.009
-506.741	73.750	0.126	-0.131
-505.726	-144.172	-0.285	0.027
-504.712	61.220	-0.069	0.068
-503.697	-200.000	-0.018	0.242
-502.683	453.582	-0.188	-0.415
-501.668	63.283	-0.204	-0.204
-500.653	800.000	0.064	0.248
-499.639	143.621	-0.057	0.076
-498.624	-42.883	0.090	-0.045
-497.610	31.993	0.127	-0.109
-496.595	-73.227	-0.280	0.102
-495.581	-200.000	-0.031	0.184
-494.566	-172.557	-0.266	0.008
-493.551	31.436	0.051	-0.044
-492.537	40.915	0.141	-0.127
-491.522	0.064	0.215	-0.152
-490.508	-160.268	0.187	-0.010
-489.493	-49.253	-0.234	0.111
-488.478	-98.598	-0.106	-0.027
-487.464	11.877	-0.054	-0.041
-486.449	-65.915	0.244	0.097
-485.435	800.000	0.021	0.075
-484.420	39.231	-0.218	0.194
-483.405	-200.000	-0.026	-0.213
-482.391	-19.612	-0.067	0.041
-481.376	800.000	-0.008	0.031
-480.362	76.280	0.093	0.098
-479.347	-81.812	0.536	-0.175
-478.332	800.000	-0.060	-0.215
-477.318	-8.096	-0.121	-0.081
-476.303	-78.595	0.118	0.040
-475.289	26.040	0.187	-0.155
-474.274	86.686	-0.078	0.085
-473.259	360.358	-0.059	0.117
-472.245	-42.387	0.190	0.096
-471.230	-59.965	0.175	-0.074
-470.216	-200.000	0.063	-0.328
-469.201	-11.452	-0.088	-0.057
-468.186	169.028	-0.133	-0.189
-467.172	274.599	-0.188	0.330
-466.157	117.091	0.125	0.153
-465.143	-200.000	-0.007	-0.035
-464.128	-200.000	0.005	-0.049
-463.113	133.531	0.077	0.099
-462.099	109.173	0.191	0.228
-461.084	-200.000	0.028	-0.198
-460.070	-127.517	0.050	0.007
-459.055	330.574	0.098	0.188
-458.040	800.000	0.084	0.238
-457.026	800.000	-0.122	0.383
-456.011	378.031	0.087	0.177
-454.997	-200.000	0.021	-0.102
-453.982	800.000	0.029	-0.108
-452.968	-101.007	-0.074	-0.018
-451.953	-200.000	-0.032	0.313
-450.938	800.000	0.023	0.091
-449.924	351.613	-0.034	0.066
-448.909	800.000	-0.112	0.349
-447.895	-200.000	0.006	-0.155
-446.880	595.722	0.037	0.091
-445.865	11.278	-0.305	0.232
-444.851	-200.000	0.009	-0.090
-443.836	-89.951	-0.145	-0.042
-442.822	327.811	-0.103	0.197
-441.807	-121.019	-0.323	0.054
-440.792	-200.000	-0.011	-0.050
-439.778	-28.250	0.179	-0.103
-438.763	108.758	0.092	0.109
-437.749	34.635	-0.111	-0.096
-436.734	-33.249	0.191	-0.105
-435.719	-200.000	-0.029	-0.181
-434.705	152.037	0.213	0.289
-433.690	-38.780	0.266	0.139
-432.676	-46.172	-0.250	0.122
-431.661	3.685	0.164	0.119
-430.646	-116.581	0.150	0.027
-429.632	110.062	-0.062	0.074
-428.617	-44.776	-0.140	0.069
-427.603	51.944	0.215	0.203
-426.588	-85.437	0.118	0.037
-425.573	342.902	-0.083	0.160
-424.559	-23.559	-0.209	0.124
-423.544	-37.713	0.184	0.097
-422.530	303.923	0.103	0.189
-421.515	81.747	-0.041	-0.044
-420.500	-43.972	-0.130	0.065
-419.486	-110.238	-0.338	-0.070
-418.471	92.981	0.111	-0.125
-417.457	800.000	-0.027	-0.094
-416.442	55.881	0.033	0.032
-415.428	143.449	-0.127	-0.167
-414.413	-36.661	0.110	0.059
-413.398	-102.751	-0.378	-0.089
-412.384	-200.000	-0.037	0.183
-411.369	46.620	0.170	0.156
-410.355	165.059	-0.117	-0.164
-409.340	-200.000	0.021	0.194
-408.325	153.050	0.108	-0.147
-407.311	-8.245	-0.069	-0.046
-406.296	-200.000	0.035	0.253
-405.282	-81.351	0.167	-0.055
-404.267	243.624	0.063	-0.105
-403.252	-146.241	0.065	0.006
-402.238	-144.696	-0.413	0.038
-401.223	427.351	0.096	0.206
-400.209	498.079	0.076	0.174
-399.194	63.612	-0.119	-0.119
-398.179	-200.000	-0.033	-0.187
-397.165	20.011	-0.048	-0.038
-396.150	623.184	-0.045	-0.114
-395.136	-81.751	0.363	0.118
-394.121	800.000	0.043	0.132
-393.106	44.437	-0.202	0.184
-392.092	800.000	-0.053	0.172
-391.077	-200.000	0.003	-0.018
-390.063	-143.946	-0.177	-0.016
-389.048	101.385	0.150	-0.173
-388.033	52.719	-0.044	-0.042
-387.019	23.601	-0.194	-0.159
-386.004	-126.252	-0.390	0.058
-384.990	-77.547	-0.135	-0.046
-383.975	-113.727	0.094	0.018
-382.960	-65.898	0.254	-0.101
-381.946	-8.511	0.241	-0.161
-380.931	-157.767	0.072	-0.004
-379.917	23.520	-0.079	0.065
-378.902	427.457	-0.081	-0.172
-377.888	-72.774	-0.134	-0.049
-376.873	-153.374	0.231	0.016
-375.858	-200.000	0.008	-0.110
-374.844	-71.733	0.157	0.058
-373.829	800.000	0.048	-0.204
-372.815	24.146	-0.249	-0.203
-371.800	306.741	0.039	-0.073
-370.785	36.849	-0.222	-0.195
-369.771	-61.670	0.106	-0.044
-368.756	98.302	-0.306	-0.350
-367.742	-18.568	0.203	-0.125
-366.727	19.522	-0.273	0.217
-365.712	-121.956	0.265	0.043
-364.698	800.000	0.052	-0.144
-363.683	-27.463	-0.248	0.143
-362.669	104.045	0.278	0.323
-361.654	3.241	0.171	0.123
-360.639	-200.000	0.234	-0.001
-359.625	-65.224	-0.535	-0.213
-358.610	-63.414	-0.318	-0.129
-357.596	72.380	-0.267	0.275
-356.581	-200.000	-0.012	-0.379
-355.566	267.358	0.041	0.071
-354.552	-13.972	-0.204	0.130
-353.537	70.878	0.200	-0.205
-352.523	719.099	0.082	0.216
-351.508	65.299	0.100	0.100
-350.493	-127.001	-0.147	-0.021
-349.479	-200.000	-0.022	-0.186
-348.464	1.989	0.263	0.188
-347.450	166.349	-0.033	-0.046
-346.435	-22.109	0.331	0.199
-345.420	800.000	-0.044	-0.121
-344.406	-11.505	0.259	0.168
-343.391	32.322	-0.166	0.141
-342.377	-33.154	0.185	-0.102
-341.362	800.000	0.062	0.256
-340.348	-87.844	-0.034	-0.010
-339.333	272.677	0.055	-0.095
-338.318	346.090	0.122	0.236
-337.304	131.605	0.199	0.254
-336.289	-151.170	-0.095	-0.007
-335.275	-11.615	-0.162	0.105
-334.260	-200.000	0.038	0.370
-333.245	33.430	0.171	0.147
-332.231	-200.000	-0.061	0.283
-331.216	-81.060	-0.224	-0.073
-330.202	201.076	-0.178	-0.271
-329.187	-48.595	0.089	0.042
-328.172	-200.000	-0.037	-0.250
-327.158	218.374	-0.090	0.142
-326.143	-80.190	-0.134	-0.044
-325.129	-200.000	-0.016	0.098
-324.114	-200.000	0.032	0.181
-323.099	142.868	0.170	-0.223
-322.085	-35.941	-0.380	-0.203
-321.070	195.384	-0.033	-0.050
-320.056	-200.000	0.030	0.313
-319.041	31.524	0.089	0.076
-318.026	768.025	0.060	0.163
-317.012	-164.127	0.276	-0.013
-315.997	90.977	0.169	0.187
-314.983	-200.000	0.006	0.029
-313.968	88.766	-0.178	0.195
-312.953	10.555	-0.130	-0.098
-311.939	3.178	-0.128	-0.092
-310.924	380.369	-0.076	-0.155
-309.910	444.457	0.180	0.391
-308.895	677.628	0.065	0.167
-307.880	-200.000	-0.002	-0.056
-306.866	-65.976	-0.138	-0.055
-305.851	251.984	-0.109	-0.184
-304.837	34.076	-0.219	-0.189
-303.822	-118.594	0.074	-0.013
-302.807	-200.000	-0.015	0.448
-301.793	-68.340	0.225	-0.086
-300.778	-167.322	0.082	0.003
-299.764	81.995	-0.105	0.113
-298.749	208.210	0.196	-0.302
-297.735	101.132	0.057	0.066
-296.720	-175.829	0.135	-0.004
-295.705	126.849	-0.083	0.104
-294.691	15.136	-0.102	0.079
-293.676	107.269	-0.078	0.092
-292.662	151.785	0.101	0.136
-291.647	-39.460	-0.149	0.077
-290.632	-24.345	-0.336	0.198
-289.618	50.888	0.185	0.173
-288.603	487.141	-0.102	-0.230
-287.589	-115.094	0.309	-0.058
-286.574	96.930	0.016	0.019
-285.559	800.000	0.065	0.237
-284.545	32.452	-0.064	0.055
-283.530	31.107	0.364	0.308
-282.516	-71.424	-0.237	-0.088
-281.501	-144.862	-0.065	-0.006
-280.486	132.269	0.278	-0.354
-279.472	-75.501	0.333	-0.117
-278.457	111.406	-0.142	-0.168
-277.443	-63.178	-0.042	-0.017
-276.428	-6.786	0.031	-0.021
-275.413	17.875	0.310	-0.243
-274.399	-54.469	0.219	-0.098
-273.384	239.419	-0.104	0.171
-272.370	-109.109	-0.157	0.033
-271.355	-48.598	-0.089	-0.042
-270.340	-90.586	-0.010	0.003
-269.326	-9.592	0.153	0.101
-268.311	-175.442	0.375	-0.010
-267.297	-154.103	0.245	-0.016
-266.282	-60.851	-0.234	0.098
-265.267	-21.769	0.289	-0.173
-264.253	-200.000	-0.019	-0.202
-263.238	-143.740	-0.138	-0.013
-262.224	269.395	-0.084	-0.146
-261.209	-49.355	-0.121	-0.057
-260.195	41.061	0.090	0.080
-259.180	-200.000	-0.014	-0.087
-258.165	107.512	-0.070	0.082
-257.151	82.518	0.042	-0.045
-256.136	370.217	-0.029	-0.058
-255.122	-173.488	-0.163	-0.005
-254.107	229.631	0.060	-0.096
-253.092	77.889	0.271	-0.285
-252.078	569.005	-0.056	-0.133
-251.063	-200.000	0.036	0.176
-250.049	36.136	0.241	0.210
-249.034	-45.392	0.342	-0.167
-248.019	-13.258	0.112	-0.071
-247.005	-69.765	-0.118	-0.044
-245.990	-74.602	0.251	-0.089
-244.976	-1.968	-0.470	-0.326
-243.961	-83.330	-0.113	0.036
-242.946	405.319	0.010	-0.021
-241.932	-29.836	0.173	-0.097
-240.917	79.576	-0.085	0.090
-239.903	-200.000	0.025	0.144
-238.888	-12.161	0.101	-0.065
-237.873	-17.830	0.201	0.124
-236.859	-124.122	-0.173	0.027
-235.844	21.271	-0.160	-0.128
-234.830	-200.000	0.017	0.073
-233.815	144.432	0.053	0.070
-232.800	472.230	-0.081	0.179
-231.786	-102.098	-0.153	-0.036
-230.771	722.406	0.028	-0.073
-229.757	295.017	-0.132	-0.238
-228.742	800.000	0.048	-0.149
-227.727	69.841	0.235	-0.239
-226.713	309.810	0.097	0.179
-225.698	-200.000	0.031	0.176
-224.684	-200.000	0.056	-0.540
-223.669	-200.000	0.088	0.404
-222.655	211.227	-0.073	0.114
-221.640	-68.233	0.435	0.167
-220.625	-58.703	-0.224	0.096
-219.611	10.251	-0.148	-0.111
-218.596	-97.446	-0.163	0.042
-217.582	800.000	-0.034	-0.114
-216.567	27.637	0.233	0.193
-215.552	215.306	-0.118	0.184
-214.538	-48.060	0.083	0.039
-213.523	-81.906	-0.110	0.035
-212.509	-82.115	-0.132	0.042
-211.494	352.467	0.141	-0.276
-210.479	254.927	-0.093	0.158
-209.465	76.109	-0.105	-0.109
-208.450	-8.401	0.216	-0.143
-207.436	-200.000	0.003	0.201
-206.421	-50.651	0.235	-0.109
-205.406	595.028	0.041	0.101
-204.392	800.000	0.028	0.084
-203.377	-87.295	0.522	-0.156
-202.363	754.450	-0.082	0.219
-201.348	-200.000	0.052	0.316
-200.333	385.637	-0.137	0.278
-199.319	480.039	0.119	-0.266
-198.304	-63.166	0.217	-0.088
-197.290	-65.567	-0.171	0.068
-196.275	-200.000	-0.002	-0.269
-195.260	605.516	0.111	-0.272
-194.246	-200.000	0.297	0.000
-193.231	-200.000	-0.007	0.050
-192.217	800.000	0.107	-0.372
-191.202	77.178	-0.027	-0.028
-190.187	-40.767	0.385	-0.196
-189.173	-141.148	-0.149	-0.015
-188.158	353.255	-0.079	-0.155
-187.144	88.153	0.089	0.097
-186.129	252.004	0.095	-0.159
-185.114	52.637	-0.173	-0.162
-184.100	-112.171	0.206	0.041
-183.085	-200.000	0.013	0.104
-182.071	-24.803	-0.272	0.159
-181.056	800.000	0.069	-0.270
-180.042	221.997	0.130	0.206
-179.027	-200.000	-0.028	-0.241
-178.012	-131.793	-0.161	-0.021
-176.998	128.948	-0.112	-0.140
-175.983	289.164	-0.107	-0.190
-174.969	-200.000	-0.001	0.121
-173.954	58.992	0.131	0.127
-172.939	-137.297	0.058	0.007
-171.925	800.000	0.063	0.189
-170.910	627.029	-0.102	-0.253
-169.896	316.348	-0.121	-0.225
-168.881	800.000	0.046	0.179
-167.866	-196.332	-0.302	-0.002
-166.852	800.000	0.164	-0.482
-165.837	178.962	0.129	-0.186
-164.823	193.982	0.075	0.112
-163.808	175.396	-0.067	0.095
-162.793	-200.000	-0.052	0.363
-161.779	-45.925	0.196	-0.095
-160.764	-58.498	0.119	0.051
-159.750	448.272	0.122	0.265
-158.735	232.689	0.196	-0.317
-157.720	-200.000	0.044	-0.294
-156.706	455.219	0.019	-0.041
-155.691	-117.774	-0.508	-0.090
-154.677	-127.730	0.126	0.018
-153.662	249.568	0.139	0.232
-152.647	116.879	-0.233	0.281
-151.633	-134.894	-0.103	0.012
-150.618	108.327	-0.246	-0.288
-149.604	-200.000	-0.054	0.436
-148.589	800.000	0.094	-0.397
-147.574	2.625	-0.172	0.122
-146.560	332.671	0.097	0.184
-145.545	103.119	0.054	0.062
-144.531	-74.662	-0.161	-0.057
-143.516	9.943	-0.234	-0.174
-142.502	-35.573	-0.277	-0.148
-141.487	800.000	-0.034	0.130
-140.472	-23.729	0.233	-0.137
-139.458	-45.909	-0.099	0.048
-138.443	-100.336	-0.150	-0.037
-137.429	-200.000	-0.027	0.166
-136.414	-98.295	0.381	0.096
-135.399	138.085	-0.094	-0.121
-134.385	460.986	0.106	0.233
-133.370	800.000	0.031	-0.094
-132.356	-200.000	-0.003	0.471
-131.341	-200.000	0.028	-0.146
-130.326	-200.000	0.072	0.000
-129.312	-116.500	0.206	-0.037
-128.297	170.736	0.125	0.176
-127.283	17.070	0.172	0.134
-126.268	-164.248	-0.342	-0.015
-125.253	-178.496	0.172	0.004
-124.239	-85.074	-0.722	0.222
-123.224	-200.000	-0.033	0.186
-122.210	80.519	0.099	-0.105
-121.195	-83.454	-0.115	0.036
