DTS Sentinel unit serial number:	SN413079Multiplexer serial number:	ORYXHardware model number:	OX4-SRSoftware version number:	ORYX F/W v4.00 Oryx Data Collector v3.7.2.0data status	okinstallation	princeton_trtdifferential loss correction	single-endedforward channel	channel 3reverse channel	N/Adate	2019/09/16time	13:32:35forward acquisition time	60.00reverse acquisition time	0.00gamma	496.2192k internal	0.2293k external	0.2293temperature offset calibration	0.9939default loss term (dB/km)	0.3790temperature slope calibration	1.0000multiplexer offset coefficient	1.0000multiplexer slope coefficient	1.0000fibre end	0.00T internal ref (°C)	41.84T ext. ref 1 (°C)	13.84T ext. ref 2 (°C)	40.04length (m)	temperature (°C)	Stokes	anti-Stokes-747.200	-200.000	-0.062	-0.352
-746.185	-114.693	0.127	0.025
-745.171	149.522	0.123	-0.171
-744.156	-112.758	0.275	0.056
-743.142	-47.674	0.152	-0.075
-742.127	-93.005	0.181	0.052
-741.112	152.517	-0.050	0.069
-740.098	286.422	-0.188	0.346
-739.083	-140.637	0.098	0.010
-738.069	-78.267	-0.073	-0.026
-737.054	-94.997	0.171	-0.047
-736.039	-93.735	-0.106	-0.030
-735.025	441.886	-0.112	0.250
-734.010	-85.617	-0.158	-0.050
-732.996	800.000	-0.107	-0.303
-731.981	58.476	0.128	0.129
-730.966	42.849	-0.064	-0.059
-729.952	303.014	0.092	-0.175
-728.937	61.095	-0.214	-0.217
-727.923	70.832	-0.182	0.193
-726.908	-124.542	0.088	-0.014
-725.894	-185.168	-0.414	0.007
-724.879	-200.000	0.046	0.439
-723.864	78.754	-0.264	-0.289
-722.850	-200.000	-0.042	0.221
-721.835	301.330	-0.091	0.171
-720.821	111.708	0.131	-0.162
-719.806	-95.885	0.130	0.036
-718.791	-113.651	0.213	-0.042
-717.777	-27.286	0.288	-0.171
-716.762	-87.431	-0.100	0.031
-715.748	-38.845	-0.083	0.045
-714.733	-54.817	0.202	-0.093
-713.718	-200.000	0.002	0.178
-712.704	-200.000	-0.017	-0.252
-711.689	-200.000	0.006	-0.093
-710.675	331.242	-0.013	0.025
-709.660	23.329	-0.084	0.071
-708.645	180.770	-0.038	0.057
-707.631	-85.936	0.196	-0.062
-706.616	-200.000	-0.015	-0.149
-705.602	-147.331	0.276	0.024
-704.587	-200.000	0.008	-0.226
-703.572	-200.000	-0.018	0.096
-702.558	207.036	-0.108	-0.172
-701.543	-67.086	0.154	0.062
-700.529	-200.000	0.075	0.421
-699.514	49.179	0.122	0.117
-698.499	89.982	0.102	-0.117
-697.485	-24.160	0.104	-0.064
-696.470	41.253	0.242	0.224
-695.456	-67.281	-0.215	0.087
-694.441	-169.613	0.036	0.001
-693.426	129.324	-0.148	0.193
-692.412	44.162	-0.064	-0.060
-691.397	-55.640	0.096	0.044
-690.383	190.860	0.137	-0.211
-689.368	130.772	-0.109	-0.143
-688.354	31.454	0.108	0.095
-687.339	-200.000	-0.010	0.188
-686.324	54.883	-0.204	-0.201
-685.310	25.972	0.204	0.174
-684.295	550.830	0.074	0.182
-683.281	477.006	-0.074	-0.171
-682.266	322.550	-0.073	0.142
-681.251	-44.466	-0.409	0.209
-680.237	-39.081	0.082	0.044
-679.222	-117.957	0.237	-0.043
-678.208	-81.642	-0.285	0.096
-677.193	800.000	-0.129	-0.458
-676.178	13.639	-0.117	0.092
-675.164	-141.535	-0.061	0.006
-674.149	28.916	0.199	0.172
-673.135	800.000	0.090	0.321
-672.120	-200.000	0.019	-0.187
-671.105	121.740	-0.039	-0.049
-670.091	800.000	0.051	-0.213
-669.076	75.468	0.205	-0.221
-668.062	-90.593	0.342	0.101
-667.047	-200.000	-0.018	0.000
-666.032	-200.000	0.033	-0.201
-665.018	133.949	-0.100	0.132
-664.003	-200.000	-0.013	-0.062
-662.989	-95.822	0.209	-0.057
-661.974	297.805	-0.057	-0.107
-660.959	-200.000	0.022	0.212
-659.945	327.063	0.092	-0.180
-658.930	-200.000	-0.006	-0.286
-657.916	-107.050	0.435	0.098
-656.901	-200.000	0.011	0.200
-655.886	-116.556	-0.084	0.016
-654.872	-172.109	0.290	0.010
-653.857	-123.331	0.231	0.038
-652.843	800.000	-0.151	-0.462
-651.828	800.000	-0.050	-0.187
-650.814	-141.163	-0.518	-0.054
-649.799	-200.000	0.002	-0.113
-648.784	-200.000	0.092	-0.463
-647.770	-4.282	-0.167	0.118
-646.755	106.229	0.143	0.173
-645.741	-156.113	-0.180	-0.012
-644.726	-200.000	-0.009	-0.165
-643.711	-78.055	0.119	0.042
-642.697	451.974	0.146	0.329
-641.682	-69.100	-0.406	-0.159
-640.668	251.019	0.152	0.263
-639.653	-67.089	0.047	0.019
-638.638	-34.677	-0.162	0.091
-637.624	800.000	0.090	-0.351
-636.609	43.647	0.196	-0.183
-635.595	800.000	-0.104	-0.369
-634.580	-111.537	-0.232	-0.048
-633.565	-148.334	-0.136	0.011
-632.551	800.000	0.012	-0.037
-631.536	-28.669	-0.155	-0.091
-630.522	-74.573	-0.090	0.033
-629.507	50.473	0.219	-0.211
-628.492	-200.000	-0.009	-0.267
-627.478	90.536	-0.312	-0.356
-626.463	336.580	0.035	-0.070
-625.449	-200.000	-0.042	0.192
-624.434	-200.000	-0.003	-0.088
-623.419	-134.320	0.089	-0.011
-622.405	-132.646	0.136	-0.018
-621.390	-18.236	0.386	0.246
-620.376	-7.478	0.068	-0.047
-619.361	306.790	0.192	-0.365
-618.346	264.662	0.045	0.081
-617.332	-150.505	0.452	-0.035
-616.317	-88.635	0.072	0.022
-615.303	-128.457	-0.124	0.018
-614.288	108.021	0.104	-0.126
-613.273	-24.498	-0.107	0.065
-612.259	-200.000	0.018	0.240
-611.244	319.123	0.047	-0.090
-610.230	-40.007	-0.221	-0.118
-609.215	419.512	-0.134	0.293
-608.201	8.332	-0.153	-0.117
-607.186	800.000	-0.090	0.274
-606.171	-119.877	-0.231	-0.040
-605.157	-43.372	0.178	-0.091
-604.142	43.270	0.105	0.097
-603.128	-76.678	0.255	0.091
-602.113	-101.717	-0.273	-0.067
-601.098	1.201	-0.145	-0.106
-600.084	-200.000	-0.013	-0.195
-599.069	205.712	0.075	-0.118
-598.055	-28.788	-0.019	0.011
-597.040	-103.761	0.301	0.072
-596.025	-83.605	0.224	0.073
-595.011	59.325	0.194	0.195
-593.996	-200.000	0.085	0.433
-592.982	48.981	0.193	0.184
-591.967	-182.296	-0.176	0.003
-590.952	-86.794	0.262	-0.082
-589.938	101.123	0.167	0.197
-588.923	-114.335	-0.216	-0.042
-587.909	15.273	-0.143	-0.114
-586.894	244.070	0.067	-0.115
-585.879	-23.748	0.219	-0.134
-584.865	466.348	-0.092	-0.210
-583.850	-181.389	0.241	0.005
-582.836	179.359	-0.120	0.178
-581.821	-200.000	0.018	0.276
-580.806	-4.617	0.188	-0.132
-579.792	12.748	-0.193	0.151
-578.777	-171.505	-0.281	0.009
-577.763	-192.331	-0.222	0.002
-576.748	142.958	-0.146	0.197
-575.733	-53.431	0.259	0.120
-574.719	108.258	0.213	-0.259
-573.704	13.343	-0.282	-0.222
-572.690	800.000	0.043	-0.141
-571.675	-119.361	0.141	-0.025
-570.661	-153.367	-0.034	-0.002
-569.646	800.000	0.111	0.311
-568.631	-99.401	-0.129	-0.033
-567.617	-45.040	-0.252	-0.127
-566.602	800.000	-0.078	-0.298
-565.588	-200.000	-0.063	0.443
-564.573	181.355	0.203	0.303
-563.558	-172.240	-0.179	0.006
-562.544	416.642	0.030	-0.065
-561.529	-27.909	-0.233	0.137
-560.515	1.354	-0.063	-0.046
-559.500	184.236	-0.066	0.100
-558.485	-137.942	-0.262	-0.030
-557.471	43.223	0.134	-0.124
-556.456	-28.830	-0.080	0.047
-555.442	800.000	-0.003	-0.011
-554.427	335.898	0.203	0.400
-553.412	-104.463	0.115	0.027
-552.398	21.819	-0.237	-0.196
-551.383	-16.312	-0.155	-0.100
-550.369	-103.250	-0.193	0.046
-549.354	-200.000	0.027	-0.345
-548.339	-200.000	-0.026	-0.138
-547.325	215.471	0.091	-0.147
-546.310	671.760	-0.134	0.352
-545.296	737.112	0.068	0.184
-544.281	144.886	0.183	-0.248
-543.266	506.813	0.025	0.060
-542.252	800.000	0.047	0.150
-541.237	-105.730	0.143	-0.033
-540.223	197.440	-0.047	-0.073
-539.208	-200.000	0.060	-0.477
-538.193	115.845	0.174	0.216
-537.179	43.290	0.302	0.280
-536.164	-81.324	-0.224	-0.075
-535.150	-200.000	0.058	0.368
-534.135	19.930	0.414	-0.338
-533.121	5.522	-0.169	0.126
-532.106	120.118	0.080	0.101
-531.091	176.967	-0.032	-0.047
-530.077	628.370	-0.080	-0.205
-529.062	-200.000	0.024	0.138
-528.048	-44.313	-0.114	-0.058
-527.033	-63.381	-0.310	-0.130
-526.018	-172.350	-0.037	0.001
-525.004	503.605	-0.053	-0.124
-523.989	-114.314	-0.261	-0.051
-522.975	-34.290	0.097	0.054
-521.960	-107.777	0.266	-0.059
-520.945	44.622	-0.216	-0.202
-519.931	-36.351	-0.154	0.084
-518.916	-157.432	-0.208	-0.013
-517.902	-117.685	-0.024	0.004
-516.887	-40.812	-0.193	-0.101
-515.872	-138.342	-0.073	0.008
-514.858	31.906	-0.111	-0.097
-513.843	-115.625	-0.252	-0.048
-512.829	-30.341	-0.329	-0.189
-511.814	-165.361	0.373	0.017
-510.799	499.035	0.050	0.116
-509.785	573.596	0.090	-0.223
-508.770	-140.090	-0.026	0.003
-507.756	-129.372	-0.301	0.042
-506.741	30.197	-0.164	0.142
-505.726	-23.823	0.324	-0.197
-504.712	9.895	0.110	-0.084
-503.697	-200.000	0.003	-0.089
-502.683	29.218	-0.096	-0.083
-501.668	198.344	0.242	0.375
-500.653	-119.090	-0.490	-0.087
-499.639	204.352	0.094	-0.147
-498.624	-106.117	0.063	-0.014
-497.610	-200.000	-0.010	0.246
-496.595	192.334	-0.213	0.326
-495.581	-200.000	0.019	-0.203
-494.566	395.711	0.085	0.180
-493.551	73.032	0.285	0.301
-492.537	11.749	-0.099	0.077
-491.522	113.718	-0.122	0.150
-490.508	61.463	-0.228	-0.230
-489.493	-200.000	0.025	-0.168
-488.478	-28.894	0.155	0.090
-487.464	-43.494	-0.109	0.056
-486.449	-17.686	0.303	-0.193
-485.435	12.137	0.256	-0.199
-484.420	218.855	0.082	0.133
-483.405	121.476	0.087	0.110
-482.391	-126.771	0.240	-0.036
-481.376	-113.968	-0.160	-0.031
-480.362	-156.438	-0.121	0.008
-479.347	-200.000	-0.038	0.249
-478.332	-200.000	-0.034	0.257
-477.318	-91.297	-0.232	0.067
-476.303	-29.685	-0.194	-0.112
-475.289	204.310	-0.139	0.218
-474.274	-200.000	-0.026	-0.514
-473.259	30.403	-0.267	-0.231
-472.245	2.285	0.219	0.160
-471.230	-34.069	0.028	-0.016
-470.216	-27.175	0.045	-0.027
-469.201	-124.571	0.184	0.029
-468.186	-74.686	-0.174	-0.063
-467.172	623.878	-0.039	-0.100
-466.157	157.374	0.047	-0.066
-465.143	-200.000	-0.011	-0.131
-464.128	-198.978	0.172	0.001
-463.113	-200.000	0.023	0.142
-462.099	194.103	0.057	0.087
-461.084	272.412	0.052	-0.093
-460.070	800.000	0.009	-0.024
-459.055	-128.094	0.067	0.010
-458.040	-78.527	-0.197	-0.068
-457.026	-200.000	-0.044	0.232
-456.011	-45.537	-0.024	0.012
-454.997	-107.355	0.260	0.058
-453.982	-142.199	0.042	-0.004
-452.968	-40.130	-0.294	0.155
-451.953	-90.580	-0.187	0.055
-450.938	33.180	-0.128	0.112
-449.924	3.960	-0.204	-0.150
-448.909	-104.903	0.053	0.012
-447.895	71.175	0.104	-0.109
-446.880	-113.445	0.141	0.028
-445.865	-200.000	-0.019	-0.317
-444.851	1.151	-0.157	-0.114
-443.836	-200.000	0.039	-0.215
-442.822	-92.519	0.225	0.064
-441.807	-24.300	-0.290	-0.175
-440.792	-115.797	-0.085	-0.016
-439.778	-190.609	0.036	-0.000
-438.763	-74.874	-0.309	-0.112
-437.749	800.000	-0.055	-0.164
-436.734	-23.646	-0.235	-0.142
-435.719	800.000	-0.010	-0.041
-434.705	-200.000	-0.001	0.093
-433.690	574.075	0.083	0.204
-432.676	-38.300	-0.357	0.191
-431.661	-200.000	0.005	-0.168
-430.646	-133.082	0.097	0.012
-429.632	-34.796	0.143	0.079
-428.617	-90.421	-0.048	0.014
-427.603	423.912	0.032	0.070
-426.588	-65.020	0.173	0.071
-425.573	-200.000	0.106	-0.494
-424.559	-89.446	-0.222	-0.066
-423.544	-197.012	0.281	0.002
-422.530	-124.383	-0.380	0.060
-421.515	82.536	0.187	-0.205
-420.500	-140.045	-0.326	0.035
-419.486	106.054	-0.069	-0.083
-418.471	-55.311	0.161	0.073
-417.457	51.307	0.238	0.228
-416.442	180.883	-0.139	0.206
-415.428	-109.211	-0.368	-0.079
-414.413	625.075	0.034	0.087
-413.398	800.000	0.097	-0.282
-412.384	-44.801	0.294	-0.148
-411.369	731.863	-0.091	-0.247
-410.355	-91.263	-0.427	0.123
-409.340	26.053	0.146	0.123
-408.325	127.897	0.199	-0.256
-407.311	84.481	-0.065	-0.072
-406.296	709.868	-0.080	-0.215
-405.282	-38.193	-0.329	0.176
-404.267	-23.035	-0.122	0.074
-403.252	-56.587	0.258	0.116
-402.238	-40.459	0.188	0.098
-401.223	170.189	-0.235	0.340
-400.209	-134.669	-0.124	-0.015
-399.194	2.391	-0.207	0.151
-398.179	61.079	0.181	-0.182
-397.165	361.421	-0.082	-0.166
-396.150	11.950	0.115	-0.090
-395.136	-178.781	0.313	-0.007
-394.121	3.500	-0.166	0.122
-393.106	-112.563	-0.218	0.044
-392.092	-200.000	0.034	-0.274
-391.077	-28.691	-0.120	-0.070
-390.063	800.000	-0.095	-0.270
-389.048	94.103	0.117	0.134
-388.033	-126.735	0.119	0.018
-387.019	18.843	-0.049	-0.040
-386.004	-72.796	-0.202	-0.075
-384.990	-159.285	-0.219	-0.012
-383.975	-198.084	-0.100	-0.001
-382.960	-77.812	-0.165	-0.057
-381.946	-12.081	-0.165	0.109
-380.931	-47.689	0.067	0.033
-379.917	96.195	0.236	-0.272
-378.902	-184.996	-0.239	-0.004
-377.888	-8.180	0.118	-0.080
-376.873	-200.000	0.001	0.079
-375.858	-12.669	-0.192	-0.126
-374.844	-18.786	0.248	0.156
-373.829	344.474	-0.072	0.143
-372.815	-151.876	-0.053	-0.004
-371.800	-87.495	-0.053	0.016
-370.785	-200.000	0.010	0.075
-369.771	-37.362	-0.212	0.114
-368.756	-68.993	0.201	-0.078
-367.742	-136.834	0.340	0.039
-366.727	68.336	0.150	-0.155
-365.712	800.000	0.061	-0.172
-364.698	595.976	0.073	0.182
-363.683	61.460	-0.045	-0.045
-362.669	-172.760	-0.130	-0.004
-361.654	800.000	-0.076	-0.325
-360.639	492.390	0.039	-0.089
-359.625	353.225	0.090	-0.179
-358.610	800.000	0.141	0.485
-357.596	-109.786	0.292	0.062
-356.581	-43.931	-0.259	0.131
-355.566	-158.854	0.075	0.004
-354.552	-71.245	-0.263	0.099
-353.537	-113.494	0.289	0.057
-352.523	-200.000	-0.053	-0.373
-351.508	29.236	-0.080	0.069
-350.493	-109.718	0.372	-0.079
-349.479	-132.836	-0.200	-0.026
-348.464	800.000	0.121	-0.341
-347.450	-18.755	-0.174	-0.109
-346.435	18.238	0.421	0.338
-345.420	23.515	-0.151	-0.125
-344.406	101.562	-0.096	-0.112
-343.391	-97.314	0.072	0.019
-342.377	-105.940	-0.266	-0.060
-341.362	0.780	-0.147	0.106
-340.348	51.497	0.035	0.033
-339.333	60.809	0.155	-0.155
-338.318	-200.000	-0.041	-0.197
-337.304	267.900	-0.008	0.014
-336.289	-51.294	-0.263	-0.124
-335.275	-144.166	0.156	-0.015
-334.260	800.000	-0.041	-0.139
-333.245	101.593	0.130	-0.153
-332.231	-200.000	0.041	-0.255
-331.216	63.379	0.303	-0.306
-330.202	76.332	0.224	-0.239
-329.187	-38.582	-0.214	-0.114
-328.172	11.201	0.334	-0.257
-327.158	-111.508	0.090	0.018
-326.143	-70.816	0.193	0.073
-325.129	52.694	0.115	-0.110
-324.114	29.896	0.434	0.372
-323.099	-91.219	-0.053	0.015
-322.085	800.000	0.138	-0.507
-321.070	-98.208	-0.086	0.022
-320.056	-123.337	-0.299	0.048
-319.041	-85.209	-0.119	0.037
-318.026	-3.357	0.313	-0.219
-317.012	-63.884	0.225	0.093
-315.997	527.786	0.021	-0.049
-314.983	800.000	0.071	-0.281
-313.968	219.313	-0.066	0.107
-312.953	800.000	0.110	0.319
-311.939	800.000	-0.028	-0.117
-310.924	800.000	-0.087	-0.243
-309.910	-87.826	-0.205	-0.062
-308.895	-200.000	-0.023	-0.185
-307.880	33.871	0.295	0.258
-306.866	67.380	0.013	-0.013
-305.851	-162.484	0.404	-0.020
-304.837	79.708	0.040	0.043
-303.822	800.000	0.043	-0.158
-302.807	-106.770	-0.288	-0.064
-301.793	32.749	0.104	0.090
-300.778	-82.232	0.149	0.049
-299.764	-70.648	0.133	0.051
-298.749	105.638	-0.097	0.116
-297.735	-200.000	-0.003	-0.102
-296.720	-135.758	0.180	-0.021
-295.705	110.505	0.111	0.134
-294.691	30.809	0.172	0.148
-293.676	-92.057	0.202	0.057
-292.662	-78.269	-0.250	-0.086
-291.647	-200.000	-0.029	-0.158
-290.632	-200.000	0.051	0.264
-289.618	-68.787	0.230	0.089
-288.603	407.016	-0.020	0.042
-287.589	5.982	-0.056	0.042
-286.574	63.494	0.114	0.115
-285.559	-114.218	0.204	0.040
-284.545	442.120	-0.069	0.152
-283.530	800.000	-0.046	0.163
-282.516	-111.670	-0.188	0.038
-281.501	-76.039	-0.253	-0.090
-280.486	-159.084	0.235	-0.013
-279.472	-77.028	0.208	-0.073
-278.457	-200.000	0.006	0.055
-277.443	-85.195	-0.148	-0.046
-276.428	-200.000	0.020	-0.098
-275.413	86.667	-0.029	0.032
-274.399	-200.000	-0.003	-0.281
-273.384	-3.264	0.293	0.205
-272.370	-115.451	0.235	-0.044
-271.355	367.547	0.070	0.143
-270.340	-83.323	0.132	-0.043
-269.326	395.626	-0.091	0.191
-268.311	-200.000	-0.050	0.333
-267.297	50.159	-0.226	0.214
-266.282	4.090	0.123	0.090
-265.267	-200.000	0.017	0.375
-264.253	-92.102	-0.195	0.055
-263.238	82.150	-0.149	0.162
-262.224	422.481	0.097	0.209
-261.209	800.000	-0.128	0.457
-260.195	-137.394	0.198	0.023
-259.180	-22.548	0.193	-0.117
-258.165	109.651	0.179	0.215
-257.151	-200.000	-0.081	0.383
-256.136	140.903	0.092	0.122
-255.122	-61.328	0.218	0.092
-254.107	362.951	0.035	0.070
-253.092	245.210	0.031	0.053
-252.078	-200.000	0.013	-0.194
-251.063	-89.907	-0.128	0.038
-250.049	-91.766	0.080	0.023
-249.034	-33.314	-0.298	0.166
-248.019	107.681	-0.101	-0.121
-247.005	-63.795	0.255	-0.105
-245.990	-101.996	0.064	0.015
-244.976	142.878	-0.082	0.109
-243.961	-19.874	-0.126	0.078
-242.946	724.512	-0.044	0.118
-241.932	58.744	0.333	0.328
-240.917	190.472	-0.158	-0.238
-239.903	-73.285	-0.204	-0.075
-238.888	43.682	0.065	-0.059
-237.873	800.000	0.056	-0.244
-236.859	104.379	-0.056	0.066
-235.844	-200.000	-0.045	-0.222
-234.830	-200.000	-0.010	0.055
-233.815	800.000	0.049	0.142
-232.800	800.000	0.062	-0.188
-231.786	34.986	0.094	-0.083
-230.771	-200.000	-0.024	0.207
-229.757	24.511	0.352	0.292
-228.742	-24.586	0.369	0.220
-227.727	483.378	0.140	-0.320
-226.713	-130.344	-0.194	0.026
-225.698	-49.886	0.070	-0.033
-224.684	800.000	-0.077	0.315
-223.669	481.074	0.049	0.113
-222.655	-173.032	-0.232	0.007
-221.640	-4.947	-0.117	-0.081
-220.625	226.822	0.122	0.199
-219.611	-98.131	0.207	-0.053
-218.596	145.543	-0.182	-0.244
-217.582	-200.000	0.008	0.205
-216.567	52.913	-0.061	0.058
-215.552	-56.268	-0.151	0.067
-214.538	-41.105	-0.230	-0.119
-213.523	142.885	-0.078	-0.103
-212.509	100.291	0.246	-0.286
-211.494	800.000	0.029	-0.108
-210.479	5.178	0.153	-0.113
-209.465	800.000	-0.020	-0.079
-208.450	291.531	0.081	0.147
-207.436	-200.000	0.017	-0.331
-206.421	222.127	0.237	-0.382
-205.406	-200.000	-0.013	0.133
-204.392	-11.872	0.067	-0.044
-203.377	800.000	-0.114	0.338
-202.363	197.677	-0.372	0.570
-201.348	-154.394	-0.152	0.010
-200.333	120.682	0.084	-0.105
-199.319	-97.367	-0.057	-0.015
-198.304	800.000	0.037	-0.148
-197.290	-114.467	-0.176	0.034
-196.275	-13.653	0.260	-0.169
-195.260	160.521	-0.073	0.103
-194.246	11.579	-0.450	0.345
-193.231	-200.000	-0.028	0.241
-192.217	-121.617	0.310	0.052
-191.202	-169.185	-0.184	-0.007
-190.187	-121.960	-0.177	0.029
-189.173	-200.000	0.014	0.168
-188.158	138.524	-0.091	0.119
-187.144	22.090	-0.242	0.198
-186.129	-200.000	-0.018	0.135
-185.114	508.611	0.010	-0.023
-184.100	479.552	0.135	-0.306
-183.085	125.266	0.126	-0.159
-182.071	-26.921	0.174	0.102
-181.056	-84.352	-0.092	-0.029
-180.042	-24.483	-0.108	0.064
-179.027	164.314	0.071	0.100
-178.012	81.931	0.149	-0.161
-176.998	-200.000	-0.005	-0.064
-175.983	-71.466	-0.280	-0.105
-174.969	-114.852	0.175	-0.033
-173.954	165.778	0.161	0.227
-172.939	-51.389	0.199	0.093
-171.925	-200.000	-0.014	-0.257
-170.910	-156.679	-0.472	0.029
-169.896	-80.251	0.245	-0.082
-168.881	-200.000	0.017	0.096
-167.866	-200.000	0.000	-0.206
-166.852	-113.465	-0.163	0.032
-165.837	392.785	0.103	0.214
-164.823	-52.793	0.119	0.055
-163.808	800.000	-0.043	-0.166
-162.793	457.328	-0.037	0.082
-161.779	-200.000	-0.016	-0.264
-160.764	517.728	-0.106	0.249
-159.750	-62.639	-0.209	0.087
-158.735	800.000	-0.124	0.381
-157.720	47.831	0.149	-0.139
-156.706	147.472	0.035	0.047
-155.691	91.584	-0.138	0.155
-154.677	-200.000	-0.033	0.202
-153.662	-146.930	-0.173	0.015
-152.647	31.563	0.197	0.169
-151.633	490.782	-0.113	0.258
-150.618	-91.013	-0.190	-0.055
-149.604	-200.000	-0.111	-0.491
-148.589	54.157	0.122	0.117
-147.574	38.526	-0.081	-0.073
-146.560	132.995	-0.205	-0.265
-145.545	84.144	0.132	0.144
-144.531	-70.875	0.207	-0.078
-143.516	86.040	-0.208	0.229
-142.502	-123.959	-0.080	0.013
-141.487	-52.149	-0.198	-0.092
-140.472	-200.000	0.041	0.317
-139.458	503.598	0.067	0.155
-138.443	34.969	0.068	0.060
-137.429	20.323	0.277	-0.224
-136.414	395.395	-0.222	0.464
-135.399	12.302	0.042	0.032
-134.385	295.434	0.141	-0.258
-133.370	800.000	0.065	0.191
-132.356	152.255	0.177	0.241
-131.341	-200.000	-0.113	0.505
-130.326	-40.790	0.335	0.173
-129.312	10.137	-0.094	0.072
-128.297	-128.923	-0.187	-0.026
-127.283	102.417	-0.193	0.225
-126.268	696.335	0.031	0.080
-125.253	122.148	-0.183	0.228
-124.239	-61.884	0.242	-0.101
-123.224	-28.876	0.089	0.051
-122.210	-71.088	-0.185	0.069
-121.195	-200.000	-0.004	0.091
