DTS Sentinel unit serial number:	SN413079Multiplexer serial number:	ORYXHardware model number:	OX4-SRSoftware version number:	ORYX F/W v4.00 Oryx Data Collector v3.7.2.0data status	okinstallation	princeton_trtdifferential loss correction	single-endedforward channel	channel 3reverse channel	N/Adate	2019/09/13time	07:24:35forward acquisition time	60.00reverse acquisition time	0.00gamma	496.2192k internal	0.2338k external	0.2338temperature offset calibration	1.0136default loss term (dB/km)	0.3790temperature slope calibration	1.0000multiplexer offset coefficient	1.0000multiplexer slope coefficient	1.0000fibre end	0.00T internal ref (°C)	26.12T ext. ref 1 (°C)	4.20T ext. ref 2 (°C)	21.75length (m)	temperature (°C)	Stokes	anti-Stokes-747.200	-200.000	-0.004	0.052
-746.185	599.648	-0.087	-0.216
-745.171	-113.458	0.321	-0.063
-744.156	251.059	0.129	0.220
-743.142	201.824	0.071	0.110
-742.127	-61.884	-0.249	0.105
-741.112	-83.904	0.205	-0.065
-740.098	-200.000	0.008	0.347
-739.083	-14.111	0.085	0.055
-738.069	-200.000	-0.019	0.220
-737.054	14.712	-0.131	-0.103
-736.039	760.440	0.146	-0.398
-735.025	-7.503	-0.034	0.023
-734.010	123.088	-0.095	0.119
-732.996	643.949	0.022	0.057
-731.981	-200.000	-0.008	-0.273
-730.966	-200.000	0.005	0.238
-729.952	185.007	0.067	0.100
-728.937	58.835	-0.173	-0.171
-727.923	-37.286	-0.329	-0.177
-726.908	59.258	0.177	-0.175
-725.894	286.138	-0.037	0.067
-724.879	-200.000	-0.013	0.154
-723.864	169.183	0.018	0.026
-722.850	-200.000	-0.014	-0.273
-721.835	83.217	-0.178	-0.194
-720.821	-139.968	0.217	0.023
-719.806	-8.862	0.070	-0.047
-718.791	-91.435	-0.351	0.101
-717.777	-200.000	0.017	-0.155
-716.762	-200.000	-0.072	0.337
-715.748	38.112	-0.186	-0.166
-714.733	105.562	0.081	0.096
-713.718	604.942	0.079	0.197
-712.704	-81.720	-0.346	0.114
-711.689	-99.095	0.076	0.019
-710.675	-200.000	0.010	-0.148
-709.660	-3.711	0.189	-0.131
-708.645	243.187	-0.145	0.244
-707.631	611.536	-0.088	-0.220
-706.616	268.454	-0.113	-0.198
-705.602	455.499	0.032	0.070
-704.587	135.659	-0.236	-0.308
-703.572	800.000	-0.004	-0.012
-702.558	-200.000	0.001	0.078
-701.543	-159.745	-0.095	-0.005
-700.529	-6.191	-0.054	-0.037
-699.514	133.877	-0.165	-0.214
-698.499	-157.610	-0.209	0.013
-697.485	-200.000	-0.020	-0.091
-696.470	-200.000	-0.007	-0.056
-695.456	-200.000	-0.013	0.278
-694.441	242.968	-0.117	0.197
-693.426	195.103	-0.058	0.088
-692.412	-99.887	-0.408	-0.102
-691.397	697.953	-0.191	-0.504
-690.383	-200.000	0.000	-0.068
-689.368	-200.000	0.002	0.042
-688.354	-200.000	0.006	-0.081
-687.339	-138.873	-0.148	-0.016
-686.324	586.126	0.102	-0.252
-685.310	103.169	-0.066	-0.078
-684.295	-156.618	0.393	0.024
-683.281	-56.522	-0.080	-0.035
-682.266	-200.000	-0.032	-0.192
-681.251	-90.241	0.301	0.088
-680.237	-200.000	-0.023	-0.651
-679.222	56.153	-0.061	-0.059
-678.208	-50.164	0.157	-0.074
-677.193	-200.000	0.027	0.211
-676.178	-55.869	0.144	0.064
-675.164	-88.425	0.220	0.066
-674.149	800.000	-0.053	0.224
-673.135	-67.754	-0.237	-0.093
-672.120	65.961	-0.400	0.406
-671.105	681.619	-0.075	-0.196
-670.091	75.074	-0.151	-0.159
-669.076	235.860	0.173	-0.287
-668.062	529.836	-0.126	-0.298
-667.047	800.000	0.025	-0.082
-666.032	102.922	0.088	-0.103
-665.018	-200.000	-0.030	0.374
-664.003	-200.000	-0.003	-0.088
-662.989	-200.000	0.028	0.255
-661.974	202.453	0.100	0.154
-660.959	-171.451	-0.184	-0.006
-659.945	-137.005	-0.395	0.045
-658.930	221.340	0.175	0.281
-657.916	800.000	-0.014	0.045
-656.901	800.000	-0.025	-0.080
-655.886	-61.638	-0.137	0.058
-654.872	141.459	-0.121	-0.161
-653.857	-34.870	-0.332	-0.181
-652.843	-102.865	-0.442	-0.105
-651.828	287.994	-0.069	0.124
-650.814	57.762	-0.121	0.119
-649.799	-0.626	0.164	0.116
-648.784	24.801	0.240	-0.199
-647.770	800.000	-0.059	-0.173
-646.755	800.000	0.034	0.130
-645.741	-200.000	0.039	-0.238
-644.726	-130.149	0.281	-0.038
-643.711	800.000	-0.064	-0.187
-642.697	6.960	0.211	-0.157
-641.682	-44.242	0.207	0.104
-640.668	-64.932	-0.395	0.160
-639.653	-51.044	-0.075	0.035
-638.638	800.000	0.071	-0.200
-637.624	125.334	0.169	-0.213
-636.609	-25.470	0.306	-0.181
-635.595	259.056	0.125	-0.215
-634.580	800.000	-0.132	-0.440
-633.565	-41.391	-0.404	-0.208
-632.551	800.000	-0.092	0.363
-631.536	-121.766	-0.172	0.028
-630.522	800.000	0.048	-0.139
-629.507	531.989	-0.095	-0.224
-628.492	-200.000	-0.013	0.120
-627.478	-18.383	-0.284	0.177
-626.463	155.627	-0.095	-0.131
-625.449	-60.101	0.180	-0.077
-624.434	-101.186	0.247	-0.060
-623.419	-200.000	-0.046	0.558
-622.405	-197.936	-0.540	0.003
-621.390	714.028	-0.157	0.416
-620.376	-200.000	-0.020	-0.196
-619.361	774.528	0.056	-0.153
-618.346	800.000	0.034	-0.111
-617.332	277.055	0.067	0.120
-616.317	-104.936	-0.185	-0.042
-615.303	800.000	0.063	0.255
-614.288	-115.640	0.152	0.028
-613.273	789.901	0.053	0.146
-612.259	55.919	0.112	-0.108
-611.244	173.702	-0.047	0.067
-610.230	465.052	-0.062	-0.138
-609.215	109.940	0.188	-0.225
-608.201	111.165	0.220	-0.265
-607.186	754.500	0.059	-0.160
-606.171	293.500	0.135	-0.246
-605.157	-125.199	0.138	0.021
-604.142	123.739	-0.139	-0.174
-603.128	-200.000	0.068	-0.457
-602.113	43.373	0.128	-0.116
-601.098	-200.000	-0.010	0.109
-600.084	-153.276	0.125	0.009
-599.069	-50.226	-0.080	-0.038
-598.055	622.428	-0.122	-0.306
-597.040	-61.121	-0.149	0.063
-596.025	-82.717	-0.139	0.045
-595.011	465.958	-0.179	0.400
-593.996	-200.000	-0.029	0.297
-592.982	-46.088	-0.187	0.092
-591.967	365.432	0.226	0.454
-590.952	17.557	-0.269	0.214
-589.938	-104.737	0.151	-0.035
-588.923	88.191	-0.062	-0.068
-587.909	-144.638	-0.210	-0.019
-586.894	158.661	0.243	0.336
-585.879	-137.124	-0.145	-0.017
-584.865	-1.394	0.214	-0.151
-583.850	176.582	-0.161	0.234
-582.836	-130.657	-0.113	0.015
-581.821	-200.000	0.112	-0.594
-580.806	-6.839	0.233	-0.158
-579.792	800.000	-0.079	0.252
-578.777	27.172	-0.033	-0.028
-577.763	-200.000	-0.014	0.076
-576.748	554.627	-0.044	-0.104
-575.733	726.523	-0.045	0.119
-574.719	-137.207	-0.217	-0.025
-573.704	-145.172	-0.162	0.015
-572.690	-166.670	-0.346	0.014
-571.675	-92.980	-0.239	-0.066
-570.661	110.730	-0.055	-0.066
-569.646	-60.979	-0.267	0.112
-568.631	747.504	0.151	0.406
-567.617	121.269	0.082	0.102
-566.602	800.000	-0.029	-0.106
-565.588	-44.580	-0.159	-0.079
-564.573	-100.436	-0.056	-0.014
-563.558	429.361	-0.075	0.162
-562.544	-105.820	0.294	0.066
-561.529	-119.390	0.341	-0.059
-560.515	-61.919	-0.126	-0.052
-559.500	-96.039	0.274	0.073
-558.485	12.780	-0.078	-0.060
-557.471	800.000	-0.038	0.114
-556.456	-200.000	-0.033	0.206
-555.442	169.527	0.012	-0.017
-554.427	784.862	0.080	0.219
-553.412	-26.056	0.090	-0.053
-552.398	350.716	-0.069	-0.137
-551.383	-200.000	0.017	-0.103
-550.369	-107.416	-0.150	0.033
-549.354	46.209	0.211	-0.195
-548.339	-80.175	0.103	-0.034
-547.325	-10.119	0.222	-0.147
-546.310	14.193	-0.058	-0.045
-545.296	-200.000	0.075	-0.337
-544.281	-15.170	-0.116	-0.074
-543.266	101.439	0.054	-0.063
-542.252	800.000	-0.029	0.099
-541.237	-200.000	-0.001	0.095
-540.223	-187.803	0.304	-0.004
-539.208	-101.714	-0.111	0.027
-538.193	192.003	-0.200	-0.300
-537.179	800.000	0.048	0.182
-536.164	800.000	0.082	0.294
-535.150	-200.000	-0.055	-0.351
-534.135	230.931	0.213	0.347
-533.121	-37.126	0.318	0.170
-532.106	-93.663	-0.226	-0.062
-531.091	-82.762	0.240	0.077
-530.077	205.558	-0.073	0.113
-529.062	782.874	0.107	-0.291
-528.048	169.240	0.025	-0.035
-527.033	-109.960	0.323	-0.067
-526.018	135.694	-0.208	-0.269
-525.004	-2.260	0.180	0.125
-523.989	-10.607	-0.259	-0.171
-522.975	800.000	-0.027	0.110
-521.960	493.326	-0.045	-0.103
-520.945	-92.864	-0.136	-0.038
-519.931	-156.419	-0.154	0.010
-518.916	800.000	-0.019	-0.070
-517.902	-81.261	0.151	0.050
-516.887	800.000	-0.060	-0.204
-515.872	-200.000	0.024	-0.320
-514.858	-9.378	0.221	-0.147
-513.843	-200.000	0.030	-0.256
-512.829	-185.721	-0.355	0.005
-511.814	-162.603	-0.289	0.014
-510.799	-141.270	0.165	0.017
-509.785	-200.000	0.006	0.164
-508.770	-27.495	-0.206	-0.119
-507.756	800.000	0.086	0.256
-506.741	-50.220	0.299	-0.141
-505.726	-15.914	-0.225	0.142
-504.712	-60.163	-0.133	-0.056
-503.697	111.966	-0.184	0.221
-502.683	-200.000	-0.021	0.262
-501.668	0.891	-0.054	0.038
-500.653	-79.269	0.261	-0.088
-499.639	-6.737	0.176	0.119
-498.624	-58.384	0.144	0.062
-497.610	-200.000	0.023	-0.170
-496.595	23.452	0.181	0.148
-495.581	48.467	-0.377	0.351
-494.566	-10.220	0.085	0.056
-493.551	800.000	0.161	-0.449
-492.537	293.700	-0.102	0.185
-491.522	-46.335	-0.394	-0.192
-490.508	83.306	-0.037	-0.040
-489.493	7.454	0.159	-0.118
-488.478	378.825	0.115	-0.233
-487.464	9.590	0.124	-0.093
-486.449	-71.302	0.106	-0.039
-485.435	-17.576	-0.100	0.063
-484.420	-22.464	-0.055	0.033
-483.405	-200.000	-0.055	0.274
-482.391	72.729	0.067	0.069
-481.376	-47.060	0.184	0.089
-480.362	356.269	0.049	-0.096
-479.347	-49.129	0.102	-0.048
-478.332	37.167	-0.089	-0.078
-477.318	45.321	0.011	0.010
-476.303	334.704	-0.059	-0.113
-475.289	-200.000	0.049	-0.436
-474.274	-130.041	0.123	-0.017
-473.259	-70.626	0.220	0.082
-472.245	611.819	0.059	-0.147
-471.230	-117.671	-0.084	-0.015
-470.216	601.192	-0.016	0.040
-469.201	-24.459	-0.069	-0.041
-468.186	-79.315	0.284	-0.095
-467.172	26.897	-0.134	0.111
-466.157	156.730	0.089	0.123
-465.143	99.333	-0.095	-0.109
-464.128	-93.619	0.193	-0.053
-463.113	-35.462	-0.215	0.116
-462.099	-162.318	0.163	-0.008
-461.084	-65.391	0.191	-0.076
-460.070	66.148	0.083	-0.083
-459.055	-32.589	0.211	-0.117
-458.040	-44.061	0.351	-0.175
-457.026	20.058	-0.369	-0.295
-456.011	40.021	-0.215	-0.192
-454.997	-26.189	-0.300	-0.175
-453.982	-148.507	0.405	-0.033
-452.968	-72.490	-0.289	-0.106
-451.953	47.638	-0.307	0.284
-450.938	-108.932	-0.093	-0.020
-449.924	-16.737	-0.240	-0.151
-448.909	-151.151	-0.087	-0.006
-447.895	7.954	-0.229	-0.170
-446.880	-111.056	-0.024	-0.005
-445.865	-72.379	0.370	-0.136
-444.851	-32.542	0.145	-0.080
-443.836	49.684	0.218	0.204
-442.822	-57.292	0.105	-0.046
-441.807	189.780	-0.124	0.185
-440.792	-29.138	0.179	0.102
-439.778	-109.366	-0.112	-0.023
-438.763	324.486	0.117	-0.221
-437.749	75.897	-0.072	-0.076
-436.734	-75.461	0.137	-0.048
-435.719	-164.104	-0.163	-0.007
-434.705	-168.161	-0.373	-0.014
-433.690	36.680	-0.055	-0.049
-432.676	404.394	-0.080	0.168
-431.661	-127.036	0.285	-0.041
-430.646	-177.168	-0.369	0.009
-429.632	-8.216	-0.384	-0.256
-428.617	-55.973	0.431	-0.190
-427.603	291.247	0.128	-0.231
-426.588	296.149	-0.037	0.068
-425.573	-68.709	-0.112	0.043
-424.559	-178.212	0.378	0.009
-423.544	-29.527	0.124	0.070
-422.530	30.282	0.257	-0.217
-421.515	28.624	0.155	-0.130
-420.500	417.526	0.097	0.205
-419.486	-200.000	0.094	0.582
-418.471	-200.000	-0.047	0.297
-417.457	567.882	0.129	0.312
-416.442	800.000	-0.021	0.090
-415.428	85.818	-0.237	0.259
-414.413	-20.295	-0.029	0.018
-413.398	-45.853	0.121	0.059
-412.384	-200.000	0.009	0.253
-411.369	-200.000	-0.017	0.084
-410.355	463.384	0.124	0.275
-409.340	244.797	-0.160	-0.267
-408.325	-78.688	0.286	-0.097
-407.311	-200.000	-0.036	0.184
-406.296	-170.347	-0.276	-0.010
-405.282	47.015	0.351	-0.324
-404.267	-173.244	-0.228	0.007
-403.252	-63.358	-0.255	0.104
-402.238	-90.214	-0.210	0.060
-401.223	-162.562	-0.253	-0.012
-400.209	44.032	-0.300	0.272
-399.194	535.088	-0.032	-0.076
-398.179	-50.536	0.274	-0.128
-397.165	-37.640	-0.188	0.099
-396.150	800.000	0.044	0.141
-395.136	209.827	-0.111	-0.172
-394.121	-13.459	0.143	-0.092
-393.106	51.479	-0.220	-0.207
-392.092	-104.293	0.100	-0.023
-391.077	-98.761	-0.269	-0.068
-390.063	-200.000	0.067	0.313
-389.048	50.168	0.153	0.143
-388.033	-21.630	0.121	0.073
-387.019	-157.548	-0.245	0.015
-386.004	170.831	0.258	0.366
-384.990	-99.363	-0.178	-0.044
-383.975	2.129	0.257	0.184
-382.960	-115.772	0.114	-0.021
-381.946	-57.296	0.272	0.118
-380.931	-200.000	0.030	-0.264
-379.917	-89.477	0.122	0.035
-378.902	138.413	-0.136	0.176
-377.888	65.521	-0.030	-0.030
-376.873	56.400	-0.197	0.189
-375.858	-169.501	0.134	-0.005
-374.844	99.612	0.104	0.119
-373.829	-142.940	0.283	-0.027
-372.815	-54.302	0.194	-0.087
-371.800	-142.696	0.316	0.030
-370.785	64.069	0.042	0.042
-369.771	-27.061	-0.110	-0.063
-368.756	170.434	-0.136	0.193
-367.742	7.077	-0.146	-0.107
-366.727	-200.000	-0.003	-0.091
-365.712	-23.903	0.088	-0.052
-364.698	106.902	0.085	0.100
-363.683	1.876	0.174	-0.124
-362.669	-77.528	-0.044	0.015
-361.654	-200.000	0.037	0.465
-360.639	-44.332	-0.406	-0.201
-359.625	188.801	0.261	-0.387
-358.610	-125.878	0.237	0.035
-357.596	-22.145	-0.290	0.174
-356.581	-46.108	0.167	0.081
-355.566	-200.000	0.019	0.083
-354.552	-35.896	-0.273	0.146
-353.537	436.634	0.174	-0.375
-352.523	800.000	0.043	0.160
-351.508	-107.455	-0.259	-0.056
-350.493	97.241	-0.227	0.258
-349.479	78.172	-0.038	0.040
-348.464	62.660	0.224	0.221
-347.450	-200.000	0.048	-0.209
-346.435	800.000	0.050	0.206
-345.420	-110.273	-0.169	0.035
-344.406	151.228	0.145	0.195
-343.391	-56.827	-0.077	-0.034
-342.377	-139.703	0.489	0.051
-341.362	148.161	-0.128	0.171
-340.348	-200.000	0.005	-0.141
-339.333	-114.667	0.223	0.042
-338.318	36.203	-0.039	-0.034
-337.304	-28.828	-0.397	0.225
-336.289	280.596	0.089	-0.157
-335.275	800.000	0.007	0.026
-334.260	-200.000	0.024	0.241
-333.245	701.105	0.061	0.160
-332.231	187.495	-0.122	0.180
-331.216	-39.795	-0.055	-0.029
-330.202	49.987	-0.208	0.194
-329.187	-40.097	-0.215	-0.111
-328.172	-61.037	-0.207	-0.086
-327.158	135.802	-0.170	-0.219
-326.143	-200.000	-0.001	-0.094
-325.129	-200.000	-0.050	-0.372
-324.114	-157.511	-0.201	-0.012
-323.099	-73.108	0.101	0.037
-322.085	-200.000	0.058	0.391
-321.070	-29.388	-0.168	0.095
-320.056	-200.000	0.013	0.295
-319.041	-76.508	0.304	-0.105
-318.026	450.637	-0.035	-0.076
-317.012	-92.264	0.153	-0.043
-315.997	294.333	-0.171	0.309
-314.983	-101.690	0.448	0.107
-313.968	-72.419	-0.228	0.083
-312.953	10.310	0.305	-0.229
-311.939	181.419	0.154	0.223
-310.924	-107.960	0.271	0.058
-309.910	138.823	0.135	0.175
-308.895	-175.095	-0.085	-0.002
-307.880	-200.000	0.061	0.295
-306.866	-137.084	-0.276	-0.031
-305.851	-138.376	-0.045	0.005
-304.837	-200.000	0.019	-0.105
-303.822	63.642	-0.138	0.137
-302.807	800.000	-0.108	-0.330
-301.793	2.369	0.231	0.165
-300.778	800.000	-0.098	-0.269
-299.764	-54.713	-0.074	0.033
-298.749	-132.263	0.237	-0.030
-297.735	-146.434	-0.289	0.025
-296.720	-101.831	0.205	0.049
-295.705	-68.944	0.207	-0.079
-294.691	217.297	0.123	-0.194
-293.676	710.037	0.078	-0.204
-292.662	-200.000	0.008	0.104
-291.647	-79.579	0.173	0.057
-290.632	142.556	-0.083	-0.109
-289.618	335.052	0.160	0.305
-288.603	287.547	-0.204	0.364
-287.589	76.204	-0.101	-0.105
-286.574	-200.000	0.041	0.261
-285.559	-200.000	0.013	0.291
-284.545	163.490	-0.135	0.187
-283.530	485.179	-0.006	-0.015
-282.516	137.032	-0.329	-0.423
-281.501	58.515	0.201	0.194
-280.486	-64.300	-0.149	0.060
-279.472	150.467	0.175	-0.234
-278.457	-157.858	-0.175	-0.010
-277.443	-1.827	-0.284	0.197
-276.428	6.619	0.187	0.137
-275.413	210.856	0.239	0.369
-274.399	-138.606	0.174	-0.019
-273.384	-200.000	0.013	-0.182
-272.370	-91.363	0.256	0.072
-271.355	800.000	-0.046	-0.177
-270.340	-32.673	-0.128	0.070
-269.326	25.247	-0.085	-0.070
-268.311	-200.000	0.011	0.177
-267.297	-101.949	0.134	-0.032
-266.282	-130.652	0.125	0.017
-265.267	235.620	-0.141	0.229
-264.253	97.229	-0.229	-0.258
-263.238	-89.698	-0.034	0.010
-262.224	56.016	0.174	0.167
-261.209	31.145	0.140	-0.119
-260.195	450.985	-0.127	0.275
-259.180	-126.168	0.132	-0.019
-258.165	-40.768	-0.325	0.166
-257.151	-200.000	-0.010	-0.149
-256.136	-88.845	0.180	-0.052
-255.122	-121.390	-0.240	-0.039
-254.107	-130.029	-0.280	-0.038
-253.092	-127.027	-0.220	0.032
-252.078	221.841	-0.080	-0.127
-251.063	-41.686	-0.199	0.101
-250.049	-129.255	-0.206	-0.028
-249.034	-122.483	-0.133	0.021
-248.019	-67.095	0.387	0.150
-247.005	516.574	-0.105	0.242
-245.990	34.753	-0.287	-0.247
-244.976	73.843	0.257	-0.266
-243.961	-200.000	0.032	0.342
-242.946	547.319	0.015	-0.034
-241.932	179.957	-0.123	-0.177
-240.917	-200.000	-0.001	-0.163
-239.903	3.475	-0.068	-0.049
-238.888	81.830	0.211	0.224
-237.873	518.573	0.070	-0.161
-236.859	7.191	0.266	0.195
-235.844	18.659	0.159	0.125
-234.830	-200.000	0.049	-0.287
-233.815	-200.000	0.019	-0.124
-232.800	4.133	-0.135	0.097
-231.786	422.786	-0.053	-0.111
-230.771	-200.000	0.119	0.000
-229.757	-69.211	-0.153	-0.058
-228.742	563.482	0.146	-0.349
-227.727	-127.064	0.120	0.017
-226.713	-179.741	0.414	-0.009
-225.698	-124.555	0.100	0.015
-224.684	505.819	-0.182	0.416
-223.669	7.873	0.350	-0.258
-222.655	518.321	0.072	0.165
-221.640	353.837	-0.097	0.190
-220.625	207.805	-0.148	-0.228
-219.611	-59.702	-0.240	0.101
-218.596	9.370	-0.244	0.181
-217.582	-200.000	-0.011	0.059
-216.567	-2.093	-0.201	-0.139
-215.552	-13.695	-0.351	-0.223
-214.538	-200.000	-0.017	-0.222
-213.523	-200.000	-0.034	0.266
-212.509	-138.353	0.098	0.011
-211.494	247.610	0.123	-0.204
-210.479	224.559	-0.190	-0.302
-209.465	44.798	0.099	-0.090
-208.450	-200.000	-0.040	0.206
-207.436	297.463	-0.248	0.447
-206.421	-68.108	0.197	-0.075
-205.406	9.811	0.226	-0.169
-204.392	-155.412	-0.554	-0.035
-203.377	-102.672	-0.168	-0.039
-202.363	588.176	0.081	-0.195
-201.348	800.000	0.030	0.090
-200.333	358.306	-0.144	-0.282
-199.319	-200.000	0.008	-0.057
-198.304	1.224	0.064	-0.045
-197.290	-200.000	-0.002	-0.174
-196.275	-200.000	0.062	-0.289
-195.260	99.887	0.415	-0.472
-194.246	-118.822	-0.247	0.043
-193.231	-136.924	-0.184	-0.021
-192.217	43.801	0.193	0.174
-191.202	-200.000	0.009	0.094
-190.187	335.804	-0.099	-0.188
-189.173	38.042	0.139	0.121
-188.158	102.176	-0.164	-0.188
-187.144	55.617	0.160	-0.153
-186.129	19.402	-0.177	0.140
-185.114	-200.000	0.016	-0.103
-184.100	-41.164	0.150	-0.076
-183.085	578.017	-0.098	0.236
-182.071	197.535	0.120	-0.180
-181.056	114.585	0.117	-0.140
-180.042	40.630	-0.136	0.121
-179.027	800.000	-0.148	-0.410
-178.012	-100.513	-0.301	-0.073
-176.998	-200.000	0.024	0.420
-175.983	-184.110	0.239	-0.004
-174.969	209.165	0.210	-0.323
-173.954	-147.786	-0.314	0.026
-172.939	-64.621	0.191	0.076
-171.925	-200.000	0.007	0.539
-170.910	184.755	0.175	0.255
-169.896	72.351	0.106	-0.109
-168.881	-200.000	0.010	0.232
-167.866	-114.030	0.188	-0.036
-166.852	-0.709	-0.224	0.156
-165.837	-104.302	-0.187	-0.043
-164.823	278.794	0.084	-0.147
-163.808	-28.863	-0.332	-0.187
-162.793	-42.370	0.434	0.217
-161.779	-152.289	-0.305	0.022
-160.764	-24.053	-0.398	-0.234
-159.750	1.659	-0.103	0.073
-158.735	-200.000	0.005	-0.543
-157.720	-10.598	-0.042	-0.027
-156.706	-112.408	0.383	-0.075
-155.691	-172.298	-0.112	0.004
-154.677	-200.000	-0.017	0.364
-153.662	-35.261	-0.072	0.039
-152.647	184.992	0.096	0.140
-151.633	800.000	0.077	0.224
-150.618	-74.569	0.144	0.051
-149.604	800.000	-0.076	0.208
-148.589	74.640	0.099	0.102
-147.574	-67.058	0.285	-0.110
-146.560	-126.126	0.031	0.005
-145.545	-200.000	0.014	0.347
-144.531	-88.719	0.338	-0.099
-143.516	124.614	-0.047	-0.058
-142.502	36.930	0.026	0.022
-141.487	166.417	0.306	-0.424
-140.472	100.562	-0.150	0.171
-139.458	11.086	0.251	0.188
-138.443	-49.486	-0.184	0.086
-137.429	-116.964	0.296	-0.053
-136.414	-200.000	-0.021	0.181
-135.399	800.000	-0.048	-0.186
-134.385	493.295	-0.154	0.345
-133.370	90.810	-0.018	0.020
-132.356	-75.396	-0.194	0.068
-131.341	800.000	0.025	0.072
-130.326	-200.000	0.010	-0.160
-129.312	-21.668	-0.205	-0.122
-128.297	0.999	-0.330	-0.232
-127.283	-36.117	-0.122	0.065
-126.268	-32.687	0.149	0.081
-125.253	-142.713	-0.153	0.015
-124.239	471.189	0.066	-0.145
-123.224	-1.461	-0.257	-0.177
-122.210	511.510	0.086	-0.195
