DTS Sentinel unit serial number:	SN413079Multiplexer serial number:	ORYXHardware model number:	OX4-SRSoftware version number:	ORYX F/W v4.00 Oryx Data Collector v3.7.2.0data status	okinstallation	princeton_trtdifferential loss correction	single-endedforward channel	channel 3reverse channel	N/Adate	2019/09/12time	16:42:10forward acquisition time	60.00reverse acquisition time	0.00gamma	496.2192k internal	0.2307k external	0.2307temperature offset calibration	1.0081default loss term (dB/km)	0.3790temperature slope calibration	1.0000multiplexer offset coefficient	1.0000multiplexer slope coefficient	1.0000fibre end	0.00T internal ref (°C)	36.64T ext. ref 1 (°C)	2.74T ext. ref 2 (°C)	29.67length (m)	temperature (°C)	Stokes	anti-Stokes-747.200	-200.000	-0.045	0.401
-746.185	434.354	0.130	0.286
-745.171	333.124	0.144	0.284
-744.156	800.000	-0.070	0.222
-743.142	-51.640	-0.154	0.073
-742.127	347.294	-0.110	0.220
-741.112	-73.133	-0.381	-0.142
-740.098	-200.000	-0.091	0.491
-739.083	-33.246	-0.137	-0.077
-738.069	271.620	-0.173	0.310
-737.054	799.220	0.096	-0.268
-736.039	-59.545	-0.250	0.109
-735.025	22.740	-0.107	0.089
-734.010	-142.164	0.090	0.009
-732.996	-37.876	-0.367	-0.198
-731.981	-167.316	-0.151	-0.006
-730.966	26.006	0.146	0.124
-729.952	-164.828	-0.136	-0.006
-728.937	2.116	0.090	-0.066
-727.923	-150.557	-0.186	-0.014
-726.908	0.767	0.220	-0.160
-725.894	-200.000	0.004	0.077
-724.879	-200.000	-0.008	-0.142
-723.864	-17.616	-0.380	-0.242
-722.850	-200.000	-0.049	-0.305
-721.835	-45.819	0.079	-0.040
-720.821	69.655	0.308	-0.322
-719.806	-200.000	0.032	0.204
-718.791	-108.363	0.045	0.010
-717.777	800.000	-0.050	-0.204
-716.762	800.000	-0.048	0.187
-715.748	-114.297	0.090	-0.018
-714.733	333.078	0.136	-0.267
-713.718	270.226	0.158	-0.282
-712.704	-168.118	0.168	-0.007
-711.689	800.000	-0.034	-0.148
-710.675	-22.487	-0.172	-0.106
-709.660	-11.118	-0.076	-0.051
-708.645	-6.798	-0.186	-0.128
-707.631	322.225	0.084	0.163
-706.616	52.208	-0.087	0.084
-705.602	454.718	0.072	-0.162
-704.587	36.188	0.181	-0.162
-703.572	-120.239	-0.127	-0.022
-702.558	-11.845	-0.225	-0.150
-701.543	-58.288	0.098	0.043
-700.529	-41.472	-0.169	-0.088
-699.514	39.522	0.052	-0.048
-698.499	-200.000	-0.021	0.134
-697.485	800.000	-0.041	-0.174
-696.470	-200.000	-0.039	-0.320
-695.456	800.000	-0.024	-0.079
-694.441	-150.035	0.120	-0.009
-693.426	8.859	0.105	-0.080
-692.412	-80.598	0.146	-0.049
-691.397	169.324	-0.045	-0.066
-690.383	177.709	-0.061	-0.090
-689.368	-200.000	0.013	-0.134
-688.354	-161.357	-0.259	-0.014
-687.339	-88.866	0.123	-0.037
-686.324	-67.515	0.205	-0.082
-685.310	-135.105	0.139	0.017
-684.295	236.898	0.157	-0.263
-683.281	26.850	0.116	-0.098
-682.266	-17.929	-0.176	-0.112
-681.251	-81.415	0.076	0.026
-680.237	-94.557	-0.215	0.059
-679.222	-200.000	0.028	0.206
-678.208	-80.143	0.088	-0.030
-677.193	-43.822	0.240	-0.122
-676.178	493.781	-0.139	-0.322
-675.164	-107.471	0.117	-0.026
-674.149	-4.211	-0.244	0.171
-673.135	194.604	0.085	0.131
-672.120	142.585	-0.081	0.108
-671.105	-46.762	-0.154	-0.076
-670.091	-88.992	0.184	-0.055
-669.076	-47.538	-0.186	0.091
-668.062	7.303	0.134	0.102
-667.047	15.798	-0.101	-0.081
-666.032	35.741	0.099	0.088
-665.018	-82.072	-0.174	0.057
-664.003	-90.939	0.224	0.065
-662.989	-12.848	0.242	0.160
-661.974	-92.078	0.064	-0.018
-660.959	103.196	0.191	0.227
-659.945	-0.680	-0.194	0.139
-658.930	544.161	-0.037	-0.090
-657.916	-104.007	0.181	0.043
-656.901	-151.503	0.200	0.015
-655.886	-4.059	0.192	-0.135
-654.872	419.475	0.066	-0.144
-653.857	-18.146	0.174	0.111
-652.843	42.603	-0.184	-0.170
-651.828	105.510	-0.041	0.049
-650.814	202.392	0.042	-0.065
-649.799	-135.815	0.260	0.031
-648.784	800.000	0.158	-0.607
-647.770	432.342	0.116	0.255
-646.755	346.716	-0.107	-0.213
-645.741	144.957	-0.107	0.145
-644.726	-87.884	-0.273	-0.083
-643.711	-16.619	-0.145	0.093
-642.697	-200.000	-0.005	-0.115
-641.682	253.241	-0.166	-0.286
-640.668	23.183	0.209	0.174
-639.653	-42.704	-0.381	-0.196
-638.638	-200.000	-0.018	0.125
-637.624	-66.719	-0.259	-0.104
-636.609	-76.411	0.083	0.029
-635.595	800.000	0.133	0.391
-634.580	-200.000	-0.070	0.337
-633.565	-64.969	0.036	-0.015
-632.551	-147.324	-0.117	-0.010
-631.536	-94.234	0.143	0.039
-630.522	141.012	0.096	-0.128
-629.507	-200.000	-0.039	-0.236
-628.492	-200.000	-0.000	-0.081
-627.478	92.997	0.122	-0.139
-626.463	-88.449	0.411	-0.124
-625.449	-84.017	-0.099	0.032
-624.434	-70.763	-0.043	-0.016
-623.419	207.204	-0.036	0.058
-622.405	108.618	0.107	-0.129
-621.390	-65.951	-0.180	0.073
-620.376	266.278	0.099	0.175
-619.361	474.545	-0.017	0.039
-618.346	-120.461	-0.222	0.038
-617.332	126.915	0.058	0.074
-616.317	27.934	-0.215	-0.184
-615.303	-146.437	0.217	0.019
-614.288	-154.667	0.244	-0.016
-613.273	-61.259	-0.295	0.126
-612.259	-19.407	0.071	0.044
-611.244	-164.014	-0.092	0.004
-610.230	-183.788	0.261	0.004
-609.215	111.303	-0.241	-0.294
-608.201	800.000	0.059	-0.257
-607.186	-81.416	0.107	-0.036
-606.171	-59.318	-0.143	0.062
-605.157	152.202	-0.145	-0.200
-604.142	69.395	0.119	0.124
-603.128	-102.084	-0.351	-0.086
-602.113	536.244	0.133	-0.319
-601.098	-98.214	0.125	0.032
-600.084	-76.537	-0.220	-0.078
-599.069	-57.020	-0.139	-0.062
-598.055	-37.031	-0.141	0.076
-597.040	-200.000	-0.003	0.065
-596.025	428.866	-0.048	-0.105
-595.011	30.950	-0.195	-0.169
-593.996	-132.012	-0.549	0.072
-592.982	175.205	-0.163	0.239
-591.967	800.000	0.147	0.434
-590.952	20.461	0.151	0.123
-589.938	417.464	-0.047	-0.101
-588.923	-90.968	0.296	0.086
-587.909	800.000	-0.028	-0.081
-586.894	14.417	0.172	-0.136
-585.879	75.887	0.219	-0.234
-584.865	-200.000	0.044	0.197
-583.850	26.994	0.095	-0.081
-582.836	-114.857	-0.470	0.090
-581.821	-64.364	-0.405	-0.166
-580.806	22.113	-0.058	-0.048
-579.792	593.836	-0.123	0.307
-578.777	150.671	-0.164	-0.226
-577.763	614.698	-0.179	0.452
-576.748	800.000	-0.068	0.234
-575.733	-40.753	-0.106	-0.055
-574.719	129.664	0.061	-0.078
-573.704	31.788	0.231	0.201
-572.690	285.946	-0.033	0.060
-571.675	-117.468	-0.153	-0.028
-570.661	318.707	0.062	-0.119
-569.646	-54.883	0.289	0.132
-568.631	-63.491	0.115	0.048
-567.617	117.620	-0.197	0.244
-566.602	-64.155	0.208	0.086
-565.588	664.619	0.051	-0.132
-564.573	563.210	-0.032	0.079
-563.558	78.995	-0.071	0.077
-562.544	-81.658	-0.089	-0.030
-561.529	-1.593	-0.369	0.262
-560.515	10.287	-0.199	0.153
-559.500	27.348	0.138	-0.117
-558.485	-62.787	-0.506	0.211
-557.471	272.976	0.208	-0.372
-556.456	17.677	0.080	0.064
-555.442	-48.566	-0.177	-0.086
-554.427	-200.000	0.030	-0.171
-553.412	-106.700	0.075	-0.017
-552.398	65.030	0.208	0.212
-551.383	730.815	0.099	-0.267
-550.369	506.630	0.131	-0.306
-549.354	212.233	0.010	-0.016
-548.339	715.648	-0.029	-0.077
-547.325	-41.091	-0.227	-0.118
-546.310	800.000	-0.095	-0.269
-545.296	460.695	0.108	0.242
-544.281	52.860	0.060	-0.058
-543.266	800.000	0.094	0.320
-542.252	800.000	-0.051	0.223
-541.237	172.085	-0.134	0.195
-540.223	47.622	0.083	-0.078
-539.208	800.000	-0.068	0.248
-538.193	800.000	-0.059	-0.201
-537.179	453.137	-0.023	0.051
-536.164	-98.510	0.036	0.009
-535.150	82.327	-0.212	-0.232
-534.135	413.404	-0.141	0.302
-533.121	494.397	-0.121	0.281
-532.106	-157.217	-0.090	0.006
-531.091	295.706	0.105	-0.194
-530.077	800.000	-0.030	0.097
-529.062	-0.625	-0.139	0.099
-528.048	-133.006	0.256	0.033
-527.033	-39.853	-0.213	-0.112
-526.018	327.660	0.131	-0.253
-525.004	-200.000	-0.036	-0.411
-523.989	34.209	0.294	-0.259
-522.975	189.254	-0.010	-0.016
-521.960	-153.672	0.071	0.005
-520.945	797.605	-0.115	0.319
-519.931	40.756	-0.230	-0.209
-518.916	800.000	0.020	0.076
-517.902	-136.340	0.166	0.019
-516.887	8.498	0.323	-0.245
-515.872	155.651	0.084	-0.117
-514.858	-71.058	-0.126	0.048
-513.843	-200.000	0.009	0.168
-512.829	-127.296	0.423	0.062
-511.814	-200.000	0.038	0.197
-510.799	60.371	-0.132	-0.132
-509.785	357.974	0.069	0.139
-508.770	-200.000	0.018	0.265
-507.756	145.495	0.126	0.170
-506.741	-161.150	0.140	-0.007
-505.726	61.612	-0.115	-0.116
-504.712	-177.905	-0.580	0.014
-503.697	-11.653	-0.410	-0.271
-502.683	516.330	-0.052	-0.123
-501.668	-83.569	-0.275	-0.089
-500.653	-54.522	0.014	0.006
-499.639	-200.000	0.037	0.244
-498.624	-163.419	-0.142	-0.007
-497.610	-117.892	-0.118	0.021
-496.595	-53.853	0.093	0.043
-495.581	-41.273	0.255	-0.132
-494.566	-200.000	-0.007	0.223
-493.551	9.179	0.167	0.127
-492.537	-118.070	0.206	-0.037
-491.522	-38.235	0.239	0.128
-490.508	800.000	-0.063	-0.263
-489.493	-105.337	0.376	0.086
-488.478	188.499	-0.167	0.251
-487.464	-28.372	0.197	-0.114
-486.449	-200.000	-0.002	0.064
-485.435	86.651	-0.050	0.055
-484.420	-85.375	0.025	0.008
-483.405	-200.000	0.012	-0.241
-482.391	4.811	0.057	-0.043
-481.376	-21.180	0.265	-0.163
-480.362	578.589	0.110	-0.270
-479.347	-176.851	0.216	0.006
-478.332	599.326	0.098	-0.243
-477.318	83.874	0.060	-0.066
-476.303	-124.642	0.300	0.047
-475.289	-143.872	-0.111	0.011
-474.274	-139.022	0.228	-0.025
-473.259	-200.000	0.002	-0.073
-472.245	0.981	0.183	-0.132
-471.230	304.071	0.106	-0.198
-470.216	-9.495	0.138	0.092
-469.201	13.844	0.320	0.251
-468.186	57.836	-0.141	0.139
-467.172	85.298	-0.144	-0.159
-466.157	-200.000	-0.040	0.182
-465.143	-200.000	0.042	0.191
-464.128	21.334	-0.252	-0.206
-463.113	-70.500	0.169	-0.064
-462.099	-127.399	0.332	0.049
-461.084	519.448	0.108	0.255
-460.070	-47.964	0.143	-0.069
-459.055	19.371	0.144	0.116
-458.040	-200.000	-0.016	-0.202
-457.026	-119.819	-0.251	-0.043
-456.011	4.602	0.133	0.098
-454.997	-200.000	0.025	-0.154
-453.982	20.508	-0.095	-0.077
-452.968	782.074	-0.106	0.291
-451.953	-200.000	0.012	-0.392
-450.938	-84.726	0.190	0.060
-449.924	-200.000	0.000	0.120
-448.909	28.227	-0.155	0.131
-447.895	-87.977	0.271	0.082
-446.880	631.364	-0.121	-0.307
-445.865	-200.000	-0.005	-0.243
-444.851	388.535	-0.078	0.163
-443.836	-108.414	-0.072	-0.016
-442.822	-70.979	0.203	-0.077
-441.807	146.886	0.246	-0.332
-440.792	205.788	-0.200	0.312
-439.778	124.822	-0.120	-0.152
-438.763	94.469	0.074	0.084
-437.749	149.221	-0.049	0.067
-436.734	-133.753	0.404	-0.051
-435.719	27.445	-0.196	0.165
-434.705	800.000	-0.043	-0.124
-433.690	-123.353	0.028	-0.004
-432.676	-200.000	-0.044	0.244
-431.661	23.386	-0.428	-0.354
-430.646	-64.527	0.407	-0.166
-429.632	233.772	-0.114	-0.188
-428.617	-200.000	0.205	-0.001
-427.603	93.959	0.154	-0.175
-426.588	-200.000	-0.017	0.133
-425.573	87.108	0.026	0.029
-424.559	-150.923	0.456	0.035
-423.544	-47.113	-0.202	0.099
-422.530	-200.000	0.009	0.111
-421.515	210.877	-0.066	0.104
-420.500	-200.000	0.001	-0.317
-419.486	-43.994	0.014	-0.007
-418.471	-106.147	-0.207	-0.047
-417.457	134.503	0.171	0.222
-416.442	-150.800	-0.362	-0.028
-415.428	800.000	-0.091	0.258
-414.413	469.684	-0.088	-0.198
-413.398	77.224	0.071	-0.076
-412.384	-116.448	-0.219	0.041
-411.369	-116.813	-0.388	-0.071
-410.355	-200.000	0.045	-0.235
-409.340	-157.380	-0.403	0.024
-408.325	-16.196	0.070	0.045
-407.311	69.605	0.192	0.199
-406.296	-79.335	-0.165	0.056
-405.282	300.158	0.142	0.264
-404.267	272.485	-0.027	0.048
-403.252	438.332	0.077	0.169
-402.238	800.000	-0.095	-0.272
-401.223	-64.300	0.065	-0.027
-400.209	-180.324	0.381	-0.008
-399.194	-200.000	0.007	0.063
-398.179	-200.000	-0.056	-0.493
-397.165	-86.881	-0.301	-0.092
-396.150	75.883	-0.062	0.066
-395.136	-16.040	0.173	0.110
-394.121	800.000	0.031	0.104
-393.106	-122.645	0.043	-0.007
-392.092	-34.447	0.422	0.232
-391.077	364.554	0.169	-0.342
-390.063	270.859	-0.187	-0.331
-389.048	-166.171	0.099	0.004
-388.033	-190.142	0.171	-0.002
-387.019	-200.000	-0.004	0.099
-386.004	10.429	0.221	0.169
-384.990	-39.650	-0.121	0.064
-383.975	50.512	-0.308	0.292
-382.960	60.683	0.134	-0.133
-381.946	289.782	-0.024	0.043
-380.931	-83.452	0.250	0.080
-379.917	76.401	-0.149	0.158
-378.902	80.110	-0.166	-0.179
-377.888	165.889	-0.057	-0.081
-376.873	-200.000	0.009	-0.240
-375.858	196.405	-0.191	-0.292
-374.844	42.761	-0.010	-0.009
-373.829	800.000	0.047	-0.144
-372.815	-200.000	-0.053	-0.357
-371.800	265.357	-0.058	-0.101
-370.785	47.079	-0.161	-0.150
-369.771	-46.121	0.132	0.065
-368.756	-6.573	-0.215	-0.147
-367.742	-6.781	0.038	-0.026
-366.727	-94.248	0.263	0.072
-365.712	609.714	0.143	0.357
-364.698	-106.895	0.387	-0.086
-363.683	-161.895	-0.106	0.005
-362.669	464.261	0.082	0.185
-361.654	-200.000	0.058	-0.326
-360.639	306.473	-0.109	0.203
-359.625	-178.307	0.172	0.004
-358.610	-79.529	0.156	-0.053
-357.596	-78.487	-0.131	-0.045
-356.581	-3.574	-0.277	-0.193
-355.566	-200.000	-0.015	-0.164
-354.552	-156.770	-0.210	0.013
-353.537	-200.000	0.028	0.193
-352.523	345.384	-0.159	0.312
-351.508	-149.508	0.211	-0.017
-350.493	68.992	0.272	0.280
-349.479	-18.225	-0.373	-0.233
-348.464	-182.091	-0.077	-0.001
-347.450	-39.230	-0.459	-0.241
-346.435	-170.427	0.490	-0.017
-345.420	-121.010	0.362	0.061
-344.406	129.170	-0.096	0.122
-343.391	-200.000	0.020	0.175
-342.377	427.725	-0.131	-0.284
-341.362	-63.595	-0.201	0.082
-340.348	-200.000	0.007	0.133
-339.333	-200.000	-0.001	-0.340
-338.318	-129.506	0.588	0.081
-337.304	-137.133	0.176	0.020
-336.289	-26.547	-0.128	0.075
-335.275	-99.474	0.171	-0.043
-334.260	-74.696	0.495	0.178
-333.245	-145.003	0.410	0.037
-332.231	-144.727	-0.037	-0.003
-331.216	-172.525	-0.126	-0.004
-330.202	321.105	0.069	0.132
-329.187	-71.482	0.214	-0.080
-328.172	-9.028	0.199	-0.133
-327.158	-200.000	-0.029	0.131
-326.143	-180.236	-0.418	0.009
-325.129	-129.612	0.211	0.029
-324.114	-17.662	0.143	0.090
-323.099	-200.000	-0.003	0.173
-322.085	-61.007	0.072	-0.030
-321.070	-200.000	-0.020	0.202
-320.056	-30.353	0.079	-0.045
-319.041	-24.115	0.023	-0.013
-318.026	141.770	0.150	-0.198
-317.012	56.714	0.118	-0.115
-315.997	439.033	-0.087	0.189
-314.983	-30.523	0.064	-0.036
-313.968	-118.641	-0.450	-0.079
-312.953	143.077	-0.019	-0.025
-311.939	17.079	0.266	-0.211
-310.924	-41.685	-0.141	0.072
-309.910	-94.327	0.121	-0.033
-308.895	-200.000	-0.063	-0.293
-307.880	-30.742	0.085	0.048
-306.866	-77.367	-0.410	0.142
-305.851	79.265	-0.116	0.125
-304.837	195.323	0.021	0.032
-303.822	-200.000	0.008	-0.096
-302.807	239.243	-0.181	0.301
-301.793	-171.043	0.289	0.010
-300.778	-19.688	-0.189	-0.117
-299.764	-61.705	-0.296	0.124
-298.749	439.595	0.056	0.123
-297.735	324.136	0.212	-0.405
-296.720	800.000	-0.031	-0.094
-295.705	-108.466	0.086	0.018
-294.691	800.000	-0.067	-0.282
-293.676	800.000	-0.101	-0.309
-292.662	64.285	-0.124	-0.125
-291.647	328.295	0.136	0.260
-290.632	-89.285	-0.390	0.115
-289.618	13.686	0.142	0.110
-288.603	36.927	-0.344	-0.304
-287.589	202.047	0.217	-0.334
-286.574	-176.642	0.347	-0.009
-285.559	-149.720	0.159	0.012
-284.545	-128.155	0.106	-0.015
-283.530	19.108	0.197	0.158
-282.516	-200.000	-0.013	0.139
-281.501	-53.810	-0.123	-0.056
-280.486	49.353	0.197	0.185
-279.472	104.844	0.088	0.103
-278.457	29.445	-0.139	0.118
-277.443	-4.796	-0.191	0.131
-276.428	800.000	-0.049	0.148
-275.413	-58.585	0.389	-0.168
-274.399	-200.000	0.010	-0.102
-273.384	-74.738	0.377	0.135
-272.370	-200.000	0.014	0.113
-271.355	450.033	-0.152	0.335
-270.340	-19.988	-0.123	-0.076
-269.326	-108.064	-0.358	0.078
-268.311	800.000	-0.072	0.214
-267.297	9.782	0.123	0.093
-266.282	45.982	0.196	-0.181
-265.267	144.822	-0.120	0.160
-264.253	-32.412	-0.179	0.100
-263.238	-195.975	-0.121	-0.001
-262.224	-200.000	0.010	0.155
-261.209	41.577	-0.320	0.289
-260.195	23.733	0.090	0.074
-259.180	11.762	-0.111	-0.085
-258.165	800.000	-0.084	-0.322
-257.151	-200.000	0.012	0.093
-256.136	-82.528	0.211	0.068
-255.122	254.182	-0.193	0.329
-254.107	433.082	0.076	-0.165
-253.092	116.451	-0.249	-0.305
-252.078	-138.076	-0.209	0.023
-251.063	-92.091	0.446	0.126
-250.049	800.000	0.079	-0.250
-249.034	-200.000	0.023	0.344
-248.019	637.691	-0.014	0.036
-247.005	-163.614	-0.355	-0.017
-245.990	-34.520	0.055	0.030
-244.976	92.379	0.171	-0.192
-243.961	276.593	0.094	0.167
-242.946	-200.000	-0.030	0.196
-241.932	72.772	0.324	-0.337
-240.917	-30.231	0.272	-0.154
-239.903	299.367	0.072	-0.132
-238.888	-200.000	-0.014	0.216
-237.873	16.941	0.221	0.175
-236.859	531.412	-0.177	-0.416
-235.844	-85.924	-0.029	-0.009
-234.830	-200.000	0.033	-0.226
-233.815	323.879	-0.040	0.077
-232.800	49.533	-0.031	0.030
-231.786	-86.498	-0.127	-0.039
-230.771	-73.008	-0.222	0.081
-229.757	323.168	0.111	-0.212
-228.742	389.956	0.140	0.288
-227.727	-103.498	-0.398	0.093
-226.713	-131.719	0.349	0.046
-225.698	-200.000	0.030	0.174
-224.684	-200.000	-0.029	-0.132
-223.669	-66.081	-0.125	-0.050
-222.655	-129.343	0.040	-0.006
-221.640	340.663	-0.051	-0.100
-220.625	253.966	-0.104	0.178
-219.611	-200.000	0.028	0.207
-218.596	-200.000	0.039	-0.223
-217.582	-57.269	-0.174	-0.076
-216.567	299.307	-0.049	-0.090
-215.552	-200.000	-0.018	-0.151
-214.538	-73.234	-0.124	0.045
-213.523	-35.608	0.143	-0.077
-212.509	-39.703	0.281	-0.146
-211.494	-83.221	0.287	-0.092
-210.479	-67.117	0.177	0.070
-209.465	-41.085	-0.181	-0.093
-208.450	-32.927	-0.454	0.251
-207.436	800.000	0.086	-0.272
-206.421	800.000	-0.062	-0.271
-205.406	59.462	0.094	0.092
-204.392	-1.729	-0.095	-0.066
-203.377	1.215	0.106	-0.076
-202.363	18.265	-0.225	0.178
-201.348	593.450	0.071	-0.176
-200.333	-190.508	-0.210	0.002
-199.319	-104.889	0.044	0.010
-198.304	-128.449	-0.043	-0.006
-197.290	8.251	-0.122	-0.091
-196.275	800.000	0.066	-0.196
-195.260	288.629	0.119	0.215
-194.246	-114.166	-0.156	-0.030
-193.231	3.796	-0.216	0.157
-192.217	249.516	0.151	0.255
-191.202	-200.000	-0.012	0.081
-190.187	-102.234	0.141	-0.034
-189.173	-200.000	0.096	0.427
-188.158	-200.000	-0.049	0.273
-187.144	-56.954	-0.294	0.129
-186.129	-50.191	0.094	-0.044
-185.114	-24.693	-0.272	-0.161
-184.100	800.000	0.038	-0.150
-183.085	-34.663	-0.276	0.150
-182.071	-200.000	-0.014	0.167
-181.056	-200.000	0.038	0.458
-180.042	-59.293	-0.245	0.105
-179.027	676.409	0.038	0.098
-178.012	-89.021	-0.257	-0.076
-176.998	15.983	-0.088	-0.069
-175.983	-200.000	-0.058	0.255
-174.969	87.297	0.290	-0.319
-173.954	-37.393	-0.022	0.012
-172.939	800.000	0.098	0.354
-171.925	113.666	0.118	-0.142
-170.910	-181.225	-0.054	0.001
-169.896	-0.705	0.061	0.043
-168.881	800.000	-0.008	-0.030
-167.866	65.353	0.057	-0.057
-166.852	-200.000	0.051	-0.376
-165.837	-182.746	0.208	0.004
-164.823	242.256	-0.109	0.182
-163.808	270.250	-0.094	0.165
-162.793	246.047	-0.244	0.408
-161.779	148.649	0.219	0.294
-160.764	426.355	0.127	0.273
-159.750	-164.582	-0.336	0.015
-158.735	-200.000	0.003	-0.083
-157.720	26.888	0.234	-0.195
-156.706	-200.000	0.022	0.210
-155.691	-74.699	-0.322	0.115
-154.677	309.537	0.048	-0.090
-153.662	-71.070	-0.260	-0.097
-152.647	-200.000	-0.002	-0.131
-151.633	-200.000	0.000	-0.284
-150.618	195.523	0.215	-0.324
-149.604	288.132	0.102	-0.184
-148.589	800.000	0.042	0.175
-147.574	328.163	0.114	-0.217
-146.560	149.989	0.102	0.138
-145.545	-21.814	-0.237	0.143
-144.531	61.873	-0.138	0.136
-143.516	-61.328	0.121	0.051
-142.502	5.913	-0.153	0.112
-141.487	800.000	-0.035	0.145
-140.472	-200.000	-0.010	-0.171
-139.458	98.329	-0.007	-0.008
-138.443	-102.094	0.239	-0.057
-137.429	-67.452	0.026	0.010
-136.414	-42.514	0.032	-0.016
-135.399	12.332	-0.057	0.043
-134.385	326.156	0.076	0.144
-133.370	4.995	-0.203	0.148
-132.356	98.634	0.189	0.217
-131.341	-104.436	-0.219	-0.050
-130.326	-150.790	-0.082	-0.006
-129.312	-124.792	0.276	0.042
-128.297	359.451	-0.056	0.111
-127.283	280.764	0.042	0.074
-126.268	-134.238	0.258	-0.032
-125.253	-200.000	-0.052	0.260
-124.239	245.783	0.069	0.116
-123.224	27.048	0.118	0.098
-122.210	800.000	-0.039	-0.161
-121.195	-90.785	0.162	-0.046
-120.180	-200.000	-0.024	-0.216
