DTS Sentinel unit serial number:	SN413079Multiplexer serial number:	ORYXHardware model number:	OX4-SRSoftware version number:	ORYX F/W v4.00 Oryx Data Collector v3.7.2.0data status	okinstallation	princeton_trtdifferential loss correction	single-endedforward channel	channel 3reverse channel	N/Adate	2019/09/14time	01:56:35forward acquisition time	60.00reverse acquisition time	0.00gamma	496.2192k internal	0.2340k external	0.2340temperature offset calibration	1.0053default loss term (dB/km)	0.3790temperature slope calibration	1.0000multiplexer offset coefficient	1.0000multiplexer slope coefficient	1.0000fibre end	0.00T internal ref (°C)	26.50T ext. ref 1 (°C)	3.21T ext. ref 2 (°C)	21.51length (m)	temperature (°C)	Stokes	anti-Stokes-747.200	-89.885	0.084	-0.025
-746.185	-49.707	-0.385	-0.184
-745.171	-99.624	-0.226	0.057
-744.156	-4.346	-0.092	0.064
-743.142	-137.294	0.336	-0.038
-742.127	-54.032	0.314	0.143
-741.112	71.573	-0.160	-0.167
-740.098	-63.608	-0.164	0.067
-739.083	-103.073	0.243	0.058
-738.069	-139.471	-0.279	-0.030
-737.054	-19.254	-0.164	0.102
-736.039	-200.000	0.045	-0.448
-735.025	-199.427	-0.197	0.001
-734.010	203.791	-0.114	-0.177
-732.996	-200.000	-0.033	-0.267
-731.981	-200.000	0.029	-0.189
-730.966	800.000	-0.064	0.266
-729.952	404.469	-0.107	-0.226
-728.937	202.587	-0.079	-0.122
-727.923	86.140	-0.164	0.181
-726.908	-200.000	-0.026	-0.160
-725.894	-83.916	-0.270	-0.086
-724.879	61.548	-0.250	0.249
-723.864	800.000	-0.122	0.371
-722.850	130.973	-0.074	0.095
-721.835	-200.000	-0.015	-0.297
-720.821	116.462	-0.097	0.120
-719.806	40.176	-0.130	-0.117
-718.791	16.473	0.146	-0.116
-717.777	85.615	-0.083	-0.091
-716.762	116.072	0.095	-0.116
-715.748	-3.641	0.092	0.064
-714.733	-136.841	0.313	0.036
-713.718	217.656	0.112	-0.179
-712.704	42.268	-0.042	0.038
-711.689	-200.000	0.004	-0.051
-710.675	-6.775	0.192	-0.131
-709.660	-200.000	0.015	0.149
-708.645	-33.662	0.363	-0.200
-707.631	59.064	0.083	0.082
-706.616	-30.415	-0.234	0.133
-705.602	-149.549	-0.044	-0.003
-704.587	0.013	0.114	-0.081
-703.572	216.265	-0.154	0.245
-702.558	-64.465	0.024	0.010
-701.543	121.855	-0.094	-0.118
-700.529	-36.769	0.145	0.078
-699.514	-45.743	0.265	-0.131
-698.499	23.169	0.115	-0.095
-697.485	800.000	-0.068	0.221
-696.470	-131.573	-0.228	-0.030
-695.456	341.717	0.055	0.108
-694.441	413.900	-0.038	0.081
-693.426	-11.485	0.111	-0.073
-692.412	15.589	0.152	-0.119
-691.397	201.505	-0.103	-0.159
-690.383	38.544	-0.032	-0.029
-689.368	-11.098	0.110	-0.073
-688.354	-12.183	0.171	-0.112
-687.339	-89.685	0.098	0.029
-686.324	257.889	0.177	-0.305
-685.310	-72.149	-0.377	-0.140
-684.295	8.410	-0.227	-0.171
-683.281	400.171	-0.104	-0.217
-682.266	-200.000	0.003	0.214
-681.251	262.910	-0.261	-0.452
-680.237	-19.321	0.149	0.093
-679.222	90.144	-0.067	-0.075
-678.208	135.716	0.083	0.108
-677.193	-118.365	-0.320	-0.057
-676.178	-39.169	0.117	0.061
-675.164	288.713	-0.177	-0.321
-674.149	-79.104	0.341	-0.116
-673.135	93.341	0.124	-0.140
-672.120	-43.811	-0.191	-0.096
-671.105	-44.703	0.332	0.166
-670.091	-200.000	0.040	-0.212
-669.076	-34.114	0.197	-0.108
-668.062	-200.000	-0.012	0.202
-667.047	-137.761	-0.177	0.020
-666.032	661.388	-0.016	0.041
-665.018	141.811	0.061	-0.080
-664.003	-79.255	0.364	-0.123
-662.989	-27.622	-0.147	-0.085
-661.974	-95.249	-0.116	-0.031
-660.959	26.717	-0.062	-0.052
-659.945	-200.000	0.013	-0.313
-658.930	-95.960	0.118	-0.031
-657.916	473.853	0.033	0.074
-656.901	800.000	-0.093	0.331
-655.886	-12.543	-0.160	0.105
-654.872	-50.830	-0.424	-0.199
-653.857	-200.000	-0.006	0.222
-652.843	84.682	-0.076	-0.084
-651.828	-66.391	0.255	0.101
-650.814	-132.473	-0.236	-0.030
-649.799	236.035	-0.257	0.425
-648.784	23.027	0.050	0.041
-647.770	800.000	-0.113	-0.341
-646.755	-200.000	-0.002	-0.209
-645.741	-10.329	0.178	-0.118
-644.726	-200.000	0.001	0.031
-643.711	-29.827	0.023	-0.013
-642.697	205.102	-0.220	-0.341
-641.682	800.000	-0.119	0.413
-640.668	761.464	0.084	-0.228
-639.653	74.886	-0.204	-0.214
-638.638	-126.637	0.245	-0.036
-637.624	-98.707	-0.124	-0.031
-636.609	35.337	0.101	0.088
-635.595	730.333	0.059	0.156
-634.580	-57.739	0.177	-0.077
-633.565	780.231	0.165	-0.451
-632.551	-111.285	0.390	-0.080
-631.536	-176.585	-0.150	0.004
-630.522	-200.000	0.026	-0.293
-629.507	-200.000	0.005	-0.307
-628.492	-200.000	0.020	-0.132
-627.478	-22.692	0.152	0.092
-626.463	-34.092	-0.154	0.084
-625.449	-80.299	0.075	-0.025
-624.434	321.113	0.337	-0.639
-623.419	183.755	-0.136	-0.201
-622.405	-172.726	-0.174	-0.005
-621.390	-14.596	-0.253	-0.162
-620.376	146.227	-0.107	0.143
-619.361	-65.776	-0.302	-0.120
-618.346	360.860	-0.108	-0.215
-617.332	513.276	-0.057	-0.133
-616.317	800.000	-0.022	-0.069
-615.303	-34.305	0.262	0.143
-614.288	-170.723	-0.050	-0.002
-613.273	343.700	-0.122	0.239
-612.259	82.776	-0.089	0.096
-611.244	77.955	0.176	-0.187
-610.230	800.000	-0.018	-0.073
-609.215	-71.554	0.056	-0.021
-608.201	800.000	-0.090	-0.342
-607.186	800.000	0.017	0.061
-606.171	-200.000	0.045	0.333
-605.157	800.000	0.069	0.195
-604.142	109.604	-0.094	-0.112
-603.128	54.650	-0.245	0.236
-602.113	-158.548	0.120	-0.007
-601.098	800.000	-0.067	0.268
-600.084	785.352	0.121	0.331
-599.069	-200.000	-0.030	0.474
-598.055	327.254	0.170	-0.324
-597.040	25.403	0.086	0.071
-596.025	-165.976	-0.315	0.013
-595.011	112.028	0.151	-0.181
-593.996	92.967	-0.027	0.031
-592.982	78.502	0.103	0.110
-591.967	135.406	-0.047	-0.061
-590.952	8.636	-0.280	0.210
-589.938	174.593	-0.147	0.212
-588.923	647.748	0.146	-0.372
-587.909	148.991	-0.241	-0.325
-586.894	-31.967	-0.115	0.064
-585.879	284.734	0.097	-0.173
-584.865	-200.000	0.054	-0.325
-583.850	-107.547	0.335	-0.073
-582.836	-16.439	-0.231	-0.146
-581.821	60.141	0.212	0.208
-580.806	65.417	-0.141	-0.142
-579.792	-71.404	-0.237	-0.088
-578.777	113.279	-0.108	0.130
-577.763	-128.285	0.216	0.031
-576.748	74.730	0.072	0.075
-575.733	-67.081	0.334	0.131
-574.719	800.000	0.066	-0.202
-573.704	-69.188	-0.130	-0.050
-572.690	185.873	-0.297	-0.440
-571.675	-16.961	-0.162	-0.102
-570.661	-108.536	-0.323	-0.069
-569.646	-3.380	-0.167	0.115
-568.631	-200.000	0.036	0.252
-567.617	-200.000	0.055	-0.405
-566.602	-60.978	0.223	-0.094
-565.588	-200.000	0.014	0.227
-564.573	27.051	-0.320	-0.267
-563.558	800.000	0.115	0.399
-562.544	800.000	0.010	0.039
-561.529	-200.000	-0.030	-0.197
-560.515	-20.719	-0.345	0.211
-559.500	800.000	0.059	-0.180
-558.485	20.842	-0.133	0.107
-557.471	-124.064	-0.162	0.025
-556.456	-84.714	-0.177	0.055
-555.442	-200.000	-0.003	0.213
-554.427	-114.442	0.235	0.045
-553.412	-32.883	-0.094	-0.052
-552.398	10.904	-0.102	0.077
-551.383	244.539	0.151	0.253
-550.369	-122.787	-0.121	0.019
-549.354	-113.036	-0.216	0.043
-548.339	219.792	0.061	-0.098
-547.325	-61.948	0.135	0.056
-546.310	101.359	0.119	0.138
-545.296	-124.218	0.110	-0.017
-544.281	800.000	0.083	-0.262
-543.266	-200.000	-0.012	-0.217
-542.252	-200.000	-0.079	0.360
-541.237	-56.517	0.089	0.039
-540.223	-52.023	-0.202	-0.094
-539.208	394.202	0.029	0.059
-538.193	-95.038	0.216	0.058
-537.179	-49.780	-0.231	-0.109
-536.164	73.524	-0.178	0.185
-535.150	145.893	0.102	0.136
-534.135	-87.166	-0.154	0.047
-533.121	-16.552	0.043	0.027
-532.106	-69.752	0.285	-0.108
-531.091	-71.620	-0.311	-0.116
-530.077	-10.120	-0.156	-0.103
-529.062	392.467	0.082	-0.169
-528.048	-117.913	0.167	-0.030
-527.033	107.610	-0.037	0.044
-526.018	-7.037	-0.146	-0.098
-525.004	-80.702	0.219	-0.072
-523.989	-126.656	0.174	-0.026
-522.975	76.866	-0.245	0.259
-521.960	71.003	0.348	0.358
-520.945	-43.845	0.079	-0.040
-519.931	800.000	-0.063	-0.182
-518.916	19.392	0.184	0.147
-517.902	-36.837	0.331	-0.176
-516.887	33.172	0.113	-0.098
-515.872	-65.052	-0.090	-0.036
-514.858	800.000	-0.126	0.363
-513.843	-175.139	-0.221	0.006
-512.829	800.000	-0.043	-0.182
-511.814	800.000	0.061	0.206
-510.799	-91.898	-0.317	0.089
-509.785	-200.000	0.057	0.277
-508.770	-200.000	0.011	0.332
-507.756	800.000	-0.032	0.132
-506.741	-200.000	0.061	-0.388
-505.726	60.278	0.065	-0.064
-504.712	281.827	-0.098	-0.175
-503.697	-144.250	-0.297	-0.027
-502.683	-200.000	0.016	-0.201
-501.668	-89.855	0.147	0.043
-500.653	-90.398	0.271	0.078
-499.639	800.000	0.038	-0.128
-498.624	-99.561	0.076	0.019
-497.610	111.785	0.238	0.286
-496.595	-71.838	0.354	-0.131
-495.581	800.000	0.129	-0.417
-494.566	102.922	-0.190	-0.221
-493.551	800.000	0.068	0.252
-492.537	602.024	0.115	0.284
-491.522	-141.342	-0.277	-0.028
-490.508	-14.929	-0.145	-0.092
-489.493	-28.218	0.163	-0.093
-488.478	-119.005	0.146	0.025
-487.464	-200.000	-0.015	0.282
-486.449	36.115	-0.321	-0.280
-485.435	204.571	0.089	-0.138
-484.420	121.961	0.168	0.208
-483.405	-200.000	0.057	-0.000
-482.391	615.714	-0.058	0.145
-481.376	-163.873	0.112	0.005
-480.362	-200.000	0.019	0.272
-479.347	124.963	-0.064	-0.080
-478.332	8.258	0.171	0.128
-477.318	-200.000	0.020	-0.258
-476.303	128.757	0.322	0.407
-475.289	-65.974	0.190	0.075
-474.274	800.000	0.096	-0.328
-473.259	800.000	-0.035	0.125
-472.245	-75.558	0.043	-0.015
-471.230	-200.000	-0.053	0.333
-470.216	286.964	0.155	-0.278
-469.201	659.490	0.095	-0.243
-468.186	-142.754	0.180	0.017
-467.172	-200.000	0.024	0.134
-466.157	-101.283	0.255	-0.062
-465.143	692.420	-0.102	0.264
-464.128	290.861	0.034	0.061
-463.113	-91.266	-0.098	-0.028
-462.099	-116.730	-0.172	-0.031
-461.084	-72.917	-0.200	-0.073
-460.070	-6.179	0.243	-0.165
-459.055	-189.435	-0.206	-0.002
-458.040	0.658	-0.291	-0.207
-457.026	744.422	0.139	-0.372
-456.011	175.290	-0.260	-0.373
-454.997	296.386	-0.066	-0.119
-453.982	18.760	-0.103	-0.082
-452.968	-49.203	-0.301	0.143
-451.953	-99.578	0.140	-0.035
-450.938	-61.985	0.152	-0.063
-449.924	-163.262	-0.139	0.007
-448.909	-200.000	0.043	-0.217
-447.895	-30.904	-0.371	0.208
-446.880	-161.983	0.404	0.020
-445.865	-16.072	0.134	-0.085
-444.851	-146.029	0.244	-0.021
-443.836	9.528	-0.196	-0.147
-442.822	-200.000	-0.010	0.303
-441.807	-126.168	0.281	0.042
-440.792	-59.980	0.197	-0.083
-439.778	261.473	-0.380	-0.652
-438.763	-108.200	-0.103	-0.022
-437.749	-140.357	0.503	0.052
-436.734	153.518	0.088	-0.119
-435.719	-115.682	-0.422	0.078
-434.705	-71.713	0.402	0.149
-433.690	-119.153	0.047	0.008
-432.676	-94.956	-0.010	-0.003
-431.661	-41.125	-0.142	0.073
-430.646	800.000	-0.052	0.191
-429.632	432.208	0.211	0.454
-428.617	800.000	0.003	0.012
-427.603	684.242	-0.121	-0.312
-426.588	-143.084	0.356	-0.034
-425.573	101.594	0.106	0.122
-424.559	-26.966	0.382	-0.221
-423.544	800.000	-0.096	-0.264
-422.530	688.300	0.174	-0.449
-421.515	-200.000	0.007	-0.396
-420.500	21.006	0.189	-0.152
-419.486	-38.484	0.376	0.197
-418.471	255.818	0.119	-0.203
-417.457	800.000	-0.047	-0.160
-416.442	554.806	-0.083	-0.198
-415.428	-157.654	0.225	0.013
-414.413	-200.000	0.059	-0.288
-413.398	-200.000	0.003	-0.557
-412.384	-75.648	-0.096	0.034
-411.369	74.395	0.173	-0.180
-410.355	800.000	-0.031	-0.119
-409.340	-200.000	0.014	0.076
-408.325	-32.226	-0.240	0.132
-407.311	635.600	-0.064	0.160
-406.296	345.657	0.113	0.220
-405.282	-137.121	-0.160	-0.018
-404.267	-200.000	0.017	0.116
-403.252	-99.355	0.344	0.086
-402.238	-200.000	0.006	-0.172
-401.223	-17.598	-0.294	-0.183
-400.209	-200.000	-0.066	-0.373
-399.194	-83.236	0.227	-0.072
-398.179	327.398	0.226	0.428
-397.165	301.949	0.086	-0.157
-396.150	-200.000	0.001	-0.317
-395.136	41.973	0.228	0.204
-394.121	374.612	0.181	0.365
-393.106	-22.287	0.336	-0.201
-392.092	502.456	0.046	0.105
-391.077	149.158	-0.088	0.118
-390.063	172.391	0.053	0.075
-389.048	800.000	0.055	0.218
-388.033	-29.261	0.067	0.038
-387.019	-200.000	0.002	0.013
-386.004	112.227	0.126	-0.151
-384.990	-49.284	-0.030	0.014
-383.975	-138.018	0.205	-0.023
-382.960	-200.000	0.035	0.218
-381.946	-200.000	0.004	-0.153
-380.931	120.417	0.173	0.212
-379.917	-66.667	-0.105	-0.041
-378.902	-200.000	-0.008	0.123
-377.888	267.062	0.118	0.204
-376.873	730.723	0.055	-0.145
-375.858	-8.986	0.093	-0.062
-374.844	800.000	-0.091	0.276
-373.829	800.000	-0.032	0.138
-372.815	-10.471	0.317	0.207
-371.800	-42.303	-0.219	0.110
-370.785	-131.158	-0.347	0.046
-369.771	535.323	0.042	-0.098
-368.756	29.716	-0.175	-0.147
-367.742	-4.942	0.099	-0.067
-366.727	193.467	0.172	-0.257
-365.712	40.310	-0.194	-0.173
-364.698	800.000	0.009	-0.038
-363.683	6.516	-0.169	0.124
-362.669	-147.357	0.160	0.013
-361.654	-200.000	0.017	-0.242
-360.639	800.000	-0.076	-0.276
-359.625	-82.683	-0.230	-0.074
-358.610	93.045	-0.105	-0.117
-357.596	-102.330	0.469	0.111
-356.581	266.188	-0.085	0.147
-355.566	800.000	0.054	0.173
-354.552	800.000	-0.073	0.262
-353.537	-79.673	0.055	-0.018
-352.523	-9.923	0.206	-0.135
-351.508	-78.837	-0.237	0.080
-350.493	-18.191	0.257	0.159
-349.479	437.545	0.134	-0.289
-348.464	58.994	-0.225	0.218
-347.450	-1.980	0.217	0.150
-346.435	25.239	0.273	0.224
-345.420	800.000	-0.120	-0.394
-344.406	-200.000	-0.028	-0.173
-343.391	491.906	-0.136	0.308
-342.377	-200.000	0.002	-0.061
-341.362	800.000	0.044	0.160
-340.348	-114.323	0.214	-0.041
-339.333	800.000	-0.066	0.224
-338.318	-104.537	-0.207	0.047
-337.304	-41.336	0.092	-0.047
-336.289	18.361	-0.271	-0.214
-335.275	-200.000	0.003	0.131
-334.260	310.473	0.203	0.374
-333.245	310.016	-0.128	0.237
-332.231	-133.743	-0.284	0.035
-331.216	-137.858	0.230	-0.025
-330.202	319.691	0.102	-0.191
-329.187	290.052	0.158	-0.283
-328.172	-200.000	-0.017	-0.167
-327.158	-25.185	-0.170	-0.099
-326.143	534.059	-0.014	-0.032
-325.129	-200.000	-0.092	-0.592
-324.114	-91.989	0.180	0.050
-323.099	-96.438	0.073	0.019
-322.085	-100.229	0.326	0.080
-321.070	-200.000	-0.160	0.001
-320.056	107.714	-0.037	0.043
-319.041	-108.535	-0.203	0.043
-318.026	-8.827	0.294	0.194
-317.012	22.842	-0.041	0.033
-315.997	-108.435	-0.233	-0.050
-314.983	533.000	-0.115	-0.268
-313.968	-75.119	0.259	0.091
-312.953	-71.458	0.164	0.061
-311.939	-52.633	-0.150	0.068
-310.924	119.386	0.145	-0.176
-309.910	-200.000	-0.069	-0.343
-308.895	-200.000	0.074	-0.555
-307.880	625.396	-0.049	0.123
-306.866	-200.000	0.011	0.128
-305.851	-200.000	-0.032	-0.342
-304.837	628.970	-0.051	0.128
-303.822	-71.037	-0.113	0.042
-302.807	21.450	0.281	0.225
-301.793	-200.000	-0.042	0.214
-300.778	-175.021	0.178	0.005
-299.764	-87.909	-0.049	0.015
-298.749	-129.824	-0.091	-0.012
-297.735	-131.796	0.178	-0.023
-296.720	-88.326	0.204	-0.060
-295.705	-77.927	0.219	-0.074
-294.691	517.705	-0.205	-0.473
-293.676	-99.110	0.181	0.045
-292.662	800.000	-0.036	-0.144
-291.647	96.380	-0.192	0.216
-290.632	-15.827	-0.205	-0.129
-289.618	10.697	-0.196	0.148
-288.603	106.011	0.173	0.202
-287.589	85.437	-0.179	0.193
-286.574	-200.000	0.009	-0.307
-285.559	775.804	0.031	0.085
-284.545	101.649	0.158	0.181
-283.530	278.306	-0.195	0.343
-282.516	-200.000	-0.035	0.438
-281.501	11.534	-0.269	0.203
-280.486	-200.000	0.019	0.228
-279.472	-67.528	0.171	0.066
-278.457	-53.981	0.089	0.040
-277.443	127.779	-0.394	0.493
-276.428	117.726	0.140	0.170
-275.413	-33.373	-0.225	-0.122
-274.399	-125.493	-0.201	0.030
-273.384	-10.535	0.295	-0.193
-272.370	-87.959	-0.250	-0.074
-271.355	-143.734	0.200	0.019
-270.340	-160.342	0.028	0.001
-269.326	-200.000	0.052	-0.243
-268.311	-35.270	-0.223	0.119
-267.297	-71.532	0.114	-0.042
-266.282	236.756	-0.198	0.323
-265.267	775.210	-0.053	0.142
-264.253	800.000	-0.117	-0.439
-263.238	90.064	-0.268	-0.295
-262.224	-119.712	-0.413	0.070
-261.209	-200.000	0.001	-0.009
-260.195	-200.000	-0.001	-0.018
-259.180	278.330	-0.155	-0.272
-258.165	0.390	-0.097	0.068
-257.151	44.771	-0.167	0.151
-256.136	-15.667	0.127	0.079
-255.122	-200.000	-0.004	-0.176
-254.107	141.676	0.155	0.202
-253.092	7.967	-0.116	-0.085
-252.078	-75.883	0.265	0.092
-251.063	-170.439	0.443	0.015
-250.049	-109.690	-0.182	-0.038
-249.034	118.655	-0.184	0.223
-248.019	83.279	0.221	-0.236
-247.005	105.092	0.196	0.227
-245.990	459.531	-0.088	0.193
-244.976	130.184	0.041	0.052
-243.961	128.897	-0.187	0.234
-242.946	-111.187	-0.243	0.049
-241.932	-65.431	0.246	-0.097
-240.917	12.303	-0.093	-0.071
-239.903	25.976	-0.254	-0.209
-238.888	-47.103	-0.211	-0.101
-237.873	-93.443	0.339	0.092
-236.859	-35.957	-0.379	0.202
-235.844	-131.295	-0.120	0.016
-234.830	249.289	0.036	0.059
-233.815	-117.396	0.385	-0.068
-232.800	800.000	0.074	0.256
-231.786	800.000	-0.104	0.310
-230.771	-66.655	-0.343	-0.133
-229.757	104.479	0.155	0.180
-228.742	-83.427	-0.418	-0.132
-227.727	229.539	0.091	0.146
-226.713	-162.300	-0.092	0.005
-225.698	125.949	-0.134	0.167
-224.684	-200.000	0.017	0.120
-223.669	59.767	-0.232	-0.225
-222.655	199.836	0.180	-0.272
-221.640	-109.385	-0.276	-0.057
-220.625	1.272	-0.194	0.137
-219.611	-200.000	0.025	-0.116
-218.596	-86.883	-0.335	-0.100
-217.582	800.000	0.025	0.087
-216.567	-200.000	0.050	0.456
-215.552	-86.636	0.077	0.023
-214.538	44.148	-0.294	-0.265
-213.523	800.000	-0.089	-0.256
-212.509	-131.627	0.272	-0.035
-211.494	158.646	0.126	-0.171
-210.479	7.589	0.171	0.126
-209.465	800.000	0.077	0.222
-208.450	-150.739	-0.200	-0.015
-207.436	321.206	0.093	0.173
-206.421	-200.000	0.005	0.158
-205.406	540.079	-0.086	0.201
-204.392	-103.150	-0.327	0.076
-203.377	-70.806	-0.427	-0.158
-202.363	-200.000	0.006	-0.031
-201.348	374.305	0.133	-0.266
-200.333	-22.888	0.238	-0.141
-199.319	-200.000	0.022	-0.177
-198.304	-93.297	-0.276	0.075
-197.290	-107.729	-0.291	-0.062
-196.275	472.993	-0.211	0.466
-195.260	354.590	-0.174	0.339
-194.246	-32.929	0.154	-0.084
-193.231	746.585	-0.042	0.111
-192.217	55.105	0.153	0.145
-191.202	800.000	0.009	0.033
-190.187	-98.857	-0.199	-0.050
-189.173	-64.447	-0.037	-0.015
-188.158	-56.948	0.375	0.162
-187.144	-41.195	-0.322	0.163
-186.129	216.681	0.183	-0.285
-185.114	800.000	-0.112	-0.321
-184.100	-147.956	0.199	0.016
-183.085	26.961	0.122	-0.100
-182.071	-78.185	-0.347	0.117
-181.056	-200.000	-0.014	-0.257
-180.042	-78.777	-0.254	-0.085
-179.027	800.000	0.083	0.291
-178.012	-146.306	-0.125	0.011
-176.998	-86.715	0.108	-0.032
-175.983	-39.745	0.118	0.061
-174.969	800.000	0.029	0.124
-173.954	-53.520	-0.405	-0.182
-172.939	-28.723	-0.269	0.152
-171.925	-37.287	0.321	0.168
-170.910	-200.000	-0.018	0.254
-169.896	220.228	-0.083	-0.130
-168.881	-143.316	0.221	0.021
-167.866	800.000	-0.098	0.277
-166.852	-200.000	0.003	-0.179
-165.837	-200.000	0.019	0.256
-164.823	800.000	0.020	-0.074
-163.808	31.275	0.143	0.120
-162.793	-165.882	0.057	-0.002
-161.779	800.000	-0.109	0.400
-160.764	577.814	-0.039	-0.093
-159.750	97.331	-0.189	0.213
-158.735	44.686	0.084	0.075
-157.720	-200.000	0.268	-0.001
-156.706	61.293	0.174	0.169
-155.691	81.424	0.162	-0.172
-154.677	800.000	-0.189	0.557
-153.662	-200.000	0.029	0.310
-152.647	-200.000	0.030	0.157
-151.633	487.279	-0.012	-0.027
-150.618	-200.000	0.001	0.116
-149.604	173.408	0.171	-0.241
-148.589	-134.321	0.338	0.041
-147.574	137.608	-0.207	0.266
-146.560	-40.069	0.088	-0.045
-145.545	-200.000	0.024	-0.111
-144.531	-200.000	0.064	0.322
-143.516	-200.000	-0.039	-0.271
-142.502	800.000	0.070	-0.212
-141.487	-200.000	0.013	0.100
-140.472	441.471	0.077	-0.164
-139.458	-31.504	0.287	-0.158
-138.443	346.562	0.083	-0.160
-137.429	115.069	-0.207	-0.248
-136.414	169.437	0.036	-0.050
-135.399	-101.736	-0.187	-0.044
-134.385	800.000	-0.093	-0.256
-133.370	-45.644	0.132	-0.064
-132.356	29.384	0.078	0.065
-131.341	105.994	0.394	0.456
-130.326	377.328	-0.172	0.343
-129.312	-25.308	0.311	0.180
-128.297	-200.000	-0.017	-0.088
-127.283	-65.857	0.118	-0.046
-126.268	800.000	-0.051	-0.149
-125.253	-200.000	0.046	-0.210
-124.239	-40.061	-0.327	-0.167
-123.224	-133.869	-0.153	-0.019
-122.210	-79.115	-0.176	0.059
-121.195	-20.854	0.336	-0.202
