DTS Sentinel unit serial number:	SN413079Multiplexer serial number:	ORYXHardware model number:	OX4-SRSoftware version number:	ORYX F/W v4.00 Oryx Data Collector v3.7.2.0data status	okinstallation	princeton_trtdifferential loss correction	single-endedforward channel	channel 3reverse channel	N/Adate	2019/09/18time	13:12:35forward acquisition time	60.00reverse acquisition time	0.00gamma	496.2192k internal	0.2313k external	0.2313temperature offset calibration	0.9972default loss term (dB/km)	0.3790temperature slope calibration	1.0000multiplexer offset coefficient	1.0000multiplexer slope coefficient	1.0000fibre end	0.00T internal ref (°C)	33.94T ext. ref 1 (°C)	0.59T ext. ref 2 (°C)	31.43length (m)	temperature (°C)	Stokes	anti-Stokes-747.200	-200.000	0.021	-0.166
-746.185	-200.000	0.084	0.453
-745.171	-27.010	0.284	0.168
-744.156	800.000	-0.031	0.104
-743.142	-11.235	-0.189	-0.126
-742.127	51.160	-0.337	0.324
-741.112	800.000	-0.105	0.351
-740.098	389.243	-0.076	-0.160
-739.083	401.338	0.212	0.451
-738.069	-92.211	-0.258	0.074
-737.054	-73.032	-0.057	0.021
-736.039	334.802	-0.121	-0.238
-735.025	800.000	0.015	0.064
-734.010	-35.324	-0.213	-0.117
-732.996	800.000	-0.029	0.128
-731.981	203.991	-0.175	-0.275
-730.966	18.695	-0.204	-0.165
-729.952	-60.486	0.143	0.062
-728.937	-179.562	0.112	0.002
-727.923	-200.000	-0.040	-0.386
-726.908	-34.954	0.016	0.009
-725.894	-92.892	-0.243	-0.069
-724.879	44.273	-0.168	-0.156
-723.864	-200.000	-0.012	0.064
-722.850	-200.000	-0.015	0.098
-721.835	325.101	-0.102	-0.198
-720.821	-15.522	0.450	-0.291
-719.806	-200.000	0.038	-0.348
-718.791	142.791	-0.225	-0.303
-717.777	9.611	0.305	0.234
-716.762	-86.261	0.239	-0.075
-715.748	-175.654	0.409	0.011
-714.733	133.471	0.134	-0.176
-713.718	-200.000	-0.011	0.159
-712.704	-39.444	0.095	0.050
-711.689	-123.029	0.204	-0.033
-710.675	354.333	-0.089	-0.180
-709.660	274.082	-0.120	-0.214
-708.645	-27.671	-0.183	0.108
-707.631	-76.352	0.167	-0.059
-706.616	13.522	0.268	-0.211
-705.602	800.000	0.059	-0.199
-704.587	-125.392	-0.045	0.007
-703.572	-200.000	-0.001	-0.090
-702.558	-105.712	0.267	-0.061
-701.543	-106.664	0.221	-0.050
-700.529	-180.474	0.189	0.004
-699.514	25.124	-0.209	-0.176
-698.499	92.844	0.231	-0.264
-697.485	-200.000	0.013	-0.199
-696.470	-91.082	-0.141	-0.041
-695.456	-200.000	-0.004	-0.059
-694.441	800.000	0.035	-0.116
-693.426	-83.166	-0.230	0.075
-692.412	-200.000	-0.022	-0.186
-691.397	-200.000	-0.075	0.450
-690.383	-53.762	-0.135	0.062
-689.368	66.404	0.066	-0.068
-688.354	770.955	-0.041	-0.114
-687.339	-176.408	-0.327	-0.009
-686.324	27.701	0.164	0.140
-685.310	-87.031	-0.172	0.053
-684.295	143.447	-0.077	-0.103
-683.281	-154.011	-0.163	-0.011
-682.266	-32.450	-0.426	-0.240
-681.251	-75.210	-0.328	0.118
-680.237	45.087	0.206	0.192
-679.222	174.399	0.125	0.183
-678.208	95.886	0.281	0.325
-677.193	-121.238	-0.304	-0.051
-676.178	-119.395	0.247	0.043
-675.164	241.047	0.109	0.184
-674.149	775.890	0.136	-0.377
-673.135	-28.264	-0.236	-0.138
-672.120	142.023	0.107	0.144
-671.105	800.000	0.059	0.232
-670.091	-79.575	-0.495	-0.169
-669.076	85.222	-0.020	-0.022
-668.062	56.091	0.133	-0.130
-667.047	800.000	-0.080	-0.295
-666.032	-41.308	0.227	0.118
-665.018	-200.000	-0.013	-0.173
-664.003	156.821	-0.036	-0.051
-662.989	-200.000	-0.036	-0.161
-661.974	-200.000	-0.020	-0.185
-660.959	-80.921	0.151	0.051
-659.945	-2.043	0.039	-0.028
-658.930	0.886	-0.281	-0.203
-657.916	116.918	-0.067	0.084
-656.901	240.066	0.195	0.328
-655.886	193.665	0.106	-0.162
-654.872	-47.631	0.099	-0.049
-653.857	-56.638	-0.282	-0.126
-652.843	-78.095	0.190	0.066
-651.828	-200.000	-0.003	0.051
-650.814	-44.050	-0.073	-0.037
-649.799	-63.284	-0.186	0.078
-648.784	49.634	-0.153	0.146
-647.770	61.935	-0.127	-0.128
-646.755	11.844	-0.053	-0.041
-645.741	-7.855	0.237	-0.161
-644.726	437.444	-0.095	0.209
-643.711	112.183	0.149	-0.182
-642.697	-200.000	-0.020	-0.154
-641.682	63.835	0.084	-0.085
-640.668	601.542	0.149	0.374
-639.653	-200.000	0.001	0.100
-638.638	-200.000	-0.004	-0.221
-637.624	51.688	-0.142	0.137
-636.609	-28.655	-0.166	0.097
-635.595	800.000	-0.127	-0.438
-634.580	800.000	0.010	0.039
-633.565	-143.473	-0.202	-0.020
-632.551	-200.000	0.018	0.172
-631.536	40.951	0.131	0.120
-630.522	-200.000	0.036	0.373
-629.507	-44.723	-0.242	0.122
-628.492	15.704	-0.245	-0.195
-627.478	291.915	0.121	-0.223
-626.463	344.268	0.068	0.134
-625.449	195.859	-0.063	0.097
-624.434	-200.000	0.010	-0.193
-623.419	53.807	-0.270	-0.262
-622.405	21.813	-0.064	0.053
-621.390	421.065	-0.030	-0.064
-620.376	-149.364	0.005	-0.000
-619.361	-19.024	0.044	-0.027
-618.346	-5.667	0.125	0.087
-617.332	-200.000	-0.027	0.300
-616.317	54.418	0.266	0.259
-615.303	6.172	0.189	0.141
-614.288	-110.534	-0.125	0.026
-613.273	-200.000	0.002	0.196
-612.259	16.815	-0.144	0.115
-611.244	-113.777	0.274	0.054
-610.230	747.966	-0.117	0.319
-609.215	-39.307	0.007	0.004
-608.201	263.494	0.181	0.318
-607.186	-200.000	-0.009	0.130
-606.171	13.921	-0.257	0.202
-605.157	-49.850	-0.211	-0.101
-604.142	112.030	-0.101	-0.123
-603.128	-58.458	-0.072	-0.031
-602.113	-147.621	0.227	-0.019
-601.098	-90.282	-0.250	0.073
-600.084	-200.000	-0.046	-0.261
-599.069	377.087	0.089	-0.182
-598.055	-155.526	-0.219	-0.014
-597.040	72.609	-0.124	0.130
-596.025	-200.000	-0.003	-0.108
-595.011	-76.463	-0.100	-0.035
-593.996	289.649	-0.077	0.141
-592.982	34.518	-0.185	0.163
-591.967	-200.000	-0.018	0.294
-590.952	124.100	-0.178	-0.226
-589.938	-200.000	-0.007	0.210
-588.923	-135.359	0.202	0.024
-587.909	800.000	-0.040	-0.130
-586.894	800.000	0.109	0.390
-585.879	-200.000	-0.056	-0.440
-584.865	-108.700	-0.385	-0.083
-583.850	-200.000	-0.036	-0.216
-582.836	109.798	0.134	-0.162
-581.821	-67.724	-0.207	0.081
-580.806	440.404	-0.069	0.152
-579.792	305.015	-0.150	0.281
-578.777	-74.696	0.270	0.098
-577.763	271.792	0.063	-0.111
-576.748	-112.228	0.242	-0.049
-575.733	-192.148	0.189	0.002
-574.719	-200.000	-0.024	-0.169
-573.704	221.360	0.112	-0.182
-572.690	96.601	0.042	0.048
-571.675	37.128	-0.427	0.381
-570.661	800.000	-0.111	-0.310
-569.646	-200.000	0.042	-0.309
-568.631	224.529	-0.163	-0.266
-567.617	140.298	-0.125	-0.167
-566.602	-49.888	0.157	0.075
-565.588	-46.654	0.110	-0.054
-564.573	88.017	-0.122	0.137
-563.558	409.952	0.132	-0.282
-562.544	101.259	-0.129	0.152
-561.529	-101.947	0.295	0.072
-560.515	309.610	-0.082	-0.154
-559.500	118.991	0.002	0.002
-558.485	-44.439	-0.287	-0.145
-557.471	241.836	0.038	-0.064
-556.456	-48.284	-0.139	0.067
-555.442	-104.562	0.070	0.016
-554.427	-64.677	0.211	-0.086
-553.412	-200.000	-0.030	-0.244
-552.398	-3.467	0.163	-0.114
-551.383	483.510	-0.148	-0.339
-550.369	-99.175	0.114	0.029
-549.354	800.000	0.036	-0.120
-548.339	-200.000	0.025	0.254
-547.325	-176.155	-0.212	-0.006
-546.310	61.969	-0.342	0.343
-545.296	237.301	-0.112	-0.187
-544.281	-200.000	-0.028	0.329
-543.266	79.623	-0.136	0.147
-542.252	-183.322	0.155	-0.003
-541.237	24.554	0.188	-0.156
-540.223	65.710	0.152	0.155
-539.208	239.498	-0.037	0.062
-538.193	-200.000	0.035	0.300
-537.179	94.537	0.174	0.199
-536.164	-67.266	0.171	-0.068
-535.150	800.000	-0.036	-0.100
-534.135	-134.863	0.249	-0.030
-533.121	-128.649	0.228	0.032
-532.106	339.764	-0.042	0.083
-531.091	-200.000	0.001	-0.100
-530.077	738.609	-0.155	-0.418
-529.062	139.634	-0.344	-0.455
-528.048	-128.824	0.221	-0.031
-527.033	-163.334	0.106	0.005
-526.018	-149.023	0.334	0.027
-525.004	-71.377	-0.300	-0.113
-523.989	-200.000	0.010	-0.113
-522.975	33.703	0.085	0.074
-521.960	-41.170	-0.185	0.096
-520.945	-131.693	0.194	0.026
-519.931	574.919	0.083	0.203
-518.916	83.022	0.161	-0.176
-517.902	517.209	0.088	-0.208
-516.887	-200.000	-0.025	-0.162
-515.872	-200.000	0.039	0.247
-514.858	-118.778	-0.429	-0.076
-513.843	800.000	0.129	-0.428
-512.829	207.714	0.247	0.387
-511.814	-131.473	-0.216	0.029
-510.799	19.518	-0.260	0.210
-509.785	707.644	0.055	-0.146
-508.770	746.426	-0.024	-0.066
-507.756	-50.685	-0.303	0.143
-506.741	-3.940	0.218	-0.152
-505.726	37.484	-0.012	0.011
-504.712	12.605	-0.227	0.176
-503.697	-200.000	-0.017	-0.160
-502.683	149.962	0.176	-0.239
-501.668	-81.963	0.436	-0.143
-500.653	250.590	-0.063	-0.108
-499.639	102.618	0.203	0.239
-498.624	-21.409	0.223	0.137
-497.610	-157.005	-0.001	0.000
-496.595	-27.754	0.135	0.079
-495.581	-200.000	-0.014	0.081
-494.566	800.000	-0.086	-0.274
-493.551	-43.861	-0.278	-0.140
-492.537	16.378	0.027	-0.022
-491.522	-52.231	-0.255	0.119
-490.508	-200.000	-0.032	-0.140
-489.493	-98.124	-0.160	-0.041
-488.478	-70.513	0.136	-0.052
-487.464	250.549	0.060	0.102
-486.449	800.000	-0.064	-0.275
-485.435	-31.663	0.044	0.025
-484.420	226.446	0.097	0.157
-483.405	46.667	-0.076	0.071
-482.391	-48.383	0.303	0.147
-481.376	-163.748	-0.078	0.004
-480.362	-35.826	-0.078	0.042
-479.347	56.228	0.215	0.209
-478.332	642.236	0.094	-0.240
-477.318	165.987	0.072	0.102
-476.303	86.561	0.020	-0.023
-475.289	-7.248	0.114	-0.077
-474.274	-31.703	0.151	0.085
-473.259	800.000	0.014	0.048
-472.245	-148.177	-0.385	-0.032
-471.230	-200.000	0.060	0.342
-470.216	-200.000	-0.059	-0.286
-469.201	-200.000	0.034	-0.378
-468.186	86.345	-0.052	0.058
-467.172	-188.039	0.176	-0.002
-466.157	-200.000	-0.022	-0.121
-465.143	30.190	0.257	-0.220
-464.128	99.956	-0.107	-0.124
-463.113	-18.763	0.115	-0.072
-462.099	63.055	0.053	-0.053
-461.084	306.911	-0.020	-0.036
-460.070	-167.947	-0.264	-0.010
-459.055	143.457	0.069	0.092
-458.040	-200.000	0.026	0.192
-457.026	258.370	0.291	0.503
-456.011	39.663	-0.110	0.099
-454.997	-87.770	-0.058	0.017
-453.982	-200.000	0.006	0.130
-452.968	130.078	0.239	-0.306
-451.953	-200.000	-0.019	-0.110
-450.938	125.910	0.066	0.083
-449.924	-200.000	0.045	-0.225
-448.909	-200.000	-0.014	0.257
-447.895	-7.128	-0.302	0.205
-446.880	315.751	0.142	0.269
-445.865	-43.691	0.118	0.060
-444.851	-190.543	-0.211	-0.002
-443.836	232.529	0.047	-0.077
-442.822	-120.100	0.220	-0.038
-441.807	38.046	0.128	-0.114
-440.792	-59.955	-0.019	0.008
-439.778	175.504	0.079	0.114
-438.763	113.838	-0.102	0.124
-437.749	490.900	-0.111	-0.254
-436.734	36.721	0.168	-0.148
-435.719	117.311	-0.166	-0.204
-434.705	-34.524	-0.321	-0.176
-433.690	-151.771	0.078	-0.006
-432.676	77.737	0.073	0.078
-431.661	49.039	-0.251	0.237
-430.646	68.154	0.113	-0.116
-429.632	96.780	0.256	0.294
-428.617	81.026	0.308	0.333
-427.603	-159.953	-0.306	-0.017
-426.588	-48.115	-0.068	-0.033
-425.573	-112.936	0.180	-0.036
-424.559	-200.000	0.021	-0.250
-423.544	-48.465	-0.236	-0.114
-422.530	-48.652	-0.194	0.094
-421.515	-200.000	0.000	-0.123
-420.500	-69.319	-0.190	0.073
-419.486	-200.000	-0.001	0.007
-418.471	-200.000	-0.027	0.163
-417.457	-200.000	0.010	-0.130
-416.442	-109.855	0.289	0.061
-415.428	-200.000	0.001	-0.080
-414.413	62.036	0.091	0.091
-413.398	-154.629	0.394	-0.026
-412.384	-5.377	0.228	0.157
-411.369	240.096	-0.184	0.307
-410.355	-200.000	0.026	0.364
-409.340	-86.662	0.068	-0.021
-408.325	283.615	0.244	-0.439
-407.311	39.525	0.146	0.131
-406.296	800.000	-0.077	0.295
-405.282	-174.271	-0.480	-0.014
-404.267	800.000	-0.117	0.381
-403.252	-200.000	0.010	0.063
-402.238	78.202	-0.131	-0.140
-401.223	800.000	-0.035	0.110
-400.209	-200.000	-0.042	0.439
-399.194	169.023	-0.351	0.501
-398.179	-101.114	0.123	-0.030
-397.165	22.349	-0.277	0.226
-396.150	90.995	0.271	0.304
-395.136	190.161	-0.055	-0.082
-394.121	421.261	0.178	0.382
-393.106	-123.898	-0.351	0.055
-392.092	-84.393	0.410	-0.130
-391.077	-149.375	0.279	0.022
-390.063	173.893	-0.161	-0.233
-389.048	516.275	-0.138	0.322
-388.033	15.877	0.071	0.056
-387.019	-101.273	0.085	0.021
-386.004	-59.254	-0.293	0.126
-384.990	-99.034	0.190	0.048
-383.975	92.416	-0.130	0.146
-382.960	46.121	0.302	-0.280
-381.946	767.601	-0.132	-0.359
-380.931	800.000	0.055	-0.197
-379.917	152.434	0.147	-0.201
-378.902	-200.000	-0.002	0.132
-377.888	800.000	-0.112	-0.363
-376.873	136.654	0.249	-0.325
-375.858	-130.216	0.124	-0.017
-374.844	-68.206	-0.306	0.119
-373.829	118.381	0.224	-0.277
-372.815	-184.009	-0.007	-0.000
-371.800	159.495	-0.097	0.134
-370.785	136.097	0.194	0.253
-369.771	92.207	-0.137	0.154
-368.756	216.148	-0.034	0.054
-367.742	467.885	0.053	0.119
-366.727	25.130	-0.483	-0.401
-365.712	-7.798	-0.074	-0.050
-364.698	-172.542	0.450	-0.014
-363.683	-200.000	-0.036	0.167
-362.669	104.885	-0.102	0.120
-361.654	-76.477	0.286	0.101
-360.639	-80.456	-0.408	-0.136
-359.625	-200.000	-0.000	0.027
-358.610	800.000	-0.080	0.242
-357.596	-6.359	0.062	0.042
-356.581	228.219	-0.109	0.177
-355.566	-200.000	-0.047	-0.364
-354.552	-200.000	0.106	-0.485
-353.537	-200.000	0.017	0.134
-352.523	-16.715	-0.181	-0.115
-351.508	-200.000	-0.000	0.054
-350.493	-89.051	0.059	-0.017
-349.479	-127.912	0.122	-0.018
-348.464	139.492	-0.106	0.140
-347.450	208.930	-0.187	0.292
-346.435	200.892	-0.168	-0.257
-345.420	-58.261	0.171	-0.074
-344.406	-200.000	-0.012	-0.660
-343.391	800.000	-0.046	0.156
-342.377	9.568	-0.153	-0.115
-341.362	-142.111	-0.198	-0.020
-340.348	13.794	0.129	0.100
-339.333	-77.623	-0.286	0.099
-338.318	-76.952	0.221	0.077
-337.304	-42.155	0.170	-0.087
-336.289	480.579	-0.099	0.224
-335.275	-91.179	-0.301	0.086
-334.260	507.244	0.032	-0.074
-333.245	800.000	-0.037	0.126
-332.231	-38.849	-0.104	0.055
-331.216	-200.000	-0.075	-0.334
-330.202	-200.000	0.014	0.407
-329.187	-168.700	-0.301	0.011
-328.172	-34.616	-0.231	-0.126
-327.158	110.569	-0.211	0.254
-326.143	-66.480	0.233	-0.092
-325.129	428.120	-0.064	-0.138
-324.114	-200.000	0.028	-0.124
-323.099	-86.863	-0.152	0.046
-322.085	146.133	0.056	-0.074
-321.070	-26.218	-0.139	-0.081
-320.056	86.641	-0.080	0.088
-319.041	-41.759	-0.412	-0.211
-318.026	230.300	0.143	0.234
-317.012	260.317	-0.119	-0.206
-315.997	242.791	0.153	-0.256
-314.983	-55.391	-0.047	0.021
-313.968	7.573	0.204	0.152
-312.953	-112.130	-0.197	-0.040
-311.939	26.674	0.048	0.040
-310.924	84.322	0.165	-0.180
-309.910	-200.000	-0.003	0.312
-308.895	149.548	-0.144	0.195
-307.880	359.293	-0.121	-0.240
-306.866	-39.706	0.315	-0.164
-305.851	12.845	0.106	-0.082
-304.837	312.630	0.103	-0.192
-303.822	-200.000	-0.015	0.256
-302.807	19.459	0.232	0.186
-301.793	800.000	-0.076	-0.273
-300.778	-200.000	0.021	0.219
-299.764	62.146	0.205	0.204
-298.749	-200.000	0.006	0.263
-297.735	326.813	-0.136	0.260
-296.720	-85.774	-0.436	0.135
-295.705	-85.515	0.527	-0.163
-294.691	800.000	-0.014	-0.045
-293.676	346.414	0.110	-0.216
-292.662	2.774	-0.056	-0.040
-291.647	129.962	-0.075	0.095
-290.632	-200.000	0.011	-0.060
-289.618	30.722	0.093	0.079
-288.603	39.534	-0.106	0.095
-287.589	47.355	0.152	-0.141
-286.574	-200.000	-0.013	-0.117
-285.559	-71.693	-0.150	-0.056
-284.545	-141.600	-0.177	-0.018
-283.530	-161.517	-0.083	-0.004
-282.516	696.444	-0.121	-0.316
-281.501	108.260	-0.124	-0.148
-280.486	-45.538	0.226	0.112
-279.472	-200.000	-0.031	-0.153
-278.457	166.995	0.112	-0.158
-277.443	-86.434	0.152	-0.046
-276.428	38.521	-0.235	-0.208
-275.413	118.043	-0.111	-0.136
-274.399	50.242	-0.058	-0.054
-273.384	-109.452	0.361	0.076
-272.370	206.707	-0.121	0.187
-271.355	-200.000	-0.031	0.165
-270.340	800.000	-0.111	-0.313
-269.326	-3.712	-0.075	0.052
-268.311	451.539	0.121	0.266
-267.297	-44.756	0.127	0.063
-266.282	-200.000	-0.055	-0.289
-265.267	800.000	0.098	-0.293
-264.253	-50.749	0.394	0.185
-263.238	-168.397	-0.394	0.015
-262.224	94.022	0.099	-0.111
-261.209	657.364	-0.010	0.025
-260.195	-200.000	-0.026	-0.133
-259.180	-65.586	0.209	0.084
-258.165	390.318	0.201	-0.415
-257.151	16.613	0.096	0.076
-256.136	800.000	0.030	-0.117
-255.122	-39.842	0.430	-0.223
-254.107	-116.970	0.331	0.060
-253.092	-25.673	0.387	0.227
-252.078	-200.000	-0.028	0.232
-251.063	-195.037	0.406	-0.003
-250.049	-38.399	-0.115	0.061
-249.034	-200.000	-0.012	0.236
-248.019	-95.848	0.464	-0.123
-247.005	-129.498	-0.239	0.033
-245.990	159.386	-0.069	-0.096
-244.976	157.604	0.266	0.367
-243.961	639.834	0.161	0.407
-242.946	140.506	-0.145	0.190
-241.932	-200.000	-0.024	-0.463
-240.917	797.715	-0.050	0.138
-239.903	40.231	0.146	-0.130
-238.888	-200.000	-0.064	0.313
-237.873	-65.034	0.371	0.149
-236.859	85.341	-0.079	-0.086
-235.844	740.362	0.089	0.238
-234.830	-11.316	-0.230	0.150
-233.815	14.825	-0.188	-0.147
-232.800	-200.000	0.019	0.224
-231.786	-39.073	0.162	-0.085
-230.771	-80.457	0.365	0.121
-229.757	-200.000	-0.006	-0.046
-228.742	182.262	0.161	-0.236
-227.727	-34.072	-0.131	-0.072
-226.713	-200.000	0.054	0.334
-225.698	-42.971	0.113	0.057
-224.684	164.940	0.174	0.245
-223.669	-29.380	0.052	-0.029
-222.655	-24.388	0.251	0.149
-221.640	-110.624	-0.071	-0.015
-220.625	800.000	-0.043	0.164
-219.611	-139.082	-0.387	-0.042
-218.596	-200.000	0.097	-0.504
-217.582	800.000	-0.031	-0.115
-216.567	444.042	-0.068	-0.148
-215.552	-14.747	-0.100	0.064
-214.538	800.000	0.044	0.169
-213.523	211.284	0.090	0.141
-212.509	451.901	0.061	-0.134
-211.494	-124.566	-0.155	0.024
-210.479	269.637	-0.074	-0.129
-209.465	13.530	0.209	0.161
-208.450	208.188	-0.149	0.231
-207.436	608.499	-0.035	-0.086
-206.421	-200.000	-0.038	0.298
-205.406	-200.000	0.057	-0.285
-204.392	43.457	-0.178	0.162
-203.377	133.878	-0.180	-0.232
-202.363	418.602	0.016	-0.035
-201.348	-148.112	0.131	0.011
-200.333	800.000	-0.079	0.229
-199.319	657.476	0.075	-0.191
-198.304	-97.916	-0.125	0.032
-197.290	800.000	0.081	-0.254
-196.275	-54.553	-0.073	-0.033
-195.260	800.000	-0.168	-0.489
-194.246	-200.000	0.015	-0.125
-193.231	497.506	0.089	0.204
-192.217	19.978	0.247	-0.198
-191.202	-151.020	-0.196	0.015
-190.187	800.000	0.045	0.195
-189.173	800.000	0.068	-0.195
-188.158	-200.000	0.034	-0.201
-187.144	291.614	-0.110	-0.198
-186.129	800.000	0.032	-0.112
-185.114	-128.358	-0.086	0.012
-184.100	447.672	0.124	-0.270
-183.085	-135.604	-0.102	0.012
-182.071	-90.938	0.276	0.079
-181.056	215.550	0.162	0.255
-180.042	-45.119	-0.296	-0.146
-179.027	467.111	-0.075	0.167
-178.012	-83.820	0.306	-0.097
-176.998	3.086	-0.209	-0.151
-175.983	-104.166	-0.224	-0.052
-174.969	75.594	-0.220	0.230
-173.954	95.410	-0.163	-0.185
-172.939	-87.111	0.397	-0.120
-171.925	-104.873	0.244	-0.056
-170.910	74.093	-0.327	0.341
-169.896	-200.000	0.033	-0.234
-168.881	-24.966	-0.062	-0.037
-167.866	139.435	0.035	-0.046
-166.852	20.975	-0.257	-0.207
-165.837	-133.101	-0.111	-0.014
-164.823	-79.564	-0.092	-0.031
-163.808	507.681	-0.203	-0.466
-162.793	193.626	-0.062	0.093
-161.779	-62.430	0.213	0.088
-160.764	128.151	-0.152	0.192
-159.750	-73.747	0.179	-0.065
-158.735	9.558	0.132	-0.099
-157.720	35.405	-0.094	0.082
-156.706	800.000	-0.029	-0.109
-155.691	-20.739	-0.125	0.076
-154.677	213.168	0.063	-0.099
-153.662	-162.707	-0.019	0.001
-152.647	-5.057	0.129	-0.088
-151.633	-200.000	0.064	0.384
-150.618	800.000	-0.037	-0.143
-149.604	-1.871	-0.036	0.025
-148.589	181.348	-0.237	0.346
-147.574	-141.726	0.331	-0.033
-146.560	-200.000	0.007	0.093
-145.545	252.805	-0.072	0.122
-144.531	74.168	0.347	0.361
-143.516	-77.868	-0.190	-0.065
-142.502	-63.323	0.280	-0.114
-141.487	-101.692	0.344	-0.083
-140.472	127.042	0.065	-0.081
-139.458	22.295	0.190	-0.153
-138.443	-47.942	-0.182	-0.087
-137.429	111.554	0.207	-0.247
-136.414	-117.756	0.351	-0.063
-135.399	-200.000	0.005	-0.063
-134.385	-200.000	0.079	-0.434
-133.370	177.678	0.161	-0.233
-132.356	417.055	-0.098	0.206
-131.341	-200.000	-0.020	-0.129
-130.326	-26.969	-0.128	-0.074
-129.312	800.000	-0.048	0.161
-128.297	-102.286	0.142	0.034
-127.283	-35.713	-0.159	-0.085
-126.268	123.794	0.022	-0.027
-125.253	2.972	-0.146	-0.105
-124.239	-200.000	0.018	0.117
-123.224	-114.904	-0.159	-0.030
-122.210	800.000	0.038	0.110
