DTS Sentinel unit serial number:	SN413079Multiplexer serial number:	ORYXHardware model number:	OX4-SRSoftware version number:	ORYX F/W v4.00 Oryx Data Collector v3.7.2.0data status	okinstallation	princeton_trtdifferential loss correction	single-endedforward channel	channel 3reverse channel	N/Adate	2019/09/15time	20:56:34forward acquisition time	60.00reverse acquisition time	0.00gamma	496.2192k internal	0.2327k external	0.2327temperature offset calibration	0.9939default loss term (dB/km)	0.3790temperature slope calibration	1.0000multiplexer offset coefficient	1.0000multiplexer slope coefficient	1.0000fibre end	0.00T internal ref (°C)	32.00T ext. ref 1 (°C)	8.03T ext. ref 2 (°C)	24.40length (m)	temperature (°C)	Stokes	anti-Stokes-747.200	183.438	-0.203	-0.302
-746.185	-123.651	-0.511	0.082
-745.171	99.578	-0.146	0.171
-744.156	-6.785	-0.273	0.187
-743.142	-89.223	-0.534	0.159
-742.127	127.508	0.138	-0.177
-741.112	15.675	0.078	0.062
-740.098	406.861	-0.054	-0.116
-739.083	65.206	0.274	-0.280
-738.069	-84.896	-0.029	0.009
-737.054	-132.575	-0.115	-0.015
-736.039	12.299	0.107	0.083
-735.025	-200.000	0.020	-0.236
-734.010	-142.806	-0.234	-0.023
-732.996	-96.858	-0.292	0.077
-731.981	156.677	-0.143	-0.199
-730.966	-112.657	-0.074	0.015
-729.952	-101.007	-0.091	-0.023
-728.937	426.748	-0.154	-0.335
-727.923	-104.066	-0.253	0.059
-726.908	-200.000	-0.026	0.155
-725.894	271.818	0.018	-0.031
-724.879	-200.000	-0.020	-0.207
-723.864	-70.205	0.255	0.097
-722.850	-161.435	0.079	-0.004
-721.835	-34.179	0.094	-0.052
-720.821	-162.025	-0.156	0.008
-719.806	-200.000	0.020	0.141
-718.791	366.430	-0.304	-0.618
-717.777	-161.237	0.490	0.026
-716.762	-114.888	-0.370	-0.071
-715.748	-81.230	0.454	0.151
-714.733	363.674	0.067	0.136
-713.718	-200.000	0.004	-0.039
-712.704	-174.342	-0.370	-0.011
-711.689	14.972	0.277	0.218
-710.675	-13.131	-0.433	0.283
-709.660	430.182	-0.119	-0.259
-708.645	-154.979	0.149	-0.010
-707.631	0.743	0.091	-0.066
-706.616	376.151	0.069	-0.141
-705.602	-161.746	-0.205	-0.011
-704.587	-34.717	0.151	-0.083
-703.572	-95.369	0.401	-0.108
-702.558	367.868	-0.025	0.052
-701.543	-121.974	0.074	-0.012
-700.529	-200.000	0.026	-0.269
-699.514	1.218	0.134	0.097
-698.499	42.047	-0.205	-0.187
-697.485	-200.000	0.006	-0.198
-696.470	-74.523	0.139	-0.051
-695.456	-3.042	0.096	-0.068
-694.441	-157.671	-0.160	-0.010
-693.426	96.264	0.195	0.225
-692.412	-67.235	0.133	-0.053
-691.397	-200.000	-0.047	-0.230
-690.383	-150.625	-0.063	-0.005
-689.368	104.365	0.099	-0.117
-688.354	741.073	-0.045	-0.123
-687.339	308.461	-0.126	0.237
-686.324	-109.979	-0.100	-0.021
-685.310	69.044	-0.216	0.223
-684.295	-200.000	0.027	-0.158
-683.281	171.424	0.160	-0.231
-682.266	-200.000	-0.119	0.001
-681.251	-121.019	0.110	0.019
-680.237	148.244	-0.016	0.022
-679.222	186.844	-0.107	0.161
-678.208	-47.735	0.247	0.120
-677.193	-106.377	-0.204	0.046
-676.178	108.225	-0.163	0.196
-675.164	-13.372	0.140	0.091
-674.149	-61.280	-0.322	-0.136
-673.135	-31.218	0.118	-0.067
-672.120	-200.000	0.028	-0.127
-671.105	87.279	-0.286	-0.319
-670.091	-200.000	0.037	-0.168
-669.076	59.577	0.281	-0.279
-668.062	143.486	-0.150	-0.201
-667.047	-200.000	-0.016	-0.177
-666.032	54.246	0.067	-0.065
-665.018	158.983	0.064	0.089
-664.003	-200.000	-0.009	-0.356
-662.989	183.919	-0.054	-0.080
-661.974	118.701	0.054	-0.067
-660.959	-122.895	0.107	0.017
-659.945	213.032	-0.202	0.320
-658.930	150.289	0.043	-0.059
-657.916	77.559	-0.161	-0.172
-656.901	212.322	0.210	-0.332
-655.886	-200.000	-0.010	-0.457
-654.872	22.423	-0.154	-0.127
-653.857	110.231	-0.156	-0.188
-652.843	90.648	0.241	0.271
-651.828	485.101	-0.103	0.235
-650.814	-132.042	0.352	0.046
-649.799	-87.538	0.058	0.018
-648.784	98.080	0.093	-0.107
-647.770	-21.173	-0.063	-0.039
-646.755	-200.000	0.000	-0.211
-645.741	-200.000	-0.014	0.251
-644.726	-200.000	-0.026	0.362
-643.711	-108.965	0.146	0.031
-642.697	7.302	0.322	0.241
-641.682	-200.000	-0.015	-0.226
-640.668	224.194	-0.057	0.092
-639.653	-43.505	-0.119	-0.060
-638.638	19.001	-0.344	-0.277
-637.624	-125.531	-0.264	0.040
-636.609	-200.000	0.005	0.073
-635.595	-45.922	0.033	-0.017
-634.580	-16.828	0.334	-0.212
-633.565	567.800	-0.008	-0.021
-632.551	170.330	-0.176	0.253
-631.536	29.122	0.097	-0.082
-630.522	-136.134	0.422	-0.050
-629.507	-200.000	-0.019	-0.165
-628.492	-148.556	-0.402	0.033
-627.478	-109.820	-0.233	0.049
-626.463	-27.340	0.295	-0.172
-625.449	648.328	-0.060	-0.154
-624.434	443.530	0.044	0.097
-623.419	105.195	0.200	0.237
-622.405	-89.754	0.114	0.034
-621.390	-200.000	0.054	0.255
-620.376	138.953	-0.051	0.068
-619.361	-127.600	0.284	-0.041
-618.346	236.542	0.140	0.233
-617.332	55.228	0.058	-0.056
-616.317	15.984	0.298	0.235
-615.303	-200.000	-0.021	-0.120
-614.288	792.144	-0.082	0.226
-613.273	-99.230	-0.300	0.076
-612.259	-200.000	0.004	-0.051
-611.244	-171.974	-0.161	0.005
-610.230	-70.753	0.110	0.042
-609.215	670.688	-0.089	0.230
-608.201	-200.000	0.069	-0.307
-607.186	800.000	0.110	-0.332
-606.171	-200.000	0.026	-0.130
-605.157	241.648	0.136	0.228
-604.142	173.768	-0.119	-0.173
-603.128	657.299	-0.099	-0.256
-602.113	-147.528	0.174	-0.015
-601.098	26.680	0.281	-0.236
-600.084	240.695	0.091	0.153
-599.069	-110.512	0.116	-0.024
-598.055	-10.442	-0.228	0.152
-597.040	-30.677	-0.087	0.049
-596.025	97.892	0.109	0.126
-595.011	-98.522	0.280	-0.072
-593.996	101.228	0.128	-0.149
-592.982	-22.849	0.180	0.109
-591.967	800.000	0.070	-0.254
-590.952	-62.286	0.100	0.042
-589.938	-200.000	0.042	-0.420
-588.923	-119.031	0.118	-0.021
-587.909	483.207	0.005	-0.012
-586.894	-0.255	0.342	-0.244
-585.879	361.433	0.077	0.154
-584.865	800.000	0.054	0.159
-583.850	-200.000	0.087	-0.392
-582.836	-79.175	-0.206	-0.070
-581.821	-200.000	0.324	-0.001
-580.806	53.857	-0.215	0.207
-579.792	276.642	-0.100	-0.178
-578.777	30.532	0.045	-0.039
-577.763	634.198	-0.101	0.258
-576.748	192.623	0.187	-0.283
-575.733	-144.000	-0.126	-0.012
-574.719	-79.387	0.145	-0.049
-573.704	-177.667	-0.250	-0.006
-572.690	-52.802	0.267	-0.123
-571.675	-200.000	-0.191	0.000
-570.661	-80.761	-0.184	-0.061
-569.646	659.759	-0.066	-0.170
-568.631	-120.473	0.111	0.019
-567.617	348.521	0.151	-0.299
-566.602	-62.345	-0.262	-0.109
-565.588	159.981	-0.188	0.263
-564.573	800.000	-0.041	0.115
-563.558	158.712	-0.132	-0.183
-562.544	-20.922	0.373	-0.229
-561.529	322.869	-0.202	0.386
-560.515	305.584	0.232	0.433
-559.500	800.000	-0.133	-0.376
-558.485	-149.185	-0.134	-0.011
-557.471	47.796	-0.045	0.042
-556.456	265.548	0.101	0.176
-555.442	-48.438	0.231	0.111
-554.427	425.418	-0.094	-0.204
-553.412	371.936	0.114	0.231
-552.398	398.490	0.097	0.204
-551.383	-101.547	0.128	0.031
-550.369	185.234	-0.057	-0.085
-549.354	332.331	-0.047	-0.091
-548.339	-26.621	0.322	0.189
-547.325	211.637	-0.058	-0.091
-546.310	-92.482	-0.220	-0.062
-545.296	252.012	0.157	0.268
-544.281	327.178	0.124	-0.239
-543.266	309.383	-0.116	0.217
-542.252	-105.667	-0.248	0.056
-541.237	800.000	-0.113	-0.327
-540.223	5.852	-0.128	0.094
-539.208	353.272	-0.084	-0.166
-538.193	538.988	-0.070	-0.168
-537.179	-200.000	0.072	-0.367
-536.164	-47.836	-0.262	0.127
-535.150	800.000	0.073	0.284
-534.135	-104.887	-0.068	-0.016
-533.121	-200.000	0.027	-0.256
-532.106	646.729	-0.104	0.266
-531.091	-151.016	0.207	-0.016
-530.077	-63.802	-0.195	-0.080
-529.062	-46.973	-0.107	-0.052
-528.048	-200.000	-0.005	0.240
-527.033	102.689	0.249	0.292
-526.018	257.129	0.154	-0.264
-525.004	279.803	0.115	-0.206
-523.989	13.942	0.127	0.099
-522.975	-194.508	-0.075	0.001
-521.960	-200.000	0.002	-0.133
-520.945	-133.533	0.188	0.024
-519.931	-21.439	0.115	-0.070
-518.916	800.000	0.076	0.217
-517.902	800.000	0.055	-0.227
-516.887	126.526	-0.086	0.108
-515.872	54.752	-0.051	-0.049
-514.858	28.890	-0.285	0.241
-513.843	-62.383	-0.133	0.055
-512.829	800.000	0.080	-0.319
-511.814	224.264	-0.089	-0.143
-510.799	84.291	-0.044	-0.048
-509.785	150.914	0.145	-0.197
-508.770	-100.517	-0.164	-0.041
-507.756	43.709	-0.233	0.213
-506.741	-127.339	0.244	0.036
-505.726	454.352	0.152	-0.336
-504.712	-200.000	0.024	0.126
-503.697	49.595	-0.153	0.144
-502.683	-132.015	0.229	-0.030
-501.668	-200.000	0.055	0.282
-500.653	-103.135	0.402	-0.095
-499.639	-200.000	-0.010	0.304
-498.624	147.106	-0.338	0.454
-497.610	235.993	0.151	0.249
-496.595	-200.000	0.006	-0.106
-495.581	800.000	0.059	0.178
-494.566	-4.077	-0.087	0.060
-493.551	-167.670	-0.324	-0.013
-492.537	-27.000	0.152	-0.089
-491.522	617.631	-0.178	0.446
-490.508	171.771	0.065	-0.093
-489.493	371.522	0.115	0.233
-488.478	94.122	0.072	0.082
-487.464	800.000	0.074	-0.223
-486.449	15.983	-0.066	0.052
-485.435	122.977	-0.043	0.053
-484.420	84.654	-0.203	-0.222
-483.405	-116.414	0.080	0.015
-482.391	25.067	-0.101	-0.083
-481.376	-200.000	0.044	-0.276
-480.362	800.000	-0.040	0.128
-479.347	-9.120	0.123	-0.082
-478.332	784.015	0.158	0.432
-477.318	-62.471	-0.224	0.093
-476.303	-49.919	0.255	-0.121
-475.289	-87.756	-0.269	-0.081
-474.274	-200.000	-0.016	-0.214
-473.259	161.268	-0.163	-0.228
-472.245	-42.877	0.152	-0.077
-471.230	-200.000	-0.017	-0.169
-470.216	123.784	-0.195	0.244
-469.201	204.737	-0.242	0.374
-468.186	-183.872	-0.185	0.003
-467.172	-91.414	0.376	0.107
-466.157	79.907	-0.186	-0.200
-465.143	-47.773	-0.137	-0.066
-464.128	404.952	0.085	0.179
-463.113	725.536	0.048	-0.127
-462.099	237.420	0.052	-0.087
-461.084	99.379	-0.119	-0.137
-460.070	495.950	0.056	-0.128
-459.055	148.385	0.160	-0.215
-458.040	-157.606	-0.406	-0.024
-457.026	-97.467	0.207	0.054
-456.011	119.212	-0.087	-0.107
-454.997	43.459	0.137	0.124
-453.982	-78.744	-0.109	-0.037
-452.968	178.730	0.220	-0.320
-451.953	728.154	0.198	0.526
-450.938	403.576	0.124	0.261
-449.924	188.721	0.076	0.113
-448.909	-200.000	0.011	0.073
-447.895	-163.259	-0.239	-0.011
-446.880	46.511	0.116	0.107
-445.865	293.916	-0.084	0.152
-444.851	-18.235	-0.121	-0.075
-443.836	399.883	0.071	-0.148
-442.822	-98.281	-0.091	0.023
-441.807	-69.866	-0.192	-0.073
-440.792	-200.000	-0.003	-0.177
-439.778	11.383	0.155	-0.118
-438.763	62.549	-0.144	-0.143
-437.749	-17.817	0.097	0.061
-436.734	-200.000	-0.006	-0.075
-435.719	-161.563	0.281	0.014
-434.705	-200.000	0.005	-0.247
-433.690	-116.804	-0.355	-0.065
-432.676	585.231	0.219	-0.537
-431.661	287.852	-0.099	-0.179
-430.646	-114.107	0.053	0.010
-429.632	-77.663	-0.179	0.062
-428.617	-200.000	0.042	0.337
-427.603	-37.156	-0.228	-0.121
-426.588	800.000	0.088	-0.326
-425.573	-200.000	0.043	-0.208
-424.559	74.749	-0.191	-0.200
-423.544	33.045	0.260	0.224
-422.530	-170.295	-0.307	-0.011
-421.515	-99.023	0.226	-0.057
-420.500	595.975	-0.145	-0.358
-419.486	618.335	-0.043	-0.106
-418.471	-167.634	0.260	0.010
-417.457	800.000	-0.027	-0.099
-416.442	-68.669	-0.315	0.121
-415.428	-60.646	-0.333	0.141
-414.413	-200.000	0.032	-0.163
-413.398	-102.532	0.050	0.012
-412.384	170.474	-0.195	0.278
-411.369	-148.226	0.267	0.022
-410.355	-130.730	-0.616	-0.082
-409.340	149.502	0.269	0.362
-408.325	89.763	0.083	-0.093
-407.311	-13.048	0.092	-0.060
-406.296	-20.041	0.278	0.171
-405.282	-62.487	0.078	0.032
-404.267	96.887	-0.189	-0.215
-403.252	105.502	-0.280	-0.330
-402.238	-200.000	0.056	0.252
-401.223	-73.500	0.237	-0.086
-400.209	28.454	-0.116	0.098
-399.194	254.526	-0.169	0.288
-398.179	-200.000	0.009	-0.194
-397.165	57.473	-0.056	0.055
-396.150	41.727	0.518	-0.467
-395.136	11.148	-0.318	-0.242
-394.121	476.081	-0.142	0.319
-393.106	104.467	0.081	-0.095
-392.092	-161.044	-0.215	0.011
-391.077	800.000	0.054	-0.179
-390.063	-55.322	0.494	0.221
-389.048	-200.000	0.004	-0.263
-388.033	25.912	0.314	-0.260
-387.019	-106.980	-0.227	-0.050
-386.004	38.277	-0.231	-0.204
-384.990	90.827	0.173	-0.193
-383.975	-170.726	0.110	0.004
-382.960	-100.010	-0.178	0.044
-381.946	-82.600	-0.267	-0.086
-380.931	-200.000	-0.010	0.118
-379.917	39.670	-0.166	-0.148
-378.902	-200.000	-0.008	0.065
-377.888	248.723	0.138	0.233
-376.873	673.477	-0.090	0.232
-375.858	-200.000	0.004	-0.073
-374.844	-78.190	0.248	-0.085
-373.829	800.000	0.050	-0.161
-372.815	-49.763	-0.154	0.073
-371.800	-1.882	-0.194	0.135
-370.785	800.000	0.100	0.325
-369.771	85.022	-0.141	-0.153
-368.756	148.614	-0.190	-0.255
-367.742	270.807	0.106	0.185
-366.727	-200.000	0.048	-0.223
-365.712	-200.000	-0.042	0.293
-364.698	-200.000	0.005	0.105
-363.683	127.269	-0.169	-0.213
-362.669	630.439	-0.068	0.170
-361.654	15.332	-0.046	0.036
-360.639	-9.336	-0.148	0.098
-359.625	-34.587	-0.183	0.100
-358.610	-200.000	-0.058	0.266
-357.596	-200.000	-0.029	0.161
-356.581	-200.000	0.004	0.168
-355.566	-19.237	-0.268	-0.165
-354.552	122.679	0.119	-0.147
-353.537	36.348	0.209	0.183
-352.523	800.000	-0.063	0.266
-351.508	-200.000	0.020	-0.135
-350.493	216.869	-0.085	0.134
-349.479	800.000	-0.037	-0.150
-348.464	55.063	-0.130	-0.125
-347.450	-200.000	-0.041	-0.461
-346.435	-161.369	0.335	0.017
-345.420	0.356	-0.374	0.265
-344.406	5.789	0.190	0.139
-343.391	28.547	0.225	0.189
-342.377	-58.699	0.297	-0.128
-341.362	46.279	0.049	-0.045
-340.348	-51.191	-0.239	-0.111
-339.333	-35.713	0.315	-0.169
-338.318	-119.372	0.162	-0.028
-337.304	-200.000	0.043	0.348
-336.289	800.000	0.079	0.271
-335.275	800.000	-0.044	-0.172
-334.260	779.171	-0.122	0.331
-333.245	-11.276	0.261	0.171
-332.231	800.000	-0.024	0.092
-331.216	208.447	0.165	-0.256
-330.202	-81.432	-0.414	0.135
-329.187	-0.821	0.160	-0.113
-328.172	195.980	-0.125	0.188
-327.158	95.253	0.155	-0.176
-326.143	-200.000	-0.003	0.349
-325.129	800.000	-0.034	0.139
-324.114	71.587	0.087	-0.090
-323.099	-98.463	0.149	-0.038
-322.085	65.504	0.105	0.106
-321.070	163.000	-0.097	-0.134
-320.056	196.666	0.042	0.063
-319.041	-36.808	0.201	0.107
-318.026	-85.947	-0.383	-0.117
-317.012	346.739	-0.074	0.144
-315.997	-67.245	0.074	-0.029
-314.983	197.999	0.151	0.229
-313.968	302.571	-0.073	-0.134
-312.953	155.126	0.112	0.153
-311.939	278.991	-0.021	0.038
-310.924	130.056	0.168	-0.214
-309.910	-155.182	0.092	0.006
-308.895	-200.000	0.016	0.160
-307.880	-200.000	0.049	-0.319
-306.866	20.585	0.132	0.106
-305.851	655.527	0.069	0.175
-304.837	6.615	-0.050	0.037
-303.822	239.014	-0.071	-0.118
-302.807	78.774	0.161	0.171
-301.793	200.822	-0.100	-0.153
-300.778	-33.790	-0.129	-0.070
-299.764	748.504	0.054	0.145
-298.749	108.374	-0.241	-0.285
-297.735	40.389	-0.071	0.063
-296.720	-139.481	-0.307	0.033
-295.705	-200.000	0.000	0.052
-294.691	-11.586	0.178	0.116
-293.676	-46.279	0.365	-0.178
-292.662	-169.075	0.155	0.006
-291.647	-8.440	0.028	0.018
-290.632	800.000	0.091	0.258
-289.618	201.565	-0.116	-0.177
-288.603	38.111	-0.173	0.152
-287.589	35.813	0.084	-0.073
-286.574	-96.807	-0.175	-0.046
-285.559	118.238	-0.077	0.094
-284.545	25.565	-0.045	-0.037
-283.530	-128.487	-0.422	-0.059
-282.516	-16.308	-0.160	0.100
-281.501	502.127	0.089	-0.205
-280.486	381.358	0.055	0.111
-279.472	-200.000	0.071	0.320
-278.457	530.168	-0.051	-0.119
-277.443	800.000	0.094	-0.316
-276.428	164.301	0.217	0.303
-275.413	232.438	0.059	-0.096
-274.399	17.277	-0.152	-0.119
-273.384	6.509	0.104	0.077
-272.370	74.738	-0.166	0.173
-271.355	417.740	-0.135	-0.285
-270.340	-9.083	0.384	-0.254
-269.326	713.615	-0.118	0.311
-268.311	-200.000	-0.044	0.251
-267.297	-200.000	-0.036	-0.450
-266.282	-200.000	-0.076	-0.374
-265.267	-200.000	-0.041	-0.533
-264.253	365.232	0.101	-0.200
-263.238	-30.397	0.159	-0.089
-262.224	-200.000	-0.010	0.075
-261.209	-46.335	-0.312	-0.152
-260.195	-200.000	0.026	-0.291
-259.180	-200.000	-0.048	-0.227
-258.165	-87.712	-0.431	-0.129
-257.151	-200.000	0.018	-0.144
-256.136	-101.487	0.088	-0.021
-255.122	54.134	-0.100	0.096
-254.107	252.012	-0.086	-0.145
-253.092	-27.239	-0.116	-0.067
-252.078	-25.106	0.125	0.073
-251.063	-161.199	0.343	-0.018
-250.049	-29.873	0.227	0.128
-249.034	-59.345	-0.228	-0.097
-248.019	-143.771	-0.158	0.015
-247.005	-149.811	0.067	-0.005
-245.990	66.067	-0.159	0.160
-244.976	800.000	0.052	0.169
-243.961	197.284	0.180	0.272
-242.946	800.000	0.030	0.127
-241.932	121.834	0.267	-0.329
-240.917	-200.000	-0.009	-0.094
-239.903	-55.994	0.130	-0.057
-238.888	400.927	0.090	-0.188
-237.873	-14.670	0.116	0.074
-236.859	800.000	-0.069	0.238
-235.844	166.799	-0.081	0.113
-234.830	800.000	0.049	-0.209
-233.815	-200.000	0.033	-0.201
-232.800	-137.227	0.384	-0.043
-231.786	-39.834	-0.125	-0.064
-230.771	175.281	0.237	0.340
-229.757	-200.000	-0.048	0.326
-228.742	446.272	0.115	0.250
-227.727	-116.373	0.345	-0.063
-226.713	16.090	-0.231	0.180
-225.698	-145.089	-0.154	0.014
-224.684	122.703	0.227	0.280
-223.669	-99.693	-0.799	0.198
-222.655	-87.019	0.228	-0.069
-221.640	-200.000	-0.071	-0.404
-220.625	-200.000	-0.002	0.063
-219.611	339.327	0.095	-0.182
-218.596	-74.787	-0.148	-0.053
-217.582	644.682	-0.064	0.162
-216.567	363.850	0.120	-0.239
-215.552	68.190	0.306	-0.309
-214.538	-117.839	-0.096	0.017
-213.523	-200.000	-0.046	0.295
-212.509	328.196	-0.042	0.080
-211.494	438.238	-0.104	-0.224
-210.479	-82.199	0.241	0.077
-209.465	-48.747	-0.188	0.089
-208.450	24.784	-0.254	-0.208
-207.436	800.000	0.062	-0.252
-206.421	-36.552	0.216	-0.115
-205.406	569.163	-0.142	0.341
-204.392	-132.179	0.152	0.019
-203.377	-200.000	0.022	-0.198
-202.363	177.079	0.104	0.149
-201.348	104.868	-0.188	0.219
-200.333	-200.000	-0.032	-0.208
-199.319	-91.552	-0.348	0.098
-198.304	384.643	-0.081	-0.164
-197.290	-109.348	0.350	0.073
-196.275	800.000	0.024	-0.095
-195.260	-200.000	-0.011	0.052
-194.246	800.000	0.028	0.104
-193.231	-161.194	-0.085	0.004
-192.217	-200.000	0.009	0.113
-191.202	-18.503	-0.269	0.166
-190.187	190.845	0.140	-0.208
-189.173	5.426	0.199	0.145
-188.158	-60.245	-0.234	-0.098
-187.144	653.206	0.072	0.181
-186.129	800.000	-0.006	-0.024
-185.114	-175.913	0.252	-0.007
-184.100	-96.523	-0.251	0.065
-183.085	800.000	0.079	-0.248
-182.071	66.876	-0.076	0.077
-181.056	-72.293	-0.098	0.036
-180.042	39.115	-0.075	0.066
-179.027	800.000	0.121	0.440
-178.012	800.000	-0.072	0.210
-176.998	14.182	0.132	0.101
-175.983	286.206	0.177	0.314
-174.969	-78.610	-0.294	0.099
-173.954	136.504	-0.065	-0.083
-172.939	29.313	-0.089	-0.074
-171.925	705.473	0.095	0.248
-170.910	103.126	-0.137	0.158
-169.896	-7.145	-0.217	0.145
-168.881	52.846	-0.086	-0.081
-167.866	-103.166	-0.347	-0.081
-166.852	-200.000	0.039	0.195
-165.837	119.276	-0.022	0.027
-164.823	448.233	0.089	0.194
-163.808	-55.528	-0.284	0.126
-162.793	-200.000	-0.036	0.260
-161.779	-200.000	-0.014	0.273
-160.764	-173.136	0.331	-0.010
-159.750	102.028	-0.190	-0.219
-158.735	78.867	-0.241	-0.254
-157.720	-79.453	0.373	0.124
-156.706	314.779	-0.152	0.282
-155.691	-59.116	-0.066	0.028
-154.677	-74.664	-0.004	0.001
-153.662	-200.000	0.062	-0.349
-152.647	-133.444	0.207	-0.026
-151.633	-110.583	-0.205	0.042
-150.618	-200.000	0.025	0.205
-149.604	-10.936	-0.228	-0.148
-148.589	-43.642	-0.152	-0.076
-147.574	-140.024	0.299	0.031
-146.560	93.602	0.072	-0.081
-145.545	228.205	0.061	0.098
-144.531	227.551	0.076	0.122
-143.516	-200.000	0.029	0.364
-142.502	117.288	-0.252	0.306
-141.487	800.000	-0.086	0.261
-140.472	-25.934	0.133	-0.077
-139.458	-158.545	-0.399	0.023
-138.443	-200.000	-0.000	0.057
-137.429	-57.042	-0.176	0.076
-136.414	41.079	-0.189	-0.168
-135.399	263.020	0.165	-0.282
-134.385	-102.880	-0.233	-0.055
-133.370	-13.940	-0.130	-0.083
-132.356	-10.751	0.401	-0.261
-131.341	121.996	0.030	0.036
-130.326	138.406	-0.150	-0.194
-129.312	800.000	0.064	0.216
-128.297	-200.000	0.009	-0.266
-127.283	800.000	0.036	-0.132
-126.268	-83.470	-0.227	-0.071
-125.253	-200.000	0.040	-0.187
-124.239	99.271	0.084	-0.096
-123.224	-43.593	-0.122	-0.060
-122.210	-200.000	0.420	-0.001
