DTS Sentinel unit serial number:	SN413079Multiplexer serial number:	ORYXHardware model number:	OX4-SRSoftware version number:	ORYX F/W v4.00 Oryx Data Collector v3.7.2.0data status	okinstallation	princeton_trtdifferential loss correction	single-endedforward channel	channel 3reverse channel	N/Adate	2019/09/13time	17:04:35forward acquisition time	60.00reverse acquisition time	0.00gamma	496.2192k internal	0.2298k external	0.2298temperature offset calibration	1.0130default loss term (dB/km)	0.3790temperature slope calibration	1.0000multiplexer offset coefficient	1.0000multiplexer slope coefficient	1.0000fibre end	0.00T internal ref (°C)	35.06T ext. ref 1 (°C)	4.82T ext. ref 2 (°C)	34.26length (m)	temperature (°C)	Stokes	anti-Stokes-747.200	800.000	0.061	-0.269
-746.185	-83.408	-0.169	-0.055
-745.171	800.000	0.020	-0.058
-744.156	259.946	-0.144	0.253
-743.142	627.024	-0.134	-0.345
-742.127	117.509	0.163	0.204
-741.112	-147.764	-0.250	-0.021
-740.098	22.359	-0.178	-0.148
-739.083	-79.862	-0.054	0.019
-738.069	-91.267	-0.148	0.043
-737.054	429.159	-0.064	0.141
-736.039	-157.039	-0.207	-0.013
-735.025	800.000	-0.020	-0.061
-734.010	139.292	-0.210	-0.283
-732.996	-160.100	-0.152	0.008
-731.981	-200.000	0.046	-0.436
-730.966	74.159	0.100	0.107
-729.952	-110.173	0.029	-0.006
-728.937	785.942	-0.097	0.271
-727.923	-29.493	-0.224	0.131
-726.908	-134.184	-0.168	-0.021
-725.894	60.679	-0.256	0.258
-724.879	-103.161	-0.325	-0.078
-723.864	167.105	0.093	-0.134
-722.850	-150.730	-0.258	-0.020
-721.835	-78.628	-0.191	-0.067
-720.821	-155.979	0.112	0.007
-719.806	-142.302	-0.263	0.027
-718.791	-16.144	0.103	-0.067
-717.777	93.807	-0.168	0.195
-716.762	-200.000	-0.024	0.246
-715.748	-169.248	0.051	0.002
-714.733	-63.216	-0.169	-0.071
-713.718	-103.974	0.226	-0.054
-712.704	-23.835	-0.323	-0.197
-711.689	136.788	0.109	0.145
-710.675	90.670	-0.240	0.274
-709.660	800.000	0.049	-0.152
-708.645	-200.000	-0.013	-0.276
-707.631	-200.000	-0.008	-0.193
-706.616	18.194	0.210	0.171
-705.602	17.815	-0.264	0.215
-704.587	51.007	0.088	0.085
-703.572	-133.302	-0.247	-0.032
-702.558	-200.000	0.010	-0.241
-701.543	-105.730	-0.107	0.025
-700.529	-200.000	-0.003	-0.066
-699.514	127.240	0.066	0.086
-698.499	-31.550	0.188	-0.108
-697.485	21.179	-0.181	0.150
-696.470	-118.483	-0.069	0.012
-695.456	-165.844	0.149	-0.007
-694.441	-96.424	0.237	0.064
-693.426	55.426	0.122	-0.121
-692.412	-74.918	-0.430	-0.157
-691.397	-157.701	0.098	-0.006
-690.383	89.116	0.323	0.367
-689.368	-52.967	-0.065	0.030
-688.354	18.458	0.035	-0.028
-687.339	407.949	0.051	0.109
-686.324	-200.000	0.003	-0.071
-685.310	84.734	0.115	-0.128
-684.295	79.496	0.253	-0.277
-683.281	44.558	-0.139	-0.130
-682.266	220.366	-0.044	0.071
-681.251	-128.179	0.378	0.055
-680.237	800.000	-0.025	0.095
-679.222	-79.372	-0.156	0.054
-678.208	-108.974	0.139	0.030
-677.193	-22.402	-0.113	-0.069
-676.178	128.848	0.095	-0.123
-675.164	-191.340	0.431	-0.004
-674.149	181.519	-0.174	-0.261
-673.135	190.788	-0.169	-0.259
-672.120	-131.997	-0.113	0.015
-671.105	316.156	-0.159	0.306
-670.091	-200.000	0.012	-0.333
-669.076	466.439	-0.081	-0.186
-668.062	219.962	0.154	-0.251
-667.047	800.000	0.089	-0.362
-666.032	-49.839	0.275	0.133
-665.018	-200.000	-0.005	0.038
-664.003	43.973	0.270	0.252
-662.989	-54.517	0.085	0.039
-661.974	166.517	0.121	-0.175
-660.959	238.904	-0.094	-0.159
-659.945	-20.221	0.039	-0.025
-658.930	-118.916	-0.198	-0.035
-657.916	-111.254	-0.222	0.046
-656.901	98.008	0.093	-0.109
-655.886	-200.000	-0.008	0.056
-654.872	-60.618	-0.225	0.097
-653.857	415.826	-0.076	-0.164
-652.843	-180.762	-0.215	-0.004
-651.828	198.017	0.170	0.264
-650.814	-200.000	-0.047	0.223
-649.799	-43.926	-0.241	-0.123
-648.784	-175.962	0.258	0.007
-647.770	-109.346	-0.176	0.038
-646.755	190.597	0.115	-0.176
-645.741	-200.000	0.001	-0.055
-644.726	800.000	-0.070	0.265
-643.711	136.559	-0.125	0.166
-642.697	-77.215	0.120	0.042
-641.682	585.321	0.065	-0.163
-640.668	791.759	0.133	-0.373
-639.653	697.075	0.109	-0.290
-638.638	-200.000	0.046	0.392
-637.624	-200.000	-0.018	0.124
-636.609	-200.000	0.024	-0.169
-635.595	-200.000	-0.007	0.033
-634.580	81.055	0.107	-0.118
-633.565	38.167	0.042	-0.038
-632.551	15.992	0.099	0.080
-631.536	800.000	0.109	-0.470
-630.522	86.314	0.183	-0.204
-629.507	-0.839	0.452	0.325
-628.492	116.324	-0.136	0.170
-627.478	-75.247	0.155	-0.056
-626.463	91.163	0.220	0.251
-625.449	-57.535	0.306	0.136
-624.434	-37.072	-0.160	-0.087
-623.419	-200.000	-0.004	0.199
-622.405	12.443	0.146	-0.114
-621.390	306.022	0.063	-0.119
-620.376	-200.000	-0.012	-0.116
-619.361	-71.113	0.115	-0.044
-618.346	74.775	-0.115	0.123
-617.332	-76.953	0.303	0.108
-616.317	-200.000	-0.027	0.230
-615.303	-167.257	-0.217	-0.009
-614.288	288.123	0.133	-0.245
-613.273	-200.000	0.058	-0.337
-612.259	800.000	0.085	-0.265
-611.244	800.000	-0.036	-0.136
-610.230	-10.570	-0.091	0.061
-609.215	-122.982	-0.476	0.078
-608.201	120.975	-0.119	-0.151
-607.186	-108.257	0.264	0.058
-606.171	99.281	-0.211	-0.247
-605.157	43.265	-0.227	-0.211
-604.142	279.250	0.161	-0.291
-603.128	135.210	0.074	-0.098
-602.113	515.660	0.132	0.312
-601.098	-65.797	0.135	0.055
-600.084	-51.280	-0.195	0.093
-599.069	-37.121	0.231	0.125
-598.055	1.809	-0.186	-0.136
-597.040	-200.000	-0.032	-0.183
-596.025	800.000	0.112	-0.386
-595.011	195.775	-0.086	-0.133
-593.996	23.838	0.138	0.116
-592.982	7.050	-0.335	0.254
-591.967	-200.000	-0.026	0.167
-590.952	-25.876	0.266	0.159
-589.938	-10.938	-0.132	-0.089
-588.923	482.715	-0.079	0.182
-587.909	-132.356	-0.224	-0.029
-586.894	438.851	0.055	-0.123
-585.879	70.081	0.083	-0.087
-584.865	-150.171	-0.664	-0.052
-583.850	200.578	-0.099	0.155
-582.836	-200.000	0.020	-0.280
-581.821	381.793	0.257	0.536
-580.806	186.745	-0.085	-0.128
-579.792	654.024	-0.136	-0.354
-578.777	-200.000	0.032	0.176
-577.763	355.287	-0.081	0.163
-576.748	-120.902	0.138	-0.024
-575.733	-8.301	0.163	-0.111
-574.719	710.463	-0.079	0.213
-573.704	-79.634	-0.516	0.177
-572.690	487.407	-0.144	-0.334
-571.675	-200.000	0.025	0.113
-570.661	33.722	-0.158	0.139
-569.646	29.020	0.271	0.233
-568.631	28.711	0.171	0.147
-567.617	-200.000	-0.052	-0.238
-566.602	-200.000	-0.014	0.143
-565.588	76.197	0.154	0.166
-564.573	-89.135	-0.061	-0.018
-563.558	-109.828	0.043	-0.009
-562.544	-61.286	-0.192	0.082
-561.529	-200.000	-0.068	0.304
-560.515	185.853	0.068	0.103
-559.500	221.530	0.183	-0.298
-558.485	-19.308	0.277	-0.174
-557.471	96.348	0.230	-0.266
-556.456	108.197	0.162	-0.196
-555.442	-139.078	-0.246	0.027
-554.427	471.020	-0.105	0.239
-553.412	767.091	0.074	0.203
-552.398	-52.493	0.151	0.071
-551.383	-63.937	-0.245	0.101
-550.369	-200.000	0.021	-0.191
-549.354	-54.119	-0.104	0.048
-548.339	378.791	0.067	0.138
-547.325	539.387	-0.091	0.218
-546.310	69.307	-0.159	-0.166
-545.296	76.979	-0.221	-0.238
-544.281	800.000	-0.125	0.359
-543.266	-200.000	0.004	-0.046
-542.252	-200.000	0.005	-0.148
-541.237	-63.448	-0.253	0.105
-540.223	-134.348	-0.300	-0.037
-539.208	-2.208	-0.114	-0.081
-538.193	-31.858	-0.061	0.035
-537.179	-200.000	-0.011	-0.071
-536.164	-114.640	-0.224	-0.043
-535.150	-88.660	-0.273	0.082
-534.135	-1.098	-0.086	0.062
-533.121	-90.601	-0.109	0.032
-532.106	-82.271	0.082	0.027
-531.091	-116.167	0.211	-0.040
-530.077	-146.619	0.058	-0.005
-529.062	-200.000	-0.016	0.199
-528.048	-66.909	-0.171	-0.068
-527.033	-82.107	-0.063	-0.021
-526.018	14.859	-0.102	-0.081
-525.004	-5.362	-0.190	0.132
-523.989	285.452	0.157	0.286
-522.975	-200.000	-0.028	0.158
-521.960	-200.000	0.004	-0.199
-520.945	54.172	0.162	0.158
-519.931	-118.887	-0.220	0.039
-518.916	-200.000	-0.049	0.270
-517.902	-98.480	0.390	-0.101
-516.887	370.729	0.094	-0.194
-515.872	-49.182	-0.374	-0.181
-514.858	-168.406	0.275	0.011
-513.843	-165.124	0.109	0.005
-512.829	-107.346	0.297	0.066
-511.814	-150.595	-0.186	-0.014
-510.799	-11.161	-0.093	0.062
-509.785	-106.367	-0.392	-0.089
-508.770	117.996	-0.281	-0.350
-507.756	800.000	-0.095	-0.302
-506.741	19.084	-0.253	0.205
-505.726	-145.334	0.138	-0.013
-504.712	-149.553	-0.169	-0.014
-503.697	-200.000	-0.033	0.241
-502.683	-200.000	-0.035	0.399
-501.668	-200.000	-0.009	0.124
-500.653	-113.509	0.047	-0.009
-499.639	-92.579	0.133	-0.038
-498.624	-135.561	-0.050	0.006
-497.610	-34.967	0.429	0.236
-496.595	276.612	-0.065	0.117
-495.581	-51.772	-0.176	0.083
-494.566	-200.000	-0.024	0.511
-493.551	10.841	0.274	-0.211
-492.537	-91.386	-0.326	0.094
-491.522	16.346	-0.278	-0.222
-490.508	45.397	0.059	0.055
-489.493	800.000	-0.058	0.173
-488.478	-164.039	0.339	-0.016
-487.464	36.121	0.120	-0.107
-486.449	-200.000	-0.024	-0.125
-485.435	-196.946	-0.272	-0.002
-484.420	199.219	-0.156	0.242
-483.405	-200.000	0.030	-0.133
-482.391	170.918	-0.112	-0.162
-481.376	-45.918	-0.260	0.129
-480.362	43.032	-0.053	-0.049
-479.347	800.000	-0.059	0.233
-478.332	69.995	0.214	0.223
-477.318	-37.049	-0.061	0.033
-476.303	273.650	-0.153	-0.274
-475.289	154.547	0.245	-0.340
-474.274	687.371	0.066	0.173
-473.259	-48.418	0.208	0.101
-472.245	-179.925	0.014	-0.000
-471.230	24.339	-0.182	-0.152
-470.216	-3.840	0.201	0.141
-469.201	248.590	-0.121	-0.207
-468.186	800.000	-0.012	0.044
-467.172	800.000	-0.088	-0.271
-466.157	800.000	-0.031	-0.097
-465.143	233.872	0.080	-0.134
-464.128	-123.177	0.654	-0.106
-463.113	752.551	0.141	-0.383
-462.099	-24.751	0.103	-0.062
-461.084	-108.215	0.361	-0.079
-460.070	-112.958	-0.178	0.036
-459.055	652.722	-0.079	-0.206
-458.040	216.104	-0.057	-0.091
-457.026	298.735	-0.146	-0.272
-456.011	593.303	-0.088	-0.221
-454.997	94.898	0.097	0.111
-453.982	-129.255	0.160	-0.023
-452.968	-73.954	-0.483	-0.177
-451.953	-82.271	0.159	-0.052
-450.938	-122.885	0.327	-0.053
-449.924	800.000	-0.052	-0.177
-448.909	182.271	0.125	-0.186
-447.895	-41.883	-0.120	-0.062
-446.880	-37.338	-0.019	0.010
-445.865	381.408	0.091	-0.188
-444.851	50.406	-0.320	0.306
-443.836	-200.000	-0.003	0.144
-442.822	72.510	0.163	0.171
-441.807	-200.000	-0.080	-0.391
-440.792	11.459	-0.301	0.232
-439.778	-151.213	0.240	-0.018
-438.763	243.435	0.121	0.204
-437.749	-89.297	0.406	0.121
-436.734	-114.417	0.057	-0.011
-435.719	513.836	-0.050	0.118
-434.705	-200.000	0.008	-0.056
-433.690	-173.626	-0.294	0.009
-432.676	421.511	-0.164	0.354
-431.661	106.477	0.041	-0.049
-430.646	172.299	-0.111	-0.162
-429.632	76.533	-0.187	0.200
-428.617	152.016	0.225	0.309
-427.603	371.796	0.049	-0.101
-426.588	-200.000	-0.035	-0.172
-425.573	287.778	0.122	-0.223
-424.559	-124.739	0.382	-0.060
-423.544	-200.000	0.019	-0.101
-422.530	700.585	0.078	0.207
-421.515	662.251	-0.041	-0.106
-420.500	800.000	0.085	0.329
-419.486	800.000	-0.129	0.463
-418.471	800.000	0.094	0.267
-417.457	800.000	-0.056	-0.177
-416.442	-55.362	0.048	0.022
-415.428	-63.352	0.089	0.037
-414.413	800.000	-0.077	-0.229
-413.398	800.000	0.114	-0.328
-412.384	-48.217	0.042	-0.020
-411.369	146.230	0.113	-0.153
-410.355	-157.586	-0.330	-0.020
-409.340	-77.088	-0.367	0.129
-408.325	-200.000	-0.013	-0.211
-407.311	350.268	-0.074	-0.148
-406.296	552.013	-0.032	0.078
-405.282	469.764	-0.154	-0.348
-404.267	-174.732	0.380	-0.011
-403.252	-166.993	-0.234	0.010
-402.238	-131.568	-0.398	-0.053
-401.223	-152.019	-0.079	0.006
-400.209	-55.221	-0.228	0.103
-399.194	174.725	0.080	-0.116
-398.179	-164.727	0.343	0.016
-397.165	800.000	-0.077	0.222
-396.150	-200.000	0.038	0.230
-395.136	-134.973	-0.101	-0.012
-394.121	-178.385	0.222	-0.005
-393.106	-73.140	0.481	0.178
-392.092	-178.832	0.025	0.001
-391.077	-53.404	-0.094	-0.043
-390.063	-146.404	-0.136	0.012
-389.048	141.185	-0.326	0.434
-388.033	-38.073	-0.147	0.078
-387.019	-200.000	-0.011	0.080
-386.004	405.095	0.135	0.286
-384.990	115.529	0.160	0.197
-383.975	-7.615	0.113	0.077
-382.960	-46.118	0.164	-0.081
-381.946	-48.032	0.325	0.158
-380.931	-143.336	0.195	-0.019
-379.917	3.051	-0.116	-0.085
-378.902	609.834	-0.009	0.024
-377.888	-200.000	-0.022	-0.187
-376.873	4.883	0.118	-0.087
-375.858	-159.971	0.221	0.012
-374.844	-200.000	0.007	0.058
-373.829	-53.872	0.234	-0.108
-372.815	-200.000	-0.047	-0.234
-371.800	-164.937	-0.118	0.005
-370.785	236.065	-0.133	-0.221
-369.771	-200.000	0.037	-0.199
-368.756	13.246	0.294	0.229
-367.742	-151.627	-0.124	-0.009
-366.727	800.000	-0.049	-0.210
-365.712	86.384	-0.112	-0.124
-364.698	218.692	0.103	-0.165
-363.683	26.053	0.101	0.084
-362.669	-112.339	-0.269	-0.054
-361.654	25.472	0.210	-0.176
-360.639	95.820	-0.162	0.186
-359.625	-37.563	-0.154	-0.083
-358.610	-200.000	0.080	-0.378
-357.596	-200.000	-0.006	-0.111
-356.581	-200.000	0.019	-0.375
-355.566	-1.410	-0.071	-0.050
-354.552	-127.103	0.231	-0.034
-353.537	209.956	-0.044	-0.070
-352.523	-28.286	-0.240	-0.140
-351.508	-75.522	-0.154	0.055
-350.493	356.964	-0.137	0.274
-349.479	-119.934	0.240	-0.041
-348.464	2.210	-0.203	0.147
-347.450	105.616	-0.095	0.113
-346.435	-75.587	0.137	-0.049
-345.420	-16.717	-0.279	-0.177
-344.406	-157.907	-0.050	0.003
-343.391	-156.048	0.401	-0.026
-342.377	800.000	0.014	-0.045
-341.362	-57.346	0.200	0.088
-340.348	171.267	0.212	0.305
-339.333	316.024	0.184	0.350
-338.318	249.367	-0.229	-0.390
-337.304	40.204	0.052	0.047
-336.289	-135.276	-0.236	0.028
-335.275	126.695	0.125	0.159
-334.260	-71.853	-0.206	-0.077
-333.245	-47.709	-0.076	0.037
-332.231	-48.956	0.311	0.150
-331.216	3.121	-0.153	-0.112
-330.202	-142.624	0.275	-0.027
-329.187	162.470	-0.050	0.071
-328.172	-88.658	0.324	0.097
-327.158	-171.930	0.127	0.004
-326.143	-133.156	0.192	0.024
-325.129	-138.040	-0.103	0.012
-324.114	-89.122	-0.048	0.014
-323.099	-98.689	-0.196	-0.050
-322.085	67.683	-0.103	-0.105
-321.070	-200.000	0.046	-0.233
-320.056	-200.000	0.010	0.087
-319.041	54.311	-0.116	0.112
-318.026	51.520	-0.149	0.142
-317.012	472.865	0.053	0.120
-315.997	800.000	0.015	-0.067
-314.983	-196.768	0.225	-0.001
-313.968	800.000	0.144	0.423
-312.953	-74.452	0.245	0.089
-311.939	29.473	-0.190	0.162
-310.924	-46.650	0.527	-0.259
-309.910	69.094	0.086	-0.089
-308.895	800.000	0.077	0.238
-307.880	-132.705	-0.105	-0.014
-306.866	3.933	-0.095	0.069
-305.851	-200.000	-0.072	-0.358
-304.837	32.884	-0.313	0.272
-303.822	-54.196	0.313	-0.143
-302.807	-200.000	-0.008	0.427
-301.793	220.146	-0.156	-0.251
-300.778	175.552	0.189	-0.275
-299.764	-200.000	-0.002	-0.146
-298.749	-200.000	0.022	-0.237
-297.735	428.985	0.051	-0.110
-296.720	-52.282	-0.280	0.130
-295.705	243.109	-0.175	0.294
-294.691	5.450	0.127	0.094
-293.676	652.844	-0.105	-0.270
-292.662	21.032	-0.105	-0.085
-291.647	402.550	-0.123	-0.259
-290.632	-79.149	0.428	-0.146
-289.618	-200.000	-0.025	-0.226
-288.603	337.147	0.083	-0.162
-287.589	60.850	-0.162	-0.162
-286.574	800.000	0.054	-0.229
-285.559	-146.969	0.105	-0.009
-284.545	290.421	0.119	0.216
-283.530	-157.320	0.049	0.003
-282.516	-58.231	0.079	-0.035
-281.501	391.670	0.104	-0.216
-280.486	23.099	-0.184	0.151
-279.472	128.709	0.123	0.158
-278.457	1.014	0.063	0.046
-277.443	228.583	-0.105	0.171
-276.428	-13.971	-0.127	-0.082
-275.413	-125.163	0.203	0.031
-274.399	103.885	-0.085	0.100
-273.384	800.000	-0.153	0.455
-272.370	319.096	0.040	-0.075
-271.355	128.013	0.145	0.185
-270.340	-106.597	-0.390	-0.087
-269.326	800.000	0.011	0.035
-268.311	800.000	-0.077	-0.230
-267.297	41.198	-0.117	0.106
-266.282	13.470	0.197	0.153
-265.267	31.307	0.245	0.211
-264.253	97.396	0.170	0.195
-263.238	-25.522	0.163	0.097
-262.224	-27.694	0.066	-0.038
-261.209	-26.196	-0.349	-0.205
-260.195	-11.631	0.119	-0.078
-259.180	112.532	-0.250	-0.303
-258.165	-86.054	-0.268	0.083
-257.151	5.984	-0.122	-0.090
-256.136	-3.799	0.296	-0.206
-255.122	-178.414	-0.255	-0.006
-254.107	-136.481	-0.164	0.019
-253.092	800.000	0.112	-0.346
-252.078	-104.692	-0.163	0.038
-251.063	-193.138	-0.452	-0.004
-250.049	-36.316	0.244	0.132
-249.034	-200.000	0.043	0.361
-248.019	-61.401	-0.352	-0.148
-247.005	54.481	0.107	-0.104
-245.990	-200.000	-0.033	0.174
-244.976	-129.860	0.118	-0.016
-243.961	140.063	-0.151	0.199
-242.946	-200.000	0.011	-0.293
-241.932	63.851	-0.231	-0.232
-240.917	-200.000	0.032	0.346
-239.903	349.195	-0.188	-0.371
-238.888	601.019	0.145	0.359
-237.873	402.290	0.121	0.254
-236.859	407.204	-0.051	0.108
-235.844	133.426	-0.185	0.240
-234.830	800.000	0.057	0.214
-233.815	336.149	-0.132	0.257
-232.800	-200.000	-0.014	0.240
-231.786	-48.246	0.343	0.165
-230.771	198.559	0.150	0.229
-229.757	106.294	-0.114	0.136
-228.742	83.240	-0.199	0.217
-227.727	473.499	-0.162	0.366
-226.713	-200.000	0.015	-0.117
-225.698	-45.711	0.188	-0.093
-224.684	800.000	-0.059	-0.198
-223.669	20.165	0.191	-0.155
-222.655	-200.000	-0.017	0.116
-221.640	142.157	0.083	0.111
-220.625	-29.590	-0.286	-0.163
-219.611	159.794	-0.055	-0.077
-218.596	44.696	0.103	0.095
-217.582	565.123	0.084	-0.203
-216.567	-88.856	0.199	0.059
-215.552	-200.000	0.034	0.201
-214.538	-80.256	-0.334	0.112
-213.523	-200.000	-0.247	0.001
-212.509	99.654	-0.211	-0.244
-211.494	800.000	-0.018	0.052
-210.479	-200.000	-0.002	-0.089
-209.465	-139.997	0.200	0.021
-208.450	800.000	0.023	0.093
-207.436	-88.501	-0.308	-0.092
-206.421	-122.506	0.215	0.035
-205.406	-102.990	-0.085	-0.020
-204.392	-200.000	0.002	-0.095
-203.377	-68.836	-0.084	-0.032
-202.363	253.708	0.241	0.411
-201.348	-60.461	-0.374	-0.159
-200.333	9.040	-0.106	-0.080
-199.319	-200.000	0.054	-0.322
-198.304	-200.000	-0.005	0.261
-197.290	-147.354	-0.158	-0.013
-196.275	3.262	-0.123	0.089
-195.260	110.688	-0.285	0.343
-194.246	-87.742	0.252	-0.076
-193.231	-117.835	0.151	0.027
-192.217	33.558	-0.114	-0.099
-191.202	6.951	-0.213	-0.159
-190.187	370.260	-0.240	-0.485
-189.173	-120.618	0.254	0.043
-188.158	11.298	-0.288	0.220
-187.144	237.189	0.145	0.241
-186.129	33.684	-0.089	-0.077
-185.114	800.000	0.050	-0.186
-184.100	342.236	0.107	0.210
-183.085	182.616	-0.246	-0.362
-182.071	800.000	-0.096	-0.411
-181.056	800.000	-0.081	0.331
-180.042	151.538	0.090	-0.122
-179.027	-105.116	0.491	-0.112
-178.012	-133.671	-0.337	-0.042
-176.998	-59.212	0.228	-0.098
-175.983	-52.854	0.167	-0.077
-174.969	273.297	0.007	0.012
-173.954	-191.593	0.281	0.003
-172.939	-200.000	0.008	-0.161
-171.925	107.056	-0.048	-0.057
-170.910	-200.000	-0.021	0.223
-169.896	-71.577	0.279	-0.104
-168.881	800.000	0.054	0.152
-167.866	159.805	-0.077	0.107
-166.852	49.753	0.090	0.085
-165.837	30.359	0.363	0.309
-164.823	-121.409	0.119	0.020
-163.808	113.782	0.237	0.288
-162.793	606.072	0.104	0.258
-161.779	80.725	0.252	-0.271
-160.764	-97.118	-0.300	0.078
-159.750	-121.711	0.277	0.046
-158.735	-46.285	-0.429	-0.211
-157.720	4.331	0.283	-0.207
-156.706	48.231	-0.029	0.027
-155.691	-169.126	-0.108	0.004
-154.677	-39.753	0.280	0.146
-153.662	394.077	0.028	-0.058
-152.647	67.399	0.217	-0.221
-151.633	800.000	-0.037	-0.156
-150.618	-200.000	-0.009	0.274
-149.604	-103.568	-0.167	-0.039
-148.589	-88.834	-0.456	0.135
-147.574	79.986	-0.140	-0.150
-146.560	-144.689	-0.077	0.007
-145.545	-75.000	0.029	0.010
-144.531	-63.130	-0.121	0.050
-143.516	-8.517	0.111	0.075
-142.502	-48.694	-0.320	0.153
-141.487	-200.000	-0.031	-0.159
-140.472	796.248	-0.096	0.264
-139.458	-200.000	-0.033	0.253
-138.443	-133.553	0.104	0.013
-137.429	-200.000	0.023	0.100
-136.414	-187.792	-0.079	0.001
-135.399	-89.163	0.090	0.027
-134.385	-96.122	-0.331	0.088
-133.370	345.565	-0.027	0.052
-132.356	6.393	0.216	0.160
-131.341	-59.938	-0.506	0.216
-130.326	48.917	0.276	0.258
-129.312	54.948	0.219	0.211
-128.297	85.763	-0.040	-0.044
-127.283	152.275	-0.216	0.293
-126.268	-122.848	-0.199	-0.032
-125.253	-47.024	0.123	-0.060
-124.239	-66.880	0.230	0.091
-123.224	-94.906	0.367	-0.099
-122.210	89.015	-0.133	-0.148
