DTS Sentinel unit serial number:	SN413079Multiplexer serial number:	ORYXHardware model number:	OX4-SRSoftware version number:	ORYX F/W v4.00 Oryx Data Collector v3.7.2.0data status	okinstallation	princeton_trtdifferential loss correction	single-endedforward channel	channel 3reverse channel	N/Adate	2019/09/18time	16:36:35forward acquisition time	60.00reverse acquisition time	0.00gamma	496.2192k internal	0.2293k external	0.2293temperature offset calibration	0.9984default loss term (dB/km)	0.3790temperature slope calibration	1.0000multiplexer offset coefficient	1.0000multiplexer slope coefficient	1.0000fibre end	0.00T internal ref (°C)	39.52T ext. ref 1 (°C)	0.83T ext. ref 2 (°C)	36.85length (m)	temperature (°C)	Stokes	anti-Stokes-747.200	-131.072	-0.117	0.016
-746.185	-200.000	0.004	0.330
-745.171	33.278	-0.247	0.220
-744.156	800.000	0.045	0.157
-743.142	-200.000	0.013	-0.310
-742.127	-200.000	0.047	0.394
-741.112	-103.394	-0.089	-0.021
-740.098	-200.000	-0.008	0.223
-739.083	90.708	-0.108	0.124
-738.069	-200.000	0.009	0.089
-737.054	156.388	0.106	0.149
-736.039	-28.955	-0.248	0.146
-735.025	-11.277	0.501	0.337
-734.010	-67.550	0.113	-0.045
-732.996	-44.851	-0.200	-0.102
-731.981	51.351	0.225	-0.218
-730.966	-142.040	0.172	0.018
-729.952	564.676	0.152	0.377
-728.937	-156.799	-0.386	-0.024
-727.923	800.000	-0.053	-0.195
-726.908	-132.148	0.110	0.015
-725.894	-29.051	0.248	0.146
-724.879	113.030	0.108	-0.134
-723.864	44.824	0.192	0.180
-722.850	-200.000	-0.014	-0.075
-721.835	-200.000	0.039	-0.179
-720.821	561.382	-0.102	-0.252
-719.806	-57.313	-0.161	-0.072
-718.791	65.370	-0.090	-0.093
-717.777	-200.000	0.058	-0.280
-716.762	-64.556	-0.100	-0.041
-715.748	-107.183	-0.309	-0.070
-714.733	-155.400	-0.419	0.028
-713.718	8.148	0.058	0.044
-712.704	-200.000	-0.005	-0.129
-711.689	457.535	0.118	0.269
-710.675	74.698	0.184	0.197
-709.660	-171.634	0.307	-0.010
-708.645	-58.161	-0.039	0.018
-707.631	-71.723	-0.196	-0.075
-706.616	-14.781	-0.331	-0.217
-705.602	-181.815	0.158	-0.003
-704.587	-73.269	0.210	0.078
-703.572	149.442	-0.117	0.161
-702.558	-106.482	-0.243	-0.055
-701.543	708.430	-0.127	0.342
-700.529	210.096	-0.080	0.128
-699.514	-96.688	-0.237	0.064
-698.499	-80.710	-0.311	-0.106
-697.485	-135.382	-0.067	-0.008
-696.470	-200.000	-0.023	-0.141
-695.456	800.000	0.134	-0.387
-694.441	33.251	-0.292	0.258
-693.426	68.522	0.089	-0.093
-692.412	800.000	-0.010	-0.044
-691.397	-200.000	-0.051	0.235
-690.383	-73.669	-0.213	0.079
-689.368	-58.699	-0.073	-0.032
-688.354	-1.149	0.293	-0.211
-687.339	89.627	0.089	-0.101
-686.324	800.000	0.065	0.230
-685.310	-187.239	-0.394	-0.005
-684.295	238.432	-0.095	-0.161
-683.281	-165.104	0.275	0.012
-682.266	800.000	-0.082	0.354
-681.251	357.751	0.117	0.238
-680.237	-44.861	0.263	0.134
-679.222	219.960	0.025	-0.041
-678.208	147.579	-0.171	-0.235
-677.193	-99.735	0.058	-0.015
-676.178	130.244	0.189	0.248
-675.164	-40.678	-0.357	0.189
-674.149	-36.167	0.060	-0.033
-673.135	-49.861	0.324	-0.157
-672.120	-200.000	-0.023	0.301
-671.105	-83.685	0.244	0.079
-670.091	58.148	-0.048	0.048
-669.076	432.754	0.101	0.225
-668.062	144.325	-0.167	-0.227
-667.047	-28.885	-0.116	0.068
-666.032	-163.073	-0.361	0.018
-665.018	-106.345	-0.349	-0.080
-664.003	-31.039	-0.074	0.043
-662.989	-73.874	0.163	0.061
-661.974	5.757	-0.332	0.250
-660.959	107.917	-0.181	-0.220
-659.945	280.938	-0.089	-0.163
-658.930	-200.000	0.016	-0.557
-657.916	800.000	-0.052	-0.212
-656.901	-52.807	-0.282	0.133
-655.886	-135.745	0.157	-0.019
-654.872	10.620	-0.173	0.134
-653.857	10.379	0.260	-0.202
-652.843	704.757	0.014	0.036
-651.828	-200.000	-0.077	-0.416
-650.814	-200.000	-0.013	-0.231
-649.799	188.577	-0.064	0.098
-648.784	-200.000	0.029	-0.156
-647.770	2.072	0.054	0.040
-646.755	-33.252	-0.119	0.067
-645.741	800.000	0.090	-0.280
-644.726	-200.000	-0.022	0.136
-643.711	-200.000	0.061	0.300
-642.697	-200.000	0.047	0.298
-641.682	-30.714	0.251	0.145
-640.668	28.442	0.170	-0.146
-639.653	-74.738	-0.132	0.048
-638.638	-124.889	0.228	0.036
-637.624	63.605	-0.109	0.112
-636.609	546.506	-0.090	0.219
-635.595	800.000	0.057	-0.205
-634.580	-200.000	-0.075	0.404
-633.565	-3.350	0.179	0.127
-632.551	-6.038	0.137	-0.095
-631.536	800.000	0.026	-0.113
-630.522	-56.972	0.223	-0.100
-629.507	800.000	-0.030	-0.126
-628.492	27.015	-0.321	-0.274
-627.478	-40.526	-0.276	0.146
-626.463	349.656	-0.085	-0.172
-625.449	-47.059	-0.205	0.102
-624.434	74.002	-0.193	-0.206
-623.419	-48.677	0.110	-0.054
-622.405	-200.000	0.002	0.090
-621.390	83.405	-0.063	-0.070
-620.376	-200.000	-0.004	-0.267
-619.361	42.096	0.127	-0.118
-618.346	-126.930	0.241	0.036
-617.332	-200.000	0.005	0.024
-616.317	-200.000	0.011	0.132
-615.303	-92.880	0.202	-0.058
-614.288	14.150	0.334	-0.265
-613.273	800.000	0.018	0.063
-612.259	-48.614	-0.002	0.001
-611.244	-178.289	0.422	-0.010
-610.230	152.842	-0.171	-0.237
-609.215	-141.667	-0.261	-0.027
-608.201	800.000	0.038	0.169
-607.186	87.736	-0.137	0.155
-606.171	-145.586	-0.348	0.032
-605.157	124.515	0.077	0.098
-604.142	146.036	-0.152	0.207
-603.128	-200.000	0.031	0.216
-602.113	-200.000	0.016	-0.153
-601.098	263.460	0.130	-0.230
-600.084	-200.000	0.066	-0.333
-599.069	348.854	-0.053	0.107
-598.055	-6.855	-0.234	0.162
-597.040	16.503	-0.172	0.138
-596.025	800.000	-0.107	0.461
-595.011	-88.593	-0.313	-0.095
-593.996	800.000	-0.059	-0.258
-592.982	-68.364	0.243	-0.096
-591.967	-22.620	0.091	0.056
-590.952	520.991	0.082	-0.195
-589.938	-69.425	0.214	0.083
-588.923	800.000	0.047	0.155
-587.909	281.356	0.098	-0.178
-586.894	-71.595	0.261	-0.099
-585.879	800.000	0.062	-0.212
-584.865	800.000	-0.114	0.468
-583.850	-194.248	-0.213	-0.002
-582.836	354.509	0.158	0.320
-581.821	-7.630	0.341	-0.235
-580.806	152.125	-0.351	-0.487
-579.792	-127.352	-0.297	0.044
-578.777	-200.000	0.050	0.282
-577.763	198.052	-0.104	0.162
-576.748	-32.634	0.135	0.077
-575.733	-128.658	0.255	-0.037
-574.719	-101.419	-0.212	-0.053
-573.704	256.783	-0.009	0.015
-572.690	-200.000	0.019	-0.331
-571.675	-64.527	0.251	-0.104
-570.661	365.888	0.172	0.352
-569.646	217.657	-0.150	0.243
-568.631	461.050	-0.140	0.317
-567.617	-98.045	0.309	0.081
-566.602	-112.903	0.182	-0.037
-565.588	-147.452	-0.162	0.014
-564.573	-74.165	0.138	0.051
-563.558	-79.834	0.087	0.030
-562.544	-48.247	0.375	0.184
-561.529	46.972	0.305	-0.288
-560.515	-168.294	-0.159	0.006
-559.500	359.594	0.078	-0.159
-558.485	-143.363	0.221	-0.021
-557.471	-112.618	0.126	-0.025
-556.456	459.405	0.101	0.229
-555.442	-200.000	-0.007	0.084
-554.427	-113.165	-0.283	-0.057
-553.412	-77.162	-0.277	-0.098
-552.398	430.721	-0.089	0.196
-551.383	-93.607	-0.050	0.014
-550.369	-175.855	0.186	0.005
-549.354	-200.000	-0.025	0.401
-548.339	-65.417	-0.116	0.047
-547.325	-95.914	-0.270	0.073
-546.310	800.000	-0.034	0.121
-545.296	-14.131	0.155	0.102
-544.281	-28.289	0.225	-0.132
-543.266	-200.000	0.002	-0.394
-542.252	-76.441	-0.391	0.140
-541.237	3.749	-0.117	0.087
-540.223	-37.970	-0.220	-0.119
-539.208	139.344	-0.134	0.179
-538.193	341.737	-0.098	0.195
-537.179	-200.000	-0.004	-0.336
-536.164	99.264	-0.168	-0.197
-535.150	520.241	0.112	-0.266
-534.135	442.690	0.035	0.079
-533.121	410.939	-0.189	-0.407
-532.106	6.541	-0.225	0.169
-531.091	-109.497	-0.200	-0.043
-530.077	-200.000	-0.021	-0.155
-529.062	146.680	0.156	0.213
-528.048	-200.000	0.002	0.180
-527.033	420.022	-0.058	-0.126
-526.018	-104.048	0.215	-0.051
-525.004	800.000	-0.093	0.351
-523.989	287.689	0.062	-0.113
-522.975	-6.972	0.129	0.089
-521.960	315.379	0.113	0.217
-520.945	170.193	-0.150	-0.218
-519.931	109.425	-0.157	0.190
-518.916	-200.000	0.007	-0.357
-517.902	-200.000	-0.034	0.276
-516.887	95.089	-0.183	-0.212
-515.872	-40.277	0.255	-0.134
-514.858	-200.000	0.034	-0.213
-513.843	118.896	-0.012	-0.015
-512.829	-172.948	-0.204	0.006
-511.814	-5.799	-0.200	-0.139
-510.799	-126.185	-0.139	-0.021
-509.785	74.921	-0.196	0.210
-508.770	-26.805	0.187	-0.111
-507.756	57.512	0.140	-0.139
-506.741	-121.259	0.144	-0.024
-505.726	246.022	-0.011	-0.019
-504.712	146.219	0.064	0.088
-503.697	-200.000	0.023	0.409
-502.683	800.000	0.027	-0.101
-501.668	3.060	0.181	-0.133
-500.653	54.852	0.235	0.230
-499.639	800.000	-0.080	0.308
-498.624	566.727	-0.027	-0.067
-497.610	-58.275	-0.104	-0.046
-496.595	-87.140	0.220	-0.068
-495.581	235.514	0.020	0.033
-494.566	571.467	0.094	0.232
-493.551	-106.835	-0.339	-0.076
-492.537	69.256	-0.062	0.065
-491.522	59.371	-0.436	0.435
-490.508	79.574	0.096	-0.104
-489.493	-170.438	-0.192	-0.007
-488.478	-147.384	-0.192	0.016
-487.464	-179.496	-0.441	-0.010
-486.449	-6.493	0.211	0.146
-485.435	800.000	-0.006	0.022
-484.420	800.000	0.111	0.343
-483.405	116.197	-0.177	-0.220
-482.391	53.821	0.068	0.066
-481.376	63.273	0.146	-0.148
-480.362	-79.062	0.137	-0.047
-479.347	-133.049	-0.160	-0.021
-478.332	423.635	0.084	-0.182
-477.318	-20.112	0.138	-0.086
-476.303	-83.988	0.065	-0.021
-475.289	-82.706	0.114	-0.038
-474.274	619.233	0.019	-0.048
-473.259	-78.389	-0.379	0.132
-472.245	94.761	-0.061	0.071
-471.230	211.554	0.061	-0.098
-470.216	-119.787	0.198	-0.035
-469.201	-162.635	-0.250	0.012
-468.186	-37.406	0.124	0.067
-467.172	35.098	0.234	-0.208
-466.157	102.509	0.143	-0.169
-465.143	-95.438	-0.010	0.003
-464.128	171.189	-0.229	0.332
-463.113	-9.282	-0.164	0.111
-462.099	204.370	0.261	-0.410
-461.084	-200.000	0.019	-0.110
-460.070	-200.000	-0.006	0.253
-459.055	626.053	-0.110	-0.280
-458.040	-40.148	-0.172	0.091
-457.026	-0.845	-0.190	0.136
-456.011	348.410	0.092	0.184
-454.997	169.270	0.099	-0.143
-453.982	166.491	0.234	0.335
-452.968	-112.599	0.142	0.029
-451.953	91.485	-0.031	0.035
-450.938	-147.448	-0.615	0.053
-449.924	-78.895	-0.180	0.062
-448.909	-30.861	0.083	0.047
-447.895	165.713	0.118	0.169
-446.880	-71.169	0.282	0.107
-445.865	800.000	-0.054	-0.223
-444.851	12.318	0.043	0.033
-443.836	-125.413	0.010	-0.002
-442.822	-197.688	-0.122	0.001
-441.807	-86.454	0.198	-0.061
-440.792	333.498	-0.154	0.301
-439.778	800.000	0.093	-0.273
-438.763	-200.000	0.062	0.280
-437.749	-150.696	-0.237	-0.018
-436.734	-96.126	0.364	0.098
-435.719	-24.717	0.159	-0.095
-434.705	-91.280	0.098	-0.028
-433.690	-97.381	0.160	-0.042
-432.676	225.046	0.102	-0.167
-431.661	56.797	0.177	-0.174
-430.646	-61.123	0.112	-0.048
-429.632	-67.624	-0.122	0.048
-428.617	-200.000	0.012	-0.227
-427.603	800.000	-0.047	0.202
-426.588	800.000	-0.026	0.097
-425.573	8.841	-0.083	0.063
-424.559	185.076	-0.035	0.052
-423.544	7.352	-0.150	-0.114
-422.530	-147.261	-0.141	-0.012
-421.515	109.676	0.212	-0.257
-420.500	-69.489	0.094	0.036
-419.486	-200.000	0.017	-0.290
-418.471	70.643	0.118	-0.123
-417.457	35.747	0.195	-0.174
-416.442	5.525	0.114	0.085
-415.428	-200.000	-0.031	0.196
-414.413	-130.887	0.124	0.017
-413.398	-200.000	0.006	-0.205
-412.384	791.045	0.087	-0.242
-411.369	61.777	0.395	0.397
-410.355	221.771	-0.082	0.134
-409.340	-39.109	-0.308	-0.164
-408.325	19.775	-0.234	0.191
-407.311	800.000	0.108	-0.311
-406.296	-131.206	-0.233	-0.031
-405.282	-200.000	-0.041	-0.288
-404.267	-72.596	0.302	-0.112
-403.252	-79.337	-0.149	0.051
-402.238	800.000	-0.044	0.146
-401.223	-129.971	0.159	0.022
-400.209	62.706	0.110	-0.111
-399.194	17.728	0.335	0.269
-398.179	596.284	0.035	0.086
-397.165	-93.031	-0.342	0.096
-396.150	34.519	-0.144	-0.127
-395.136	-77.726	-0.138	0.048
-394.121	25.223	-0.271	-0.227
-393.106	84.922	0.264	-0.293
-392.092	132.951	0.106	-0.138
-391.077	-121.303	-0.165	-0.028
-390.063	216.828	0.074	0.120
-389.048	-104.711	-0.202	0.047
-388.033	-77.402	-0.152	-0.053
-387.019	-200.000	-0.016	-0.153
-386.004	-92.998	0.109	-0.031
-384.990	-156.594	0.057	0.004
-383.975	-119.527	0.231	-0.040
-382.960	-7.594	0.257	0.176
-381.946	-200.000	-0.124	-0.666
-380.931	122.815	-0.134	-0.169
-379.917	206.994	-0.147	-0.230
-378.902	800.000	-0.044	0.194
-377.888	-109.389	0.299	0.064
-376.873	263.586	0.043	0.076
-375.858	41.939	0.117	0.107
-374.844	-200.000	-0.008	-0.331
-373.829	800.000	0.055	-0.217
-372.815	-12.567	-0.293	0.193
-371.800	800.000	-0.110	0.317
-370.785	-56.174	-0.139	-0.062
-369.771	-200.000	-0.017	-0.246
-368.756	287.680	0.200	-0.364
-367.742	800.000	0.071	-0.228
-366.727	-81.543	-0.301	0.100
-365.712	-145.180	0.347	0.032
-364.698	352.014	-0.106	0.212
-363.683	-200.000	0.098	-0.542
-362.669	-69.167	-0.500	-0.194
-361.654	152.102	-0.175	-0.241
-360.639	22.490	0.309	0.254
-359.625	-52.626	0.240	-0.112
-358.610	-25.762	-0.145	-0.086
-357.596	-200.000	-0.021	-0.268
-356.581	800.000	-0.070	-0.240
-355.566	8.280	-0.368	0.279
-354.552	95.219	0.100	-0.115
-353.537	-24.274	-0.204	0.123
-352.523	12.108	0.162	-0.126
-351.508	165.350	0.222	0.316
-350.493	-91.506	-0.186	-0.054
-349.479	800.000	0.032	-0.122
-348.464	-19.667	0.174	0.109
-347.450	298.534	-0.046	0.085
-346.435	-171.604	-0.121	0.004
-345.420	29.064	-0.238	-0.203
-344.406	-109.184	0.422	-0.090
-343.391	-200.000	-0.008	-0.366
-342.377	-159.336	-0.300	0.017
-341.362	-184.099	0.177	0.003
-340.348	-200.000	-0.001	0.082
-339.333	-200.000	0.018	-0.126
-338.318	656.443	0.144	0.374
-337.304	261.118	0.135	0.236
-336.289	13.823	-0.237	0.186
-335.275	186.675	-0.092	0.138
-334.260	-160.995	-0.266	-0.014
-333.245	20.155	0.117	0.095
-332.231	-75.194	-0.271	0.098
-331.216	157.997	0.086	0.120
-330.202	-200.000	0.058	0.362
-329.187	800.000	0.065	-0.184
-328.172	-34.798	-0.328	0.181
-327.158	83.548	0.342	-0.376
-326.143	593.851	-0.047	0.117
-325.129	-145.772	0.242	0.022
-324.114	-8.633	0.122	0.082
-323.099	314.152	0.178	-0.338
-322.085	75.256	-0.290	-0.308
-321.070	124.387	-0.200	-0.253
-320.056	-200.000	-0.056	-0.645
-319.041	-135.966	-0.208	0.025
-318.026	-90.502	-0.231	-0.067
-317.012	21.821	-0.231	-0.189
-315.997	-78.112	0.137	0.047
-314.983	-101.319	0.210	-0.052
-313.968	428.314	-0.090	-0.195
-312.953	-48.855	-0.137	-0.066
-311.939	-83.502	0.158	0.051
-310.924	238.474	-0.097	-0.162
-309.910	230.707	0.120	-0.197
-308.895	-111.987	-0.214	0.043
-307.880	138.241	-0.147	0.195
-306.866	-144.471	-0.253	-0.024
-305.851	-200.000	0.012	-0.154
-304.837	-153.273	0.418	-0.029
-303.822	-58.582	-0.141	0.062
-302.807	-147.986	-0.463	-0.039
-301.793	233.323	0.193	0.319
-300.778	-118.256	-0.093	0.017
-299.764	33.834	-0.086	0.075
-298.749	800.000	0.054	-0.171
-297.735	-76.344	0.222	-0.079
-296.720	-200.000	0.027	0.284
-295.705	22.453	-0.188	0.155
-294.691	-23.561	-0.216	-0.130
-293.676	27.024	0.156	-0.131
-292.662	-67.653	0.174	0.068
-291.647	442.268	-0.018	-0.040
-290.632	-200.000	0.001	-0.012
-289.618	68.355	-0.062	0.064
-288.603	557.481	0.071	-0.172
-287.589	4.828	-0.198	-0.146
-286.574	-21.387	0.216	0.132
-285.559	-120.520	0.023	-0.004
-284.545	81.235	0.160	0.173
-283.530	278.186	0.030	0.054
-282.516	-150.610	0.261	-0.020
-281.501	84.805	0.205	0.226
-280.486	-200.000	-0.035	-0.166
-279.472	34.608	-0.343	0.301
-278.457	-166.771	-0.225	0.009
-277.443	-200.000	-0.003	-0.186
-276.428	-100.117	0.196	-0.049
-275.413	-128.780	0.285	-0.040
-274.399	-200.000	-0.003	-0.180
-273.384	-155.107	-0.279	-0.018
-272.370	-24.298	-0.234	-0.140
-271.355	80.025	0.194	0.210
-270.340	217.472	0.107	-0.171
-269.326	104.761	0.110	-0.130
-268.311	-41.749	0.239	-0.123
-267.297	-19.770	-0.138	-0.085
-266.282	-80.901	-0.184	0.061
-265.267	-72.424	0.247	-0.092
-264.253	-200.000	-0.002	-0.014
-263.238	-57.668	-0.222	-0.098
-262.224	101.316	-0.235	-0.275
-261.209	-200.000	0.054	-0.483
-260.195	-104.857	0.403	0.093
-259.180	-75.259	-0.314	-0.112
-258.165	-178.440	0.375	-0.009
-257.151	-129.065	0.167	0.023
-256.136	6.009	-0.100	0.074
-255.122	-54.694	0.209	0.095
-254.107	18.574	0.150	0.121
-253.092	-200.000	0.057	0.347
-252.078	-59.708	0.147	0.063
-251.063	127.156	0.065	-0.083
-250.049	-200.000	-0.043	0.248
-249.034	-136.744	0.505	0.058
-248.019	-28.372	0.222	0.129
-247.005	800.000	0.093	0.276
-245.990	800.000	0.015	-0.059
-244.976	-200.000	0.016	-0.096
-243.961	-95.735	-0.269	0.072
-242.946	57.320	-0.183	0.180
-241.932	-114.266	0.202	-0.039
-240.917	-47.001	0.230	0.113
-239.903	-47.730	0.152	0.074
-238.888	-112.467	0.216	-0.043
-237.873	800.000	-0.067	0.232
-236.859	-200.000	0.021	-0.099
-235.844	54.346	-0.044	0.042
-234.830	800.000	0.108	0.305
-233.815	532.545	0.051	0.122
-232.800	378.474	0.065	-0.133
-231.786	5.887	-0.304	-0.226
-230.771	59.029	-0.184	-0.182
-229.757	103.732	-0.141	-0.166
-228.742	-74.005	-0.160	-0.058
-227.727	201.429	0.216	0.334
-226.713	658.977	0.063	0.162
-225.698	-40.467	-0.243	0.126
-224.684	190.200	0.308	-0.464
-223.669	-88.952	-0.260	0.077
-222.655	-200.000	0.075	0.551
-221.640	-200.000	-0.013	0.150
-220.625	15.897	0.155	-0.122
-219.611	-120.767	-0.149	-0.025
-218.596	719.621	-0.036	0.097
-217.582	-200.000	0.014	-0.111
-216.567	-125.548	0.118	0.018
-215.552	800.000	-0.081	0.240
-214.538	152.572	0.089	0.122
-213.523	-200.000	0.014	-0.146
-212.509	98.272	0.184	0.212
-211.494	-38.298	0.130	-0.069
-210.479	265.961	0.087	0.152
-209.465	-180.997	-0.316	-0.006
-208.450	-132.344	0.132	-0.017
-207.436	-55.571	-0.098	0.044
-206.421	490.805	-0.125	0.287
-205.406	-168.839	0.032	0.001
-204.392	-100.454	-0.116	-0.029
-203.377	-114.079	0.120	0.023
-202.363	-42.430	-0.202	0.103
-201.348	13.926	0.302	-0.236
-200.333	358.524	-0.024	0.049
-199.319	800.000	-0.016	0.054
-198.304	6.522	-0.389	0.289
-197.290	-86.911	-0.329	-0.101
-196.275	-34.089	-0.246	-0.136
-195.260	-112.485	0.210	-0.042
-194.246	-200.000	0.019	0.088
-193.231	-200.000	0.005	0.065
-192.217	62.338	0.223	0.223
-191.202	106.750	0.079	0.094
-190.187	286.012	0.116	0.210
-189.173	-200.000	0.001	-0.146
-188.158	-72.918	0.105	0.039
-187.144	78.074	-0.200	-0.214
-186.129	800.000	0.057	-0.172
-185.114	81.506	0.052	-0.056
-184.100	-163.927	-0.169	0.008
-183.085	58.927	-0.153	-0.151
-182.071	-54.650	0.080	-0.036
-181.056	200.302	0.133	0.204
-180.042	-93.755	-0.259	-0.071
-179.027	-100.331	0.013	0.003
-178.012	800.000	-0.034	0.098
-176.998	-139.535	-0.117	0.012
-175.983	353.136	-0.022	-0.043
-174.969	-32.676	0.064	0.036
-173.954	654.583	0.014	-0.037
-172.939	8.060	0.071	0.053
-171.925	-200.000	0.001	0.235
-170.910	-144.126	-0.207	0.019
-169.896	-129.768	-0.178	-0.024
-168.881	628.007	-0.051	-0.130
-167.866	-38.749	0.114	0.060
-166.852	-10.354	-0.032	0.021
-165.837	8.447	0.045	0.034
-164.823	-16.544	0.225	-0.143
-163.808	240.038	-0.070	0.117
-162.793	-115.003	-0.062	-0.012
-161.779	-46.496	-0.252	0.124
-160.764	-130.943	0.412	0.055
-159.750	-200.000	0.000	-0.121
-158.735	201.337	0.224	0.345
-157.720	-120.732	-0.209	0.035
-156.706	-129.018	-0.189	-0.027
-155.691	-128.354	-0.345	0.049
-154.677	131.196	0.318	0.409
-153.662	17.676	-0.288	-0.229
-152.647	277.304	-0.025	0.044
-151.633	-66.802	0.148	0.059
-150.618	-82.338	0.326	0.106
-149.604	-2.057	0.160	0.112
-148.589	-36.847	0.289	0.155
-147.574	360.642	0.135	-0.270
-146.560	541.602	0.050	0.119
-145.545	-63.879	-0.118	0.048
-144.531	-200.000	-0.003	-0.306
-143.516	-200.000	0.003	-0.078
-142.502	-200.000	-0.064	0.425
-141.487	-52.904	-0.077	0.035
-140.472	146.344	0.156	-0.210
-139.458	52.202	0.131	-0.125
-138.443	-10.090	0.243	0.162
-137.429	169.193	0.285	-0.407
-136.414	-200.000	-0.017	-0.278
-135.399	38.531	-0.118	-0.105
-134.385	-60.211	0.078	0.033
-133.370	39.515	0.036	0.032
-132.356	800.000	-0.078	-0.250
-131.341	-140.131	-0.205	0.022
-130.326	-84.751	-0.141	-0.044
-129.312	95.317	0.284	0.324
-128.297	796.342	-0.029	0.080
-127.283	-96.186	0.130	-0.035
-126.268	63.216	0.012	-0.012
-125.253	-5.932	0.028	-0.019
-124.239	-32.737	0.362	0.201
-123.224	505.346	-0.094	-0.218
-122.210	82.490	0.185	0.201
-121.195	26.540	-0.185	0.155
-120.180	800.000	0.051	0.195
