DTS Sentinel unit serial number:	SN413079Multiplexer serial number:	ORYXHardware model number:	OX4-SRSoftware version number:	ORYX F/W v4.00 Oryx Data Collector v3.7.2.0data status	okinstallation	princeton_trtdifferential loss correction	single-endedforward channel	channel 3reverse channel	N/Adate	2019/09/18time	21:32:35forward acquisition time	60.00reverse acquisition time	0.00gamma	496.2192k internal	0.2345k external	0.2345temperature offset calibration	0.9991default loss term (dB/km)	0.3790temperature slope calibration	1.0000multiplexer offset coefficient	1.0000multiplexer slope coefficient	1.0000fibre end	0.00T internal ref (°C)	25.20T ext. ref 1 (°C)	0.82T ext. ref 2 (°C)	18.30length (m)	temperature (°C)	Stokes	anti-Stokes-747.200	34.738	0.185	0.162
-746.185	116.643	-0.200	0.245
-745.171	61.275	-0.089	0.088
-744.156	-93.172	0.191	-0.053
-743.142	75.190	-0.184	-0.194
-742.127	-200.000	0.002	-0.011
-741.112	248.703	-0.063	0.108
-740.098	-200.000	-0.008	0.126
-739.083	-102.786	0.131	0.031
-738.069	800.000	-0.073	0.293
-737.054	-38.966	-0.174	0.092
-736.039	-93.738	-0.340	0.094
-735.025	87.839	0.254	0.282
-734.010	-63.693	-0.349	0.143
-732.996	-200.000	0.010	-0.292
-731.981	-19.550	-0.056	-0.034
-730.966	-49.269	-0.187	0.089
-729.952	304.810	-0.253	0.469
-728.937	-101.297	-0.396	-0.097
-727.923	171.163	0.139	-0.199
-726.908	800.000	0.030	-0.126
-725.894	800.000	-0.026	0.081
-724.879	-86.279	-0.329	0.101
-723.864	173.114	0.114	-0.164
-722.850	144.239	-0.157	0.209
-721.835	418.152	0.138	0.295
-720.821	356.579	-0.194	0.387
-719.806	-106.202	0.209	-0.047
-718.791	-92.705	-0.082	-0.023
-717.777	483.417	-0.054	-0.122
-716.762	-35.150	-0.212	-0.116
-715.748	155.797	0.093	-0.129
-714.733	-200.000	0.017	0.266
-713.718	-142.082	-0.402	0.040
-712.704	85.237	0.112	-0.123
-711.689	-200.000	0.006	0.134
-710.675	-91.153	-0.172	0.049
-709.660	115.717	-0.142	-0.173
-708.645	800.000	-0.033	0.139
-707.631	-76.227	-0.162	0.057
-706.616	-200.000	-0.014	0.212
-705.602	-132.360	-0.195	0.025
-704.587	-109.339	0.061	-0.013
-703.572	-43.745	-0.078	0.039
-702.558	469.682	-0.052	-0.116
-701.543	-44.737	-0.326	-0.163
-700.529	-133.060	0.178	-0.023
-699.514	-200.000	-0.098	-0.435
-698.499	168.051	0.162	-0.230
-697.485	-200.000	-0.003	0.078
-696.470	-166.422	-0.252	-0.011
-695.456	259.403	-0.078	-0.135
-694.441	152.011	0.288	0.393
-693.426	-200.000	0.007	0.289
-692.412	98.733	-0.060	0.069
-691.397	-119.571	0.092	0.016
-690.383	-200.000	0.023	-0.162
-689.368	-85.212	-0.296	-0.092
-688.354	213.069	-0.128	0.202
-687.339	88.233	-0.217	0.241
-686.324	-11.257	0.062	0.041
-685.310	-35.919	-0.110	0.059
-684.295	-113.092	-0.038	0.008
-683.281	800.000	-0.085	-0.281
-682.266	-55.227	0.340	-0.153
-681.251	778.039	0.073	0.198
-680.237	640.248	-0.024	-0.062
-679.222	-145.683	-0.043	0.004
-678.208	-90.135	0.098	0.028
-677.193	25.567	0.146	0.121
-676.178	800.000	0.036	-0.101
-675.164	-200.000	0.034	0.183
-674.149	685.119	0.196	-0.509
-673.135	50.428	0.138	0.130
-672.120	121.620	-0.238	-0.296
-671.105	-144.808	-0.207	-0.019
-670.091	17.155	0.202	-0.160
-669.076	139.285	0.192	-0.252
-668.062	368.457	-0.071	0.144
-667.047	-200.000	-0.041	0.279
-666.032	-200.000	-0.001	-0.136
-665.018	35.604	-0.268	0.235
-664.003	-154.530	0.294	0.020
-662.989	6.465	0.358	0.265
-661.974	-72.620	-0.244	0.090
-660.959	-200.000	0.033	-0.225
-659.945	-80.244	0.491	-0.164
-658.930	714.156	-0.133	-0.353
-657.916	185.875	-0.176	0.261
-656.901	143.657	0.150	0.199
-655.886	345.086	0.071	0.139
-654.872	-4.143	-0.069	0.047
-653.857	119.123	-0.224	0.276
-652.843	339.778	0.058	-0.113
-651.828	-76.641	-0.285	-0.100
-650.814	8.000	0.175	-0.131
-649.799	-200.000	-0.066	-0.419
-648.784	292.316	-0.090	0.163
-647.770	5.950	-0.123	-0.091
-646.755	-61.206	0.144	-0.061
-645.741	227.607	-0.097	-0.158
-644.726	-200.000	0.025	0.251
-643.711	105.347	-0.180	-0.212
-642.697	82.290	0.124	0.134
-641.682	795.532	0.107	0.293
-640.668	3.149	0.080	-0.058
-639.653	244.043	-0.073	0.121
-638.638	-68.981	0.330	-0.127
-637.624	172.511	-0.247	-0.355
-636.609	674.740	0.062	0.161
-635.595	-187.872	-0.196	-0.003
-634.580	56.522	0.042	-0.041
-633.565	-23.481	-0.169	-0.101
-632.551	336.936	0.082	-0.159
-631.536	125.418	0.199	-0.251
-630.522	-4.771	-0.337	-0.231
-629.507	-103.031	-0.152	-0.036
-628.492	-200.000	-0.000	-0.188
-627.478	2.844	0.172	-0.124
-626.463	-200.000	-0.002	0.029
-625.449	-56.405	-0.273	-0.121
-624.434	-143.670	0.233	0.022
-623.419	256.655	-0.065	0.110
-622.405	50.298	-0.407	0.382
-621.390	-144.664	-0.227	-0.021
-620.376	373.195	-0.103	-0.208
-619.361	-67.093	-0.128	0.050
-618.346	5.074	0.297	-0.218
-617.332	-64.384	-0.160	-0.065
-616.317	-74.575	0.214	0.077
-615.303	-200.000	0.011	-0.224
-614.288	-20.069	0.016	-0.010
-613.273	-136.432	-0.077	-0.009
-612.259	-30.852	-0.241	-0.136
-611.244	45.428	0.165	-0.151
-610.230	62.989	0.114	-0.114
-609.215	-125.620	0.299	0.045
-608.201	69.291	-0.129	-0.132
-607.186	347.333	0.030	0.059
-606.171	800.000	-0.033	-0.099
-605.157	800.000	-0.044	-0.141
-604.142	130.849	0.126	0.161
-603.128	707.821	0.121	-0.319
-602.113	247.776	-0.218	-0.366
-601.098	28.725	-0.127	0.107
-600.084	177.092	-0.033	-0.048
-599.069	-164.006	-0.311	0.014
-598.055	-200.000	-0.001	-0.118
-597.040	-35.554	0.071	0.038
-596.025	342.532	-0.173	-0.336
-595.011	-200.000	0.022	-0.356
-593.996	400.063	0.037	-0.076
-592.982	-37.194	-0.345	-0.184
-591.967	89.788	0.070	-0.078
-590.952	-200.000	0.018	-0.266
-589.938	111.881	-0.229	-0.275
-588.923	-71.667	-0.156	0.058
-587.909	-200.000	-0.020	0.265
-586.894	591.302	-0.038	0.092
-585.879	118.408	0.247	0.303
-584.865	-74.532	0.109	-0.039
-583.850	-200.000	0.028	-0.185
-582.836	-200.000	-0.078	-0.386
-581.821	40.335	0.157	-0.141
-580.806	-50.158	-0.298	-0.140
-579.792	179.185	0.118	-0.171
-578.777	290.093	-0.150	-0.271
-577.763	234.346	-0.110	0.179
-576.748	-200.000	0.059	0.452
-575.733	-140.782	-0.169	0.017
-574.719	-99.725	0.234	0.058
-573.704	800.000	-0.042	0.136
-572.690	-200.000	0.025	0.261
-571.675	-200.000	0.032	0.362
-570.661	800.000	-0.080	0.294
-569.646	5.651	0.061	-0.045
-568.631	-57.723	-0.205	0.089
-567.617	-178.677	0.062	-0.001
-566.602	-64.166	-0.091	0.037
-565.588	800.000	0.087	0.268
-564.573	-200.000	0.119	0.527
-563.558	-147.566	0.152	0.013
-562.544	-137.339	-0.132	0.015
-561.529	-30.907	0.111	-0.062
-560.515	800.000	-0.177	0.559
-559.500	34.773	0.235	0.204
-558.485	101.158	0.130	0.150
-557.471	-126.917	0.233	0.034
-556.456	-102.035	-0.119	0.028
-555.442	-33.701	-0.148	0.081
-554.427	178.712	0.088	0.127
-553.412	-173.904	-0.175	0.005
-552.398	-92.498	-0.336	-0.094
-551.383	120.613	0.195	0.240
-550.369	-126.925	-0.164	-0.024
-549.354	800.000	-0.061	-0.209
-548.339	31.856	-0.233	0.199
-547.325	112.775	0.169	-0.203
-546.310	-74.929	-0.129	-0.046
-545.296	94.525	0.108	-0.122
-544.281	-45.547	-0.081	-0.040
-543.266	-138.990	0.010	0.001
-542.252	163.116	-0.132	0.184
-541.237	-200.000	0.029	-0.141
-540.223	-144.915	-0.190	-0.017
-539.208	79.434	0.240	0.256
-538.193	-52.722	0.205	0.094
-537.179	533.546	0.080	-0.188
-536.164	-48.543	-0.161	-0.077
-535.150	800.000	0.087	0.331
-534.135	16.355	0.162	-0.127
-533.121	-200.000	0.051	0.304
-532.106	-200.000	0.004	0.090
-531.091	141.358	-0.140	0.184
-530.077	119.020	0.062	0.076
-529.062	101.279	0.131	0.151
-528.048	280.054	-0.069	0.121
-527.033	215.833	0.229	-0.362
-526.018	800.000	-0.078	0.223
-525.004	-59.074	-0.293	-0.125
-523.989	116.606	0.095	-0.116
-522.975	565.567	0.072	0.173
-521.960	-130.289	-0.143	-0.019
-520.945	65.894	-0.286	-0.288
-519.931	-200.000	-0.009	0.114
-518.916	24.114	-0.129	0.106
-517.902	-99.098	0.305	-0.076
-516.887	-2.881	0.133	0.092
-515.872	72.726	0.045	-0.046
-514.858	26.872	0.243	-0.202
-513.843	614.443	0.080	-0.200
-512.829	103.304	0.127	-0.148
-511.814	285.484	-0.058	-0.103
-510.799	170.514	-0.164	0.233
-509.785	-101.668	-0.249	0.060
-508.770	-5.459	0.428	-0.291
-507.756	260.426	0.127	-0.218
-506.741	60.858	0.050	0.049
-505.726	-74.207	-0.171	-0.061
-504.712	-111.134	0.243	-0.049
-503.697	44.393	0.061	0.055
-502.683	-75.731	0.114	-0.040
-501.668	-38.073	-0.316	0.166
-500.653	-68.900	-0.085	-0.033
-499.639	-94.095	0.048	-0.013
-498.624	69.996	0.280	-0.286
-497.610	452.955	0.039	-0.086
-496.595	116.036	-0.231	-0.280
-495.581	75.037	-0.157	0.164
-494.566	175.273	0.051	0.074
-493.551	-200.000	0.030	0.249
-492.537	-63.686	-0.162	-0.066
-491.522	-121.075	0.089	-0.015
-490.508	800.000	0.069	0.222
-489.493	7.082	-0.167	-0.124
-488.478	-167.836	0.181	0.007
-487.464	-52.751	0.354	-0.162
-486.449	119.007	-0.191	-0.234
-485.435	-52.491	-0.248	0.114
-484.420	-139.144	-0.222	0.024
-483.405	-106.822	-0.166	-0.037
-482.391	-87.170	0.211	-0.064
-481.376	-119.793	0.335	0.057
-480.362	435.294	-0.151	-0.325
-479.347	80.401	0.118	-0.126
-478.332	-30.501	0.150	-0.084
-477.318	-200.000	-0.012	0.254
-476.303	12.123	0.049	0.037
-475.289	158.645	0.118	0.163
-474.274	-69.089	-0.435	-0.166
-473.259	-27.461	-0.070	0.040
-472.245	-153.310	-0.248	-0.017
-471.230	-130.813	0.171	0.023
-470.216	-52.886	0.239	0.109
-469.201	-58.715	0.106	0.045
-468.186	-71.955	0.079	0.029
-467.172	-178.686	0.269	-0.006
-466.157	124.383	-0.098	0.122
-465.143	203.012	-0.187	-0.286
-464.128	-74.620	-0.177	-0.063
-463.113	-40.615	0.114	0.058
-462.099	800.000	0.052	-0.168
-461.084	98.685	0.075	0.086
-460.070	17.388	-0.103	-0.081
-459.055	-171.621	-0.509	-0.017
-458.040	-200.000	0.006	0.067
-457.026	-70.666	-0.208	-0.078
-456.011	-99.322	-0.084	-0.021
-454.997	40.265	0.136	0.121
-453.982	524.686	0.091	0.213
-452.968	296.260	-0.145	-0.263
-451.953	-159.285	-0.108	-0.006
-450.938	329.248	0.115	-0.218
-449.924	-157.313	0.377	0.023
-448.909	800.000	-0.112	-0.342
-447.895	26.991	-0.096	-0.080
-446.880	800.000	-0.061	-0.178
-445.865	-200.000	0.001	-0.009
-444.851	-74.267	0.065	-0.023
-443.836	-200.000	0.025	-0.123
-442.822	8.859	0.087	-0.065
-441.807	-28.653	-0.058	0.033
-440.792	297.321	0.214	-0.388
-439.778	800.000	-0.061	-0.168
-438.763	83.360	-0.200	-0.216
-437.749	94.228	0.066	0.074
-436.734	503.305	0.066	0.151
-435.719	238.411	0.118	0.194
-434.705	14.914	-0.142	-0.110
-433.690	105.397	0.032	-0.037
-432.676	442.750	0.197	-0.426
-431.661	107.103	0.162	0.190
-430.646	-44.839	-0.114	-0.056
-429.632	-23.231	-0.193	0.115
-428.617	-0.418	0.202	-0.142
-427.603	-181.590	-0.237	0.005
-426.588	423.656	0.076	0.162
-425.573	53.659	-0.128	-0.121
-424.559	-97.680	-0.124	-0.032
-423.544	800.000	-0.044	0.179
-422.530	800.000	-0.032	0.100
-421.515	-46.413	0.165	0.080
-420.500	-33.100	-0.215	0.118
-419.486	-33.232	0.145	-0.079
-418.471	-200.000	-0.039	0.282
-417.457	500.470	-0.086	-0.197
-416.442	800.000	0.115	0.318
-415.428	63.417	-0.019	0.019
-414.413	-57.410	0.089	-0.039
-413.398	597.749	-0.130	0.318
-412.384	177.426	0.075	0.107
-411.369	-74.934	-0.269	0.095
-410.355	-200.000	-0.072	-0.316
-409.340	-154.481	0.028	-0.002
-408.325	-160.286	-0.181	-0.010
-407.311	-129.022	0.193	0.027
-406.296	131.943	-0.043	-0.055
-405.282	-79.695	0.285	0.095
-404.267	46.668	0.293	0.269
-403.252	-200.000	-0.010	-0.141
-402.238	-200.000	-0.048	0.266
-401.223	-134.393	-0.230	-0.028
-400.209	-84.990	0.115	-0.036
-399.194	-200.000	-0.015	0.287
-398.179	36.641	0.348	0.303
-397.165	542.150	-0.034	0.079
-396.150	800.000	-0.069	-0.194
-395.136	-87.574	-0.315	0.094
-394.121	165.666	0.124	0.174
-393.106	-33.960	0.024	0.013
-392.092	178.566	-0.141	-0.203
-391.077	1.571	0.160	-0.114
-390.063	-200.000	-0.026	0.174
-389.048	669.135	0.146	-0.374
-388.033	-31.132	0.332	-0.185
-387.019	30.882	0.165	-0.139
-386.004	-53.345	-0.086	0.039
-384.990	268.642	-0.076	-0.131
-383.975	66.841	0.089	-0.089
-382.960	303.523	0.066	0.120
-381.946	66.540	0.328	0.329
-380.931	-158.386	-0.152	0.009
-379.917	790.026	0.070	-0.189
-378.902	800.000	0.146	-0.455
-377.888	45.857	0.195	-0.178
-376.873	70.425	-0.129	0.131
-375.858	-141.065	0.119	-0.012
-374.844	174.688	-0.232	-0.332
-373.829	-200.000	-0.045	0.371
-372.815	-89.010	-0.230	-0.067
-371.800	-99.364	-0.124	0.031
-370.785	-144.045	-0.436	-0.040
-369.771	-89.906	-0.109	-0.031
-368.756	249.321	0.122	0.204
-367.742	-34.208	-0.227	-0.123
-366.727	-7.890	-0.099	0.066
-365.712	-200.000	-0.061	-0.300
-364.698	-30.109	0.153	-0.086
-363.683	800.000	-0.069	0.285
-362.669	-74.906	-0.170	0.060
-361.654	-200.000	0.004	0.097
-360.639	69.749	0.247	0.251
-359.625	47.260	-0.176	-0.161
-358.610	-54.000	-0.263	-0.118
-357.596	800.000	-0.013	-0.044
-356.581	-200.000	0.004	0.448
-355.566	316.555	-0.175	0.326
-354.552	800.000	-0.061	-0.243
-353.537	124.668	0.117	0.145
-352.523	-44.950	0.273	-0.134
-351.508	-146.946	-0.251	0.021
-350.493	-138.200	-0.119	-0.013
-349.479	278.800	-0.194	-0.341
-348.464	236.196	-0.181	-0.294
-347.450	349.945	0.175	0.340
-346.435	471.341	-0.117	-0.260
-345.420	76.909	0.384	0.402
-344.406	105.702	-0.131	-0.152
-343.391	582.064	0.105	0.253
-342.377	179.249	0.148	0.213
-341.362	141.472	-0.138	-0.180
-340.348	50.154	-0.132	-0.123
-339.333	-79.640	0.212	-0.070
-338.318	-64.832	-0.145	-0.058
-337.304	620.082	0.078	0.194
-336.289	-125.027	-0.418	0.063
-335.275	-43.460	0.038	-0.019
-334.260	-104.520	-0.191	-0.043
-333.245	800.000	0.066	0.260
-332.231	-57.964	-0.306	0.131
-331.216	207.603	0.186	-0.286
-330.202	-85.884	0.263	-0.080
-329.187	-106.077	0.292	-0.065
-328.172	-32.636	0.026	0.014
-327.158	269.016	-0.092	-0.159
-326.143	-65.753	-0.170	0.067
-325.129	-109.407	-0.256	0.053
-324.114	-200.000	-0.042	-0.295
-323.099	800.000	-0.038	0.131
-322.085	-33.796	0.023	0.012
-321.070	-200.000	-0.026	-0.150
-320.056	-200.000	-0.012	0.258
-319.041	-60.808	-0.281	-0.117
-318.026	-76.887	0.295	0.102
-317.012	-120.563	-0.026	-0.004
-315.997	238.695	0.076	0.124
-314.983	415.147	-0.136	-0.286
-313.968	237.779	-0.163	-0.267
-312.953	-200.000	-0.013	-0.216
-311.939	-200.000	-0.041	0.263
-310.924	196.065	0.113	0.170
-309.910	-200.000	0.007	-0.223
-308.895	107.307	0.246	-0.288
-307.880	256.349	-0.047	-0.080
-306.866	-175.383	-0.193	0.005
-305.851	465.276	0.040	-0.088
-304.837	100.769	-0.080	-0.091
-303.822	-78.704	-0.072	-0.024
-302.807	800.000	0.021	0.076
-301.793	800.000	-0.090	-0.246
-300.778	-70.827	-0.174	-0.065
-299.764	-129.804	0.329	0.044
-298.749	-124.199	0.203	-0.031
-297.735	-63.136	-0.203	0.083
-296.720	-1.913	0.214	0.148
-295.705	154.046	0.065	-0.088
-294.691	-63.608	0.284	-0.115
-293.676	-200.000	0.008	0.118
-292.662	75.281	0.111	0.115
-291.647	-41.171	0.225	-0.114
-290.632	-200.000	0.016	-0.304
-289.618	-25.782	0.087	-0.050
-288.603	800.000	-0.034	0.101
-287.589	-54.923	-0.189	0.084
-286.574	-163.941	0.253	0.012
-285.559	-200.000	-0.057	0.268
-284.545	-71.473	-0.182	0.067
-283.530	39.450	-0.185	-0.163
-282.516	239.515	-0.132	0.216
-281.501	-68.740	-0.326	0.124
-280.486	219.703	0.192	-0.302
-279.472	-41.119	0.217	0.110
-278.457	53.077	0.139	0.130
-277.443	-88.616	-0.111	0.033
-276.428	-200.000	0.025	-0.118
-275.413	800.000	0.031	-0.107
-274.399	-200.000	0.015	0.139
-273.384	-46.498	0.310	-0.149
-272.370	32.963	-0.218	-0.186
-271.355	-72.006	-0.591	0.216
-270.340	-155.929	0.450	-0.028
-269.326	277.622	-0.051	0.089
-268.311	-142.975	0.227	-0.022
-267.297	-48.218	-0.147	0.069
-266.282	157.063	-0.220	0.299
-265.267	-92.117	0.177	0.049
-264.253	121.060	0.144	0.175
-263.238	-200.000	-0.037	0.223
-262.224	149.399	-0.164	-0.218
-261.209	-200.000	-0.001	-0.078
-260.195	76.732	-0.184	0.192
-259.180	-63.515	-0.189	-0.076
-258.165	-200.000	0.034	0.278
-257.151	16.297	0.147	-0.114
-256.136	195.164	0.138	-0.205
-255.122	12.821	-0.301	-0.229
-254.107	800.000	0.090	-0.347
-253.092	134.716	0.160	-0.204
-252.078	-99.961	0.164	-0.040
-251.063	125.581	0.415	-0.513
-250.049	20.249	0.131	0.103
-249.034	-84.778	0.140	-0.043
-248.019	-103.349	-0.173	0.040
-247.005	19.316	-0.020	0.016
-245.990	-167.752	0.210	0.008
-244.976	800.000	0.155	-0.479
-243.961	-62.931	0.049	-0.020
-242.946	54.598	-0.069	-0.066
-241.932	230.515	-0.088	0.140
-240.917	67.430	-0.101	0.101
-239.903	281.811	-0.109	-0.191
-238.888	-101.796	-0.204	-0.048
-237.873	64.403	0.108	0.106
-236.859	-117.682	-0.069	-0.012
-235.844	227.289	0.246	0.392
-234.830	-200.000	-0.024	0.426
-233.815	800.000	0.074	0.209
-232.800	112.539	0.147	0.175
-231.786	-166.995	0.397	-0.016
-230.771	-200.000	-0.012	-0.097
-229.757	-200.000	-0.031	-0.188
-228.742	68.088	0.311	0.312
-227.727	-140.463	0.355	-0.036
-226.713	297.122	0.108	0.194
-225.698	80.615	0.162	0.171
-224.684	29.155	-0.449	0.374
-223.669	196.921	-0.144	0.215
-222.655	165.882	0.208	0.289
-221.640	208.062	-0.092	-0.141
-220.625	800.000	0.058	0.179
-219.611	743.808	-0.119	0.313
-218.596	-133.804	0.320	0.039
-217.582	108.139	0.083	0.097
-216.567	89.189	0.133	0.146
-215.552	-200.000	0.061	0.370
-214.538	233.665	0.137	-0.221
-213.523	-36.548	0.217	-0.115
-212.509	-112.117	-0.389	0.077
-211.494	175.586	-0.075	-0.107
-210.479	1.325	0.147	0.104
-209.465	88.110	-0.092	-0.100
-208.450	800.000	0.077	-0.216
-207.436	-156.770	0.040	-0.002
-206.421	-196.356	-0.209	-0.001
-205.406	-85.148	0.148	-0.045
-204.392	674.722	-0.028	-0.071
-203.377	-77.079	-0.193	0.066
-202.363	-121.500	-0.260	-0.042
-201.348	-117.688	0.072	-0.013
-200.333	-59.408	0.137	0.058
-199.319	-200.000	-0.020	0.090
-198.304	56.488	-0.203	-0.194
-197.290	800.000	-0.071	-0.209
-196.275	800.000	-0.087	-0.272
-195.260	127.287	0.066	0.082
-194.246	-2.513	-0.143	0.098
-193.231	800.000	0.027	0.101
-192.217	139.441	-0.192	0.247
-191.202	4.887	0.203	0.146
-190.187	-46.930	0.309	0.148
-189.173	-62.826	0.210	-0.085
-188.158	-47.308	-0.183	0.087
-187.144	107.425	0.218	-0.254
-186.129	412.668	0.071	0.147
-185.114	-65.367	0.116	0.046
-184.100	77.180	-0.128	0.133
-183.085	-103.134	0.216	-0.050
-182.071	221.690	-0.018	0.028
-181.056	-93.724	-0.181	-0.049
-180.042	434.244	0.180	0.383
-179.027	-79.960	-0.355	0.117
-178.012	-45.333	-0.276	0.134
-176.998	800.000	-0.017	-0.070
-175.983	800.000	0.069	0.212
-174.969	-19.403	-0.178	-0.108
-173.954	6.485	0.295	0.214
-172.939	411.577	0.077	0.160
-171.925	800.000	0.076	0.206
-170.910	-163.435	0.122	-0.006
-169.896	292.153	-0.061	-0.109
-168.881	89.053	-0.149	0.162
-167.866	-200.000	-0.026	-0.205
-166.852	145.581	0.098	-0.129
-165.837	439.975	0.152	0.325
-164.823	57.533	-0.229	0.219
-163.808	254.013	0.282	0.472
-162.793	-200.000	0.004	0.098
-161.779	-137.971	-0.168	-0.018
-160.764	361.368	-0.137	-0.268
-159.750	800.000	-0.057	-0.185
-158.735	-167.318	0.320	0.013
-157.720	-5.559	0.172	-0.115
-156.706	-95.062	-0.261	-0.069
-155.691	31.982	0.083	-0.070
-154.677	-200.000	-0.000	0.030
-153.662	-110.447	0.222	0.045
-152.647	-14.195	0.225	0.142
-151.633	335.525	0.082	0.156
-150.618	-140.685	-0.326	0.033
-149.604	-200.000	-0.066	0.301
-148.589	78.790	0.168	-0.176
-147.574	74.566	0.317	0.326
-146.560	-113.596	0.487	0.093
-145.545	-200.000	0.024	0.115
-144.531	-200.000	0.015	-0.068
-143.516	63.634	0.061	-0.060
-142.502	800.000	-0.053	0.148
-141.487	-144.638	0.301	-0.027
-140.472	-200.000	-0.036	0.167
-139.458	-72.115	0.302	0.110
-138.443	800.000	-0.089	0.263
-137.429	228.777	0.115	0.183
-136.414	-157.705	-0.322	-0.019
-135.399	-200.000	0.047	-0.387
-134.385	-200.000	-0.069	0.381
-133.370	65.802	-0.211	0.209
-132.356	-200.000	0.010	0.205
-131.341	275.868	0.086	-0.150
-130.326	-200.000	0.011	0.144
-129.312	-97.596	0.285	0.072
-128.297	348.341	0.158	0.305
-127.283	33.998	0.140	0.119
-126.268	-35.626	-0.217	-0.115
-125.253	-2.298	0.106	0.073
-124.239	800.000	-0.109	0.391
-123.224	-140.469	-0.106	-0.011
-122.210	81.270	0.052	0.055
-121.195	800.000	0.198	0.570
-120.180	-200.000	-0.053	0.234
