DTS Sentinel unit serial number:	SN413079Multiplexer serial number:	ORYXHardware model number:	OX4-SRSoftware version number:	ORYX F/W v4.00 Oryx Data Collector v3.7.2.0data status	okinstallation	princeton_trtdifferential loss correction	single-endedforward channel	channel 3reverse channel	N/Adate	2019/09/17time	01:20:35forward acquisition time	60.00reverse acquisition time	0.00gamma	496.2192k internal	0.2324k external	0.2324temperature offset calibration	0.9944default loss term (dB/km)	0.3790temperature slope calibration	1.0000multiplexer offset coefficient	1.0000multiplexer slope coefficient	1.0000fibre end	0.00T internal ref (°C)	29.50T ext. ref 1 (°C)	0.11T ext. ref 2 (°C)	24.22length (m)	temperature (°C)	Stokes	anti-Stokes-747.200	628.549	0.066	0.169
-746.185	-22.831	-0.136	0.083
-745.171	9.741	-0.279	-0.213
-744.156	154.284	-0.038	-0.053
-743.142	11.940	0.267	0.207
-742.127	-200.000	0.032	0.157
-741.112	59.210	-0.211	0.210
-740.098	-67.817	-0.042	-0.017
-739.083	800.000	-0.018	0.052
-738.069	-92.308	-0.168	0.048
-737.054	-40.777	-0.035	-0.018
-736.039	10.908	0.044	-0.034
-735.025	-90.217	0.230	0.067
-734.010	-22.567	-0.134	-0.082
-732.996	761.773	-0.053	-0.144
-731.981	800.000	0.027	0.090
-730.966	800.000	0.034	0.146
-729.952	-200.000	-0.016	-0.199
-728.937	13.552	-0.271	-0.212
-727.923	-59.520	-0.118	-0.051
-726.908	-9.956	-0.225	-0.151
-725.894	800.000	-0.086	-0.258
-724.879	1.554	0.243	-0.177
-723.864	-39.307	0.093	0.049
-722.850	-46.855	0.354	0.175
-721.835	99.359	-0.204	0.237
-720.821	70.886	-0.097	-0.101
-719.806	-65.061	-0.229	-0.093
-718.791	229.728	-0.069	0.113
-717.777	690.666	0.057	0.151
-716.762	-152.508	0.239	0.017
-715.748	-200.000	0.037	0.213
-714.733	-200.000	0.004	0.134
-713.718	-63.485	0.195	0.081
-712.704	-35.036	-0.063	0.035
-711.689	13.275	-0.034	0.027
-710.675	800.000	0.008	0.026
-709.660	253.716	-0.111	-0.191
-708.645	-200.000	0.001	-0.042
-707.631	-117.155	0.575	0.106
-706.616	-125.297	-0.390	0.060
-705.602	270.113	-0.161	-0.284
-704.587	-22.683	0.300	-0.182
-703.572	466.347	-0.050	-0.113
-702.558	-166.802	-0.113	-0.005
-701.543	-34.147	-0.086	-0.048
-700.529	106.148	0.248	0.296
-699.514	62.324	-0.226	0.227
-698.499	-18.959	-0.244	0.153
-697.485	13.662	-0.362	-0.283
-696.470	139.257	-0.224	-0.297
-695.456	800.000	0.049	-0.176
-694.441	-176.255	-0.290	0.008
-693.426	-200.000	0.016	-0.179
-692.412	-57.506	0.203	0.090
-691.397	-200.000	0.017	0.224
-690.383	800.000	-0.020	-0.086
-689.368	-135.693	0.299	-0.036
-688.354	-200.000	-0.013	0.375
-687.339	800.000	-0.089	-0.311
-686.324	90.224	-0.300	0.338
-685.310	44.127	-0.109	-0.100
-684.295	299.067	-0.067	0.123
-683.281	202.574	-0.267	0.415
-682.266	800.000	-0.087	-0.247
-681.251	241.720	-0.027	-0.046
-680.237	6.653	0.292	-0.219
-679.222	-160.510	-0.298	-0.016
-678.208	-161.894	-0.263	0.013
-677.193	800.000	0.079	-0.267
-676.178	800.000	-0.065	-0.287
-675.164	800.000	-0.118	0.334
-674.149	210.603	-0.067	-0.106
-673.135	128.382	-0.156	-0.200
-672.120	-96.481	-0.177	-0.047
-671.105	800.000	-0.111	-0.389
-670.091	683.570	0.053	-0.138
-669.076	-144.147	0.113	0.011
-668.062	278.868	0.103	-0.185
-667.047	5.199	0.213	-0.158
-666.032	800.000	0.061	-0.262
-665.018	607.644	-0.089	-0.222
-664.003	158.618	-0.117	-0.164
-662.989	-127.867	-0.153	-0.022
-661.974	-200.000	-0.046	0.237
-660.959	-3.856	-0.068	0.048
-659.945	372.920	0.111	0.226
-658.930	327.557	-0.173	0.335
-657.916	-23.181	0.102	0.062
-656.901	65.191	-0.132	-0.135
-655.886	133.806	0.040	-0.052
-654.872	184.137	0.121	0.180
-653.857	494.056	0.232	-0.536
-652.843	701.954	0.057	-0.152
-651.828	-200.000	0.009	-0.120
-650.814	507.730	-0.092	0.215
-649.799	642.975	0.089	0.229
-648.784	-200.000	0.030	-0.155
-647.770	-59.733	0.267	0.115
-646.755	-66.814	-0.102	-0.040
-645.741	-84.616	0.123	-0.039
-644.726	-72.036	-0.091	0.034
-643.711	-73.307	-0.237	0.087
-642.697	200.532	0.099	0.152
-641.682	-54.509	-0.189	0.086
-640.668	-200.000	-0.018	-0.341
-639.653	204.568	-0.295	-0.460
-638.638	-200.000	0.006	0.165
-637.624	-63.490	-0.136	-0.056
-636.609	800.000	0.016	0.053
-635.595	-185.447	0.170	-0.003
-634.580	-200.000	-0.031	-0.195
-633.565	-149.964	-0.202	0.016
-632.551	-71.126	-0.144	0.054
-631.536	-200.000	0.007	0.098
-630.522	-200.000	-0.014	0.089
-629.507	-77.145	0.154	-0.054
-628.492	-200.000	-0.001	-0.118
-627.478	-200.000	-0.051	0.418
-626.463	-50.288	0.187	0.089
-625.449	-200.000	0.005	-0.178
-624.434	-39.247	-0.275	-0.145
-623.419	75.824	-0.261	0.277
-622.405	286.740	-0.227	0.412
-621.390	27.674	0.094	-0.080
-620.376	139.925	-0.095	-0.126
-619.361	326.559	-0.112	-0.216
-618.346	-29.567	0.321	-0.184
-617.332	47.241	0.163	0.152
-616.317	-200.000	0.046	0.276
-615.303	-200.000	0.018	-0.094
-614.288	-89.603	-0.039	0.011
-613.273	800.000	-0.033	0.127
-612.259	-190.685	0.070	-0.001
-611.244	-200.000	-0.016	-0.229
-610.230	-200.000	0.041	-0.407
-609.215	-3.092	0.105	-0.074
-608.201	9.587	0.100	-0.076
-607.186	64.657	-0.131	-0.133
-606.171	-200.000	0.017	-0.243
-605.157	11.354	-0.278	0.214
-604.142	474.845	-0.096	0.216
-603.128	193.120	-0.027	0.041
-602.113	-200.000	-0.006	-0.045
-601.098	-165.468	0.188	0.008
-600.084	-69.158	-0.055	-0.021
-599.069	115.027	-0.133	0.163
-598.055	763.910	-0.061	0.167
-597.040	800.000	0.130	0.381
-596.025	374.305	-0.123	0.252
-595.011	554.646	0.034	0.083
-593.996	78.032	-0.232	0.249
-592.982	-61.106	-0.060	0.025
-591.967	-200.000	0.122	0.001
-590.952	800.000	0.051	0.200
-589.938	316.241	-0.171	-0.324
-588.923	-3.933	0.043	0.030
-587.909	-200.000	-0.068	-0.323
-586.894	-200.000	-0.001	-0.135
-585.879	30.616	0.219	-0.188
-584.865	-90.542	-0.223	0.065
-583.850	-51.240	0.230	0.108
-582.836	165.104	0.197	0.279
-581.821	-200.000	-0.082	-0.393
-580.806	-136.666	0.085	-0.010
-579.792	89.230	0.143	0.160
-578.777	-95.672	0.259	-0.070
-577.763	-200.000	0.003	-0.292
-576.748	-26.340	-0.237	-0.140
-575.733	-144.998	-0.268	-0.025
-574.719	24.099	0.167	-0.138
-573.704	151.076	0.195	-0.266
-572.690	-200.000	0.006	-0.402
-571.675	67.604	0.081	-0.083
-570.661	-74.485	0.172	-0.062
-569.646	-32.311	0.283	0.158
-568.631	-119.366	-0.240	0.042
-567.617	-200.000	-0.008	0.130
-566.602	-83.773	0.137	-0.044
-565.588	800.000	-0.074	0.277
-564.573	8.416	0.126	-0.095
-563.558	-20.745	-0.222	-0.136
-562.544	55.578	-0.136	-0.132
-561.529	-49.326	0.089	0.043
-560.515	-174.644	-0.232	-0.007
-559.500	-200.000	0.009	0.437
-558.485	800.000	0.067	0.196
-557.471	-73.772	-0.229	-0.084
-556.456	85.212	-0.027	-0.030
-555.442	-115.712	-0.366	-0.069
-554.427	278.558	0.112	-0.200
-553.412	-200.000	0.011	0.299
-552.398	800.000	0.067	0.226
-551.383	-58.772	0.124	-0.054
-550.369	800.000	0.120	0.421
-549.354	276.130	0.158	-0.281
-548.339	111.397	-0.164	0.198
-547.325	-11.805	0.161	-0.106
-546.310	556.769	-0.112	0.271
-545.296	64.505	-0.269	-0.272
-544.281	-103.576	0.116	-0.027
-543.266	-65.698	0.228	0.091
-542.252	-155.300	-0.140	-0.009
-541.237	800.000	-0.072	-0.240
-540.223	800.000	-0.105	-0.316
-539.208	-145.484	-0.114	0.010
-538.193	30.314	-0.074	0.063
-537.179	-200.000	-0.005	-0.095
-536.164	209.739	0.124	-0.195
-535.150	-200.000	-0.036	0.259
-534.135	-94.800	0.202	-0.055
-533.121	-200.000	0.004	-0.132
-532.106	244.974	-0.150	-0.252
-531.091	-66.884	-0.323	-0.128
-530.077	800.000	-0.053	-0.158
-529.062	-200.000	-0.008	0.286
-528.048	79.492	-0.139	-0.149
-527.033	-200.000	-0.003	0.134
-526.018	181.519	0.234	0.345
-525.004	800.000	0.075	0.228
-523.989	-200.000	-0.008	0.082
-522.975	149.828	-0.119	0.161
-521.960	-3.305	-0.107	-0.074
-520.945	-23.831	0.339	0.203
-519.931	-77.558	0.185	-0.064
-518.916	-159.010	-0.097	0.005
-517.902	109.494	-0.096	0.116
-516.887	-200.000	0.034	0.271
-515.872	104.046	-0.135	-0.159
-514.858	800.000	0.082	0.315
-513.843	-85.584	-0.060	0.019
-512.829	-200.000	-0.005	-0.042
-511.814	60.617	-0.083	0.083
-510.799	81.855	0.113	-0.122
-509.785	-51.743	-0.047	-0.022
-508.770	329.191	-0.114	0.218
-507.756	-128.844	-0.200	0.028
-506.741	35.916	0.031	0.027
-505.726	-158.417	-0.280	0.016
-504.712	283.324	0.108	-0.193
-503.697	-9.412	-0.246	0.164
-502.683	51.163	0.194	0.184
-501.668	800.000	-0.091	0.348
-500.653	-14.605	0.091	0.059
-499.639	-75.136	-0.346	-0.124
-498.624	395.762	0.149	0.310
-497.610	99.452	-0.053	0.061
-496.595	17.892	0.181	-0.144
-495.581	106.257	-0.006	0.007
-494.566	27.438	-0.274	-0.230
-493.551	116.549	0.027	0.033
-492.537	184.667	-0.052	-0.077
-491.522	117.201	0.117	-0.143
-490.508	154.886	0.182	0.250
-489.493	-85.529	0.210	-0.065
-488.478	800.000	0.097	-0.324
-487.464	49.399	-0.171	0.161
-486.449	276.467	-0.063	0.112
-485.435	-172.812	0.155	0.005
-484.420	470.184	0.018	-0.041
-483.405	-87.435	0.289	-0.088
-482.391	-0.521	-0.215	0.153
-481.376	-200.000	0.069	-0.390
-480.362	46.494	-0.197	-0.182
-479.347	-77.889	0.218	-0.075
-478.332	40.566	-0.299	0.269
-477.318	-112.544	0.289	-0.058
-476.303	-74.575	-0.241	-0.087
-475.289	28.927	0.038	0.032
-474.274	-200.000	-0.015	-0.146
-473.259	195.581	-0.079	0.120
-472.245	800.000	-0.043	-0.155
-471.230	25.345	-0.149	-0.124
-470.216	800.000	0.057	0.172
-469.201	800.000	0.030	-0.101
-468.186	-106.005	-0.175	-0.039
-467.172	-200.000	0.037	0.367
-466.157	800.000	0.077	-0.216
-465.143	-34.678	0.313	0.171
-464.128	99.236	-0.158	-0.183
-463.113	-146.210	0.109	0.010
-462.099	12.279	0.073	0.056
-461.084	800.000	0.046	-0.171
-460.070	207.275	-0.056	-0.087
-459.055	592.991	-0.135	-0.333
-458.040	-84.129	-0.346	-0.109
-457.026	-5.706	0.096	0.066
-456.011	-25.334	0.159	-0.094
-454.997	-69.869	0.100	-0.038
-453.982	800.000	-0.115	0.350
-452.968	-75.984	-0.303	-0.107
-451.953	-84.058	-0.296	-0.094
-450.938	123.070	-0.197	0.246
-449.924	41.066	0.048	0.043
-448.909	-49.961	0.118	-0.056
-447.895	40.918	0.286	0.258
-446.880	800.000	0.091	-0.252
-445.865	-200.000	-0.015	0.346
-444.851	800.000	-0.098	0.363
-443.836	74.022	0.086	-0.090
-442.822	-12.577	-0.150	0.097
-441.807	-106.958	-0.071	-0.016
-440.792	800.000	0.049	-0.152
-439.778	764.567	-0.048	0.130
-438.763	82.652	-0.069	0.075
-437.749	347.719	-0.047	-0.092
-436.734	-9.007	-0.077	-0.052
-435.719	-200.000	-0.082	0.487
-434.705	603.720	0.115	-0.285
-433.690	59.441	-0.251	0.246
-432.676	800.000	-0.126	0.394
-431.661	161.340	0.031	0.043
-430.646	-91.755	-0.374	0.106
-429.632	-3.565	0.051	-0.035
-428.617	-113.121	-0.271	-0.053
-427.603	19.237	0.315	0.252
-426.588	-123.157	0.233	0.037
-425.573	-149.772	0.315	-0.025
-424.559	186.924	0.093	-0.138
-423.544	-55.702	-0.436	-0.194
-422.530	-200.000	0.063	0.427
-421.515	-200.000	0.006	0.130
-420.500	800.000	0.099	-0.278
-419.486	-57.485	-0.176	0.077
-418.471	221.324	0.061	0.097
-417.457	154.531	0.113	0.154
-416.442	-99.228	-0.173	0.043
-415.428	459.662	-0.048	-0.107
-414.413	27.131	-0.170	-0.142
-413.398	-200.000	-0.019	0.096
-412.384	800.000	0.007	0.026
-411.369	-70.062	0.065	0.024
-410.355	-113.231	0.334	0.066
-409.340	133.175	-0.076	0.098
-408.325	17.846	0.147	0.117
-407.311	319.737	0.066	0.125
-406.296	-200.000	-0.035	-0.164
-405.282	-113.794	-0.276	-0.053
-404.267	-70.932	0.154	0.058
-403.252	-152.459	-0.151	0.011
-402.238	392.519	0.102	-0.211
-401.223	26.092	0.037	-0.031
-400.209	-68.281	0.213	-0.083
-399.194	800.000	-0.079	-0.284
-398.179	800.000	-0.080	0.281
-397.165	-22.717	0.115	0.069
-396.150	337.751	0.071	0.138
-395.136	-165.650	0.207	-0.009
-394.121	800.000	0.031	-0.096
-393.106	3.839	0.304	-0.221
-392.092	756.153	0.021	0.057
-391.077	-16.588	-0.229	0.144
-390.063	800.000	-0.080	0.239
-389.048	-128.977	-0.205	0.029
-388.033	-24.969	-0.023	0.014
-387.019	-67.868	-0.287	0.112
-386.004	19.013	-0.214	0.171
-384.990	24.418	0.268	0.221
-383.975	165.013	0.087	0.122
-382.960	-124.989	-0.388	0.059
-381.946	-1.449	-0.189	0.133
-380.931	-200.000	-0.018	-0.134
-379.917	600.433	-0.127	-0.315
-378.902	0.498	0.215	-0.153
-377.888	789.466	0.031	-0.083
-376.873	800.000	0.080	-0.225
-375.858	9.536	0.255	-0.192
-374.844	800.000	0.048	-0.177
-373.829	224.731	-0.065	-0.105
-372.815	-170.083	-0.311	-0.011
-371.800	412.807	-0.086	0.182
-370.785	17.809	-0.094	0.074
-369.771	-200.000	-0.006	0.241
-368.756	-73.064	-0.123	0.045
-367.742	173.402	0.295	0.423
-366.727	-200.000	0.004	0.113
-365.712	-163.827	-0.152	-0.007
-364.698	-200.000	0.041	-0.293
-363.683	39.648	-0.143	-0.127
-362.669	264.486	-0.139	-0.240
-361.654	355.398	-0.087	0.171
-360.639	-80.941	0.226	0.074
-359.625	259.347	0.204	-0.351
-358.610	-90.880	-0.165	-0.047
-357.596	89.098	-0.141	-0.157
-356.581	-56.635	0.316	0.139
-355.566	800.000	0.023	0.074
-354.552	504.712	-0.181	0.417
-353.537	-38.903	0.174	0.091
-352.523	356.821	-0.032	-0.064
-351.508	584.532	-0.024	0.059
-350.493	56.414	-0.031	-0.030
-349.479	315.029	0.115	0.216
-348.464	-112.888	0.465	-0.092
-347.450	-71.010	0.174	0.065
-346.435	800.000	-0.027	0.082
-345.420	-105.375	-0.159	-0.036
-344.406	-94.912	-0.239	-0.064
-343.391	32.497	0.119	-0.102
-342.377	-141.118	-0.563	0.057
-341.362	-17.556	0.118	-0.074
-340.348	26.772	0.290	-0.242
-339.333	116.724	-0.157	0.192
-338.318	313.948	0.035	0.066
-337.304	312.799	-0.075	0.140
-336.289	-12.490	0.077	0.050
-335.275	-146.679	0.360	0.031
-334.260	-200.000	-0.095	-0.455
-333.245	-151.329	-0.256	0.019
-332.231	592.000	0.076	-0.185
-331.216	800.000	0.126	-0.381
-330.202	-131.500	0.299	-0.039
-329.187	269.531	-0.138	0.241
-328.172	800.000	0.060	-0.172
-327.158	-69.210	0.103	-0.039
-326.143	385.813	0.182	0.373
-325.129	-200.000	-0.088	-0.403
-324.114	-200.000	0.006	-0.150
-323.099	-12.067	0.189	0.123
-322.085	-3.790	-0.103	-0.071
-321.070	-1.855	-0.192	0.134
-320.056	-52.473	0.279	-0.128
-319.041	-90.647	-0.363	0.104
-318.026	-0.888	0.308	-0.216
-317.012	-200.000	-0.036	-0.173
-315.997	-161.283	0.184	0.009
-314.983	-59.474	-0.230	0.098
-313.968	-39.078	0.244	-0.127
-312.953	309.311	0.063	-0.117
-311.939	-200.000	0.007	0.117
-310.924	-124.103	0.134	-0.021
-309.910	118.636	-0.075	-0.092
-308.895	-88.325	-0.362	0.107
-307.880	-46.810	0.218	-0.106
-306.866	-29.376	-0.188	0.107
-305.851	-172.592	-0.394	0.012
-304.837	270.077	-0.092	-0.161
-303.822	733.662	-0.068	-0.180
-302.807	28.841	0.155	-0.130
-301.793	-35.305	0.113	-0.061
-300.778	-28.307	0.146	-0.083
-299.764	-63.276	0.012	-0.005
-298.749	-200.000	0.009	-0.102
-297.735	-200.000	0.035	-0.209
-296.720	-178.958	-0.354	0.008
-295.705	-200.000	-0.035	0.254
-294.691	65.192	0.176	0.176
-293.676	-81.262	0.272	0.089
-292.662	159.920	0.399	0.551
-291.647	800.000	0.082	0.324
-290.632	-200.000	0.010	0.097
-289.618	12.006	-0.072	-0.055
-288.603	-129.288	0.134	-0.018
-287.589	401.253	0.219	-0.456
-286.574	-190.837	0.191	0.002
-285.559	116.984	0.237	0.288
-284.545	653.339	-0.085	-0.215
-283.530	-79.778	-0.219	0.073
-282.516	-16.886	0.286	-0.179
-281.501	101.475	-0.192	0.221
-280.486	108.969	0.116	0.138
-279.472	31.241	-0.178	-0.151
-278.457	-12.116	-0.175	0.113
-277.443	-200.000	0.010	0.173
-276.428	800.000	-0.033	-0.121
-275.413	128.509	0.082	0.103
-274.399	-8.224	-0.225	0.150
-273.384	36.477	0.183	-0.160
-272.370	693.439	-0.121	0.314
-271.355	447.777	0.030	0.064
-270.340	-92.246	-0.167	0.047
-269.326	-62.953	0.110	-0.045
-268.311	-200.000	-0.016	-0.231
-267.297	-200.000	-0.037	-0.258
-266.282	379.836	-0.096	-0.195
-265.267	-50.362	-0.163	0.076
-264.253	-116.161	-0.231	-0.043
-263.238	-200.000	-0.007	-0.037
-262.224	7.126	0.164	-0.121
-261.209	800.000	0.051	-0.150
-260.195	-200.000	-0.082	0.413
-259.180	47.252	0.105	0.097
-258.165	-129.451	-0.324	-0.044
-257.151	-89.475	0.081	-0.023
-256.136	2.217	-0.104	-0.075
-255.122	304.628	-0.103	0.189
-254.107	-200.000	0.000	-0.004
-253.092	-35.038	0.317	-0.171
-252.078	-119.983	0.210	-0.036
-251.063	-81.722	-0.490	0.159
-250.049	140.843	0.074	-0.096
-249.034	123.570	0.189	0.235
-248.019	200.229	-0.218	0.332
-247.005	-18.391	0.233	0.144
-245.990	-115.199	0.286	0.054
-244.976	-53.567	-0.274	-0.124
-243.961	60.416	0.146	-0.143
-242.946	40.272	0.114	-0.101
-241.932	-56.591	-0.039	0.017
-240.917	-200.000	-0.003	0.160
-239.903	800.000	-0.095	-0.325
-238.888	-200.000	0.004	-0.073
-237.873	-47.448	0.210	-0.101
-236.859	800.000	-0.022	-0.088
-235.844	-22.148	-0.085	-0.051
-234.830	139.746	0.072	-0.094
-233.815	13.623	0.185	-0.142
-232.800	-200.000	-0.010	-0.051
-231.786	-63.547	-0.397	-0.161
-230.771	-200.000	-0.016	-0.110
-229.757	-66.181	-0.285	0.112
-228.742	-200.000	0.038	0.260
-227.727	-44.635	0.219	-0.108
-226.713	483.037	-0.119	0.267
-225.698	400.671	-0.084	0.174
-224.684	23.169	0.457	0.371
-223.669	-161.267	-0.031	-0.002
-222.655	-156.848	0.108	-0.007
-221.640	184.903	-0.039	-0.057
-220.625	-200.000	-0.009	-0.237
-219.611	3.939	-0.016	0.012
-218.596	-80.767	-0.317	-0.104
-217.582	-200.000	0.021	-0.216
-216.567	-200.000	-0.040	-0.322
-215.552	-200.000	0.002	-0.139
-214.538	-71.949	-0.310	0.114
-213.523	15.992	0.345	-0.268
-212.509	732.118	0.069	0.183
-211.494	-200.000	-0.038	0.320
-210.479	40.010	-0.117	-0.104
-209.465	-1.068	0.078	0.055
-208.450	4.684	0.252	-0.183
-207.436	800.000	0.132	0.473
-206.421	-26.482	0.265	0.154
-205.406	-78.729	0.299	-0.101
-204.392	31.354	-0.303	0.257
-203.377	800.000	-0.023	-0.094
-202.363	101.753	0.117	0.135
-201.348	-200.000	-0.016	-0.140
-200.333	191.276	0.187	0.278
-199.319	-50.064	0.033	-0.016
-198.304	-200.000	0.020	-0.195
-197.290	-137.272	-0.202	0.023
-196.275	90.957	-0.220	0.244
-195.260	-83.113	0.174	0.055
-194.246	281.491	0.159	0.281
-193.231	318.958	-0.127	0.238
-192.217	590.415	-0.078	0.189
-191.202	800.000	0.095	0.402
-190.187	-200.000	0.011	0.073
-189.173	-146.906	0.106	0.009
-188.158	800.000	-0.125	-0.409
-187.144	-113.835	0.310	-0.060
-186.129	-78.436	0.061	-0.021
-185.114	-200.000	0.009	-0.324
-184.100	-200.000	0.007	-0.080
-183.085	-200.000	0.040	-0.310
-182.071	-133.945	-0.209	-0.026
-181.056	-42.730	-0.193	-0.097
-180.042	234.094	-0.299	-0.486
-179.027	211.589	-0.143	-0.223
-178.012	185.100	0.192	0.281
-176.998	39.094	-0.155	-0.136
-175.983	-21.115	-0.162	-0.098
-174.969	-200.000	-0.026	0.267
-173.954	-90.919	0.323	0.092
-172.939	800.000	-0.012	0.042
-171.925	3.208	0.214	-0.154
-170.910	-162.092	0.283	-0.014
-169.896	-200.000	0.035	-0.245
-168.881	-200.000	0.070	-0.592
-167.866	-200.000	0.017	0.150
-166.852	759.907	0.018	-0.049
-165.837	-10.906	0.181	-0.118
-164.823	244.358	0.153	0.254
-163.808	15.330	-0.185	-0.143
-162.793	-200.000	-0.009	-0.257
-161.779	102.027	-0.121	-0.140
-160.764	-134.245	0.244	-0.030
-159.750	-177.829	-0.313	0.007
-158.735	-144.753	0.276	0.025
-157.720	-141.309	0.390	-0.039
-156.706	-43.658	-0.371	-0.185
-155.691	16.189	-0.169	0.132
-154.677	431.036	-0.113	-0.241
-153.662	-40.319	0.380	-0.195
-152.647	-21.857	0.482	-0.289
-151.633	-23.186	0.200	-0.119
-150.618	73.345	-0.102	0.105
-149.604	-39.314	0.080	0.041
-148.589	34.754	-0.070	0.061
-147.574	-85.082	0.128	-0.040
-146.560	800.000	-0.071	0.244
-145.545	-200.000	0.031	-0.176
-144.531	-73.847	-0.298	-0.107
-143.516	-131.135	-0.136	-0.018
-142.502	239.122	0.104	-0.171
-141.487	-200.000	0.059	-0.276
-140.472	38.715	-0.146	0.128
-139.458	-200.000	-0.021	0.219
-138.443	65.456	-0.126	0.126
-137.429	-154.558	0.350	0.023
-136.414	-81.245	0.104	-0.034
-135.399	131.585	0.187	0.237
-134.385	115.832	0.180	0.217
-133.370	-11.369	0.097	0.063
-132.356	-54.868	0.102	-0.046
-131.341	91.881	-0.177	-0.197
-130.326	800.000	-0.100	0.277
-129.312	-200.000	-0.012	-0.301
-128.297	-165.875	0.051	0.002
-127.283	69.126	0.117	-0.118
-126.268	35.530	0.260	0.225
-125.253	-200.000	0.004	-0.061
-124.239	-200.000	-0.008	0.164
-123.224	-107.254	-0.188	0.041
-122.210	-97.763	-0.085	0.022
-121.195	10.198	-0.115	-0.086
