DTS Sentinel unit serial number:	SN413079Multiplexer serial number:	ORYXHardware model number:	OX4-SRSoftware version number:	ORYX F/W v4.00 Oryx Data Collector v3.7.2.0data status	okinstallation	princeton_trtdifferential loss correction	single-endedforward channel	channel 3reverse channel	N/Adate	2019/09/17time	23:40:34forward acquisition time	60.00reverse acquisition time	0.00gamma	496.2192k internal	0.2345k external	0.2345temperature offset calibration	0.9954default loss term (dB/km)	0.3790temperature slope calibration	1.0000multiplexer offset coefficient	1.0000multiplexer slope coefficient	1.0000fibre end	0.00T internal ref (°C)	24.12T ext. ref 1 (°C)	0.17T ext. ref 2 (°C)	17.53length (m)	temperature (°C)	Stokes	anti-Stokes-747.200	91.956	0.104	0.117
-746.185	800.000	-0.070	0.218
-745.171	-125.573	-0.485	0.074
-744.156	-200.000	0.037	0.257
-743.142	479.780	-0.031	0.071
-742.127	384.041	-0.099	-0.204
-741.112	-5.869	-0.180	0.123
-740.098	-89.676	-0.310	-0.091
-739.083	-60.133	-0.139	-0.059
-738.069	-110.693	-0.248	0.051
-737.054	60.382	0.130	0.129
-736.039	-200.000	-0.029	0.364
-735.025	-127.056	-0.068	0.010
-734.010	-200.000	0.004	0.155
-732.996	70.024	-0.258	-0.266
-731.981	-200.000	0.044	-0.363
-730.966	-74.717	0.088	-0.032
-729.952	-129.900	0.108	-0.015
-728.937	278.640	-0.161	0.288
-727.923	-200.000	-0.009	0.139
-726.908	330.262	-0.138	0.265
-725.894	18.115	0.205	0.163
-724.879	-200.000	-0.027	-0.173
-723.864	23.657	0.130	-0.107
-722.850	45.880	-0.175	0.162
-721.835	-53.990	-0.235	0.107
-720.821	-122.401	0.349	-0.057
-719.806	-183.567	-0.312	0.005
-718.791	378.427	0.147	-0.301
-717.777	566.914	-0.152	-0.368
-716.762	-145.574	0.209	0.019
-715.748	538.747	0.038	0.090
-714.733	735.194	-0.119	0.318
-713.718	-200.000	-0.002	-0.202
-712.704	68.761	0.197	0.202
-711.689	-200.000	0.013	-0.124
-710.675	388.122	-0.070	-0.145
-709.660	-200.000	-0.018	-0.258
-708.645	-36.582	0.312	-0.168
-707.631	-27.404	-0.097	-0.056
-706.616	39.399	-0.330	-0.295
-705.602	3.705	0.152	0.111
-704.587	68.667	-0.156	0.159
-703.572	-72.215	-0.476	-0.176
-702.558	-200.000	-0.057	0.362
-701.543	33.401	-0.008	0.007
-700.529	220.913	-0.090	-0.144
-699.514	133.217	-0.128	-0.165
-698.499	-200.000	0.020	-0.153
-697.485	-37.465	0.153	-0.081
-696.470	800.000	-0.156	0.453
-695.456	-200.000	0.002	0.299
-694.441	311.830	-0.103	0.193
-693.426	-200.000	0.031	0.477
-692.412	-105.933	0.295	-0.066
-691.397	87.195	-0.055	-0.061
-690.383	-10.282	0.121	0.080
-689.368	-76.139	-0.213	-0.075
-688.354	189.965	-0.148	0.222
-687.339	-101.029	-0.079	-0.019
-686.324	-75.384	0.360	0.128
-685.310	160.691	0.218	-0.304
-684.295	791.271	-0.028	-0.078
-683.281	800.000	0.021	0.059
-682.266	-85.025	-0.083	-0.026
-681.251	-64.464	-0.181	0.074
-680.237	-200.000	0.019	0.092
-679.222	-200.000	0.014	0.065
-678.208	285.076	-0.121	0.217
-677.193	379.496	-0.128	-0.263
-676.178	188.802	-0.107	-0.159
-675.164	470.589	-0.061	0.136
-674.149	37.676	-0.386	-0.342
-673.135	610.316	-0.052	0.130
-672.120	61.004	-0.018	-0.018
-671.105	75.013	0.110	-0.116
-670.091	-200.000	0.010	-0.133
-669.076	800.000	0.059	-0.166
-668.062	-9.747	0.123	-0.082
-667.047	-200.000	0.070	-0.401
-666.032	19.848	0.165	-0.132
-665.018	800.000	0.056	0.167
-664.003	-200.000	0.007	-0.071
-662.989	167.084	-0.051	0.073
-661.974	-69.572	0.113	0.043
-660.959	-50.893	-0.281	0.132
-659.945	-153.726	0.117	0.008
-658.930	46.041	-0.381	-0.352
-657.916	800.000	0.035	0.147
-656.901	-166.533	-0.149	-0.006
-655.886	-74.813	-0.240	0.086
-654.872	-164.525	0.095	0.004
-653.857	24.270	-0.186	0.153
-652.843	790.742	0.041	-0.112
-651.828	440.497	-0.102	-0.221
-650.814	-27.270	-0.505	-0.293
-649.799	37.363	-0.130	0.115
-648.784	-125.724	-0.234	0.035
-647.770	-200.000	-0.058	-0.326
-646.755	-79.000	-0.203	0.069
-645.741	-96.569	-0.397	0.104
-644.726	-200.000	0.023	-0.138
-643.711	685.979	0.085	-0.222
-642.697	-85.790	-0.269	0.083
-641.682	149.255	0.143	0.192
-640.668	-148.919	-0.236	-0.019
-639.653	91.857	0.187	0.210
-638.638	-83.419	0.406	0.130
-637.624	-28.342	-0.193	0.111
-636.609	3.143	-0.132	0.096
-635.595	198.432	-0.115	-0.176
-634.580	60.751	-0.113	-0.112
-633.565	353.602	0.244	0.483
-632.551	800.000	0.118	-0.436
-631.536	-56.361	0.324	-0.143
-630.522	800.000	-0.074	0.268
-629.507	-4.177	-0.016	-0.011
-628.492	-80.186	-0.092	0.031
-627.478	619.482	0.057	0.143
-626.463	-27.035	-0.225	-0.131
-625.449	-88.739	0.148	-0.044
-624.434	-123.173	0.194	-0.031
-623.419	729.622	0.022	-0.057
-622.405	163.550	0.280	0.393
-621.390	211.555	0.046	-0.072
-620.376	-71.309	-0.025	0.009
-619.361	-145.752	-0.241	0.021
-618.346	223.608	0.211	0.339
-617.332	-200.000	0.029	-0.220
-616.317	-74.789	-0.281	0.100
-615.303	52.715	0.208	-0.198
-614.288	5.008	0.148	-0.108
-613.273	-128.358	0.170	0.024
-612.259	465.276	0.040	-0.089
-611.244	-130.100	-0.098	0.013
-610.230	-111.602	-0.346	0.070
-609.215	14.438	-0.319	0.247
-608.201	-82.120	0.115	0.037
-607.186	-200.000	0.036	0.226
-606.171	-60.001	0.046	-0.019
-605.157	-108.862	-0.166	0.035
-604.142	-1.995	-0.039	-0.027
-603.128	356.246	0.129	0.257
-602.113	-75.269	0.185	0.066
-601.098	-65.852	-0.044	-0.017
-600.084	-110.959	0.068	-0.014
-599.069	-26.614	-0.176	-0.102
-598.055	-55.161	0.269	0.120
-597.040	180.869	0.124	0.181
-596.025	114.142	-0.101	0.123
-595.011	246.921	0.130	0.218
-593.996	6.426	0.235	0.174
-592.982	-177.076	0.204	0.005
-591.967	308.239	0.115	0.213
-590.952	-107.029	-0.338	0.074
-589.938	-33.844	-0.036	0.020
-588.923	116.604	-0.060	-0.073
-587.909	619.411	-0.067	0.168
-586.894	-48.089	0.310	0.149
-585.879	-101.563	0.113	-0.027
-584.865	800.000	-0.071	0.230
-583.850	-123.722	0.193	0.030
-582.836	-187.667	-0.172	0.002
-581.821	51.824	0.206	-0.195
-580.806	256.727	0.034	-0.058
-579.792	571.727	-0.106	-0.256
-578.777	489.519	-0.142	0.323
-577.763	-123.281	-0.306	-0.049
-576.748	40.228	0.196	-0.175
-575.733	523.760	-0.058	0.135
-574.719	800.000	0.124	-0.421
-573.704	800.000	-0.087	0.240
-572.690	-200.000	0.016	-0.092
-571.675	-176.553	0.239	0.006
-570.661	358.890	-0.033	-0.066
-569.646	65.198	-0.149	-0.150
-568.631	-149.436	0.464	-0.037
-567.617	-44.809	-0.210	-0.104
-566.602	800.000	-0.045	0.189
-565.588	326.781	0.210	0.400
-564.573	2.847	0.070	0.050
-563.558	668.174	0.105	0.270
-562.544	20.256	-0.002	0.002
-561.529	33.708	0.239	-0.206
-560.515	-28.468	-0.601	0.345
-559.500	-200.000	0.041	-0.216
-558.485	154.211	0.096	-0.131
-557.471	16.052	-0.133	-0.104
-556.456	116.689	0.208	0.254
-555.442	-112.483	-0.199	0.039
-554.427	-118.080	0.081	0.014
-553.412	-103.062	0.215	-0.051
-552.398	495.201	0.199	0.454
-551.383	45.920	-0.400	-0.368
-550.369	-200.000	0.024	-0.245
-549.354	22.070	-0.181	0.146
-548.339	-98.063	-0.301	-0.077
-547.325	62.573	0.247	-0.245
-546.310	406.554	0.098	-0.206
-545.296	-35.790	-0.256	0.137
-544.281	-44.254	-0.277	0.138
-543.266	-200.000	0.011	-0.071
-542.252	-65.241	0.022	-0.009
-541.237	-85.633	0.052	0.016
-540.223	23.292	-0.159	0.130
-539.208	-43.283	-0.377	0.189
-538.193	98.406	-0.125	-0.142
-537.179	246.636	0.167	-0.280
-536.164	-31.229	-0.294	0.164
-535.150	62.766	0.232	0.230
-534.135	45.401	-0.098	0.090
-533.121	-122.969	-0.128	0.020
-532.106	18.909	-0.244	0.194
-531.091	-12.823	-0.165	0.107
-530.077	-71.313	0.158	-0.059
-529.062	117.231	-0.127	0.155
-528.048	-142.571	0.285	-0.028
-527.033	42.382	-0.060	-0.054
-526.018	-169.979	0.221	-0.008
-525.004	-146.128	0.219	-0.019
-523.989	-76.245	-0.150	0.053
-522.975	63.886	0.078	0.077
-521.960	27.187	-0.077	0.064
-520.945	373.954	-0.157	0.317
-519.931	341.465	-0.118	-0.229
-518.916	-128.200	-0.125	0.018
-517.902	2.634	0.275	-0.198
-516.887	-48.886	0.245	-0.116
-515.872	248.685	0.108	0.181
-514.858	-200.000	-0.032	0.140
-513.843	-12.834	0.234	-0.151
-512.829	141.523	-0.127	-0.167
-511.814	-11.763	-0.051	0.033
-510.799	-200.000	-0.025	0.133
-509.785	-200.000	-0.009	-0.050
-508.770	246.097	0.179	-0.299
-507.756	800.000	0.034	-0.118
-506.741	-5.668	0.364	0.247
-505.726	-200.000	0.014	0.201
-504.712	-194.520	0.191	0.002
-503.697	-200.000	-0.015	-0.128
-502.683	800.000	0.093	-0.335
-501.668	47.503	-0.283	-0.262
-500.653	-50.566	0.218	0.102
-499.639	-27.728	-0.312	0.179
-498.624	-200.000	0.032	0.213
-497.610	-90.077	-0.122	0.035
-496.595	-102.885	-0.236	0.056
-495.581	112.705	0.043	-0.051
-494.566	-200.000	-0.058	0.317
-493.551	-60.959	-0.161	-0.067
-492.537	-90.234	0.479	-0.138
-491.522	168.376	0.183	0.258
-490.508	-200.000	0.004	-0.204
-489.493	-17.505	0.203	-0.126
-488.478	159.340	0.140	-0.193
-487.464	45.601	0.350	0.321
-486.449	18.148	0.042	-0.033
-485.435	-127.732	0.049	0.007
-484.420	-176.703	-0.089	0.002
-483.405	121.862	-0.034	0.041
-482.391	181.517	-0.062	-0.091
-481.376	357.316	-0.120	-0.237
-480.362	-102.609	-0.319	0.075
-479.347	800.000	-0.018	-0.065
-478.332	800.000	-0.062	0.191
-477.318	148.043	0.142	0.190
-476.303	118.763	-0.114	-0.140
-475.289	386.939	-0.068	-0.139
-474.274	123.247	-0.163	0.203
-473.259	-200.000	-0.048	0.360
-472.245	-66.773	-0.114	0.045
-471.230	63.111	0.128	-0.127
-470.216	-95.748	0.225	0.059
-469.201	-71.983	0.288	-0.106
-468.186	96.711	0.171	0.194
-467.172	143.327	0.139	-0.183
-466.157	-200.000	-0.016	0.159
-465.143	-112.033	0.004	-0.001
-464.128	-14.509	-0.316	0.201
-463.113	800.000	-0.060	0.203
-462.099	-54.043	0.212	0.096
-461.084	173.520	-0.087	0.125
-460.070	16.315	0.218	-0.170
-459.055	-200.000	-0.047	0.221
-458.040	-170.218	-0.268	0.009
-457.026	-200.000	0.034	0.185
-456.011	-97.584	-0.278	0.071
-454.997	-92.856	0.192	0.053
-453.982	-58.648	0.093	0.040
-452.968	-109.025	0.170	-0.036
-451.953	-126.207	-0.173	0.026
-450.938	-26.078	0.209	-0.121
-449.924	272.488	-0.188	0.328
-448.909	-165.087	0.165	-0.007
-447.895	49.459	0.170	0.159
-446.880	-101.482	-0.176	0.042
-445.865	-126.383	0.201	-0.030
-444.851	-119.889	-0.067	0.011
-443.836	-94.882	0.086	-0.023
-442.822	-200.000	0.005	0.163
-441.807	800.000	-0.076	-0.229
-440.792	800.000	-0.088	0.266
-439.778	239.177	0.211	0.347
-438.763	-180.939	0.292	0.006
-437.749	35.487	-0.224	0.195
-436.734	-200.000	0.034	-0.161
-435.719	-3.420	0.223	-0.154
-434.705	75.899	-0.222	-0.233
-433.690	-128.753	-0.351	0.049
-432.676	224.225	-0.202	-0.323
-431.661	62.230	-0.102	-0.100
-430.646	28.595	0.229	0.191
-429.632	-184.940	0.074	-0.001
-428.617	-100.121	0.299	-0.074
-427.603	75.515	-0.074	-0.077
-426.588	-200.000	0.015	-0.084
-425.573	239.741	-0.155	-0.256
-424.559	-74.693	-0.162	0.057
-423.544	144.687	0.164	0.217
-422.530	-92.256	0.095	-0.026
-421.515	-61.474	-0.315	-0.131
-420.500	116.799	0.178	-0.216
-419.486	251.903	-0.146	-0.246
-418.471	-200.000	-0.004	-0.274
-417.457	341.000	-0.036	0.070
-416.442	-119.250	-0.294	-0.051
-415.428	29.781	0.279	0.234
-414.413	91.565	-0.351	-0.390
-413.398	-151.739	0.207	0.015
-412.384	-200.000	0.114	0.699
-411.369	127.723	-0.113	-0.141
-410.355	54.501	-0.224	-0.214
-409.340	-88.824	-0.201	-0.059
-408.325	-46.720	-0.308	0.149
-407.311	166.167	0.089	-0.125
-406.296	-159.419	-0.182	-0.010
-405.282	71.187	-0.080	0.082
-404.267	140.564	0.134	0.175
-403.252	350.128	-0.034	0.067
-402.238	2.137	0.111	-0.079
-401.223	-107.624	-0.253	-0.055
-400.209	800.000	-0.214	0.601
-399.194	-149.949	-0.187	0.014
-398.179	271.060	0.246	-0.427
-397.165	408.867	-0.079	0.166
-396.150	-103.268	-0.182	0.042
-395.136	-93.769	0.041	-0.011
-394.121	-200.000	0.005	-0.223
-393.106	-200.000	-0.014	-0.441
-392.092	-200.000	-0.030	-0.169
-391.077	201.659	-0.161	0.245
-390.063	-87.289	-0.337	-0.101
-389.048	33.875	-0.245	0.210
-388.033	-135.036	-0.141	-0.017
-387.019	-200.000	-0.028	-0.178
-386.004	-158.772	-0.119	0.007
-384.990	-99.313	-0.378	-0.094
-383.975	800.000	0.048	-0.185
-382.960	16.759	0.136	0.106
-381.946	35.646	-0.091	0.079
-380.931	-70.168	-0.194	0.073
-379.917	0.362	-0.442	0.311
-378.902	48.480	-0.187	0.173
-377.888	800.000	0.011	-0.041
-376.873	-58.447	0.083	-0.036
-375.858	-151.062	0.400	0.030
-374.844	800.000	0.037	0.112
-373.829	-50.743	-0.133	0.062
-372.815	-99.423	-0.214	0.053
-371.800	234.213	-0.215	0.349
-370.785	28.176	-0.222	-0.184
-369.771	512.229	0.048	-0.111
-368.756	-200.000	0.038	-0.184
-367.742	20.864	0.140	-0.111
-366.727	-63.632	0.110	-0.045
-365.712	97.821	0.155	-0.176
-364.698	800.000	-0.042	0.140
-363.683	-39.342	0.454	0.235
-362.669	78.740	-0.138	-0.146
-361.654	-103.316	-0.299	0.070
-360.639	-97.407	0.134	-0.034
-359.625	57.188	0.246	0.236
-358.610	143.989	0.027	0.036
-357.596	70.395	-0.137	0.140
-356.581	-11.613	0.101	0.065
-355.566	107.700	-0.119	-0.139
-354.552	534.937	0.131	0.306
-353.537	-200.000	0.006	-0.381
-352.523	98.488	-0.046	-0.053
-351.508	-200.000	0.024	-0.263
-350.493	-173.201	-0.191	-0.006
-349.479	-91.803	-0.080	-0.022
-348.464	270.169	-0.141	0.244
-347.450	-47.850	-0.445	0.212
-346.435	-4.229	0.227	-0.154
-345.420	126.966	0.090	-0.112
-344.406	-63.981	-0.158	0.064
-343.391	-46.853	0.253	0.122
-342.377	-108.608	0.052	0.011
-341.362	-147.300	0.233	0.019
-340.348	-88.734	0.313	-0.092
-339.333	708.391	0.061	-0.159
-338.318	-7.757	-0.203	-0.135
-337.304	-89.031	0.281	-0.082
-336.289	245.768	-0.151	-0.250
-335.275	-93.438	0.236	0.064
-334.260	-104.679	0.261	0.059
-333.245	-24.668	-0.014	-0.008
-332.231	-105.675	0.129	0.029
-331.216	590.389	-0.069	0.167
-330.202	-200.000	-0.005	0.082
-329.187	800.000	0.049	0.160
-328.172	98.303	-0.097	-0.110
-327.158	125.019	0.192	-0.238
-326.143	-200.000	-0.010	-0.176
-325.129	-20.248	-0.273	0.166
-324.114	699.172	0.139	0.360
-323.099	-48.076	-0.108	0.051
-322.085	800.000	-0.074	0.224
-321.070	-200.000	0.019	0.125
-320.056	-23.677	-0.186	0.109
-319.041	-173.615	0.393	0.012
-318.026	-200.000	-0.008	0.263
-317.012	304.710	0.131	0.239
-315.997	442.079	0.057	-0.123
-314.983	-172.192	0.290	-0.009
-313.968	9.567	-0.175	-0.130
-312.953	378.413	-0.091	-0.184
-311.939	126.120	0.073	0.090
-310.924	508.390	-0.064	0.146
-309.910	-200.000	0.015	-0.293
-308.895	303.447	0.078	-0.142
-307.880	88.984	0.171	0.187
-306.866	63.092	-0.128	0.126
-305.851	-124.491	-0.359	-0.055
-304.837	800.000	0.041	0.130
-303.822	419.986	-0.053	0.111
-302.807	-52.411	-0.149	-0.068
-301.793	-24.153	0.068	0.040
-300.778	338.383	-0.063	0.121
-299.764	-11.800	-0.120	-0.078
-298.749	-161.412	-0.315	-0.016
-297.735	-106.632	-0.067	0.015
-296.720	3.727	-0.142	-0.102
-295.705	-37.585	0.150	-0.079
-294.691	-200.000	-0.034	-0.445
-293.676	-106.207	0.176	0.039
-292.662	-200.000	-0.012	0.256
-291.647	269.319	0.144	0.249
-290.632	-200.000	-0.001	-0.125
-289.618	-6.133	0.174	0.117
-288.603	81.276	-0.331	0.352
-287.589	96.118	0.147	0.165
-286.574	-99.664	-0.212	-0.052
-285.559	24.274	0.117	-0.095
-284.545	-12.095	0.149	-0.096
-283.530	-200.000	-0.041	-0.302
-282.516	-200.000	-0.006	0.033
-281.501	-72.417	0.062	0.023
-280.486	-53.704	0.093	-0.042
-279.472	-14.163	-0.289	0.183
-278.457	-95.904	0.294	-0.077
-277.443	-200.000	-0.011	0.051
-276.428	254.768	-0.151	-0.255
-275.413	-184.409	0.131	0.002
-274.399	-139.726	-0.189	0.020
-273.384	32.307	0.055	-0.046
-272.370	-96.374	-0.097	0.025
-271.355	104.487	-0.285	0.330
-270.340	800.000	0.034	-0.104
-269.326	15.888	0.198	-0.153
-268.311	168.653	-0.123	0.172
-267.297	800.000	0.075	-0.216
-266.282	330.499	-0.180	-0.341
-265.267	-30.716	-0.180	-0.100
-264.253	-131.386	0.081	-0.010
-263.238	-30.180	0.025	0.014
-262.224	-200.000	-0.022	-0.123
-261.209	-200.000	-0.026	-0.206
-260.195	-200.000	0.013	0.077
-259.180	22.864	-0.224	-0.180
-258.165	54.540	-0.119	-0.113
-257.151	108.861	-0.201	-0.236
-256.136	800.000	-0.066	-0.269
-255.122	-200.000	0.024	-0.254
-254.107	-61.401	-0.268	-0.110
-253.092	-139.922	-0.288	0.030
-252.078	-200.000	0.005	0.253
-251.063	-73.955	-0.102	-0.036
-250.049	145.976	-0.111	-0.146
-249.034	-77.929	0.189	-0.064
-248.019	-120.226	-0.320	-0.054
-247.005	-121.152	0.237	-0.039
-245.990	-94.722	0.100	-0.027
-244.976	-200.000	0.001	0.015
-243.961	800.000	-0.022	0.085
-242.946	-56.508	-0.224	-0.097
-241.932	25.559	-0.040	0.033
-240.917	36.102	-0.167	-0.144
-239.903	213.396	-0.029	-0.045
-238.888	-127.405	-0.130	-0.019
-237.873	39.569	0.156	-0.137
-236.859	-54.999	-0.042	0.019
-235.844	-160.721	0.214	0.011
-234.830	40.695	0.198	0.175
-233.815	-200.000	-0.000	0.144
-232.800	-200.000	-0.013	-0.299
-231.786	-132.356	0.339	0.043
-230.771	271.286	0.082	-0.142
-229.757	157.480	0.145	0.197
-228.742	800.000	-0.029	-0.089
-227.727	-71.506	-0.143	-0.052
-226.713	800.000	-0.086	-0.367
-225.698	-200.000	0.078	0.337
-224.684	-200.000	-0.029	-0.148
-223.669	-200.000	-0.012	0.121
-222.655	-200.000	0.031	-0.261
-221.640	251.956	0.232	-0.387
-220.625	800.000	0.090	-0.279
-219.611	-200.000	-0.003	-0.316
-218.596	-200.000	0.024	-0.172
-217.582	-132.694	-0.242	-0.030
-216.567	-166.045	-0.072	0.003
-215.552	-88.498	0.260	-0.076
-214.538	-159.174	-0.266	0.015
-213.523	666.922	0.100	-0.254
-212.509	-99.559	0.262	-0.064
-211.494	-200.000	0.035	-0.292
-210.479	-200.000	0.005	-0.112
-209.465	-108.841	-0.221	-0.046
-208.450	-103.692	0.126	-0.029
-207.436	-200.000	0.043	-0.325
-206.421	434.422	0.112	0.239
-205.406	-200.000	-0.015	0.119
-204.392	247.951	-0.090	-0.148
-203.377	73.690	0.144	-0.148
-202.363	-110.567	0.179	0.036
-201.348	-77.194	0.129	-0.044
-200.333	21.595	0.218	-0.173
-199.319	141.735	0.156	0.202
-198.304	192.377	0.027	0.039
-197.290	31.809	-0.078	-0.066
-196.275	-105.594	0.417	-0.093
-195.260	-29.754	-0.178	-0.099
-194.246	-39.833	-0.176	-0.090
-193.231	800.000	-0.038	-0.122
-192.217	-188.491	0.196	0.002
-191.202	-200.000	-0.026	-0.115
-190.187	-200.000	0.064	-0.281
-189.173	-51.812	0.165	-0.075
-188.158	62.790	-0.139	-0.136
-187.144	425.355	0.093	-0.196
-186.129	-40.134	0.362	0.185
-185.114	-200.000	0.044	0.282
-184.100	-110.391	-0.078	-0.016
-183.085	-96.332	-0.373	0.097
-182.071	-48.979	0.217	0.102
-181.056	499.357	-0.058	-0.132
-180.042	14.674	0.238	-0.182
-179.027	-126.373	0.171	0.025
-178.012	-80.449	-0.404	0.132
-176.998	-121.739	0.259	-0.042
-175.983	-64.035	0.191	-0.076
-174.969	-137.942	0.288	-0.031
-173.954	-84.319	0.302	-0.093
-172.939	-72.338	-0.358	-0.130
-171.925	-200.000	0.017	-0.194
-170.910	40.550	0.180	0.158
-169.896	-120.627	0.209	0.035
-168.881	-114.912	-0.318	0.059
-167.866	450.395	0.046	0.100
-166.852	-43.825	0.112	-0.055
-165.837	510.664	0.058	0.132
-164.823	-200.000	0.053	0.297
-163.808	62.007	0.253	0.246
-162.793	800.000	-0.040	-0.122
-161.779	-46.654	0.385	-0.184
-160.764	55.295	-0.221	0.209
-159.750	-108.256	0.223	0.047
-158.735	173.364	0.156	-0.221
-157.720	425.429	-0.099	0.209
-156.706	-200.000	-0.038	-0.349
-155.691	578.036	0.063	-0.151
-154.677	149.033	0.258	0.341
-153.662	-120.069	0.238	-0.040
-152.647	-200.000	0.008	-0.097
-151.633	-46.927	-0.389	0.186
-150.618	-200.000	0.010	-0.237
-149.604	-126.408	0.259	0.038
-148.589	-58.252	0.136	0.058
-147.574	-72.651	0.231	0.083
-146.560	-102.920	0.214	0.050
-145.545	800.000	0.020	-0.059
-144.531	-63.713	-0.306	0.123
-143.516	152.614	0.189	0.252
-142.502	-86.816	0.224	-0.067
-141.487	52.143	-0.291	-0.271
-140.472	-200.000	0.027	0.153
-139.458	-200.000	0.039	0.299
-138.443	800.000	0.045	0.174
-137.429	123.008	0.058	-0.071
-136.414	800.000	-0.100	0.345
-135.399	96.037	0.199	0.223
-134.385	36.288	-0.184	0.159
-133.370	-132.332	-0.142	-0.018
-132.356	-200.000	-0.007	-0.274
-131.341	-130.114	0.172	0.023
-130.326	49.559	-0.122	-0.112
-129.312	-47.398	0.102	-0.048
-128.297	424.034	-0.100	-0.211
-127.283	182.242	0.133	-0.191
-126.268	75.277	0.226	-0.233
-125.253	-200.000	0.009	-0.361
-124.239	-200.000	0.042	-0.322
-123.224	-6.434	-0.217	0.144
-122.210	32.924	-0.141	0.119
-121.195	-64.219	-0.253	0.101
