DTS Sentinel unit serial number:	SN413079Multiplexer serial number:	ORYXHardware model number:	OX4-SRSoftware version number:	ORYX F/W v4.00 Oryx Data Collector v3.7.2.0data status	okinstallation	princeton_trtdifferential loss correction	single-endedforward channel	channel 3reverse channel	N/Adate	2019/09/13time	02:32:34forward acquisition time	60.00reverse acquisition time	0.00gamma	496.2192k internal	0.2335k external	0.2335temperature offset calibration	1.0130default loss term (dB/km)	0.3790temperature slope calibration	1.0000multiplexer offset coefficient	1.0000multiplexer slope coefficient	1.0000fibre end	0.00T internal ref (°C)	27.50T ext. ref 1 (°C)	3.98T ext. ref 2 (°C)	22.25length (m)	temperature (°C)	Stokes	anti-Stokes-747.200	-98.725	-0.135	0.035
-746.185	-33.136	-0.218	0.121
-745.171	-200.000	0.001	-0.239
-744.156	-28.673	0.261	-0.151
-743.142	-138.031	-0.257	-0.029
-742.127	-35.794	-0.276	0.150
-741.112	77.036	0.120	-0.128
-740.098	800.000	0.055	0.233
-739.083	156.036	-0.164	0.227
-738.069	73.936	-0.101	0.106
-737.054	11.951	-0.078	0.060
-736.039	245.585	-0.201	-0.340
-735.025	800.000	0.026	0.073
-734.010	795.159	0.112	-0.309
-732.996	14.171	-0.109	0.086
-731.981	-200.000	0.033	-0.534
-730.966	-113.889	0.078	-0.015
-729.952	143.958	-0.122	0.164
-728.937	3.394	-0.174	-0.128
-727.923	36.439	0.114	0.101
-726.908	38.082	0.138	0.123
-725.894	800.000	-0.008	-0.024
-724.879	462.650	-0.114	-0.256
-723.864	-119.825	0.151	0.026
-722.850	-140.169	0.090	0.009
-721.835	-200.000	-0.016	-0.177
-720.821	255.263	-0.068	-0.117
-719.806	800.000	-0.124	-0.421
-718.791	317.387	-0.138	-0.263
-717.777	159.142	0.184	-0.257
-716.762	-81.110	-0.083	-0.028
-715.748	800.000	-0.028	-0.120
-714.733	-100.592	-0.199	-0.049
-713.718	-65.435	-0.251	0.101
-712.704	640.899	0.049	0.126
-711.689	-29.947	-0.325	-0.186
-710.675	388.155	-0.028	0.059
-709.660	53.396	-0.108	-0.104
-708.645	-16.972	0.149	0.095
-707.631	626.831	-0.053	0.135
-706.616	-65.877	-0.222	-0.089
-705.602	353.623	0.034	0.068
-704.587	226.608	-0.111	-0.181
-703.572	394.483	0.273	-0.572
-702.558	209.193	-0.196	-0.308
-701.543	33.206	0.175	-0.153
-700.529	-171.230	-0.093	-0.003
-699.514	19.267	0.053	0.043
-698.499	250.688	0.032	0.055
-697.485	-117.407	0.100	-0.018
-696.470	-31.262	-0.029	0.016
-695.456	203.410	0.341	-0.530
-694.441	173.697	0.101	0.146
-693.426	800.000	-0.053	0.219
-692.412	-35.724	-0.120	-0.065
-691.397	34.741	0.285	-0.250
-690.383	35.870	-0.181	-0.159
-689.368	-52.611	0.034	-0.016
-688.354	800.000	-0.118	-0.431
-687.339	611.946	-0.050	-0.127
-686.324	-29.054	-0.388	-0.223
-685.310	-82.846	0.157	0.051
-684.295	-200.000	0.025	-0.240
-683.281	117.246	0.115	-0.141
-682.266	235.234	0.051	-0.084
-681.251	-73.933	-0.251	-0.091
-680.237	142.927	-0.237	-0.316
-679.222	332.966	0.045	-0.087
-678.208	370.896	0.130	-0.264
-677.193	-200.000	0.049	0.248
-676.178	7.407	0.169	-0.127
-675.164	-136.917	-0.358	-0.041
-674.149	-200.000	0.002	0.157
-673.135	79.605	-0.068	-0.073
-672.120	-25.466	0.242	0.143
-671.105	-93.674	-0.050	-0.014
-670.091	167.074	0.095	-0.135
-669.076	800.000	0.032	0.090
-668.062	-200.000	0.035	-0.328
-667.047	-45.256	0.422	0.210
-666.032	-161.842	-0.208	-0.011
-665.018	800.000	0.059	-0.202
-664.003	-2.255	-0.132	-0.093
-662.989	-11.747	-0.176	-0.116
-661.974	-94.157	-0.249	-0.068
-660.959	116.624	0.286	-0.352
-659.945	212.609	0.044	0.070
-658.930	10.326	0.237	-0.181
-657.916	347.741	-0.049	-0.097
-656.901	141.999	-0.096	0.127
-655.886	-37.711	-0.142	-0.076
-654.872	-5.172	0.073	0.050
-653.857	-200.000	-0.008	-0.187
-652.843	-52.602	0.109	0.050
-651.828	659.942	0.112	0.288
-650.814	-64.775	0.205	0.083
-649.799	324.576	-0.051	-0.097
-648.784	-49.617	-0.198	-0.094
-647.770	397.339	0.166	0.348
-646.755	435.223	0.162	-0.354
-645.741	-100.123	-0.421	0.105
-644.726	-200.000	0.012	-0.105
-643.711	44.394	0.084	-0.077
-642.697	-46.328	-0.223	0.110
-641.682	-34.439	-0.343	-0.188
-640.668	800.000	-0.114	0.320
-639.653	124.657	-0.011	0.013
-638.638	196.093	0.141	0.215
-637.624	-82.493	-0.152	-0.049
-636.609	438.459	0.149	-0.325
-635.595	219.784	-0.136	-0.218
-634.580	133.599	0.154	-0.199
-633.565	-106.450	-0.010	0.002
-632.551	2.913	-0.085	-0.062
-631.536	389.815	0.059	-0.122
-630.522	-200.000	-0.004	-0.183
-629.507	433.350	-0.174	-0.378
-628.492	-130.198	-0.282	-0.038
-627.478	-200.000	-0.079	0.351
-626.463	22.234	-0.101	-0.082
-625.449	28.981	-0.114	0.097
-624.434	-101.910	0.053	0.013
-623.419	54.084	0.121	0.117
-622.405	-200.000	-0.043	-0.356
-621.390	-200.000	0.009	0.164
-620.376	-119.869	0.086	-0.015
-619.361	369.012	-0.120	0.242
-618.346	106.840	-0.188	0.224
-617.332	98.733	-0.230	-0.265
-616.317	66.480	-0.240	-0.244
-615.303	-188.781	-0.367	-0.004
-614.288	46.527	0.190	-0.176
-613.273	109.212	0.116	0.139
-612.259	-87.845	0.359	-0.108
-611.244	260.764	-0.047	-0.081
-610.230	-200.000	-0.059	0.384
-609.215	432.114	-0.047	-0.102
-608.201	-21.124	-0.018	0.011
-607.186	800.000	0.071	-0.199
-606.171	800.000	-0.052	0.145
-605.157	-200.000	-0.027	0.120
-604.142	164.458	-0.123	0.174
-603.128	-200.000	-0.007	-0.295
-602.113	155.429	-0.020	-0.027
-601.098	-200.000	0.025	-0.288
-600.084	800.000	-0.034	0.108
-599.069	68.601	0.103	-0.106
-598.055	-200.000	-0.069	0.335
-597.040	38.725	0.308	0.275
-596.025	64.837	0.225	0.226
-595.011	-50.450	-0.199	0.094
-593.996	111.577	0.153	-0.184
-592.982	-62.792	0.329	0.136
-591.967	-137.545	-0.212	-0.024
-590.952	121.674	0.175	-0.218
-589.938	-94.743	-0.363	0.098
-588.923	-57.403	-0.197	-0.086
-587.909	73.343	0.077	-0.081
-586.894	-51.039	0.121	0.057
-585.879	123.532	-0.164	0.205
-584.865	-168.553	0.303	0.012
-583.850	-200.000	-0.018	0.082
-582.836	-83.344	0.100	-0.032
-581.821	8.764	0.218	-0.164
-580.806	-8.556	0.055	0.037
-579.792	-121.885	-0.141	-0.023
-578.777	-18.825	0.243	0.151
-577.763	98.344	0.163	-0.188
-576.748	87.182	0.185	-0.204
-575.733	-82.188	0.236	0.077
-574.719	-158.933	-0.173	-0.010
-573.704	180.087	-0.094	0.137
-572.690	274.012	-0.069	0.122
-571.675	-3.974	-0.065	-0.045
-570.661	60.641	-0.231	0.229
-569.646	92.129	-0.130	0.146
-568.631	186.183	0.045	0.066
-567.617	68.096	-0.281	0.287
-566.602	-200.000	-0.009	0.060
-565.588	-200.000	-0.018	-0.119
-564.573	-54.336	-0.208	-0.094
-563.558	8.278	-0.419	0.314
-562.544	800.000	-0.043	-0.127
-561.529	241.084	-0.122	-0.203
-560.515	-51.112	-0.116	0.054
-559.500	-46.527	0.103	-0.050
-558.485	-83.736	0.280	-0.089
-557.471	-52.736	0.317	-0.146
-556.456	-78.810	0.017	0.006
-555.442	800.000	0.024	0.082
-554.427	254.618	-0.091	0.156
-553.412	-54.628	-0.032	0.015
-552.398	-46.735	0.249	-0.122
-551.383	459.497	0.136	-0.302
-550.369	-70.091	-0.174	-0.066
-549.354	45.038	0.221	0.203
-548.339	411.037	-0.112	-0.237
-547.325	-200.000	-0.013	-0.089
-546.310	136.935	0.120	0.157
-545.296	-107.958	-0.205	-0.044
-544.281	695.738	-0.051	0.132
-543.266	-118.571	0.109	0.019
-542.252	-116.842	-0.307	-0.056
-541.237	-200.000	-0.036	0.165
-540.223	-23.940	0.177	-0.105
-539.208	-200.000	-0.045	-0.234
-538.193	800.000	0.098	-0.322
-537.179	144.605	-0.283	-0.377
-536.164	371.301	-0.085	0.172
-535.150	123.444	0.114	0.142
-534.135	495.442	0.131	-0.300
-533.121	25.733	-0.069	-0.058
-532.106	-98.812	-0.136	-0.035
-531.091	800.000	0.067	-0.195
-530.077	351.010	0.071	-0.141
-529.062	800.000	0.129	-0.417
-528.048	62.327	0.242	-0.241
-527.033	-111.834	-0.064	0.013
-526.018	396.125	-0.064	0.134
-525.004	-116.661	-0.254	-0.047
-523.989	78.266	0.089	-0.095
-522.975	291.039	0.044	-0.080
-521.960	-200.000	-0.044	0.284
-520.945	-176.324	-0.206	0.005
-519.931	-18.202	0.193	0.120
-518.916	67.440	-0.102	-0.103
-517.902	45.141	-0.053	0.049
-516.887	250.205	-0.148	-0.250
-515.872	459.965	0.145	0.322
-514.858	-82.466	0.223	0.072
-513.843	-76.422	-0.144	0.050
-512.829	-127.434	0.218	0.032
-511.814	-56.963	0.367	-0.161
-510.799	-200.000	-0.019	-0.221
-509.785	-84.707	0.291	-0.091
-508.770	4.086	0.210	0.153
-507.756	-200.000	0.017	0.091
-506.741	-140.196	-0.063	0.007
-505.726	-200.000	-0.025	-0.226
-504.712	-200.000	-0.056	0.335
-503.697	-200.000	0.004	0.039
-502.683	-25.737	0.222	0.131
-501.668	-200.000	0.024	0.295
-500.653	800.000	-0.013	0.043
-499.639	800.000	-0.055	0.178
-498.624	-30.678	-0.138	-0.078
-497.610	-200.000	-0.002	-0.132
-496.595	-145.581	-0.091	-0.008
-495.581	-54.709	-0.283	0.127
-494.566	-143.481	0.037	-0.004
-493.551	-86.350	0.195	0.060
-492.537	461.078	-0.030	0.067
-491.522	-113.352	-0.101	-0.020
-490.508	-116.236	-0.079	-0.015
-489.493	-57.204	-0.230	0.101
-488.478	800.000	0.052	-0.221
-487.464	628.771	0.102	-0.256
-486.449	-200.000	-0.029	0.165
-485.435	100.575	0.133	-0.154
-484.420	164.429	-0.184	-0.258
-483.405	-200.000	-0.013	-0.181
-482.391	-75.130	0.166	0.059
-481.376	64.303	-0.219	-0.219
-480.362	158.161	0.065	-0.090
-479.347	113.169	0.311	0.375
-478.332	-95.863	0.255	-0.068
-477.318	59.792	-0.103	-0.101
-476.303	362.331	-0.070	-0.140
-475.289	111.093	0.129	-0.154
-474.274	181.916	0.203	0.297
-473.259	-15.969	0.122	0.077
-472.245	444.780	0.096	0.210
-471.230	-96.340	-0.194	-0.051
-470.216	-152.519	0.210	-0.015
-469.201	389.516	-0.024	0.049
-468.186	-167.265	0.358	-0.014
-467.172	-200.000	0.018	-0.292
-466.157	-200.000	0.024	-0.297
-465.143	-70.501	0.284	-0.107
-464.128	272.898	0.087	-0.152
-463.113	-93.728	-0.072	0.020
-462.099	-195.559	-0.410	0.003
-461.084	-0.311	0.090	0.064
-460.070	179.212	0.050	0.073
-459.055	800.000	0.120	-0.376
-458.040	44.089	-0.314	0.286
-457.026	73.906	-0.128	-0.133
-456.011	-200.000	0.010	-0.193
-454.997	-8.364	-0.333	-0.223
-453.982	-116.493	-0.034	-0.006
-452.968	-200.000	0.026	-0.195
-451.953	462.964	0.120	-0.267
-450.938	432.165	-0.071	-0.154
-449.924	-200.000	0.028	-0.196
-448.909	800.000	-0.080	0.250
-447.895	-114.059	0.190	-0.037
-446.880	314.836	-0.128	-0.239
-445.865	-200.000	0.031	0.281
-444.851	-101.730	-0.347	0.083
-443.836	612.420	0.144	-0.359
-442.822	-11.946	-0.313	-0.204
-441.807	347.930	-0.062	0.121
-440.792	-127.076	-0.318	-0.046
-439.778	-35.087	0.386	-0.209
-438.763	-200.000	-0.030	0.362
-437.749	225.828	0.062	-0.100
-436.734	-35.945	0.312	-0.167
-435.719	-160.536	-0.299	0.016
-434.705	-200.000	-0.066	0.315
-433.690	477.463	-0.103	0.232
-432.676	-200.000	0.026	-0.239
-431.661	114.179	-0.066	0.080
-430.646	55.425	0.119	-0.115
-429.632	-157.104	-0.003	0.000
-428.617	-3.278	0.116	0.080
-427.603	-200.000	0.023	0.214
-426.588	-200.000	0.053	0.371
-425.573	431.030	-0.104	0.225
-424.559	-26.332	0.400	0.233
-423.544	-82.368	-0.045	-0.015
-422.530	-139.910	-0.219	0.023
-421.515	800.000	-0.052	0.211
-420.500	-136.450	0.135	-0.016
-419.486	-200.000	-0.005	0.153
-418.471	-126.760	-0.149	0.022
-417.457	274.070	-0.070	-0.122
-416.442	-163.372	0.020	-0.001
-415.428	185.992	-0.091	-0.134
-414.413	-89.048	0.207	-0.061
-413.398	-56.571	0.068	-0.030
-412.384	-136.766	-0.373	0.043
-411.369	-4.740	-0.142	0.097
-410.355	-121.947	-0.184	-0.030
-409.340	-200.000	-0.033	0.163
-408.325	800.000	0.072	-0.281
-407.311	155.160	-0.144	-0.196
-406.296	-200.000	-0.030	-0.320
-405.282	-200.000	-0.001	0.172
-404.267	-138.263	-0.318	-0.035
-403.252	-68.736	-0.153	-0.059
-402.238	142.246	-0.042	0.055
-401.223	-200.000	-0.047	-0.264
-400.209	-200.000	0.083	-0.389
-399.194	491.631	-0.095	0.216
-398.179	-44.380	-0.176	0.087
-397.165	-200.000	0.025	0.212
-396.150	52.172	-0.197	0.186
-395.136	-15.912	-0.051	0.032
-394.121	84.071	-0.050	0.054
-393.106	-114.385	-0.194	0.037
-392.092	800.000	0.092	-0.260
-391.077	113.835	0.068	0.082
-390.063	285.970	-0.111	-0.198
-389.048	-51.353	0.188	0.087
-388.033	800.000	-0.063	0.227
-387.019	244.059	-0.133	-0.221
-386.004	55.950	-0.196	0.188
-384.990	-5.764	-0.126	-0.086
-383.975	-66.109	-0.081	0.032
-382.960	800.000	0.057	0.177
-381.946	-86.623	0.425	-0.129
-380.931	-200.000	-0.012	-0.051
-379.917	81.181	-0.146	0.156
-378.902	411.644	0.158	-0.333
-377.888	446.943	-0.050	0.110
-376.873	-130.949	0.343	0.045
-375.858	-54.026	0.364	-0.164
-374.844	273.244	-0.133	-0.233
-373.829	800.000	0.035	-0.099
-372.815	-96.622	0.145	0.038
-371.800	-41.104	0.135	0.069
-370.785	800.000	-0.113	0.372
-369.771	426.920	0.097	0.207
-368.756	279.584	0.106	-0.187
-367.742	84.868	0.161	-0.175
-366.727	-200.000	0.024	-0.182
-365.712	77.216	-0.036	0.038
-364.698	-134.844	-0.157	0.019
-363.683	-167.814	0.085	-0.003
-362.669	3.401	-0.099	-0.071
-361.654	177.400	0.167	0.241
-360.639	-125.055	0.388	-0.059
-359.625	380.955	0.042	0.086
-358.610	-200.000	0.327	-0.000
-357.596	664.618	0.130	0.331
-356.581	284.477	0.070	0.125
-355.566	-3.251	0.209	0.144
-354.552	300.173	0.056	-0.102
-353.537	-200.000	-0.050	0.310
-352.523	-87.344	0.303	0.091
-351.508	30.473	-0.198	0.168
-350.493	17.374	-0.180	-0.141
-349.479	800.000	0.087	-0.293
-348.464	-107.899	-0.238	0.051
-347.450	-200.000	0.043	-0.347
-346.435	-20.261	0.042	0.026
-345.420	-143.009	0.275	0.026
-344.406	-113.083	-0.144	-0.028
-343.391	703.614	0.090	-0.234
-342.377	-200.000	-0.102	0.587
-341.362	-51.938	0.267	0.123
-340.348	-67.031	0.132	0.051
-339.333	-120.316	0.162	-0.027
-338.318	-200.000	0.000	-0.192
-337.304	-82.335	-0.154	-0.050
-336.289	800.000	0.063	0.177
-335.275	-131.140	-0.202	-0.027
-334.260	12.947	0.171	-0.131
-333.245	68.147	-0.225	0.228
-332.231	-92.748	0.280	-0.077
-331.216	-200.000	-0.017	-0.127
-330.202	-200.000	-0.002	0.136
-329.187	-6.401	-0.385	-0.260
-328.172	152.189	-0.071	0.096
-327.158	465.414	-0.117	-0.258
-326.143	158.008	-0.232	0.318
-325.129	112.519	-0.068	0.081
-324.114	-200.000	0.072	0.563
-323.099	-200.000	-0.008	0.357
-322.085	-200.000	0.046	0.236
-321.070	-116.925	0.147	0.027
-320.056	121.906	0.203	0.250
-319.041	-18.579	0.331	-0.204
-318.026	-111.019	-0.093	0.019
-317.012	295.921	-0.065	-0.117
-315.997	-49.438	-0.243	-0.115
-314.983	-7.273	0.330	0.221
-313.968	24.285	-0.050	-0.041
-312.953	15.442	-0.050	0.039
-311.939	-6.271	0.028	0.019
-310.924	-200.000	-0.010	-0.049
-309.910	-10.250	-0.189	-0.124
-308.895	140.349	-0.158	0.206
-307.880	14.295	0.151	0.116
-306.866	185.121	0.107	0.156
-305.851	-200.000	-0.016	-0.317
-304.837	0.243	0.240	0.169
-303.822	-107.388	-0.074	-0.016
-302.807	-70.073	0.195	-0.073
-301.793	-200.000	0.002	0.262
-300.778	-200.000	-0.037	0.228
-299.764	-200.000	0.061	0.281
-298.749	488.365	-0.076	-0.172
-297.735	225.947	0.190	0.304
-296.720	67.029	0.118	0.118
-295.705	-115.075	0.177	0.033
-294.691	75.216	0.192	-0.200
-293.676	206.101	-0.205	0.315
-292.662	110.783	-0.144	-0.171
-291.647	-9.499	-0.047	0.031
-290.632	-158.335	0.286	0.016
-289.618	-104.983	0.305	-0.069
-288.603	121.410	-0.050	-0.061
-287.589	-120.383	-0.238	-0.040
-286.574	-200.000	0.007	-0.533
-285.559	-60.022	-0.184	0.078
-284.545	512.549	-0.173	0.397
-283.530	218.289	-0.138	-0.217
-282.516	-40.029	0.094	-0.049
-281.501	-200.000	0.007	-0.133
-280.486	362.610	-0.081	0.160
-279.472	116.577	-0.204	-0.247
-278.457	-200.000	-0.069	-0.318
-277.443	239.658	0.058	0.095
-276.428	800.000	-0.069	0.214
-275.413	183.521	0.079	0.115
-274.399	133.732	-0.130	0.166
-273.384	-200.000	0.010	-0.313
-272.370	15.920	-0.157	-0.122
-271.355	-158.461	-0.013	-0.001
-270.340	-200.000	-0.001	-0.098
-269.326	-28.764	0.089	0.050
-268.311	-55.125	0.225	-0.100
-267.297	800.000	0.046	-0.164
-266.282	51.343	0.090	-0.085
-265.267	-200.000	0.025	-0.235
-264.253	-107.835	0.013	-0.003
-263.238	-90.984	-0.259	0.073
-262.224	96.933	-0.367	0.415
-261.209	-26.544	0.177	0.102
-260.195	247.480	0.094	-0.157
-259.180	290.254	0.129	-0.231
-258.165	-200.000	0.013	-0.171
-257.151	-200.000	-0.007	-0.232
-256.136	157.583	-0.335	0.457
-255.122	-47.404	-0.012	0.006
-254.107	-42.230	0.132	0.067
-253.092	-30.458	0.242	0.135
-252.078	800.000	0.010	-0.036
-251.063	-141.456	-0.202	0.020
-250.049	152.868	0.180	-0.242
-249.034	-8.472	0.131	-0.087
-248.019	-173.606	-0.230	0.007
-247.005	200.495	0.111	0.167
-245.990	-200.000	0.024	-0.205
-244.976	265.509	0.166	0.286
-243.961	62.077	-0.360	0.354
-242.946	-200.000	-0.021	0.198
-241.932	-200.000	-0.004	-0.026
-240.917	71.851	0.112	0.115
-239.903	-43.018	-0.145	-0.073
-238.888	277.456	-0.065	-0.115
-237.873	-131.511	-0.166	0.022
-236.859	224.508	-0.096	0.153
-235.844	631.328	-0.171	0.427
-234.830	-176.667	-0.288	-0.007
-233.815	-200.000	0.048	0.240
-232.800	-87.017	-0.062	-0.019
-231.786	-139.714	0.074	-0.008
-230.771	-151.665	-0.223	0.016
-229.757	800.000	-0.043	-0.126
-228.742	179.678	-0.158	0.229
-227.727	-144.573	0.327	0.030
-226.713	182.840	-0.067	0.097
-225.698	227.482	-0.081	0.129
-224.684	-200.000	0.005	-0.055
-223.669	-27.191	-0.093	0.053
-222.655	-45.098	-0.077	-0.038
-221.640	-136.149	-0.239	0.028
-220.625	-80.159	0.167	0.055
-219.611	-86.727	0.224	0.067
-218.596	212.270	-0.154	0.239
-217.582	401.724	0.093	-0.192
-216.567	-156.480	-0.099	0.006
-215.552	335.875	0.035	-0.068
-214.538	256.354	-0.100	-0.169
-213.523	32.228	0.140	0.119
-212.509	66.598	-0.103	0.103
-211.494	7.755	-0.098	0.072
-210.479	-200.000	-0.036	0.170
-209.465	111.120	0.063	-0.075
-208.450	-80.654	0.124	-0.041
-207.436	10.854	-0.198	-0.149
-206.421	-54.900	-0.522	-0.232
-205.406	800.000	0.089	0.287
-204.392	-200.000	0.064	-0.296
-203.377	-121.596	0.389	-0.064
-202.363	798.457	-0.023	0.062
-201.348	287.040	-0.116	0.205
-200.333	-46.595	0.191	-0.092
-199.319	136.593	-0.215	-0.276
-198.304	214.814	-0.054	-0.085
-197.290	-119.776	0.440	0.075
-196.275	188.862	-0.229	-0.337
-195.260	66.143	0.060	-0.060
-194.246	597.218	0.069	0.169
-193.231	31.016	0.183	0.154
-192.217	-200.000	-0.027	-0.175
-191.202	497.697	-0.093	0.210
-190.187	-67.025	0.258	0.100
-189.173	-105.175	-0.181	0.041
-188.158	-126.495	0.403	-0.059
-187.144	487.154	0.076	0.171
-186.129	43.028	0.263	0.236
-185.114	-39.147	-0.206	-0.106
-184.100	275.605	0.096	0.167
-183.085	45.844	0.127	-0.115
-182.071	364.855	0.132	0.261
-181.056	221.223	0.049	-0.077
-180.042	-154.791	-0.474	0.031
-179.027	11.299	-0.042	-0.031
-178.012	-76.850	-0.152	-0.052
-176.998	-33.352	0.303	0.165
-175.983	-154.249	0.385	0.026
-174.969	152.732	0.194	0.261
-173.954	-144.689	0.054	-0.005
-172.939	789.846	0.101	-0.273
-171.925	68.856	-0.270	-0.273
-170.910	-75.975	-0.241	0.084
-169.896	-75.195	0.230	-0.081
-168.881	-104.084	-0.166	-0.038
-167.866	205.078	0.137	-0.208
-166.852	752.310	0.107	0.285
-165.837	364.630	-0.110	-0.218
-164.823	800.000	-0.045	0.160
-163.808	16.830	0.092	-0.071
-162.793	-99.067	-0.320	-0.080
-161.779	-141.454	-0.109	0.011
-160.764	-48.811	0.125	-0.059
-159.750	-56.404	0.345	-0.151
-158.735	-4.496	-0.204	0.138
-157.720	74.397	0.091	0.094
-156.706	-35.819	0.258	0.137
-155.691	103.095	-0.047	-0.054
-154.677	800.000	0.038	-0.157
-153.662	51.400	0.272	-0.254
-152.647	250.131	0.011	-0.019
-151.633	-200.000	-0.013	0.092
-150.618	136.823	-0.141	-0.181
-149.604	372.156	-0.097	-0.194
-148.589	800.000	0.108	0.372
-147.574	465.594	0.162	-0.355
-146.560	-128.432	-0.079	0.011
-145.545	254.582	0.043	-0.072
-144.531	239.261	-0.136	0.223
-143.516	190.678	-0.102	-0.150
-142.502	-22.972	0.286	0.169
-141.487	800.000	0.039	-0.154
-140.472	-200.000	0.048	-0.237
-139.458	104.601	0.121	-0.140
-138.443	308.969	-0.021	0.038
-137.429	-91.922	0.361	-0.100
-136.414	-162.285	0.151	0.007
-135.399	55.195	0.221	-0.209
-134.385	-46.047	-0.210	0.101
-133.370	52.271	0.213	-0.200
-132.356	-188.785	-0.232	0.003
-131.341	67.818	0.271	-0.272
-130.326	-200.000	-0.127	0.000
-129.312	35.281	0.225	0.194
-128.297	546.603	0.052	0.122
-127.283	458.777	0.163	-0.356
-126.268	8.550	0.391	-0.289
-125.253	391.156	0.176	-0.358
-124.239	202.360	-0.133	-0.202
-123.224	49.743	-0.119	-0.110
-122.210	-51.963	0.263	-0.120
