DTS Sentinel unit serial number:	SN413079Multiplexer serial number:	ORYXHardware model number:	OX4-SRSoftware version number:	ORYX F/W v4.00 Oryx Data Collector v3.7.2.0data status	okinstallation	princeton_trtdifferential loss correction	single-endedforward channel	channel 3reverse channel	N/Adate	2019/09/16time	00:20:35forward acquisition time	60.00reverse acquisition time	0.00gamma	496.2192k internal	0.2337k external	0.2337temperature offset calibration	0.9947default loss term (dB/km)	0.3790temperature slope calibration	1.0000multiplexer offset coefficient	1.0000multiplexer slope coefficient	1.0000fibre end	0.00T internal ref (°C)	27.69T ext. ref 1 (°C)	9.51T ext. ref 2 (°C)	21.57length (m)	temperature (°C)	Stokes	anti-Stokes-747.200	-100.172	-0.104	0.026
-746.185	-200.000	0.006	0.306
-745.171	-141.110	0.486	-0.050
-744.156	-200.000	0.000	-0.010
-743.142	11.724	0.183	0.141
-742.127	149.821	0.122	0.166
-741.112	-200.000	-0.012	0.406
-740.098	-200.000	-0.091	0.413
-739.083	-62.652	-0.124	-0.052
-738.069	-124.727	0.130	0.020
-737.054	-28.660	-0.136	0.078
-736.039	-18.495	-0.358	-0.224
-735.025	29.716	-0.374	0.320
-734.010	-62.678	-0.092	-0.038
-732.996	-143.528	-0.450	0.043
-731.981	800.000	0.129	0.473
-730.966	-108.866	0.096	-0.021
-729.952	-27.619	-0.168	-0.098
-728.937	-51.559	-0.318	-0.149
-727.923	-5.502	-0.219	0.151
-726.908	-167.734	-0.337	0.013
-725.894	-87.447	-0.368	-0.112
-724.879	-85.885	0.042	-0.013
-723.864	-200.000	0.023	-0.187
-722.850	18.396	-0.048	0.038
-721.835	185.678	-0.137	-0.205
-720.821	242.588	0.091	-0.153
-719.806	80.633	-0.208	-0.225
-718.791	-30.142	-0.253	0.144
-717.777	-198.005	0.226	-0.001
-716.762	-87.033	-0.470	-0.144
-715.748	800.000	-0.036	0.113
-714.733	-200.000	-0.022	0.261
-713.718	389.030	-0.097	0.202
-712.704	8.481	0.190	0.143
-711.689	-200.000	-0.043	0.210
-710.675	-200.000	-0.018	0.148
-709.660	-200.000	0.008	0.187
-708.645	-11.700	0.147	-0.097
-707.631	800.000	0.067	-0.237
-706.616	133.317	-0.059	0.077
-705.602	282.315	0.130	-0.233
-704.587	399.809	-0.044	-0.092
-703.572	-200.000	-0.010	-0.074
-702.558	-81.220	0.064	-0.021
-701.543	144.175	0.151	0.202
-700.529	-7.402	-0.062	0.042
-699.514	-180.365	0.185	-0.004
-698.499	-60.011	0.198	0.085
-697.485	240.903	-0.082	-0.137
-696.470	-119.550	-0.296	-0.051
-695.456	-38.090	0.166	0.088
-694.441	-33.528	-0.129	-0.071
-693.426	292.378	0.015	0.027
-692.412	-117.382	-0.482	-0.087
-691.397	-182.747	0.179	0.003
-690.383	95.100	0.086	0.098
-689.368	190.091	0.052	0.078
-688.354	97.986	-0.202	-0.233
-687.339	-44.784	-0.307	-0.153
-686.324	-48.248	-0.155	-0.075
-685.310	485.825	0.066	0.150
-684.295	28.167	-0.119	0.101
-683.281	-51.341	-0.107	-0.050
-682.266	-200.000	0.026	-0.417
-681.251	610.687	-0.053	-0.133
-680.237	-200.000	-0.019	0.193
-679.222	37.592	-0.150	0.133
-678.208	542.589	0.033	-0.078
-677.193	74.708	0.138	0.146
-676.178	-178.934	-0.189	-0.004
-675.164	-200.000	0.042	-0.265
-674.149	-12.472	0.264	0.173
-673.135	-200.000	0.024	-0.446
-672.120	138.312	0.145	-0.191
-671.105	-200.000	0.004	-0.190
-670.091	-47.311	-0.409	-0.199
-669.076	800.000	0.053	-0.155
-668.062	258.654	0.082	0.141
-667.047	-51.681	0.104	-0.049
-666.032	129.339	0.130	0.167
-665.018	114.207	-0.302	0.368
-664.003	152.460	0.111	-0.152
-662.989	387.817	0.059	0.122
-661.974	383.695	-0.052	0.107
-660.959	-50.163	0.380	0.180
-659.945	109.741	0.036	0.043
-658.930	-56.657	-0.109	-0.048
-657.916	215.089	-0.110	-0.175
-656.901	-85.935	0.130	-0.040
-655.886	-200.000	0.027	-0.245
-654.872	-200.000	-0.058	0.273
-653.857	111.708	0.171	0.207
-652.843	-200.000	-0.019	-0.121
-651.828	-200.000	-0.043	0.305
-650.814	-73.358	0.262	-0.096
-649.799	-54.047	0.198	-0.090
-648.784	-30.437	0.099	-0.056
-647.770	168.436	-0.207	0.295
-646.755	681.437	-0.062	-0.161
-645.741	-137.841	-0.239	0.027
-644.726	-200.000	0.040	-0.422
-643.711	-55.196	0.196	-0.088
-642.697	-155.574	-0.173	0.011
-641.682	-35.993	0.145	0.078
-640.668	-47.860	0.179	0.086
-639.653	-170.201	-0.121	-0.004
-638.638	168.855	0.165	-0.235
-637.624	-164.699	0.096	0.004
-636.609	-129.520	-0.072	-0.010
-635.595	250.640	-0.174	-0.296
-634.580	77.106	0.368	0.391
-633.565	-39.066	-0.294	0.155
-632.551	-200.000	-0.015	0.086
-631.536	-108.203	-0.246	-0.053
-630.522	245.326	0.056	-0.094
-629.507	-132.256	-0.126	0.016
-628.492	-118.428	0.050	0.009
-627.478	-136.404	-0.195	0.023
-626.463	-118.767	0.078	-0.014
-625.449	146.775	-0.161	-0.216
-624.434	-200.000	0.029	-0.164
-623.419	-110.412	-0.287	-0.060
-622.405	-200.000	0.058	-0.315
-621.390	-39.103	0.142	0.074
-620.376	-200.000	0.005	-0.378
-619.361	40.077	0.055	-0.049
-618.346	-97.124	-0.325	-0.085
-617.332	80.380	0.112	-0.121
-616.317	-169.499	-0.130	-0.005
-615.303	-123.954	0.356	0.056
-614.288	-172.062	-0.101	-0.003
-613.273	-168.667	0.101	-0.004
-612.259	-62.546	-0.167	-0.069
-611.244	-200.000	-0.045	0.335
-610.230	85.504	-0.164	-0.180
-609.215	-9.476	-0.073	-0.048
-608.201	-200.000	0.022	0.218
-607.186	-200.000	0.053	0.273
-606.171	-200.000	-0.017	-0.222
-605.157	800.000	0.111	-0.400
-604.142	159.471	-0.146	0.203
-603.128	-11.123	-0.068	-0.045
-602.113	-200.000	0.007	-0.226
-601.098	-135.604	-0.420	0.050
-600.084	-200.000	0.018	-0.154
-599.069	466.230	-0.030	0.067
-598.055	136.153	-0.119	0.155
-597.040	35.102	0.217	-0.190
-596.025	-73.060	-0.113	-0.042
-595.011	800.000	-0.030	-0.099
-593.996	-75.114	0.031	0.011
-592.982	-144.070	0.117	0.011
-591.967	-83.634	-0.360	-0.115
-590.952	703.003	-0.140	0.368
-589.938	42.662	0.131	-0.119
-588.923	77.629	-0.223	-0.237
-587.909	12.885	-0.297	0.229
-586.894	488.049	0.066	-0.150
-585.879	-200.000	0.015	0.168
-584.865	-200.000	0.007	0.175
-583.850	104.732	-0.068	-0.080
-582.836	-39.208	-0.393	0.206
-581.821	-200.000	0.017	-0.166
-580.806	111.506	0.045	-0.055
-579.792	82.891	0.216	0.234
-578.777	107.071	0.156	-0.184
-577.763	-109.374	-0.111	0.023
-576.748	220.170	-0.128	0.204
-575.733	28.526	-0.133	0.112
-574.719	-65.225	-0.106	0.043
-573.704	62.436	-0.284	0.283
-572.690	800.000	-0.058	-0.232
-571.675	-200.000	0.008	-0.142
-570.661	34.182	0.193	-0.167
-569.646	-22.009	0.043	-0.026
-568.631	-47.951	0.495	-0.239
-567.617	774.958	0.043	-0.116
-566.602	-108.388	0.300	0.064
-565.588	-200.000	0.024	0.289
-564.573	-81.110	-0.139	-0.046
-563.558	-117.623	0.173	0.031
-562.544	-5.392	0.213	0.146
-561.529	723.498	-0.065	0.172
-560.515	-5.351	-0.086	0.059
-559.500	231.556	-0.186	0.304
-558.485	-78.322	-0.276	0.094
-557.471	-17.862	0.212	0.133
-556.456	62.829	0.036	0.036
-555.442	99.139	-0.202	-0.233
-554.427	107.454	-0.172	-0.204
-553.412	55.434	-0.227	-0.219
-552.398	-8.580	0.095	0.064
-551.383	1.371	0.213	-0.153
-550.369	-200.000	-0.007	0.102
-549.354	-158.274	-0.434	-0.025
-548.339	-81.431	-0.143	-0.047
-547.325	6.214	-0.189	-0.140
-546.310	-200.000	-0.082	0.389
-545.296	28.925	0.211	0.178
-544.281	-46.043	-0.137	0.067
-543.266	283.044	-0.140	-0.251
-542.252	-112.424	-0.597	0.119
-541.237	476.330	0.209	0.471
-540.223	660.566	0.051	-0.132
-539.208	-200.000	-0.004	0.028
-538.193	-98.572	-0.400	0.102
-537.179	800.000	-0.046	-0.149
-536.164	-112.967	0.111	0.022
-535.150	16.741	0.376	-0.296
-534.135	-200.000	-0.034	-0.188
-533.121	300.287	0.087	0.160
-532.106	-106.720	-0.389	-0.086
-531.091	251.023	0.186	-0.314
-530.077	329.015	-0.060	0.115
-529.062	800.000	-0.040	0.130
-528.048	-66.030	-0.161	-0.064
-527.033	-114.916	0.106	-0.020
-526.018	-42.664	0.160	-0.081
-525.004	-68.543	-0.262	0.101
-523.989	-0.705	0.290	-0.205
-522.975	-38.287	-0.151	-0.080
-521.960	24.402	-0.086	0.071
-520.945	-200.000	-0.007	-0.066
-519.931	-200.000	-0.033	-0.145
-518.916	40.533	0.180	0.162
-517.902	135.389	-0.083	0.108
-516.887	445.131	-0.072	-0.157
-515.872	93.761	0.335	0.377
-514.858	248.332	-0.203	0.341
-513.843	308.762	-0.175	0.326
-512.829	299.562	0.079	-0.145
-511.814	330.743	0.042	0.080
-510.799	604.721	-0.105	0.261
-509.785	-200.000	-0.078	-0.415
-508.770	142.712	0.167	-0.221
-507.756	11.179	-0.311	0.236
-506.741	-200.000	0.011	-0.061
-505.726	-16.171	0.050	0.032
-504.712	-46.246	0.116	-0.057
-503.697	750.465	0.051	-0.136
-502.683	270.427	0.148	-0.258
-501.668	159.788	-0.106	-0.147
-500.653	145.446	-0.132	-0.175
-499.639	800.000	0.031	-0.090
-498.624	483.216	-0.114	0.258
-497.610	159.313	0.114	-0.158
-496.595	409.300	-0.144	0.303
-495.581	-200.000	-0.028	-0.123
-494.566	800.000	-0.108	-0.310
-493.551	11.954	0.153	-0.117
-492.537	-200.000	0.032	0.469
-491.522	250.631	0.098	-0.165
-490.508	-43.162	-0.216	0.109
-489.493	-200.000	-0.031	0.199
-488.478	665.064	-0.148	0.380
-487.464	800.000	0.058	-0.167
-486.449	62.081	-0.146	0.145
-485.435	12.660	0.305	0.234
-484.420	-200.000	-0.014	0.100
-483.405	411.132	-0.201	-0.424
-482.391	98.575	0.065	-0.075
-481.376	299.169	0.164	0.299
-480.362	46.739	-0.090	-0.083
-479.347	-146.849	0.142	-0.012
-478.332	-130.112	0.144	0.020
-477.318	169.028	0.064	-0.091
-476.303	-200.000	-0.038	-0.309
-475.289	800.000	-0.057	0.177
-474.274	61.221	0.158	0.156
-473.259	88.727	0.090	-0.099
-472.245	-49.688	0.203	-0.096
-471.230	8.535	0.143	-0.107
-470.216	-28.343	0.035	0.020
-469.201	-58.779	0.182	-0.078
-468.186	-200.000	-0.003	-0.184
-467.172	133.072	-0.115	0.147
-466.157	800.000	0.093	-0.404
-465.143	800.000	-0.064	-0.277
-464.128	63.553	-0.159	-0.158
-463.113	203.246	-0.071	-0.108
-462.099	-29.474	-0.145	-0.082
-461.084	-200.000	-0.028	0.127
-460.070	570.191	-0.135	-0.327
-459.055	-117.026	0.221	-0.040
-458.040	-3.939	-0.254	0.175
-457.026	-200.000	0.061	-0.375
-456.011	-22.302	0.118	-0.071
-454.997	-200.000	0.014	-0.301
-453.982	17.941	-0.029	-0.023
-452.968	131.931	0.173	-0.221
-451.953	-200.000	0.065	0.355
-450.938	-200.000	0.006	-0.414
-449.924	-200.000	-0.085	-0.470
-448.909	31.762	0.247	0.211
-447.895	-22.500	-0.059	-0.035
-446.880	249.259	0.100	0.169
-445.865	800.000	-0.086	0.245
-444.851	-200.000	0.024	0.310
-443.836	190.061	0.119	0.177
-442.822	800.000	-0.118	-0.348
-441.807	-151.358	0.155	-0.011
-440.792	-66.175	-0.105	0.042
-439.778	-141.785	0.347	0.035
-438.763	-40.839	-0.154	-0.079
-437.749	114.439	-0.098	-0.118
-436.734	-108.020	0.207	-0.045
-435.719	72.216	0.077	-0.079
-434.705	800.000	-0.075	-0.231
-433.690	-200.000	0.022	-0.349
-432.676	-89.730	-0.159	0.046
-431.661	-200.000	-0.011	-0.201
-430.646	-59.369	-0.161	-0.069
-429.632	176.176	-0.151	-0.217
-428.617	50.536	0.266	0.250
-427.603	172.996	-0.025	-0.036
-426.588	-71.188	-0.121	-0.045
-425.573	-200.000	0.043	-0.262
-424.559	501.507	-0.120	0.275
-423.544	-200.000	0.048	0.317
-422.530	-101.091	0.172	-0.042
-421.515	69.827	-0.155	0.159
-420.500	-179.690	0.172	-0.004
-419.486	-19.344	-0.311	0.191
-418.471	558.732	0.051	0.123
-417.457	-98.573	0.319	0.081
-416.442	48.454	0.152	0.141
-415.428	725.660	0.112	0.296
-414.413	-200.000	-0.006	-0.067
-413.398	800.000	0.050	0.139
-412.384	-200.000	0.004	0.159
-411.369	-44.126	-0.085	0.042
-410.355	298.838	-0.119	-0.218
-409.340	74.816	0.231	0.241
-408.325	238.533	0.164	0.269
-407.311	-57.586	-0.136	-0.059
-406.296	-89.870	-0.267	-0.077
-405.282	-101.191	0.280	0.068
-404.267	-200.000	0.001	-0.152
-403.252	-92.141	-0.217	0.061
-402.238	-178.766	0.216	-0.005
-401.223	210.488	0.079	-0.123
-400.209	800.000	0.077	0.241
-399.194	-29.305	-0.178	-0.101
-398.179	-200.000	-0.007	-0.137
-397.165	-112.646	-0.116	0.023
-396.150	-42.909	0.468	0.235
-395.136	-29.687	0.051	0.029
-394.121	-200.000	-0.002	0.200
-393.106	486.829	0.068	0.153
-392.092	-200.000	-0.002	-0.089
-391.077	781.775	-0.086	-0.232
-390.063	-97.878	0.214	-0.055
-389.048	-33.684	0.396	-0.216
-388.033	-10.237	-0.295	0.194
-387.019	-30.809	0.041	-0.023
-386.004	-200.000	0.004	0.280
-384.990	-9.674	-0.201	0.132
-383.975	21.348	-0.098	0.079
-382.960	-118.184	0.082	-0.015
-381.946	-127.431	0.341	-0.049
-380.931	800.000	-0.123	-0.416
-379.917	-29.587	-0.190	-0.108
-378.902	800.000	0.031	-0.129
-377.888	-93.919	-0.169	-0.046
-376.873	384.301	0.170	0.346
-375.858	75.224	-0.208	-0.217
-374.844	-177.272	-0.169	0.004
-373.829	366.206	0.137	-0.273
-372.815	-200.000	0.002	-0.028
-371.800	-100.873	-0.189	-0.046
-370.785	363.392	-0.129	-0.257
-369.771	272.114	0.157	-0.273
-368.756	-114.486	0.394	-0.075
-367.742	-139.288	-0.294	-0.031
-366.727	-200.000	0.016	-0.143
-365.712	-190.608	0.295	0.003
-364.698	-14.332	0.146	0.093
-363.683	-4.064	0.060	0.041
-362.669	248.584	0.187	0.312
-361.654	800.000	-0.028	0.102
-360.639	-110.342	0.413	-0.085
-359.625	53.950	0.164	-0.156
-358.610	57.710	0.108	0.105
-357.596	-46.551	-0.064	0.031
-356.581	-146.963	0.126	0.011
-355.566	-81.499	0.068	-0.022
-354.552	299.303	0.094	0.170
-353.537	236.923	0.188	-0.307
-352.523	-149.174	-0.214	-0.017
-351.508	-200.000	0.013	0.216
-350.493	-77.848	-0.120	-0.041
-349.479	-170.557	0.203	0.007
-348.464	291.584	0.177	0.318
-347.450	224.127	-0.122	0.195
-346.435	246.010	0.151	-0.251
-345.420	800.000	-0.059	-0.221
-344.406	-134.158	-0.129	0.016
-343.391	299.990	0.136	-0.248
-342.377	-120.474	0.196	0.033
-341.362	-20.448	0.070	-0.043
-340.348	237.703	-0.081	0.133
-339.333	-135.541	0.250	0.029
-338.318	-82.935	-0.136	0.043
-337.304	71.936	0.071	0.073
-336.289	51.170	0.275	0.257
-335.275	215.157	-0.077	-0.121
-334.260	-138.441	0.316	0.034
-333.245	-200.000	-0.026	-0.303
-332.231	-63.875	0.284	-0.115
-331.216	-115.649	-0.206	-0.038
-330.202	800.000	0.091	-0.249
-329.187	-198.235	0.286	0.002
-328.172	-94.134	-0.350	-0.095
-327.158	472.784	0.100	0.222
-326.143	-0.912	-0.169	0.118
-325.129	-15.405	0.098	0.062
-324.114	71.773	-0.174	0.179
-323.099	-156.626	0.087	-0.005
-322.085	64.374	-0.107	0.106
-321.070	-92.664	0.319	-0.088
-320.056	54.439	-0.045	0.043
-319.041	-200.000	0.021	0.157
-318.026	45.764	-0.148	0.135
-317.012	-200.000	-0.009	-0.044
-315.997	21.285	-0.165	-0.132
-314.983	-140.362	-0.053	-0.005
-313.968	103.131	-0.245	0.284
-312.953	-200.000	-0.031	-0.152
-311.939	-138.745	0.153	0.016
-310.924	-9.464	-0.251	0.165
-309.910	173.251	0.045	-0.064
-308.895	-3.402	-0.165	0.114
-307.880	83.073	-0.113	-0.121
-306.866	-42.139	0.209	-0.105
-305.851	-95.280	-0.211	0.056
-304.837	-129.750	0.107	-0.015
-303.822	280.781	0.193	0.341
-302.807	-200.000	-0.018	0.111
-301.793	-54.978	-0.072	0.032
-300.778	-159.038	0.335	0.019
-299.764	105.689	-0.063	-0.074
-298.749	58.320	0.103	0.100
-297.735	-200.000	0.041	-0.220
-296.720	507.373	0.074	-0.170
-295.705	107.167	0.174	-0.204
-294.691	-61.785	0.142	-0.059
-293.676	800.000	-0.126	0.371
-292.662	-200.000	0.015	-0.137
-291.647	98.298	-0.189	0.214
-290.632	24.707	-0.310	0.253
-289.618	-14.062	-0.170	0.108
-288.603	800.000	-0.054	0.203
-287.589	119.549	-0.198	0.242
-286.574	203.125	0.079	0.120
-285.559	99.429	-0.280	0.319
-284.545	91.468	0.135	-0.150
-283.530	348.086	-0.068	0.131
-282.516	32.532	0.158	-0.135
-281.501	211.758	-0.134	-0.208
-280.486	191.779	0.101	-0.149
-279.472	-111.546	-0.135	0.027
-278.457	219.030	0.083	-0.132
-277.443	800.000	-0.087	-0.298
-276.428	-95.216	-0.418	-0.111
-275.413	-200.000	0.030	0.522
-274.399	-200.000	0.008	0.249
-273.384	-10.109	0.041	-0.027
-272.370	-110.802	-0.201	-0.041
-271.355	152.702	0.340	-0.458
-270.340	-154.315	-0.436	0.029
-269.326	-71.146	0.292	-0.108
-268.311	-57.735	0.087	0.038
-267.297	-54.152	-0.091	0.041
-266.282	-93.377	-0.085	0.023
-265.267	607.888	-0.215	0.527
-264.253	-200.000	0.008	0.129
-263.238	-101.147	-0.325	0.078
-262.224	243.736	-0.214	0.354
-261.209	63.120	0.147	0.145
-260.195	49.922	-0.188	0.175
-259.180	-200.000	0.044	-0.538
-258.165	-200.000	0.017	0.161
-257.151	218.220	-0.034	0.054
-256.136	80.177	-0.185	0.196
-255.122	800.000	-0.086	-0.316
-254.107	5.810	0.139	-0.101
-253.092	-10.261	0.229	0.149
-252.078	-178.237	-0.211	-0.005
-251.063	-200.000	0.023	0.113
-250.049	-12.518	-0.068	0.044
-249.034	800.000	0.079	-0.257
-248.019	-77.023	0.168	-0.058
-247.005	371.656	-0.063	0.127
-245.990	-22.020	0.258	-0.154
-244.976	-63.127	0.176	0.071
-243.961	-122.906	-0.257	0.041
-242.946	176.921	0.033	0.048
-241.932	260.994	0.179	0.304
-240.917	16.039	-0.220	-0.171
-239.903	-160.181	-0.475	-0.025
-238.888	-200.000	-0.083	-0.386
-237.873	-200.000	-0.007	-0.234
-236.859	199.907	0.125	0.189
-235.844	-11.076	-0.238	-0.155
-234.830	-68.028	0.327	-0.125
-233.815	-200.000	0.014	-0.168
-232.800	-16.011	-0.135	-0.085
-231.786	-109.572	-0.226	-0.047
-230.771	-30.203	0.203	0.113
-229.757	-166.829	0.033	-0.001
-228.742	-198.804	0.139	-0.001
-227.727	-135.498	-0.152	-0.018
-226.713	95.120	0.237	0.265
-225.698	-200.000	0.017	0.118
-224.684	800.000	-0.066	0.223
-223.669	800.000	0.053	-0.147
-222.655	-200.000	-0.014	0.149
-221.640	-200.000	-0.023	-0.121
-220.625	229.099	0.094	-0.150
-219.611	447.484	-0.143	0.310
-218.596	-0.522	-0.178	0.124
-217.582	193.545	-0.062	0.093
-216.567	-49.048	0.366	-0.172
-215.552	84.876	0.037	0.040
-214.538	304.529	-0.064	0.117
-213.523	-48.471	-0.302	0.143
-212.509	-200.000	0.047	0.223
-211.494	-126.994	-0.175	-0.025
-210.479	-7.068	0.134	0.090
-209.465	162.923	0.106	0.147
-208.450	-111.113	0.294	0.059
-207.436	7.120	0.206	0.151
-206.421	-181.221	-0.259	-0.005
-205.406	-200.000	0.001	-0.025
-204.392	-87.104	-0.289	0.086
-203.377	-91.419	0.228	0.064
-202.363	-200.000	-0.011	-0.229
-201.348	-60.568	0.304	-0.127
-200.333	16.912	0.159	0.123
-199.319	-124.455	0.120	-0.018
-198.304	493.193	-0.167	0.375
-197.290	112.841	-0.026	-0.030
-196.275	55.244	0.296	-0.282
-195.260	-24.952	-0.239	0.139
-194.246	-7.418	0.031	-0.021
-193.231	800.000	-0.019	0.056
-192.217	366.805	0.051	-0.101
-191.202	43.990	0.257	0.231
-190.187	-57.958	-0.101	0.043
-189.173	-6.457	0.226	-0.151
-188.158	800.000	-0.090	-0.291
-187.144	-46.663	-0.206	-0.099
-186.129	-76.517	-0.286	-0.099
-185.114	-17.264	0.282	-0.175
-184.100	86.133	-0.179	-0.194
-183.085	17.985	-0.044	0.035
-182.071	183.174	0.087	0.126
-181.056	800.000	0.093	0.323
-180.042	-18.809	0.394	-0.241
-179.027	-200.000	-0.015	-0.078
-178.012	-44.213	0.217	0.107
-176.998	800.000	0.064	-0.242
-175.983	228.123	0.025	0.040
-174.969	98.462	-0.159	-0.180
-173.954	6.086	0.162	0.118
-172.939	466.120	-0.141	0.309
-171.925	74.215	0.081	0.084
-170.910	42.774	0.062	-0.055
-169.896	361.993	0.158	0.312
-168.881	68.083	0.035	-0.035
-167.866	-37.642	-0.105	-0.055
-166.852	64.106	0.289	0.285
-165.837	-74.839	-0.373	0.131
-164.823	41.045	-0.238	0.211
-163.808	79.382	0.165	-0.173
-162.793	-200.000	0.003	0.178
-161.779	-30.026	0.067	0.037
-160.764	791.296	-0.051	0.136
-159.750	39.409	-0.243	-0.214
-158.735	-104.924	0.264	0.059
-157.720	-123.764	0.068	0.011
-156.706	81.928	-0.165	-0.176
-155.691	121.601	0.180	-0.220
-154.677	-200.000	0.035	0.190
-153.662	-105.272	0.188	0.042
-152.647	-105.928	0.272	-0.060
-151.633	800.000	-0.026	-0.091
-150.618	177.361	-0.062	0.089
-149.604	800.000	-0.011	0.031
-148.589	31.298	0.038	0.032
-147.574	94.735	0.214	0.238
-146.560	49.626	0.308	-0.285
-145.545	-179.320	0.293	0.006
-144.531	-51.910	0.170	-0.078
-143.516	24.362	-0.031	-0.025
-142.502	-41.233	0.164	0.083
-141.487	-122.919	-0.089	0.014
-140.472	-200.000	-0.009	0.225
-139.458	166.115	0.260	-0.360
-138.443	210.730	-0.303	-0.466
-137.429	430.962	0.065	-0.138
-136.414	118.331	0.083	0.101
-135.399	-144.233	-0.027	0.003
-134.385	-200.000	-0.013	-0.060
-133.370	-93.338	0.291	0.079
-132.356	27.866	0.269	-0.222
-131.341	183.604	-0.055	0.079
-130.326	142.811	-0.182	-0.237
-129.312	14.980	-0.108	0.083
-128.297	-200.000	0.056	-0.283
-127.283	-142.051	0.231	-0.023
-126.268	-67.559	0.132	0.051
-125.253	-8.184	0.104	0.069
-124.239	286.618	0.071	0.126
-123.224	-114.000	0.069	0.013
-122.210	-147.677	0.377	-0.031
-121.195	75.053	0.156	-0.162
