DTS Sentinel unit serial number:	SN413079Multiplexer serial number:	ORYXHardware model number:	OX4-SRSoftware version number:	ORYX F/W v4.00 Oryx Data Collector v3.7.2.0data status	okinstallation	princeton_trtdifferential loss correction	single-endedforward channel	channel 3reverse channel	N/Adate	2019/09/14time	10:44:35forward acquisition time	60.00reverse acquisition time	0.00gamma	496.2192k internal	0.2302k external	0.2302temperature offset calibration	1.0060default loss term (dB/km)	0.3790temperature slope calibration	1.0000multiplexer offset coefficient	1.0000multiplexer slope coefficient	1.0000fibre end	0.00T internal ref (°C)	35.44T ext. ref 1 (°C)	4.28T ext. ref 2 (°C)	32.71length (m)	temperature (°C)	Stokes	anti-Stokes-747.200	800.000	-0.050	-0.224
-746.185	-200.000	-0.035	0.331
-745.171	387.421	-0.042	-0.089
-744.156	22.431	-0.113	0.094
-743.142	403.442	-0.035	0.075
-742.127	-80.022	0.221	0.076
-741.112	-131.972	0.199	0.026
-740.098	-200.000	-0.033	0.396
-739.083	171.581	-0.133	0.194
-738.069	-139.248	0.178	-0.020
-737.054	-200.000	0.023	0.145
-736.039	-95.269	-0.509	0.140
-735.025	47.831	-0.118	-0.112
-734.010	-21.115	-0.392	-0.245
-732.996	-200.000	-0.006	-0.273
-731.981	800.000	-0.036	-0.150
-730.966	-112.672	0.062	0.013
-729.952	-117.606	0.370	0.068
-728.937	-79.162	-0.139	-0.048
-727.923	-200.000	0.011	-0.210
-726.908	597.427	-0.095	0.239
-725.894	-145.196	0.168	-0.016
-724.879	20.231	0.190	0.156
-723.864	800.000	0.131	-0.383
-722.850	167.153	0.125	0.180
-721.835	127.210	-0.126	0.163
-720.821	-81.091	0.270	-0.091
-719.806	123.506	-0.136	-0.173
-718.791	-109.918	-0.157	0.034
-717.777	51.192	-0.263	0.254
-716.762	-72.471	-0.216	0.081
-715.748	404.428	0.058	-0.123
-714.733	140.574	-0.010	0.013
-713.718	-200.000	-0.050	-0.306
-712.704	384.509	-0.071	-0.148
-711.689	-12.522	0.115	0.077
-710.675	-1.734	0.188	0.135
-709.660	-26.861	0.207	-0.123
-708.645	115.300	-0.197	-0.245
-707.631	-4.008	0.181	-0.128
-706.616	-195.605	0.274	-0.002
-705.602	63.820	0.173	0.177
-704.587	12.177	-0.254	-0.199
-703.572	212.245	0.061	0.097
-702.558	-37.435	-0.030	0.016
-701.543	-100.428	-0.137	0.035
-700.529	-0.588	-0.011	-0.008
-699.514	-200.000	-0.015	0.207
-698.499	35.544	-0.202	0.180
-697.485	163.762	-0.242	0.346
-696.470	252.387	0.134	0.233
-695.456	800.000	0.022	-0.070
-694.441	-78.413	0.355	-0.124
-693.426	40.841	-0.440	0.404
-692.412	800.000	-0.162	-0.521
-691.397	-200.000	-0.010	-0.205
-690.383	116.018	-0.181	-0.225
-689.368	800.000	0.116	0.454
-688.354	67.512	0.204	-0.212
-687.339	800.000	0.104	0.417
-686.324	-192.643	-0.122	-0.001
-685.310	94.968	0.126	-0.146
-684.295	614.190	0.046	-0.117
-683.281	-125.127	-0.212	0.033
-682.266	470.498	0.100	0.230
-681.251	-189.226	-0.194	-0.002
-680.237	800.000	-0.070	-0.278
-679.222	127.792	0.069	0.090
-678.208	104.333	0.200	0.240
-677.193	241.383	-0.043	-0.073
-676.178	800.000	0.036	-0.141
-675.164	-125.158	-0.256	-0.040
-674.149	142.369	0.039	0.052
-673.135	135.018	-0.234	-0.308
-672.120	800.000	0.060	-0.264
-671.105	-200.000	0.016	0.205
-670.091	147.073	-0.098	-0.135
-669.076	174.977	0.109	-0.160
-668.062	-200.000	-0.000	0.106
-667.047	-200.000	0.009	-0.204
-666.032	-120.275	0.262	0.045
-665.018	-104.065	-0.122	-0.029
-664.003	29.221	-0.118	-0.102
-662.989	672.506	-0.083	0.217
-661.974	14.004	-0.126	-0.100
-660.959	-32.394	-0.047	0.027
-659.945	-95.994	-0.161	-0.044
-658.930	800.000	-0.072	0.313
-657.916	-200.000	0.021	0.161
-656.901	24.551	0.208	-0.175
-655.886	-152.803	-0.062	0.004
-654.872	-76.852	-0.273	-0.097
-653.857	-183.830	0.368	-0.006
-652.843	-102.961	0.385	0.093
-651.828	800.000	0.078	0.254
-650.814	-93.724	0.057	0.016
-649.799	59.148	0.180	0.180
-648.784	800.000	0.087	0.353
-647.770	800.000	0.051	-0.198
-646.755	800.000	0.015	-0.049
-645.741	-38.047	0.134	0.072
-644.726	-15.155	0.152	0.099
-643.711	-1.933	-0.108	0.077
-642.697	-200.000	-0.010	-0.220
-641.682	-200.000	0.036	0.199
-640.668	82.900	0.216	-0.238
-639.653	-69.841	-0.337	-0.130
-638.638	-200.000	0.034	-0.449
-637.624	276.728	0.039	-0.071
-636.609	800.000	0.032	0.125
-635.595	-200.000	0.044	0.231
-634.580	-85.105	-0.338	-0.108
-633.565	10.164	0.150	0.116
-632.551	-31.803	0.146	-0.083
-631.536	291.345	-0.160	0.296
-630.522	25.609	0.185	-0.157
-629.507	-200.000	-0.029	-0.206
-628.492	-148.474	-0.082	-0.007
-627.478	-200.000	-0.026	-0.263
-626.463	-86.359	-0.353	-0.110
-625.449	-200.000	-0.012	-0.220
-624.434	40.595	-0.067	0.062
-623.419	215.837	-0.045	-0.073
-622.405	21.533	-0.113	-0.093
-621.390	55.542	-0.108	0.106
-620.376	-200.000	-0.164	0.000
-619.361	-200.000	-0.015	-0.159
-618.346	34.921	0.144	-0.128
-617.332	37.895	-0.095	0.085
-616.317	-200.000	0.004	-0.144
-615.303	-22.559	-0.289	0.178
-614.288	180.882	-0.066	0.098
-613.273	63.600	0.131	-0.133
-612.259	19.223	0.261	-0.212
-611.244	62.205	0.277	-0.280
-610.230	-200.000	0.050	0.234
-609.215	89.798	0.054	0.062
-608.201	-173.551	-0.155	-0.005
-607.186	-108.504	-0.225	0.049
-606.171	38.947	0.328	-0.297
-605.157	529.996	-0.143	-0.342
-604.142	-81.091	-0.078	-0.026
-603.128	800.000	-0.017	-0.072
-602.113	-63.842	0.086	-0.036
-601.098	-128.692	0.339	0.049
-600.084	-148.364	0.246	0.021
-599.069	-84.571	-0.164	0.052
-598.055	116.592	-0.096	-0.120
-597.040	-96.513	-0.329	-0.088
-596.025	-200.000	-0.017	0.086
-595.011	-12.446	-0.332	-0.220
-593.996	-116.605	-0.174	0.033
-592.982	-200.000	0.008	0.226
-591.967	-114.343	-0.025	0.005
-590.952	-160.579	-0.073	-0.004
-589.938	-200.000	0.166	-0.000
-588.923	-6.716	0.220	0.152
-587.909	-200.000	0.044	-0.241
-586.894	800.000	-0.065	-0.211
-585.879	-40.623	0.049	0.026
-584.865	800.000	0.076	0.235
-583.850	-61.129	0.205	-0.088
-582.836	176.578	-0.204	-0.300
-581.821	-82.591	-0.153	0.050
-580.806	97.001	-0.202	0.234
-579.792	1.669	0.176	0.128
-578.777	-56.068	-0.175	-0.079
-577.763	-55.301	-0.014	0.007
-576.748	-85.111	0.233	0.074
-575.733	45.193	-0.117	-0.109
-574.719	56.875	-0.016	-0.016
-573.704	-133.523	-0.129	0.016
-572.690	800.000	0.129	-0.437
-571.675	800.000	-0.096	0.361
-570.661	-200.000	-0.009	-0.172
-569.646	77.735	-0.086	-0.093
-568.631	-200.000	0.036	-0.253
-567.617	800.000	0.072	-0.209
-566.602	800.000	0.061	-0.214
-565.588	-108.248	0.119	0.026
-564.573	-155.700	0.105	-0.007
-563.558	23.358	0.318	0.265
-562.544	800.000	0.032	-0.118
-561.529	-200.000	0.020	0.265
-560.515	59.349	-0.190	0.190
-559.500	-73.068	-0.306	-0.114
-558.485	127.316	-0.152	-0.195
-557.471	-35.331	-0.257	0.141
-556.456	-16.051	0.253	-0.163
-555.442	-200.000	0.010	-0.081
-554.427	127.722	-0.205	0.264
-553.412	-200.000	0.031	0.409
-552.398	-200.000	0.001	-0.407
-551.383	-31.048	0.244	-0.139
-550.369	256.970	0.027	0.048
-549.354	800.000	0.097	0.336
-548.339	-82.691	-0.134	-0.044
-547.325	660.376	0.049	0.128
-546.310	-25.248	-0.191	-0.114
-545.296	773.870	-0.121	-0.334
-544.281	105.706	-0.150	-0.179
-543.266	-40.708	-0.202	-0.106
-542.252	800.000	-0.077	0.299
-541.237	38.780	-0.089	-0.081
-540.223	-200.000	0.004	0.447
-539.208	-153.456	-0.225	0.016
-538.193	-92.353	0.389	0.111
-537.179	-27.476	-0.089	-0.052
-536.164	-200.000	-0.008	0.156
-535.150	418.946	0.124	-0.269
-534.135	21.539	0.101	-0.083
-533.121	249.590	-0.063	0.108
-532.106	745.475	0.141	-0.384
-531.091	26.330	0.205	-0.174
-530.077	-35.161	0.133	-0.073
-529.062	-129.330	0.058	-0.008
-528.048	800.000	-0.059	0.232
-527.033	122.655	0.058	0.073
-526.018	67.256	0.075	0.077
-525.004	800.000	-0.031	-0.135
-523.989	480.243	0.128	-0.293
-522.975	-200.000	0.048	0.289
-521.960	165.853	-0.165	-0.236
-520.945	750.674	0.126	-0.343
-519.931	800.000	0.044	-0.127
-518.916	3.991	0.084	0.062
-517.902	746.703	-0.089	0.242
-516.887	94.015	0.085	-0.098
-515.872	-200.000	-0.187	0.000
-514.858	163.113	0.133	0.189
-513.843	800.000	-0.049	0.190
-512.829	-66.685	0.090	0.036
-511.814	-200.000	-0.033	-0.207
-510.799	377.293	0.108	-0.222
-509.785	665.923	-0.074	-0.193
-508.770	-101.125	0.217	0.054
-507.756	-200.000	0.001	-0.152
-506.741	46.343	-0.134	-0.125
-505.726	-20.926	-0.160	0.099
-504.712	-150.316	-0.138	0.011
-503.697	-200.000	-0.007	-0.124
-502.683	-66.630	0.299	0.119
-501.668	-99.014	0.340	-0.087
-500.653	-200.000	0.024	0.135
-499.639	-145.739	0.319	-0.029
-498.624	-200.000	0.017	0.298
-497.610	241.569	-0.029	0.050
-496.595	-104.918	-0.341	-0.079
-495.581	407.607	-0.050	-0.107
-494.566	-91.741	0.406	-0.117
-493.551	-200.000	0.159	0.706
-492.537	-200.000	0.014	0.221
-491.522	73.470	0.128	-0.135
-490.508	90.513	-0.325	-0.367
-489.493	-74.102	-0.344	0.126
-488.478	35.494	0.116	-0.102
-487.464	-200.000	0.019	0.228
-486.449	162.789	0.073	0.103
-485.435	800.000	0.180	-0.507
-484.420	2.876	-0.023	0.017
-483.405	800.000	0.028	-0.119
-482.391	-198.387	0.225	-0.001
-481.376	-200.000	0.023	-0.325
-480.362	-200.000	-0.006	-0.107
-479.347	-80.365	0.273	0.092
-478.332	77.207	0.144	0.155
-477.318	-200.000	-0.002	-0.024
-476.303	391.515	0.126	0.264
-475.289	-86.304	-0.290	0.090
-474.274	-123.790	0.273	-0.043
-473.259	-129.255	-0.217	-0.031
-472.245	327.577	0.123	0.238
-471.230	-200.000	-0.040	0.194
-470.216	-61.572	-0.278	0.118
-469.201	254.209	-0.093	-0.160
-468.186	35.773	-0.044	-0.039
-467.172	194.898	-0.061	-0.093
-466.157	23.261	-0.138	-0.114
-465.143	71.079	-0.367	-0.384
-464.128	578.940	-0.065	0.161
-463.113	509.099	0.169	0.395
-462.099	-200.000	-0.026	0.149
-461.084	-200.000	0.033	-0.325
-460.070	411.791	0.170	-0.365
-459.055	800.000	0.040	-0.176
-458.040	-63.551	-0.213	-0.088
-457.026	-200.000	-0.015	0.340
-456.011	-200.000	-0.037	0.177
-454.997	204.631	-0.192	0.300
-453.982	800.000	-0.079	0.301
-452.968	-57.202	0.080	-0.035
-451.953	-93.744	-0.271	-0.075
-450.938	160.075	0.011	0.015
-449.924	-107.535	0.393	-0.087
-448.909	-131.515	0.296	0.039
-447.895	-143.238	0.154	-0.015
-446.880	57.292	-0.044	0.043
-445.865	-200.000	-0.072	-0.328
-444.851	-200.000	-0.019	-0.220
-443.836	73.119	-0.084	0.088
-442.822	-152.873	-0.100	0.007
-441.807	77.882	-0.094	-0.101
-440.792	-200.000	-0.026	-0.271
-439.778	-200.000	-0.016	0.164
-438.763	123.622	0.158	0.200
-437.749	800.000	0.029	0.101
-436.734	-19.727	0.137	-0.085
-435.719	416.185	0.074	0.158
-434.705	-30.101	-0.174	0.099
-433.690	590.221	0.034	0.084
-432.676	215.287	0.129	-0.205
-431.661	-40.568	-0.186	-0.097
-430.646	-200.000	0.007	0.042
-429.632	-132.897	0.296	0.038
-428.617	-7.136	-0.238	-0.163
-427.603	515.561	0.036	0.084
-426.588	800.000	0.017	0.065
-425.573	-153.182	0.111	-0.008
-424.559	187.099	-0.110	-0.165
-423.544	-83.566	-0.173	-0.056
-422.530	-200.000	0.012	0.310
-421.515	90.189	-0.117	0.132
-420.500	-200.000	0.000	0.066
-419.486	-108.214	-0.263	0.057
-418.471	-5.245	-0.162	0.112
-417.457	-148.480	0.236	-0.019
-416.442	233.375	0.190	0.315
-415.428	-200.000	-0.033	-0.159
-414.413	-200.000	0.032	0.419
-413.398	800.000	-0.155	-0.470
-412.384	-200.000	0.015	0.073
-411.369	97.640	0.156	0.180
-410.355	338.507	-0.100	0.197
-409.340	-125.066	-0.306	-0.047
-408.325	800.000	0.018	-0.068
-407.311	-29.111	-0.360	0.208
-406.296	-200.000	-0.065	0.292
-405.282	-200.000	0.070	-0.449
-404.267	17.093	0.121	-0.096
-403.252	3.425	0.229	0.168
-402.238	110.477	0.119	0.144
-401.223	189.916	-0.220	-0.331
-400.209	-13.169	0.230	0.150
-399.194	-48.301	0.193	0.094
-398.179	-6.043	0.341	-0.235
-397.165	-140.313	0.091	0.010
-396.150	6.789	0.139	-0.104
-395.136	-46.403	0.135	-0.067
-394.121	-200.000	0.005	-0.174
-393.106	266.786	0.113	0.199
-392.092	349.337	0.191	0.380
-391.077	-19.620	-0.097	-0.060
-390.063	-50.052	0.143	-0.068
-389.048	135.342	0.123	-0.160
-388.033	-95.336	0.223	0.060
-387.019	-24.194	-0.122	0.073
-386.004	117.765	0.140	0.173
-384.990	800.000	-0.031	0.111
-383.975	129.190	-0.162	0.207
-382.960	-125.023	-0.459	0.071
-381.946	-86.866	-0.068	0.021
-380.931	-88.226	-0.194	0.058
-379.917	37.642	0.026	-0.023
-378.902	800.000	0.056	-0.232
-377.888	-200.000	-0.016	0.139
-376.873	-200.000	-0.017	-0.118
-375.858	175.025	0.075	0.110
-374.844	-131.372	-0.130	0.017
-373.829	-101.110	-0.300	0.074
-372.815	-0.598	0.309	0.220
-371.800	800.000	0.083	-0.260
-370.785	78.286	-0.031	0.033
-369.771	800.000	-0.034	-0.112
-368.756	-200.000	0.018	-0.127
-367.742	-116.892	0.422	0.078
-366.727	-37.822	-0.077	-0.041
-365.712	-133.396	0.139	-0.018
-364.698	-180.776	-0.285	0.006
-363.683	-200.000	0.036	0.000
-362.669	-200.000	0.010	0.443
-361.654	611.308	0.122	0.306
-360.639	-140.901	0.370	-0.038
-359.625	394.992	-0.054	0.113
-358.610	14.792	0.222	0.174
-357.596	-43.138	-0.209	0.106
-356.581	800.000	-0.058	-0.203
-355.566	252.024	-0.176	-0.301
-354.552	-113.022	0.271	-0.054
-353.537	-166.056	0.351	0.015
-352.523	254.340	-0.051	-0.087
-351.508	266.937	0.191	-0.336
-350.493	800.000	0.042	0.126
-349.479	278.641	-0.023	0.040
-348.464	427.353	-0.108	-0.234
-347.450	800.000	0.039	0.139
-346.435	41.429	0.163	-0.148
-345.420	-132.708	0.232	-0.030
-344.406	37.212	0.167	0.149
-343.391	-7.282	-0.088	-0.060
-342.377	-200.000	-0.053	-0.278
-341.362	79.104	0.137	-0.147
-340.348	-142.247	0.235	0.023
-339.333	346.675	0.128	0.253
-338.318	141.376	0.014	0.019
-337.304	38.368	0.192	-0.171
-336.289	-200.000	-0.008	0.208
-335.275	348.196	0.059	-0.117
-334.260	48.058	0.075	0.071
-333.245	67.862	0.127	-0.130
-332.231	-48.672	0.361	-0.174
-331.216	46.992	0.226	0.211
-330.202	-163.133	-0.349	-0.017
-329.187	420.225	-0.033	0.071
-328.172	557.912	-0.038	0.092
-327.158	-198.952	0.116	0.001
-326.143	304.640	-0.073	-0.137
-325.129	-200.000	-0.002	0.241
-324.114	-1.335	-0.170	-0.121
-323.099	-200.000	0.009	0.118
-322.085	265.994	0.250	0.438
-321.070	-10.741	0.091	0.060
-320.056	-175.143	-0.172	0.005
-319.041	-52.944	-0.245	0.113
-318.026	433.861	0.157	-0.341
-317.012	-75.090	-0.213	0.076
-315.997	91.718	0.198	-0.223
-314.983	-123.818	-0.259	0.041
-313.968	37.743	-0.249	-0.222
-312.953	12.036	-0.203	0.156
-311.939	800.000	-0.008	0.032
-310.924	800.000	-0.063	-0.244
-309.910	-35.696	-0.139	0.076
-308.895	800.000	-0.028	0.095
-307.880	40.835	0.081	0.073
-306.866	357.607	-0.109	-0.219
-305.851	-200.000	0.010	-0.240
-304.837	-84.928	0.093	-0.029
-303.822	-113.354	-0.056	-0.011
-302.807	204.451	-0.170	0.265
-301.793	580.097	-0.157	0.385
-300.778	-19.098	-0.193	-0.120
-299.764	99.037	-0.146	-0.169
-298.749	-99.794	-0.247	0.062
-297.735	-98.358	-0.155	-0.040
-296.720	-168.768	-0.219	-0.008
-295.705	-200.000	0.027	0.378
-294.691	-124.293	-0.450	0.070
-293.676	-157.597	-0.505	-0.030
-292.662	800.000	0.142	-0.492
-291.647	246.782	-0.296	0.500
-290.632	-78.270	-0.078	0.027
-289.618	29.172	0.221	0.188
-288.603	-83.138	-0.434	0.140
-287.589	-96.008	-0.209	0.056
-286.574	-117.081	-0.030	-0.005
-285.559	-113.098	-0.207	0.041
-284.545	526.559	0.073	0.171
-283.530	-120.828	-0.223	0.038
-282.516	-200.000	-0.002	-0.225
-281.501	-89.510	0.254	0.075
-280.486	112.838	0.078	0.095
-279.472	571.845	-0.046	0.112
-278.457	-157.357	0.338	-0.020
-277.443	25.124	0.310	0.258
-276.428	-84.874	-0.290	0.091
-275.413	-200.000	0.077	-0.429
-274.399	-98.493	-0.358	0.092
-273.384	721.197	-0.052	0.140
-272.370	525.891	-0.065	-0.152
-271.355	-89.189	0.299	-0.088
-270.340	129.438	-0.063	-0.081
-269.326	94.317	-0.153	-0.174
-268.311	132.368	0.059	0.076
-267.297	-94.039	-0.199	-0.055
-266.282	-23.375	-0.071	0.043
-265.267	800.000	-0.062	0.268
-264.253	-84.197	0.039	-0.012
-263.238	800.000	0.075	0.279
-262.224	93.218	0.177	0.200
-261.209	-200.000	-0.036	0.374
-260.195	-200.000	0.027	0.198
-259.180	256.112	0.074	-0.126
-258.165	49.669	-0.353	0.333
-257.151	196.483	0.083	0.126
-256.136	445.255	0.028	0.063
-255.122	-63.249	0.300	0.123
-254.107	800.000	0.038	-0.158
-253.092	443.557	-0.089	0.196
-252.078	653.672	-0.106	0.272
-251.063	123.748	0.091	0.114
-250.049	141.614	0.067	0.089
-249.034	70.560	-0.140	0.144
-248.019	-200.000	0.001	0.283
-247.005	-112.896	0.386	0.076
-245.990	-21.182	-0.106	0.065
-244.976	246.852	0.075	-0.127
-243.961	800.000	0.059	0.162
-242.946	626.356	0.028	0.070
-241.932	-58.471	0.087	-0.038
-240.917	-89.178	-0.129	0.038
-239.903	800.000	-0.084	0.260
-238.888	-136.439	-0.225	0.026
-237.873	635.228	0.138	-0.350
-236.859	-174.464	0.268	-0.008
-235.844	-200.000	0.018	-0.170
-234.830	-51.171	-0.240	-0.112
-233.815	2.541	-0.196	-0.142
-232.800	-200.000	0.003	-0.332
-231.786	800.000	0.044	-0.153
-230.771	-34.344	0.262	0.144
-229.757	800.000	0.037	0.121
-228.742	800.000	0.007	0.024
-227.727	-112.115	0.259	0.052
-226.713	-89.392	-0.125	0.037
-225.698	104.894	-0.162	-0.191
-224.684	60.548	-0.116	-0.115
-223.669	-73.254	0.198	0.072
-222.655	-70.324	-0.206	-0.078
-221.640	-200.000	-0.027	-0.228
-220.625	90.661	-0.204	0.228
-219.611	133.543	0.107	-0.138
-218.596	76.450	-0.216	-0.228
-217.582	-200.000	0.030	-0.176
-216.567	747.332	-0.021	-0.055
-215.552	568.165	0.076	0.185
-214.538	21.057	0.445	0.361
-213.523	174.769	-0.065	-0.093
-212.509	194.706	-0.101	0.153
-211.494	76.779	0.180	-0.190
-210.479	-200.000	0.017	-0.100
-209.465	-145.302	-0.344	0.031
-208.450	-157.787	0.056	0.003
-207.436	73.423	0.020	-0.020
-206.421	-131.408	0.595	0.079
-205.406	-31.089	-0.077	0.043
-204.392	378.404	-0.126	-0.257
-203.377	-17.841	-0.040	0.025
-202.363	226.407	0.104	0.168
-201.348	375.097	-0.119	0.242
-200.333	-27.164	-0.190	-0.110
-199.319	54.388	-0.070	-0.067
-198.304	399.841	0.060	-0.126
-197.290	428.692	0.156	-0.337
-196.275	-54.263	0.212	0.096
-195.260	107.391	0.182	0.217
-194.246	-200.000	-0.042	-0.282
-193.231	49.335	-0.215	-0.202
-192.217	404.740	-0.120	0.253
-191.202	661.594	0.035	-0.090
-190.187	-6.553	0.081	0.055
-189.173	322.739	0.331	-0.628
-188.158	216.267	-0.265	-0.420
-187.144	-200.000	0.159	0.001
-186.129	329.722	-0.227	-0.436
-185.114	16.658	-0.125	-0.098
-184.100	137.796	0.109	-0.142
-183.085	348.064	0.064	-0.127
-182.071	-200.000	0.012	0.223
-181.056	78.498	-0.255	-0.272
-180.042	-200.000	-0.001	0.004
-179.027	800.000	0.049	-0.210
-178.012	-80.737	-0.164	0.054
-176.998	107.163	0.255	0.302
-175.983	89.999	0.130	0.144
-174.969	800.000	-0.111	-0.377
-173.954	-37.830	-0.475	-0.252
-172.939	240.703	0.131	0.218
-171.925	54.247	-0.077	0.073
-170.910	277.545	0.098	0.174
-169.896	170.887	0.056	-0.080
-168.881	-163.054	-0.504	-0.024
-167.866	5.605	0.101	-0.074
-166.852	-25.725	0.441	0.259
-165.837	141.404	-0.161	-0.212
-164.823	255.373	0.163	0.279
-163.808	2.548	0.287	0.207
-162.793	169.425	-0.199	0.283
-161.779	176.749	-0.073	-0.105
-160.764	-165.732	0.120	-0.005
-159.750	800.000	-0.040	-0.175
-158.735	89.821	0.093	0.103
-157.720	-79.959	-0.129	-0.043
-156.706	-176.713	-0.197	-0.005
-155.691	-200.000	0.025	0.154
-154.677	31.505	0.147	0.126
-153.662	246.581	0.081	-0.135
-152.647	-93.768	0.413	0.113
-151.633	7.270	-0.395	0.294
-150.618	19.838	0.292	0.234
-149.604	-45.920	0.243	-0.120
-148.589	800.000	-0.057	0.177
-147.574	313.604	-0.082	0.153
-146.560	412.495	0.028	0.059
-145.545	363.368	0.120	0.239
-144.531	-105.716	-0.324	0.073
-143.516	115.173	-0.296	-0.359
-142.502	-20.870	0.276	0.168
-141.487	748.980	-0.095	0.254
-140.472	-89.080	0.243	-0.072
-139.458	585.086	0.041	0.100
-138.443	-200.000	-0.291	-0.001
-137.429	204.746	0.170	-0.263
-136.414	-155.123	0.045	-0.003
-135.399	-146.050	0.396	-0.035
-134.385	118.677	0.090	0.111
-133.370	-64.943	-0.218	-0.088
-132.356	800.000	0.037	-0.135
-131.341	178.980	-0.121	-0.175
-130.326	29.806	-0.168	-0.142
-129.312	9.969	-0.083	-0.063
-128.297	386.233	-0.118	0.241
-127.283	250.363	-0.065	-0.110
-126.268	-9.812	-0.439	0.291
-125.253	230.404	0.036	0.058
-124.239	-200.000	-0.007	-0.180
-123.224	-74.048	-0.040	-0.015
-122.210	-129.147	0.313	0.044
-121.195	-84.587	0.194	0.061
-120.180	-106.572	-0.161	-0.036
