DTS Sentinel unit serial number:	SN413079Multiplexer serial number:	ORYXHardware model number:	OX4-SRSoftware version number:	ORYX F/W v4.00 Oryx Data Collector v3.7.2.0data status	okinstallation	princeton_trtdifferential loss correction	single-endedforward channel	channel 3reverse channel	N/Adate	2019/09/12time	21:44:35forward acquisition time	60.00reverse acquisition time	0.00gamma	496.2192k internal	0.2326k external	0.2326temperature offset calibration	1.0128default loss term (dB/km)	0.3790temperature slope calibration	1.0000multiplexer offset coefficient	1.0000multiplexer slope coefficient	1.0000fibre end	0.00T internal ref (°C)	30.25T ext. ref 1 (°C)	3.69T ext. ref 2 (°C)	24.85length (m)	temperature (°C)	Stokes	anti-Stokes-747.200	-4.677	-0.397	0.277
-746.185	264.243	-0.231	0.406
-745.171	-200.000	-0.023	0.283
-744.156	249.582	-0.137	-0.234
-743.142	800.000	0.060	-0.214
-742.127	-41.301	-0.330	-0.172
-741.112	-167.172	-0.132	-0.005
-740.098	43.658	-0.092	-0.085
-739.083	265.607	-0.156	-0.274
-738.069	-53.305	0.153	0.071
-737.054	-66.865	-0.111	-0.044
-736.039	-200.000	0.010	-0.281
-735.025	-133.485	-0.223	0.028
-734.010	-53.228	-0.124	0.057
-732.996	17.403	-0.161	-0.129
-731.981	-50.845	0.091	-0.043
-730.966	5.612	-0.167	-0.125
-729.952	-200.000	0.059	-0.502
-728.937	710.128	-0.085	-0.226
-727.923	-128.345	0.237	0.034
-726.908	67.587	-0.096	0.099
-725.894	-96.563	-0.184	0.049
-724.879	-39.934	-0.099	-0.052
-723.864	35.353	0.044	0.039
-722.850	75.963	0.053	0.057
-721.835	101.099	-0.015	0.017
-720.821	-17.510	-0.124	0.079
-719.806	-135.763	-0.254	-0.030
-718.791	28.631	-0.349	-0.297
-717.777	800.000	0.074	-0.247
-716.762	56.904	0.247	0.242
-715.748	-117.115	-0.360	-0.066
-714.733	-4.267	-0.150	-0.104
-713.718	-15.992	-0.287	0.184
-712.704	33.451	-0.095	0.083
-711.689	800.000	0.079	-0.280
-710.675	-15.332	-0.259	0.167
-709.660	-200.000	-0.017	0.120
-708.645	-24.552	-0.247	0.148
-707.631	-27.713	0.138	-0.081
-706.616	-200.000	0.040	0.211
-705.602	154.457	-0.078	-0.108
-704.587	-96.952	-0.073	-0.019
-703.572	129.021	0.152	0.196
-702.558	29.239	-0.258	-0.220
-701.543	-53.995	0.440	-0.202
-700.529	-145.088	0.190	0.017
-699.514	800.000	-0.114	-0.320
-698.499	-200.000	-0.023	-0.107
-697.485	455.482	0.003	0.006
-696.470	-80.522	-0.284	0.095
-695.456	800.000	-0.139	-0.388
-694.441	-121.545	-0.400	-0.067
-693.426	85.929	-0.081	-0.090
-692.412	160.865	-0.100	0.141
-691.397	800.000	-0.109	-0.359
-690.383	-6.022	0.069	0.047
-689.368	-138.074	0.245	0.027
-688.354	139.729	-0.312	-0.413
-687.339	-11.883	0.141	0.093
-686.324	800.000	0.064	0.261
-685.310	-17.795	0.128	0.081
-684.295	-104.658	-0.230	-0.053
-683.281	22.015	0.149	-0.123
-682.266	52.860	-0.086	-0.083
-681.251	800.000	-0.102	0.370
-680.237	-31.066	0.226	0.128
-679.222	305.010	-0.060	-0.112
-678.208	2.211	0.165	-0.120
-677.193	108.589	-0.156	-0.188
-676.178	-134.128	0.294	-0.037
-675.164	24.279	0.359	0.298
-674.149	800.000	0.098	-0.294
-673.135	328.696	0.117	-0.226
-672.120	800.000	-0.126	-0.373
-671.105	800.000	0.085	-0.280
-670.091	-200.000	-0.015	-0.151
-669.076	56.538	-0.162	0.159
-668.062	-200.000	0.031	0.156
-667.047	511.825	-0.082	-0.192
-666.032	-85.561	0.131	-0.041
-665.018	340.849	-0.050	-0.098
-664.003	-158.385	0.179	-0.010
-662.989	-20.341	-0.128	-0.079
-661.974	133.075	-0.162	0.211
-660.959	-174.882	-0.281	0.008
-659.945	-124.742	0.240	0.037
-658.930	54.723	-0.092	0.089
-657.916	-90.546	-0.451	-0.131
-656.901	442.198	-0.089	-0.196
-655.886	258.961	-0.070	0.121
-654.872	-200.000	0.060	-0.281
-653.857	246.208	-0.151	0.256
-652.843	326.437	0.028	-0.054
-651.828	-41.866	-0.207	-0.107
-650.814	-200.000	-0.015	0.097
-649.799	163.607	-0.162	0.229
-648.784	-58.709	-0.145	0.063
-647.770	-150.316	0.208	0.016
-646.755	234.692	0.173	-0.286
-645.741	32.859	-0.196	0.170
-644.726	-200.000	0.084	-0.483
-643.711	76.267	0.057	-0.061
-642.697	25.303	0.170	-0.142
-641.682	-36.338	-0.203	0.110
-640.668	227.797	-0.208	-0.341
-639.653	550.365	-0.031	-0.076
-638.638	14.619	-0.061	-0.048
-637.624	702.737	0.085	-0.224
-636.609	-30.364	-0.328	-0.187
-635.595	39.167	-0.226	-0.203
-634.580	-35.219	0.102	-0.056
-633.565	-200.000	0.042	0.308
-632.551	-200.000	0.075	-0.435
-631.536	98.789	0.150	-0.174
-630.522	-132.597	-0.086	-0.011
-629.507	-34.461	-0.283	-0.155
-628.492	509.396	0.100	-0.234
-627.478	668.093	-0.092	-0.239
-626.463	39.999	0.138	0.125
-625.449	-46.528	0.247	-0.122
-624.434	-200.000	0.024	0.147
-623.419	800.000	-0.017	0.061
-622.405	-200.000	-0.006	-0.260
-621.390	-36.267	0.306	0.166
-620.376	-200.000	-0.018	0.201
-619.361	15.962	-0.396	-0.313
-618.346	-39.683	0.169	-0.089
-617.332	294.967	-0.150	-0.276
-616.317	-42.480	-0.272	0.139
-615.303	-200.000	0.080	-0.357
-614.288	4.998	-0.380	-0.280
-613.273	-200.000	-0.019	-0.136
-612.259	-80.601	0.180	0.060
-611.244	-200.000	-0.002	0.229
-610.230	-174.846	-0.355	0.010
-609.215	-121.120	0.224	0.038
-608.201	-200.000	0.001	0.219
-607.186	-200.000	-0.016	-0.203
-606.171	17.330	0.357	0.285
-605.157	-163.610	-0.452	-0.021
-604.142	400.705	-0.165	0.348
-603.128	-200.000	0.040	-0.276
-602.113	800.000	-0.101	-0.344
-601.098	-126.061	-0.197	-0.030
-600.084	-65.714	0.183	0.073
-599.069	-20.992	-0.164	0.101
-598.055	-84.302	0.243	-0.077
-597.040	-87.816	0.375	-0.113
-596.025	700.985	-0.048	0.127
-595.011	800.000	-0.114	0.317
-593.996	245.254	0.109	0.183
-592.982	-108.345	-0.333	0.072
-591.967	-200.000	-0.043	0.230
-590.952	800.000	-0.074	0.220
-589.938	262.414	0.037	-0.064
-588.923	9.886	-0.162	-0.124
-587.909	-200.000	0.035	0.265
-586.894	-13.130	-0.229	0.149
-585.879	-200.000	0.016	0.166
-584.865	-164.155	0.389	-0.018
-583.850	-106.547	-0.279	0.062
-582.836	-57.890	-0.064	0.028
-581.821	800.000	-0.034	0.097
-580.806	98.762	-0.123	0.143
-579.792	-200.000	-0.045	-0.259
-578.777	800.000	0.050	0.180
-577.763	-160.311	-0.218	-0.012
-576.748	-183.713	0.204	0.003
-575.733	73.121	0.177	0.185
-574.719	136.171	-0.120	0.157
-573.704	134.117	-0.209	0.272
-572.690	-59.434	-0.058	-0.025
-571.675	-200.000	-0.010	-0.097
-570.661	-93.354	-0.553	0.154
-569.646	-96.141	-0.245	-0.065
-568.631	-200.000	0.038	-0.253
-567.617	92.671	0.038	-0.043
-566.602	75.017	-0.206	0.218
-565.588	308.271	0.059	0.110
-564.573	75.217	0.110	-0.116
-563.558	194.540	-0.040	0.061
-562.544	331.844	-0.174	0.336
-561.529	-200.000	-0.000	0.115
-560.515	-168.052	0.165	-0.006
-559.500	-15.829	-0.123	-0.078
-558.485	800.000	-0.089	0.285
-557.471	-200.000	-0.009	0.264
-556.456	-109.127	0.413	0.088
-555.442	-14.578	0.312	-0.201
-554.427	355.323	-0.076	0.151
-553.412	145.996	0.067	0.089
-552.398	115.426	-0.132	0.161
-551.383	178.633	-0.067	0.098
-550.369	-131.635	0.127	0.017
-549.354	800.000	0.031	-0.101
-548.339	-91.617	-0.399	-0.114
-547.325	800.000	0.131	-0.410
-546.310	-200.000	-0.062	-0.476
-545.296	-20.822	-0.093	0.057
-544.281	-85.929	-0.217	-0.067
-543.266	784.725	-0.070	-0.193
-542.252	25.843	-0.144	0.120
-541.237	-64.821	0.290	-0.117
-540.223	-77.993	-0.321	-0.111
-539.208	-174.503	0.023	-0.001
-538.193	106.710	-0.142	0.168
-537.179	-200.000	0.003	0.017
-536.164	10.845	0.273	-0.209
-535.150	107.045	0.045	-0.054
-534.135	-33.039	-0.196	0.109
-533.121	11.060	0.183	-0.140
-532.106	800.000	0.027	0.078
-531.091	210.006	-0.058	-0.090
-530.077	190.457	0.120	0.180
-529.062	282.273	-0.035	-0.063
-528.048	197.159	-0.115	0.175
-527.033	141.338	0.128	-0.169
-526.018	61.459	0.201	-0.200
-525.004	102.266	0.108	0.126
-523.989	14.741	-0.104	-0.081
-522.975	-200.000	-0.021	0.091
-521.960	-77.334	0.144	0.050
-520.945	18.536	0.172	0.137
-519.931	-118.845	-0.221	-0.039
-518.916	230.072	0.174	0.285
-517.902	403.658	0.108	0.227
-516.887	-50.530	0.147	0.069
-515.872	-200.000	-0.015	0.184
-514.858	-138.363	0.155	0.017
-513.843	-52.272	-0.249	-0.115
-512.829	247.711	0.135	0.227
-511.814	207.457	0.109	-0.170
-510.799	191.435	0.085	0.128
-509.785	55.990	-0.156	0.151
-508.770	339.364	0.157	0.305
-507.756	-82.298	0.155	0.050
-506.741	167.454	-0.080	0.114
-505.726	-200.000	-0.002	-0.101
-504.712	-146.266	-0.237	-0.021
-503.697	-200.000	0.059	0.281
-502.683	81.121	-0.186	0.201
-501.668	127.128	0.101	-0.128
-500.653	281.634	0.203	-0.363
-499.639	-115.367	0.148	-0.028
-498.624	-200.000	-0.036	-0.160
-497.610	-64.471	0.099	-0.040
-496.595	-93.418	-0.299	-0.083
-495.581	202.184	0.232	0.358
-494.566	-200.000	-0.003	0.127
-493.551	5.841	0.151	-0.111
-492.537	-200.000	0.009	-0.062
-491.522	493.043	0.060	0.138
-490.508	-82.238	-0.145	0.047
-489.493	3.252	-0.227	0.165
-488.478	302.186	-0.042	-0.077
-487.464	-200.000	0.001	-0.140
-486.449	-100.756	0.290	-0.071
-485.435	532.644	0.141	-0.333
-484.420	-200.000	0.076	-0.420
-483.405	-200.000	-0.051	0.345
-482.391	-39.290	-0.169	0.088
-481.376	-51.721	-0.030	-0.014
-480.362	94.045	-0.093	-0.105
-479.347	327.982	0.092	-0.176
-478.332	-61.943	-0.241	-0.101
-477.318	-12.796	0.154	-0.100
-476.303	-45.258	-0.226	0.112
-475.289	11.168	0.141	0.107
-474.274	-148.755	-0.080	0.006
-473.259	-200.000	0.041	0.184
-472.245	-16.622	-0.172	-0.108
-471.230	-29.442	-0.163	-0.093
-470.216	-25.246	-0.135	0.080
-469.201	-67.767	-0.173	0.067
-468.186	800.000	0.070	-0.218
-467.172	-20.322	0.065	0.040
-466.157	3.031	-0.066	0.048
-465.143	-10.225	0.169	0.112
-464.128	227.005	0.210	0.341
-463.113	4.302	-0.339	0.248
-462.099	23.904	-0.077	0.064
-461.084	-35.934	0.040	0.021
-460.070	230.421	-0.047	0.078
-459.055	-62.873	0.279	-0.115
-458.040	-54.610	0.340	0.154
-457.026	102.318	-0.073	-0.085
-456.011	-59.305	0.114	0.049
-454.997	-46.811	0.060	0.029
-453.982	-169.372	-0.305	-0.011
-452.968	-141.497	-0.192	0.019
-451.953	-23.137	-0.136	0.082
-450.938	-116.398	-0.341	0.063
-449.924	-170.492	0.181	-0.006
-448.909	662.237	-0.148	-0.380
-447.895	-61.906	0.367	0.153
-446.880	426.639	-0.064	0.138
-445.865	202.517	-0.139	0.213
-444.851	-63.544	-0.389	-0.159
-443.836	-200.000	-0.022	0.357
-442.822	-200.000	-0.003	-0.054
-441.807	18.217	0.285	0.227
-440.792	-200.000	0.049	-0.245
-439.778	-20.370	0.235	-0.144
-438.763	-47.124	0.229	0.111
-437.749	83.433	-0.331	0.360
-436.734	242.707	-0.047	-0.079
-435.719	-61.836	-0.283	-0.118
-434.705	800.000	-0.042	-0.153
-433.690	65.061	0.080	-0.080
-432.676	69.413	-0.122	0.125
-431.661	-200.000	0.025	0.127
-430.646	-137.216	0.232	0.026
-429.632	-42.104	-0.403	0.205
-428.617	800.000	-0.054	-0.171
-427.603	-64.222	0.371	0.150
-426.588	-200.000	-0.010	0.109
-425.573	800.000	-0.078	0.226
-424.559	113.811	-0.323	-0.391
-423.544	5.977	-0.128	-0.094
-422.530	-75.932	0.555	-0.196
-421.515	800.000	-0.104	0.361
-420.500	70.630	-0.278	0.286
-419.486	4.935	0.137	0.100
-418.471	37.753	-0.068	0.060
-417.457	-2.315	-0.068	-0.047
-416.442	25.679	-0.221	0.184
-415.428	30.396	0.152	-0.129
-414.413	800.000	0.102	0.407
-413.398	152.849	0.181	-0.247
-412.384	-123.290	0.140	0.022
-411.369	800.000	0.068	-0.274
-410.355	80.212	0.049	-0.053
-409.340	-6.672	-0.183	-0.124
-408.325	-166.810	0.078	0.003
-407.311	-166.206	0.294	-0.012
-406.296	34.035	-0.088	-0.076
-405.282	800.000	0.042	-0.152
-404.267	85.010	0.246	0.269
-403.252	52.987	-0.012	-0.011
-402.238	800.000	-0.027	0.096
-401.223	-43.688	-0.068	-0.034
-400.209	103.749	-0.098	0.114
-399.194	-200.000	0.032	-0.260
-398.179	15.963	0.048	0.038
-397.165	200.505	-0.104	0.159
-396.150	-172.607	0.334	-0.010
-395.136	12.926	0.170	0.131
-394.121	250.811	0.054	-0.092
-393.106	-200.000	-0.007	-0.195
-392.092	800.000	-0.034	0.102
-391.077	134.475	-0.057	0.073
-390.063	-98.921	-0.109	-0.028
-389.048	719.823	0.123	-0.324
-388.033	-145.764	-0.479	-0.042
-387.019	-182.881	-0.169	-0.003
-386.004	150.669	0.050	0.068
-384.990	-86.788	0.142	0.043
-383.975	465.360	-0.131	0.292
-382.960	-200.000	-0.023	0.125
-381.946	-57.506	-0.059	-0.026
-380.931	113.566	0.174	-0.210
-379.917	-200.000	-0.012	-0.203
-378.902	-154.279	-0.238	-0.016
-377.888	57.156	0.021	-0.020
-376.873	-92.286	-0.276	0.078
-375.858	341.005	0.097	-0.189
-374.844	-200.000	0.024	0.130
-373.829	-145.070	-0.242	-0.022
-372.815	175.854	-0.093	0.134
-371.800	800.000	0.084	-0.305
-370.785	271.515	-0.084	0.147
-369.771	-200.000	0.021	-0.195
-368.756	-96.738	0.135	-0.035
-367.742	-71.394	0.214	0.080
-366.727	759.741	0.074	0.200
-365.712	800.000	-0.023	-0.088
-364.698	296.252	-0.197	-0.358
-363.683	-200.000	0.025	-0.142
-362.669	-27.258	0.248	0.143
-361.654	179.307	-0.037	0.054
-360.639	232.398	0.085	-0.139
-359.625	-108.242	-0.100	0.022
-358.610	155.850	0.018	0.024
-357.596	365.976	0.052	-0.104
-356.581	-68.622	-0.258	-0.099
-355.566	94.918	0.084	-0.095
-354.552	100.057	0.252	-0.290
-353.537	-85.310	0.254	-0.079
-352.523	-11.060	-0.377	0.247
-351.508	361.880	-0.040	0.080
-350.493	-46.195	-0.194	0.095
-349.479	-125.765	0.145	-0.022
-348.464	-51.323	-0.250	0.116
-347.450	-53.306	0.133	0.060
-346.435	644.486	-0.061	0.153
-345.420	800.000	0.137	0.423
-344.406	163.036	-0.224	0.313
-343.391	-63.278	0.400	-0.164
-342.377	-102.564	-0.235	-0.056
-341.362	76.821	0.109	-0.115
-340.348	58.655	0.240	0.234
-339.333	-65.540	-0.149	0.059
-338.318	523.913	-0.045	0.106
-337.304	-48.578	0.344	-0.164
-336.289	-49.337	0.116	-0.055
-335.275	257.086	0.157	0.268
-334.260	-55.476	0.151	-0.067
-333.245	50.881	-0.049	-0.046
-332.231	-1.413	0.235	0.164
-331.216	-200.000	-0.066	-0.458
-330.202	-160.665	0.347	-0.018
-329.187	25.137	-0.402	0.331
-328.172	-59.851	-0.156	-0.066
-327.158	544.873	0.128	0.304
-326.143	-74.452	0.210	0.075
-325.129	-200.000	0.016	0.513
-324.114	800.000	-0.044	0.183
-323.099	-86.693	-0.375	-0.114
-322.085	-12.687	-0.078	-0.051
-321.070	296.692	0.107	-0.195
-320.056	-56.767	-0.435	0.191
-319.041	382.279	0.111	-0.225
-318.026	-200.000	-0.038	-0.309
-317.012	-117.516	-0.480	0.086
-315.997	-161.025	0.038	-0.002
-314.983	-109.716	0.344	-0.072
-313.968	-200.000	-0.004	-0.073
-312.953	34.859	-0.147	-0.127
-311.939	-154.402	-0.240	0.016
-310.924	376.858	0.134	-0.272
-309.910	19.700	0.173	0.138
-308.895	-200.000	-0.002	0.584
-307.880	-169.229	-0.451	-0.017
-306.866	316.562	-0.077	-0.145
-305.851	727.700	-0.085	-0.226
-304.837	96.784	-0.165	-0.187
-303.822	800.000	-0.046	-0.148
-302.807	233.976	0.208	-0.340
-301.793	-20.749	0.128	0.078
-300.778	22.371	0.223	-0.181
-299.764	-96.503	-0.070	-0.018
-298.749	86.924	-0.185	0.202
-297.735	800.000	0.142	-0.489
-296.720	-11.745	0.441	-0.287
-295.705	-200.000	0.002	-0.133
-294.691	83.413	-0.086	0.093
-293.676	73.894	-0.355	0.369
-292.662	403.973	-0.099	0.207
-291.647	70.222	-0.120	-0.123
-290.632	800.000	0.090	0.348
-289.618	193.523	-0.121	-0.182
-288.603	41.297	0.259	-0.232
-287.589	800.000	-0.027	-0.082
-286.574	565.029	0.028	-0.068
-285.559	-178.000	-0.116	-0.003
-284.545	-200.000	-0.018	-0.380
-283.530	155.538	-0.033	0.045
-282.516	312.447	0.048	-0.089
-281.501	-195.484	0.195	0.001
-280.486	-112.497	0.029	-0.006
-279.472	-95.473	-0.412	0.110
-278.457	-69.925	-0.303	-0.114
-277.443	34.623	0.127	-0.110
-276.428	-76.250	0.234	0.082
-275.413	54.171	-0.075	0.071
-274.399	-69.204	0.249	-0.095
-273.384	-200.000	0.069	0.000
-272.370	46.984	0.141	-0.130
-271.355	-56.620	-0.061	-0.027
-270.340	-142.820	-0.293	-0.028
-269.326	-48.942	0.132	0.063
-268.311	-200.000	0.002	-0.129
-267.297	22.658	0.275	-0.223
-266.282	-51.264	0.081	0.037
-265.267	-98.363	0.219	-0.056
-264.253	-141.125	0.275	-0.028
-263.238	-52.962	-0.206	-0.094
-262.224	-172.993	0.487	-0.015
-261.209	-3.997	0.149	0.102
-260.195	87.855	-0.031	0.034
-259.180	11.823	-0.328	-0.250
-258.165	15.366	0.128	0.099
-257.151	-121.257	0.098	-0.016
-256.136	-82.924	0.121	0.039
-255.122	69.920	0.220	0.224
-254.107	-200.000	0.021	-0.182
-253.092	-154.417	0.508	-0.034
-252.078	160.253	0.111	-0.153
-251.063	-97.442	0.125	-0.032
-250.049	272.768	0.135	0.235
-249.034	800.000	-0.064	0.209
-248.019	478.519	-0.101	0.225
-247.005	-200.000	0.023	-0.181
-245.990	209.174	0.106	0.165
-244.976	800.000	0.047	-0.197
-243.961	-200.000	0.033	-0.236
-242.946	800.000	0.084	-0.314
-241.932	-172.416	-0.082	0.003
-240.917	356.336	0.124	0.244
-239.903	197.845	0.112	0.169
-238.888	551.952	0.090	0.213
-237.873	317.949	0.090	-0.169
-236.859	-26.666	0.133	-0.077
-235.844	80.659	-0.307	-0.327
-234.830	-28.372	-0.294	0.168
-233.815	-103.820	0.272	0.063
-232.800	114.797	-0.148	-0.178
-231.786	-117.221	-0.170	0.030
-230.771	800.000	-0.075	-0.267
-229.757	-12.809	-0.015	-0.010
-228.742	50.487	0.165	-0.154
-227.727	227.360	-0.108	-0.174
-226.713	107.308	0.167	-0.196
-225.698	-34.862	0.269	-0.145
-224.684	138.160	0.171	-0.222
-223.669	-108.404	0.277	0.059
-222.655	800.000	0.033	-0.095
-221.640	-200.000	-0.055	0.264
-220.625	55.093	-0.164	0.156
-219.611	-200.000	0.058	-0.258
-218.596	45.401	0.010	0.009
-217.582	39.332	0.313	0.277
-216.567	-200.000	0.010	0.064
-215.552	-200.000	0.000	0.074
-214.538	156.418	-0.042	0.057
-213.523	800.000	0.009	-0.034
-212.509	-80.655	-0.162	-0.053
-211.494	-200.000	-0.074	0.000
-210.479	138.757	-0.061	0.080
-209.465	590.876	0.132	0.322
-208.450	800.000	-0.062	0.176
-207.436	209.442	-0.158	-0.245
-206.421	-75.366	0.154	-0.054
-205.406	576.568	0.061	0.146
-204.392	-74.710	0.137	0.049
-203.377	-168.690	-0.141	0.005
-202.363	-164.031	0.232	0.011
-201.348	204.681	-0.229	0.351
-200.333	-145.861	0.043	0.004
-199.319	-200.000	0.025	0.640
-198.304	171.197	-0.051	0.072
-197.290	800.000	0.036	-0.103
-196.275	-66.694	-0.338	0.132
-195.260	-200.000	0.006	0.177
-194.246	-92.020	0.434	0.121
-193.231	-200.000	0.095	0.469
-192.217	-200.000	-0.043	0.291
-191.202	-200.000	0.108	-0.496
-190.187	263.728	0.207	0.355
-189.173	-200.000	0.043	-0.255
-188.158	-200.000	-0.035	0.195
-187.144	-29.962	0.076	-0.042
-186.129	149.143	0.124	-0.166
-185.114	110.404	0.143	0.170
-184.100	-200.000	0.032	-0.193
-183.085	280.056	-0.075	0.133
-182.071	176.346	-0.042	-0.061
-181.056	271.869	0.086	-0.150
-180.042	-4.222	0.151	0.103
-179.027	-86.195	-0.261	-0.079
-178.012	636.044	0.069	0.174
-176.998	80.745	0.137	0.145
-175.983	-200.000	0.022	0.130
-174.969	-26.935	-0.357	-0.206
-173.954	-200.000	-0.099	-0.436
-172.939	-87.771	0.232	-0.069
-171.925	-200.000	0.024	-0.282
-170.910	800.000	-0.081	0.249
-169.896	-72.579	0.166	0.060
-168.881	-28.154	0.233	0.133
-167.866	244.904	-0.177	-0.293
-166.852	33.780	-0.073	-0.063
-165.837	65.625	0.139	0.139
-164.823	-67.615	-0.101	0.039
-163.808	8.986	-0.229	0.171
-162.793	380.397	-0.181	-0.366
-161.779	-149.028	-0.313	0.025
-160.764	125.487	0.107	-0.134
-159.750	-117.619	0.244	-0.043
-158.735	16.926	-0.268	-0.210
-157.720	398.800	-0.037	-0.076
-156.706	-200.000	-0.002	0.122
-155.691	584.026	0.121	-0.293
-154.677	35.948	-0.184	-0.160
-153.662	-12.061	0.233	-0.151
-152.647	-68.690	0.113	-0.043
-151.633	-42.095	-0.312	0.157
-150.618	111.137	0.237	-0.282
-149.604	-98.558	-0.302	-0.076
-148.589	-200.000	0.030	-0.271
-147.574	97.510	-0.220	0.250
-146.560	-76.604	-0.318	-0.110
-145.545	-17.833	0.232	0.143
-144.531	401.854	0.123	0.254
-143.516	182.879	0.282	0.411
-142.502	40.262	0.189	0.168
-141.487	27.772	-0.152	-0.126
-140.472	-145.438	0.128	0.011
-139.458	-30.552	-0.063	-0.035
-138.443	-36.757	-0.237	-0.125
-137.429	800.000	0.071	0.250
-136.414	800.000	-0.008	-0.026
-135.399	800.000	0.066	-0.236
-134.385	-119.125	-0.274	0.047
-133.370	232.720	0.116	-0.187
-132.356	-110.316	-0.322	-0.066
-131.341	-106.785	0.331	-0.072
-130.326	369.243	0.042	-0.084
-129.312	-85.657	-0.186	0.057
-128.297	-126.282	0.203	0.030
-127.283	262.308	0.070	-0.120
-126.268	24.186	-0.207	0.168
-125.253	33.789	0.095	0.082
-124.239	46.516	-0.163	-0.149
-123.224	-200.000	-0.008	0.113
-122.210	-120.088	-0.059	0.010
-121.195	-129.336	0.166	-0.023
