DTS Sentinel unit serial number:	SN413079Multiplexer serial number:	ORYXHardware model number:	OX4-SRSoftware version number:	ORYX F/W v4.00 Oryx Data Collector v3.7.2.0data status	okinstallation	princeton_trtdifferential loss correction	single-endedforward channel	channel 3reverse channel	N/Adate	2019/09/12time	19:28:04forward acquisition time	15.00reverse acquisition time	0.00gamma	496.2192k internal	0.2322k external	0.2322temperature offset calibration	1.0112default loss term (dB/km)	0.3790temperature slope calibration	1.0000multiplexer offset coefficient	1.0000multiplexer slope coefficient	1.0000fibre end	0.00T internal ref (°C)	32.31T ext. ref 1 (°C)	3.25T ext. ref 2 (°C)	26.87length (m)	temperature (°C)	Stokes	anti-Stokes-747.200	94.280	-0.114	-0.131
-746.185	-53.772	-0.530	-0.244
-745.171	800.000	0.028	0.082
-744.156	-200.000	-0.205	0.928
-743.142	-152.218	0.744	-0.054
-742.127	317.279	-0.133	-0.255
-741.112	-200.000	0.072	-0.390
-740.098	-13.920	-0.410	0.268
-739.083	-72.732	-0.160	-0.059
-738.069	781.743	0.048	0.134
-737.054	-64.815	-0.132	-0.054
-736.039	12.131	-0.487	-0.378
-735.025	-79.347	0.543	0.186
-734.010	-30.561	-0.377	0.215
-732.996	149.560	-0.488	-0.668
-731.981	-200.000	0.061	-0.860
-730.966	-114.538	0.558	-0.108
-729.952	800.000	0.254	0.798
-728.937	280.489	0.157	-0.283
-727.923	-200.000	-0.100	0.594
-726.908	-200.000	0.127	-0.746
-725.894	96.272	-0.082	-0.095
-724.879	-106.666	-0.398	0.089
-723.864	-200.000	0.014	0.281
-722.850	112.972	-0.244	-0.299
-721.835	35.320	-0.565	-0.500
-720.821	-119.669	-0.380	0.066
-719.806	800.000	0.196	-0.828
-718.791	-168.640	0.608	0.023
-717.777	800.000	-0.239	-0.966
-716.762	-200.000	0.066	-0.292
-715.748	-5.664	0.108	-0.075
-714.733	52.577	0.426	0.411
-713.718	-75.093	-0.802	-0.289
-712.704	65.948	-0.204	-0.209
-711.689	423.844	0.202	-0.437
-710.675	-125.385	-0.282	0.043
-709.660	800.000	0.148	0.473
-708.645	-143.258	-0.551	0.053
-707.631	-200.000	-0.002	-0.189
-706.616	-62.409	-0.319	-0.134
-705.602	-80.442	0.732	-0.247
-704.587	-200.000	-0.047	0.506
-703.572	-181.671	-0.789	-0.015
-702.558	-140.356	1.017	-0.107
-701.543	-80.995	-0.860	-0.287
-700.529	-200.000	-0.069	-0.527
-699.514	-28.734	-0.991	-0.575
-698.499	430.350	-0.296	-0.646
-697.485	434.464	0.083	0.181
-696.470	-200.000	-0.185	-0.841
-695.456	-60.102	0.680	0.293
-694.441	-84.204	0.392	-0.125
-693.426	129.455	-0.681	-0.878
-692.412	521.642	0.177	0.418
-691.397	-60.372	0.209	-0.090
-690.383	329.400	-0.317	0.614
-689.368	800.000	-0.039	0.173
-688.354	106.074	0.639	-0.763
-687.339	-58.191	-0.558	0.245
-686.324	28.876	-0.348	0.297
-685.310	63.149	0.418	0.422
-684.295	39.635	0.277	0.251
-683.281	-87.877	-0.829	0.251
-682.266	-12.879	0.456	-0.299
-681.251	320.936	-0.201	-0.386
-680.237	-103.914	0.095	-0.022
-679.222	-108.204	-0.302	-0.066
-678.208	-200.000	0.714	0.001
-677.193	-169.329	-0.390	0.014
-676.178	-200.000	-0.048	-0.330
-675.164	-65.413	0.362	0.146
-674.149	74.774	-0.514	0.545
-673.135	-39.202	-0.080	0.042
-672.120	29.042	-0.261	0.223
-671.105	-200.000	-0.035	0.188
-670.091	-200.000	-0.059	-0.374
-669.076	-72.093	0.263	-0.098
-668.062	169.519	0.486	-0.699
-667.047	-131.271	-0.769	0.103
-666.032	-14.712	-0.646	-0.418
-665.018	399.664	-0.070	0.147
-664.003	-105.963	-0.532	0.121
-662.989	800.000	0.153	0.538
-661.974	-31.985	-0.843	-0.475
-660.959	-59.976	-0.705	-0.303
-659.945	17.428	0.462	-0.370
-658.930	-160.490	0.607	-0.033
-657.916	-200.000	-0.093	0.418
-656.901	-131.846	-0.261	-0.034
-655.886	183.522	0.585	0.870
-654.872	-200.000	-0.004	0.465
-653.857	-59.513	-0.186	0.080
-652.843	-63.044	-0.430	-0.179
-651.828	132.021	0.456	0.592
-650.814	-200.000	0.018	1.262
-649.799	53.973	0.456	0.441
-648.784	-43.670	-0.365	0.185
-647.770	-97.537	0.257	-0.067
-646.755	-129.624	-0.646	0.090
-645.741	99.738	0.243	0.283
-644.726	-32.589	-0.405	-0.227
-643.711	-200.000	0.005	-0.553
-642.697	-62.318	-0.821	0.344
-641.682	-62.080	0.284	0.119
-640.668	-23.816	-0.323	0.195
-639.653	-70.457	-0.446	-0.170
-638.638	0.678	0.911	0.656
-637.624	-21.795	0.234	-0.143
-636.609	-200.000	-0.014	0.594
-635.595	191.041	-0.326	0.493
-634.580	-147.487	-0.217	-0.018
-633.565	56.541	0.672	0.658
-632.551	584.003	-0.127	-0.313
-631.536	-200.000	0.057	0.412
-630.522	800.000	-0.098	0.377
-629.507	-53.559	0.786	-0.362
-628.492	-200.000	-0.019	0.674
-627.478	800.000	0.227	0.674
-626.463	3.341	0.388	0.284
-625.449	800.000	0.042	0.178
-624.434	-200.000	-0.006	-0.270
-623.419	-200.000	-0.056	-0.324
-622.405	-93.755	0.275	-0.076
-621.390	118.045	0.291	0.361
-620.376	5.491	0.054	-0.040
-619.361	-98.330	-0.275	0.071
-618.346	412.870	0.191	-0.408
-617.332	-129.231	0.702	0.098
-616.317	35.927	0.365	0.323
-615.303	147.973	-0.083	0.112
-614.288	73.505	0.351	-0.369
-613.273	211.529	-0.284	0.450
-612.259	800.000	-0.190	-0.743
-611.244	-160.761	-0.381	0.020
-610.230	421.371	-0.122	-0.263
-609.215	-79.852	-0.679	-0.229
-608.201	-120.793	0.516	-0.087
-607.186	-200.000	-0.058	0.294
-606.171	574.943	0.296	0.725
-605.157	800.000	-0.279	-0.883
-604.142	140.345	0.673	-0.892
-603.128	800.000	0.147	-0.530
-602.113	546.460	-0.342	-0.822
-601.098	-21.424	0.997	0.611
-600.084	4.007	-0.571	0.419
-599.069	-16.952	0.722	-0.458
-598.055	-200.000	-0.028	-0.933
-597.040	-200.000	0.320	-0.001
-596.025	-200.000	-0.088	0.448
-595.011	-200.000	0.028	0.135
-593.996	-190.519	0.329	-0.004
-592.982	429.018	-0.175	0.379
-591.967	800.000	-0.369	-1.160
-590.952	5.416	-0.343	0.254
-589.938	-33.769	-0.122	-0.067
-588.923	-161.941	0.363	-0.018
-587.909	218.473	-0.356	-0.570
-586.894	349.784	-0.128	-0.253
-585.879	254.660	0.364	-0.626
-584.865	-109.741	0.193	0.041
-583.850	-1.725	-0.412	-0.291
-582.836	800.000	0.065	-0.200
-581.821	45.995	0.468	0.435
-580.806	-200.000	0.263	-1.303
-579.792	13.845	-0.585	-0.457
-578.777	-94.785	-0.429	-0.117
-577.763	-121.631	0.061	-0.010
-576.748	40.747	-0.567	0.514
-575.733	182.465	0.349	-0.517
-574.719	-73.131	0.901	-0.332
-573.704	154.579	-0.430	0.593
-572.690	-200.000	-0.110	0.581
-571.675	800.000	-0.091	-0.341
-570.661	-56.558	0.765	0.340
-569.646	114.508	-0.309	0.378
-568.631	-67.028	-0.128	-0.050
-567.617	-114.146	0.206	0.040
-566.602	-37.450	0.207	0.111
-565.588	236.303	0.114	0.189
-564.573	-133.199	0.485	-0.062
-563.558	-2.449	0.867	0.610
-562.544	-50.341	-0.228	-0.108
-561.529	411.643	-0.104	0.222
-560.515	-116.096	-0.501	0.094
-559.500	258.863	-0.165	0.286
-558.485	148.634	-0.417	-0.565
-557.471	-200.000	0.059	-0.640
-556.456	-82.827	-0.196	-0.063
-555.442	-106.335	-0.372	0.083
-554.427	-93.009	0.301	0.084
-553.412	160.973	-0.170	-0.238
-552.398	-25.745	-0.899	-0.531
-551.383	529.457	0.315	0.746
-550.369	-67.906	0.834	0.327
-549.354	-200.000	-0.062	-0.505
-548.339	-123.326	-0.424	0.068
-547.325	167.421	-0.076	0.108
-546.310	800.000	-0.150	-0.497
-545.296	-200.000	-0.006	-0.042
-544.281	800.000	-0.108	0.403
-543.266	-33.125	-0.502	-0.279
-542.252	39.823	0.524	-0.472
-541.237	778.810	-0.261	0.715
-540.223	-61.616	0.354	-0.149
-539.208	-45.374	0.547	0.272
-538.193	774.115	0.246	0.672
-537.179	800.000	-0.289	0.922
-536.164	-200.000	0.066	-0.327
-535.150	-125.916	-0.245	0.037
-534.135	-33.531	0.499	-0.276
-533.121	197.660	-0.271	0.415
-532.106	-200.000	0.074	1.214
-531.091	295.722	0.457	-0.838
-530.077	-132.472	-0.646	-0.083
-529.062	204.788	0.195	-0.304
-528.048	-154.783	-0.346	0.023
-527.033	-155.841	0.679	0.043
-526.018	-42.405	-0.640	0.327
-525.004	-93.870	0.151	-0.042
-523.989	-200.000	-0.090	-0.422
-522.975	756.149	-0.202	0.548
-521.960	2.171	-0.329	0.238
-520.945	63.901	0.320	-0.322
-519.931	-200.000	0.056	-0.676
-518.916	30.124	-0.272	0.233
-517.902	133.678	0.122	-0.157
-516.887	-200.000	-0.042	0.234
-515.872	65.553	-0.431	0.437
-514.858	-186.966	1.061	-0.015
-513.843	-59.643	0.251	-0.108
-512.829	73.853	-0.524	0.550
-511.814	-200.000	-0.143	0.657
-510.799	132.591	0.056	-0.072
-509.785	-200.000	0.011	-0.754
-508.770	48.011	-0.604	0.565
-507.756	47.952	-0.334	0.313
-506.741	107.009	0.397	-0.472
-505.726	-123.520	0.608	0.097
-504.712	-169.697	0.633	-0.023
-503.697	786.572	-0.219	-0.600
-502.683	30.783	0.832	0.713
-501.668	7.403	-0.402	-0.301
-500.653	-200.000	-0.052	-0.624
-499.639	9.096	-0.374	0.283
-498.624	-57.761	0.145	-0.063
-497.610	9.226	-0.418	-0.316
-496.595	-108.632	-0.811	0.174
-495.581	-61.859	-0.342	0.143
-494.566	-200.000	0.148	-0.683
-493.551	18.796	0.495	0.397
-492.537	-200.000	-0.057	0.313
-491.522	14.209	-0.357	0.278
-490.508	45.969	-0.214	-0.198
-489.493	-200.000	0.055	-1.253
-488.478	-200.000	-0.021	0.479
-487.464	326.315	-0.230	-0.440
-486.449	-75.063	0.301	-0.108
-485.435	467.980	-0.405	0.908
-484.420	800.000	0.300	1.012
-483.405	800.000	0.040	0.142
-482.391	-200.000	0.057	0.781
-481.376	-200.000	0.009	-0.087
-480.362	-86.988	-0.405	0.123
-479.347	-138.637	0.396	0.043
-478.332	-149.318	0.131	-0.010
-477.318	-53.881	-1.229	-0.560
-476.303	-66.304	-0.143	0.057
-475.289	-47.327	-0.517	-0.252
-474.274	204.397	0.376	0.583
-473.259	-18.275	-0.426	0.267
-472.245	-12.207	0.448	-0.293
-471.230	351.177	-0.271	-0.537
-470.216	-23.079	-0.610	0.367
-469.201	-20.484	0.276	-0.169
-468.186	-154.981	0.435	0.029
-467.172	300.451	0.191	0.352
-466.157	-101.108	0.332	-0.081
-465.143	-102.360	-0.641	-0.154
-464.128	181.296	0.182	-0.268
-463.113	800.000	-0.099	-0.397
-462.099	216.401	0.074	0.118
-461.084	-33.320	-0.284	-0.157
-460.070	-101.699	0.428	-0.104
-459.055	68.174	0.466	0.477
-458.040	389.759	0.113	0.235
-457.026	800.000	0.235	-0.740
-456.011	21.691	0.590	0.480
-454.997	490.931	-0.319	0.730
-453.982	-28.571	-0.259	-0.149
-452.968	-171.900	0.948	0.031
-451.953	-200.000	0.081	0.502
-450.938	-61.631	-0.780	-0.327
-449.924	124.371	-0.157	-0.197
-448.909	-144.607	-0.187	0.017
-447.895	-200.000	-0.048	0.702
-446.880	-106.595	-0.813	-0.181
-445.865	-69.944	-0.109	0.042
-444.851	4.952	1.246	0.916
-443.836	237.291	0.442	-0.731
-442.822	-92.508	0.918	-0.258
-441.807	-82.729	-0.437	0.141
-440.792	163.764	-0.817	1.148
-439.778	49.690	-0.538	-0.506
-438.763	-105.749	-0.901	-0.203
-437.749	-60.196	-0.914	-0.389
-436.734	345.919	0.486	0.954
-435.719	129.550	0.251	-0.320
-434.705	-52.373	-0.248	-0.114
-433.690	-70.042	0.542	0.206
-432.676	-82.540	0.467	0.151
-431.661	-4.583	0.323	0.223
-430.646	-47.018	0.682	-0.333
-429.632	-200.000	0.341	0.000
-428.617	-189.811	0.653	-0.007
-427.603	-141.013	0.802	0.082
-426.588	3.885	0.322	-0.235
-425.573	-28.962	0.055	0.031
-424.559	57.098	-0.348	-0.338
-423.544	67.066	-0.193	-0.197
-422.530	7.232	-0.191	-0.142
-421.515	-200.000	0.101	0.571
-420.500	254.033	-0.339	0.577
-419.486	-200.000	0.156	-0.880
-418.471	340.050	0.351	0.682
-417.457	-200.000	0.092	-0.502
-416.442	-82.862	1.198	-0.386
-415.428	558.073	0.283	-0.680
-414.413	-200.000	-0.103	-0.813
-413.398	-200.000	-0.142	-0.769
-412.384	-200.000	-0.212	-0.929
-411.369	99.509	-0.568	-0.656
-410.355	-92.586	0.681	0.191
-409.340	-33.209	-0.370	-0.204
-408.325	503.275	-0.131	0.302
-407.311	-11.095	0.219	0.144
-406.296	137.471	0.189	0.247
-405.282	-200.000	-0.044	-0.852
-404.267	166.640	-0.481	-0.681
-403.252	-20.474	0.360	-0.221
-402.238	-200.000	-0.014	0.820
-401.223	462.599	0.114	-0.253
-400.209	-176.505	-0.374	0.010
-399.194	-114.157	-0.696	-0.134
-398.179	-127.004	-0.383	-0.056
-397.165	-77.609	-0.109	0.038
-396.150	262.337	0.511	0.884
-395.136	800.000	-0.246	0.879
-394.121	-57.888	-0.380	0.165
-393.106	-200.000	0.049	0.286
-392.092	113.074	0.143	-0.173
-391.077	-200.000	0.012	0.571
-390.063	-38.397	-0.617	-0.325
-389.048	-42.908	0.155	0.078
-388.033	800.000	-0.157	0.496
-387.019	506.078	-0.209	0.483
-386.004	21.587	-0.491	0.398
-384.990	165.974	-0.311	0.438
-383.975	548.956	0.054	0.129
-382.960	-67.660	0.571	0.223
-381.946	-98.617	-0.717	0.182
-380.931	-67.336	1.075	-0.421
-379.917	118.373	0.173	0.213
-378.902	-173.411	-0.760	0.023
-377.888	60.565	0.100	-0.098
-376.873	217.196	0.305	-0.484
-375.858	-48.923	-1.202	-0.574
-374.844	62.330	-0.130	-0.129
-373.829	-43.182	-0.679	0.343
-372.815	-120.210	0.429	-0.073
-371.800	21.155	0.530	-0.429
-370.785	-34.233	-0.535	0.292
-369.771	734.943	0.191	-0.509
-368.756	-200.000	-0.180	0.000
-367.742	-188.755	0.571	-0.007
-366.727	210.801	0.360	-0.563
-365.712	65.720	-0.512	-0.516
-364.698	76.690	-0.632	-0.667
-363.683	6.530	0.522	-0.386
-362.669	-165.928	0.726	-0.031
-361.654	55.402	-0.490	-0.472
-360.639	-41.899	0.223	-0.114
-359.625	800.000	-0.327	1.139
-358.610	-200.000	0.029	-0.312
-357.596	-75.206	0.752	0.267
-356.581	118.558	-0.600	0.737
-355.566	479.299	-0.222	-0.502
-354.552	-200.000	-0.077	0.376
-353.537	-152.521	0.188	0.013
-352.523	-200.000	-0.040	-0.211
-351.508	-200.000	-0.057	0.596
-350.493	-114.191	-0.096	-0.018
-349.479	-200.000	0.219	-1.002
-348.464	75.497	-0.202	-0.212
-347.450	19.711	1.016	-0.813
-346.435	-114.692	-1.014	0.193
-345.420	162.349	0.363	-0.507
-344.406	-29.708	0.528	-0.300
-343.391	-200.000	0.221	1.049
-342.377	-200.000	0.009	0.895
-341.362	249.170	0.221	-0.373
-340.348	-24.477	-0.231	-0.137
-339.333	-20.784	-0.348	-0.212
-338.318	522.291	-0.385	0.900
-337.304	-0.471	0.095	-0.067
-336.289	-7.231	-1.162	-0.783
-335.275	4.627	0.265	-0.193
-334.260	-99.601	-0.945	0.236
-333.245	-138.340	-0.409	0.045
-332.231	-200.000	-0.010	0.878
-331.216	58.616	0.441	-0.430
-330.202	-200.000	-0.102	0.961
-329.187	800.000	0.288	-0.932
-328.172	-86.094	0.513	-0.157
-327.158	-200.000	0.017	0.082
-326.143	-61.985	-0.525	-0.218
-325.129	-62.190	-0.386	-0.160
-324.114	-88.675	0.600	-0.177
-323.099	-139.346	-0.552	-0.059
-322.085	-133.538	-0.318	0.040
-321.070	800.000	-0.301	0.857
-320.056	-57.665	0.644	0.280
-319.041	683.331	0.146	-0.378
-318.026	4.961	-0.508	0.371
-317.012	43.008	-0.207	-0.187
-315.997	-65.585	0.696	-0.278
-314.983	36.441	-0.111	-0.097
-313.968	-58.318	0.304	0.131
-312.953	-42.234	-0.128	-0.065
-311.939	-75.186	0.308	0.109
-310.924	670.025	0.141	0.361
-309.910	15.988	-0.201	-0.157
-308.895	225.268	-0.203	-0.326
-307.880	-54.086	0.149	-0.067
-306.866	730.705	0.168	-0.447
-305.851	309.227	-0.184	-0.342
-304.837	49.412	0.279	-0.260
-303.822	-47.280	0.417	-0.202
-302.807	-200.000	0.106	-0.984
-301.793	-165.115	0.402	0.018
-300.778	178.465	-0.008	-0.012
-299.764	135.591	-0.250	0.322
-298.749	-87.810	0.513	0.153
-297.735	305.285	0.228	0.421
-296.720	-30.521	-0.114	-0.064
-295.705	85.480	0.502	-0.547
-294.691	-200.000	0.016	0.102
-293.676	-55.297	0.367	-0.164
-292.662	-137.709	0.565	-0.063
-291.647	-200.000	0.101	-0.620
-290.632	-2.761	0.421	-0.292
-289.618	-200.000	0.112	-0.831
-288.603	-141.549	-0.849	0.085
-287.589	-119.882	-0.713	-0.122
-286.574	-82.809	0.909	0.292
-285.559	-84.593	0.738	-0.231
-284.545	-23.746	0.398	-0.237
-283.530	-96.561	-0.451	0.118
-282.516	249.186	-0.449	0.755
-281.501	27.274	-0.153	0.128
-280.486	182.289	0.224	0.327
-279.472	86.116	0.228	-0.250
-278.457	18.498	-0.215	0.170
-277.443	-148.731	-1.119	0.090
-276.428	-200.000	0.085	0.567
-275.413	-22.655	0.665	-0.399
-274.399	78.456	-0.149	0.158
-273.384	-7.177	0.285	0.192
-272.370	51.758	-0.152	0.144
-271.355	-54.008	-0.322	-0.146
-270.340	-115.431	0.496	-0.093
-269.326	-51.127	-0.577	0.268
-268.311	-34.506	-0.429	0.233
-267.297	-33.184	-0.667	-0.366
-266.282	721.150	0.097	0.257
-265.267	-200.000	-0.048	0.427
-264.253	-200.000	-0.106	-0.549
-263.238	-200.000	0.079	-0.514
-262.224	-134.013	-0.287	-0.035
-261.209	-112.207	0.842	0.168
-260.195	-200.000	0.154	0.798
-259.180	-200.000	-0.032	0.436
-258.165	67.851	-0.131	-0.132
-257.151	501.743	0.042	0.095
-256.136	-128.152	0.523	-0.074
-255.122	-86.940	-0.469	-0.142
-254.107	38.986	0.782	0.693
-253.092	73.356	-0.156	-0.162
-252.078	138.760	0.122	-0.159
-251.063	-200.000	0.012	-0.977
-250.049	-55.413	0.570	-0.254
-249.034	608.144	-0.388	0.958
-248.019	-56.241	-0.753	-0.332
-247.005	162.269	-0.553	-0.768
-245.990	-7.988	0.352	0.235
-244.976	-61.794	0.796	0.330
-243.961	-45.122	0.566	-0.279
-242.946	-200.000	0.109	-0.482
-241.932	121.715	0.337	-0.416
-240.917	116.674	-0.328	-0.398
-239.903	-200.000	-0.003	0.275
-238.888	800.000	-0.130	-0.444
-237.873	-101.396	0.240	0.058
-236.859	345.745	0.428	0.834
-235.844	-200.000	0.027	0.180
-234.830	-88.307	0.661	-0.196
-233.815	51.483	0.357	0.336
-232.800	249.928	-0.205	0.345
-231.786	61.121	-0.269	0.265
-230.771	800.000	-0.140	-0.510
-229.757	411.543	-0.141	0.297
-228.742	-16.372	-0.421	0.264
-227.727	166.842	-0.367	-0.515
-226.713	-88.991	0.901	-0.264
-225.698	-83.132	0.219	0.070
-224.684	-10.590	-1.008	0.660
-223.669	12.487	0.289	-0.221
-222.655	-200.000	0.056	-0.506
-221.640	55.269	-0.804	-0.770
-220.625	-200.000	0.027	-0.383
-219.611	-158.486	-1.095	0.063
-218.596	-10.132	-0.211	-0.139
-217.582	353.516	0.033	-0.065
-216.567	-200.000	0.070	-0.825
-215.552	800.000	0.148	0.613
-214.538	-43.049	-0.723	0.363
-213.523	-200.000	-0.114	-0.495
-212.509	220.806	-0.161	0.255
-211.494	-106.233	-0.527	0.117
-210.479	249.480	-0.262	-0.440
-209.465	-118.187	-0.818	-0.144
-208.450	346.011	-0.060	-0.116
-207.436	-200.000	0.017	-0.185
-206.421	139.187	0.146	-0.190
-205.406	39.661	0.451	0.401
-204.392	800.000	-0.129	0.537
-203.377	-200.000	-0.024	0.167
-202.363	-200.000	-0.111	0.890
-201.348	-200.000	0.076	-0.559
-200.333	-20.275	-0.352	-0.215
-199.319	-157.904	-0.277	-0.016
-198.304	-33.128	0.518	-0.284
-197.290	-200.000	0.090	0.646
-196.275	-200.000	0.080	0.461
-195.260	-200.000	0.219	1.080
-194.246	-52.814	-0.583	0.266
-193.231	604.839	0.104	0.257
-192.217	-200.000	-0.012	-0.408
-191.202	-107.411	0.658	0.143
-190.187	-200.000	-0.111	0.547
-189.173	-115.186	-0.927	0.174
-188.158	-73.050	1.002	0.363
-187.144	-200.000	0.037	-0.312
-186.129	562.976	0.107	-0.257
-185.114	-93.745	0.345	-0.094
-184.100	-100.248	0.412	-0.101
-183.085	800.000	-0.147	-0.404
-182.071	273.133	0.199	-0.347
-181.056	-200.000	0.123	-0.601
-180.042	-5.791	0.303	0.205
-179.027	-200.000	-0.061	-0.449
-178.012	27.356	-0.125	-0.104
-176.998	209.418	-0.407	-0.631
-175.983	800.000	0.129	-0.469
-174.969	-141.388	0.573	0.057
-173.954	237.499	0.352	0.577
-172.939	800.000	-0.207	0.715
-171.925	-200.000	0.051	0.481
-170.910	800.000	0.098	0.308
-169.896	800.000	0.263	0.889
-168.881	-200.000	0.060	0.483
-167.866	-200.000	-0.065	-0.401
-166.852	-73.777	-0.125	-0.045
-165.837	23.321	0.371	-0.302
-164.823	-91.543	-0.856	-0.241
-163.808	-200.000	-0.069	0.591
-162.793	800.000	0.172	-0.550
-161.779	2.717	0.383	0.275
-160.764	-27.771	0.176	-0.101
-159.750	-97.129	-0.870	-0.225
-158.735	126.137	0.512	0.640
-157.720	-200.000	-0.118	-1.398
-156.706	154.216	-0.330	-0.447
-155.691	45.286	-0.310	0.283
-154.677	164.581	-0.255	0.355
-153.662	-200.000	-0.056	0.272
-152.647	431.990	-0.466	0.997
-151.633	92.968	-0.596	0.665
-150.618	49.994	0.554	0.516
-149.604	-200.000	0.116	0.566
-148.589	-200.000	0.009	0.142
-147.574	-158.552	0.588	-0.034
-146.560	-73.563	-0.118	0.043
-145.545	268.766	-0.069	0.120
-144.531	-46.683	0.715	-0.346
-143.516	-99.038	-0.939	0.235
-142.502	29.615	-0.345	-0.290
-141.487	-200.000	-0.045	-0.844
-140.472	288.259	0.348	0.622
-139.458	232.386	0.433	-0.701
-138.443	800.000	-0.166	-0.548
-137.429	800.000	-0.050	0.191
-136.414	-200.000	0.030	1.219
-135.399	800.000	-0.199	0.581
-134.385	800.000	0.191	-0.697
-133.370	800.000	0.057	-0.232
-132.356	409.717	-0.416	0.869
-131.341	229.149	-0.311	-0.501
-130.326	157.756	-0.499	0.682
-129.312	-106.445	-0.088	0.019
-128.297	-140.413	0.569	0.058
-127.283	417.223	-0.243	0.511
-126.268	-200.000	0.132	0.652
-125.253	131.667	-0.204	-0.259
-124.239	-124.855	-0.760	-0.116
-123.224	-50.903	0.279	0.129
-122.210	-18.403	-0.828	0.510
