DTS Sentinel unit serial number:	SN413079Multiplexer serial number:	ORYXHardware model number:	OX4-SRSoftware version number:	ORYX F/W v4.00 Oryx Data Collector v3.7.2.0data status	okinstallation	princeton_trtdifferential loss correction	single-endedforward channel	channel 3reverse channel	N/Adate	2019/09/11time	11:22:11forward acquisition time	60.00reverse acquisition time	0.00gamma	496.2192k internal	0.2295k external	0.2295temperature offset calibration	0.9936default loss term (dB/km)	0.3790temperature slope calibration	1.0000multiplexer offset coefficient	1.0000multiplexer slope coefficient	1.0000fibre end	0.00T internal ref (°C)	37.81T ext. ref 1 (°C)	0.19T ext. ref 2 (°C)	35.21length (m)	temperature (°C)	Stokes	anti-Stokes-747.200	335.490	-0.162	-0.321
-746.185	308.313	0.059	0.112
-745.171	800.000	0.105	0.352
-744.156	-0.568	-0.287	0.208
-743.142	90.080	0.048	0.054
-742.127	-32.317	0.055	0.031
-741.112	-127.580	-0.306	-0.045
-740.098	800.000	-0.039	-0.155
-739.083	164.914	-0.065	0.094
-738.069	-126.249	0.215	0.033
-737.054	-135.544	-0.075	0.009
-736.039	-74.203	-0.503	-0.186
-735.025	-35.432	0.187	0.104
-734.010	534.480	-0.120	0.291
-732.996	-101.233	-0.212	0.053
-731.981	96.368	-0.224	0.262
-730.966	-200.000	0.036	-0.277
-729.952	800.000	-0.038	-0.140
-728.937	-189.183	-0.342	-0.004
-727.923	-200.000	0.003	-0.355
-726.908	-77.981	-0.431	-0.152
-725.894	-46.246	-0.124	-0.062
-724.879	479.657	0.086	-0.199
-723.864	324.637	0.200	-0.389
-722.850	-76.289	-0.144	0.052
-721.835	-200.000	0.176	0.000
-720.821	-93.487	-0.190	0.054
-719.806	800.000	-0.017	-0.068
-718.791	-200.000	0.004	-0.158
-717.777	-67.860	0.203	0.081
-716.762	-200.000	-0.018	0.149
-715.748	48.974	-0.275	0.264
-714.733	28.186	-0.064	0.055
-713.718	800.000	-0.127	-0.381
-712.704	195.745	-0.141	-0.219
-711.689	25.059	-0.228	0.193
-710.675	-47.331	-0.138	-0.068
-709.660	-105.716	-0.187	-0.043
-708.645	88.510	-0.090	0.102
-707.631	-50.012	0.168	-0.081
-706.616	-136.622	-0.403	-0.048
-705.602	-98.909	-0.256	0.066
-704.587	-180.431	-0.203	-0.004
-703.572	800.000	0.154	-0.440
-702.558	31.808	-0.206	-0.181
-701.543	-159.298	0.218	-0.012
-700.529	-200.000	0.068	-0.317
-699.514	225.158	-0.107	0.177
-698.499	800.000	0.053	0.168
-697.485	321.846	-0.106	-0.205
-696.470	-70.481	0.394	-0.152
-695.456	309.784	-0.174	0.332
-694.441	-138.724	-0.420	-0.047
-693.426	-121.320	0.214	0.036
-692.412	-102.817	-0.396	-0.096
-691.397	139.179	0.077	-0.103
-690.383	150.842	-0.134	0.185
-689.368	-200.000	0.011	-0.145
-688.354	218.087	0.120	0.196
-687.339	118.277	0.182	-0.229
-686.324	136.034	0.202	0.268
-685.310	-200.000	-0.001	0.223
-684.295	181.709	0.022	0.033
-683.281	-113.017	-0.228	0.046
-682.266	571.267	0.090	-0.224
-681.251	-13.894	0.197	-0.130
-680.237	64.944	-0.122	-0.125
-679.222	185.687	-0.025	0.037
-678.208	-22.275	-0.120	-0.074
-677.193	309.784	0.124	-0.236
-676.178	-37.377	0.127	0.069
-675.164	-37.586	0.083	-0.045
-674.149	800.000	-0.063	-0.229
-673.135	-87.842	0.104	-0.032
-672.120	-200.000	-0.023	0.617
-671.105	800.000	0.024	0.083
-670.091	-37.732	0.205	0.111
-669.076	-162.213	0.190	0.010
-668.062	-111.250	0.160	0.033
-667.047	-92.891	-0.236	0.067
-666.032	-9.418	-0.191	-0.130
-665.018	-159.031	0.196	0.011
-664.003	573.207	0.076	-0.189
-662.989	238.211	-0.061	-0.103
-661.974	-107.154	0.093	0.021
-660.959	-200.000	0.023	0.159
-659.945	7.830	-0.149	0.114
-658.930	428.919	0.195	0.429
-657.916	-112.697	-0.141	-0.029
-656.901	277.488	-0.061	-0.110
-655.886	-200.000	-0.003	-0.021
-654.872	-119.001	-0.192	0.034
-653.857	-11.239	-0.205	-0.138
-652.843	16.321	0.258	-0.207
-651.828	135.043	-0.118	-0.156
-650.814	-145.656	-0.117	-0.011
-649.799	800.000	0.077	-0.269
-648.784	-200.000	0.004	0.147
-647.770	-200.000	-0.090	0.441
-646.755	-65.473	-0.268	0.110
-645.741	-114.862	-0.415	0.081
-644.726	72.015	0.314	-0.332
-643.711	800.000	0.093	0.346
-642.697	778.590	0.077	0.215
-641.682	-96.990	0.368	0.098
-640.668	431.211	-0.053	-0.117
-639.653	169.681	-0.111	-0.162
-638.638	202.770	0.095	0.149
-637.624	311.013	-0.113	0.215
-636.609	-9.824	-0.177	0.120
-635.595	800.000	-0.123	-0.481
-634.580	44.654	-0.016	-0.015
-633.565	-124.699	-0.177	-0.028
-632.551	171.707	-0.136	-0.199
-631.536	-200.000	-0.060	0.273
-630.522	200.231	0.157	0.246
-629.507	83.857	0.079	0.088
-628.492	-73.619	-0.115	-0.043
-627.478	-200.000	0.039	-0.193
-626.463	401.414	0.113	-0.241
-625.449	800.000	-0.040	0.168
-624.434	-177.958	0.330	-0.008
-623.419	-74.261	-0.403	-0.148
-622.405	-104.826	0.105	0.025
-621.390	233.033	0.051	0.084
-620.376	-183.694	-0.068	-0.001
-619.361	-15.951	0.211	-0.137
-618.346	-96.595	0.215	-0.058
-617.332	-200.000	-0.073	-0.337
-616.317	139.014	-0.132	-0.177
-615.303	110.241	-0.103	0.126
-614.288	-121.885	-0.316	0.053
-613.273	-103.540	0.304	-0.073
-612.259	-58.924	-0.217	0.095
-611.244	8.090	-0.148	-0.113
-610.230	-186.944	-0.336	-0.005
-609.215	-99.488	-0.347	-0.089
-608.201	320.049	-0.007	0.014
-607.186	-26.579	0.128	-0.076
-606.171	104.236	0.098	-0.117
-605.157	-200.000	0.029	0.136
-604.142	403.111	-0.134	0.286
-603.128	-153.561	-0.317	-0.022
-602.113	-43.628	-0.141	-0.072
-601.098	-159.416	-0.372	0.021
-600.084	800.000	0.048	-0.178
-599.069	-200.000	-0.049	0.319
-598.055	-200.000	-0.001	0.040
-597.040	-0.429	-0.200	-0.144
-596.025	-200.000	0.032	-0.273
-595.011	-200.000	-0.024	0.223
-593.996	677.028	0.134	-0.355
-592.982	131.582	0.083	-0.109
-591.967	346.803	-0.250	-0.501
-590.952	-44.335	-0.225	-0.114
-589.938	506.364	0.090	-0.211
-588.923	-200.000	-0.038	-0.215
-587.909	624.312	-0.094	-0.241
-586.894	11.654	-0.162	-0.126
-585.879	800.000	-0.036	-0.144
-584.865	-103.696	0.203	0.048
-583.850	35.655	0.207	-0.185
-582.836	800.000	0.049	0.150
-581.821	62.862	-0.067	0.068
-580.806	402.792	-0.085	-0.181
-579.792	107.640	-0.033	0.040
-578.777	800.000	-0.046	-0.166
-577.763	-200.000	-0.035	0.287
-576.748	-200.000	0.027	-0.302
-575.733	-108.005	-0.107	-0.024
-574.719	-94.688	0.365	-0.101
-573.704	276.164	-0.201	0.362
-572.690	800.000	0.083	-0.249
-571.675	207.530	0.077	-0.123
-570.661	131.212	0.059	-0.077
-569.646	195.602	-0.036	0.055
-568.631	48.989	-0.113	0.108
-567.617	-31.656	0.288	0.164
-566.602	746.340	-0.069	0.188
-565.588	800.000	-0.014	0.056
-564.573	-5.441	0.188	0.131
-563.558	-198.803	-0.161	0.001
-562.544	800.000	0.084	0.330
-561.529	60.322	0.388	0.389
-560.515	300.695	-0.069	-0.130
-559.500	-67.716	0.210	-0.084
-558.485	757.031	-0.036	-0.100
-557.471	312.285	0.126	-0.240
-556.456	-200.000	0.007	-0.247
-555.442	77.076	0.186	-0.200
-554.427	800.000	-0.080	0.252
-553.412	-35.562	-0.067	0.037
-552.398	-47.283	-0.034	0.017
-551.383	-133.159	0.108	0.014
-550.369	113.694	-0.190	0.234
-549.354	800.000	0.017	0.049
-548.339	-58.915	0.194	0.085
-547.325	-200.000	0.021	-0.218
-546.310	-2.725	0.127	-0.090
-545.296	277.789	-0.116	-0.209
-544.281	-154.378	-0.227	0.015
-543.266	800.000	-0.093	-0.313
-542.252	-9.007	-0.175	-0.119
-541.237	-114.254	-0.219	-0.043
-540.223	589.062	0.019	-0.046
-539.208	-200.000	0.006	-0.111
-538.193	-130.571	0.043	-0.006
-537.179	113.329	0.096	0.118
-536.164	-200.000	0.013	0.149
-535.150	-118.535	-0.258	-0.046
-534.135	-48.760	-0.436	0.212
-533.121	-147.849	-0.144	0.012
-532.106	12.312	-0.005	0.004
-531.091	-73.787	-0.206	-0.076
-530.077	436.535	0.152	-0.336
-529.062	59.747	-0.163	0.163
-528.048	486.252	-0.072	-0.166
-527.033	451.142	-0.106	0.238
-526.018	18.738	-0.133	0.108
-525.004	-146.765	0.348	-0.030
-523.989	-1.758	-0.140	-0.100
-522.975	-101.385	-0.389	-0.096
-521.960	194.520	-0.176	-0.270
-520.945	-96.435	0.261	0.070
-519.931	10.077	-0.318	-0.245
-518.916	128.231	-0.093	-0.120
-517.902	800.000	-0.177	-0.537
-516.887	-158.825	-0.090	0.005
-515.872	164.708	0.155	0.221
-514.858	103.200	-0.226	0.268
-513.843	-110.349	0.268	0.056
-512.829	742.952	0.062	0.169
-511.814	260.164	-0.199	-0.348
-510.799	104.679	-0.109	0.130
-509.785	134.659	0.078	0.103
-508.770	-135.214	-0.156	0.019
-507.756	271.694	0.091	-0.162
-506.741	800.000	0.016	0.048
-505.726	-200.000	0.021	0.297
-504.712	22.427	0.163	-0.135
-503.697	104.239	0.063	-0.076
-502.683	326.597	-0.152	-0.294
-501.668	152.522	-0.147	0.203
-500.653	221.903	0.015	0.025
-499.639	-82.066	0.320	0.106
-498.624	-120.640	0.349	0.060
-497.610	-161.170	-0.684	-0.036
-496.595	-24.413	-0.056	0.034
-495.581	-200.000	-0.004	0.331
-494.566	-62.134	-0.044	-0.019
-493.551	-140.896	-0.128	0.013
-492.537	-195.149	-0.351	0.003
-491.522	-88.108	0.190	0.058
-490.508	-97.887	-0.182	0.048
-489.493	-166.401	0.210	0.009
-488.478	-82.646	0.124	0.041
-487.464	-125.518	0.255	0.039
-486.449	-32.184	0.116	0.065
-485.435	-200.000	0.007	0.459
-484.420	-63.624	0.351	0.146
-483.405	310.622	0.102	-0.194
-482.391	-200.000	-0.035	0.204
-481.376	-179.369	-0.060	0.001
-480.362	800.000	-0.079	-0.286
-479.347	239.029	0.272	-0.458
-478.332	-124.496	-0.485	0.076
-477.318	-80.623	0.114	0.038
-476.303	-133.466	0.228	0.029
-475.289	800.000	-0.023	-0.100
-474.274	-139.751	-0.183	0.020
-473.259	49.801	0.112	0.107
-472.245	318.546	0.175	0.335
-471.230	-9.331	-0.260	0.176
-470.216	444.051	0.100	0.223
-469.201	454.799	0.083	-0.187
-468.186	-22.010	0.033	-0.020
-467.172	538.993	0.067	0.162
-466.157	-67.131	0.057	-0.023
-465.143	424.186	-0.104	-0.227
-464.128	-200.000	0.003	0.274
-463.113	-200.000	-0.004	0.445
-462.099	-147.623	0.143	-0.012
-461.084	-2.134	-0.300	0.213
-460.070	-78.323	-0.185	0.064
-459.055	-57.162	0.241	-0.108
-458.040	-120.152	-0.211	0.036
-457.026	-24.542	0.157	0.094
-456.011	-110.713	0.147	0.031
-454.997	170.732	0.191	0.276
-453.982	215.352	-0.157	0.252
-452.968	-1.559	0.082	-0.058
-451.953	-200.000	0.011	-0.219
-450.938	-36.796	-0.306	-0.166
-449.924	-52.861	-0.339	0.158
-448.909	-117.701	0.127	0.023
-447.895	-33.319	0.071	0.040
-446.880	800.000	0.038	0.147
-445.865	-118.458	0.124	-0.022
-444.851	-35.716	0.215	-0.118
-443.836	-200.000	0.027	-0.146
-442.822	74.247	0.133	-0.142
-441.807	14.664	0.121	-0.095
-440.792	669.503	-0.192	-0.501
-439.778	-150.298	0.257	0.020
-438.763	111.147	-0.180	-0.219
-437.749	-200.000	0.011	0.219
-436.734	44.176	-0.219	-0.203
-435.719	-119.798	-0.184	0.032
-434.705	113.631	-0.063	0.077
-433.690	58.857	-0.037	-0.037
-432.676	92.770	-0.068	-0.078
-431.661	-200.000	-0.040	-0.257
-430.646	-106.958	0.158	-0.035
-429.632	-42.742	0.154	0.079
-428.617	332.636	-0.094	-0.183
-427.603	-14.139	-0.180	0.117
-426.588	8.849	0.244	-0.186
-425.573	800.000	0.037	0.107
-424.559	-13.768	0.096	0.062
-423.544	112.724	0.213	-0.261
-422.530	33.529	0.221	0.194
-421.515	-200.000	-0.003	-0.037
-420.500	-72.115	0.337	0.126
-419.486	357.907	-0.068	0.137
-418.471	-84.676	0.183	0.058
-417.457	0.682	0.209	-0.151
-416.442	-200.000	0.005	-0.106
-415.428	-14.084	0.105	-0.068
-414.413	37.363	0.033	-0.029
-413.398	-69.707	-0.127	-0.049
-412.384	306.962	0.140	0.263
-411.369	-40.535	-0.207	-0.109
-410.355	-200.000	-0.006	0.455
-409.340	-181.532	-0.181	-0.004
-408.325	-112.435	0.288	-0.058
-407.311	38.414	0.017	-0.015
-406.296	565.645	-0.128	-0.313
-405.282	-200.000	0.022	0.247
-404.267	-119.617	-0.169	-0.029
-403.252	-29.003	-0.260	0.150
-402.238	-200.000	0.059	0.333
-401.223	-113.721	-0.169	0.033
-400.209	-5.250	-0.189	0.131
-399.194	-84.408	0.328	-0.105
-398.179	800.000	0.032	-0.093
-397.165	-200.000	0.048	-0.302
-396.150	800.000	-0.080	0.239
-395.136	-52.868	-0.122	0.057
-394.121	116.293	-0.214	0.264
-393.106	-111.538	0.276	-0.057
-392.092	-94.395	-0.387	-0.106
-391.077	-200.000	-0.013	-0.161
-390.063	519.673	0.069	0.163
-389.048	515.813	0.025	-0.060
-388.033	-133.270	-0.215	0.027
-387.019	97.328	0.182	0.211
-386.004	5.158	0.223	0.165
-384.990	-75.709	0.274	0.098
-383.975	-200.000	0.026	0.151
-382.960	72.078	-0.213	0.224
-381.946	304.817	0.191	0.357
-380.931	311.921	0.059	0.112
-379.917	10.702	-0.089	0.068
-378.902	-69.160	0.256	0.099
-377.888	-78.827	0.276	-0.095
-376.873	-131.629	0.057	-0.008
-375.858	-112.399	-0.184	0.037
-374.844	800.000	-0.062	0.181
-373.829	-5.010	-0.177	-0.123
-372.815	166.824	-0.058	0.082
-371.800	-133.937	-0.491	-0.061
-370.785	-200.000	-0.010	-0.489
-369.771	-200.000	-0.076	0.375
-368.756	800.000	0.097	0.373
-367.742	66.110	0.126	0.128
-366.727	-63.459	0.290	-0.120
-365.712	-200.000	0.021	-0.203
-364.698	182.866	-0.115	0.170
-363.683	-158.805	0.160	-0.009
-362.669	513.096	0.052	0.121
-361.654	-3.442	0.343	0.240
-360.639	11.827	-0.198	0.153
-359.625	-99.836	0.331	-0.083
-358.610	-136.564	0.224	-0.026
-357.596	-121.808	0.220	0.037
-356.581	338.084	0.081	-0.159
-355.566	180.179	-0.148	-0.218
-354.552	33.780	0.120	0.105
-353.537	266.334	0.189	0.332
-352.523	565.264	0.058	-0.141
-351.508	229.421	-0.151	0.248
-350.493	-108.873	-0.255	-0.055
-349.479	-174.664	0.234	0.007
-348.464	800.000	0.078	0.219
-347.450	-115.238	0.292	0.056
-346.435	177.860	0.001	0.002
-345.420	37.067	-0.134	-0.119
-344.406	-176.229	0.309	-0.008
-343.391	-5.955	-0.186	-0.128
-342.377	400.768	0.050	-0.105
-341.362	-200.000	0.093	-0.453
-340.348	-200.000	0.003	0.029
-339.333	-63.831	-0.076	-0.031
-338.318	699.879	-0.036	-0.096
-337.304	-200.000	0.015	0.106
-336.289	37.460	0.258	0.230
-335.275	800.000	-0.029	0.123
-334.260	-5.793	0.218	0.150
-333.245	800.000	0.033	-0.093
-332.231	-96.459	0.222	0.059
-331.216	159.496	0.073	-0.102
-330.202	-66.145	0.066	-0.026
-329.187	-130.895	-0.043	0.006
-328.172	13.638	-0.288	-0.225
-327.158	-200.000	0.006	-0.266
-326.143	-103.861	0.237	0.056
-325.129	8.203	0.194	-0.146
-324.114	-22.796	-0.077	-0.047
-323.099	324.881	-0.107	-0.205
-322.085	11.831	-0.025	0.019
-321.070	-88.726	-0.408	0.122
-320.056	-115.065	-0.329	-0.063
-319.041	237.875	0.098	0.163
-318.026	84.605	-0.204	-0.225
-317.012	-200.000	-0.005	-0.202
-315.997	330.239	-0.273	0.529
-314.983	-200.000	0.061	-0.292
-313.968	295.661	0.040	-0.073
-312.953	-200.000	0.042	-0.261
-311.939	418.079	-0.047	0.100
-310.924	-57.856	-0.090	0.040
-309.910	-200.000	0.049	-0.368
-308.895	158.393	-0.022	0.031
-307.880	-134.437	-0.063	-0.008
-306.866	171.689	-0.089	-0.128
-305.851	-200.000	-0.019	-0.158
-304.837	87.724	0.123	-0.137
-303.822	800.000	-0.026	-0.078
-302.807	531.198	0.116	-0.275
-301.793	-165.426	-0.199	-0.009
-300.778	243.031	0.074	-0.125
-299.764	-43.787	-0.178	-0.090
-298.749	-200.000	0.036	0.197
-297.735	-51.918	-0.192	-0.090
-296.720	36.005	-0.133	-0.117
-295.705	-9.866	0.183	-0.122
-294.691	551.675	-0.024	0.058
-293.676	685.270	0.046	0.121
-292.662	-200.000	-0.021	0.446
-291.647	-152.845	0.219	0.016
-290.632	800.000	0.042	0.128
-289.618	-26.930	0.310	-0.182
-288.603	-51.348	0.113	0.053
-287.589	-2.778	0.258	0.181
-286.574	121.897	0.077	-0.097
-285.559	374.400	0.079	0.162
-284.545	-91.359	0.241	0.069
-283.530	-88.817	-0.143	-0.043
-282.516	-200.000	-0.052	0.394
-281.501	11.579	0.052	0.040
-280.486	-119.065	-0.411	-0.072
-279.472	343.909	-0.076	0.150
-278.457	-72.351	-0.151	0.056
-277.443	-88.366	0.104	0.031
-276.428	-200.000	0.010	0.049
-275.413	-161.187	-0.196	-0.010
-274.399	336.767	0.054	0.105
-273.384	-103.102	0.284	0.067
-272.370	-73.183	0.161	-0.059
-271.355	800.000	0.028	0.106
-270.340	598.564	-0.042	-0.106
-269.326	270.256	-0.141	-0.249
-268.311	201.577	-0.031	0.047
-267.297	800.000	-0.012	0.040
-266.282	800.000	-0.059	0.200
-265.267	-80.695	-0.346	-0.115
-264.253	374.048	-0.048	-0.098
-263.238	396.460	0.075	0.156
-262.224	-74.648	0.072	0.026
-261.209	-200.000	-0.004	-0.111
-260.195	458.532	-0.127	0.282
-259.180	800.000	0.175	0.615
-258.165	422.584	-0.148	0.318
-257.151	-82.393	-0.398	0.130
-256.136	-118.701	0.050	-0.009
-255.122	-138.679	0.180	0.020
-254.107	-56.025	-0.281	0.126
-253.092	-95.628	-0.143	-0.038
-252.078	-138.390	-0.297	-0.033
-251.063	115.779	0.398	-0.488
-250.049	543.733	-0.064	-0.152
-249.034	800.000	-0.066	0.185
-248.019	-41.565	-0.064	0.033
-247.005	-77.730	-0.204	-0.071
-245.990	-136.231	-0.186	-0.022
-244.976	-200.000	-0.026	-0.257
-243.961	-120.305	0.334	0.057
-242.946	-57.989	0.299	-0.131
-241.932	-116.434	-0.043	0.008
-240.917	-52.921	0.118	-0.054
-239.903	-75.511	0.204	-0.073
-238.888	-102.599	0.482	-0.115
-237.873	212.315	-0.177	0.280
-236.859	197.671	-0.233	-0.357
-235.844	13.413	0.095	-0.074
-234.830	45.539	0.080	0.074
-233.815	241.457	-0.140	-0.235
-232.800	-122.928	0.181	0.029
-231.786	146.075	0.060	-0.081
-230.771	241.976	-0.075	-0.125
-229.757	271.424	-0.151	-0.266
-228.742	-95.605	-0.316	0.085
-227.727	68.415	0.038	0.039
-226.713	261.533	-0.134	0.232
-225.698	-34.140	0.328	-0.181
-224.684	800.000	-0.027	-0.119
-223.669	50.205	-0.186	0.176
-222.655	800.000	0.060	-0.215
-221.640	147.496	0.160	0.216
-220.625	-200.000	-0.042	0.330
-219.611	-200.000	0.045	-0.345
-218.596	712.532	-0.079	-0.210
-217.582	42.895	0.444	-0.406
-216.567	330.424	0.077	0.149
-215.552	-14.601	-0.055	-0.035
-214.538	-136.484	0.197	-0.023
-213.523	-84.416	0.136	-0.043
-212.509	-200.000	0.019	-0.141
-211.494	-22.786	0.284	-0.172
-210.479	425.522	0.110	-0.237
-209.465	471.651	0.024	0.054
-208.450	446.436	-0.091	0.201
-207.436	-200.000	0.019	-0.376
-206.421	-81.220	-0.071	-0.023
-205.406	39.438	-0.136	0.122
-204.392	-91.537	-0.159	0.045
-203.377	-113.872	0.412	0.080
-202.363	-104.201	0.201	-0.047
-201.348	-152.566	-0.228	-0.016
-200.333	122.664	-0.211	-0.265
-199.319	800.000	0.060	0.246
-198.304	800.000	0.083	0.230
-197.290	800.000	-0.111	-0.342
-196.275	-6.703	0.265	0.181
-195.260	-200.000	-0.047	0.219
-194.246	800.000	0.042	0.142
-193.231	-23.881	-0.408	-0.244
-192.217	-146.320	0.124	0.011
-191.202	174.574	-0.203	0.293
-190.187	-70.123	-0.191	-0.073
-189.173	800.000	0.021	0.081
-188.158	-200.000	-0.049	0.318
-187.144	-132.212	0.104	0.014
-186.129	-200.000	0.006	0.347
-185.114	-200.000	-0.010	-0.193
-184.100	52.308	-0.092	0.088
-183.085	249.964	-0.164	0.279
-182.071	105.026	-0.165	0.194
-181.056	800.000	0.060	0.215
-180.042	-84.379	0.086	0.027
-179.027	-101.317	0.187	0.046
-178.012	-78.478	0.175	0.060
-176.998	-200.000	0.017	0.167
-175.983	97.604	-0.081	0.093
-174.969	-55.360	0.274	-0.123
-173.954	800.000	0.022	-0.087
-172.939	-200.000	-0.011	0.078
-171.925	89.380	-0.181	0.202
-170.910	-96.812	-0.175	0.046
-169.896	800.000	0.139	-0.416
-168.881	-193.144	0.418	-0.004
-167.866	-132.656	-0.139	0.018
-166.852	92.088	-0.106	-0.119
-165.837	-124.379	-0.131	-0.020
-164.823	94.489	0.043	-0.048
-163.808	-157.060	-0.204	-0.012
-162.793	-200.000	0.004	0.137
-161.779	800.000	-0.021	-0.076
-160.764	-200.000	-0.014	0.191
-159.750	-34.730	0.087	0.047
-158.735	-140.123	0.465	-0.049
-157.720	800.000	-0.070	-0.254
-156.706	-200.000	-0.016	-0.308
-155.691	492.265	0.101	-0.231
-154.677	73.863	0.112	-0.117
-153.662	-200.000	0.385	0.001
-152.647	-51.817	0.325	0.151
-151.633	-48.119	-0.283	-0.136
-150.618	325.686	0.072	-0.138
-149.604	-101.835	0.234	0.056
-148.589	-62.659	-0.143	0.059
-147.574	86.325	-0.082	0.090
-146.560	18.902	0.170	0.136
-145.545	-105.556	-0.187	-0.042
-144.531	68.028	0.101	0.103
-143.516	29.974	0.229	0.195
-142.502	-27.968	0.384	-0.222
-141.487	-116.714	0.039	-0.007
-140.472	-154.237	0.095	0.006
-139.458	-22.414	-0.200	-0.121
-138.443	-102.467	-0.103	-0.025
-137.429	-127.631	-0.161	-0.023
-136.414	-10.143	-0.228	0.151
-135.399	-200.000	-0.049	-0.235
-134.385	18.206	-0.157	-0.125
-133.370	-105.883	-0.295	-0.067
-132.356	-41.177	-0.160	-0.083
-131.341	-200.000	0.005	0.022
-130.326	-200.000	0.023	-0.124
-129.312	344.262	-0.061	0.119
-128.297	36.781	-0.178	0.157
-127.283	-191.312	0.261	-0.003
-126.268	28.567	-0.157	-0.132
-125.253	357.754	0.091	-0.182
-124.239	751.811	-0.079	0.212
-123.224	-73.960	0.162	0.059
-122.210	511.746	0.070	-0.162
