DTS Sentinel unit serial number:	SN413079Multiplexer serial number:	ORYXHardware model number:	OX4-SRSoftware version number:	ORYX F/W v4.00 Oryx Data Collector v3.7.2.0data status	okinstallation	princeton_trtdifferential loss correction	single-endedforward channel	channel 3reverse channel	N/Adate	2019/09/14time	01:24:35forward acquisition time	60.00reverse acquisition time	0.00gamma	496.2192k internal	0.2339k external	0.2339temperature offset calibration	1.0053default loss term (dB/km)	0.3790temperature slope calibration	1.0000multiplexer offset coefficient	1.0000multiplexer slope coefficient	1.0000fibre end	0.00T internal ref (°C)	26.41T ext. ref 1 (°C)	3.18T ext. ref 2 (°C)	21.46length (m)	temperature (°C)	Stokes	anti-Stokes-747.200	119.824	0.131	0.163
-746.185	354.431	0.161	0.320
-745.171	-200.000	0.090	0.417
-744.156	-72.339	-0.264	-0.098
-743.142	90.283	0.170	-0.190
-742.127	492.036	-0.099	0.228
-741.112	-159.671	-0.612	0.034
-740.098	-131.140	0.317	0.042
-739.083	234.509	0.049	-0.082
-738.069	-97.774	0.128	0.033
-737.054	-188.042	0.697	0.009
-736.039	-47.095	-0.185	-0.090
-735.025	-200.000	0.012	-0.085
-734.010	-134.535	-0.301	0.037
-732.996	800.000	-0.086	-0.346
-731.981	89.563	0.125	-0.140
-730.966	146.549	-0.157	-0.211
-729.952	-98.115	-0.162	-0.042
-728.937	-97.113	-0.180	0.047
-727.923	-2.811	-0.134	0.094
-726.908	-178.366	-0.144	0.003
-725.894	-104.501	-0.226	0.052
-724.879	131.172	-0.048	0.062
-723.864	-133.056	-0.052	0.007
-722.850	-200.000	-0.053	-0.385
-721.835	180.004	-0.051	-0.075
-720.821	-95.021	-0.247	0.067
-719.806	-200.000	0.007	-0.079
-718.791	800.000	-0.092	-0.332
-717.777	-57.582	-0.070	0.031
-716.762	257.476	-0.062	0.107
-715.748	54.492	0.062	-0.060
-714.733	648.891	0.080	0.206
-713.718	5.014	-0.109	0.080
-712.704	-200.000	-0.016	-0.112
-711.689	800.000	0.065	-0.248
-710.675	-143.452	-0.115	-0.011
-709.660	183.284	-0.145	0.214
-708.645	151.439	-0.051	-0.070
-707.631	-113.568	0.073	0.014
-706.616	-20.499	0.079	0.049
-705.602	297.448	0.157	-0.289
-704.587	800.000	0.038	-0.112
-703.572	-200.000	0.000	0.152
-702.558	168.718	0.087	-0.124
-701.543	-200.000	0.008	-0.219
-700.529	-166.181	-0.023	0.001
-699.514	-45.287	0.147	0.073
-698.499	133.714	-0.036	-0.046
-697.485	-200.000	-0.363	0.000
-696.470	123.933	-0.121	0.153
-695.456	135.898	0.174	-0.227
-694.441	189.431	-0.273	0.410
-693.426	-200.000	-0.002	-0.041
-692.412	-11.418	-0.204	0.134
-691.397	-200.000	0.000	0.214
-690.383	393.209	-0.046	0.095
-689.368	-83.107	0.087	0.028
-688.354	-81.147	-0.447	-0.148
-687.339	-92.528	0.106	0.030
-686.324	54.948	-0.153	-0.147
-685.310	268.290	0.221	-0.387
-684.295	-129.223	-0.168	-0.023
-683.281	800.000	-0.040	-0.144
-682.266	-91.360	-0.105	0.030
-681.251	800.000	0.087	-0.379
-680.237	-200.000	0.001	-0.084
-679.222	-200.000	-0.011	-0.251
-678.208	-200.000	-0.013	-0.063
-677.193	103.859	0.114	-0.134
-676.178	-200.000	0.069	0.305
-675.164	-191.959	-0.293	0.003
-674.149	191.305	0.273	0.411
-673.135	-53.953	-0.099	-0.045
-672.120	-117.269	-0.477	0.087
-671.105	159.306	0.053	-0.074
-670.091	800.000	0.069	-0.197
-669.076	78.286	-0.117	0.125
-668.062	-200.000	-0.013	-0.096
-667.047	-200.000	-0.014	-0.278
-666.032	445.408	0.117	-0.257
-665.018	-200.000	0.015	-0.172
-664.003	-110.581	-0.116	0.024
-662.989	-45.830	-0.131	-0.065
-661.974	-59.598	0.304	-0.130
-660.959	-125.468	-0.340	-0.052
-659.945	-44.638	0.285	0.142
-658.930	-200.000	0.007	-0.047
-657.916	98.884	0.206	0.238
-656.901	78.421	-0.029	-0.031
-655.886	-200.000	-0.002	-0.107
-654.872	800.000	0.028	-0.101
-653.857	-99.557	-0.041	-0.010
-652.843	471.128	0.036	0.081
-651.828	-54.998	-0.013	0.006
-650.814	-58.289	-0.130	0.057
-649.799	-145.987	0.155	0.014
-648.784	1.583	-0.146	0.105
-647.770	707.943	0.121	-0.319
-646.755	-168.895	-0.300	-0.011
-645.741	14.122	0.078	0.060
-644.726	-25.639	0.076	-0.045
-643.711	-200.000	-0.021	-0.160
-642.697	-200.000	0.015	0.126
-641.682	-121.372	-0.121	-0.020
-640.668	-55.892	-0.221	0.099
-639.653	-85.146	-0.055	-0.017
-638.638	72.060	0.062	-0.064
-637.624	236.247	0.296	0.489
-636.609	141.827	-0.098	-0.130
-635.595	-93.252	0.144	-0.040
-634.580	800.000	-0.100	0.302
-633.565	-145.462	0.080	0.007
-632.551	-140.936	-0.209	-0.021
-631.536	-200.000	-0.002	0.105
-630.522	194.278	-0.193	-0.292
-629.507	800.000	-0.073	-0.239
-628.492	800.000	0.060	-0.166
-627.478	462.917	-0.084	-0.188
-626.463	-200.000	-0.017	-0.402
-625.449	-200.000	0.004	-0.061
-624.434	-200.000	-0.061	-0.302
-623.419	-139.828	0.414	-0.044
-622.405	20.350	-0.112	-0.090
-621.390	-200.000	0.001	-0.013
-620.376	93.157	0.232	0.262
-619.361	-200.000	0.014	-0.300
-618.346	207.911	-0.162	-0.253
-617.332	-135.791	-0.261	0.031
-616.317	-200.000	0.008	-0.247
-615.303	-12.539	-0.248	-0.162
-614.288	-23.402	0.116	0.069
-613.273	468.819	-0.024	-0.053
-612.259	800.000	-0.015	-0.061
-611.244	-161.117	-0.180	-0.009
-610.230	-137.316	0.356	0.040
-609.215	-89.381	0.206	-0.060
-608.201	-111.272	0.167	0.034
-607.186	177.965	-0.094	0.136
-606.171	2.781	0.145	-0.105
-605.157	597.014	0.064	0.159
-604.142	87.227	-0.153	-0.169
-603.128	-200.000	-0.015	0.115
-602.113	644.888	0.144	-0.367
-601.098	421.623	0.062	-0.133
-600.084	-11.988	0.065	-0.042
-599.069	-157.453	-0.184	-0.011
-598.055	347.266	0.136	0.267
-597.040	-200.000	0.025	0.189
-596.025	446.695	-0.073	-0.159
-595.011	-200.000	0.016	-0.110
-593.996	51.208	0.121	0.115
-592.982	-145.377	0.332	-0.030
-591.967	-115.710	0.339	0.063
-590.952	-144.544	-0.408	0.038
-589.938	-200.000	0.013	0.176
-588.923	298.628	-0.052	0.096
-587.909	133.539	-0.037	0.048
-586.894	260.634	0.154	-0.266
-585.879	71.325	-0.137	0.141
-584.865	16.952	0.101	-0.080
-583.850	740.674	0.068	-0.183
-582.836	1.954	0.232	-0.167
-581.821	523.168	-0.095	0.221
-580.806	-200.000	0.012	0.215
-579.792	-77.159	-0.329	0.114
-578.777	-148.714	-0.275	-0.022
-577.763	-70.712	-0.192	-0.072
-576.748	81.831	0.165	0.178
-575.733	311.413	-0.042	-0.079
-574.719	311.680	0.048	0.089
-573.704	-200.000	0.013	-0.193
-572.690	128.839	-0.184	0.233
-571.675	800.000	0.035	0.115
-570.661	45.432	-0.274	-0.252
-569.646	188.600	-0.026	-0.039
-568.631	339.878	-0.105	0.203
-567.617	73.071	0.259	-0.269
-566.602	-156.850	-0.278	0.017
-565.588	49.603	-0.190	0.178
-564.573	427.068	0.127	0.273
-563.558	-163.339	-0.334	0.016
-562.544	-55.460	-0.100	-0.045
-561.529	800.000	0.078	-0.301
-560.515	-60.425	0.119	-0.050
-559.500	-89.021	-0.249	-0.073
-558.485	800.000	-0.098	0.352
-557.471	-23.806	0.142	0.085
-556.456	-125.440	-0.345	0.052
-555.442	800.000	-0.089	-0.370
-554.427	312.733	-0.126	0.236
-553.412	-200.000	-0.020	-0.181
-552.398	-117.256	0.042	-0.008
-551.383	-39.011	0.281	-0.147
-550.369	-167.862	-0.187	-0.007
-549.354	800.000	-0.045	0.132
-548.339	800.000	-0.109	0.326
-547.325	264.035	-0.049	-0.085
-546.310	100.860	0.101	-0.116
-545.296	-127.192	-0.257	0.037
-544.281	-6.869	-0.320	-0.217
-543.266	-117.916	0.266	-0.047
-542.252	-26.484	-0.123	0.072
-541.237	800.000	0.081	-0.306
-540.223	123.588	0.170	0.212
-539.208	-98.799	0.277	0.070
-538.193	-200.000	-0.018	-0.115
-537.179	-102.862	-0.265	-0.063
-536.164	397.055	-0.098	-0.204
-535.150	-72.478	-0.327	-0.120
-534.135	-200.000	-0.000	-0.197
-533.121	739.252	-0.049	-0.130
-532.106	800.000	-0.126	-0.433
-531.091	-200.000	0.003	0.024
-530.077	-48.115	0.407	0.196
-529.062	312.864	0.186	-0.347
-528.048	800.000	0.084	-0.253
-527.033	-187.962	0.106	0.001
-526.018	-200.000	-0.007	0.153
-525.004	48.094	-0.096	0.089
-523.989	-40.480	-0.292	0.151
-522.975	800.000	0.056	0.194
-521.960	800.000	0.039	0.122
-520.945	-159.045	-0.142	-0.008
-519.931	-23.262	0.239	0.143
-518.916	415.468	-0.156	0.330
-517.902	-90.880	0.064	-0.018
-516.887	42.186	-0.181	0.163
-515.872	800.000	0.008	-0.032
-514.858	195.270	0.162	0.245
-513.843	25.679	-0.135	0.112
-512.829	-200.000	0.022	0.118
-511.814	27.912	0.186	0.156
-510.799	374.976	0.072	-0.146
-509.785	-200.000	0.044	0.233
-508.770	800.000	-0.061	0.179
-507.756	-128.780	0.344	0.048
-506.741	265.496	0.135	0.234
-505.726	-5.428	-0.201	-0.137
-504.712	-147.312	0.344	-0.029
-503.697	29.020	-0.180	0.152
-502.683	7.791	0.108	-0.080
-501.668	-36.646	0.054	-0.029
-500.653	-1.902	-0.252	-0.176
-499.639	16.862	0.179	-0.141
-498.624	318.607	0.158	0.298
-497.610	11.251	-0.214	-0.163
-496.595	57.229	-0.118	0.114
-495.581	10.487	0.087	-0.066
-494.566	-200.000	-0.069	-0.322
-493.551	-52.134	0.232	0.107
-492.537	-49.195	0.411	-0.195
-491.522	3.958	0.301	-0.219
-490.508	-200.000	0.029	0.154
-489.493	-80.610	-0.145	-0.048
-488.478	-31.600	-0.256	-0.143
-487.464	-31.544	-0.039	-0.022
-486.449	647.340	0.039	0.100
-485.435	800.000	-0.132	-0.389
-484.420	18.361	0.093	-0.074
-483.405	190.102	-0.065	-0.097
-482.391	53.814	0.126	-0.120
-481.376	-35.186	0.246	0.133
-480.362	262.219	-0.231	0.397
-479.347	222.869	0.122	0.195
-478.332	25.424	-0.185	0.152
-477.318	-200.000	0.041	-0.250
-476.303	71.527	0.283	-0.292
-475.289	-200.000	-0.010	-0.160
-474.274	-68.293	-0.022	0.008
-473.259	-31.024	0.159	-0.089
-472.245	-200.000	-0.210	0.000
-471.230	-97.156	-0.154	0.040
-470.216	-34.119	0.226	-0.123
-469.201	-200.000	-0.016	-0.269
-468.186	-137.226	0.136	-0.015
-467.172	66.995	0.186	-0.188
-466.157	-200.000	0.006	0.059
-465.143	-63.539	0.156	-0.063
-464.128	-118.491	0.103	-0.018
-463.113	-45.784	-0.043	0.021
-462.099	800.000	0.056	0.202
-461.084	-200.000	0.009	-0.112
-460.070	800.000	-0.114	-0.358
-459.055	-63.236	-0.060	-0.024
-458.040	800.000	-0.096	-0.321
-457.026	107.255	-0.240	0.283
-456.011	90.107	-0.062	-0.068
-454.997	-44.343	-0.191	-0.095
-453.982	-107.265	0.130	0.028
-452.968	43.320	0.120	-0.109
-451.953	55.756	0.150	-0.144
-450.938	43.249	-0.095	0.086
-449.924	-73.602	0.185	-0.067
-448.909	87.264	-0.090	0.099
-447.895	29.627	0.159	0.134
-446.880	662.605	0.051	0.131
-445.865	264.932	0.087	-0.151
-444.851	-200.000	-0.011	-0.055
-443.836	-200.000	0.087	-0.000
-442.822	-99.828	0.114	0.028
-441.807	32.364	0.038	0.033
-440.792	80.612	-0.141	0.150
-439.778	-200.000	0.020	0.326
-438.763	-200.000	-0.011	-0.137
-437.749	-57.042	0.283	-0.124
-436.734	360.673	-0.114	-0.225
-435.719	-106.280	0.207	0.046
-434.705	-167.090	-0.181	-0.007
-433.690	109.572	-0.079	-0.094
-432.676	-29.134	0.155	-0.088
-431.661	149.677	-0.128	-0.172
-430.646	-65.596	0.086	0.034
-429.632	-13.761	0.067	0.043
-428.617	800.000	-0.034	-0.139
-427.603	800.000	0.087	-0.254
-426.588	-38.660	-0.230	0.120
-425.573	-23.762	-0.099	0.059
-424.559	-143.834	0.161	0.015
-423.544	129.386	0.063	0.079
-422.530	-200.000	0.008	0.146
-421.515	-200.000	0.010	0.199
-420.500	-27.501	-0.195	0.113
-419.486	453.175	-0.122	0.268
-418.471	-133.618	-0.061	0.008
-417.457	182.762	-0.266	0.388
-416.442	800.000	0.051	-0.184
-415.428	800.000	0.043	0.171
-414.413	-127.256	0.237	-0.034
-413.398	-200.000	-0.040	-0.179
-412.384	-120.292	0.105	-0.018
-411.369	35.261	0.206	0.178
-410.355	-59.610	-0.204	-0.087
-409.340	-200.000	-0.012	0.106
-408.325	-22.890	-0.082	0.049
-407.311	137.139	0.120	0.155
-406.296	800.000	0.011	0.037
-405.282	154.794	-0.205	-0.278
-404.267	5.494	-0.070	0.051
-403.252	-47.481	0.151	-0.073
-402.238	-26.699	0.303	-0.175
-401.223	800.000	0.044	0.180
-400.209	171.089	0.110	0.156
-399.194	124.685	-0.104	0.129
-398.179	-59.601	-0.170	-0.072
-397.165	800.000	-0.115	0.331
-396.150	-200.000	-0.020	-0.102
-395.136	-195.374	-0.238	-0.002
-394.121	24.043	0.230	-0.188
-393.106	800.000	0.012	0.042
-392.092	-200.000	0.009	0.095
-391.077	17.986	-0.196	0.155
-390.063	800.000	0.047	-0.151
-389.048	-33.194	-0.177	0.097
-388.033	-30.982	0.089	0.050
-387.019	-36.658	0.160	-0.085
-386.004	-200.000	-0.030	0.184
-384.990	-200.000	0.013	0.132
-383.975	-200.000	-0.044	-0.261
-382.960	800.000	-0.052	0.218
-381.946	39.133	0.118	0.105
-380.931	-139.289	0.172	0.018
-379.917	-112.443	-0.139	-0.027
-378.902	-93.563	-0.161	0.044
-377.888	381.071	0.192	-0.391
-376.873	7.142	0.182	0.134
-375.858	-71.204	0.216	0.080
-374.844	28.994	-0.337	0.282
-373.829	-56.523	0.300	-0.131
-372.815	-130.040	-0.480	0.065
-371.800	-52.879	-0.150	-0.068
-370.785	-111.058	0.189	-0.038
-369.771	-200.000	0.003	0.082
-368.756	-200.000	-0.053	0.382
-367.742	-167.538	-0.239	0.009
-366.727	800.000	0.075	-0.277
-365.712	76.159	0.115	0.121
-364.698	9.643	0.226	0.169
-363.683	1.085	-0.157	0.111
-362.669	-77.775	0.281	0.096
-361.654	-55.544	-0.222	0.098
-360.639	-200.000	-0.022	-0.103
-359.625	634.324	-0.067	0.167
-358.610	70.756	0.144	0.147
-357.596	-200.000	-0.047	-0.287
-356.581	263.059	0.048	-0.083
-355.566	149.308	0.083	0.111
-354.552	-41.744	0.384	0.195
-353.537	51.047	-0.188	0.176
-352.523	-101.658	-0.243	0.058
-351.508	-56.361	0.262	0.115
-350.493	-67.038	-0.124	0.048
-349.479	-42.078	-0.213	0.108
-348.464	800.000	-0.047	-0.187
-347.450	313.113	0.095	-0.177
-346.435	262.924	-0.154	-0.264
-345.420	22.465	0.043	0.034
-344.406	187.015	-0.218	-0.320
-343.391	-39.380	0.198	-0.103
-342.377	-58.893	-0.404	-0.173
-341.362	-146.634	0.247	0.021
-340.348	-61.968	0.125	-0.052
-339.333	6.775	0.214	0.157
-338.318	-22.240	0.264	0.158
-337.304	93.632	0.475	-0.531
-336.289	133.521	0.123	0.157
-335.275	168.904	0.032	0.044
-334.260	-200.000	-0.017	-0.250
-333.245	-200.000	0.022	0.343
-332.231	-200.000	0.074	0.348
-331.216	-51.331	-0.070	-0.033
-330.202	-96.340	-0.285	0.074
-329.187	-136.193	0.187	0.022
-328.172	-29.709	-0.158	0.089
-327.158	82.136	0.201	-0.215
-326.143	-200.000	0.014	0.121
-325.129	-200.000	-0.086	0.399
-324.114	33.333	0.270	0.232
-323.099	-118.051	-0.190	-0.033
-322.085	-55.704	-0.334	-0.148
-321.070	800.000	-0.061	0.174
-320.056	-96.163	-0.069	0.018
-319.041	111.477	-0.297	-0.353
-318.026	-200.000	-0.021	0.594
-317.012	159.475	-0.068	-0.093
-315.997	800.000	0.020	-0.081
-314.983	635.182	-0.155	0.387
-313.968	86.302	-0.168	-0.183
-312.953	67.155	-0.119	-0.120
-311.939	94.983	-0.125	0.141
-310.924	-103.630	-0.260	-0.060
-309.910	64.349	-0.254	-0.253
-308.895	68.001	0.266	0.269
-307.880	9.294	-0.099	-0.074
-306.866	333.732	0.049	-0.093
-305.851	1.578	-0.090	-0.064
-304.837	-14.008	-0.218	0.139
-303.822	42.898	-0.225	-0.202
-302.807	-74.770	-0.143	-0.051
-301.793	86.014	0.078	0.085
-300.778	-156.630	-0.115	-0.007
-299.764	-24.513	0.334	-0.196
-298.749	74.661	-0.324	0.336
-297.735	-200.000	-0.029	-0.392
-296.720	-27.098	-0.151	0.087
-295.705	78.160	-0.167	-0.176
-294.691	83.423	-0.108	0.116
-293.676	340.335	-0.124	-0.239
-292.662	800.000	-0.019	0.068
-291.647	-65.955	0.240	0.095
-290.632	-24.566	-0.237	0.139
-289.618	-91.523	0.384	0.108
-288.603	-154.257	0.088	-0.006
-287.589	-165.941	-0.138	0.006
-286.574	-62.222	-0.141	-0.058
-285.559	-98.587	-0.110	-0.028
-284.545	-124.872	-0.173	-0.026
-283.530	472.612	-0.031	-0.068
-282.516	136.930	-0.066	-0.085
-281.501	-148.871	-0.051	0.004
-280.486	-54.116	-0.217	-0.097
-279.472	-126.931	0.063	0.009
-278.457	800.000	0.116	0.345
-277.443	109.879	-0.226	-0.267
-276.428	42.249	-0.146	-0.131
-275.413	-94.523	0.499	-0.134
-274.399	-143.012	-0.189	0.018
-273.384	-91.013	0.299	0.085
-272.370	800.000	0.058	-0.165
-271.355	139.369	-0.232	-0.300
-270.340	-114.886	-0.158	-0.030
-269.326	-105.381	-0.282	-0.063
-268.311	-160.564	-0.276	0.014
-267.297	-101.374	0.112	-0.027
-266.282	268.450	0.165	0.284
-265.267	-92.858	-0.119	-0.033
-264.253	-141.329	-0.305	0.030
-263.238	132.750	-0.228	-0.290
-262.224	-78.463	0.250	0.084
-261.209	78.499	-0.035	-0.037
-260.195	-200.000	0.071	0.370
-259.180	3.895	-0.229	0.165
-258.165	-61.256	0.191	-0.079
-257.151	-200.000	-0.106	0.492
-256.136	-94.493	-0.207	-0.056
-255.122	-200.000	0.023	0.151
-254.107	352.600	-0.083	0.161
-253.092	-200.000	-0.016	0.127
-252.078	-200.000	0.065	-0.328
-251.063	2.969	-0.158	0.113
-250.049	-111.043	0.338	0.068
-249.034	-44.259	-0.197	0.097
-248.019	-200.000	0.017	0.181
-247.005	800.000	-0.042	0.147
-245.990	-161.088	-0.227	0.012
-244.976	800.000	0.073	0.253
-243.961	-115.461	-0.061	-0.011
-242.946	-150.819	0.136	0.010
-241.932	54.784	-0.074	0.070
-240.917	-200.000	-0.050	0.326
-239.903	-125.912	-0.255	0.038
-238.888	-200.000	0.009	0.253
-237.873	10.552	-0.161	-0.120
-236.859	-22.346	0.412	-0.245
-235.844	62.781	-0.087	-0.086
-234.830	-200.000	0.003	0.077
-233.815	-200.000	-0.022	0.461
-232.800	88.773	-0.088	0.096
-231.786	589.896	-0.165	0.401
-230.771	-11.710	-0.104	0.067
-229.757	-147.061	0.139	0.012
-228.742	88.643	0.118	-0.129
-227.727	-138.445	0.261	-0.028
-226.713	438.161	0.150	0.322
-225.698	800.000	-0.124	-0.492
-224.684	-200.000	0.084	-0.390
-223.669	588.461	0.046	-0.111
-222.655	-132.750	0.481	0.060
-221.640	-60.688	-0.182	-0.076
-220.625	-32.236	0.055	-0.030
-219.611	-121.013	0.353	0.058
-218.596	-71.444	-0.285	-0.105
-217.582	800.000	0.048	0.207
-216.567	-65.780	0.232	0.091
-215.552	-46.836	0.419	-0.201
-214.538	800.000	0.030	-0.120
-213.523	800.000	0.026	0.080
-212.509	-120.935	-0.289	-0.048
-211.494	-87.921	-0.064	-0.019
-210.479	-200.000	-0.084	-0.453
-209.465	1.870	-0.180	-0.128
-208.450	115.760	-0.131	0.157
-207.436	536.835	0.185	-0.432
-206.421	-200.000	-0.027	-0.332
-205.406	-59.001	0.262	0.111
-204.392	-68.762	-0.200	0.076
-203.377	-200.000	-0.019	-0.104
-202.363	-6.700	0.363	0.243
-201.348	32.408	0.235	0.200
-200.333	203.860	-0.120	-0.183
-199.319	-2.050	-0.132	-0.091
-198.304	-31.681	-0.221	-0.122
-197.290	211.875	0.021	-0.032
-196.275	-34.745	0.084	-0.045
-195.260	-44.612	-0.127	-0.062
-194.246	-200.000	-0.019	0.108
-193.231	183.015	-0.095	0.137
-192.217	-200.000	0.014	0.093
-191.202	-30.724	0.320	0.177
-190.187	109.422	0.037	0.044
-189.173	43.526	0.076	-0.068
-188.158	331.271	0.080	0.152
-187.144	65.084	-0.216	0.214
-186.129	772.537	0.126	0.337
-185.114	-200.000	0.029	-0.146
-184.100	-42.536	-0.225	0.112
-183.085	-71.747	0.421	-0.154
-182.071	800.000	-0.044	0.183
-181.056	73.090	0.121	0.124
-180.042	-108.035	0.248	0.053
-179.027	-107.088	0.063	0.014
-178.012	-30.239	0.238	0.133
-176.998	-200.000	0.008	0.199
-175.983	-200.000	0.043	-0.242
-174.969	294.297	0.123	-0.221
-173.954	161.069	0.092	-0.126
-172.939	-200.000	0.015	-0.093
-171.925	-87.600	0.128	0.038
-170.910	-45.543	-0.149	0.072
-169.896	321.407	-0.077	0.144
-168.881	-128.334	-0.285	0.040
-167.866	100.052	0.251	-0.285
-166.852	-82.271	0.213	0.068
-165.837	-83.153	0.305	-0.096
-164.823	-60.180	-0.367	-0.154
-163.808	43.042	0.051	-0.046
-162.793	123.250	0.167	0.205
-161.779	265.199	-0.103	0.177
-160.764	-200.000	0.061	0.333
-159.750	-152.974	0.215	0.015
-158.735	800.000	0.144	-0.595
-157.720	121.783	0.220	-0.269
-156.706	-143.426	0.266	-0.025
-155.691	516.057	0.093	-0.213
-154.677	-200.000	0.065	-0.382
-153.662	-4.026	-0.215	0.146
-152.647	-25.246	0.365	0.212
-151.633	11.331	-0.168	0.126
-150.618	335.074	-0.191	0.363
-149.604	800.000	-0.036	-0.144
-148.589	-200.000	0.041	-0.231
-147.574	-200.000	0.005	-0.082
-146.560	-200.000	0.027	0.263
-145.545	581.630	-0.133	-0.320
-144.531	-108.195	-0.153	-0.032
-143.516	-2.379	-0.089	0.061
-142.502	-200.000	-0.037	0.177
-141.487	33.580	-0.178	-0.152
-140.472	800.000	0.041	0.139
-139.458	67.196	0.169	-0.168
-138.443	213.054	-0.110	0.170
-137.429	106.458	-0.016	0.019
-136.414	225.414	0.090	-0.143
-135.399	800.000	0.155	0.424
-134.385	62.634	-0.111	-0.108
-133.370	41.228	0.318	-0.282
-132.356	-24.895	0.199	-0.115
-131.341	-134.488	0.045	0.005
-130.326	-10.947	-0.133	0.086
-129.312	-200.000	-0.030	0.159
-128.297	-200.000	0.024	0.181
-127.283	-14.060	-0.075	-0.048
-126.268	-200.000	-0.032	0.140
-125.253	316.483	0.045	0.082
-124.239	466.254	0.059	-0.129
-123.224	-86.162	0.064	0.019
-122.210	10.869	0.120	-0.089
-121.195	-200.000	0.008	-0.072
