DTS Sentinel unit serial number:	SN413079Multiplexer serial number:	ORYXHardware model number:	OX4-SRSoftware version number:	ORYX F/W v4.00 Oryx Data Collector v3.7.2.0data status	okinstallation	princeton_trtdifferential loss correction	single-endedforward channel	channel 3reverse channel	N/Adate	2019/09/18time	10:32:34forward acquisition time	60.00reverse acquisition time	0.00gamma	496.2192k internal	0.2330k external	0.2330temperature offset calibration	0.9954default loss term (dB/km)	0.3790temperature slope calibration	1.0000multiplexer offset coefficient	1.0000multiplexer slope coefficient	1.0000fibre end	0.00T internal ref (°C)	28.44T ext. ref 1 (°C)	0.36T ext. ref 2 (°C)	25.12length (m)	temperature (°C)	Stokes	anti-Stokes-747.200	444.827	0.131	-0.289
-746.185	-14.406	-0.119	-0.077
-745.171	-124.056	0.307	0.049
-744.156	43.746	-0.086	-0.079
-743.142	-92.290	-0.426	-0.121
-742.127	67.564	0.039	0.040
-741.112	-14.446	-0.126	0.082
-740.098	-157.745	-0.292	-0.017
-739.083	23.620	0.171	0.142
-738.069	201.398	0.059	0.091
-737.054	-168.746	-0.336	0.013
-736.039	58.031	-0.162	-0.159
-735.025	-40.863	-0.098	-0.051
-734.010	55.194	-0.160	0.156
-732.996	7.709	-0.124	-0.093
-731.981	-95.567	-0.199	-0.054
-730.966	522.067	0.071	0.168
-729.952	-200.000	0.031	0.145
-728.937	2.999	-0.124	-0.090
-727.923	800.000	-0.030	-0.096
-726.908	220.832	0.088	-0.142
-725.894	-200.000	-0.018	-0.185
-724.879	-0.559	-0.169	-0.121
-723.864	72.695	0.119	-0.125
-722.850	-192.102	-0.319	-0.003
-721.835	19.999	0.027	-0.022
-720.821	14.175	-0.136	-0.107
-719.806	-200.000	-0.009	-0.183
-718.791	119.839	-0.109	-0.136
-717.777	-36.771	-0.202	-0.109
-716.762	15.515	0.092	0.073
-715.748	-121.224	-0.446	-0.075
-714.733	254.211	-0.121	-0.208
-713.718	79.635	-0.020	-0.021
-712.704	-1.385	-0.089	0.063
-711.689	800.000	0.075	0.212
-710.675	20.175	0.177	0.144
-709.660	-111.439	0.278	-0.057
-708.645	-200.000	0.060	-0.281
-707.631	-106.599	0.162	0.036
-706.616	144.612	-0.081	-0.109
-705.602	-69.766	-0.130	0.050
-704.587	233.280	-0.163	-0.269
-703.572	155.130	-0.015	-0.020
-702.558	-200.000	-0.004	-0.177
-701.543	-200.000	0.043	-0.286
-700.529	-35.489	-0.345	-0.188
-699.514	-163.439	-0.109	0.005
-698.499	676.125	0.094	-0.244
-697.485	4.664	-0.185	0.137
-696.470	127.790	-0.112	-0.143
-695.456	237.834	0.135	-0.225
-694.441	-71.850	-0.040	0.015
-693.426	356.712	-0.086	0.172
-692.412	-12.001	-0.088	0.058
-691.397	305.817	0.126	0.235
-690.383	-200.000	-0.002	-0.029
-689.368	-24.354	0.147	-0.088
-688.354	-27.906	-0.126	0.073
-687.339	210.528	0.052	0.082
-686.324	176.472	0.084	-0.123
-685.310	123.963	0.102	-0.129
-684.295	-125.606	-0.196	-0.030
-683.281	-143.342	0.180	-0.017
-682.266	-52.523	-0.319	0.148
-681.251	28.726	-0.150	-0.128
-680.237	-134.939	0.133	-0.016
-679.222	286.777	0.071	0.128
-678.208	-47.994	0.289	0.141
-677.193	-200.000	0.031	0.218
-676.178	-10.439	-0.250	0.166
-675.164	299.337	-0.109	-0.202
-674.149	135.084	-0.048	0.062
-673.135	246.781	0.064	-0.108
-672.120	-162.232	0.243	0.012
-671.105	800.000	-0.075	0.241
-670.091	164.808	-0.261	-0.370
-669.076	-200.000	-0.037	-0.173
-668.062	8.259	0.070	-0.053
-667.047	-153.229	0.262	0.018
-666.032	-42.337	0.224	-0.115
-665.018	110.506	-0.081	0.098
-664.003	-62.515	-0.299	0.125
-662.989	-200.000	0.033	0.261
-661.974	-68.418	-0.160	-0.062
-660.959	-80.200	0.197	0.066
-659.945	-30.096	-0.146	-0.083
-658.930	800.000	0.076	0.215
-657.916	-101.282	0.160	0.039
-656.901	184.940	0.152	-0.227
-655.886	-39.241	-0.279	-0.147
-654.872	-4.711	0.156	0.108
-653.857	54.534	-0.132	-0.127
-652.843	800.000	-0.166	-0.491
-651.828	233.958	0.138	-0.228
-650.814	92.415	-0.108	-0.122
-649.799	442.644	0.069	0.152
-648.784	190.993	-0.070	0.105
-647.770	-200.000	-0.085	-0.726
-646.755	-38.463	0.229	0.122
-645.741	-96.988	0.157	-0.041
-644.726	42.322	-0.207	0.189
-643.711	-171.177	0.027	0.001
-642.697	-200.000	-0.050	-0.296
-641.682	-48.206	-0.263	0.127
-640.668	-200.000	-0.018	0.106
-639.653	-100.757	0.225	-0.056
-638.638	360.484	-0.173	-0.348
-637.624	-138.730	-0.146	-0.016
-636.609	629.598	-0.152	-0.386
-635.595	180.935	-0.136	-0.201
-634.580	-111.048	0.329	0.068
-633.565	5.040	-0.151	0.111
-632.551	66.236	0.232	0.237
-631.536	57.674	-0.096	0.094
-630.522	-101.840	0.200	-0.049
-629.507	-5.460	0.190	-0.131
-628.492	-149.376	0.250	0.020
-627.478	0.841	-0.058	0.042
-626.463	-33.185	-0.168	-0.093
-625.449	-2.706	-0.248	0.174
-624.434	800.000	-0.084	0.269
-623.419	127.822	0.245	-0.312
-622.405	131.164	-0.269	-0.347
-621.390	-106.538	-0.161	0.036
-620.376	-21.910	0.176	-0.107
-619.361	-42.635	0.186	0.095
-618.346	5.990	-0.338	-0.251
-617.332	-125.542	0.146	-0.022
-616.317	-134.090	-0.171	0.021
-615.303	800.000	-0.089	0.286
-614.288	27.070	-0.271	0.228
-613.273	345.138	-0.049	0.097
-612.259	3.321	-0.157	-0.114
-611.244	76.963	0.035	0.038
-610.230	15.108	-0.065	0.051
-609.215	800.000	0.064	0.229
-608.201	30.003	-0.269	0.230
-607.186	-200.000	0.031	-0.139
-606.171	800.000	0.008	-0.023
-605.157	-6.779	0.039	0.027
-604.142	-200.000	-0.013	0.128
-603.128	3.756	-0.311	-0.227
-602.113	99.096	0.103	0.120
-601.098	-140.287	-0.106	-0.011
-600.084	-200.000	-0.066	-0.415
-599.069	-200.000	0.019	-0.492
-598.055	435.118	-0.061	-0.132
-597.040	90.900	-0.088	-0.099
-596.025	50.338	0.226	-0.214
-595.011	-200.000	0.062	0.276
-593.996	43.217	0.196	0.179
-592.982	800.000	-0.054	0.186
-591.967	-200.000	-0.047	-0.259
-590.952	-117.084	-0.207	0.038
-589.938	-200.000	0.028	0.124
-588.923	-86.047	0.224	0.069
-587.909	-7.526	-0.193	-0.131
-586.894	-70.303	-0.293	-0.111
-585.879	41.349	-0.209	-0.189
-584.865	116.608	0.401	-0.493
-583.850	-33.267	-0.442	-0.245
-582.836	-33.672	0.342	0.189
-581.821	-103.001	-0.312	0.074
-580.806	-46.945	0.044	0.022
-579.792	800.000	0.052	0.165
-578.777	-26.352	-0.082	-0.048
-577.763	215.089	-0.103	-0.163
-576.748	-157.640	0.217	0.013
-575.733	-3.071	-0.145	-0.101
-574.719	33.707	-0.222	0.193
-573.704	-200.000	0.016	-0.197
-572.690	3.199	-0.039	0.028
-571.675	26.518	0.015	0.013
-570.661	304.322	0.054	-0.100
-569.646	21.519	-0.235	0.191
-568.631	-200.000	-0.030	-0.334
-567.617	-180.694	0.400	0.008
-566.602	-162.127	-0.116	0.006
-565.588	-64.628	0.054	0.022
-564.573	134.932	0.228	0.296
-563.558	-18.201	0.143	-0.090
-562.544	-95.811	-0.236	0.063
-561.529	-103.520	-0.242	0.057
-560.515	-194.853	0.283	-0.002
-559.500	-81.818	0.129	-0.042
-558.485	378.234	0.083	0.170
-557.471	-132.177	-0.183	0.024
-556.456	-91.641	-0.271	0.077
-555.442	664.124	-0.065	-0.167
-554.427	-117.854	-0.276	-0.050
-553.412	800.000	-0.045	-0.156
-552.398	-71.789	-0.041	0.015
-551.383	96.415	-0.266	-0.304
-550.369	42.098	-0.087	-0.079
-549.354	800.000	-0.088	0.285
-548.339	-0.331	-0.151	0.108
-547.325	189.349	-0.119	-0.179
-546.310	-45.348	-0.148	-0.073
-545.296	359.598	-0.130	0.260
-544.281	-146.051	0.207	0.018
-543.266	40.168	0.166	-0.149
-542.252	-136.634	0.173	-0.020
-541.237	518.372	-0.139	0.325
-540.223	-200.000	0.037	0.560
-539.208	-106.947	-0.289	0.064
-538.193	-200.000	0.030	0.169
-537.179	800.000	-0.060	0.261
-536.164	-200.000	-0.010	0.325
-535.150	800.000	-0.117	-0.376
-534.135	-88.590	-0.170	0.051
-533.121	-200.000	0.048	0.491
-532.106	29.285	0.186	-0.158
-531.091	11.613	-0.037	0.028
-530.077	-76.268	-0.251	-0.088
-529.062	-24.509	-0.256	0.152
-528.048	-42.624	-0.252	0.128
-527.033	-106.076	0.149	-0.033
-526.018	800.000	0.061	0.198
-525.004	-31.315	-0.252	0.142
-523.989	-35.396	0.081	0.044
-522.975	-13.123	0.141	-0.092
-521.960	800.000	0.062	0.240
-520.945	800.000	0.080	0.312
-519.931	95.691	0.331	0.377
-518.916	195.623	0.013	0.019
-517.902	-123.940	0.113	-0.018
-516.887	18.009	0.052	-0.041
-515.872	53.436	-0.121	-0.116
-514.858	210.800	0.117	0.183
-513.843	93.181	0.056	-0.064
-512.829	-101.253	0.049	0.012
-511.814	-8.329	-0.175	0.117
-510.799	-174.104	-0.172	-0.005
-509.785	-141.311	0.136	0.014
-508.770	-107.562	0.194	0.042
-507.756	-114.656	-0.161	0.031
-506.741	-108.471	0.189	0.041
-505.726	1.553	0.044	-0.031
-504.712	274.640	-0.020	0.035
-503.697	-200.000	-0.051	0.442
-502.683	-200.000	-0.001	-0.067
-501.668	-61.717	-0.208	0.087
-500.653	-86.073	-0.041	0.012
-499.639	-200.000	-0.016	-0.199
-498.624	135.507	0.128	0.166
-497.610	26.991	0.219	0.183
-496.595	-68.637	-0.204	0.079
-495.581	-150.972	-0.292	0.022
-494.566	131.075	0.249	-0.319
-493.551	-60.492	-0.241	0.102
-492.537	-97.763	0.706	0.182
-491.522	-4.668	0.167	0.115
-490.508	-53.083	0.241	0.110
-489.493	-200.000	-0.050	-0.283
-488.478	-200.000	0.076	0.523
-487.464	-103.517	-0.316	0.074
-486.449	800.000	0.061	-0.209
-485.435	181.166	0.165	-0.242
-484.420	107.478	0.117	-0.139
-483.405	181.600	-0.180	0.263
-482.391	189.463	-0.088	-0.132
-481.376	146.672	-0.152	-0.204
-480.362	-200.000	-0.044	0.237
-479.347	3.694	0.168	-0.122
-478.332	752.566	-0.050	0.135
-477.318	159.616	0.100	-0.139
-476.303	-151.817	0.290	-0.021
-475.289	800.000	0.064	0.185
-474.274	-9.716	0.138	0.092
-473.259	-12.665	-0.095	0.062
-472.245	-200.000	-0.020	-0.311
-471.230	-46.895	-0.305	-0.149
-470.216	271.154	-0.070	0.123
-469.201	227.116	-0.060	-0.097
-468.186	197.779	-0.095	-0.145
-467.172	423.643	0.162	0.346
-466.157	-1.328	-0.193	-0.136
-465.143	165.101	-0.044	0.062
-464.128	30.780	-0.134	-0.115
-463.113	-146.344	0.131	-0.011
-462.099	-79.639	0.187	-0.063
-461.084	-200.000	-0.006	-0.034
-460.070	-200.000	-0.033	-0.226
-459.055	-5.464	-0.271	0.185
-458.040	800.000	-0.054	-0.165
-457.026	800.000	-0.039	-0.110
-456.011	-109.321	0.199	0.042
-454.997	-126.542	-0.125	0.018
-453.982	-27.295	0.207	-0.120
-452.968	-78.066	-0.186	0.064
-451.953	420.556	0.087	0.187
-450.938	800.000	0.034	-0.145
-449.924	199.074	-0.111	0.169
-448.909	61.888	-0.160	0.158
-447.895	-115.358	0.103	0.019
-446.880	-200.000	0.023	0.209
-445.865	800.000	0.080	-0.311
-444.851	-200.000	-0.030	0.254
-443.836	148.329	-0.104	-0.140
-442.822	-91.249	-0.126	-0.036
-441.807	32.434	0.106	0.091
-440.792	-26.114	-0.218	0.127
-439.778	800.000	-0.146	0.484
-438.763	-32.253	0.101	-0.056
-437.749	86.600	0.121	0.132
-436.734	-169.497	0.123	0.004
-435.719	-166.848	-0.548	0.022
-434.705	-34.413	-0.311	0.170
-433.690	-200.000	0.025	-0.160
-432.676	-200.000	-0.007	-0.173
-431.661	239.649	0.082	-0.136
-430.646	-46.852	-0.035	-0.017
-429.632	-193.289	-0.320	-0.003
-428.617	307.145	-0.041	-0.075
-427.603	112.682	-0.324	0.391
-426.588	3.522	0.139	-0.101
-425.573	-163.381	0.184	-0.009
-424.559	-74.606	-0.135	-0.048
-423.544	-96.003	-0.451	0.119
-422.530	-4.433	-0.123	0.084
-421.515	-6.918	0.038	-0.026
-420.500	-113.235	-0.226	-0.044
-419.486	21.624	-0.109	0.088
-418.471	-59.543	-0.114	-0.049
-417.457	496.050	-0.104	-0.238
-416.442	-97.801	-0.079	-0.020
-415.428	131.250	-0.160	0.204
-414.413	-147.352	0.219	-0.019
-413.398	-151.890	-0.216	0.016
-412.384	-200.000	-0.046	0.000
-411.369	-135.608	0.434	-0.051
-410.355	-200.000	0.149	-0.001
-409.340	164.754	0.073	-0.103
-408.325	437.937	-0.080	-0.173
-407.311	-171.342	0.048	-0.002
-406.296	95.580	-0.093	-0.105
-405.282	344.871	-0.058	0.113
-404.267	-200.000	0.013	-0.162
-403.252	800.000	0.066	0.224
-402.238	-17.415	-0.459	-0.287
-401.223	-6.139	0.228	-0.155
-400.209	346.597	-0.032	0.063
-399.194	406.396	0.130	-0.272
-398.179	-34.516	-0.125	-0.068
-397.165	217.776	0.122	0.194
-396.150	-200.000	0.005	0.249
-395.136	95.972	-0.183	-0.208
-394.121	153.916	0.124	-0.169
-393.106	305.256	-0.084	-0.155
-392.092	800.000	0.078	0.319
-391.077	73.187	-0.169	0.175
-390.063	-200.000	0.041	0.248
-389.048	51.056	-0.075	-0.070
-388.033	13.992	0.165	0.128
-387.019	20.733	-0.246	0.198
-386.004	586.594	-0.027	0.066
-384.990	-32.576	-0.182	-0.101
-383.975	65.888	-0.092	0.093
-382.960	-114.184	0.282	0.054
-381.946	-33.541	0.286	-0.157
-380.931	-200.000	-0.017	-0.159
-379.917	376.479	-0.128	-0.258
-378.902	-200.000	0.008	0.098
-377.888	135.009	0.019	0.024
-376.873	-42.566	0.311	0.157
-375.858	800.000	0.055	-0.229
-374.844	-86.329	-0.173	0.053
-373.829	10.605	0.116	0.088
-372.815	-113.140	0.178	0.035
-371.800	327.006	0.100	-0.191
-370.785	800.000	0.023	0.072
-369.771	-200.000	0.006	0.102
-368.756	-200.000	0.048	0.221
-367.742	21.090	0.133	0.107
-366.727	800.000	-0.127	0.398
-365.712	104.103	0.038	0.045
-364.698	-79.466	-0.175	-0.059
-363.683	614.465	0.146	0.364
-362.669	513.557	-0.070	-0.161
-361.654	120.949	0.246	-0.304
-360.639	145.221	0.091	0.120
-359.625	-50.616	-0.270	-0.126
-358.610	-177.749	0.253	-0.006
-357.596	60.477	-0.156	0.153
-356.581	544.740	-0.080	0.189
-355.566	-200.000	-0.015	0.081
-354.552	-200.000	-0.008	-0.040
-353.537	-159.675	-0.183	-0.010
-352.523	-70.282	0.081	-0.031
-351.508	-200.000	-0.074	-0.357
-350.493	85.469	0.095	-0.103
-349.479	-200.000	0.026	0.158
-348.464	800.000	-0.078	-0.244
-347.450	128.085	-0.189	0.238
-346.435	-200.000	-0.482	0.001
-345.420	82.241	0.180	0.193
-344.406	64.079	-0.242	-0.242
-343.391	-200.000	0.001	0.082
-342.377	-8.959	-0.089	-0.059
-341.362	49.381	-0.159	-0.148
-340.348	-200.000	-0.002	-0.167
-339.333	-86.008	0.184	-0.056
-338.318	60.420	-0.199	-0.196
-337.304	-200.000	0.023	-0.444
-336.289	-45.683	0.219	-0.107
-335.275	205.136	-0.233	-0.359
-334.260	81.538	0.102	0.109
-333.245	-118.072	0.084	0.015
-332.231	-121.323	0.448	0.074
-331.216	369.634	0.161	-0.324
-330.202	-28.673	0.280	-0.160
-329.187	342.031	0.069	0.133
-328.172	800.000	-0.031	-0.094
-327.158	103.322	0.278	-0.323
-326.143	-194.099	-0.161	-0.001
-325.129	-90.191	-0.192	0.055
-324.114	145.058	0.129	0.171
-323.099	-200.000	-0.040	-0.284
-322.085	-129.388	0.194	0.027
-321.070	194.099	-0.075	-0.113
-320.056	692.160	0.137	-0.354
-319.041	-200.000	0.023	0.319
-318.026	-164.583	-0.261	0.012
-317.012	20.415	0.214	-0.171
-315.997	-2.468	0.280	-0.195
-314.983	-113.159	-0.178	0.035
-313.968	-200.000	0.045	-0.428
-312.953	-88.746	0.285	-0.084
-311.939	20.846	-0.170	0.137
-310.924	237.417	0.101	-0.166
-309.910	-200.000	0.044	0.239
-308.895	18.317	0.106	0.084
-307.880	-200.000	-0.021	-0.212
-306.866	800.000	-0.039	-0.154
-305.851	-0.989	0.124	-0.087
-304.837	-200.000	0.023	-0.158
-303.822	-200.000	0.031	-0.189
-302.807	-27.867	0.352	0.202
-301.793	300.521	0.109	0.200
-300.778	131.589	0.162	0.206
-299.764	22.377	-0.287	-0.233
-298.749	-62.185	0.131	0.054
-297.735	800.000	0.029	-0.112
-296.720	-200.000	-0.044	-0.220
-295.705	-96.542	-0.084	-0.022
-294.691	-17.912	0.112	0.069
-293.676	800.000	-0.127	0.423
-292.662	71.168	0.264	0.271
-291.647	93.515	-0.072	-0.081
-290.632	510.780	0.168	-0.388
-289.618	-200.000	-0.020	-0.134
-288.603	219.758	0.154	-0.245
-287.589	49.783	0.225	0.210
-286.574	-200.000	0.032	0.165
-285.559	800.000	0.089	0.262
-284.545	-14.579	0.162	-0.103
-283.530	8.362	0.303	0.226
-282.516	800.000	-0.041	0.124
-281.501	-36.261	0.214	0.114
-280.486	800.000	0.120	-0.380
-279.472	117.032	0.074	-0.090
-278.457	91.196	-0.117	-0.130
-277.443	800.000	0.065	0.241
-276.428	-133.909	-0.168	0.021
-275.413	23.315	0.239	-0.194
-274.399	-80.482	-0.227	-0.075
-273.384	118.069	0.224	-0.273
-272.370	-200.000	0.001	-0.168
-271.355	-197.586	-0.167	-0.001
-270.340	-47.377	-0.174	0.084
-269.326	800.000	0.078	0.301
-268.311	-200.000	-0.015	0.170
-267.297	443.514	-0.069	0.150
-266.282	27.083	0.333	-0.276
-265.267	-200.000	0.051	-0.318
-264.253	37.812	-0.313	-0.274
-263.238	736.802	-0.041	-0.107
-262.224	19.796	-0.279	-0.222
-261.209	585.300	0.150	0.364
-260.195	-80.672	0.165	0.054
-259.180	559.213	-0.037	-0.089
-258.165	231.878	0.122	-0.198
-257.151	-200.000	0.060	-0.492
-256.136	164.306	-0.058	-0.081
-255.122	-166.606	0.155	-0.006
-254.107	40.881	0.147	0.131
-253.092	-21.298	-0.078	0.047
-252.078	-200.000	-0.047	-0.492
-251.063	-200.000	0.042	0.195
-250.049	-8.892	-0.025	0.016
-249.034	56.140	0.072	-0.069
-248.019	13.784	-0.137	-0.105
-247.005	-101.018	0.575	-0.139
-245.990	205.228	0.076	-0.117
-244.976	800.000	0.041	0.154
-243.961	28.987	-0.161	0.135
-242.946	-19.787	-0.158	0.096
-241.932	-68.472	-0.271	-0.104
-240.917	73.016	0.192	-0.198
-239.903	461.311	-0.133	0.292
-238.888	292.574	0.043	-0.078
-237.873	-200.000	0.090	0.420
-236.859	49.573	0.050	-0.047
-235.844	474.073	-0.031	-0.070
-234.830	-110.617	0.354	-0.072
-233.815	218.266	-0.244	-0.384
-232.800	-134.496	-0.265	-0.032
-231.786	-105.664	-0.153	0.034
-230.771	-200.000	-0.023	-0.164
-229.757	-103.010	0.392	-0.092
-228.742	-200.000	-0.018	0.144
-227.727	594.950	-0.049	-0.119
-226.713	50.080	-0.128	-0.120
-225.698	-200.000	0.010	-0.386
-224.684	-200.000	0.043	0.258
-223.669	800.000	0.072	0.248
-222.655	-47.191	-0.066	0.032
-221.640	800.000	0.042	0.121
-220.625	-86.418	-0.224	0.068
-219.611	-63.569	0.224	0.091
-218.596	800.000	0.083	-0.235
-217.582	-79.198	0.209	0.070
-216.567	-11.014	-0.151	-0.099
-215.552	-200.000	-0.049	-0.269
-214.538	207.123	-0.166	-0.255
-213.523	-38.638	0.275	0.143
-212.509	-63.626	-0.384	0.155
-211.494	240.573	0.101	0.165
-210.479	-0.823	0.317	-0.221
-209.465	-200.000	0.013	-0.246
-208.450	72.490	0.137	-0.141
-207.436	98.039	-0.148	-0.168
-206.421	121.642	-0.209	0.257
-205.406	-48.976	-0.272	0.128
-204.392	-200.000	0.005	-0.421
-203.377	160.519	-0.060	0.083
-202.363	800.000	-0.080	0.265
-201.348	-200.000	-0.015	0.088
-200.333	-15.720	0.242	0.152
-199.319	-152.835	0.124	0.009
-198.304	44.051	0.263	0.237
-197.290	-200.000	-0.004	0.125
-196.275	-83.851	-0.306	0.096
-195.260	-173.010	0.157	0.005
-194.246	239.939	-0.146	0.240
-193.231	800.000	0.100	0.285
-192.217	-36.914	0.179	-0.095
-191.202	150.836	-0.200	0.268
-190.187	800.000	0.094	-0.322
-189.173	639.057	-0.041	0.103
-188.158	459.866	-0.077	0.169
-187.144	-200.000	-0.035	-0.208
-186.129	-149.603	-0.063	-0.005
-185.114	800.000	0.098	0.320
-184.100	542.681	0.146	0.342
-183.085	-146.630	0.176	0.015
-182.071	157.604	0.126	-0.172
-181.056	192.936	0.150	-0.223
-180.042	135.789	0.028	-0.036
-179.027	393.189	-0.047	-0.097
-178.012	-65.988	0.128	0.050
-176.998	-168.434	-0.074	-0.003
-175.983	520.611	0.043	0.100
-174.969	-200.000	0.034	0.304
-173.954	-194.849	-0.133	-0.001
-172.939	-164.665	-0.234	0.010
-171.925	-200.000	0.006	0.304
-170.910	351.837	0.206	0.401
-169.896	196.696	0.196	-0.293
-168.881	404.256	0.020	-0.041
-167.866	-200.000	-0.026	0.245
-166.852	-120.702	0.190	0.032
-165.837	616.224	0.102	0.252
-164.823	100.953	0.273	0.313
-163.808	-153.613	-0.288	-0.020
-162.793	131.397	0.181	-0.229
-161.779	-114.317	-0.166	-0.032
-160.764	75.606	0.232	-0.241
-159.750	-90.586	0.286	0.081
-158.735	-100.487	0.269	-0.066
-157.720	-189.214	-0.129	0.002
-156.706	-200.000	-0.013	0.159
-155.691	88.108	-0.203	0.222
-154.677	800.000	0.071	0.221
-153.662	-200.000	0.036	-0.165
-152.647	-200.000	-0.011	0.084
-151.633	-74.721	0.357	0.126
-150.618	-200.000	-0.017	-0.130
-149.604	-200.000	0.035	0.303
-148.589	17.232	0.105	0.082
-147.574	39.434	0.090	-0.079
-146.560	167.640	0.124	-0.173
-145.545	-86.787	-0.254	0.076
-144.531	-134.458	-0.159	0.019
-143.516	-41.116	0.199	-0.101
-142.502	-61.833	-0.136	-0.056
-141.487	263.497	0.176	-0.302
-140.472	-87.328	-0.115	0.034
-139.458	-200.000	0.014	0.283
-138.443	574.294	-0.082	-0.197
-137.429	87.189	0.099	0.108
-136.414	539.602	0.132	-0.309
-135.399	800.000	0.035	-0.133
-134.385	-50.423	-0.243	-0.113
-133.370	-89.529	-0.229	0.066
-132.356	-36.992	0.004	-0.002
-131.341	-13.901	-0.088	0.056
-130.326	-1.126	0.111	0.077
-129.312	-60.731	-0.033	0.014
-128.297	142.948	0.145	0.190
-127.283	357.460	-0.074	-0.146
-126.268	215.414	-0.200	0.312
-125.253	34.398	0.352	0.302
-124.239	-161.073	0.087	0.004
-123.224	-109.674	-0.237	0.049
-122.210	-25.444	0.057	-0.033
-121.195	-159.850	0.066	0.004
