DTS Sentinel unit serial number:	SN413079Multiplexer serial number:	ORYXHardware model number:	OX4-SRSoftware version number:	ORYX F/W v4.00 Oryx Data Collector v3.7.2.0data status	okinstallation	princeton_trtdifferential loss correction	single-endedforward channel	channel 3reverse channel	N/Adate	2019/09/13time	01:28:35forward acquisition time	60.00reverse acquisition time	0.00gamma	496.2192k internal	0.2333k external	0.2333temperature offset calibration	1.0120default loss term (dB/km)	0.3790temperature slope calibration	1.0000multiplexer offset coefficient	1.0000multiplexer slope coefficient	1.0000fibre end	0.00T internal ref (°C)	27.81T ext. ref 1 (°C)	3.74T ext. ref 2 (°C)	22.49length (m)	temperature (°C)	Stokes	anti-Stokes-747.200	274.612	-0.115	0.206
-746.185	-92.129	-0.089	0.025
-745.171	-94.867	0.107	-0.029
-744.156	-166.559	-0.119	0.005
-743.142	-159.103	0.179	-0.010
-742.127	800.000	-0.083	0.332
-741.112	42.844	-0.242	-0.222
-740.098	40.724	-0.132	0.119
-739.083	276.308	0.052	-0.094
-738.069	-89.325	-0.084	-0.025
-737.054	-200.000	-0.000	0.155
-736.039	70.440	-0.228	-0.237
-735.025	-164.675	0.394	-0.018
-734.010	-50.036	-0.206	0.098
-732.996	-73.490	-0.266	0.097
-731.981	-87.556	0.102	-0.031
-730.966	-168.201	-0.192	0.007
-729.952	-143.332	-0.264	-0.025
-728.937	-200.000	-0.015	-0.258
-727.923	110.831	-0.163	0.197
-726.908	474.803	-0.099	-0.224
-725.894	313.912	-0.036	-0.068
-724.879	-94.261	-0.198	0.054
-723.864	38.249	0.204	0.183
-722.850	-114.058	0.200	0.039
-721.835	-200.000	-0.011	-0.086
-720.821	-13.460	0.282	-0.183
-719.806	-200.000	-0.282	-0.001
-718.791	800.000	0.027	-0.080
-717.777	800.000	-0.002	-0.006
-716.762	-12.123	0.204	-0.134
-715.748	-153.805	-0.374	0.026
-714.733	-131.921	0.174	-0.023
-713.718	-2.679	-0.308	0.216
-712.704	3.889	-0.142	-0.104
-711.689	-16.189	-0.084	0.053
-710.675	-12.496	-0.413	-0.271
-709.660	41.147	-0.119	-0.108
-708.645	-200.000	-0.028	0.245
-707.631	30.669	-0.099	0.085
-706.616	86.427	0.125	0.138
-705.602	-200.000	0.001	-0.058
-704.587	800.000	0.016	0.047
-703.572	167.339	-0.116	-0.165
-702.558	-48.954	-0.127	0.061
-701.543	16.667	0.112	0.089
-700.529	-68.339	-0.198	0.077
-699.514	146.774	-0.155	0.209
-698.499	-176.211	-0.200	0.005
-697.485	-179.852	-0.059	-0.001
-696.470	-86.167	0.161	0.050
-695.456	-12.923	-0.337	-0.220
-694.441	-30.136	-0.280	-0.160
-693.426	59.639	0.015	0.014
-692.412	88.741	-0.174	0.194
-691.397	10.436	-0.234	0.179
-690.383	-58.792	-0.258	-0.112
-689.368	-200.000	-0.267	0.000
-688.354	-200.000	-0.009	-0.176
-687.339	25.526	-0.101	0.084
-686.324	-63.148	-0.258	0.107
-685.310	-145.798	0.167	-0.015
-684.295	-120.097	0.270	0.046
-683.281	-114.279	0.208	-0.040
-682.266	-9.970	-0.326	-0.217
-681.251	327.023	-0.091	-0.175
-680.237	144.605	0.069	-0.093
-679.222	169.830	0.087	-0.124
-678.208	-14.637	0.271	0.175
-677.193	145.246	0.154	0.207
-676.178	36.560	-0.502	-0.444
-675.164	255.299	-0.053	-0.091
-674.149	-200.000	-0.009	-0.228
-673.135	58.202	-0.215	-0.211
-672.120	-80.768	0.105	0.035
-671.105	13.746	-0.193	0.150
-670.091	-4.158	0.203	-0.141
-669.076	307.812	0.106	0.197
-668.062	32.679	-0.239	-0.207
-667.047	21.039	0.051	-0.041
-666.032	-200.000	0.069	0.327
-665.018	-200.000	-0.023	0.214
-664.003	26.097	0.185	0.155
-662.989	-174.890	0.230	0.006
-661.974	-200.000	0.031	0.331
-660.959	360.862	0.048	0.097
-659.945	-118.425	0.089	0.016
-658.930	-129.407	-0.260	-0.036
-657.916	132.870	0.160	0.207
-656.901	163.499	-0.051	-0.072
-655.886	43.284	0.144	-0.131
-654.872	-90.116	0.110	0.032
-653.857	265.442	-0.066	0.115
-652.843	49.930	0.300	-0.283
-651.828	-8.795	-0.082	0.055
-650.814	-97.330	0.055	-0.014
-649.799	17.010	0.094	0.074
-648.784	-200.000	0.031	-0.226
-647.770	134.559	0.162	0.211
-646.755	-30.874	-0.267	0.151
-645.741	561.858	-0.035	0.086
-644.726	-44.729	-0.345	-0.173
-643.711	96.772	-0.124	0.142
-642.697	17.354	0.138	-0.110
-641.682	126.667	-0.102	0.130
-640.668	800.000	0.020	-0.078
-639.653	292.871	-0.208	-0.379
-638.638	-54.240	-0.190	0.086
-637.624	263.157	0.028	-0.049
-636.609	-200.000	0.025	0.201
-635.595	-200.000	0.024	0.000
-634.580	-196.956	0.125	-0.001
-633.565	-155.656	-0.265	-0.017
-632.551	-142.224	-0.258	-0.026
-631.536	-147.760	-0.258	0.022
-630.522	98.332	0.213	-0.246
-629.507	-121.500	-0.149	0.025
-628.492	-60.703	-0.253	0.107
-627.478	-96.074	0.129	0.034
-626.463	21.099	0.292	-0.238
-625.449	-200.000	-0.016	-0.357
-624.434	-200.000	-0.021	-0.232
-623.419	-200.000	0.005	0.073
-622.405	-74.517	-0.343	-0.124
-621.390	246.315	0.281	-0.474
-620.376	-200.000	-0.018	-0.395
-619.361	-49.246	-0.139	-0.066
-618.346	-71.245	0.329	-0.124
-617.332	95.930	0.133	0.152
-616.317	15.253	-0.122	0.096
-615.303	-200.000	-0.039	-0.260
-614.288	-92.561	-0.338	-0.095
-613.273	174.824	-0.116	0.168
-612.259	-110.804	0.186	-0.038
-611.244	639.017	0.103	-0.262
-610.230	800.000	-0.112	-0.359
-609.215	250.841	-0.062	0.105
-608.201	-200.000	0.007	0.106
-607.186	174.223	0.176	-0.255
-606.171	-16.934	0.174	-0.110
-605.157	-10.729	0.396	-0.262
-604.142	-120.259	-0.351	-0.060
-603.128	-139.220	-0.484	0.052
-602.113	800.000	-0.100	-0.380
-601.098	-86.562	0.148	-0.045
-600.084	266.161	0.056	0.098
-599.069	-177.683	-0.383	0.009
-598.055	-125.791	-0.490	-0.074
-597.040	680.237	0.074	0.192
-596.025	-126.391	-0.240	-0.036
-595.011	-108.370	-0.173	-0.037
-593.996	800.000	0.036	0.148
-592.982	-99.979	0.152	-0.038
-591.967	-157.576	-0.071	-0.004
-590.952	-200.000	-0.061	-0.280
-589.938	-200.000	0.011	0.092
-588.923	419.172	-0.055	0.119
-587.909	-186.658	-0.195	-0.003
-586.894	-48.785	0.330	0.158
-585.879	28.749	0.126	0.106
-584.865	-18.350	0.114	0.071
-583.850	-47.479	0.288	-0.140
-582.836	-162.576	-0.150	-0.007
-581.821	-151.039	-0.149	-0.011
-580.806	-200.000	-0.004	-0.192
-579.792	800.000	0.023	-0.065
-578.777	-42.391	-0.187	0.095
-577.763	-124.317	0.248	-0.039
-576.748	56.544	0.132	0.129
-575.733	-155.054	0.060	-0.004
-574.719	100.609	-0.069	-0.080
-573.704	97.829	0.107	-0.123
-572.690	443.130	0.035	0.078
-571.675	-200.000	-0.358	-0.001
-570.661	113.821	0.041	-0.050
-569.646	78.002	0.162	0.173
-568.631	-200.000	0.033	0.215
-567.617	-169.934	0.368	0.013
-566.602	27.356	0.306	-0.257
-565.588	383.244	-0.092	-0.188
-564.573	800.000	-0.087	-0.257
-563.558	-62.380	0.223	-0.092
-562.544	84.712	-0.059	-0.065
-561.529	620.568	0.032	0.079
-560.515	800.000	0.098	-0.384
-559.500	-12.580	-0.290	0.189
-558.485	242.819	0.072	-0.121
-557.471	328.261	0.036	-0.070
-556.456	-200.000	0.017	0.151
-555.442	-9.875	-0.304	0.202
-554.427	19.062	0.182	0.146
-553.412	-55.362	-0.123	0.055
-552.398	158.574	0.015	-0.021
-551.383	-200.000	-0.026	0.198
-550.369	-141.648	-0.188	0.019
-549.354	800.000	0.087	0.285
-548.339	-200.000	-0.022	0.431
-547.325	-9.441	-0.110	0.073
-546.310	424.847	0.014	0.031
-545.296	-69.158	-0.141	0.054
-544.281	800.000	0.013	0.037
-543.266	35.729	-0.025	-0.022
-542.252	57.095	0.077	-0.075
-541.237	27.901	-0.054	0.046
-540.223	299.633	0.269	0.495
-539.208	-155.053	0.072	0.005
-538.193	800.000	0.065	0.212
-537.179	-81.650	0.236	-0.077
-536.164	-14.859	-0.242	0.155
-535.150	-23.264	-0.221	0.133
-534.135	-200.000	-0.020	0.193
-533.121	144.070	0.227	0.302
-532.106	120.193	0.165	0.204
-531.091	254.360	-0.111	0.189
-530.077	207.985	0.034	-0.053
-529.062	48.410	-0.244	-0.228
-528.048	-90.594	-0.037	-0.011
-527.033	-29.770	-0.119	0.068
-526.018	-29.218	-0.027	-0.015
-525.004	10.457	-0.297	0.225
-523.989	-49.459	-0.198	-0.094
-522.975	-22.008	0.438	-0.265
-521.960	800.000	0.040	0.126
-520.945	-200.000	0.024	-0.230
-519.931	-141.512	-0.406	-0.041
-518.916	96.927	-0.356	-0.407
-517.902	31.359	0.067	-0.057
-516.887	-118.170	-0.080	-0.014
-515.872	43.835	0.289	-0.264
-514.858	-35.284	-0.244	0.132
-513.843	94.716	0.151	0.172
-512.829	800.000	-0.111	0.413
-511.814	-82.686	-0.131	-0.042
-510.799	-200.000	0.052	0.244
-509.785	363.702	0.162	0.324
-508.770	-91.602	-0.181	0.051
-507.756	-40.078	0.028	0.014
-506.741	20.785	0.365	0.294
-505.726	-63.281	-0.269	0.110
-504.712	150.373	-0.102	-0.138
-503.697	103.403	-0.152	-0.177
-502.683	800.000	-0.089	0.287
-501.668	-6.887	0.125	0.085
-500.653	185.020	0.094	0.139
-499.639	-105.115	-0.238	0.054
-498.624	-115.415	-0.126	0.024
-497.610	399.476	-0.046	0.096
-496.595	-159.621	-0.298	-0.016
-495.581	43.755	-0.094	0.086
-494.566	207.662	-0.066	0.103
-493.551	800.000	-0.121	-0.347
-492.537	-200.000	-0.024	0.272
-491.522	-57.932	-0.143	0.062
-490.508	800.000	0.032	-0.132
-489.493	454.657	0.075	-0.164
-488.478	384.319	0.063	-0.129
-487.464	800.000	-0.086	-0.268
-486.449	164.702	0.104	-0.147
-485.435	774.206	0.007	0.019
-484.420	-129.293	0.157	0.022
-483.405	-90.885	0.148	-0.042
-482.391	99.772	0.140	0.162
-481.376	96.965	-0.206	0.236
-480.362	800.000	0.041	-0.136
-479.347	-135.482	0.158	0.019
-478.332	-138.740	-0.122	-0.013
-477.318	-174.698	-0.124	-0.004
-476.303	-151.842	-0.264	0.019
-475.289	-12.051	0.024	0.015
-474.274	-148.020	0.508	-0.042
-473.259	-28.193	-0.286	-0.164
-472.245	-200.000	0.028	0.126
-471.230	32.857	-0.052	-0.045
-470.216	-27.540	-0.076	-0.044
-469.201	-73.743	0.010	0.003
-468.186	-138.614	-0.055	0.006
-467.172	-54.831	0.084	0.038
-466.157	-148.823	-0.324	-0.026
-465.143	-200.000	-0.006	-0.422
-464.128	-138.743	0.291	0.032
-463.113	-99.476	-0.155	-0.039
-462.099	-109.136	0.184	-0.039
-461.084	-200.000	0.002	0.209
-460.070	-49.848	0.041	0.020
-459.055	-200.000	0.020	-0.136
-458.040	800.000	0.031	-0.087
-457.026	-96.747	-0.133	0.035
-456.011	-12.318	0.197	-0.128
-454.997	539.621	0.031	-0.073
-453.982	-144.356	-0.372	-0.034
-452.968	365.932	0.043	0.085
-451.953	-53.477	-0.115	-0.052
-450.938	800.000	0.093	-0.270
-449.924	-15.115	-0.269	0.171
-448.909	244.178	-0.090	-0.151
-447.895	800.000	0.132	0.397
-446.880	800.000	0.050	0.150
-445.865	-156.962	0.326	0.020
-444.851	318.273	0.114	-0.214
-443.836	-44.380	0.047	0.023
-442.822	2.605	0.405	-0.292
-441.807	-112.439	-0.188	-0.037
-440.792	168.000	0.060	0.084
-439.778	98.415	0.014	-0.016
-438.763	166.279	0.070	-0.099
-437.749	-80.988	-0.117	0.039
-436.734	-200.000	0.039	0.202
-435.719	520.249	0.067	0.156
-434.705	-137.950	0.148	-0.016
-433.690	158.908	-0.211	0.291
-432.676	-126.578	0.156	0.023
-431.661	-86.598	-0.272	-0.083
-430.646	-148.013	-0.244	-0.020
-429.632	-200.000	-0.018	-0.167
-428.617	305.598	-0.083	0.154
-427.603	-114.294	-0.128	-0.025
-426.588	618.055	0.097	0.241
-425.573	-60.595	0.217	-0.091
-424.559	-81.100	-0.234	0.077
-423.544	-87.419	0.047	-0.014
-422.530	-76.318	0.256	0.089
-421.515	87.762	0.105	-0.116
-420.500	-75.761	0.180	0.063
-419.486	800.000	-0.120	0.509
-418.471	-161.803	-0.057	0.003
-417.457	-200.000	0.036	0.191
-416.442	96.569	0.144	0.164
-415.428	-200.000	0.071	-0.331
-414.413	-147.073	0.240	0.020
-413.398	-17.753	-0.176	0.110
-412.384	-73.450	-0.314	-0.114
-411.369	437.381	-0.038	-0.082
-410.355	740.023	0.075	0.199
-409.340	-140.666	0.106	-0.011
-408.325	-21.459	0.044	0.026
-407.311	42.887	-0.174	0.158
-406.296	-200.000	-0.020	0.273
-405.282	-45.205	0.386	0.190
-404.267	3.506	-0.124	-0.090
-403.252	64.670	-0.217	-0.217
-402.238	2.274	-0.071	-0.051
-401.223	173.047	-0.114	-0.164
-400.209	-200.000	0.055	0.363
-399.194	-166.535	0.185	0.008
-398.179	5.926	0.203	0.149
-397.165	332.056	-0.119	0.228
-396.150	800.000	-0.100	-0.331
-395.136	800.000	-0.097	-0.273
-394.121	-134.183	0.074	-0.009
-393.106	44.563	0.054	0.049
-392.092	45.857	0.184	0.168
-391.077	93.064	-0.079	-0.088
-390.063	310.831	0.205	0.382
-389.048	-200.000	0.017	0.275
-388.033	116.173	-0.022	0.027
-387.019	740.902	0.037	0.099
-386.004	258.329	0.055	-0.094
-384.990	-6.458	-0.256	0.173
-383.975	-150.819	-0.110	-0.008
-382.960	-200.000	-0.001	0.104
-381.946	84.404	0.088	-0.095
-380.931	-200.000	0.006	0.053
-379.917	219.712	0.062	0.099
-378.902	-6.687	-0.072	0.048
-377.888	516.092	0.067	0.155
-376.873	242.909	-0.023	0.039
-375.858	800.000	-0.096	-0.292
-374.844	-200.000	-0.006	-0.122
-373.829	172.005	0.074	0.105
-372.815	41.038	0.078	0.070
-371.800	-85.982	0.084	0.026
-370.785	-108.089	0.411	0.088
-369.771	5.818	0.275	0.202
-368.756	118.330	0.192	0.234
-367.742	-62.422	0.172	-0.071
-366.727	12.347	0.115	0.088
-365.712	-17.562	-0.026	-0.016
-364.698	34.027	-0.223	-0.193
-363.683	-51.504	-0.083	0.038
-362.669	-5.569	0.149	-0.101
-361.654	-33.594	0.257	-0.141
-360.639	-14.253	0.257	-0.164
-359.625	-10.080	0.284	0.187
-358.610	-19.845	0.170	-0.104
-357.596	-200.000	0.081	0.444
-356.581	-200.000	-0.067	0.511
-355.566	40.361	-0.258	-0.230
-354.552	-200.000	-0.030	0.207
-353.537	-200.000	-0.067	-0.302
-352.523	-59.567	0.065	-0.028
-351.508	800.000	-0.069	-0.233
-350.493	-200.000	0.040	-0.197
-349.479	-139.154	0.267	0.029
-348.464	315.063	0.086	0.160
-347.450	670.964	-0.028	-0.072
-346.435	473.286	0.050	0.113
-345.420	273.962	-0.004	0.008
-344.406	800.000	0.065	-0.185
-343.391	203.363	-0.099	-0.151
-342.377	-109.371	-0.146	-0.031
-341.362	-62.976	-0.269	0.110
-340.348	-200.000	-0.063	-0.360
-339.333	-107.635	-0.107	0.023
-338.318	412.446	0.035	0.074
-337.304	-200.000	0.040	-0.184
-336.289	38.608	-0.275	-0.243
-335.275	-129.215	-0.307	0.042
-334.260	-58.133	0.101	0.044
-333.245	-169.606	0.233	0.008
-332.231	83.109	0.085	-0.092
-331.216	-200.000	0.001	-0.137
-330.202	800.000	0.048	-0.147
-329.187	-200.000	0.026	-0.134
-328.172	-23.730	0.252	-0.150
-327.158	74.678	0.130	0.136
-326.143	10.678	0.221	-0.167
-325.129	72.817	-0.183	-0.189
-324.114	-57.491	-0.138	-0.060
-323.099	-8.256	-0.243	0.162
-322.085	-57.043	-0.305	0.133
-321.070	575.739	0.084	-0.203
-320.056	-90.837	-0.423	-0.121
-319.041	266.376	-0.100	-0.172
-318.026	325.578	0.084	-0.159
-317.012	-65.680	0.268	0.106
-315.997	292.596	-0.235	0.423
-314.983	-111.718	0.205	0.041
-313.968	239.805	-0.030	0.049
-312.953	-49.530	-0.105	-0.050
-311.939	154.012	-0.116	0.157
-310.924	165.428	0.247	0.345
-309.910	-200.000	0.011	0.262
-308.895	221.778	-0.143	-0.228
-307.880	104.854	-0.051	-0.060
-306.866	-157.136	-0.199	0.012
-305.851	-157.607	0.275	-0.016
-304.837	-200.000	0.086	0.401
-303.822	-182.600	0.465	0.008
-302.807	274.285	0.058	-0.101
-301.793	-101.984	-0.127	0.030
-300.778	90.762	-0.115	-0.128
-299.764	-200.000	-0.001	-0.075
-298.749	-11.089	0.311	-0.203
-297.735	64.803	0.155	-0.155
-296.720	-200.000	0.014	-0.147
-295.705	-29.751	0.241	-0.136
-294.691	214.951	-0.126	-0.197
-293.676	288.703	0.090	-0.161
-292.662	-200.000	0.030	0.210
-291.647	-80.354	0.418	-0.138
-290.632	96.120	-0.113	-0.128
-289.618	-27.543	-0.285	-0.163
-288.603	109.127	-0.059	0.070
-287.589	-16.282	0.444	0.278
-286.574	-109.757	-0.321	0.067
-285.559	-76.094	0.400	0.139
-284.545	439.488	0.057	-0.123
-283.530	-26.524	-0.090	-0.052
-282.516	103.036	0.143	0.165
-281.501	800.000	-0.045	0.179
-280.486	-31.978	-0.444	-0.246
-279.472	800.000	-0.110	0.322
-278.457	1.189	-0.100	-0.071
-277.443	103.046	-0.166	-0.192
-276.428	56.915	-0.175	0.169
-275.413	-50.447	-0.204	-0.095
-274.399	139.497	0.046	0.060
-273.384	-48.534	0.282	0.134
-272.370	-200.000	0.000	0.113
-271.355	-85.290	0.374	-0.115
-270.340	-30.741	0.343	0.192
-269.326	-200.000	-0.014	-0.474
-268.311	-200.000	-0.028	-0.235
-267.297	-144.243	-0.325	-0.030
-266.282	543.860	-0.075	0.176
-265.267	800.000	0.037	-0.113
-264.253	800.000	-0.063	-0.250
-263.238	-63.506	-0.278	0.113
-262.224	25.718	-0.196	0.161
-261.209	-118.733	0.449	-0.078
-260.195	79.112	-0.197	-0.208
-259.180	51.521	-0.155	-0.145
-258.165	-200.000	-0.015	-0.259
-257.151	-142.830	0.123	-0.012
-256.136	800.000	0.067	-0.273
-255.122	57.833	0.252	0.243
-254.107	-61.537	-0.044	-0.018
-253.092	30.177	0.060	-0.051
-252.078	800.000	-0.052	-0.210
-251.063	-41.670	-0.039	-0.020
-250.049	344.240	-0.120	-0.233
-249.034	-42.209	0.120	-0.061
-248.019	371.918	-0.129	-0.258
-247.005	-37.208	0.353	-0.186
-245.990	110.268	-0.217	-0.257
-244.976	3.704	0.130	0.094
-243.961	-38.273	0.243	0.127
-242.946	152.121	-0.074	0.099
-241.932	-89.433	-0.064	0.019
-240.917	-174.314	0.289	0.008
-239.903	800.000	-0.059	-0.175
-238.888	-169.303	0.395	0.014
-237.873	-200.000	-0.000	-0.158
-236.859	173.446	-0.090	-0.128
-235.844	800.000	0.055	0.178
-234.830	153.136	-0.143	-0.193
-233.815	-21.215	-0.107	-0.065
-232.800	-200.000	-0.076	0.366
-231.786	-200.000	-0.033	0.246
-230.771	-177.428	-0.236	-0.006
-229.757	-76.711	-0.272	0.094
-228.742	-200.000	-0.001	0.316
-227.727	53.254	0.171	0.161
-226.713	-103.930	0.190	0.044
-225.698	21.909	0.161	0.129
-224.684	-77.890	0.207	0.070
-223.669	81.187	0.021	-0.022
-222.655	-200.000	-0.032	0.287
-221.640	155.568	0.122	0.166
-220.625	218.730	-0.125	-0.197
-219.611	-200.000	-0.005	0.081
-218.596	800.000	-0.122	0.435
-217.582	-83.052	0.120	-0.038
-216.567	-120.996	0.092	0.015
-215.552	240.040	0.172	-0.283
-214.538	-156.151	-0.312	0.019
-213.523	74.941	0.059	0.061
-212.509	-109.465	-0.091	0.019
-211.494	-161.695	-0.096	0.005
-210.479	156.947	0.069	-0.093
-209.465	-200.000	-0.074	0.404
-208.450	58.522	0.027	-0.026
-207.436	-10.200	-0.226	0.148
-206.421	43.172	0.094	-0.084
-205.406	9.743	0.199	0.148
-204.392	54.852	-0.152	-0.145
-203.377	-79.909	0.394	-0.130
-202.363	-163.956	-0.309	-0.014
-201.348	800.000	-0.029	-0.100
-200.333	800.000	0.132	0.397
-199.319	-200.000	0.034	0.440
-198.304	-29.987	0.212	0.119
-197.290	155.258	0.115	0.156
-196.275	-59.370	0.337	0.143
-195.260	654.736	0.100	-0.252
-194.246	-143.322	-0.275	-0.026
-193.231	800.000	-0.124	0.337
-192.217	39.323	0.114	-0.100
-191.202	800.000	-0.037	0.121
-190.187	38.630	-0.182	0.160
-189.173	0.162	0.023	0.016
-188.158	-120.161	0.338	-0.057
-187.144	-100.246	0.042	-0.010
-186.129	79.177	0.025	-0.026
-185.114	210.595	-0.161	-0.248
-184.100	-182.299	0.207	-0.004
-183.085	-49.355	0.213	0.100
-182.071	1.834	0.212	-0.151
-181.056	-200.000	-0.021	-0.140
-180.042	-85.900	-0.274	-0.084
-179.027	-22.818	-0.174	-0.103
-178.012	272.956	-0.109	-0.190
-176.998	26.875	0.153	0.126
-175.983	-200.000	0.032	0.193
-174.969	-200.000	-0.044	-0.288
-173.954	165.189	0.204	-0.284
-172.939	-200.000	-0.008	0.078
-171.925	61.874	0.102	-0.100
-170.910	246.703	0.122	0.203
-169.896	-200.000	-0.006	0.308
-168.881	76.199	-0.200	0.209
-167.866	-86.941	-0.145	0.043
-166.852	-200.000	-0.026	-0.114
-165.837	-100.228	-0.121	-0.029
-164.823	154.062	-0.140	0.189
-163.808	-88.685	0.255	-0.074
-162.793	-200.000	0.003	-0.028
-161.779	-179.253	-0.384	-0.008
-160.764	285.325	0.044	-0.078
-159.750	-200.000	0.066	-0.538
-158.735	396.473	-0.119	-0.244
-157.720	-200.000	-0.019	-0.190
-156.706	74.382	0.300	0.309
-155.691	301.810	-0.196	0.356
-154.677	62.545	-0.024	0.024
-153.662	-200.000	0.057	-0.420
-152.647	-114.384	-0.199	0.038
-151.633	-200.000	0.074	-0.423
-150.618	30.881	-0.110	-0.093
-149.604	-2.947	0.035	-0.024
-148.589	-88.752	0.267	0.078
-147.574	-95.359	0.252	-0.066
-146.560	-200.000	0.027	-0.331
-145.545	-200.000	0.007	0.131
-144.531	-200.000	-0.002	0.143
-143.516	733.614	-0.086	-0.225
-142.502	705.654	-0.075	-0.196
-141.487	-200.000	0.026	-0.287
-140.472	519.733	-0.024	0.054
-139.458	-200.000	-0.006	-0.106
-138.443	-200.000	-0.023	0.224
-137.429	800.000	0.060	0.168
-136.414	-38.547	-0.151	0.078
-135.399	-68.954	0.058	0.022
-134.385	-132.321	0.545	-0.069
-133.370	-50.928	-0.110	-0.051
-132.356	404.280	0.053	0.109
-131.341	-94.139	-0.445	-0.120
-130.326	-176.992	-0.262	-0.006
-129.312	17.252	-0.208	0.162
-128.297	432.119	-0.104	0.221
-127.283	800.000	-0.046	-0.146
-126.268	800.000	0.057	0.218
-125.253	461.307	-0.075	-0.165
-124.239	157.264	-0.119	-0.161
-123.224	33.531	0.148	-0.126
-122.210	-32.643	-0.208	-0.114
-121.195	81.737	-0.296	-0.315
