DTS Sentinel unit serial number:	SN413079Multiplexer serial number:	ORYXHardware model number:	OX4-SRSoftware version number:	ORYX F/W v4.00 Oryx Data Collector v3.7.2.0data status	okinstallation	princeton_trtdifferential loss correction	single-endedforward channel	channel 3reverse channel	N/Adate	2019/09/12time	19:35:04forward acquisition time	15.00reverse acquisition time	0.00gamma	496.2192k internal	0.2322k external	0.2322temperature offset calibration	1.0113default loss term (dB/km)	0.3790temperature slope calibration	1.0000multiplexer offset coefficient	1.0000multiplexer slope coefficient	1.0000fibre end	0.00T internal ref (°C)	32.19T ext. ref 1 (°C)	3.37T ext. ref 2 (°C)	26.67length (m)	temperature (°C)	Stokes	anti-Stokes-747.200	-200.000	-0.001	1.507
-746.185	-147.376	-0.270	-0.023
-745.171	600.567	0.079	-0.199
-744.156	-52.276	-0.179	-0.084
-743.142	-200.000	-0.058	1.049
-742.127	-20.114	-0.673	0.419
-741.112	-158.529	0.598	0.035
-740.098	12.746	-0.200	-0.156
-739.083	-110.635	-0.576	0.120
-738.069	-1.749	-0.520	-0.370
-737.054	-200.000	0.036	0.663
-736.039	12.781	-0.113	0.088
-735.025	-122.225	-0.553	-0.091
-734.010	-42.911	-0.770	-0.395
-732.996	-136.674	-0.119	-0.014
-731.981	644.284	-0.315	-0.812
-730.966	-183.787	0.315	0.005
-729.952	82.448	-0.486	-0.532
-728.937	12.222	0.759	-0.590
-727.923	-200.000	-0.037	0.649
-726.908	-36.985	-0.315	0.170
-725.894	-155.458	0.182	0.012
-724.879	800.000	-0.111	0.340
-723.864	152.360	0.313	-0.431
-722.850	229.424	0.185	-0.305
-721.835	-69.815	-0.300	0.116
-720.821	-200.000	-0.203	-1.261
-719.806	407.172	-0.285	0.609
-718.791	-3.103	-0.387	-0.272
-717.777	209.173	0.408	0.645
-716.762	24.282	-0.799	0.666
-715.748	18.302	-0.684	0.551
-714.733	717.669	0.120	0.323
-713.718	-160.327	0.527	0.029
-712.704	400.477	0.361	0.764
-711.689	361.940	-0.447	-0.904
-710.675	-128.923	0.793	0.112
-709.660	23.685	0.705	-0.586
-708.645	-164.270	0.516	0.024
-707.631	-140.021	0.185	0.020
-706.616	252.625	0.351	0.605
-705.602	13.670	-0.398	0.312
-704.587	20.655	0.535	0.437
-703.572	-98.848	-0.128	-0.033
-702.558	495.149	-0.253	0.586
-701.543	72.095	-0.262	0.275
-700.529	-200.000	-0.033	-0.251
-699.514	237.314	0.370	-0.619
-698.499	-200.000	0.014	-0.270
-697.485	-70.096	0.687	-0.263
-696.470	-200.000	-0.025	0.321
-695.456	-200.000	0.087	-0.389
-694.441	14.289	-0.483	-0.380
-693.426	800.000	0.097	0.392
-692.412	286.818	-0.154	-0.281
-691.397	-176.803	0.784	-0.020
-690.383	285.454	0.224	-0.407
-689.368	-138.326	-0.571	-0.064
-688.354	800.000	-0.086	0.351
-687.339	-45.311	-0.944	-0.472
-686.324	297.657	-0.424	-0.785
-685.310	-70.990	-0.612	-0.232
-684.295	-139.306	-0.104	-0.011
-683.281	-104.694	-0.493	0.114
-682.266	800.000	0.077	0.307
-681.251	800.000	-0.180	-0.509
-680.237	-87.652	-0.669	-0.204
-679.222	-200.000	0.086	0.520
-678.208	19.198	0.631	0.510
-677.193	-27.627	0.464	0.272
-676.178	184.459	0.331	-0.494
-675.164	16.432	-0.233	0.185
-674.149	-200.000	-0.126	0.745
-673.135	90.710	-0.455	-0.513
-672.120	800.000	0.251	-0.707
-671.105	-47.627	-0.723	0.354
-670.091	-200.000	-0.125	0.924
-669.076	800.000	0.212	-0.689
-668.062	800.000	0.224	0.705
-667.047	-147.522	0.560	0.048
-666.032	292.569	-0.255	-0.468
-665.018	48.337	0.104	-0.098
-664.003	800.000	0.233	0.663
-662.989	176.523	-0.259	-0.380
-661.974	-98.507	0.306	0.079
-660.959	551.216	0.325	0.785
-659.945	-161.278	-0.582	0.030
-658.930	100.200	-0.322	-0.376
-657.916	565.407	0.116	0.282
-656.901	35.678	-0.187	-0.166
-655.886	-200.000	-0.056	-0.374
-654.872	590.980	-0.211	-0.523
-653.857	800.000	-0.312	-0.944
-652.843	414.520	0.276	-0.591
-651.828	800.000	-0.112	0.319
-650.814	-4.174	0.088	0.061
-649.799	432.625	-0.242	-0.527
-648.784	114.748	0.108	-0.133
-647.770	-200.000	0.028	0.852
-646.755	44.635	-0.429	-0.397
-645.741	-16.071	-0.495	0.317
-644.726	121.083	-0.264	0.331
-643.711	395.687	-0.085	-0.178
-642.697	800.000	-0.229	-0.839
-641.682	-200.000	0.119	-0.885
-640.668	275.924	-0.536	-0.957
-639.653	113.875	-0.514	-0.628
-638.638	2.852	-0.083	-0.061
-637.624	-189.881	-0.576	-0.007
-636.609	800.000	-0.159	0.491
-635.595	800.000	-0.227	0.696
-634.580	-200.000	-0.027	-0.321
-633.565	-92.371	0.332	-0.094
-632.551	-164.663	1.055	0.048
-631.536	627.241	-0.462	-1.173
-630.522	-200.000	0.047	-0.556
-629.507	-36.601	0.599	-0.324
-628.492	-200.000	0.082	-0.473
-627.478	-189.787	-0.715	0.008
-626.463	108.269	0.373	0.448
-625.449	-93.876	-0.394	0.109
-624.434	26.151	0.424	-0.356
-623.419	-24.367	-0.672	-0.403
-622.405	-20.079	-0.316	-0.196
-621.390	425.866	-0.157	-0.340
-620.376	800.000	0.103	0.418
-619.361	-154.596	-0.426	-0.029
-618.346	-200.000	-0.030	0.263
-617.332	79.834	0.116	0.125
-616.317	13.265	0.558	0.435
-615.303	-129.894	0.534	-0.074
-614.288	-165.466	0.605	-0.027
-613.273	-162.975	0.494	-0.024
-612.259	105.595	-0.476	-0.566
-611.244	800.000	-0.042	0.157
-610.230	102.779	0.630	0.741
-609.215	441.009	-0.137	0.301
-608.201	32.643	-0.272	0.236
-607.186	-180.755	0.718	-0.015
-606.171	9.524	-0.568	0.432
-605.157	800.000	0.019	0.067
-604.142	800.000	-0.054	-0.209
-603.128	-65.962	0.609	0.244
-602.113	-83.697	1.008	0.323
-601.098	765.271	-0.051	0.138
-600.084	745.143	0.355	-0.961
-599.069	176.667	0.390	-0.569
-598.055	-27.230	0.440	0.258
-597.040	-54.690	-0.629	0.286
-596.025	200.309	-0.228	-0.351
-595.011	-64.198	-0.940	-0.385
-593.996	-161.963	0.525	-0.027
-592.982	-144.117	-0.721	0.068
-591.967	-178.060	0.058	0.001
-590.952	-200.000	0.027	0.436
-589.938	497.221	0.098	-0.227
-588.923	-141.621	0.327	0.033
-587.909	200.509	-0.330	0.509
-586.894	-2.123	0.191	-0.135
-585.879	-187.897	0.294	0.004
-584.865	452.625	0.135	0.300
-583.850	800.000	0.235	-0.744
-582.836	-134.264	-0.229	-0.028
-581.821	-200.000	0.069	0.708
-580.806	492.544	-0.272	-0.626
-579.792	-97.978	-0.572	-0.148
-578.777	800.000	-0.177	0.642
-577.763	-80.117	-0.252	0.085
-576.748	-200.000	0.072	0.377
-575.733	18.766	0.369	0.297
-574.719	-89.538	-0.874	-0.258
-573.704	4.382	-0.796	-0.585
-572.690	1.753	-0.102	0.073
-571.675	-15.893	0.058	-0.037
-570.661	23.115	0.803	-0.662
-569.646	62.317	-0.168	-0.169
-568.631	-200.000	0.021	0.220
-567.617	2.895	-0.739	-0.538
-566.602	-30.751	-0.296	-0.168
-565.588	-200.000	0.027	0.362
-564.573	-200.000	0.028	0.196
-563.558	-6.015	0.674	-0.463
-562.544	194.913	-0.180	0.274
-561.529	27.780	-0.690	0.583
-560.515	-122.700	-0.261	-0.042
-559.500	74.246	-0.304	-0.320
-558.485	27.552	0.590	0.498
-557.471	79.228	-0.342	0.367
-556.456	-200.000	0.144	0.841
-555.442	403.654	0.468	-0.987
-554.427	-70.344	-0.550	0.209
-553.412	-114.065	0.540	0.105
-552.398	-10.345	-0.704	0.468
-551.383	-50.063	0.970	-0.461
-550.369	-66.396	-0.751	0.299
-549.354	143.860	0.348	-0.465
-548.339	800.000	0.117	-0.404
-547.325	800.000	-0.198	-0.746
-546.310	800.000	0.232	-0.712
-545.296	4.031	0.625	0.458
-544.281	-200.000	0.069	-0.361
-543.266	184.264	0.364	0.540
-542.252	-55.438	-0.090	0.040
-541.237	-137.683	-0.205	0.023
-540.223	-100.548	0.132	-0.033
-539.208	134.328	-0.199	0.259
-538.193	-42.938	-0.903	-0.459
-537.179	-15.920	0.336	0.215
-536.164	-123.939	0.671	0.106
-535.150	-62.704	0.161	0.067
-534.135	-40.490	0.669	0.348
-533.121	377.805	-0.127	-0.261
-532.106	800.000	0.124	0.478
-531.091	-144.819	-0.424	-0.039
-530.077	14.786	0.629	0.493
-529.062	-127.937	-0.762	0.110
-528.048	-109.942	0.400	0.084
-527.033	302.547	-0.449	-0.832
-526.018	64.340	-0.498	-0.502
-525.004	678.984	-0.065	0.169
-523.989	108.279	-0.564	-0.674
-522.975	-89.349	0.622	0.184
-521.960	-44.526	-0.624	0.312
-520.945	-92.940	0.422	0.118
-519.931	32.475	0.199	-0.172
-518.916	496.159	-0.213	-0.491
-517.902	-63.345	-0.294	-0.121
-516.887	20.364	0.689	-0.558
-515.872	-200.000	0.011	0.054
-514.858	-82.129	-1.305	0.426
-513.843	-150.485	0.712	-0.055
-512.829	281.706	0.457	-0.820
-511.814	-68.553	-0.476	0.185
-510.799	-200.000	-0.119	1.055
-509.785	507.330	-0.100	0.232
-508.770	410.705	0.377	-0.801
-507.756	21.258	0.754	0.613
-506.741	800.000	0.295	1.038
-505.726	80.821	-0.283	0.305
-504.712	482.775	0.134	-0.304
-503.697	311.380	-0.205	-0.384
-502.683	-200.000	-0.029	-0.430
-501.668	800.000	-0.226	0.813
-500.653	15.071	0.326	-0.255
-499.639	-122.091	0.556	-0.091
-498.624	503.197	-0.103	0.238
-497.610	-65.175	-0.202	-0.082
-496.595	800.000	0.148	-0.536
-495.581	-138.032	1.047	-0.117
-494.566	-200.000	0.031	-0.379
-493.551	86.460	0.192	-0.212
-492.537	-122.505	-0.308	0.050
-491.522	-13.803	0.874	-0.565
-490.508	116.392	0.610	-0.748
-489.493	-88.764	-0.642	-0.191
-488.478	-200.000	-0.156	-0.738
-487.464	447.844	0.371	-0.817
-486.449	186.370	-0.477	-0.711
-485.435	79.262	-0.188	0.202
-484.420	800.000	-0.121	0.375
-483.405	-200.000	0.019	0.304
-482.391	168.778	-0.496	0.707
-481.376	55.639	-0.163	0.158
-480.362	-104.612	0.592	0.136
-479.347	-5.185	0.525	0.361
-478.332	-62.695	-0.376	-0.156
-477.318	-66.390	0.342	-0.136
-476.303	-42.402	-0.346	-0.176
-475.289	800.000	-0.035	-0.135
-474.274	100.624	-0.473	-0.549
-473.259	-139.270	-0.307	-0.033
-472.245	-200.000	0.022	-0.215
-471.230	47.027	0.563	0.524
-470.216	-38.089	-0.708	-0.376
-469.201	-192.438	-0.294	-0.003
-468.186	-53.824	0.325	0.148
-467.172	225.940	0.343	-0.556
-466.157	-91.307	-0.734	-0.210
-465.143	146.587	-0.503	0.676
-464.128	38.497	0.277	0.247
-463.113	-86.424	0.316	0.097
-462.099	-83.542	0.552	-0.176
-461.084	-128.389	0.710	-0.101
-460.070	-86.849	0.468	0.143
-459.055	-127.558	0.079	0.011
-458.040	241.727	-0.178	0.297
-457.026	800.000	-0.135	-0.457
-456.011	261.844	-0.468	0.811
-454.997	3.434	0.360	0.262
-453.982	543.202	0.417	-0.994
-452.968	-59.298	0.380	-0.163
-451.953	545.231	0.103	0.246
-450.938	-200.000	-0.092	0.496
-449.924	57.323	0.369	0.360
-448.909	53.128	-0.301	0.288
-447.895	-103.589	0.298	-0.070
-446.880	779.095	0.215	-0.586
-445.865	-35.600	-0.418	-0.227
-444.851	-200.000	0.031	0.273
-443.836	166.561	0.644	-0.911
-442.822	172.207	-0.415	-0.595
-441.807	-200.000	0.491	0.000
-440.792	800.000	0.215	0.799
-439.778	-200.000	0.066	0.446
-438.763	-200.000	0.075	0.634
-437.749	2.395	0.466	0.337
-436.734	-120.286	0.937	0.159
-435.719	-200.000	-0.011	-0.187
-434.705	-148.641	0.734	0.060
-433.690	800.000	-0.093	0.400
-432.676	-128.523	0.093	0.013
-431.661	-200.000	0.116	-0.533
-430.646	-71.862	0.302	0.112
-429.632	-27.475	-0.058	0.034
-428.617	800.000	-0.070	-0.282
-427.603	15.605	-0.350	-0.275
-426.588	800.000	-0.264	-0.756
-425.573	-7.597	0.669	-0.452
-424.559	800.000	0.047	0.182
-423.544	-107.528	-0.513	0.112
-422.530	-126.754	0.534	0.079
-421.515	-138.850	0.723	0.079
-420.500	-200.000	-0.557	0.002
-419.486	-151.698	0.363	-0.027
-418.471	42.168	0.366	0.331
-417.457	-118.367	-0.298	-0.053
-416.442	-105.390	-0.690	-0.157
-415.428	-79.445	0.217	0.073
-414.413	-124.861	-0.225	0.035
-413.398	95.501	0.417	-0.474
-412.384	-127.245	0.433	0.063
-411.369	800.000	-0.368	-1.277
-410.355	251.624	-0.030	-0.051
-409.340	-44.916	0.398	-0.198
-408.325	-40.604	-0.712	0.368
-407.311	-34.680	-0.509	0.278
-406.296	-200.000	-0.076	-0.628
-405.282	-200.000	-0.011	-0.054
-404.267	-65.386	-0.916	0.367
-403.252	74.918	-0.576	-0.605
-402.238	683.919	0.399	1.037
-401.223	-200.000	0.057	0.350
-400.209	428.206	0.100	-0.216
-399.194	144.094	-0.499	0.663
-398.179	-200.000	0.030	0.667
-397.165	800.000	0.241	0.909
-396.150	-59.984	0.934	-0.398
-395.136	-109.280	0.070	0.015
-394.121	-200.000	-0.050	-0.321
-393.106	-80.959	-0.290	-0.096
-392.092	800.000	-0.086	0.249
-391.077	746.070	-0.133	0.356
-390.063	168.826	-0.531	-0.754
-389.048	174.976	0.602	-0.869
-388.033	800.000	0.321	-0.897
-387.019	-88.034	-0.499	0.149
-386.004	762.094	-0.370	0.999
-384.990	800.000	0.132	0.432
-383.975	-67.390	0.910	0.356
-382.960	281.976	-0.206	-0.368
-381.946	-134.175	-0.734	0.090
-380.931	800.000	-0.501	-1.392
-379.917	-56.427	0.319	-0.141
-378.902	-185.584	0.641	-0.010
-377.888	-200.000	-0.043	0.301
-376.873	-200.000	-0.065	0.298
-375.858	-60.429	0.238	-0.101
-374.844	311.770	-0.284	-0.531
-373.829	-39.666	-1.258	0.655
-372.815	-116.796	0.542	-0.099
-371.800	51.538	0.086	-0.082
-370.785	31.068	0.576	0.492
-369.771	-200.000	0.094	0.760
-368.756	-146.966	0.828	-0.071
-367.742	-8.258	-0.839	-0.562
-366.727	49.231	0.154	-0.144
-365.712	-200.000	0.037	-0.408
-364.698	-200.000	-0.002	-0.015
-363.683	-88.790	0.153	0.045
-362.669	123.417	-0.398	-0.496
-361.654	4.450	0.464	-0.339
-360.639	258.524	-0.205	0.351
-359.625	276.852	-0.377	-0.668
-358.610	448.923	-0.119	0.260
-357.596	-54.131	0.526	-0.238
-356.581	428.728	0.158	-0.340
-355.566	539.680	0.171	0.404
-354.552	7.686	0.790	0.588
-353.537	50.499	0.164	-0.154
-352.523	-85.254	-0.424	0.132
-351.508	-200.000	-0.003	-0.784
-350.493	800.000	-0.122	0.461
-349.479	-200.000	0.047	-0.429
-348.464	-87.605	0.582	-0.175
-347.450	-80.557	-0.471	0.156
-346.435	-46.730	-0.118	0.058
-345.420	23.471	0.543	0.444
-344.406	287.831	0.208	0.374
-343.391	-113.843	-0.106	0.021
-342.377	-200.000	0.079	0.805
-341.362	800.000	0.278	0.935
-340.348	800.000	0.111	0.416
-339.333	18.678	-0.068	0.054
-338.318	-104.870	0.039	-0.009
-337.304	800.000	0.304	-0.865
-336.289	800.000	-0.210	-0.702
-335.275	155.943	0.107	-0.147
-334.260	-79.741	-0.427	0.143
-333.245	-58.218	-0.503	-0.218
-332.231	153.357	0.479	0.652
-331.216	-126.962	1.069	-0.156
-330.202	-13.112	0.915	0.591
-329.187	-119.186	0.763	-0.132
-328.172	-33.311	-0.530	-0.292
-327.158	-119.967	-0.826	-0.141
-326.143	-110.179	-0.242	-0.050
-325.129	-200.000	-0.109	0.498
-324.114	-186.058	-0.441	-0.006
-323.099	-200.000	0.029	0.661
-322.085	-136.428	-0.600	0.069
-321.070	-200.000	-0.002	-0.438
-320.056	-40.428	-0.622	-0.321
-319.041	-7.405	0.226	-0.152
-318.026	186.680	0.087	-0.129
-317.012	-44.725	0.281	0.140
-315.997	-39.730	0.534	0.278
-314.983	800.000	-0.021	0.062
-313.968	501.238	-0.284	-0.652
-312.953	-51.069	0.382	0.178
-311.939	152.678	-0.552	0.749
-310.924	133.923	0.380	0.489
-309.910	-131.493	0.179	0.023
-308.895	-64.744	-0.324	0.130
-307.880	-43.980	-0.054	-0.027
-306.866	576.239	0.186	-0.450
-305.851	623.466	-0.181	-0.452
-304.837	706.457	-0.262	0.687
-303.822	-167.540	-0.270	-0.011
-302.807	91.876	-0.112	-0.125
-301.793	-200.000	-0.019	0.392
-300.778	-200.000	0.018	0.190
-299.764	13.225	-0.846	0.651
-298.749	486.988	-0.061	0.138
-297.735	-48.951	0.387	-0.184
-296.720	800.000	0.026	-0.102
-295.705	190.178	-0.226	-0.337
-294.691	-91.561	0.243	0.069
-293.676	297.582	-0.599	1.092
-292.662	-85.148	0.262	0.081
-291.647	-108.160	-0.617	0.133
-290.632	19.645	0.623	-0.498
-289.618	84.635	-0.638	-0.693
-288.603	-29.198	0.350	-0.199
-287.589	-110.071	-0.792	0.164
-286.574	800.000	0.106	-0.354
-285.559	615.085	-0.029	0.072
-284.545	-59.192	-0.846	0.362
-283.530	71.537	0.137	0.141
-282.516	4.381	0.299	0.218
-281.501	-200.000	0.058	-0.288
-280.486	52.855	0.294	0.279
-279.472	-134.977	-0.285	-0.034
-278.457	-68.785	-1.070	-0.410
-277.443	-82.709	-0.303	-0.097
-276.428	-119.970	0.197	0.034
-275.413	-200.000	0.141	0.738
-274.399	-200.000	0.016	-0.083
-273.384	-187.330	0.787	0.011
-272.370	479.028	0.198	-0.445
-271.355	28.821	-0.283	0.238
-270.340	23.344	-0.207	0.169
-269.326	-157.822	0.537	-0.032
-268.311	9.724	0.261	-0.197
-267.297	-25.509	0.419	0.245
-266.282	196.192	0.141	-0.212
-265.267	-200.000	0.007	-0.238
-264.253	382.352	0.312	0.635
-263.238	800.000	0.153	-0.476
-262.224	-57.752	0.827	-0.359
-261.209	-77.334	0.636	0.219
-260.195	26.491	0.304	-0.252
-259.180	-200.000	0.056	0.641
-258.165	-150.670	0.444	0.034
-257.151	-97.918	0.297	0.076
-256.136	153.055	0.324	-0.440
-255.122	233.538	-0.088	0.144
-254.107	-86.343	-0.929	-0.283
-253.092	-86.999	0.494	-0.149
-252.078	-68.212	-0.790	-0.305
-251.063	-34.328	-0.743	0.404
-250.049	79.036	-0.116	-0.124
-249.034	-127.065	0.910	-0.132
-248.019	-122.262	0.580	0.094
-247.005	506.125	-0.166	0.381
-245.990	167.633	0.279	0.393
-244.976	-74.872	-0.288	0.102
-243.961	-153.050	-0.464	0.032
-242.946	239.262	0.336	0.554
-241.932	5.987	-0.264	-0.194
-240.917	-50.763	0.662	0.309
-239.903	281.570	-0.278	0.493
-238.888	800.000	0.075	-0.254
-237.873	11.270	-0.506	0.384
-236.859	107.389	-0.370	-0.436
-235.844	357.963	0.465	-0.919
-234.830	629.879	-0.067	-0.168
-233.815	800.000	-0.046	-0.167
-232.800	-27.945	-0.282	0.161
-231.786	204.636	-0.569	0.875
-230.771	800.000	0.242	0.915
-229.757	-60.388	0.204	0.086
-228.742	28.087	0.485	0.405
-227.727	18.168	-0.193	-0.153
-226.713	-114.322	0.151	0.029
-225.698	-2.053	-0.996	-0.693
-224.684	-114.589	-0.408	0.077
-223.669	-200.000	-0.076	0.913
-222.655	33.234	-0.224	0.193
-221.640	-104.842	-0.710	0.162
-220.625	48.317	0.392	0.363
-219.611	-144.230	-0.487	-0.045
-218.596	-117.603	-0.605	0.108
-217.582	-146.227	-0.701	0.061
-216.567	63.604	0.394	0.392
-215.552	50.146	-0.294	0.275
-214.538	-99.230	-0.419	-0.105
-213.523	42.332	-0.377	0.340
-212.509	627.869	0.107	-0.269
-211.494	-25.625	-0.567	-0.331
-210.479	-9.309	-0.401	0.265
-209.465	-97.292	-0.458	-0.118
-208.450	244.519	0.341	-0.567
-207.436	-118.467	-0.654	-0.115
-206.421	-200.000	-0.006	0.593
-205.406	61.553	0.145	-0.143
-204.392	-132.854	-0.250	0.032
-203.377	-200.000	0.047	0.301
-202.363	538.262	-0.251	0.590
-201.348	-23.792	0.136	0.080
-200.333	131.796	0.524	0.667
-199.319	800.000	-0.051	-0.215
-198.304	-200.000	0.277	1.291
-197.290	-58.908	1.256	-0.537
-196.275	461.925	0.407	0.898
-195.260	54.853	-0.291	0.278
-194.246	-200.000	-0.197	-0.907
-193.231	-74.023	0.470	-0.169
-192.217	-200.000	0.076	0.565
-191.202	70.623	0.378	-0.387
-190.187	-86.793	0.233	-0.070
-189.173	195.079	0.342	0.513
-188.158	-200.000	0.121	0.829
-187.144	234.061	0.424	-0.691
-186.129	46.620	-0.347	-0.318
-185.114	-200.000	-0.109	-0.519
-184.100	172.915	-0.708	1.008
-183.085	800.000	-0.111	-0.377
-182.071	-105.330	-1.030	-0.232
-181.056	147.317	-0.414	0.551
-180.042	-193.528	-0.989	0.008
-179.027	190.959	-0.187	0.277
-178.012	237.028	-0.547	-0.895
-176.998	-10.748	0.899	-0.587
-175.983	53.576	0.860	-0.816
-174.969	-48.659	0.546	0.259
-173.954	-136.588	-0.633	0.072
-172.939	-111.442	0.434	-0.087
-171.925	116.704	-0.530	-0.643
-170.910	-138.327	-0.388	0.042
-169.896	-24.201	0.211	-0.125
-168.881	94.773	0.575	-0.646
-167.866	53.008	0.773	-0.731
-166.852	-200.000	0.000	0.363
-165.837	33.789	-0.317	-0.273
-164.823	-200.000	-0.012	-0.273
-163.808	-80.706	-0.576	-0.189
-162.793	149.973	0.241	-0.323
-161.779	596.263	-0.138	0.337
-160.764	-200.000	-0.131	0.993
-159.750	247.154	-0.108	0.180
-158.735	-37.158	0.331	-0.175
-157.720	121.849	-0.332	0.408
-156.706	-121.004	0.253	0.042
-155.691	25.578	0.243	0.200
-154.677	-82.124	-0.969	0.312
-153.662	160.084	0.329	0.453
-152.647	105.763	-0.090	0.105
-151.633	69.541	-0.336	0.342
-150.618	12.886	-0.254	0.194
-149.604	640.167	-0.271	0.681
-148.589	81.517	0.498	0.532
-147.574	152.945	0.195	-0.263
-146.560	-144.768	-0.589	-0.053
-145.545	-160.857	0.771	-0.040
-144.531	-111.196	0.401	-0.081
-143.516	-200.000	-0.112	0.581
-142.502	-85.057	-0.768	0.237
-141.487	272.876	-0.170	0.297
-140.472	-14.271	-0.269	0.171
-139.458	-23.284	0.439	0.260
-138.443	-200.000	-0.079	0.485
-137.429	-25.915	-0.657	-0.382
-136.414	-21.773	0.283	-0.170
-135.399	-12.635	-0.336	0.216
-134.385	-200.000	0.019	0.974
-133.370	740.071	-0.234	-0.621
-132.356	-200.000	0.029	-0.133
-131.341	99.149	-0.483	0.550
-130.326	164.596	0.143	-0.199
-129.312	-81.705	0.481	-0.156
-128.297	-10.070	-0.517	0.339
-127.283	-200.000	0.000	0.758
-126.268	-80.361	0.375	-0.124
-125.253	800.000	0.068	0.246
-124.239	407.806	0.251	-0.524
-123.224	-140.120	-0.337	0.035
-122.210	-99.184	0.143	-0.036
-121.195	142.359	-0.151	-0.197
