DTS Sentinel unit serial number:	SN413079Multiplexer serial number:	ORYXHardware model number:	OX4-SRSoftware version number:	ORYX F/W v4.00 Oryx Data Collector v3.7.2.0data status	okinstallation	princeton_trtdifferential loss correction	single-endedforward channel	channel 3reverse channel	N/Adate	2019/09/14time	20:04:35forward acquisition time	60.00reverse acquisition time	0.00gamma	496.2192k internal	0.2314k external	0.2314temperature offset calibration	1.0011default loss term (dB/km)	0.3790temperature slope calibration	1.0000multiplexer offset coefficient	1.0000multiplexer slope coefficient	1.0000fibre end	0.00T internal ref (°C)	34.00T ext. ref 1 (°C)	4.87T ext. ref 2 (°C)	28.33length (m)	temperature (°C)	Stokes	anti-Stokes-747.200	150.564	0.102	-0.140
-746.185	2.836	-0.315	0.232
-745.171	-200.000	0.011	-0.141
-744.156	303.003	-0.222	0.416
-743.142	126.383	0.222	0.285
-742.127	-43.054	-0.093	0.048
-741.112	217.348	0.238	0.384
-740.098	206.026	-0.223	0.352
-739.083	-20.104	0.349	0.218
-738.069	151.888	-0.159	0.219
-737.054	272.103	-0.122	0.217
-736.039	217.830	-0.125	-0.203
-735.025	-125.043	0.274	0.043
-734.010	2.032	-0.184	-0.135
-732.996	-65.098	-0.122	-0.050
-731.981	800.000	0.043	0.160
-730.966	140.456	0.114	0.152
-729.952	-200.000	-0.012	-0.291
-728.937	-12.923	-0.175	-0.115
-727.923	46.028	-0.166	0.156
-726.908	-111.935	-0.075	0.015
-725.894	-127.999	0.072	0.010
-724.879	-146.280	0.283	-0.025
-723.864	-96.721	0.066	-0.017
-722.850	-23.010	0.448	0.274
-721.835	-200.000	0.094	0.482
-720.821	223.395	0.133	-0.218
-719.806	86.415	0.145	-0.162
-718.791	157.437	-0.226	-0.317
-717.777	36.874	-0.258	-0.231
-716.762	323.555	-0.079	-0.153
-715.748	-200.000	0.067	0.362
-714.733	146.368	-0.158	-0.214
-713.718	338.939	0.050	0.100
-712.704	8.350	0.171	-0.130
-711.689	800.000	-0.050	0.142
-710.675	21.726	0.161	-0.132
-709.660	46.213	0.137	0.128
-708.645	-119.490	0.203	-0.036
-707.631	188.004	0.132	-0.200
-706.616	10.881	-0.186	0.144
-705.602	-200.000	-0.032	-0.240
-704.587	-29.435	-0.127	-0.074
-703.572	-44.510	-0.305	0.154
-702.558	133.272	0.169	0.220
-701.543	-200.000	-0.010	0.205
-700.529	-200.000	0.041	-0.560
-699.514	-111.987	0.411	0.084
-698.499	-119.428	0.111	0.020
-697.485	109.570	0.239	0.290
-696.470	765.060	0.087	0.239
-695.456	-152.848	-0.085	0.006
-694.441	-62.996	0.456	0.190
-693.426	-200.000	-0.001	-0.082
-692.412	173.051	-0.175	-0.255
-691.397	-44.160	-0.039	-0.020
-690.383	-30.265	0.234	-0.134
-689.368	-195.725	-0.526	-0.004
-688.354	72.893	-0.037	0.039
-687.339	-11.521	-0.289	0.192
-686.324	-176.313	-0.272	-0.007
-685.310	626.599	0.048	-0.123
-684.295	-200.000	-0.008	0.169
-683.281	-76.033	0.124	-0.044
-682.266	21.470	0.128	0.106
-681.251	-85.264	-0.205	0.065
-680.237	43.494	0.224	0.207
-679.222	471.221	0.054	0.122
-678.208	160.282	-0.103	0.146
-677.193	-94.796	0.254	0.070
-676.178	-46.349	-0.249	-0.124
-675.164	-9.831	-0.125	0.084
-674.149	93.728	0.207	-0.237
-673.135	70.566	0.172	0.180
-672.120	-200.000	0.014	-0.064
-671.105	317.866	-0.089	0.170
-670.091	800.000	0.059	-0.169
-669.076	75.929	-0.241	-0.258
-668.062	333.905	-0.119	-0.232
-667.047	-99.049	0.201	-0.052
-666.032	-200.000	-0.003	-0.049
-665.018	436.159	-0.087	0.190
-664.003	-2.698	0.221	0.156
-662.989	25.602	-0.075	-0.063
-661.974	800.000	0.077	-0.258
-660.959	-200.000	-0.006	-0.084
-659.945	-200.000	-0.028	0.278
-658.930	46.681	0.215	-0.201
-657.916	38.112	0.313	-0.281
-656.901	-171.903	-0.396	-0.013
-655.886	-97.944	0.276	-0.072
-654.872	-200.000	0.002	0.187
-653.857	33.639	-0.022	0.019
-652.843	66.757	0.173	-0.177
-651.828	523.025	0.086	-0.203
-650.814	250.315	-0.056	0.096
-649.799	306.002	-0.053	0.100
-648.784	-7.456	0.133	0.091
-647.770	-71.747	0.329	0.124
-646.755	-48.086	-0.151	0.074
-645.741	800.000	-0.065	-0.187
-644.726	160.145	0.182	-0.257
-643.711	593.927	0.073	-0.182
-642.697	-200.000	-0.034	0.220
-641.682	-159.934	0.114	-0.006
-640.668	-105.118	0.158	0.036
-639.653	-200.000	0.016	-0.089
-638.638	-155.606	-0.116	-0.008
-637.624	-149.928	-0.351	-0.028
-636.609	-61.400	-0.163	0.069
-635.595	-200.000	0.056	-0.276
-634.580	800.000	0.054	-0.172
-633.565	106.514	-0.210	-0.251
-632.551	77.186	0.174	-0.187
-631.536	218.716	0.058	-0.093
-630.522	-156.879	-0.325	-0.020
-629.507	102.193	-0.089	-0.106
-628.492	-200.000	-0.014	-0.068
-627.478	-79.726	0.158	0.054
-626.463	-200.000	0.005	-0.336
-625.449	800.000	0.084	-0.309
-624.434	32.534	-0.063	0.055
-623.419	-39.401	-0.325	0.172
-622.405	514.958	-0.048	0.113
-621.390	-158.013	-0.218	-0.013
-620.376	-200.000	-0.026	-0.374
-619.361	-177.642	0.094	0.002
-618.346	-137.991	-0.189	0.021
-617.332	372.799	0.247	-0.506
-616.317	21.996	-0.350	0.288
-615.303	-67.945	0.110	0.043
-614.288	419.622	-0.084	0.182
-613.273	-57.067	0.155	0.069
-612.259	23.138	-0.268	0.222
-611.244	800.000	0.110	-0.351
-610.230	25.161	-0.261	-0.218
-609.215	701.407	-0.104	0.275
-608.201	69.574	0.134	0.139
-607.186	-128.935	-0.102	-0.014
-606.171	304.557	0.148	-0.278
-605.157	-40.433	-0.198	0.104
-604.142	77.340	-0.234	-0.251
-603.128	-116.588	0.190	-0.035
-602.113	800.000	-0.017	-0.066
-601.098	479.585	0.102	-0.233
-600.084	800.000	-0.082	-0.235
-599.069	-48.068	0.193	0.094
-598.055	16.355	-0.426	0.339
-597.040	673.590	-0.067	-0.176
-596.025	800.000	-0.040	0.154
-595.011	251.358	-0.111	0.191
-593.996	440.897	-0.033	-0.073
-592.982	66.111	0.241	-0.246
-591.967	-62.972	-0.097	0.041
-590.952	20.097	-0.020	0.016
-589.938	-200.000	0.002	0.530
-588.923	-200.000	0.017	0.107
-587.909	-49.789	0.108	0.052
-586.894	16.257	0.092	0.073
-585.879	212.097	-0.102	0.161
-584.865	-17.057	-0.119	0.076
-583.850	-200.000	0.015	0.409
-582.836	-47.946	0.227	-0.111
-581.821	-200.000	0.072	-0.420
-580.806	800.000	0.063	0.188
-579.792	-48.871	-0.148	-0.071
-578.777	204.699	-0.022	-0.034
-577.763	-101.488	0.165	-0.040
-576.748	644.798	0.090	-0.232
-575.733	-88.552	-0.220	-0.066
-574.719	800.000	0.103	0.295
-573.704	-200.000	0.006	0.300
-572.690	43.374	-0.117	-0.108
-571.675	82.518	0.088	-0.097
-570.661	-200.000	-0.033	-0.194
-569.646	-200.000	-0.019	-0.334
-568.631	800.000	0.064	0.237
-567.617	77.895	-0.130	-0.140
-566.602	401.601	-0.100	-0.212
-565.588	-93.135	-0.040	0.011
-564.573	800.000	0.088	0.276
-563.558	-35.450	0.048	-0.026
-562.544	18.962	-0.124	-0.100
-561.529	43.122	-0.351	-0.322
-560.515	12.232	-0.217	0.169
-559.500	-48.172	0.475	-0.231
-558.485	424.875	0.047	0.102
-557.471	237.165	0.117	-0.195
-556.456	-200.000	0.010	-0.130
-555.442	123.872	0.111	-0.140
-554.427	-47.938	0.241	-0.117
-553.412	53.489	0.221	0.214
-552.398	138.884	0.109	-0.144
-551.383	-200.000	0.022	-0.215
-550.369	16.069	-0.108	0.086
-549.354	-67.069	0.246	0.098
-548.339	-115.985	0.123	0.023
-547.325	391.868	-0.054	0.112
-546.310	-137.469	0.306	-0.035
-545.296	8.521	-0.055	0.041
-544.281	727.274	-0.102	0.274
-543.266	-66.563	0.238	0.095
-542.252	126.814	0.110	0.141
-541.237	-76.763	-0.154	-0.054
-540.223	326.231	0.041	0.078
-539.208	-161.466	0.143	0.007
-538.193	-171.104	0.203	0.007
-537.179	800.000	0.063	0.252
-536.164	107.805	-0.208	0.249
-535.150	-45.947	0.140	-0.070
-534.135	-45.880	0.133	-0.066
-533.121	146.594	-0.209	0.282
-532.106	-78.552	-0.334	-0.115
-531.091	3.017	-0.314	0.230
-530.077	800.000	-0.036	-0.120
-529.062	800.000	-0.129	-0.558
-528.048	378.137	0.076	-0.155
-527.033	57.094	-0.066	-0.065
-526.018	104.127	-0.071	-0.084
-525.004	177.284	0.042	0.061
-523.989	56.369	0.025	0.025
-522.975	-117.511	0.263	-0.048
-521.960	193.525	-0.160	-0.243
-520.945	-102.416	0.067	0.016
-519.931	-200.000	-0.014	0.000
-518.916	62.949	0.091	-0.091
-517.902	86.044	0.218	-0.241
-516.887	800.000	-0.117	-0.403
-515.872	130.471	-0.084	0.108
-514.858	-86.498	0.388	0.120
-513.843	-200.000	-0.017	-0.078
-512.829	-45.095	0.109	-0.055
-511.814	401.154	0.044	0.094
-510.799	800.000	-0.037	0.141
-509.785	-200.000	0.068	0.419
-508.770	63.325	-0.112	0.113
-507.756	-3.251	-0.103	0.072
-506.741	48.911	0.200	0.188
-505.726	-61.763	0.202	0.085
-504.712	19.689	0.183	-0.148
-503.697	-97.071	-0.076	-0.020
-502.683	-193.705	0.294	-0.003
-501.668	477.247	-0.042	-0.096
-500.653	-200.000	-0.004	0.275
-499.639	-9.905	0.062	0.041
-498.624	286.203	-0.126	0.228
-497.610	266.630	-0.072	0.127
-496.595	-114.780	-0.261	0.050
-495.581	-191.213	-0.367	0.004
-494.566	124.868	0.096	-0.121
-493.551	800.000	-0.046	0.157
-492.537	-200.000	0.009	0.163
-491.522	-69.762	-0.180	-0.069
-490.508	-41.128	0.323	0.167
-489.493	2.942	0.155	0.113
-488.478	86.394	0.103	0.114
-487.464	223.985	-0.218	0.354
-486.449	-141.813	-0.112	-0.011
-485.435	-200.000	-0.047	-0.322
-484.420	19.971	0.374	-0.302
-483.405	-59.986	-0.111	-0.048
-482.391	64.621	0.111	0.112
-481.376	-68.861	0.140	0.054
-480.362	-87.424	-0.254	0.077
-479.347	335.195	0.178	-0.346
-478.332	-21.374	-0.131	0.081
-477.318	221.487	-0.108	0.175
-476.303	-116.381	-0.098	0.018
-475.289	-200.000	0.001	-0.060
-474.274	-91.458	0.156	-0.045
-473.259	-200.000	0.007	-0.457
-472.245	-57.403	0.247	-0.109
-471.230	-87.682	-0.150	-0.045
-470.216	27.558	0.165	-0.139
-469.201	800.000	0.061	0.250
-468.186	-123.748	0.245	0.039
-467.172	512.273	0.036	-0.084
-466.157	17.340	-0.292	0.233
-465.143	-200.000	-0.008	0.246
-464.128	-9.669	-0.170	-0.113
-463.113	-34.851	-0.006	0.003
-462.099	-200.000	0.014	-0.375
-461.084	170.380	-0.152	0.219
-460.070	-38.621	0.290	-0.154
-459.055	57.789	-0.238	-0.234
-458.040	-132.141	0.273	-0.036
-457.026	-74.080	-0.182	0.066
-456.011	-200.000	0.024	-0.109
-454.997	-77.282	0.059	0.020
-453.982	-119.240	0.376	-0.066
-452.968	163.931	-0.154	-0.217
-451.953	0.289	-0.376	-0.269
-450.938	-1.937	0.127	0.090
-449.924	-200.000	0.020	-0.281
-448.909	-169.274	-0.171	0.006
-447.895	-83.081	-0.287	-0.093
-446.880	-200.000	-0.022	0.199
-445.865	-84.804	-0.225	0.071
-444.851	800.000	0.022	0.077
-443.836	800.000	-0.028	-0.111
-442.822	-39.184	-0.195	0.103
-441.807	-153.955	-0.207	0.014
-440.792	402.993	-0.039	-0.083
-439.778	18.966	0.106	-0.085
-438.763	-108.978	0.263	0.056
-437.749	-151.792	0.345	-0.025
-436.734	187.442	-0.151	0.225
-435.719	50.006	-0.193	0.183
-434.705	688.065	-0.058	0.153
-433.690	382.226	-0.052	-0.107
-432.676	-65.735	-0.204	0.082
-431.661	-200.000	-0.010	0.098
-430.646	-200.000	0.018	-0.082
-429.632	-171.384	0.129	0.004
-428.617	-104.543	-0.134	-0.031
-427.603	-200.000	0.022	0.207
-426.588	42.490	-0.143	-0.130
-425.573	-60.564	0.309	-0.131
-424.559	455.112	0.022	0.049
-423.544	121.404	0.077	0.096
-422.530	-200.000	0.025	0.199
-421.515	1.844	-0.252	0.182
-420.500	-162.644	-0.104	-0.005
-419.486	800.000	0.018	0.052
-418.471	277.289	-0.100	-0.179
-417.457	58.907	-0.089	0.088
-416.442	-104.037	0.155	0.036
-415.428	-66.172	-0.254	-0.101
-414.413	800.000	0.105	-0.339
-413.398	-44.111	-0.094	-0.047
-412.384	-200.000	-0.043	0.285
-411.369	124.837	-0.142	-0.179
-410.355	-125.307	0.227	-0.035
-409.340	205.506	0.131	0.203
-408.325	800.000	0.112	0.380
-407.311	-122.634	-0.102	-0.017
-406.296	-104.430	0.278	-0.064
-405.282	-107.354	-0.347	-0.076
-404.267	-172.547	-0.317	0.010
-403.252	800.000	0.082	-0.260
-402.238	112.625	-0.128	-0.155
-401.223	51.771	0.099	-0.095
-400.209	115.508	-0.103	-0.126
-399.194	-200.000	-0.007	-0.172
-398.179	79.064	-0.231	-0.248
-397.165	-58.984	0.279	-0.121
-396.150	-117.392	-0.326	-0.059
-395.136	-200.000	0.067	0.369
-394.121	800.000	0.030	0.114
-393.106	103.187	0.143	-0.167
-392.092	505.317	0.165	0.383
-391.077	-200.000	-0.005	0.255
-390.063	-53.608	0.101	0.046
-389.048	-0.180	0.103	0.073
-388.033	155.985	0.028	0.039
-387.019	800.000	0.053	-0.151
-386.004	182.443	-0.251	0.370
-384.990	330.771	-0.081	0.155
-383.975	-144.266	0.216	0.020
-382.960	-200.000	-0.004	0.024
-381.946	-62.712	0.073	-0.030
-380.931	127.086	0.125	0.159
-379.917	-115.984	-0.175	0.033
-378.902	148.529	-0.067	0.091
-377.888	119.155	-0.260	0.322
-376.873	80.180	0.278	-0.299
-375.858	615.027	0.150	-0.375
-374.844	-114.729	0.164	-0.031
-373.829	94.302	-0.197	0.224
-372.815	800.000	0.057	0.209
-371.800	-1.619	-0.222	0.156
-370.785	-67.496	-0.029	0.011
-369.771	-200.000	0.012	-0.291
-368.756	69.031	-0.079	-0.081
-367.742	7.790	-0.250	0.187
-366.727	333.780	-0.128	0.247
-365.712	347.965	-0.078	-0.154
-364.698	-200.000	0.022	-0.197
-363.683	146.849	0.177	0.238
-362.669	-114.503	-0.212	0.041
-361.654	-10.505	-0.148	0.098
-360.639	-119.980	-0.265	0.045
-359.625	-144.013	0.194	-0.018
-358.610	-106.327	-0.126	-0.028
-357.596	309.728	0.036	-0.068
-356.581	-89.789	0.047	0.014
-355.566	683.726	0.176	0.457
-354.552	489.530	0.130	0.296
-353.537	-114.159	-0.422	-0.081
-352.523	-118.554	0.191	0.034
-351.508	275.328	-0.105	0.185
-350.493	39.346	0.063	0.056
-349.479	-178.154	0.148	-0.003
-348.464	-200.000	-0.030	-0.161
-347.450	322.272	0.008	-0.016
-346.435	150.864	-0.022	-0.031
-345.420	-117.438	0.158	-0.029
-344.406	-4.237	-0.133	-0.092
-343.391	708.427	0.065	-0.173
-342.377	-90.036	0.320	0.093
-341.362	-200.000	-0.037	0.163
-340.348	59.767	-0.094	0.093
-339.333	23.371	0.233	0.191
-338.318	360.536	-0.169	0.338
-337.304	314.173	0.030	0.056
-336.289	154.054	-0.069	-0.094
-335.275	15.762	0.030	-0.024
-334.260	-11.444	-0.168	0.110
-333.245	210.969	0.079	0.124
-332.231	800.000	0.033	-0.107
-331.216	-113.171	0.165	-0.032
-330.202	-90.801	-0.252	-0.072
-329.187	800.000	-0.081	-0.281
-328.172	800.000	-0.061	0.194
-327.158	29.486	0.229	0.194
-326.143	191.526	-0.057	-0.086
-325.129	800.000	0.081	0.320
-324.114	-79.898	0.217	0.073
-323.099	161.569	-0.082	0.114
-322.085	31.758	0.282	-0.242
-321.070	-197.294	-0.036	0.000
-320.056	107.202	0.012	-0.015
-319.041	-200.000	0.008	-0.398
-318.026	220.846	0.109	0.174
-317.012	-25.825	-0.244	-0.143
-315.997	-52.902	0.119	-0.054
-314.983	-45.524	0.231	0.114
-313.968	-6.404	-0.152	-0.103
-312.953	394.251	0.034	-0.070
-311.939	-102.718	-0.132	-0.031
-310.924	-45.618	-0.347	-0.171
-309.910	142.525	-0.072	-0.095
-308.895	800.000	-0.122	-0.378
-307.880	-200.000	-0.029	0.180
-306.866	-83.590	0.023	0.007
-305.851	-148.456	0.100	-0.008
-304.837	-200.000	0.079	0.470
-303.822	800.000	0.131	-0.366
-302.807	199.039	-0.077	-0.117
-301.793	689.242	-0.070	0.182
-300.778	-49.693	-0.208	0.099
-299.764	-100.393	0.239	0.059
-298.749	-46.232	-0.079	-0.039
-297.735	63.728	-0.097	0.097
-296.720	32.059	0.287	0.246
-295.705	-200.000	-0.047	0.284
-294.691	-18.578	-0.136	0.084
-293.676	145.664	0.138	-0.184
-292.662	134.445	-0.016	-0.021
-291.647	-42.511	0.058	0.030
-290.632	-63.666	-0.198	-0.081
-289.618	800.000	0.157	0.499
-288.603	-200.000	-0.027	-0.142
-287.589	241.438	0.279	0.464
-286.574	-200.000	0.049	-0.260
-285.559	322.423	0.021	0.039
-284.545	121.141	0.168	0.208
-283.530	-200.000	0.015	-0.186
-282.516	-167.129	0.167	0.007
-281.501	686.586	-0.113	0.295
-280.486	431.237	0.142	-0.306
-279.472	-200.000	-0.018	0.280
-278.457	0.137	0.137	0.098
-277.443	65.813	-0.169	-0.170
-276.428	-200.000	-0.024	-0.177
-275.413	307.908	-0.059	0.110
-274.399	-200.000	-0.010	0.295
-273.384	-200.000	0.022	-0.128
-272.370	800.000	0.085	0.320
-271.355	-127.290	0.148	0.022
-270.340	-34.829	-0.471	0.256
-269.326	-200.000	-0.068	-0.371
-268.311	-200.000	-0.022	-0.119
-267.297	248.061	0.115	-0.194
-266.282	-157.682	-0.249	0.015
-265.267	-200.000	0.004	-0.173
-264.253	-125.257	-0.240	0.037
-263.238	-44.599	0.130	0.065
-262.224	-200.000	-0.025	0.175
-261.209	-14.081	-0.200	0.129
-260.195	142.488	0.053	0.070
-259.180	207.098	-0.163	0.253
-258.165	-200.000	0.036	-0.306
-257.151	54.408	-0.130	-0.125
-256.136	-149.330	-0.087	-0.007
-255.122	-98.562	-0.182	0.046
-254.107	-141.036	-0.088	-0.009
-253.092	-100.130	0.436	0.108
-252.078	108.960	-0.149	-0.177
-251.063	52.458	-0.080	0.076
-250.049	615.336	0.033	0.081
-249.034	31.224	-0.164	0.140
-248.019	-200.000	0.026	0.159
-247.005	800.000	-0.122	0.356
-245.990	-113.199	-0.344	0.067
-244.976	-200.000	-0.000	-0.354
-243.961	293.512	-0.027	0.049
-242.946	21.565	0.120	0.097
-241.932	800.000	-0.068	0.198
-240.917	-113.312	0.183	-0.036
-239.903	109.452	0.093	-0.110
-238.888	-99.195	-0.258	0.065
-237.873	713.211	-0.075	-0.197
-236.859	-200.000	-0.005	0.217
-235.844	-14.344	-0.096	0.061
-234.830	89.246	0.101	0.112
-233.815	245.353	0.154	-0.258
-232.800	49.959	-0.177	0.166
-231.786	81.992	0.256	0.275
-230.771	200.020	-0.111	0.169
-229.757	-200.000	0.021	-0.168
-228.742	-91.656	0.284	0.080
-227.727	-104.175	-0.391	0.090
-226.713	-105.782	-0.135	-0.030
-225.698	42.336	-0.161	-0.145
-224.684	462.008	0.107	-0.238
-223.669	-33.662	0.306	-0.168
-222.655	-44.339	-0.198	0.098
-221.640	361.264	0.135	-0.269
-220.625	129.706	-0.148	-0.188
-219.611	-86.772	-0.158	0.048
-218.596	-200.000	-0.019	-0.086
-217.582	-126.670	0.237	-0.035
-216.567	117.497	0.251	-0.306
-215.552	460.267	-0.100	-0.221
-214.538	747.229	-0.086	-0.229
-213.523	184.437	0.177	-0.261
-212.509	800.000	0.074	-0.210
-211.494	-68.568	-0.065	0.025
-210.479	55.540	0.016	0.015
-209.465	262.072	0.096	-0.165
-208.450	686.461	-0.110	-0.284
-207.436	532.614	-0.040	0.093
-206.421	323.661	-0.069	-0.131
-205.406	-200.000	-0.017	-0.095
-204.392	158.139	-0.057	0.078
-203.377	151.686	0.286	-0.387
-202.363	-54.007	-0.123	-0.056
-201.348	-200.000	0.016	0.176
-200.333	800.000	-0.055	-0.155
-199.319	201.678	-0.080	-0.122
-198.304	-19.954	0.160	0.098
-197.290	-21.946	0.242	0.146
-196.275	697.932	0.087	-0.226
-195.260	-200.000	0.011	0.411
-194.246	-45.475	-0.325	0.160
-193.231	-108.864	0.099	0.021
-192.217	263.509	0.103	-0.178
-191.202	-105.925	0.242	-0.054
-190.187	800.000	-0.027	0.081
-189.173	25.648	0.530	-0.437
-188.158	-52.086	-0.179	0.083
-187.144	-109.227	-0.095	-0.020
-186.129	70.037	0.162	0.166
-185.114	-105.490	0.519	0.117
-184.100	89.148	-0.217	-0.240
-183.085	-200.000	-0.058	-0.263
-182.071	31.551	0.091	-0.078
-181.056	65.279	0.263	-0.264
-180.042	172.632	0.084	-0.120
-179.027	5.877	0.182	0.134
-178.012	31.117	0.209	0.178
-176.998	800.000	0.033	-0.119
-175.983	13.211	0.030	-0.023
-174.969	-30.102	-0.085	0.048
-173.954	-102.542	0.273	-0.065
-172.939	-103.246	-0.097	0.023
-171.925	566.841	-0.039	-0.093
-170.910	-82.753	0.096	0.031
-169.896	105.505	-0.089	0.104
-168.881	800.000	-0.075	0.287
-167.866	-200.000	0.003	-0.142
-166.852	47.993	0.283	0.262
-165.837	98.826	-0.207	0.236
-164.823	-190.878	0.164	0.002
-163.808	497.012	0.084	0.190
-162.793	-200.000	0.000	-0.006
-161.779	-54.909	0.167	-0.075
-160.764	-193.933	0.243	0.002
-159.750	410.584	-0.212	-0.445
-158.735	-64.011	-0.227	-0.092
-157.720	654.220	-0.032	-0.081
-156.706	94.692	-0.047	0.053
-155.691	184.170	-0.160	0.235
-154.677	-150.209	0.250	-0.019
-153.662	-200.000	0.056	0.336
-152.647	-64.794	-0.177	-0.071
-151.633	800.000	0.049	0.135
-150.618	25.417	-0.205	0.169
-149.604	564.436	0.087	0.210
-148.589	253.842	0.029	0.049
-147.574	-200.000	0.019	-0.129
-146.560	336.836	-0.137	0.263
-145.545	-200.000	-0.009	0.397
-144.531	-23.267	0.277	-0.165
-143.516	800.000	0.033	0.130
-142.502	56.461	-0.163	0.157
-141.487	473.776	-0.055	0.123
-140.472	-75.601	0.123	0.043
-139.458	486.066	-0.023	-0.051
-138.443	-108.998	-0.046	0.010
-137.429	21.818	-0.026	0.021
-136.414	-141.058	0.257	-0.026
-135.399	-25.254	-0.221	0.130
-134.385	565.737	0.135	-0.325
-133.370	797.764	0.039	0.107
-132.356	240.640	0.062	0.103
-131.341	-126.328	-0.098	-0.015
-130.326	800.000	0.039	-0.122
-129.312	36.952	-0.056	-0.049
-128.297	-200.000	0.013	0.185
-127.283	59.931	-0.181	0.177
-126.268	49.922	-0.207	0.193
-125.253	-200.000	0.005	0.073
-124.239	-200.000	0.052	-0.413
-123.224	-92.325	0.285	0.080
-122.210	50.242	-0.145	0.135
-121.195	201.710	0.043	0.066
-120.180	-165.324	-0.060	-0.003
