DTS Sentinel unit serial number:	SN413079Multiplexer serial number:	ORYXHardware model number:	OX4-SRSoftware version number:	ORYX F/W v4.00 Oryx Data Collector v3.7.2.0data status	okinstallation	princeton_trtdifferential loss correction	single-endedforward channel	channel 3reverse channel	N/Adate	2019/09/19time	13:24:34forward acquisition time	60.00reverse acquisition time	0.00gamma	496.2192k internal	0.2326k external	0.2326temperature offset calibration	1.0000default loss term (dB/km)	0.3790temperature slope calibration	1.0000multiplexer offset coefficient	1.0000multiplexer slope coefficient	1.0000fibre end	0.00T internal ref (°C)	29.78T ext. ref 1 (°C)	0.97T ext. ref 2 (°C)	27.02length (m)	temperature (°C)	Stokes	anti-Stokes-747.200	160.835	-0.228	0.321
-746.185	105.124	0.211	0.251
-745.171	-200.000	0.058	0.298
-744.156	-82.989	-0.083	-0.027
-743.142	-126.286	-0.326	-0.049
-742.127	-200.000	-0.034	0.252
-741.112	61.248	0.105	-0.105
-740.098	-132.984	-0.290	-0.037
-739.083	-34.661	0.067	-0.037
-738.069	127.596	0.154	0.197
-737.054	800.000	-0.057	0.229
-736.039	106.075	-0.265	-0.316
-735.025	-116.729	0.146	-0.027
-734.010	-200.000	0.014	0.109
-732.996	800.000	-0.069	0.291
-731.981	122.741	-0.015	-0.018
-730.966	-200.000	-0.010	-0.046
-729.952	-156.453	-0.154	0.010
-728.937	-70.959	0.065	-0.025
-727.923	-26.715	-0.087	-0.051
-726.908	-110.732	-0.390	0.081
-725.894	-200.000	0.042	0.192
-724.879	-111.282	0.055	0.011
-723.864	-98.626	-0.287	-0.074
-722.850	-124.776	0.397	-0.062
-721.835	174.569	0.149	-0.217
-720.821	372.679	0.144	-0.295
-719.806	-200.000	0.031	0.182
-718.791	350.697	-0.215	-0.428
-717.777	348.527	-0.081	0.162
-716.762	-105.866	-0.436	0.099
-715.748	-71.345	-0.215	-0.081
-714.733	800.000	-0.136	-0.471
-713.718	-200.000	0.020	0.159
-712.704	229.901	0.128	0.210
-711.689	-135.890	-0.183	-0.022
-710.675	-85.970	0.128	-0.040
-709.660	-154.144	0.163	-0.011
-708.645	-78.671	-0.063	0.022
-707.631	-24.606	-0.175	0.105
-706.616	74.635	-0.042	0.044
-705.602	-200.000	-0.030	-0.205
-704.587	28.548	-0.294	-0.251
-703.572	-166.722	0.295	-0.012
-702.558	23.450	0.233	-0.193
-701.543	325.757	-0.049	-0.095
-700.529	-30.704	0.152	-0.087
-699.514	1.049	-0.198	-0.143
-698.499	800.000	-0.041	-0.120
-697.485	-25.256	-0.376	0.224
-696.470	-111.847	-0.225	-0.046
-695.456	75.794	-0.106	-0.113
-694.441	-110.128	-0.062	-0.013
-693.426	800.000	0.049	-0.216
-692.412	122.932	0.097	-0.122
-691.397	-127.596	0.083	0.012
-690.383	-45.892	-0.505	-0.251
-689.368	-94.244	-0.315	0.087
-688.354	-22.074	0.162	-0.099
-687.339	-200.000	0.001	-0.406
-686.324	230.831	0.115	-0.190
-685.310	13.224	-0.165	-0.129
-684.295	-7.958	0.198	0.134
-683.281	-156.711	-0.298	-0.019
-682.266	-101.838	-0.033	0.008
-681.251	-200.000	-0.023	-0.154
-680.237	-34.422	0.137	-0.075
-679.222	27.998	0.313	-0.266
-678.208	800.000	-0.011	-0.044
-677.193	800.000	0.100	0.298
-676.178	-200.000	0.007	-0.192
-675.164	-94.528	0.155	0.042
-674.149	-7.224	0.015	0.010
-673.135	198.272	-0.129	0.198
-672.120	-200.000	-0.001	0.012
-671.105	-85.407	-0.178	0.056
-670.091	127.085	0.098	-0.125
-669.076	471.079	0.093	0.211
-668.062	59.230	-0.063	0.062
-667.047	-135.737	-0.229	-0.027
-666.032	253.296	-0.082	0.140
-665.018	-66.078	-0.272	-0.109
-664.003	672.742	-0.059	0.153
-662.989	-32.608	-0.267	0.150
-661.974	21.289	0.150	-0.123
-660.959	-200.000	0.039	-0.321
-659.945	55.070	0.122	-0.118
-658.930	-67.696	0.075	-0.030
-657.916	-52.727	0.467	-0.216
-656.901	-200.000	-0.021	0.208
-655.886	800.000	0.053	-0.164
-654.872	-34.957	-0.205	0.112
-653.857	415.372	0.046	-0.099
-652.843	-9.239	-0.191	0.128
-651.828	315.492	-0.087	-0.166
-650.814	-200.000	0.030	0.240
-649.799	-27.004	0.289	-0.170
-648.784	-133.494	0.082	-0.010
-647.770	-200.000	0.022	-0.327
-646.755	45.424	0.122	-0.113
-645.741	800.000	-0.051	-0.195
-644.726	-124.602	-0.223	0.035
-643.711	-183.191	-0.322	0.006
-642.697	-200.000	0.003	-0.097
-641.682	120.908	-0.085	0.106
-640.668	105.342	-0.114	-0.135
-639.653	-104.827	-0.240	-0.055
-638.638	-142.287	0.463	-0.046
-637.624	121.886	-0.054	0.067
-636.609	91.851	-0.061	0.068
-635.595	249.191	0.060	-0.102
-634.580	-87.005	0.244	0.075
-633.565	-104.690	-0.072	-0.017
-632.551	167.746	-0.253	-0.361
-631.536	198.153	0.085	-0.131
-630.522	363.980	0.036	0.072
-629.507	-200.000	0.003	-0.342
-628.492	180.078	0.084	0.124
-627.478	115.027	0.143	-0.175
-626.463	-140.076	-0.226	-0.024
-625.449	-32.628	-0.094	-0.052
-624.434	-10.558	0.340	-0.226
-623.419	-97.733	0.303	0.079
-622.405	800.000	-0.102	0.305
-621.390	564.333	-0.112	0.273
-620.376	-25.804	-0.057	-0.034
-619.361	-200.000	-0.039	0.196
-618.346	300.996	0.114	0.212
-617.332	311.886	-0.112	-0.211
-616.317	171.676	0.104	-0.150
-615.303	-46.229	-0.216	-0.107
-614.288	80.090	0.172	0.185
-613.273	25.431	0.222	0.185
-612.259	-200.000	-0.027	-0.347
-611.244	-126.174	-0.164	-0.025
-610.230	-135.468	0.276	-0.033
-609.215	-179.029	-0.108	0.002
-608.201	-200.000	0.043	-0.246
-607.186	800.000	0.047	-0.139
-606.171	49.934	-0.121	0.114
-605.157	4.751	0.235	-0.173
-604.142	9.760	0.092	0.070
-603.128	168.310	0.143	-0.204
-602.113	-127.071	-0.192	-0.028
-601.098	-200.000	0.023	-0.193
-600.084	-177.969	-0.228	-0.005
-599.069	-55.685	0.023	-0.010
-598.055	-107.013	0.195	0.043
-597.040	-80.227	0.189	-0.063
-596.025	800.000	0.083	0.252
-595.011	-200.000	0.055	0.564
-593.996	800.000	0.024	-0.069
-592.982	-116.770	-0.114	-0.021
-591.967	800.000	-0.015	-0.052
-590.952	-200.000	-0.034	0.556
-589.938	-182.995	0.214	-0.004
-588.923	-109.109	0.080	0.017
-587.909	229.243	0.160	0.261
-586.894	-187.071	0.265	-0.004
-585.879	800.000	-0.114	0.399
-584.865	-83.934	0.310	-0.099
-583.850	-200.000	-0.033	0.152
-582.836	-190.272	-0.262	0.003
-581.821	188.784	-0.248	0.372
-580.806	6.977	0.330	-0.246
-579.792	265.531	-0.038	0.066
-578.777	-68.422	0.170	-0.066
-577.763	18.730	-0.225	-0.180
-576.748	-200.000	0.054	-0.309
-575.733	-77.727	-0.231	0.080
-574.719	664.203	-0.032	0.082
-573.704	-10.777	0.090	0.060
-572.690	-131.073	-0.222	0.030
-571.675	43.267	0.159	0.146
-570.661	-65.101	-0.285	-0.115
-569.646	175.540	-0.112	0.162
-568.631	-106.249	-0.252	-0.056
-567.617	-200.000	-0.040	0.281
-566.602	355.770	0.114	-0.227
-565.588	55.204	0.045	0.043
-564.573	-135.784	0.205	0.024
-563.558	-35.447	0.321	0.175
-562.544	202.747	-0.154	0.239
-561.529	274.884	-0.291	-0.516
-560.515	21.797	-0.263	0.214
-559.500	800.000	-0.078	-0.289
-558.485	457.492	-0.060	-0.134
-557.471	81.601	-0.166	-0.179
-556.456	-200.000	0.017	-0.132
-555.442	-12.583	0.209	-0.137
-554.427	171.098	-0.141	-0.202
-553.412	-166.006	-0.435	0.019
-552.398	87.666	-0.031	-0.035
-551.383	800.000	-0.048	0.195
-550.369	-200.000	-0.034	-0.265
-549.354	98.437	-0.070	0.080
-548.339	-200.000	0.085	-0.492
-547.325	45.303	-0.118	-0.109
-546.310	42.126	-0.130	-0.118
-545.296	782.540	-0.068	0.187
-544.281	65.265	0.180	-0.182
-543.266	-108.093	-0.118	-0.025
-542.252	23.872	0.032	-0.026
-541.237	574.879	-0.180	0.440
-540.223	800.000	0.046	0.162
-539.208	0.123	0.033	0.023
-538.193	-25.250	-0.293	-0.174
-537.179	4.930	0.281	-0.207
-536.164	42.689	-0.158	0.144
-535.150	27.299	-0.072	0.060
-534.135	360.404	-0.194	-0.389
-533.121	192.106	0.089	0.134
-532.106	-90.731	-0.174	0.050
-531.091	-97.973	0.265	-0.068
-530.077	123.242	0.106	-0.132
-529.062	-107.646	-0.378	0.083
-528.048	81.260	-0.173	0.187
-527.033	-44.226	0.238	0.119
-526.018	693.447	0.065	0.171
-525.004	-11.381	-0.091	0.060
-523.989	-200.000	0.019	0.252
-522.975	-155.035	-0.235	-0.015
-521.960	234.763	0.167	-0.275
-520.945	17.851	0.128	-0.102
-519.931	291.401	-0.105	-0.190
-518.916	13.294	0.302	-0.234
-517.902	-26.729	-0.089	0.052
-516.887	207.626	0.157	-0.245
-515.872	-194.828	-0.240	-0.002
-514.858	-101.752	0.443	0.107
-513.843	-92.604	0.094	-0.026
-512.829	-200.000	-0.027	0.345
-511.814	-87.119	-0.250	-0.076
-510.799	800.000	-0.007	-0.025
-509.785	135.160	0.128	0.167
-508.770	69.753	0.170	0.176
-507.756	-200.000	0.024	-0.155
-506.741	-119.022	-0.412	-0.072
-505.726	150.890	0.119	0.161
-504.712	-200.000	-0.062	0.511
-503.697	-65.641	-0.131	-0.052
-502.683	32.914	0.053	-0.046
-501.668	-130.375	0.055	-0.008
-500.653	-34.677	-0.140	0.076
-499.639	207.442	-0.052	0.081
-498.624	-200.000	-0.016	-0.088
-497.610	-21.423	0.068	-0.042
-496.595	-123.523	-0.213	0.034
-495.581	354.175	0.103	0.204
-494.566	-92.981	0.101	-0.028
-493.551	-200.000	-0.072	-0.527
-492.537	-200.000	-0.002	0.100
-491.522	-200.000	-0.011	0.272
-490.508	-22.485	0.101	0.061
-489.493	800.000	0.083	-0.274
-488.478	-200.000	0.028	-0.158
-487.464	-200.000	-0.033	0.168
-486.449	-200.000	0.008	-0.116
-485.435	67.917	-0.210	0.215
-484.420	-109.272	-0.335	-0.071
-483.405	-39.236	-0.081	-0.042
-482.391	447.478	-0.055	0.121
-481.376	-200.000	0.007	0.103
-480.362	31.601	-0.041	0.035
-479.347	-160.544	0.235	0.013
-478.332	-200.000	-0.022	0.242
-477.318	-116.209	-0.200	-0.037
-476.303	555.974	-0.035	-0.084
-475.289	-46.449	0.111	-0.055
-474.274	711.369	0.060	0.159
-473.259	-16.849	-0.421	-0.265
-472.245	800.000	0.086	-0.347
-471.230	800.000	0.081	0.271
-470.216	395.131	-0.041	-0.086
-469.201	148.378	0.042	-0.056
-468.186	286.419	0.065	-0.116
-467.172	-6.661	0.268	-0.182
-466.157	-200.000	0.013	-0.197
-465.143	-36.304	0.211	-0.114
-464.128	-123.485	0.143	-0.023
-463.113	-59.491	-0.279	-0.120
-462.099	-200.000	0.035	-0.231
-461.084	29.297	-0.087	0.073
-460.070	-200.000	-0.003	-0.023
-459.055	-200.000	0.010	0.136
-458.040	-54.515	0.287	-0.129
-457.026	-62.282	-0.179	0.075
-456.011	723.121	-0.089	-0.237
-454.997	-33.439	0.170	0.094
-453.982	-103.855	0.259	-0.060
-452.968	-200.000	0.021	-0.241
-451.953	-33.834	0.285	0.157
-450.938	-60.566	-0.261	-0.111
-449.924	-54.102	-0.284	0.129
-448.909	-193.799	0.096	0.001
-447.895	-200.000	0.009	-0.244
-446.880	-200.000	0.035	0.288
-445.865	-6.745	-0.053	0.036
-444.851	800.000	0.073	0.232
-443.836	-147.658	0.244	-0.020
-442.822	-33.164	-0.375	-0.207
-441.807	800.000	0.053	-0.149
-440.792	-109.097	0.355	-0.075
-439.778	800.000	0.085	0.240
-438.763	347.407	-0.083	0.163
-437.749	-200.000	-0.332	0.000
-436.734	-200.000	0.083	0.378
-435.719	713.506	0.074	0.196
-434.705	3.215	0.069	0.050
-433.690	-132.990	0.286	0.036
-432.676	-200.000	0.062	-0.343
-431.661	800.000	0.048	0.194
-430.646	217.901	-0.166	0.264
-429.632	-131.327	-0.196	0.026
-428.617	224.825	0.022	-0.036
-427.603	-15.236	-0.217	-0.138
-426.588	-58.003	-0.093	0.040
-425.573	-117.963	0.153	-0.027
-424.559	226.122	0.162	0.262
-423.544	417.244	-0.134	-0.285
-422.530	7.774	0.155	0.116
-421.515	800.000	0.021	-0.076
-420.500	62.945	0.130	0.129
-419.486	86.490	-0.327	-0.359
-418.471	-112.035	0.280	0.056
-417.457	-144.411	0.217	0.020
-416.442	-200.000	0.066	0.420
-415.428	426.186	0.043	-0.092
-414.413	-200.000	0.043	-0.252
-413.398	-192.898	0.508	-0.005
-412.384	60.379	0.039	0.038
-411.369	222.053	0.090	-0.143
-410.355	800.000	0.081	-0.257
-409.340	-72.570	-0.076	0.028
-408.325	29.715	0.124	-0.105
-407.311	57.033	0.204	-0.198
-406.296	-96.439	-0.227	-0.060
-405.282	-0.040	0.165	0.117
-404.267	135.945	0.078	-0.101
-403.252	209.575	-0.149	-0.233
-402.238	-69.291	0.227	-0.087
-401.223	-73.555	0.318	-0.115
-400.209	-200.000	0.021	-0.260
-399.194	800.000	0.096	-0.267
-398.179	19.855	-0.068	0.055
-397.165	711.958	0.112	0.295
-396.150	-14.980	0.158	0.101
-395.136	8.011	-0.228	-0.170
-394.121	463.163	0.070	-0.155
-393.106	461.280	-0.079	-0.176
-392.092	-164.213	-0.086	-0.004
-391.077	-96.123	-0.179	0.047
-390.063	216.100	-0.196	0.310
-389.048	160.466	-0.110	-0.153
-388.033	-8.438	-0.292	0.195
-387.019	-200.000	-0.010	0.065
-386.004	-72.231	0.269	0.099
-384.990	-52.575	-0.050	-0.023
-383.975	-131.617	0.081	0.011
-382.960	-10.764	-0.233	0.153
-381.946	-9.632	-0.201	0.133
-380.931	-147.822	0.214	-0.018
-379.917	-90.868	0.300	-0.086
-378.902	800.000	-0.091	0.340
-377.888	161.049	-0.208	0.289
-376.873	30.228	0.377	0.320
-375.858	100.429	0.182	0.210
-374.844	-38.270	-0.048	0.025
-373.829	89.530	-0.184	-0.204
-372.815	9.582	-0.258	0.194
-371.800	491.244	-0.063	0.142
-370.785	-200.000	0.004	-0.110
-369.771	-9.656	0.296	0.196
-368.756	-52.173	-0.187	-0.086
-367.742	-200.000	0.025	0.117
-366.727	-159.980	0.060	-0.003
-365.712	68.616	-0.260	0.265
-364.698	-102.561	-0.252	0.060
-363.683	800.000	-0.036	0.155
-362.669	800.000	0.059	-0.217
-361.654	-4.244	0.110	0.076
-360.639	-200.000	-0.025	-0.295
-359.625	387.434	0.088	0.181
-358.610	-56.184	0.123	-0.054
-357.596	-15.843	0.647	-0.409
-356.581	-200.000	-0.049	0.215
-355.566	66.454	0.033	0.034
-354.552	71.680	-0.338	0.349
-353.537	-65.212	-0.141	0.056
-352.523	-77.901	0.184	0.063
-351.508	272.533	0.117	-0.205
-350.493	-124.096	0.259	-0.040
-349.479	-200.000	0.003	-0.364
-348.464	486.912	-0.099	0.223
-347.450	800.000	-0.087	-0.292
-346.435	219.956	0.195	0.310
-345.420	-200.000	-0.001	-0.026
-344.406	1.122	0.120	-0.085
-343.391	-141.801	0.402	0.040
-342.377	800.000	0.091	0.271
-341.362	-130.458	-0.260	-0.035
-340.348	213.129	0.113	-0.177
-339.333	-200.000	0.007	0.257
-338.318	-145.151	-0.269	0.024
-337.304	-200.000	-0.024	0.216
-336.289	-182.008	-0.278	0.005
-335.275	-149.323	0.130	0.010
-334.260	800.000	-0.099	-0.377
-333.245	231.539	-0.120	-0.194
-332.231	-158.316	0.021	0.001
-331.216	800.000	-0.065	0.186
-330.202	800.000	-0.015	0.043
-329.187	-200.000	0.019	-0.159
-328.172	160.258	0.183	0.253
-327.158	37.883	-0.293	0.258
-326.143	69.210	-0.137	-0.139
-325.129	542.784	0.092	0.218
-324.114	-200.000	0.020	-0.367
-323.099	-132.261	0.034	0.004
-322.085	800.000	-0.042	0.135
-321.070	-39.652	-0.087	0.045
-320.056	-38.300	0.046	-0.024
-319.041	-200.000	-0.021	-0.163
-318.026	-200.000	-0.016	0.088
-317.012	63.261	0.419	-0.416
-315.997	6.214	0.022	0.016
-314.983	643.521	0.086	0.218
-313.968	-74.583	-0.258	-0.092
-312.953	421.705	-0.091	0.194
-311.939	800.000	-0.052	0.197
-310.924	-102.791	0.401	0.095
-309.910	30.116	0.087	0.074
-308.895	-5.520	-0.033	0.022
-307.880	-200.000	0.035	0.381
-306.866	73.922	0.176	0.183
-305.851	6.495	-0.269	0.198
-304.837	44.977	-0.137	0.125
-303.822	-159.883	-0.434	-0.024
-302.807	345.694	0.105	-0.205
-301.793	83.663	0.061	-0.065
-300.778	-134.360	-0.352	0.043
-299.764	800.000	0.063	0.246
-298.749	-200.000	-0.072	0.486
-297.735	125.420	-0.131	0.164
-296.720	18.541	0.168	0.133
-295.705	246.292	-0.023	0.038
-294.691	-114.939	0.326	-0.062
-293.676	-66.529	0.156	0.061
-292.662	-48.915	0.278	0.132
-291.647	-200.000	0.017	-0.089
-290.632	-200.000	0.018	0.146
-289.618	740.384	0.101	-0.269
-288.603	32.644	-0.129	0.110
-287.589	-115.446	0.404	-0.075
-286.574	-84.889	0.297	0.092
-285.559	-200.000	0.021	0.233
-284.545	78.099	0.147	-0.156
-283.530	-55.545	-0.134	0.060
-282.516	76.338	-0.132	0.139
-281.501	66.805	-0.159	-0.160
-280.486	-178.488	-0.339	0.008
-279.472	61.722	0.105	-0.104
-278.457	214.419	-0.250	-0.391
-277.443	2.021	0.138	0.098
-276.428	579.686	0.112	0.271
-275.413	800.000	-0.093	-0.313
-274.399	-126.325	-0.187	-0.028
-273.384	-200.000	0.028	0.164
-272.370	-112.283	-0.180	0.036
-271.355	-200.000	-0.028	0.196
-270.340	-7.975	-0.170	-0.114
-269.326	-200.000	-0.003	-0.141
-268.311	49.105	0.150	0.140
-267.297	104.112	-0.074	0.086
-266.282	611.579	-0.040	0.100
-265.267	-117.365	0.154	-0.028
-264.253	472.681	0.083	-0.186
-263.238	24.447	-0.175	0.143
-262.224	-200.000	0.021	0.255
-261.209	-35.987	0.131	-0.070
-260.195	-27.079	0.088	-0.051
-259.180	-144.264	0.172	-0.016
-258.165	-200.000	-0.039	-0.177
-257.151	-167.366	-0.141	-0.006
-256.136	-200.000	0.018	-0.098
-255.122	-2.256	-0.043	-0.030
-254.107	69.943	0.138	0.141
-253.092	-200.000	-0.004	0.162
-252.078	-102.584	0.327	-0.077
-251.063	94.609	-0.090	-0.101
-250.049	-65.820	-0.271	-0.107
-249.034	-40.268	-0.053	-0.027
-248.019	-200.000	-0.049	-0.394
-247.005	-3.446	-0.240	-0.165
-245.990	-6.242	-0.200	-0.135
-244.976	-190.068	0.150	0.002
-243.961	128.883	0.036	-0.045
-242.946	231.601	-0.118	0.191
-241.932	182.627	0.062	-0.091
-240.917	292.276	-0.169	-0.305
-239.903	-142.995	-0.398	-0.038
-238.888	-80.021	0.165	0.055
-237.873	298.235	-0.027	0.049
-236.859	-59.804	0.358	-0.151
-235.844	-46.358	-0.093	0.045
-234.830	244.803	-0.103	0.171
-233.815	-82.787	0.160	-0.051
-232.800	-61.461	0.056	-0.023
-231.786	134.771	0.128	0.164
-230.771	-89.183	0.347	-0.101
-229.757	-59.129	0.061	0.026
-228.742	-200.000	0.027	-0.559
-227.727	13.374	-0.208	-0.160
-226.713	110.446	0.115	0.137
-225.698	-91.194	-0.290	-0.082
-224.684	-137.157	0.133	-0.015
-223.669	-200.000	0.017	0.174
-222.655	76.068	-0.091	0.096
-221.640	-61.999	-0.168	0.070
-220.625	-49.584	-0.379	-0.178
-219.611	-97.087	-0.238	0.061
-218.596	46.425	-0.127	0.117
-217.582	800.000	0.050	0.139
-216.567	-188.759	-0.174	0.002
-215.552	292.565	0.135	0.244
-214.538	133.614	-0.250	-0.319
-213.523	352.952	-0.184	-0.361
-212.509	-200.000	-0.097	-0.485
-211.494	-97.773	-0.360	-0.092
-210.479	-200.000	-0.018	-0.257
-209.465	800.000	-0.080	-0.320
-208.450	-109.352	-0.359	-0.075
-207.436	303.232	0.046	0.084
-206.421	281.880	0.063	0.111
-205.406	102.269	0.244	0.282
-204.392	224.406	-0.102	-0.162
-203.377	95.270	0.152	-0.171
-202.363	84.481	-0.081	0.088
-201.348	163.726	-0.127	-0.176
-200.333	-170.153	0.060	0.002
-199.319	-78.789	-0.260	0.087
-198.304	-200.000	0.004	0.102
-197.290	800.000	-0.088	-0.355
-196.275	-83.072	0.075	-0.024
-195.260	800.000	-0.038	-0.133
-194.246	152.822	-0.141	-0.190
-193.231	196.987	0.239	0.360
-192.217	-149.749	0.199	-0.015
-191.202	-121.884	0.200	0.033
-190.187	-42.624	-0.163	0.082
-189.173	-200.000	-0.027	0.145
-188.158	-200.000	-0.044	-0.244
-187.144	-200.000	-0.017	0.114
-186.129	-115.370	0.171	0.032
-185.114	-15.098	0.064	0.041
-184.100	-200.000	0.062	-0.309
-183.085	-142.227	-0.242	0.024
-182.071	-15.833	-0.537	-0.338
-181.056	84.444	0.098	0.106
-180.042	-200.000	-0.033	0.375
-179.027	-200.000	0.012	0.098
-178.012	261.907	0.213	0.364
-176.998	571.642	0.052	-0.124
-175.983	68.193	-0.225	0.227
-174.969	-200.000	0.062	-0.341
-173.954	-24.053	0.279	-0.165
-172.939	-64.196	-0.340	0.137
-171.925	588.966	0.108	0.261
-170.910	232.190	0.068	-0.111
-169.896	-200.000	0.004	-0.108
-168.881	-81.467	-0.131	0.042
-167.866	-200.000	0.037	0.363
-166.852	127.884	-0.134	0.168
-165.837	-121.988	0.260	-0.042
-164.823	-200.000	-0.021	0.312
-163.808	189.328	0.162	-0.239
-162.793	800.000	-0.012	0.048
-161.779	43.816	0.310	0.280
-160.764	-200.000	0.001	0.087
-159.750	-26.992	-0.302	0.174
-158.735	291.748	0.084	-0.151
-157.720	-175.885	0.467	-0.012
-156.706	-200.000	0.004	0.167
-155.691	-116.227	-0.135	0.025
-154.677	-76.969	0.329	0.113
-153.662	-44.780	-0.295	-0.145
-152.647	-138.567	0.311	-0.034
-151.633	-113.366	0.098	-0.019
-150.618	800.000	0.041	-0.153
-149.604	-200.000	-0.031	0.193
-148.589	13.578	0.311	-0.238
-147.574	124.557	0.163	-0.202
-146.560	-166.744	-0.060	-0.002
-145.545	-16.032	0.222	-0.139
-144.531	83.938	0.057	0.062
-143.516	63.623	-0.232	-0.230
-142.502	-200.000	-0.011	-0.259
-141.487	23.376	-0.199	0.161
-140.472	-80.837	0.208	0.068
-139.458	787.908	0.157	0.423
-138.443	196.149	-0.065	-0.098
-137.429	94.315	-0.136	0.152
-136.414	179.498	0.111	0.159
-135.399	-3.024	-0.209	0.144
-134.385	52.142	0.053	0.049
-133.370	-4.560	0.262	0.178
-132.356	800.000	0.065	0.183
-131.341	7.570	-0.232	-0.171
-130.326	10.675	0.102	-0.076
-129.312	274.862	0.186	-0.324
-128.297	-200.000	-0.005	0.104
-127.283	-27.248	-0.196	0.113
-126.268	800.000	-0.065	0.190
-125.253	-49.147	-0.204	-0.096
-124.239	-109.728	0.147	0.030
-123.224	612.119	0.058	0.143
-122.210	-67.816	-0.199	0.076
-121.195	-200.000	0.138	-0.000
