DTS Sentinel unit serial number:	SN413079Multiplexer serial number:	ORYXHardware model number:	OX4-SRSoftware version number:	ORYX F/W v4.00 Oryx Data Collector v3.7.2.0data status	okinstallation	princeton_trtdifferential loss correction	single-endedforward channel	channel 3reverse channel	N/Adate	2019/09/18time	06:32:35forward acquisition time	60.00reverse acquisition time	0.00gamma	496.2192k internal	0.2342k external	0.2342temperature offset calibration	0.9950default loss term (dB/km)	0.3790temperature slope calibration	1.0000multiplexer offset coefficient	1.0000multiplexer slope coefficient	1.0000fibre end	0.00T internal ref (°C)	23.25T ext. ref 1 (°C)	0.19T ext. ref 2 (°C)	17.35length (m)	temperature (°C)	Stokes	anti-Stokes-747.200	134.226	-0.273	0.354
-746.185	37.662	-0.100	0.089
-745.171	800.000	0.074	-0.217
-744.156	197.988	-0.220	0.337
-743.142	147.944	0.150	0.203
-742.127	-19.356	0.244	-0.151
-741.112	47.287	-0.072	-0.067
-740.098	-12.116	-0.287	0.189
-739.083	240.963	-0.111	0.186
-738.069	-200.000	-0.012	0.117
-737.054	-121.151	0.173	0.029
-736.039	435.601	-0.162	-0.352
-735.025	289.931	0.127	0.230
-734.010	-41.757	0.233	0.119
-732.996	-127.716	-0.347	0.050
-731.981	-200.000	0.020	-0.132
-730.966	156.961	0.092	-0.127
-729.952	202.328	-0.132	-0.204
-728.937	-200.000	-0.014	-0.292
-727.923	-200.000	-0.065	-0.363
-726.908	800.000	-0.038	-0.163
-725.894	175.668	-0.285	0.414
-724.879	52.404	-0.127	0.122
-723.864	678.674	0.112	-0.292
-722.850	53.527	-0.210	-0.202
-721.835	-87.219	-0.048	-0.015
-720.821	-152.154	0.285	-0.021
-719.806	800.000	-0.061	-0.223
-718.791	-38.738	-0.160	0.084
-717.777	-200.000	0.017	0.090
-716.762	800.000	-0.100	0.381
-715.748	711.751	0.017	0.045
-714.733	48.714	-0.217	0.204
-713.718	-55.581	-0.197	-0.088
-712.704	-200.000	-0.021	0.222
-711.689	-48.132	0.222	-0.107
-710.675	330.854	0.094	0.181
-709.660	391.713	-0.134	0.279
-708.645	6.588	0.191	0.142
-707.631	41.854	-0.090	0.082
-706.616	405.608	-0.056	0.119
-705.602	-109.239	0.254	0.054
-704.587	-80.251	-0.252	-0.084
-703.572	161.499	0.062	-0.087
-702.558	179.925	-0.077	-0.113
-701.543	186.764	-0.209	0.311
-700.529	-176.203	0.059	-0.002
-699.514	-90.535	-0.209	0.061
-698.499	7.549	0.059	0.044
-697.485	800.000	0.031	-0.093
-696.470	-124.658	-0.241	0.037
-695.456	800.000	0.048	0.177
-694.441	-200.000	0.082	0.404
-693.426	229.293	-0.127	0.208
-692.412	-140.226	0.305	0.032
-691.397	676.770	-0.166	-0.433
-690.383	-139.998	0.396	0.042
-689.368	217.890	0.307	-0.490
-688.354	123.188	-0.151	-0.189
-687.339	-57.942	0.148	0.065
-686.324	800.000	-0.032	0.106
-685.310	-143.009	0.127	-0.012
-684.295	735.396	0.095	-0.254
-683.281	127.644	0.080	0.101
-682.266	800.000	-0.038	-0.134
-681.251	-13.469	-0.263	0.171
-680.237	-159.066	0.348	-0.020
-679.222	346.303	-0.146	0.287
-678.208	84.775	0.082	0.090
-677.193	-200.000	0.337	0.001
-676.178	38.703	-0.099	0.088
-675.164	800.000	0.117	0.486
-674.149	234.842	-0.144	0.237
-673.135	39.926	0.223	-0.200
-672.120	-200.000	0.071	0.374
-671.105	118.686	0.129	0.159
-670.091	800.000	-0.060	0.187
-669.076	800.000	-0.098	-0.370
-668.062	-57.455	-0.303	0.133
-667.047	-136.424	0.074	0.009
-666.032	800.000	-0.014	-0.052
-665.018	-29.344	-0.217	0.124
-664.003	-200.000	-0.013	-0.156
-662.989	483.845	0.138	-0.314
-661.974	361.607	-0.052	0.104
-660.959	377.104	-0.077	0.158
-659.945	201.055	0.116	0.177
-658.930	470.199	0.110	0.246
-657.916	-77.143	-0.094	0.033
-656.901	17.860	-0.176	0.140
-655.886	-138.179	0.225	0.025
-654.872	36.331	0.026	0.023
-653.857	-179.014	-0.175	0.004
-652.843	302.461	-0.094	0.174
-651.828	-134.776	0.269	-0.033
-650.814	135.681	0.197	0.256
-649.799	49.172	-0.231	0.216
-648.784	-161.250	-0.137	-0.007
-647.770	66.702	0.187	0.190
-646.755	-50.868	-0.292	-0.137
-645.741	532.982	0.121	-0.286
-644.726	-200.000	-0.048	-0.256
-643.711	-14.613	-0.269	0.172
-642.697	800.000	-0.043	-0.130
-641.682	800.000	0.175	0.537
-640.668	-98.558	0.035	0.009
-639.653	-200.000	-0.034	-0.233
-638.638	800.000	-0.031	-0.086
-637.624	800.000	-0.088	-0.357
-636.609	-200.000	-0.062	-0.270
-635.595	-57.801	-0.094	-0.041
-634.580	-172.898	-0.115	0.004
-633.565	-147.741	0.175	-0.015
-632.551	1.602	-0.215	-0.154
-631.536	137.265	-0.058	-0.076
-630.522	274.475	-0.199	-0.351
-629.507	-200.000	-0.050	-0.376
-628.492	-56.991	-0.423	0.186
-627.478	796.584	0.086	-0.236
-626.463	-106.673	0.177	0.039
-625.449	183.263	-0.231	-0.340
-624.434	800.000	-0.088	0.356
-623.419	-76.480	-0.115	0.040
-622.405	30.987	-0.049	0.042
-621.390	211.886	-0.113	-0.178
-620.376	800.000	-0.072	0.209
-619.361	-133.243	-0.124	-0.016
-618.346	46.217	-0.141	0.130
-617.332	-19.186	0.203	-0.126
-616.317	800.000	-0.107	0.305
-615.303	96.533	0.069	0.079
-614.288	-200.000	0.003	-0.316
-613.273	-113.743	-0.155	0.030
-612.259	800.000	0.072	-0.266
-611.244	-200.000	0.005	0.177
-610.230	-200.000	0.037	-0.233
-609.215	-1.196	0.416	-0.293
-608.201	339.120	0.060	0.117
-607.186	-111.106	0.109	0.022
-606.171	439.888	0.100	0.218
-605.157	301.987	0.138	-0.254
-604.142	-20.434	-0.065	0.040
-603.128	-62.006	0.207	-0.086
-602.113	-200.000	-0.060	-0.289
-601.098	-200.000	0.003	0.230
-600.084	-3.919	0.228	-0.157
-599.069	-73.509	-0.119	-0.043
-598.055	-200.000	-0.010	-0.176
-597.040	-74.449	0.165	-0.059
-596.025	-56.534	-0.383	-0.169
-595.011	-53.401	0.285	-0.130
-593.996	34.346	-0.362	-0.315
-592.982	-83.935	-0.155	-0.049
-591.967	-200.000	-0.006	-0.089
-590.952	-152.532	-0.295	0.021
-589.938	66.582	-0.275	0.278
-588.923	-200.000	-0.020	-0.092
-587.909	-200.000	-0.044	-0.350
-586.894	-170.138	0.141	0.005
-585.879	800.000	0.072	-0.264
-584.865	-98.604	-0.315	-0.080
-583.850	-88.457	-0.298	0.089
-582.836	743.412	-0.115	-0.308
-581.821	800.000	0.059	0.229
-580.806	237.751	-0.073	0.121
-579.792	-111.161	0.292	0.060
-578.777	-200.000	0.038	0.232
-577.763	237.282	0.196	-0.324
-576.748	205.939	-0.066	0.102
-575.733	706.315	0.089	-0.235
-574.719	800.000	0.035	0.141
-573.704	-37.628	0.203	-0.107
-572.690	603.928	0.067	-0.167
-571.675	-200.000	0.044	0.318
-570.661	-64.500	-0.308	-0.124
-569.646	-200.000	0.015	-0.075
-568.631	-200.000	-0.045	-0.227
-567.617	-10.884	-0.283	-0.186
-566.602	-200.000	-0.024	-0.178
-565.588	-69.368	0.081	0.031
-564.573	92.562	0.212	0.238
-563.558	-84.517	0.177	0.056
-562.544	-148.676	0.140	-0.011
-561.529	-200.000	0.035	0.313
-560.515	-200.000	-0.052	-0.363
-559.500	-97.671	0.238	-0.061
-558.485	-153.345	0.217	-0.015
-557.471	169.430	0.072	0.102
-556.456	-200.000	0.043	0.308
-555.442	-55.735	0.137	0.061
-554.427	-114.924	-0.251	0.047
-553.412	17.392	0.127	-0.100
-552.398	-8.747	0.069	0.046
-551.383	-200.000	0.014	0.118
-550.369	-58.717	-0.309	0.133
-549.354	-200.000	0.035	0.244
-548.339	-200.000	-0.000	-0.032
-547.325	-43.653	-0.082	0.041
-546.310	415.521	0.116	-0.247
-545.296	-90.340	-0.399	-0.115
-544.281	-60.313	-0.157	-0.067
-543.266	97.728	0.121	0.139
-542.252	-92.465	0.125	-0.035
-541.237	800.000	-0.042	-0.182
-540.223	170.403	0.246	0.350
-539.208	800.000	0.078	-0.322
-538.193	65.252	-0.235	-0.236
-537.179	800.000	0.017	0.058
-536.164	109.010	0.235	0.279
-535.150	-104.830	-0.268	-0.061
-534.135	27.121	0.067	0.056
-533.121	-13.408	-0.103	-0.066
-532.106	288.553	0.019	0.034
-531.091	395.200	0.195	0.404
-530.077	-3.394	0.171	0.118
-529.062	310.413	0.098	0.183
-528.048	-200.000	0.136	0.677
-527.033	800.000	0.050	0.144
-526.018	144.025	0.045	0.060
-525.004	177.063	0.229	0.331
-523.989	549.462	-0.069	-0.165
-522.975	173.855	0.226	-0.324
-521.960	-19.141	0.258	-0.159
-520.945	-101.503	-0.193	0.047
-519.931	-200.000	-0.061	-0.339
-518.916	159.288	0.139	0.192
-517.902	-200.000	0.019	0.247
-516.887	336.594	-0.089	-0.172
-515.872	176.619	0.050	-0.073
-514.858	800.000	0.020	0.082
-513.843	-200.000	0.005	0.087
-512.829	800.000	-0.110	-0.400
-511.814	-122.503	-0.372	-0.060
-510.799	-159.850	-0.139	0.008
-509.785	77.172	-0.156	0.164
-508.770	-120.324	0.336	-0.057
-507.756	800.000	0.025	0.097
-506.741	550.237	-0.084	-0.200
-505.726	-200.000	-0.018	0.088
-504.712	-200.000	0.006	-0.186
-503.697	-76.580	0.209	0.073
-502.683	-70.122	-0.245	-0.092
-501.668	444.571	-0.021	-0.045
-500.653	68.061	-0.348	0.354
-499.639	-200.000	0.031	-0.203
-498.624	-145.041	0.038	0.003
-497.610	115.816	-0.013	-0.016
-496.595	-200.000	-0.048	0.257
-495.581	530.149	-0.063	-0.147
-494.566	-125.777	-0.370	0.056
-493.551	-90.806	-0.179	0.051
-492.537	-111.249	-0.217	0.044
-491.522	40.811	0.092	0.083
-490.508	192.301	-0.106	0.158
-489.493	36.829	-0.093	-0.082
-488.478	65.777	0.048	-0.048
-487.464	-73.057	0.125	-0.045
-486.449	-200.000	0.002	0.078
-485.435	159.510	0.231	-0.318
-484.420	-200.000	-0.008	-0.573
-483.405	15.675	0.136	-0.106
-482.391	-133.422	0.064	-0.008
-481.376	-127.117	0.281	-0.041
-480.362	19.546	-0.140	0.112
-479.347	-200.000	-0.022	-0.164
-478.332	49.288	0.126	-0.117
-477.318	3.067	-0.233	-0.168
-476.303	-200.000	-0.009	0.079
-475.289	800.000	0.053	0.151
-474.274	287.395	-0.119	-0.213
-473.259	-13.786	-0.109	-0.070
-472.245	143.962	0.104	-0.137
-471.230	45.911	-0.190	-0.174
-470.216	-104.234	-0.307	-0.071
-469.201	800.000	0.074	-0.205
-468.186	-94.990	0.361	-0.097
-467.172	57.382	0.145	0.140
-466.157	-112.324	-0.147	-0.029
-465.143	-45.518	0.269	-0.132
-464.128	342.576	0.090	0.174
-463.113	337.143	-0.275	0.529
-462.099	800.000	0.066	0.187
-461.084	106.909	-0.114	0.134
-460.070	604.587	0.086	0.211
-459.055	-69.144	-0.396	-0.151
-458.040	165.539	-0.204	-0.285
-457.026	-200.000	-0.017	0.365
-456.011	-200.000	-0.019	0.177
-454.997	6.386	-0.109	-0.080
-453.982	41.080	0.092	-0.082
-452.968	800.000	-0.089	-0.273
-451.953	-200.000	0.030	0.154
-450.938	82.933	-0.126	-0.136
-449.924	-200.000	0.020	-0.154
-448.909	196.668	0.113	0.171
-447.895	480.117	0.089	-0.200
-446.880	-80.051	0.236	-0.078
-445.865	267.349	0.083	0.144
-444.851	-131.383	0.202	0.027
-443.836	-188.657	0.304	-0.004
-442.822	-200.000	-0.007	-0.167
-441.807	800.000	-0.015	0.056
-440.792	-120.466	-0.372	-0.063
-439.778	-152.209	-0.068	-0.005
-438.763	-24.246	0.250	-0.148
-437.749	-200.000	0.021	0.423
-436.734	-3.381	0.156	-0.108
-435.719	800.000	0.056	-0.204
-434.705	79.886	-0.114	0.121
-433.690	-58.122	0.185	-0.080
-432.676	-82.596	0.140	-0.045
-431.661	-200.000	0.027	0.322
-430.646	800.000	-0.062	-0.189
-429.632	8.509	-0.206	0.153
-428.617	83.108	0.217	0.234
-427.603	-200.000	-0.033	-0.344
-426.588	36.773	-0.234	0.205
-425.573	207.882	0.074	0.114
-424.559	158.068	-0.199	-0.273
-423.544	-200.000	0.034	-0.152
-422.530	761.808	-0.112	-0.301
-421.515	335.029	0.062	-0.119
-420.500	-101.779	-0.110	-0.026
-419.486	-78.095	-0.302	-0.103
-418.471	-200.000	-0.006	0.049
-417.457	-69.697	0.214	0.081
-416.442	-8.667	-0.242	0.161
-415.428	800.000	0.091	-0.270
-414.413	-78.317	0.274	0.093
-413.398	-121.861	0.146	-0.024
-412.384	-103.996	0.372	0.086
-411.369	103.983	0.105	-0.122
-410.355	18.030	-0.206	-0.163
-409.340	-125.481	-0.118	0.018
-408.325	-200.000	0.047	0.355
-407.311	-200.000	-0.026	-0.220
-406.296	216.594	-0.169	-0.266
-405.282	-130.339	0.133	0.018
-404.267	142.916	0.297	0.391
-403.252	-89.978	0.142	-0.041
-402.238	800.000	0.080	0.344
-401.223	-142.288	-0.368	0.036
-400.209	31.333	0.121	0.103
-399.194	738.739	-0.115	0.304
-398.179	-91.036	-0.164	0.047
-397.165	123.708	-0.249	-0.309
-396.150	-200.000	-0.033	0.212
-395.136	1.574	-0.232	-0.165
-394.121	-168.909	0.186	0.007
-393.106	-137.659	-0.242	-0.027
-392.092	-13.905	0.156	-0.100
-391.077	-3.675	0.138	-0.094
-390.063	-152.591	-0.159	-0.011
-389.048	121.943	0.056	-0.069
-388.033	-34.569	-0.100	-0.054
-387.019	-28.118	0.329	0.188
-386.004	56.030	-0.163	0.156
-384.990	32.932	-0.089	0.076
-383.975	-200.000	-0.007	-0.249
-382.960	-58.803	-0.255	-0.109
-381.946	-40.492	-0.191	-0.098
-380.931	-120.139	-0.552	0.093
-379.917	-11.240	-0.270	0.176
-378.902	-168.173	-0.074	0.003
-377.888	-60.975	-0.133	-0.055
-376.873	-115.221	-0.255	-0.048
-375.858	-200.000	0.083	0.387
-374.844	314.635	-0.006	0.010
-373.829	-16.416	0.262	0.164
-372.815	-49.627	0.104	-0.049
-371.800	8.062	-0.181	0.134
-370.785	242.894	0.133	0.220
-369.771	800.000	0.049	-0.175
-368.756	263.380	0.340	0.584
-367.742	-75.896	-0.170	-0.059
-366.727	-200.000	0.023	-0.335
-365.712	35.127	0.097	0.084
-364.698	-140.247	0.182	0.019
-363.683	-200.000	0.031	-0.619
-362.669	-16.844	-0.168	-0.105
-361.654	-200.000	0.073	0.398
-360.639	-56.194	0.205	-0.090
-359.625	-56.708	-0.279	0.122
-358.610	113.310	-0.098	0.117
-357.596	-200.000	0.035	-0.170
-356.581	-163.153	0.288	-0.014
-355.566	82.694	-0.201	-0.216
-354.552	800.000	-0.087	-0.258
-353.537	80.322	0.238	-0.253
-352.523	-51.382	-0.176	-0.081
-351.508	800.000	-0.138	0.491
-350.493	-37.700	0.348	-0.183
-349.479	-55.589	-0.071	0.031
-348.464	-76.888	-0.079	0.027
-347.450	-167.937	0.328	-0.013
-346.435	21.201	0.177	-0.142
-345.420	-200.000	0.008	-0.147
-344.406	101.923	0.071	-0.082
-343.391	72.133	0.241	0.248
-342.377	3.924	-0.039	-0.028
-341.362	-23.341	0.249	0.147
-340.348	-200.000	-0.019	0.294
-339.333	668.344	-0.105	-0.268
-338.318	163.612	0.139	-0.192
-337.304	42.602	-0.207	0.186
-336.289	-2.539	0.169	-0.117
-335.275	145.776	0.017	-0.022
-334.260	140.849	0.132	-0.172
-333.245	-73.597	-0.215	0.077
-332.231	-200.000	0.030	-0.284
-331.216	-27.272	-0.121	-0.070
-330.202	194.502	-0.096	-0.143
-329.187	785.203	-0.103	-0.279
-328.172	351.612	-0.166	0.325
-327.158	71.099	0.030	0.031
-326.143	-105.914	-0.098	0.022
-325.129	119.035	0.118	0.144
-324.114	-200.000	-0.003	-0.179
-323.099	53.300	-0.121	0.114
-322.085	-120.795	-0.265	-0.044
-321.070	110.359	-0.099	-0.117
-320.056	-109.471	-0.056	-0.012
-319.041	-15.730	0.258	0.162
-318.026	341.076	0.066	-0.128
-317.012	-167.031	0.201	0.008
-315.997	470.996	0.116	0.258
-314.983	56.255	0.050	-0.048
-313.968	335.829	-0.140	0.268
-312.953	-55.574	-0.239	0.106
-311.939	9.134	0.114	0.085
-310.924	-200.000	0.028	-0.284
-309.910	-68.181	0.110	0.042
-308.895	-96.755	-0.265	0.069
-307.880	800.000	0.069	-0.265
-306.866	-74.871	-0.240	0.085
-305.851	-200.000	0.023	-0.393
-304.837	-139.527	-0.171	0.018
-303.822	-76.956	0.366	0.126
-302.807	-200.000	0.000	0.059
-301.793	-200.000	0.022	-0.099
-300.778	65.786	0.308	0.307
-299.764	-48.169	0.067	-0.032
-298.749	3.795	-0.283	-0.203
-297.735	800.000	0.117	-0.404
-296.720	49.242	0.027	0.025
-295.705	-148.208	0.091	-0.007
-294.691	379.407	0.085	-0.172
-293.676	-145.338	-0.226	-0.020
-292.662	526.057	-0.123	0.286
-291.647	-200.000	0.024	0.158
-290.632	-94.495	-0.258	0.069
-289.618	-17.596	0.187	-0.116
-288.603	800.000	0.092	0.295
-287.589	370.851	-0.071	-0.142
-286.574	-1.048	0.076	0.053
-285.559	800.000	0.015	0.057
-284.545	79.144	-0.024	0.025
-283.530	-120.258	0.235	-0.039
-282.516	-142.023	0.174	0.017
-281.501	577.538	0.089	0.213
-280.486	364.059	0.136	0.268
-279.472	-194.049	-0.384	-0.003
-278.457	800.000	-0.121	0.385
-277.443	-59.856	0.197	-0.083
-276.428	-9.041	0.327	0.215
-275.413	138.861	0.066	0.085
-274.399	698.052	-0.067	-0.174
-273.384	-200.000	0.035	0.321
-272.370	-200.000	-0.050	0.293
-271.355	-134.980	0.161	-0.019
-270.340	-31.772	-0.059	0.033
-269.326	-125.996	0.206	0.030
-268.311	-128.728	-0.078	0.011
-267.297	-120.609	-0.113	-0.019
-266.282	-140.790	0.100	-0.010
-265.267	-78.866	0.169	-0.057
-264.253	800.000	0.073	-0.223
-263.238	73.250	0.187	-0.193
-262.224	-68.070	0.426	-0.163
-261.209	-200.000	0.001	-0.220
-260.195	-93.890	0.089	0.024
-259.180	270.177	0.124	0.214
-258.165	-180.679	0.211	0.004
-257.151	800.000	0.058	0.195
-256.136	18.728	0.037	0.029
-255.122	87.198	-0.153	0.167
-254.107	17.384	0.075	0.059
-253.092	-95.708	-0.161	0.042
-252.078	-92.337	0.356	0.098
-251.063	408.694	-0.061	0.127
-250.049	412.200	-0.078	0.163
-249.034	-148.461	0.347	-0.028
-248.019	-45.422	-0.265	-0.129
-247.005	-80.203	0.182	0.060
-245.990	189.935	-0.117	0.172
-244.976	-26.975	0.152	-0.087
-243.961	-61.894	0.052	-0.021
-242.946	-86.655	-0.213	0.064
-241.932	-64.541	0.230	-0.092
-240.917	127.441	-0.304	0.379
-239.903	7.087	0.198	-0.145
-238.888	-163.683	-0.276	-0.013
-237.873	8.370	0.117	-0.086
-236.859	-187.216	0.033	-0.000
-235.844	69.057	0.135	0.136
-234.830	79.717	0.201	0.212
-233.815	-200.000	-0.029	-0.154
-232.800	-81.127	-0.169	-0.055
-231.786	-54.710	0.249	0.111
-230.771	-200.000	0.039	0.339
-229.757	-200.000	0.006	-0.074
-228.742	-200.000	-0.035	0.258
-227.727	279.311	0.115	0.202
-226.713	-8.664	0.049	-0.032
-225.698	14.786	-0.097	-0.075
-224.684	256.961	-0.022	-0.037
-223.669	27.814	-0.200	0.166
-222.655	332.240	-0.012	0.022
-221.640	250.328	-0.062	-0.103
-220.625	-200.000	0.023	0.130
-219.611	-200.000	0.029	0.190
-218.596	-194.574	-0.134	-0.001
-217.582	-76.737	-0.236	0.081
-216.567	-88.157	-0.196	0.058
-215.552	6.848	0.126	-0.092
-214.538	800.000	0.046	0.132
-213.523	589.619	0.035	0.085
-212.509	256.145	0.159	-0.268
-211.494	-97.174	-0.155	0.040
-210.479	-13.110	0.324	0.206
-209.465	-135.829	-0.171	-0.020
-208.450	281.202	0.063	0.111
-207.436	-8.703	0.285	-0.188
-206.421	-200.000	-0.019	-0.183
-205.406	44.060	0.198	-0.178
-204.392	800.000	0.025	0.104
-203.377	-39.968	-0.203	-0.104
-202.363	-127.670	-0.224	-0.032
-201.348	-62.722	0.202	-0.082
-200.333	800.000	0.072	0.198
-199.319	-200.000	-0.050	0.248
-198.304	-20.356	-0.071	-0.043
-197.290	534.979	0.158	-0.368
-196.275	71.439	0.246	0.250
-195.260	324.082	-0.107	0.200
-194.246	-31.017	0.273	0.151
-193.231	-75.462	-0.237	-0.083
-192.217	232.463	-0.078	0.125
-191.202	96.639	0.076	0.085
-190.187	-139.901	0.216	0.022
-189.173	-141.849	-0.036	0.003
-188.158	-93.931	-0.201	-0.054
-187.144	10.195	0.363	-0.271
-186.129	800.000	-0.083	-0.237
-185.114	-119.083	0.159	-0.027
-184.100	800.000	0.021	-0.060
-183.085	127.628	0.064	-0.079
-182.071	-54.289	0.240	0.107
-181.056	800.000	-0.058	-0.214
-180.042	800.000	-0.054	0.167
-179.027	40.953	-0.186	0.164
-178.012	800.000	0.059	0.225
-176.998	-89.295	0.065	0.019
-175.983	800.000	-0.012	-0.042
-174.969	800.000	-0.077	-0.260
-173.954	-200.000	0.007	-0.042
-172.939	-200.000	-0.301	0.001
-171.925	121.820	-0.184	0.225
-170.910	-17.394	0.198	0.122
-169.896	-158.712	-0.029	0.002
-168.881	-200.000	0.004	-0.275
-167.866	183.882	0.076	0.110
-166.852	-18.534	0.025	0.015
-165.837	-5.277	-0.129	0.087
-164.823	372.033	0.126	0.250
-163.808	135.812	-0.266	0.339
-162.793	352.926	-0.119	-0.231
-161.779	662.171	0.124	0.313
-160.764	800.000	-0.086	-0.308
-159.750	-23.868	0.043	-0.025
-158.735	-200.000	-0.021	0.315
-157.720	-200.000	0.015	-0.067
-156.706	-81.323	-0.199	0.064
-155.691	800.000	-0.045	0.192
-154.677	-57.583	-0.286	-0.123
-153.662	-105.442	0.233	0.052
-152.647	-5.682	-0.282	0.189
-151.633	-94.456	0.166	-0.044
-150.618	-5.857	0.140	0.094
-149.604	-200.000	-0.042	0.261
-148.589	-200.000	-0.022	-0.210
-147.574	426.453	-0.093	-0.196
-146.560	124.049	-0.181	-0.222
-145.545	800.000	0.056	-0.160
-144.531	609.386	-0.050	0.123
-143.516	-158.693	0.360	-0.020
-142.502	-107.458	0.083	0.018
-141.487	-24.285	-0.118	-0.069
-140.472	81.741	0.185	-0.195
-139.458	-200.000	0.041	0.305
-138.443	-113.775	0.346	0.066
-137.429	-200.000	0.021	0.234
-136.414	125.454	-0.067	0.083
-135.399	-17.788	0.472	0.290
-134.385	800.000	-0.009	0.030
-133.370	417.803	-0.099	-0.206
-132.356	-13.153	0.271	0.172
-131.341	-27.245	-0.306	0.174
-130.326	-181.308	0.181	-0.003
-129.312	-64.804	0.238	0.094
-128.297	-157.500	0.189	0.011
-127.283	-38.070	-0.161	0.084
-126.268	-63.774	-0.203	-0.081
-125.253	233.291	-0.082	0.132
-124.239	-107.491	-0.191	0.041
-123.224	-110.232	0.474	-0.097
-122.210	40.191	0.319	0.280
-121.195	-85.165	-0.062	-0.019
