DTS Sentinel unit serial number:	SN413079Multiplexer serial number:	ORYXHardware model number:	OX4-SRSoftware version number:	ORYX F/W v4.00 Oryx Data Collector v3.7.2.0data status	okinstallation	princeton_trtdifferential loss correction	single-endedforward channel	channel 3reverse channel	N/Adate	2019/09/12time	13:26:11forward acquisition time	60.00reverse acquisition time	0.00gamma	496.2192k internal	0.2292k external	0.2292temperature offset calibration	1.0044default loss term (dB/km)	0.3790temperature slope calibration	1.0000multiplexer offset coefficient	1.0000multiplexer slope coefficient	1.0000fibre end	0.00T internal ref (°C)	41.06T ext. ref 1 (°C)	2.13T ext. ref 2 (°C)	37.48length (m)	temperature (°C)	Stokes	anti-Stokes-747.200	-106.429	0.366	-0.084
-746.185	52.705	-0.173	-0.169
-745.171	-88.945	0.127	0.038
-744.156	10.315	-0.131	0.102
-743.142	-90.907	0.252	-0.074
-742.127	146.478	0.018	-0.025
-741.112	-146.171	0.175	-0.016
-740.098	-173.220	0.213	0.007
-739.083	-57.013	0.158	0.072
-738.069	96.998	0.172	0.202
-737.054	225.658	0.061	0.102
-736.039	-200.000	-0.001	0.017
-735.025	-138.765	0.325	0.036
-734.010	434.978	0.067	-0.148
-732.996	-27.332	-0.257	-0.153
-731.981	-27.193	0.167	0.100
-730.966	83.807	-0.116	-0.130
-729.952	20.192	0.237	-0.195
-728.937	-90.721	0.043	0.013
-727.923	139.228	0.080	-0.108
-726.908	655.470	0.138	-0.362
-725.894	-200.000	-0.018	0.104
-724.879	-54.462	0.377	-0.175
-723.864	-200.000	0.031	-0.348
-722.850	-200.000	-0.026	-0.178
-721.835	-47.844	-0.142	0.070
-720.821	-23.980	0.426	0.260
-719.806	-23.786	0.167	-0.102
-718.791	42.259	-0.111	-0.103
-717.777	-19.483	-0.336	-0.213
-716.762	-177.476	-0.318	0.008
-715.748	307.625	-0.052	0.100
-714.733	634.934	-0.067	0.173
-713.718	5.116	-0.321	0.242
-712.704	-200.000	-0.034	-0.173
-711.689	-128.647	0.099	0.014
-710.675	335.806	-0.111	0.220
-709.660	-94.711	0.316	-0.088
-708.645	-200.000	-0.030	-0.218
-707.631	685.779	0.025	-0.067
-706.616	-200.000	0.002	-0.012
-705.602	674.147	-0.132	-0.350
-704.587	-149.497	0.190	0.015
-703.572	800.000	0.084	-0.371
-702.558	-200.000	0.007	-0.105
-701.543	-200.000	0.008	-0.530
-700.529	171.757	0.093	0.137
-699.514	800.000	0.097	-0.278
-698.499	-124.002	-0.052	-0.008
-697.485	218.567	0.039	0.063
-696.470	-55.761	0.124	0.057
-695.456	-200.000	0.002	-0.109
-694.441	267.998	0.084	0.150
-693.426	-21.936	0.395	-0.246
-692.412	14.764	-0.178	-0.143
-691.397	-200.000	0.011	0.113
-690.383	-71.193	0.237	-0.091
-689.368	-121.609	-0.165	-0.028
-688.354	241.423	0.129	-0.220
-687.339	-139.312	-0.323	-0.036
-686.324	-157.938	-0.252	-0.015
-685.310	50.704	-0.196	0.189
-684.295	-117.782	0.343	0.063
-683.281	-120.742	0.185	-0.032
-682.266	-89.534	-0.316	0.095
-681.251	23.752	0.267	0.225
-680.237	133.976	0.098	0.130
-679.222	800.000	-0.083	-0.350
-678.208	-116.757	-0.152	0.028
-677.193	-200.000	-0.037	-0.324
-676.178	-157.675	0.008	-0.000
-675.164	34.476	-0.158	0.141
-674.149	-110.024	0.161	-0.034
-673.135	246.457	-0.176	-0.303
-672.120	-45.784	-0.258	0.130
-671.105	-145.746	-0.156	0.014
-670.091	-49.756	0.077	0.038
-669.076	800.000	-0.056	0.220
-668.062	-200.000	-0.011	-0.084
-667.047	-133.054	-0.201	0.026
-666.032	-200.000	0.009	0.370
-665.018	-38.524	0.173	0.093
-664.003	-157.571	-0.181	-0.011
-662.989	800.000	-0.055	-0.207
-661.974	-52.801	-0.209	0.099
-660.959	174.701	0.273	-0.403
-659.945	800.000	-0.032	0.099
-658.930	-105.679	-0.266	-0.061
-657.916	27.557	0.124	-0.107
-656.901	112.871	0.344	0.425
-655.886	-69.333	0.231	-0.091
-654.872	-200.000	-0.008	0.053
-653.857	-200.000	0.032	-0.150
-652.843	-200.000	0.081	-0.559
-651.828	145.266	0.095	0.130
-650.814	225.385	0.026	0.043
-649.799	-26.425	0.079	0.047
-648.784	15.878	-0.221	-0.177
-647.770	-66.568	-0.118	-0.048
-646.755	476.945	0.130	-0.301
-645.741	-45.939	-0.173	0.087
-644.726	74.237	-0.033	-0.036
-643.711	569.140	0.078	0.193
-642.697	-127.352	0.214	0.032
-641.682	-24.907	-0.208	-0.126
-640.668	22.740	0.062	0.052
-639.653	344.879	0.048	-0.096
-638.638	-200.000	-0.040	-0.269
-637.624	-200.000	0.061	0.292
-636.609	800.000	0.021	0.091
-635.595	-5.589	-0.016	-0.011
-634.580	51.748	0.176	0.171
-633.565	-97.349	0.380	0.101
-632.551	318.150	-0.048	0.093
-631.536	-163.398	0.141	-0.007
-630.522	-200.000	-0.016	0.315
-629.507	-171.221	0.327	0.011
-628.492	38.602	-0.132	0.120
-627.478	-200.000	-0.023	-0.116
-626.463	346.910	-0.064	-0.128
-625.449	-69.442	-0.195	0.076
-624.434	-29.848	-0.239	0.139
-623.419	-138.424	-0.208	-0.023
-622.405	-95.559	-0.250	-0.068
-621.390	-200.000	0.007	-0.075
-620.376	75.203	0.240	0.258
-619.361	55.941	0.141	0.139
-618.346	126.302	-0.260	-0.335
-617.332	-77.575	0.124	0.044
-616.317	15.498	-0.207	-0.166
-615.303	-146.254	-0.333	-0.030
-614.288	-40.652	0.126	-0.067
-613.273	25.438	0.036	0.031
-612.259	-52.544	0.076	-0.036
-611.244	117.669	-0.315	-0.395
-610.230	800.000	0.038	-0.110
-609.215	182.153	-0.018	0.027
-608.201	118.098	-0.109	0.137
-607.186	-200.000	-0.027	0.130
-606.171	-160.806	0.314	0.017
-605.157	108.138	-0.155	-0.188
-604.142	317.661	-0.043	-0.083
-603.128	-200.000	0.037	-0.172
-602.113	800.000	0.084	0.281
-601.098	-41.767	-0.048	-0.025
-600.084	355.639	-0.117	-0.236
-599.069	-161.888	0.120	0.006
-598.055	-36.030	-0.098	-0.054
-597.040	136.930	-0.153	-0.203
-596.025	-77.297	0.218	-0.077
-595.011	-200.000	-0.032	-0.235
-593.996	140.739	-0.122	0.164
-592.982	123.585	0.136	0.173
-591.967	-93.540	0.287	-0.081
-590.952	458.811	-0.147	-0.333
-589.938	73.607	-0.128	-0.136
-588.923	800.000	0.116	0.418
-587.909	34.358	-0.319	-0.284
-586.894	-5.947	-0.139	-0.097
-585.879	129.169	0.142	-0.185
-584.865	-200.000	0.009	-0.144
-583.850	-200.000	-0.005	-0.158
-582.836	559.162	0.164	0.403
-581.821	-200.000	-0.018	-0.107
-580.806	485.076	0.068	0.157
-579.792	-200.000	0.031	0.266
-578.777	32.986	0.209	-0.185
-577.763	-66.165	-0.223	-0.091
-576.748	-200.000	-0.015	0.106
-575.733	-200.000	0.026	0.458
-574.719	227.317	-0.128	-0.212
-573.704	-93.412	0.178	0.050
-572.690	326.333	0.114	-0.222
-571.675	-97.999	0.314	0.082
-570.661	100.010	0.180	0.212
-569.646	120.956	-0.135	0.171
-568.631	-155.593	-0.259	-0.017
-567.617	-127.543	-0.266	-0.039
-566.602	26.231	0.181	0.154
-565.588	-200.000	0.033	0.201
-564.573	-200.000	0.002	-0.238
-563.558	654.415	-0.089	0.231
-562.544	-176.101	-0.259	0.007
-561.529	-200.000	0.040	-0.304
-560.515	143.170	0.269	-0.364
-559.500	-200.000	0.008	-0.063
-558.485	756.588	-0.057	0.158
-557.471	-47.614	-0.311	-0.153
-556.456	5.598	-0.128	-0.096
-555.442	-112.839	-0.127	0.025
-554.427	-87.108	-0.183	-0.057
-553.412	466.846	-0.101	-0.230
-552.398	-95.686	-0.118	-0.032
-551.383	-54.158	0.128	0.059
-550.369	-200.000	-0.019	0.186
-549.354	-88.797	0.149	0.045
-548.339	55.847	0.141	0.139
-547.325	4.855	0.145	0.108
-546.310	87.985	-0.225	-0.254
-545.296	242.331	0.200	0.341
-544.281	11.087	0.057	0.044
-543.266	67.847	-0.150	-0.155
-542.252	95.907	-0.129	0.149
-541.237	-200.000	0.004	0.136
-540.223	34.522	-0.118	-0.105
-539.208	-200.000	0.013	-0.528
-538.193	-200.000	-0.008	0.199
-537.179	-43.387	0.122	0.063
-536.164	204.688	0.176	0.277
-535.150	800.000	-0.100	0.367
-534.135	120.568	-0.068	0.086
-533.121	32.594	-0.196	0.172
-532.106	42.353	0.099	-0.092
-531.091	345.167	0.108	0.214
-530.077	800.000	-0.090	0.271
-529.062	308.173	0.046	0.087
-528.048	-172.418	0.360	-0.012
-527.033	241.090	-0.109	0.184
-526.018	-94.070	-0.056	-0.016
-525.004	200.747	-0.252	0.393
-523.989	92.640	-0.110	-0.127
-522.975	91.410	-0.041	-0.047
-521.960	74.047	0.115	-0.122
-520.945	290.353	0.026	-0.047
-519.931	319.547	-0.041	-0.080
-518.916	-191.735	-0.063	-0.001
-517.902	10.773	0.092	0.071
-516.887	-167.495	0.206	-0.008
-515.872	-48.768	0.059	-0.029
-514.858	410.134	-0.053	-0.113
-513.843	-87.354	0.375	0.115
-512.829	48.795	-0.100	0.095
-511.814	-122.186	0.199	0.033
-510.799	800.000	0.037	-0.157
-509.785	-200.000	0.024	0.206
-508.770	126.522	-0.206	-0.265
-507.756	552.288	-0.039	0.094
-506.741	-168.601	0.111	0.004
-505.726	800.000	-0.101	0.284
-504.712	60.864	0.215	-0.216
-503.697	7.486	-0.295	-0.223
-502.683	32.140	0.138	-0.121
-501.668	333.090	0.268	-0.526
-500.653	-101.225	-0.283	0.070
-499.639	-200.000	0.022	0.199
-498.624	24.723	0.158	0.133
-497.610	-91.299	-0.201	-0.058
-496.595	-8.715	-0.297	0.202
-495.581	1.714	-0.224	-0.164
-494.566	177.192	-0.091	-0.135
-493.551	364.927	-0.161	0.329
-492.537	62.874	-0.035	0.036
-491.522	325.480	0.095	0.184
-490.508	97.857	-0.265	-0.309
-489.493	-150.583	-0.232	-0.018
-488.478	453.457	-0.135	0.304
-487.464	-155.352	0.178	0.012
-486.449	-63.603	-0.194	0.081
-485.435	-26.453	-0.282	0.167
-484.420	132.565	0.055	0.072
-483.405	-105.563	0.202	-0.047
-482.391	66.464	0.156	-0.161
-481.376	158.693	0.146	-0.206
-480.362	-200.000	0.036	0.384
-479.347	-47.233	0.203	-0.100
-478.332	-200.000	-0.060	-0.359
-477.318	-37.091	0.191	0.104
-476.303	-92.188	-0.254	0.073
-475.289	7.628	-0.095	-0.072
-474.274	156.961	0.081	-0.114
-473.259	-50.095	-0.146	0.070
-472.245	800.000	-0.034	0.146
-471.230	-65.460	-0.048	0.020
-470.216	138.145	-0.054	-0.072
-469.201	-63.551	0.287	0.119
-468.186	-189.544	0.218	-0.003
-467.172	-200.000	0.008	0.148
-466.157	27.884	-0.134	0.115
-465.143	82.710	0.124	0.137
-464.128	11.704	0.041	0.032
-463.113	-121.575	-0.060	0.010
-462.099	-173.111	0.111	-0.003
-461.084	-200.000	-0.003	-0.170
-460.070	-200.000	0.005	-0.225
-459.055	-27.739	0.108	0.063
-458.040	-25.668	0.118	-0.071
-457.026	-126.329	-0.121	-0.018
-456.011	560.452	0.186	-0.454
-454.997	-55.566	-0.289	0.131
-453.982	-107.650	-0.505	0.112
-452.968	-6.914	-0.082	0.056
-451.953	-200.000	-0.064	0.290
-450.938	17.572	-0.053	0.042
-449.924	-199.392	0.134	0.001
-448.909	192.053	0.093	0.142
-447.895	-200.000	-0.016	0.127
-446.880	-26.306	-0.386	0.229
-445.865	-152.284	0.040	0.003
-444.851	469.297	0.144	0.327
-443.836	-200.000	0.008	-0.046
-442.822	-117.082	-0.158	0.029
-441.807	370.106	-0.030	0.062
-440.792	-21.855	-0.231	-0.142
-439.778	267.658	0.152	-0.270
-438.763	-150.456	0.147	0.011
-437.749	-31.140	-0.119	0.068
-436.734	-136.275	-0.164	0.019
-435.719	329.907	0.082	0.159
-434.705	766.862	-0.125	0.344
-433.690	-89.047	-0.645	-0.193
-432.676	242.684	0.145	-0.246
-431.661	-136.255	0.142	-0.017
-430.646	-26.481	-0.081	-0.048
-429.632	-1.595	0.246	-0.175
-428.617	-117.831	-0.104	-0.019
-427.603	135.388	-0.132	-0.174
-426.588	117.169	0.061	-0.076
-425.573	197.074	0.110	0.170
-424.559	32.056	-0.244	0.213
-423.544	4.245	-0.102	-0.075
-422.530	-137.779	-0.165	-0.019
-421.515	-123.598	0.195	0.031
-420.500	175.924	0.066	-0.096
-419.486	254.047	-0.067	0.115
-418.471	-161.405	-0.175	0.009
-417.457	-18.259	-0.112	-0.071
-416.442	13.490	0.126	-0.099
-415.428	-137.551	0.343	-0.039
-414.413	-200.000	0.008	-0.177
-413.398	800.000	-0.051	-0.160
-412.384	23.646	0.191	-0.159
-411.369	-200.000	-0.006	-0.117
-410.355	-42.324	-0.273	-0.141
-409.340	-181.590	-0.259	-0.005
-408.325	37.497	0.089	0.080
-407.311	800.000	0.032	0.127
-406.296	-134.653	-0.189	-0.023
-405.282	-41.311	-0.328	-0.171
-404.267	40.599	0.100	0.091
-403.252	-111.498	0.333	0.069
-402.238	-131.394	0.247	-0.033
-401.223	-200.000	-0.041	0.259
-400.209	-200.000	-0.044	0.288
-399.194	-200.000	-0.009	-0.039
-398.179	140.530	-0.090	-0.120
-397.165	-16.220	-0.153	-0.098
-396.150	-200.000	-0.033	0.202
-395.136	-200.000	0.012	0.441
-394.121	38.639	0.207	0.187
-393.106	8.347	0.037	0.028
-392.092	103.481	0.082	0.097
-391.077	28.339	-0.073	0.063
-390.063	-200.000	-0.010	0.270
-389.048	230.102	0.138	-0.228
-388.033	199.583	0.101	0.156
-387.019	76.879	-0.227	-0.244
-386.004	800.000	-0.084	0.239
-384.990	-200.000	0.007	-0.050
-383.975	800.000	0.092	0.327
-382.960	-22.472	0.260	0.159
-381.946	-38.287	-0.258	-0.138
-380.931	-125.817	-0.101	-0.015
-379.917	-200.000	0.119	-0.000
-378.902	-40.798	0.358	-0.187
-377.888	-114.739	0.142	0.027
-376.873	-127.058	-0.175	0.026
-375.858	-200.000	0.001	0.179
-374.844	155.542	-0.080	-0.112
-373.829	109.335	-0.084	0.101
-372.815	-100.986	0.478	-0.118
-371.800	-36.122	-0.090	0.049
-370.785	-200.000	0.086	-0.428
-369.771	-156.300	0.213	0.013
-368.756	8.904	0.314	0.239
-367.742	-133.232	-0.186	-0.024
-366.727	10.207	0.063	-0.048
-365.712	259.700	-0.114	-0.199
-364.698	15.386	-0.171	0.136
-363.683	770.523	0.087	-0.239
-362.669	37.510	-0.175	-0.156
-361.654	393.553	-0.112	-0.235
-360.639	620.388	0.067	0.170
-359.625	126.765	0.130	-0.166
-358.610	-200.000	-0.043	0.233
-357.596	-200.000	0.011	0.106
-356.581	113.559	0.065	-0.079
-355.566	17.997	0.124	0.100
-354.552	-200.000	-0.035	-0.169
-353.537	-74.670	0.071	-0.026
-352.523	-200.000	0.016	-0.111
-351.508	-132.901	0.296	-0.038
-350.493	-200.000	0.006	0.039
-349.479	145.766	0.176	-0.238
-348.464	158.898	-0.165	0.232
-347.450	776.838	-0.090	-0.247
-346.435	-90.027	0.137	0.040
-345.420	116.023	-0.187	0.231
-344.406	-21.861	-0.195	-0.119
-343.391	800.000	0.027	0.091
-342.377	-200.000	0.012	0.403
-341.362	-200.000	0.030	0.228
-340.348	-119.470	0.038	-0.007
-339.333	-32.487	-0.210	-0.118
-338.318	139.155	0.104	0.137
-337.304	-93.403	0.104	0.029
-336.289	-81.902	0.282	-0.093
-335.275	-200.000	-0.034	-0.152
-334.260	-43.833	-0.127	0.065
-333.245	770.100	0.071	-0.194
-332.231	224.569	-0.129	-0.211
-331.216	715.083	0.073	0.194
-330.202	236.548	-0.076	-0.126
-329.187	-104.288	-0.306	-0.072
-328.172	-95.690	-0.152	-0.041
-327.158	218.142	-0.217	-0.349
-326.143	41.905	0.392	-0.358
-325.129	205.676	0.088	0.138
-324.114	135.015	0.057	-0.075
-323.099	62.876	0.131	0.132
-322.085	-111.541	0.173	-0.035
-321.070	-57.382	-0.264	-0.117
-320.056	-5.127	-0.068	-0.047
-319.041	-192.244	-0.190	-0.002
-318.026	-42.704	0.084	-0.043
-317.012	-200.000	0.056	-0.386
-315.997	-89.277	0.290	-0.086
-314.983	-123.391	0.187	0.030
-313.968	800.000	0.067	-0.274
-312.953	59.482	-0.246	-0.244
-311.939	-16.273	0.080	-0.051
-310.924	122.854	-0.223	0.280
-309.910	-200.000	0.004	-0.148
-308.895	238.190	0.140	-0.234
-307.880	256.875	0.120	0.207
-306.866	-141.876	0.323	-0.033
-305.851	-0.686	-0.097	-0.069
-304.837	-10.713	-0.063	-0.042
-303.822	-11.609	-0.165	-0.109
-302.807	144.035	-0.059	-0.079
-301.793	713.946	-0.117	0.312
-300.778	35.730	-0.329	0.291
-299.764	-132.782	-0.081	-0.010
-298.749	-200.000	0.012	-0.257
-297.735	145.069	0.232	-0.312
-296.720	17.790	-0.228	-0.182
-295.705	446.074	0.084	-0.187
-294.691	-96.133	-0.287	0.077
-293.676	-94.261	0.185	0.051
-292.662	-200.000	-0.025	-0.359
-291.647	-146.936	-0.171	0.015
-290.632	-78.898	0.157	0.054
-289.618	-200.000	0.009	0.104
-288.603	5.301	-0.115	-0.086
-287.589	800.000	0.147	-0.459
-286.574	-200.000	-0.079	0.381
-285.559	183.624	0.047	-0.071
-284.545	277.727	0.165	0.296
-283.530	-31.845	0.124	-0.070
-282.516	-167.096	0.201	-0.008
-281.501	-101.900	0.284	-0.069
-280.486	-200.000	0.049	-0.262
-279.472	115.232	0.080	0.098
-278.457	-23.831	-0.081	0.049
-277.443	302.776	-0.044	0.081
-276.428	-177.124	0.146	0.004
-275.413	-41.390	0.274	0.142
-274.399	50.202	0.122	-0.116
-273.384	-200.000	-0.002	0.300
-272.370	-138.902	-0.141	0.015
-271.355	-200.000	-0.014	-0.254
-270.340	150.296	-0.293	-0.400
-269.326	117.471	-0.222	0.274
-268.311	146.198	-0.110	0.149
-267.297	65.059	0.256	0.260
-266.282	-57.189	-0.308	0.136
-265.267	-113.485	-0.444	-0.087
-264.253	125.181	0.235	0.297
-263.238	118.611	-0.100	0.124
-262.224	180.300	-0.112	-0.165
-261.209	-75.079	0.147	0.053
-260.195	334.086	0.074	0.145
-259.180	115.912	-0.164	-0.201
-258.165	-122.664	0.330	-0.054
-257.151	133.588	-0.169	-0.219
-256.136	34.281	-0.075	-0.066
-255.122	138.530	0.016	-0.021
-254.107	-3.485	-0.197	-0.137
-253.092	387.046	0.040	0.084
-252.078	425.254	0.100	-0.217
-251.063	-110.955	0.367	-0.076
-250.049	-77.549	0.288	-0.100
-249.034	-3.003	0.192	0.135
-248.019	-72.504	-0.247	0.092
-247.005	435.352	-0.059	0.129
-245.990	270.987	-0.152	0.269
-244.976	86.441	-0.074	0.082
-243.961	-200.000	-0.020	0.108
-242.946	370.942	0.048	0.097
-241.932	402.298	-0.110	-0.231
-240.917	800.000	0.118	0.348
-239.903	-17.509	0.235	0.148
-238.888	-200.000	0.013	-0.160
-237.873	-59.469	0.507	-0.219
-236.859	-127.928	-0.193	0.028
-235.844	-44.980	-0.133	-0.067
-234.830	-187.488	0.274	0.004
-233.815	-200.000	0.048	0.267
-232.800	55.181	0.156	-0.151
-231.786	29.789	0.069	-0.059
-230.771	229.372	-0.037	0.060
-229.757	-55.821	-0.105	-0.047
-228.742	-100.985	0.320	0.079
-227.727	-100.858	0.419	-0.103
-226.713	-117.479	-0.242	0.044
-225.698	384.842	0.014	-0.029
-224.684	330.492	-0.137	0.265
-223.669	800.000	0.102	-0.349
-222.655	13.496	-0.044	-0.034
-221.640	18.061	-0.004	-0.003
-220.625	-200.000	-0.012	-0.177
-219.611	57.358	-0.263	-0.258
-218.596	-200.000	0.010	-0.060
-217.582	-83.316	-0.273	-0.088
-216.567	-200.000	-0.001	-0.077
-215.552	800.000	-0.047	0.151
-214.538	-25.817	0.268	0.158
-213.523	-84.664	0.353	0.111
-212.509	-70.416	-0.176	-0.067
-211.494	-64.306	0.140	0.057
-210.479	361.734	-0.141	0.283
-209.465	38.421	0.156	0.140
-208.450	25.674	0.219	0.183
-207.436	730.337	0.053	0.141
-206.421	-200.000	-0.015	0.388
-205.406	469.348	-0.032	-0.072
-204.392	-44.070	0.170	-0.086
-203.377	-200.000	-0.036	0.195
-202.363	749.830	-0.043	0.117
-201.348	379.316	0.234	0.480
-200.333	15.417	-0.044	0.034
-199.319	800.000	-0.108	-0.353
-198.304	-143.948	-0.123	-0.012
-197.290	800.000	0.071	0.249
-196.275	-155.194	-0.280	-0.018
-195.260	-102.320	-0.171	-0.041
-194.246	-200.000	0.040	0.266
-193.231	-45.074	0.349	0.174
-192.217	-94.382	0.307	-0.084
-191.202	174.588	0.129	0.187
-190.187	800.000	0.026	-0.110
-189.173	9.284	-0.182	-0.138
-188.158	-117.792	-0.428	0.077
-187.144	12.693	-0.085	-0.066
-186.129	298.329	-0.060	0.111
-185.114	-200.000	-0.035	-0.177
-184.100	133.439	0.168	-0.217
-183.085	-134.897	-0.122	-0.015
-182.071	66.517	-0.170	-0.173
-181.056	-87.419	-0.158	0.048
-180.042	42.655	0.130	-0.119
-179.027	294.005	-0.029	0.053
-178.012	176.079	0.166	-0.241
-176.998	-55.641	0.245	0.110
-175.983	800.000	0.115	0.439
-174.969	-42.529	0.201	0.103
-173.954	-96.905	-0.342	0.090
-172.939	800.000	0.065	0.207
-171.925	-153.989	-0.259	0.018
-170.910	-61.671	0.200	-0.084
-169.896	-74.409	-0.258	-0.093
-168.881	-200.000	-0.046	-0.204
-167.866	0.310	-0.222	-0.158
-166.852	100.610	0.089	-0.103
-165.837	239.059	0.056	-0.093
-164.823	44.300	0.172	0.158
-163.808	197.886	0.164	0.251
-162.793	-200.000	0.017	-0.478
-161.779	-27.803	0.310	-0.180
-160.764	-127.251	-0.064	0.009
-159.750	310.809	-0.102	0.190
-158.735	328.969	-0.135	-0.259
-157.720	-200.000	0.010	0.189
-156.706	-200.000	-0.006	-0.326
-155.691	800.000	-0.019	-0.076
-154.677	-97.506	0.173	-0.045
-153.662	-103.067	-0.181	-0.043
-152.647	-62.856	0.205	-0.085
-151.633	-97.039	0.202	0.053
-150.618	-84.457	-0.211	0.067
-149.604	-200.000	-0.068	0.347
-148.589	157.851	-0.128	0.177
-147.574	359.167	0.105	0.210
-146.560	78.595	0.128	-0.136
-145.545	-69.377	0.196	-0.075
-144.531	-119.071	-0.304	0.053
-143.516	-200.000	-0.032	0.173
-142.502	743.321	0.019	-0.052
-141.487	-15.765	0.199	-0.127
-140.472	-55.381	0.108	0.048
-139.458	16.002	0.158	0.125
-138.443	-117.743	-0.513	-0.092
-137.429	-91.892	-0.108	-0.031
-136.414	-200.000	0.022	0.249
-135.399	66.772	0.197	0.200
-134.385	-200.000	0.017	-0.190
-133.370	90.818	-0.222	-0.249
-132.356	-65.786	0.173	-0.069
-131.341	130.172	-0.090	-0.115
-130.326	309.872	0.168	-0.314
-129.312	-139.439	0.117	-0.013
-128.297	-141.957	0.236	0.024
-127.283	-109.585	0.332	0.070
-126.268	-33.050	0.174	-0.097
-125.253	74.036	0.176	-0.185
-124.239	163.269	0.162	-0.228
-123.224	38.138	-0.184	0.164
-122.210	-156.985	-0.171	-0.010
