DTS Sentinel unit serial number:	SN413079Multiplexer serial number:	ORYXHardware model number:	OX4-SRSoftware version number:	ORYX F/W v4.00 Oryx Data Collector v3.7.2.0data status	okinstallation	princeton_trtdifferential loss correction	single-endedforward channel	channel 3reverse channel	N/Adate	2019/09/16time	05:32:35forward acquisition time	60.00reverse acquisition time	0.00gamma	496.2192k internal	0.2335k external	0.2335temperature offset calibration	0.9956default loss term (dB/km)	0.3790temperature slope calibration	1.0000multiplexer offset coefficient	1.0000multiplexer slope coefficient	1.0000fibre end	0.00T internal ref (°C)	27.30T ext. ref 1 (°C)	11.13T ext. ref 2 (°C)	22.10length (m)	temperature (°C)	Stokes	anti-Stokes-747.200	414.047	0.048	0.104
-746.185	-90.557	0.357	0.104
-745.171	433.008	0.192	-0.418
-744.156	67.157	0.175	0.179
-743.142	-29.282	-0.071	-0.041
-742.127	800.000	0.018	0.073
-741.112	-33.238	-0.102	0.057
-740.098	152.941	-0.244	0.335
-739.083	35.250	0.199	-0.175
-738.069	-200.000	-0.009	0.257
-737.054	276.427	-0.116	-0.207
-736.039	-105.180	0.226	0.052
-735.025	-33.693	0.062	0.035
-734.010	64.464	-0.203	-0.205
-732.996	-18.716	-0.087	-0.054
-731.981	-87.558	-0.238	-0.072
-730.966	638.392	-0.010	0.026
-729.952	333.317	-0.102	-0.197
-728.937	-100.157	-0.259	0.065
-727.923	-200.000	-0.002	0.206
-726.908	240.587	-0.083	-0.139
-725.894	48.058	-0.250	-0.234
-724.879	-200.000	0.017	-0.221
-723.864	671.016	-0.127	-0.331
-722.850	-87.850	-0.227	-0.068
-721.835	21.277	-0.246	0.200
-720.821	3.591	-0.246	0.180
-719.806	-200.000	0.021	0.125
-718.791	27.620	0.198	0.168
-717.777	31.332	0.294	-0.254
-716.762	-73.317	0.061	0.022
-715.748	-200.000	-0.011	0.378
-714.733	800.000	-0.012	0.048
-713.718	121.996	-0.148	-0.186
-712.704	131.903	0.080	-0.103
-711.689	246.358	-0.058	0.099
-710.675	69.834	-0.209	-0.216
-709.660	800.000	0.069	-0.226
-708.645	-200.000	-0.030	-0.233
-707.631	-59.333	-0.257	0.111
-706.616	10.159	0.190	0.145
-705.602	66.957	-0.139	-0.142
-704.587	98.701	-0.220	-0.255
-703.572	325.171	0.091	0.175
-702.558	-98.911	0.258	-0.066
-701.543	-43.114	-0.425	-0.216
-700.529	235.928	0.070	0.116
-699.514	-200.000	0.060	0.347
-698.499	-200.000	0.009	0.106
-697.485	-77.707	-0.260	-0.090
-696.470	-6.123	-0.083	-0.057
-695.456	208.603	-0.052	-0.082
-694.441	-16.245	0.272	-0.173
-693.426	-146.341	0.189	0.017
-692.412	-48.993	-0.167	0.080
-691.397	-86.248	-0.350	-0.108
-690.383	622.571	0.093	0.235
-689.368	133.495	-0.077	-0.100
-688.354	-140.603	-0.306	-0.032
-687.339	-15.205	0.137	-0.088
-686.324	-200.000	-0.270	-0.001
-685.310	-32.388	-0.177	-0.099
-684.295	-55.768	-0.314	-0.141
-683.281	-5.231	-0.204	0.141
-682.266	14.952	0.187	0.147
-681.251	202.976	-0.135	0.209
-680.237	-200.000	0.007	0.094
-679.222	270.237	-0.080	-0.141
-678.208	-94.860	0.038	-0.010
-677.193	64.051	0.183	-0.184
-676.178	-36.446	-0.301	-0.162
-675.164	-12.567	-0.178	-0.116
-674.149	-86.118	-0.303	-0.094
-673.135	-200.000	-0.016	0.200
-672.120	-200.000	-0.067	0.409
-671.105	218.355	-0.192	0.306
-670.091	-9.674	-0.092	0.062
-669.076	99.872	0.104	-0.121
-668.062	-132.767	0.369	0.047
-667.047	88.762	-0.060	0.067
-666.032	-200.000	0.016	-0.162
-665.018	252.637	-0.167	-0.285
-664.003	-25.004	-0.140	0.083
-662.989	-171.293	0.136	0.005
-661.974	-47.324	-0.104	-0.051
-660.959	-200.000	-0.055	-0.284
-659.945	192.744	0.064	-0.096
-658.930	-127.413	-0.348	0.051
-657.916	-200.000	0.034	-0.217
-656.901	800.000	0.063	-0.181
-655.886	-41.965	-0.205	0.105
-654.872	-35.220	-0.189	-0.103
-653.857	-200.000	-0.036	0.246
-652.843	155.911	0.084	-0.116
-651.828	800.000	-0.008	0.035
-650.814	800.000	-0.022	-0.067
-649.799	114.478	0.121	0.147
-648.784	-35.933	0.384	0.208
-647.770	800.000	-0.027	-0.094
-646.755	-200.000	0.004	-0.243
-645.741	378.413	-0.088	0.180
-644.726	-177.885	0.198	-0.005
-643.711	800.000	-0.101	0.320
-642.697	305.517	0.061	-0.113
-641.682	35.874	-0.119	-0.105
-640.668	-200.000	0.014	-0.071
-639.653	800.000	0.045	0.173
-638.638	121.855	0.060	0.074
-637.624	-115.310	-0.489	-0.093
-636.609	58.001	-0.041	-0.040
-635.595	-94.866	-0.301	-0.082
-634.580	73.040	-0.070	-0.073
-633.565	29.421	0.068	0.058
-632.551	-200.000	0.013	-0.098
-631.536	164.511	-0.204	-0.288
-630.522	168.786	0.156	0.223
-629.507	-200.000	-0.018	-0.195
-628.492	-85.798	0.206	-0.064
-627.478	66.870	-0.083	0.084
-626.463	56.269	-0.124	0.120
-625.449	188.130	0.149	-0.223
-624.434	-13.293	0.080	-0.052
-623.419	147.068	0.140	-0.188
-622.405	105.200	-0.105	0.124
-621.390	800.000	0.055	0.199
-620.376	-119.328	-0.199	0.035
-619.361	-52.616	-0.146	-0.067
-618.346	-200.000	0.011	-0.136
-617.332	78.426	-0.070	0.075
-616.317	183.288	-0.157	-0.232
-615.303	63.991	0.165	-0.166
-614.288	553.091	-0.096	0.231
-613.273	279.450	-0.055	0.098
-612.259	-169.300	-0.366	0.013
-611.244	-200.000	0.038	-0.353
-610.230	360.973	0.154	-0.308
-609.215	-172.220	0.103	0.003
-608.201	-60.218	-0.263	-0.112
-607.186	49.343	-0.065	-0.061
-606.171	800.000	0.084	0.235
-605.157	17.885	0.261	0.208
-604.142	109.173	0.364	0.436
-603.128	224.165	-0.147	-0.237
-602.113	38.047	-0.314	0.279
-601.098	-5.566	0.087	0.060
-600.084	-200.000	0.001	0.207
-599.069	41.628	-0.148	-0.134
-598.055	-166.849	0.108	0.004
-597.040	86.754	-0.180	-0.199
-596.025	-91.722	0.237	-0.067
-595.011	-200.000	-0.013	0.089
-593.996	30.386	0.186	0.159
-592.982	-54.418	-0.117	-0.053
-591.967	-115.230	0.287	0.054
-590.952	-56.646	-0.151	0.067
-589.938	-200.000	0.044	-0.321
-588.923	147.504	0.023	-0.031
-587.909	63.229	0.140	-0.140
-586.894	-200.000	-0.007	0.127
-585.879	38.081	-0.240	0.213
-584.865	336.627	0.122	-0.236
-583.850	-200.000	-0.021	0.312
-582.836	-200.000	0.012	0.113
-581.821	-103.557	0.398	-0.093
-580.806	98.668	0.073	0.084
-579.792	-200.000	-0.003	0.196
-578.777	180.810	0.097	-0.142
-577.763	800.000	0.061	-0.229
-576.748	-148.310	0.350	-0.029
-575.733	105.140	-0.289	0.341
-574.719	-200.000	0.053	-0.262
-573.704	4.468	0.135	-0.099
-572.690	24.464	-0.117	0.097
-571.675	618.339	-0.045	-0.114
-570.661	-38.136	0.087	0.046
-569.646	-167.003	-0.211	0.009
-568.631	-135.968	-0.112	-0.013
-567.617	-200.000	0.020	-0.110
-566.602	164.204	0.132	0.185
-565.588	-187.147	0.108	0.001
-564.573	-154.332	-0.207	-0.014
-563.558	800.000	0.040	-0.113
-562.544	18.794	-0.123	-0.098
-561.529	362.494	0.028	-0.056
-560.515	-72.726	0.300	-0.110
-559.500	401.644	0.130	-0.273
-558.485	44.625	-0.181	-0.166
-557.471	772.185	0.013	0.034
-556.456	-200.000	0.017	-0.461
-555.442	-55.243	0.089	-0.040
-554.427	-39.944	0.158	-0.082
-553.412	-107.491	-0.214	0.047
-552.398	-134.752	-0.150	0.018
-551.383	-68.664	-0.135	-0.052
-550.369	-200.000	0.023	0.186
-549.354	-124.493	-0.210	-0.033
-548.339	94.762	-0.217	0.246
-547.325	-38.369	0.239	0.126
-546.310	-37.242	0.232	-0.124
-545.296	249.920	-0.146	0.247
-544.281	-149.365	-0.191	0.015
-543.266	-77.756	-0.360	0.124
-542.252	-160.280	0.090	-0.005
-541.237	165.186	-0.026	0.036
-540.223	800.000	-0.106	0.319
-539.208	8.053	0.193	0.144
-538.193	-95.367	-0.234	0.063
-537.179	-179.741	-0.365	0.008
-536.164	800.000	0.082	-0.227
-535.150	99.335	0.126	0.145
-534.135	-163.230	0.415	-0.020
-533.121	-200.000	-0.008	-0.201
-532.106	515.207	-0.083	0.194
-531.091	-37.823	0.090	0.048
-530.077	269.211	-0.131	-0.229
-529.062	29.072	0.084	0.071
-528.048	-191.179	-0.286	-0.003
-527.033	-200.000	0.077	-0.454
-526.018	155.827	-0.050	-0.069
-525.004	-200.000	-0.027	-0.325
-523.989	4.603	-0.235	-0.172
-522.975	-200.000	-0.028	0.182
-521.960	32.929	-0.055	-0.048
-520.945	-200.000	-0.014	-0.166
-519.931	-119.884	-0.210	0.036
-518.916	771.657	0.059	0.160
-517.902	-164.131	0.292	-0.013
-516.887	-55.851	-0.115	0.051
-515.872	372.304	-0.077	-0.156
-514.858	-200.000	-0.015	-0.135
-513.843	-200.000	0.061	-0.000
-512.829	132.695	-0.079	0.101
-511.814	92.041	-0.223	0.250
-510.799	-94.593	0.234	-0.063
-509.785	-59.002	-0.119	-0.051
-508.770	-109.183	-0.222	0.047
-507.756	-72.477	-0.219	-0.081
-506.741	-200.000	0.025	0.311
-505.726	51.727	-0.144	0.137
-504.712	-200.000	-0.122	-0.001
-503.697	-200.000	0.017	0.110
-502.683	33.365	-0.057	-0.050
-501.668	-195.798	0.192	0.001
-500.653	-58.401	0.073	0.032
-499.639	-130.226	-0.272	0.037
-498.624	9.785	-0.200	0.151
-497.610	520.044	0.097	0.226
-496.595	-186.319	0.195	0.003
-495.581	490.248	-0.120	-0.274
-494.566	5.571	-0.142	-0.104
-493.551	-42.479	-0.150	-0.076
-492.537	-159.156	0.547	0.031
-491.522	-36.784	-0.082	-0.044
-490.508	-99.782	-0.234	0.058
-489.493	31.851	0.088	-0.075
-488.478	154.498	0.181	-0.247
-487.464	-116.121	-0.265	-0.049
-486.449	78.457	0.260	0.276
-485.435	-125.690	0.193	-0.029
-484.420	-98.507	-0.488	0.124
-483.405	-14.466	-0.144	-0.092
-482.391	31.924	-0.113	0.096
-481.376	800.000	-0.050	0.153
-480.362	-22.067	0.254	-0.153
-479.347	-55.728	-0.184	-0.082
-478.332	-23.242	-0.389	0.233
-477.318	-200.000	-0.025	0.132
-476.303	800.000	-0.056	-0.223
-475.289	345.418	0.089	-0.173
-474.274	397.089	-0.168	-0.349
-473.259	-90.973	-0.094	0.027
-472.245	800.000	0.065	-0.240
-471.230	123.958	0.111	0.138
-470.216	413.490	0.151	-0.320
-469.201	25.843	0.181	0.150
-468.186	-57.315	0.330	-0.144
-467.172	-52.660	-0.233	-0.107
-466.157	12.661	-0.108	-0.083
-465.143	800.000	0.046	0.178
-464.128	420.504	0.101	0.216
-463.113	-17.598	-0.240	0.150
-462.099	83.701	-0.059	0.064
-461.084	-200.000	-0.011	-0.132
-460.070	202.181	-0.133	0.204
-459.055	-143.719	0.240	0.023
-458.040	-33.098	0.120	0.066
-457.026	800.000	-0.053	0.222
-456.011	-120.993	-0.102	0.017
-454.997	-29.691	0.006	0.003
-453.982	-200.000	0.008	-0.245
-452.968	-197.639	0.273	0.002
-451.953	800.000	-0.063	-0.247
-450.938	-137.278	-0.402	0.045
-449.924	-22.253	-0.049	0.030
-448.909	-149.867	0.113	0.009
-447.895	448.369	0.061	0.134
-446.880	113.988	-0.189	0.229
-445.865	-76.013	-0.038	-0.013
-444.851	39.723	-0.343	0.306
-443.836	61.826	0.085	-0.084
-442.822	269.979	0.019	-0.034
-441.807	241.397	-0.061	-0.102
-440.792	-35.893	-0.041	0.022
-439.778	-125.575	0.127	-0.019
-438.763	-11.837	0.294	-0.192
-437.749	255.006	0.099	-0.168
-436.734	-94.962	-0.218	0.058
-435.719	267.958	-0.088	-0.153
-434.705	-200.000	-0.019	-0.224
-433.690	178.094	0.146	-0.211
-432.676	-48.116	0.084	-0.040
-431.661	-110.970	-0.140	-0.028
-430.646	257.815	0.017	0.028
-429.632	-92.664	0.121	-0.034
-428.617	89.371	-0.179	0.198
-427.603	383.841	0.056	0.115
-426.588	-34.156	0.167	-0.091
-425.573	-180.719	-0.102	0.002
-424.559	469.993	0.041	-0.092
-423.544	-200.000	-0.003	0.356
-422.530	-200.000	-0.003	-0.144
-421.515	-116.053	0.193	0.036
-420.500	48.136	-0.187	-0.174
-419.486	584.068	0.068	-0.166
-418.471	-11.626	-0.122	-0.079
-417.457	-91.022	-0.322	0.092
-416.442	256.385	0.145	0.248
-415.428	800.000	-0.078	0.238
-414.413	800.000	-0.027	0.107
-413.398	183.570	0.201	-0.295
-412.384	-200.000	0.055	0.298
-411.369	117.945	-0.070	0.086
-410.355	109.940	0.189	0.225
-409.340	-200.000	-0.065	0.338
-408.325	-105.817	0.138	0.031
-407.311	-23.073	-0.102	0.061
-406.296	-200.000	0.030	-0.270
-405.282	-78.239	-0.110	0.037
-404.267	800.000	-0.089	-0.253
-403.252	-71.355	-0.187	0.069
-402.238	-47.858	-0.203	-0.097
-401.223	378.901	-0.054	0.109
-400.209	-108.051	0.103	0.022
-399.194	800.000	0.142	0.421
-398.179	-168.898	0.190	-0.007
-397.165	353.793	0.031	0.061
-396.150	-200.000	-0.004	0.080
-395.136	800.000	0.029	0.106
-394.121	-143.923	0.070	-0.006
-393.106	-200.000	-0.001	0.072
-392.092	-80.266	0.268	0.089
-391.077	-127.094	-0.156	-0.023
-390.063	-91.464	-0.173	-0.049
-389.048	-21.258	0.127	-0.077
-388.033	11.380	-0.215	0.163
-387.019	800.000	-0.114	-0.383
-386.004	399.457	-0.038	0.078
-384.990	89.134	0.139	-0.153
-383.975	36.928	0.146	-0.128
-382.960	-200.000	-0.024	-0.113
-381.946	-88.668	0.361	0.106
-380.931	-102.582	0.157	0.037
-379.917	-200.000	-0.018	0.109
-378.902	800.000	0.043	0.167
-377.888	18.794	-0.305	-0.242
-376.873	19.014	0.136	0.108
-375.858	800.000	-0.038	-0.135
-374.844	282.948	0.112	0.199
-373.829	-200.000	0.024	-0.140
-372.815	416.752	0.032	0.067
-371.800	-200.000	-0.032	-0.212
-370.785	98.160	-0.105	0.120
-369.771	800.000	0.068	-0.293
-368.756	-79.418	0.175	0.059
-367.742	41.331	-0.066	-0.059
-366.727	-200.000	0.043	-0.307
-365.712	800.000	0.045	0.129
-364.698	-42.763	-0.214	-0.108
-363.683	-103.639	0.168	-0.039
-362.669	517.191	-0.119	-0.275
-361.654	800.000	-0.036	0.104
-360.639	-200.000	-0.024	0.156
-359.625	201.697	-0.226	0.345
-358.610	-99.825	0.310	-0.077
-357.596	142.263	-0.070	0.092
-356.581	570.379	-0.008	-0.020
-355.566	160.206	0.269	0.371
-354.552	625.872	-0.133	-0.331
-353.537	-104.962	0.222	0.050
-352.523	-200.000	0.057	0.340
-351.508	70.518	-0.245	0.251
-350.493	-183.816	-0.450	0.008
-349.479	-32.279	0.560	0.309
-348.464	-200.000	0.016	0.127
-347.450	-24.472	0.439	0.259
-346.435	522.666	0.041	0.096
-345.420	-200.000	0.048	0.358
-344.406	344.263	-0.068	-0.131
-343.391	157.789	0.114	0.156
-342.377	-100.177	-0.301	-0.074
-341.362	-0.679	-0.099	-0.069
-340.348	800.000	-0.058	-0.170
-339.333	-4.559	0.116	-0.079
-338.318	28.940	0.024	-0.020
-337.304	-176.037	-0.067	-0.002
-336.289	15.993	0.223	-0.174
-335.275	-200.000	0.058	-0.399
-334.260	408.175	-0.029	0.060
-333.245	-118.565	-0.460	-0.080
-332.231	360.582	0.085	-0.167
-331.216	-66.472	0.199	0.078
-330.202	474.611	0.026	-0.058
-329.187	-84.636	-0.204	0.064
-328.172	-105.189	0.052	-0.012
-327.158	326.904	0.048	-0.091
-326.143	287.075	-0.031	-0.056
-325.129	190.870	-0.031	0.045
-324.114	-200.000	-0.046	-0.260
-323.099	-200.000	0.016	0.163
-322.085	347.585	0.107	-0.209
-321.070	14.695	0.038	0.030
-320.056	45.786	-0.131	-0.120
-319.041	-55.042	0.207	-0.092
-318.026	-53.277	0.138	-0.063
-317.012	-174.938	-0.157	0.004
-315.997	-83.685	0.145	0.046
-314.983	53.451	-0.060	-0.057
-313.968	-74.584	-0.147	-0.052
-312.953	-119.947	-0.272	0.046
-311.939	-107.745	-0.220	-0.047
-310.924	-200.000	0.003	-0.277
-309.910	568.291	0.057	-0.137
-308.895	-200.000	0.006	0.407
-307.880	-50.691	-0.213	-0.099
-306.866	419.331	0.077	-0.162
-305.851	-120.437	-0.135	-0.023
-304.837	-63.095	0.067	0.027
-303.822	-73.702	0.288	0.104
-302.807	-200.000	0.005	-0.427
-301.793	372.480	0.153	0.307
-300.778	-200.000	0.061	0.477
-299.764	-76.203	0.264	0.092
-298.749	-58.073	-0.106	-0.046
-297.735	-88.981	0.277	0.081
-296.720	-41.777	0.311	-0.158
-295.705	18.143	0.034	0.027
-294.691	-200.000	0.008	0.163
-293.676	8.087	0.252	0.187
-292.662	97.900	0.095	0.108
-291.647	800.000	0.101	0.362
-290.632	-106.219	-0.142	0.031
-289.618	-166.225	-0.181	-0.008
-288.603	-184.780	-0.083	-0.001
-287.589	-24.199	-0.360	0.212
-286.574	556.094	0.054	0.129
-285.559	-75.161	0.244	0.086
-284.545	-37.278	0.074	-0.039
-283.530	-141.591	-0.230	-0.023
-282.516	-185.021	0.337	0.005
-281.501	120.964	-0.057	0.070
-280.486	-200.000	0.055	-0.397
-279.472	-48.680	0.148	-0.070
-278.457	24.384	-0.116	-0.095
-277.443	-148.692	-0.512	-0.041
-276.428	-195.087	0.193	-0.001
-275.413	39.139	-0.162	-0.143
-274.399	70.691	-0.130	0.133
-273.384	-200.000	-0.005	0.251
-272.370	-16.750	-0.388	0.242
-271.355	261.716	0.142	-0.243
-270.340	-70.879	-0.140	-0.052
-269.326	800.000	0.043	0.120
-268.311	-35.929	0.196	-0.105
-267.297	800.000	-0.064	0.198
-266.282	-77.816	-0.077	-0.026
-265.267	-96.289	0.209	0.055
-264.253	47.099	-0.144	-0.132
-263.238	-7.816	0.146	0.097
-262.224	800.000	-0.044	0.178
-261.209	-59.798	0.209	-0.088
-260.195	-147.674	0.442	-0.037
-259.180	-200.000	-0.067	-0.466
-258.165	167.808	0.139	0.195
-257.151	800.000	0.070	-0.238
-256.136	123.345	0.079	-0.097
-255.122	53.695	-0.259	0.245
-254.107	-200.000	-0.017	0.125
-253.092	-200.000	0.001	-0.230
-252.078	-200.000	0.070	-0.341
-251.063	-148.724	0.278	0.022
-250.049	13.305	-0.057	-0.043
-249.034	313.365	0.128	0.236
-248.019	-200.000	-0.001	0.245
-247.005	335.289	0.129	-0.247
-245.990	-87.604	-0.196	0.058
-244.976	105.961	0.068	0.079
-243.961	-70.241	0.250	0.094
-242.946	114.961	-0.189	-0.227
-241.932	-72.073	0.354	-0.130
-240.917	-100.737	0.126	0.031
-239.903	247.775	0.100	-0.166
-238.888	-136.422	-0.158	0.018
-237.873	151.127	-0.070	0.094
-236.859	-122.653	0.076	0.012
-235.844	183.351	0.264	0.385
-234.830	-51.323	0.229	-0.106
-233.815	315.803	-0.086	-0.160
-232.800	-200.000	0.029	-0.208
-231.786	-115.747	0.137	-0.025
-230.771	-37.133	0.238	-0.125
-229.757	-100.311	0.091	-0.022
-228.742	-43.308	-0.250	-0.124
-227.727	-35.078	0.198	-0.106
-226.713	-97.884	-0.170	-0.043
-225.698	-143.406	-0.110	-0.010
-224.684	-139.590	0.143	-0.015
-223.669	-117.905	0.039	0.007
-222.655	-82.793	0.173	-0.055
-221.640	-200.000	0.030	0.403
-220.625	-125.989	-0.114	0.017
-219.611	800.000	0.064	0.192
-218.596	-200.000	0.001	0.081
-217.582	-200.000	0.030	0.147
-216.567	-89.636	0.151	0.044
-215.552	23.784	-0.113	0.091
-214.538	40.021	0.031	-0.027
-213.523	-85.006	0.135	-0.041
-212.509	800.000	0.080	-0.281
-211.494	536.683	-0.037	-0.086
-210.479	-200.000	0.015	0.073
-209.465	-200.000	-0.005	0.024
-208.450	-22.600	-0.062	-0.037
-207.436	-44.882	-0.188	0.092
-206.421	-29.120	-0.293	-0.165
-205.406	-74.949	0.234	0.082
-204.392	38.262	0.230	-0.201
-203.377	119.148	-0.097	0.118
-202.363	-83.347	-0.158	0.050
-201.348	61.621	0.071	-0.070
-200.333	-200.000	0.022	0.282
-199.319	800.000	-0.013	0.048
-198.304	-91.394	0.216	0.061
-197.290	-147.674	0.299	0.025
-196.275	374.547	-0.146	-0.293
-195.260	-68.717	0.288	0.109
-194.246	-200.000	-0.053	0.248
-193.231	-200.000	0.023	0.164
-192.217	548.007	0.095	-0.223
-191.202	31.166	-0.253	-0.214
-190.187	15.487	0.136	0.105
-189.173	-102.301	-0.182	-0.043
-188.158	465.888	-0.026	-0.056
-187.144	339.745	0.100	-0.192
-186.129	24.164	0.113	-0.092
-185.114	-55.010	0.090	0.040
-184.100	-117.390	-0.297	-0.053
-183.085	-200.000	-0.029	0.165
-182.071	126.284	-0.120	0.149
-181.056	-145.939	-0.168	-0.015
-180.042	-114.109	0.317	0.060
-179.027	-200.000	0.027	-0.283
-178.012	-119.902	-0.236	0.040
-176.998	220.595	0.186	0.293
-175.983	-92.936	-0.396	0.109
-174.969	-139.562	-0.167	0.018
-173.954	-98.617	-0.154	0.039
-172.939	11.317	0.085	-0.064
-171.925	263.212	-0.035	0.060
-170.910	-65.747	-0.059	-0.023
-169.896	370.302	0.105	0.210
-168.881	510.304	-0.098	-0.225
-167.866	270.873	-0.079	-0.137
-166.852	-56.118	0.136	-0.059
-165.837	-37.998	0.170	0.089
-164.823	-2.858	-0.082	0.056
-163.808	800.000	-0.138	0.483
-162.793	-151.536	0.278	0.020
-161.779	800.000	0.023	0.090
-160.764	800.000	-0.025	-0.094
-159.750	-46.894	-0.318	0.153
-158.735	800.000	0.196	-0.592
-157.720	-74.100	-0.068	-0.024
-156.706	293.418	-0.126	-0.225
-155.691	-110.685	-0.208	0.042
-154.677	-200.000	0.036	-0.155
-153.662	-53.167	0.120	0.054
-152.647	-6.317	-0.160	-0.107
-151.633	-115.029	-0.158	0.030
-150.618	176.810	0.120	0.172
-149.604	-200.000	-0.044	0.249
-148.589	39.609	-0.181	-0.159
-147.574	-22.403	0.146	-0.087
-146.560	-200.000	-0.051	0.383
-145.545	-53.027	-0.146	0.066
-144.531	133.269	-0.115	0.146
-143.516	-120.860	0.073	-0.012
-142.502	-111.388	-0.314	-0.063
-141.487	46.050	-0.341	0.310
-140.472	-200.000	0.023	-0.326
-139.458	-200.000	0.042	-0.412
-138.443	-137.139	-0.224	-0.025
-137.429	524.068	-0.095	-0.218
-136.414	-129.051	0.090	-0.012
-135.399	7.717	0.141	-0.104
-134.385	155.617	0.058	0.078
-133.370	182.656	-0.188	0.272
-132.356	-96.034	-0.122	0.032
-131.341	800.000	-0.017	-0.067
-130.326	800.000	0.060	0.227
-129.312	112.789	-0.164	0.195
-128.297	388.348	-0.106	0.215
-127.283	364.513	-0.092	0.181
-126.268	-200.000	0.005	0.092
-125.253	128.136	0.133	-0.166
-124.239	-200.000	0.024	-0.273
-123.224	555.908	-0.069	0.162
-122.210	-200.000	-0.000	0.191
