DTS Sentinel unit serial number:	SN413079Multiplexer serial number:	ORYXHardware model number:	OX4-SRSoftware version number:	ORYX F/W v4.00 Oryx Data Collector v3.7.2.0data status	okinstallation	princeton_trtdifferential loss correction	single-endedforward channel	channel 3reverse channel	N/Adate	2019/09/15time	19:36:35forward acquisition time	60.00reverse acquisition time	0.00gamma	496.2192k internal	0.2303k external	0.2303temperature offset calibration	0.9936default loss term (dB/km)	0.3790temperature slope calibration	1.0000multiplexer offset coefficient	1.0000multiplexer slope coefficient	1.0000fibre end	0.00T internal ref (°C)	38.00T ext. ref 1 (°C)	7.34T ext. ref 2 (°C)	27.85length (m)	temperature (°C)	Stokes	anti-Stokes-747.200	485.592	-0.134	0.311
-746.185	-200.000	-0.059	0.358
-745.171	263.362	0.082	0.144
-744.156	800.000	0.059	0.256
-743.142	-200.000	0.035	0.188
-742.127	-123.214	0.400	0.065
-741.112	204.149	0.084	0.132
-740.098	259.318	0.153	0.269
-739.083	745.744	0.153	0.420
-738.069	210.373	0.178	0.285
-737.054	-25.492	0.181	-0.109
-736.039	69.292	0.304	-0.319
-735.025	-73.299	0.397	-0.148
-734.010	-35.453	-0.293	-0.162
-732.996	-155.828	-0.522	0.034
-731.981	-75.080	-0.150	-0.055
-730.966	-18.509	-0.145	0.092
-729.952	66.430	-0.060	-0.062
-728.937	-61.092	-0.299	-0.128
-727.923	128.477	-0.151	-0.196
-726.908	-200.000	0.017	-0.357
-725.894	-45.605	-0.319	-0.161
-724.879	248.543	0.102	-0.177
-723.864	102.505	-0.365	0.434
-722.850	256.965	0.058	0.102
-721.835	39.019	0.290	-0.264
-720.821	57.680	0.227	0.226
-719.806	-200.000	0.005	-0.272
-718.791	-78.625	-0.114	0.040
-717.777	-53.517	-0.152	-0.071
-716.762	558.973	0.111	-0.273
-715.748	156.282	-0.131	0.185
-714.733	95.991	-0.223	-0.259
-713.718	-149.577	-0.130	-0.010
-712.704	-106.567	-0.226	0.051
-711.689	419.632	-0.085	-0.186
-710.675	-90.229	-0.227	-0.067
-709.660	-169.360	-0.125	-0.005
-708.645	115.203	0.314	0.390
-707.631	25.694	0.219	0.186
-706.616	17.829	0.238	-0.193
-705.602	-130.880	-0.263	-0.036
-704.587	-200.000	0.052	0.248
-703.572	265.755	-0.077	0.137
-702.558	-200.000	-0.002	-0.030
-701.543	-129.535	0.307	0.043
-700.529	-200.000	0.008	0.091
-699.514	264.512	-0.097	-0.172
-698.499	800.000	-0.048	0.149
-697.485	231.511	-0.179	-0.298
-696.470	800.000	-0.070	-0.209
-695.456	21.039	0.319	0.263
-694.441	800.000	-0.084	0.247
-693.426	-102.917	0.204	-0.049
-692.412	173.385	-0.227	-0.332
-691.397	182.705	-0.156	-0.235
-690.383	-122.426	0.040	0.007
-689.368	-94.167	-0.231	-0.064
-688.354	463.558	-0.077	0.174
-687.339	5.994	0.200	0.151
-686.324	76.909	0.065	0.070
-685.310	190.724	0.123	0.188
-684.295	498.461	0.077	-0.181
-683.281	-47.286	0.155	-0.077
-682.266	392.698	-0.015	-0.031
-681.251	-155.520	0.218	-0.014
-680.237	634.459	-0.048	-0.123
-679.222	357.243	0.035	-0.071
-678.208	1.691	0.422	-0.309
-677.193	238.816	-0.188	0.317
-676.178	800.000	0.076	0.338
-675.164	157.976	0.258	-0.364
-674.149	-200.000	-0.047	-0.251
-673.135	-119.196	-0.074	0.013
-672.120	3.540	0.150	-0.111
-671.105	85.448	0.031	-0.034
-670.091	800.000	0.034	-0.121
-669.076	53.976	0.195	0.191
-668.062	134.359	-0.186	-0.246
-667.047	329.842	0.067	0.131
-666.032	-155.027	0.206	-0.014
-665.018	-200.000	-0.022	-0.114
-664.003	-15.577	-0.249	0.162
-662.989	-107.425	0.215	0.048
-661.974	586.977	0.043	0.107
-660.959	-72.784	-0.114	0.042
-659.945	-200.000	0.170	-0.000
-658.930	-200.000	0.036	0.170
-657.916	-200.000	0.029	0.209
-656.901	345.132	-0.007	0.013
-655.886	-200.000	0.022	-0.106
-654.872	800.000	-0.051	0.189
-653.857	143.173	-0.101	0.137
-652.843	135.684	0.131	0.173
-651.828	290.299	0.116	0.214
-650.814	24.240	0.219	-0.183
-649.799	-18.616	0.159	-0.101
-648.784	-50.072	0.169	0.081
-647.770	-144.850	-0.347	-0.032
-646.755	97.856	0.128	0.149
-645.741	87.997	-0.110	-0.124
-644.726	123.017	-0.245	-0.312
-643.711	-200.000	-0.015	-0.154
-642.697	-158.470	0.373	0.022
-641.682	5.179	-0.094	0.070
-640.668	-200.000	-0.047	-0.270
-639.653	433.568	0.126	-0.278
-638.638	-200.000	0.001	-0.424
-637.624	2.196	-0.104	-0.076
-636.609	800.000	-0.054	-0.153
-635.595	125.683	-0.197	0.252
-634.580	-56.952	0.087	0.039
-633.565	101.332	0.220	0.260
-632.551	-96.011	-0.230	-0.062
-631.536	800.000	-0.072	-0.276
-630.522	-200.000	0.011	-0.064
-629.507	-200.000	0.040	0.290
-628.492	-98.010	0.269	0.070
-627.478	800.000	-0.035	0.146
-626.463	-50.375	-0.079	0.038
-625.449	163.845	-0.056	-0.080
-624.434	-31.401	-0.074	-0.042
-623.419	40.531	-0.234	0.213
-622.405	-102.105	-0.205	0.050
-621.390	-115.263	-0.044	0.009
-620.376	14.263	0.277	0.219
-619.361	800.000	-0.136	-0.416
-618.346	567.535	0.046	-0.114
-617.332	-122.460	-0.047	-0.008
-616.317	-200.000	0.033	0.158
-615.303	-40.609	0.461	-0.242
-614.288	-119.691	0.160	-0.028
-613.273	482.244	0.121	0.280
-612.259	-200.000	0.007	0.045
-611.244	800.000	0.036	-0.133
-610.230	-44.480	0.122	0.062
-609.215	-148.533	0.202	0.017
-608.201	-143.408	-0.091	0.009
-607.186	-144.250	-0.272	0.026
-606.171	51.989	-0.258	0.249
-605.157	126.646	0.175	0.224
-604.142	800.000	0.078	0.239
-603.128	-52.445	-0.102	0.048
-602.113	-137.658	0.378	0.043
-601.098	108.207	-0.180	0.218
-600.084	800.000	0.039	-0.136
-599.069	800.000	-0.079	-0.232
-598.055	-171.943	-0.137	-0.005
-597.040	800.000	0.031	-0.097
-596.025	-136.426	-0.327	-0.038
-595.011	-2.467	0.122	0.086
-593.996	-200.000	0.017	0.104
-592.982	-137.267	0.272	-0.031
-591.967	-31.545	-0.034	0.019
-590.952	-9.624	-0.055	-0.037
-589.938	-12.712	-0.084	0.056
-588.923	-200.000	-0.010	0.175
-587.909	149.510	-0.186	0.255
-586.894	-53.337	0.180	-0.083
-585.879	203.588	0.047	0.074
-584.865	-32.413	0.205	-0.116
-583.850	192.476	-0.100	0.153
-582.836	-69.830	0.194	0.075
-581.821	-125.169	-0.200	-0.031
-580.806	-36.666	-0.145	-0.079
-579.792	-25.571	-0.240	-0.143
-578.777	-105.869	0.230	-0.052
-577.763	-200.000	-0.049	0.242
-576.748	-175.116	-0.208	-0.006
-575.733	15.373	0.076	-0.061
-574.719	185.666	0.149	-0.224
-573.704	145.786	-0.174	0.235
-572.690	39.188	-0.100	0.090
-571.675	800.000	-0.117	-0.420
-570.661	38.082	-0.203	-0.183
-569.646	85.884	0.239	-0.266
-568.631	-200.000	-0.005	-0.138
-567.617	433.253	0.052	-0.115
-566.602	-200.000	0.026	-0.160
-565.588	-200.000	-0.018	0.200
-564.573	800.000	0.115	0.337
-563.558	-200.000	0.009	0.048
-562.544	-200.000	0.025	-0.280
-561.529	-140.550	-0.109	-0.011
-560.515	36.887	0.016	0.014
-559.500	150.856	-0.169	0.232
-558.485	-200.000	0.030	0.151
-557.471	800.000	-0.115	-0.346
-556.456	-200.000	0.080	0.371
-555.442	-36.732	0.234	-0.127
-554.427	-17.914	-0.127	0.080
-553.412	-200.000	0.006	0.055
-552.398	154.169	0.177	0.246
-551.383	-31.301	-0.114	-0.065
-550.369	186.331	-0.062	-0.094
-549.354	114.587	0.086	0.106
-548.339	-112.387	-0.349	-0.071
-547.325	-200.000	0.089	0.517
-546.310	-200.000	0.003	-0.329
-545.296	-155.175	-0.230	0.015
-544.281	-62.902	0.168	0.070
-543.266	-182.428	0.131	0.002
-542.252	-121.358	0.072	0.012
-541.237	12.258	0.118	-0.092
-540.223	-69.340	0.387	0.150
-539.208	-69.406	0.323	-0.125
-538.193	-200.000	-0.055	0.502
-537.179	-107.224	-0.400	-0.089
-536.164	268.907	0.134	-0.237
-535.150	-200.000	0.000	-0.204
-534.135	573.705	-0.073	0.179
-533.121	215.378	-0.277	0.443
-532.106	92.201	0.198	-0.225
-531.091	-52.809	0.077	-0.036
-530.077	800.000	-0.020	0.079
-529.062	-200.000	0.084	0.559
-528.048	103.084	-0.216	-0.256
-527.033	800.000	0.018	0.062
-526.018	-39.263	-0.168	-0.089
-525.004	-86.868	0.323	-0.100
-523.989	112.976	-0.031	-0.038
-522.975	361.295	0.069	-0.140
-521.960	-189.323	-0.069	0.001
-520.945	-200.000	0.068	0.306
-519.931	53.209	-0.179	0.173
-518.916	-40.493	-0.087	-0.046
-517.902	-112.134	-0.312	-0.063
-516.887	-200.000	0.063	-0.391
-515.872	27.278	-0.104	-0.088
-514.858	800.000	0.056	0.179
-513.843	109.127	-0.166	0.200
-512.829	800.000	0.025	0.098
-511.814	-28.664	0.244	0.142
-510.799	-200.000	0.020	-0.131
-509.785	-148.233	-0.156	0.013
-508.770	176.964	-0.145	-0.213
-507.756	-51.469	-0.149	0.070
-506.741	377.548	0.050	-0.104
-505.726	620.367	-0.082	-0.207
-504.712	-200.000	-0.008	-0.385
-503.697	-101.692	0.027	0.007
-502.683	-200.000	0.009	-0.119
-501.668	800.000	0.029	0.083
-500.653	-200.000	-0.003	-0.148
-499.639	-200.000	0.235	0.001
-498.624	172.123	-0.144	0.209
-497.610	-123.648	-0.392	-0.063
-496.595	-72.410	-0.317	0.118
-495.581	606.146	-0.040	-0.101
-494.566	-63.296	0.198	-0.082
-493.551	-127.378	-0.249	0.037
-492.537	-147.599	-0.189	-0.016
-491.522	47.711	-0.148	0.139
-490.508	662.570	0.130	-0.339
-489.493	338.908	-0.112	-0.219
-488.478	84.614	0.118	-0.130
-487.464	-200.000	0.018	-0.261
-486.449	-92.910	0.170	-0.048
-485.435	-83.045	-0.301	-0.098
-484.420	189.461	-0.273	-0.413
-483.405	786.413	-0.081	-0.224
-482.391	756.213	0.073	-0.198
-481.376	-71.317	-0.087	0.033
-480.362	215.938	0.208	0.333
-479.347	88.828	-0.015	-0.017
-478.332	59.763	0.151	0.150
-477.318	800.000	-0.085	0.243
-476.303	16.504	-0.349	-0.278
-475.289	800.000	-0.047	-0.157
-474.274	176.201	0.057	0.083
-473.259	47.652	0.252	0.237
-472.245	-69.074	0.175	0.068
-471.230	-128.099	0.381	-0.055
-470.216	800.000	0.088	0.364
-469.201	58.173	-0.234	-0.231
-468.186	-81.916	0.070	-0.023
-467.172	-157.625	-0.235	0.014
-466.157	48.841	-0.171	0.162
-465.143	-43.097	0.118	0.060
-464.128	23.333	-0.189	-0.156
-463.113	-181.304	-0.324	-0.006
-462.099	-73.632	-0.361	0.132
-461.084	335.273	-0.128	-0.250
-460.070	435.488	-0.103	-0.225
-459.055	-174.275	0.038	-0.001
-458.040	-200.000	0.006	-0.107
-457.026	76.776	-0.126	0.134
-456.011	11.758	0.011	-0.009
-454.997	60.806	0.171	0.171
-453.982	124.206	-0.186	0.236
-452.968	-55.076	0.048	0.022
-451.953	-29.618	0.112	-0.064
-450.938	797.417	0.015	0.043
-449.924	-79.030	0.266	-0.091
-448.909	237.307	0.097	0.163
-447.895	179.935	-0.242	0.357
-446.880	63.984	-0.277	-0.280
-445.865	-107.036	-0.260	0.058
-444.851	154.514	-0.039	-0.054
-443.836	-23.722	-0.176	-0.106
-442.822	-9.742	-0.182	-0.122
-441.807	7.042	-0.235	0.177
-440.792	69.299	0.123	0.127
-439.778	6.225	-0.068	0.051
-438.763	-43.420	-0.085	-0.043
-437.749	-120.188	-0.370	-0.064
-436.734	278.588	-0.057	-0.103
-435.719	1.567	0.207	0.150
-434.705	-192.883	-0.187	-0.002
-433.690	131.741	0.184	-0.238
-432.676	-200.000	0.051	0.326
-431.661	-110.875	0.360	0.075
-430.646	661.959	-0.140	0.363
-429.632	-200.000	0.005	0.142
-428.617	-102.958	-0.239	0.057
-427.603	-200.000	-0.030	-0.300
-426.588	-200.000	0.032	0.335
-425.573	-200.000	0.014	0.378
-424.559	329.702	-0.011	-0.021
-423.544	800.000	0.039	-0.123
-422.530	-168.662	0.181	0.007
-421.515	-126.504	-0.360	-0.054
-420.500	800.000	0.161	0.569
-419.486	800.000	-0.032	0.089
-418.471	158.631	-0.069	-0.096
-417.457	-200.000	-0.009	0.142
-416.442	-24.726	0.191	-0.114
-415.428	800.000	0.051	0.162
-414.413	-200.000	0.003	-0.387
-413.398	-200.000	-0.021	-0.152
-412.384	800.000	0.086	-0.265
-411.369	-78.142	0.176	-0.061
-410.355	339.281	0.144	-0.282
-409.340	31.717	-0.022	0.019
-408.325	-200.000	-0.032	0.170
-407.311	75.049	-0.130	-0.138
-406.296	661.274	-0.034	0.087
-405.282	800.000	-0.053	-0.146
-404.267	-200.000	0.010	0.048
-403.252	253.188	-0.084	0.144
-402.238	-128.192	0.077	0.011
-401.223	-80.902	0.232	0.077
-400.209	724.656	-0.059	-0.158
-399.194	221.046	-0.229	-0.370
-398.179	800.000	0.074	-0.234
-397.165	-38.349	0.248	0.132
-396.150	327.236	0.327	0.630
-395.136	-20.585	-0.076	-0.047
-394.121	800.000	-0.100	0.352
-393.106	800.000	0.056	-0.201
-392.092	-7.055	-0.174	-0.119
-391.077	-95.187	-0.095	-0.026
-390.063	-132.128	-0.121	-0.016
-389.048	15.588	0.396	0.312
-388.033	-200.000	0.001	0.125
-387.019	-149.556	0.234	0.019
-386.004	293.984	0.201	0.368
-384.990	-118.558	-0.126	0.022
-383.975	-66.048	0.016	-0.007
-382.960	800.000	0.139	0.560
-381.946	-200.000	-0.023	0.325
-380.931	-122.046	-0.274	0.045
-379.917	-43.724	0.087	0.044
-378.902	-185.091	0.184	-0.003
-377.888	55.501	0.066	0.064
-376.873	-200.000	-0.005	0.036
-375.858	-162.360	-0.150	-0.007
-374.844	252.387	-0.008	0.014
-373.829	113.423	-0.136	-0.166
-372.815	209.306	-0.062	0.097
-371.800	-124.576	-0.115	0.018
-370.785	-3.864	0.306	-0.213
-369.771	-200.000	0.007	-0.212
-368.756	-134.484	0.254	0.031
-367.742	176.561	0.070	0.103
-366.727	-56.574	-0.049	0.022
-365.712	800.000	-0.036	0.133
-364.698	800.000	-0.062	0.211
-363.683	-71.467	-0.019	-0.007
-362.669	-37.944	-0.106	-0.056
-361.654	-11.768	-0.160	-0.106
-360.639	336.191	0.044	0.086
-359.625	800.000	0.118	-0.347
-358.610	-10.866	0.184	-0.122
-357.596	381.401	-0.055	-0.114
-356.581	800.000	0.096	-0.293
-355.566	-14.218	0.221	-0.143
-354.552	7.302	-0.318	0.238
-353.537	-200.000	-0.027	-0.244
-352.523	-29.214	-0.099	0.057
-351.508	-95.145	0.587	0.159
-350.493	430.192	-0.094	-0.205
-349.479	-67.959	-0.149	-0.058
-348.464	37.333	0.049	0.044
-347.450	-200.000	-0.014	0.305
-346.435	51.983	-0.304	0.291
-345.420	326.104	0.053	-0.101
-344.406	111.557	-0.100	0.122
-343.391	-142.896	-0.142	-0.014
-342.377	-200.000	-0.009	-0.094
-341.362	-76.711	-0.069	-0.024
-340.348	307.407	0.064	0.120
-339.333	124.795	0.078	0.098
-338.318	5.450	-0.093	0.069
-337.304	-109.572	-0.124	-0.026
-336.289	507.828	0.099	0.231
-335.275	-74.299	-0.158	0.057
-334.260	-69.160	-0.298	-0.115
-333.245	-50.224	0.008	0.004
-332.231	290.374	0.052	0.094
-331.216	-200.000	0.012	0.568
-330.202	800.000	0.044	-0.153
-329.187	800.000	0.058	-0.186
-328.172	555.789	-0.103	0.248
-327.158	79.828	-0.121	0.130
-326.143	51.976	0.104	0.100
-325.129	11.464	0.128	-0.098
-324.114	-200.000	0.003	-0.109
-323.099	48.338	0.195	0.183
-322.085	-0.261	0.262	-0.187
-321.070	-200.000	-0.018	-0.270
-320.056	371.430	-0.151	-0.307
-319.041	4.343	0.188	-0.138
-318.026	-58.326	0.183	-0.080
-317.012	800.000	0.046	-0.165
-315.997	48.363	-0.066	0.062
-314.983	105.018	0.279	-0.329
-313.968	15.566	-0.102	0.080
-312.953	-33.678	0.054	-0.030
-311.939	-52.535	-0.145	0.067
-310.924	-172.546	0.143	0.005
-309.910	-50.619	0.195	-0.092
-308.895	-93.560	-0.128	0.036
-307.880	115.034	0.060	-0.073
-306.866	-29.102	0.263	0.151
-305.851	-54.374	-0.172	0.078
-304.837	-11.447	0.184	0.121
-303.822	252.331	-0.102	-0.174
-302.807	37.170	0.182	-0.162
-301.793	87.369	0.240	0.265
-300.778	74.749	0.024	-0.025
-299.764	-78.366	0.148	0.051
-298.749	94.029	-0.350	0.397
-297.735	396.508	0.104	0.217
-296.720	27.139	-0.060	0.050
-295.705	156.392	0.209	0.289
-294.691	79.382	-0.112	0.120
-293.676	-156.617	0.293	-0.018
-292.662	424.117	-0.076	0.164
-291.647	-61.738	-0.250	-0.105
-290.632	10.834	0.201	0.154
-289.618	134.365	0.130	-0.169
-288.603	161.531	0.219	0.306
-287.589	-16.895	-0.120	-0.076
-286.574	-38.467	-0.292	0.154
-285.559	-80.430	0.166	0.055
-284.545	-200.000	0.006	-0.226
-283.530	-79.621	-0.235	-0.079
-282.516	-200.000	0.007	0.160
-281.501	-74.062	-0.307	0.111
-280.486	-63.796	-0.118	0.048
-279.472	-53.480	-0.310	0.142
-278.457	185.459	0.153	-0.227
-277.443	800.000	-0.108	-0.341
-276.428	35.615	-0.095	-0.083
-275.413	-35.664	-0.276	0.150
-274.399	-97.551	0.053	-0.014
-273.384	-200.000	0.271	-0.001
-272.370	-200.000	0.011	0.051
-271.355	-200.000	-0.017	-0.217
-270.340	-165.270	0.136	0.006
-269.326	303.110	0.143	-0.265
-268.311	-88.283	0.122	-0.037
-267.297	-200.000	-0.024	-0.114
-266.282	-200.000	-0.047	0.283
-265.267	130.688	-0.122	0.156
-264.253	-200.000	-0.002	-0.132
-263.238	-117.368	-0.170	0.031
-262.224	-10.700	0.140	0.092
-261.209	-101.810	0.292	0.071
-260.195	177.674	-0.243	-0.354
-259.180	-200.000	0.028	0.126
-258.165	800.000	-0.049	-0.187
-257.151	-115.221	0.025	-0.005
-256.136	82.248	-0.068	0.074
-255.122	3.413	-0.223	0.162
-254.107	309.161	-0.024	0.045
-253.092	-200.000	0.024	-0.525
-252.078	-36.061	0.078	0.042
-251.063	143.995	-0.067	0.089
-250.049	-200.000	-0.004	-0.201
-249.034	107.224	0.060	0.071
-248.019	354.165	0.023	0.046
-247.005	-144.971	0.306	-0.028
-245.990	-29.544	-0.149	0.085
-244.976	24.821	-0.096	-0.080
-243.961	-167.265	-0.186	0.007
-242.946	-124.463	-0.199	-0.031
-241.932	-200.000	-0.016	-0.073
-240.917	0.064	0.117	-0.084
-239.903	81.884	-0.335	-0.362
-238.888	186.157	0.081	0.120
-237.873	486.706	-0.129	-0.295
-236.859	144.267	-0.217	0.289
-235.844	-55.224	0.293	-0.132
-234.830	-95.626	0.155	0.041
-233.815	-200.000	0.074	-0.454
-232.800	278.833	0.078	-0.139
-231.786	-52.501	0.180	-0.083
-230.771	237.700	0.157	0.260
-229.757	274.858	0.113	-0.199
-228.742	800.000	0.061	0.175
-227.727	800.000	-0.076	0.222
-226.713	-76.306	0.103	0.036
-225.698	-85.867	-0.147	-0.045
-224.684	-57.299	-0.095	-0.042
-223.669	142.107	0.096	0.127
-222.655	-50.760	0.065	-0.031
-221.640	484.037	0.054	-0.123
-220.625	33.626	-0.084	0.073
-219.611	800.000	0.041	-0.117
-218.596	-44.924	0.174	-0.087
-217.582	91.912	0.080	0.090
-216.567	800.000	-0.077	0.270
-215.552	-41.064	-0.062	-0.032
-214.538	-200.000	0.006	-0.178
-213.523	68.610	-0.236	-0.241
-212.509	-200.000	0.021	-0.112
-211.494	-66.652	-0.211	-0.083
-210.479	-78.454	0.169	-0.058
-209.465	-200.000	0.060	0.346
-208.450	165.312	0.151	0.212
-207.436	-199.969	0.105	0.001
-206.421	-88.098	0.363	-0.108
-205.406	-65.040	0.139	0.056
-204.392	394.238	0.126	-0.262
-203.377	36.377	-0.081	0.071
-202.363	-200.000	0.023	-0.161
-201.348	-81.979	0.130	0.042
-200.333	40.347	0.123	0.110
-199.319	317.959	0.094	-0.177
-198.304	-46.120	0.296	0.145
-197.290	-114.737	-0.393	0.075
-196.275	-49.285	0.176	0.084
-195.260	-137.088	0.120	-0.014
-194.246	-108.651	-0.231	0.049
-193.231	800.000	0.012	-0.040
-192.217	122.115	0.283	0.352
-191.202	-146.280	0.113	0.010
-190.187	584.444	-0.073	-0.178
-189.173	-200.000	0.030	0.151
-188.158	-121.678	-0.293	-0.048
-187.144	41.245	0.190	0.171
-186.129	-139.662	-0.497	0.053
-185.114	-37.075	0.060	0.032
-184.100	431.299	-0.070	-0.150
-183.085	800.000	0.011	0.034
-182.071	33.025	-0.117	0.101
-181.056	800.000	0.073	-0.241
-180.042	-35.566	0.112	0.060
-179.027	-112.538	-0.207	-0.041
-178.012	-102.371	0.043	-0.010
-176.998	772.373	0.018	-0.049
-175.983	-94.914	0.066	-0.018
-174.969	-111.401	0.353	0.072
-173.954	-104.408	-0.089	-0.021
-172.939	17.847	-0.188	-0.149
-171.925	412.453	0.177	-0.375
-170.910	-36.301	0.260	0.140
-169.896	-200.000	0.039	-0.236
-168.881	9.815	-0.098	0.074
-167.866	317.594	0.061	-0.115
-166.852	624.449	0.127	-0.318
-165.837	114.502	-0.204	-0.247
-164.823	-140.800	0.164	-0.017
-163.808	-98.989	0.132	-0.033
-162.793	138.753	-0.130	0.170
-161.779	-53.641	0.141	0.064
-160.764	-20.439	-0.304	0.186
-159.750	-200.000	-0.045	-0.483
-158.735	-104.516	-0.191	0.044
-157.720	-136.692	-0.193	-0.022
-156.706	-101.255	0.378	-0.092
-155.691	800.000	-0.068	0.262
-154.677	-84.325	0.228	0.072
-153.662	31.405	0.228	-0.195
-152.647	-116.127	0.403	-0.075
-151.633	-33.849	0.109	-0.060
-150.618	21.166	0.183	0.147
-149.604	800.000	0.104	0.352
-148.589	96.088	0.167	0.190
-147.574	-7.037	-0.058	-0.039
-146.560	402.209	-0.103	-0.215
-145.545	-200.000	0.019	-0.176
-144.531	-200.000	-0.009	0.214
-143.516	-200.000	0.009	-0.147
-142.502	-200.000	0.017	-0.324
-141.487	-200.000	-0.014	-0.077
-140.472	113.914	-0.111	0.135
-139.458	-178.774	0.147	-0.003
-138.443	-200.000	-0.012	0.286
-137.429	-44.035	0.172	0.086
-136.414	-20.760	0.132	-0.080
-135.399	-119.221	-0.083	0.014
-134.385	-113.769	0.433	-0.084
-133.370	-200.000	0.005	-0.058
-132.356	-76.233	-0.113	0.040
-131.341	73.613	-0.099	-0.104
-130.326	-200.000	0.039	0.276
-129.312	-200.000	0.002	0.072
-128.297	96.657	0.113	-0.128
-127.283	-151.573	-0.090	-0.007
-126.268	3.125	-0.110	0.080
-125.253	-200.000	-0.005	-0.038
-124.239	-136.260	0.130	-0.015
-123.224	564.564	0.178	0.429
-122.210	451.383	0.013	0.029
-121.195	153.544	0.032	-0.043
