DTS Sentinel unit serial number:	SN413079Multiplexer serial number:	ORYXHardware model number:	OX4-SRSoftware version number:	ORYX F/W v4.00 Oryx Data Collector v3.7.2.0data status	okinstallation	princeton_trtdifferential loss correction	single-endedforward channel	channel 3reverse channel	N/Adate	2019/09/12time	17:10:10forward acquisition time	60.00reverse acquisition time	0.00gamma	496.2192k internal	0.2313k external	0.2313temperature offset calibration	1.0081default loss term (dB/km)	0.3790temperature slope calibration	1.0000multiplexer offset coefficient	1.0000multiplexer slope coefficient	1.0000fibre end	0.00T internal ref (°C)	35.33T ext. ref 1 (°C)	2.76T ext. ref 2 (°C)	28.79length (m)	temperature (°C)	Stokes	anti-Stokes-747.200	736.678	-0.019	0.052
-746.185	20.721	-0.122	0.100
-745.171	-200.000	-0.023	0.179
-744.156	-25.589	-0.309	0.185
-743.142	88.432	-0.147	-0.166
-742.127	-200.000	-0.037	0.223
-741.112	-61.248	0.170	-0.073
-740.098	21.029	0.107	0.088
-739.083	-200.000	-0.010	0.094
-738.069	-200.000	-0.024	0.151
-737.054	19.164	0.136	0.111
-736.039	191.037	-0.115	0.176
-735.025	-200.000	-0.018	0.105
-734.010	-148.751	-0.209	0.017
-732.996	284.518	0.058	0.107
-731.981	-92.300	0.144	0.041
-730.966	-88.078	0.021	-0.006
-729.952	-68.696	0.058	0.023
-728.937	-90.980	-0.454	-0.132
-727.923	-137.088	0.179	0.021
-726.908	-56.584	0.092	0.041
-725.894	-75.928	-0.252	-0.090
-724.879	-200.000	0.021	0.372
-723.864	-47.913	-0.168	0.083
-722.850	176.699	-0.190	0.280
-721.835	44.855	0.117	0.110
-720.821	800.000	0.066	-0.248
-719.806	-136.689	-0.241	0.028
-718.791	-122.942	-0.394	0.064
-717.777	443.422	-0.186	-0.414
-716.762	-28.468	-0.108	0.063
-715.748	568.475	-0.022	0.054
-714.733	-7.437	0.172	-0.118
-713.718	800.000	0.079	0.337
-712.704	22.736	-0.076	-0.063
-711.689	56.604	-0.106	0.104
-710.675	276.781	0.049	0.088
-709.660	-200.000	0.038	0.339
-708.645	428.230	-0.097	-0.213
-707.631	800.000	-0.114	-0.428
-706.616	-137.462	-0.117	-0.013
-705.602	-200.000	-0.018	-0.246
-704.587	266.764	0.087	-0.155
-703.572	-200.000	-0.050	0.294
-702.558	-129.316	0.178	0.025
-701.543	-82.368	0.286	0.094
-700.529	-2.878	0.096	-0.068
-699.514	544.111	-0.087	0.209
-698.499	-200.000	-0.002	-0.139
-697.485	-85.462	-0.137	0.043
-696.470	-8.347	0.080	-0.054
-695.456	87.469	0.160	0.179
-694.441	-115.616	-0.246	0.047
-693.426	-200.000	-0.026	-0.167
-692.412	-73.194	-0.081	-0.030
-691.397	629.332	0.165	0.423
-690.383	-53.126	-0.138	-0.064
-689.368	188.781	-0.098	0.149
-688.354	800.000	0.043	-0.169
-687.339	-177.534	-0.191	0.005
-686.324	-4.056	-0.142	0.100
-685.310	-200.000	-0.004	0.463
-684.295	23.058	0.239	0.199
-683.281	40.843	0.214	-0.196
-682.266	-33.229	0.162	0.091
-681.251	-162.816	-0.718	-0.035
-680.237	-104.561	0.134	-0.031
-679.222	14.409	0.247	0.195
-678.208	143.509	-0.048	0.065
-677.193	66.687	-0.067	-0.069
-676.178	-76.355	-0.077	-0.027
-675.164	-131.086	-0.395	-0.053
-674.149	-98.497	-0.180	0.047
-673.135	-200.000	-0.048	0.274
-672.120	-80.553	-0.167	0.056
-671.105	181.671	0.139	0.207
-670.091	-7.745	-0.077	-0.053
-669.076	-141.911	-0.207	-0.021
-668.062	117.919	-0.041	-0.052
-667.047	25.190	0.120	-0.101
-666.032	800.000	-0.065	-0.248
-665.018	-87.935	-0.427	-0.130
-664.003	104.867	0.114	-0.136
-662.989	-8.119	0.429	-0.292
-661.974	3.605	-0.087	-0.064
-660.959	399.843	-0.086	0.181
-659.945	27.787	-0.059	-0.050
-658.930	256.764	0.039	-0.068
-657.916	-62.336	0.149	0.063
-656.901	-200.000	0.011	0.086
-655.886	-130.346	0.099	0.014
-654.872	-64.683	0.040	-0.016
-653.857	514.184	-0.053	-0.126
-652.843	-200.000	-0.005	-0.199
-651.828	73.176	-0.224	-0.237
-650.814	207.100	-0.345	-0.544
-649.799	-119.007	-0.070	0.012
-648.784	363.592	-0.056	0.114
-647.770	478.745	-0.128	0.293
-646.755	-107.713	0.200	0.044
-645.741	-100.305	-0.282	0.071
-644.726	800.000	-0.105	-0.398
-643.711	-145.236	-0.256	0.023
-642.697	-138.898	0.170	-0.019
-641.682	-200.000	-0.017	-0.255
-640.668	90.563	0.047	0.053
-639.653	-102.948	-0.143	-0.034
-638.638	-21.561	0.123	0.076
-637.624	81.813	0.130	-0.142
-636.609	800.000	0.078	0.280
-635.595	-85.573	0.068	0.021
-634.580	800.000	0.046	0.152
-633.565	102.480	0.073	-0.086
-632.551	3.377	-0.189	-0.139
-631.536	-200.000	-0.031	-0.274
-630.522	259.278	0.146	-0.255
-629.507	-200.000	0.018	0.117
-628.492	-200.000	-0.064	-0.352
-627.478	214.838	0.193	-0.309
-626.463	-24.875	-0.108	-0.065
-625.449	247.357	-0.108	0.184
-624.434	260.289	-0.221	-0.385
-623.419	-164.560	-0.326	0.015
-622.405	800.000	-0.047	-0.201
-621.390	649.396	-0.156	-0.403
-620.376	-155.473	-0.091	-0.006
-619.361	-125.299	-0.188	-0.029
-618.346	-53.509	0.096	0.044
-617.332	-80.801	-0.280	0.094
-616.317	326.079	-0.051	0.098
-615.303	-35.653	-0.212	-0.116
-614.288	-95.662	-0.081	-0.022
-613.273	141.847	0.028	0.038
-612.259	5.132	0.277	0.206
-611.244	-13.784	-0.092	-0.060
-610.230	74.539	-0.142	-0.150
-609.215	-112.816	-0.131	0.026
-608.201	-15.901	0.190	-0.122
-607.186	800.000	-0.045	-0.188
-606.171	290.265	-0.113	0.208
-605.157	-200.000	0.009	0.157
-604.142	-200.000	-0.035	0.261
-603.128	-200.000	-0.105	0.000
-602.113	21.908	-0.305	-0.251
-601.098	97.963	-0.115	-0.134
-600.084	-152.836	0.338	0.024
-599.069	-54.442	-0.231	-0.106
-598.055	-180.357	-0.178	-0.004
-597.040	-200.000	0.001	-0.016
-596.025	-200.000	0.027	-0.259
-595.011	-70.673	-0.123	-0.047
-593.996	32.960	-0.314	0.275
-592.982	224.774	-0.118	0.192
-591.967	-79.689	-0.370	-0.126
-590.952	138.630	0.298	-0.395
-589.938	-64.664	0.270	-0.110
-588.923	-66.819	-0.283	0.113
-587.909	184.844	0.096	0.144
-586.894	800.000	-0.033	-0.099
-585.879	800.000	-0.044	-0.137
-584.865	-200.000	-0.021	0.235
-583.850	305.298	0.032	-0.061
-582.836	405.243	0.114	0.241
-581.821	282.382	-0.150	0.271
-580.806	-47.636	-0.034	-0.017
-579.792	153.606	-0.229	-0.316
-578.777	-60.503	0.210	0.090
-577.763	800.000	-0.083	-0.278
-576.748	630.184	-0.168	-0.429
-575.733	414.421	-0.105	-0.226
-574.719	390.654	0.114	-0.238
-573.704	305.137	-0.132	-0.246
-572.690	18.459	0.109	-0.088
-571.675	443.895	-0.172	-0.380
-570.661	123.844	-0.182	0.230
-569.646	-111.189	0.316	0.065
-568.631	-42.774	0.093	-0.048
-567.617	67.382	-0.084	0.086
-566.602	67.334	-0.207	-0.213
-565.588	474.550	-0.069	-0.156
-564.573	-79.133	0.203	-0.069
-563.558	-117.124	-0.119	0.022
-562.544	581.725	-0.187	0.463
-561.529	-200.000	-0.094	0.516
-560.515	85.136	0.068	0.076
-559.500	14.254	0.066	0.052
-558.485	425.455	0.045	-0.098
-557.471	-18.646	-0.098	0.061
-556.456	59.161	0.068	-0.068
-555.442	-129.712	0.101	0.014
-554.427	-9.735	0.052	-0.035
-553.412	102.686	-0.144	-0.170
-552.398	-180.258	0.241	-0.005
-551.383	-200.000	-0.013	-0.282
-550.369	466.973	-0.070	0.157
-549.354	-45.373	-0.270	0.135
-548.339	760.056	-0.103	0.280
-547.325	-133.939	-0.388	0.048
-546.310	-81.817	0.346	-0.114
-545.296	34.592	-0.240	0.211
-544.281	-200.000	-0.014	-0.201
-543.266	198.467	-0.126	0.194
-542.252	-128.237	-0.086	0.012
-541.237	549.378	0.086	0.206
-540.223	-144.083	-0.209	0.020
-539.208	-38.454	0.222	-0.118
-538.193	-41.620	-0.148	-0.077
-537.179	-96.455	0.217	0.058
-536.164	287.701	-0.078	0.142
-535.150	-200.000	0.048	0.451
-534.135	-96.739	0.095	0.025
-533.121	25.854	0.344	0.288
-532.106	499.252	0.126	-0.293
-531.091	-118.670	0.241	-0.043
-530.077	-200.000	0.027	-0.184
-529.062	680.522	-0.041	-0.107
-528.048	421.496	0.064	0.138
-527.033	68.617	0.286	-0.295
-526.018	-200.000	-0.012	-0.147
-525.004	800.000	-0.067	-0.228
-523.989	-120.746	-0.160	0.027
-522.975	5.634	-0.112	-0.084
-521.960	-32.468	0.072	0.040
-520.945	800.000	0.034	0.098
-519.931	663.421	0.014	0.036
-518.916	800.000	-0.092	-0.380
-517.902	-65.294	0.223	0.090
-516.887	-146.814	0.408	0.035
-515.872	10.213	0.108	0.083
-514.858	-133.000	-0.103	0.013
-513.843	800.000	-0.103	-0.309
-512.829	-157.747	0.130	-0.008
-511.814	-99.982	0.191	0.048
-510.799	800.000	0.030	-0.127
-509.785	48.110	-0.155	0.146
-508.770	51.769	-0.194	0.185
-507.756	133.703	-0.133	-0.173
-506.741	518.463	-0.050	0.118
-505.726	-200.000	0.070	-0.436
-504.712	137.951	0.227	0.299
-503.697	-200.000	0.019	0.094
-502.683	800.000	-0.088	-0.330
-501.668	124.910	-0.163	0.206
-500.653	-136.232	-0.334	0.039
-499.639	20.181	0.089	-0.073
-498.624	-200.000	-0.044	0.315
-497.610	-200.000	0.005	0.133
-496.595	522.601	-0.085	0.199
-495.581	392.345	0.093	-0.195
-494.566	52.945	-0.242	-0.233
-493.551	-50.484	0.167	-0.079
-492.537	16.854	0.105	0.084
-491.522	-200.000	-0.007	-0.108
-490.508	-114.716	0.097	0.019
-489.493	-130.812	-0.411	0.055
-488.478	-110.505	-0.225	-0.047
-487.464	85.098	-0.134	-0.148
-486.449	324.828	0.146	-0.280
-485.435	21.402	0.095	-0.078
-484.420	-12.899	-0.172	-0.112
-483.405	-16.711	0.112	0.071
-482.391	-1.607	0.131	0.093
-481.376	256.146	-0.075	0.129
-480.362	-136.435	-0.071	-0.008
-479.347	-154.779	-0.206	-0.014
-478.332	-144.672	0.160	0.015
-477.318	212.429	0.100	-0.159
-476.303	694.383	-0.069	0.182
-475.289	800.000	0.097	0.332
-474.274	516.068	0.207	-0.486
-473.259	-49.792	0.137	-0.065
-472.245	27.999	0.076	-0.064
-471.230	-66.617	0.089	0.036
-470.216	-95.279	0.247	-0.067
-469.201	335.412	-0.061	0.119
-468.186	89.451	0.168	0.188
-467.172	-200.000	0.023	0.118
-466.157	-200.000	0.029	-0.160
-465.143	198.110	0.200	-0.307
-464.128	48.059	0.170	0.160
-463.113	145.831	-0.135	0.182
-462.099	800.000	0.147	0.614
-461.084	-126.900	-0.131	0.019
-460.070	-200.000	-0.047	-0.415
-459.055	-200.000	0.033	0.153
-458.040	-94.579	0.192	-0.052
-457.026	-105.816	0.270	-0.061
-456.011	-200.000	0.048	0.217
-454.997	-200.000	0.010	-0.244
-453.982	-112.144	-0.207	0.042
-452.968	-200.000	0.026	0.291
-451.953	-95.940	0.130	0.035
-450.938	-13.007	-0.189	0.123
-449.924	-123.803	-0.139	0.022
-448.909	52.683	0.117	-0.112
-447.895	139.535	0.018	0.024
-446.880	-120.526	0.327	0.056
-445.865	34.779	-0.136	-0.119
-444.851	-14.039	0.301	0.195
-443.836	800.000	0.026	-0.085
-442.822	800.000	0.032	0.119
-441.807	-93.496	0.168	0.047
-440.792	-200.000	-0.032	0.301
-439.778	179.534	-0.060	-0.089
-438.763	15.492	-0.385	-0.303
-437.749	-53.517	0.273	-0.125
-436.734	-200.000	0.076	0.383
-435.719	384.978	-0.139	0.287
-434.705	14.352	0.108	-0.084
-433.690	-123.548	-0.284	0.045
-432.676	57.991	-0.196	0.192
-431.661	158.953	0.078	-0.109
-430.646	-151.389	0.280	0.021
-429.632	273.122	0.202	-0.357
-428.617	-126.534	0.158	0.024
-427.603	-200.000	-0.003	-0.163
-426.588	33.092	0.354	-0.307
-425.573	-102.548	-0.326	0.078
-424.559	-124.574	0.226	0.035
-423.544	148.226	-0.101	-0.136
-422.530	-26.187	0.301	0.177
-421.515	-13.380	0.172	0.111
-420.500	109.103	-0.116	-0.140
-419.486	67.804	0.247	0.253
-418.471	0.779	-0.139	-0.100
-417.457	-180.083	0.334	0.007
-416.442	5.599	-0.226	0.167
-415.428	29.168	0.161	0.137
-414.413	762.568	0.146	0.397
-413.398	117.990	0.071	-0.088
-412.384	192.611	-0.037	-0.056
-411.369	-68.339	-0.113	-0.044
-410.355	-72.506	-0.179	0.066
-409.340	251.673	-0.035	-0.060
-408.325	-200.000	-0.010	-0.264
-407.311	3.550	0.243	0.178
-406.296	199.767	-0.014	0.021
-405.282	418.442	-0.174	-0.372
-404.267	134.228	-0.221	-0.287
-403.252	51.502	0.277	0.263
-402.238	-119.392	0.131	-0.023
-401.223	147.300	-0.130	0.175
-400.209	-34.404	-0.146	-0.080
-399.194	200.132	-0.029	-0.045
-398.179	161.423	0.128	-0.180
-397.165	15.297	-0.180	-0.141
-396.150	-26.379	-0.153	-0.090
-395.136	79.115	-0.336	0.360
-394.121	-200.000	-0.021	0.166
-393.106	517.469	0.053	-0.125
-392.092	-78.780	-0.289	0.099
-391.077	73.380	0.247	-0.259
-390.063	536.043	-0.048	-0.115
-389.048	385.432	-0.037	0.076
-388.033	438.366	0.110	-0.239
-387.019	5.389	0.164	-0.121
-386.004	800.000	0.046	-0.165
-384.990	-31.126	0.090	-0.051
-383.975	-159.686	0.335	0.018
-382.960	-200.000	0.011	-0.231
-381.946	94.235	-0.079	-0.089
-380.931	65.004	-0.269	-0.272
-379.917	-76.983	-0.223	-0.078
-378.902	-82.775	-0.257	-0.083
-377.888	-200.000	0.010	-0.196
-376.873	88.284	-0.188	-0.208
-375.858	-42.628	-0.141	-0.072
-374.844	173.958	0.101	-0.146
-373.829	117.887	0.073	0.089
-372.815	-118.862	0.380	0.067
-371.800	-8.806	0.167	-0.112
-370.785	-200.000	0.009	-0.195
-369.771	-200.000	0.044	-0.535
-368.756	381.278	0.091	0.186
-367.742	-114.965	0.400	0.076
-366.727	-12.467	0.137	0.090
-365.712	17.106	0.156	0.124
-364.698	460.759	-0.129	-0.287
-363.683	-42.088	-0.051	0.026
-362.669	-140.162	-0.397	0.042
-361.654	-200.000	-0.059	-0.269
-360.639	-110.838	0.333	0.068
-359.625	-200.000	-0.043	-0.216
-358.610	-150.964	-0.197	-0.015
-357.596	-96.303	0.243	-0.064
-356.581	-200.000	-0.046	-0.378
-355.566	-25.878	-0.032	0.019
-354.552	800.000	0.054	0.213
-353.537	-9.244	-0.041	0.027
-352.523	-47.203	-0.194	0.094
-351.508	481.630	0.103	-0.233
-350.493	467.137	-0.082	0.183
-349.479	381.427	0.081	-0.165
-348.464	-129.056	-0.203	-0.028
-347.450	84.512	-0.333	0.363
-346.435	93.300	-0.025	0.028
-345.420	-142.452	0.499	-0.049
-344.406	20.550	-0.136	-0.109
-343.391	-151.285	-0.208	0.016
-342.377	-4.172	-0.110	0.076
-341.362	-44.814	0.135	-0.067
-340.348	124.435	-0.167	0.210
-339.333	219.418	-0.201	0.320
-338.318	70.649	-0.085	0.087
-337.304	-64.300	-0.225	0.092
-336.289	-200.000	-0.037	0.372
-335.275	548.462	0.133	0.318
-334.260	-161.136	0.264	0.014
-333.245	74.324	0.286	-0.300
-332.231	-70.227	-0.179	0.068
-331.216	-200.000	-0.007	-0.212
-330.202	-200.000	-0.005	0.287
-329.187	800.000	0.111	0.384
-328.172	53.702	0.024	-0.023
-327.158	89.278	-0.130	0.144
-326.143	-81.885	-0.356	0.116
-325.129	30.558	0.101	-0.086
-324.114	-40.437	-0.362	0.188
-323.099	186.281	-0.063	-0.093
-322.085	-8.260	-0.210	-0.141
-321.070	41.692	-0.250	0.226
-320.056	-48.960	-0.096	-0.046
-319.041	-200.000	-0.004	0.239
-318.026	51.952	-0.232	0.220
-317.012	781.137	-0.096	0.261
-315.997	-141.327	0.608	0.062
-314.983	-29.351	-0.131	-0.075
-313.968	-34.475	-0.283	-0.155
-312.953	800.000	-0.047	-0.185
-311.939	-56.561	0.172	-0.076
-310.924	-200.000	-0.005	0.197
-309.910	573.988	0.045	-0.109
-308.895	45.785	0.008	-0.007
-307.880	-190.810	-0.060	-0.001
-306.866	44.698	0.122	-0.112
-305.851	366.121	0.089	-0.179
-304.837	800.000	0.062	0.217
-303.822	-122.713	0.352	0.057
-302.807	-200.000	-0.013	0.414
-301.793	-38.963	0.180	0.095
-300.778	-75.090	0.112	0.040
-299.764	34.725	-0.310	0.270
-298.749	-62.484	-0.246	0.102
-297.735	146.347	0.114	0.153
-296.720	198.112	0.073	-0.111
-295.705	12.165	0.164	-0.126
-294.691	-122.496	0.353	-0.057
-293.676	-1.966	-0.087	-0.061
-292.662	350.618	-0.074	0.145
-291.647	193.446	0.191	-0.289
-290.632	498.695	0.084	0.192
-289.618	800.000	-0.049	0.139
-288.603	800.000	-0.045	0.152
-287.589	23.586	-0.164	-0.134
-286.574	-93.010	-0.417	-0.116
-285.559	-200.000	0.001	-0.057
-284.545	7.928	0.067	0.050
-283.530	390.737	-0.121	0.250
-282.516	143.156	-0.199	-0.264
-281.501	77.266	0.367	-0.388
-280.486	116.822	0.055	0.067
-279.472	-200.000	0.004	-0.040
-278.457	103.602	0.233	-0.272
-277.443	-200.000	-0.086	0.473
-276.428	-200.000	0.014	-0.105
-275.413	-93.640	-0.424	0.117
-274.399	-96.247	-0.248	-0.065
-273.384	387.442	0.174	0.358
-272.370	800.000	0.097	0.300
-271.355	-200.000	-0.039	0.569
-270.340	-67.536	-0.316	0.123
-269.326	162.980	-0.108	0.151
-268.311	-138.993	0.313	0.034
-267.297	-51.648	-0.325	-0.151
-266.282	486.710	0.177	0.402
-265.267	-114.376	-0.172	-0.033
-264.253	-14.591	-0.317	-0.203
-263.238	-200.000	-0.003	-0.063
-262.224	252.343	-0.073	-0.124
-261.209	-76.462	0.387	-0.135
-260.195	-69.069	-0.157	0.060
-259.180	-6.939	-0.231	0.156
-258.165	-200.000	0.038	0.291
-257.151	800.000	0.059	0.227
-256.136	789.280	0.097	0.265
-255.122	-200.000	-0.018	-0.186
-254.107	-40.732	0.206	-0.106
-253.092	-123.774	0.170	0.027
-252.078	-89.993	0.120	0.035
-251.063	-84.828	0.410	-0.128
-250.049	-152.293	0.215	-0.015
-249.034	4.044	-0.186	-0.135
-248.019	-200.000	-0.019	0.181
-247.005	-75.282	-0.377	0.134
-245.990	-93.284	-0.307	-0.085
-244.976	-177.671	-0.349	0.008
-243.961	-174.111	-0.109	-0.003
-242.946	538.722	0.106	-0.252
-241.932	-74.127	0.101	0.036
-240.917	6.738	0.165	0.122
-239.903	800.000	0.074	0.220
-238.888	-123.441	0.477	-0.076
-237.873	-49.695	-0.096	0.046
-236.859	6.112	0.149	0.110
-235.844	86.107	0.185	-0.202
-234.830	141.804	0.167	0.220
-233.815	87.311	-0.254	0.280
-232.800	59.625	-0.159	-0.156
-231.786	-198.499	-0.149	0.001
-230.771	50.876	-0.197	0.186
-229.757	-200.000	0.079	0.378
-228.742	-9.578	0.231	0.153
-227.727	446.143	0.099	0.215
-226.713	-200.000	-0.012	-0.195
-225.698	18.481	0.196	-0.156
-224.684	61.012	0.085	-0.084
-223.669	-200.000	0.039	0.191
-222.655	-200.000	-0.003	-0.065
-221.640	-200.000	-0.041	-0.261
-220.625	-6.261	-0.141	0.096
-219.611	-151.752	0.318	0.023
-218.596	-93.765	0.241	0.066
-217.582	82.215	0.210	-0.226
-216.567	133.637	0.061	-0.079
-215.552	-200.000	-0.027	0.187
-214.538	35.756	0.300	0.262
-213.523	-75.746	0.214	0.075
-212.509	422.447	-0.015	0.033
-211.494	-178.603	-0.391	-0.009
-210.479	-67.035	0.129	0.051
-209.465	55.008	0.158	-0.151
-208.450	-10.075	0.180	-0.119
-207.436	-200.000	-0.030	-0.230
-206.421	-39.685	0.017	0.009
-205.406	-200.000	-0.006	-0.121
-204.392	-127.414	-0.265	-0.038
-203.377	-200.000	-0.016	-0.134
-202.363	151.259	0.110	-0.149
-201.348	90.766	-0.109	-0.121
-200.333	111.480	0.239	-0.286
-199.319	800.000	0.031	-0.108
-198.304	800.000	0.037	0.104
-197.290	-13.645	0.223	0.144
-196.275	-118.434	0.080	-0.014
-195.260	-99.310	-0.230	0.058
-194.246	-49.937	0.175	-0.082
-193.231	800.000	0.158	-0.459
-192.217	164.228	0.067	-0.094
-191.202	-200.000	-0.039	-0.192
-190.187	661.437	0.089	-0.229
-189.173	-133.113	0.104	-0.013
-188.158	-34.574	-0.052	-0.028
-187.144	-149.174	-0.066	-0.005
-186.129	-103.468	-0.092	0.021
-185.114	497.921	0.069	-0.158
-184.100	240.749	0.035	0.058
-183.085	-200.000	0.028	0.165
-182.071	56.200	-0.264	-0.255
-181.056	-64.215	-0.386	0.156
-180.042	471.482	-0.102	0.227
-179.027	212.458	0.152	-0.237
-178.012	155.240	0.058	0.079
-176.998	-135.979	0.449	0.052
-175.983	-29.808	0.163	-0.092
-174.969	181.483	0.123	0.180
-173.954	-83.248	-0.213	-0.068
-172.939	-182.002	-0.053	0.001
-171.925	-44.589	0.112	0.056
-170.910	-200.000	-0.045	0.295
-169.896	800.000	-0.130	0.520
-168.881	-38.107	-0.155	0.082
-167.866	21.206	0.187	0.150
-166.852	45.215	0.259	0.237
-165.837	-46.815	0.112	-0.054
-164.823	-200.000	0.037	-0.200
-163.808	-110.843	0.165	0.034
-162.793	695.976	0.034	0.088
-161.779	108.161	0.174	0.206
-160.764	-200.000	-0.009	0.039
-159.750	-31.471	-0.238	0.133
-158.735	-200.000	-0.055	-0.415
-157.720	124.276	-0.058	-0.072
-156.706	221.766	-0.278	0.442
-155.691	-42.241	-0.214	0.108
-154.677	-8.074	0.044	0.029
-153.662	137.635	0.062	0.081
-152.647	-200.000	0.022	0.098
-151.633	218.591	0.166	-0.263
-150.618	235.166	-0.005	0.008
-149.604	301.855	0.106	0.195
-148.589	-111.806	-0.199	-0.040
-147.574	151.068	0.139	0.188
-146.560	-200.000	-0.072	-0.392
-145.545	88.465	0.139	-0.153
-144.531	284.074	0.091	0.161
-143.516	-37.601	-0.149	-0.079
-142.502	-82.745	0.244	-0.078
-141.487	6.498	0.192	0.142
-140.472	-8.987	-0.257	0.170
-139.458	800.000	-0.068	-0.202
-138.443	-200.000	-0.017	0.088
-137.429	251.009	0.083	0.139
-136.414	-113.623	-0.078	0.015
-135.399	84.417	0.232	-0.251
-134.385	157.990	-0.159	-0.218
-133.370	6.405	0.150	0.111
-132.356	-120.780	0.187	-0.031
-131.341	-122.250	0.211	-0.034
-130.326	-200.000	-0.034	-0.275
-129.312	-22.926	0.179	-0.107
-128.297	-93.211	0.153	-0.042
-127.283	458.751	-0.064	0.142
-126.268	-81.791	-0.448	-0.145
-125.253	-200.000	0.048	-0.467
-124.239	289.616	0.178	-0.319
-123.224	60.920	0.123	-0.121
-122.210	8.359	-0.273	-0.203
-121.195	-64.757	-0.224	-0.090
