DTS Sentinel unit serial number:	SN413079Multiplexer serial number:	ORYXHardware model number:	OX4-SRSoftware version number:	ORYX F/W v4.00 Oryx Data Collector v3.7.2.0data status	okinstallation	princeton_trtdifferential loss correction	single-endedforward channel	channel 3reverse channel	N/Adate	2019/09/19time	00:40:35forward acquisition time	60.00reverse acquisition time	0.00gamma	496.2192k internal	0.2347k external	0.2347temperature offset calibration	0.9992default loss term (dB/km)	0.3790temperature slope calibration	1.0000multiplexer offset coefficient	1.0000multiplexer slope coefficient	1.0000fibre end	0.00T internal ref (°C)	22.25T ext. ref 1 (°C)	0.73T ext. ref 2 (°C)	15.39length (m)	temperature (°C)	Stokes	anti-Stokes-747.200	-200.000	0.017	0.289
-746.185	-71.740	-0.331	0.123
-745.171	359.885	-0.023	-0.046
-744.156	-200.000	-0.098	0.468
-743.142	57.567	-0.021	0.021
-742.127	165.553	-0.120	-0.170
-741.112	-200.000	-0.003	0.065
-740.098	-92.357	-0.484	0.136
-739.083	-200.000	-0.041	-0.200
-738.069	43.471	-0.206	0.188
-737.054	33.062	-0.117	0.101
-736.039	-59.143	-0.317	0.137
-735.025	323.525	0.082	0.156
-734.010	60.916	-0.295	-0.292
-732.996	34.727	0.151	0.132
-731.981	278.633	0.062	0.110
-730.966	-200.000	0.038	0.262
-729.952	-61.942	-0.063	0.026
-728.937	-46.142	0.143	-0.071
-727.923	-57.784	0.213	0.093
-726.908	-48.667	-0.100	0.048
-725.894	-33.513	-0.228	-0.126
-724.879	800.000	-0.038	0.113
-723.864	202.888	-0.179	-0.276
-722.850	-56.299	0.417	-0.185
-721.835	800.000	0.075	0.222
-720.821	-72.473	0.436	0.161
-719.806	299.514	-0.192	-0.353
-718.791	169.234	0.192	-0.274
-717.777	-189.463	-0.341	-0.004
-716.762	-62.034	-0.262	0.109
-715.748	412.284	-0.060	0.127
-714.733	-162.947	-0.113	-0.005
-713.718	-130.032	-0.189	0.026
-712.704	-93.561	-0.229	0.063
-711.689	95.217	0.054	-0.062
-710.675	-200.000	-0.004	0.330
-709.660	800.000	-0.016	0.048
-708.645	236.647	-0.126	-0.209
-707.631	211.176	0.206	-0.324
-706.616	543.374	0.019	-0.046
-705.602	-77.350	0.146	0.051
-704.587	20.383	0.227	-0.183
-703.572	-200.000	0.017	0.166
-702.558	324.632	0.052	0.100
-701.543	-200.000	-0.029	-0.181
-700.529	-42.999	0.218	-0.110
-699.514	-36.268	0.365	0.196
-698.499	368.884	-0.113	-0.228
-697.485	800.000	0.087	0.302
-696.470	800.000	0.028	0.089
-695.456	-100.583	-0.078	0.019
-694.441	800.000	-0.034	0.106
-693.426	-7.651	0.167	-0.113
-692.412	-78.174	-0.353	0.121
-691.397	-200.000	0.025	-0.245
-690.383	383.076	0.080	0.165
-689.368	-89.082	0.149	0.044
-688.354	-137.729	0.221	-0.025
-687.339	31.685	0.097	-0.083
-686.324	-44.281	0.173	0.086
-685.310	-129.236	0.204	-0.028
-684.295	337.236	0.048	-0.094
-683.281	-14.712	0.134	0.086
-682.266	-4.043	-0.276	-0.191
-681.251	-148.854	-0.256	0.021
-680.237	-200.000	-0.017	-0.150
-679.222	5.110	0.189	-0.138
-678.208	177.645	0.058	-0.084
-677.193	-60.792	-0.232	0.098
-676.178	-29.632	0.346	0.197
-675.164	498.820	0.027	-0.061
-674.149	-200.000	-0.037	0.290
-673.135	-200.000	0.015	-0.266
-672.120	-200.000	0.064	0.472
-671.105	-200.000	-0.001	0.209
-670.091	-112.946	-0.268	-0.053
-669.076	-101.062	-0.078	-0.019
-668.062	-200.000	0.218	0.001
-667.047	-81.674	-0.131	0.043
-666.032	-200.000	-0.012	-0.255
-665.018	208.545	-0.087	-0.136
-664.003	584.744	0.140	0.343
-662.989	-200.000	-0.014	0.237
-661.974	29.749	0.178	-0.151
-660.959	-62.564	-0.263	-0.109
-659.945	28.257	0.428	-0.360
-658.930	-33.436	-0.114	-0.063
-657.916	101.348	-0.090	-0.105
-656.901	800.000	-0.040	-0.137
-655.886	262.250	0.091	-0.157
-654.872	-128.462	-0.202	0.029
-653.857	40.503	0.110	0.099
-652.843	-34.649	-0.263	0.143
-651.828	127.138	0.095	-0.120
-650.814	-200.000	-0.019	0.148
-649.799	129.484	-0.200	0.254
-648.784	-110.282	-0.510	0.106
-647.770	-200.000	-0.003	0.212
-646.755	-37.740	0.172	0.091
-645.741	693.854	-0.060	0.158
-644.726	800.000	0.060	-0.174
-643.711	-200.000	0.013	0.089
-642.697	224.288	-0.183	-0.295
-641.682	484.389	-0.074	-0.168
-640.668	338.764	-0.018	0.034
-639.653	-200.000	0.016	-0.125
-638.638	230.915	0.189	-0.308
-637.624	-122.752	-0.295	-0.047
-636.609	800.000	-0.063	-0.261
-635.595	-111.947	-0.190	0.038
-634.580	387.531	-0.163	-0.334
-633.565	277.087	0.107	-0.189
-632.551	37.596	0.117	-0.103
-631.536	800.000	-0.107	-0.374
-630.522	176.858	-0.013	0.019
-629.507	62.457	-0.082	0.081
-628.492	77.555	-0.230	0.244
-627.478	314.197	-0.098	-0.184
-626.463	97.726	-0.181	0.207
-625.449	-157.231	0.349	0.021
-624.434	1.251	-0.010	0.007
-623.419	800.000	-0.052	-0.151
-622.405	57.110	0.233	-0.226
-621.390	-41.562	0.050	0.025
-620.376	-120.257	-0.160	0.027
-619.361	123.369	0.110	0.137
-618.346	-46.079	-0.185	0.091
-617.332	17.957	0.278	0.221
-616.317	-55.660	-0.079	0.035
-615.303	-38.668	0.094	0.049
-614.288	78.262	-0.146	-0.155
-613.273	-200.000	-0.064	0.419
-612.259	-107.317	-0.111	-0.024
-611.244	-2.178	-0.031	-0.022
-610.230	604.497	-0.092	-0.227
-609.215	-200.000	-0.000	0.076
-608.201	100.142	0.278	-0.321
-607.186	-200.000	-0.045	-0.211
-606.171	-11.248	0.059	0.038
-605.157	-200.000	0.053	-0.275
-604.142	546.513	0.096	-0.229
-603.128	-92.306	0.162	-0.046
-602.113	181.617	0.162	0.237
-601.098	-200.000	-0.004	0.101
-600.084	-70.682	0.322	0.121
-599.069	-94.349	-0.320	0.087
-598.055	25.129	0.025	0.021
-597.040	214.871	0.046	-0.073
-596.025	800.000	0.045	0.141
-595.011	252.265	0.260	-0.440
-593.996	-64.618	-0.175	-0.071
-592.982	-74.050	-0.103	0.037
-591.967	-149.463	-0.100	0.008
-590.952	-138.569	0.145	-0.016
-589.938	54.135	0.033	-0.032
-588.923	289.068	0.157	0.283
-587.909	-127.622	-0.345	-0.050
-586.894	-64.620	-0.263	-0.106
-585.879	-49.524	0.191	-0.091
-584.865	-55.834	0.171	-0.076
-583.850	35.354	-0.052	-0.046
-582.836	22.637	0.026	0.021
-581.821	101.606	-0.165	0.191
-580.806	-38.355	-0.125	-0.066
-579.792	-180.690	0.184	0.004
-578.777	800.000	0.042	-0.181
-577.763	-0.684	-0.319	0.225
-576.748	-200.000	-0.012	-0.060
-575.733	-200.000	-0.008	0.101
-574.719	-64.428	-0.181	0.073
-573.704	-200.000	0.017	-0.214
-572.690	-200.000	-0.009	-0.289
-571.675	235.820	-0.104	-0.170
-570.661	101.261	0.072	-0.083
-569.646	-200.000	0.022	0.280
-568.631	262.555	0.010	-0.017
-567.617	800.000	0.127	-0.428
-566.602	304.698	0.190	-0.350
-565.588	-156.720	0.232	-0.014
-564.573	26.616	-0.207	0.172
-563.558	289.028	-0.098	-0.176
-562.544	-83.400	0.098	0.031
-561.529	-132.993	0.419	0.053
-560.515	444.366	0.179	0.389
-559.500	57.220	-0.210	0.204
-558.485	435.224	-0.036	-0.077
-557.471	46.844	-0.151	0.139
-556.456	511.338	-0.043	-0.098
-555.442	-74.060	-0.178	0.064
-554.427	-115.298	0.159	-0.030
-553.412	-195.512	-0.199	-0.001
-552.398	-90.550	0.120	0.034
-551.383	488.783	-0.081	-0.185
-550.369	-200.000	0.016	0.375
-549.354	-85.681	-0.380	0.117
-548.339	37.622	-0.180	-0.159
-547.325	-48.084	-0.178	-0.085
-546.310	299.352	-0.141	0.257
-545.296	290.518	0.116	-0.209
-544.281	-35.724	0.210	-0.113
-543.266	-30.599	-0.204	0.115
-542.252	50.106	0.138	0.129
-541.237	-6.141	0.184	0.125
-540.223	548.036	-0.233	0.553
-539.208	510.815	0.032	-0.073
-538.193	78.001	-0.154	-0.163
-537.179	-105.459	0.286	-0.064
-536.164	503.696	0.114	-0.262
-535.150	37.264	-0.129	0.113
-534.135	-97.460	0.286	-0.074
-533.121	13.205	-0.190	-0.146
-532.106	-120.063	-0.379	-0.064
-531.091	800.000	0.150	0.446
-530.077	59.933	-0.101	0.099
-529.062	397.907	0.022	0.045
-528.048	800.000	0.054	0.195
-527.033	-108.573	0.097	-0.021
-526.018	240.317	0.113	0.187
-525.004	-200.000	0.014	0.267
-523.989	-75.502	-0.212	0.075
-522.975	-59.834	-0.245	0.104
-521.960	-200.000	-0.042	0.216
-520.945	315.440	-0.110	0.205
-519.931	637.133	-0.043	0.109
-518.916	517.895	0.100	0.233
-517.902	-200.000	0.016	-0.176
-516.887	-31.150	-0.198	-0.111
-515.872	-10.689	-0.072	0.047
-514.858	234.266	-0.046	0.075
-513.843	107.155	0.112	-0.131
-512.829	800.000	-0.031	0.101
-511.814	-111.492	0.381	0.077
-510.799	-92.766	-0.166	-0.046
-509.785	-200.000	0.035	-0.264
-508.770	-67.185	-0.085	0.033
-507.756	-77.645	0.120	-0.041
-506.741	40.805	-0.392	-0.351
-505.726	-74.573	-0.306	0.109
-504.712	223.550	-0.193	-0.309
-503.697	-51.615	0.450	0.208
-502.683	202.059	-0.123	-0.188
-501.668	-73.167	0.167	0.061
-500.653	563.025	0.073	0.175
-499.639	-200.000	-0.037	-0.461
-498.624	38.766	0.281	-0.248
-497.610	-121.615	-0.172	0.028
-496.595	55.463	-0.412	-0.395
-495.581	11.375	0.112	0.085
-494.566	800.000	-0.043	-0.157
-493.551	-200.000	0.020	-0.094
-492.537	131.620	0.314	-0.399
-491.522	717.867	0.030	0.078
-490.508	-57.469	0.117	-0.051
-489.493	73.296	-0.213	0.220
-488.478	-200.000	-0.000	-0.267
-487.464	800.000	-0.124	0.535
-486.449	-200.000	-0.018	0.160
-485.435	141.536	0.177	-0.231
-484.420	79.715	-0.168	-0.178
-483.405	-134.415	-0.154	-0.019
-482.391	-176.547	-0.444	0.011
-481.376	422.726	0.114	0.243
-480.362	-91.127	-0.188	0.053
-479.347	143.993	0.188	0.249
-478.332	800.000	0.058	0.171
-477.318	102.756	-0.168	-0.194
-476.303	-115.916	-0.162	0.030
-475.289	800.000	-0.136	0.386
-474.274	329.729	-0.176	-0.336
-473.259	-200.000	-0.033	-0.295
-472.245	-129.763	0.117	0.016
-471.230	-118.448	-0.037	-0.007
-470.216	-200.000	-0.062	0.293
-469.201	71.794	0.155	-0.160
-468.186	0.824	0.067	0.047
-467.172	-60.462	0.033	0.014
-466.157	71.124	-0.110	-0.113
-465.143	83.046	0.174	0.187
-464.128	37.022	-0.156	0.137
-463.113	-154.277	0.405	-0.027
-462.099	277.311	-0.092	0.161
-461.084	-138.874	0.064	0.007
-460.070	57.693	0.062	-0.060
-459.055	-39.950	0.175	-0.090
-458.040	-200.000	-0.071	0.630
-457.026	-200.000	-0.005	0.145
-456.011	-35.378	0.061	0.033
-454.997	-121.527	-0.116	0.019
-453.982	-113.308	-0.421	-0.082
-452.968	-66.204	-0.067	-0.027
-451.953	-57.059	0.156	-0.068
-450.938	-124.825	-0.477	0.073
-449.924	-58.728	0.156	-0.067
-448.909	120.017	-0.066	0.081
-447.895	-200.000	0.007	-0.099
-446.880	-97.416	-0.241	0.062
-445.865	5.834	-0.247	-0.180
-444.851	271.161	-0.189	-0.329
-443.836	89.254	-0.126	-0.139
-442.822	153.111	0.254	0.343
-441.807	26.877	0.211	-0.175
-440.792	-113.391	0.153	0.030
-439.778	13.799	0.204	-0.157
-438.763	-90.167	-0.429	-0.123
-437.749	-53.527	0.208	-0.094
-436.734	-22.520	-0.154	-0.092
-435.719	281.431	-0.057	-0.101
-434.705	3.964	-0.259	0.187
-433.690	65.314	0.224	-0.224
-432.676	-80.984	-0.453	0.148
-431.661	-142.681	-0.064	-0.006
-430.646	-86.930	0.228	0.069
-429.632	-103.685	-0.096	-0.022
-428.617	800.000	-0.087	-0.240
-427.603	800.000	-0.110	0.397
-426.588	30.495	0.237	-0.200
-425.573	319.026	-0.084	-0.157
-424.559	291.162	-0.072	0.128
-423.544	-45.047	0.153	0.075
-422.530	-124.669	-0.149	0.023
-421.515	800.000	-0.050	0.148
-420.500	644.668	0.143	0.359
-419.486	-200.000	0.005	0.031
-418.471	-2.291	0.296	0.205
-417.457	-58.219	0.242	-0.104
-416.442	10.230	-0.284	-0.214
-415.428	800.000	0.026	0.077
-414.413	47.955	0.146	-0.134
-413.398	49.486	0.267	0.248
-412.384	-200.000	0.038	0.207
-411.369	-100.041	0.482	-0.119
-410.355	800.000	0.059	-0.227
-409.340	800.000	0.061	-0.222
-408.325	-106.381	0.264	-0.058
-407.311	161.506	0.072	0.099
-406.296	-50.209	-0.091	-0.042
-405.282	513.668	0.169	-0.388
-404.267	279.042	0.140	-0.246
-403.252	-52.546	-0.169	-0.077
-402.238	40.062	0.243	0.215
-401.223	-91.970	-0.170	0.047
-400.209	-93.836	0.095	-0.026
-399.194	-47.620	-0.180	0.086
-398.179	-26.633	-0.105	0.061
-397.165	800.000	-0.159	0.480
-396.150	317.389	-0.078	-0.145
-395.136	-128.810	-0.109	-0.015
-394.121	156.599	-0.219	-0.298
-393.106	160.449	-0.097	-0.133
-392.092	-125.754	0.242	-0.036
-391.077	226.399	-0.105	-0.168
-390.063	-35.263	0.231	0.124
-389.048	800.000	-0.096	0.326
-388.033	-109.966	0.194	-0.040
-387.019	-200.000	0.026	0.187
-386.004	190.577	0.220	-0.327
-384.990	21.558	-0.162	0.130
-383.975	95.360	-0.154	-0.173
-382.960	-200.000	0.006	0.069
-381.946	99.682	-0.211	-0.241
-380.931	-38.274	-0.273	-0.143
-379.917	-116.244	0.163	-0.030
-378.902	88.591	-0.263	0.288
-377.888	800.000	0.020	-0.067
-376.873	800.000	0.095	0.292
-375.858	-140.567	-0.167	0.017
-374.844	-200.000	0.015	-0.131
-373.829	-61.238	0.071	-0.030
-372.815	-157.497	-0.096	0.006
-371.800	482.935	-0.060	-0.133
-370.785	228.736	-0.148	0.237
-369.771	-114.322	-0.307	0.058
-368.756	-79.245	-0.112	0.038
-367.742	152.019	-0.082	0.110
-366.727	-194.966	0.408	-0.003
-365.712	244.697	0.086	-0.142
-364.698	73.290	-0.282	-0.291
-363.683	-150.772	0.175	0.013
-362.669	187.541	-0.188	0.276
-361.654	127.592	0.196	-0.245
-360.639	417.711	0.027	0.056
-359.625	312.145	0.217	-0.400
-358.610	-74.248	0.104	-0.037
-357.596	800.000	0.059	0.181
-356.581	-200.000	0.009	-0.083
-355.566	-200.000	0.009	0.102
-354.552	-115.693	0.153	-0.028
-353.537	62.991	-0.242	-0.238
-352.523	800.000	-0.151	-0.412
-351.508	-200.000	-0.022	-0.272
-350.493	-116.906	0.110	0.020
-349.479	496.517	0.060	0.136
-348.464	-98.130	-0.152	-0.038
-347.450	-32.083	-0.049	-0.027
-346.435	12.111	-0.110	-0.083
-345.420	-63.651	-0.283	0.114
-344.406	-144.218	0.120	0.011
-343.391	581.844	0.070	0.170
-342.377	511.704	-0.114	-0.261
-341.362	-102.057	-0.165	0.039
-340.348	-200.000	0.029	-0.318
-339.333	353.976	0.148	0.289
-338.318	7.103	0.111	0.081
-337.304	28.619	-0.142	-0.118
-336.289	250.012	-0.037	-0.061
-335.275	-36.880	0.199	-0.105
-334.260	48.062	0.037	-0.034
-333.245	-22.603	-0.185	0.110
-332.231	-53.252	0.153	0.069
-331.216	133.858	0.079	-0.101
-330.202	-200.000	-0.037	-0.384
-329.187	155.394	0.111	-0.150
-328.172	-89.625	0.153	0.044
-327.158	169.260	-0.145	0.203
-326.143	555.055	-0.050	-0.118
-325.129	-200.000	0.034	0.262
-324.114	107.168	-0.183	-0.213
-323.099	-86.949	0.152	-0.046
-322.085	-57.316	-0.282	0.122
-321.070	282.975	-0.115	0.202
-320.056	800.000	0.026	0.105
-319.041	-134.484	-0.315	0.038
-318.026	74.854	0.125	0.129
-317.012	108.026	0.077	-0.090
-315.997	-48.149	-0.128	0.061
-314.983	-188.464	0.231	0.003
-313.968	230.725	-0.139	0.224
-312.953	140.532	0.253	0.329
-311.939	800.000	0.067	0.187
-310.924	-49.792	0.156	-0.073
-309.910	-73.415	0.252	0.090
-308.895	173.605	0.087	0.124
-307.880	-162.266	0.158	0.008
-306.866	-62.960	0.353	0.143
-305.851	-112.011	0.245	-0.048
-304.837	97.983	0.078	-0.088
-303.822	125.462	0.092	-0.114
-302.807	-88.305	0.227	0.067
-301.793	-24.671	0.308	-0.180
-300.778	-62.532	0.182	0.074
-299.764	600.388	0.048	0.116
-298.749	-79.329	-0.341	-0.113
-297.735	-200.000	0.001	-0.050
-296.720	800.000	-0.049	-0.168
-295.705	88.494	0.041	-0.044
-294.691	121.282	0.147	0.180
-293.676	93.249	0.231	0.257
-292.662	-79.426	-0.446	-0.148
-291.647	-25.744	0.281	-0.163
-290.632	800.000	-0.032	-0.094
-289.618	72.795	0.201	-0.206
-288.603	300.053	0.013	-0.024
-287.589	69.131	0.134	0.135
-286.574	-200.000	-0.034	0.275
-285.559	-200.000	-0.046	-0.205
-284.545	-200.000	-0.007	0.088
-283.530	5.062	-0.028	-0.020
-282.516	-1.077	-0.183	-0.127
-281.501	166.011	-0.095	-0.133
-280.486	4.597	0.408	0.294
-279.472	-102.108	0.143	-0.034
-278.457	-70.164	-0.188	-0.070
-277.443	-125.678	0.390	0.058
-276.428	33.936	0.048	-0.041
-275.413	29.915	0.108	-0.090
-274.399	-43.748	-0.095	0.047
-273.384	-68.043	0.210	-0.080
-272.370	-68.390	-0.166	-0.063
-271.355	-200.000	0.010	-0.492
-270.340	-200.000	-0.001	0.018
-269.326	44.351	0.383	0.345
-268.311	135.136	-0.221	-0.282
-267.297	-200.000	0.043	0.220
-266.282	75.687	0.023	0.023
-265.267	-125.697	0.097	-0.014
-264.253	-13.167	-0.209	-0.133
-263.238	-200.000	0.007	0.134
-262.224	124.231	0.091	-0.113
-261.209	-200.000	-0.034	0.245
-260.195	-151.259	-0.141	-0.010
-259.180	-200.000	0.040	0.318
-258.165	800.000	0.096	0.394
-257.151	-35.757	-0.078	0.042
-256.136	800.000	-0.032	0.136
-255.122	31.607	0.053	0.045
-254.107	800.000	-0.120	0.432
-253.092	-42.046	-0.046	0.023
-252.078	126.764	0.205	-0.254
-251.063	61.591	0.270	0.264
-250.049	116.341	-0.054	-0.065
-249.034	393.723	-0.124	-0.252
-248.019	-114.638	-0.149	-0.028
-247.005	122.981	0.109	0.134
-245.990	-30.215	0.195	-0.109
-244.976	-30.242	0.127	0.071
-243.961	-200.000	0.030	0.217
-242.946	-78.601	-0.225	-0.075
-241.932	116.677	0.123	-0.148
-240.917	-61.849	-0.124	-0.051
-239.903	158.582	0.168	-0.229
-238.888	-15.219	0.113	-0.071
-237.873	27.364	0.132	-0.109
-236.859	-33.300	0.253	-0.137
-235.844	-3.165	0.075	0.051
-234.830	-200.000	-0.000	0.257
-233.815	-200.000	0.050	0.346
-232.800	117.834	-0.051	-0.062
-231.786	-126.011	-0.139	-0.020
-230.771	-25.854	0.255	0.147
-229.757	-32.363	-0.303	-0.165
-228.742	800.000	-0.093	0.290
-227.727	107.875	0.063	0.073
-226.713	-167.382	-0.253	0.010
-225.698	-200.000	0.025	0.148
-224.684	-26.873	-0.178	-0.102
-223.669	235.732	-0.122	0.197
-222.655	-200.000	0.113	0.502
-221.640	-64.788	-0.072	0.028
-220.625	-62.781	0.219	0.089
-219.611	3.522	0.048	0.035
-218.596	217.406	0.037	0.058
-217.582	200.636	0.156	-0.235
-216.567	-200.000	0.006	-0.063
-215.552	-200.000	0.053	0.359
-214.538	-200.000	0.031	0.284
-213.523	93.922	0.126	0.140
-212.509	241.067	-0.170	0.278
-211.494	314.063	0.140	-0.259
-210.479	-200.000	-0.037	0.276
-209.465	-200.000	-0.025	0.335
-208.450	-200.000	0.004	-0.268
-207.436	145.478	-0.175	-0.230
-206.421	-198.568	0.102	-0.001
-205.406	-200.000	0.012	0.183
-204.392	149.292	0.277	0.366
-203.377	140.644	-0.091	-0.118
-202.363	-8.141	-0.211	0.139
-201.348	-61.943	0.404	-0.165
-200.333	800.000	-0.053	-0.172
-199.319	169.697	-0.244	0.341
-198.304	265.360	0.158	0.270
-197.290	422.318	0.105	-0.220
-196.275	-141.354	-0.285	-0.028
-195.260	-41.004	0.182	0.092
-194.246	-79.020	0.169	-0.056
-193.231	-153.210	-0.307	-0.021
-192.217	-200.000	0.035	-0.296
-191.202	-90.139	-0.369	-0.105
-190.187	52.568	0.193	-0.181
-189.173	800.000	-0.181	-0.495
-188.158	102.278	-0.144	0.165
-187.144	3.719	-0.092	-0.066
-186.129	-82.445	0.186	0.059
-185.114	447.320	0.034	0.074
-184.100	800.000	0.066	-0.203
-183.085	194.621	0.048	-0.071
-182.071	800.000	0.015	-0.043
-181.056	14.026	-0.268	-0.204
-180.042	376.831	0.142	0.283
-179.027	-49.594	0.034	-0.016
-178.012	129.443	-0.103	-0.128
-176.998	56.356	-0.189	-0.179
-175.983	176.051	0.191	0.270
-174.969	-110.336	-0.072	0.015
-173.954	253.799	-0.130	0.217
-172.939	62.426	0.053	0.051
-171.925	-154.933	0.310	-0.020
-170.910	303.883	-0.100	-0.182
-169.896	-15.634	0.016	-0.010
-168.881	52.583	-0.027	0.026
-167.866	-128.852	0.268	0.037
-166.852	164.049	-0.264	0.364
-165.837	98.616	-0.058	0.066
-164.823	107.765	-0.021	0.025
-163.808	-79.972	-0.338	-0.111
-162.793	53.671	0.221	-0.207
-161.779	-200.000	0.043	-0.217
-160.764	-56.420	0.316	0.137
-159.750	800.000	0.048	-0.204
-158.735	-200.000	0.014	-0.086
-157.720	-37.773	0.279	0.145
-156.706	800.000	-0.081	-0.321
-155.691	217.901	-0.037	-0.057
-154.677	137.390	0.025	0.032
-153.662	-98.736	0.088	0.022
-152.647	800.000	0.029	-0.110
-151.633	-19.547	0.148	0.090
-150.618	-94.235	0.135	0.036
-149.604	-21.460	0.290	0.173
-148.589	226.363	0.061	-0.096
-147.574	608.642	-0.068	0.167
-146.560	800.000	0.068	0.256
-145.545	770.734	0.120	0.320
-144.531	-150.863	0.243	0.018
-143.516	389.704	0.179	-0.361
-142.502	117.720	0.163	-0.195
-141.487	800.000	-0.070	0.281
-140.472	392.829	0.200	0.406
-139.458	323.647	0.094	0.175
-138.443	-2.011	-0.218	0.150
-137.429	304.663	-0.041	0.075
-136.414	-46.888	0.176	0.084
-135.399	118.613	0.092	-0.111
-134.385	-62.014	-0.317	0.129
-133.370	-114.522	-0.173	-0.032
-132.356	-140.533	0.101	-0.010
-131.341	-172.082	0.225	-0.007
-130.326	-200.000	-0.014	-0.066
-129.312	395.776	-0.071	-0.144
-128.297	-199.188	0.259	0.001
-127.283	562.751	0.166	0.391
-126.268	393.094	0.114	0.232
-125.253	1.664	0.100	-0.070
-124.239	-200.000	-0.013	0.161
-123.224	-200.000	0.138	0.000
-122.210	177.215	-0.177	0.251
-121.195	800.000	-0.103	-0.319
-120.180	-200.000	0.027	0.168
