DTS Sentinel unit serial number:	SN413079Multiplexer serial number:	ORYXHardware model number:	OX4-SRSoftware version number:	ORYX F/W v4.00 Oryx Data Collector v3.7.2.0data status	okinstallation	princeton_trtdifferential loss correction	single-endedforward channel	channel 3reverse channel	N/Adate	2019/09/16time	11:36:35forward acquisition time	60.00reverse acquisition time	0.00gamma	496.2192k internal	0.2297k external	0.2297temperature offset calibration	0.9943default loss term (dB/km)	0.3790temperature slope calibration	1.0000multiplexer offset coefficient	1.0000multiplexer slope coefficient	1.0000fibre end	0.00T internal ref (°C)	37.87T ext. ref 1 (°C)	12.99T ext. ref 2 (°C)	35.51length (m)	temperature (°C)	Stokes	anti-Stokes-747.200	-122.586	0.479	-0.079
-746.185	143.039	-0.089	0.121
-745.171	-13.666	-0.349	0.231
-744.156	315.352	0.167	0.322
-743.142	-156.963	-0.113	0.007
-742.127	40.185	-0.375	0.344
-741.112	-79.269	-0.244	-0.084
-740.098	769.357	-0.131	0.365
-739.083	-127.057	0.171	-0.026
-738.069	56.492	0.185	0.184
-737.054	26.329	-0.070	-0.059
-736.039	575.512	0.114	0.284
-735.025	47.940	-0.233	0.222
-734.010	-171.019	-0.312	-0.011
-732.996	32.500	-0.278	0.245
-731.981	-185.406	0.199	-0.003
-730.966	202.159	-0.196	-0.308
-729.952	185.370	0.090	-0.136
-728.937	-122.562	0.167	-0.028
-727.923	800.000	-0.064	-0.247
-726.908	-200.000	0.038	0.461
-725.894	51.761	-0.211	-0.205
-724.879	-151.025	-0.278	0.021
-723.864	-200.000	0.003	0.060
-722.850	-70.427	-0.126	0.049
-721.835	-200.000	-0.042	0.225
-720.821	195.530	0.134	-0.207
-719.806	-200.000	-0.028	-0.262
-718.791	303.665	-0.021	-0.040
-717.777	29.716	0.023	0.020
-716.762	800.000	0.073	-0.236
-715.748	-200.000	-0.023	0.238
-714.733	-200.000	0.033	-0.320
-713.718	-111.355	-0.084	0.017
-712.704	142.923	-0.221	-0.300
-711.689	61.369	-0.029	0.030
-710.675	-5.266	-0.157	-0.110
-709.660	150.821	-0.169	-0.234
-708.645	403.571	0.085	-0.183
-707.631	800.000	0.061	-0.268
-706.616	17.521	0.089	0.072
-705.602	86.685	-0.230	0.259
-704.587	-35.077	-0.091	0.051
-703.572	-200.000	-0.026	-0.232
-702.558	800.000	-0.138	-0.453
-701.543	41.933	-0.270	-0.249
-700.529	800.000	0.053	-0.200
-699.514	31.330	-0.116	-0.102
-698.499	476.239	0.025	0.058
-697.485	800.000	0.074	0.219
-696.470	-6.649	0.074	-0.051
-695.456	-103.452	0.301	-0.072
-694.441	-194.483	0.232	0.002
-693.426	-76.273	0.213	-0.077
-692.412	168.535	-0.013	-0.019
-691.397	95.356	-0.207	0.241
-690.383	-64.894	-0.238	0.098
-689.368	-111.959	-0.197	0.041
-688.354	-200.000	-0.001	-0.213
-687.339	800.000	0.096	-0.389
-686.324	-118.535	-0.281	-0.051
-685.310	150.573	-0.018	-0.026
-684.295	229.162	-0.177	-0.294
-683.281	324.295	-0.105	0.204
-682.266	800.000	-0.039	0.118
-681.251	-21.864	0.195	0.121
-680.237	-161.130	0.314	-0.017
-679.222	800.000	0.022	-0.088
-678.208	-52.020	0.046	-0.022
-677.193	-200.000	-0.011	0.566
-676.178	800.000	0.035	0.110
-675.164	-200.000	0.007	0.113
-674.149	-85.890	-0.259	-0.082
-673.135	-101.361	0.385	-0.096
-672.120	-32.342	-0.196	0.111
-671.105	-1.916	-0.165	-0.118
-670.091	-200.000	0.015	-0.109
-669.076	-118.147	-0.268	-0.049
-668.062	-200.000	0.013	-0.482
-667.047	619.883	0.093	-0.237
-666.032	47.916	-0.151	-0.144
-665.018	292.979	-0.202	-0.375
-664.003	-151.024	0.156	0.012
-662.989	-200.000	0.023	0.287
-661.974	-138.547	-0.143	-0.016
-660.959	123.293	-0.073	0.093
-659.945	110.417	0.080	0.097
-658.930	-200.000	0.029	-0.304
-657.916	-47.069	0.150	0.075
-656.901	75.467	-0.313	-0.337
-655.886	61.370	0.130	-0.132
-654.872	-41.183	-0.156	0.082
-653.857	-200.000	-0.003	-0.223
-652.843	-200.000	-0.508	-0.002
-651.828	800.000	0.055	-0.167
-650.814	-200.000	0.217	0.001
-649.799	211.903	-0.058	0.093
-648.784	87.578	0.190	-0.215
-647.770	-200.000	0.058	0.524
-646.755	-170.499	0.214	-0.008
-645.741	-43.893	0.027	0.014
-644.726	62.991	-0.110	0.112
-643.711	52.316	0.184	-0.179
-642.697	3.231	-0.150	0.111
-641.682	-200.000	-0.048	0.274
-640.668	32.943	0.233	-0.206
-639.653	-76.531	-0.087	0.031
-638.638	-200.000	0.014	-0.148
-637.624	483.643	0.050	-0.116
-636.609	82.767	0.154	0.170
-635.595	-100.522	0.337	0.085
-634.580	-109.302	0.221	-0.048
-633.565	-98.036	-0.123	0.032
-632.551	-78.591	0.156	-0.054
-631.536	110.599	0.247	-0.302
-630.522	477.096	-0.127	-0.292
-629.507	218.939	-0.152	-0.247
-628.492	-200.000	0.015	0.000
-627.478	377.661	0.096	-0.199
-626.463	369.832	-0.150	-0.309
-625.449	800.000	0.123	-0.369
-624.434	307.756	0.102	0.193
-623.419	82.187	-0.271	-0.299
-622.405	10.032	0.308	-0.238
-621.390	165.730	0.058	-0.083
-620.376	-200.000	-0.007	-0.145
-619.361	-6.414	-0.166	0.115
-618.346	-28.613	0.154	-0.090
-617.332	288.240	0.060	-0.110
-616.317	-120.182	-0.049	0.008
-615.303	40.822	-0.250	0.229
-614.288	127.551	0.168	-0.217
-613.273	-200.000	0.036	-0.231
-612.259	118.202	-0.128	-0.160
-611.244	-114.902	-0.360	-0.070
-610.230	156.049	0.190	0.266
-609.215	-200.000	0.003	0.198
-608.201	800.000	0.161	-0.512
-607.186	168.182	0.134	-0.194
-606.171	-69.941	-0.291	0.113
-605.157	353.617	0.087	0.175
-604.142	48.730	-0.214	-0.204
-603.128	800.000	-0.074	-0.299
-602.113	523.928	-0.049	-0.118
-601.098	-119.953	-0.442	-0.077
-600.084	-30.760	0.125	-0.072
-599.069	-200.000	-0.007	-0.159
-598.055	96.404	-0.148	0.173
-597.040	-200.000	-0.002	0.071
-596.025	-200.000	-0.045	0.209
-595.011	-87.873	0.216	0.066
-593.996	800.000	0.088	0.372
-592.982	-94.992	0.144	-0.040
-591.967	-107.458	-0.272	0.060
-590.952	-200.000	-0.019	0.165
-589.938	-28.034	0.297	0.174
-588.923	172.570	0.076	0.111
-587.909	269.103	0.177	-0.315
-586.894	2.653	-0.144	0.106
-585.879	-200.000	-0.007	-0.302
-584.865	14.313	0.276	0.218
-583.850	285.028	0.188	0.344
-582.836	-200.000	0.048	-0.383
-581.821	-89.545	0.324	-0.097
-580.806	-193.434	0.326	-0.003
-579.792	800.000	-0.090	0.332
-578.777	481.780	0.100	0.231
-577.763	-99.828	0.379	0.096
-576.748	-22.749	-0.127	0.078
-575.733	73.014	-0.207	-0.219
-574.719	-54.075	-0.223	-0.103
-573.704	-200.000	0.063	-0.325
-572.690	600.516	-0.117	-0.294
-571.675	231.071	0.053	0.089
-570.661	800.000	0.013	-0.037
-569.646	40.826	0.203	0.185
-568.631	459.040	-0.063	-0.142
-567.617	-52.467	-0.294	-0.138
-566.602	-115.750	0.179	0.034
-565.588	430.615	-0.111	0.244
-564.573	134.998	0.162	0.214
-563.558	373.307	-0.094	-0.194
-562.544	-200.000	-0.036	-0.216
-561.529	800.000	0.033	-0.131
-560.515	-200.000	0.039	-0.439
-559.500	46.531	0.243	-0.229
-558.485	-120.493	-0.181	0.031
-557.471	800.000	-0.099	0.426
-556.456	508.109	-0.049	0.115
-555.442	218.320	0.093	-0.151
-554.427	657.017	0.153	-0.399
-553.412	800.000	-0.065	0.183
-552.398	-26.483	-0.169	-0.100
-551.383	-200.000	0.059	-0.280
-550.369	302.085	-0.134	-0.252
-549.354	70.114	0.155	-0.162
-548.339	800.000	-0.071	-0.247
-547.325	440.529	0.135	-0.299
-546.310	322.586	-0.144	0.278
-545.296	306.210	0.168	0.317
-544.281	33.121	-0.182	-0.160
-543.266	-200.000	-0.004	0.088
-542.252	-200.000	-0.047	-0.393
-541.237	155.350	0.120	0.167
-540.223	-200.000	0.000	0.084
-539.208	-93.112	-0.142	-0.040
-538.193	161.399	-0.265	-0.376
-537.179	-147.286	0.078	0.007
-536.164	18.008	-0.010	0.008
-535.150	800.000	0.028	-0.094
-534.135	-107.617	0.096	-0.021
-533.121	800.000	0.080	0.346
-532.106	800.000	-0.093	-0.300
-531.091	-200.000	-0.008	0.212
-530.077	-103.003	0.223	-0.054
-529.062	-152.172	0.334	0.025
-528.048	130.440	-0.086	-0.112
-527.033	307.880	-0.189	0.357
-526.018	-67.702	-0.185	-0.073
-525.004	637.578	-0.035	0.091
-523.989	-147.734	-0.361	-0.031
-522.975	-200.000	-0.017	-0.214
-521.960	-200.000	0.008	0.133
-520.945	592.530	0.029	0.073
-519.931	359.805	0.103	0.209
-518.916	-200.000	0.025	-0.228
-517.902	800.000	-0.104	-0.457
-516.887	-43.780	-0.249	-0.127
-515.872	-200.000	0.013	0.065
-514.858	15.463	-0.162	0.129
-513.843	800.000	0.068	0.284
-512.829	-65.436	0.095	0.038
-511.814	231.076	0.076	0.125
-510.799	-153.482	-0.453	0.032
-509.785	460.094	-0.148	0.334
-508.770	-200.000	-0.223	-0.001
-507.756	-162.347	-0.092	-0.005
-506.741	800.000	-0.066	0.194
-505.726	-200.000	-0.004	0.236
-504.712	-200.000	-0.022	-0.192
-503.697	800.000	0.077	-0.329
-502.683	-200.000	0.008	0.061
-501.668	-85.088	-0.185	0.059
-500.653	-200.000	-0.302	-0.001
-499.639	568.804	0.091	0.224
-498.624	-200.000	-0.028	-0.246
-497.610	-128.562	0.097	0.014
-496.595	-200.000	0.038	0.178
-495.581	800.000	0.075	0.230
-494.566	800.000	0.066	-0.222
-493.551	-200.000	-0.026	-0.271
-492.537	-121.898	-0.157	-0.026
-491.522	800.000	-0.071	-0.252
-490.508	136.138	-0.153	0.201
-489.493	-25.748	-0.278	0.165
-488.478	-97.068	-0.236	0.063
-487.464	-113.822	-0.231	-0.045
-486.449	-91.320	0.143	0.041
-485.435	-45.374	-0.031	-0.016
-484.420	-200.000	0.067	0.338
-483.405	28.236	-0.224	0.191
-482.391	347.004	0.126	0.250
-481.376	-137.748	-0.091	-0.010
-480.362	552.709	0.079	0.192
-479.347	66.781	0.265	-0.272
-478.332	-131.822	-0.094	0.012
-477.318	145.088	0.212	0.286
-476.303	60.030	0.083	0.083
-475.289	-159.303	0.197	-0.011
-474.274	-53.641	0.367	-0.170
-473.259	-126.553	-0.397	0.060
-472.245	800.000	0.023	0.094
-471.230	-151.474	0.124	0.009
-470.216	-200.000	0.028	-0.298
-469.201	1.793	-0.117	0.085
-468.186	52.455	0.070	0.067
-467.172	415.084	-0.186	0.400
-466.157	-104.279	-0.160	0.037
-465.143	167.388	-0.040	0.057
-464.128	332.510	0.165	-0.321
-463.113	-151.123	0.353	-0.027
-462.099	677.158	-0.082	-0.215
-461.084	6.960	-0.443	-0.334
-460.070	28.850	-0.213	0.182
-459.055	-107.853	-0.189	0.042
-458.040	67.883	0.128	0.132
-457.026	362.740	-0.063	0.127
-456.011	-89.371	-0.149	0.044
-454.997	541.433	0.064	0.154
-453.982	-36.500	-0.044	0.024
-452.968	800.000	0.035	-0.101
-451.953	3.601	-0.281	-0.207
-450.938	-127.286	-0.245	0.036
-449.924	790.579	0.056	0.154
-448.909	-53.489	0.371	0.172
-447.895	535.961	0.074	0.177
-446.880	151.614	0.214	-0.294
-445.865	-200.000	0.010	0.157
-444.851	-13.565	-0.128	0.083
-443.836	-146.713	-0.134	-0.012
-442.822	102.337	-0.270	0.319
-441.807	239.221	0.097	0.164
-440.792	800.000	0.029	0.121
-439.778	77.703	0.147	0.158
-438.763	-23.006	-0.330	0.201
-437.749	-200.000	-0.015	0.315
-436.734	189.874	-0.177	0.268
-435.719	96.547	0.076	-0.088
-434.705	-200.000	-0.018	0.092
-433.690	-162.984	0.213	0.010
-432.676	-200.000	0.010	0.144
-431.661	-162.986	-0.228	0.011
-430.646	738.994	-0.164	-0.445
-429.632	9.523	0.401	0.307
-428.617	187.176	0.028	-0.042
-427.603	-124.611	-0.105	0.016
-426.588	169.070	0.069	-0.099
-425.573	-193.078	-0.099	-0.001
-424.559	800.000	-0.062	-0.210
-423.544	-24.855	0.092	0.055
-422.530	800.000	-0.096	-0.355
-421.515	287.422	0.088	-0.160
-420.500	88.837	0.112	-0.126
-419.486	665.515	0.085	0.221
-418.471	227.369	-0.038	-0.063
-417.457	-156.389	0.413	0.026
-416.442	478.271	0.042	-0.096
-415.428	165.074	0.046	0.066
-414.413	-30.091	0.142	-0.081
-413.398	-31.385	-0.174	-0.099
-412.384	111.589	-0.065	0.079
-411.369	-19.975	0.125	-0.078
-410.355	87.215	0.101	0.112
-409.340	119.289	0.079	-0.099
-408.325	-200.000	0.033	0.210
-407.311	-77.625	0.262	-0.092
-406.296	-109.156	-0.097	0.021
-405.282	10.962	-0.306	0.236
-404.267	-24.353	0.203	0.122
-403.252	-64.146	0.147	0.060
-402.238	80.914	0.220	-0.239
-401.223	-108.527	-0.304	0.066
-400.209	-200.000	0.037	0.216
-399.194	-200.000	-0.039	-0.534
-398.179	800.000	0.099	-0.376
-397.165	-80.433	-0.235	0.079
-396.150	-162.578	0.212	0.011
-395.136	-13.556	-0.229	-0.149
-394.121	612.277	-0.086	0.216
-393.106	591.946	0.039	0.097
-392.092	-32.170	0.407	0.229
-391.077	-200.000	-0.004	0.034
-390.063	-73.161	-0.058	0.022
-389.048	139.410	0.032	0.042
-388.033	-30.193	0.252	-0.144
-387.019	-200.000	0.003	-0.318
-386.004	800.000	0.076	0.223
-384.990	-110.724	-0.420	0.087
-383.975	-200.000	-0.012	0.164
-382.960	-74.928	0.208	-0.075
-381.946	592.004	0.020	0.050
-380.931	-200.000	0.019	-0.140
-379.917	-92.116	0.240	-0.068
-378.902	-161.300	-0.228	0.012
-377.888	109.026	0.167	0.201
-376.873	347.802	-0.151	-0.300
-375.858	193.368	-0.137	-0.208
-374.844	-67.428	0.219	0.087
-373.829	800.000	0.081	-0.352
-372.815	36.529	-0.119	0.106
-371.800	125.820	0.062	0.078
-370.785	-141.742	0.101	-0.010
-369.771	-5.952	0.147	-0.101
-368.756	54.801	-0.171	-0.166
-367.742	800.000	-0.085	-0.282
-366.727	190.356	-0.085	-0.128
-365.712	-82.661	0.384	0.125
-364.698	166.978	-0.209	0.298
-363.683	-200.000	0.042	-0.207
-362.669	644.683	-0.112	-0.287
-361.654	-13.610	-0.114	0.075
-360.639	-8.768	-0.272	-0.184
-359.625	-200.000	0.026	0.126
-358.610	232.441	-0.152	0.251
-357.596	-200.000	-0.002	-0.164
-356.581	-29.946	-0.324	-0.185
-355.566	187.408	0.187	-0.280
-354.552	7.797	-0.054	-0.041
-353.537	-200.000	0.020	0.128
-352.523	19.664	-0.462	-0.374
-351.508	-25.453	-0.236	0.141
-350.493	800.000	0.045	0.127
-349.479	-28.160	-0.107	-0.062
-348.464	111.745	-0.145	0.176
-347.450	-128.758	-0.132	-0.019
-346.435	-5.507	0.054	-0.037
-345.420	-200.000	0.054	0.328
-344.406	-200.000	-0.073	0.376
-343.391	-89.043	-0.329	0.098
-342.377	255.545	-0.040	-0.069
-341.362	-200.000	-0.035	-0.291
-340.348	-7.128	0.323	0.221
-339.333	39.734	0.117	0.106
-338.318	30.822	-0.118	0.101
-337.304	-27.469	0.294	0.172
-336.289	348.670	-0.161	-0.318
-335.275	-113.241	-0.354	0.070
-334.260	800.000	0.027	0.112
-333.245	552.451	-0.102	-0.245
-332.231	264.024	-0.144	0.252
-331.216	-98.369	-0.113	0.029
-330.202	-14.081	0.160	-0.104
-329.187	-46.277	0.233	-0.115
-328.172	464.038	-0.012	-0.026
-327.158	379.748	-0.065	0.134
-326.143	85.297	0.242	-0.267
-325.129	14.318	-0.266	0.209
-324.114	493.324	-0.033	-0.077
-323.099	-47.476	0.150	0.073
-322.085	-118.117	0.381	0.068
-321.070	605.176	0.021	-0.054
-320.056	-91.441	-0.225	0.064
-319.041	3.734	0.309	0.226
-318.026	-200.000	-0.031	-0.147
-317.012	117.820	-0.047	-0.058
-315.997	621.055	-0.064	0.162
-314.983	-6.808	0.070	-0.048
-313.968	-87.342	0.068	0.021
-312.953	215.534	-0.174	-0.277
-311.939	-127.749	0.454	0.066
-310.924	-79.788	0.086	0.029
-309.910	12.559	0.174	-0.135
-308.895	-200.000	0.023	-0.294
-307.880	-18.556	-0.061	0.038
-306.866	-121.896	0.116	0.019
-305.851	-144.224	-0.162	-0.015
-304.837	428.845	-0.095	0.205
-303.822	-80.871	0.125	0.042
-302.807	13.643	0.302	0.236
-301.793	-200.000	0.070	0.322
-300.778	161.046	0.084	0.118
-299.764	230.645	0.059	-0.097
-298.749	-100.583	-0.187	0.046
-297.735	-174.884	-0.153	0.004
-296.720	800.000	0.109	-0.440
-295.705	-200.000	0.034	-0.267
-294.691	-79.835	-0.130	0.044
-293.676	34.466	0.160	0.141
-292.662	-176.958	-0.104	0.003
-291.647	-89.662	-0.350	-0.103
-290.632	536.627	-0.097	0.230
-289.618	-200.000	-0.005	0.212
-288.603	34.671	-0.095	0.083
-287.589	-35.876	-0.238	-0.129
-286.574	140.279	0.046	0.061
-285.559	-161.578	0.110	0.006
-284.545	-65.436	0.268	-0.108
-283.530	-49.581	-0.104	-0.049
-282.516	132.288	-0.145	0.188
-281.501	800.000	0.093	-0.339
-280.486	-129.299	0.264	-0.037
-279.472	-185.153	0.200	-0.003
-278.457	-200.000	-0.003	-0.033
-277.443	-200.000	0.012	-0.054
-276.428	-74.380	0.068	0.024
-275.413	-17.223	0.098	0.062
-274.399	-200.000	0.009	-0.177
-273.384	75.690	-0.097	-0.103
-272.370	-200.000	-0.067	-0.442
-271.355	800.000	0.063	0.185
-270.340	-41.357	0.228	0.118
-269.326	-200.000	-0.018	0.099
-268.311	253.176	0.229	-0.391
-267.297	800.000	-0.028	0.104
-266.282	-31.226	0.384	0.217
-265.267	-45.274	0.055	0.027
-264.253	166.274	-0.124	-0.177
-263.238	134.823	0.090	-0.117
-262.224	-12.234	-0.156	0.102
-261.209	-120.990	-0.545	-0.092
-260.195	-95.593	0.355	-0.095
-259.180	-150.525	0.176	0.014
-258.165	-200.000	-0.014	-0.266
-257.151	-33.780	0.338	0.187
-256.136	216.669	0.171	0.273
-255.122	104.198	0.144	-0.170
-254.107	225.147	0.078	0.127
-253.092	-159.878	0.149	-0.008
-252.078	157.443	0.154	0.214
-251.063	-77.225	-0.089	0.031
-250.049	26.317	-0.147	0.123
-249.034	-200.000	0.056	0.329
-248.019	-21.188	-0.243	0.149
-247.005	-83.347	-0.273	0.088
-245.990	-186.362	0.199	-0.003
-244.976	-200.000	0.015	0.298
-243.961	-14.809	-0.062	0.040
-242.946	-67.000	0.242	-0.096
-241.932	800.000	0.092	0.316
-240.917	800.000	-0.064	0.192
-239.903	170.510	0.145	0.209
-238.888	800.000	0.079	0.241
-237.873	-33.111	-0.298	0.166
-236.859	-89.156	-0.272	-0.080
-235.844	13.114	-0.049	-0.038
-234.830	-200.000	0.019	0.088
-233.815	292.793	0.170	0.309
-232.800	800.000	-0.082	0.292
-231.786	-133.164	0.377	0.048
-230.771	-200.000	0.033	0.191
-229.757	238.174	0.092	0.154
-228.742	800.000	0.062	-0.197
-227.727	-200.000	0.033	0.278
-226.713	-200.000	-0.032	-0.203
-225.698	-154.372	-0.249	0.017
-224.684	575.331	0.053	-0.131
-223.669	-64.121	0.307	-0.125
-222.655	-58.634	0.176	-0.076
-221.640	146.969	-0.029	0.039
-220.625	-33.394	-0.372	-0.206
-219.611	-200.000	-0.025	0.166
-218.596	-136.579	0.140	-0.016
-217.582	191.077	-0.273	0.411
-216.567	38.182	-0.261	0.232
-215.552	-146.414	-0.062	0.005
-214.538	-54.732	0.280	-0.126
-213.523	-79.429	-0.297	-0.101
-212.509	-170.906	0.274	-0.009
-211.494	-200.000	0.004	0.026
-210.479	800.000	-0.048	0.159
-209.465	50.936	0.141	0.133
-208.450	54.277	0.366	0.352
-207.436	102.938	0.119	0.139
-206.421	800.000	-0.077	0.230
-205.406	-200.000	-0.026	-0.282
-204.392	107.603	0.245	-0.291
-203.377	-141.392	-0.214	0.022
-202.363	-127.784	-0.290	0.042
-201.348	-52.599	0.132	0.061
-200.333	9.642	0.231	0.175
-199.319	-45.309	-0.228	0.113
-198.304	-81.269	0.258	-0.085
-197.290	-96.774	-0.093	-0.025
-196.275	-108.829	-0.215	-0.046
-195.260	-69.706	-0.464	-0.177
-194.246	-157.781	0.058	0.003
-193.231	339.385	0.170	0.331
-192.217	-200.000	-0.044	-0.287
-191.202	800.000	0.044	-0.158
-190.187	211.534	-0.182	-0.287
-189.173	-75.559	-0.104	0.037
-188.158	305.682	-0.043	-0.081
-187.144	586.659	0.076	-0.187
-186.129	-200.000	0.016	-0.179
-185.114	7.044	0.151	0.113
-184.100	-200.000	0.001	-0.152
-183.085	134.008	-0.196	-0.253
-182.071	-200.000	-0.040	-0.204
-181.056	-20.286	0.054	-0.033
-180.042	800.000	0.016	0.064
-179.027	-64.442	-0.188	0.076
-178.012	-118.992	-0.247	0.043
-176.998	-56.594	0.186	0.082
-175.983	36.313	-0.225	0.199
-174.969	800.000	-0.020	-0.059
-173.954	2.927	-0.293	-0.212
-172.939	-144.198	0.122	0.011
-171.925	16.316	0.232	0.183
-170.910	-66.859	0.238	-0.094
-169.896	419.053	0.015	-0.031
-168.881	-76.883	0.235	0.082
-167.866	-200.000	-0.029	-0.284
-166.852	345.287	-0.079	-0.155
-165.837	30.628	-0.269	-0.230
-164.823	-200.000	-0.046	0.408
-163.808	239.786	0.070	0.116
-162.793	-170.044	-0.454	0.016
-161.779	8.942	-0.059	-0.045
-160.764	38.368	0.252	-0.224
-159.750	745.464	0.046	-0.123
-158.735	-200.000	-0.019	-0.165
-157.720	130.186	0.128	0.163
-156.706	58.846	0.170	-0.167
-155.691	-14.153	-0.185	-0.119
-154.677	130.730	-0.095	0.122
-153.662	411.215	-0.079	0.167
-152.647	227.207	-0.190	0.309
-151.633	476.828	0.098	0.221
-150.618	-48.236	0.063	0.030
-149.604	-125.737	0.240	0.036
-148.589	-200.000	-0.021	-0.417
-147.574	-200.000	0.059	0.490
-146.560	800.000	-0.050	0.143
-145.545	-200.000	0.029	0.245
-144.531	-9.583	0.140	-0.093
-143.516	234.065	0.207	0.340
-142.502	-101.567	-0.161	-0.039
-141.487	-81.991	0.402	0.131
-140.472	192.798	-0.318	-0.479
-139.458	800.000	0.091	0.329
-138.443	47.977	-0.244	-0.227
-137.429	789.500	0.086	0.236
-136.414	412.484	0.069	-0.146
-135.399	156.864	0.128	-0.177
-134.385	-135.810	-0.401	0.047
-133.370	-104.933	-0.217	-0.050
-132.356	271.345	-0.119	-0.210
-131.341	-90.748	0.221	-0.064
-130.326	-31.951	-0.142	-0.079
-129.312	-58.662	0.209	0.090
-128.297	-5.753	-0.143	-0.098
-127.283	-200.000	0.040	-0.189
-126.268	572.960	0.107	-0.259
-125.253	-200.000	0.031	-0.180
-124.239	-77.130	-0.254	0.088
-123.224	17.413	0.065	-0.051
-122.210	-52.805	-0.090	-0.042
-121.195	-200.000	0.082	0.377
