DTS Sentinel unit serial number:	SN413079Multiplexer serial number:	ORYXHardware model number:	OX4-SRSoftware version number:	ORYX F/W v4.00 Oryx Data Collector v3.7.2.0data status	okinstallation	princeton_trtdifferential loss correction	single-endedforward channel	channel 3reverse channel	N/Adate	2019/09/14time	21:52:34forward acquisition time	60.00reverse acquisition time	0.00gamma	496.2192k internal	0.2318k external	0.2318temperature offset calibration	0.9986default loss term (dB/km)	0.3790temperature slope calibration	1.0000multiplexer offset coefficient	1.0000multiplexer slope coefficient	1.0000fibre end	0.00T internal ref (°C)	32.75T ext. ref 1 (°C)	4.71T ext. ref 2 (°C)	27.71length (m)	temperature (°C)	Stokes	anti-Stokes-747.200	-150.375	-0.355	0.028
-746.185	382.704	-0.173	0.361
-745.171	518.908	0.061	0.145
-744.156	-200.000	0.005	-0.117
-743.142	267.318	0.116	-0.205
-742.127	688.357	-0.065	0.173
-741.112	-58.968	0.186	0.081
-740.098	384.304	0.063	0.132
-739.083	-120.658	-0.272	0.047
-738.069	800.000	-0.039	0.154
-737.054	83.618	0.050	0.055
-736.039	199.779	-0.154	-0.239
-735.025	50.712	0.033	0.031
-734.010	-90.929	0.312	0.091
-732.996	-200.000	-0.014	0.065
-731.981	-200.000	-0.005	-0.160
-730.966	-95.125	-0.168	-0.046
-729.952	-101.731	-0.190	-0.047
-728.937	-200.000	-0.048	0.312
-727.923	-28.811	0.072	-0.042
-726.908	-111.752	0.152	-0.031
-725.894	365.967	-0.116	-0.236
-724.879	-21.170	-0.353	-0.218
-723.864	303.873	-0.097	-0.182
-722.850	28.999	0.153	0.131
-721.835	-134.972	0.069	0.008
-720.821	-132.083	-0.148	-0.019
-719.806	142.405	-0.108	0.145
-718.791	-43.563	-0.174	0.089
-717.777	-31.213	0.205	-0.117
-716.762	-132.131	0.171	-0.022
-715.748	800.000	0.062	-0.181
-714.733	-200.000	-0.024	-0.212
-713.718	-200.000	-0.007	0.283
-712.704	-200.000	0.019	0.185
-711.689	92.311	-0.089	0.101
-710.675	-200.000	0.170	0.000
-709.660	-11.365	0.236	0.157
-708.645	527.026	0.138	0.329
-707.631	350.282	-0.145	0.290
-706.616	-119.230	0.279	-0.049
-705.602	-147.790	0.330	-0.028
-704.587	18.406	0.210	0.169
-703.572	-61.194	-0.235	0.100
-702.558	123.887	0.261	-0.332
-701.543	-200.000	-0.063	0.307
-700.529	-79.563	-0.137	0.047
-699.514	800.000	0.070	0.202
-698.499	121.808	-0.148	0.186
-697.485	183.926	-0.166	0.249
-696.470	-21.794	0.180	0.111
-695.456	800.000	-0.024	0.108
-694.441	755.913	-0.035	0.095
-693.426	193.952	-0.084	-0.129
-692.412	98.433	-0.156	-0.181
-691.397	-107.285	0.405	-0.090
-690.383	222.148	0.138	0.224
-689.368	582.706	-0.067	0.167
-688.354	-129.960	0.324	-0.045
-687.339	800.000	-0.071	-0.204
-686.324	-200.000	-0.023	-0.271
-685.310	-66.004	-0.171	0.069
-684.295	-140.505	-0.090	0.009
-683.281	-24.637	-0.122	0.073
-682.266	-70.264	0.100	-0.038
-681.251	-67.065	-0.166	-0.066
-680.237	-200.000	-0.010	0.060
-679.222	-138.225	0.284	0.032
-678.208	273.884	-0.104	0.185
-677.193	-72.575	0.370	0.138
-676.178	7.978	-0.337	0.255
-675.164	-37.488	0.146	-0.079
-674.149	-9.237	-0.188	0.127
-673.135	78.887	-0.125	0.135
-672.120	-200.000	-0.049	-0.256
-671.105	152.019	-0.138	0.191
-670.091	-49.389	0.083	0.040
-669.076	-89.108	0.204	0.061
-668.062	85.563	0.244	-0.270
-667.047	-56.796	-0.183	0.082
-666.032	-42.101	0.280	-0.145
-665.018	-68.507	0.196	-0.077
-664.003	-200.000	0.027	0.139
-662.989	-171.849	-0.433	-0.014
-661.974	136.021	0.068	0.089
-660.959	-27.375	-0.358	-0.210
-659.945	63.669	0.110	-0.112
-658.930	292.727	-0.072	-0.132
-657.916	-181.994	-0.221	0.004
-656.901	-54.584	0.147	-0.067
-655.886	-200.000	0.007	-0.204
-654.872	-200.000	-0.201	-0.001
-653.857	16.781	-0.058	0.046
-652.843	144.249	-0.025	-0.034
-651.828	22.916	-0.120	-0.099
-650.814	-116.374	0.265	-0.049
-649.799	35.904	0.368	0.326
-648.784	18.810	-0.304	-0.245
-647.770	-163.586	0.129	-0.006
-646.755	153.032	0.046	0.064
-645.741	-162.660	-0.103	-0.005
-644.726	-27.533	0.286	0.168
-643.711	33.392	0.156	-0.137
-642.697	-130.137	0.218	-0.030
-641.682	-14.265	0.094	-0.061
-640.668	-21.547	0.186	-0.115
-639.653	296.260	-0.107	-0.197
-638.638	-36.831	0.190	-0.103
-637.624	800.000	0.121	-0.400
-636.609	549.532	0.142	0.344
-635.595	35.141	-0.135	0.119
-634.580	800.000	-0.065	0.234
-633.565	-71.206	0.256	-0.097
-632.551	321.039	-0.051	-0.097
-631.536	-200.000	0.033	0.201
-630.522	-200.000	-0.027	0.145
-629.507	800.000	-0.034	-0.095
-628.492	81.244	-0.189	-0.206
-627.478	-200.000	0.040	-0.323
-626.463	-4.490	-0.123	-0.086
-625.449	800.000	-0.175	-0.488
-624.434	-200.000	-0.058	-0.381
-623.419	-200.000	-0.013	0.138
-622.405	112.871	0.156	0.191
-621.390	-85.310	0.168	0.053
-620.376	-200.000	0.005	0.156
-619.361	800.000	-0.105	0.347
-618.346	-24.593	-0.260	-0.156
-617.332	305.447	0.113	0.212
-616.317	-152.813	-0.474	-0.034
-615.303	263.610	0.148	-0.258
-614.288	-45.854	0.282	0.140
-613.273	-200.000	-0.031	0.222
-612.259	800.000	-0.075	-0.239
-611.244	28.176	-0.113	-0.096
-610.230	-7.028	-0.115	-0.079
-609.215	-200.000	0.035	-0.326
-608.201	-120.560	0.207	0.035
-607.186	161.445	-0.203	-0.286
-606.171	-120.074	-0.289	0.050
-605.157	8.715	-0.135	0.103
-604.142	800.000	0.046	-0.139
-603.128	-161.407	-0.301	0.016
-602.113	-31.305	-0.326	-0.185
-601.098	106.833	-0.068	0.081
-600.084	-200.000	-0.019	-0.211
-599.069	-200.000	0.002	0.024
-598.055	152.848	0.247	-0.339
-597.040	-200.000	0.015	-0.298
-596.025	-105.739	-0.175	-0.040
-595.011	53.569	-0.230	-0.222
-593.996	-200.000	-0.022	0.469
-592.982	442.734	0.131	0.290
-591.967	-79.615	0.301	-0.102
-590.952	-200.000	0.005	-0.396
-589.938	9.763	0.218	0.166
-588.923	-61.224	-0.186	0.079
-587.909	-71.269	-0.194	0.073
-586.894	109.036	-0.057	0.068
-585.879	178.775	0.167	0.245
-584.865	43.301	0.232	-0.213
-583.850	800.000	0.048	0.156
-582.836	130.481	-0.059	0.076
-581.821	-52.224	0.129	0.060
-580.806	-140.174	0.346	0.037
-579.792	-120.410	0.376	0.064
-578.777	800.000	-0.065	0.186
-577.763	478.174	-0.099	0.226
-576.748	-88.203	-0.069	-0.021
-575.733	-200.000	-0.015	-0.267
-574.719	333.553	0.107	-0.208
-573.704	-17.053	-0.279	0.177
-572.690	-79.066	0.153	0.052
-571.675	-163.745	-0.412	-0.019
-570.661	205.624	-0.046	0.072
-569.646	10.357	-0.184	-0.141
-568.631	196.386	0.033	0.050
-567.617	175.350	-0.094	-0.137
-566.602	7.528	0.321	-0.241
-565.588	-159.198	0.131	-0.007
-564.573	-135.716	-0.328	-0.039
-563.558	-88.332	0.003	0.001
-562.544	-2.711	-0.040	-0.028
-561.529	-200.000	0.024	0.192
-560.515	-200.000	0.004	-0.030
-559.500	-200.000	-0.014	0.184
-558.485	-35.491	0.134	0.073
-557.471	-105.271	-0.051	-0.012
-556.456	87.662	-0.220	-0.245
-555.442	153.021	-0.176	-0.242
-554.427	-61.908	0.078	0.033
-553.412	-44.899	0.032	0.016
-552.398	359.390	0.014	0.028
-551.383	800.000	-0.108	-0.421
-550.369	132.392	0.123	-0.159
-549.354	800.000	0.033	0.101
-548.339	-200.000	-0.033	-0.152
-547.325	-200.000	-0.029	-0.352
-546.310	-136.610	-0.270	-0.031
-545.296	800.000	-0.078	0.227
-544.281	-107.040	-0.139	-0.031
-543.266	-4.669	0.110	-0.076
-542.252	-39.814	0.148	-0.078
-541.237	117.200	-0.155	0.192
-540.223	246.267	0.012	0.021
-539.208	800.000	-0.084	0.265
-538.193	-200.000	-0.002	-0.234
-537.179	-151.320	0.216	0.016
-536.164	93.444	0.043	-0.049
-535.150	800.000	-0.034	0.106
-534.135	-39.521	0.388	0.204
-533.121	-97.914	-0.376	-0.097
-532.106	-127.803	0.243	-0.035
-531.091	103.784	-0.214	-0.253
-530.077	57.984	0.148	-0.146
-529.062	-27.517	-0.275	0.160
-528.048	-17.306	0.366	-0.231
-527.033	349.210	-0.085	-0.168
-526.018	-200.000	-0.004	0.036
-525.004	3.637	0.364	-0.267
-523.989	-113.856	-0.355	-0.069
-522.975	413.482	0.046	0.099
-521.960	800.000	-0.038	0.135
-520.945	-44.789	-0.206	0.103
-519.931	800.000	-0.088	-0.343
-518.916	-200.000	0.017	-0.113
-517.902	-77.918	-0.242	-0.084
-516.887	-27.719	0.237	0.138
-515.872	-72.698	-0.297	-0.110
-514.858	216.802	0.039	-0.063
-513.843	-154.712	-0.132	-0.009
-512.829	-14.551	0.179	-0.115
-511.814	-52.542	0.136	-0.063
-510.799	75.492	-0.264	0.279
-509.785	83.351	0.189	-0.206
-508.770	800.000	0.049	-0.189
-507.756	34.203	-0.083	-0.073
-506.741	111.111	-0.294	-0.355
-505.726	27.176	0.363	-0.306
-504.712	-70.894	-0.220	0.083
-503.697	-55.613	-0.235	-0.106
-502.683	31.656	-0.225	0.194
-501.668	800.000	-0.107	0.412
-500.653	122.564	0.098	0.123
-499.639	37.485	-0.119	-0.105
-498.624	-147.540	-0.338	0.029
-497.610	6.959	0.190	-0.142
-496.595	15.667	-0.231	-0.182
-495.581	-110.695	-0.234	0.048
-494.566	-29.189	-0.247	-0.142
-493.551	530.945	0.112	0.264
-492.537	-153.490	0.279	0.019
-491.522	-200.000	-0.033	-0.457
-490.508	-103.131	-0.135	-0.032
-489.493	-30.997	-0.051	0.029
-488.478	-6.005	0.157	0.107
-487.464	-80.904	0.206	-0.069
-486.449	-126.862	0.253	0.037
-485.435	800.000	-0.055	0.173
-484.420	191.381	0.097	-0.146
-483.405	7.724	-0.132	-0.099
-482.391	-140.368	-0.211	0.022
-481.376	-141.042	-0.207	0.021
-480.362	-54.395	-0.209	-0.095
-479.347	138.519	-0.064	-0.084
-478.332	-65.863	-0.354	-0.142
-477.318	73.349	0.058	-0.060
-476.303	78.623	0.125	-0.134
-475.289	-28.315	0.287	0.166
-474.274	-113.418	0.272	0.053
-473.259	6.410	-0.165	0.122
-472.245	-200.000	0.077	0.341
-471.230	5.110	0.346	0.255
-470.216	-52.469	-0.202	0.094
-469.201	-167.215	0.082	0.003
-468.186	-200.000	-0.067	-0.341
-467.172	603.646	0.035	-0.088
-466.157	172.899	0.078	0.112
-465.143	261.503	-0.080	0.139
-464.128	107.618	0.306	0.365
-463.113	800.000	0.015	-0.045
-462.099	466.063	-0.091	0.205
-461.084	-34.197	-0.032	-0.018
-460.070	-132.885	0.182	-0.023
-459.055	563.149	-0.130	-0.315
-458.040	171.649	-0.094	0.135
-457.026	294.594	0.056	0.102
-456.011	74.626	0.150	0.158
-454.997	-82.236	-0.070	0.023
-453.982	80.540	-0.197	0.212
-452.968	-16.711	0.146	-0.093
-451.953	800.000	0.096	0.268
-450.938	-124.440	0.241	0.038
-449.924	-111.340	0.240	0.049
-448.909	-200.000	0.022	-0.125
-447.895	-46.402	-0.110	0.054
-446.880	415.223	0.021	0.045
-445.865	-80.234	-0.144	0.048
-444.851	-123.364	0.016	0.003
-443.836	461.588	-0.159	-0.354
-442.822	-182.666	-0.192	0.003
-441.807	308.744	-0.057	0.107
-440.792	-110.302	0.284	0.059
-439.778	-200.000	-0.027	0.252
-438.763	-1.879	-0.272	-0.191
-437.749	-113.202	0.291	0.057
-436.734	543.035	-0.011	-0.026
-435.719	-200.000	0.001	0.483
-434.705	-79.171	0.138	0.047
-433.690	-42.038	0.222	0.113
-432.676	-200.000	-0.031	0.190
-431.661	-109.452	-0.111	0.024
-430.646	435.481	-0.150	0.325
-429.632	-200.000	0.215	-0.000
-428.617	800.000	0.044	0.134
-427.603	-121.260	-0.212	0.035
-426.588	-37.210	-0.122	0.065
-425.573	275.967	-0.052	0.092
-424.559	22.479	0.084	0.069
-423.544	-54.280	-0.141	-0.064
-422.530	-200.000	0.000	0.176
-421.515	-20.363	0.150	-0.092
-420.500	-45.560	0.168	0.083
-419.486	50.722	-0.193	-0.183
-418.471	184.138	-0.112	0.165
-417.457	-23.282	0.224	0.134
-416.442	-103.182	0.291	-0.069
-415.428	509.191	0.071	0.164
-414.413	75.918	-0.135	0.143
-413.398	97.979	-0.213	0.245
-412.384	499.978	-0.145	-0.334
-411.369	-94.801	0.404	0.109
-410.355	69.252	-0.390	-0.401
-409.340	-85.722	-0.119	-0.037
-408.325	-125.044	0.457	-0.070
-407.311	19.147	-0.068	0.055
-406.296	722.398	-0.088	-0.234
-405.282	-168.444	0.497	-0.019
-404.267	-64.530	-0.214	-0.087
-403.252	153.568	0.132	0.180
-402.238	-200.000	-0.006	0.081
-401.223	283.434	0.025	0.044
-400.209	-82.682	0.056	-0.018
-399.194	52.021	-0.181	0.172
-398.179	34.457	0.170	-0.149
-397.165	-10.546	-0.157	-0.104
-396.150	-5.564	0.273	0.187
-395.136	-149.672	-0.223	-0.018
-394.121	-200.000	-0.022	0.140
-393.106	-71.680	-0.270	-0.100
-392.092	179.994	0.166	-0.243
-391.077	-56.066	-0.086	0.038
-390.063	-73.904	-0.204	-0.074
-389.048	-81.317	-0.248	0.082
-388.033	-25.943	0.276	-0.162
-387.019	-40.093	-0.163	0.085
-386.004	-66.995	-0.164	0.064
-384.990	-200.000	0.022	-0.179
-383.975	-71.163	-0.277	0.104
-382.960	-10.060	0.116	0.077
-381.946	-121.763	-0.115	-0.019
-380.931	99.644	0.098	-0.113
-379.917	479.929	-0.089	-0.201
-378.902	-59.558	0.144	-0.062
-377.888	-200.000	-0.057	0.310
-376.873	277.604	-0.208	0.370
-375.858	127.089	-0.209	0.265
-374.844	47.747	0.190	-0.177
-373.829	800.000	0.097	0.304
-372.815	800.000	-0.022	-0.080
-371.800	27.358	-0.083	0.070
-370.785	-163.638	-0.180	-0.008
-369.771	6.158	0.054	0.040
-368.756	800.000	0.076	-0.270
-367.742	-2.820	0.245	-0.171
-366.727	-73.125	0.371	0.136
-365.712	-79.483	-0.178	-0.060
-364.698	56.891	0.159	0.155
-363.683	162.860	0.127	0.178
-362.669	187.930	-0.174	-0.259
-361.654	800.000	0.021	0.088
-360.639	-35.451	0.369	-0.200
-359.625	-110.156	-0.134	-0.028
-358.610	800.000	-0.064	-0.179
-357.596	98.668	0.127	-0.146
-356.581	-101.614	-0.015	0.004
-355.566	18.755	0.225	0.179
-354.552	-182.084	-0.275	0.005
-353.537	-200.000	-0.044	0.536
-352.523	168.371	-0.271	0.385
-351.508	-200.000	0.010	-0.114
-350.493	-18.597	0.139	-0.086
-349.479	-200.000	-0.003	0.104
-348.464	-102.355	-0.232	-0.055
-347.450	354.185	0.038	0.075
-346.435	-83.552	0.078	0.025
-345.420	800.000	-0.106	0.360
-344.406	455.277	-0.132	-0.292
-343.391	-200.000	-0.022	-0.308
-342.377	-200.000	0.023	-0.112
-341.362	-27.085	0.119	-0.069
-340.348	-82.335	-0.266	-0.086
-339.333	381.193	0.166	0.339
-338.318	-200.000	0.014	-0.165
-337.304	-2.899	0.219	0.152
-336.289	147.737	0.217	0.291
-335.275	-3.025	-0.231	-0.161
-334.260	137.112	0.065	0.085
-333.245	580.094	0.079	0.192
-332.231	-200.000	0.016	0.272
-331.216	-200.000	0.035	-0.157
-330.202	-60.899	0.311	-0.131
-329.187	16.223	-0.384	0.301
-328.172	-45.538	-0.149	0.074
-327.158	800.000	-0.061	-0.175
-326.143	-52.052	0.067	-0.031
-325.129	-101.142	-0.172	-0.042
-324.114	-200.000	0.007	-0.121
-323.099	-32.756	-0.157	-0.087
-322.085	55.391	0.231	-0.222
-321.070	-152.225	0.116	0.008
-320.056	-63.242	-0.235	-0.097
-319.041	-200.000	-0.004	-0.324
-318.026	-38.730	0.157	0.082
-317.012	-57.885	0.214	-0.093
-315.997	149.518	0.184	-0.248
-314.983	252.897	-0.109	-0.186
-313.968	800.000	-0.125	0.355
-312.953	-77.809	-0.244	0.084
-311.939	-200.000	0.069	-0.359
-310.924	-17.095	0.322	0.202
-309.910	-26.245	-0.287	-0.167
-308.895	544.073	0.018	-0.043
-307.880	-38.657	0.080	0.042
-306.866	292.354	0.030	0.055
-305.851	-33.667	-0.129	0.071
-304.837	-3.883	0.067	0.046
-303.822	-91.365	0.078	0.022
-302.807	135.049	0.091	-0.117
-301.793	-97.336	-0.239	-0.062
-300.778	-86.400	-0.159	-0.049
-299.764	46.954	0.081	-0.075
-298.749	9.084	-0.194	0.146
-297.735	138.995	0.103	0.135
-296.720	-200.000	0.038	0.181
-295.705	-116.919	-0.240	0.044
-294.691	-200.000	-0.062	-0.394
-293.676	-67.924	0.412	0.160
-292.662	800.000	0.175	0.537
-291.647	38.003	0.260	-0.230
-290.632	164.773	0.223	0.313
-289.618	143.581	-0.244	-0.323
-288.603	800.000	-0.172	-0.518
-287.589	48.492	0.223	-0.207
-286.574	-200.000	0.040	0.181
-285.559	-108.142	0.165	0.035
-284.545	800.000	-0.060	-0.253
-283.530	61.345	0.094	0.093
-282.516	-111.243	-0.085	-0.017
-281.501	106.825	0.086	0.102
-280.486	-64.768	0.284	0.114
-279.472	-45.404	0.194	0.095
-278.457	149.627	0.099	0.133
-277.443	258.227	-0.046	0.079
-276.428	30.136	-0.206	-0.175
-275.413	84.048	-0.278	-0.301
-274.399	61.441	0.041	0.041
-273.384	304.747	0.087	0.160
-272.370	362.746	-0.050	0.101
-271.355	-200.000	0.073	-0.403
-270.340	-35.721	0.029	0.016
-269.326	800.000	0.050	-0.178
-268.311	429.438	0.083	0.178
-267.297	-59.706	0.222	-0.094
-266.282	-39.213	0.153	-0.080
-265.267	-124.068	0.470	-0.073
-264.253	-43.544	-0.226	0.113
-263.238	-75.961	0.219	0.077
-262.224	264.712	0.080	0.139
-261.209	433.302	0.050	-0.107
-260.195	-200.000	-0.053	0.250
-259.180	-137.002	0.129	0.015
-258.165	-200.000	0.002	0.296
-257.151	508.373	0.082	-0.189
-256.136	52.372	-0.137	0.130
-255.122	-111.430	0.252	-0.051
-254.107	39.558	0.273	0.243
-253.092	-26.006	0.227	-0.133
-252.078	-200.000	-0.009	-0.133
-251.063	-200.000	0.012	-0.495
-250.049	414.294	-0.071	0.150
-249.034	-98.196	0.117	0.030
-248.019	-2.796	-0.406	0.282
-247.005	-118.977	-0.092	-0.016
-245.990	-168.670	0.565	-0.021
-244.976	-200.000	0.028	-0.126
-243.961	-124.694	-0.344	-0.053
-242.946	151.711	0.187	0.252
-241.932	292.811	0.075	-0.135
-240.917	-98.048	0.132	0.034
-239.903	40.097	0.166	0.148
-238.888	-147.954	-0.144	-0.012
-237.873	-14.228	-0.283	0.181
-236.859	87.307	-0.164	-0.180
-235.844	264.276	-0.079	0.137
-234.830	-200.000	-0.005	-0.311
-233.815	-200.000	0.035	0.264
-232.800	120.826	0.115	0.141
-231.786	195.383	0.108	0.163
-230.771	444.911	0.149	0.323
-229.757	650.827	-0.051	0.129
-228.742	-200.000	-0.015	-0.111
-227.727	-113.309	-0.226	-0.044
-226.713	-7.812	0.240	-0.161
-225.698	800.000	0.102	-0.331
-224.684	-170.711	0.402	0.014
-223.669	51.806	-0.162	-0.153
-222.655	-200.000	-0.020	-0.290
-221.640	-7.203	-0.148	-0.099
-220.625	-200.000	-0.065	0.420
-219.611	1.641	0.099	0.071
-218.596	-105.461	-0.153	0.035
-217.582	-42.038	-0.147	-0.075
-216.567	48.899	0.161	0.150
-215.552	257.197	0.065	-0.110
-214.538	-80.976	0.281	0.092
-213.523	-146.275	-0.018	0.002
-212.509	-116.917	-0.142	-0.026
-211.494	-50.501	0.032	-0.015
-210.479	-72.783	-0.266	-0.097
-209.465	-200.000	-0.084	-0.378
-208.450	-75.790	-0.167	0.059
-207.436	-200.000	0.030	0.188
-206.421	29.156	-0.254	0.214
-205.406	-17.711	-0.186	-0.116
-204.392	-200.000	-0.030	0.226
-203.377	-119.616	0.231	0.040
-202.363	-200.000	0.035	-0.294
-201.348	800.000	0.073	0.277
-200.333	-124.578	-0.219	0.034
-199.319	-200.000	0.017	0.113
-198.304	-200.000	0.020	-0.106
-197.290	272.303	0.142	-0.249
-196.275	74.139	-0.079	0.082
-195.260	-200.000	-0.018	0.190
-194.246	83.953	0.072	0.078
-193.231	-62.077	-0.070	-0.029
-192.217	-200.000	0.004	0.111
-191.202	115.623	0.242	-0.293
-190.187	800.000	0.076	-0.229
-189.173	478.804	0.171	-0.384
-188.158	800.000	0.015	-0.044
-187.144	308.121	0.155	0.286
-186.129	280.073	-0.111	-0.197
-185.114	-200.000	-0.020	-0.126
-184.100	-26.686	0.306	0.177
-183.085	-128.486	0.263	-0.037
-182.071	142.825	-0.109	0.144
-181.056	236.677	-0.202	0.330
-180.042	72.227	-0.122	-0.126
-179.027	-152.530	0.281	-0.020
-178.012	70.345	0.236	0.241
-176.998	-61.737	-0.359	0.149
-175.983	-84.761	-0.209	0.065
-174.969	-135.004	0.408	-0.049
-173.954	800.000	-0.037	-0.159
-172.939	158.656	-0.143	0.196
-171.925	36.413	-0.295	0.257
-170.910	-174.628	-0.224	0.006
-169.896	83.261	-0.169	0.182
-168.881	-1.488	-0.283	0.197
-167.866	800.000	-0.036	0.107
-166.852	-132.362	0.284	-0.036
-165.837	-13.401	0.169	0.109
-164.823	-62.582	-0.199	-0.082
-163.808	800.000	-0.056	-0.172
-162.793	-68.480	-0.300	-0.115
-161.779	251.145	-0.031	0.053
-160.764	43.192	-0.162	-0.146
-159.750	-200.000	0.001	0.033
-158.735	-107.277	-0.339	-0.074
-157.720	87.547	0.093	-0.102
-156.706	246.126	-0.113	0.188
-155.691	800.000	0.084	0.287
-154.677	183.910	0.132	0.193
-153.662	204.239	-0.052	-0.080
-152.647	-200.000	-0.047	0.242
-151.633	-59.460	-0.158	-0.067
-150.618	55.593	-0.272	0.260
-149.604	-89.405	-0.157	-0.046
-148.589	200.701	0.130	0.197
-147.574	160.789	0.172	-0.238
-146.560	-200.000	-0.005	0.103
-145.545	2.130	-0.125	0.090
-144.531	-24.667	0.255	-0.150
-143.516	-200.000	-0.005	0.081
-142.502	-110.632	0.239	0.049
-141.487	-75.125	-0.022	0.008
-140.472	-200.000	0.030	-0.156
-139.458	28.124	0.204	0.171
-138.443	717.091	0.117	-0.306
-137.429	110.640	0.160	-0.190
-136.414	391.846	-0.087	-0.178
-135.399	8.352	0.093	-0.069
-134.385	-8.515	0.186	-0.124
-133.370	387.872	-0.099	-0.201
-132.356	-103.876	0.228	-0.053
-131.341	-172.362	0.293	-0.009
-130.326	-200.000	0.027	0.269
-129.312	-80.385	0.187	0.062
-128.297	-123.276	0.126	0.020
-127.283	-200.000	-0.011	0.111
-126.268	-155.138	-0.134	0.009
-125.253	531.650	-0.094	-0.220
-124.239	-200.000	-0.045	-0.201
-123.224	96.420	0.050	-0.056
-122.210	287.581	-0.212	0.379
-121.195	31.204	0.152	-0.129
