DTS Sentinel unit serial number:	SN413079Multiplexer serial number:	ORYXHardware model number:	OX4-SRSoftware version number:	ORYX F/W v4.00 Oryx Data Collector v3.7.2.0data status	okinstallation	princeton_trtdifferential loss correction	single-endedforward channel	channel 3reverse channel	N/Adate	2019/09/14time	13:32:35forward acquisition time	60.00reverse acquisition time	0.00gamma	496.2192k internal	0.2293k external	0.2293temperature offset calibration	1.0067default loss term (dB/km)	0.3790temperature slope calibration	1.0000multiplexer offset coefficient	1.0000multiplexer slope coefficient	1.0000fibre end	0.00T internal ref (°C)	37.94T ext. ref 1 (°C)	4.93T ext. ref 2 (°C)	33.18length (m)	temperature (°C)	Stokes	anti-Stokes-747.200	164.634	0.073	-0.106
-746.185	-13.685	-0.356	0.236
-745.171	-139.532	-0.234	-0.026
-744.156	-200.000	-0.013	0.538
-743.142	50.003	0.193	0.187
-742.127	-74.774	0.189	0.069
-741.112	-41.553	-0.231	0.122
-740.098	134.543	0.190	0.252
-739.083	-4.403	0.142	-0.100
-738.069	-38.722	0.189	-0.102
-737.054	-200.000	0.053	0.354
-736.039	-174.811	-0.317	0.009
-735.025	-149.317	0.083	-0.007
-734.010	800.000	-0.103	0.312
-732.996	-131.909	0.243	0.032
-731.981	668.707	-0.038	-0.101
-730.966	610.175	-0.070	0.178
-729.952	131.378	-0.240	-0.315
-728.937	217.943	0.094	0.153
-727.923	-176.804	0.466	0.012
-726.908	-57.973	-0.332	-0.148
-725.894	347.228	-0.131	-0.264
-724.879	-200.000	-0.025	-0.169
-723.864	-200.000	0.018	0.291
-722.850	-87.951	0.284	-0.087
-721.835	-200.000	0.032	-0.263
-720.821	-8.619	0.144	0.099
-719.806	800.000	-0.099	-0.348
-718.791	-30.588	-0.121	-0.070
-717.777	315.553	0.119	-0.229
-716.762	-200.000	-0.050	-0.248
-715.748	-123.587	-0.268	-0.043
-714.733	-125.406	0.295	0.046
-713.718	50.329	-0.356	-0.343
-712.704	700.375	0.069	-0.186
-711.689	373.690	0.062	-0.129
-710.675	173.807	-0.131	-0.193
-709.660	800.000	0.047	-0.144
-708.645	-145.543	0.408	-0.037
-707.631	-200.000	0.003	0.206
-706.616	53.389	0.082	0.080
-705.602	-24.656	-0.174	0.106
-704.587	129.077	0.206	0.268
-703.572	-68.475	-0.037	0.014
-702.558	800.000	-0.076	-0.301
-701.543	277.063	-0.068	0.124
-700.529	115.323	-0.240	0.300
-699.514	-26.003	0.105	0.063
-698.499	204.626	0.065	-0.102
-697.485	-83.822	-0.116	0.038
-696.470	-200.000	0.022	-0.193
-695.456	-112.126	0.252	0.052
-694.441	-200.000	-0.009	-0.163
-693.426	-200.000	-0.049	0.230
-692.412	-66.334	-0.126	-0.051
-691.397	800.000	0.064	0.227
-690.383	559.900	-0.086	0.211
-689.368	-99.686	-0.099	0.025
-688.354	406.120	-0.160	-0.345
-687.339	468.428	0.121	0.276
-686.324	-17.182	0.141	-0.091
-685.310	220.468	-0.077	-0.126
-684.295	-200.000	0.069	0.320
-683.281	18.906	0.179	-0.146
-682.266	-200.000	-0.023	-0.448
-681.251	183.158	0.141	-0.212
-680.237	189.427	-0.093	-0.142
-679.222	-163.873	-0.061	0.003
-678.208	-200.000	0.009	0.077
-677.193	-23.791	0.233	-0.142
-676.178	94.037	-0.111	-0.128
-675.164	-57.189	0.115	0.052
-674.149	-54.600	-0.117	0.054
-673.135	-161.945	-0.203	-0.010
-672.120	-156.875	0.331	-0.021
-671.105	459.712	-0.059	0.134
-670.091	-200.000	0.004	-0.085
-669.076	-200.000	0.020	-0.108
-668.062	-6.368	-0.242	-0.168
-667.047	17.818	0.135	0.109
-666.032	-47.652	-0.128	-0.063
-665.018	337.859	0.146	-0.290
-664.003	-200.000	-0.028	0.282
-662.989	230.629	-0.106	-0.178
-661.974	-36.713	0.273	0.150
-660.959	-46.324	0.073	0.036
-659.945	-53.349	-0.439	0.205
-658.930	-18.462	0.353	0.225
-657.916	-75.296	-0.329	0.120
-656.901	-123.950	0.141	-0.023
-655.886	-63.071	0.171	-0.072
-654.872	-120.940	0.026	-0.005
-653.857	116.675	-0.049	0.061
-652.843	-200.000	-0.036	-0.219
-651.828	-200.000	-0.023	-0.149
-650.814	-129.501	-0.342	-0.048
-649.799	46.002	-0.122	-0.115
-648.784	800.000	-0.105	-0.402
-647.770	9.460	0.076	-0.059
-646.755	118.672	-0.166	0.209
-645.741	5.612	0.128	-0.096
-644.726	-5.140	-0.064	-0.045
-643.711	229.868	-0.024	-0.040
-642.697	2.411	0.369	0.272
-641.682	-200.000	0.035	0.166
-640.668	800.000	-0.120	-0.403
-639.653	-128.795	0.062	0.009
-638.638	108.953	0.089	-0.108
-637.624	800.000	0.057	-0.171
-636.609	648.615	0.119	-0.310
-635.595	-104.356	0.027	0.006
-634.580	-48.687	-0.028	0.014
-633.565	-74.170	0.158	0.058
-632.551	573.015	0.167	0.415
-631.536	-200.000	0.019	0.269
-630.522	-200.000	-0.043	0.228
-629.507	-38.778	-0.066	-0.036
-628.492	34.340	0.063	0.056
-627.478	191.352	0.188	-0.289
-626.463	89.507	-0.239	-0.272
-625.449	-106.421	-0.133	-0.030
-624.434	253.081	-0.121	0.210
-623.419	449.474	-0.094	-0.211
-622.405	60.556	-0.184	-0.186
-621.390	-200.000	0.000	-0.047
-620.376	-200.000	0.014	0.074
-619.361	217.420	0.207	-0.335
-618.346	-65.908	0.198	0.080
-617.332	583.562	-0.118	-0.294
-616.317	-150.432	-0.085	0.007
-615.303	-152.655	0.162	0.012
-614.288	-55.118	0.283	0.129
-613.273	-200.000	-0.022	0.335
-612.259	800.000	0.036	-0.155
-611.244	-141.594	-0.230	-0.024
-610.230	-70.560	0.311	0.120
-609.215	-200.000	-0.013	-0.170
-608.201	800.000	-0.088	0.326
-607.186	-40.592	-0.151	0.080
-606.171	-85.964	0.192	0.060
-605.157	-200.000	0.016	0.132
-604.142	226.798	-0.024	-0.040
-603.128	13.601	0.129	-0.102
-602.113	15.956	0.380	0.304
-601.098	-200.000	0.133	-0.000
-600.084	703.291	0.090	-0.242
-599.069	123.145	-0.190	-0.243
-598.055	-29.846	-0.176	0.102
-597.040	-80.322	-0.218	0.074
-596.025	-148.491	0.199	-0.017
-595.011	-89.495	0.139	-0.042
-593.996	-200.000	-0.004	0.112
-592.982	-7.580	-0.096	0.066
-591.967	-12.195	-0.104	-0.069
-590.952	151.524	-0.185	-0.256
-589.938	-200.000	-0.014	-0.113
-588.923	-146.860	0.191	-0.017
-587.909	-200.000	-0.009	-0.126
-586.894	-44.568	0.158	-0.080
-585.879	-72.908	-0.151	0.057
-584.865	-200.000	0.009	-0.082
-583.850	-200.000	0.018	0.164
-582.836	-200.000	-0.017	0.321
-581.821	-27.911	-0.053	0.031
-580.806	-27.192	-0.197	-0.117
-579.792	-133.213	0.304	-0.039
-578.777	691.291	0.095	-0.254
-577.763	671.746	-0.098	-0.259
-576.748	-138.678	0.162	-0.018
-575.733	84.605	0.241	-0.269
-574.719	-200.000	-0.003	-0.177
-573.704	140.557	-0.130	-0.174
-572.690	-3.033	0.078	-0.055
-571.675	-200.000	0.007	0.264
-570.661	28.309	-0.294	-0.252
-569.646	-100.937	0.226	0.057
-568.631	119.427	-0.072	0.091
-567.617	-34.281	0.034	-0.019
-566.602	602.332	-0.128	-0.323
-565.588	-153.345	0.198	-0.014
-564.573	-200.000	0.017	-0.119
-563.558	-19.396	-0.313	-0.197
-562.544	25.679	-0.096	-0.081
-561.529	91.090	-0.028	0.032
-560.515	128.229	0.254	-0.329
-559.500	106.095	-0.068	0.082
-558.485	800.000	-0.080	0.322
-557.471	28.242	-0.089	0.077
-556.456	-71.653	-0.305	-0.115
-555.442	-200.000	-0.002	0.020
-554.427	182.724	0.142	0.212
-553.412	463.766	-0.138	0.314
-552.398	-34.388	-0.197	0.110
-551.383	41.656	-0.040	0.037
-550.369	-69.315	0.501	0.195
-549.354	33.631	-0.237	0.209
-548.339	-48.470	0.157	0.077
-547.325	202.130	0.082	-0.128
-546.310	-134.561	0.358	-0.044
-545.296	-200.000	-0.019	-0.134
-544.281	-127.557	0.281	-0.041
-543.266	-60.961	0.310	0.133
-542.252	-9.337	0.084	-0.057
-541.237	-58.407	-0.189	-0.083
-540.223	602.869	0.131	0.331
-539.208	-46.384	0.239	-0.119
-538.193	389.755	-0.291	-0.612
-537.179	-64.040	-0.191	-0.079
-536.164	88.003	-0.052	-0.058
-535.150	-128.978	-0.132	0.019
-534.135	-83.470	-0.059	0.019
-533.121	-56.692	-0.211	-0.095
-532.106	-10.004	-0.144	-0.097
-531.091	33.163	-0.088	-0.078
-530.077	-200.000	-0.035	-0.418
-529.062	800.000	0.031	-0.089
-528.048	264.100	0.052	-0.091
-527.033	506.508	0.120	0.282
-526.018	-107.582	-0.195	0.043
-525.004	-185.701	0.248	0.004
-523.989	-45.652	0.409	-0.205
-522.975	-143.690	-0.078	0.007
-521.960	87.724	-0.242	0.272
-520.945	-200.000	0.006	0.122
-519.931	426.874	0.019	0.041
-518.916	-78.670	-0.366	-0.127
-517.902	-166.414	0.228	0.010
-516.887	443.928	0.186	-0.414
-515.872	-7.928	-0.268	0.183
-514.858	185.770	-0.143	0.216
-513.843	21.698	-0.166	0.137
-512.829	-72.626	-0.186	0.069
-511.814	33.557	0.297	-0.261
-510.799	364.775	0.242	0.495
-509.785	72.111	-0.176	-0.186
-508.770	800.000	0.039	0.112
-507.756	-200.000	-0.013	0.334
-506.741	112.895	0.031	0.038
-505.726	108.864	0.195	-0.236
-504.712	189.299	0.106	-0.161
-503.697	-122.455	0.407	0.067
-502.683	-200.000	-0.029	0.298
-501.668	-200.000	-0.041	0.247
-500.653	-200.000	0.049	-0.311
-499.639	55.894	-0.209	-0.206
-498.624	262.535	0.233	0.410
-497.610	-14.276	0.282	-0.184
-496.595	348.531	0.177	-0.354
-495.581	-25.595	-0.126	-0.075
-494.566	-65.474	0.119	0.048
-493.551	-48.120	0.150	-0.073
-492.537	302.223	0.026	0.049
-491.522	-58.861	-0.124	0.054
-490.508	-200.000	0.030	-0.145
-489.493	139.129	-0.046	0.062
-488.478	110.452	-0.164	0.200
-487.464	71.850	0.120	-0.126
-486.449	430.385	-0.046	-0.101
-485.435	167.499	-0.222	-0.320
-484.420	-200.000	-0.001	-0.180
-483.405	-37.429	0.028	-0.015
-482.391	-123.134	0.063	-0.010
-481.376	83.043	0.048	-0.053
-480.362	-200.000	-0.006	-0.085
-479.347	300.742	0.097	-0.181
-478.332	-80.688	0.319	0.107
-477.318	-200.000	-0.000	0.153
-476.303	281.373	-0.256	-0.465
-475.289	-200.000	0.021	0.271
-474.274	100.025	0.153	-0.180
-473.259	-175.932	0.140	0.004
-472.245	237.470	0.118	-0.198
-471.230	199.178	0.121	-0.187
-470.216	800.000	-0.044	-0.172
-469.201	-200.000	-0.028	0.224
-468.186	-107.797	-0.369	-0.081
-467.172	-76.251	0.200	0.071
-466.157	418.731	0.118	0.256
-465.143	-76.345	-0.164	0.059
-464.128	-121.815	-0.218	-0.036
-463.113	-141.935	0.094	-0.009
-462.099	84.996	-0.070	0.078
-461.084	-123.610	-0.268	-0.043
-460.070	106.331	-0.056	-0.067
-459.055	-116.540	0.101	0.019
-458.040	800.000	-0.098	-0.345
-457.026	143.830	0.075	-0.100
-456.011	24.705	0.291	-0.244
-454.997	-129.526	0.112	0.016
-453.982	-31.912	0.229	-0.130
-452.968	32.617	-0.200	-0.175
-451.953	-200.000	-0.053	-0.338
-450.938	134.357	-0.203	-0.266
-449.924	-200.000	0.033	0.361
-448.909	119.116	0.105	0.132
-447.895	61.286	0.113	-0.114
-446.880	27.442	0.223	-0.190
-445.865	552.700	-0.162	0.394
-444.851	-200.000	-0.023	-0.132
-443.836	800.000	0.128	0.387
-442.822	271.346	0.140	0.250
-441.807	10.799	0.106	-0.081
-440.792	800.000	-0.079	0.291
-439.778	800.000	-0.063	0.234
-438.763	-24.885	0.132	-0.079
-437.749	-27.231	0.259	-0.153
-436.734	-9.645	-0.170	0.115
-435.719	-103.626	-0.090	-0.021
-434.705	18.752	-0.200	0.161
-433.690	105.488	0.210	-0.251
-432.676	-200.000	0.021	0.118
-431.661	71.070	0.074	0.078
-430.646	73.663	0.090	0.095
-429.632	-108.658	0.313	-0.068
-428.617	-72.667	-0.169	0.063
-427.603	180.140	-0.089	-0.132
-426.588	173.247	0.064	-0.093
-425.573	51.786	-0.297	0.286
-424.559	-38.373	-0.193	-0.103
-423.544	-129.028	0.223	0.032
-422.530	-200.000	-0.002	0.333
-421.515	-92.778	-0.252	-0.071
-420.500	-92.690	-0.418	0.118
-419.486	-23.832	0.193	-0.117
-418.471	-166.989	-0.430	-0.018
-417.457	125.324	0.091	-0.116
-416.442	-200.000	0.016	0.147
-415.428	276.453	-0.176	0.315
-414.413	126.222	0.120	-0.154
-413.398	-166.603	0.207	-0.009
-412.384	-200.000	0.013	0.219
-411.369	285.008	-0.041	-0.074
-410.355	107.409	-0.161	0.194
-409.340	180.246	0.068	0.100
-408.325	204.470	-0.056	-0.087
-407.311	-18.253	-0.155	-0.098
-406.296	278.427	-0.158	0.284
-405.282	324.907	0.128	0.248
-404.267	683.476	-0.054	0.143
-403.252	633.536	-0.174	0.446
-402.238	-104.331	-0.085	0.020
-401.223	-200.000	0.015	0.094
-400.209	99.020	-0.135	-0.157
-399.194	800.000	0.029	0.116
-398.179	-172.954	0.141	-0.004
-397.165	-39.440	0.254	0.134
-396.150	169.981	0.134	0.193
-395.136	-200.000	-0.019	0.097
-394.121	800.000	0.092	-0.304
-393.106	73.184	-0.222	-0.235
-392.092	-10.052	0.314	-0.210
-391.077	-144.090	0.373	0.035
-390.063	-66.866	-0.257	0.103
-389.048	43.047	0.120	-0.110
-388.033	-48.130	0.232	0.113
-387.019	-95.717	-0.079	-0.021
-386.004	-103.125	-0.417	-0.100
-384.990	19.563	-0.228	0.185
-383.975	-77.088	-0.172	0.061
-382.960	142.366	0.174	-0.233
-381.946	800.000	-0.020	0.077
-380.931	-62.300	0.178	-0.075
-379.917	-11.699	-0.095	-0.063
-378.902	136.415	0.061	0.080
-377.888	-94.679	-0.211	0.058
-376.873	-200.000	0.045	-0.236
-375.858	-200.000	0.011	-0.266
-374.844	-61.641	0.088	-0.037
-373.829	-200.000	-0.008	-0.379
-372.815	-104.363	-0.070	-0.016
-371.800	-135.181	-0.268	-0.032
-370.785	136.904	-0.042	-0.056
-369.771	-200.000	-0.028	0.254
-368.756	245.072	-0.104	0.176
-367.742	61.997	0.235	0.237
-366.727	-69.152	-0.219	-0.085
-365.712	-52.260	0.219	0.102
-364.698	-17.448	-0.033	0.021
-363.683	360.280	0.085	-0.171
-362.669	-96.239	0.445	-0.119
-361.654	117.822	0.254	0.315
-360.639	800.000	0.086	-0.326
-359.625	-186.071	0.046	-0.001
-358.610	-123.576	0.170	0.027
-357.596	800.000	0.035	0.133
-356.581	-200.000	-0.017	-0.258
-355.566	323.533	0.156	0.300
-354.552	-200.000	0.019	-0.383
-353.537	800.000	-0.047	-0.155
-352.523	-45.384	0.178	-0.089
-351.508	-127.111	-0.134	-0.020
-350.493	720.657	0.108	-0.290
-349.479	790.257	0.047	-0.129
-348.464	-22.292	-0.388	-0.237
-347.450	-7.152	-0.146	0.100
-346.435	-200.000	-0.026	0.271
-345.420	-118.480	-0.378	0.067
-344.406	-200.000	-0.024	0.275
-343.391	-113.100	0.086	-0.017
-342.377	-187.031	0.230	0.003
-341.362	800.000	-0.065	-0.195
-340.348	-29.871	0.221	-0.127
-339.333	800.000	0.045	-0.153
-338.318	474.525	0.081	0.183
-337.304	-200.000	-0.045	0.267
-336.289	233.223	-0.090	-0.149
-335.275	-200.000	-0.067	0.331
-334.260	800.000	-0.116	-0.370
-333.245	266.295	-0.120	0.210
-332.231	-149.068	-0.185	0.015
-331.216	-185.119	0.372	0.006
-330.202	-200.000	0.055	0.476
-329.187	-200.000	-0.026	-0.115
-328.172	20.618	-0.147	-0.120
-327.158	168.873	0.281	-0.404
-326.143	-54.967	0.109	0.049
-325.129	-52.947	-0.117	-0.054
-324.114	-143.880	-0.286	-0.027
-323.099	-94.218	-0.188	0.052
-322.085	54.598	-0.038	-0.037
-321.070	94.290	0.040	0.046
-320.056	203.676	0.089	-0.138
-319.041	454.267	0.074	-0.165
-318.026	60.431	0.157	0.156
-317.012	-200.000	0.010	0.078
-315.997	800.000	-0.111	0.315
-314.983	607.981	-0.054	0.136
-313.968	88.423	-0.346	0.387
-312.953	-86.174	0.329	-0.102
-311.939	800.000	0.030	-0.122
-310.924	-187.366	-0.127	-0.002
-309.910	800.000	-0.056	-0.160
-308.895	-37.068	-0.329	-0.177
-307.880	-101.216	-0.366	0.090
-306.866	-163.738	-0.039	0.002
-305.851	-99.307	0.171	0.043
-304.837	-200.000	-0.007	-0.091
-303.822	198.850	-0.119	-0.184
-302.807	10.004	-0.109	0.083
-301.793	-118.143	-0.113	-0.020
-300.778	-200.000	-0.007	-0.215
-299.764	-200.000	0.017	-0.146
-298.749	800.000	0.024	-0.104
-297.735	370.202	0.023	0.047
-296.720	-99.063	0.172	-0.044
-295.705	113.174	0.042	-0.052
-294.691	0.401	0.096	-0.069
-293.676	379.980	0.106	0.218
-292.662	-142.386	0.239	-0.024
-291.647	-133.982	-0.199	0.025
-290.632	-22.142	-0.068	-0.042
-289.618	347.864	0.115	-0.228
-288.603	28.609	0.085	0.072
-287.589	-200.000	0.010	-0.045
-286.574	-66.903	-0.221	-0.088
-285.559	-124.608	-0.129	0.020
-284.545	615.609	-0.048	0.120
-283.530	-200.000	0.002	0.201
-282.516	-134.333	0.169	-0.021
-281.501	5.120	0.083	0.061
-280.486	220.942	-0.142	0.230
-279.472	-200.000	0.011	0.289
-278.457	800.000	-0.146	0.434
-277.443	280.537	0.101	-0.182
-276.428	-200.000	-0.261	-0.000
-275.413	110.608	0.067	0.081
-274.399	-76.698	0.471	0.166
-273.384	131.656	0.108	-0.139
-272.370	800.000	-0.013	-0.053
-271.355	101.862	-0.141	-0.166
-270.340	198.442	0.075	-0.116
-269.326	-81.919	0.085	0.028
-268.311	-30.103	0.319	-0.182
-267.297	36.142	-0.358	0.316
-266.282	-172.618	-0.016	0.001
-265.267	16.115	0.231	-0.183
-264.253	427.578	-0.082	-0.178
-263.238	800.000	-0.086	-0.364
-262.224	260.849	-0.032	0.056
-261.209	-108.007	0.158	-0.035
-260.195	-71.108	-0.286	-0.108
-259.180	-50.042	-0.309	0.147
-258.165	295.944	0.163	0.300
-257.151	-64.312	0.141	0.058
-256.136	-200.000	-0.004	0.133
-255.122	800.000	0.037	-0.108
-254.107	-164.347	0.140	0.006
-253.092	183.041	-0.251	0.372
-252.078	140.418	-0.149	-0.197
-251.063	-26.177	-0.332	-0.195
-250.049	206.478	-0.155	0.243
-249.034	-161.437	-0.274	-0.014
-248.019	-174.095	-0.251	-0.007
-247.005	-55.353	0.305	0.137
-245.990	-83.742	-0.240	-0.077
-244.976	-35.494	-0.290	0.158
-243.961	-200.000	0.019	0.148
-242.946	52.924	0.221	0.212
-241.932	-200.000	-0.043	-0.339
-240.917	66.542	-0.176	0.179
-239.903	-165.466	-0.052	0.002
-238.888	331.348	-0.085	-0.163
-237.873	-128.241	0.037	-0.005
-236.859	252.210	0.172	0.295
-235.844	23.006	0.011	0.009
-234.830	-40.130	-0.255	0.133
-233.815	-79.588	0.185	-0.063
-232.800	171.378	-0.142	0.205
-231.786	-200.000	-0.165	-0.001
-230.771	-200.000	-0.003	-0.280
-229.757	211.847	-0.113	-0.179
-228.742	800.000	-0.085	0.339
-227.727	-155.960	0.246	0.016
-226.713	-130.746	-0.111	-0.015
-225.698	156.531	0.054	0.074
-224.684	441.872	-0.069	0.152
-223.669	-200.000	0.052	-0.291
-222.655	113.875	0.155	0.189
-221.640	-64.163	-0.101	0.041
-220.625	70.244	-0.137	-0.142
-219.611	139.450	0.098	0.129
-218.596	-67.991	-0.170	0.066
-217.582	180.037	-0.131	0.192
-216.567	4.156	-0.187	-0.137
-215.552	800.000	0.040	-0.167
-214.538	-200.000	-0.012	0.243
-213.523	261.318	-0.084	-0.146
-212.509	-80.562	0.070	-0.023
-211.494	-35.592	-0.291	0.158
-210.479	-200.000	-0.004	0.050
-209.465	800.000	0.060	0.188
-208.450	-0.482	-0.431	0.307
-207.436	800.000	-0.061	0.239
-206.421	-15.065	-0.009	0.006
-205.406	-154.706	0.246	0.016
-204.392	19.058	0.095	0.076
-203.377	52.587	-0.266	0.254
-202.363	109.246	0.128	0.154
-201.348	173.215	0.127	-0.183
-200.333	800.000	0.068	-0.246
-199.319	144.789	-0.104	0.139
-198.304	-98.292	0.173	-0.044
-197.290	7.769	0.070	-0.053
-196.275	-70.804	-0.205	-0.077
-195.260	-11.476	0.082	0.054
-194.246	144.224	-0.132	-0.177
-193.231	800.000	-0.071	0.242
-192.217	577.453	-0.046	-0.113
-191.202	308.904	-0.185	-0.345
-190.187	-200.000	0.044	-0.333
-189.173	44.041	-0.113	0.104
-188.158	800.000	-0.097	-0.339
-187.144	800.000	-0.071	0.199
-186.129	-11.608	-0.092	-0.061
-185.114	-36.000	0.088	0.048
-184.100	-68.241	0.084	-0.033
-183.085	-72.599	-0.235	0.087
-182.071	-113.675	0.258	0.050
-181.056	523.050	0.057	0.134
-180.042	-63.230	-0.169	-0.070
-179.027	-200.000	-0.071	0.348
-178.012	-47.732	-0.085	0.041
-176.998	160.135	0.126	-0.176
-175.983	-83.393	0.170	0.055
-174.969	-126.958	-0.075	-0.011
-173.954	-129.877	-0.041	-0.006
-172.939	-200.000	0.037	0.184
-171.925	568.109	0.094	0.227
-170.910	-111.480	-0.057	-0.012
-169.896	-194.748	0.200	0.002
-168.881	-1.457	0.248	0.175
-167.866	515.289	-0.066	0.154
-166.852	-30.247	-0.150	-0.085
-165.837	320.055	0.031	0.059
-164.823	-14.465	0.497	-0.320
-163.808	309.906	-0.055	0.103
-162.793	297.677	0.236	0.433
-161.779	112.609	-0.128	-0.155
-160.764	409.751	-0.109	0.232
-159.750	281.551	-0.137	-0.245
-158.735	800.000	0.013	-0.053
-157.720	-185.494	0.073	-0.001
-156.706	-31.040	0.237	0.134
-155.691	117.199	0.146	0.179
-154.677	-175.324	0.338	0.009
-153.662	-2.743	-0.219	-0.153
-152.647	423.503	0.127	0.273
-151.633	800.000	0.034	-0.109
-150.618	-19.865	0.203	-0.125
-149.604	800.000	0.100	0.287
-148.589	-18.853	0.237	-0.147
-147.574	-112.849	-0.200	0.040
-146.560	39.385	0.183	0.164
-145.545	61.682	0.150	0.149
-144.531	-56.158	-0.146	0.065
-143.516	-200.000	0.035	0.213
-142.502	223.367	-0.189	0.304
-141.487	-7.457	0.143	-0.097
-140.472	-200.000	-0.002	0.307
-139.458	412.110	-0.036	-0.076
-138.443	288.777	-0.083	-0.149
-137.429	-20.843	-0.101	-0.062
-136.414	506.022	-0.055	-0.127
-135.399	96.038	-0.115	0.131
-134.385	252.351	0.090	0.154
-133.370	-200.000	-0.098	-0.585
-132.356	-200.000	-0.016	-0.372
-131.341	381.424	-0.210	-0.431
-130.326	-130.505	-0.063	0.009
-129.312	-200.000	0.017	0.085
-128.297	-200.000	-0.066	0.295
-127.283	49.747	0.280	0.264
-126.268	-101.097	-0.162	0.040
-125.253	-79.952	0.089	-0.030
-124.239	800.000	-0.017	-0.068
-123.224	-84.628	-0.290	-0.091
