DTS Sentinel unit serial number:	SN413079Multiplexer serial number:	ORYXHardware model number:	OX4-SRSoftware version number:	ORYX F/W v4.00 Oryx Data Collector v3.7.2.0data status	okinstallation	princeton_trtdifferential loss correction	single-endedforward channel	channel 3reverse channel	N/Adate	2019/09/12time	18:10:04forward acquisition time	15.00reverse acquisition time	0.00gamma	496.2192k internal	0.2316k external	0.2316temperature offset calibration	1.0099default loss term (dB/km)	0.3790temperature slope calibration	1.0000multiplexer offset coefficient	1.0000multiplexer slope coefficient	1.0000fibre end	0.00T internal ref (°C)	33.62T ext. ref 1 (°C)	3.00T ext. ref 2 (°C)	28.17length (m)	temperature (°C)	Stokes	anti-Stokes-747.200	74.041	-0.482	0.512
-746.185	-200.000	0.056	0.451
-745.171	-161.660	0.923	0.048
-744.156	-200.000	0.009	0.305
-743.142	-55.607	0.476	-0.216
-742.127	-200.000	0.022	0.746
-741.112	800.000	-0.223	-0.796
-740.098	-200.000	0.004	-0.041
-739.083	-130.823	-0.283	0.038
-738.069	-200.000	-0.099	-0.624
-737.054	-29.245	-1.255	0.728
-736.039	214.973	-0.299	0.479
-735.025	236.179	0.255	-0.427
-734.010	210.629	-0.184	0.293
-732.996	491.281	-0.066	0.153
-731.981	-80.859	0.264	0.089
-730.966	185.442	-0.212	-0.319
-729.952	-67.564	-0.862	-0.342
-728.937	800.000	0.214	-0.679
-727.923	-96.184	-0.149	0.040
-726.908	50.072	-0.230	-0.220
-725.894	20.419	0.159	0.130
-724.879	-122.333	0.457	-0.075
-723.864	326.339	-0.211	0.408
-722.850	-200.000	0.014	-0.140
-721.835	708.298	0.142	-0.380
-720.821	398.091	0.265	0.560
-719.806	-23.734	-0.687	-0.417
-718.791	800.000	-0.186	-0.774
-717.777	50.839	-0.185	-0.177
-716.762	-29.227	0.392	-0.227
-715.748	-200.000	0.172	-0.000
-714.733	-44.654	-0.375	0.189
-713.718	800.000	0.176	0.598
-712.704	20.880	0.168	0.138
-711.689	-12.372	-0.555	-0.367
-710.675	-54.256	-0.140	-0.064
-709.660	-14.714	0.270	0.176
-708.645	-104.078	-0.628	-0.148
-707.631	-200.000	-0.055	0.566
-706.616	324.269	-0.302	0.583
-705.602	-146.488	-0.151	-0.013
-704.587	-200.000	0.023	0.318
-703.572	322.898	0.132	-0.254
-702.558	326.647	0.131	0.254
-701.543	479.463	-0.050	0.115
-700.529	183.930	-0.057	-0.086
-699.514	-200.000	0.058	0.692
-698.499	-200.000	0.022	-0.693
-697.485	285.930	0.139	0.254
-696.470	-141.688	-0.834	-0.085
-695.456	-107.398	-0.506	0.112
-694.441	155.999	-0.358	0.499
-693.426	29.201	-0.436	0.374
-692.412	-143.121	0.782	0.076
-691.397	800.000	0.200	-0.593
-690.383	27.883	-0.175	0.149
-689.368	-116.577	-0.525	0.098
-688.354	-70.405	-1.018	0.390
-687.339	-120.019	0.171	-0.030
-686.324	-200.000	-0.025	0.521
-685.310	312.781	0.247	-0.470
-684.295	164.127	-0.156	-0.222
-683.281	-111.221	-0.768	-0.159
-682.266	-200.000	0.128	-0.860
-681.251	-173.341	0.637	0.020
-680.237	-82.673	-0.994	0.325
-679.222	-160.833	0.850	-0.045
-678.208	199.368	-0.098	0.152
-677.193	-20.607	-0.777	-0.482
-676.178	123.243	-0.208	-0.263
-675.164	-43.420	0.423	0.216
-674.149	-113.311	0.298	0.059
-673.135	800.000	-0.133	0.383
-672.120	-161.795	-0.248	0.013
-671.105	5.760	0.871	0.650
-670.091	800.000	0.241	-0.708
-669.076	-107.445	0.445	0.099
-668.062	181.149	-0.148	0.220
-667.047	-91.089	0.396	-0.115
-666.032	-75.756	-0.139	-0.050
-665.018	154.437	0.312	0.432
-664.003	6.153	-0.816	0.611
-662.989	80.484	0.246	0.268
-661.974	-93.754	-0.476	-0.133
-660.959	-82.496	0.862	0.283
-659.945	496.959	-0.225	-0.522
-658.930	-66.048	-0.465	-0.187
-657.916	800.000	0.290	1.154
-656.901	-137.067	-0.544	-0.063
-655.886	-90.958	0.377	-0.109
-654.872	-200.000	-0.031	-0.621
-653.857	-155.061	-0.130	0.009
-652.843	800.000	0.072	0.224
-651.828	-200.000	0.038	-0.189
-650.814	342.574	0.063	-0.125
-649.799	-200.000	0.013	-0.752
-648.784	-200.000	0.024	0.327
-647.770	-114.728	-0.171	0.033
-646.755	-59.369	0.403	0.175
-645.741	-27.201	-0.961	-0.565
-644.726	800.000	-0.474	-1.387
-643.711	239.854	-0.066	-0.111
-642.697	157.621	-0.134	-0.188
-641.682	265.305	0.044	0.077
-640.668	-122.077	0.575	0.095
-639.653	800.000	-0.067	0.291
-638.638	800.000	-0.317	1.179
-637.624	-30.138	0.524	0.300
-636.609	-200.000	-0.033	-1.143
-635.595	800.000	-0.147	-0.524
-634.580	-34.046	0.420	-0.233
-633.565	-58.131	-0.227	-0.100
-632.551	-2.983	-0.660	0.465
-631.536	-136.256	0.762	0.090
-630.522	-200.000	-0.061	-0.291
-629.507	-79.456	0.591	0.201
-628.492	800.000	-0.090	0.364
-627.478	-27.270	-0.723	-0.424
-626.463	377.726	-0.341	0.702
-625.449	-200.000	-0.074	0.854
-624.434	46.347	-0.481	0.450
-623.419	-42.045	0.387	0.200
-622.405	-17.009	-0.910	-0.579
-621.390	-23.227	-0.603	0.365
-620.376	800.000	0.150	-0.460
-619.361	-22.320	0.254	-0.155
-618.346	-200.000	0.047	-0.799
-617.332	65.417	0.334	-0.340
-616.317	179.123	-0.386	0.569
-615.303	-200.000	0.136	1.009
-614.288	0.853	0.982	0.709
-613.273	800.000	0.037	-0.115
-612.259	-35.229	-0.461	-0.253
-611.244	264.573	-0.287	-0.503
-610.230	172.923	-0.455	-0.660
-609.215	800.000	0.075	0.266
-608.201	-200.000	-0.096	0.669
-607.186	-200.000	-0.050	1.035
-606.171	-200.000	0.044	0.482
-605.157	-66.311	-0.541	-0.217
-604.142	279.439	-0.496	-0.891
-603.128	100.764	-0.486	-0.569
-602.113	-91.937	-0.300	0.086
-601.098	-59.713	-0.064	0.028
-600.084	652.312	0.095	-0.246
-599.069	-65.386	-0.926	-0.375
-598.055	-51.045	0.562	0.266
-597.040	373.762	-0.034	0.069
-596.025	-200.000	0.055	0.632
-595.011	25.460	-0.329	-0.276
-593.996	93.916	0.334	0.382
-592.982	42.995	0.125	-0.115
-591.967	401.145	0.544	-1.150
-590.952	511.146	-0.346	-0.812
-589.938	317.784	-0.342	-0.652
-588.923	43.383	-0.440	-0.405
-587.909	-46.581	-0.462	-0.228
-586.894	163.266	-0.380	0.537
-585.879	-114.514	0.610	-0.118
-584.865	-126.739	-0.136	0.020
-583.850	800.000	-0.223	-0.713
-582.836	40.299	-0.155	0.141
-581.821	-200.000	0.040	0.448
-580.806	-104.659	0.564	0.131
-579.792	265.454	0.149	0.261
-578.777	-105.293	-0.451	0.104
-577.763	-200.000	0.122	0.784
-576.748	-103.210	-0.604	0.144
-575.733	-200.000	-0.107	-0.540
-574.719	-122.879	-0.510	-0.083
-573.704	-200.000	-0.062	-0.984
-572.690	-200.000	0.080	-1.010
-571.675	-200.000	0.172	-0.977
-570.661	-159.712	0.639	-0.035
-569.646	137.224	-0.331	0.436
-568.631	-200.000	-0.041	0.202
-567.617	-200.000	0.044	-0.203
-566.602	57.588	0.297	0.292
-565.588	-89.714	-0.509	0.150
-564.573	-53.518	0.119	-0.055
-563.558	95.731	0.260	-0.298
-562.544	-200.000	0.123	-0.874
-561.529	-200.000	-0.016	-1.038
-560.515	54.520	-0.136	0.132
-559.500	47.269	-0.290	0.272
-558.485	-200.000	-0.025	0.685
-557.471	-14.398	-0.444	0.287
-556.456	800.000	0.045	-0.161
-555.442	-89.274	0.366	-0.108
-554.427	306.243	-0.503	0.941
-553.412	19.744	0.523	-0.423
-552.398	-200.000	-0.003	0.344
-551.383	-139.354	-0.652	-0.070
-550.369	-68.303	-0.383	0.149
-549.354	-18.220	0.076	0.048
-548.339	150.609	0.169	0.230
-547.325	800.000	-0.217	-0.670
-546.310	46.312	-0.044	0.041
-545.296	-60.342	-0.254	-0.108
-544.281	40.858	-0.500	-0.453
-543.266	75.981	-0.269	0.286
-542.252	455.041	-0.115	0.256
-541.237	220.359	-0.057	0.092
-540.223	305.864	-0.041	-0.077
-539.208	800.000	0.080	0.322
-538.193	800.000	0.102	-0.336
-537.179	-91.761	0.365	0.104
-536.164	528.416	-0.210	0.499
-535.150	-54.863	-0.413	-0.187
-534.135	-12.827	-0.311	-0.203
-533.121	19.416	-0.540	0.436
-532.106	-91.810	0.509	0.145
-531.091	-200.000	0.058	-0.365
-530.077	800.000	-0.240	-0.753
-529.062	458.088	-0.085	-0.190
-528.048	-156.493	-0.382	-0.024
-527.033	-200.000	0.042	0.239
-526.018	79.564	-0.925	-0.997
-525.004	-123.739	0.603	-0.096
-523.989	-73.704	0.280	-0.102
-522.975	161.054	-0.224	0.315
-521.960	-200.000	-0.016	0.258
-520.945	260.268	-0.335	-0.581
-519.931	23.760	0.267	0.221
-518.916	-78.467	-0.325	0.112
-517.902	-200.000	-0.100	0.636
-516.887	-200.000	-0.092	0.504
-515.872	454.470	0.145	-0.322
-514.858	106.618	0.231	0.275
-513.843	-22.618	-0.306	-0.185
-512.829	437.155	0.086	0.189
-511.814	-200.000	0.033	0.357
-510.799	-161.652	-0.910	0.047
-509.785	800.000	0.236	-0.804
-508.770	154.478	-0.225	0.310
-507.756	34.469	-0.215	0.188
-506.741	-200.000	0.007	0.205
-505.726	630.012	-0.256	0.649
-504.712	800.000	-0.106	0.398
-503.697	23.169	-0.694	0.572
-502.683	-200.000	0.009	0.552
-501.668	259.449	-0.326	-0.565
-500.653	151.796	-0.473	-0.646
-499.639	-200.000	-0.035	0.580
-498.624	-46.428	0.324	-0.160
-497.610	800.000	-0.317	1.198
-496.595	20.750	-0.066	0.053
-495.581	55.330	-0.384	0.373
-494.566	60.847	-0.232	-0.231
-493.551	14.155	-0.425	-0.332
-492.537	235.016	0.074	-0.122
-491.522	-143.529	0.722	-0.069
-490.508	-200.000	-0.018	-0.384
-489.493	-19.512	0.686	0.426
-488.478	800.000	0.202	0.762
-487.464	742.729	-0.195	-0.525
-486.449	104.674	-0.345	0.407
-485.435	800.000	0.274	0.881
-484.420	-200.000	0.049	0.535
-483.405	-200.000	0.050	0.387
-482.391	-169.749	0.574	0.021
-481.376	9.861	0.213	0.162
-480.362	-173.623	-1.011	0.030
-479.347	143.804	0.132	-0.177
-478.332	800.000	0.121	0.418
-477.318	103.000	0.403	0.473
-476.303	-200.000	0.078	-0.523
-475.289	364.053	-0.309	0.622
-474.274	205.369	-0.639	-0.995
-473.259	-49.404	-0.413	0.197
-472.245	-200.000	0.016	0.826
-471.230	800.000	-0.205	0.722
-470.216	-200.000	-0.134	0.609
-469.201	-73.549	-0.750	0.274
-468.186	93.705	0.532	-0.604
-467.172	-57.787	0.799	-0.350
-466.157	-82.157	-1.210	-0.395
-465.143	-124.857	0.704	0.109
-464.128	-200.000	0.094	0.784
-463.113	-200.000	-0.117	-0.897
-462.099	-45.162	0.838	-0.417
-461.084	-70.155	0.395	-0.150
-460.070	-168.898	-0.351	-0.013
-459.055	-52.676	0.848	-0.392
-458.040	-153.384	0.410	-0.029
-457.026	800.000	-0.057	-0.160
-456.011	91.374	-0.308	-0.346
-454.997	449.365	-0.075	-0.166
-453.982	37.576	-0.226	0.201
-452.968	15.390	-0.404	-0.318
-451.953	-200.000	0.022	-0.384
-450.938	-90.315	0.565	-0.164
-449.924	-141.522	0.119	-0.012
-448.909	-159.772	-0.510	-0.028
-447.895	-12.603	-1.109	0.724
-446.880	-17.804	0.359	0.225
-445.865	283.250	0.112	-0.201
-444.851	-61.322	0.176	0.074
-443.836	-164.121	0.588	-0.027
-442.822	-68.091	0.775	-0.302
-441.807	-90.239	0.169	-0.049
-440.792	800.000	-0.166	-0.466
-439.778	-99.009	-0.312	-0.079
-438.763	2.581	0.546	-0.396
-437.749	800.000	0.261	0.849
-436.734	-127.206	0.570	0.083
-435.719	100.304	-0.447	0.519
-434.705	79.759	-0.726	0.780
-433.690	-102.473	-0.471	0.113
-432.676	-129.206	0.734	0.102
-431.661	-200.000	-0.138	1.043
-430.646	800.000	0.323	-0.965
-429.632	-76.870	-0.331	0.116
-428.617	-5.850	-0.338	-0.231
-427.603	-63.350	-0.184	0.076
-426.588	28.242	-0.882	0.745
-425.573	3.542	0.354	-0.258
-424.559	488.596	-0.473	1.080
-423.544	-200.000	0.623	0.003
-422.530	-200.000	-0.066	-0.426
-421.515	-119.084	-0.133	-0.023
-420.500	-99.856	0.125	-0.031
-419.486	-200.000	0.131	-0.940
-418.471	-200.000	-0.076	-0.646
-417.457	142.040	-0.258	-0.342
-416.442	800.000	0.196	-0.624
-415.428	-87.229	-0.814	-0.247
-414.413	800.000	0.106	-0.428
-413.398	-1.708	0.185	-0.130
-412.384	-40.248	-0.633	-0.330
-411.369	395.504	0.247	-0.516
-410.355	-63.898	0.150	0.061
-409.340	-129.418	0.389	0.054
-408.325	508.658	0.193	-0.447
-407.311	800.000	0.162	0.486
-406.296	-46.600	-0.801	0.393
-405.282	-200.000	0.007	-0.457
-404.267	-67.048	-0.588	-0.232
-403.252	31.961	-0.372	-0.320
-402.238	-200.000	0.155	-0.755
-401.223	-36.714	-0.401	0.215
-400.209	-154.591	0.349	-0.023
-399.194	-104.856	0.932	-0.214
-398.179	614.407	-0.120	-0.300
-397.165	-200.000	-0.004	0.612
-396.150	453.721	0.504	1.116
-395.136	237.447	0.566	0.938
-394.121	-37.813	0.403	-0.214
-393.106	800.000	-0.177	-0.497
-392.092	-200.000	0.108	-0.625
-391.077	232.191	0.343	0.562
-390.063	101.497	-0.120	0.140
-389.048	-116.118	0.931	0.173
-388.033	-200.000	-0.018	0.553
-387.019	81.652	0.294	-0.318
-386.004	800.000	0.112	-0.413
-384.990	68.005	0.262	0.268
-383.975	-20.978	0.449	0.275
-382.960	87.035	-0.635	-0.700
-381.946	-53.633	1.227	0.560
-380.931	89.131	-0.447	0.497
-379.917	26.941	0.699	-0.585
-378.902	24.851	0.324	-0.268
-377.888	-96.284	-0.619	0.164
-376.873	71.530	0.579	-0.600
-375.858	-6.774	-0.031	0.021
-374.844	-200.000	-0.093	-0.601
-373.829	-126.415	0.281	-0.042
-372.815	379.224	-0.089	0.182
-371.800	-42.747	0.323	0.164
-370.785	-200.000	-0.058	0.308
-369.771	-200.000	0.014	-0.412
-368.756	-59.767	0.570	-0.244
-367.742	-200.000	-0.006	0.364
-366.727	-110.463	0.766	0.159
-365.712	43.190	-0.182	0.166
-364.698	51.330	0.446	-0.423
-363.683	42.766	-0.402	-0.366
-362.669	469.804	-0.299	0.671
-361.654	182.404	-0.186	-0.273
-360.639	-88.171	-0.672	0.201
-359.625	-84.747	-1.029	-0.323
-358.610	77.371	-0.269	-0.286
-357.596	242.196	0.524	-0.874
-356.581	800.000	-0.094	-0.298
-355.566	19.846	-0.156	-0.125
-354.552	-58.694	0.192	-0.083
-353.537	670.457	0.021	0.053
-352.523	125.232	0.070	-0.088
-351.508	800.000	0.134	-0.585
-350.493	365.624	0.116	0.233
-349.479	-121.654	0.807	0.133
-348.464	4.824	-0.340	-0.249
-347.450	-200.000	0.050	0.445
-346.435	447.179	0.309	-0.677
-345.420	-32.049	-0.848	0.473
-344.406	-115.662	-0.019	0.004
-343.391	161.339	0.379	-0.529
-342.377	-200.000	0.031	-0.694
-341.362	-82.008	-0.832	-0.271
-340.348	14.040	-0.223	-0.173
-339.333	-112.766	0.268	0.053
-338.318	580.913	-0.223	0.546
-337.304	169.503	0.400	-0.570
-336.289	-12.745	-0.216	0.141
-335.275	43.016	0.262	0.239
-334.260	793.483	-0.396	-1.086
-333.245	-114.098	-0.293	0.056
-332.231	-200.000	0.021	0.566
-331.216	-200.000	0.021	-0.692
-330.202	302.670	0.221	0.408
-329.187	-70.778	-0.767	0.289
-328.172	616.937	0.275	0.688
-327.158	-200.000	-0.134	0.843
-326.143	-85.635	0.345	0.107
-325.129	-200.000	-0.048	-0.467
-324.114	-53.698	-0.302	-0.138
-323.099	-40.555	0.823	-0.425
-322.085	-142.280	0.375	0.037
-321.070	23.641	-0.500	-0.410
-320.056	-200.000	0.007	-0.342
-319.041	-58.171	-0.399	-0.173
-318.026	-143.094	-0.398	0.038
-317.012	-110.786	0.702	-0.144
-315.997	-200.000	-0.030	-0.684
-314.983	72.009	0.377	-0.391
-313.968	-27.583	-0.310	0.179
-312.953	21.848	0.996	-0.808
-311.939	66.737	0.068	0.069
-310.924	800.000	-0.145	0.427
-309.910	50.575	-0.248	-0.234
-308.895	143.183	0.225	0.298
-307.880	800.000	0.253	0.755
-306.866	-10.809	0.460	-0.303
-305.851	800.000	-0.125	0.509
-304.837	-33.252	-0.569	0.314
-303.822	201.957	0.607	-0.931
-302.807	-100.836	-0.809	0.198
-301.793	-200.000	0.101	-0.593
-300.778	-32.378	0.301	0.167
-299.764	-58.821	-0.193	0.083
-298.749	22.775	-0.490	-0.399
-297.735	-200.000	0.067	-0.412
-296.720	800.000	-0.067	-0.213
-295.705	-200.000	0.078	-0.407
-294.691	-112.057	0.142	-0.028
-293.676	164.263	0.146	0.205
-292.662	39.401	0.591	0.526
-291.647	-154.199	-0.183	0.012
-290.632	-200.000	0.151	-1.275
-289.618	-107.060	0.828	0.182
-288.603	-200.000	0.097	0.805
-287.589	93.953	0.363	0.410
-286.574	-0.933	-0.318	-0.224
-285.559	-105.553	-0.582	0.131
-284.545	108.587	-0.500	0.594
-283.530	54.445	0.524	0.502
-282.516	-92.529	1.048	0.293
-281.501	63.776	-0.306	-0.306
-280.486	19.949	-0.418	0.335
-279.472	521.467	0.380	0.887
-278.457	6.611	0.723	-0.534
-277.443	-26.236	-0.362	0.211
-276.428	105.499	0.644	0.757
-275.413	276.201	-0.076	0.135
-274.399	-139.832	-0.607	0.064
-273.384	-200.000	-0.031	0.335
-272.370	8.439	-0.279	0.209
-271.355	543.631	-0.247	-0.587
-270.340	414.939	0.159	-0.337
-269.326	448.559	0.180	0.395
-268.311	70.732	0.316	-0.325
-267.297	701.912	-0.159	-0.417
-266.282	-200.000	-0.228	1.028
-265.267	-142.213	-0.391	-0.038
-264.253	-127.180	-0.417	-0.061
-263.238	164.381	-0.268	0.376
-262.224	-200.000	0.030	-0.477
-261.209	-130.472	0.474	-0.064
-260.195	133.688	0.157	0.202
-259.180	120.171	-0.544	-0.671
-258.165	-118.232	-0.885	-0.157
-257.151	-134.808	0.215	0.026
-256.136	252.488	-0.198	0.335
-255.122	158.859	0.278	0.384
-254.107	-28.180	-0.348	-0.200
-253.092	-9.936	-0.062	-0.041
-252.078	800.000	-0.146	-0.622
-251.063	157.636	-0.193	-0.265
-250.049	-60.010	-0.167	0.071
-249.034	-200.000	0.001	0.210
-248.019	-200.000	-0.033	1.080
-247.005	-200.000	0.021	0.889
-245.990	800.000	-0.227	0.868
-244.976	435.216	0.179	-0.388
-243.961	208.165	0.198	-0.308
-242.946	158.391	0.451	-0.622
-241.932	800.000	-0.181	-0.695
-240.917	-16.295	1.046	-0.659
-239.903	544.520	-0.332	0.788
-238.888	-131.682	0.701	0.091
-237.873	126.652	-0.078	-0.098
-236.859	721.716	-0.146	-0.385
-235.844	-2.894	0.682	0.473
-234.830	67.468	0.234	0.237
-233.815	-81.785	-0.739	0.240
-232.800	-33.229	0.641	0.352
-231.786	-90.939	-0.758	-0.216
-230.771	-177.811	0.632	0.015
-229.757	-92.366	0.522	-0.146
-228.742	166.707	-0.238	-0.335
-227.727	234.143	0.356	0.583
-226.713	-151.711	-0.368	0.027
-225.698	-158.606	0.340	-0.019
-224.684	233.412	0.133	0.217
-223.669	167.246	-0.338	0.476
-222.655	211.097	-0.127	-0.198
-221.640	77.258	0.138	-0.145
-220.625	800.000	0.043	-0.151
-219.611	-61.736	-1.004	-0.418
-218.596	-200.000	-0.031	-0.394
-217.582	164.491	0.218	-0.305
-216.567	-200.000	-0.062	0.347
-215.552	800.000	0.112	-0.320
-214.538	47.971	0.339	-0.315
-213.523	700.979	0.375	-0.980
-212.509	-11.116	-0.384	0.251
-211.494	23.140	0.379	-0.308
-210.479	-152.844	0.566	0.040
-209.465	-168.025	0.800	0.031
-208.450	82.972	0.225	-0.243
-207.436	-200.000	0.701	0.000
-206.421	-22.203	0.174	0.104
-205.406	-200.000	0.002	0.044
-204.392	-108.900	-0.508	0.108
-203.377	-12.969	0.726	-0.468
-202.363	800.000	0.242	0.898
-201.348	199.702	0.467	0.711
-200.333	-110.466	0.356	-0.073
-199.319	-93.660	0.667	-0.183
-198.304	155.333	0.466	-0.636
-197.290	-81.113	0.777	-0.255
-196.275	453.514	-0.243	0.534
-195.260	-200.000	-0.025	0.659
-194.246	800.000	0.196	0.564
-193.231	210.477	0.475	0.740
-192.217	171.574	-0.494	-0.704
-191.202	-200.000	-0.052	-0.362
-190.187	-89.742	0.631	-0.183
-189.173	800.000	-0.177	0.656
-188.158	-28.424	-0.405	0.231
-187.144	-200.000	-0.163	0.730
-186.129	151.756	0.476	0.643
-185.114	0.864	0.340	0.242
-184.100	-20.658	-0.241	0.147
-183.085	-93.141	0.353	0.097
-182.071	683.882	-0.101	0.261
-181.056	556.719	0.156	0.372
-180.042	136.779	-0.191	0.247
-179.027	-121.851	-0.667	-0.109
-178.012	-88.901	0.760	-0.223
-176.998	-200.000	0.046	0.324
-175.983	125.066	-0.529	0.660
-174.969	-14.079	-0.692	0.442
-173.954	438.204	-0.121	0.261
-172.939	-23.130	0.516	-0.308
-171.925	17.267	0.166	-0.130
-170.910	-28.076	0.518	0.297
-169.896	502.342	0.158	0.362
-168.881	-31.240	0.135	-0.076
-167.866	45.754	0.499	0.457
-166.852	412.695	0.273	-0.575
-165.837	800.000	-0.130	0.495
-164.823	-200.000	-0.048	0.832
-163.808	558.675	-0.369	0.882
-162.793	181.855	0.246	-0.359
-161.779	-16.843	-0.265	0.166
-160.764	-48.138	0.229	0.109
-159.750	88.375	-0.178	0.196
-158.735	120.710	0.083	0.103
-157.720	7.465	-0.573	-0.424
-156.706	46.214	-0.493	-0.452
-155.691	-82.254	0.785	-0.253
-154.677	571.617	-0.167	-0.403
-153.662	800.000	0.134	-0.442
-152.647	-15.067	-0.245	-0.155
-151.633	1.833	0.580	-0.414
-150.618	-82.370	-0.826	-0.266
-149.604	-200.000	0.036	-0.207
-148.589	-200.000	0.046	0.496
-147.574	352.914	0.255	0.500
-146.560	118.120	-0.133	-0.162
-145.545	399.799	-0.300	-0.621
-144.531	-125.095	0.432	0.066
-143.516	-200.000	-0.064	0.624
-142.502	-3.988	0.103	0.070
-141.487	155.241	0.413	0.562
-140.472	537.950	-0.092	-0.215
-139.458	107.535	0.297	0.350
-138.443	-102.899	-0.736	0.173
-137.429	-173.000	0.501	-0.015
-136.414	17.564	0.122	0.096
-135.399	-58.788	1.287	0.551
-134.385	309.335	0.196	-0.362
-133.370	235.613	-0.514	0.839
-132.356	-117.737	0.366	-0.065
-131.341	-84.947	0.393	-0.122
-130.326	-200.000	0.167	-0.761
-129.312	189.531	0.235	-0.349
-128.297	-200.000	0.065	-0.283
-127.283	37.126	-0.173	-0.152
-126.268	342.703	0.489	0.947
-125.253	-168.490	0.517	-0.020
-124.239	-115.693	0.245	0.045
-123.224	124.631	-0.118	-0.146
-122.210	18.862	0.354	0.280
-121.195	81.476	0.433	-0.462
