DTS Sentinel unit serial number:	SN413079Multiplexer serial number:	ORYXHardware model number:	OX4-SRSoftware version number:	ORYX F/W v4.00 Oryx Data Collector v3.7.2.0data status	okinstallation	princeton_trtdifferential loss correction	single-endedforward channel	channel 3reverse channel	N/Adate	2019/09/15time	02:32:35forward acquisition time	60.00reverse acquisition time	0.00gamma	496.2192k internal	0.2322k external	0.2322temperature offset calibration	0.9968default loss term (dB/km)	0.3790temperature slope calibration	1.0000multiplexer offset coefficient	1.0000multiplexer slope coefficient	1.0000fibre end	0.00T internal ref (°C)	31.50T ext. ref 1 (°C)	4.57T ext. ref 2 (°C)	25.85length (m)	temperature (°C)	Stokes	anti-Stokes-747.200	800.000	0.144	0.473
-746.185	121.343	-0.051	0.064
-745.171	-155.189	0.081	0.005
-744.156	800.000	-0.032	0.094
-743.142	-175.102	-0.380	0.011
-742.127	-55.018	-0.181	0.083
-741.112	670.482	-0.031	-0.080
-740.098	-25.902	-0.429	0.255
-739.083	-35.630	0.227	0.125
-738.069	-106.528	-0.266	-0.060
-737.054	144.172	0.054	-0.073
-736.039	-168.908	-0.273	0.010
-735.025	747.160	-0.055	-0.151
-734.010	800.000	0.119	0.340
-732.996	626.195	-0.051	0.130
-731.981	246.642	0.075	0.127
-730.966	495.540	-0.072	-0.167
-729.952	-79.503	-0.353	-0.120
-728.937	315.285	0.085	0.161
-727.923	800.000	-0.064	-0.237
-726.908	139.542	-0.181	-0.240
-725.894	589.975	0.035	-0.086
-724.879	12.786	0.065	-0.051
-723.864	800.000	-0.084	-0.235
-722.850	76.445	0.074	0.079
-721.835	100.163	-0.063	-0.074
-720.821	186.459	0.045	-0.067
-719.806	412.568	0.020	0.044
-718.791	444.816	-0.096	-0.213
-717.777	-200.000	0.034	-0.372
-716.762	-83.177	-0.278	-0.090
-715.748	14.163	0.138	-0.108
-714.733	6.229	0.083	-0.062
-713.718	-200.000	-0.021	-0.182
-712.704	-4.722	0.410	0.285
-711.689	417.861	0.098	-0.212
-710.675	69.332	0.160	-0.166
-709.660	-200.000	-0.009	-0.081
-708.645	167.529	-0.087	-0.125
-707.631	-13.479	-0.107	-0.070
-706.616	-119.046	0.187	0.033
-705.602	-200.000	0.011	-0.138
-704.587	-114.537	-0.301	0.058
-703.572	-110.677	-0.058	0.012
-702.558	-200.000	-0.024	-0.178
-701.543	235.725	0.094	0.157
-700.529	132.254	-0.193	-0.250
-699.514	285.027	0.149	0.270
-698.499	-97.307	-0.223	0.059
-697.485	57.854	-0.173	-0.171
-696.470	-45.520	0.101	-0.050
-695.456	-71.665	-0.130	0.049
-694.441	-200.000	0.015	-0.183
-693.426	425.847	0.036	-0.077
-692.412	-162.219	-0.118	-0.006
-691.397	681.244	-0.034	-0.090
-690.383	-40.600	-0.357	0.187
-689.368	-154.461	-0.036	-0.002
-688.354	-46.202	0.079	0.039
-687.339	166.273	0.152	0.217
-686.324	148.650	-0.176	-0.239
-685.310	800.000	-0.154	-0.433
-684.295	-161.541	0.160	0.008
-683.281	299.576	0.126	-0.234
-682.266	17.809	0.109	0.087
-681.251	-148.016	-0.172	0.014
-680.237	60.978	0.448	-0.449
-679.222	22.551	0.166	-0.137
-678.208	157.975	0.028	0.039
-677.193	-1.032	0.377	0.269
-676.178	429.118	-0.112	-0.245
-675.164	-65.815	-0.137	-0.055
-674.149	-200.000	-0.031	0.181
-673.135	-168.824	0.188	-0.007
-672.120	-89.280	-0.073	0.022
-671.105	293.972	-0.061	0.113
-670.091	207.972	-0.125	0.197
-669.076	-56.119	-0.049	-0.022
-668.062	6.527	-0.019	-0.014
-667.047	121.512	-0.018	0.023
-666.032	-200.000	0.054	-0.266
-665.018	364.396	0.119	-0.242
-664.003	-66.428	-0.209	0.084
-662.989	-80.507	-0.181	0.061
-661.974	-14.639	-0.231	-0.149
-660.959	-154.320	0.221	0.015
-659.945	-200.000	0.018	0.335
-658.930	212.046	-0.203	-0.323
-657.916	-117.672	-0.524	-0.095
-656.901	800.000	-0.083	0.323
-655.886	18.779	0.209	-0.169
-654.872	-200.000	-0.009	-0.185
-653.857	800.000	0.019	-0.054
-652.843	-200.000	-0.082	0.000
-651.828	105.328	-0.225	-0.268
-650.814	-96.598	0.102	-0.027
-649.799	-92.129	0.199	-0.057
-648.784	59.481	0.031	0.031
-647.770	-104.261	0.254	0.059
-646.755	-116.153	-0.199	0.037
-645.741	115.503	0.082	-0.101
-644.726	-55.351	0.060	0.027
-643.711	-200.000	-0.003	-0.135
-642.697	686.088	0.090	-0.235
-641.682	126.851	-0.131	-0.167
-640.668	-200.000	0.011	-0.297
-639.653	108.785	0.170	-0.205
-638.638	-157.901	0.167	0.010
-637.624	-63.678	-0.180	0.074
-636.609	-200.000	0.019	-0.161
-635.595	-144.925	-0.200	0.018
-634.580	250.042	0.022	-0.038
-633.565	147.910	-0.228	0.309
-632.551	-37.543	-0.403	-0.216
-631.536	79.898	0.211	-0.228
-630.522	-131.824	0.191	-0.025
-629.507	-53.195	-0.119	0.055
-628.492	-200.000	0.062	0.332
-627.478	-159.147	-0.230	0.013
-626.463	-200.000	-0.030	-0.139
-625.449	-113.197	0.282	0.056
-624.434	-80.411	-0.334	0.112
-623.419	-34.785	-0.087	-0.048
-622.405	256.635	0.110	-0.189
-621.390	-200.000	-0.006	-0.098
-620.376	370.394	-0.087	-0.178
-619.361	139.775	-0.084	-0.111
-618.346	-200.000	-0.004	0.061
-617.332	471.248	-0.031	0.070
-616.317	-200.000	-0.008	0.232
-615.303	-130.196	-0.210	-0.029
-614.288	59.013	-0.216	-0.214
-613.273	800.000	0.018	-0.060
-612.259	139.904	-0.107	-0.141
-611.244	149.426	0.221	-0.301
-610.230	-154.458	-0.152	-0.010
-609.215	800.000	-0.065	0.192
-608.201	-158.738	-0.129	-0.007
-607.186	800.000	0.047	-0.140
-606.171	144.855	-0.199	-0.267
-605.157	800.000	-0.064	-0.270
-604.142	19.505	0.031	0.025
-603.128	800.000	0.017	0.069
-602.113	581.960	0.101	-0.249
-601.098	241.741	-0.076	0.127
-600.084	113.962	0.131	0.160
-599.069	-125.261	-0.329	0.051
-598.055	-68.366	-0.233	-0.091
-597.040	-64.983	-0.140	-0.057
-596.025	258.577	0.199	-0.345
-595.011	-9.379	-0.188	0.126
-593.996	143.735	-0.080	0.108
-592.982	-76.407	-0.244	0.086
-591.967	-200.000	0.019	0.130
-590.952	244.423	0.106	-0.180
-589.938	800.000	-0.029	0.091
-588.923	89.877	-0.111	-0.125
-587.909	-200.000	0.338	0.000
-586.894	313.144	0.030	0.057
-585.879	-200.000	-0.029	-0.399
-584.865	26.112	0.192	0.161
-583.850	174.668	0.273	0.397
-582.836	-105.165	-0.401	-0.092
-581.821	536.909	0.169	-0.404
-580.806	800.000	-0.122	0.362
-579.792	-75.668	-0.130	0.046
-578.777	23.693	-0.391	-0.323
-577.763	-200.000	-0.057	0.254
-576.748	2.218	0.312	-0.226
-575.733	94.598	-0.209	-0.239
-574.719	-104.163	-0.137	-0.032
-573.704	157.805	-0.114	-0.158
-572.690	-156.756	-0.154	-0.010
-571.675	-200.000	-0.011	-0.331
-570.661	-58.702	-0.086	0.037
-569.646	663.956	-0.076	0.198
-568.631	26.714	-0.283	0.238
-567.617	-200.000	-0.055	-0.247
-566.602	146.127	-0.175	0.236
-565.588	105.164	-0.173	0.204
-564.573	-45.824	0.225	-0.111
-563.558	-64.621	-0.067	-0.027
-562.544	-200.000	-0.012	0.121
-561.529	45.245	-0.278	-0.257
-560.515	800.000	0.035	-0.118
-559.500	154.652	0.067	-0.093
-558.485	576.245	-0.043	-0.107
-557.471	-24.306	0.248	-0.148
-556.456	-147.351	0.061	-0.005
-555.442	800.000	0.147	-0.418
-554.427	-29.997	0.156	-0.089
-553.412	-119.476	-0.184	-0.032
-552.398	143.076	-0.275	0.367
-551.383	800.000	0.053	0.188
-550.369	-200.000	-0.019	-0.273
-549.354	-200.000	-0.008	-0.226
-548.339	-31.929	-0.187	-0.105
-547.325	-79.695	0.196	-0.066
-546.310	61.216	0.327	0.325
-545.296	153.102	0.088	-0.121
-544.281	97.265	0.225	-0.259
-543.266	45.034	0.160	0.148
-542.252	602.938	-0.119	0.296
-541.237	-49.434	0.091	-0.043
-540.223	-200.000	-0.010	0.143
-539.208	178.297	-0.109	-0.159
-538.193	-119.461	-0.268	-0.047
-537.179	-200.000	-0.024	-0.177
-536.164	-40.890	0.162	-0.084
-535.150	800.000	0.009	0.036
-534.135	516.569	0.101	0.236
-533.121	-200.000	-0.014	-0.345
-532.106	-111.002	-0.334	0.069
-531.091	-57.208	0.069	-0.031
-530.077	-61.552	0.021	-0.009
-529.062	-131.066	-0.151	-0.020
-528.048	135.105	0.117	-0.152
-527.033	30.650	0.336	-0.288
-526.018	-27.829	0.102	0.059
-525.004	58.744	0.077	-0.076
-523.989	-200.000	-0.006	-0.271
-522.975	-133.943	-0.221	-0.027
-521.960	181.792	0.190	-0.280
-520.945	-200.000	-0.042	-0.228
-519.931	355.270	0.076	0.152
-518.916	-200.000	-0.003	0.170
-517.902	159.107	-0.117	-0.163
-516.887	-117.843	0.141	0.025
-515.872	40.912	-0.088	0.080
-514.858	305.773	0.130	0.242
-513.843	-63.526	-0.215	-0.088
-512.829	-200.000	-0.012	0.241
-511.814	-61.031	-0.230	-0.097
-510.799	-200.000	-0.154	-0.001
-509.785	138.040	0.111	-0.145
-508.770	-156.504	-0.364	0.023
-507.756	8.943	-0.037	-0.028
-506.741	800.000	-0.013	0.054
-505.726	-25.520	0.222	0.131
-504.712	-18.261	0.242	0.152
-503.697	-104.528	-0.202	-0.047
-502.683	-38.434	-0.178	-0.094
-501.668	235.043	0.128	0.212
-500.653	174.141	-0.257	-0.372
-499.639	-173.734	0.243	0.007
-498.624	-151.537	-0.106	-0.008
-497.610	228.292	-0.174	0.284
-496.595	610.064	-0.017	0.042
-495.581	586.322	-0.145	-0.357
-494.566	15.051	-0.028	-0.022
-493.551	176.383	0.361	0.525
-492.537	81.242	-0.038	-0.041
-491.522	197.452	-0.125	0.190
-490.508	-144.305	0.232	0.022
-489.493	-55.217	-0.305	-0.137
-488.478	123.949	-0.234	-0.294
-487.464	98.820	-0.061	0.071
-486.449	-200.000	0.001	0.075
-485.435	154.671	0.107	-0.147
-484.420	351.157	-0.130	0.258
-483.405	-200.000	0.056	0.419
-482.391	-144.078	0.272	-0.026
-481.376	-165.886	-0.125	-0.005
-480.362	-200.000	0.002	0.218
-479.347	-166.178	0.266	0.011
-478.332	423.408	-0.078	0.167
-477.318	-74.058	0.105	0.038
-476.303	155.181	0.021	-0.029
-475.289	128.176	0.082	-0.104
-474.274	325.071	-0.095	-0.181
-473.259	-60.883	-0.165	0.070
-472.245	-14.595	-0.018	0.011
-471.230	93.243	0.090	0.101
-470.216	-200.000	0.001	0.229
-469.201	-142.979	-0.159	0.015
-468.186	-26.118	-0.225	0.132
-467.172	-21.735	0.097	0.059
-466.157	800.000	0.103	0.320
-465.143	430.377	0.122	0.264
-464.128	-68.407	0.029	0.011
-463.113	2.190	-0.077	-0.055
-462.099	-72.280	0.255	-0.094
-461.084	306.064	0.052	-0.097
-460.070	29.740	0.095	0.081
-459.055	96.230	-0.225	-0.257
-458.040	-32.578	-0.273	-0.152
-457.026	175.613	0.219	-0.318
-456.011	604.833	-0.147	0.366
-454.997	81.932	0.064	-0.069
-453.982	-55.579	-0.217	-0.097
-452.968	-200.000	-0.074	0.393
-451.953	153.762	0.182	0.250
-450.938	398.282	-0.047	0.099
-449.924	-30.775	0.188	0.106
-448.909	-119.082	-0.225	0.039
-447.895	800.000	-0.090	-0.280
-446.880	125.362	-0.150	0.188
-445.865	-200.000	-0.022	-0.121
-444.851	-200.000	0.007	0.070
-443.836	-93.725	-0.207	0.057
-442.822	800.000	0.028	0.093
-441.807	-109.269	-0.325	0.069
-440.792	91.422	0.141	0.159
-439.778	77.202	-0.117	0.124
-438.763	-159.103	-0.198	-0.011
-437.749	-19.009	0.200	-0.124
-436.734	-5.013	0.011	0.008
-435.719	-200.000	0.168	0.000
-434.705	-58.254	0.286	-0.124
-433.690	-168.636	0.052	-0.002
-432.676	43.288	0.280	0.255
-431.661	54.634	-0.093	0.090
-430.646	21.639	-0.088	-0.071
-429.632	-63.717	-0.289	0.118
-428.617	56.888	0.143	-0.139
-427.603	59.214	0.208	0.205
-426.588	800.000	-0.048	0.138
-425.573	67.573	0.237	0.241
-424.559	379.340	-0.054	-0.111
-423.544	800.000	-0.023	-0.086
-422.530	-150.284	0.195	-0.015
-421.515	-74.011	-0.318	-0.115
-420.500	-200.000	0.002	-0.073
-419.486	-181.426	-0.077	-0.002
-418.471	185.340	-0.118	0.175
-417.457	800.000	-0.080	0.224
-416.442	261.946	-0.065	0.113
-415.428	-200.000	0.025	0.125
-414.413	51.995	-0.195	-0.186
-413.398	-153.858	-0.367	0.025
-412.384	312.356	-0.120	-0.224
-411.369	49.922	-0.264	0.248
-410.355	-185.320	0.281	-0.004
-409.340	-35.838	0.093	0.050
-408.325	-200.000	-0.033	-0.206
-407.311	-200.000	0.009	0.136
-406.296	800.000	-0.002	-0.006
-405.282	-150.074	-0.268	-0.021
-404.267	-110.513	0.315	-0.065
-403.252	106.831	0.150	0.177
-402.238	15.638	0.255	-0.200
-401.223	-1.618	0.034	-0.024
-400.209	-200.000	0.006	0.086
-399.194	-50.697	0.428	-0.201
-398.179	452.168	0.071	0.157
-397.165	134.978	-0.142	0.183
-396.150	800.000	0.048	-0.192
-395.136	18.492	-0.052	0.042
-394.121	32.577	-0.164	0.141
-393.106	-145.051	0.200	-0.018
-392.092	-15.224	-0.464	0.296
-391.077	-18.129	0.168	-0.105
-390.063	800.000	0.156	-0.552
-389.048	-6.473	0.130	-0.088
-388.033	92.574	0.180	-0.202
-387.019	58.684	0.237	-0.232
-386.004	15.997	-0.099	0.077
-384.990	760.462	0.046	-0.125
-383.975	-116.850	-0.238	0.043
-382.960	151.730	0.265	0.360
-381.946	-58.332	0.223	0.097
-380.931	15.469	-0.080	-0.062
-379.917	-200.000	0.036	-0.346
-378.902	87.528	-0.046	-0.050
-377.888	21.315	-0.036	0.029
-376.873	110.649	0.114	-0.136
-375.858	285.218	-0.115	0.206
-374.844	-33.464	0.286	0.157
-373.829	556.274	-0.126	0.301
-372.815	-35.701	0.084	0.046
-371.800	-113.502	0.091	0.018
-370.785	240.242	0.171	0.284
-369.771	-200.000	-0.005	0.137
-368.756	-101.282	0.356	0.087
-367.742	-160.459	-0.298	-0.016
-366.727	30.914	-0.063	0.054
-365.712	-95.545	0.342	-0.091
-364.698	70.901	-0.212	0.218
-363.683	-73.656	0.250	0.091
-362.669	-200.000	0.023	-0.299
-361.654	800.000	0.123	0.400
-360.639	85.740	-0.149	-0.163
-359.625	7.348	0.234	-0.174
-358.610	-23.916	0.174	-0.104
-357.596	46.316	-0.185	-0.171
-356.581	-127.468	0.226	-0.033
-355.566	-167.582	-0.071	0.003
-354.552	-200.000	0.023	0.113
-353.537	183.092	0.162	0.238
-352.523	-200.000	0.012	-0.254
-351.508	-200.000	0.010	0.112
-350.493	-192.161	-0.184	0.002
-349.479	616.545	-0.068	-0.170
-348.464	-200.000	-0.031	-0.155
-347.450	-128.456	-0.277	-0.039
-346.435	184.872	-0.072	-0.107
-345.420	800.000	-0.066	0.183
-344.406	800.000	0.057	-0.166
-343.391	-110.066	0.134	-0.028
-342.377	-200.000	0.012	0.080
-341.362	-200.000	-0.017	0.146
-340.348	-102.437	0.423	0.101
-339.333	589.392	0.068	0.167
-338.318	800.000	-0.054	0.202
-337.304	45.336	-0.257	0.236
-336.289	-200.000	-0.019	0.137
-335.275	-45.080	0.296	-0.147
-334.260	-200.000	-0.017	-0.177
-333.245	-182.806	0.315	-0.006
-332.231	-121.375	0.278	-0.046
-331.216	-200.000	0.010	-0.339
-330.202	-130.948	-0.058	-0.008
-329.187	462.437	0.122	-0.271
-328.172	800.000	0.120	-0.341
-327.158	-108.591	-0.137	0.029
-326.143	-200.000	0.015	0.335
-325.129	-171.278	-0.183	-0.006
-324.114	-22.303	-0.070	0.042
-323.099	-200.000	-0.021	-0.116
-322.085	384.864	-0.086	-0.176
-321.070	-24.412	-0.317	0.188
-320.056	-200.000	-0.017	-0.083
-319.041	52.061	0.275	-0.260
-318.026	296.306	0.120	-0.219
-317.012	177.099	-0.182	-0.263
-315.997	269.910	-0.097	-0.169
-314.983	-98.529	0.357	0.091
-313.968	238.036	-0.162	0.268
-312.953	467.550	0.084	-0.186
-311.939	565.667	0.052	0.125
-310.924	-94.175	-0.187	0.051
-309.910	800.000	0.063	0.221
-308.895	-49.861	0.233	0.110
-307.880	130.400	-0.040	-0.050
-306.866	372.075	0.053	0.107
-305.851	800.000	-0.078	0.229
-304.837	800.000	-0.119	-0.435
-303.822	-103.697	0.467	-0.109
-302.807	28.443	-0.129	-0.109
-301.793	144.722	0.095	-0.126
-300.778	-200.000	0.016	-0.130
-299.764	177.073	-0.151	0.218
-298.749	-108.661	0.312	-0.066
-297.735	102.308	-0.152	-0.176
-296.720	116.469	-0.081	-0.099
-295.705	1.362	0.030	-0.022
-294.691	800.000	0.027	-0.096
-293.676	-198.630	0.288	0.002
-292.662	800.000	-0.123	0.414
-291.647	152.803	-0.124	-0.168
-290.632	-200.000	-0.021	0.445
-289.618	213.007	0.030	0.047
-288.603	150.102	-0.122	0.164
-287.589	51.414	-0.298	-0.281
-286.574	-37.630	-0.172	0.091
-285.559	-183.856	-0.405	0.007
-284.545	127.783	0.159	-0.201
-283.530	-161.616	-0.036	-0.002
-282.516	736.059	-0.091	-0.242
-281.501	69.064	0.228	0.233
-280.486	-109.530	0.222	-0.046
-279.472	-200.000	0.002	0.040
-278.457	223.218	0.055	-0.088
-277.443	800.000	-0.077	0.297
-276.428	736.107	-0.036	0.095
-275.413	-200.000	0.040	0.307
-274.399	14.114	-0.168	0.130
-273.384	433.193	0.247	0.531
-272.370	187.804	-0.142	0.211
-271.355	-200.000	0.008	0.157
-270.340	450.042	0.070	-0.154
-269.326	-154.790	0.255	0.017
-268.311	-13.805	0.182	0.116
-267.297	-200.000	-0.004	0.163
-266.282	342.980	0.137	0.267
-265.267	-65.196	-0.170	-0.068
-264.253	-200.000	-0.034	-0.292
-263.238	-14.387	0.343	-0.219
-262.224	-1.108	0.261	-0.183
-261.209	-104.359	0.070	0.016
-260.195	-200.000	0.010	-0.072
-259.180	-79.182	0.490	-0.165
-258.165	-200.000	-0.040	-0.288
-257.151	-47.687	-0.197	0.095
-256.136	-48.480	0.274	-0.131
-255.122	800.000	-0.076	-0.246
-254.107	800.000	-0.037	-0.110
-253.092	-60.425	-0.190	-0.080
-252.078	210.758	0.045	0.070
-251.063	248.771	0.053	0.089
-250.049	-132.510	0.182	-0.023
-249.034	638.713	-0.064	0.161
-248.019	510.300	0.220	0.506
-247.005	-152.088	0.319	0.023
-245.990	797.262	-0.076	-0.208
-244.976	14.053	-0.142	0.109
-243.961	135.151	-0.218	0.281
-242.946	233.993	0.210	0.343
-241.932	30.688	-0.060	0.051
-240.917	-110.889	-0.300	-0.061
-239.903	112.858	-0.042	-0.051
-238.888	-200.000	0.004	0.186
-237.873	-155.391	-0.132	-0.008
-236.859	-71.988	-0.110	0.041
-235.844	122.731	-0.182	0.226
-234.830	-33.701	0.083	-0.045
-233.815	0.507	0.172	-0.122
-232.800	80.386	0.277	-0.296
-231.786	165.021	0.162	0.227
-230.771	394.602	0.189	0.389
-229.757	15.537	0.316	-0.246
-228.742	195.322	-0.153	-0.230
-227.727	-68.538	-0.335	-0.129
-226.713	-108.123	-0.193	-0.041
-225.698	20.227	-0.113	-0.090
-224.684	-149.192	0.232	0.018
-223.669	-60.144	-0.184	-0.078
-222.655	-28.191	-0.242	0.138
-221.640	115.078	0.106	-0.128
-220.625	111.734	0.257	0.307
-219.611	114.043	0.135	0.163
-218.596	-200.000	-0.018	0.116
-217.582	72.384	0.166	-0.171
-216.567	-83.975	-0.558	0.176
-215.552	800.000	0.090	0.247
-214.538	-29.979	-0.352	0.198
-213.523	-200.000	-0.013	-0.250
-212.509	-29.643	-0.300	-0.169
-211.494	800.000	-0.045	-0.161
-210.479	-97.641	-0.171	-0.044
-209.465	25.452	-0.093	-0.076
-208.450	31.355	0.201	-0.170
-207.436	800.000	0.038	0.145
-206.421	-200.000	0.006	-0.061
-205.406	90.144	-0.146	-0.161
-204.392	-200.000	-0.048	0.311
-203.377	-65.733	0.438	-0.173
-202.363	800.000	0.087	-0.336
-201.348	73.301	0.213	0.221
-200.333	800.000	-0.051	-0.191
-199.319	479.589	-0.149	0.334
-198.304	-200.000	0.033	0.281
-197.290	-80.864	0.202	0.066
-196.275	800.000	0.100	-0.323
-195.260	-200.000	0.003	0.188
-194.246	268.685	-0.137	0.237
-193.231	4.208	-0.067	-0.048
-192.217	521.400	0.006	-0.014
-191.202	-136.377	0.125	-0.014
-190.187	184.946	0.116	0.170
-189.173	-38.653	0.053	0.028
-188.158	522.913	0.129	0.300
-187.144	-99.268	-0.241	0.060
-186.129	166.171	0.302	0.422
-185.114	233.041	-0.084	0.136
-184.100	800.000	0.067	-0.270
-183.085	-91.975	0.179	0.050
-182.071	148.229	-0.126	-0.169
-181.056	96.800	-0.076	0.086
-180.042	-2.924	0.312	0.215
-179.027	-73.685	0.141	0.051
-178.012	183.060	-0.102	0.148
-176.998	-149.268	-0.096	0.008
-175.983	-22.879	0.180	-0.108
-174.969	30.428	0.133	0.113
-173.954	-140.729	-0.112	0.011
-172.939	347.835	0.112	0.217
-171.925	505.772	0.197	-0.451
-170.910	-4.335	0.127	0.086
-169.896	-6.829	-0.272	0.183
-168.881	-3.713	-0.198	-0.136
-167.866	17.973	0.057	0.045
-166.852	7.989	0.094	-0.070
-165.837	-200.000	-0.053	-0.371
-164.823	-25.080	-0.075	-0.044
-163.808	70.166	-0.057	-0.058
-162.793	23.581	-0.085	-0.069
-161.779	-148.406	-0.297	-0.024
-160.764	158.205	-0.115	0.158
-159.750	271.093	0.079	-0.138
-158.735	-22.651	0.261	-0.156
-157.720	-134.723	-0.168	0.020
-156.706	-200.000	-0.092	-0.491
-155.691	-110.343	0.373	0.077
-154.677	617.679	-0.065	-0.162
-153.662	-200.000	-0.009	-0.126
-152.647	630.330	-0.109	0.273
-151.633	285.201	-0.245	0.436
-150.618	-200.000	-0.199	0.000
-149.604	-200.000	-0.017	0.433
-148.589	-7.115	0.254	0.170
-147.574	-135.797	0.169	0.020
-146.560	-109.189	0.326	0.068
-145.545	-173.457	0.185	-0.006
-144.531	-20.003	0.215	-0.131
-143.516	-200.000	0.048	-0.231
-142.502	391.687	-0.121	0.248
-141.487	-200.000	-0.002	0.208
-140.472	-200.000	-0.039	-0.224
-139.458	14.392	-0.246	-0.190
-138.443	354.987	0.051	0.100
-137.429	13.975	0.152	0.117
-136.414	26.591	-0.164	0.136
-135.399	39.633	-0.077	0.068
-134.385	133.066	-0.062	-0.079
-133.370	-58.978	0.039	0.017
-132.356	-113.053	0.340	0.066
-131.341	391.911	-0.146	0.300
-130.326	-61.714	0.330	0.136
-129.312	675.539	0.102	-0.260
-128.297	-68.351	0.322	-0.123
-127.283	-200.000	0.037	0.165
-126.268	-136.482	0.254	0.029
-125.253	-200.000	-0.001	0.158
-124.239	166.671	-0.102	0.143
-123.224	659.942	-0.065	-0.164
-122.210	92.072	0.277	-0.308
