DTS Sentinel unit serial number:	SN413079Multiplexer serial number:	ORYXHardware model number:	OX4-SRSoftware version number:	ORYX F/W v4.00 Oryx Data Collector v3.7.2.0data status	okinstallation	princeton_trtdifferential loss correction	single-endedforward channel	channel 3reverse channel	N/Adate	2019/09/11time	08:38:11forward acquisition time	60.00reverse acquisition time	0.00gamma	496.2192k internal	0.2313k external	0.2313temperature offset calibration	0.9940default loss term (dB/km)	0.3790temperature slope calibration	1.0000multiplexer offset coefficient	1.0000multiplexer slope coefficient	1.0000fibre end	0.00T internal ref (°C)	33.42T ext. ref 1 (°C)	0.06T ext. ref 2 (°C)	30.48length (m)	temperature (°C)	Stokes	anti-Stokes-747.200	22.506	0.204	-0.169
-746.185	224.263	0.031	0.050
-745.171	-200.000	-0.054	0.342
-744.156	-73.883	-0.420	0.155
-743.142	299.525	0.125	-0.233
-742.127	93.699	-0.265	0.304
-741.112	163.425	-0.110	-0.157
-740.098	-100.155	0.047	-0.012
-739.083	-90.703	-0.160	-0.047
-738.069	-132.649	-0.278	0.036
-737.054	-56.240	0.049	-0.022
-736.039	-20.909	-0.209	-0.130
-735.025	-64.444	0.366	0.151
-734.010	-100.243	-0.212	-0.053
-732.996	-78.100	0.210	-0.073
-731.981	87.172	0.161	0.180
-730.966	-200.000	0.058	0.293
-729.952	-95.434	-0.267	-0.073
-728.937	305.345	-0.083	-0.156
-727.923	101.582	0.098	-0.115
-726.908	-73.069	-0.212	0.079
-725.894	49.946	-0.258	0.247
-724.879	719.441	0.039	0.104
-723.864	548.749	0.114	-0.278
-722.850	62.653	0.022	-0.023
-721.835	7.933	-0.470	-0.357
-720.821	-51.044	-0.356	0.169
-719.806	9.664	0.115	-0.088
-718.791	483.006	0.033	-0.076
-717.777	41.663	-0.215	-0.197
-716.762	-200.000	0.009	-0.324
-715.748	-45.167	-0.068	-0.034
-714.733	327.470	0.072	-0.141
-713.718	-200.000	0.044	0.294
-712.704	13.880	-0.112	0.088
-711.689	-200.000	-0.030	0.344
-710.675	509.933	0.126	0.297
-709.660	-200.000	-0.016	0.141
-708.645	-14.872	-0.240	0.156
-707.631	-200.000	0.024	0.302
-706.616	-119.210	-0.483	-0.085
-705.602	-200.000	0.003	-0.125
-704.587	-22.368	-0.171	-0.105
-703.572	382.077	0.064	-0.133
-702.558	800.000	-0.060	0.262
-701.543	800.000	0.075	0.234
-700.529	-103.488	0.332	-0.079
-699.514	265.670	0.169	-0.299
-698.499	-88.026	-0.229	0.070
-697.485	-108.558	0.248	-0.054
-696.470	36.834	0.352	0.315
-695.456	-158.841	0.221	-0.013
-694.441	67.732	-0.275	0.284
-693.426	167.152	-0.032	0.046
-692.412	27.430	0.075	-0.064
-691.397	-66.188	0.129	-0.052
-690.383	-200.000	0.000	-0.265
-689.368	-200.000	-0.030	0.450
-688.354	-67.281	-0.130	0.052
-687.339	-67.060	0.267	0.106
-686.324	800.000	0.047	-0.198
-685.310	410.953	0.067	-0.143
-684.295	800.000	0.014	-0.045
-683.281	-2.835	0.113	0.080
-682.266	-44.313	0.081	-0.041
-681.251	547.248	-0.054	-0.130
-680.237	-45.602	-0.502	0.251
-679.222	-94.045	0.162	-0.045
-678.208	316.650	-0.021	0.039
-677.193	800.000	-0.059	-0.191
-676.178	422.591	-0.080	0.174
-675.164	-72.276	-0.234	0.088
-674.149	605.371	0.091	-0.228
-673.135	-200.000	-0.040	-0.219
-672.120	-15.031	-0.060	-0.039
-671.105	-164.796	0.457	-0.021
-670.091	800.000	-0.062	0.222
-669.076	-200.000	0.029	-0.370
-668.062	-70.135	0.233	0.090
-667.047	-183.486	0.160	-0.003
-666.032	-59.426	-0.206	0.090
-665.018	-129.222	0.230	-0.032
-664.003	-15.869	-0.238	0.154
-662.989	-200.000	-0.035	0.353
-661.974	-200.000	0.009	0.281
-660.959	13.022	-0.084	0.066
-659.945	174.516	-0.222	-0.325
-658.930	-179.879	-0.150	-0.003
-657.916	310.781	-0.078	-0.148
-656.901	800.000	-0.128	0.362
-655.886	598.060	-0.037	-0.093
-654.872	-105.172	0.372	0.086
-653.857	-57.548	-0.444	-0.197
-652.843	396.496	0.043	-0.090
-651.828	-27.066	-0.446	0.263
-650.814	800.000	0.097	0.277
-649.799	-95.172	-0.072	-0.020
-648.784	-124.409	0.185	-0.029
-647.770	-47.884	0.021	0.010
-646.755	-200.000	0.004	-0.290
-645.741	-129.789	0.079	0.011
-644.726	128.473	-0.177	-0.228
-643.711	-200.000	-0.006	0.067
-642.697	-200.000	0.006	-0.083
-641.682	800.000	-0.025	-0.076
-640.668	-88.590	0.071	-0.022
-639.653	-200.000	0.020	0.141
-638.638	267.780	-0.062	0.110
-637.624	-200.000	-0.006	-0.065
-636.609	-45.920	0.129	-0.064
-635.595	16.775	0.124	-0.099
-634.580	503.907	0.058	-0.136
-633.565	-39.853	0.140	0.074
-632.551	108.227	0.124	-0.150
-631.536	343.375	-0.161	0.319
-630.522	-99.188	0.147	0.037
-629.507	-46.414	0.133	-0.066
-628.492	800.000	0.050	-0.153
-627.478	-144.709	0.045	0.004
-626.463	800.000	0.010	0.034
-625.449	-81.244	-0.444	0.148
-624.434	69.925	0.116	-0.121
-623.419	306.418	0.070	-0.131
-622.405	-28.985	-0.218	0.126
-621.390	-23.052	-0.209	-0.127
-620.376	-95.602	0.131	0.036
-619.361	157.774	0.197	0.275
-618.346	-91.913	-0.153	-0.044
-617.332	-17.352	-0.238	0.151
-616.317	-53.468	0.182	0.084
-615.303	-155.685	-0.242	0.016
-614.288	378.488	0.083	0.171
-613.273	-200.000	-0.012	-0.232
-612.259	-167.675	0.463	-0.019
-611.244	742.560	-0.096	-0.259
-610.230	-200.000	0.002	-0.091
-609.215	-200.000	-0.037	-0.221
-608.201	-20.909	-0.100	0.062
-607.186	-200.000	0.053	0.385
-606.171	29.585	0.249	0.213
-605.157	135.233	-0.061	-0.080
-604.142	385.784	-0.115	-0.238
-603.128	-140.548	0.300	-0.031
-602.113	49.203	0.245	-0.232
-601.098	-39.442	0.180	0.095
-600.084	-200.000	0.037	0.177
-599.069	61.926	-0.246	-0.247
-598.055	61.153	-0.223	-0.223
-597.040	45.331	0.164	-0.153
-596.025	-112.516	0.099	0.020
-595.011	-200.000	0.028	-0.159
-593.996	48.076	0.180	-0.170
-592.982	-11.364	0.146	0.097
-591.967	310.577	0.244	-0.462
-590.952	-200.000	0.011	0.113
-589.938	4.323	0.053	0.039
-588.923	-107.218	-0.202	-0.045
-587.909	-200.000	-0.012	0.106
-586.894	48.401	-0.070	-0.066
-585.879	119.356	-0.153	0.191
-584.865	-105.163	-0.409	-0.094
-583.850	-63.064	-0.258	0.107
-582.836	-200.000	0.118	-0.000
-581.821	800.000	0.115	-0.328
-580.806	-48.225	0.327	-0.159
-579.792	154.599	-0.130	-0.180
-578.777	190.691	0.111	-0.168
-577.763	-10.651	-0.444	0.296
-576.748	-21.582	0.270	0.166
-575.733	-94.731	-0.286	-0.078
-574.719	299.002	-0.145	0.270
-573.704	-73.780	-0.278	0.102
-572.690	-200.000	0.032	0.276
-571.675	129.173	0.107	0.138
-570.661	-19.367	-0.411	-0.257
-569.646	-170.957	-0.243	0.008
-568.631	16.209	0.114	-0.091
-567.617	-124.116	0.192	0.030
-566.602	12.747	-0.192	-0.149
-565.588	183.276	0.179	-0.266
-564.573	96.116	-0.093	-0.107
-563.558	-56.226	0.425	-0.190
-562.544	-129.302	-0.126	0.018
-561.529	645.304	-0.092	-0.235
-560.515	-200.000	-0.018	-0.085
-559.500	-123.154	-0.185	-0.030
-558.485	293.259	-0.099	-0.183
-557.471	-200.000	0.010	0.189
-556.456	-200.000	-0.051	0.302
-555.442	-136.280	-0.182	0.021
-554.427	18.912	-0.081	-0.065
-553.412	-200.000	0.036	0.173
-552.398	-91.591	-0.342	0.098
-551.383	552.251	0.123	-0.297
-550.369	319.357	0.150	-0.286
-549.354	113.360	-0.095	-0.117
-548.339	-37.483	-0.133	0.071
-547.325	433.269	-0.027	-0.060
-546.310	75.398	0.086	-0.091
-545.296	-102.678	-0.398	-0.096
-544.281	359.588	-0.047	-0.095
-543.266	-102.266	-0.237	-0.057
-542.252	-96.399	-0.411	0.109
-541.237	800.000	0.060	0.213
-540.223	800.000	0.032	-0.133
-539.208	222.053	0.046	0.074
-538.193	-200.000	0.012	-0.185
-537.179	-33.196	-0.271	0.151
-536.164	800.000	0.022	-0.083
-535.150	-200.000	0.022	-0.335
-534.135	-8.010	0.134	0.091
-533.121	-137.677	0.020	-0.002
-532.106	62.136	-0.238	-0.239
-531.091	19.182	0.075	-0.061
-530.077	110.037	-0.053	-0.063
-529.062	6.556	-0.234	-0.175
-528.048	158.179	-0.077	0.108
-527.033	-200.000	-0.008	-0.064
-526.018	-59.535	-0.088	0.038
-525.004	37.820	-0.072	-0.064
-523.989	236.294	0.091	0.151
-522.975	142.608	0.054	-0.072
-521.960	-200.000	-0.003	-0.112
-520.945	-27.428	-0.018	-0.010
-519.931	220.529	-0.096	-0.155
-518.916	194.721	0.137	0.208
-517.902	-200.000	0.023	-0.111
-516.887	-33.425	0.270	-0.150
-515.872	394.413	-0.053	0.111
-514.858	-200.000	-0.073	-0.363
-513.843	301.869	-0.187	0.347
-512.829	-133.862	-0.440	0.055
-511.814	-27.450	0.326	0.191
-510.799	-114.581	-0.177	0.034
-509.785	253.457	0.122	0.209
-508.770	-71.120	0.497	0.188
-507.756	-38.915	0.108	-0.057
-506.741	-70.408	-0.096	-0.037
-505.726	-9.843	-0.058	-0.039
-504.712	-200.000	0.004	-0.147
-503.697	250.323	0.078	-0.133
-502.683	50.655	0.165	-0.157
-501.668	-137.334	0.225	-0.026
-500.653	-200.000	-0.009	0.151
-499.639	261.713	-0.100	0.174
-498.624	-161.551	-0.420	-0.022
-497.610	-138.181	0.112	0.013
-496.595	135.950	-0.146	0.190
-495.581	-88.314	0.076	0.023
-494.566	23.437	0.231	0.190
-493.551	145.031	0.045	-0.061
-492.537	-76.502	0.174	0.061
-491.522	-6.501	-0.241	-0.165
-490.508	-112.434	0.252	0.050
-489.493	115.979	-0.149	-0.183
-488.478	-200.000	-0.085	-0.427
-487.464	-9.549	0.011	-0.007
-486.449	-200.000	-0.003	0.343
-485.435	-61.017	0.097	-0.041
-484.420	-50.584	-0.137	0.065
-483.405	-71.398	-0.173	0.065
-482.391	203.796	-0.273	0.425
-481.376	35.141	0.249	-0.219
-480.362	570.014	0.062	-0.152
-479.347	800.000	0.055	0.158
-478.332	213.056	0.111	0.175
-477.318	6.623	0.041	0.030
-476.303	-46.092	0.118	-0.058
-475.289	-48.064	0.055	0.027
-474.274	-118.435	0.180	0.032
-473.259	-127.931	0.137	-0.020
-472.245	-63.706	0.063	-0.026
-471.230	117.606	-0.117	0.144
-470.216	800.000	0.138	-0.459
-469.201	732.477	0.113	-0.304
-468.186	20.849	-0.134	0.109
-467.172	-171.736	0.242	-0.008
-466.157	12.401	0.095	0.074
-465.143	-116.842	-0.177	-0.033
-464.128	-56.888	-0.180	-0.080
-463.113	-148.978	0.371	-0.030
-462.099	23.673	0.283	0.234
-461.084	119.177	-0.183	0.226
-460.070	-136.556	-0.238	0.028
-459.055	72.458	-0.170	-0.178
-458.040	-83.583	-0.118	0.038
-457.026	-153.500	0.119	-0.008
-456.011	-91.538	0.258	0.074
-454.997	800.000	-0.041	0.178
-453.982	68.581	-0.086	0.089
-452.968	742.620	0.055	-0.148
-451.953	91.107	-0.067	-0.075
-450.938	-200.000	0.098	-0.448
-449.924	-188.095	-0.290	0.004
-448.909	-25.910	0.101	0.060
-447.895	-72.504	-0.352	0.130
-446.880	56.171	0.193	0.188
-445.865	-90.315	-0.271	0.079
-444.851	800.000	-0.050	0.161
-443.836	-200.000	-0.026	0.123
-442.822	-69.042	0.356	-0.137
-441.807	-180.822	0.393	-0.008
-440.792	131.041	0.118	-0.151
-439.778	-72.907	-0.355	0.131
-438.763	491.502	-0.017	0.039
-437.749	-137.489	-0.175	0.020
-436.734	-70.832	0.218	0.082
-435.719	226.234	-0.047	0.077
-434.705	-200.000	-0.044	-0.407
-433.690	632.628	-0.071	0.179
-432.676	-127.005	0.216	-0.032
-431.661	-200.000	0.013	-0.155
-430.646	557.593	-0.064	-0.154
-429.632	400.311	0.073	-0.154
-428.617	-64.932	-0.421	-0.171
-427.603	10.262	0.189	0.144
-426.588	50.434	-0.257	-0.244
-425.573	-200.000	-0.013	-0.061
-424.559	35.002	0.363	0.318
-423.544	800.000	-0.094	-0.286
-422.530	-150.353	0.208	0.016
-421.515	160.550	-0.076	0.107
-420.500	-200.000	0.009	0.069
-419.486	-200.000	0.012	-0.109
-418.471	86.418	-0.109	-0.121
-417.457	677.985	0.033	-0.086
-416.442	-62.990	-0.139	-0.058
-415.428	800.000	-0.074	-0.304
-414.413	800.000	-0.087	-0.356
-413.398	219.623	0.126	0.201
-412.384	-4.092	-0.191	0.132
-411.369	-117.184	0.231	-0.042
-410.355	-63.176	-0.162	0.067
-409.340	-200.000	0.055	0.348
-408.325	-149.403	0.101	0.008
-407.311	271.845	0.099	-0.174
-406.296	800.000	0.059	-0.241
-405.282	-200.000	-0.012	-0.248
-404.267	116.656	0.282	0.346
-403.252	403.817	-0.094	0.199
-402.238	43.425	-0.294	0.269
-401.223	-85.951	-0.252	0.078
-400.209	-76.008	-0.033	0.012
-399.194	-200.000	-0.006	0.083
-398.179	-130.233	-0.242	-0.033
-397.165	410.578	0.172	-0.364
-396.150	-60.774	-0.163	0.069
-395.136	-155.293	0.324	-0.021
-394.121	-55.158	0.091	0.041
-393.106	-200.000	-0.018	0.078
-392.092	-8.901	0.171	-0.115
-391.077	-166.531	0.547	-0.023
-390.063	-101.479	-0.097	0.024
-389.048	43.026	-0.121	0.110
-388.033	161.369	0.236	-0.331
-387.019	-85.179	0.171	-0.053
-386.004	291.393	-0.025	-0.046
-384.990	-1.844	-0.315	-0.222
-383.975	91.900	0.188	0.211
-382.960	800.000	0.031	0.130
-381.946	800.000	0.012	-0.039
-380.931	73.620	-0.108	0.113
-379.917	391.289	-0.049	-0.102
-378.902	-73.129	0.284	0.104
-377.888	29.506	0.090	-0.077
-376.873	800.000	-0.102	0.314
-375.858	35.900	-0.216	-0.190
-374.844	137.800	-0.153	-0.200
-373.829	86.178	-0.104	-0.114
-372.815	60.591	-0.113	0.112
-371.800	-135.969	0.363	-0.043
-370.785	-98.533	-0.334	0.085
-369.771	800.000	0.048	0.157
-368.756	79.277	0.197	0.211
-367.742	-52.850	0.160	0.074
-366.727	-83.253	-0.451	0.145
-365.712	-49.005	-0.197	-0.094
-364.698	800.000	-0.089	0.264
-363.683	-150.661	-0.322	0.025
-362.669	81.204	0.231	-0.249
-361.654	-134.525	-0.146	-0.018
-360.639	314.881	-0.080	-0.151
-359.625	109.828	0.171	-0.205
-358.610	800.000	-0.080	0.330
-357.596	-90.650	0.329	0.095
-356.581	800.000	-0.093	-0.401
-355.566	-104.448	0.247	-0.057
-354.552	243.208	0.044	0.074
-353.537	342.467	0.091	-0.178
-352.523	-105.550	-0.160	-0.036
-351.508	-50.165	0.099	-0.047
-350.493	-2.558	-0.317	-0.222
-349.479	166.407	-0.174	0.247
-348.464	-200.000	0.028	-0.188
-347.450	-53.552	0.152	-0.069
-346.435	800.000	0.033	-0.134
-345.420	-200.000	-0.035	0.194
-344.406	-120.944	0.209	-0.035
-343.391	37.912	0.197	0.175
-342.377	-143.341	-0.413	0.040
-341.362	-77.424	-0.507	0.176
-340.348	109.919	-0.141	-0.168
-339.333	147.489	0.246	-0.331
-338.318	-200.000	0.016	0.132
-337.304	-200.000	-0.069	0.409
-336.289	-193.137	0.249	-0.002
-335.275	-52.829	-0.150	-0.069
-334.260	-200.000	0.005	0.097
-333.245	30.410	0.122	-0.104
-332.231	66.290	0.201	0.204
-331.216	-200.000	0.003	0.242
-330.202	64.948	0.126	0.127
-329.187	800.000	0.061	-0.241
-328.172	204.392	0.034	0.053
-327.158	-43.020	0.226	-0.114
-326.143	82.767	-0.210	0.228
-325.129	281.216	-0.102	-0.182
-324.114	238.396	-0.046	-0.077
-323.099	-200.000	-0.005	0.144
-322.085	-200.000	0.017	0.471
-321.070	0.986	-0.179	0.128
-320.056	-131.156	0.271	0.036
-319.041	272.367	-0.151	0.266
-318.026	-12.809	-0.074	-0.048
-317.012	21.772	0.379	0.308
-315.997	-200.000	0.130	0.001
-314.983	-35.428	-0.202	-0.109
-313.968	800.000	-0.063	0.201
-312.953	463.833	-0.135	0.302
-311.939	-88.956	0.475	-0.140
-310.924	160.466	-0.171	-0.238
-309.910	159.492	0.185	-0.257
-308.895	800.000	-0.042	0.178
-307.880	-200.000	0.022	-0.155
-306.866	388.253	0.085	-0.176
-305.851	-40.663	-0.361	-0.187
-304.837	-87.937	0.142	-0.043
-303.822	800.000	0.051	0.145
-302.807	-200.000	0.009	-0.083
-301.793	154.650	-0.161	-0.221
-300.778	238.872	0.114	0.188
-299.764	-200.000	0.091	0.447
-298.749	-140.762	0.217	0.022
-297.735	-200.000	-0.004	-0.223
-296.720	-200.000	-0.018	0.177
-295.705	-167.179	-0.176	-0.007
-294.691	156.814	0.115	-0.158
-293.676	-200.000	-0.020	-0.098
-292.662	-93.767	0.208	-0.057
-291.647	-98.458	-0.045	0.011
-290.632	45.085	-0.187	0.172
-289.618	115.591	-0.051	-0.062
-288.603	416.878	0.090	0.191
-287.589	-5.486	0.224	0.153
-286.574	28.295	0.093	0.078
-285.559	-145.174	0.074	-0.007
-284.545	455.357	-0.101	0.222
-283.530	-160.080	0.704	0.038
-282.516	458.004	0.098	0.216
-281.501	-51.751	-0.043	-0.020
-280.486	-200.000	0.004	-0.339
-279.472	800.000	-0.168	-0.506
-278.457	800.000	0.049	0.188
-277.443	-44.004	0.255	0.128
-276.428	800.000	-0.047	-0.174
-275.413	-137.488	-0.120	-0.013
-274.399	-187.366	0.169	0.002
-273.384	-101.744	0.175	-0.042
-272.370	32.812	0.098	0.085
-271.355	-42.772	0.176	0.089
-270.340	149.263	-0.123	0.166
-269.326	35.388	0.032	0.028
-268.311	2.557	-0.246	0.177
-267.297	19.373	0.116	-0.093
-266.282	44.276	0.283	0.258
-265.267	54.605	-0.219	0.210
-264.253	628.816	-0.056	0.141
-263.238	-13.163	-0.309	0.200
-262.224	273.473	0.068	0.120
-261.209	-120.860	-0.115	-0.019
-260.195	399.162	-0.157	0.328
-259.180	-120.559	-0.234	-0.039
-258.165	800.000	-0.029	0.117
-257.151	142.792	0.123	0.162
-256.136	-100.497	-0.256	0.063
-255.122	-57.829	-0.207	0.090
-254.107	-200.000	0.013	0.544
-253.092	28.192	-0.082	0.069
-252.078	-164.816	-0.260	0.012
-251.063	-11.565	0.120	0.078
-250.049	-200.000	-0.013	0.245
-249.034	-53.695	0.208	-0.094
-248.019	186.948	0.159	0.236
-247.005	-200.000	0.009	0.165
-245.990	333.481	0.009	-0.018
-244.976	-200.000	-0.075	-0.361
-243.961	28.454	-0.089	0.075
-242.946	800.000	0.056	0.174
-241.932	-200.000	0.038	-0.441
-240.917	99.795	0.234	0.270
-239.903	800.000	0.029	-0.081
-238.888	57.787	-0.095	0.092
-237.873	-200.000	-0.015	-0.119
-236.859	-119.300	0.171	-0.030
-235.844	551.382	-0.070	-0.166
-234.830	-152.195	0.184	0.013
-233.815	46.432	0.031	0.029
-232.800	184.448	-0.022	0.033
-231.786	800.000	-0.147	-0.441
-230.771	154.565	0.078	0.106
-229.757	228.690	0.183	-0.296
-228.742	57.921	-0.174	-0.169
-227.727	53.548	-0.104	-0.100
-226.713	-35.273	0.087	0.047
-225.698	-67.910	-0.170	-0.066
-224.684	-101.460	0.236	-0.057
-223.669	800.000	0.072	-0.296
-222.655	77.944	0.213	-0.225
-221.640	91.805	0.195	-0.218
-220.625	-131.221	-0.140	0.018
-219.611	279.389	0.066	0.118
-218.596	-200.000	-0.030	0.459
-217.582	119.544	-0.269	0.331
-216.567	-4.417	-0.316	0.217
-215.552	47.201	-0.237	-0.219
-214.538	482.634	-0.058	0.132
-213.523	-118.243	0.247	-0.044
-212.509	-17.847	0.133	0.083
-211.494	-3.333	0.126	0.087
-210.479	-16.122	-0.057	0.036
-209.465	455.821	-0.133	-0.293
-208.450	-200.000	0.014	-0.080
-207.436	-67.921	0.095	-0.037
-206.421	-13.424	-0.077	-0.050
-205.406	5.857	0.213	-0.156
-204.392	109.948	0.019	0.023
-203.377	-44.137	-0.232	-0.115
-202.363	-190.521	-0.206	-0.002
-201.348	-200.000	-0.022	0.228
-200.333	0.374	0.198	0.140
-199.319	-142.365	0.104	-0.010
-198.304	-71.627	0.144	-0.053
-197.290	-200.000	-0.041	-0.252
-196.275	-163.196	-0.184	0.009
-195.260	85.465	0.246	0.268
-194.246	501.378	0.077	-0.176
-193.231	-121.792	-0.058	0.010
-192.217	126.426	-0.112	0.141
-191.202	-200.000	-0.011	0.247
-190.187	800.000	0.116	0.478
-189.173	-17.067	-0.081	0.051
-188.158	-113.053	-0.172	-0.034
-187.144	158.383	-0.029	0.040
-186.129	14.772	0.334	-0.259
-185.114	-101.777	-0.178	-0.043
-184.100	-163.197	-0.221	-0.011
-183.085	800.000	-0.034	-0.133
-182.071	650.006	0.036	-0.091
-181.056	-200.000	0.042	-0.279
-180.042	-21.832	0.142	0.086
-179.027	-200.000	-0.018	0.307
-178.012	-40.547	0.141	-0.073
-176.998	-126.037	0.193	-0.029
-175.983	-8.089	0.016	-0.011
-174.969	199.599	-0.102	0.156
-173.954	800.000	-0.024	-0.066
-172.939	800.000	0.065	0.229
-171.925	15.752	-0.060	-0.047
-170.910	-21.405	-0.175	0.106
-169.896	113.362	-0.078	-0.093
-168.881	-165.630	-0.189	-0.008
-167.866	324.590	-0.191	-0.363
-166.852	-10.423	-0.356	0.234
-165.837	-36.628	-0.142	-0.076
-164.823	382.992	0.020	-0.040
-163.808	41.447	0.190	-0.171
-162.793	-143.513	0.219	0.021
-161.779	79.175	0.080	-0.084
-160.764	43.885	0.246	0.224
-159.750	581.535	-0.115	0.279
-158.735	-200.000	-0.018	0.217
-157.720	342.520	-0.146	0.283
-156.706	-76.669	0.193	-0.067
-155.691	-57.178	0.125	-0.054
-154.677	-200.000	-0.049	-0.282
-153.662	-77.263	0.163	0.056
-152.647	202.419	0.043	-0.066
-151.633	468.141	-0.086	0.192
-150.618	-109.294	0.216	-0.045
-149.604	235.489	0.135	0.221
-148.589	-154.666	-0.278	0.018
-147.574	497.671	-0.095	0.217
-146.560	-68.388	0.282	-0.109
-145.545	-162.290	-0.381	-0.019
-144.531	-133.032	-0.100	0.013
-143.516	-82.149	0.086	-0.028
-142.502	332.929	-0.107	-0.205
-141.487	800.000	0.044	-0.171
-140.472	11.663	-0.210	0.159
-139.458	150.227	-0.038	0.051
-138.443	-200.000	-0.064	-0.000
-137.429	800.000	-0.084	-0.257
-136.414	113.682	-0.061	0.073
-135.399	22.899	0.095	-0.077
-134.385	-192.917	0.337	0.003
-133.370	-77.722	-0.096	0.033
-132.356	225.288	0.137	-0.219
-131.341	-200.000	0.031	-0.190
-130.326	1.744	-0.267	0.191
-129.312	-35.809	-0.041	-0.022
-128.297	-108.244	0.348	0.075
-127.283	-37.797	0.070	-0.037
-126.268	502.932	-0.196	0.449
-125.253	-200.000	-0.020	0.141
-124.239	-82.705	-0.350	0.112
-123.224	-200.000	0.066	0.305
-122.210	466.274	0.223	-0.495
-121.195	-125.438	-0.267	0.040
