DTS Sentinel unit serial number:	SN413079Multiplexer serial number:	ORYXHardware model number:	OX4-SRSoftware version number:	ORYX F/W v4.00 Oryx Data Collector v3.7.2.0data status	okinstallation	princeton_trtdifferential loss correction	single-endedforward channel	channel 3reverse channel	N/Adate	2019/09/16time	11:56:34forward acquisition time	60.00reverse acquisition time	0.00gamma	496.2192k internal	0.2297k external	0.2297temperature offset calibration	0.9943default loss term (dB/km)	0.3790temperature slope calibration	1.0000multiplexer offset coefficient	1.0000multiplexer slope coefficient	1.0000fibre end	0.00T internal ref (°C)	38.56T ext. ref 1 (°C)	13.12T ext. ref 2 (°C)	35.84length (m)	temperature (°C)	Stokes	anti-Stokes-747.200	-85.683	0.062	0.020
-746.185	272.001	0.134	0.241
-745.171	800.000	0.153	0.444
-744.156	38.522	0.110	0.101
-743.142	338.959	-0.137	-0.272
-742.127	218.300	0.317	0.517
-741.112	-55.502	0.224	-0.103
-740.098	-200.000	0.052	0.325
-739.083	-104.599	-0.255	-0.060
-738.069	46.675	-0.263	0.249
-737.054	-95.811	-0.163	-0.044
-736.039	-200.000	0.017	0.233
-735.025	-5.227	0.258	0.181
-734.010	-6.943	0.315	0.219
-732.996	-96.577	-0.275	-0.074
-731.981	-200.000	0.024	-0.177
-730.966	-96.677	0.301	0.081
-729.952	210.309	-0.053	-0.086
-728.937	496.958	-0.192	-0.451
-727.923	23.980	0.126	-0.106
-726.908	-141.599	0.496	0.051
-725.894	800.000	0.060	-0.200
-724.879	-200.000	0.000	-0.235
-723.864	388.521	0.033	0.070
-722.850	71.798	0.060	-0.063
-721.835	-182.912	0.171	0.003
-720.821	14.602	-0.219	0.175
-719.806	66.294	0.107	-0.111
-718.791	800.000	0.100	0.288
-717.777	-31.410	0.038	0.022
-716.762	800.000	-0.099	0.404
-715.748	94.481	0.036	0.042
-714.733	-200.000	0.001	-0.171
-713.718	115.730	-0.149	-0.185
-712.704	30.974	-0.095	0.083
-711.689	43.935	0.188	-0.175
-710.675	44.725	-0.122	-0.115
-709.660	-200.000	-0.045	0.306
-708.645	-0.124	0.091	0.066
-707.631	45.490	0.073	-0.068
-706.616	800.000	0.072	0.204
-705.602	343.935	-0.093	0.186
-704.587	-88.174	0.154	0.047
-703.572	380.237	-0.088	-0.183
-702.558	18.634	0.078	0.064
-701.543	-120.116	0.354	-0.062
-700.529	326.127	0.083	-0.162
-699.514	150.745	0.176	-0.244
-698.499	34.314	-0.240	0.214
-697.485	27.899	-0.162	-0.139
-696.470	-114.779	0.202	0.039
-695.456	101.313	-0.222	0.264
-694.441	-3.860	0.179	-0.127
-693.426	88.784	0.040	-0.046
-692.412	800.000	-0.053	0.218
-691.397	-137.083	-0.361	0.042
-690.383	-91.749	-0.553	-0.160
-689.368	411.259	-0.026	-0.057
-688.354	-200.000	0.019	-0.117
-687.339	20.959	0.152	-0.125
-686.324	-19.472	-0.223	-0.141
-685.310	800.000	-0.043	-0.150
-684.295	-3.924	-0.278	-0.196
-683.281	119.374	-0.137	-0.173
-682.266	-62.780	0.118	-0.050
-681.251	-100.615	-0.220	0.055
-680.237	349.010	0.219	-0.441
-679.222	-3.287	-0.123	-0.087
-678.208	-200.000	-0.040	-0.245
-677.193	-102.147	0.260	-0.064
-676.178	-26.104	0.227	0.136
-675.164	191.215	0.095	0.146
-674.149	36.798	0.234	0.211
-673.135	-20.545	-0.224	0.140
-672.120	550.937	-0.061	-0.148
-671.105	-139.036	-0.281	0.031
-670.091	44.064	-0.161	-0.150
-669.076	-117.394	-0.364	0.067
-668.062	800.000	0.059	0.193
-667.047	-25.311	-0.135	-0.082
-666.032	17.258	-0.201	-0.162
-665.018	505.258	0.086	0.202
-664.003	-54.517	0.104	0.048
-662.989	-200.000	0.023	-0.186
-661.974	-122.697	0.194	0.032
-660.959	800.000	0.035	0.143
-659.945	-194.593	0.442	0.004
-658.930	389.910	0.076	-0.161
-657.916	-126.594	-0.241	0.036
-656.901	325.054	0.071	0.138
-655.886	-60.482	-0.126	-0.055
-654.872	43.656	-0.341	-0.317
-653.857	-200.000	-0.061	0.287
-652.843	-111.933	-0.224	0.046
-651.828	294.174	-0.112	-0.207
-650.814	-200.000	-0.003	-0.139
-649.799	-200.000	0.025	-0.316
-648.784	-76.319	0.295	0.106
-647.770	-194.773	0.261	-0.002
-646.755	355.398	-0.149	0.302
-645.741	800.000	0.100	0.422
-644.726	800.000	0.042	-0.138
-643.711	26.187	0.149	0.127
-642.697	-17.529	-0.183	0.117
-641.682	800.000	0.083	0.367
-640.668	74.513	0.140	0.149
-639.653	-96.932	0.280	-0.075
-638.638	-111.761	0.179	0.037
-637.624	22.818	-0.168	0.140
-636.609	-108.728	-0.177	-0.039
-635.595	25.180	-0.170	0.143
-634.580	-46.475	-0.166	-0.083
-633.565	-200.000	-0.009	-0.077
-632.551	-34.088	0.336	0.188
-631.536	443.224	-0.134	-0.300
-630.522	-156.476	-0.335	0.021
-629.507	-30.373	0.318	-0.184
-628.492	-35.907	0.179	-0.099
-627.478	6.867	-0.156	-0.118
-626.463	-200.000	-0.012	0.316
-625.449	-176.613	0.176	-0.005
-624.434	-37.718	0.153	-0.083
-623.419	800.000	0.034	0.103
-622.405	-200.000	-0.011	-0.081
-621.390	800.000	-0.018	-0.062
-620.376	-108.545	0.118	0.026
-619.361	-166.910	-0.103	-0.004
-618.346	333.250	0.042	0.082
-617.332	-81.844	-0.076	-0.025
-616.317	58.860	-0.109	-0.109
-615.303	800.000	0.049	0.151
-614.288	36.782	0.247	-0.222
-613.273	-29.075	0.114	-0.066
-612.259	-140.784	0.086	0.009
-611.244	-75.210	-0.116	0.042
-610.230	226.853	0.114	-0.188
-609.215	800.000	-0.054	-0.214
-608.201	103.804	-0.089	0.107
-607.186	247.938	0.194	-0.334
-606.171	213.923	-0.122	-0.197
-605.157	-200.000	0.004	0.399
-604.142	20.006	-0.069	-0.056
-603.128	-200.000	0.003	0.084
-602.113	13.827	-0.051	-0.040
-601.098	-126.578	0.142	-0.021
-600.084	75.394	-0.034	0.037
-599.069	-200.000	-0.032	0.220
-598.055	-56.312	-0.262	0.118
-597.040	800.000	0.002	-0.009
-596.025	800.000	0.073	0.212
-595.011	-72.387	-0.402	-0.151
-593.996	192.598	0.026	0.040
-592.982	46.950	-0.015	0.014
-591.967	-166.953	-0.328	0.014
-590.952	631.958	-0.093	-0.239
-589.938	-200.000	-0.038	-0.174
-588.923	-200.000	-0.016	-0.228
-587.909	-142.736	0.088	0.009
-586.894	-157.623	0.188	-0.011
-585.879	-120.834	-0.039	-0.007
-584.865	24.107	-0.352	-0.295
-583.850	79.212	-0.046	-0.050
-582.836	-87.827	-0.223	-0.068
-581.821	-200.000	0.001	-0.126
-580.806	-21.575	-0.052	-0.032
-579.792	-157.719	0.064	0.004
-578.777	-183.980	-0.166	0.003
-577.763	0.402	-0.257	0.187
-576.748	-44.403	0.327	-0.166
-575.733	-200.000	-0.022	0.115
-574.719	17.981	-0.213	0.172
-573.704	171.044	0.102	0.149
-572.690	-35.630	-0.189	0.104
-571.675	-160.093	-0.186	0.010
-570.661	509.798	0.145	0.343
-569.646	17.102	0.238	-0.191
-568.631	-200.000	0.007	0.103
-567.617	-26.669	-0.312	0.185
-566.602	-85.808	0.194	0.061
-565.588	-191.460	-0.260	-0.003
-564.573	186.818	-0.046	-0.069
-563.558	-200.000	-0.057	-0.310
-562.544	-156.053	0.271	0.017
-561.529	137.739	-0.103	-0.137
-560.515	-0.498	-0.200	-0.144
-559.500	33.328	-0.482	0.425
-558.485	800.000	-0.031	-0.114
-557.471	800.000	0.104	-0.418
-556.456	137.617	-0.127	0.168
-555.442	-102.207	-0.181	0.044
-554.427	-34.991	-0.084	-0.047
-553.412	-43.092	-0.199	-0.102
-552.398	650.233	-0.122	0.317
-551.383	-200.000	-0.013	0.134
-550.369	-200.000	0.037	0.414
-549.354	-28.171	-0.185	0.108
-548.339	-200.000	-0.046	-0.366
-547.325	-140.389	-0.170	-0.018
-546.310	-200.000	0.007	0.262
-545.296	-64.518	0.217	0.089
-544.281	-200.000	-0.002	0.095
-543.266	800.000	-0.038	-0.138
-542.252	-76.907	0.292	-0.104
-541.237	-39.144	0.237	-0.126
-540.223	-200.000	-0.033	-0.254
-539.208	-200.000	0.008	-0.102
-538.193	-88.545	-0.243	-0.073
-537.179	74.900	0.192	0.204
-536.164	387.073	-0.158	0.330
-535.150	-57.759	0.053	-0.024
-534.135	147.184	0.255	0.347
-533.121	102.004	-0.063	-0.074
-532.106	800.000	0.056	-0.187
-531.091	-60.367	0.124	-0.054
-530.077	-60.942	0.265	0.114
-529.062	800.000	0.036	0.112
-528.048	456.088	0.159	0.356
-527.033	-200.000	0.020	0.147
-526.018	318.874	-0.069	0.132
-525.004	-200.000	-0.009	0.067
-523.989	288.710	-0.141	0.259
-522.975	-130.779	-0.142	0.019
-521.960	106.023	0.198	0.238
-520.945	800.000	-0.036	0.148
-519.931	-2.388	0.103	-0.073
-518.916	127.896	0.134	0.173
-517.902	-200.000	-0.076	-0.437
-516.887	-200.000	-0.007	-0.212
-515.872	109.777	-0.101	0.123
-514.858	-42.938	-0.236	-0.122
-513.843	-45.623	-0.173	-0.086
-512.829	-200.000	0.095	-0.471
-511.814	800.000	-0.071	-0.283
-510.799	-177.197	0.130	0.003
-509.785	311.540	0.069	0.132
-508.770	399.850	0.166	0.352
-507.756	-126.466	0.140	0.021
-506.741	271.652	-0.149	-0.266
-505.726	11.952	-0.186	-0.144
-504.712	296.088	0.042	-0.077
-503.697	800.000	0.022	0.069
-502.683	-100.696	0.096	0.024
-501.668	-88.583	-0.145	-0.044
-500.653	236.909	-0.204	-0.342
-499.639	155.852	-0.164	0.228
-498.624	-57.354	0.118	0.053
-497.610	100.963	-0.200	-0.235
-496.595	142.157	0.130	-0.175
-495.581	59.171	0.118	-0.118
-494.566	6.849	-0.312	-0.235
-493.551	35.740	0.197	0.175
-492.537	-200.000	0.035	-0.260
-491.522	207.368	0.067	0.105
-490.508	128.318	-0.315	0.405
-489.493	527.508	0.047	0.113
-488.478	-62.076	0.240	-0.101
-487.464	98.778	0.057	0.066
-486.449	92.400	-0.016	0.019
-485.435	244.700	-0.034	-0.057
-484.420	-200.000	-0.003	0.157
-483.405	-200.000	-0.030	-0.143
-482.391	-200.000	-0.012	-0.419
-481.376	126.532	0.210	-0.269
-480.362	800.000	-0.079	-0.344
-479.347	286.108	-0.184	-0.336
-478.332	109.137	-0.312	-0.378
-477.318	-139.824	0.629	0.067
-476.303	254.948	-0.239	-0.413
-475.289	-100.258	-0.109	-0.027
-474.274	84.101	-0.130	0.144
-473.259	639.705	-0.140	-0.361
-472.245	-130.110	0.374	0.052
-471.230	-111.167	-0.186	0.038
-470.216	-200.000	0.057	-0.310
-469.201	115.338	-0.020	-0.025
-468.186	800.000	0.065	0.262
-467.172	800.000	-0.039	-0.139
-466.157	-80.571	0.126	-0.043
-465.143	-63.093	0.127	-0.053
-464.128	-92.682	0.471	-0.133
-463.113	800.000	-0.076	0.270
-462.099	220.404	0.100	0.162
-461.084	800.000	0.038	-0.161
-460.070	38.112	0.354	-0.319
-459.055	-200.000	-0.198	0.001
-458.040	-200.000	0.041	0.192
-457.026	71.806	0.037	-0.039
-456.011	80.816	-0.225	0.245
-454.997	-79.515	0.155	0.053
-453.982	55.944	0.202	-0.197
-452.968	300.971	-0.074	-0.138
-451.953	74.277	-0.030	0.032
-450.938	-200.000	-0.043	-0.243
-449.924	800.000	0.038	-0.112
-448.909	-65.900	-0.399	-0.161
-447.895	800.000	-0.058	-0.207
-446.880	112.889	-0.034	0.042
-445.865	-43.182	0.083	0.042
-444.851	133.100	-0.044	0.057
-443.836	-76.189	0.012	-0.004
-442.822	401.481	0.179	-0.378
-441.807	-6.164	0.163	0.112
-440.792	775.057	0.027	0.073
-439.778	99.514	0.105	-0.122
-438.763	800.000	-0.033	-0.144
-437.749	-86.190	-0.272	-0.085
-436.734	310.852	0.110	0.207
-435.719	-200.000	0.024	-0.116
-434.705	-95.851	0.136	-0.037
-433.690	-200.000	0.020	0.195
-432.676	187.734	-0.156	0.235
-431.661	-200.000	0.083	0.398
-430.646	-200.000	-0.013	-0.174
-429.632	-92.713	-0.306	0.086
-428.617	-200.000	-0.046	-0.401
-427.603	273.328	-0.202	-0.360
-426.588	-70.078	-0.139	0.053
-425.573	45.606	0.073	0.068
-424.559	25.802	0.158	-0.132
-423.544	30.939	0.170	0.147
-422.530	-111.601	-0.174	0.036
-421.515	800.000	-0.062	-0.173
-420.500	-200.000	-0.015	-0.390
-419.486	800.000	0.081	0.247
-418.471	-49.113	-0.539	0.260
-417.457	4.480	-0.107	0.079
-416.442	-2.921	0.066	-0.046
-415.428	-131.140	0.137	0.018
-414.413	-26.508	0.231	0.137
-413.398	-200.000	0.032	-0.287
-412.384	-7.313	-0.145	0.099
-411.369	30.691	0.073	0.063
-410.355	389.159	-0.060	0.125
-409.340	-200.000	0.060	0.438
-408.325	43.379	0.087	0.080
-407.311	-13.729	0.145	-0.094
-406.296	-50.901	-0.179	0.085
-405.282	800.000	-0.096	-0.351
-404.267	479.976	0.082	-0.187
-403.252	-18.324	0.147	0.093
-402.238	-200.000	0.020	-0.256
-401.223	11.992	-0.096	0.074
-400.209	171.405	-0.087	0.126
-399.194	-95.928	-0.151	0.041
-398.179	-95.548	0.121	-0.033
-397.165	110.505	0.158	0.192
-396.150	339.561	-0.085	0.167
-395.136	-66.362	0.106	0.043
-394.121	-43.325	-0.179	-0.091
-393.106	83.789	0.141	-0.155
-392.092	-200.000	0.032	0.363
-391.077	-123.943	0.078	0.012
-390.063	-102.111	-0.103	0.025
-389.048	248.030	-0.078	-0.132
-388.033	-76.479	-0.191	-0.068
-387.019	-119.282	-0.157	-0.028
-386.004	-181.105	0.096	-0.002
-384.990	800.000	0.068	-0.226
-383.975	59.521	0.242	-0.240
-382.960	-200.000	-0.011	-0.103
-381.946	77.181	-0.127	0.136
-380.931	-200.000	0.005	-0.199
-379.917	-54.342	0.355	-0.162
-378.902	384.568	-0.110	-0.229
-377.888	-119.242	0.215	-0.038
-376.873	-83.555	0.591	0.190
-375.858	-200.000	-0.024	0.143
-374.844	-97.873	-0.072	0.019
-373.829	673.988	-0.074	0.192
-372.815	-110.991	-0.309	-0.064
-371.800	471.796	-0.104	0.235
-370.785	7.127	0.145	0.109
-369.771	127.711	0.115	0.147
-368.756	-191.074	-0.184	-0.002
-367.742	66.849	-0.026	-0.026
-366.727	-46.927	0.131	0.064
-365.712	-131.275	0.161	0.022
-364.698	-200.000	0.004	-0.131
-363.683	-33.305	-0.302	0.168
-362.669	477.140	0.122	0.277
-361.654	282.543	0.100	0.181
-360.639	160.308	0.226	0.317
-359.625	-149.734	-0.204	-0.016
-358.610	-73.148	0.168	-0.062
-357.596	800.000	0.042	0.174
-356.581	-200.000	0.011	0.121
-355.566	208.768	-0.191	0.301
-354.552	90.791	0.239	0.270
-353.537	800.000	-0.186	-0.595
-352.523	189.123	-0.158	0.238
-351.508	-169.757	0.184	0.007
-350.493	-32.081	-0.116	0.065
-349.479	-87.308	0.226	-0.069
-348.464	-2.575	0.033	-0.023
-347.450	115.885	-0.108	-0.132
-346.435	-9.254	0.196	-0.132
-345.420	-96.447	0.300	0.080
-344.406	-10.430	-0.313	0.209
-343.391	164.659	0.262	0.372
-342.377	800.000	-0.060	0.184
-341.362	69.788	-0.131	-0.135
-340.348	182.192	-0.132	0.195
-339.333	-23.925	0.222	-0.133
-338.318	173.162	0.096	-0.139
-337.304	-200.000	0.055	0.259
-336.289	-0.851	-0.118	-0.084
-335.275	-95.539	0.087	0.023
-334.260	430.451	-0.030	-0.066
-333.245	6.944	-0.116	0.087
-332.231	-113.400	0.198	-0.039
-331.216	-51.127	-0.285	0.134
-330.202	-144.722	0.184	-0.017
-329.187	800.000	0.079	-0.231
-328.172	-93.446	-0.157	-0.044
-327.158	-138.611	-0.490	0.054
-326.143	-200.000	-0.013	-0.197
-325.129	-200.000	-0.041	0.349
-324.114	-24.783	-0.097	0.058
-323.099	-20.813	0.070	0.043
-322.085	689.110	0.045	-0.119
-321.070	-135.529	0.159	0.019
-320.056	-200.000	-0.002	-0.253
-319.041	-200.000	-0.010	0.199
-318.026	800.000	0.098	0.330
-317.012	800.000	0.022	0.081
-315.997	639.966	-0.057	-0.145
-314.983	-105.994	-0.341	0.077
-313.968	130.360	0.051	0.065
-312.953	-97.153	0.136	-0.036
-311.939	189.421	-0.112	-0.168
-310.924	59.071	0.193	-0.191
-309.910	800.000	0.109	-0.322
-308.895	-200.000	-0.014	0.097
-307.880	-23.284	0.146	-0.088
-306.866	-132.029	0.102	-0.013
-305.851	800.000	0.020	0.064
-304.837	-200.000	-0.031	0.172
-303.822	-200.000	0.023	0.180
-302.807	35.541	0.242	0.214
-301.793	-127.284	-0.097	0.014
-300.778	-22.150	-0.197	0.120
-299.764	66.709	-0.154	-0.158
-298.749	40.719	-0.043	0.039
-297.735	-200.000	0.021	0.159
-296.720	-200.000	0.002	-0.017
-295.705	-131.327	0.238	0.032
-294.691	504.931	0.072	-0.167
-293.676	800.000	-0.091	-0.346
-292.662	-52.775	-0.015	-0.007
-291.647	58.062	0.109	-0.107
-290.632	70.596	0.275	0.286
-289.618	-76.529	-0.340	0.120
-288.603	-18.738	0.172	0.107
-287.589	800.000	-0.044	0.139
-286.574	-200.000	0.030	-0.203
-285.559	351.035	-0.043	-0.084
-284.545	-200.000	-0.027	0.128
-283.530	-200.000	-0.016	-0.254
-282.516	797.220	0.026	-0.072
-281.501	423.266	0.189	-0.407
-280.486	83.993	-0.147	-0.161
-279.472	-91.205	0.094	-0.027
-278.457	87.896	-0.116	-0.129
-277.443	-121.340	0.208	0.035
-276.428	-107.979	-0.082	-0.018
-275.413	-200.000	0.025	0.137
-274.399	-71.631	0.290	-0.109
-273.384	-168.252	0.072	-0.003
-272.370	-57.055	-0.160	-0.071
-271.355	165.778	-0.169	0.240
-270.340	-63.618	0.369	0.152
-269.326	-33.674	-0.131	-0.073
-268.311	212.769	0.122	0.193
-267.297	-135.276	-0.260	-0.031
-266.282	-56.518	0.098	0.044
-265.267	-132.984	-0.245	0.031
-264.253	-116.705	-0.205	0.038
-263.238	-128.666	-0.071	0.010
-262.224	-13.420	-0.136	-0.088
-261.209	-107.329	0.412	-0.091
-260.195	-200.000	-0.014	-0.282
-259.180	96.668	-0.109	-0.125
-258.165	-76.929	-0.185	-0.065
-257.151	-139.430	0.204	-0.022
-256.136	89.371	0.064	-0.072
-255.122	54.479	-0.097	0.094
-254.107	56.384	0.271	0.264
-253.092	34.558	-0.079	0.069
-252.078	-44.809	0.098	-0.049
-251.063	-163.636	-0.421	0.020
-250.049	-200.000	-0.024	-0.277
-249.034	-84.238	0.242	-0.077
-248.019	-14.554	0.099	0.064
-247.005	-19.264	0.175	-0.109
-245.990	-26.829	0.274	0.160
-244.976	-155.944	-0.142	0.009
-243.961	337.374	0.086	0.167
-242.946	260.339	-0.095	-0.164
-241.932	-7.798	0.190	-0.128
-240.917	-200.000	-0.010	-0.113
-239.903	-145.034	-0.124	-0.011
-238.888	73.730	0.211	-0.221
-237.873	-200.000	-0.072	-0.404
-236.859	-7.167	0.311	0.211
-235.844	759.215	0.067	-0.182
-234.830	800.000	0.039	-0.144
-233.815	265.222	-0.131	0.228
-232.800	-142.365	-0.220	0.022
-231.786	76.067	0.054	0.057
-230.771	-12.503	0.099	-0.065
-229.757	728.671	-0.019	0.051
-228.742	800.000	0.067	0.199
-227.727	-101.102	-0.485	-0.119
-226.713	-181.984	-0.204	0.004
-225.698	-82.039	-0.313	0.102
-224.684	22.439	0.239	0.196
-223.669	-200.000	-0.026	-0.252
-222.655	-200.000	-0.008	0.151
-221.640	800.000	0.117	-0.330
-220.625	47.873	-0.078	0.073
-219.611	-102.987	0.146	-0.035
-218.596	-40.451	0.194	0.101
-217.582	-200.000	-0.022	0.219
-216.567	-43.130	-0.069	0.035
-215.552	-200.000	0.019	0.282
-214.538	-2.355	0.091	0.064
-213.523	-200.000	-0.048	-0.211
-212.509	-106.292	-0.167	-0.037
-211.494	124.857	-0.057	-0.072
-210.479	79.151	0.044	-0.048
-209.465	-200.000	0.050	-0.342
-208.450	44.537	0.144	0.132
-207.436	346.253	-0.015	-0.030
-206.421	250.853	0.098	-0.167
-205.406	197.503	-0.079	0.121
-204.392	383.501	-0.096	0.198
-203.377	101.968	-0.182	-0.212
-202.363	-114.173	-0.352	0.068
-201.348	-200.000	0.014	0.339
-200.333	473.872	0.152	-0.342
-199.319	45.569	-0.126	-0.116
-198.304	16.203	-0.223	0.176
-197.290	-35.173	0.163	-0.089
-196.275	-146.981	0.204	-0.017
-195.260	-47.809	-0.289	0.140
-194.246	-142.167	-0.033	0.003
-193.231	-200.000	-0.045	0.248
-192.217	12.501	-0.184	0.142
-191.202	45.846	-0.137	-0.127
-190.187	169.377	0.122	-0.174
-189.173	-195.654	0.205	0.001
-188.158	-70.072	-0.219	-0.083
-187.144	13.704	0.162	-0.126
-186.129	-200.000	-0.002	-0.186
-185.114	-91.110	-0.227	-0.065
-184.100	251.977	-0.289	0.493
-183.085	773.628	0.013	-0.035
-182.071	-200.000	-0.025	0.121
-181.056	-4.711	0.311	0.215
-180.042	455.967	0.101	0.225
-179.027	176.296	0.085	0.124
-178.012	2.501	-0.084	-0.061
-176.998	43.290	0.228	0.208
-175.983	-200.000	-0.002	0.147
-174.969	314.843	-0.065	0.122
-173.954	800.000	0.068	0.277
-172.939	-200.000	0.014	-0.248
-171.925	632.309	0.101	0.254
-170.910	2.676	-0.179	0.130
-169.896	-62.782	0.391	-0.162
-168.881	106.969	0.060	-0.072
-167.866	-164.082	0.160	-0.007
-166.852	-200.000	-0.007	-0.088
-165.837	438.781	-0.121	0.265
-164.823	51.330	-0.137	-0.130
-163.808	-77.832	-0.551	0.190
-162.793	-103.623	0.254	-0.059
-161.779	-200.000	0.115	0.530
-160.764	575.671	0.064	-0.157
-159.750	-57.068	-0.080	0.035
-158.735	-81.916	0.253	-0.082
-157.720	409.268	-0.136	0.288
-156.706	-105.605	0.102	-0.023
-155.691	-200.000	-0.040	0.301
-154.677	-163.935	-0.175	0.008
-153.662	20.612	0.108	-0.087
-152.647	134.520	-0.141	-0.183
-151.633	144.693	0.263	-0.351
-150.618	-64.308	0.525	-0.213
-149.604	-200.000	0.015	0.299
-148.589	-90.535	0.146	0.042
-147.574	-176.201	-0.278	0.007
-146.560	-178.173	0.208	-0.005
-145.545	11.303	0.122	0.093
-144.531	186.963	0.183	0.272
-143.516	-172.094	-0.074	0.002
-142.502	383.397	-0.024	-0.049
-141.487	-200.000	-0.003	0.119
-140.472	634.677	-0.086	-0.217
-139.458	-102.668	-0.234	-0.056
-138.443	-86.210	-0.151	-0.046
-137.429	-93.403	0.189	0.052
-136.414	800.000	-0.085	0.258
-135.399	-52.517	0.096	0.044
-134.385	91.756	-0.336	-0.377
-133.370	17.585	-0.051	0.040
-132.356	-173.314	-0.455	0.014
-131.341	-187.684	0.384	0.005
-130.326	470.664	0.063	0.141
-129.312	274.879	-0.097	0.172
-128.297	-200.000	0.006	-0.293
-127.283	72.041	0.143	-0.149
-126.268	-26.749	-0.268	-0.156
-125.253	11.477	0.197	-0.150
-124.239	-200.000	-0.013	-0.064
-123.224	108.267	0.199	0.237
-122.210	-127.271	0.493	0.072
-121.195	-200.000	-0.012	0.091
