DTS Sentinel unit serial number:	SN413079Multiplexer serial number:	ORYXHardware model number:	OX4-SRSoftware version number:	ORYX F/W v4.00 Oryx Data Collector v3.7.2.0data status	okinstallation	princeton_trtdifferential loss correction	single-endedforward channel	channel 3reverse channel	N/Adate	2019/09/19time	07:28:35forward acquisition time	60.00reverse acquisition time	0.00gamma	496.2192k internal	0.2348k external	0.2348temperature offset calibration	0.9979default loss term (dB/km)	0.3790temperature slope calibration	1.0000multiplexer offset coefficient	1.0000multiplexer slope coefficient	1.0000fibre end	0.00T internal ref (°C)	19.22T ext. ref 1 (°C)	0.55T ext. ref 2 (°C)	13.96length (m)	temperature (°C)	Stokes	anti-Stokes-747.200	-67.318	0.133	-0.052
-746.185	-200.000	-0.032	0.244
-745.171	44.335	0.156	-0.143
-744.156	186.825	-0.137	0.203
-743.142	-114.263	0.155	0.030
-742.127	-200.000	-0.053	0.351
-741.112	6.321	-0.158	-0.117
-740.098	-11.092	-0.206	-0.136
-739.083	-200.000	-0.047	0.360
-738.069	-83.912	-0.058	-0.018
-737.054	-188.423	-0.270	-0.003
-736.039	-200.000	-0.067	-0.502
-735.025	-88.051	-0.232	0.069
-734.010	-84.856	0.293	-0.092
-732.996	-113.799	-0.593	0.115
-731.981	-42.660	-0.389	0.198
-730.966	-200.000	0.018	-0.101
-729.952	296.864	-0.155	-0.284
-728.937	800.000	0.026	0.105
-727.923	-65.994	0.211	-0.084
-726.908	13.456	-0.224	-0.174
-725.894	800.000	0.061	0.179
-724.879	-200.000	0.010	0.316
-723.864	-31.234	0.144	0.081
-722.850	800.000	-0.038	0.125
-721.835	-87.740	-0.075	-0.023
-720.821	-100.729	0.402	-0.099
-719.806	122.242	-0.134	-0.167
-718.791	517.319	0.042	-0.098
-717.777	-200.000	0.034	-0.230
-716.762	758.249	-0.047	-0.127
-715.748	123.799	-0.334	-0.418
-714.733	83.519	-0.142	-0.155
-713.718	65.785	-0.160	-0.162
-712.704	289.273	0.080	-0.145
-711.689	-139.041	-0.065	0.007
-710.675	143.354	0.199	0.265
-709.660	-51.552	-0.263	-0.123
-708.645	-113.837	-0.066	-0.013
-707.631	104.101	0.088	-0.103
-706.616	77.728	0.032	0.034
-705.602	-156.124	0.169	0.011
-704.587	-200.000	0.003	-0.562
-703.572	139.427	-0.152	-0.200
-702.558	118.265	0.119	0.147
-701.543	-78.152	-0.157	-0.054
-700.529	-19.986	0.432	-0.266
-699.514	72.749	-0.298	0.311
-698.499	-200.000	-0.023	-0.137
-697.485	-163.735	-0.293	0.014
-696.470	-73.142	-0.100	-0.036
-695.456	-30.373	-0.231	0.131
-694.441	800.000	0.016	-0.066
-693.426	542.973	-0.109	-0.258
-692.412	409.706	0.125	-0.265
-691.397	151.983	0.087	0.118
-690.383	22.352	0.121	0.098
-689.368	-120.660	0.111	0.019
-688.354	-19.453	-0.176	-0.109
-687.339	-89.164	0.246	-0.073
-686.324	-200.000	-0.001	-0.234
-685.310	450.372	-0.008	0.018
-684.295	-101.581	-0.206	-0.050
-683.281	800.000	-0.090	0.329
-682.266	767.743	-0.041	-0.110
-681.251	57.781	0.200	0.195
-680.237	199.901	0.073	-0.111
-679.222	-0.151	0.091	0.065
-678.208	98.387	-0.174	0.200
-677.193	42.065	-0.224	0.203
-676.178	-151.487	-0.436	0.032
-675.164	-8.589	-0.082	-0.055
-674.149	291.132	0.094	0.171
-673.135	-103.415	-0.210	-0.049
-672.120	800.000	0.063	0.175
-671.105	-6.785	-0.089	0.060
-670.091	-191.325	-0.450	-0.005
-669.076	124.164	-0.177	0.222
-668.062	115.888	-0.186	-0.227
-667.047	-200.000	0.016	0.151
-666.032	32.270	0.121	-0.104
-665.018	-200.000	-0.024	0.106
-664.003	-200.000	0.475	0.001
-662.989	-173.389	-0.168	-0.005
-661.974	4.094	-0.057	-0.042
-660.959	-200.000	0.006	0.086
-659.945	-44.316	-0.294	-0.147
-658.930	-200.000	0.182	0.000
-657.916	800.000	-0.143	-0.402
-656.901	-149.955	-0.178	-0.014
-655.886	76.109	-0.194	-0.204
-654.872	-28.287	0.206	-0.118
-653.857	800.000	-0.057	0.228
-652.843	-158.868	-0.415	0.024
-651.828	26.711	0.106	-0.088
-650.814	-33.874	-0.069	0.038
-649.799	130.411	0.127	0.162
-648.784	-75.323	0.256	0.091
-647.770	566.142	-0.037	-0.088
-646.755	-200.000	-0.001	-0.304
-645.741	800.000	0.083	0.257
-644.726	-132.002	0.411	-0.053
-643.711	715.529	0.097	-0.255
-642.697	265.168	0.037	0.065
-641.682	-64.392	-0.228	0.092
-640.668	336.753	0.111	0.214
-639.653	-1.038	-0.255	0.180
-638.638	-200.000	-0.006	0.103
-637.624	442.968	0.054	-0.117
-636.609	-18.265	0.255	0.158
-635.595	800.000	-0.050	0.149
-634.580	-12.645	-0.256	-0.166
-633.565	-26.794	-0.275	-0.160
-632.551	-13.267	-0.190	-0.123
-631.536	-78.530	0.378	0.129
-630.522	93.177	-0.149	-0.168
-629.507	-120.000	0.203	-0.035
-628.492	800.000	-0.047	-0.186
-627.478	-93.338	0.049	-0.014
-626.463	-85.190	-0.167	0.052
-625.449	29.108	-0.211	-0.178
-624.434	163.286	0.248	-0.347
-623.419	613.237	-0.057	-0.142
-622.405	-48.290	0.090	0.043
-621.390	49.450	0.210	-0.197
-620.376	-76.757	-0.086	-0.030
-619.361	-81.822	-0.278	0.091
-618.346	34.781	0.151	0.131
-617.332	-124.976	-0.229	0.035
-616.317	-200.000	-0.051	0.311
-615.303	59.406	0.139	-0.136
-614.288	-42.750	0.321	0.162
-613.273	-160.463	0.233	-0.012
-612.259	800.000	0.042	-0.127
-611.244	298.458	-0.137	0.250
-610.230	416.969	0.084	0.178
-609.215	-120.233	-0.224	0.038
-608.201	660.957	-0.138	-0.354
-607.186	-115.252	-0.199	0.037
-606.171	630.750	0.097	-0.243
-605.157	156.370	-0.110	-0.151
-604.142	167.167	0.192	0.271
-603.128	208.526	-0.061	0.094
-602.113	202.398	-0.078	-0.119
-601.098	-99.027	-0.096	-0.024
-600.084	-59.310	-0.176	-0.075
-599.069	-59.657	0.189	-0.080
-598.055	800.000	0.052	-0.157
-597.040	-126.275	-0.375	0.056
-596.025	-200.000	0.001	-0.093
-595.011	-200.000	0.005	-0.264
-593.996	1.312	-0.061	0.043
-592.982	30.066	0.130	0.110
-591.967	800.000	-0.069	-0.215
-590.952	122.083	0.186	-0.231
-589.938	23.470	0.060	0.049
-588.923	-200.000	-0.001	0.020
-587.909	200.564	-0.129	-0.196
-586.894	-25.131	-0.201	-0.118
-585.879	-200.000	-0.013	-0.172
-584.865	800.000	0.062	0.219
-583.850	132.268	-0.230	-0.294
-582.836	-91.000	0.198	-0.057
-581.821	119.501	-0.084	-0.104
-580.806	-122.925	0.246	0.039
-579.792	292.145	0.156	0.281
-578.777	-44.400	0.155	-0.077
-577.763	800.000	-0.084	-0.243
-576.748	18.114	0.144	-0.114
-575.733	93.461	-0.135	0.152
-574.719	-77.101	-0.256	-0.088
-573.704	800.000	-0.067	0.213
-572.690	-65.546	0.068	0.027
-571.675	800.000	0.018	0.069
-570.661	-38.279	0.079	0.042
-569.646	-66.269	-0.140	-0.055
-568.631	-60.521	-0.065	0.027
-567.617	307.808	0.108	-0.200
-566.602	198.350	-0.261	0.397
-565.588	491.762	0.117	0.266
-564.573	-7.374	0.281	-0.189
-563.558	-200.000	0.030	0.233
-562.544	800.000	0.016	0.047
-561.529	-149.052	-0.357	0.028
-560.515	800.000	0.027	-0.082
-559.500	26.507	0.204	-0.169
-558.485	24.288	-0.478	0.392
-557.471	694.143	-0.097	-0.252
-556.456	509.845	0.161	0.370
-555.442	-118.251	0.133	-0.023
-554.427	126.445	-0.281	-0.353
-553.412	47.909	-0.162	-0.151
-552.398	526.066	-0.048	-0.112
-551.383	-200.000	-0.015	0.086
-550.369	-56.645	-0.195	-0.086
-549.354	800.000	0.018	0.079
-548.339	-200.000	-0.031	0.256
-547.325	-28.858	-0.218	-0.124
-546.310	-47.312	-0.218	-0.105
-545.296	186.392	0.124	-0.183
-544.281	-200.000	0.047	-0.321
-543.266	0.959	0.077	-0.055
-542.252	-200.000	0.075	-0.377
-541.237	-200.000	0.014	0.096
-540.223	-48.087	0.298	0.143
-539.208	66.332	0.166	-0.167
-538.193	261.782	-0.055	-0.095
-537.179	-73.311	-0.106	-0.039
-536.164	-153.007	-0.072	-0.005
-535.150	-93.249	-0.109	0.030
-534.135	-45.961	0.214	-0.105
-533.121	-1.702	0.057	-0.040
-532.106	563.983	-0.072	0.174
-531.091	800.000	-0.071	-0.197
-530.077	800.000	-0.150	0.562
-529.062	-52.780	-0.095	-0.043
-528.048	-7.166	-0.162	0.109
-527.033	17.241	-0.101	0.080
-526.018	28.405	0.090	-0.076
-525.004	-200.000	0.021	-0.221
-523.989	-103.646	-0.286	-0.067
-522.975	-34.197	-0.119	-0.065
-521.960	-200.000	0.063	-0.306
-520.945	-58.650	-0.230	0.099
-519.931	362.436	-0.233	0.463
-518.916	-3.631	-0.144	0.099
-517.902	605.548	-0.045	-0.111
-516.887	-200.000	0.032	-0.166
-515.872	45.248	0.104	-0.095
-514.858	-130.522	0.207	-0.028
-513.843	252.222	-0.131	0.221
-512.829	-124.607	-0.155	-0.024
-511.814	-194.803	-0.131	-0.001
-510.799	-200.000	0.024	-0.110
-509.785	-200.000	-0.025	0.233
-508.770	682.046	-0.150	0.386
-507.756	-62.201	0.437	-0.180
-506.741	-18.342	0.257	0.159
-505.726	19.728	0.158	-0.126
-504.712	-69.808	-0.348	-0.131
-503.697	-200.000	-0.076	0.342
-502.683	-150.008	-0.198	-0.015
-501.668	-200.000	-0.009	-0.074
-500.653	-61.380	0.156	-0.065
-499.639	385.865	-0.124	0.253
-498.624	-39.799	-0.077	0.040
-497.610	-92.492	0.427	-0.119
-496.595	-128.689	0.150	0.021
-495.581	140.164	-0.132	-0.172
-494.566	-200.000	-0.079	-0.350
-493.551	-200.000	0.006	0.062
-492.537	-178.074	-0.093	0.002
-491.522	4.500	0.405	-0.294
-490.508	89.040	0.101	-0.111
-489.493	2.569	0.197	0.141
-488.478	-200.000	0.004	0.100
-487.464	-200.000	-0.017	-0.318
-486.449	800.000	-0.102	0.364
-485.435	-87.415	0.093	-0.028
-484.420	-91.847	0.150	0.042
-483.405	796.120	-0.114	-0.312
-482.391	-69.161	-0.189	0.072
-481.376	-200.000	0.028	0.159
-480.362	-8.804	-0.151	-0.100
-479.347	108.560	-0.086	0.101
-478.332	13.273	-0.174	-0.133
-477.318	-117.307	0.203	0.037
-476.303	-13.428	0.103	-0.066
-475.289	-159.462	-0.221	0.012
-474.274	-83.945	0.350	-0.110
-473.259	679.384	-0.017	-0.045
-472.245	-144.363	-0.175	-0.016
-471.230	22.389	-0.213	-0.172
-470.216	800.000	-0.082	-0.275
-469.201	12.740	0.341	-0.260
-468.186	-127.361	0.215	0.031
-467.172	373.787	-0.093	-0.187
-466.157	-20.200	-0.149	0.091
-465.143	-200.000	0.031	-0.286
-464.128	-29.329	0.113	-0.064
-463.113	47.164	-0.199	-0.183
-462.099	-97.869	0.012	-0.003
-461.084	95.791	0.129	0.145
-460.070	-200.000	-0.006	0.184
-459.055	-200.000	-0.011	0.084
-458.040	-130.505	0.088	-0.012
-457.026	800.000	0.048	0.179
-456.011	-12.148	-0.272	0.176
-454.997	-125.880	-0.118	0.018
-453.982	-200.000	0.023	-0.137
-452.968	219.338	0.071	-0.113
-451.953	582.247	-0.043	-0.103
-450.938	-200.000	0.042	-0.245
-449.924	445.939	0.071	0.155
-448.909	-48.857	0.040	-0.019
-447.895	-146.860	-0.255	-0.022
-446.880	-65.674	-0.194	0.077
-445.865	6.200	0.089	0.065
-444.851	-114.089	-0.293	0.056
-443.836	-194.949	0.278	-0.002
-442.822	225.944	0.129	0.207
-441.807	212.522	-0.061	0.095
-440.792	-200.000	0.082	-0.391
-439.778	446.962	0.081	-0.177
-438.763	-175.153	0.267	0.007
-437.749	-149.377	-0.171	0.013
-436.734	-79.061	0.479	-0.161
-435.719	-191.523	0.131	0.001
-434.705	134.688	-0.132	-0.169
-433.690	-50.393	-0.139	0.065
-432.676	14.613	0.137	-0.105
-431.661	285.392	0.089	-0.158
-430.646	800.000	-0.161	0.444
-429.632	-200.000	0.018	0.272
-428.617	-64.765	0.181	-0.072
-427.603	-80.063	-0.494	-0.163
-426.588	26.784	-0.060	-0.049
-425.573	359.853	0.210	0.414
-424.559	-159.591	-0.094	-0.005
-423.544	74.790	-0.165	0.171
-422.530	186.081	0.215	0.315
-421.515	-8.329	-0.029	-0.019
-420.500	-90.120	-0.421	0.121
-419.486	800.000	0.044	0.119
-418.471	-200.000	-0.006	0.057
-417.457	-79.536	-0.198	0.066
-416.442	144.352	-0.184	0.243
-415.428	-200.000	0.028	0.519
-414.413	207.347	0.080	0.123
-413.398	224.410	0.161	-0.257
-412.384	800.000	-0.036	-0.146
-411.369	-93.947	-0.222	0.060
-410.355	411.227	-0.046	0.095
-409.340	-200.000	0.009	-0.364
-408.325	20.284	0.248	-0.198
-407.311	800.000	0.051	0.146
-406.296	-200.000	0.031	0.156
-405.282	-200.000	-0.004	0.213
-404.267	-13.848	0.119	-0.076
-403.252	-19.400	-0.250	0.153
-402.238	-200.000	0.013	-0.174
-401.223	68.311	0.159	-0.161
-400.209	-0.677	0.184	0.129
-399.194	26.623	0.202	0.167
-398.179	37.556	0.112	0.098
-397.165	427.148	0.081	0.172
-396.150	69.629	-0.138	-0.140
-395.136	-200.000	0.069	-0.436
-394.121	-163.890	0.310	0.014
-393.106	328.636	-0.098	0.186
-392.092	-200.000	-0.061	-0.372
-391.077	-70.604	-0.163	0.061
-390.063	-153.401	0.113	0.008
-389.048	31.821	0.149	0.127
-388.033	-70.297	-0.086	0.032
-387.019	709.381	0.095	0.248
-386.004	-17.924	-0.174	0.108
-384.990	-200.000	0.207	0.000
-383.975	800.000	0.044	0.159
-382.960	-186.428	0.013	-0.000
-381.946	138.505	0.194	-0.251
-380.931	-120.500	-0.196	-0.033
-379.917	51.659	-0.076	-0.071
-378.902	132.058	-0.215	0.272
-377.888	288.949	0.188	-0.335
-376.873	-132.743	0.339	-0.043
-375.858	36.368	0.188	0.163
-374.844	290.520	0.125	0.224
-373.829	307.312	0.127	-0.233
-372.815	-60.085	-0.160	-0.067
-371.800	-42.318	0.069	0.035
-370.785	338.084	0.052	-0.100
-369.771	-92.641	-0.179	-0.049
-368.756	-155.284	0.391	0.025
-367.742	-200.000	0.033	0.383
-366.727	-159.063	0.215	0.012
-365.712	-119.740	0.563	0.096
-364.698	-3.434	-0.361	-0.248
-363.683	800.000	0.133	0.385
-362.669	-200.000	0.014	0.215
-361.654	723.581	-0.097	-0.255
-360.639	-60.027	-0.320	-0.134
-359.625	98.333	0.072	0.082
-358.610	-17.059	-0.266	-0.166
-357.596	72.594	0.091	0.094
-356.581	-200.000	0.011	-0.207
-355.566	-43.247	0.084	-0.042
-354.552	297.692	-0.075	0.136
-353.537	-145.288	0.124	0.011
-352.523	471.040	-0.089	0.197
-351.508	465.861	-0.036	-0.079
-350.493	138.711	0.198	-0.256
-349.479	-200.000	-0.038	-0.232
-348.464	536.725	-0.097	-0.226
-347.450	42.327	-0.128	0.114
-346.435	89.418	-0.095	0.104
-345.420	127.980	0.125	0.157
-344.406	30.891	0.117	0.098
-343.391	-200.000	-0.018	-0.114
-342.377	-200.000	-0.021	0.285
-341.362	-49.135	0.437	0.206
-340.348	-200.000	0.001	0.044
-339.333	131.578	-0.071	0.090
-338.318	380.811	0.051	0.102
-337.304	-123.311	0.196	0.031
-336.289	-69.302	-0.120	0.045
-335.275	-95.787	0.090	-0.024
-334.260	-200.000	0.010	0.184
-333.245	30.056	-0.021	-0.017
-332.231	42.940	-0.179	0.161
-331.216	-143.128	-0.316	0.030
-330.202	-18.953	0.116	0.071
-329.187	800.000	0.056	0.222
-328.172	-37.687	0.258	0.135
-327.158	34.403	-0.350	0.301
-326.143	151.060	0.081	-0.108
-325.129	191.480	-0.138	-0.204
-324.114	226.263	0.106	0.169
-323.099	392.819	-0.145	0.297
-322.085	650.568	0.122	-0.307
-321.070	334.313	0.058	0.111
-320.056	800.000	0.051	-0.152
-319.041	-83.579	-0.173	0.054
-318.026	-138.157	-0.181	-0.020
-317.012	166.789	-0.156	-0.217
-315.997	24.315	0.275	-0.223
-314.983	-89.128	-0.359	-0.104
-313.968	445.312	0.057	-0.123
-312.953	-57.449	-0.168	-0.073
-311.939	8.590	-0.203	0.150
-310.924	-66.407	0.179	-0.070
-309.910	-75.217	-0.294	0.103
-308.895	53.350	0.025	-0.024
-307.880	143.260	-0.121	0.158
-306.866	160.238	0.098	0.135
-305.851	-47.809	0.110	-0.053
-304.837	70.821	0.195	0.198
-303.822	55.507	-0.311	0.296
-302.807	26.480	0.147	0.121
-301.793	-70.237	-0.211	0.079
-300.778	-200.000	0.014	-0.250
-299.764	-23.681	0.197	-0.116
-298.749	-126.662	0.466	0.068
-297.735	-79.627	0.085	-0.028
-296.720	641.323	0.067	0.166
-295.705	-200.000	-0.052	-0.266
-294.691	-158.003	-0.266	-0.015
-293.676	-11.116	-0.227	-0.147
-292.662	-168.530	-0.329	0.012
-291.647	150.953	-0.220	-0.293
-290.632	269.519	0.161	0.278
-289.618	-186.875	0.301	0.004
-288.603	265.163	-0.108	0.185
-287.589	800.000	-0.036	0.143
-286.574	272.338	-0.078	0.135
-285.559	800.000	0.074	-0.237
-284.545	-161.519	0.077	0.004
-283.530	276.355	-0.185	0.322
-282.516	-200.000	0.046	0.275
-281.501	-60.224	-0.287	0.120
-280.486	8.898	-0.350	-0.259
-279.472	213.116	0.124	0.193
-278.457	-76.155	0.285	0.099
-277.443	-85.717	-0.256	-0.078
-276.428	716.919	-0.130	0.340
-275.413	-200.000	-0.052	0.298
-274.399	7.126	-0.326	0.239
-273.384	-19.660	-0.288	-0.175
-272.370	-200.000	-0.008	0.088
-271.355	164.643	0.153	-0.212
-270.340	15.215	0.107	-0.082
-269.326	800.000	0.027	0.098
-268.311	260.210	-0.140	-0.238
-267.297	138.920	0.051	-0.065
-266.282	106.933	-0.196	-0.228
-265.267	351.204	-0.170	0.331
-264.253	130.477	-0.341	-0.428
-263.238	383.916	-0.076	-0.153
-262.224	-104.303	-0.254	0.058
-261.209	800.000	-0.042	-0.137
-260.195	-66.794	-0.248	0.096
-259.180	-69.978	-0.068	-0.025
-258.165	-89.891	-0.473	0.135
-257.151	-5.385	0.304	-0.205
-256.136	121.731	-0.045	-0.055
-255.122	-200.000	0.019	-0.112
-254.107	546.866	-0.047	-0.110
-253.092	-76.726	-0.227	0.078
-252.078	208.329	0.181	-0.278
-251.063	-84.634	0.400	-0.123
-250.049	6.308	0.100	-0.073
-249.034	-138.815	-0.345	-0.037
-248.019	-138.097	0.496	0.054
-247.005	-37.070	0.308	0.161
-245.990	-100.124	0.058	-0.014
-244.976	49.552	-0.271	-0.250
-243.961	152.588	-0.087	-0.116
-242.946	485.894	0.088	-0.195
-241.932	-119.756	-0.049	-0.008
-240.917	42.236	0.276	0.246
-239.903	207.050	-0.064	-0.098
-238.888	-98.277	0.122	-0.031
-237.873	-119.291	0.256	-0.044
-236.859	-7.216	0.154	0.102
-235.844	183.579	-0.169	0.244
-234.830	31.652	-0.291	-0.245
-233.815	388.542	0.158	-0.320
-232.800	-200.000	-0.019	0.156
-231.786	502.839	-0.133	0.301
-230.771	-200.000	0.004	0.258
-229.757	800.000	0.059	-0.237
-228.742	800.000	-0.022	0.062
-227.727	-26.924	-0.067	-0.039
-226.713	-26.404	-0.192	0.110
-225.698	800.000	-0.019	-0.067
-224.684	800.000	0.059	-0.252
-223.669	-200.000	-0.015	-0.361
-222.655	-200.000	0.045	-0.384
-221.640	-1.329	-0.404	0.279
-220.625	7.401	0.236	0.173
-219.611	-69.691	0.422	0.158
-218.596	800.000	-0.063	-0.180
-217.582	-122.583	-0.240	-0.038
-216.567	800.000	-0.113	0.337
-215.552	-122.876	-0.130	0.020
-214.538	-200.000	0.297	0.000
-213.523	60.614	0.106	0.102
-212.509	-200.000	0.006	0.259
-211.494	-20.219	0.151	-0.091
-210.479	64.458	-0.053	0.052
-209.465	213.978	0.111	-0.172
-208.450	800.000	-0.092	0.272
-207.436	-21.769	-0.195	0.116
-206.421	-38.903	0.221	-0.114
-205.406	800.000	-0.044	0.130
-204.392	800.000	0.063	0.207
-203.377	48.642	-0.258	0.237
-202.363	8.229	-0.202	-0.149
-201.348	34.007	0.176	-0.150
-200.333	19.429	-0.102	-0.080
-199.319	800.000	0.140	0.444
-198.304	-142.561	0.162	0.016
-197.290	105.312	-0.152	-0.176
-196.275	-102.409	0.278	-0.065
-195.260	24.404	-0.307	0.248
-194.246	94.966	0.170	0.189
-193.231	-79.989	0.062	-0.020
-192.217	62.423	0.032	-0.031
-191.202	232.161	-0.116	0.186
-190.187	-147.666	0.189	0.016
-189.173	-200.000	0.040	-0.358
-188.158	-200.000	-0.014	-0.257
-187.144	142.047	-0.016	-0.020
-186.129	298.353	0.066	-0.119
-185.114	4.971	0.225	0.162
-184.100	-185.957	-0.131	0.002
-183.085	-80.017	0.228	-0.075
-182.071	615.352	0.046	0.114
-181.056	-141.558	0.314	-0.031
-180.042	154.176	0.131	-0.175
-179.027	-33.752	0.146	0.079
-178.012	14.972	0.339	0.260
-176.998	72.917	-0.018	-0.018
-175.983	80.011	0.058	-0.061
-174.969	-92.578	-0.164	0.045
-173.954	-118.090	0.079	-0.014
-172.939	216.104	0.075	-0.116
-171.925	-200.000	-0.032	0.303
-170.910	800.000	-0.079	0.290
-169.896	32.828	0.123	0.104
-168.881	-155.066	0.269	0.017
-167.866	-1.805	-0.256	-0.176
-166.852	207.150	0.150	-0.228
-165.837	315.135	0.111	-0.204
-164.823	800.000	0.087	0.362
-163.808	-91.967	0.055	0.015
-162.793	644.209	-0.119	-0.297
-161.779	-200.000	0.021	0.142
-160.764	-134.135	-0.250	0.030
-159.750	18.130	0.163	0.127
-158.735	800.000	-0.037	-0.136
-157.720	145.097	0.080	-0.105
-156.706	87.101	0.153	-0.166
-155.691	-81.101	0.328	-0.106
-154.677	-146.892	-0.173	0.015
-153.662	-200.000	0.007	0.173
-152.647	454.596	0.180	-0.389
-151.633	-81.499	0.151	0.049
-150.618	-200.000	-0.034	0.170
-149.604	500.487	-0.095	-0.214
-148.589	-53.346	0.447	0.200
-147.574	-44.806	-0.273	0.133
-146.560	176.557	-0.253	-0.359
-145.545	-84.528	0.269	-0.083
-144.531	144.082	0.167	-0.217
-143.516	800.000	-0.079	0.237
-142.502	800.000	-0.084	-0.264
-141.487	16.870	0.080	0.062
-140.472	558.390	-0.098	-0.232
-139.458	-61.855	0.260	0.106
-138.443	-5.128	-0.103	0.069
-137.429	-14.244	-0.241	-0.152
-136.414	69.860	-0.138	0.139
-135.399	-200.000	-0.076	0.434
-134.385	-200.000	-0.017	-0.112
-133.370	395.102	-0.226	-0.461
-132.356	800.000	0.122	0.440
-131.341	-152.736	-0.337	0.023
-130.326	-200.000	0.008	0.139
-129.312	-41.567	-0.227	-0.114
-128.297	-172.210	0.309	0.010
-127.283	-54.750	-0.201	0.089
-126.268	107.337	-0.196	0.228
-125.253	-89.710	0.199	0.057
-124.239	63.489	-0.119	0.117
-123.224	800.000	-0.018	0.058
-122.210	192.622	0.178	-0.262
-121.195	-20.700	0.159	-0.095
