DTS Sentinel unit serial number:	SN413079Multiplexer serial number:	ORYXHardware model number:	OX4-SRSoftware version number:	ORYX F/W v4.00 Oryx Data Collector v3.7.2.0data status	okinstallation	princeton_trtdifferential loss correction	single-endedforward channel	channel 3reverse channel	N/Adate	2019/09/18time	15:08:35forward acquisition time	60.00reverse acquisition time	0.00gamma	496.2192k internal	0.2305k external	0.2305temperature offset calibration	0.9979default loss term (dB/km)	0.3790temperature slope calibration	1.0000multiplexer offset coefficient	1.0000multiplexer slope coefficient	1.0000fibre end	0.00T internal ref (°C)	35.37T ext. ref 1 (°C)	0.74T ext. ref 2 (°C)	32.73length (m)	temperature (°C)	Stokes	anti-Stokes-747.200	800.000	-0.027	0.096
-746.185	-101.846	-0.564	0.139
-745.171	265.432	-0.136	0.241
-744.156	86.237	-0.261	0.293
-743.142	-87.264	0.165	0.051
-742.127	374.985	0.075	0.155
-741.112	177.145	0.192	-0.284
-740.098	18.278	-0.051	-0.042
-739.083	382.101	0.017	0.035
-738.069	800.000	0.089	0.390
-737.054	-70.105	0.151	-0.059
-736.039	644.480	-0.131	-0.341
-735.025	-1.652	-0.183	-0.131
-734.010	51.469	-0.083	0.080
-732.996	-106.466	-0.348	0.079
-731.981	-200.000	0.020	0.214
-730.966	-25.929	-0.189	0.113
-729.952	53.050	0.186	0.181
-728.937	-191.754	0.119	0.001
-727.923	24.806	-0.149	-0.126
-726.908	170.060	-0.149	0.217
-725.894	158.063	-0.161	-0.227
-724.879	-117.547	0.260	0.048
-723.864	-188.878	0.232	-0.003
-722.850	-115.953	-0.364	-0.069
-721.835	13.384	-0.155	0.122
-720.821	-63.412	-0.127	0.053
-719.806	-98.570	0.148	-0.038
-718.791	-200.000	0.065	-0.366
-717.777	-200.000	-0.184	-0.000
-716.762	44.889	0.198	-0.185
-715.748	-187.427	-0.323	0.004
-714.733	481.772	0.033	0.076
-713.718	-158.951	-0.197	0.011
-712.704	-97.280	0.112	-0.030
-711.689	-11.438	-0.100	-0.067
-710.675	-200.000	0.012	0.127
-709.660	473.000	-0.002	-0.006
-708.645	800.000	-0.040	0.144
-707.631	331.516	0.062	0.122
-706.616	16.939	-0.147	0.118
-705.602	359.666	-0.091	0.184
-704.587	250.371	0.106	0.184
-703.572	337.587	0.087	-0.171
-702.558	-39.985	0.184	0.098
-701.543	-200.000	0.054	-0.260
-700.529	-200.000	0.063	0.306
-699.514	31.143	0.101	-0.088
-698.499	81.398	0.108	0.119
-697.485	800.000	0.093	-0.380
-696.470	19.603	-0.104	-0.085
-695.456	22.646	-0.150	0.125
-694.441	-121.635	-0.153	-0.026
-693.426	66.330	0.194	-0.200
-692.412	-172.668	-0.372	-0.012
-691.397	-139.424	-0.127	-0.014
-690.383	-200.000	-0.009	-0.358
-689.368	-109.288	-0.141	-0.030
-688.354	41.706	-0.232	0.213
-687.339	148.107	0.031	-0.043
-686.324	-62.697	0.130	-0.055
-685.310	-56.155	-0.178	0.080
-684.295	422.180	0.099	-0.215
-683.281	192.992	-0.063	0.097
-682.266	273.379	0.029	-0.051
-681.251	202.011	0.103	0.161
-680.237	-200.000	0.003	-0.330
-679.222	91.094	0.165	-0.188
-678.208	11.129	-0.327	0.254
-677.193	-151.625	0.203	0.015
-676.178	-116.228	0.148	-0.028
-675.164	7.623	0.221	-0.168
-674.149	509.855	0.033	0.077
-673.135	-113.604	-0.316	0.063
-672.120	3.983	0.151	-0.112
-671.105	-66.568	0.125	0.050
-670.091	230.334	0.125	0.208
-669.076	566.082	0.014	0.034
-668.062	166.444	0.164	0.236
-667.047	-83.176	0.335	-0.109
-666.032	-200.000	-0.069	-0.324
-665.018	-20.476	0.205	-0.128
-664.003	102.658	-0.014	-0.016
-662.989	364.015	0.055	-0.112
-661.974	236.911	-0.169	0.284
-660.959	58.119	0.082	-0.082
-659.945	49.292	-0.192	-0.183
-658.930	-200.000	-0.048	0.243
-657.916	305.402	-0.101	0.191
-656.901	513.906	-0.062	-0.146
-655.886	800.000	0.087	0.297
-654.872	-200.000	0.008	0.112
-653.857	246.122	-0.043	0.073
-652.843	-46.036	0.237	0.118
-651.828	-3.609	0.027	-0.019
-650.814	55.688	-0.238	-0.234
-649.799	497.041	-0.184	-0.430
-648.784	800.000	0.099	-0.323
-647.770	279.681	-0.078	-0.141
-646.755	-63.170	0.353	0.148
-645.741	-200.000	-0.014	-0.125
-644.726	-25.517	0.094	-0.057
-643.711	-200.000	0.037	0.277
-642.697	505.452	-0.049	0.114
-641.682	13.233	0.264	-0.208
-640.668	159.114	0.012	-0.017
-639.653	-200.000	-0.062	-0.377
-638.638	-60.986	-0.136	-0.058
-637.624	111.255	-0.178	-0.218
-636.609	-200.000	0.009	0.068
-635.595	-19.187	0.151	0.095
-634.580	-200.000	0.020	0.322
-633.565	-116.638	0.136	0.025
-632.551	-200.000	0.001	-0.163
-631.536	-65.840	-0.406	-0.165
-630.522	-44.000	0.150	0.076
-629.507	-79.438	-0.273	0.093
-628.492	223.305	-0.143	0.234
-627.478	-200.000	-0.030	0.179
-626.463	419.158	0.102	-0.222
-625.449	221.267	0.022	0.036
-624.434	178.101	0.056	-0.082
-623.419	-154.716	-0.115	0.008
-622.405	-200.000	-0.053	-0.239
-621.390	-128.300	0.106	-0.015
-620.376	-70.064	-0.148	-0.057
-619.361	182.892	0.074	0.111
-618.346	-78.550	-0.254	0.088
-617.332	-115.188	0.186	0.036
-616.317	800.000	-0.019	-0.069
-615.303	134.732	0.248	-0.327
-614.288	-65.220	-0.196	-0.080
-613.273	-134.389	-0.145	0.018
-612.259	723.530	-0.144	0.388
-611.244	15.721	0.200	-0.159
-610.230	-166.411	0.441	-0.019
-609.215	20.793	-0.179	0.147
-608.201	10.984	-0.120	-0.093
-607.186	166.470	-0.108	-0.155
-606.171	249.631	0.138	-0.238
-605.157	624.597	0.057	0.146
-604.142	-126.050	-0.446	-0.068
-603.128	-63.621	0.245	0.102
-602.113	-21.430	0.415	-0.257
-601.098	210.262	-0.078	-0.123
-600.084	-157.366	0.374	0.023
-599.069	51.101	0.157	0.150
-598.055	7.866	-0.113	0.086
-597.040	-21.439	-0.258	0.159
-596.025	-154.611	-0.116	0.008
-595.011	3.603	-0.199	-0.147
-593.996	120.149	0.075	0.095
-592.982	-57.102	-0.048	-0.021
-591.967	-57.833	0.113	0.050
-590.952	800.000	-0.135	0.392
-589.938	-200.000	-0.030	-0.206
-588.923	-200.000	0.059	-0.414
-587.909	150.144	0.193	-0.265
-586.894	800.000	0.063	-0.213
-585.879	-149.880	0.217	0.017
-584.865	-41.671	-0.111	-0.058
-583.850	-200.000	-0.377	-0.002
-582.836	-17.791	0.265	-0.168
-581.821	373.466	-0.047	0.097
-580.806	-40.222	0.372	-0.196
-579.792	97.756	-0.121	0.140
-578.777	126.035	-0.060	-0.077
-577.763	252.660	0.078	0.135
-576.748	-95.903	0.130	0.035
-575.733	-73.125	-0.219	0.081
-574.719	80.069	0.117	0.127
-573.704	-164.829	-0.238	0.011
-572.690	-124.306	0.194	-0.031
-571.675	-93.920	-0.285	-0.079
-570.661	-54.513	-0.219	0.100
-569.646	-69.298	0.368	0.143
-568.631	-116.988	0.144	-0.027
-567.617	-58.437	0.139	0.061
-566.602	-154.587	-0.104	0.007
-565.588	800.000	0.119	-0.342
-564.573	-47.068	0.047	0.023
-563.558	72.189	-0.246	-0.259
-562.544	800.000	-0.069	-0.208
-561.529	-200.000	-0.117	-0.000
-560.515	-24.977	-0.198	-0.119
-559.500	-149.184	-0.201	0.016
-558.485	-82.240	0.179	0.059
-557.471	800.000	0.112	0.372
-556.456	207.624	0.070	-0.111
-555.442	-65.207	0.259	-0.105
-554.427	-179.784	-0.123	0.003
-553.412	-90.343	0.234	-0.069
-552.398	-200.000	-0.031	-0.153
-551.383	-56.471	-0.278	0.124
-550.369	100.315	-0.057	0.067
-549.354	369.687	0.125	0.256
-548.339	85.946	-0.054	0.060
-547.325	529.290	0.073	-0.173
-546.310	31.760	0.178	-0.154
-545.296	-34.419	-0.072	0.040
-544.281	25.954	0.062	0.053
-543.266	800.000	-0.019	-0.077
-542.252	104.902	0.255	0.303
-541.237	38.341	-0.136	-0.122
-540.223	-116.910	-0.104	-0.019
-539.208	-156.128	-0.088	0.006
-538.193	338.887	0.123	-0.242
-537.179	-157.841	0.173	0.010
-536.164	-33.137	-0.145	-0.081
-535.150	-121.204	-0.248	0.042
-534.135	-60.839	-0.244	-0.104
-533.121	800.000	-0.031	-0.107
-532.106	-74.231	-0.469	-0.171
-531.091	-25.549	-0.162	-0.096
-530.077	63.501	0.112	0.113
-529.062	-200.000	0.022	-0.128
-528.048	800.000	0.043	0.182
-527.033	211.721	-0.073	-0.116
-526.018	590.624	0.104	0.259
-525.004	479.196	-0.101	0.231
-523.989	-200.000	-0.002	-0.063
-522.975	86.057	0.172	-0.191
-521.960	6.024	-0.277	0.207
-520.945	84.646	-0.129	-0.143
-519.931	182.093	0.060	-0.090
-518.916	39.600	0.149	0.135
-517.902	-154.454	-0.248	-0.017
-516.887	200.824	-0.253	-0.392
-515.872	87.746	-0.133	-0.149
-514.858	-72.972	-0.315	0.117
-513.843	-56.219	-0.215	0.096
-512.829	18.082	0.039	0.031
-511.814	67.949	0.171	-0.177
-510.799	7.451	-0.121	0.091
-509.785	11.229	0.115	-0.089
-508.770	89.084	-0.150	0.168
-507.756	-114.710	-0.266	0.051
-506.741	-192.081	0.071	0.001
-505.726	596.009	0.138	0.345
-504.712	800.000	-0.167	0.476
-503.697	-83.283	0.038	0.012
-502.683	-200.000	0.014	-0.123
-501.668	185.326	-0.178	0.267
-500.653	-200.000	0.027	-0.123
-499.639	35.815	-0.181	0.161
-498.624	-149.434	0.219	-0.018
-497.610	198.828	-0.160	0.247
-496.595	-84.763	0.267	0.085
-495.581	800.000	-0.057	0.214
-494.566	-141.777	-0.130	0.013
-493.551	-200.000	-0.012	-0.387
-492.537	-200.000	-0.029	0.164
-491.522	162.694	-0.218	0.309
-490.508	-79.716	0.313	0.106
-489.493	-200.000	-0.011	0.308
-488.478	407.730	0.092	-0.196
-487.464	-31.338	0.123	-0.070
-486.449	800.000	-0.048	0.170
-485.435	-141.719	0.353	0.036
-484.420	60.041	-0.191	0.190
-483.405	-200.000	0.059	0.373
-482.391	-200.000	0.027	-0.129
-481.376	119.626	0.117	0.146
-480.362	-91.206	-0.084	-0.024
-479.347	-97.501	0.068	-0.018
-478.332	195.185	0.025	0.039
-477.318	-153.703	0.422	-0.029
-476.303	-151.537	-0.081	0.006
-475.289	-50.162	0.199	-0.095
-474.274	90.581	-0.143	0.162
-473.259	45.433	0.068	-0.063
-472.245	-6.868	-0.131	0.090
-471.230	800.000	0.030	-0.130
-470.216	28.765	0.230	-0.196
-469.201	-200.000	0.019	0.107
-468.186	146.199	-0.116	0.157
-467.172	-137.543	-0.133	-0.015
-466.157	758.190	0.032	-0.088
-465.143	83.135	0.049	-0.054
-464.128	-123.246	-0.291	-0.047
-463.113	624.302	0.024	-0.061
-462.099	50.908	0.142	0.135
-461.084	155.167	0.119	0.165
-460.070	-200.000	-0.013	0.184
-459.055	-200.000	0.038	0.331
-458.040	-200.000	-0.004	0.184
-457.026	-200.000	0.003	-0.069
-456.011	98.082	0.030	0.035
-454.997	-147.985	-0.270	0.023
-453.982	-104.655	0.118	-0.027
-452.968	213.909	-0.116	0.185
-451.953	-200.000	0.031	-0.232
-450.938	721.564	-0.074	-0.199
-449.924	-161.243	-0.412	-0.022
-448.909	17.823	-0.209	-0.168
-447.895	800.000	-0.038	0.140
-446.880	22.201	0.121	-0.099
-445.865	649.560	-0.070	-0.180
-444.851	45.926	-0.224	-0.209
-443.836	-97.071	0.294	-0.077
-442.822	-127.882	0.307	0.045
-441.807	-75.779	-0.118	0.042
-440.792	-129.284	0.206	-0.029
-439.778	222.730	-0.127	0.206
-438.763	-200.000	0.019	-0.351
-437.749	800.000	0.043	-0.177
-436.734	444.082	0.148	0.326
-435.719	262.678	-0.154	0.268
-434.705	-111.511	-0.062	0.013
-433.690	319.905	-0.081	-0.155
-432.676	-76.819	-0.177	-0.062
-431.661	113.984	-0.153	-0.187
-430.646	-32.224	0.238	0.134
-429.632	38.543	-0.025	0.023
-428.617	-200.000	-0.053	-0.297
-427.603	147.179	0.135	0.183
-426.588	80.870	0.145	-0.158
-425.573	88.412	-0.190	0.212
-424.559	-200.000	-0.020	0.532
-423.544	451.758	0.075	0.167
-422.530	9.205	0.084	-0.064
-421.515	800.000	0.053	0.174
-420.500	-105.461	-0.324	0.074
-419.486	-200.000	0.275	0.001
-418.471	-24.626	0.187	-0.112
-417.457	259.134	-0.181	0.314
-416.442	-200.000	-0.020	0.189
-415.428	-95.467	-0.383	0.103
-414.413	-55.404	0.213	-0.096
-413.398	800.000	-0.095	-0.390
-412.384	-80.502	-0.193	0.065
-411.369	-200.000	0.010	0.190
-410.355	779.301	-0.078	-0.214
-409.340	31.181	0.103	0.089
-408.325	-11.422	0.050	-0.033
-407.311	-91.896	-0.204	-0.058
-406.296	501.390	0.016	-0.037
-405.282	-49.101	0.263	-0.126
-404.267	800.000	0.030	0.102
-403.252	-200.000	-0.007	-0.120
-402.238	12.288	-0.077	-0.060
-401.223	800.000	0.154	-0.489
-400.209	-32.629	-0.286	0.160
-399.194	-100.156	0.281	0.070
-398.179	800.000	0.211	-0.836
-397.165	-200.000	-0.021	-0.186
-396.150	-200.000	-0.080	-0.496
-395.136	800.000	0.089	0.262
-394.121	53.456	-0.034	0.033
-393.106	-72.290	-0.159	0.059
-392.092	-33.051	-0.312	0.174
-391.077	-112.289	-0.276	0.055
-390.063	126.918	0.189	0.241
-389.048	-200.000	0.002	0.174
-388.033	67.320	-0.169	0.173
-387.019	-74.062	-0.209	-0.076
-386.004	224.610	0.141	0.228
-384.990	-200.000	0.002	0.347
-383.975	-200.000	0.019	0.170
-382.960	-200.000	0.014	-0.351
-381.946	426.379	0.040	-0.087
-380.931	-89.541	0.101	-0.030
-379.917	-200.000	0.009	-0.326
-378.902	9.235	0.169	0.128
-377.888	800.000	0.019	-0.079
-376.873	155.607	0.092	0.127
-375.858	-102.457	-0.198	0.048
-374.844	-70.870	-0.340	0.128
-373.829	-66.542	0.269	0.107
-372.815	158.786	-0.115	0.160
-371.800	235.870	0.085	0.141
-370.785	358.935	0.095	-0.190
-369.771	800.000	0.026	0.113
-368.756	-156.768	0.397	-0.025
-367.742	385.687	0.112	0.232
-366.727	-200.000	0.120	-0.534
-365.712	329.079	-0.089	-0.171
-364.698	-92.258	0.196	0.055
-363.683	49.741	-0.180	0.170
-362.669	-200.000	0.009	-0.158
-361.654	-16.636	0.226	0.144
-360.639	-161.944	0.289	0.015
-359.625	-164.343	0.197	0.009
-358.610	304.891	0.048	0.089
-357.596	-95.692	0.144	-0.039
-356.581	-200.000	0.042	0.212
-355.566	630.611	-0.018	0.045
-354.552	-19.481	0.094	-0.058
-353.537	-200.000	-0.045	-0.381
-352.523	101.311	-0.134	-0.156
-351.508	14.040	-0.077	0.060
-350.493	189.089	-0.053	-0.080
-349.479	720.531	-0.102	0.272
-348.464	-113.339	-0.053	-0.010
-347.450	-200.000	0.068	-0.411
-346.435	-200.000	-0.082	-0.469
-345.420	-90.643	0.167	-0.048
-344.406	252.068	0.116	0.198
-343.391	-200.000	-0.015	0.105
-342.377	63.503	0.137	0.137
-341.362	-60.650	0.106	-0.045
-340.348	428.254	0.017	0.038
-339.333	-49.720	-0.391	-0.186
-338.318	-200.000	0.001	-0.067
-337.304	-200.000	0.026	-0.166
-336.289	-200.000	0.026	-0.250
-335.275	244.340	-0.059	0.100
-334.260	-128.188	0.206	-0.029
-333.245	131.064	0.132	-0.169
-332.231	-124.919	0.126	0.019
-331.216	202.119	-0.143	0.221
-330.202	-60.722	-0.266	0.113
-329.187	-138.332	-0.157	-0.017
-328.172	302.427	-0.151	0.280
-327.158	116.345	0.037	0.045
-326.143	800.000	-0.097	-0.331
-325.129	-40.855	-0.255	-0.132
-324.114	-200.000	-0.114	0.000
-323.099	336.064	0.061	-0.119
-322.085	-120.916	0.128	0.022
-321.070	800.000	-0.074	0.212
-320.056	-200.000	0.164	-0.000
-319.041	19.215	-0.250	-0.201
-318.026	-33.393	-0.099	-0.055
-317.012	-52.575	0.196	0.091
-315.997	-59.727	0.390	0.167
-314.983	-200.000	-0.061	0.346
-313.968	-162.036	-0.149	0.008
-312.953	64.025	0.265	0.266
-311.939	122.186	0.159	0.199
-310.924	219.900	-0.108	0.174
-309.910	-200.000	-0.015	-0.164
-308.895	-21.944	0.253	-0.154
-307.880	311.247	0.198	0.371
-306.866	160.182	0.208	0.290
-305.851	-148.441	-0.215	0.018
-304.837	461.871	-0.123	0.275
-303.822	-70.887	0.355	-0.134
-302.807	800.000	-0.098	-0.306
-301.793	18.971	0.129	-0.103
-300.778	-200.000	0.020	-0.221
-299.764	732.656	-0.145	-0.389
-298.749	4.364	-0.167	-0.123
-297.735	-28.952	0.277	0.159
-296.720	-40.567	0.257	0.133
-295.705	-174.093	0.179	-0.005
-294.691	100.531	0.138	-0.160
-293.676	-29.896	0.262	0.149
-292.662	23.613	0.147	-0.121
-291.647	240.445	-0.115	-0.191
-290.632	567.048	-0.090	0.218
-289.618	70.218	-0.074	0.077
-288.603	17.912	0.236	0.188
-287.589	-133.350	-0.084	0.011
-286.574	-200.000	-0.007	-0.131
-285.559	52.837	0.143	-0.136
-284.545	76.111	-0.318	-0.337
-283.530	42.756	0.294	-0.268
-282.516	-200.000	0.010	-0.215
-281.501	-22.274	0.252	-0.153
-280.486	-200.000	0.046	-0.504
-279.472	-54.438	-0.207	0.094
-278.457	191.048	-0.145	0.219
-277.443	-96.162	-0.343	0.091
-276.428	-166.235	-0.193	0.008
-275.413	-88.683	-0.233	-0.069
-274.399	299.018	0.050	0.091
-273.384	-200.000	0.016	-0.132
-272.370	-146.659	0.375	-0.032
-271.355	278.441	0.073	-0.130
-270.340	-80.349	0.177	0.059
-269.326	66.767	-0.168	-0.171
-268.311	-58.971	0.084	-0.036
-267.297	279.962	0.101	-0.180
-266.282	159.307	0.207	0.288
-265.267	320.243	0.224	-0.425
-264.253	104.461	0.161	0.190
-263.238	-200.000	0.009	0.458
-262.224	-190.827	-0.267	0.003
-261.209	800.000	0.022	-0.064
-260.195	734.413	0.033	-0.089
-259.180	-200.000	0.040	-0.232
-258.165	-200.000	0.012	0.512
-257.151	-200.000	-0.041	-0.224
-256.136	-10.440	0.158	0.104
-255.122	-150.439	-0.129	0.010
-254.107	131.101	0.150	-0.192
-253.092	-200.000	-0.021	0.111
-252.078	51.877	0.199	-0.189
-251.063	-100.915	-0.155	0.038
-250.049	775.776	0.083	0.227
-249.034	-200.000	0.063	-0.315
-248.019	-200.000	0.037	0.235
-247.005	-2.434	0.130	0.091
-245.990	-111.763	-0.178	0.036
-244.976	800.000	-0.076	-0.295
-243.961	800.000	0.112	0.357
-242.946	-123.322	-0.099	0.016
-241.932	-200.000	0.002	-0.215
-240.917	-28.367	-0.073	0.042
-239.903	298.997	0.155	0.285
-238.888	-200.000	-0.001	0.016
-237.873	-200.000	0.054	0.337
-236.859	88.319	0.138	-0.153
-235.844	800.000	-0.012	0.049
-234.830	7.846	0.247	0.185
-233.815	800.000	0.025	0.102
-232.800	-63.913	-0.567	0.231
-231.786	-30.244	-0.134	0.076
-230.771	474.564	0.054	0.121
-229.757	-200.000	-0.025	-0.323
-228.742	6.726	-0.271	-0.201
-227.727	-200.000	-0.067	-0.390
-226.713	-200.000	0.006	0.152
-225.698	-167.869	0.129	0.005
-224.684	-33.658	-0.220	0.121
-223.669	155.732	-0.022	-0.031
-222.655	403.707	-0.195	0.408
-221.640	8.638	0.110	0.082
-220.625	-200.000	0.000	-0.050
-219.611	20.727	0.271	-0.219
-218.596	257.910	-0.067	0.116
-217.582	800.000	-0.039	-0.143
-216.567	-200.000	0.041	0.359
-215.552	-145.276	-0.405	0.037
-214.538	14.081	0.153	0.119
-213.523	-75.172	-0.391	0.139
-212.509	95.925	0.089	0.101
-211.494	44.718	0.229	-0.210
-210.479	-200.000	-0.014	-0.245
-209.465	185.528	-0.200	0.296
-208.450	-64.568	0.066	-0.027
-207.436	-200.000	-0.057	-0.402
-206.421	-105.439	-0.051	-0.011
-205.406	48.321	-0.220	-0.205
-204.392	-27.300	0.364	-0.211
-203.377	-43.029	0.187	-0.095
-202.363	-46.072	0.044	0.022
-201.348	-179.654	0.192	-0.004
-200.333	-93.611	-0.254	-0.070
-199.319	-26.886	0.179	-0.104
-198.304	106.751	0.057	-0.067
-197.290	25.027	-0.059	0.049
-196.275	-92.301	-0.396	-0.111
-195.260	-200.000	0.012	0.379
-194.246	-28.712	0.105	0.060
-193.231	78.883	0.242	0.258
-192.217	-68.843	-0.187	0.072
-191.202	169.767	0.089	0.127
-190.187	800.000	-0.043	0.182
-189.173	753.644	-0.095	-0.256
-188.158	-77.699	-0.342	-0.118
-187.144	600.177	-0.107	0.265
-186.129	35.324	0.075	0.066
-185.114	53.010	-0.157	-0.149
-184.100	-113.468	0.231	0.045
-183.085	-33.569	-0.273	0.150
-182.071	-144.291	0.386	-0.036
-181.056	325.553	-0.036	0.069
-180.042	30.804	-0.115	0.098
-179.027	152.261	-0.161	-0.218
-178.012	275.286	0.106	0.187
-176.998	133.625	-0.305	0.393
-175.983	-23.520	-0.087	-0.052
-174.969	209.965	0.211	-0.329
-173.954	-75.376	0.158	0.056
-172.939	-19.591	-0.245	0.151
-171.925	-5.788	-0.121	0.082
-170.910	-20.965	0.086	-0.053
-169.896	-18.796	0.098	0.060
-168.881	-97.431	-0.340	0.088
-167.866	159.683	-0.073	-0.101
-166.852	-79.187	0.087	-0.030
-165.837	-200.000	-0.061	-0.392
-164.823	-200.000	-0.002	-0.144
-163.808	-136.608	0.224	0.026
-162.793	276.064	0.109	0.192
-161.779	-200.000	0.003	0.065
-160.764	35.315	-0.336	-0.293
-159.750	177.478	-0.159	0.230
-158.735	-101.872	0.154	-0.037
-157.720	-200.000	-0.008	-0.246
-156.706	-72.170	0.245	0.090
-155.691	800.000	0.064	0.221
-154.677	800.000	0.025	-0.100
-153.662	6.108	0.310	0.229
-152.647	-135.132	-0.229	0.027
-151.633	318.118	0.141	0.266
-150.618	104.743	0.103	-0.121
-149.604	-200.000	-0.026	-0.155
-148.589	7.393	0.113	-0.084
-147.574	12.757	-0.157	-0.120
-146.560	-57.648	-0.336	0.146
-145.545	122.044	0.248	-0.307
-144.531	-125.592	0.448	0.068
-143.516	-200.000	0.025	0.155
-142.502	-200.000	0.035	0.434
-141.487	674.874	-0.058	0.149
-140.472	77.814	-0.189	0.200
-139.458	-200.000	-0.044	0.448
-138.443	32.912	0.133	-0.114
-137.429	-200.000	0.018	0.270
-136.414	394.898	0.073	0.151
-135.399	-99.545	0.194	0.048
-134.385	71.890	-0.160	-0.166
-133.370	800.000	-0.097	0.266
-132.356	-7.691	-0.159	0.107
-131.341	-88.219	0.114	-0.034
-130.326	-200.000	-0.014	0.177
-129.312	11.719	0.068	-0.052
-128.297	-97.446	0.175	0.045
-127.283	800.000	-0.078	0.302
-126.268	63.428	-0.204	-0.203
-125.253	-120.501	0.289	0.049
-124.239	800.000	0.074	-0.212
-123.224	-200.000	0.008	0.171
-122.210	-200.000	0.055	0.310
-121.195	-200.000	-0.021	0.212
-120.180	203.812	0.104	0.160
