DTS Sentinel unit serial number:	SN413079Multiplexer serial number:	ORYXHardware model number:	OX4-SRSoftware version number:	ORYX F/W v4.00 Oryx Data Collector v3.7.2.0data status	okinstallation	princeton_trtdifferential loss correction	single-endedforward channel	channel 3reverse channel	N/Adate	2019/09/17time	14:04:35forward acquisition time	60.00reverse acquisition time	0.00gamma	496.2192k internal	0.2300k external	0.2300temperature offset calibration	0.9958default loss term (dB/km)	0.3790temperature slope calibration	1.0000multiplexer offset coefficient	1.0000multiplexer slope coefficient	1.0000fibre end	0.00T internal ref (°C)	35.69T ext. ref 1 (°C)	0.40T ext. ref 2 (°C)	32.58length (m)	temperature (°C)	Stokes	anti-Stokes-747.200	662.038	-0.090	-0.238
-746.185	-49.917	0.388	0.188
-745.171	-122.614	0.308	0.051
-744.156	507.822	-0.127	0.300
-743.142	159.541	-0.136	-0.192
-742.127	-102.995	-0.081	-0.020
-741.112	40.715	0.056	-0.051
-740.098	731.792	-0.078	-0.211
-739.083	-92.469	0.191	0.055
-738.069	-37.879	0.124	0.067
-737.054	-200.000	0.006	-0.208
-736.039	501.065	0.066	-0.155
-735.025	31.160	0.155	0.136
-734.010	-35.204	0.117	0.065
-732.996	-43.931	-0.182	-0.093
-731.981	800.000	0.084	-0.334
-730.966	50.185	-0.194	-0.186
-729.952	800.000	-0.054	-0.212
-728.937	-138.323	-0.101	-0.011
-727.923	432.159	0.149	-0.329
-726.908	-9.063	0.074	-0.050
-725.894	284.261	-0.112	-0.206
-724.879	-133.882	-0.143	0.018
-723.864	-94.444	-0.209	-0.058
-722.850	69.541	-0.166	-0.174
-721.835	111.186	0.132	0.161
-720.821	-200.000	-0.012	0.148
-719.806	-200.000	0.003	-0.219
-718.791	351.199	0.157	-0.317
-717.777	-200.000	-0.026	-0.169
-716.762	325.053	0.047	-0.092
-715.748	152.437	-0.167	-0.232
-714.733	-41.331	-0.142	0.075
-713.718	137.024	-0.094	0.126
-712.704	-92.177	0.327	0.094
-711.689	40.223	-0.077	-0.071
-710.675	-200.000	-0.000	-0.209
-709.660	300.873	-0.064	0.120
-708.645	103.619	0.242	0.289
-707.631	57.220	-0.321	-0.319
-706.616	800.000	-0.042	-0.170
-705.602	-28.821	-0.271	-0.159
-704.587	-9.554	-0.140	-0.095
-703.572	-113.719	0.159	0.031
-702.558	34.556	0.159	0.141
-701.543	548.873	0.044	0.107
-700.529	-181.008	-0.239	-0.005
-699.514	-85.072	0.203	0.065
-698.499	319.751	0.120	0.232
-697.485	-60.888	0.192	0.083
-696.470	-53.625	-0.192	-0.089
-695.456	9.507	0.126	0.097
-694.441	94.714	-0.197	-0.228
-693.426	180.981	-0.014	0.021
-692.412	-38.851	0.076	-0.041
-691.397	-31.546	0.100	0.057
-690.383	-46.471	-0.219	0.109
-689.368	-200.000	0.097	-0.469
-688.354	-155.782	-0.384	0.025
-687.339	-200.000	-0.067	-0.301
-686.324	-93.432	-0.141	0.040
-685.310	-200.000	-0.011	-0.326
-684.295	-184.136	-0.148	-0.003
-683.281	-146.026	0.099	0.009
-682.266	569.322	-0.075	-0.186
-681.251	-200.000	-0.050	-0.383
-680.237	141.317	0.480	0.647
-679.222	117.963	-0.060	-0.076
-678.208	-200.000	-0.037	0.182
-677.193	72.070	-0.190	-0.201
-676.178	-125.635	0.405	-0.062
-675.164	27.932	-0.064	-0.055
-674.149	-60.245	-0.094	-0.041
-673.135	-58.978	-0.275	0.121
-672.120	-200.000	0.025	0.117
-671.105	-101.417	-0.055	0.014
-670.091	-93.324	0.284	0.080
-669.076	590.543	0.026	-0.064
-668.062	55.555	-0.198	0.195
-667.047	-86.070	-0.183	0.057
-666.032	382.258	-0.160	-0.334
-665.018	-140.475	0.167	0.018
-664.003	-90.218	-0.311	0.092
-662.989	250.534	0.052	0.090
-661.974	460.480	0.156	-0.353
-660.959	164.373	-0.190	-0.272
-659.945	-200.000	-0.004	-0.073
-658.930	5.332	0.037	0.028
-657.916	-173.537	-0.135	-0.004
-656.901	-103.147	0.137	0.033
-655.886	207.883	-0.078	-0.124
-654.872	-44.921	0.343	0.174
-653.857	-1.759	0.145	-0.104
-652.843	-109.689	-0.260	0.056
-651.828	-200.000	0.025	-0.191
-650.814	800.000	0.143	-0.442
-649.799	94.194	0.237	0.273
-648.784	366.995	-0.057	0.116
-647.770	67.583	-0.095	-0.099
-646.755	-200.000	0.068	-0.423
-645.741	-30.385	-0.064	-0.037
-644.726	588.010	-0.098	0.246
-643.711	48.726	-0.253	-0.241
-642.697	119.252	0.053	0.067
-641.682	800.000	-0.054	0.159
-640.668	60.073	0.276	-0.278
-639.653	800.000	0.049	-0.174
-638.638	54.410	-0.190	-0.186
-637.624	800.000	0.048	-0.149
-636.609	215.138	-0.060	0.097
-635.595	-194.726	0.296	-0.002
-634.580	-21.716	0.070	0.043
-633.565	21.170	0.044	-0.036
-632.551	-200.000	0.036	0.332
-631.536	177.886	-0.084	0.124
-630.522	219.904	0.083	-0.136
-629.507	20.826	-0.153	0.126
-628.492	165.836	0.043	0.062
-627.478	214.325	0.191	-0.308
-626.463	-200.000	-0.056	-0.256
-625.449	-200.000	0.011	0.236
-624.434	63.700	-0.147	-0.150
-623.419	-87.347	0.139	-0.043
-622.405	162.044	0.155	0.220
-621.390	125.505	0.064	0.082
-620.376	-150.891	0.060	0.005
-619.361	-200.000	-0.018	-0.193
-618.346	-9.662	0.133	0.090
-617.332	-34.314	0.152	-0.085
-616.317	212.397	-0.168	-0.269
-615.303	-46.871	-0.410	0.203
-614.288	800.000	-0.080	-0.236
-613.273	100.088	0.224	0.263
-612.259	45.401	0.253	-0.237
-611.244	-183.001	-0.081	-0.001
-610.230	-145.261	-0.433	-0.040
-609.215	237.656	-0.155	0.261
-608.201	370.693	-0.107	-0.220
-607.186	-200.000	0.087	0.472
-606.171	163.674	-0.014	-0.020
-605.157	-152.620	0.192	-0.014
-604.142	-116.748	0.380	0.071
-603.128	230.124	-0.135	-0.224
-602.113	34.502	-0.181	-0.161
-601.098	1.416	-0.288	0.210
-600.084	-107.063	0.063	0.014
-599.069	93.339	-0.174	-0.200
-598.055	-86.193	-0.180	-0.056
-597.040	757.512	-0.094	0.259
-596.025	-200.000	-0.017	0.109
-595.011	-81.994	-0.082	0.027
-593.996	-200.000	-0.169	0.000
-592.982	800.000	-0.054	0.230
-591.967	-57.616	-0.188	0.083
-590.952	-21.965	-0.152	-0.094
-589.938	800.000	-0.042	0.138
-588.923	-200.000	-0.003	0.035
-587.909	-129.051	-0.185	0.026
-586.894	699.474	-0.048	0.128
-585.879	213.836	0.170	0.272
-584.865	-77.425	-0.250	-0.088
-583.850	52.908	-0.120	-0.116
-582.836	-114.356	-0.134	0.026
-581.821	-127.860	-0.148	-0.022
-580.806	-7.889	0.156	-0.106
-579.792	-161.811	-0.240	0.012
-578.777	-126.129	0.194	-0.030
-577.763	711.764	0.081	0.217
-576.748	328.963	-0.105	-0.205
-575.733	-126.050	0.398	0.061
-574.719	103.563	0.183	-0.218
-573.704	-123.565	0.231	0.037
-572.690	718.212	-0.018	-0.049
-571.675	-138.679	0.328	0.036
-570.661	-200.000	-0.010	0.363
-569.646	44.812	-0.100	-0.093
-568.631	-80.964	0.289	-0.097
-567.617	29.243	-0.068	0.059
-566.602	-200.000	-0.038	0.301
-565.588	51.388	0.178	-0.171
-564.573	51.347	0.164	-0.158
-563.558	1.301	0.218	-0.158
-562.544	-88.649	-0.051	-0.015
-561.529	4.763	0.303	0.225
-560.515	-122.657	-0.362	0.059
-559.500	682.016	0.161	-0.426
-558.485	92.396	0.128	0.146
-557.471	-27.716	0.551	0.324
-556.456	-165.849	0.167	-0.007
-555.442	-47.729	0.090	-0.044
-554.427	528.071	0.051	-0.121
-553.412	229.409	0.060	-0.100
-552.398	-200.000	0.026	0.179
-551.383	800.000	0.016	-0.053
-550.369	599.915	-0.100	-0.250
-549.354	800.000	0.024	-0.073
-548.339	-200.000	0.007	0.160
-547.325	207.407	-0.072	0.114
-546.310	254.962	-0.173	-0.300
-545.296	188.454	0.118	0.178
-544.281	18.832	0.230	0.187
-543.266	-1.423	0.146	0.104
-542.252	-91.382	0.170	-0.049
-541.237	507.456	-0.095	-0.224
-540.223	-200.000	-0.055	-0.273
-539.208	-23.963	-0.070	-0.042
-538.193	388.059	-0.063	0.133
-537.179	-197.831	-0.299	0.002
-536.164	-90.080	0.425	0.125
-535.150	-200.000	-0.002	-0.065
-534.135	-200.000	0.043	0.206
-533.121	-200.000	0.032	-0.271
-532.106	215.461	-0.243	-0.389
-531.091	176.121	0.122	0.179
-530.077	800.000	-0.067	-0.198
-529.062	120.736	0.050	0.063
-528.048	-20.423	0.180	-0.112
-527.033	-96.189	0.169	0.045
-526.018	-36.099	0.216	-0.118
-525.004	-1.153	-0.376	-0.269
-523.989	800.000	-0.099	-0.416
-522.975	87.975	0.066	-0.074
-521.960	178.950	0.127	0.188
-520.945	241.869	-0.068	0.115
-519.931	-169.174	-0.048	0.002
-518.916	3.407	0.078	-0.058
-517.902	800.000	0.027	-0.104
-516.887	137.000	-0.202	-0.267
-515.872	-50.780	-0.086	0.041
-514.858	42.974	0.197	-0.181
-513.843	179.222	-0.156	0.230
-512.829	-142.324	0.464	-0.046
-511.814	-131.924	0.273	-0.036
-510.799	17.618	0.276	0.222
-509.785	-85.914	0.278	-0.087
-508.770	14.040	-0.218	0.172
-507.756	-139.173	-0.335	-0.036
-506.741	-92.098	-0.292	0.083
-505.726	25.605	-0.160	0.135
-504.712	-51.174	-0.117	-0.056
-503.697	-58.188	-0.417	-0.184
-502.683	-127.734	-0.081	0.012
-501.668	149.193	-0.107	-0.146
-500.653	-116.276	0.141	0.026
-499.639	-119.488	0.259	0.045
-498.624	304.742	-0.064	0.120
-497.610	-46.657	-0.231	-0.114
-496.595	-200.000	0.005	0.118
-495.581	-97.661	0.269	0.070
-494.566	80.516	-0.162	0.176
-493.551	0.413	0.065	-0.047
-492.537	586.513	0.056	0.140
-491.522	-41.885	-0.242	0.125
-490.508	101.975	0.131	0.154
-489.493	-72.733	-0.032	0.012
-488.478	-32.114	-0.313	-0.177
-487.464	-200.000	-0.036	-0.404
-486.449	-200.000	-0.032	0.172
-485.435	800.000	0.038	-0.107
-484.420	-129.820	0.213	0.030
-483.405	-164.797	0.206	0.009
-482.391	30.289	0.095	-0.082
-481.376	800.000	0.064	-0.254
-480.362	469.235	0.087	-0.198
-479.347	800.000	0.078	-0.251
-478.332	-200.000	-0.008	0.268
-477.318	-200.000	-0.024	0.355
-476.303	54.177	0.281	-0.273
-475.289	-200.000	-0.021	-0.259
-474.274	607.513	-0.198	0.499
-473.259	-189.852	-0.105	0.001
-472.245	-1.247	0.066	-0.047
-471.230	-200.000	-0.020	0.154
-470.216	-105.709	0.262	-0.060
-469.201	-4.394	0.177	-0.124
-468.186	-127.759	-0.135	0.020
-467.172	315.956	-0.045	0.086
-466.157	-200.000	0.020	0.219
-465.143	-100.485	-0.024	-0.006
-464.128	-28.509	-0.149	0.086
-463.113	-54.008	-0.061	0.028
-462.099	353.792	-0.093	-0.186
-461.084	800.000	-0.052	0.205
-460.070	-23.265	-0.040	0.025
-459.055	33.462	-0.063	0.055
-458.040	-139.769	-0.334	-0.036
-457.026	-65.512	0.071	-0.029
-456.011	-120.014	-0.136	-0.024
-454.997	-28.994	-0.435	0.252
-453.982	84.850	-0.177	-0.196
-452.968	427.232	-0.030	0.066
-451.953	-200.000	0.015	0.275
-450.938	-200.000	-0.025	-0.450
-449.924	-80.808	-0.396	0.133
-448.909	629.864	0.062	-0.157
-447.895	325.870	-0.181	-0.348
-446.880	-13.971	0.117	-0.076
-445.865	-115.767	0.279	0.053
-444.851	-200.000	0.025	-0.239
-443.836	-200.000	0.041	-0.399
-442.822	-60.239	0.187	-0.080
-441.807	800.000	-0.025	0.075
-440.792	800.000	-0.183	-0.648
-439.778	10.037	0.234	-0.179
-438.763	64.538	0.159	0.161
-437.749	800.000	0.067	0.252
-436.734	-47.486	0.195	0.096
-435.719	800.000	0.032	-0.090
-434.705	800.000	0.067	0.258
-433.690	-135.812	-0.075	0.009
-432.676	800.000	0.033	0.140
-431.661	235.094	0.123	0.204
-430.646	800.000	0.099	0.294
-429.632	-122.048	-0.252	0.042
-428.617	-112.507	-0.218	-0.044
-427.603	800.000	-0.065	0.283
-426.588	800.000	0.057	-0.161
-425.573	112.099	0.199	0.243
-424.559	-200.000	0.043	0.230
-423.544	276.949	0.158	0.284
-422.530	97.710	0.245	-0.284
-421.515	-113.801	-0.267	0.052
-420.500	-128.518	0.339	0.048
-419.486	312.468	-0.063	0.120
-418.471	800.000	0.012	0.037
-417.457	-7.155	-0.212	0.145
-416.442	-20.130	-0.246	0.153
-415.428	107.743	-0.038	-0.046
-414.413	-79.167	0.328	-0.112
-413.398	238.836	-0.199	0.334
-412.384	-200.000	0.061	0.415
-411.369	-200.000	0.053	-0.326
-410.355	155.387	0.307	0.426
-409.340	179.541	0.190	-0.279
-408.325	17.867	-0.169	0.135
-407.311	4.424	-0.147	-0.109
-406.296	-75.751	-0.033	-0.012
-405.282	-200.000	0.083	-0.467
-404.267	280.163	-0.170	0.305
-403.252	294.528	0.094	0.173
-402.238	-200.000	-0.020	-0.115
-401.223	76.747	0.198	-0.211
-400.209	290.377	0.152	-0.278
-399.194	-158.647	0.216	0.013
-398.179	104.464	0.201	-0.239
-397.165	-74.139	-0.457	0.166
-396.150	488.249	0.061	0.141
-395.136	600.225	-0.192	0.479
-394.121	-20.989	-0.279	0.172
-393.106	-200.000	-0.019	-0.190
-392.092	614.115	0.064	0.162
-391.077	36.621	0.314	-0.279
-390.063	-78.452	-0.399	0.138
-389.048	59.967	0.097	0.096
-388.033	101.605	-0.267	-0.313
-387.019	-200.000	0.031	0.143
-386.004	35.953	0.062	0.055
-384.990	20.188	0.263	0.213
-383.975	800.000	-0.033	0.093
-382.960	-200.000	0.029	-0.154
-381.946	-162.483	-0.402	-0.020
-380.931	-108.412	0.320	-0.069
-379.917	510.234	0.149	-0.349
-378.902	-200.000	-0.002	-0.053
-377.888	-120.101	-0.086	0.015
-376.873	147.367	-0.047	-0.064
-375.858	-95.304	0.238	0.064
-374.844	80.634	-0.218	-0.236
-373.829	118.261	0.114	0.141
-372.815	494.252	-0.081	0.188
-371.800	27.088	-0.059	0.050
-370.785	11.243	0.119	0.092
-369.771	-200.000	-0.029	0.192
-368.756	-110.689	-0.179	-0.037
-367.742	-200.000	-0.001	-0.103
-366.727	-200.000	-0.018	-0.109
-365.712	435.166	0.177	0.386
-364.698	-154.921	-0.218	0.014
-363.683	-200.000	0.041	0.206
-362.669	-51.146	0.076	0.036
-361.654	-14.056	0.049	0.032
-360.639	-63.787	-0.227	-0.093
-359.625	-133.224	0.347	0.044
-358.610	149.783	-0.138	-0.188
-357.596	-142.080	0.106	0.011
-356.581	-113.562	0.075	-0.015
-355.566	138.668	-0.060	-0.079
-354.552	800.000	0.050	-0.220
-353.537	793.492	-0.018	0.050
-352.523	-137.321	-0.172	0.020
-351.508	22.259	-0.122	-0.100
-350.493	-200.000	0.040	-0.176
-349.479	378.390	-0.012	-0.025
-348.464	-200.000	-0.059	0.295
-347.450	-200.000	-0.035	-0.239
-346.435	19.962	0.251	-0.203
-345.420	-200.000	-0.043	-0.497
-344.406	800.000	-0.046	-0.171
-343.391	-200.000	-0.013	0.214
-342.377	-200.000	-0.061	0.455
-341.362	-135.011	-0.142	0.017
-340.348	-63.642	-0.238	0.098
-339.333	81.547	0.250	-0.272
-338.318	-52.235	-0.102	0.048
-337.304	292.564	-0.079	-0.144
-336.289	800.000	-0.185	0.550
-335.275	800.000	0.131	0.445
-334.260	68.601	-0.140	0.144
-333.245	-62.582	-0.480	-0.200
-332.231	-200.000	-0.038	-0.182
-331.216	-132.637	-0.305	-0.039
-330.202	-200.000	0.019	0.426
-329.187	26.015	-0.071	-0.059
-328.172	188.216	-0.222	-0.332
-327.158	120.810	0.150	-0.187
-326.143	295.726	0.157	-0.289
-325.129	-127.228	-0.188	-0.028
-324.114	-156.673	-0.217	-0.013
-323.099	-51.474	0.105	-0.049
-322.085	2.820	0.086	0.063
-321.070	214.629	0.149	0.237
-320.056	9.104	-0.217	-0.164
-319.041	148.898	0.103	-0.139
-318.026	471.248	-0.115	0.259
-317.012	-45.302	0.155	-0.077
-315.997	800.000	0.095	0.286
-314.983	-14.942	0.331	0.213
-313.968	573.741	0.150	0.367
-312.953	237.759	0.110	0.184
-311.939	91.056	0.179	0.202
-310.924	-2.213	0.065	0.046
-309.910	-200.000	-0.068	0.334
-308.895	-143.590	-0.344	0.033
-307.880	11.724	-0.205	-0.158
-306.866	-200.000	-0.036	-0.264
-305.851	-122.685	-0.044	0.007
-304.837	-46.599	0.337	0.166
-303.822	-167.915	-0.278	-0.011
-302.807	132.966	-0.126	0.163
-301.793	36.232	0.281	0.248
-300.778	-131.148	0.175	0.023
-299.764	-143.270	0.164	0.016
-298.749	79.389	0.137	0.147
-297.735	201.303	-0.052	-0.080
-296.720	260.953	-0.169	-0.293
-295.705	-52.859	0.355	0.164
-294.691	-200.000	-0.009	-0.041
-293.676	-57.161	0.072	-0.032
-292.662	-123.144	-0.237	0.038
-291.647	-125.996	0.197	0.030
-290.632	-102.057	0.064	-0.016
-289.618	-102.880	-0.286	-0.068
-288.603	487.062	-0.071	0.161
-287.589	-65.852	-0.152	-0.061
-286.574	108.028	-0.252	0.301
-285.559	485.846	-0.143	-0.326
-284.545	800.000	-0.038	0.134
-283.530	-200.000	-0.012	-0.074
-282.516	-45.510	0.126	-0.063
-281.501	-115.177	-0.323	0.061
-280.486	-70.519	-0.308	0.117
-279.472	-100.414	0.231	-0.057
-278.457	-20.220	-0.262	-0.162
-277.443	-62.378	0.102	-0.043
-276.428	248.683	-0.109	0.184
-275.413	-66.059	0.230	0.092
-274.399	-72.278	-0.208	-0.077
-273.384	4.242	0.166	-0.121
-272.370	17.412	0.377	0.300
-271.355	800.000	-0.098	-0.338
-270.340	45.066	0.257	-0.237
-269.326	-200.000	0.007	-0.245
-268.311	-101.109	0.411	-0.101
-267.297	-200.000	-0.002	0.034
-266.282	-122.776	-0.232	0.038
-265.267	34.332	-0.105	-0.092
-264.253	-112.189	0.154	-0.031
-263.238	-200.000	0.016	-0.317
-262.224	-200.000	0.008	0.137
-261.209	800.000	-0.096	0.306
-260.195	-99.377	-0.380	-0.096
-259.180	56.915	0.043	0.042
-258.165	-72.468	0.100	0.037
-257.151	-35.104	0.136	-0.074
-256.136	69.372	0.183	-0.188
-255.122	317.469	-0.214	-0.404
-254.107	-17.023	0.016	0.010
-253.092	166.426	-0.172	-0.244
-252.078	-36.047	0.076	-0.041
-251.063	800.000	0.088	-0.261
-250.049	41.269	0.156	-0.141
-249.034	5.026	0.161	-0.119
-248.019	-100.595	-0.154	0.038
-247.005	-64.093	-0.067	-0.027
-245.990	-119.858	-0.306	-0.053
-244.976	-200.000	-0.010	-0.309
-243.961	60.155	-0.153	0.151
-242.946	37.883	0.084	-0.074
-241.932	52.294	0.085	-0.081
-240.917	-58.252	0.342	-0.149
-239.903	76.288	-0.297	-0.315
-238.888	148.070	-0.007	-0.009
-237.873	-200.000	-0.011	-0.067
-236.859	222.943	0.126	0.203
-235.844	-200.000	0.005	-0.063
-234.830	-200.000	0.060	-0.478
-233.815	-7.288	0.146	-0.099
-232.800	-71.155	0.313	-0.117
-231.786	-77.524	-0.447	-0.155
-230.771	189.718	-0.093	-0.140
-229.757	10.676	0.089	0.068
-228.742	22.541	-0.243	0.198
-227.727	360.465	-0.062	-0.123
-226.713	98.071	0.087	-0.100
-225.698	228.473	0.075	0.122
-224.684	-200.000	-0.051	0.353
-223.669	175.479	-0.245	0.355
-222.655	-155.618	0.020	-0.001
-221.640	129.980	0.069	-0.088
-220.625	466.070	0.092	0.206
-219.611	134.075	0.038	0.049
-218.596	-130.559	0.153	-0.021
-217.582	-200.000	0.001	-0.129
-216.567	-122.169	-0.144	0.023
-215.552	-160.593	0.209	-0.011
-214.538	-57.089	-0.280	-0.123
-213.523	800.000	0.003	-0.008
-212.509	-157.365	0.095	-0.006
-211.494	-200.000	-0.007	0.193
-210.479	-7.540	-0.076	0.052
-209.465	-52.362	0.048	-0.022
-208.450	-200.000	-0.008	0.148
-207.436	119.788	0.150	0.185
-206.421	-25.551	-0.213	-0.126
-205.406	-200.000	0.021	0.222
-204.392	41.102	-0.144	0.130
-203.377	60.347	-0.144	0.142
-202.363	-84.180	0.194	0.061
-201.348	-200.000	0.013	-0.118
-200.333	-200.000	-0.049	-0.235
-199.319	208.849	0.125	-0.195
-198.304	-200.000	0.005	0.089
-197.290	-32.606	0.097	0.054
-196.275	-50.792	0.199	0.094
-195.260	800.000	0.106	0.292
-194.246	-200.000	-0.007	-0.066
-193.231	-200.000	0.197	-0.000
-192.217	-200.000	-0.014	0.464
-191.202	54.318	0.016	0.015
-190.187	185.757	-0.187	0.277
-189.173	-200.000	-0.020	-0.154
-188.158	140.325	-0.117	0.153
-187.144	16.920	-0.195	0.154
-186.129	176.118	0.094	-0.137
-185.114	336.194	0.057	0.110
-184.100	769.273	0.140	0.379
-183.085	-200.000	-0.022	-0.146
-182.071	384.736	0.138	0.284
-181.056	131.155	-0.119	-0.153
-180.042	-0.743	0.058	-0.041
-179.027	-140.919	-0.062	0.006
-178.012	203.431	0.093	0.144
-176.998	-3.003	0.085	-0.059
-175.983	47.339	0.060	-0.056
-174.969	35.519	-0.063	0.055
-173.954	-66.820	0.131	0.052
-172.939	274.826	0.043	-0.076
-171.925	-9.536	-0.168	0.112
-170.910	501.041	0.100	0.229
-169.896	102.983	0.077	0.090
-168.881	800.000	0.048	-0.193
-167.866	800.000	-0.078	-0.313
-166.852	-26.764	-0.017	0.010
-165.837	-200.000	-0.002	-0.093
-164.823	284.822	-0.200	-0.358
-163.808	-41.056	0.229	0.118
-162.793	170.495	-0.034	-0.049
-161.779	151.049	-0.090	-0.122
-160.764	-200.000	0.015	-0.282
-159.750	-8.736	-0.303	-0.203
-158.735	800.000	-0.110	0.318
-157.720	-78.923	-0.110	0.037
-156.706	163.761	0.145	0.204
-155.691	46.270	0.066	-0.061
-154.677	13.477	0.126	-0.097
-153.662	800.000	0.021	-0.075
-152.647	-34.160	-0.102	-0.056
-151.633	800.000	0.007	0.021
-150.618	41.839	0.104	-0.094
-149.604	12.022	-0.211	-0.162
-148.589	-95.896	0.077	0.020
-147.574	-35.295	-0.148	-0.080
-146.560	-56.567	-0.057	-0.025
-145.545	630.050	0.107	-0.271
-144.531	-200.000	0.069	-0.000
-143.516	-86.665	0.116	0.036
-142.502	-113.354	0.221	-0.043
-141.487	-63.227	0.241	-0.099
-140.472	59.949	-0.283	-0.279
-139.458	-200.000	-0.021	-0.111
-138.443	-18.779	0.114	-0.071
-137.429	-62.000	-0.065	0.027
-136.414	-200.000	-0.007	-0.183
-135.399	174.590	-0.107	-0.154
-134.385	-104.114	-0.203	-0.047
-133.370	-38.300	-0.063	0.033
-132.356	72.553	-0.140	-0.145
-131.341	-200.000	-0.003	-0.183
-130.326	82.766	-0.158	-0.171
-129.312	-93.309	0.208	-0.057
-128.297	223.928	0.036	-0.058
-127.283	133.179	-0.255	0.328
-126.268	-200.000	0.015	-0.126
-125.253	-200.000	-0.017	-0.178
-124.239	101.373	0.168	-0.195
-123.224	-122.781	-0.095	-0.015
-122.210	112.794	0.227	0.274
