DTS Sentinel unit serial number:	SN413079Multiplexer serial number:	ORYXHardware model number:	OX4-SRSoftware version number:	ORYX F/W v4.00 Oryx Data Collector v3.7.2.0data status	okinstallation	princeton_trtdifferential loss correction	single-endedforward channel	channel 3reverse channel	N/Adate	2019/09/19time	13:44:35forward acquisition time	60.00reverse acquisition time	0.00gamma	496.2192k internal	0.2324k external	0.2324temperature offset calibration	0.9997default loss term (dB/km)	0.3790temperature slope calibration	1.0000multiplexer offset coefficient	1.0000multiplexer slope coefficient	1.0000fibre end	0.00T internal ref (°C)	30.52T ext. ref 1 (°C)	0.99T ext. ref 2 (°C)	27.74length (m)	temperature (°C)	Stokes	anti-Stokes-747.200	48.658	0.163	-0.154
-746.185	-200.000	-0.018	0.383
-745.171	28.016	0.087	0.074
-744.156	800.000	0.057	-0.224
-743.142	-162.589	0.303	0.015
-742.127	-16.094	0.181	0.116
-741.112	800.000	-0.065	-0.250
-740.098	134.561	0.132	-0.173
-739.083	-84.295	0.370	0.118
-738.069	-177.721	-0.386	0.009
-737.054	-200.000	-0.030	0.220
-736.039	-139.409	0.028	-0.003
-735.025	-200.000	0.001	0.013
-734.010	800.000	-0.031	-0.100
-732.996	-200.000	0.007	-0.151
-731.981	-63.830	0.307	-0.127
-730.966	-101.546	-0.235	0.058
-729.952	123.156	0.095	0.120
-728.937	97.904	-0.072	-0.083
-727.923	23.348	0.086	0.072
-726.908	-20.337	-0.216	-0.134
-725.894	-96.419	0.413	-0.110
-724.879	-200.000	0.001	0.053
-723.864	-71.259	-0.325	-0.123
-722.850	76.807	-0.147	-0.158
-721.835	25.316	0.119	-0.100
-720.821	425.604	-0.119	0.259
-719.806	201.713	-0.128	0.199
-718.791	-190.917	0.163	0.002
-717.777	800.000	-0.016	0.066
-716.762	-73.921	0.078	-0.029
-715.748	88.017	-0.238	-0.266
-714.733	267.081	0.178	-0.314
-713.718	27.966	-0.413	-0.351
-712.704	684.159	-0.103	-0.272
-711.689	592.900	-0.140	0.349
-710.675	129.072	0.154	0.198
-709.660	-164.903	0.265	-0.012
-708.645	11.726	-0.161	0.124
-707.631	-118.299	0.283	-0.051
-706.616	800.000	-0.041	-0.170
-705.602	-124.907	0.194	-0.030
-704.587	-61.700	-0.126	-0.053
-703.572	142.220	0.100	0.133
-702.558	-72.033	0.514	0.193
-701.543	451.261	0.037	0.081
-700.529	-100.803	-0.078	0.019
-699.514	-200.000	0.066	-0.403
-698.499	422.223	-0.166	0.358
-697.485	106.243	-0.128	0.152
-696.470	-133.005	-0.234	-0.030
-695.456	401.979	0.044	0.093
-694.441	-45.824	-0.281	0.140
-693.426	-27.540	-0.105	-0.062
-692.412	-200.000	0.007	-0.136
-691.397	800.000	-0.059	0.177
-690.383	139.781	-0.173	-0.230
-689.368	-117.220	-0.160	-0.029
-688.354	462.705	0.055	-0.123
-687.339	-130.647	-0.224	-0.030
-686.324	23.967	-0.505	0.419
-685.310	-29.527	-0.118	-0.068
-684.295	158.325	-0.149	0.208
-683.281	-9.899	0.068	0.045
-682.266	170.489	-0.130	0.188
-681.251	-62.664	-0.208	0.087
-680.237	-29.160	-0.269	-0.155
-679.222	249.383	0.027	0.045
-678.208	-23.648	0.147	0.089
-677.193	-200.000	0.025	-0.373
-676.178	48.964	-0.117	-0.111
-675.164	-154.469	0.153	-0.010
-674.149	-200.000	0.003	0.254
-673.135	420.214	0.114	-0.245
-672.120	-56.122	-0.115	0.052
-671.105	-77.789	0.316	0.110
-670.091	-200.000	0.047	0.449
-669.076	127.366	0.013	-0.016
-668.062	-112.973	-0.425	-0.085
-667.047	-86.058	0.195	0.060
-666.032	-150.845	-0.389	0.030
-665.018	-200.000	-0.001	0.106
-664.003	-52.779	-0.129	-0.060
-662.989	-97.312	-0.215	0.056
-661.974	153.581	0.057	0.079
-660.959	206.604	0.209	0.327
-659.945	-28.198	-0.069	-0.040
-658.930	-29.077	0.217	-0.125
-657.916	-61.141	0.207	-0.088
-656.901	-127.436	-0.302	-0.044
-655.886	7.225	-0.261	-0.196
-654.872	-49.685	0.260	-0.124
-653.857	-200.000	0.022	-0.281
-652.843	800.000	-0.055	-0.175
-651.828	-131.115	-0.315	-0.042
-650.814	800.000	-0.020	-0.086
-649.799	62.675	-0.241	-0.242
-648.784	-165.342	0.271	-0.012
-647.770	25.498	0.077	-0.064
-646.755	301.275	-0.096	-0.178
-645.741	-200.000	0.059	-0.297
-644.726	-155.758	-0.135	0.009
-643.711	-200.000	-0.026	-0.206
-642.697	800.000	-0.015	-0.045
-641.682	-120.729	-0.243	0.041
-640.668	-86.802	-0.067	-0.021
-639.653	573.088	-0.075	0.183
-638.638	112.367	-0.167	-0.203
-637.624	107.450	0.153	-0.182
-636.609	57.674	-0.125	0.123
-635.595	251.728	0.060	-0.102
-634.580	66.718	0.088	0.090
-633.565	800.000	-0.054	-0.231
-632.551	-88.770	-0.095	0.028
-631.536	32.270	0.161	-0.140
-630.522	-52.376	-0.126	0.059
-629.507	800.000	-0.127	0.441
-628.492	17.686	-0.241	0.192
-627.478	-18.773	0.113	0.070
-626.463	-68.620	0.060	-0.023
-625.449	80.936	-0.141	0.153
-624.434	-104.352	-0.440	0.102
-623.419	71.511	0.100	-0.104
-622.405	-200.000	0.004	0.041
-621.390	34.531	-0.077	-0.067
-620.376	-63.058	0.163	-0.067
-619.361	-37.318	-0.261	-0.140
-618.346	18.932	0.036	-0.029
-617.332	-200.000	-0.014	-0.087
-616.317	250.487	-0.155	0.264
-615.303	-144.509	-0.167	0.016
-614.288	-165.514	-0.198	0.009
-613.273	149.203	-0.061	-0.083
-612.259	-170.375	0.242	0.009
-611.244	-200.000	0.033	-0.216
-610.230	105.745	-0.221	0.263
-609.215	-200.000	0.296	-0.000
-608.201	-95.667	0.268	-0.072
-607.186	-200.000	0.063	0.383
-606.171	-4.439	-0.026	0.018
-605.157	-50.465	0.346	-0.164
-604.142	109.750	-0.162	0.195
-603.128	132.005	0.099	-0.128
-602.113	-32.789	-0.100	-0.056
-601.098	800.000	0.095	-0.289
-600.084	571.158	-0.084	-0.204
-599.069	-120.599	0.235	-0.040
-598.055	-200.000	-0.042	-0.242
-597.040	-200.000	-0.050	-0.219
-596.025	-59.035	-0.478	0.207
-595.011	20.775	-0.137	-0.111
-593.996	-143.344	-0.144	0.014
-592.982	128.896	-0.152	-0.195
-591.967	-100.922	0.050	-0.012
-590.952	156.128	-0.079	0.109
-589.938	83.926	0.082	0.090
-588.923	140.655	-0.076	0.100
-587.909	61.457	-0.156	0.156
-586.894	-75.827	-0.184	0.065
-585.879	-200.000	-0.212	-0.001
-584.865	-26.205	-0.046	0.027
-583.850	-71.204	0.251	-0.094
-582.836	63.114	-0.063	0.063
-581.821	-130.040	0.220	0.030
-580.806	-20.519	-0.293	0.180
-579.792	800.000	-0.058	0.202
-578.777	212.081	-0.054	-0.086
-577.763	-103.455	0.134	-0.032
-576.748	-77.800	0.192	-0.066
-575.733	7.293	0.172	-0.128
-574.719	46.628	-0.134	-0.124
-573.704	86.316	-0.052	-0.057
-572.690	-51.863	0.071	0.033
-571.675	18.025	0.136	-0.109
-570.661	-130.786	0.238	0.032
-569.646	-117.754	-0.232	-0.042
-568.631	-7.496	0.176	-0.119
-567.617	800.000	-0.038	-0.136
-566.602	66.467	-0.401	-0.409
-565.588	66.958	-0.330	0.337
-564.573	-140.703	-0.278	-0.029
-563.558	-200.000	0.022	-0.338
-562.544	74.835	0.087	0.092
-561.529	-19.200	-0.104	-0.065
-560.515	355.428	0.050	0.099
-559.500	6.259	-0.117	-0.087
-558.485	259.740	-0.116	-0.201
-557.471	-141.815	-0.018	0.002
-556.456	514.921	0.069	-0.162
-555.442	332.298	0.055	-0.107
-554.427	227.948	-0.117	-0.191
-553.412	-166.275	-0.121	0.005
-552.398	-77.992	-0.092	0.032
-551.383	530.188	0.156	0.369
-550.369	-200.000	0.024	-0.334
-549.354	232.815	0.063	-0.103
-548.339	78.814	-0.259	0.278
-547.325	800.000	0.102	-0.386
-546.310	800.000	0.145	-0.446
-545.296	-72.805	0.532	-0.196
-544.281	303.269	-0.041	-0.076
-543.266	-91.183	-0.325	0.093
-542.252	-63.567	0.079	0.032
-541.237	-133.837	0.381	-0.047
-540.223	362.575	-0.076	-0.152
-539.208	2.175	0.053	0.039
-538.193	662.325	-0.216	-0.557
-537.179	-1.429	0.273	-0.193
-536.164	-200.000	0.001	0.003
-535.150	195.536	0.062	-0.095
-534.135	-62.860	0.181	-0.075
-533.121	-200.000	0.005	-0.118
-532.106	-69.431	-0.249	0.096
-531.091	800.000	-0.016	-0.069
-530.077	-7.161	0.257	-0.174
-529.062	590.655	0.088	0.218
-528.048	-69.671	-0.272	-0.104
-527.033	19.246	0.151	0.122
-526.018	30.629	0.015	0.013
-525.004	-40.670	-0.439	0.228
-523.989	146.171	-0.176	0.237
-522.975	800.000	-0.033	-0.104
-521.960	-39.834	0.018	-0.009
-520.945	800.000	0.133	-0.375
-519.931	800.000	0.032	-0.101
-518.916	800.000	-0.060	-0.221
-517.902	256.340	0.176	-0.302
-516.887	-70.699	0.135	0.051
-515.872	-63.953	-0.006	0.002
-514.858	-200.000	0.006	0.085
-513.843	-200.000	-0.016	0.319
-512.829	11.076	0.465	-0.355
-511.814	-93.648	-0.015	0.004
-510.799	36.463	0.115	0.102
-509.785	-144.611	-0.025	-0.002
-508.770	-200.000	-0.023	0.107
-507.756	302.568	-0.070	-0.130
-506.741	-110.878	-0.163	0.034
-505.726	-96.893	0.135	-0.036
-504.712	11.550	0.117	0.090
-503.697	-45.228	-0.362	0.180
-502.683	685.730	0.061	0.159
-501.668	-54.944	-0.141	-0.064
-500.653	-200.000	0.010	0.171
-499.639	-200.000	0.043	0.429
-498.624	-11.698	0.108	-0.071
-497.610	-3.811	0.178	-0.124
-496.595	-31.407	-0.263	-0.148
-495.581	550.536	-0.177	-0.425
-494.566	-53.613	-0.100	-0.046
-493.551	134.962	0.137	-0.178
-492.537	0.057	-0.049	0.035
-491.522	342.978	-0.089	0.173
-490.508	294.477	0.141	-0.257
-489.493	-200.000	0.018	0.251
-488.478	181.146	0.078	0.115
-487.464	800.000	-0.062	-0.181
-486.449	-200.000	0.002	-0.265
-485.435	185.418	0.026	0.039
-484.420	65.737	0.138	0.140
-483.405	-81.164	-0.179	-0.059
-482.391	-109.884	0.230	-0.048
-481.376	-152.883	-0.062	-0.004
-480.362	297.015	0.065	-0.120
-479.347	-104.974	-0.155	0.036
-478.332	-12.121	-0.154	0.101
-477.318	14.386	0.119	-0.093
-476.303	107.169	0.204	-0.242
-475.289	109.815	-0.166	0.199
-474.274	373.478	0.074	-0.150
-473.259	-177.612	-0.143	-0.003
-472.245	-200.000	-0.002	0.142
-471.230	-38.125	-0.120	-0.064
-470.216	160.983	-0.089	0.124
-469.201	-200.000	-0.204	0.001
-468.186	-128.812	-0.289	-0.041
-467.172	457.630	-0.072	-0.160
-466.157	170.353	-0.059	0.084
-465.143	221.680	0.185	0.297
-464.128	-168.690	0.021	0.001
-463.113	-76.236	-0.315	0.111
-462.099	-98.507	0.363	0.093
-461.084	72.239	-0.025	-0.026
-460.070	-200.000	0.002	-0.306
-459.055	-200.000	0.031	-0.241
-458.040	-169.486	-0.067	0.002
-457.026	-167.536	-0.256	0.010
-456.011	800.000	0.042	-0.130
-454.997	-200.000	-0.021	0.234
-453.982	459.428	0.022	0.048
-452.968	-43.443	0.161	0.081
-451.953	77.488	-0.270	0.286
-450.938	800.000	-0.071	0.242
-449.924	-15.087	0.154	0.098
-448.909	8.046	0.199	0.149
-447.895	800.000	-0.100	0.332
-446.880	-200.000	0.059	-0.338
-445.865	-29.953	0.264	-0.150
-444.851	-45.967	-0.189	0.093
-443.836	-129.206	-0.175	0.024
-442.822	6.571	0.185	0.137
-441.807	-200.000	-0.017	0.311
-440.792	-7.644	0.008	0.005
-439.778	71.305	0.181	0.188
-438.763	427.441	-0.110	-0.238
-437.749	457.060	-0.150	0.331
-436.734	170.141	-0.236	-0.336
-435.719	-95.310	-0.363	0.097
-434.705	-98.278	0.134	-0.034
-433.690	153.600	-0.225	0.307
-432.676	-58.253	-0.079	0.034
-431.661	-11.327	-0.255	-0.168
-430.646	26.989	-0.304	-0.254
-429.632	800.000	-0.087	0.257
-428.617	800.000	0.055	-0.177
-427.603	-200.000	0.049	-0.469
-426.588	91.476	-0.167	-0.187
-425.573	63.325	-0.150	0.150
-424.559	134.722	0.249	-0.322
-423.544	800.000	0.137	-0.437
-422.530	-118.554	0.389	-0.068
-421.515	-126.890	0.204	-0.030
-420.500	20.966	-0.179	0.145
-419.486	-4.616	-0.275	-0.189
-418.471	-66.660	0.358	-0.141
-417.457	-200.000	0.013	-0.149
-416.442	800.000	-0.050	-0.202
-415.428	25.051	-0.193	0.160
-414.413	658.176	-0.064	-0.163
-413.398	730.930	-0.091	-0.244
-412.384	-54.007	-0.228	-0.104
-411.369	-114.830	0.193	0.037
-410.355	-71.027	-0.158	-0.059
-409.340	154.511	0.113	-0.154
-408.325	98.804	-0.186	0.213
-407.311	363.936	0.025	0.049
-406.296	166.192	-0.123	0.173
-405.282	211.188	0.151	0.236
-404.267	198.937	0.066	-0.101
-403.252	-86.904	0.309	0.094
-402.238	-34.092	-0.281	0.154
-401.223	-52.733	0.060	-0.028
-400.209	619.641	-0.080	0.201
-399.194	70.037	0.170	-0.174
-398.179	-200.000	0.002	-0.325
-397.165	-31.195	0.068	-0.038
-396.150	800.000	-0.071	0.274
-395.136	-119.238	-0.390	-0.068
-394.121	-70.517	-0.100	0.038
-393.106	444.391	0.084	-0.184
-392.092	19.964	0.304	-0.244
-391.077	-93.710	-0.402	-0.110
-390.063	-125.968	-0.172	-0.026
-389.048	75.664	0.160	-0.169
-388.033	-72.902	-0.254	0.093
-387.019	411.896	-0.188	0.397
-386.004	-112.976	0.343	-0.067
-384.990	-80.529	0.312	-0.104
-383.975	22.792	0.166	0.135
-382.960	204.191	0.066	-0.102
-381.946	93.694	-0.139	0.156
-380.931	137.948	0.139	-0.181
-379.917	298.885	0.251	0.459
-378.902	-200.000	-0.027	-0.213
-377.888	-52.320	-0.176	-0.081
-376.873	94.009	-0.107	0.121
-375.858	303.699	0.082	0.151
-374.844	103.068	0.224	-0.261
-373.829	145.985	0.048	-0.063
-372.815	-37.278	0.026	0.014
-371.800	-200.000	-0.008	-0.242
-370.785	98.348	0.075	0.086
-369.771	-24.530	0.171	0.101
-368.756	-118.448	0.124	-0.022
-367.742	-200.000	-0.016	0.084
-366.727	-149.287	0.149	-0.012
-365.712	-52.576	-0.154	0.071
-364.698	800.000	0.017	-0.061
-363.683	125.986	-0.199	0.250
-362.669	59.918	-0.235	-0.231
-361.654	-128.783	-0.084	-0.012
-360.639	132.543	-0.043	-0.055
-359.625	-90.371	0.341	-0.098
-358.610	16.452	0.311	0.244
-357.596	541.692	0.034	-0.081
-356.581	-200.000	0.024	-0.141
-355.566	-31.608	0.066	0.037
-354.552	680.484	0.113	-0.294
-353.537	421.613	0.091	-0.193
-352.523	30.428	0.095	0.081
-351.508	-63.227	-0.188	0.077
-350.493	-37.623	0.231	-0.122
-349.479	-24.862	0.244	0.144
-348.464	732.622	-0.089	-0.236
-347.450	-99.362	-0.129	0.032
-346.435	-200.000	0.019	-0.085
-345.420	-61.483	0.214	0.089
-344.406	800.000	-0.082	0.251
-343.391	273.705	0.161	0.282
-342.377	-44.363	-0.182	-0.091
-341.362	800.000	0.086	0.324
-340.348	-200.000	0.004	0.266
-339.333	-109.894	0.331	0.069
-338.318	31.585	-0.146	-0.125
-337.304	-200.000	-0.005	-0.294
-336.289	137.298	-0.174	-0.227
-335.275	537.639	0.135	-0.319
-334.260	800.000	0.081	0.273
-333.245	-92.591	-0.204	-0.057
-332.231	419.225	0.079	-0.168
-331.216	3.866	0.214	0.155
-330.202	352.710	0.108	0.213
-329.187	-173.845	0.200	0.006
-328.172	605.588	-0.181	0.447
-327.158	214.360	-0.170	0.267
-326.143	-99.799	-0.221	-0.055
-325.129	-200.000	0.058	0.304
-324.114	-172.260	0.338	0.011
-323.099	-34.674	0.029	0.016
-322.085	-148.287	-0.477	0.039
-321.070	-200.000	-0.005	0.155
-320.056	-200.000	-0.028	0.293
-319.041	-183.758	0.346	-0.006
-318.026	403.197	-0.077	-0.160
-317.012	92.793	-0.219	0.245
-315.997	-146.868	-0.060	0.005
-314.983	-200.000	0.009	-0.053
-313.968	-125.041	0.160	-0.024
-312.953	733.857	0.053	0.142
-311.939	59.978	0.261	0.256
-310.924	-150.833	0.171	0.013
-309.910	102.504	0.210	-0.243
-308.895	-84.453	-0.181	0.057
-307.880	87.906	-0.115	-0.127
-306.866	-86.510	-0.251	-0.077
-305.851	414.410	0.112	0.236
-304.837	355.952	0.048	0.096
-303.822	385.820	-0.068	0.138
-302.807	-87.378	0.158	0.048
-301.793	-200.000	0.054	0.357
-300.778	-69.134	0.159	0.061
-299.764	-12.214	0.291	-0.189
-298.749	-178.180	0.161	-0.004
-297.735	318.661	-0.020	0.038
-296.720	800.000	-0.077	-0.240
-295.705	113.366	-0.272	-0.328
-294.691	342.648	-0.123	-0.239
-293.676	-200.000	0.012	-0.079
-292.662	-44.491	0.030	-0.015
-291.647	-116.318	0.306	-0.056
-290.632	-200.000	0.035	0.266
-289.618	-5.963	-0.053	0.036
-288.603	-200.000	0.088	0.664
-287.589	133.468	-0.046	0.059
-286.574	800.000	-0.081	0.249
-285.559	206.225	-0.102	0.158
-284.545	228.396	0.062	-0.100
-283.530	-200.000	-0.004	0.101
-282.516	-72.623	0.168	0.061
-281.501	-200.000	-0.023	0.295
-280.486	-188.295	0.078	0.001
-279.472	-144.548	0.096	-0.009
-278.457	-69.872	0.307	-0.116
-277.443	-200.000	-0.003	-0.077
-276.428	-78.011	0.125	0.043
-275.413	-200.000	-0.063	0.333
-274.399	10.526	-0.217	-0.164
-273.384	21.024	-0.042	0.034
-272.370	-160.926	-0.030	0.002
-271.355	-53.867	-0.241	-0.109
-270.340	-79.353	0.203	0.068
-269.326	270.130	0.096	0.166
-268.311	-108.504	-0.062	-0.013
-267.297	11.354	-0.120	-0.091
-266.282	12.262	0.284	-0.216
-265.267	100.315	0.069	0.079
-264.253	95.949	-0.107	0.121
-263.238	-163.656	-0.517	-0.024
-262.224	-177.201	0.094	0.002
-261.209	-50.979	0.231	0.108
-260.195	100.765	0.033	0.038
-259.180	-78.336	-0.197	-0.067
-258.165	39.536	0.281	0.249
-257.151	-200.000	-0.054	0.278
-256.136	311.453	-0.043	0.080
-255.122	-30.097	-0.422	-0.237
-254.107	89.009	0.104	0.114
-253.092	-169.642	0.197	-0.007
-252.078	175.416	0.138	0.198
-251.063	-200.000	0.001	0.218
-250.049	-200.000	-0.019	0.166
-249.034	141.912	-0.046	0.061
-248.019	-73.782	0.174	-0.063
-247.005	676.089	-0.118	0.304
-245.990	-103.041	0.123	0.029
-244.976	-200.000	-0.053	-0.252
-243.961	-46.702	-0.174	-0.084
-242.946	379.651	0.104	0.212
-241.932	-71.450	-0.149	-0.055
-240.917	-133.266	0.086	-0.011
-239.903	-106.244	0.374	-0.083
-238.888	-170.270	-0.121	0.004
-237.873	-60.012	0.166	0.070
-236.859	-31.156	-0.117	0.065
-235.844	610.722	0.023	0.057
-234.830	411.255	-0.166	-0.349
-233.815	-67.837	-0.116	0.045
-232.800	-109.812	-0.058	0.012
-231.786	-15.622	0.052	-0.033
-230.771	800.000	0.141	0.498
-229.757	-72.509	0.095	-0.035
-228.742	414.375	0.088	-0.185
-227.727	13.932	0.066	-0.051
-226.713	-113.530	0.233	0.045
-225.698	32.837	0.177	-0.152
-224.684	-200.000	0.007	-0.260
-223.669	800.000	-0.027	-0.101
-222.655	-39.649	0.085	0.044
-221.640	800.000	-0.087	0.295
-220.625	403.760	0.077	0.161
-219.611	-20.647	0.158	-0.096
-218.596	-200.000	0.012	-0.177
-217.582	-200.000	0.002	-0.298
-216.567	103.168	-0.129	-0.149
-215.552	-89.600	0.273	0.079
-214.538	192.582	0.138	-0.205
-213.523	-26.434	0.212	0.123
-212.509	-21.961	-0.112	-0.067
-211.494	-66.929	0.217	-0.085
-210.479	-200.000	0.027	0.161
-209.465	-148.650	0.189	-0.015
-208.450	19.436	0.176	0.140
-207.436	6.509	-0.108	-0.079
-206.421	85.521	-0.133	0.144
-205.406	434.020	-0.151	0.325
-204.392	-200.000	0.000	0.405
-203.377	189.333	0.051	-0.076
-202.363	800.000	-0.030	0.092
-201.348	291.165	-0.202	0.362
-200.333	70.025	0.246	0.251
-199.319	-26.236	-0.163	0.095
-198.304	60.418	0.145	0.142
-197.290	-200.000	0.002	0.028
-196.275	111.054	0.164	-0.195
-195.260	41.888	0.056	-0.050
-194.246	-23.338	0.230	-0.137
-193.231	-200.000	-0.036	0.522
-192.217	123.765	0.132	-0.164
-191.202	244.291	0.016	-0.027
-190.187	-36.130	-0.250	-0.133
-189.173	-72.512	0.060	0.022
-188.158	-125.637	0.259	-0.039
-187.144	-1.334	0.096	0.067
-186.129	52.793	0.158	-0.149
-185.114	-41.924	0.328	-0.166
-184.100	-134.356	0.026	0.003
-183.085	438.360	0.022	-0.047
-182.071	476.374	0.100	0.223
-181.056	-49.045	0.501	0.237
-180.042	229.238	-0.296	-0.476
-179.027	800.000	-0.083	0.233
-178.012	-10.788	0.099	-0.065
-176.998	257.080	0.012	0.020
-175.983	800.000	-0.089	-0.312
-174.969	-64.581	-0.274	-0.110
-173.954	-200.000	0.007	0.094
-172.939	-169.598	-0.291	-0.010
-171.925	465.063	0.067	-0.147
-170.910	84.774	-0.192	-0.208
-169.896	-200.000	0.021	-0.110
-168.881	-159.330	-0.042	0.002
-167.866	800.000	0.032	0.103
-166.852	-81.630	0.017	-0.006
-165.837	-200.000	0.023	0.102
-164.823	-34.604	-0.265	0.143
-163.808	800.000	0.054	-0.153
-162.793	217.852	-0.158	0.248
-161.779	-22.501	0.022	-0.013
-160.764	-200.000	-0.030	0.279
-159.750	591.980	-0.122	0.298
-158.735	-121.582	-0.019	-0.003
-157.720	-76.299	-0.197	0.069
-156.706	-111.503	-0.055	-0.011
-155.691	-99.664	-0.176	0.044
-154.677	-35.182	-0.224	0.120
-153.662	83.673	0.052	0.056
-152.647	-60.182	-0.037	-0.016
-151.633	-34.095	0.097	0.052
-150.618	-95.959	0.256	-0.067
-149.604	3.506	-0.247	0.178
-148.589	-54.593	0.175	0.078
-147.574	-43.829	0.179	-0.089
-146.560	-25.581	0.171	-0.100
-145.545	-15.066	-0.057	0.036
-144.531	-200.000	0.026	0.125
-143.516	84.355	0.157	-0.169
-142.502	117.704	0.244	0.296
-141.487	800.000	-0.064	0.208
-140.472	-183.270	0.272	0.005
-139.458	-78.708	-0.241	-0.081
-138.443	-62.410	-0.228	-0.094
-137.429	-200.000	-0.113	0.000
-136.414	-22.641	-0.320	-0.191
-135.399	-200.000	-0.026	0.122
-134.385	58.235	0.169	0.163
-133.370	-7.636	-0.075	0.050
-132.356	800.000	-0.093	-0.330
-131.341	800.000	-0.030	-0.111
-130.326	-145.189	-0.315	-0.028
-129.312	-56.438	-0.012	-0.005
-128.297	-11.769	-0.177	0.114
-127.283	454.460	-0.108	0.235
-126.268	-52.455	-0.189	-0.086
-125.253	-8.165	0.152	0.101
-124.239	63.403	-0.212	0.209
-123.224	-108.078	-0.057	0.012
-122.210	-200.000	-0.003	0.156
-121.195	-24.994	0.203	-0.118
