DTS Sentinel unit serial number:	SN413079Multiplexer serial number:	ORYXHardware model number:	OX4-SRSoftware version number:	ORYX F/W v4.00 Oryx Data Collector v3.7.2.0data status	okinstallation	princeton_trtdifferential loss correction	single-endedforward channel	channel 3reverse channel	N/Adate	2019/09/18time	17:16:35forward acquisition time	60.00reverse acquisition time	0.00gamma	496.2192k internal	0.2293k external	0.2293temperature offset calibration	0.9986default loss term (dB/km)	0.3790temperature slope calibration	1.0000multiplexer offset coefficient	1.0000multiplexer slope coefficient	1.0000fibre end	0.00T internal ref (°C)	39.87T ext. ref 1 (°C)	0.89T ext. ref 2 (°C)	35.98length (m)	temperature (°C)	Stokes	anti-Stokes-747.200	537.136	-0.052	0.126
-746.185	-200.000	0.066	0.297
-745.171	-74.634	0.222	0.082
-744.156	-200.000	-0.023	0.176
-743.142	-6.677	0.086	-0.060
-742.127	143.591	-0.245	0.334
-741.112	-33.018	-0.117	0.067
-740.098	91.123	-0.168	-0.192
-739.083	800.000	-0.026	0.095
-738.069	227.308	-0.114	-0.190
-737.054	101.585	0.273	0.325
-736.039	800.000	0.007	0.026
-735.025	526.996	-0.210	0.506
-734.010	34.278	0.258	-0.231
-732.996	-14.717	-0.050	-0.033
-731.981	800.000	0.083	-0.280
-730.966	458.357	-0.126	-0.286
-729.952	-80.660	-0.136	-0.046
-728.937	-200.000	-0.013	-0.145
-727.923	-200.000	-0.007	-0.070
-726.908	133.305	0.135	-0.179
-725.894	-106.118	-0.204	0.047
-724.879	47.229	-0.466	-0.444
-723.864	74.996	-0.154	0.166
-722.850	326.066	-0.180	0.353
-721.835	-50.951	0.237	-0.114
-720.821	-43.208	-0.141	-0.073
-719.806	67.044	-0.093	0.097
-718.791	106.378	0.126	-0.153
-717.777	314.356	-0.032	0.062
-716.762	-200.000	-0.017	0.228
-715.748	4.003	0.095	-0.071
-714.733	-155.383	-0.223	-0.015
-713.718	-50.218	-0.446	-0.216
-712.704	800.000	0.023	0.071
-711.689	-115.199	0.345	0.067
-710.675	-200.000	-0.011	0.067
-709.660	-166.122	-0.597	0.026
-708.645	138.218	0.109	-0.146
-707.631	448.728	0.042	0.094
-706.616	-64.990	-0.216	-0.089
-705.602	-200.000	0.012	0.141
-704.587	218.961	0.217	0.355
-703.572	-200.000	0.006	0.028
-702.558	-46.874	0.041	0.021
-701.543	-200.000	0.021	-0.141
-700.529	-148.741	0.250	-0.021
-699.514	800.000	-0.107	-0.479
-698.499	-200.000	0.037	-0.268
-697.485	-169.865	-0.196	-0.007
-696.470	58.143	-0.180	-0.180
-695.456	-75.627	-0.196	-0.071
-694.441	-76.494	0.161	-0.058
-693.426	-70.386	-0.207	-0.080
-692.412	-18.018	0.153	-0.098
-691.397	800.000	0.026	0.104
-690.383	800.000	-0.043	0.146
-689.368	-83.479	-0.047	-0.015
-688.354	800.000	0.080	-0.291
-687.339	-69.666	-0.140	0.055
-686.324	-116.949	0.137	-0.026
-685.310	800.000	0.061	-0.243
-684.295	-200.000	-0.020	-0.238
-683.281	96.657	-0.101	0.118
-682.266	3.102	-0.052	0.039
-681.251	26.006	0.097	0.082
-680.237	800.000	-0.048	-0.210
-679.222	-200.000	0.039	-0.432
-678.208	28.985	0.179	-0.155
-677.193	38.255	-0.159	-0.145
-676.178	81.063	0.138	-0.152
-675.164	-50.803	-0.404	-0.194
-674.149	-9.424	0.345	-0.235
-673.135	-48.549	0.173	-0.085
-672.120	-200.000	-0.015	0.081
-671.105	-200.000	0.018	0.087
-670.091	-47.263	-0.207	-0.103
-669.076	-32.417	-0.211	-0.120
-668.062	139.486	-0.158	-0.213
-667.047	-26.573	0.266	-0.159
-666.032	-73.003	0.252	-0.094
-665.018	-112.539	-0.223	-0.045
-664.003	-200.000	0.039	0.316
-662.989	240.036	0.069	-0.118
-661.974	-153.631	-0.126	-0.009
-660.959	-200.000	-0.009	-0.111
-659.945	227.921	0.011	-0.018
-658.930	-159.309	-0.255	-0.015
-657.916	800.000	-0.028	0.093
-656.901	739.211	0.020	-0.054
-655.886	800.000	0.075	-0.306
-654.872	-58.644	0.346	-0.153
-653.857	139.973	-0.174	-0.233
-652.843	117.555	0.131	0.165
-651.828	180.262	0.169	-0.253
-650.814	4.869	0.133	0.099
-649.799	302.345	-0.037	-0.069
-648.784	47.729	-0.426	0.406
-647.770	-108.327	-0.061	-0.013
-646.755	-132.061	-0.172	-0.023
-645.741	205.477	0.054	0.085
-644.726	129.933	-0.129	0.169
-643.711	-93.117	0.341	-0.097
-642.697	-129.212	0.445	0.063
-641.682	-200.000	-0.004	0.067
-640.668	28.734	-0.143	-0.123
-639.653	-62.236	-0.167	0.071
-638.638	-175.038	0.018	-0.001
-637.624	-83.349	0.275	-0.090
-636.609	-108.027	-0.413	-0.091
-635.595	94.674	-0.154	0.179
-634.580	-83.408	-0.153	-0.050
-633.565	398.986	0.019	0.041
-632.551	800.000	0.026	0.090
-631.536	698.084	-0.053	0.142
-630.522	74.873	0.074	0.079
-629.507	-25.658	-0.188	0.113
-628.492	800.000	0.068	-0.194
-627.478	-68.649	0.182	0.072
-626.463	-137.310	0.319	-0.037
-625.449	-75.394	-0.193	0.070
-624.434	-15.171	0.170	-0.111
-623.419	-35.001	-0.202	0.112
-622.405	334.393	-0.085	-0.168
-621.390	664.436	0.151	-0.396
-620.376	-60.042	-0.091	0.040
-619.361	-72.510	-0.265	0.100
-618.346	-200.000	0.039	-0.217
-617.332	800.000	-0.079	0.250
-616.317	9.488	0.117	-0.090
-615.303	800.000	-0.103	-0.431
-614.288	-82.901	-0.321	-0.106
-613.273	-53.236	0.100	0.047
-612.259	-200.000	-0.001	-0.089
-611.244	9.178	0.175	0.135
-610.230	-164.516	0.149	0.007
-609.215	60.366	-0.196	0.197
-608.201	800.000	0.072	-0.216
-607.186	-94.413	0.379	-0.105
-606.171	-35.278	-0.359	-0.199
-605.157	-53.377	0.139	0.065
-604.142	-76.283	0.066	-0.024
-603.128	-200.000	-0.021	-0.447
-602.113	-117.991	-0.227	-0.041
-601.098	573.720	0.154	-0.383
-600.084	-200.000	-0.037	0.262
-599.069	-200.000	0.066	0.297
-598.055	-200.000	-0.010	0.158
-597.040	-200.000	0.007	-0.828
-596.025	60.661	-0.262	0.264
-595.011	-23.521	0.129	-0.079
-593.996	-200.000	-0.008	-0.051
-592.982	-162.896	-0.370	0.018
-591.967	-82.555	0.242	-0.080
-590.952	-200.000	-0.000	-0.189
-589.938	-24.251	0.317	-0.193
-588.923	-200.000	-0.042	-0.589
-587.909	800.000	-0.098	-0.385
-586.894	702.907	-0.138	-0.370
-585.879	-200.000	-0.030	0.346
-584.865	800.000	0.068	-0.283
-583.850	75.540	0.174	0.186
-582.836	400.149	-0.061	0.131
-581.821	201.829	-0.064	0.100
-580.806	-0.139	0.120	-0.087
-579.792	-63.125	-0.398	0.167
-578.777	155.219	0.133	0.187
-577.763	-200.000	0.006	-0.056
-576.748	-200.000	0.000	0.350
-575.733	-176.716	-0.334	-0.009
-574.719	-23.437	-0.245	-0.149
-573.704	116.179	0.145	-0.180
-572.690	-58.383	-0.198	-0.088
-571.675	-68.163	0.204	-0.081
-570.661	-168.770	0.057	-0.002
-569.646	-110.460	-0.068	-0.014
-568.631	82.034	0.171	0.188
-567.617	-200.000	0.042	0.208
-566.602	800.000	-0.106	0.353
-565.588	-200.000	-0.001	0.285
-564.573	-200.000	0.031	-0.424
-563.558	99.887	-0.104	-0.122
-562.544	-121.590	-0.154	0.026
-561.529	138.026	0.121	0.161
-560.515	2.777	-0.151	0.111
-559.500	-117.716	0.054	-0.010
-558.485	120.106	-0.117	-0.148
-557.471	707.873	-0.093	-0.249
-556.456	-195.875	-0.484	-0.004
-555.442	289.876	-0.177	0.327
-554.427	11.229	0.200	0.155
-553.412	746.348	-0.079	-0.216
-552.398	40.279	-0.145	-0.132
-551.383	420.476	0.083	0.181
-550.369	452.227	0.045	-0.100
-549.354	-119.230	-0.278	0.049
-548.339	-18.552	-0.285	-0.181
-547.325	-115.464	-0.158	0.030
-546.310	-78.593	-0.154	-0.053
-545.296	453.127	0.217	-0.488
-544.281	-200.000	-0.012	-0.112
-543.266	522.646	0.134	-0.319
-542.252	-93.332	-0.184	-0.052
-541.237	800.000	-0.062	-0.185
-540.223	800.000	0.026	0.100
-539.208	210.625	0.132	0.210
-538.193	268.690	0.109	-0.194
-537.179	-110.311	0.285	0.060
-536.164	-26.184	0.192	0.114
-535.150	-200.000	-0.003	-0.138
-534.135	237.552	0.076	0.128
-533.121	800.000	0.036	-0.110
-532.106	97.524	0.153	0.179
-531.091	-86.684	-0.496	0.154
-530.077	-10.743	0.420	0.282
-529.062	46.204	0.035	-0.033
-528.048	19.127	-0.069	0.056
-527.033	105.020	-0.091	0.109
-526.018	-108.663	-0.409	0.089
-525.004	-200.000	-0.030	-0.215
-523.989	-75.043	-0.091	-0.033
-522.975	-162.265	-0.186	0.009
-521.960	800.000	-0.004	0.015
-520.945	63.674	-0.145	0.148
-519.931	800.000	-0.047	-0.200
-518.916	29.876	-0.096	-0.083
-517.902	4.771	-0.181	0.135
-516.887	153.949	-0.066	0.091
-515.872	30.632	-0.466	-0.404
-514.858	-19.499	-0.238	0.149
-513.843	112.176	0.161	0.198
-512.829	-11.477	-0.156	0.104
-511.814	40.165	0.185	-0.169
-510.799	-138.745	0.148	0.016
-509.785	-200.000	0.016	-0.310
-508.770	13.542	0.337	-0.265
-507.756	-200.000	0.026	0.193
-506.741	47.870	0.223	-0.211
-505.726	-83.240	0.263	0.086
-504.712	137.713	0.111	0.147
-503.697	800.000	-0.030	-0.099
-502.683	-200.000	-0.048	0.551
-501.668	-103.929	0.189	-0.045
-500.653	-200.000	0.022	-0.423
-499.639	-200.000	-0.017	0.283
-498.624	58.088	-0.321	-0.319
-497.610	-121.308	0.299	0.050
-496.595	-26.611	0.342	0.203
-495.581	-110.227	0.144	-0.030
-494.566	-80.165	-0.183	0.062
-493.551	280.304	0.028	-0.051
-492.537	-40.225	-0.110	-0.058
-491.522	-112.383	-0.634	0.129
-490.508	13.073	0.159	-0.125
-489.493	-35.926	-0.363	0.199
-488.478	-118.197	-0.414	-0.075
-487.464	280.480	0.049	-0.089
-486.449	582.471	0.107	-0.266
-485.435	-36.185	-0.148	-0.081
-484.420	-200.000	-0.011	0.156
-483.405	-105.725	0.182	-0.042
-482.391	-57.787	0.143	-0.063
-481.376	-155.465	-0.110	-0.007
-480.362	274.530	0.099	0.177
-479.347	-200.000	0.033	-0.233
-478.332	800.000	-0.012	-0.051
-477.318	70.524	-0.109	-0.115
-476.303	-172.939	0.035	-0.001
-475.289	407.676	-0.120	0.257
-474.274	-200.000	-0.023	-0.150
-473.259	-23.511	-0.287	-0.174
-472.245	237.970	0.181	-0.303
-471.230	-62.726	0.082	-0.034
-470.216	-200.000	0.051	0.296
-469.201	-200.000	-0.008	0.057
-468.186	-200.000	-0.026	-0.307
-467.172	-124.539	0.145	0.023
-466.157	-200.000	0.006	-0.091
-465.143	-200.000	-0.007	-0.110
-464.128	-18.720	-0.135	0.085
-463.113	-11.382	0.166	0.111
-462.099	800.000	0.021	-0.078
-461.084	-200.000	0.032	0.155
-460.070	110.740	0.180	0.219
-459.055	-134.491	-0.205	-0.025
-458.040	-46.665	-0.316	-0.157
-457.026	170.237	0.076	0.110
-456.011	-110.927	0.186	-0.039
-454.997	-200.000	0.004	-0.188
-453.982	47.697	0.225	0.212
-452.968	142.848	-0.126	0.169
-451.953	-37.507	0.127	0.068
-450.938	117.297	0.096	0.119
-449.924	47.512	0.091	0.086
-448.909	800.000	0.100	0.403
-447.895	9.261	0.139	0.106
-446.880	717.021	0.079	0.212
-445.865	142.370	-0.214	0.287
-444.851	-200.000	0.050	0.321
-443.836	179.074	-0.166	-0.246
-442.822	800.000	-0.106	0.321
-441.807	-37.460	0.194	-0.104
-440.792	-57.272	0.315	0.140
-439.778	-200.000	-0.003	-0.110
-438.763	-56.254	0.220	-0.099
-437.749	329.684	-0.052	0.101
-436.734	-137.395	0.345	0.040
-435.719	83.567	-0.108	-0.119
-434.705	-200.000	-0.018	-0.191
-433.690	299.110	0.098	0.181
-432.676	498.940	0.061	0.141
-431.661	215.015	-0.134	0.214
-430.646	-8.085	0.273	-0.186
-429.632	-119.656	-0.192	-0.034
-428.617	-200.000	0.036	0.212
-427.603	800.000	-0.057	-0.167
-426.588	497.665	0.036	0.084
-425.573	-200.000	-0.041	-0.218
-424.559	-171.891	0.070	-0.002
-423.544	3.735	0.166	-0.123
-422.530	49.040	-0.253	-0.240
-421.515	31.344	0.054	0.047
-420.500	-200.000	0.006	0.033
-419.486	-200.000	-0.010	0.053
-418.471	185.309	0.081	0.122
-417.457	-62.653	0.376	0.157
-416.442	309.092	0.055	0.104
-415.428	226.706	-0.089	-0.146
-414.413	84.640	-0.148	0.164
-413.398	800.000	-0.028	-0.086
-412.384	-200.000	-0.010	-0.220
-411.369	113.528	-0.094	-0.116
-410.355	-183.264	-0.206	-0.004
-409.340	465.727	0.067	-0.151
-408.325	97.748	-0.187	0.217
-407.311	78.417	-0.102	0.110
-406.296	-58.688	-0.156	-0.068
-405.282	-143.409	-0.116	-0.011
-404.267	-32.282	0.211	0.119
-403.252	635.130	-0.065	0.166
-402.238	800.000	0.047	0.132
-401.223	-103.191	0.087	-0.021
-400.209	-19.781	-0.100	-0.062
-399.194	-200.000	0.005	-0.145
-398.179	800.000	0.066	-0.187
-397.165	676.205	0.085	0.223
-396.150	800.000	-0.067	0.222
-395.136	275.534	-0.101	-0.180
-394.121	-51.399	-0.264	0.124
-393.106	-200.000	0.047	-0.218
-392.092	-68.349	-0.364	0.143
-391.077	800.000	0.026	-0.113
-390.063	800.000	-0.021	-0.086
-389.048	56.724	-0.150	0.147
-388.033	33.907	-0.253	0.222
-387.019	800.000	-0.058	0.218
-386.004	-200.000	-0.012	0.133
-384.990	800.000	0.050	0.206
-383.975	132.269	-0.048	-0.063
-382.960	-67.070	-0.084	0.033
-381.946	-200.000	0.042	0.253
-380.931	-33.883	0.303	0.168
-379.917	291.107	0.141	-0.258
-378.902	-137.830	-0.315	-0.036
-377.888	-78.463	-0.127	0.044
-376.873	-141.074	-0.205	-0.021
-375.858	-200.000	0.047	-0.226
-374.844	-16.569	-0.087	0.056
-373.829	-200.000	-0.020	-0.166
-372.815	91.029	-0.096	-0.109
-371.800	-21.053	0.048	-0.030
-370.785	-32.195	-0.148	0.083
-369.771	-26.141	-0.087	0.052
-368.756	493.632	0.063	0.145
-367.742	12.944	0.133	-0.104
-366.727	-175.428	0.358	-0.010
-365.712	800.000	-0.082	0.231
-364.698	120.182	0.046	-0.058
-363.683	800.000	-0.064	-0.263
-362.669	73.744	0.208	0.219
-361.654	81.466	-0.154	0.168
-360.639	-17.926	0.224	0.142
-359.625	-200.000	-0.228	-0.000
-358.610	37.933	0.289	0.259
-357.596	372.974	0.156	0.320
-356.581	278.544	-0.096	0.172
-355.566	-200.000	-0.001	-0.092
-354.552	-117.003	-0.200	0.037
-353.537	-119.678	0.246	-0.043
-352.523	111.025	0.141	-0.171
-351.508	-200.000	-0.012	-0.162
-350.493	151.269	0.217	-0.297
-349.479	21.754	0.106	0.087
-348.464	164.144	0.219	0.310
-347.450	132.665	0.126	0.164
-346.435	-179.683	0.058	0.001
-345.420	-44.687	-0.275	0.138
-344.406	-55.039	0.145	-0.066
-343.391	-112.243	-0.102	0.021
-342.377	149.617	0.179	-0.245
-341.362	-100.515	-0.308	-0.077
-340.348	66.387	-0.070	-0.072
-339.333	-175.731	0.255	-0.007
-338.318	440.580	0.153	0.338
-337.304	800.000	-0.058	0.233
-336.289	-59.057	-0.051	0.022
-335.275	-200.000	-0.044	-0.334
-334.260	517.383	-0.067	-0.157
-333.245	-200.000	-0.012	0.442
-332.231	202.201	0.286	0.444
-331.216	-200.000	0.022	0.109
-330.202	-136.710	-0.185	0.021
-329.187	422.656	-0.033	0.071
-328.172	-200.000	-0.017	0.228
-327.158	271.888	-0.162	0.288
-326.143	-72.873	-0.081	0.030
-325.129	285.078	0.010	-0.018
-324.114	-200.000	-0.024	-0.147
-323.099	-175.231	-0.228	-0.006
-322.085	-104.066	-0.184	-0.043
-321.070	-200.000	-0.021	-0.251
-320.056	367.732	0.101	-0.206
-319.041	-200.000	-0.005	-0.055
-318.026	-133.716	0.422	-0.053
-317.012	343.155	-0.092	-0.182
-315.997	-18.982	-0.158	-0.099
-314.983	-200.000	0.026	0.261
-313.968	730.154	-0.038	-0.103
-312.953	-46.468	-0.157	0.077
-311.939	-47.242	0.177	-0.087
-310.924	44.127	-0.215	0.199
-309.910	154.564	-0.065	-0.090
-308.895	-121.592	0.200	0.033
-307.880	-200.000	-0.052	0.331
-306.866	-52.918	0.206	-0.095
-305.851	662.063	0.030	-0.077
-304.837	236.622	0.142	-0.236
-303.822	800.000	-0.094	-0.272
-302.807	412.184	-0.122	-0.260
-301.793	-8.584	0.112	0.076
-300.778	-200.000	-0.398	-0.001
-299.764	11.631	0.200	0.155
-298.749	231.205	-0.275	0.454
-297.735	-110.516	0.156	0.033
-296.720	-92.359	0.199	0.056
-295.705	-200.000	0.002	0.188
-294.691	84.971	0.187	-0.206
-293.676	-35.839	-0.207	0.113
-292.662	-200.000	-0.049	-0.245
-291.647	-130.762	0.222	-0.030
-290.632	-200.000	-0.024	-0.216
-289.618	-200.000	0.062	-0.299
-288.603	800.000	0.096	0.313
-287.589	39.080	-0.148	-0.133
-286.574	37.474	-0.176	-0.157
-285.559	52.301	0.125	-0.120
-284.545	36.621	-0.182	0.162
-283.530	-19.542	-0.256	0.160
-282.516	777.647	0.095	-0.260
-281.501	-125.282	0.088	-0.014
-280.486	-14.937	-0.190	-0.122
-279.472	87.724	-0.057	0.063
-278.457	-11.157	-0.240	-0.159
-277.443	1.733	-0.057	-0.042
-276.428	-200.000	-0.013	0.125
-275.413	115.944	0.077	0.095
-274.399	99.595	0.153	0.177
-273.384	-200.000	-0.072	0.495
-272.370	-107.080	0.299	-0.066
-271.355	-56.998	-0.060	0.027
-270.340	-46.926	0.023	-0.011
-269.326	-97.708	0.197	0.051
-268.311	-200.000	-0.009	-0.223
-267.297	800.000	-0.035	0.104
-266.282	420.726	0.086	0.185
-265.267	180.660	0.108	-0.160
-264.253	-200.000	-0.017	-0.218
-263.238	-139.400	0.266	-0.029
-262.224	499.627	0.180	-0.416
-261.209	-126.725	0.103	0.015
-260.195	-200.000	0.191	0.001
-259.180	-200.000	0.009	0.109
-258.165	14.065	-0.117	0.092
-257.151	421.328	-0.108	0.234
-256.136	800.000	-0.014	0.052
-255.122	-158.021	0.237	0.014
-254.107	800.000	0.119	0.448
-253.092	47.028	-0.187	0.175
-252.078	-136.301	0.552	0.065
-251.063	800.000	-0.031	-0.100
-250.049	22.263	-0.263	-0.215
-249.034	-144.468	0.353	0.033
-248.019	-57.578	-0.230	0.101
-247.005	402.644	-0.018	-0.039
-245.990	192.591	0.189	-0.287
-244.976	-105.296	-0.149	-0.034
-243.961	228.213	0.161	-0.262
-242.946	800.000	0.086	-0.243
-241.932	67.162	0.295	0.302
-240.917	-200.000	-0.016	0.282
-239.903	127.329	-0.151	0.192
-238.888	-59.769	-0.227	0.097
-237.873	336.846	0.057	0.111
-236.859	8.621	0.198	-0.149
-235.844	-182.734	0.403	0.007
-234.830	369.713	0.098	0.200
-233.815	-117.049	0.210	-0.039
-232.800	-27.159	0.236	-0.138
-231.786	-200.000	-0.012	-0.222
-230.771	119.520	-0.078	-0.097
-229.757	-200.000	0.027	-0.191
-228.742	800.000	-0.102	0.422
-227.727	586.426	0.078	-0.192
-226.713	-200.000	-0.046	-0.303
-225.698	-27.976	0.184	0.107
-224.684	-42.187	-0.181	-0.093
-223.669	-91.477	-0.223	0.064
-222.655	425.501	0.094	-0.202
-221.640	-20.953	0.169	-0.104
-220.625	-179.204	-0.568	0.013
-219.611	-151.126	0.413	0.031
-218.596	-14.341	-0.092	0.059
-217.582	-200.000	0.024	-0.241
-216.567	381.205	-0.038	0.078
-215.552	48.489	0.050	0.047
-214.538	300.414	-0.035	0.064
-213.523	-79.291	0.344	0.117
-212.509	332.595	0.079	-0.154
-211.494	-119.504	-0.221	0.038
-210.479	66.048	0.115	-0.117
-209.465	-65.419	0.300	-0.121
-208.450	800.000	0.088	-0.324
-207.436	17.721	-0.027	-0.021
-206.421	-46.875	-0.133	0.065
-205.406	185.773	0.299	0.445
-204.392	-36.039	-0.046	-0.025
-203.377	339.567	0.146	-0.285
-202.363	-42.265	-0.207	-0.106
-201.348	-133.164	0.107	0.014
-200.333	-142.339	0.253	0.025
-199.319	800.000	0.048	-0.175
-198.304	34.137	0.231	-0.202
-197.290	-6.498	-0.154	0.105
-196.275	-200.000	0.006	0.361
-195.260	-1.820	-0.174	0.122
-194.246	-200.000	0.073	-0.385
-193.231	-200.000	0.008	0.062
-192.217	-80.607	-0.300	0.100
-191.202	64.399	0.216	-0.218
-190.187	546.800	0.053	0.126
-189.173	161.180	0.138	0.192
-188.158	83.445	0.118	0.128
-187.144	-158.694	0.193	-0.011
-186.129	-21.768	-0.317	-0.193
-185.114	-200.000	-0.017	0.107
-184.100	-143.338	0.233	0.022
-183.085	-111.772	0.181	0.037
-182.071	-112.270	0.300	-0.060
-181.056	-200.000	0.018	-0.167
-180.042	-20.809	0.010	-0.006
-179.027	196.174	-0.065	-0.100
-178.012	-74.777	-0.082	0.029
-176.998	-200.000	-0.029	0.183
-175.983	126.838	-0.078	0.099
-174.969	-122.242	-0.269	-0.044
-173.954	132.387	0.032	0.042
-172.939	116.719	0.171	-0.210
-171.925	85.900	-0.292	0.322
-170.910	-74.459	0.240	-0.086
-169.896	37.548	0.090	0.080
-168.881	-20.044	-0.289	-0.178
-167.866	246.098	0.067	-0.113
-166.852	800.000	-0.013	-0.054
-165.837	29.300	-0.046	-0.039
-164.823	-31.429	-0.141	0.079
-163.808	166.359	-0.074	0.105
-162.793	-120.384	-0.117	-0.020
-161.779	609.424	-0.089	0.223
-160.764	800.000	0.063	0.266
-159.750	245.676	0.182	-0.307
-158.735	-200.000	0.043	0.252
-157.720	612.269	-0.082	-0.204
-156.706	-49.151	0.143	0.068
-155.691	178.495	-0.081	-0.118
-154.677	-48.940	-0.315	0.151
-153.662	-200.000	-0.050	0.276
-152.647	-200.000	0.040	-0.376
-151.633	800.000	0.071	-0.229
-150.618	-200.000	-0.004	-0.065
-149.604	-102.013	-0.151	0.036
-148.589	800.000	-0.148	0.422
-147.574	-46.353	-0.180	-0.089
-146.560	-200.000	-0.016	-0.181
-145.545	-96.957	0.154	0.040
-144.531	-200.000	0.005	0.165
-143.516	-200.000	0.061	0.269
-142.502	550.524	-0.156	0.375
-141.487	57.224	-0.136	0.133
-140.472	228.168	0.130	0.212
-139.458	-200.000	0.024	0.150
-138.443	78.152	-0.075	0.080
-137.429	108.136	-0.098	-0.116
-136.414	-96.009	0.314	0.084
-135.399	195.773	-0.033	-0.050
-134.385	-79.560	0.097	-0.033
-133.370	800.000	0.047	0.169
-132.356	-166.179	0.236	0.010
-131.341	800.000	0.051	0.220
-130.326	800.000	-0.049	-0.150
-129.312	-129.342	0.099	0.014
-128.297	71.414	0.103	-0.107
-127.283	-97.596	0.180	-0.047
-126.268	-168.103	0.186	-0.007
-125.253	477.135	-0.066	0.150
-124.239	46.882	0.161	0.149
-123.224	-90.683	-0.352	0.101
-122.210	-120.410	0.425	-0.072
