DTS Sentinel unit serial number:	SN413079Multiplexer serial number:	ORYXHardware model number:	OX4-SRSoftware version number:	ORYX F/W v4.00 Oryx Data Collector v3.7.2.0data status	okinstallation	princeton_trtdifferential loss correction	single-endedforward channel	channel 3reverse channel	N/Adate	2019/09/14time	12:40:35forward acquisition time	60.00reverse acquisition time	0.00gamma	496.2192k internal	0.2294k external	0.2294temperature offset calibration	1.0067default loss term (dB/km)	0.3790temperature slope calibration	1.0000multiplexer offset coefficient	1.0000multiplexer slope coefficient	1.0000fibre end	0.00T internal ref (°C)	38.00T ext. ref 1 (°C)	4.79T ext. ref 2 (°C)	33.33length (m)	temperature (°C)	Stokes	anti-Stokes-747.200	-58.163	-0.172	0.077
-746.185	-200.000	0.007	0.329
-745.171	-200.000	-0.004	0.245
-744.156	-200.000	-0.029	0.326
-743.142	-200.000	0.056	-0.266
-742.127	-28.099	-0.169	0.100
-741.112	-68.919	-0.190	0.075
-740.098	-200.000	-0.055	0.272
-739.083	-133.564	-0.268	0.034
-738.069	416.819	-0.191	0.418
-737.054	-200.000	0.036	-0.222
-736.039	6.843	-0.192	0.146
-735.025	496.236	0.166	0.390
-734.010	-200.000	-0.010	0.076
-732.996	-165.427	0.187	-0.008
-731.981	246.517	0.061	0.105
-730.966	800.000	-0.053	-0.231
-729.952	240.931	0.096	0.164
-728.937	520.644	0.028	-0.067
-727.923	800.000	0.033	-0.102
-726.908	-113.205	-0.205	0.041
-725.894	-200.000	0.067	-0.301
-724.879	221.629	0.152	0.250
-723.864	104.103	-0.151	0.182
-722.850	-106.459	-0.373	-0.085
-721.835	120.102	-0.203	-0.258
-720.821	-88.549	0.138	-0.042
-719.806	128.003	0.231	0.300
-718.791	335.362	0.213	-0.423
-717.777	-107.372	-0.151	0.034
-716.762	-200.000	-0.052	-0.240
-715.748	-171.698	-0.457	-0.015
-714.733	14.073	-0.056	-0.044
-713.718	-159.507	0.249	0.014
-712.704	-200.000	-0.070	-0.410
-711.689	-81.882	0.174	-0.058
-710.675	505.109	0.118	0.279
-709.660	-200.000	-0.038	-0.202
-708.645	70.006	0.029	-0.030
-707.631	-18.027	-0.050	0.032
-706.616	800.000	-0.075	-0.279
-705.602	729.456	-0.034	0.093
-704.587	800.000	-0.036	0.130
-703.572	34.414	-0.135	-0.121
-702.558	-46.155	0.105	-0.053
-701.543	-200.000	-0.016	0.391
-700.529	-35.367	-0.403	-0.224
-699.514	-93.299	-0.327	-0.093
-698.499	-200.000	-0.041	-0.238
-697.485	-44.363	-0.203	0.104
-696.470	-37.021	-0.163	0.089
-695.456	-63.809	0.146	-0.061
-694.441	86.421	0.189	-0.212
-693.426	18.490	-0.175	0.143
-692.412	-200.000	-0.014	-0.321
-691.397	-53.153	-0.317	-0.149
-690.383	-63.374	0.318	-0.134
-689.368	-200.000	-0.011	-0.078
-688.354	-200.000	0.035	-0.196
-687.339	-8.071	0.136	-0.093
-686.324	626.689	-0.092	-0.236
-685.310	-156.178	-0.174	0.011
-684.295	-117.664	-0.309	0.057
-683.281	-39.623	0.099	0.053
-682.266	-69.277	-0.191	-0.075
-681.251	-115.808	0.160	0.031
-680.237	800.000	0.070	-0.254
-679.222	-200.000	0.007	-0.056
-678.208	-78.145	0.387	0.136
-677.193	-136.913	-0.228	0.027
-676.178	800.000	-0.055	-0.176
-675.164	112.635	-0.466	-0.575
-674.149	-85.028	0.138	0.044
-673.135	58.427	0.065	-0.065
-672.120	0.553	-0.162	-0.118
-671.105	-39.603	-0.020	0.011
-670.091	-200.000	0.057	0.298
-669.076	-200.000	-0.018	0.144
-668.062	-50.383	-0.113	0.055
-667.047	-62.125	-0.061	-0.026
-666.032	206.240	-0.105	0.167
-665.018	-29.509	-0.335	-0.195
-664.003	-2.213	0.089	0.064
-662.989	37.735	-0.172	0.155
-661.974	-22.301	-0.145	0.089
-660.959	-116.011	-0.220	0.042
-659.945	-200.000	-0.006	0.115
-658.930	-136.385	-0.294	-0.035
-657.916	800.000	0.089	-0.296
-656.901	190.440	-0.089	0.136
-655.886	5.300	-0.022	0.017
-654.872	-200.000	0.057	0.416
-653.857	241.967	-0.037	0.063
-652.843	-30.802	0.208	-0.120
-651.828	-139.121	-0.368	-0.041
-650.814	-1.308	-0.205	-0.147
-649.799	-48.552	-0.188	0.092
-648.784	800.000	-0.045	-0.182
-647.770	161.447	0.032	0.046
-646.755	-27.137	-0.016	0.009
-645.741	-200.000	-0.077	0.361
-644.726	507.993	-0.184	0.436
-643.711	205.003	-0.112	0.177
-642.697	-82.361	-0.254	0.084
-641.682	146.637	-0.202	-0.276
-640.668	-109.997	0.132	-0.028
-639.653	25.552	0.188	-0.160
-638.638	-101.465	-0.115	-0.029
-637.624	137.786	0.262	-0.350
-636.609	-174.193	-0.142	0.004
-635.595	767.222	0.057	0.157
-634.580	-85.689	0.240	0.076
-633.565	74.635	-0.074	0.079
-632.551	69.933	0.033	0.034
-631.536	340.301	-0.066	0.130
-630.522	-0.361	-0.399	0.289
-629.507	64.757	-0.121	-0.124
-628.492	-60.456	0.039	0.017
-627.478	54.410	0.196	-0.193
-626.463	21.527	-0.206	-0.171
-625.449	33.217	0.120	0.106
-624.434	-76.683	-0.370	0.132
-623.419	120.809	-0.042	0.053
-622.405	5.056	0.326	-0.244
-621.390	-200.000	0.026	0.188
-620.376	-84.089	-0.159	0.051
-619.361	530.522	0.101	-0.243
-618.346	332.034	-0.187	-0.366
-617.332	-141.833	-0.200	0.020
-616.317	-91.365	-0.208	0.061
-615.303	-135.189	-0.119	-0.015
-614.288	-136.727	0.069	-0.008
-613.273	-200.000	0.003	0.184
-612.259	-200.000	-0.002	-0.158
-611.244	-96.408	-0.077	-0.021
-610.230	11.214	0.275	0.214
-609.215	-115.358	-0.251	0.048
-608.201	10.752	0.101	0.078
-607.186	149.930	0.088	0.121
-606.171	79.164	0.186	0.203
-605.157	-69.519	0.280	0.109
-604.142	-200.000	-0.013	0.439
-603.128	29.364	0.146	-0.126
-602.113	61.624	-0.300	-0.304
-601.098	-79.874	0.113	0.039
-600.084	272.336	-0.115	0.207
-599.069	285.575	0.095	0.173
-598.055	-86.358	0.147	0.046
-597.040	-153.781	-0.399	0.028
-596.025	-200.000	0.082	-0.386
-595.011	151.228	0.109	-0.151
-593.996	-42.930	0.073	-0.038
-592.982	51.611	-0.265	0.257
-591.967	-123.142	0.170	0.028
-590.952	131.474	0.052	0.068
-589.938	-103.878	-0.256	-0.061
-588.923	-167.890	0.247	0.010
-587.909	-200.000	-0.032	0.263
-586.894	60.681	-0.065	-0.066
-585.879	-133.746	-0.294	0.037
-584.865	38.770	-0.049	0.044
-583.850	-158.319	-0.204	0.012
-582.836	196.719	0.046	0.071
-581.821	-115.739	0.269	-0.051
-580.806	-200.000	0.000	0.060
-579.792	-79.943	0.052	-0.018
-578.777	328.144	-0.102	0.199
-577.763	317.145	0.038	-0.072
-576.748	-75.301	0.289	0.105
-575.733	23.383	0.090	-0.075
-574.719	-76.599	-0.051	-0.018
-573.704	-68.510	-0.298	0.117
-572.690	529.636	-0.120	0.289
-571.675	-200.000	-0.018	-0.106
-570.661	171.454	-0.167	-0.244
-569.646	72.717	-0.145	-0.154
-568.631	8.142	0.241	0.184
-567.617	-193.377	0.077	-0.001
-566.602	-25.997	-0.224	-0.134
-565.588	800.000	-0.032	-0.112
-564.573	-79.105	-0.361	-0.124
-563.558	-146.914	0.322	0.028
-562.544	606.125	-0.029	-0.074
-561.529	-107.254	0.101	-0.022
-560.515	-153.917	0.187	-0.013
-559.500	-74.005	0.093	0.034
-558.485	27.040	-0.150	-0.128
-557.471	85.428	-0.090	-0.100
-556.456	-200.000	0.011	-0.388
-555.442	186.461	-0.187	0.283
-554.427	800.000	0.068	0.295
-553.412	800.000	-0.038	-0.131
-552.398	-30.469	0.136	-0.078
-551.383	414.382	0.040	0.087
-550.369	-106.429	-0.463	-0.105
-549.354	-200.000	-0.125	-0.625
-548.339	5.442	0.090	-0.068
-547.325	-200.000	-0.001	-0.032
-546.310	-168.836	0.060	0.002
-545.296	153.694	0.070	0.097
-544.281	97.796	-0.215	-0.251
-543.266	392.071	0.178	0.375
-542.252	541.643	-0.094	0.227
-541.237	-98.691	0.403	-0.104
-540.223	45.957	-0.131	-0.123
-539.208	214.524	-0.215	0.345
-538.193	52.203	-0.108	-0.104
-537.179	44.731	-0.087	-0.081
-536.164	197.258	-0.064	-0.099
-535.150	-176.605	0.298	0.008
-534.135	-11.611	0.171	0.114
-533.121	-200.000	-0.010	-0.288
-532.106	233.852	-0.016	0.027
-531.091	90.195	0.032	-0.037
-530.077	-68.964	-0.314	-0.123
-529.062	9.670	-0.164	-0.126
-528.048	-76.501	-0.299	-0.106
-527.033	-200.000	-0.003	-0.147
-526.018	39.405	-0.255	0.232
-525.004	800.000	-0.090	0.256
-523.989	76.017	0.081	-0.086
-522.975	105.295	-0.095	-0.113
-521.960	-30.368	-0.165	0.095
-520.945	-120.202	0.280	-0.048
-519.931	395.403	-0.049	-0.104
-518.916	51.925	0.218	0.210
-517.902	147.541	0.171	0.234
-516.887	-69.482	-0.318	-0.123
-515.872	-200.000	0.016	-0.162
-514.858	800.000	0.044	-0.189
-513.843	72.147	0.162	0.171
-512.829	-200.000	-0.011	-0.143
-511.814	-200.000	0.015	0.379
-510.799	111.671	0.127	0.155
-509.785	-200.000	0.076	-0.378
-508.770	800.000	-0.050	-0.199
-507.756	-145.735	0.391	-0.035
-506.741	-200.000	0.005	0.350
-505.726	-200.000	-0.009	0.062
-504.712	-88.075	-0.254	0.077
-503.697	-92.936	0.021	-0.006
-502.683	-39.506	0.220	0.117
-501.668	800.000	-0.039	0.135
-500.653	-200.000	-0.005	0.255
-499.639	-200.000	0.031	0.199
-498.624	248.177	-0.148	0.254
-497.610	-200.000	0.013	0.138
-496.595	-200.000	-0.004	-0.321
-495.581	144.710	0.207	0.281
-494.566	98.528	0.052	-0.061
-493.551	767.164	-0.058	0.159
-492.537	-0.351	0.162	0.117
-491.522	-165.861	0.149	0.006
-490.508	263.245	-0.084	0.149
-489.493	-104.231	-0.086	-0.020
-488.478	446.523	0.126	0.281
-487.464	112.845	-0.050	0.061
-486.449	367.154	0.161	-0.330
-485.435	6.478	-0.233	-0.175
-484.420	282.403	0.133	0.242
-483.405	-40.026	0.157	0.083
-482.391	-200.000	0.000	-0.298
-481.376	-38.636	0.112	0.060
-480.362	-26.453	-0.215	-0.127
-479.347	-13.628	0.241	-0.158
-478.332	-200.000	-0.040	-0.271
-477.318	56.229	0.181	-0.178
-476.303	101.896	0.052	0.061
-475.289	-200.000	-0.037	0.227
-474.274	-149.769	0.093	-0.007
-473.259	800.000	-0.006	0.021
-472.245	130.369	0.233	-0.302
-471.230	708.595	-0.089	0.238
-470.216	800.000	0.112	0.348
-469.201	-200.000	-0.018	0.086
-468.186	-43.159	0.123	-0.063
-467.172	-32.937	-0.094	0.053
-466.157	626.738	0.065	-0.167
-465.143	101.648	0.090	-0.107
-464.128	-200.000	0.010	-0.160
-463.113	12.313	-0.071	-0.055
-462.099	523.965	-0.056	0.133
-461.084	224.406	0.196	0.321
-460.070	800.000	-0.138	0.415
-459.055	161.081	-0.173	0.244
-458.040	-145.639	-0.275	-0.025
-457.026	13.747	0.200	0.158
-456.011	74.485	-0.217	0.231
-454.997	-49.084	-0.190	-0.092
-453.982	-200.000	-0.057	-0.362
-452.968	-38.142	-0.225	-0.121
-451.953	-13.356	-0.162	-0.106
-450.938	280.662	0.196	-0.355
-449.924	27.280	-0.125	0.107
-448.909	800.000	0.082	-0.300
-447.895	-58.330	0.190	-0.083
-446.880	-68.644	0.292	-0.114
-445.865	800.000	0.100	-0.384
-444.851	148.646	0.149	-0.204
-443.836	-20.261	-0.293	0.182
-442.822	115.058	0.009	-0.011
-441.807	88.160	0.316	0.354
-440.792	89.714	0.152	0.172
-439.778	464.317	-0.164	0.370
-438.763	78.431	0.334	-0.361
-437.749	64.577	-0.132	-0.135
-436.734	-200.000	0.005	-0.195
-435.719	212.524	-0.062	-0.099
-434.705	-200.000	-0.016	0.394
-433.690	-2.965	0.129	0.091
-432.676	317.649	0.106	0.203
-431.661	-14.676	-0.217	-0.141
-430.646	-200.000	0.041	0.303
-429.632	417.302	0.067	-0.144
-428.617	5.662	-0.132	-0.099
-427.603	-200.000	0.000	-0.211
-426.588	44.176	-0.171	0.158
-425.573	-107.510	0.128	-0.028
-424.559	95.067	-0.113	-0.130
-423.544	-35.233	0.350	-0.192
-422.530	-36.343	-0.095	-0.052
-421.515	-29.691	-0.169	-0.098
-420.500	-73.736	-0.143	0.052
-419.486	800.000	-0.048	0.207
-418.471	-122.312	-0.190	-0.031
-417.457	-142.702	-0.178	0.018
-416.442	22.366	-0.226	-0.187
-415.428	-200.000	0.009	0.083
-414.413	-14.786	0.207	0.134
-413.398	44.593	0.241	-0.223
-412.384	-60.700	-0.239	-0.102
-411.369	127.197	0.276	0.354
-410.355	-200.000	0.441	-0.001
-409.340	-55.053	-0.118	0.053
-408.325	39.970	-0.190	-0.173
-407.311	800.000	0.082	0.300
-406.296	-200.000	-0.002	0.011
-405.282	-200.000	0.018	0.174
-404.267	87.602	0.132	0.147
-403.252	-130.712	-0.092	0.013
-402.238	-137.476	0.655	0.075
-401.223	-116.285	-0.125	0.023
-400.209	-200.000	0.040	-0.207
-399.194	26.930	0.193	-0.164
-398.179	419.962	-0.114	0.246
-397.165	21.011	-0.096	-0.078
-396.150	-20.549	-0.152	0.094
-395.136	-129.823	-0.380	-0.053
-394.121	-92.936	0.336	0.095
-393.106	800.000	-0.028	0.115
-392.092	4.113	-0.117	0.086
-391.077	356.246	0.174	-0.350
-390.063	95.639	0.274	-0.316
-389.048	354.096	0.157	-0.315
-388.033	-56.278	-0.226	0.101
-387.019	-200.000	0.034	-0.188
-386.004	380.825	-0.037	0.077
-384.990	-107.009	-0.246	0.055
-383.975	-149.284	0.154	-0.012
-382.960	565.918	-0.029	-0.072
-381.946	74.962	-0.136	-0.145
-380.931	164.545	-0.063	0.090
-379.917	120.559	-0.205	0.257
-378.902	-111.685	-0.169	-0.035
-377.888	66.439	0.220	0.225
-376.873	-200.000	0.023	-0.170
-375.858	800.000	-0.062	0.224
-374.844	136.455	-0.058	-0.076
-373.829	304.250	0.103	0.193
-372.815	47.514	-0.220	0.207
-371.800	376.849	-0.054	-0.110
-370.785	-107.665	-0.172	0.038
-369.771	448.826	0.035	-0.078
-368.756	-67.938	-0.239	0.094
-367.742	-8.512	-0.213	0.145
-366.727	-200.000	0.010	0.065
-365.712	-200.000	-0.045	0.306
-364.698	-200.000	0.051	-0.320
-363.683	-200.000	0.014	-0.132
-362.669	46.218	0.375	0.350
-361.654	-111.181	0.076	0.016
-360.639	170.931	-0.083	0.120
-359.625	-16.656	0.280	0.178
-358.610	800.000	0.115	0.386
-357.596	-5.414	0.257	-0.178
-356.581	800.000	0.132	-0.483
-355.566	-20.506	0.286	0.177
-354.552	148.740	-0.118	0.161
-353.537	800.000	0.040	0.151
-352.523	397.259	-0.087	-0.184
-351.508	800.000	-0.114	-0.338
-350.493	-180.524	0.188	0.004
-349.479	134.883	-0.231	0.303
-348.464	-56.238	-0.182	0.082
-347.450	800.000	-0.057	0.169
-346.435	478.778	0.039	0.090
-345.420	-78.451	-0.261	0.090
-344.406	800.000	0.081	0.326
-343.391	215.248	-0.043	-0.069
-342.377	-88.601	-0.184	-0.055
-341.362	-31.976	-0.111	0.062
-340.348	-79.379	-0.094	-0.032
-339.333	54.437	-0.219	0.213
-338.318	381.523	0.073	-0.151
-337.304	-109.732	-0.113	0.024
-336.289	43.124	-0.130	-0.119
-335.275	800.000	-0.025	-0.089
-334.260	33.856	-0.176	0.154
-333.245	142.345	0.115	0.154
-332.231	-142.079	0.368	0.037
-331.216	692.472	0.067	-0.176
-330.202	-200.000	-0.013	-0.084
-329.187	-84.889	-0.232	0.073
-328.172	-160.902	-0.197	-0.010
-327.158	112.496	0.101	0.123
-326.143	-108.394	0.119	-0.026
-325.129	-95.578	0.234	0.063
-324.114	800.000	0.013	0.044
-323.099	-79.262	-0.187	-0.064
-322.085	-12.688	0.184	-0.121
-321.070	78.574	-0.103	0.111
-320.056	-200.000	0.002	0.018
-319.041	-200.000	-0.063	-0.450
-318.026	401.833	-0.165	-0.349
-317.012	305.733	-0.022	-0.040
-315.997	777.597	0.065	0.179
-314.983	240.419	0.171	-0.286
-313.968	-186.477	-0.233	-0.003
-312.953	92.826	0.146	0.166
-311.939	-200.000	0.015	-0.268
-310.924	77.486	0.145	0.155
-309.910	-200.000	0.073	0.435
-308.895	512.939	0.050	0.117
-307.880	-132.016	0.254	-0.033
-306.866	-124.690	0.177	-0.028
-305.851	6.338	-0.027	-0.020
-304.837	720.494	-0.073	-0.194
-303.822	-196.052	-0.328	-0.002
-302.807	-54.219	-0.247	-0.113
-301.793	86.687	0.340	-0.377
-300.778	-55.272	0.130	-0.059
-299.764	-107.665	0.095	-0.021
-298.749	-80.432	-0.142	-0.048
-297.735	173.524	-0.128	0.186
-296.720	800.000	0.072	0.258
-295.705	573.975	-0.046	-0.114
-294.691	89.541	0.112	-0.126
-293.676	15.175	0.065	-0.052
-292.662	800.000	-0.109	-0.338
-291.647	-47.567	0.208	0.101
-290.632	-200.000	-0.017	0.075
-289.618	-200.000	0.022	-0.181
-288.603	-183.334	0.174	0.003
-287.589	-49.005	0.187	0.090
-286.574	-99.478	0.194	-0.049
-285.559	119.938	0.131	-0.163
-284.545	-152.422	0.067	-0.005
-283.530	-46.856	0.157	0.077
-282.516	126.204	0.287	0.365
-281.501	-103.753	0.290	0.068
-280.486	199.984	0.070	0.107
-279.472	-200.000	-0.051	0.460
-278.457	800.000	0.066	0.199
-277.443	-200.000	-0.015	-0.169
-276.428	215.100	-0.198	-0.315
-275.413	-88.222	0.291	0.088
-274.399	-131.935	-0.194	-0.025
-273.384	-200.000	0.005	-0.032
-272.370	-200.000	-0.081	-0.446
-271.355	146.645	-0.182	0.246
-270.340	-200.000	-0.052	-0.502
-269.326	-68.321	0.331	-0.129
-268.311	434.587	0.061	-0.133
-267.297	-141.987	-0.617	0.062
-266.282	-147.717	-0.158	0.013
-265.267	125.660	-0.150	-0.190
-264.253	-200.000	-0.018	-0.146
-263.238	-160.809	0.161	-0.009
-262.224	-200.000	0.009	-0.243
-261.209	-200.000	0.072	-0.369
-260.195	84.737	-0.211	0.232
-259.180	-200.000	0.061	-0.287
-258.165	-108.526	-0.249	-0.054
-257.151	-28.123	-0.157	0.091
-256.136	-47.069	-0.291	-0.142
-255.122	33.009	-0.251	-0.218
-254.107	-200.000	0.050	-0.671
-253.092	-78.315	0.120	0.041
-252.078	366.075	0.121	-0.245
-251.063	141.275	0.052	0.069
-250.049	31.556	0.115	-0.099
-249.034	-40.842	-0.156	-0.081
-248.019	145.514	-0.028	-0.037
-247.005	-54.718	0.047	0.021
-245.990	-137.547	0.214	-0.024
-244.976	320.488	0.218	0.415
-243.961	-6.404	0.135	-0.093
-242.946	-102.943	-0.332	-0.079
-241.932	364.021	-0.054	-0.109
-240.917	-128.280	0.061	0.009
-239.903	-131.468	-0.119	0.016
-238.888	14.613	0.039	-0.031
-237.873	-68.716	-0.167	-0.065
-236.859	-93.774	-0.167	-0.046
-235.844	-71.771	-0.111	-0.042
-234.830	-200.000	-0.003	0.134
-233.815	259.453	0.142	0.246
-232.800	-200.000	-0.049	0.251
-231.786	-11.181	-0.153	-0.101
-230.771	-64.548	-0.154	-0.063
-229.757	-200.000	0.045	-0.276
-228.742	-200.000	-0.023	-0.206
-227.727	-200.000	0.002	0.352
-226.713	-107.629	0.107	-0.023
-225.698	-60.645	-0.151	-0.064
-224.684	-177.289	0.206	0.005
-223.669	68.574	0.188	-0.194
-222.655	800.000	0.034	0.098
-221.640	-109.341	0.455	0.097
-220.625	198.521	-0.057	0.087
-219.611	-22.414	-0.233	0.142
-218.596	800.000	-0.064	-0.200
-217.582	800.000	-0.048	-0.195
-216.567	34.313	0.151	0.132
-215.552	-21.259	-0.350	0.214
-214.538	-119.198	0.248	0.043
-213.523	800.000	0.110	0.445
-212.509	-155.178	-0.157	0.010
-211.494	-90.211	0.208	0.061
-210.479	260.088	0.115	-0.199
-209.465	-200.000	-0.010	-0.058
-208.450	279.397	0.099	-0.177
-207.436	196.282	-0.228	0.348
-206.421	-69.285	0.167	0.064
-205.406	24.486	0.251	0.208
-204.392	-92.471	0.128	-0.036
-203.377	-200.000	0.001	-0.139
-202.363	59.995	0.153	0.151
-201.348	-73.474	0.441	-0.161
-200.333	800.000	0.021	-0.073
-199.319	-122.915	-0.216	-0.035
-198.304	343.907	0.040	-0.079
-197.290	-27.096	0.132	0.077
-196.275	89.793	-0.148	0.166
-195.260	60.497	-0.303	-0.301
-194.246	-9.779	0.269	0.180
-193.231	187.371	0.171	0.255
-192.217	-200.000	0.010	0.145
-191.202	378.332	-0.122	-0.249
-190.187	-36.819	-0.298	-0.160
-189.173	726.263	-0.091	0.243
-188.158	448.322	0.057	0.126
-187.144	-200.000	-0.099	0.639
-186.129	64.376	-0.270	0.272
-185.114	-200.000	-0.026	0.314
-184.100	736.997	0.044	-0.118
-183.085	-200.000	-0.025	-0.441
-182.071	-89.375	-0.089	0.026
-181.056	617.085	-0.091	-0.228
-180.042	154.246	-0.113	0.155
-179.027	237.769	0.059	-0.098
-178.012	-200.000	0.020	-0.161
-176.998	27.983	0.098	-0.083
-175.983	141.015	0.132	-0.175
-174.969	-160.967	0.275	-0.014
-173.954	501.864	0.171	-0.396
-172.939	193.986	0.129	-0.196
-171.925	-66.807	-0.222	0.088
-170.910	280.259	-0.099	-0.177
-169.896	58.493	0.198	-0.194
-168.881	-200.000	-0.032	-0.194
-167.866	64.913	0.093	0.094
-166.852	79.716	0.128	-0.137
-165.837	711.563	0.085	-0.225
-164.823	-112.528	-0.244	0.049
-163.808	800.000	0.064	0.220
-162.793	222.374	-0.123	-0.198
-161.779	-79.199	0.233	-0.079
-160.764	-122.660	-0.125	0.020
-159.750	96.032	0.228	0.261
-158.735	-101.137	-0.097	0.024
-157.720	-24.049	-0.255	0.152
-156.706	0.356	0.293	-0.209
-155.691	800.000	0.078	0.251
-154.677	-200.000	0.059	0.296
-153.662	-25.610	-0.187	-0.110
-152.647	-200.000	-0.013	-0.365
-151.633	-200.000	0.019	0.140
-150.618	-11.976	-0.224	-0.147
-149.604	-26.514	-0.218	-0.128
-148.589	41.671	-0.267	-0.242
-147.574	800.000	-0.097	-0.342
-146.560	17.545	0.225	0.179
-145.545	132.772	0.200	-0.257
-144.531	-54.216	0.137	-0.062
-143.516	137.195	0.114	-0.149
-142.502	-10.813	-0.191	0.126
-141.487	173.918	0.221	0.319
-140.472	354.190	0.137	0.272
-139.458	85.955	0.169	0.186
-138.443	-147.836	0.315	-0.026
-137.429	4.638	0.097	-0.071
-136.414	110.781	-0.122	0.146
-135.399	-200.000	-0.039	-0.185
-134.385	706.439	-0.098	-0.257
-133.370	-103.987	0.168	0.039
-132.356	424.880	-0.036	-0.077
-131.341	-94.673	-0.244	-0.066
-130.326	-200.000	-0.018	0.431
-129.312	800.000	0.062	0.198
-128.297	-74.412	0.208	-0.075
-127.283	-86.441	-0.163	0.050
-126.268	-82.666	-0.610	-0.197
-125.253	73.454	-0.173	0.181
-124.239	-102.856	-0.166	-0.039
-123.224	505.956	0.136	0.314
-122.210	-104.428	-0.350	-0.081
