DTS Sentinel unit serial number:	SN413079Multiplexer serial number:	ORYXHardware model number:	OX4-SRSoftware version number:	ORYX F/W v4.00 Oryx Data Collector v3.7.2.0data status	okinstallation	princeton_trtdifferential loss correction	single-endedforward channel	channel 3reverse channel	N/Adate	2019/09/14time	14:32:35forward acquisition time	60.00reverse acquisition time	0.00gamma	496.2192k internal	0.2292k external	0.2292temperature offset calibration	1.0059default loss term (dB/km)	0.3790temperature slope calibration	1.0000multiplexer offset coefficient	1.0000multiplexer slope coefficient	1.0000fibre end	0.00T internal ref (°C)	39.19T ext. ref 1 (°C)	5.04T ext. ref 2 (°C)	35.61length (m)	temperature (°C)	Stokes	anti-Stokes-747.200	-40.044	0.280	0.150
-746.185	-200.000	0.017	0.163
-745.171	-200.000	-0.005	0.106
-744.156	-70.027	0.109	0.042
-743.142	-50.938	0.141	-0.068
-742.127	-86.156	-0.113	0.036
-741.112	1.344	-0.176	0.129
-740.098	800.000	-0.132	0.423
-739.083	49.323	0.065	-0.063
-738.069	-171.710	-0.348	-0.012
-737.054	800.000	0.045	-0.141
-736.039	249.641	-0.089	0.154
-735.025	800.000	-0.069	0.225
-734.010	217.448	0.056	0.092
-732.996	-200.000	0.004	-0.051
-731.981	-143.075	0.284	-0.028
-730.966	-35.683	0.103	0.057
-729.952	-141.859	-0.440	0.045
-728.937	-26.027	-0.108	-0.065
-727.923	51.780	-0.154	0.149
-726.908	-45.234	-0.186	-0.094
-725.894	-200.000	0.049	-0.248
-724.879	-43.826	0.127	-0.065
-723.864	-200.000	-0.028	0.337
-722.850	-25.322	0.070	-0.042
-721.835	97.661	0.171	0.201
-720.821	10.614	0.130	0.101
-719.806	-51.350	-0.118	0.057
-718.791	-48.715	0.205	0.101
-717.777	-105.797	-0.112	0.026
-716.762	9.843	0.080	0.062
-715.748	-200.000	-0.031	0.220
-714.733	-46.849	-0.195	0.097
-713.718	372.786	-0.050	-0.104
-712.704	-195.450	-0.083	0.001
-711.689	-200.000	-0.015	0.126
-710.675	-22.205	-0.295	0.183
-709.660	-80.553	-0.239	-0.082
-708.645	2.883	0.108	0.080
-707.631	-200.000	-0.024	-0.284
-706.616	442.368	0.055	0.123
-705.602	-200.000	-0.027	0.198
-704.587	-93.677	-0.073	0.021
-703.572	748.369	0.048	0.132
-702.558	-132.556	-0.400	0.052
-701.543	-200.000	0.027	-0.226
-700.529	-17.733	0.174	0.111
-699.514	-82.197	0.229	0.076
-698.499	800.000	0.042	-0.148
-697.485	117.924	0.196	0.247
-696.470	800.000	-0.043	0.124
-695.456	190.321	-0.077	0.119
-694.441	-200.000	-0.029	0.291
-693.426	-200.000	0.007	-0.349
-692.412	-37.667	-0.131	0.071
-691.397	53.152	0.054	0.053
-690.383	-67.994	0.259	-0.103
-689.368	-142.105	-0.268	-0.027
-688.354	459.028	0.051	0.116
-687.339	63.945	-0.085	0.087
-686.324	-146.369	-0.358	0.032
-685.310	11.134	0.161	-0.126
-684.295	383.649	0.221	-0.464
-683.281	-114.235	0.308	0.061
-682.266	-200.000	0.055	-0.260
-681.251	66.391	0.206	-0.213
-680.237	11.612	-0.377	0.295
-679.222	66.340	-0.112	-0.117
-678.208	-61.825	0.293	0.125
-677.193	317.169	-0.192	-0.370
-676.178	-200.000	0.011	0.389
-675.164	-200.000	0.060	0.300
-674.149	108.708	0.208	0.253
-673.135	-200.000	0.025	-0.233
-672.120	-130.083	0.357	-0.050
-671.105	-37.008	0.289	0.158
-670.091	-40.018	-0.482	0.256
-669.076	224.208	0.133	0.219
-668.062	-18.149	-0.279	0.178
-667.047	273.735	-0.121	0.219
-666.032	222.578	0.074	-0.122
-665.018	-96.948	-0.256	-0.069
-664.003	-44.925	-0.180	-0.092
-662.989	-119.583	0.192	-0.034
-661.974	-28.114	-0.227	-0.134
-660.959	155.599	-0.143	-0.200
-659.945	156.813	0.158	0.223
-658.930	-74.808	0.207	-0.076
-657.916	442.589	0.088	-0.197
-656.901	800.000	-0.096	-0.373
-655.886	744.070	0.050	0.138
-654.872	-200.000	0.014	0.280
-653.857	231.200	0.223	0.372
-652.843	800.000	-0.111	0.404
-651.828	800.000	0.104	-0.319
-650.814	285.949	-0.129	0.237
-649.799	-200.000	0.020	0.466
-648.784	-159.657	-0.318	-0.018
-647.770	-143.516	-0.310	0.030
-646.755	800.000	-0.094	-0.281
-645.741	-83.851	0.035	-0.011
-644.726	4.165	0.169	0.126
-643.711	-91.020	-0.077	0.023
-642.697	0.163	0.157	-0.114
-641.682	800.000	-0.087	0.295
-640.668	800.000	0.030	-0.130
-639.653	325.937	0.160	-0.312
-638.638	-103.698	-0.081	-0.019
-637.624	-27.118	0.486	-0.289
-636.609	740.915	-0.080	0.219
-635.595	-3.920	0.158	0.112
-634.580	37.122	0.201	-0.181
-633.565	-200.000	0.000	0.202
-632.551	252.239	0.121	0.209
-631.536	-102.711	0.084	-0.020
-630.522	-200.000	0.017	-0.263
-629.507	-76.734	0.284	0.101
-628.492	-200.000	0.058	0.481
-627.478	800.000	0.064	0.267
-626.463	-53.897	-0.069	-0.032
-625.449	11.636	-0.136	-0.106
-624.434	782.613	-0.144	-0.401
-623.419	-82.643	-0.306	0.101
-622.405	-200.000	-0.015	0.083
-621.390	248.962	-0.122	0.211
-620.376	191.539	-0.070	-0.108
-619.361	70.747	-0.144	0.152
-618.346	-200.000	-0.005	-0.024
-617.332	-200.000	0.035	-0.220
-616.317	56.019	-0.238	-0.235
-615.303	800.000	0.017	0.053
-614.288	238.611	0.108	-0.182
-613.273	-96.862	0.346	0.093
-612.259	109.308	-0.167	-0.203
-611.244	153.540	0.188	-0.262
-610.230	-162.357	0.190	-0.010
-609.215	800.000	-0.123	0.348
-608.201	800.000	0.050	0.207
-607.186	386.772	0.082	-0.173
-606.171	-200.000	0.018	0.352
-605.157	292.732	0.097	0.181
-604.142	599.262	-0.055	-0.138
-603.128	377.718	0.062	0.128
-602.113	702.419	-0.100	-0.267
-601.098	63.139	-0.156	0.159
-600.084	204.088	-0.052	0.082
-599.069	-42.070	-0.136	-0.071
-598.055	58.118	-0.240	-0.239
-597.040	-141.666	0.173	0.018
-596.025	112.094	-0.095	0.116
-595.011	-200.000	0.010	-0.087
-593.996	800.000	-0.052	-0.209
-592.982	205.345	0.139	-0.220
-591.967	514.651	0.082	-0.194
-590.952	162.500	-0.086	-0.122
-589.938	169.412	-0.171	0.248
-588.923	-56.245	-0.095	-0.043
-587.909	-7.893	-0.330	0.226
-586.894	-200.000	0.013	0.083
-585.879	-200.000	0.023	-0.118
-584.865	62.925	-0.186	0.190
-583.850	-128.716	-0.143	-0.020
-582.836	22.206	-0.378	-0.314
-581.821	318.079	-0.109	-0.209
-580.806	-60.091	-0.661	0.287
-579.792	204.970	-0.134	-0.212
-578.777	58.306	-0.040	-0.040
-577.763	117.311	-0.129	-0.162
-576.748	-88.532	0.052	-0.016
-575.733	-17.755	0.111	-0.071
-574.719	224.114	-0.147	-0.242
-573.704	-200.000	0.005	0.189
-572.690	545.462	0.064	-0.155
-571.675	417.281	-0.108	-0.234
-570.661	-5.579	-0.132	0.092
-569.646	227.956	-0.263	-0.435
-568.631	-33.763	-0.090	-0.050
-567.617	-131.801	-0.080	0.011
-566.602	-104.229	-0.415	-0.098
-565.588	-31.811	0.363	-0.207
-564.573	-200.000	0.037	-0.478
-563.558	83.228	0.191	-0.211
-562.544	-27.084	-0.157	-0.093
-561.529	96.540	0.067	0.078
-560.515	72.405	0.054	-0.057
-559.500	207.687	-0.122	-0.193
-558.485	-200.000	-0.052	-0.280
-557.471	800.000	-0.092	-0.357
-556.456	-76.128	0.203	-0.073
-555.442	353.896	0.092	0.185
-554.427	-55.587	-0.373	0.169
-553.412	13.006	-0.153	-0.120
-552.398	108.212	-0.101	-0.123
-551.383	13.983	0.405	0.320
-550.369	36.828	0.037	-0.033
-549.354	-11.811	0.134	-0.089
-548.339	-200.000	-0.054	0.252
-547.325	-19.911	-0.157	-0.098
-546.310	85.638	-0.176	0.197
-545.296	800.000	0.104	0.364
-544.281	-37.531	-0.191	-0.103
-543.266	222.453	-0.029	-0.047
-542.252	-52.362	0.425	0.200
-541.237	364.495	-0.084	0.172
-540.223	153.437	0.176	0.245
-539.208	-84.949	0.207	0.066
-538.193	-200.000	-0.077	0.511
-537.179	-29.009	-0.057	0.033
-536.164	-200.000	0.011	0.134
-535.150	16.317	0.255	0.205
-534.135	-67.316	0.062	-0.025
-533.121	403.237	0.077	-0.165
-532.106	-130.628	-0.189	0.026
-531.091	1.330	-0.124	-0.090
-530.077	-200.000	-0.029	-0.484
-529.062	-41.353	-0.291	0.152
-528.048	84.784	-0.167	0.186
-527.033	587.251	0.093	-0.233
-526.018	-60.914	0.431	0.185
-525.004	-60.589	-0.171	-0.074
-523.989	-10.989	-0.342	0.229
-522.975	98.849	0.074	-0.086
-521.960	-200.000	0.001	-0.206
-520.945	-79.632	0.163	0.056
-519.931	235.416	-0.076	0.128
-518.916	-161.038	0.011	0.001
-517.902	636.650	-0.123	-0.318
-516.887	50.124	-0.160	0.154
-515.872	-200.000	0.081	0.420
-514.858	-121.669	-0.229	0.038
-513.843	19.727	0.204	0.167
-512.829	-30.789	-0.263	0.151
-511.814	-69.661	0.320	-0.124
-510.799	800.000	0.052	0.182
-509.785	-188.599	-0.239	0.003
-508.770	-200.000	0.018	0.141
-507.756	-22.667	-0.249	0.152
-506.741	583.455	-0.101	-0.250
-505.726	97.843	0.046	-0.054
-504.712	99.268	0.236	0.276
-503.697	608.496	0.006	-0.016
-502.683	-200.000	0.020	0.147
-501.668	-200.000	0.028	0.211
-500.653	273.214	0.009	0.017
-499.639	-51.234	0.173	-0.082
-498.624	-99.022	-0.184	0.047
-497.610	-103.050	0.345	-0.083
-496.595	-200.000	0.001	0.047
-495.581	313.852	-0.044	-0.083
-494.566	-74.811	0.174	0.063
-493.551	530.984	-0.127	0.305
-492.537	198.385	0.160	-0.248
-491.522	110.020	0.128	0.156
-490.508	-200.000	0.024	0.305
-489.493	-200.000	0.015	0.081
-488.478	-104.573	0.259	-0.061
-487.464	-62.570	-0.095	-0.040
-486.449	800.000	-0.140	-0.402
-485.435	32.056	0.243	-0.213
-484.420	-101.345	-0.368	0.091
-483.405	-77.758	0.153	-0.053
-482.391	800.000	-0.089	-0.262
-481.376	405.394	0.153	0.327
-480.362	-58.605	-0.244	0.107
-479.347	74.574	-0.188	0.200
-478.332	-108.459	-0.282	-0.061
-477.318	43.168	0.118	0.109
-476.303	-12.527	0.195	0.129
-475.289	-113.639	0.281	-0.056
-474.274	64.273	-0.152	-0.155
-473.259	-158.837	0.347	0.020
-472.245	-33.316	0.177	0.099
-471.230	-71.010	-0.237	-0.090
-470.216	-73.280	0.138	-0.051
-469.201	-193.730	0.048	-0.000
-468.186	-0.727	0.162	0.116
-467.172	-94.413	-0.082	0.023
-466.157	-168.463	0.276	0.011
-465.143	200.580	0.020	-0.032
-464.128	-75.713	0.219	-0.079
-463.113	58.829	0.266	0.265
-462.099	-72.013	0.290	0.109
-461.084	632.574	0.104	-0.266
-460.070	-88.189	0.430	-0.130
-459.055	368.484	-0.146	-0.299
-458.040	12.599	-0.087	-0.068
-457.026	19.560	0.024	-0.020
-456.011	-88.638	0.259	-0.078
-454.997	54.183	0.054	-0.053
-453.982	-44.751	-0.029	-0.015
-452.968	-89.596	-0.276	0.082
-451.953	451.847	0.103	-0.230
-450.938	-200.000	-0.023	-0.218
-449.924	442.563	0.040	0.090
-448.909	-200.000	-0.028	-0.283
-447.895	-102.640	-0.269	-0.065
-446.880	800.000	0.083	-0.261
-445.865	-200.000	-0.017	-0.123
-444.851	-200.000	-0.055	0.314
-443.836	-164.738	-0.326	-0.015
-442.822	29.046	0.166	0.143
-441.807	275.137	0.166	-0.297
-440.792	424.759	-0.029	0.062
-439.778	-96.191	0.217	-0.058
-438.763	302.790	0.040	0.075
-437.749	-200.000	0.020	0.434
-436.734	278.166	0.034	0.061
-435.719	-65.356	0.238	0.097
-434.705	151.044	0.075	0.104
-433.690	-117.568	-0.226	0.041
-432.676	-61.246	0.221	0.094
-431.661	175.426	-0.169	-0.248
-430.646	-200.000	0.038	-0.186
-429.632	-116.973	0.102	0.019
-428.617	263.881	-0.030	0.053
-427.603	-64.104	-0.214	0.088
-426.588	192.077	-0.112	0.170
-425.573	51.101	-0.100	-0.096
-424.559	-200.000	-0.027	-0.246
-423.544	800.000	-0.093	0.281
-422.530	208.103	0.086	-0.135
-421.515	96.534	-0.013	0.016
-420.500	-70.784	0.143	0.054
-419.486	535.242	-0.128	0.306
-418.471	800.000	-0.041	0.152
-417.457	-122.803	0.427	0.070
-416.442	-76.942	-0.400	0.141
-415.428	681.119	0.083	-0.219
-414.413	-142.785	-0.154	0.015
-413.398	100.057	0.156	0.183
-412.384	-149.645	0.513	0.041
-411.369	-199.368	0.025	-0.000
-410.355	800.000	-0.049	-0.190
-409.340	276.658	0.127	-0.228
-408.325	-200.000	0.012	-0.271
-407.311	-154.408	0.066	-0.004
-406.296	538.136	0.014	-0.033
-405.282	-13.850	0.194	0.127
-404.267	-200.000	-0.027	-0.216
-403.252	-88.195	-0.086	0.026
-402.238	-22.678	-0.262	-0.160
-401.223	800.000	-0.026	-0.093
-400.209	125.578	-0.104	-0.133
-399.194	109.425	-0.004	0.005
-398.179	-87.000	0.170	0.052
-397.165	75.128	0.176	0.187
-396.150	489.854	-0.155	0.358
-395.136	-3.878	-0.136	-0.095
-394.121	8.985	0.280	-0.214
-393.106	-49.148	-0.131	0.063
-392.092	-53.758	-0.097	0.045
-391.077	33.923	0.058	0.051
-390.063	100.753	-0.101	0.118
-389.048	-69.663	0.324	0.125
-388.033	-65.087	0.103	-0.042
-387.019	-200.000	0.000	0.054
-386.004	-200.000	-0.022	0.098
-384.990	142.852	0.136	-0.182
-383.975	-85.034	0.127	-0.040
-382.960	29.455	0.045	-0.039
-381.946	-200.000	-0.048	0.369
-380.931	64.922	0.315	-0.321
-379.917	26.058	0.179	-0.151
-378.902	61.304	0.269	-0.270
-377.888	162.883	-0.066	-0.094
-376.873	-200.000	0.017	-0.103
-375.858	5.481	-0.131	-0.097
-374.844	-1.851	-0.118	0.084
-373.829	52.513	0.166	0.160
-372.815	-128.691	-0.152	0.022
-371.800	-70.771	0.274	-0.104
-370.785	-78.770	-0.183	-0.063
-369.771	-115.431	0.097	0.018
-368.756	68.699	-0.017	-0.018
-367.742	-200.000	0.032	0.315
-366.727	-49.130	-0.415	-0.200
-365.712	-88.444	-0.219	-0.066
-364.698	3.842	0.097	0.071
-363.683	-165.942	0.379	0.016
-362.669	-185.551	-0.271	-0.004
-361.654	117.283	0.034	-0.043
-360.639	800.000	-0.047	0.167
-359.625	-200.000	-0.003	-0.252
-358.610	771.408	0.061	0.166
-357.596	-127.816	0.209	-0.030
-356.581	-26.354	0.038	-0.022
-355.566	-103.740	0.324	0.076
-354.552	260.312	-0.074	0.129
-353.537	180.713	0.142	-0.211
-352.523	-61.279	-0.161	0.068
-351.508	-200.000	-0.011	0.169
-350.493	24.413	-0.175	0.146
-349.479	-78.177	0.046	0.016
-348.464	-200.000	-0.000	-0.042
-347.450	39.354	0.152	0.137
-346.435	-124.277	-0.096	-0.015
-345.420	800.000	-0.077	0.253
-344.406	664.467	-0.084	0.219
-343.391	-70.317	-0.225	-0.086
-342.377	-123.080	-0.163	-0.026
-341.362	164.129	0.160	0.228
-340.348	-200.000	0.004	-0.379
-339.333	336.977	-0.104	0.203
-338.318	-95.351	0.320	-0.087
-337.304	127.846	-0.261	0.334
-336.289	487.303	-0.099	0.228
-335.275	28.161	-0.178	0.151
-334.260	112.617	-0.101	-0.123
-333.245	452.495	-0.119	0.265
-332.231	5.149	-0.106	0.078
-331.216	-92.437	-0.161	0.046
-330.202	159.457	0.159	0.222
-329.187	-173.773	-0.098	-0.003
-328.172	-36.746	-0.272	0.147
-327.158	-85.516	-0.241	-0.076
-326.143	-108.257	0.369	0.080
-325.129	-69.126	-0.089	0.034
-324.114	19.085	-0.251	-0.203
-323.099	-10.498	-0.096	0.064
-322.085	-145.758	-0.237	-0.021
-321.070	-44.545	0.209	-0.105
-320.056	-150.615	-0.334	0.026
-319.041	264.170	-0.092	0.161
-318.026	652.241	-0.043	-0.112
-317.012	199.076	-0.184	-0.283
-315.997	-200.000	0.005	0.271
-314.983	-147.677	0.130	-0.011
-313.968	-53.603	-0.255	-0.117
-312.953	440.152	-0.021	-0.047
-311.939	690.776	-0.104	0.274
-310.924	800.000	-0.066	0.208
-309.910	-149.487	-0.604	0.048
-308.895	69.410	-0.151	-0.156
-307.880	34.582	0.340	0.299
-306.866	214.517	0.229	-0.365
-305.851	185.837	0.145	0.217
-304.837	42.737	-0.340	-0.312
-303.822	-31.113	0.118	0.067
-302.807	-158.241	-0.178	0.010
-301.793	-200.000	0.007	0.121
-300.778	185.451	-0.098	0.146
-299.764	-82.850	0.312	-0.101
-298.749	15.537	0.171	-0.135
-297.735	257.158	0.095	0.165
-296.720	-200.000	0.019	-0.122
-295.705	-94.124	0.321	0.088
-294.691	-200.000	0.010	0.141
-293.676	73.501	-0.270	-0.284
-292.662	-38.668	-0.185	0.098
-291.647	372.647	-0.149	0.305
-290.632	79.980	0.102	-0.110
-289.618	267.126	-0.069	0.122
-288.603	-103.868	0.208	0.049
-287.589	-109.793	-0.087	0.018
-286.574	347.514	-0.115	-0.228
-285.559	111.155	0.151	0.182
-284.545	15.381	0.049	0.039
-283.530	-67.141	-0.236	-0.093
-282.516	-74.833	0.143	-0.052
-281.501	231.652	0.214	0.353
-280.486	-200.000	-0.020	0.273
-279.472	-200.000	0.043	-0.408
-278.457	32.877	-0.110	-0.095
-277.443	-61.758	0.305	0.129
-276.428	-124.081	0.028	0.004
-275.413	-137.590	0.263	-0.030
-274.399	-104.970	0.214	0.049
-273.384	800.000	0.087	-0.244
-272.370	-90.908	0.244	-0.071
-271.355	-108.149	0.153	-0.033
-270.340	100.868	0.191	0.223
-269.326	-51.008	0.189	-0.089
-268.311	-40.450	-0.140	-0.073
-267.297	-200.000	-0.061	0.391
-266.282	154.367	-0.211	-0.291
-265.267	120.632	-0.220	-0.275
-264.253	800.000	-0.041	-0.133
-263.238	-200.000	-0.028	-0.146
-262.224	-3.740	0.041	0.029
-261.209	135.272	0.029	0.038
-260.195	-5.431	-0.279	0.192
-259.180	-83.628	0.230	0.074
-258.165	3.975	-0.124	0.091
-257.151	800.000	0.057	0.184
-256.136	-200.000	-0.046	-0.338
-255.122	108.846	0.150	0.180
-254.107	-107.738	0.280	0.061
-253.092	93.886	-0.165	-0.187
-252.078	-89.764	-0.102	0.030
-251.063	-200.000	-0.040	0.191
-250.049	-165.704	-0.205	-0.009
-249.034	-108.069	0.372	-0.081
-248.019	-200.000	-0.031	-0.232
-247.005	-98.744	0.320	-0.082
-245.990	-200.000	0.013	-0.088
-244.976	-164.691	-0.030	0.001
-243.961	107.911	-0.138	-0.165
-242.946	-200.000	0.014	-0.301
-241.932	340.756	0.146	-0.286
-240.917	63.059	0.178	0.179
-239.903	-101.890	-0.357	0.087
-238.888	-67.438	-0.174	-0.069
-237.873	-200.000	0.057	-0.266
-236.859	189.083	0.096	-0.144
-235.844	-135.656	0.155	0.018
-234.830	-98.652	0.420	-0.107
-233.815	91.610	0.162	-0.183
-232.800	-54.048	0.254	0.116
-231.786	-200.000	0.019	0.161
-230.771	-79.714	-0.094	-0.032
-229.757	-45.374	-0.181	-0.090
-228.742	-118.855	-0.109	-0.019
-227.727	-200.000	0.030	0.243
-226.713	26.282	-0.344	0.288
-225.698	-16.986	-0.169	-0.107
-224.684	-200.000	0.025	-0.177
-223.669	105.578	-0.284	-0.336
-222.655	-40.752	0.148	-0.077
-221.640	13.736	0.125	-0.097
-220.625	291.241	0.078	-0.142
-219.611	-29.543	0.083	-0.047
-218.596	-20.029	-0.125	0.077
-217.582	-155.983	0.201	0.013
-216.567	796.389	-0.074	0.204
-215.552	-38.817	-0.328	-0.173
-214.538	-65.400	0.041	-0.016
-213.523	-159.513	-0.205	-0.011
-212.509	-163.860	-0.156	0.007
-211.494	74.841	-0.106	0.112
-210.479	800.000	0.010	0.031
-209.465	395.907	-0.148	-0.310
-208.450	-200.000	0.016	-0.232
-207.436	800.000	0.089	0.277
-206.421	59.532	-0.245	0.242
-205.406	-82.616	-0.448	-0.146
-204.392	449.465	-0.044	0.098
-203.377	31.478	-0.132	0.114
-202.363	9.899	0.120	-0.092
-201.348	-108.757	0.138	0.030
-200.333	434.745	-0.083	-0.180
-199.319	-100.353	0.209	0.052
-198.304	-133.160	0.123	0.016
-197.290	-200.000	-0.012	0.170
-196.275	240.438	-0.076	-0.126
-195.260	158.113	0.071	0.099
-194.246	-82.489	-0.190	0.062
-193.231	117.645	-0.149	0.184
-192.217	-3.167	0.083	0.058
-191.202	-32.866	0.321	-0.179
-190.187	130.236	0.192	0.246
-189.173	52.599	0.124	0.118
-188.158	257.834	-0.087	0.150
-187.144	420.139	0.240	-0.515
-186.129	470.466	0.074	-0.167
-185.114	-151.010	0.187	0.014
-184.100	-200.000	0.033	0.243
-183.085	558.724	-0.055	-0.133
-182.071	-88.186	0.096	-0.029
-181.056	-120.984	0.070	-0.012
-180.042	139.129	-0.099	-0.130
-179.027	-175.273	0.182	-0.005
-178.012	-132.307	-0.290	0.038
-176.998	-127.656	-0.095	0.014
-175.983	-100.672	0.091	-0.023
-174.969	414.359	-0.152	-0.323
-173.954	-57.762	-0.397	0.174
-172.939	-200.000	0.009	0.300
-171.925	-49.874	-0.258	0.123
-170.910	-88.760	0.415	0.123
-169.896	57.519	-0.146	-0.143
-168.881	-58.893	0.102	-0.044
-167.866	328.560	-0.041	0.079
-166.852	-15.607	0.046	-0.030
-165.837	-200.000	0.003	-0.159
-164.823	162.767	0.227	-0.319
-163.808	-29.045	0.180	-0.103
-162.793	4.739	0.051	0.037
-161.779	-21.614	0.270	0.164
-160.764	-200.000	-0.109	-0.000
-159.750	442.446	-0.122	0.268
-158.735	-164.591	0.251	-0.011
-157.720	154.452	-0.131	0.180
-156.706	-122.396	0.207	-0.034
-155.691	-52.439	0.205	0.095
-154.677	-111.107	-0.436	0.089
-153.662	3.350	0.228	-0.166
-152.647	43.545	0.037	-0.034
-151.633	800.000	-0.014	-0.039
-150.618	-111.897	-0.239	0.048
-149.604	288.956	0.081	-0.147
-148.589	-98.473	0.177	0.045
-147.574	200.449	-0.127	-0.195
-146.560	800.000	0.029	-0.129
-145.545	12.632	-0.151	-0.116
-144.531	363.370	0.085	-0.170
-143.516	123.898	0.083	0.104
-142.502	95.534	-0.134	0.153
-141.487	78.149	0.109	0.116
-140.472	162.864	-0.183	0.257
-139.458	-60.469	0.129	-0.055
-138.443	-94.582	-0.200	-0.054
-137.429	-73.082	0.310	0.113
-136.414	-160.707	0.188	0.010
-135.399	-132.046	-0.145	-0.019
-134.385	25.959	0.146	0.122
-133.370	386.783	0.089	-0.184
-132.356	800.000	0.141	0.434
-131.341	72.313	-0.348	0.363
-130.326	95.638	0.116	0.133
-129.312	193.667	-0.008	-0.011
-128.297	-138.842	-0.257	0.028
-127.283	224.440	-0.160	0.259
-126.268	-9.835	-0.326	0.217
-125.253	131.834	-0.028	-0.035
-124.239	21.658	-0.273	0.222
-123.224	-200.000	-0.035	-0.216
-122.210	148.466	0.188	0.253
-121.195	104.235	-0.214	-0.251
-120.180	-197.689	-0.531	-0.003
