DTS Sentinel unit serial number:	SN413079Multiplexer serial number:	ORYXHardware model number:	OX4-SRSoftware version number:	ORYX F/W v4.00 Oryx Data Collector v3.7.2.0data status	okinstallation	princeton_trtdifferential loss correction	single-endedforward channel	channel 3reverse channel	N/Adate	2019/09/15time	12:24:35forward acquisition time	60.00reverse acquisition time	0.00gamma	496.2192k internal	0.2301k external	0.2301temperature offset calibration	0.9970default loss term (dB/km)	0.3790temperature slope calibration	1.0000multiplexer offset coefficient	1.0000multiplexer slope coefficient	1.0000fibre end	0.00T internal ref (°C)	34.92T ext. ref 1 (°C)	5.03T ext. ref 2 (°C)	32.42length (m)	temperature (°C)	Stokes	anti-Stokes-747.200	800.000	-0.040	0.176
-746.185	-200.000	-0.021	0.486
-745.171	800.000	-0.110	-0.422
-744.156	-182.364	0.234	0.004
-743.142	-166.755	-0.283	-0.012
-742.127	3.231	0.200	0.149
-741.112	662.165	0.093	0.244
-740.098	83.540	-0.185	0.205
-739.083	-39.449	0.154	-0.082
-738.069	387.017	-0.112	0.237
-737.054	-200.000	0.004	-0.209
-736.039	75.375	-0.297	-0.319
-735.025	-63.845	0.211	0.088
-734.010	140.544	-0.198	-0.266
-732.996	800.000	-0.076	0.225
-731.981	-183.014	-0.279	-0.005
-730.966	412.014	0.114	0.247
-729.952	69.324	-0.364	-0.381
-728.937	120.883	-0.122	-0.155
-727.923	-108.045	0.149	-0.033
-726.908	90.498	-0.354	-0.403
-725.894	-12.709	0.347	-0.231
-724.879	225.397	-0.131	-0.216
-723.864	-19.152	-0.082	-0.052
-722.850	800.000	0.048	0.189
-721.835	800.000	-0.091	-0.395
-720.821	-20.351	0.112	0.070
-719.806	-28.301	-0.339	0.200
-718.791	45.781	0.061	-0.057
-717.777	800.000	0.089	-0.315
-716.762	-101.627	-0.091	-0.022
-715.748	-200.000	-0.020	-0.292
-714.733	-66.002	0.333	-0.136
-713.718	-137.446	-0.347	0.040
-712.704	-183.413	-0.069	-0.001
-711.689	-118.625	-0.401	-0.072
-710.675	198.245	0.043	-0.066
-709.660	-4.801	0.227	-0.159
-708.645	800.000	-0.041	-0.137
-707.631	-78.971	0.183	-0.063
-706.616	-47.801	-0.181	0.089
-705.602	91.177	-0.211	-0.241
-704.587	-85.166	-0.068	0.022
-703.572	231.878	-0.106	0.177
-702.558	-200.000	-0.032	-0.286
-701.543	-94.953	-0.136	-0.038
-700.529	-126.606	0.272	-0.041
-699.514	-200.000	-0.044	-0.505
-698.499	16.168	0.356	0.285
-697.485	-169.592	-0.197	-0.007
-696.470	427.465	-0.093	0.204
-695.456	798.939	-0.120	0.336
-694.441	-16.982	-0.291	0.187
-693.426	3.867	-0.267	-0.198
-692.412	329.038	0.083	0.162
-691.397	-49.519	0.356	0.172
-690.383	800.000	0.030	-0.114
-689.368	-126.264	0.240	-0.037
-688.354	314.083	-0.113	0.216
-687.339	-124.261	-0.119	-0.019
-686.324	-145.460	-0.142	0.013
-685.310	8.562	0.077	0.059
-684.295	81.312	0.179	0.196
-683.281	101.941	-0.087	0.103
-682.266	187.891	-0.105	0.160
-681.251	-200.000	-0.085	0.449
-680.237	-176.384	0.380	0.010
-679.222	-46.887	0.268	0.133
-678.208	-6.353	-0.317	0.220
-677.193	-127.592	-0.286	0.042
-676.178	-200.000	-0.068	-0.458
-675.164	-200.000	0.025	-0.195
-674.149	-92.683	-0.258	-0.074
-673.135	-132.251	-0.172	0.023
-672.120	590.056	-0.078	0.194
-671.105	-98.722	-0.404	0.105
-670.091	800.000	0.042	0.142
-669.076	261.174	0.078	-0.136
-668.062	158.959	-0.070	0.099
-667.047	-168.196	-0.200	-0.008
-666.032	305.487	-0.152	-0.287
-665.018	-36.273	-0.086	-0.047
-664.003	75.316	0.130	0.140
-662.989	434.488	-0.084	-0.186
-661.974	-200.000	-0.013	-0.309
-660.959	-105.919	-0.207	-0.047
-659.945	-137.240	0.191	-0.022
-658.930	800.000	0.016	-0.060
-657.916	-200.000	-0.027	-0.160
-656.901	-102.956	-0.066	0.016
-655.886	5.661	-0.068	-0.051
-654.872	262.974	0.192	-0.339
-653.857	86.552	-0.094	-0.105
-652.843	495.397	-0.088	-0.205
-651.828	-71.635	-0.169	-0.064
-650.814	-70.447	-0.299	-0.115
-649.799	97.934	-0.273	-0.319
-648.784	15.191	-0.277	-0.221
-647.770	-78.885	0.105	0.036
-646.755	-115.529	-0.137	-0.026
-645.741	800.000	-0.057	-0.195
-644.726	-50.125	-0.126	0.061
-643.711	-118.885	0.061	0.011
-642.697	79.724	0.094	-0.102
-641.682	-80.383	0.252	-0.085
-640.668	-40.723	-0.247	-0.130
-639.653	35.098	0.310	-0.276
-638.638	49.471	-0.232	0.222
-637.624	-126.762	-0.252	-0.038
-636.609	27.957	0.130	0.111
-635.595	602.235	0.057	0.144
-634.580	237.937	-0.054	0.091
-633.565	-200.000	0.000	-0.314
-632.551	-200.000	-0.055	0.305
-631.536	-29.680	-0.018	0.011
-630.522	-66.883	-0.356	-0.143
-629.507	-90.918	0.121	0.035
-628.492	-39.014	0.320	-0.171
-627.478	318.508	-0.029	-0.056
-626.463	-130.748	-0.206	0.028
-625.449	694.976	-0.005	-0.013
-624.434	800.000	0.069	0.234
-623.419	-200.000	0.026	-0.411
-622.405	695.319	0.023	-0.060
-621.390	-3.283	-0.195	-0.138
-620.376	23.364	-0.219	-0.183
-619.361	-200.000	0.047	0.225
-618.346	-29.996	-0.271	-0.157
-617.332	-22.141	0.281	-0.173
-616.317	303.089	-0.086	0.162
-615.303	-97.756	0.201	-0.053
-614.288	28.696	0.136	-0.117
-613.273	106.070	0.061	0.073
-612.259	-146.213	0.126	0.011
-611.244	19.977	-0.193	0.158
-610.230	-200.000	-0.059	-0.276
-609.215	238.181	-0.126	-0.212
-608.201	26.639	-0.109	0.093
-607.186	-42.814	0.189	-0.098
-606.171	729.976	0.086	-0.233
-605.157	-74.344	-0.299	-0.110
-604.142	155.691	-0.176	-0.246
-603.128	143.506	0.137	0.185
-602.113	290.750	0.074	0.137
-601.098	319.633	0.144	-0.277
-600.084	-43.888	0.330	0.168
-599.069	-137.251	-0.180	0.021
-598.055	-63.180	0.257	0.107
-597.040	99.614	-0.173	-0.203
-596.025	-78.713	0.432	0.150
-595.011	170.937	0.138	-0.200
-593.996	800.000	0.056	0.228
-592.982	56.755	0.113	-0.111
-591.967	6.311	0.151	-0.113
-590.952	-101.022	-0.409	-0.102
-589.938	800.000	-0.036	-0.102
-588.923	-200.000	-0.050	-0.364
-587.909	-34.292	-0.355	0.197
-586.894	39.945	-0.174	-0.158
-585.879	336.375	-0.052	0.102
-584.865	800.000	-0.134	0.395
-583.850	-14.655	0.211	-0.137
-582.836	71.906	0.252	0.265
-581.821	-75.821	0.166	0.060
-580.806	104.326	0.231	0.275
-579.792	-29.994	-0.204	-0.118
-578.777	-200.000	-0.001	0.035
-577.763	235.624	0.122	0.204
-576.748	-157.243	-0.051	-0.003
-575.733	127.969	0.197	-0.253
-574.719	22.082	0.184	0.152
-573.704	800.000	-0.093	0.281
-572.690	-200.000	0.062	-0.330
-571.675	22.350	-0.283	-0.234
-570.661	-45.219	-0.235	-0.118
-569.646	-152.903	0.366	0.026
-568.631	-1.950	0.112	-0.080
-567.617	-200.000	-0.038	-0.445
-566.602	55.536	0.159	-0.155
-565.588	6.132	-0.196	-0.147
-564.573	-4.488	-0.111	-0.078
-563.558	-200.000	0.002	-0.267
-562.544	-200.000	0.001	0.168
-561.529	62.291	-0.170	-0.172
-560.515	118.919	-0.109	-0.136
-559.500	-151.475	-0.369	0.028
-558.485	-200.000	0.025	-0.174
-557.471	317.911	-0.099	-0.189
-556.456	-47.684	-0.167	0.082
-555.442	-200.000	0.066	0.463
-554.427	-200.000	0.031	-0.451
-553.412	-64.454	-0.159	0.066
-552.398	-200.000	-0.005	0.205
-551.383	-101.220	-0.293	0.072
-550.369	-200.000	0.027	-0.211
-549.354	-200.000	0.004	0.029
-548.339	-67.283	0.077	-0.031
-547.325	-200.000	-0.021	0.256
-546.310	-144.357	0.149	-0.014
-545.296	800.000	-0.037	-0.132
-544.281	800.000	-0.093	-0.388
-543.266	-101.823	0.224	0.055
-542.252	9.820	-0.169	-0.130
-541.237	-58.875	0.272	-0.119
-540.223	-16.123	0.151	0.097
-539.208	676.669	-0.085	-0.224
-538.193	51.235	-0.161	-0.154
-537.179	513.270	-0.053	0.126
-536.164	-86.170	-0.020	0.006
-535.150	800.000	-0.066	0.274
-534.135	272.080	-0.103	0.183
-533.121	-97.650	-0.437	0.115
-532.106	800.000	0.086	-0.378
-531.091	627.056	-0.027	-0.070
-530.077	-200.000	0.030	-0.319
-529.062	800.000	-0.074	-0.276
-528.048	800.000	-0.064	0.201
-527.033	-155.975	-0.171	0.011
-526.018	90.856	-0.219	0.248
-525.004	449.842	-0.057	-0.126
-523.989	53.644	-0.235	0.228
-522.975	-63.665	0.211	0.087
-521.960	-132.800	0.105	-0.014
-520.945	-79.682	0.085	-0.029
-519.931	-106.569	-0.215	0.048
-518.916	800.000	-0.059	0.185
-517.902	-193.911	0.128	-0.001
-516.887	160.061	-0.126	0.178
-515.872	-80.456	0.349	0.118
-514.858	-73.573	0.284	-0.105
-513.843	69.243	-0.179	-0.186
-512.829	136.081	0.063	-0.083
-511.814	800.000	0.064	-0.229
-510.799	-30.417	0.322	0.185
-509.785	411.582	0.075	0.161
-508.770	-200.000	0.014	0.129
-507.756	-2.243	0.239	-0.170
-506.741	151.392	-0.073	-0.100
-505.726	-200.000	-0.016	0.231
-504.712	36.216	-0.064	0.057
-503.697	-200.000	0.028	0.278
-502.683	632.676	-0.057	-0.147
-501.668	-93.640	0.405	-0.113
-500.653	-174.097	0.075	0.002
-499.639	-0.419	-0.070	0.050
-498.624	-200.000	-0.019	-0.106
-497.610	-114.871	-0.092	-0.018
-496.595	-144.617	0.538	-0.050
-495.581	-59.091	-0.240	0.105
-494.566	800.000	0.051	0.209
-493.551	85.638	0.197	0.218
-492.537	-144.165	0.187	0.018
-491.522	100.830	-0.102	0.120
-490.508	-39.428	-0.327	-0.173
-489.493	-139.534	-0.209	-0.023
-488.478	57.504	0.158	-0.156
-487.464	79.150	-0.136	-0.147
-486.449	35.345	-0.107	-0.095
-485.435	437.366	0.117	0.258
-484.420	11.367	0.043	0.033
-483.405	800.000	-0.120	-0.371
-482.391	278.012	0.099	-0.178
-481.376	56.613	0.345	-0.339
-480.362	800.000	0.110	0.358
-479.347	97.418	-0.012	-0.014
-478.332	50.595	-0.106	0.101
-477.318	-29.266	0.208	0.120
-476.303	-200.000	0.014	0.357
-475.289	47.298	-0.054	0.051
-474.274	800.000	-0.093	-0.267
-473.259	-58.289	-0.484	-0.213
-472.245	-34.248	-0.216	-0.120
-471.230	-30.368	-0.424	-0.243
-470.216	-179.411	0.014	-0.000
-469.201	217.518	0.096	0.154
-468.186	64.476	-0.078	0.080
-467.172	-131.210	0.529	0.071
-466.157	-153.200	-0.202	-0.014
-465.143	-48.451	0.143	0.069
-464.128	-45.442	0.166	0.083
-463.113	-200.000	-0.021	0.210
-462.099	-200.000	0.011	-0.083
-461.084	-13.881	-0.247	-0.161
-460.070	305.089	-0.053	0.099
-459.055	226.860	0.068	0.112
-458.040	-157.778	0.128	0.008
-457.026	-32.421	-0.272	-0.153
-456.011	42.035	0.222	0.203
-454.997	172.362	0.081	0.117
-453.982	800.000	0.119	0.377
-452.968	-66.991	0.172	-0.068
-451.953	33.975	0.193	0.169
-450.938	18.979	0.081	0.065
-449.924	-4.043	-0.249	0.174
-448.909	381.904	0.030	0.062
-447.895	-28.605	-0.195	0.113
-446.880	96.962	-0.050	-0.058
-445.865	60.370	-0.056	-0.056
-444.851	-49.043	0.083	0.040
-443.836	800.000	0.098	-0.413
-442.822	9.867	0.452	-0.346
-441.807	-200.000	-0.003	-0.334
-440.792	134.485	-0.066	-0.086
-439.778	411.295	-0.106	0.226
-438.763	-135.574	-0.331	0.040
-437.749	133.613	-0.033	-0.043
-436.734	-200.000	-0.080	-0.383
-435.719	-108.203	0.335	0.073
-434.705	-200.000	-0.013	0.210
-433.690	-69.876	-0.288	-0.111
-432.676	2.431	-0.391	0.285
-431.661	-31.441	0.382	-0.216
-430.646	-97.076	-0.434	0.114
-429.632	800.000	0.060	-0.222
-428.617	-200.000	-0.004	-0.133
-427.603	455.736	-0.109	-0.244
-426.588	227.987	0.167	-0.273
-425.573	293.604	-0.077	0.141
-424.559	173.886	-0.166	0.241
-423.544	-150.161	0.424	-0.033
-422.530	-70.391	-0.080	-0.030
-421.515	-200.000	0.002	-0.126
-420.500	-200.000	-0.012	-0.065
-419.486	-36.132	-0.132	0.072
-418.471	-17.783	-0.137	0.087
-417.457	502.985	-0.079	0.183
-416.442	114.640	0.143	0.175
-415.428	800.000	0.077	-0.228
-414.413	-70.321	-0.138	0.053
-413.398	800.000	-0.074	0.280
-412.384	43.652	0.346	0.318
-411.369	-137.012	-0.192	0.022
-410.355	268.146	-0.163	0.287
-409.340	126.391	0.363	0.462
-408.325	22.224	-0.241	0.198
-407.311	-200.000	0.009	-0.091
-406.296	-200.000	-0.026	0.340
-405.282	800.000	0.039	-0.111
-404.267	187.228	0.149	0.224
-403.252	-64.216	-0.277	0.114
-402.238	-184.978	0.110	0.002
-401.223	180.077	0.221	0.326
-400.209	-200.000	0.004	-0.052
-399.194	-26.088	-0.494	-0.292
-398.179	317.250	0.160	-0.305
-397.165	-120.886	-0.034	-0.006
-396.150	666.324	0.162	0.420
-395.136	-157.410	0.159	0.010
-394.121	-197.016	0.221	0.001
-393.106	-41.510	-0.176	-0.091
-392.092	-81.328	-0.104	0.034
-391.077	-98.095	0.355	0.092
-390.063	800.000	0.041	0.165
-389.048	171.913	-0.128	-0.185
-388.033	-98.527	0.269	0.069
-387.019	90.529	-0.343	-0.386
-386.004	800.000	-0.049	0.208
-384.990	-136.927	0.179	0.021
-383.975	-124.406	-0.199	-0.031
-382.960	800.000	0.087	-0.342
-381.946	37.512	0.214	-0.190
-380.931	-17.750	-0.271	-0.171
-379.917	-200.000	-0.129	0.645
-378.902	-73.641	-0.073	0.027
-377.888	-200.000	-0.001	0.088
-376.873	-151.068	-0.210	0.016
-375.858	631.256	0.095	-0.241
-374.844	-200.000	-0.041	-0.189
-373.829	-96.668	0.043	-0.011
-372.815	-200.000	-0.006	-0.173
-371.800	53.556	-0.017	0.016
-370.785	-41.385	-0.264	-0.136
-369.771	494.789	0.039	0.089
-368.756	367.681	0.082	-0.167
-367.742	-200.000	-0.076	0.333
-366.727	31.224	0.165	-0.143
-365.712	-92.772	0.159	-0.045
-364.698	321.710	-0.032	-0.061
-363.683	800.000	0.090	0.354
-362.669	-120.406	-0.181	0.031
-361.654	271.662	-0.139	0.245
-360.639	531.183	-0.070	-0.165
-359.625	171.088	0.194	0.279
-358.610	93.052	0.052	0.059
-357.596	800.000	-0.116	0.363
-356.581	-200.000	-0.007	-0.150
-355.566	800.000	0.083	0.277
-354.552	-116.183	0.140	-0.026
-353.537	-112.814	-0.045	0.009
-352.523	800.000	0.095	-0.286
-351.508	85.306	0.067	-0.074
-350.493	180.458	0.122	0.180
-349.479	-200.000	0.016	0.134
-348.464	344.350	-0.117	-0.231
-347.450	-52.739	0.442	-0.205
-346.435	90.451	0.133	0.150
-345.420	-8.634	0.297	-0.200
-344.406	-167.522	-0.363	-0.015
-343.391	193.921	0.073	-0.111
-342.377	60.169	0.426	-0.423
-341.362	99.513	0.074	-0.085
-340.348	386.629	-0.074	0.154
-339.333	189.611	0.163	0.245
-338.318	-200.000	0.000	0.007
-337.304	11.510	-0.268	-0.206
-336.289	-39.236	0.111	-0.058
-335.275	-200.000	-0.030	0.253
-334.260	117.349	0.066	-0.081
-333.245	-125.007	0.301	-0.046
-332.231	39.180	0.075	0.068
-331.216	-200.000	0.014	0.114
-330.202	338.674	-0.132	0.258
-329.187	-87.508	-0.182	0.055
-328.172	-43.980	-0.167	0.084
-327.158	-24.418	0.072	-0.043
-326.143	-176.336	0.192	0.005
-325.129	-200.000	0.071	0.429
-324.114	-58.920	0.191	0.083
-323.099	-80.125	-0.216	-0.073
-322.085	3.396	0.206	0.150
-321.070	-53.477	0.233	-0.107
-320.056	800.000	-0.125	-0.370
-319.041	-183.809	-0.281	-0.005
-318.026	-200.000	0.005	-0.190
-317.012	40.734	-0.242	-0.219
-315.997	160.207	0.055	0.077
-314.983	-186.706	0.365	0.005
-313.968	-122.671	0.208	0.034
-312.953	800.000	-0.038	0.152
-311.939	30.739	-0.124	0.106
-310.924	695.921	-0.153	-0.402
-309.910	-24.840	0.128	-0.076
-308.895	594.884	-0.045	-0.112
-307.880	6.537	-0.147	-0.109
-306.866	-155.879	0.261	-0.017
-305.851	-134.842	0.166	-0.020
-304.837	-3.093	-0.118	0.082
-303.822	744.855	0.064	-0.174
-302.807	-68.029	-0.465	-0.182
-301.793	-200.000	0.033	0.209
-300.778	-200.000	0.004	-0.145
-299.764	-99.832	0.085	0.021
-298.749	-12.945	-0.131	-0.085
-297.735	275.452	0.114	0.202
-296.720	-200.000	-0.022	0.212
-295.705	78.527	-0.207	0.222
-294.691	261.913	-0.084	0.145
-293.676	-70.794	-0.140	0.053
-292.662	-26.989	-0.143	-0.084
-291.647	-200.000	-0.013	-0.081
-290.632	113.030	-0.006	0.008
-289.618	285.457	0.120	0.216
-288.603	336.443	-0.113	-0.220
-287.589	24.908	0.163	-0.136
-286.574	-200.000	0.062	0.300
-285.559	-140.507	0.096	-0.010
-284.545	-82.380	-0.169	0.055
-283.530	-27.418	0.142	-0.082
-282.516	-44.403	-0.373	0.187
-281.501	-146.340	0.109	-0.010
-280.486	-200.000	-0.043	-0.247
-279.472	173.534	0.115	0.166
-278.457	-200.000	0.000	-0.057
-277.443	102.505	0.116	0.135
-276.428	-120.081	0.315	-0.054
-275.413	406.792	-0.039	-0.082
-274.399	119.279	-0.055	0.068
-273.384	268.267	0.153	-0.268
-272.370	14.782	0.260	-0.204
-271.355	339.321	-0.136	-0.265
-270.340	215.532	-0.130	0.206
-269.326	-200.000	0.038	0.218
-268.311	12.011	0.127	0.098
-267.297	-200.000	-0.014	0.157
-266.282	-200.000	0.000	-0.154
-265.267	240.742	-0.155	0.258
-264.253	-200.000	0.081	0.428
-263.238	-200.000	0.002	0.053
-262.224	150.338	-0.111	0.151
-261.209	-158.165	-0.162	0.009
-260.195	-200.000	0.156	-0.000
-259.180	-60.924	0.229	0.097
-258.165	-111.850	0.070	-0.014
-257.151	463.353	-0.175	0.392
-256.136	-99.299	-0.247	-0.062
-255.122	-81.065	-0.141	0.047
-254.107	569.815	0.107	0.259
-253.092	241.586	0.150	-0.252
-252.078	-142.682	-0.282	0.028
-251.063	-112.211	0.075	-0.015
-250.049	-16.215	-0.193	-0.123
-249.034	-141.114	-0.244	-0.025
-248.019	28.491	0.148	0.126
-247.005	47.210	0.163	0.152
-245.990	-27.635	-0.083	0.048
-244.976	-200.000	-0.045	-0.241
-243.961	-128.510	-0.273	-0.039
-242.946	32.680	-0.153	0.132
-241.932	-151.652	0.085	-0.006
-240.917	-200.000	0.002	0.129
-239.903	-200.000	0.011	-0.110
-238.888	-65.893	0.129	0.051
-237.873	5.239	0.168	0.124
-236.859	800.000	-0.030	-0.084
-235.844	-67.076	0.055	0.022
-234.830	-200.000	-0.012	-0.232
-233.815	-25.949	0.128	-0.075
-232.800	59.059	-0.189	0.186
-231.786	-176.941	0.037	-0.001
-230.771	-6.838	-0.109	-0.074
-229.757	800.000	-0.066	0.201
-228.742	-37.559	0.192	0.102
-227.727	-41.890	0.166	-0.085
-226.713	-200.000	0.020	0.322
-225.698	431.399	0.128	-0.276
-224.684	-7.880	-0.053	-0.036
-223.669	-135.031	0.210	-0.025
-222.655	-134.649	0.244	-0.030
-221.640	-111.311	-0.183	-0.037
-220.625	-69.657	-0.300	0.114
-219.611	-200.000	-0.019	0.243
-218.596	800.000	0.074	-0.295
-217.582	469.859	-0.084	-0.188
-216.567	504.112	-0.167	-0.386
-215.552	563.040	0.251	-0.608
-214.538	192.714	-0.034	-0.052
-213.523	763.512	-0.047	0.126
-212.509	515.400	0.061	-0.142
-211.494	-200.000	-0.041	-0.219
-210.479	79.886	0.338	0.362
-209.465	-7.870	-0.140	0.094
-208.450	800.000	0.047	0.169
-207.436	0.155	0.029	-0.021
-206.421	-200.000	0.068	-0.588
-205.406	-133.076	-0.354	-0.045
-204.392	-48.397	-0.010	0.005
-203.377	627.600	0.071	-0.178
-202.363	236.020	0.070	0.115
-201.348	-122.862	-0.057	-0.009
-200.333	-133.638	0.054	-0.007
-199.319	477.000	0.127	-0.286
-198.304	800.000	-0.042	0.132
-197.290	-83.294	-0.117	0.037
-196.275	-26.544	-0.220	0.129
-195.260	54.910	-0.144	-0.139
-194.246	800.000	0.037	0.149
-193.231	-200.000	-0.027	-0.155
-192.217	-138.517	-0.223	-0.024
-191.202	51.186	-0.089	0.084
-190.187	-117.046	-0.086	-0.016
-189.173	183.070	0.211	0.311
-188.158	99.260	-0.335	0.387
-187.144	51.316	0.296	0.281
-186.129	366.315	0.077	0.155
-185.114	-6.597	-0.344	-0.234
-184.100	-116.778	-0.213	-0.039
-183.085	-200.000	0.006	0.114
-182.071	-31.752	-0.033	0.019
-181.056	526.329	-0.112	-0.264
-180.042	-12.661	0.241	-0.157
-179.027	-95.077	0.109	-0.029
-178.012	-37.890	0.032	0.017
-176.998	-200.000	0.012	0.184
-175.983	47.234	0.145	0.135
-174.969	800.000	-0.017	0.057
-173.954	-1.023	0.111	-0.078
-172.939	198.537	0.077	-0.118
-171.925	299.213	0.163	-0.299
-170.910	25.649	0.154	-0.127
-169.896	-200.000	0.026	0.360
-168.881	61.234	-0.217	0.215
-167.866	-200.000	-0.059	0.483
-166.852	800.000	0.117	0.415
-165.837	10.714	0.142	-0.108
-164.823	222.300	-0.184	-0.296
-163.808	-200.000	-0.022	0.170
-162.793	-200.000	0.054	0.399
-161.779	530.983	0.038	-0.090
-160.764	243.612	0.110	0.184
-159.750	-15.523	0.243	0.154
-158.735	50.354	0.176	-0.166
-157.720	-72.626	0.255	-0.094
-156.706	-92.284	0.139	0.039
-155.691	55.194	0.169	0.163
-154.677	222.171	-0.070	0.112
-153.662	-12.841	-0.335	0.218
-152.647	-200.000	0.012	-0.262
-151.633	-159.002	-0.258	-0.015
-150.618	176.479	-0.291	0.421
-149.604	112.419	0.219	0.264
-148.589	773.981	0.079	-0.214
-147.574	313.181	-0.219	-0.409
-146.560	177.434	-0.164	-0.238
-145.545	800.000	-0.057	-0.210
-144.531	111.947	0.137	-0.165
-143.516	647.764	-0.159	-0.404
-142.502	108.153	-0.077	-0.092
-141.487	-61.969	0.133	-0.055
-140.472	316.641	-0.076	0.143
-139.458	-99.592	-0.171	-0.043
-138.443	-32.694	-0.146	0.081
-137.429	-38.952	0.068	-0.036
-136.414	1.032	-0.208	-0.148
-135.399	72.376	-0.026	0.027
-134.385	139.666	0.076	0.099
-133.370	-160.931	0.387	0.020
-132.356	-65.765	0.208	0.083
-131.341	37.432	0.225	0.199
-130.326	-200.000	-0.032	0.372
-129.312	-111.505	-0.090	-0.018
-128.297	-200.000	-0.002	-0.369
-127.283	-69.709	-0.071	-0.027
-126.268	-89.913	-0.184	0.053
-125.253	16.005	0.279	0.218
-124.239	-200.000	0.054	-0.400
-123.224	50.998	-0.155	-0.146
-122.210	-193.566	-0.300	-0.003
-121.195	330.067	0.128	0.244
