DTS Sentinel unit serial number:	SN413079Multiplexer serial number:	ORYXHardware model number:	OX4-SRSoftware version number:	ORYX F/W v4.00 Oryx Data Collector v3.7.2.0data status	okinstallation	princeton_trtdifferential loss correction	single-endedforward channel	channel 3reverse channel	N/Adate	2019/09/14time	20:40:34forward acquisition time	60.00reverse acquisition time	0.00gamma	496.2192k internal	0.2315k external	0.2315temperature offset calibration	1.0000default loss term (dB/km)	0.3790temperature slope calibration	1.0000multiplexer offset coefficient	1.0000multiplexer slope coefficient	1.0000fibre end	0.00T internal ref (°C)	33.37T ext. ref 1 (°C)	4.78T ext. ref 2 (°C)	28.04length (m)	temperature (°C)	Stokes	anti-Stokes-747.200	-140.854	-0.260	0.027
-746.185	-174.152	-0.080	-0.002
-745.171	-48.803	0.170	0.083
-744.156	-200.000	0.013	0.076
-743.142	-84.557	0.258	0.082
-742.127	-200.000	-0.020	-0.210
-741.112	183.115	0.037	-0.056
-740.098	-200.000	0.003	-0.176
-739.083	-76.688	-0.195	-0.069
-738.069	800.000	0.050	0.215
-737.054	-101.099	-0.277	0.069
-736.039	-40.921	-0.229	0.120
-735.025	-117.865	0.320	-0.058
-734.010	49.196	0.138	-0.131
-732.996	55.806	0.052	-0.051
-731.981	-25.750	0.330	-0.197
-730.966	-200.000	-0.018	0.085
-729.952	271.475	0.195	-0.348
-728.937	40.494	0.228	-0.208
-727.923	146.064	0.049	-0.067
-726.908	13.731	0.132	-0.104
-725.894	800.000	-0.085	-0.342
-724.879	22.479	0.285	-0.236
-723.864	124.299	0.111	-0.141
-722.850	-200.000	0.019	-0.135
-721.835	45.811	0.206	-0.192
-720.821	-139.949	-0.093	-0.010
-719.806	86.076	0.122	0.135
-718.791	-75.200	-0.314	-0.114
-717.777	-200.000	-0.018	-0.133
-716.762	126.876	0.147	0.188
-715.748	-123.745	-0.406	-0.065
-714.733	-15.590	-0.262	-0.169
-713.718	588.875	-0.017	0.043
-712.704	72.179	0.248	0.261
-711.689	-200.000	0.026	0.119
-710.675	18.691	-0.194	-0.157
-709.660	-46.808	0.295	-0.146
-708.645	-200.000	-0.073	0.377
-707.631	-110.115	0.349	-0.074
-706.616	-200.000	-0.027	-0.185
-705.602	-131.803	-0.211	0.028
-704.587	800.000	0.024	-0.076
-703.572	-200.000	0.007	-0.297
-702.558	-113.026	0.040	-0.008
-701.543	-96.033	-0.375	-0.101
-700.529	348.434	-0.070	0.139
-699.514	-200.000	-0.018	-0.118
-698.499	96.814	0.155	-0.180
-697.485	-200.000	-0.016	-0.233
-696.470	11.834	0.125	-0.097
-695.456	239.535	-0.059	-0.099
-694.441	8.412	-0.163	0.124
-693.426	255.273	0.232	-0.401
-692.412	-42.753	0.017	0.009
-691.397	556.531	0.082	-0.200
-690.383	-84.686	-0.263	-0.084
-689.368	-96.885	-0.290	0.077
-688.354	-43.003	0.169	-0.087
-687.339	-84.690	-0.478	0.152
-686.324	-114.483	-0.222	-0.043
-685.310	-99.942	0.060	-0.015
-684.295	-200.000	0.007	-0.202
-683.281	-39.602	0.145	0.077
-682.266	-133.564	-0.077	-0.010
-681.251	-13.400	0.082	-0.054
-680.237	162.504	-0.138	-0.195
-679.222	81.761	-0.094	-0.102
-678.208	84.032	0.039	-0.044
-677.193	-192.603	-0.082	0.001
-676.178	32.826	0.252	0.221
-675.164	44.678	-0.095	0.088
-674.149	-137.613	0.157	0.018
-673.135	44.302	0.072	0.067
-672.120	-90.345	0.214	-0.063
-671.105	19.680	-0.218	0.177
-670.091	244.813	-0.061	-0.104
-669.076	-200.000	0.033	-0.161
-668.062	800.000	-0.032	0.111
-667.047	-45.824	-0.196	-0.098
-666.032	-59.726	0.136	-0.059
-665.018	68.351	-0.053	0.055
-664.003	-128.721	0.114	0.016
-662.989	800.000	-0.026	-0.113
-661.974	594.933	0.122	-0.306
-660.959	-73.432	0.086	-0.032
-659.945	-75.567	-0.093	-0.033
-658.930	-200.000	0.081	0.375
-657.916	52.016	-0.183	-0.176
-656.901	-37.706	0.276	-0.148
-655.886	242.689	0.262	0.444
-654.872	3.030	0.130	-0.095
-653.857	-160.928	0.054	0.003
-652.843	-200.000	-0.014	0.115
-651.828	382.354	0.180	0.373
-650.814	-67.552	-0.136	-0.054
-649.799	-67.424	0.137	-0.054
-648.784	368.578	0.109	0.222
-647.770	116.656	-0.116	0.144
-646.755	-140.476	0.203	-0.021
-645.741	-200.000	0.003	0.174
-644.726	-200.000	-0.027	0.165
-643.711	800.000	-0.030	-0.115
-642.697	-151.218	-0.096	0.007
-641.682	-200.000	-0.041	-0.208
-640.668	-65.207	-0.117	-0.047
-639.653	291.344	-0.196	-0.359
-638.638	-200.000	0.027	-0.245
-637.624	-200.000	0.032	-0.222
-636.609	-59.240	-0.315	0.137
-635.595	2.485	0.278	0.203
-634.580	393.580	-0.067	0.140
-633.565	-200.000	-0.013	0.114
-632.551	-64.264	0.319	-0.131
-631.536	-110.080	-0.335	-0.071
-630.522	-8.413	-0.057	-0.039
-629.507	-96.751	-0.401	-0.106
-628.492	-200.000	-0.025	-0.208
-627.478	-98.870	0.296	0.076
-626.463	-200.000	0.048	-0.258
-625.449	-41.353	-0.375	-0.195
-624.434	-200.000	-0.017	-0.206
-623.419	115.587	0.051	-0.063
-622.405	65.400	-0.126	-0.129
-621.390	96.184	0.149	-0.172
-620.376	33.419	0.122	-0.107
-619.361	-101.959	0.121	0.029
-618.346	-200.000	-0.003	0.193
-617.332	559.142	0.127	-0.308
-616.317	800.000	-0.035	0.115
-615.303	-20.562	-0.168	-0.104
-614.288	2.878	-0.145	-0.106
-613.273	116.071	0.116	0.144
-612.259	-187.118	-0.235	-0.003
-611.244	800.000	0.051	-0.171
-610.230	-156.962	-0.176	0.011
-609.215	-43.169	-0.182	-0.093
-608.201	-200.000	-0.035	-0.209
-607.186	-6.940	0.105	0.072
-606.171	-126.321	-0.313	0.047
-605.157	-85.181	0.176	-0.055
-604.142	-24.848	-0.135	0.081
-603.128	84.837	-0.108	-0.120
-602.113	-144.694	0.067	0.006
-601.098	11.281	0.150	0.116
-600.084	167.499	0.189	-0.271
-599.069	486.390	0.020	-0.046
-598.055	232.617	-0.286	-0.474
-597.040	-200.000	0.020	0.187
-596.025	432.163	-0.106	0.230
-595.011	-200.000	-0.060	0.305
-593.996	-200.000	0.037	0.238
-592.982	800.000	0.043	0.147
-591.967	-169.879	0.381	-0.014
-590.952	4.232	0.364	0.268
-589.938	84.181	-0.036	-0.039
-588.923	-200.000	0.046	-0.405
-587.909	565.001	-0.171	-0.418
-586.894	-52.708	-0.260	-0.121
-585.879	155.447	-0.154	-0.214
-584.865	-136.325	-0.064	-0.008
-583.850	-44.171	-0.373	-0.188
-582.836	-200.000	-0.099	-0.591
-581.821	800.000	0.073	0.250
-580.806	-200.000	-0.027	0.211
-579.792	19.985	0.136	-0.110
-578.777	329.703	-0.075	-0.144
-577.763	-200.000	-0.042	0.462
-576.748	12.350	0.221	0.172
-575.733	-200.000	0.027	0.461
-574.719	46.421	0.085	0.079
-573.704	-200.000	-0.034	-0.242
-572.690	-102.843	0.057	0.014
-571.675	-35.079	-0.035	-0.019
-570.661	-200.000	-0.021	0.182
-569.646	-56.110	-0.183	-0.082
-568.631	13.705	-0.121	-0.095
-567.617	-2.410	0.099	0.070
-566.602	-111.652	-0.023	0.005
-565.588	33.024	0.254	0.221
-564.573	-196.704	-0.071	0.000
-563.558	34.431	-0.158	-0.139
-562.544	8.558	0.064	-0.049
-561.529	-96.493	0.381	0.101
-560.515	-134.640	-0.322	-0.039
-559.500	36.219	0.169	-0.150
-558.485	324.545	-0.084	0.161
-557.471	-43.551	-0.128	-0.065
-556.456	-200.000	0.040	0.394
-555.442	800.000	-0.053	0.196
-554.427	-65.756	-0.189	0.076
-553.412	739.237	-0.103	0.279
-552.398	-31.890	-0.177	0.100
-551.383	-70.534	-0.260	0.099
-550.369	-200.000	-0.002	-0.049
-549.354	-73.597	0.153	0.056
-548.339	109.280	0.023	0.028
-547.325	-200.000	-0.012	-0.289
-546.310	47.225	0.091	-0.086
-545.296	-49.298	0.352	-0.169
-544.281	-148.499	0.029	-0.002
-543.266	16.453	-0.181	-0.144
-542.252	-133.626	0.116	0.015
-541.237	-28.396	-0.136	0.079
-540.223	-155.128	-0.172	0.011
-539.208	-84.281	0.272	-0.087
-538.193	-150.973	-0.067	0.005
-537.179	-197.799	0.118	-0.001
-536.164	-200.000	0.041	0.306
-535.150	800.000	-0.061	0.176
-534.135	-88.767	-0.256	-0.076
-533.121	-200.000	0.048	0.228
-532.106	108.869	0.047	-0.056
-531.091	-18.056	-0.010	0.006
-530.077	-115.937	-0.087	0.016
-529.062	-4.458	0.378	0.263
-528.048	-200.000	0.006	0.126
-527.033	-73.297	0.119	-0.044
-526.018	536.355	-0.077	-0.183
-525.004	-48.885	-0.233	-0.112
-523.989	-122.660	-0.061	0.010
-522.975	-200.000	-0.096	0.000
-521.960	138.602	-0.190	-0.251
-520.945	127.051	-0.055	0.069
-519.931	-103.549	0.267	-0.063
-518.916	-122.832	0.127	-0.021
-517.902	-200.000	-0.037	-0.175
-516.887	688.796	0.032	-0.085
-515.872	492.184	0.086	-0.199
-514.858	800.000	0.059	0.186
-513.843	-88.260	-0.047	-0.014
-512.829	-200.000	0.007	0.262
-511.814	800.000	-0.030	-0.100
-510.799	-97.658	-0.655	-0.170
-509.785	554.263	0.033	-0.081
-508.770	86.168	-0.118	-0.131
-507.756	-108.008	-0.142	0.031
-506.741	73.377	-0.266	0.279
-505.726	10.259	0.211	-0.161
-504.712	-200.000	-0.269	-0.000
-503.697	800.000	0.067	-0.283
-502.683	114.215	-0.236	0.288
-501.668	-37.088	0.183	-0.098
-500.653	-200.000	0.001	0.414
-499.639	-15.651	-0.119	0.076
-498.624	18.299	0.428	-0.343
-497.610	-128.423	-0.118	0.017
-496.595	-39.603	-0.311	-0.164
-495.581	16.849	-0.111	-0.088
-494.566	620.629	-0.094	0.236
-493.551	-62.100	-0.318	0.133
-492.537	800.000	0.069	-0.224
-491.522	386.078	-0.044	-0.092
-490.508	376.261	0.079	0.162
-489.493	211.632	0.093	-0.146
-488.478	800.000	-0.029	0.113
-487.464	-98.247	-0.241	0.062
-486.449	-40.010	-0.334	-0.175
-485.435	-120.797	0.339	0.057
-484.420	-200.000	-0.047	-0.285
-483.405	-132.718	0.168	-0.022
-482.391	-162.318	0.193	0.010
-481.376	-14.123	-0.236	0.153
-480.362	-59.119	0.301	-0.130
-479.347	-200.000	-0.058	-0.284
-478.332	-83.227	0.178	0.057
-477.318	-200.000	0.013	0.167
-476.303	68.815	0.264	-0.272
-475.289	-30.532	-0.198	0.113
-474.274	-192.866	-0.308	-0.003
-473.259	-107.345	0.188	-0.041
-472.245	800.000	-0.034	0.145
-471.230	268.815	-0.063	0.112
-470.216	17.497	0.108	-0.086
-469.201	-200.000	0.002	0.175
-468.186	581.186	0.122	-0.299
-467.172	-164.721	-0.213	-0.010
-466.157	-44.021	0.191	-0.096
-465.143	800.000	0.048	0.180
-464.128	218.773	-0.070	0.112
-463.113	236.564	0.183	0.303
-462.099	800.000	-0.018	-0.072
-461.084	-200.000	0.016	-0.218
-460.070	-34.224	0.065	0.036
-459.055	436.051	-0.050	0.108
-458.040	31.525	-0.284	0.244
-457.026	-17.685	0.225	0.142
-456.011	-82.231	0.148	-0.048
-454.997	791.118	0.108	-0.297
-453.982	-40.397	-0.168	0.088
-452.968	-148.681	-0.295	0.024
-451.953	383.759	-0.178	-0.368
-450.938	14.088	0.185	-0.144
-449.924	-56.117	-0.261	-0.116
-448.909	351.025	-0.072	-0.143
-447.895	-24.208	0.248	0.148
-446.880	-200.000	-0.026	-0.136
-445.865	-4.372	-0.153	0.106
-444.851	-153.381	-0.120	0.008
-443.836	-73.814	-0.354	-0.129
-442.822	-200.000	-0.033	-0.243
-441.807	8.060	-0.155	-0.116
-440.792	-64.539	0.147	-0.060
-439.778	800.000	0.052	-0.153
-438.763	800.000	-0.082	-0.351
-437.749	252.488	0.126	0.215
-436.734	-67.064	-0.084	0.033
-435.719	481.229	0.058	0.132
-434.705	-200.000	-0.204	-0.000
-433.690	800.000	-0.047	0.190
-432.676	-15.312	-0.201	0.129
-431.661	-200.000	-0.018	-0.225
-430.646	800.000	-0.017	-0.072
-429.632	800.000	-0.041	-0.155
-428.617	-24.658	0.167	0.100
-427.603	335.290	-0.166	-0.322
-426.588	-32.661	0.172	0.096
-425.573	-146.987	-0.456	0.039
-424.559	-34.465	-0.268	-0.147
-423.544	-200.000	0.005	0.107
-422.530	484.686	0.036	0.082
-421.515	159.033	-0.100	-0.140
-420.500	-93.004	0.093	-0.026
-419.486	279.742	0.128	0.228
-418.471	43.840	-0.086	0.079
-417.457	7.760	-0.308	-0.231
-416.442	702.457	0.076	0.201
-415.428	238.926	0.080	0.133
-414.413	-78.117	0.157	0.054
-413.398	83.143	0.217	-0.236
-412.384	244.355	-0.155	-0.260
-411.369	-98.564	-0.176	-0.045
-410.355	-51.587	-0.292	0.136
-409.340	800.000	0.060	0.227
-408.325	465.496	0.104	-0.233
-407.311	2.074	0.238	0.172
-406.296	272.822	-0.138	0.244
-405.282	150.376	0.122	0.165
-404.267	-18.736	0.305	-0.190
-403.252	504.686	0.097	-0.225
-402.238	-200.000	0.029	0.242
-401.223	800.000	0.079	0.345
-400.209	89.143	-0.075	0.084
-399.194	-97.969	-0.242	-0.062
-398.179	-115.167	-0.413	-0.078
-397.165	52.669	-0.156	0.149
-396.150	-40.397	-0.079	-0.041
-395.136	-200.000	0.068	0.445
-394.121	800.000	-0.083	0.350
-393.106	246.148	0.122	0.205
-392.092	49.895	0.147	0.138
-391.077	111.986	0.131	0.159
-390.063	-7.733	0.124	0.084
-389.048	-167.266	0.214	0.009
-388.033	3.640	-0.122	-0.089
-387.019	-143.129	-0.134	0.013
-386.004	702.041	0.128	0.337
-384.990	-200.000	-0.004	0.156
-383.975	-80.826	0.052	-0.017
-382.960	454.052	0.044	-0.097
-381.946	155.269	0.105	0.145
-380.931	-40.246	0.098	-0.051
-379.917	65.533	-0.171	-0.173
-378.902	4.169	-0.141	-0.103
-377.888	-29.767	-0.033	-0.019
-376.873	-122.928	-0.241	-0.039
-375.858	-102.401	-0.139	0.033
-374.844	97.825	0.028	0.032
-373.829	-16.779	0.327	0.206
-372.815	-95.641	-0.105	-0.028
-371.800	-108.164	0.236	0.051
-370.785	-120.329	0.081	0.014
-369.771	291.955	-0.084	0.153
-368.756	-28.998	0.099	0.057
-367.742	-114.984	0.351	-0.067
-366.727	-96.794	-0.162	0.042
-365.712	460.871	0.149	-0.331
-364.698	-200.000	-0.014	0.068
-363.683	-120.789	-0.126	-0.021
-362.669	120.421	-0.144	0.178
-361.654	-61.401	0.362	-0.152
-360.639	-76.553	0.664	-0.233
-359.625	24.732	-0.134	0.111
-358.610	-77.918	0.266	-0.092
-357.596	-73.464	0.098	0.036
-356.581	-5.226	-0.100	0.069
-355.566	142.071	0.217	0.288
-354.552	89.096	0.146	-0.162
-353.537	102.665	-0.088	-0.102
-352.523	376.593	-0.044	0.090
-351.508	-200.000	0.011	0.183
-350.493	-109.440	-0.350	-0.074
-349.479	-11.687	0.138	0.090
-348.464	85.303	0.093	0.102
-347.450	502.600	-0.120	-0.278
-346.435	-54.237	-0.158	-0.071
-345.420	-96.564	0.172	-0.045
-344.406	88.378	-0.039	-0.043
-343.391	800.000	0.120	-0.363
-342.377	20.187	0.197	0.159
-341.362	-179.520	0.155	-0.003
-340.348	-101.739	0.370	-0.089
-339.333	31.989	0.125	-0.107
-338.318	68.040	0.215	0.219
-337.304	370.278	-0.040	0.081
-336.289	-200.000	0.011	0.169
-335.275	800.000	0.033	-0.130
-334.260	685.007	0.116	-0.301
-333.245	-59.784	0.216	-0.092
-332.231	286.463	-0.075	0.135
-331.216	-54.362	-0.264	0.120
-330.202	-200.000	-0.046	0.263
-329.187	-200.000	0.016	-0.332
-328.172	800.000	-0.086	-0.346
-327.158	-200.000	0.084	-0.402
-326.143	-92.503	-0.372	0.104
-325.129	16.230	-0.230	0.181
-324.114	-200.000	-0.021	0.156
-323.099	153.104	-0.201	0.275
-322.085	800.000	-0.017	-0.053
-321.070	61.904	0.234	0.232
-320.056	-112.993	0.127	0.025
-319.041	703.397	-0.033	0.088
-318.026	800.000	-0.084	-0.292
-317.012	72.565	0.257	0.267
-315.997	241.500	0.094	0.157
-314.983	-200.000	-0.059	0.262
-313.968	676.490	-0.048	-0.123
-312.953	90.596	-0.054	-0.060
-311.939	-83.768	0.320	-0.102
-310.924	82.463	0.118	-0.127
-309.910	-26.901	-0.440	-0.256
-308.895	800.000	0.035	-0.120
-307.880	80.956	-0.021	0.023
-306.866	-14.859	-0.106	0.068
-305.851	-118.497	0.241	0.042
-304.837	-200.000	-0.000	-0.227
-303.822	-70.080	0.323	-0.122
-302.807	-9.068	-0.060	-0.040
-301.793	163.264	-0.096	0.135
-300.778	740.737	0.007	0.019
-299.764	135.658	-0.120	-0.156
-298.749	-4.373	0.090	-0.062
-297.735	-27.171	-0.007	-0.004
-296.720	-200.000	-0.071	0.350
-295.705	-121.312	-0.110	-0.018
-294.691	-128.774	-0.167	-0.023
-293.676	-200.000	0.006	0.028
-292.662	-68.012	-0.029	0.011
-291.647	-100.007	0.088	-0.022
-290.632	-94.295	0.079	-0.021
-289.618	800.000	-0.088	-0.315
-288.603	-55.506	0.150	0.067
-287.589	198.466	0.097	0.148
-286.574	-35.320	-0.039	-0.021
-285.559	-200.000	-0.054	-0.411
-284.545	353.866	0.184	-0.364
-283.530	-200.000	0.014	0.312
-282.516	205.331	0.133	-0.206
-281.501	-80.915	0.189	0.062
-280.486	97.937	-0.173	0.199
-279.472	164.482	-0.139	-0.195
-278.457	-45.389	0.100	0.049
-277.443	-27.278	-0.128	-0.074
-276.428	405.750	0.070	-0.146
-275.413	430.040	0.028	0.059
-274.399	-160.338	0.250	0.013
-273.384	-16.041	0.179	0.113
-272.370	75.110	0.063	-0.066
-271.355	88.905	0.069	-0.076
-270.340	-37.951	0.209	0.110
-269.326	-14.086	0.196	-0.126
-268.311	-57.815	-0.337	0.147
-267.297	800.000	0.056	-0.156
-266.282	-200.000	-0.006	-0.181
-265.267	800.000	0.028	0.096
-264.253	-200.000	-0.034	-0.231
-263.238	-67.936	0.316	0.123
-262.224	-141.959	-0.401	0.040
-261.209	18.342	0.114	0.090
-260.195	800.000	0.079	-0.238
-259.180	626.409	0.052	-0.131
-258.165	403.893	-0.163	-0.341
-257.151	365.171	0.072	-0.145
-256.136	-55.876	0.116	-0.051
-255.122	-7.304	0.061	0.041
-254.107	346.675	-0.077	-0.150
-253.092	-113.013	0.198	0.039
-252.078	108.458	-0.155	0.184
-251.063	-200.000	-0.044	0.195
-250.049	-200.000	0.045	0.223
-249.034	-200.000	0.002	-0.082
-248.019	218.111	0.103	-0.163
-247.005	46.637	-0.034	-0.031
-245.990	67.290	-0.091	0.093
-244.976	426.651	-0.121	-0.258
-243.961	-168.611	0.103	0.004
-242.946	283.115	0.040	0.071
-241.932	-19.865	-0.096	-0.059
-240.917	-200.000	-0.017	0.260
-239.903	-200.000	-0.008	0.219
-238.888	142.000	-0.155	-0.205
-237.873	800.000	-0.040	-0.145
-236.859	163.686	0.105	0.147
-235.844	48.787	0.066	-0.062
-234.830	-97.129	0.112	0.029
-233.815	160.709	0.098	-0.136
-232.800	-10.784	-0.217	-0.143
-231.786	-65.511	-0.287	-0.114
-230.771	245.190	0.053	0.089
-229.757	-200.000	0.037	0.365
-228.742	-200.000	-0.004	0.048
-227.727	-200.000	-0.027	0.281
-226.713	27.213	-0.160	0.133
-225.698	-151.833	0.104	0.008
-224.684	225.586	0.123	0.198
-223.669	-200.000	0.009	-0.043
-222.655	-146.251	-0.190	-0.017
-221.640	-102.441	0.182	0.043
-220.625	-111.060	0.574	-0.117
-219.611	-75.216	0.173	-0.061
-218.596	353.044	0.072	-0.142
-217.582	112.495	-0.083	0.100
-216.567	-104.129	0.184	0.042
-215.552	5.785	0.141	-0.103
-214.538	-43.771	-0.119	0.059
-213.523	-200.000	-0.028	0.121
-212.509	-127.545	-0.066	-0.009
-211.494	800.000	0.038	0.131
-210.479	-26.136	-0.240	0.140
-209.465	-14.595	-0.117	0.075
-208.450	210.399	0.142	0.221
-207.436	268.012	-0.064	0.111
-206.421	-94.239	-0.230	0.062
-205.406	-200.000	0.020	0.256
-204.392	-1.256	0.263	-0.185
-203.377	-200.000	-0.025	-0.163
-202.363	-90.856	0.119	-0.034
-201.348	-200.000	0.027	0.193
-200.333	-85.535	0.474	-0.146
-199.319	-200.000	-0.002	0.235
-198.304	-200.000	0.007	0.259
-197.290	154.633	0.129	0.176
-196.275	-73.515	0.011	-0.004
-195.260	-174.234	0.125	0.004
-194.246	704.449	0.079	-0.207
-193.231	-177.334	-0.328	0.008
-192.217	-200.000	0.042	0.255
-191.202	-48.078	0.234	0.112
-190.187	216.350	0.157	0.248
-189.173	15.396	-0.098	0.076
-188.158	-83.453	-0.402	-0.128
-187.144	27.132	0.120	0.100
-186.129	-112.465	0.227	-0.045
-185.114	-1.710	-0.184	-0.128
-184.100	58.110	0.095	-0.093
-183.085	368.840	-0.104	0.209
-182.071	800.000	-0.069	0.204
-181.056	137.801	0.089	-0.116
-180.042	-14.685	0.184	-0.117
-179.027	-79.826	-0.399	0.133
-178.012	-145.766	-0.160	0.014
-176.998	-144.929	-0.027	0.002
-175.983	-116.793	0.068	-0.012
-174.969	1.194	0.159	-0.113
-173.954	-104.045	-0.539	0.124
-172.939	-16.635	0.202	0.127
-171.925	-200.000	0.013	-0.315
-170.910	347.774	0.115	0.225
-169.896	-190.873	0.055	-0.001
-168.881	51.185	-0.071	0.066
-167.866	-97.007	0.258	-0.067
-166.852	-65.449	0.159	-0.063
-165.837	-109.852	0.310	0.064
-164.823	-93.135	0.276	0.076
-163.808	532.488	-0.117	0.274
-162.793	491.750	0.089	0.202
-161.779	208.195	-0.046	0.071
-160.764	-25.862	-0.140	0.082
-159.750	130.306	-0.060	0.076
-158.735	-11.500	0.086	-0.056
-157.720	-55.078	0.156	-0.069
-156.706	143.507	-0.178	-0.235
-155.691	-111.195	0.127	0.026
-154.677	109.731	-0.165	-0.196
-153.662	175.001	-0.186	-0.267
-152.647	68.603	0.219	0.223
-151.633	-91.761	-0.198	0.056
-150.618	-18.327	0.124	0.077
-149.604	-68.932	0.150	0.057
-148.589	-40.246	0.315	-0.163
-147.574	-96.150	0.327	-0.086
-146.560	-12.659	-0.070	0.045
-145.545	-125.266	0.294	0.045
-144.531	118.898	0.097	-0.119
-143.516	82.433	0.217	-0.233
-142.502	-45.604	-0.103	-0.051
-141.487	193.968	-0.213	0.320
-140.472	-84.784	0.176	-0.055
-139.458	-107.031	-0.030	-0.007
-138.443	246.440	0.131	-0.218
-137.429	-200.000	-0.008	0.212
-136.414	800.000	-0.089	0.325
-135.399	-200.000	0.011	0.097
-134.385	-48.749	-0.185	0.088
-133.370	-200.000	0.121	0.575
-132.356	124.526	-0.229	0.286
-131.341	15.745	0.097	0.076
-130.326	-21.176	0.272	0.164
-129.312	21.495	-0.214	-0.172
-128.297	-25.640	0.321	-0.187
-127.283	-8.124	0.241	0.161
-126.268	-25.009	0.159	-0.093
-125.253	36.207	-0.055	0.048
-124.239	329.875	0.057	-0.109
-123.224	313.733	-0.038	-0.072
-122.210	-200.000	0.005	-0.255
-121.195	364.595	0.144	0.286
