DTS Sentinel unit serial number:	SN413079Multiplexer serial number:	ORYXHardware model number:	OX4-SRSoftware version number:	ORYX F/W v4.00 Oryx Data Collector v3.7.2.0data status	okinstallation	princeton_trtdifferential loss correction	single-endedforward channel	channel 3reverse channel	N/Adate	2019/09/13time	16:12:34forward acquisition time	60.00reverse acquisition time	0.00gamma	496.2192k internal	0.2303k external	0.2303temperature offset calibration	1.0140default loss term (dB/km)	0.3790temperature slope calibration	1.0000multiplexer offset coefficient	1.0000multiplexer slope coefficient	1.0000fibre end	0.00T internal ref (°C)	34.81T ext. ref 1 (°C)	4.84T ext. ref 2 (°C)	31.42length (m)	temperature (°C)	Stokes	anti-Stokes-747.200	-200.000	-0.024	0.149
-746.185	-200.000	-0.007	0.085
-745.171	-166.326	0.054	0.002
-744.156	-200.000	0.004	0.179
-743.142	-200.000	-0.033	0.324
-742.127	316.466	0.068	-0.130
-741.112	-200.000	0.027	0.267
-740.098	2.317	-0.096	0.071
-739.083	420.029	0.075	0.163
-738.069	800.000	0.075	0.273
-737.054	-200.000	0.047	-0.383
-736.039	-76.365	-0.224	0.080
-735.025	351.981	0.104	0.210
-734.010	-101.607	-0.308	-0.076
-732.996	800.000	0.047	-0.200
-731.981	-168.674	-0.389	0.015
-730.966	-200.000	0.031	-0.210
-729.952	532.920	0.109	0.262
-728.937	-18.806	-0.396	-0.251
-727.923	-200.000	0.044	0.228
-726.908	-30.450	-0.177	-0.102
-725.894	800.000	0.093	-0.309
-724.879	-9.014	0.200	0.136
-723.864	3.976	-0.194	-0.144
-722.850	29.156	-0.037	0.032
-721.835	-36.634	-0.110	0.060
-720.821	-83.780	-0.203	-0.066
-719.806	270.889	-0.121	-0.217
-718.791	-148.649	-0.256	0.021
-717.777	-137.125	-0.211	0.025
-716.762	329.914	-0.111	0.217
-715.748	-200.000	0.008	0.110
-714.733	749.127	-0.095	-0.260
-713.718	-76.687	-0.267	-0.095
-712.704	-200.000	-0.036	0.175
-711.689	72.581	-0.090	-0.096
-710.675	-173.041	-0.145	0.005
-709.660	-64.139	0.314	-0.130
-708.645	-77.730	-0.051	0.018
-707.631	-24.049	0.084	0.051
-706.616	800.000	-0.115	-0.373
-705.602	444.821	0.159	-0.355
-704.587	72.584	-0.273	0.289
-703.572	-122.713	0.208	0.034
-702.558	449.490	0.067	0.151
-701.543	800.000	-0.071	0.265
-700.529	800.000	-0.102	0.296
-699.514	800.000	0.024	-0.098
-698.499	427.872	-0.205	-0.450
-697.485	-200.000	0.015	-0.088
-696.470	800.000	-0.100	-0.352
-695.456	-137.914	-0.067	0.008
-694.441	51.601	0.023	0.022
-693.426	-50.056	-0.171	-0.082
-692.412	-200.000	-0.050	0.509
-691.397	-64.591	0.304	0.125
-690.383	-47.919	-0.170	-0.083
-689.368	-78.762	0.467	-0.162
-688.354	800.000	-0.066	0.276
-687.339	-200.000	0.036	-0.342
-686.324	-200.000	-0.016	-0.177
-685.310	-105.062	0.204	0.047
-684.295	-108.664	0.125	0.027
-683.281	-1.911	-0.291	-0.208
-682.266	281.404	-0.035	0.063
-681.251	197.223	-0.057	-0.088
-680.237	-200.000	0.050	0.311
-679.222	-61.676	0.199	-0.085
-678.208	-67.670	-0.215	-0.086
-677.193	358.569	0.193	-0.393
-676.178	800.000	0.189	-0.548
-675.164	800.000	0.052	-0.193
-674.149	327.149	0.229	-0.446
-673.135	800.000	-0.010	-0.042
-672.120	8.845	-0.259	-0.198
-671.105	-200.000	0.017	-0.208
-670.091	-16.238	-0.246	-0.159
-669.076	-200.000	-0.039	0.258
-668.062	-47.526	0.083	0.041
-667.047	-133.941	0.116	0.015
-666.032	77.716	-0.140	-0.152
-665.018	82.117	-0.085	0.093
-664.003	800.000	0.103	0.399
-662.989	-59.839	-0.054	0.024
-661.974	-88.391	-0.179	0.054
-660.959	-46.322	0.131	0.065
-659.945	-127.807	-0.272	0.040
-658.930	-200.000	0.021	0.271
-657.916	-184.243	-0.077	0.001
-656.901	800.000	0.040	-0.177
-655.886	-184.930	0.293	0.005
-654.872	-200.000	0.016	0.203
-653.857	382.662	-0.098	0.206
-652.843	-200.000	0.014	-0.278
-651.828	236.082	0.208	-0.349
-650.814	-101.655	-0.364	-0.090
-649.799	-70.654	0.171	-0.066
-648.784	-148.522	0.248	-0.021
-647.770	749.308	-0.055	0.150
-646.755	149.047	-0.215	-0.296
-645.741	-129.676	-0.252	0.035
-644.726	194.384	0.069	-0.106
-643.711	-200.000	-0.033	0.181
-642.697	-34.220	-0.132	-0.074
-641.682	800.000	-0.062	0.185
-640.668	-149.590	0.214	-0.017
-639.653	800.000	-0.026	-0.090
-638.638	-200.000	0.012	-0.187
-637.624	-3.022	-0.341	0.242
-636.609	11.650	-0.042	0.033
-635.595	-200.000	0.002	0.111
-634.580	-144.694	0.304	0.028
-633.565	-39.861	-0.176	-0.093
-632.551	-143.452	0.181	0.018
-631.536	312.158	0.071	-0.136
-630.522	31.181	0.103	-0.090
-629.507	-200.000	0.038	-0.246
-628.492	800.000	0.104	0.345
-627.478	628.822	-0.038	-0.097
-626.463	-200.000	0.012	0.210
-625.449	173.587	-0.099	0.145
-624.434	261.133	0.090	-0.158
-623.419	-1.809	-0.264	0.188
-622.405	800.000	0.090	-0.311
-621.390	-32.259	0.236	0.134
-620.376	103.788	0.140	-0.167
-619.361	308.476	-0.213	-0.403
-618.346	464.098	-0.075	-0.169
-617.332	80.994	0.043	-0.047
-616.317	69.319	0.142	0.148
-615.303	26.469	-0.318	-0.269
-614.288	185.030	-0.059	0.089
-613.273	-85.826	-0.138	0.043
-612.259	82.305	0.104	-0.114
-611.244	-46.763	0.099	0.049
-610.230	-116.359	-0.182	0.034
-609.215	122.497	-0.050	0.064
-608.201	215.920	-0.065	-0.104
-607.186	800.000	-0.006	-0.026
-606.171	-102.308	0.303	0.074
-605.157	-145.026	-0.105	-0.010
-604.142	551.659	0.066	-0.160
-603.128	157.614	0.168	0.236
-602.113	-38.526	-0.176	-0.094
-601.098	61.209	-0.053	-0.053
-600.084	800.000	0.011	0.039
-599.069	-200.000	-0.037	-0.188
-598.055	42.156	-0.051	0.046
-597.040	560.133	-0.074	-0.181
-596.025	-100.246	-0.355	-0.089
-595.011	163.988	-0.130	0.185
-593.996	-94.373	0.120	0.033
-592.982	4.044	0.278	0.206
-591.967	12.424	-0.236	-0.184
-590.952	-200.000	0.023	0.253
-589.938	85.252	0.083	-0.093
-588.923	153.924	-0.161	0.224
-587.909	-67.955	-0.228	-0.090
-586.894	-121.310	-0.327	-0.055
-585.879	-100.227	0.225	-0.057
-584.865	-94.202	0.168	0.047
-583.850	800.000	0.031	-0.110
-582.836	98.219	-0.048	-0.056
-581.821	-175.679	-0.042	-0.001
-580.806	-20.299	-0.135	-0.084
-579.792	272.551	0.118	-0.210
-578.777	-23.453	-0.044	0.027
-577.763	-162.569	0.377	-0.019
-576.748	388.914	-0.255	-0.535
-575.733	800.000	-0.009	0.027
-574.719	35.850	0.080	0.071
-573.704	26.815	-0.029	-0.025
-572.690	-165.885	-0.086	-0.004
-571.675	-42.626	-0.201	-0.104
-570.661	-17.690	0.214	0.136
-569.646	800.000	0.030	-0.102
-568.631	-200.000	0.066	0.398
-567.617	800.000	0.035	0.136
-566.602	-77.378	0.039	0.014
-565.588	-138.316	0.335	-0.037
-564.573	8.841	-0.158	-0.120
-563.558	-61.381	-0.157	0.067
-562.544	-17.505	0.168	-0.107
-561.529	-105.354	-0.342	0.079
-560.515	89.782	0.182	-0.206
-559.500	99.878	-0.021	0.025
-558.485	-141.539	-0.200	0.020
-557.471	-56.326	0.326	0.146
-556.456	-128.266	0.381	0.055
-555.442	-62.271	-0.243	-0.102
-554.427	61.644	-0.111	0.112
-553.412	-162.558	0.182	0.009
-552.398	-56.994	0.388	-0.173
-551.383	93.218	0.098	0.112
-550.369	156.386	-0.044	-0.061
-549.354	-200.000	-0.018	0.433
-548.339	-45.532	0.206	-0.103
-547.325	568.542	-0.022	-0.053
-546.310	-200.000	-0.014	0.269
-545.296	-16.282	-0.318	0.204
-544.281	-200.000	-0.011	0.137
-543.266	800.000	-0.050	0.200
-542.252	800.000	0.063	-0.197
-541.237	-200.000	0.048	-0.300
-540.223	-12.668	-0.072	-0.047
-539.208	-200.000	0.030	0.269
-538.193	485.280	0.083	0.191
-537.179	14.031	-0.249	-0.196
-536.164	371.894	0.091	-0.188
-535.150	482.779	-0.145	-0.332
-534.135	-200.000	0.038	0.180
-533.121	529.594	0.050	0.119
-532.106	92.377	0.185	0.210
-531.091	-134.711	-0.281	-0.035
-530.077	-4.681	-0.232	-0.162
-529.062	-45.947	0.247	-0.123
-528.048	-200.000	0.030	-0.431
-527.033	-20.088	0.077	0.048
-526.018	-200.000	-0.070	-0.486
-525.004	-143.568	-0.094	-0.009
-523.989	800.000	-0.074	-0.253
-522.975	-12.141	-0.099	0.065
-521.960	-24.766	-0.239	0.143
-520.945	-127.988	0.169	-0.024
-519.931	-128.218	0.113	-0.016
-518.916	800.000	-0.088	0.357
-517.902	-1.277	0.104	0.074
-516.887	-31.625	-0.409	0.232
-515.872	-200.000	-0.034	0.269
-514.858	341.007	-0.151	0.298
-513.843	-43.581	-0.292	-0.149
-512.829	-196.286	-0.165	-0.001
-511.814	278.038	-0.166	0.298
-510.799	48.991	0.146	-0.139
-509.785	-200.000	0.001	-0.167
-508.770	-106.727	-0.300	0.067
-507.756	410.230	-0.102	0.218
-506.741	-48.742	0.161	0.078
-505.726	-200.000	0.010	-0.302
-504.712	458.630	-0.174	-0.391
-503.697	52.050	-0.041	-0.040
-502.683	800.000	0.056	0.160
-501.668	-165.916	0.176	-0.008
-500.653	800.000	0.147	-0.428
-499.639	0.801	-0.252	-0.182
-498.624	-90.735	-0.240	0.070
-497.610	-200.000	0.037	-0.181
-496.595	-47.680	-0.210	-0.103
-495.581	27.416	-0.188	0.159
-494.566	-200.000	-0.019	-0.213
-493.551	87.871	0.190	-0.213
-492.537	222.671	0.131	-0.214
-491.522	299.102	0.140	-0.260
-490.508	75.111	-0.216	0.230
-489.493	-200.000	-0.019	0.270
-488.478	233.481	-0.114	0.189
-487.464	-200.000	0.027	0.175
-486.449	-43.096	-0.187	-0.095
-485.435	800.000	-0.083	0.284
-484.420	-107.808	0.124	0.027
-483.405	49.592	0.239	-0.227
-482.391	66.997	0.258	0.265
-481.376	338.377	0.059	0.116
-480.362	-86.413	-0.258	0.080
-479.347	-92.420	0.228	-0.065
-478.332	800.000	-0.067	-0.223
-477.318	9.400	0.212	-0.161
-476.303	-46.713	-0.060	-0.030
-475.289	-94.871	-0.340	-0.093
-474.274	21.992	0.183	-0.150
-473.259	-175.515	-0.323	0.009
-472.245	10.228	-0.282	0.216
-471.230	-102.860	0.273	-0.065
-470.216	30.251	-0.122	-0.105
-469.201	-200.000	-0.012	-0.273
-468.186	800.000	-0.018	-0.064
-467.172	287.233	-0.043	-0.078
-466.157	-66.403	-0.162	-0.065
-465.143	12.972	0.221	0.172
-464.128	-42.491	-0.121	0.062
-463.113	-137.478	0.411	0.047
-462.099	-100.906	-0.268	-0.066
-461.084	237.308	0.159	-0.265
-460.070	800.000	-0.089	0.357
-459.055	34.492	-0.125	-0.110
-458.040	162.431	0.274	-0.387
-457.026	-95.741	-0.162	0.044
-456.011	144.913	0.118	0.159
-454.997	-200.000	0.083	0.377
-453.982	-200.000	-0.000	-0.133
-452.968	237.189	-0.143	0.239
-451.953	800.000	0.070	0.264
-450.938	-97.014	0.258	-0.068
-449.924	-93.804	0.277	0.077
-448.909	20.176	-0.096	-0.078
-447.895	-200.000	-0.004	0.187
-446.880	-0.727	0.214	-0.152
-445.865	-3.679	-0.251	-0.176
-444.851	253.561	-0.079	-0.136
-443.836	150.843	-0.156	-0.213
-442.822	545.648	-0.134	0.322
-441.807	-200.000	0.015	-0.146
-440.792	800.000	-0.078	-0.223
-439.778	109.332	0.181	0.218
-438.763	-200.000	-0.043	-0.200
-437.749	142.341	-0.053	-0.070
-436.734	321.918	-0.185	-0.355
-435.719	464.238	0.078	0.176
-434.705	-20.265	-0.435	0.270
-433.690	195.136	-0.205	-0.314
-432.676	35.072	0.146	0.129
-431.661	-123.213	0.238	-0.038
-430.646	-200.000	-0.034	0.246
-429.632	-7.834	-0.039	-0.026
-428.617	117.337	0.325	0.402
-427.603	-144.398	0.223	-0.021
-426.588	711.624	-0.078	-0.209
-425.573	-173.982	-0.182	0.005
-424.559	-200.000	-0.004	0.048
-423.544	140.491	0.131	0.174
-422.530	276.667	0.030	-0.053
-421.515	-34.884	-0.261	0.143
-420.500	49.698	-0.137	0.129
-419.486	35.846	0.202	-0.179
-418.471	386.929	-0.109	-0.226
-417.457	35.094	-0.139	0.122
-416.442	90.114	0.347	0.390
-415.428	-169.811	0.118	-0.004
-414.413	-145.217	0.159	0.014
-413.398	-51.241	0.177	0.083
-412.384	17.360	-0.085	-0.068
-411.369	-1.692	0.246	0.174
-410.355	-95.726	-0.260	-0.070
-409.340	800.000	-0.138	-0.388
-408.325	-88.325	0.045	0.013
-407.311	132.542	-0.049	0.063
-406.296	308.998	-0.075	0.140
-405.282	70.496	0.190	-0.198
-404.267	-200.000	-0.022	0.102
-403.252	9.518	-0.212	0.162
-402.238	218.094	-0.016	0.025
-401.223	425.429	-0.055	0.119
-400.209	-58.346	0.149	-0.065
-399.194	-200.000	0.053	0.344
-398.179	34.933	-0.051	0.045
-397.165	-200.000	-0.061	0.290
-396.150	109.986	0.139	0.168
-395.136	516.702	0.063	0.147
-394.121	-150.823	0.194	0.015
-393.106	-40.751	-0.130	-0.068
-392.092	800.000	0.142	0.427
-391.077	-200.000	0.021	-0.173
-390.063	-51.353	-0.117	-0.055
-389.048	-96.527	0.260	0.069
-388.033	-81.625	0.130	-0.043
-387.019	-38.080	0.231	-0.123
-386.004	800.000	0.029	-0.124
-384.990	-115.178	0.306	-0.058
-383.975	211.469	0.212	0.335
-382.960	-133.251	-0.310	0.039
-381.946	800.000	-0.076	-0.220
-380.931	-37.864	0.108	0.057
-379.917	-86.086	-0.075	-0.023
-378.902	-84.600	-0.435	0.138
-377.888	538.035	-0.027	0.064
-376.873	92.557	-0.101	0.115
-375.858	-200.000	-0.038	0.217
-374.844	698.037	0.060	0.159
-373.829	-37.399	0.158	-0.085
-372.815	186.589	0.144	0.215
-371.800	-11.880	-0.085	-0.056
-370.785	-67.920	0.348	-0.137
-369.771	102.736	0.060	-0.070
-368.756	-200.000	0.014	0.076
-367.742	-112.339	-0.456	0.092
-366.727	-200.000	0.073	0.367
-365.712	288.502	-0.088	0.160
-364.698	-185.649	0.091	0.001
-363.683	-200.000	-0.034	-0.239
-362.669	177.206	-0.056	0.081
-361.654	-200.000	-0.054	-0.321
-360.639	-200.000	0.404	-0.001
-359.625	450.007	-0.166	0.367
-358.610	800.000	-0.199	0.590
-357.596	-161.601	0.192	0.010
-356.581	374.814	-0.137	-0.280
-355.566	-185.675	0.071	-0.001
-354.552	-200.000	-0.007	-0.097
-353.537	-200.000	-0.024	-0.114
-352.523	-200.000	-0.236	-0.000
-351.508	-16.848	-0.089	0.057
-350.493	-41.369	-0.227	-0.117
-349.479	-200.000	0.007	-0.218
-348.464	334.002	-0.105	0.203
-347.450	-200.000	0.006	-0.230
-346.435	-140.307	-0.187	0.020
-345.420	-42.196	0.045	0.023
-344.406	-200.000	-0.057	-0.277
-343.391	-70.381	0.115	0.044
-342.377	-200.000	0.041	0.377
-341.362	125.192	0.211	0.266
-340.348	-151.134	-0.389	0.029
-339.333	272.497	-0.069	-0.121
-338.318	52.062	-0.155	-0.148
-337.304	-26.143	-0.171	0.101
-336.289	55.903	-0.087	0.085
-335.275	102.554	-0.131	0.153
-334.260	-69.066	-0.106	0.041
-333.245	-21.298	0.152	-0.093
-332.231	106.382	-0.072	-0.085
-331.216	-105.527	-0.576	0.131
-330.202	249.933	0.098	0.167
-329.187	-200.000	-0.003	0.122
-328.172	-195.244	0.113	-0.001
-327.158	-15.830	0.287	-0.183
-326.143	-63.355	-0.197	0.081
-325.129	-161.662	-0.179	0.009
-324.114	-127.967	0.256	0.037
-323.099	-157.827	0.363	-0.022
-322.085	-109.167	0.179	-0.038
-321.070	-115.563	0.115	0.022
-320.056	-86.067	-0.179	0.055
-319.041	759.278	-0.119	-0.322
-318.026	-200.000	0.019	-0.162
-317.012	488.065	-0.087	-0.199
-315.997	-108.560	0.228	0.049
-314.983	61.935	0.049	-0.049
-313.968	510.388	-0.046	0.108
-312.953	180.799	-0.075	0.111
-311.939	278.071	-0.026	0.046
-310.924	409.868	0.137	0.292
-309.910	-200.000	-0.009	-0.254
-308.895	-126.131	0.457	-0.069
-307.880	437.829	0.060	-0.131
-306.866	800.000	-0.098	-0.369
-305.851	39.313	0.124	0.112
-304.837	-48.720	0.144	0.069
-303.822	-133.882	-0.127	0.016
-302.807	-41.964	0.114	-0.058
-301.793	98.007	0.447	0.515
-300.778	-150.358	0.375	0.029
-299.764	-100.625	0.032	-0.008
-298.749	-76.230	0.336	-0.119
-297.735	-89.242	0.187	-0.055
-296.720	-23.526	-0.003	-0.002
-295.705	164.059	-0.216	-0.304
-294.691	-44.730	-0.210	-0.105
-293.676	-63.872	-0.114	-0.047
-292.662	-200.000	0.072	-0.369
-291.647	769.439	0.071	-0.194
-290.632	262.072	0.059	-0.102
-289.618	800.000	0.037	0.112
-288.603	16.855	-0.099	0.079
-287.589	-186.603	-0.018	-0.000
-286.574	127.215	0.130	0.165
-285.559	195.012	-0.141	0.214
-284.545	-6.954	-0.049	-0.033
-283.530	245.860	0.091	-0.154
-282.516	-200.000	-0.003	0.041
-281.501	71.470	-0.124	-0.128
-280.486	213.028	-0.112	0.176
-279.472	10.726	-0.211	0.161
-278.457	-100.334	0.095	-0.024
-277.443	211.105	0.021	0.033
-276.428	-57.198	-0.240	-0.106
-275.413	108.493	-0.094	0.112
-274.399	109.786	-0.059	0.071
-273.384	503.784	0.038	0.088
-272.370	-70.179	0.112	-0.043
-271.355	8.451	0.179	0.135
-270.340	-200.000	-0.064	0.376
-269.326	800.000	0.086	0.346
-268.311	240.176	-0.253	0.422
-267.297	800.000	0.034	0.127
-266.282	55.987	-0.349	-0.338
-265.267	12.983	0.316	-0.245
-264.253	210.129	-0.084	-0.131
-263.238	503.102	0.142	-0.328
-262.224	148.989	-0.294	-0.397
-261.209	-22.948	-0.140	0.084
-260.195	800.000	0.079	0.293
-259.180	-36.271	0.105	-0.056
-258.165	177.586	-0.194	-0.283
-257.151	145.519	-0.101	0.135
-256.136	-200.000	0.003	-0.376
-255.122	-3.433	-0.142	-0.099
-254.107	-200.000	0.042	-0.194
-253.092	194.923	0.106	0.161
-252.078	-150.236	0.090	0.007
-251.063	-200.000	0.048	-0.349
-250.049	-121.625	-0.484	0.080
-249.034	800.000	-0.060	-0.167
-248.019	187.563	0.105	-0.157
-247.005	285.149	0.142	0.256
-245.990	-89.208	0.190	0.056
-244.976	339.162	-0.099	0.193
-243.961	53.752	0.071	-0.068
-242.946	10.424	0.264	-0.200
-241.932	-107.632	0.123	0.027
-240.917	800.000	-0.094	-0.285
-239.903	-32.152	0.216	-0.121
-238.888	342.641	0.112	0.219
-237.873	-66.893	-0.228	0.090
-236.859	-77.694	0.283	0.098
-235.844	800.000	0.066	-0.190
-234.830	33.220	0.196	0.170
-233.815	290.118	0.054	-0.098
-232.800	286.041	-0.079	-0.143
-231.786	260.533	0.063	-0.108
-230.771	-71.724	-0.089	0.033
-229.757	189.950	-0.101	0.152
-228.742	46.368	0.029	-0.027
-227.727	-60.836	-0.046	-0.020
-226.713	-115.208	0.150	-0.028
-225.698	-3.557	0.247	-0.171
-224.684	-55.432	0.279	-0.125
-223.669	-156.861	-0.292	0.018
-222.655	100.132	-0.142	-0.164
-221.640	-200.000	0.081	0.442
-220.625	-118.227	-0.217	-0.039
-219.611	-143.866	-0.100	-0.009
-218.596	-200.000	0.047	-0.347
-217.582	-127.921	0.174	-0.025
-216.567	-118.309	0.169	-0.030
-215.552	15.792	0.014	-0.011
-214.538	577.017	-0.084	0.205
-213.523	49.890	-0.189	0.177
-212.509	1.334	0.134	-0.096
-211.494	-200.000	-0.003	0.160
-210.479	46.373	0.157	-0.145
-209.465	-39.039	-0.157	-0.082
-208.450	800.000	0.115	-0.434
-207.436	382.259	0.046	-0.095
-206.421	-200.000	-0.030	-0.165
-205.406	371.329	0.086	-0.174
-204.392	800.000	-0.102	0.403
-203.377	-200.000	0.005	0.123
-202.363	34.458	-0.183	-0.160
-201.348	-37.232	-0.430	-0.229
-200.333	-200.000	0.018	0.247
-199.319	800.000	0.069	0.237
-198.304	-187.980	0.307	-0.004
-197.290	-59.347	0.148	-0.064
-196.275	-141.703	-0.180	0.018
-195.260	-44.834	-0.138	-0.069
-194.246	-112.363	-0.182	-0.036
-193.231	-93.241	0.101	0.028
-192.217	-123.424	-0.243	-0.039
-191.202	-200.000	-0.017	0.159
-190.187	50.697	-0.186	-0.176
-189.173	-53.740	0.391	0.178
-188.158	739.384	-0.078	-0.208
-187.144	338.454	-0.043	0.083
-186.129	54.061	-0.275	0.264
-185.114	-43.858	-0.328	0.165
-184.100	121.448	-0.231	0.286
-183.085	267.776	-0.090	-0.158
-182.071	67.590	0.231	-0.235
-181.056	70.853	0.177	0.183
-180.042	40.976	0.150	-0.135
-179.027	105.703	0.166	0.195
-178.012	232.079	-0.070	-0.114
-176.998	-28.844	0.156	0.089
-175.983	-200.000	-0.054	-0.248
-174.969	800.000	0.151	0.476
-173.954	304.079	0.144	0.266
-172.939	-66.337	-0.173	0.069
-171.925	104.330	-0.135	-0.159
-170.910	-200.000	0.074	0.501
-169.896	96.002	0.057	0.065
-168.881	-200.000	-0.015	-0.169
-167.866	34.218	0.220	-0.191
-166.852	800.000	0.044	0.140
-165.837	565.063	-0.034	0.082
-164.823	-78.053	0.108	-0.037
-163.808	28.088	0.124	0.104
-162.793	25.461	0.092	-0.076
-161.779	145.317	0.086	-0.115
-160.764	-200.000	0.004	-0.060
-159.750	-142.875	0.069	0.007
-158.735	189.175	0.118	-0.176
-157.720	246.185	0.133	0.223
-156.706	-92.016	0.313	0.088
-155.691	-144.004	-0.203	-0.019
-154.677	800.000	0.034	-0.112
-153.662	-200.000	-0.006	0.061
-152.647	37.706	0.203	-0.180
-151.633	-54.645	0.221	-0.099
-150.618	-122.661	0.115	-0.019
-149.604	800.000	-0.022	0.092
-148.589	473.058	0.161	-0.362
-147.574	-126.022	0.059	-0.009
-146.560	-123.116	-0.086	-0.014
-145.545	-56.922	-0.071	-0.031
-144.531	-193.808	0.376	-0.003
-143.516	800.000	0.052	-0.151
-142.502	-180.481	0.132	-0.003
-141.487	-44.655	-0.072	0.036
-140.472	660.124	-0.061	-0.156
-139.458	691.081	-0.047	-0.123
-138.443	-200.000	0.045	-0.226
-137.429	263.400	0.193	-0.333
-136.414	-47.087	0.007	0.004
-135.399	-111.100	0.467	0.095
-134.385	-200.000	-0.010	0.411
-133.370	-200.000	0.035	0.233
-132.356	193.343	0.222	0.335
-131.341	178.073	0.121	-0.176
-130.326	6.082	0.166	0.122
-129.312	-200.000	0.017	0.119
-128.297	417.105	-0.233	-0.495
-127.283	-69.408	0.442	0.169
-126.268	-15.789	-0.119	0.075
-125.253	124.980	0.165	-0.206
-124.239	277.829	0.134	-0.238
-123.224	41.916	0.135	-0.122
-122.210	-61.188	-0.027	0.011
