DTS Sentinel unit serial number:	SN413079Multiplexer serial number:	ORYXHardware model number:	OX4-SRSoftware version number:	ORYX F/W v4.00 Oryx Data Collector v3.7.2.0data status	okinstallation	princeton_trtdifferential loss correction	single-endedforward channel	channel 3reverse channel	N/Adate	2019/09/16time	01:24:35forward acquisition time	60.00reverse acquisition time	0.00gamma	496.2192k internal	0.2337k external	0.2337temperature offset calibration	0.9951default loss term (dB/km)	0.3790temperature slope calibration	1.0000multiplexer offset coefficient	1.0000multiplexer slope coefficient	1.0000fibre end	0.00T internal ref (°C)	27.27T ext. ref 1 (°C)	9.89T ext. ref 2 (°C)	21.86length (m)	temperature (°C)	Stokes	anti-Stokes-747.200	-200.000	-0.031	-0.204
-746.185	800.000	-0.022	-0.093
-745.171	99.750	0.224	0.261
-744.156	-155.700	0.067	-0.004
-743.142	-99.319	0.226	0.057
-742.127	-136.015	0.064	-0.008
-741.112	269.224	-0.145	0.255
-740.098	111.915	-0.196	0.238
-739.083	-117.071	-0.288	-0.053
-738.069	203.705	-0.205	0.319
-737.054	-126.963	0.149	-0.022
-736.039	-60.027	-0.255	0.109
-735.025	31.747	0.184	0.159
-734.010	-129.893	-0.099	0.014
-732.996	23.600	-0.100	-0.083
-731.981	800.000	-0.023	0.091
-730.966	-50.571	-0.122	-0.058
-729.952	67.730	0.294	-0.302
-728.937	-21.597	0.177	0.108
-727.923	800.000	-0.061	-0.252
-726.908	3.825	-0.242	0.177
-725.894	173.457	-0.135	0.195
-724.879	29.405	0.377	0.321
-723.864	212.196	-0.075	-0.119
-722.850	-35.500	-0.157	-0.086
-721.835	-61.574	0.076	-0.032
-720.821	0.505	-0.130	0.093
-719.806	-48.760	0.225	-0.108
-718.791	243.913	-0.040	-0.067
-717.777	-200.000	0.027	0.452
-716.762	34.489	-0.189	-0.166
-715.748	-67.408	-0.085	0.034
-714.733	253.382	0.043	0.073
-713.718	-52.427	-0.253	0.117
-712.704	18.011	-0.368	0.294
-711.689	-58.976	0.143	0.062
-710.675	-200.000	-0.008	0.064
-709.660	-200.000	-0.053	0.241
-708.645	27.403	-0.116	0.097
-707.631	110.649	-0.066	0.079
-706.616	-200.000	-0.026	0.199
-705.602	800.000	0.054	-0.215
-704.587	-200.000	0.027	-0.160
-703.572	-52.992	-0.312	0.144
-702.558	-200.000	0.080	-0.418
-701.543	800.000	-0.026	-0.096
-700.529	-150.566	-0.163	-0.013
-699.514	7.741	-0.263	0.197
-698.499	-200.000	-0.004	-0.072
-697.485	-200.000	-0.003	0.275
-696.470	-7.807	-0.411	-0.278
-695.456	-190.813	0.193	0.002
-694.441	-117.155	-0.226	0.041
-693.426	-200.000	-0.027	-0.377
-692.412	-200.000	0.026	-0.498
-691.397	-135.717	0.233	0.028
-690.383	-62.709	0.356	0.148
-689.368	95.156	0.100	-0.114
-688.354	-200.000	-0.016	-0.100
-687.339	288.942	0.164	-0.299
-686.324	733.559	0.100	0.267
-685.310	-7.708	0.347	-0.235
-684.295	-78.956	0.186	0.063
-683.281	-89.770	-0.277	0.081
-682.266	-46.896	-0.218	0.107
-681.251	589.375	-0.149	0.368
-680.237	-40.927	-0.323	-0.167
-679.222	88.759	-0.047	0.052
-678.208	153.206	-0.140	0.192
-677.193	234.201	0.153	-0.253
-676.178	4.788	-0.190	-0.140
-675.164	800.000	-0.043	-0.146
-674.149	462.441	-0.153	-0.341
-673.135	-200.000	-0.128	-0.686
-672.120	-12.441	-0.114	0.074
-671.105	134.065	0.183	0.238
-670.091	-50.360	-0.058	-0.028
-669.076	800.000	0.035	0.139
-668.062	662.505	-0.063	0.162
-667.047	82.246	0.033	-0.036
-666.032	-167.376	-0.146	0.006
-665.018	800.000	-0.021	0.089
-664.003	-200.000	0.014	0.122
-662.989	136.311	0.049	-0.064
-661.974	-200.000	0.028	0.427
-660.959	-53.329	-0.153	0.070
-659.945	520.171	0.079	-0.185
-658.930	-23.549	0.213	-0.128
-657.916	22.978	-0.258	-0.212
-656.901	-150.076	-0.122	-0.010
-655.886	800.000	-0.033	-0.105
-654.872	49.120	-0.085	-0.080
-653.857	800.000	-0.049	-0.134
-652.843	-17.995	-0.128	0.080
-651.828	141.683	0.122	-0.162
-650.814	-76.570	0.204	0.072
-649.799	-200.000	0.031	-0.237
-648.784	-200.000	0.042	-0.504
-647.770	224.841	0.132	-0.213
-646.755	71.412	-0.260	-0.270
-645.741	-6.087	0.158	0.108
-644.726	60.299	-0.214	-0.212
-643.711	23.075	-0.145	-0.119
-642.697	-200.000	0.021	-0.289
-641.682	208.429	-0.175	-0.273
-640.668	-153.619	-0.557	0.038
-639.653	76.841	0.226	0.239
-638.638	227.395	-0.110	0.178
-637.624	-15.866	-0.130	-0.083
-636.609	19.399	0.259	0.208
-635.595	246.707	-0.101	0.170
-634.580	-200.000	0.012	-0.309
-633.565	-88.492	-0.229	-0.068
-632.551	-200.000	0.008	0.059
-631.536	-200.000	0.009	-0.161
-630.522	244.051	0.146	-0.245
-629.507	-200.000	0.032	0.179
-628.492	-163.006	-0.117	-0.006
-627.478	96.328	0.074	0.084
-626.463	-109.956	-0.132	-0.028
-625.449	313.599	-0.077	0.145
-624.434	3.666	-0.112	0.081
-623.419	-63.099	0.182	-0.075
-622.405	26.816	-0.081	-0.068
-621.390	800.000	-0.095	0.313
-620.376	-41.897	0.219	0.112
-619.361	-78.284	0.535	0.184
-618.346	-78.288	0.121	-0.042
-617.332	-200.000	-0.062	0.306
-616.317	246.789	-0.063	0.105
-615.303	140.874	-0.108	0.142
-614.288	-200.000	-0.026	-0.475
-613.273	396.604	-0.142	-0.295
-612.259	271.727	0.159	-0.280
-611.244	-73.238	-0.266	0.097
-610.230	26.865	-0.171	0.143
-609.215	44.212	0.023	0.021
-608.201	-130.599	0.200	0.027
-607.186	-148.766	-0.101	-0.008
-606.171	282.514	-0.037	-0.067
-605.157	800.000	-0.036	-0.124
-604.142	800.000	-0.078	-0.284
-603.128	142.316	-0.051	-0.067
-602.113	161.399	-0.119	-0.166
-601.098	-200.000	-0.007	0.143
-600.084	715.260	0.126	-0.333
-599.069	-105.509	-0.215	-0.049
-598.055	493.673	-0.097	-0.222
-597.040	289.974	0.177	-0.321
-596.025	-6.055	0.317	-0.216
-595.011	-200.000	-0.003	0.049
-593.996	-87.611	-0.110	-0.033
-592.982	220.486	0.142	-0.227
-591.967	800.000	-0.043	0.182
-590.952	-6.268	0.206	-0.140
-589.938	-200.000	-0.028	-0.258
-588.923	200.671	0.084	-0.129
-587.909	192.753	-0.109	-0.164
-586.894	-144.760	0.126	0.012
-585.879	800.000	-0.041	0.130
-584.865	800.000	-0.082	-0.246
-583.850	-69.625	-0.413	-0.158
-582.836	-43.485	-0.159	0.080
-581.821	800.000	-0.035	-0.097
-580.806	205.793	-0.040	-0.061
-579.792	91.933	0.349	-0.392
-578.777	482.851	-0.166	-0.376
-577.763	54.240	-0.268	-0.257
-576.748	-200.000	-0.008	-0.144
-575.733	-47.066	0.186	0.091
-574.719	800.000	-0.113	0.347
-573.704	800.000	-0.023	-0.098
-572.690	328.855	-0.099	0.189
-571.675	-37.838	0.194	-0.103
-570.661	82.051	0.330	0.356
-569.646	-35.911	0.401	-0.217
-568.631	-53.645	0.333	0.151
-567.617	56.920	-0.233	0.226
-566.602	302.903	0.037	-0.068
-565.588	-200.000	0.003	0.043
-564.573	398.516	0.174	-0.362
-563.558	-23.307	0.106	0.063
-562.544	-124.015	-0.193	-0.030
-561.529	-130.348	0.354	0.048
-560.515	-200.000	-0.035	0.393
-559.500	-117.481	0.197	0.035
-558.485	353.777	-0.200	0.396
-557.471	-79.996	-0.381	-0.128
-556.456	-107.950	0.169	0.037
-555.442	-118.320	0.290	-0.051
-554.427	-107.506	0.289	0.063
-553.412	-133.931	0.153	-0.019
-552.398	-130.282	0.146	0.020
-551.383	-164.308	0.269	0.012
-550.369	577.006	-0.063	-0.154
-549.354	115.927	-0.135	-0.164
-548.339	-106.948	-0.229	-0.050
-547.325	34.861	0.047	0.041
-546.310	215.827	-0.180	0.284
-545.296	33.977	-0.115	0.100
-544.281	-146.366	-0.258	0.022
-543.266	106.247	0.182	-0.215
-542.252	-159.313	0.095	0.005
-541.237	-78.064	-0.324	0.111
-540.223	298.318	-0.074	0.136
-539.208	26.942	0.054	-0.045
-538.193	-165.589	-0.183	-0.008
-537.179	45.155	-0.148	0.136
-536.164	-170.348	0.215	0.008
-535.150	-55.868	0.098	0.044
-534.135	-26.450	-0.135	-0.079
-533.121	-46.037	0.219	0.107
-532.106	-200.000	-0.040	-0.239
-531.091	800.000	-0.046	-0.130
-530.077	48.255	-0.190	-0.177
-529.062	-52.288	-0.127	-0.058
-528.048	-67.918	-0.134	-0.052
-527.033	261.877	-0.089	-0.153
-526.018	210.347	-0.180	0.281
-525.004	-35.600	0.223	-0.121
-523.989	-200.000	0.036	-0.182
-522.975	290.355	-0.054	0.097
-521.960	503.058	-0.061	-0.141
-520.945	800.000	-0.054	-0.212
-519.931	-150.528	-0.167	0.013
-518.916	-132.327	-0.249	-0.032
-517.902	-154.521	0.095	-0.006
-516.887	602.587	-0.147	-0.365
-515.872	7.473	-0.095	-0.071
-514.858	385.234	0.094	0.192
-513.843	800.000	0.074	0.219
-512.829	-12.158	-0.042	0.027
-511.814	298.428	0.047	0.086
-510.799	-200.000	-0.033	0.233
-509.785	3.357	-0.078	-0.056
-508.770	14.348	0.087	-0.068
-507.756	800.000	-0.109	-0.350
-506.741	-90.570	-0.313	-0.090
-505.726	-200.000	-0.061	-0.412
-504.712	-200.000	-0.066	0.411
-503.697	800.000	-0.001	0.003
-502.683	-200.000	0.006	0.098
-501.668	-130.104	0.249	-0.034
-500.653	-30.333	0.170	-0.096
-499.639	-200.000	0.074	0.341
-498.624	-60.832	0.531	0.224
-497.610	-200.000	0.029	0.263
-496.595	58.074	0.056	-0.055
-495.581	99.638	-0.142	0.164
-494.566	-200.000	-0.048	-0.242
-493.551	800.000	-0.041	0.134
-492.537	-123.585	0.033	-0.005
-491.522	210.552	0.029	0.045
-490.508	612.474	-0.092	0.228
-489.493	-200.000	0.066	0.376
-488.478	496.858	-0.065	0.148
-487.464	273.741	0.062	0.108
-486.449	-78.363	0.202	-0.069
-485.435	800.000	0.071	0.236
-484.420	-130.432	-0.128	-0.017
-483.405	-200.000	0.055	0.242
-482.391	106.799	0.041	-0.049
-481.376	-200.000	0.006	0.097
-480.362	-84.522	-0.155	-0.049
-479.347	-46.364	0.292	-0.143
-478.332	-3.646	0.088	-0.061
-477.318	-48.174	-0.338	-0.162
-476.303	-200.000	-0.011	0.265
-475.289	-4.362	0.328	-0.226
-474.274	56.480	0.088	0.085
-473.259	-200.000	-0.024	-0.226
-472.245	14.624	-0.124	0.097
-471.230	-130.604	0.250	0.033
-470.216	65.225	0.114	-0.115
-469.201	800.000	-0.095	-0.349
-468.186	-96.016	-0.155	0.041
-467.172	-8.832	0.295	-0.196
-466.157	-108.637	-0.343	-0.073
-465.143	40.688	-0.096	-0.086
-464.128	-183.365	0.127	0.002
-463.113	152.215	0.176	-0.239
-462.099	-144.788	-0.120	0.011
-461.084	-41.733	-0.224	0.114
-460.070	104.890	-0.129	0.151
-459.055	-123.555	0.139	-0.022
-458.040	-200.000	-0.039	0.377
-457.026	-65.178	0.155	0.062
-456.011	-173.630	0.358	0.011
-454.997	800.000	0.093	-0.308
-453.982	213.560	0.112	-0.176
-452.968	90.511	0.028	0.031
-451.953	13.426	0.114	-0.088
-450.938	-114.163	-0.253	0.049
-449.924	-32.918	0.134	0.074
-448.909	-10.179	-0.180	0.118
-447.895	26.051	-0.115	0.095
-446.880	-200.000	0.042	0.212
-445.865	-136.644	-0.089	0.010
-444.851	67.222	0.113	0.114
-443.836	746.542	-0.086	-0.231
-442.822	99.444	0.141	-0.162
-441.807	45.264	-0.115	0.105
-440.792	-114.676	-0.461	-0.088
-439.778	75.393	0.167	0.175
-438.763	283.142	-0.058	0.104
-437.749	-42.792	-0.390	-0.197
-436.734	-200.000	0.032	-0.286
-435.719	-160.301	-0.228	-0.012
-434.705	112.572	0.142	0.170
-433.690	-200.000	-0.031	0.449
-432.676	161.844	0.065	0.091
-431.661	-200.000	0.041	-0.277
-430.646	-125.181	-0.297	-0.045
-429.632	-200.000	-0.007	-0.059
-428.617	122.382	0.188	-0.233
-427.603	575.213	0.125	-0.302
-426.588	29.586	-0.129	0.109
-425.573	-200.000	-0.025	-0.156
-424.559	64.019	0.113	-0.113
-423.544	21.590	-0.135	-0.109
-422.530	559.129	-0.154	-0.369
-421.515	-95.523	0.262	-0.070
-420.500	177.478	-0.133	0.192
-419.486	-83.974	0.206	0.065
-418.471	-200.000	-0.018	0.252
-417.457	101.022	0.058	0.067
-416.442	-57.346	0.202	0.088
-415.428	-66.820	-0.380	-0.149
-414.413	-78.774	0.216	-0.073
-413.398	671.357	0.089	-0.228
-412.384	-35.433	0.093	-0.050
-411.369	800.000	0.027	-0.085
-410.355	-200.000	-0.004	-0.153
-409.340	-107.527	-0.243	-0.053
-408.325	-36.630	-0.241	0.128
-407.311	-74.682	-0.181	0.064
-406.296	266.559	-0.143	0.247
-405.282	-119.278	0.118	-0.020
-404.267	-200.000	-0.013	-0.179
-403.252	-200.000	-0.019	0.352
-402.238	-84.766	-0.223	0.069
-401.223	-168.390	0.200	-0.008
-400.209	61.519	0.292	-0.287
-399.194	-146.355	0.277	0.024
-398.179	96.621	0.073	0.083
-397.165	-76.182	-0.240	-0.084
-396.150	-200.000	-0.019	0.207
-395.136	372.650	-0.200	0.402
-394.121	-200.000	0.096	0.441
-393.106	36.549	-0.258	-0.226
-392.092	390.422	0.155	-0.318
-391.077	-200.000	0.005	-0.292
-390.063	17.313	-0.432	0.339
-389.048	800.000	-0.065	0.207
-388.033	-86.043	-0.280	-0.086
-387.019	99.020	-0.162	-0.185
-386.004	347.028	-0.221	0.431
-384.990	-54.092	0.145	0.065
-383.975	74.056	0.203	0.211
-382.960	-200.000	-0.047	0.221
-381.946	-110.042	-0.341	-0.071
-380.931	560.655	0.203	0.486
-379.917	471.728	-0.202	0.451
-378.902	-200.000	0.016	0.300
-377.888	121.096	0.128	-0.158
-376.873	602.000	0.069	0.170
-375.858	9.734	0.019	0.014
-374.844	152.241	0.103	-0.139
-373.829	-200.000	0.038	0.246
-372.815	-200.000	0.035	0.328
-371.800	-200.000	0.056	-0.253
-370.785	-98.363	0.156	-0.040
-369.771	-200.000	-0.032	-0.275
-368.756	8.024	0.129	-0.096
-367.742	800.000	0.085	-0.286
-366.727	-56.741	0.059	-0.026
-365.712	-65.569	-0.298	-0.118
-364.698	-12.238	-0.153	0.099
-363.683	81.920	-0.090	0.097
-362.669	-200.000	0.017	-0.256
-361.654	-124.443	-0.396	-0.061
-360.639	-51.250	0.033	0.015
-359.625	-200.000	-0.088	0.475
-358.610	-200.000	-0.060	0.500
-357.596	-134.726	-0.398	0.048
-356.581	162.329	-0.068	-0.094
-355.566	-200.000	-0.016	0.270
-354.552	-71.539	0.186	0.069
-353.537	-47.994	-0.189	0.091
-352.523	278.919	-0.032	0.057
-351.508	228.114	0.126	-0.204
-350.493	56.419	0.057	-0.054
-349.479	194.604	0.087	0.130
-348.464	-29.427	0.314	-0.177
-347.450	-39.519	-0.134	0.069
-346.435	-80.255	-0.314	0.104
-345.420	446.041	-0.064	0.139
-344.406	324.150	0.201	0.379
-343.391	84.252	0.079	0.086
-342.377	285.248	0.178	-0.317
-341.362	-200.000	0.027	0.281
-340.348	412.924	-0.127	0.267
-339.333	-101.510	0.239	0.057
-338.318	224.405	-0.032	-0.051
-337.304	243.514	-0.128	-0.213
-336.289	-200.000	-0.020	-0.123
-335.275	129.247	-0.145	-0.183
-334.260	190.759	-0.194	-0.288
-333.245	-82.078	0.210	-0.068
-332.231	-200.000	0.029	0.161
-331.216	-59.081	0.199	0.085
-330.202	61.700	-0.044	0.044
-329.187	132.609	0.209	-0.266
-328.172	-149.286	-0.155	-0.012
-327.158	-53.881	0.123	0.055
-326.143	279.793	-0.159	0.280
-325.129	43.012	0.251	0.226
-324.114	-200.000	0.033	0.296
-323.099	-92.269	-0.163	0.045
-322.085	-131.289	-0.213	-0.028
-321.070	544.302	0.072	-0.169
-320.056	-200.000	0.003	0.244
-319.041	-200.000	-0.003	-0.153
-318.026	800.000	0.119	0.348
-317.012	40.775	-0.139	0.123
-315.997	-96.852	0.205	-0.053
-314.983	800.000	-0.083	0.231
-313.968	-131.858	0.012	-0.002
-312.953	-142.852	0.131	0.013
-311.939	179.605	0.106	-0.153
-310.924	64.480	0.225	-0.224
-309.910	169.593	0.342	-0.483
-308.895	-77.481	0.227	-0.078
-307.880	-200.000	0.014	0.123
-306.866	130.877	-0.168	-0.213
-305.851	-67.360	0.205	-0.079
-304.837	745.531	0.094	0.250
-303.822	800.000	0.044	-0.174
-302.807	429.335	-0.241	-0.514
-301.793	-110.195	-0.511	-0.105
-300.778	-164.883	-0.234	0.010
-299.764	123.149	-0.155	0.192
-298.749	42.409	0.216	0.194
-297.735	-143.973	0.191	-0.018
-296.720	-14.759	0.052	-0.033
-295.705	-100.837	-0.070	-0.017
-294.691	-200.000	0.057	-0.376
-293.676	800.000	-0.048	-0.166
-292.662	-200.000	-0.006	0.076
-291.647	690.150	0.061	-0.157
-290.632	-88.981	-0.046	0.013
-289.618	-200.000	-0.009	0.052
-288.603	-94.528	0.090	-0.024
-287.589	428.835	0.028	0.059
-286.574	800.000	-0.051	-0.180
-285.559	91.784	0.199	0.221
-284.545	800.000	0.142	0.435
-283.530	-141.437	0.200	0.020
-282.516	719.570	-0.039	0.103
-281.501	-31.759	0.306	0.169
-280.486	-78.101	0.101	0.034
-279.472	109.206	0.209	0.247
-278.457	-81.643	-0.321	-0.104
-277.443	800.000	-0.008	0.029
-276.428	170.708	-0.184	-0.260
-275.413	84.943	-0.047	-0.051
-274.399	-200.000	-0.166	0.001
-273.384	800.000	-0.102	0.330
-272.370	692.388	0.096	-0.248
-271.355	433.352	-0.090	-0.193
-270.340	800.000	0.027	0.088
-269.326	145.392	-0.129	0.170
-268.311	118.002	0.152	-0.184
-267.297	-120.817	0.272	-0.045
-266.282	64.123	-0.301	-0.299
-265.267	262.003	0.170	-0.290
-264.253	374.187	-0.114	0.229
-263.238	800.000	0.038	-0.121
-262.224	-129.852	-0.187	0.025
-261.209	-5.103	0.174	0.118
-260.195	40.214	0.081	-0.072
-259.180	-75.146	-0.305	0.107
-258.165	-200.000	-0.062	0.292
-257.151	-125.473	-0.247	0.037
-256.136	389.247	0.078	0.160
-255.122	56.352	-0.064	-0.061
-254.107	-200.000	-0.044	0.252
-253.092	-200.000	-0.044	-0.228
-252.078	344.595	-0.138	-0.266
-251.063	-54.725	-0.104	0.046
-250.049	-34.651	0.161	-0.087
-249.034	800.000	0.061	-0.197
-248.019	-90.417	0.188	-0.054
-247.005	-107.643	-0.306	-0.066
-245.990	-123.824	-0.141	-0.022
-244.976	800.000	-0.072	-0.297
-243.961	111.411	-0.113	0.134
-242.946	-200.000	-0.012	0.091
-241.932	-72.300	-0.451	-0.165
-240.917	126.142	0.020	-0.025
-239.903	-61.224	0.043	0.018
-238.888	-200.000	0.032	0.455
-237.873	800.000	-0.066	0.280
-236.859	800.000	0.052	0.210
-235.844	-200.000	-0.020	0.149
-234.830	800.000	0.077	0.269
-233.815	51.825	0.215	-0.201
-232.800	287.462	-0.129	0.229
-231.786	-90.358	-0.242	-0.069
-230.771	-200.000	0.033	0.402
-229.757	-187.234	0.195	0.003
-228.742	800.000	-0.039	0.135
-227.727	-98.602	0.234	-0.059
-226.713	-200.000	-0.007	-0.274
-225.698	-200.000	0.003	-0.066
-224.684	95.321	-0.269	-0.302
-223.669	539.656	0.099	-0.231
-222.655	-154.863	0.260	0.017
-221.640	320.537	0.219	0.409
-220.625	100.685	0.140	0.160
-219.611	-113.619	0.396	-0.076
-218.596	-43.096	0.217	-0.108
-217.582	-35.101	0.060	-0.032
-216.567	-200.000	-0.006	-0.216
-215.552	-200.000	-0.030	-0.187
-214.538	800.000	0.051	-0.205
-213.523	-27.978	0.123	-0.070
-212.509	427.246	-0.068	0.143
-211.494	-70.548	0.104	-0.039
-210.479	-200.000	-0.029	0.126
-209.465	-200.000	-0.013	-0.513
-208.450	-176.277	-0.169	-0.004
-207.436	-200.000	0.039	0.177
-206.421	-115.524	-0.270	-0.050
-205.406	800.000	0.110	0.317
-204.392	559.762	0.122	-0.289
-203.377	800.000	-0.101	-0.430
-202.363	-26.879	-0.337	0.193
-201.348	264.664	0.084	0.144
-200.333	-33.948	-0.083	0.045
-199.319	9.671	0.174	-0.130
-198.304	-117.903	0.286	0.050
-197.290	-200.000	0.011	0.285
-196.275	-132.307	0.217	-0.028
-195.260	426.884	0.102	-0.217
-194.246	38.476	0.067	-0.058
-193.231	-200.000	-0.071	0.329
-192.217	800.000	0.035	-0.135
-191.202	143.297	-0.040	0.053
-190.187	-147.948	0.085	0.007
-189.173	-144.102	-0.272	0.025
-188.158	-200.000	-0.007	0.322
-187.144	437.732	0.042	-0.090
-186.129	-39.050	0.282	-0.146
-185.114	800.000	0.099	-0.334
-184.100	-78.570	-0.242	0.081
-183.085	66.444	0.172	-0.172
-182.071	-200.000	0.069	0.346
-181.056	449.051	0.080	0.174
-180.042	-166.298	-0.144	-0.006
-179.027	18.375	0.366	0.287
-178.012	800.000	-0.109	-0.307
-176.998	338.897	0.128	-0.245
-175.983	-200.000	0.040	0.376
-174.969	-101.001	-0.250	0.060
-173.954	-13.872	0.270	0.171
-172.939	-106.185	0.107	0.024
-171.925	800.000	-0.086	0.259
-170.910	-89.732	-0.397	0.114
-169.896	-85.949	-0.291	-0.088
-168.881	-2.976	0.117	-0.080
-167.866	95.212	-0.074	0.083
-166.852	19.394	0.075	-0.059
-165.837	-130.979	0.286	0.037
-164.823	-200.000	0.037	-0.218
-163.808	-84.831	0.150	0.046
-162.793	169.126	0.155	0.217
-161.779	133.204	0.225	0.285
-160.764	-96.258	0.166	-0.043
-159.750	74.157	-0.027	-0.027
-158.735	-97.949	0.224	0.057
-157.720	154.708	-0.110	0.148
-156.706	-200.000	0.052	-0.375
-155.691	83.944	0.033	0.035
-154.677	105.095	0.229	0.265
-153.662	800.000	-0.033	0.112
-152.647	-200.000	-0.146	-0.001
-151.633	-44.190	-0.206	0.101
-150.618	-79.709	0.249	-0.082
-149.604	800.000	0.009	-0.038
-148.589	-114.174	0.208	0.039
-147.574	328.294	-0.157	0.295
-146.560	36.936	-0.071	0.062
-145.545	-200.000	-0.052	0.238
-144.531	800.000	-0.086	0.309
-143.516	495.519	-0.191	-0.431
-142.502	191.090	-0.103	0.152
-141.487	13.883	-0.108	-0.083
-140.472	240.499	0.179	-0.292
-139.458	-200.000	-0.040	0.350
-138.443	32.921	0.338	0.287
-137.429	-88.001	-0.308	0.091
-136.414	-25.814	0.052	0.030
-135.399	-18.200	0.125	-0.076
-134.385	27.552	0.285	-0.235
-133.370	-200.000	0.006	0.096
-132.356	800.000	0.039	0.156
-131.341	258.336	-0.165	0.279
-130.326	-200.000	0.029	0.146
-129.312	-200.000	-0.005	0.088
-128.297	32.763	-0.239	-0.202
-127.283	-95.149	0.189	-0.050
-126.268	-11.748	0.095	-0.061
-125.253	-115.140	-0.500	0.093
-124.239	6.323	0.133	0.096
-123.224	-61.196	-0.188	0.078
-122.210	-199.570	0.364	-0.002
