DTS Sentinel unit serial number:	SN413079Multiplexer serial number:	ORYXHardware model number:	OX4-SRSoftware version number:	ORYX F/W v4.00 Oryx Data Collector v3.7.2.0data status	okinstallation	princeton_trtdifferential loss correction	single-endedforward channel	channel 3reverse channel	N/Adate	2019/09/14time	03:56:35forward acquisition time	60.00reverse acquisition time	0.00gamma	496.2192k internal	0.2339k external	0.2339temperature offset calibration	1.0052default loss term (dB/km)	0.3790temperature slope calibration	1.0000multiplexer offset coefficient	1.0000multiplexer slope coefficient	1.0000fibre end	0.00T internal ref (°C)	26.69T ext. ref 1 (°C)	3.32T ext. ref 2 (°C)	21.72length (m)	temperature (°C)	Stokes	anti-Stokes-747.200	-200.000	0.026	-0.276
-746.185	138.855	0.247	-0.325
-745.171	-176.642	0.229	0.006
-744.156	-200.000	0.060	0.280
-743.142	-200.000	0.032	0.175
-742.127	-80.452	0.242	-0.081
-741.112	800.000	0.053	0.169
-740.098	66.198	-0.109	-0.111
-739.083	-58.936	-0.075	-0.033
-738.069	-200.000	0.037	0.181
-737.054	-200.000	0.011	0.151
-736.039	-200.000	-0.036	0.294
-735.025	-95.153	0.298	0.080
-734.010	-70.782	-0.173	0.066
-732.996	58.665	-0.320	-0.315
-731.981	-200.000	0.000	-0.250
-730.966	-16.252	-0.143	0.091
-729.952	-144.449	-0.035	-0.003
-728.937	132.698	-0.093	-0.121
-727.923	478.698	0.136	-0.309
-726.908	152.128	0.121	0.166
-725.894	100.567	0.236	-0.275
-724.879	-82.143	-0.263	-0.086
-723.864	494.359	-0.080	-0.183
-722.850	-200.000	-0.023	-0.234
-721.835	-24.252	0.132	-0.079
-720.821	468.848	-0.060	-0.136
-719.806	-7.164	-0.140	-0.095
-718.791	-130.742	0.073	-0.010
-717.777	800.000	-0.085	-0.276
-716.762	376.270	-0.158	0.324
-715.748	262.113	-0.150	-0.261
-714.733	-14.011	-0.060	-0.039
-713.718	-104.333	-0.310	0.072
-712.704	-200.000	-0.015	-0.213
-711.689	-32.731	0.218	0.122
-710.675	22.834	0.071	-0.059
-709.660	-196.014	-0.269	0.002
-708.645	46.661	-0.087	-0.081
-707.631	-119.508	0.060	-0.010
-706.616	282.627	-0.154	-0.276
-705.602	-59.909	-0.046	0.020
-704.587	24.469	0.225	0.187
-703.572	800.000	-0.023	0.070
-702.558	285.388	-0.074	-0.134
-701.543	-103.382	0.138	-0.033
-700.529	392.090	-0.260	0.540
-699.514	-120.136	-0.146	-0.025
-698.499	200.814	-0.147	-0.227
-697.485	52.022	-0.133	-0.127
-696.470	-200.000	-0.012	-0.140
-695.456	721.612	-0.096	-0.256
-694.441	-200.000	-0.003	0.050
-693.426	-75.621	-0.167	0.059
-692.412	-45.296	-0.090	-0.045
-691.397	-16.448	-0.337	-0.214
-690.383	800.000	0.090	-0.332
-689.368	-149.151	-0.545	0.044
-688.354	-25.513	-0.361	-0.213
-687.339	-150.954	-0.121	0.009
-686.324	-120.271	0.221	0.038
-685.310	800.000	-0.112	0.312
-684.295	-200.000	-0.006	0.129
-683.281	-200.000	0.020	-0.222
-682.266	-24.251	-0.131	-0.078
-681.251	259.396	-0.140	-0.241
-680.237	-200.000	-0.468	0.001
-679.222	-126.430	-0.186	-0.028
-678.208	336.079	-0.032	-0.061
-677.193	21.674	-0.199	0.162
-676.178	52.978	0.046	-0.044
-675.164	-48.330	0.220	-0.106
-674.149	205.996	-0.242	-0.376
-673.135	-118.691	0.048	-0.008
-672.120	-164.574	-0.210	-0.010
-671.105	38.212	0.077	-0.069
-670.091	390.103	-0.097	-0.202
-669.076	231.603	0.140	-0.229
-668.062	8.195	-0.392	0.295
-667.047	-143.126	-0.020	0.002
-666.032	-40.196	-0.133	0.069
-665.018	299.451	-0.154	0.285
-664.003	74.387	0.333	0.350
-662.989	-1.501	0.173	-0.122
-661.974	175.870	-0.128	-0.185
-660.959	296.463	0.037	-0.067
-659.945	54.038	-0.137	0.132
-658.930	-200.000	0.048	-0.466
-657.916	-200.000	-0.022	-0.238
-656.901	800.000	0.128	-0.369
-655.886	146.937	0.135	0.182
-654.872	800.000	-0.107	-0.300
-653.857	208.933	-0.148	0.232
-652.843	298.598	-0.144	-0.264
-651.828	0.129	-0.227	-0.161
-650.814	1.506	0.137	0.098
-649.799	-200.000	-0.021	0.166
-648.784	66.523	0.237	0.241
-647.770	-200.000	-0.027	-0.235
-646.755	-126.354	0.163	0.024
-645.741	-29.483	-0.390	-0.223
-644.726	-200.000	-0.018	-0.171
-643.711	-128.320	-0.044	-0.006
-642.697	-140.770	0.156	0.016
-641.682	-113.500	-0.054	0.011
-640.668	-200.000	0.023	-0.301
-639.653	478.072	-0.120	0.272
-638.638	-5.613	0.138	-0.095
-637.624	-100.803	-0.070	0.017
-636.609	137.631	-0.231	-0.302
-635.595	-200.000	-0.038	-0.242
-634.580	11.884	-0.058	-0.045
-633.565	-0.152	-0.175	-0.125
-632.551	438.889	0.047	0.103
-631.536	-200.000	0.008	0.268
-630.522	-9.308	-0.085	0.056
-629.507	147.636	-0.050	0.068
-628.492	800.000	0.116	-0.451
-627.478	-200.000	-0.015	0.102
-626.463	16.707	-0.223	-0.176
-625.449	-113.656	-0.236	-0.046
-624.434	316.488	-0.126	-0.238
-623.419	52.484	0.190	-0.181
-622.405	-200.000	0.010	0.119
-621.390	-169.537	-0.140	-0.005
-620.376	11.407	-0.098	0.075
-619.361	-119.599	-0.120	-0.021
-618.346	-45.529	0.116	-0.057
-617.332	779.850	-0.076	0.206
-616.317	377.700	-0.178	0.363
-615.303	800.000	-0.085	-0.259
-614.288	-1.549	-0.074	0.052
-613.273	-200.000	-0.009	0.202
-612.259	643.964	-0.065	-0.164
-611.244	-200.000	0.039	0.390
-610.230	-200.000	-0.005	0.061
-609.215	106.190	-0.062	-0.073
-608.201	-200.000	-0.036	0.282
-607.186	627.105	-0.040	0.100
-606.171	-64.631	-0.149	0.060
-605.157	-62.752	-0.157	-0.065
-604.142	152.914	0.108	-0.147
-603.128	301.146	-0.032	0.059
-602.113	-72.544	0.283	0.104
-601.098	800.000	-0.080	-0.247
-600.084	23.728	0.280	0.230
-599.069	-70.729	0.503	-0.190
-598.055	-19.736	0.120	0.074
-597.040	-30.753	0.280	-0.158
-596.025	-37.320	0.339	0.181
-595.011	-14.175	-0.209	-0.135
-593.996	-200.000	0.006	-0.065
-592.982	-139.827	-0.083	-0.009
-591.967	-200.000	0.082	0.405
-590.952	587.011	0.018	0.045
-589.938	-200.000	0.004	-0.021
-588.923	103.533	-0.015	0.018
-587.909	91.893	-0.384	-0.431
-586.894	800.000	0.064	-0.231
-585.879	-200.000	-0.040	0.192
-584.865	-200.000	-0.030	-0.227
-583.850	125.002	-0.130	-0.163
-582.836	45.568	0.215	0.197
-581.821	-200.000	0.001	-0.095
-580.806	-79.301	0.291	-0.098
-579.792	237.704	-0.163	0.269
-578.777	93.917	-0.032	0.036
-577.763	33.909	0.147	-0.127
-576.748	112.930	0.074	0.089
-575.733	-47.922	0.191	-0.092
-574.719	800.000	0.092	-0.282
-573.704	-16.357	0.151	0.095
-572.690	-21.662	-0.168	0.102
-571.675	-200.000	-0.037	0.189
-570.661	-86.595	-0.130	-0.040
-569.646	439.200	-0.099	0.216
-568.631	800.000	-0.021	-0.081
-567.617	-13.740	-0.285	-0.184
-566.602	800.000	-0.056	-0.232
-565.588	-200.000	0.033	0.197
-564.573	-200.000	-0.067	0.531
-563.558	79.224	0.224	0.239
-562.544	-151.545	-0.192	0.014
-561.529	-200.000	-0.010	-0.078
-560.515	-30.997	-0.166	-0.093
-559.500	-19.929	0.173	-0.106
-558.485	17.056	0.148	-0.117
-557.471	-103.134	0.230	0.054
-556.456	-90.713	-0.421	0.121
-555.442	-26.284	0.114	-0.067
-554.427	-124.291	0.712	0.111
-553.412	-9.061	-0.166	0.110
-552.398	753.423	-0.027	0.072
-551.383	-105.926	-0.101	-0.023
-550.369	68.618	-0.139	-0.142
-549.354	31.419	-0.187	0.160
-548.339	-162.151	-0.534	0.027
-547.325	-23.834	-0.099	-0.059
-546.310	236.107	-0.170	-0.280
-545.296	-200.000	-0.027	0.135
-544.281	48.450	-0.271	-0.253
-543.266	-97.109	-0.348	-0.090
-542.252	-200.000	-0.007	0.257
-541.237	-93.717	-0.279	-0.077
-540.223	406.985	-0.094	0.198
-539.208	-138.934	0.033	0.004
-538.193	-200.000	0.011	-0.157
-537.179	252.434	0.156	-0.265
-536.164	636.368	-0.097	0.244
-535.150	-84.954	-0.322	-0.100
-534.135	425.730	-0.039	0.084
-533.121	-131.587	-0.093	0.012
-532.106	-39.039	0.178	-0.093
-531.091	108.791	-0.174	0.206
-530.077	24.151	-0.302	0.248
-529.062	800.000	-0.026	0.093
-528.048	-200.000	0.006	-0.101
-527.033	-200.000	0.002	-0.107
-526.018	-113.487	0.232	-0.045
-525.004	497.214	0.025	-0.057
-523.989	800.000	-0.066	-0.252
-522.975	-47.315	-0.291	-0.141
-521.960	-33.556	0.173	0.095
-520.945	518.586	-0.056	0.130
-519.931	-200.000	0.023	0.117
-518.916	13.115	-0.066	0.051
-517.902	-87.132	-0.234	-0.071
-516.887	-14.481	0.218	-0.139
-515.872	-152.157	-0.189	0.014
-514.858	45.695	0.317	-0.292
-513.843	242.642	0.165	-0.274
-512.829	-31.547	0.081	-0.045
-511.814	-200.000	0.017	-0.290
-510.799	-182.435	-0.325	-0.006
-509.785	-75.008	0.088	-0.031
-508.770	-118.435	-0.194	0.034
-507.756	-200.000	-0.010	0.326
-506.741	800.000	0.046	-0.177
-505.726	-200.000	-0.019	0.114
-504.712	100.012	0.099	0.114
-503.697	-200.000	-0.005	-0.031
-502.683	587.572	0.064	0.156
-501.668	-40.133	0.519	-0.268
-500.653	236.481	0.215	0.353
-499.639	-139.666	0.033	-0.003
-498.624	-200.000	-0.033	-0.320
-497.610	800.000	-0.046	-0.186
-496.595	-87.791	0.268	0.080
-495.581	-200.000	0.022	-0.110
-494.566	283.626	-0.082	-0.146
-493.551	-200.000	0.005	0.276
-492.537	-82.261	-0.166	0.054
-491.522	542.058	-0.036	-0.085
-490.508	32.403	-0.167	-0.144
-489.493	-151.453	0.295	0.022
-488.478	-144.852	0.216	-0.020
-487.464	646.295	-0.150	-0.380
-486.449	292.467	-0.084	-0.151
-485.435	800.000	-0.081	0.247
-484.420	-152.119	0.189	0.014
-483.405	754.571	-0.080	0.215
-482.391	200.973	-0.044	0.067
-481.376	-83.067	-0.183	-0.058
-480.362	206.145	-0.148	-0.228
-479.347	-50.881	-0.149	0.069
-478.332	-177.775	-0.302	0.007
-477.318	-200.000	0.071	0.319
-476.303	-200.000	0.053	-0.358
-475.289	127.490	-0.130	-0.164
-474.274	611.598	-0.158	-0.393
-473.259	-126.775	-0.076	0.011
-472.245	53.221	0.220	-0.209
-471.230	800.000	0.111	0.420
-470.216	148.791	0.096	-0.129
-469.201	800.000	0.070	0.278
-468.186	-92.041	0.227	-0.064
-467.172	29.910	-0.137	0.116
-466.157	-18.334	-0.442	-0.274
-465.143	48.084	0.172	0.159
-464.128	-200.000	-0.003	-0.191
-463.113	-118.099	0.171	-0.030
-462.099	-173.613	-0.320	-0.010
-461.084	84.858	-0.147	0.160
-460.070	123.278	-0.259	-0.323
-459.055	-200.000	0.031	-0.166
-458.040	-69.041	0.152	-0.058
-457.026	-200.000	-0.037	-0.225
-456.011	-191.440	0.130	0.001
-454.997	-55.417	0.163	-0.072
-453.982	62.581	0.107	0.106
-452.968	-70.320	0.215	-0.081
-451.953	-4.785	0.351	-0.240
-450.938	50.042	-0.130	-0.121
-449.924	246.318	-0.067	0.111
-448.909	800.000	-0.100	0.415
-447.895	144.377	0.089	0.118
-446.880	72.170	0.173	-0.179
-445.865	-200.000	-0.054	-0.256
-444.851	9.331	0.244	0.183
-443.836	84.450	0.105	-0.114
-442.822	27.532	0.136	0.113
-441.807	-200.000	0.010	0.095
-440.792	-79.000	-0.202	-0.068
-439.778	-158.360	0.175	0.010
-438.763	-110.905	-0.112	0.023
-437.749	-200.000	-0.024	-0.242
-436.734	-87.004	0.345	-0.104
-435.719	-200.000	0.059	0.390
-434.705	-141.850	-0.128	-0.013
-433.690	-200.000	0.013	0.207
-432.676	-200.000	-0.003	-0.131
-431.661	800.000	0.094	0.302
-430.646	-145.120	-0.154	0.014
-429.632	192.166	0.067	0.100
-428.617	-66.754	0.252	-0.099
-427.603	-200.000	0.018	-0.103
-426.588	800.000	0.047	-0.147
-425.573	64.435	-0.201	-0.201
-424.559	-92.601	-0.234	0.065
-423.544	-200.000	-0.006	-0.043
-422.530	-200.000	0.019	-0.237
-421.515	-73.830	0.014	-0.005
-420.500	-200.000	0.082	0.361
-419.486	-157.919	-0.097	-0.006
-418.471	602.735	-0.078	-0.192
-417.457	-200.000	0.008	-0.204
-416.442	1.703	-0.088	-0.063
-415.428	-28.533	0.318	-0.182
-414.413	-162.084	0.198	-0.010
-413.398	10.257	-0.446	0.336
-412.384	43.412	-0.197	0.179
-411.369	-18.236	-0.249	0.154
-410.355	-69.539	-0.009	0.004
-409.340	-162.259	0.157	-0.008
-408.325	10.276	0.070	0.052
-407.311	-94.520	0.060	0.016
-406.296	-200.000	0.016	0.137
-405.282	-87.219	0.156	0.047
-404.267	283.923	0.247	-0.439
-403.252	-200.000	0.010	-0.156
-402.238	-200.000	-0.000	-0.199
-401.223	552.706	0.009	0.021
-400.209	5.494	-0.157	-0.115
-399.194	800.000	0.064	0.229
-398.179	-56.989	-0.316	-0.138
-397.165	284.611	0.116	-0.207
-396.150	-101.587	0.096	0.023
-395.136	-200.000	-0.008	0.047
-394.121	-165.707	0.185	-0.008
-393.106	800.000	0.055	0.217
-392.092	20.616	0.169	0.136
-391.077	-182.684	0.167	-0.003
-390.063	-159.799	0.034	-0.002
-389.048	-200.000	-0.084	-0.444
-388.033	-132.298	-0.127	0.016
-387.019	-52.937	-0.246	-0.112
-386.004	-57.606	0.335	0.145
-384.990	59.132	-0.176	-0.171
-383.975	-25.449	0.072	0.042
-382.960	-51.910	-0.045	-0.021
-381.946	79.819	0.126	-0.133
-380.931	-65.427	0.123	0.049
-379.917	-61.225	-0.144	0.060
-378.902	18.393	0.058	0.046
-377.888	143.397	-0.148	-0.194
-376.873	-42.588	-0.165	0.083
-375.858	708.024	0.081	-0.211
-374.844	-184.516	0.224	-0.004
-373.829	74.064	0.054	-0.056
-372.815	800.000	0.046	0.182
-371.800	7.975	-0.140	0.104
-370.785	-111.915	-0.116	-0.023
-369.771	-200.000	0.036	0.195
-368.756	-133.670	-0.207	-0.026
-367.742	78.168	0.170	-0.179
-366.727	10.330	-0.362	-0.272
-365.712	-6.469	0.105	0.071
-364.698	-200.000	0.018	-0.119
-363.683	-100.122	-0.141	-0.035
-362.669	24.436	-0.249	0.203
-361.654	-69.301	0.043	0.016
-360.639	540.611	-0.158	0.373
-359.625	29.302	-0.150	-0.126
-358.610	198.520	-0.121	0.182
-357.596	-200.000	0.035	-0.160
-356.581	-200.000	-0.034	0.331
-355.566	-70.013	0.203	0.076
-354.552	89.335	-0.143	-0.157
-353.537	-131.143	0.488	0.064
-352.523	371.881	0.065	0.131
-351.508	176.877	-0.251	-0.360
-350.493	800.000	0.019	0.052
-349.479	-200.000	0.016	-0.216
-348.464	271.140	-0.083	-0.145
-347.450	29.657	0.184	0.155
-346.435	-30.032	0.125	0.070
-345.420	300.383	-0.081	0.147
-344.406	38.125	0.120	0.106
-343.391	-8.994	-0.260	-0.172
-342.377	-200.000	0.052	0.304
-341.362	-200.000	-0.025	0.181
-340.348	-200.000	-0.049	0.244
-339.333	-200.000	0.004	-0.093
-338.318	237.162	0.179	0.294
-337.304	-169.089	-0.248	-0.009
-336.289	-49.602	-0.151	-0.071
-335.275	152.240	-0.087	0.118
-334.260	800.000	-0.044	-0.189
-333.245	800.000	-0.047	0.202
-332.231	800.000	0.071	-0.271
-331.216	-200.000	0.010	-0.076
-330.202	-25.129	-0.339	-0.198
-329.187	-90.469	0.282	0.081
-328.172	-117.001	0.394	-0.071
-327.158	62.501	0.167	0.165
-326.143	62.079	0.130	-0.128
-325.129	800.000	0.143	0.486
-324.114	-99.714	0.061	-0.015
-323.099	800.000	0.103	0.287
-322.085	134.523	-0.168	0.215
-321.070	-60.781	0.203	0.085
-320.056	-49.965	0.316	0.148
-319.041	-124.270	0.117	-0.018
-318.026	10.401	-0.117	-0.088
-317.012	-40.911	-0.094	0.048
-315.997	57.432	-0.146	0.140
-314.983	783.737	0.031	0.084
-313.968	75.299	0.073	-0.076
-312.953	-35.143	0.059	0.032
-311.939	-200.000	-0.073	0.340
-310.924	-29.331	0.373	0.211
-309.910	-78.720	0.226	0.076
-308.895	-200.000	-0.110	-0.000
-307.880	-31.238	0.163	-0.091
-306.866	-199.340	0.095	-0.000
-305.851	143.661	-0.150	0.197
-304.837	-89.436	-0.434	-0.126
-303.822	-200.000	0.056	0.244
-302.807	-150.254	-0.089	0.007
-301.793	147.380	-0.021	-0.028
-300.778	63.649	-0.162	-0.160
-299.764	776.634	0.032	0.087
-298.749	225.019	0.115	-0.184
-297.735	-200.000	-0.031	0.221
-296.720	-73.047	-0.172	0.062
-295.705	-40.420	0.087	-0.045
-294.691	-200.000	0.037	-0.404
-293.676	-177.625	0.100	-0.002
-292.662	-18.788	0.175	0.107
-291.647	-69.717	-0.375	-0.141
-290.632	753.146	0.088	-0.233
-289.618	-19.064	0.301	-0.184
-288.603	110.054	-0.084	0.099
-287.589	-52.746	0.164	-0.074
-286.574	-95.812	-0.118	0.031
-285.559	-136.739	0.256	-0.029
-284.545	-83.992	0.272	-0.085
-283.530	-15.021	-0.084	-0.053
-282.516	800.000	0.124	0.409
-281.501	20.283	0.419	-0.334
-280.486	-200.000	0.001	0.370
-279.472	-101.264	-0.032	-0.008
-278.457	302.502	0.266	-0.486
-277.443	546.540	-0.044	-0.105
-276.428	79.065	0.267	-0.282
-275.413	311.946	-0.045	0.082
-274.399	95.795	0.341	0.384
-273.384	117.331	0.186	-0.226
-272.370	68.279	-0.073	0.073
-271.355	238.157	0.123	0.202
-270.340	-149.224	-0.254	0.020
-269.326	-125.106	0.346	0.052
-268.311	347.450	0.168	-0.325
-267.297	-153.914	-0.219	-0.015
-266.282	-200.000	0.029	-0.220
-265.267	-200.000	0.026	-0.274
-264.253	-156.179	-0.313	0.019
-263.238	-131.117	0.303	-0.040
-262.224	98.633	0.036	0.041
-261.209	78.262	0.186	0.195
-260.195	431.624	-0.124	0.264
-259.180	800.000	-0.021	0.076
-258.165	800.000	-0.024	0.082
-257.151	-85.058	0.090	0.028
-256.136	633.201	0.077	-0.191
-255.122	800.000	-0.065	-0.248
-254.107	-200.000	0.013	0.112
-253.092	-183.464	-0.616	0.011
-252.078	800.000	0.027	-0.085
-251.063	800.000	-0.032	0.121
-250.049	26.808	-0.165	0.136
-249.034	-90.659	-0.294	0.084
-248.019	55.743	0.229	0.218
-247.005	-141.219	0.231	-0.023
-245.990	-52.826	-0.058	-0.026
-244.976	-200.000	-0.018	-0.133
-243.961	800.000	0.115	0.433
-242.946	-200.000	-0.001	-0.148
-241.932	-6.441	-0.092	-0.062
-240.917	-51.449	-0.448	0.206
-239.903	800.000	0.064	-0.213
-238.888	12.053	0.320	-0.242
-237.873	212.347	0.117	-0.182
-236.859	800.000	-0.060	-0.180
-235.844	-134.029	-0.219	0.027
-234.830	-200.000	-0.000	0.097
-233.815	-149.795	-0.230	0.018
-232.800	513.558	0.089	-0.203
-231.786	-200.000	0.095	-0.444
-230.771	-200.000	0.017	0.095
-229.757	-200.000	-0.024	0.136
-228.742	301.452	0.088	0.161
-227.727	-200.000	0.057	-0.430
-226.713	330.173	0.088	0.166
-225.698	-138.552	0.306	0.033
-224.684	-200.000	0.037	0.276
-223.669	800.000	0.067	0.281
-222.655	800.000	-0.080	0.320
-221.640	-200.000	0.072	0.326
-220.625	-85.980	-0.302	0.092
-219.611	-63.309	0.194	0.078
-218.596	-152.494	-0.343	0.024
-217.582	-59.809	-0.525	0.221
-216.567	129.168	0.137	0.172
-215.552	113.752	0.098	0.117
-214.538	-47.800	-0.221	-0.105
-213.523	-46.961	0.133	-0.064
-212.509	-81.932	-0.063	0.020
-211.494	73.924	-0.075	0.077
-210.479	-179.274	0.305	0.007
-209.465	48.312	-0.172	0.158
-208.450	800.000	0.092	0.249
-207.436	-200.000	0.009	-0.168
-206.421	800.000	-0.069	0.260
-205.406	-22.039	-0.025	0.015
-204.392	68.694	0.057	-0.057
-203.377	-140.887	0.171	-0.017
-202.363	163.399	-0.074	0.103
-201.348	800.000	0.048	-0.206
-200.333	-107.506	-0.175	0.038
-199.319	101.831	0.078	-0.090
-198.304	125.315	-0.184	0.227
-197.290	-200.000	-0.025	0.169
-196.275	-87.021	-0.038	0.011
-195.260	40.275	-0.160	0.141
-194.246	-60.332	-0.284	-0.119
-193.231	-200.000	0.002	0.184
-192.217	184.303	-0.120	-0.175
-191.202	-200.000	-0.011	-0.213
-190.187	-106.060	0.331	-0.073
-189.173	-5.299	-0.077	-0.052
-188.158	-46.210	0.094	0.045
-187.144	154.264	0.216	0.292
-186.129	-26.538	-0.110	-0.064
-185.114	202.139	0.065	-0.098
-184.100	-67.623	0.343	0.132
-183.085	-72.255	0.175	-0.064
-182.071	-200.000	0.021	-0.178
-181.056	-161.372	-0.121	-0.006
-180.042	26.135	0.220	0.180
-179.027	-200.000	-0.005	-0.098
-178.012	-75.034	0.181	-0.064
-176.998	32.513	-0.149	0.126
-175.983	-141.012	-0.222	0.022
-174.969	105.410	-0.138	-0.160
-173.954	136.329	0.094	-0.121
-172.939	-200.000	-0.037	-0.209
-171.925	-57.651	-0.018	-0.008
-170.910	-87.370	0.245	-0.073
-169.896	-104.409	-0.349	0.079
-168.881	800.000	0.041	0.123
-167.866	-200.000	-0.063	0.277
-166.852	-178.068	-0.291	0.007
-165.837	366.060	-0.063	0.124
-164.823	-28.937	-0.131	0.074
-163.808	220.097	0.262	-0.411
-162.793	-200.000	-0.040	0.233
-161.779	-173.357	0.146	-0.004
-160.764	5.468	-0.136	0.099
-159.750	-200.000	-0.042	0.273
-158.735	63.148	0.119	-0.116
-157.720	-60.581	0.051	0.021
-156.706	17.293	-0.143	-0.111
-155.691	-133.614	0.214	-0.026
-154.677	256.954	-0.168	-0.284
-153.662	15.076	-0.019	0.014
-152.647	184.198	0.105	0.153
-151.633	-71.097	0.202	-0.074
-150.618	-57.425	-0.035	-0.015
-149.604	-112.492	-0.277	0.054
-148.589	-24.300	-0.152	0.089
-147.574	147.234	0.219	-0.288
-146.560	-48.187	-0.255	0.121
-145.545	-113.931	0.453	0.086
-144.531	-32.330	0.182	-0.100
-143.516	-200.000	0.003	-0.124
-142.502	-70.520	0.188	-0.070
-141.487	-110.991	-0.267	0.054
-140.472	123.044	0.057	-0.070
-139.458	800.000	-0.100	0.324
-138.443	263.269	0.028	-0.048
-137.429	210.856	0.054	0.084
-136.414	-116.225	0.159	-0.029
-135.399	102.695	0.274	0.314
-134.385	-200.000	-0.023	-0.294
-133.370	-2.448	-0.366	-0.251
-132.356	-82.353	0.294	-0.094
-131.341	-72.446	0.078	0.028
-130.326	-200.000	0.035	0.364
-129.312	-24.861	0.068	-0.040
-128.297	4.906	-0.144	-0.104
-127.283	632.626	-0.097	-0.242
-126.268	800.000	0.078	-0.308
-125.253	-35.926	0.376	-0.199
-124.239	-200.000	0.001	-0.150
-123.224	-85.040	0.124	-0.038
