DTS Sentinel unit serial number:	SN413079Multiplexer serial number:	ORYXHardware model number:	OX4-SRSoftware version number:	ORYX F/W v4.00 Oryx Data Collector v3.7.2.0data status	okinstallation	princeton_trtdifferential loss correction	single-endedforward channel	channel 3reverse channel	N/Adate	2019/09/12time	18:03:04forward acquisition time	15.00reverse acquisition time	0.00gamma	496.2192k internal	0.2316k external	0.2316temperature offset calibration	1.0092default loss term (dB/km)	0.3790temperature slope calibration	1.0000multiplexer offset coefficient	1.0000multiplexer slope coefficient	1.0000fibre end	0.00T internal ref (°C)	33.75T ext. ref 1 (°C)	2.95T ext. ref 2 (°C)	28.21length (m)	temperature (°C)	Stokes	anti-Stokes-747.200	800.000	-0.107	-0.348
-746.185	800.000	0.068	0.239
-745.171	-172.992	-0.276	-0.009
-744.156	-129.619	-0.294	0.041
-743.142	-200.000	0.062	-0.830
-742.127	-200.000	-0.211	1.152
-741.112	800.000	0.225	-0.679
-740.098	139.641	-0.236	-0.314
-739.083	-200.000	-0.141	-0.791
-738.069	-65.925	-0.491	0.199
-737.054	171.757	0.312	-0.454
-736.039	10.519	-0.172	0.132
-735.025	38.396	0.536	0.484
-734.010	-200.000	-0.025	-0.305
-732.996	-13.817	-0.415	-0.272
-731.981	-36.355	0.256	-0.140
-730.966	388.230	0.499	-1.044
-729.952	123.856	0.356	-0.452
-728.937	415.416	0.041	-0.088
-727.923	800.000	-0.230	-0.844
-726.908	-178.551	-0.328	0.008
-725.894	-31.147	-0.875	0.499
-724.879	505.254	0.641	-1.503
-723.864	329.851	-0.132	0.256
-722.850	166.758	0.345	-0.496
-721.835	-200.000	-0.083	-0.372
-720.821	-62.790	0.694	0.291
-719.806	-52.824	-0.544	-0.254
-718.791	26.236	0.248	0.209
-717.777	128.020	-0.346	0.446
-716.762	-35.767	-0.406	-0.222
-715.748	21.038	-0.544	-0.446
-714.733	800.000	-0.059	0.253
-713.718	-45.562	-0.681	0.341
-712.704	-200.000	-0.041	0.000
-711.689	800.000	-0.203	-0.635
-710.675	-44.748	0.215	-0.108
-709.660	-167.804	0.564	-0.023
-708.645	30.057	0.192	0.166
-707.631	-27.238	0.404	-0.238
-706.616	-200.000	0.083	-0.541
-705.602	1.666	-0.483	-0.351
-704.587	692.561	0.169	0.447
-703.572	-100.645	0.454	0.113
-702.558	-165.897	-0.641	0.028
-701.543	-168.369	-0.372	-0.014
-700.529	800.000	-0.148	-0.575
-699.514	-90.752	0.724	-0.211
-698.499	-119.214	0.278	-0.049
-697.485	800.000	-0.117	-0.358
-696.470	15.592	0.517	-0.411
-695.456	-71.980	-0.454	0.171
-694.441	185.584	0.045	-0.068
-693.426	-77.754	0.537	0.188
-692.412	171.857	-0.329	-0.478
-691.397	37.408	0.255	0.229
-690.383	-200.000	-0.050	0.408
-689.368	-161.824	0.157	-0.008
-688.354	9.832	-0.326	-0.250
-687.339	-58.948	-0.384	0.168
-686.324	536.837	0.272	-0.654
-685.310	-63.661	-0.822	-0.341
-684.295	-62.578	-0.647	-0.272
-683.281	800.000	-0.133	0.444
-682.266	-188.326	-0.128	0.002
-681.251	111.515	-0.352	0.429
-680.237	-43.996	-0.642	-0.326
-679.222	122.166	-0.899	1.135
-678.208	79.741	-0.306	0.332
-677.193	800.000	-0.137	-0.393
-676.178	4.991	0.565	-0.420
-675.164	800.000	0.089	-0.336
-674.149	-81.230	-0.476	0.159
-673.135	-60.430	0.455	-0.195
-672.120	79.208	-0.314	0.340
-671.105	34.340	0.290	-0.256
-670.091	303.509	0.180	-0.337
-669.076	-141.155	0.576	-0.059
-668.062	74.516	-0.449	0.477
-667.047	30.490	0.369	0.318
-666.032	53.098	0.448	-0.433
-665.018	186.057	0.229	0.344
-664.003	800.000	-0.216	0.639
-662.989	-45.718	0.621	0.310
-661.974	-200.000	0.016	-0.156
-660.959	109.118	0.178	0.215
-659.945	-72.988	-0.250	-0.093
-658.930	-124.529	-0.207	-0.032
-657.916	800.000	-0.087	-0.310
-656.901	791.716	0.279	0.773
-655.886	-166.925	-1.095	-0.045
-654.872	-200.000	0.011	-0.503
-653.857	-200.000	0.077	-0.486
-652.843	-181.023	-1.109	0.022
-651.828	800.000	-0.155	-0.587
-650.814	213.299	0.301	0.479
-649.799	-53.548	-0.549	0.253
-648.784	128.430	-0.138	-0.177
-647.770	-200.000	-0.664	-0.002
-646.755	5.883	-0.203	-0.151
-645.741	149.159	-0.024	0.033
-644.726	611.226	-0.475	1.198
-643.711	-200.000	0.003	-0.596
-642.697	25.122	0.540	0.452
-641.682	-57.470	0.513	0.227
-640.668	-170.793	-0.428	0.015
-639.653	-97.598	0.821	-0.215
-638.638	-108.029	-0.637	0.139
-637.624	-84.218	-0.442	0.141
-636.609	-200.000	-0.032	0.678
-635.595	277.883	-0.062	-0.112
-634.580	-95.718	0.083	0.022
-633.565	-200.000	-0.023	-0.515
-632.551	-59.226	0.212	0.092
-631.536	-69.394	-0.387	-0.150
-630.522	-200.000	-0.035	-0.306
-629.507	130.311	-0.416	0.537
-628.492	152.391	-0.133	-0.183
-627.478	-200.000	-0.056	0.340
-626.463	728.419	-0.064	0.171
-625.449	-44.353	-0.856	-0.432
-624.434	-200.000	0.039	-0.285
-623.419	-200.000	0.049	0.951
-622.405	235.772	0.334	0.556
-621.390	-149.261	0.587	-0.047
-620.376	513.621	-0.218	0.512
-619.361	85.216	-0.179	0.197
-618.346	416.482	0.227	-0.488
-617.332	193.077	-0.499	0.760
-616.317	-200.000	0.056	-0.718
-615.303	162.002	0.351	0.495
-614.288	-200.000	-0.115	0.564
-613.273	726.151	0.053	-0.142
-612.259	239.509	0.174	-0.292
-611.244	68.282	0.903	-0.932
-610.230	28.913	-0.249	0.213
-609.215	32.640	0.335	-0.291
-608.201	-12.122	0.306	0.202
-607.186	-75.299	-0.411	0.148
-606.171	-200.000	0.039	-0.188
-605.157	-200.000	0.128	0.607
-604.142	-200.000	0.087	-0.636
-603.128	-200.000	-0.047	-0.665
-602.113	-36.139	-0.200	-0.109
-601.098	-6.668	-0.637	-0.436
-600.084	800.000	-0.172	-0.488
-599.069	-19.469	-0.114	0.071
-598.055	519.040	-0.360	0.849
-597.040	800.000	0.248	-0.837
-596.025	-81.565	-0.792	-0.262
-595.011	-200.000	-0.092	-0.999
-593.996	-22.320	-0.162	-0.099
-592.982	53.032	0.261	0.252
-591.967	-91.973	-0.343	0.098
-590.952	-62.728	-0.453	-0.189
-589.938	-117.544	-0.262	0.048
-588.923	-200.000	0.021	1.103
-587.909	-200.000	0.075	0.758
-586.894	-200.000	-0.088	-0.934
-585.879	-142.148	-0.547	-0.055
-584.865	-200.000	-0.018	-0.099
-583.850	800.000	0.244	0.915
-582.836	-75.061	0.220	-0.079
-581.821	544.987	0.050	-0.120
-580.806	609.467	0.167	0.419
-579.792	518.217	-0.179	-0.421
-578.777	301.848	-0.430	-0.799
-577.763	800.000	-0.170	0.647
-576.748	-200.000	-0.015	0.474
-575.733	800.000	-0.154	0.674
-574.719	-163.086	-0.041	0.002
-573.704	-65.335	-0.791	-0.320
-572.690	-61.638	-0.936	-0.395
-571.675	-97.096	0.318	-0.084
-570.661	-188.493	-0.647	0.008
-569.646	20.531	-0.275	0.224
-568.631	-53.131	0.221	-0.102
-567.617	259.972	0.296	-0.515
-566.602	-117.068	0.369	-0.068
-565.588	800.000	-0.155	0.500
-564.573	54.883	-0.293	-0.284
-563.558	800.000	0.130	-0.529
-562.544	-65.639	-1.399	0.564
-561.529	196.529	-0.440	0.673
-560.515	259.382	0.296	-0.514
-559.500	-100.274	-0.329	0.082
-558.485	570.233	-0.283	0.692
-557.471	-107.045	0.339	0.075
-556.456	17.449	-0.417	-0.333
-555.442	-23.167	-0.133	-0.081
-554.427	800.000	-0.288	-0.871
-553.412	14.358	0.823	0.645
-552.398	800.000	-0.094	0.303
-551.383	-55.449	0.655	-0.295
-550.369	-115.851	0.914	-0.172
-549.354	-42.193	0.806	0.414
-548.339	-52.439	0.472	0.219
-547.325	-63.926	-0.735	-0.302
-546.310	45.595	-0.223	-0.207
-545.296	-200.000	-0.067	-0.787
-544.281	40.678	0.486	-0.441
-543.266	-184.862	-0.503	0.008
-542.252	-119.377	-0.433	-0.076
-541.237	-176.944	0.645	-0.016
-540.223	800.000	-0.044	0.139
-539.208	462.407	0.176	-0.394
-538.193	-200.000	0.083	-0.481
-537.179	-85.451	-0.253	0.079
-536.164	-1.373	-0.856	0.607
-535.150	-76.663	-0.241	-0.085
-534.135	-151.451	-0.504	-0.038
-533.121	-200.000	-0.124	0.711
-532.106	-132.565	0.895	-0.115
-531.091	-43.263	0.517	0.263
-530.077	172.390	0.599	0.865
-529.062	33.394	-0.586	0.511
-528.048	-61.488	-0.344	0.145
-527.033	19.554	-0.257	0.208
-526.018	-105.840	0.380	-0.086
-525.004	-70.751	-0.348	0.132
-523.989	-117.830	0.474	0.085
-522.975	-145.001	0.274	0.025
-521.960	-104.409	-0.512	-0.119
-520.945	-135.184	1.499	-0.181
-519.931	-163.971	-0.609	0.028
-518.916	800.000	-0.215	-0.876
-517.902	-200.000	0.038	-0.433
-516.887	-200.000	0.076	0.708
-515.872	-138.603	0.234	-0.026
-514.858	-43.910	-0.354	-0.179
-513.843	-161.521	0.432	-0.022
-512.829	-200.000	0.203	0.968
-511.814	-200.000	0.120	0.544
-510.799	-200.000	0.033	-0.170
-509.785	-4.242	-0.663	0.461
-508.770	-200.000	-0.103	0.487
-507.756	34.838	0.288	0.253
-506.741	220.166	0.555	-0.892
-505.726	43.847	0.226	-0.208
-504.712	-134.221	-0.212	-0.026
-503.697	-28.744	-0.401	0.232
-502.683	117.126	0.408	-0.503
-501.668	-93.163	0.582	0.163
-500.653	-200.000	-0.102	0.712
-499.639	-121.736	0.282	-0.047
-498.624	21.868	-0.343	-0.280
-497.610	145.434	-0.093	0.125
-496.595	-136.880	0.176	0.020
-495.581	-135.180	-0.974	-0.117
-494.566	71.738	0.989	-1.032
-493.551	-30.307	0.336	-0.192
-492.537	-153.116	-0.180	-0.013
-491.522	-108.921	0.873	-0.187
-490.508	-166.303	0.318	-0.013
-489.493	-116.979	0.531	-0.097
-488.478	39.470	-0.238	-0.214
-487.464	-139.412	0.655	0.070
-486.449	181.915	0.118	-0.174
-485.435	132.323	0.562	0.726
-484.420	-200.000	-0.043	0.764
-483.405	-133.252	0.256	-0.032
-482.391	-162.719	1.010	0.050
-481.376	170.417	0.344	-0.494
-480.362	-138.419	-0.253	-0.028
-479.347	-200.000	-0.041	-0.199
-478.332	-200.000	0.001	-0.419
-477.318	66.558	-0.465	0.474
-476.303	800.000	0.079	-0.261
-475.289	350.571	0.234	-0.464
-474.274	800.000	0.157	0.579
-473.259	-13.128	-0.107	-0.069
-472.245	-104.379	1.404	0.326
-471.230	-200.000	0.015	0.098
-470.216	10.162	-0.236	0.180
-469.201	-200.000	-0.008	-0.334
-468.186	206.064	-0.255	-0.398
-467.172	-200.000	0.023	0.539
-466.157	800.000	-0.118	0.338
-465.143	37.577	0.400	0.355
-464.128	28.112	-0.420	-0.355
-463.113	261.786	-0.259	0.449
-462.099	-40.839	0.432	0.224
-461.084	-29.294	0.347	0.199
-460.070	-124.107	-0.615	0.097
-459.055	31.570	-0.189	-0.163
-458.040	3.965	-0.243	-0.178
-457.026	115.387	-0.094	0.114
-456.011	-44.174	-0.653	-0.328
-454.997	800.000	0.104	0.410
-453.982	-200.000	0.100	-0.494
-452.968	77.016	-0.487	0.518
-451.953	-47.022	-0.839	-0.410
-450.938	800.000	0.207	-0.639
-449.924	-200.000	-0.000	0.439
-448.909	-87.277	-1.109	-0.337
-447.895	-125.962	-0.131	0.020
-446.880	82.107	0.650	0.705
-445.865	-200.000	-0.039	-0.472
-444.851	22.796	-0.301	-0.247
-443.836	-57.441	0.809	-0.356
-442.822	503.219	0.101	0.234
-441.807	-39.687	-0.515	-0.270
-440.792	230.677	0.520	-0.851
-439.778	-99.810	0.361	-0.090
-438.763	-1.410	0.459	0.324
-437.749	800.000	-0.347	-1.020
-436.734	-58.440	-0.187	0.081
-435.719	427.989	-0.381	0.824
-434.705	-59.098	-0.476	-0.205
-433.690	69.491	-0.088	-0.091
-432.676	467.920	-0.534	-1.199
-431.661	-91.443	0.445	0.127
-430.646	10.614	-0.552	0.421
-429.632	-136.186	0.399	-0.047
-428.617	-200.000	-0.014	-0.348
-427.603	15.731	0.188	0.148
-426.588	224.180	-0.341	-0.551
-425.573	-36.211	-0.558	-0.301
-424.559	235.762	0.144	-0.237
-423.544	-200.000	0.040	-0.186
-422.530	-25.739	-0.198	-0.117
-421.515	-165.857	-0.250	-0.011
-420.500	20.628	0.189	0.153
-419.486	-200.000	-0.138	0.833
-418.471	95.231	0.744	0.848
-417.457	-162.389	-0.385	0.019
-416.442	112.326	0.663	-0.801
-415.428	-36.818	-0.514	0.276
-414.413	166.394	0.281	0.398
-413.398	800.000	-0.220	-0.755
-412.384	66.957	0.220	0.224
-411.369	688.656	0.162	0.425
-410.355	65.845	0.392	0.397
-409.340	533.824	-0.328	0.776
-408.325	800.000	-0.077	-0.326
-407.311	125.443	-0.448	0.565
-406.296	-48.869	0.608	0.291
-405.282	21.256	0.466	0.378
-404.267	9.039	-0.078	0.059
-403.252	510.392	-0.369	-0.857
-402.238	6.846	-0.310	-0.231
-401.223	-105.456	0.603	0.137
-400.209	-200.000	-0.088	0.442
-399.194	800.000	-0.310	1.106
-398.179	585.873	0.196	0.482
-397.165	-200.000	-0.005	-0.468
-396.150	800.000	-0.042	-0.152
-395.136	-200.000	-0.061	0.411
-394.121	82.473	-0.274	-0.297
-393.106	-28.431	0.344	-0.199
-392.092	279.954	-0.199	-0.356
-391.077	-10.464	0.735	-0.487
-390.063	227.860	-0.512	0.832
-389.048	26.751	-0.393	0.329
-388.033	433.431	0.075	-0.162
-387.019	800.000	0.162	-0.448
-386.004	32.764	0.115	0.100
-384.990	33.289	0.230	0.199
-383.975	-200.000	-0.039	0.336
-382.960	60.216	-0.381	-0.377
-381.946	-200.000	-0.160	-0.751
-380.931	-125.907	-0.734	-0.110
-379.917	494.051	-0.117	0.269
-378.902	-200.000	-0.015	0.525
-377.888	-104.468	-0.732	-0.169
-376.873	229.680	0.391	-0.638
-375.858	800.000	-0.168	0.592
-374.844	-200.000	0.031	-0.184
-373.829	123.311	-0.116	-0.145
-372.815	498.593	0.039	0.090
-371.800	800.000	-0.224	0.896
-370.785	-166.309	-0.532	-0.022
-369.771	-200.000	-0.053	-0.392
-368.756	456.517	0.489	-1.084
-367.742	-98.097	1.095	0.281
-366.727	34.384	0.655	0.571
-365.712	-200.000	0.159	-0.928
-364.698	271.899	0.275	-0.483
-363.683	-139.390	-0.633	-0.068
-362.669	-200.000	0.132	0.747
-361.654	-159.380	-0.099	-0.006
-360.639	-200.000	0.034	0.189
-359.625	-135.309	-0.155	-0.018
-358.610	-200.000	-0.134	-0.752
-357.596	20.662	0.429	0.347
-356.581	-49.251	0.441	0.210
-355.566	800.000	0.092	0.291
-354.552	41.097	-0.307	-0.276
-353.537	704.720	0.039	0.103
-352.523	20.191	-0.775	-0.624
-351.508	39.847	0.397	-0.355
-350.493	34.743	0.418	0.364
-349.479	-44.374	0.072	-0.036
-348.464	-81.722	1.138	-0.372
-347.450	650.089	-0.401	1.025
-346.435	3.145	0.718	0.520
-345.420	800.000	-0.074	0.294
-344.406	-112.794	0.253	-0.050
-343.391	412.993	0.076	-0.161
-342.377	-200.000	0.181	1.079
-341.362	-32.583	0.429	-0.238
-340.348	-4.616	-0.641	0.441
-339.333	-70.904	0.455	0.171
-338.318	-126.673	-1.153	0.170
-337.304	205.845	-0.087	0.134
-336.289	-86.513	-0.483	-0.148
-335.275	-200.000	-0.009	-0.180
-334.260	213.722	-0.382	-0.602
-333.245	-6.923	0.356	0.241
-332.231	-27.263	-0.279	-0.162
-331.216	-19.815	-0.237	-0.146
-330.202	105.050	0.307	0.361
-329.187	-200.000	0.086	0.671
-328.172	800.000	-0.141	0.435
-327.158	15.997	0.470	0.369
-326.143	588.649	0.467	1.146
-325.129	-8.952	0.251	0.168
-324.114	-200.000	-0.077	-0.414
-323.099	-69.988	-0.072	-0.027
-322.085	-53.265	-0.261	-0.119
-321.070	-133.535	-0.685	0.085
-320.056	79.586	0.151	0.161
-319.041	800.000	0.180	0.749
-318.026	800.000	0.257	1.059
-317.012	-16.630	-0.395	0.249
-315.997	-187.957	0.861	-0.011
-314.983	-76.369	0.222	0.078
-313.968	-124.119	-0.822	-0.128
-312.953	0.185	-0.430	0.305
-311.939	-13.018	-0.632	-0.410
-310.924	-182.012	-0.637	-0.012
-309.910	-4.176	0.408	0.281
-308.895	-200.000	-0.047	0.300
-307.880	-73.711	0.835	0.303
-306.866	800.000	0.208	0.703
-305.851	800.000	-0.236	0.853
-304.837	800.000	-0.126	-0.349
-303.822	-200.000	0.137	-0.656
-302.807	-200.000	-0.097	-0.467
-301.793	726.861	-0.048	0.129
-300.778	-73.654	0.477	0.173
-299.764	153.300	0.384	-0.523
-298.749	-59.342	0.251	0.108
-297.735	-200.000	0.033	0.297
-296.720	370.313	-0.322	0.650
-295.705	-31.606	0.657	0.367
-294.691	142.329	0.413	-0.545
-293.676	420.992	0.155	-0.331
-292.662	-200.000	0.096	-0.632
-291.647	71.630	-0.208	-0.215
-290.632	280.507	-0.272	0.484
-289.618	-77.058	-0.290	-0.101
-288.603	-200.000	0.051	0.307
-287.589	-87.766	-0.500	0.150
-286.574	-77.450	-0.328	0.113
-285.559	71.558	0.393	0.407
-284.545	-126.866	-0.621	-0.091
-283.530	-58.528	-0.632	0.273
-282.516	-137.841	-0.543	-0.060
-281.501	-112.881	0.844	-0.166
-280.486	-67.315	-0.831	-0.325
-279.472	-156.254	0.755	0.047
-278.457	18.209	0.753	-0.597
-277.443	271.458	0.364	-0.637
-276.428	153.242	-0.101	0.137
-275.413	800.000	0.102	-0.411
-274.399	-98.543	0.507	-0.129
-273.384	67.342	0.519	-0.527
-272.370	-200.000	0.070	-0.678
-271.355	73.694	0.503	-0.524
-270.340	-21.825	0.222	-0.135
-269.326	-0.847	0.244	0.172
-268.311	-132.199	0.416	0.054
-267.297	-200.000	0.043	-0.263
-266.282	2.764	-0.362	-0.261
-265.267	-29.862	-0.716	-0.405
-264.253	-200.000	0.058	0.431
-263.238	800.000	-0.136	-0.383
-262.224	623.529	0.232	-0.580
-261.209	-200.000	0.022	0.341
-260.195	194.948	-0.431	0.651
-259.180	800.000	-0.062	-0.187
-258.165	518.800	-0.332	-0.772
-257.151	800.000	0.069	0.275
-256.136	-161.569	0.403	0.021
-255.122	-111.200	-0.900	-0.183
-254.107	7.227	0.479	-0.355
-253.092	115.830	-0.679	-0.825
-252.078	800.000	-0.246	0.763
-251.063	-40.724	0.487	-0.251
-250.049	241.137	0.085	-0.141
-249.034	-99.345	0.329	-0.082
-248.019	176.810	-0.304	0.440
-247.005	-130.852	-0.885	0.118
-245.990	147.671	0.489	0.654
-244.976	10.258	0.650	-0.491
-243.961	112.990	0.407	-0.490
-242.946	-200.000	0.038	-0.845
-241.932	-14.206	-0.400	-0.256
-240.917	800.000	-0.261	0.937
-239.903	800.000	-0.247	-0.747
-238.888	800.000	-0.309	0.909
-237.873	47.748	0.329	-0.305
-236.859	-8.417	0.788	0.526
-235.844	-200.000	0.023	-0.469
-234.830	-200.000	-0.016	0.244
-233.815	220.840	0.045	0.072
-232.800	220.845	0.122	0.195
-231.786	535.848	0.453	-1.068
-230.771	800.000	-0.215	0.916
-229.757	-77.878	-0.820	-0.281
-228.742	124.215	0.126	-0.157
-227.727	669.742	-0.172	0.443
-226.713	-200.000	0.068	-0.518
-225.698	-129.786	0.436	0.060
-224.684	45.161	0.425	0.389
-223.669	750.979	0.130	0.348
-222.655	-82.587	-1.091	-0.351
-221.640	-84.086	-0.629	0.198
-220.625	76.829	-0.098	0.103
-219.611	-200.000	-0.044	-0.826
-218.596	-174.819	-0.211	0.006
-217.582	-71.453	-0.658	0.244
-216.567	-200.000	-0.026	0.160
-215.552	69.946	-0.361	-0.369
-214.538	75.793	0.583	0.611
-213.523	-42.255	-0.179	0.091
-212.509	491.245	0.339	-0.771
-211.494	-200.000	-0.064	0.293
-210.479	535.523	-0.231	0.543
-209.465	33.768	0.581	0.501
-208.450	71.775	0.379	-0.391
-207.436	-118.392	1.221	0.215
-206.421	-200.000	0.015	-0.758
-205.406	140.779	-0.318	-0.417
-204.392	-124.100	0.631	0.098
-203.377	42.953	0.651	-0.589
-202.363	800.000	0.082	0.323
-201.348	-200.000	0.019	0.586
-200.333	596.347	-0.215	0.528
-199.319	-36.087	0.450	0.241
-198.304	98.167	-0.148	-0.169
-197.290	240.768	-0.334	-0.552
-196.275	-17.600	0.669	0.417
-195.260	124.659	-0.226	-0.282
-194.246	-200.000	0.014	0.794
-193.231	-200.000	0.035	0.516
-192.217	91.215	0.187	-0.208
-191.202	50.676	0.630	-0.591
-190.187	-77.713	-0.903	-0.310
-189.173	71.179	0.790	0.812
-188.158	-134.212	0.534	0.065
-187.144	-8.070	0.469	-0.313
-186.129	531.279	0.127	0.297
-185.114	-28.492	0.514	0.294
-184.100	129.241	-0.084	-0.106
-183.085	-122.151	0.420	-0.068
-182.071	-32.611	-0.520	-0.287
-181.056	-105.235	0.414	-0.094
-180.042	148.641	-0.197	-0.264
-179.027	106.588	-0.037	-0.043
-178.012	-200.000	0.001	-0.186
-176.998	79.647	-0.714	0.759
-175.983	800.000	-0.280	-0.904
-174.969	352.343	0.139	-0.273
-173.954	-200.000	-0.013	0.183
-172.939	42.490	-0.402	0.362
-171.925	-115.436	-0.359	-0.067
-170.910	361.602	-0.250	-0.496
-169.896	-200.000	0.060	-0.886
-168.881	-57.007	0.670	0.293
-167.866	-19.930	-0.724	0.443
-166.852	-85.799	-0.734	-0.225
-165.837	-67.252	0.726	-0.283
-164.823	41.868	-0.550	-0.494
-163.808	40.758	0.546	-0.487
-162.793	11.331	0.161	-0.122
-161.779	765.520	-0.277	-0.744
-160.764	-200.000	-0.172	0.751
-159.750	800.000	-0.169	-0.735
-158.735	800.000	-0.061	-0.253
-157.720	343.249	0.114	-0.221
-156.706	357.275	-0.171	-0.338
-155.691	600.541	0.113	0.279
-154.677	-179.766	0.442	-0.009
-153.662	85.787	-0.452	-0.492
-152.647	336.102	-0.246	-0.472
-151.633	800.000	0.246	-0.723
-150.618	368.225	-0.458	-0.917
-149.604	728.225	0.054	0.142
-148.589	800.000	-0.202	-0.651
-147.574	-200.000	0.026	0.328
-146.560	319.341	-0.307	-0.576
-145.545	-141.119	-0.472	-0.048
-144.531	-200.000	0.003	0.201
-143.516	49.860	0.692	0.646
-142.502	-52.593	-0.227	-0.104
-141.487	-162.426	0.517	0.025
-140.472	-200.000	0.014	-0.270
-139.458	-14.822	-0.804	-0.511
-138.443	-200.000	0.006	0.315
-137.429	-95.597	0.474	-0.126
-136.414	523.344	0.255	0.593
-135.399	-200.000	0.256	-1.170
-134.385	413.872	0.163	0.344
-133.370	209.673	0.357	-0.554
-132.356	800.000	0.245	0.785
-131.341	-76.165	-0.525	0.183
-130.326	-38.472	0.835	0.437
-129.312	-142.796	-0.190	-0.018
-128.297	209.005	0.186	-0.287
-127.283	-35.079	0.772	-0.416
-126.268	-44.368	0.590	0.292
-125.253	-123.928	0.941	-0.147
-124.239	-17.695	0.623	-0.387
-123.224	149.562	-0.265	-0.355
-122.210	372.111	-0.321	-0.644
