DTS Sentinel unit serial number:	SN413079Multiplexer serial number:	ORYXHardware model number:	OX4-SRSoftware version number:	ORYX F/W v4.00 Oryx Data Collector v3.7.2.0data status	okinstallation	princeton_trtdifferential loss correction	single-endedforward channel	channel 3reverse channel	N/Adate	2019/09/12time	07:46:11forward acquisition time	60.00reverse acquisition time	0.00gamma	496.2192k internal	0.2314k external	0.2314temperature offset calibration	1.0033default loss term (dB/km)	0.3790temperature slope calibration	1.0000multiplexer offset coefficient	1.0000multiplexer slope coefficient	1.0000fibre end	0.00T internal ref (°C)	32.81T ext. ref 1 (°C)	1.63T ext. ref 2 (°C)	28.92length (m)	temperature (°C)	Stokes	anti-Stokes-747.200	125.895	0.172	0.220
-746.185	-72.954	-0.303	0.113
-745.171	-87.924	-0.114	-0.035
-744.156	-200.000	-0.006	0.222
-743.142	135.469	-0.043	0.056
-742.127	-200.000	-0.011	0.115
-741.112	-200.000	-0.015	0.308
-740.098	-49.543	-0.357	0.172
-739.083	-64.758	-0.387	0.159
-738.069	61.125	-0.041	0.042
-737.054	22.000	-0.166	-0.137
-736.039	-73.909	-0.092	-0.034
-735.025	9.267	0.128	-0.098
-734.010	-16.668	-0.095	-0.061
-732.996	126.926	-0.285	0.366
-731.981	-86.778	-0.169	-0.052
-730.966	800.000	0.120	-0.415
-729.952	-0.438	0.032	0.023
-728.937	-65.807	0.115	0.047
-727.923	-43.885	-0.089	-0.046
-726.908	137.918	-0.254	-0.337
-725.894	-200.000	-0.020	-0.401
-724.879	529.008	0.184	-0.440
-723.864	-200.000	0.017	-0.215
-722.850	-200.000	0.056	-0.422
-721.835	-137.247	-0.279	0.032
-720.821	278.564	0.067	-0.121
-719.806	-50.948	-0.107	0.051
-718.791	-52.611	-0.017	0.008
-717.777	314.881	0.183	-0.349
-716.762	-57.945	0.178	0.079
-715.748	94.790	-0.121	-0.139
-714.733	-7.617	0.230	0.157
-713.718	743.863	0.092	-0.250
-712.704	-116.045	-0.237	0.045
-711.689	-22.210	0.299	0.183
-710.675	-47.262	0.315	-0.155
-709.660	-26.788	-0.352	-0.208
-708.645	27.061	0.108	0.092
-707.631	800.000	-0.056	-0.166
-706.616	-107.763	0.148	0.033
-705.602	-163.952	-0.208	0.010
-704.587	-68.907	-0.346	-0.135
-703.572	300.514	0.092	0.172
-702.558	508.584	0.025	-0.059
-701.543	31.476	0.300	-0.261
-700.529	-200.000	0.045	-0.226
-699.514	-200.000	-0.005	-0.114
-698.499	-98.683	-0.262	-0.068
-697.485	284.165	0.114	-0.207
-696.470	172.521	0.082	-0.120
-695.456	-45.433	-0.086	0.043
-694.441	800.000	0.073	-0.249
-693.426	263.580	0.104	-0.183
-692.412	31.199	0.221	-0.192
-691.397	605.728	0.039	0.098
-690.383	-200.000	0.047	-0.258
-689.368	-85.697	0.023	-0.007
-688.354	-200.000	0.064	0.335
-687.339	46.087	-0.117	-0.110
-686.324	113.079	0.246	0.302
-685.310	-0.654	0.293	0.210
-684.295	-12.105	-0.200	-0.132
-683.281	7.557	0.114	-0.086
-682.266	670.373	0.101	-0.264
-681.251	595.063	-0.107	-0.268
-680.237	-138.083	0.064	0.007
-679.222	-180.390	0.184	0.004
-678.208	53.577	-0.151	0.146
-677.193	10.296	-0.142	-0.109
-676.178	-121.500	0.207	-0.035
-675.164	-200.000	0.011	-0.370
-674.149	143.233	-0.113	-0.152
-673.135	306.150	0.085	0.160
-672.120	-106.977	0.218	-0.049
-671.105	-116.348	-0.305	-0.057
-670.091	-200.000	-0.043	-0.261
-669.076	-92.896	-0.162	0.046
-668.062	-46.793	0.086	-0.043
-667.047	-25.314	0.049	-0.029
-666.032	-157.681	-0.247	-0.015
-665.018	-70.719	0.206	0.079
-664.003	-200.000	0.010	-0.097
-662.989	-117.178	-0.373	0.069
-661.974	800.000	-0.055	-0.159
-660.959	198.520	-0.163	-0.252
-659.945	800.000	-0.024	-0.097
-658.930	-154.113	-0.078	0.005
-657.916	233.054	0.176	0.292
-656.901	-124.414	-0.551	-0.087
-655.886	169.863	-0.189	-0.273
-654.872	-104.385	-0.286	0.067
-653.857	-22.421	-0.101	0.062
-652.843	648.695	-0.064	-0.166
-651.828	-200.000	0.069	-0.323
-650.814	-200.000	0.004	-0.121
-649.799	-128.209	0.511	-0.074
-648.784	800.000	-0.018	0.079
-647.770	-39.386	0.044	-0.023
-646.755	104.111	0.122	-0.145
-645.741	-200.000	-0.044	0.227
-644.726	-200.000	-0.054	-0.494
-643.711	167.540	-0.243	-0.349
-642.697	116.572	-0.338	-0.418
-641.682	12.978	0.227	0.177
-640.668	-34.727	0.250	0.138
-639.653	16.411	-0.020	0.016
-638.638	283.504	0.137	-0.248
-637.624	118.709	-0.024	-0.030
-636.609	800.000	0.039	0.140
-635.595	800.000	-0.024	-0.099
-634.580	-121.201	0.180	0.030
-633.565	141.100	-0.112	0.149
-632.551	32.201	0.127	0.110
-631.536	-200.000	-0.001	0.189
-630.522	614.491	-0.165	0.417
-629.507	-16.953	0.118	0.075
-628.492	380.702	-0.113	0.235
-627.478	-59.578	0.316	0.137
-626.463	-165.599	0.467	0.020
-625.449	304.673	-0.112	-0.209
-624.434	-200.000	-0.065	0.317
-623.419	275.043	0.212	-0.379
-622.405	281.564	-0.056	-0.101
-621.390	48.880	-0.176	-0.167
-620.376	-97.501	0.260	-0.068
-619.361	-110.145	-0.175	0.037
-618.346	-200.000	0.014	0.387
-617.332	195.206	0.051	0.077
-616.317	5.397	-0.214	0.159
-615.303	-24.386	-0.082	0.050
-614.288	800.000	-0.056	-0.208
-613.273	-200.000	0.025	-0.130
-612.259	529.752	-0.101	-0.241
-611.244	-99.203	-0.305	-0.078
-610.230	-192.707	0.416	-0.004
-609.215	108.695	0.150	0.181
-608.201	-64.714	0.058	0.024
-607.186	-133.466	-0.229	0.029
-606.171	-166.702	0.181	0.008
-605.157	-200.000	-0.017	-0.174
-604.142	-75.650	0.054	-0.019
-603.128	12.637	-0.136	-0.106
-602.113	207.654	-0.100	0.157
-601.098	65.154	0.209	-0.213
-600.084	-200.000	0.020	-0.541
-599.069	-3.523	-0.099	0.069
-598.055	194.326	0.008	0.012
-597.040	-19.900	0.364	-0.226
-596.025	121.835	0.130	-0.164
-595.011	35.926	0.205	0.182
-593.996	111.203	0.053	-0.065
-592.982	-19.681	-0.108	-0.067
-591.967	-200.000	-0.052	-0.415
-590.952	-33.796	0.111	0.062
-589.938	666.493	0.009	0.023
-588.923	506.620	-0.125	0.293
-587.909	800.000	0.052	0.153
-586.894	-200.000	-0.005	0.176
-585.879	7.939	0.102	-0.077
-584.865	-82.749	-0.360	0.117
-583.850	-53.096	0.097	0.045
-582.836	800.000	-0.038	0.108
-581.821	1.921	0.127	-0.093
-580.806	87.230	0.170	0.189
-579.792	800.000	-0.040	-0.170
-578.777	255.811	-0.040	0.069
-577.763	800.000	0.031	0.117
-576.748	-107.506	0.067	0.015
-575.733	174.133	-0.127	-0.184
-574.719	-133.017	-0.249	0.032
-573.704	327.877	-0.128	-0.248
-572.690	-10.753	0.093	0.062
-571.675	-0.739	-0.369	0.263
-570.661	-200.000	-0.010	-0.136
-569.646	-200.000	-0.018	0.487
-568.631	309.445	-0.126	-0.238
-567.617	-78.550	-0.222	0.077
-566.602	111.806	0.088	-0.108
-565.588	4.557	0.257	-0.190
-564.573	399.104	-0.058	0.122
-563.558	191.475	-0.161	0.244
-562.544	8.406	-0.132	0.100
-561.529	-86.224	-0.246	-0.076
-560.515	100.293	0.101	-0.118
-559.500	-199.804	0.089	0.000
-558.485	-107.226	0.159	-0.035
-557.471	800.000	0.112	0.351
-556.456	96.381	-0.232	-0.267
-555.442	-200.000	0.039	-0.506
-554.427	2.377	0.203	-0.148
-553.412	36.318	0.069	-0.061
-552.398	417.361	0.186	-0.400
-551.383	-128.628	0.463	-0.066
-550.369	-82.265	-0.246	-0.081
-549.354	195.972	-0.078	-0.119
-548.339	-27.390	-0.327	-0.191
-547.325	43.765	0.290	0.267
-546.310	-200.000	-0.053	-0.324
-545.296	260.504	-0.129	-0.225
-544.281	53.919	-0.108	0.105
-543.266	210.077	-0.118	0.186
-542.252	196.531	-0.041	0.063
-541.237	201.476	0.132	0.204
-540.223	-105.994	-0.169	-0.038
-539.208	-200.000	-0.026	0.171
-538.193	266.481	0.050	-0.088
-537.179	-200.000	-0.060	0.309
-536.164	544.228	-0.107	0.256
-535.150	727.220	0.111	0.297
-534.135	149.999	0.173	-0.236
-533.121	-155.899	0.243	-0.016
-532.106	380.415	-0.107	-0.221
-531.091	-10.141	0.343	-0.229
-530.077	53.961	0.121	-0.117
-529.062	-136.312	-0.168	-0.020
-528.048	-150.753	-0.089	0.007
-527.033	96.688	0.122	0.140
-526.018	-200.000	-0.008	-0.221
-525.004	249.363	-0.144	0.246
-523.989	-73.283	-0.021	0.008
-522.975	-200.000	-0.029	-0.309
-521.960	-200.000	-0.061	-0.381
-520.945	151.201	-0.040	-0.055
-519.931	270.574	0.063	-0.112
-518.916	-74.038	0.317	-0.116
-517.902	-95.303	-0.224	-0.061
-516.887	335.302	0.151	-0.294
-515.872	-149.679	0.191	0.015
-514.858	-13.568	0.134	0.088
-513.843	-200.000	-0.064	-0.315
-512.829	127.761	0.030	0.039
-511.814	-86.673	-0.155	0.048
-510.799	-23.672	0.206	0.124
-509.785	176.553	-0.177	-0.258
-508.770	44.520	-0.089	0.082
-507.756	-143.037	0.119	-0.012
-506.741	124.632	-0.084	-0.106
-505.726	5.987	0.234	-0.174
-504.712	800.000	0.051	-0.142
-503.697	-34.676	-0.077	-0.042
-502.683	-82.038	-0.047	0.015
-501.668	800.000	0.092	-0.394
-500.653	800.000	-0.079	-0.233
-499.639	35.175	-0.236	-0.208
-498.624	-200.000	0.004	-0.194
-497.610	-35.877	0.271	-0.147
-496.595	68.385	-0.246	-0.253
-495.581	38.361	-0.478	0.427
-494.566	-200.000	0.013	-0.160
-493.551	-5.775	0.136	0.094
-492.537	-200.000	-0.019	-0.095
-491.522	-200.000	-0.017	-0.146
-490.508	-154.914	0.354	-0.023
-489.493	652.018	0.049	0.126
-488.478	800.000	0.059	-0.250
-487.464	-12.935	0.287	-0.188
-486.449	-105.269	0.038	0.009
-485.435	-200.000	0.003	-0.113
-484.420	800.000	-0.027	-0.090
-483.405	243.146	0.121	-0.203
-482.391	54.922	0.259	0.251
-481.376	61.438	0.049	0.049
-480.362	111.473	-0.137	0.166
-479.347	135.379	-0.236	0.308
-478.332	18.388	-0.217	-0.174
-477.318	-82.003	0.284	0.093
-476.303	-200.000	-0.178	-0.001
-475.289	-87.998	0.360	0.108
-474.274	111.686	-0.131	-0.158
-473.259	48.542	0.162	0.152
-472.245	-151.519	-0.315	-0.023
-471.230	565.878	0.049	0.119
-470.216	105.733	0.092	-0.109
-469.201	125.193	0.193	0.243
-468.186	800.000	0.115	0.348
-467.172	-130.401	-0.359	-0.049
-466.157	800.000	-0.035	-0.129
-465.143	-45.986	-0.194	0.096
-464.128	-58.095	0.080	-0.035
-463.113	-151.244	0.037	0.003
-462.099	75.132	0.124	0.131
-461.084	-200.000	0.020	-0.134
-460.070	-200.000	-0.067	-0.309
-459.055	6.754	-0.135	0.101
-458.040	-33.920	0.049	-0.027
-457.026	-200.000	0.009	0.043
-456.011	143.486	0.161	0.215
-454.997	258.712	-0.143	0.247
-453.982	1.259	-0.163	0.117
-452.968	-131.223	-0.556	0.074
-451.953	-81.726	0.376	0.124
-450.938	299.449	0.131	0.242
-449.924	-13.459	-0.294	0.191
-448.909	-150.912	-0.436	0.033
-447.895	62.541	-0.222	0.222
-446.880	189.162	0.164	0.245
-445.865	-40.007	0.119	-0.062
-444.851	329.666	0.054	0.104
-443.836	57.106	-0.227	0.222
-442.822	800.000	-0.028	-0.100
-441.807	-200.000	-0.035	0.346
-440.792	-98.439	0.441	0.113
-439.778	-75.641	0.306	-0.109
-438.763	444.992	-0.097	-0.214
-437.749	-39.700	0.250	0.131
-436.734	-14.207	-0.182	0.117
-435.719	-144.922	0.037	-0.003
-434.705	46.829	0.200	-0.186
-433.690	-200.000	-0.002	0.115
-432.676	-71.441	-0.316	-0.118
-431.661	-68.222	0.241	-0.094
-430.646	800.000	0.026	0.074
-429.632	85.462	-0.242	-0.266
-428.617	66.234	0.165	-0.167
-427.603	416.260	-0.103	-0.220
-426.588	19.014	0.148	-0.119
-425.573	-81.082	0.059	0.020
-424.559	-200.000	-0.007	0.047
-423.544	-105.739	0.312	-0.071
-422.530	-192.046	0.290	0.003
-421.515	-158.580	0.152	0.009
-420.500	-200.000	-0.013	0.112
-419.486	221.523	-0.124	-0.199
-418.471	34.588	0.048	-0.042
-417.457	-200.000	-0.021	-0.193
-416.442	44.263	-0.050	0.046
-415.428	-105.096	-0.087	-0.020
-414.413	-50.968	-0.213	0.100
-413.398	23.841	0.109	0.090
-412.384	-200.000	0.006	0.083
-411.369	-111.927	-0.278	0.056
-410.355	468.408	-0.095	0.212
-409.340	-200.000	-0.015	-0.206
-408.325	-33.487	0.088	0.049
-407.311	117.528	-0.132	0.162
-406.296	262.613	0.161	-0.280
-405.282	99.279	-0.165	-0.190
-404.267	-60.500	-0.280	-0.119
-403.252	-200.000	-0.023	0.226
-402.238	427.745	0.078	0.168
-401.223	-81.396	0.216	-0.071
-400.209	-79.719	0.257	-0.086
-399.194	-15.138	-0.352	0.225
-398.179	-157.628	0.306	-0.018
-397.165	267.220	0.046	-0.081
-396.150	21.188	0.212	-0.172
-395.136	529.661	0.039	0.093
-394.121	-200.000	0.034	0.152
-393.106	-18.320	-0.104	0.065
-392.092	-117.753	-0.100	0.018
-391.077	532.621	-0.117	-0.276
-390.063	-37.601	-0.132	0.070
-389.048	119.205	0.165	-0.204
-388.033	-200.000	0.040	-0.326
-387.019	9.807	0.075	-0.057
-386.004	-200.000	-0.061	0.324
-384.990	365.778	-0.077	0.156
-383.975	-200.000	0.017	-0.334
-382.960	-126.709	0.216	0.032
-381.946	-200.000	-0.005	0.038
-380.931	-198.163	0.277	-0.002
-379.917	-140.237	-0.319	-0.033
-378.902	318.056	-0.210	0.397
-377.888	-93.612	-0.047	0.013
-376.873	477.953	0.077	-0.174
-375.858	31.111	0.237	0.203
-374.844	10.276	-0.256	-0.195
-373.829	-200.000	-0.073	0.407
-372.815	106.236	0.227	0.268
-371.800	91.051	-0.077	0.086
-370.785	-112.697	-0.241	0.048
-369.771	42.673	0.239	0.217
-368.756	121.484	-0.231	0.287
-367.742	-52.941	-0.195	-0.090
-366.727	-200.000	0.048	0.255
-365.712	94.763	-0.187	0.213
-364.698	-107.469	0.176	0.039
-363.683	101.193	-0.187	0.217
-362.669	-38.716	-0.145	0.077
-361.654	65.329	0.047	0.048
-360.639	-19.075	-0.097	0.060
-359.625	514.358	0.143	0.333
-358.610	588.243	0.057	0.140
-357.596	706.590	-0.028	-0.074
-356.581	800.000	0.051	0.154
-355.566	452.422	-0.153	0.338
-354.552	-200.000	-0.002	-0.125
-353.537	-86.809	0.160	-0.049
-352.523	78.661	0.124	0.132
-351.508	-102.388	-0.323	-0.077
-350.493	-99.263	-0.064	-0.016
-349.479	-100.781	0.125	0.031
-348.464	-200.000	-0.028	0.267
-347.450	307.819	0.087	0.162
-346.435	-107.056	0.081	-0.018
-345.420	-200.000	0.002	-0.098
-344.406	94.385	-0.086	-0.098
-343.391	94.794	-0.043	-0.048
-342.377	-23.023	0.283	-0.170
-341.362	-200.000	0.006	-0.074
-340.348	42.092	-0.158	-0.143
-339.333	-121.296	0.077	0.013
-338.318	6.577	0.155	0.115
-337.304	-200.000	0.058	-0.274
-336.289	32.837	0.127	-0.110
-335.275	-50.708	0.392	-0.184
-334.260	800.000	0.054	0.168
-333.245	-131.720	0.232	0.030
-332.231	-71.894	0.123	-0.046
-331.216	730.152	-0.100	-0.265
-330.202	30.573	-0.229	-0.196
-329.187	800.000	-0.119	-0.440
-328.172	-0.937	0.096	-0.068
-327.158	-39.828	-0.194	-0.101
-326.143	-200.000	0.006	-0.105
-325.129	-200.000	0.017	0.075
-324.114	0.579	0.521	-0.372
-323.099	800.000	-0.047	0.199
-322.085	60.747	-0.068	-0.067
-321.070	800.000	0.046	0.131
-320.056	-141.390	0.092	-0.009
-319.041	132.386	0.327	0.420
-318.026	-200.000	-0.060	0.325
-317.012	-137.258	0.100	-0.011
-315.997	514.553	0.033	0.078
-314.983	271.244	0.145	0.254
-313.968	-32.703	-0.178	-0.098
-312.953	-200.000	0.046	-0.245
-311.939	-46.263	-0.446	0.219
-310.924	-71.128	-0.419	0.157
-309.910	169.123	-0.212	0.301
-308.895	-200.000	-0.025	-0.148
-307.880	-4.175	0.152	0.105
-306.866	800.000	-0.056	0.166
-305.851	-200.000	-0.052	-0.302
-304.837	229.553	-0.036	-0.059
-303.822	-200.000	0.009	-0.249
-302.807	327.265	0.040	-0.076
-301.793	643.452	-0.012	0.031
-300.778	-73.413	0.251	-0.092
-299.764	33.203	-0.122	0.106
-298.749	385.110	0.076	0.156
-297.735	62.299	-0.290	0.288
-296.720	4.893	0.131	-0.096
-295.705	233.132	0.088	-0.144
-294.691	-61.169	0.275	-0.115
-293.676	153.498	-0.097	0.133
-292.662	-75.464	0.133	0.047
-291.647	-118.479	-0.097	-0.017
-290.632	379.358	-0.031	0.063
-289.618	-122.557	-0.080	0.013
-288.603	199.379	-0.168	-0.257
-287.589	-30.285	-0.234	0.132
-286.574	22.742	-0.107	0.087
-285.559	1.870	0.307	0.220
-284.545	800.000	0.067	-0.231
-283.530	15.397	-0.165	0.129
-282.516	800.000	0.066	-0.224
-281.501	800.000	0.076	-0.275
-280.486	-200.000	-0.059	-0.342
-279.472	-81.495	-0.400	-0.131
-278.457	81.206	-0.151	0.163
-277.443	-8.874	-0.082	0.055
-276.428	-51.842	-0.273	0.127
-275.413	-39.134	-0.226	0.118
-274.399	-200.000	-0.007	0.135
-273.384	-128.120	0.165	0.023
-272.370	800.000	0.163	0.575
-271.355	-200.000	0.027	0.349
-270.340	-7.914	-0.273	0.183
-269.326	135.847	-0.392	0.509
-268.311	-35.417	-0.145	0.078
-267.297	163.542	0.052	-0.073
-266.282	-83.171	0.041	0.013
-265.267	-51.971	-0.255	-0.118
-264.253	277.491	0.087	-0.153
-263.238	-200.000	0.029	0.458
-262.224	-112.404	0.173	0.034
-261.209	548.436	-0.128	0.305
-260.195	32.556	-0.189	-0.163
-259.180	-200.000	-0.028	-0.282
-258.165	800.000	-0.121	0.476
-257.151	-50.801	0.098	0.046
-256.136	96.219	0.151	0.171
-255.122	-168.047	-0.187	0.007
-254.107	0.747	-0.135	0.096
-253.092	84.240	0.173	0.188
-252.078	800.000	0.079	-0.286
-251.063	107.641	-0.228	-0.269
-250.049	-200.000	-0.003	-0.072
-249.034	-29.149	-0.383	-0.218
-248.019	-95.447	-0.191	-0.051
-247.005	800.000	0.127	-0.452
-245.990	160.145	-0.123	0.170
-244.976	196.280	0.126	-0.191
-243.961	79.999	0.066	-0.070
-242.946	-83.309	-0.049	0.016
-241.932	305.686	0.081	0.150
-240.917	4.487	-0.138	-0.101
-239.903	83.689	-0.197	-0.214
-238.888	-200.000	-0.011	0.051
-237.873	-11.878	-0.199	0.130
-236.859	-200.000	0.017	0.277
-235.844	145.297	-0.056	0.074
-234.830	-79.297	-0.267	0.090
-233.815	607.872	-0.127	-0.315
-232.800	-200.000	0.026	-0.116
-231.786	-20.235	-0.194	0.119
-230.771	-45.061	0.086	0.042
-229.757	115.088	-0.105	0.127
-228.742	201.187	0.247	0.378
-227.727	-82.416	-0.101	0.033
-226.713	-51.342	-0.135	0.063
-225.698	85.778	-0.090	-0.098
-224.684	193.131	0.040	-0.060
-223.669	197.343	-0.086	-0.130
-222.655	128.243	-0.026	0.032
-221.640	229.793	-0.087	0.141
-220.625	-8.129	0.119	0.080
-219.611	-101.810	0.312	-0.075
-218.596	56.743	-0.180	-0.174
-217.582	-39.978	-0.142	0.073
-216.567	363.088	0.120	-0.240
-215.552	285.810	0.064	-0.114
-214.538	-143.276	-0.303	0.029
-213.523	-159.933	0.275	0.015
-212.509	-120.955	0.298	-0.050
-211.494	-48.163	0.295	-0.141
-210.479	-111.263	0.284	0.058
-209.465	-42.915	0.244	0.123
-208.450	-200.000	-0.009	-0.192
-207.436	-78.260	0.051	-0.017
-206.421	63.668	0.163	0.162
-205.406	691.684	0.122	0.316
-204.392	800.000	0.039	-0.142
-203.377	262.062	0.151	-0.260
-202.363	653.389	0.065	-0.164
-201.348	192.016	-0.104	0.156
-200.333	51.148	-0.135	-0.127
-199.319	531.443	-0.024	0.055
-198.304	46.423	0.083	0.076
-197.290	-105.472	0.193	0.044
-196.275	392.124	-0.030	0.062
-195.260	246.049	0.216	0.361
-194.246	-53.306	-0.234	-0.106
-193.231	800.000	-0.032	-0.133
-192.217	703.247	0.128	-0.335
-191.202	271.902	0.126	-0.220
-190.187	-122.769	-0.105	0.017
-189.173	-63.407	0.072	-0.029
-188.158	49.567	-0.133	-0.124
-187.144	-200.000	-0.007	-0.239
-186.129	800.000	-0.059	0.185
-185.114	800.000	0.057	0.245
-184.100	-200.000	0.029	-0.163
-183.085	-126.394	-0.367	0.054
-182.071	47.742	0.165	0.152
-181.056	788.331	-0.050	-0.135
-180.042	-200.000	-0.039	0.199
-179.027	238.622	0.098	-0.161
-178.012	-200.000	-0.011	-0.300
-176.998	800.000	-0.085	-0.281
-175.983	459.783	-0.121	0.266
-174.969	-160.358	-0.195	-0.010
-173.954	800.000	-0.044	-0.178
-172.939	400.700	0.129	0.269
-171.925	-24.562	0.247	0.145
-170.910	289.586	0.146	-0.263
-169.896	-58.930	-0.178	-0.076
-168.881	-114.052	0.156	0.030
-167.866	-13.756	-0.158	-0.101
-166.852	69.441	0.178	0.182
-165.837	-200.000	0.061	-0.411
-164.823	296.636	-0.088	0.159
-163.808	58.909	0.027	0.026
-162.793	93.021	-0.185	0.207
-161.779	-35.420	0.116	-0.063
-160.764	43.336	0.151	-0.136
-159.750	-200.000	-0.008	0.155
-158.735	-24.697	-0.282	0.166
-157.720	-200.000	0.019	0.250
-156.706	800.000	0.048	0.205
-155.691	800.000	0.054	-0.179
-154.677	151.007	0.103	0.139
-153.662	800.000	-0.035	-0.124
-152.647	800.000	-0.011	0.045
-151.633	-99.743	-0.160	0.040
-150.618	-200.000	-0.058	0.261
-149.604	41.390	-0.146	-0.131
-148.589	-34.756	0.149	0.081
-147.574	391.267	-0.186	-0.383
-146.560	-200.000	-0.082	-0.427
-145.545	-144.966	-0.308	-0.028
-144.531	-200.000	-0.018	-0.137
-143.516	-27.405	0.229	0.132
-142.502	21.884	0.136	-0.110
-141.487	164.706	0.104	0.145
-140.472	-200.000	0.010	0.069
-139.458	170.143	-0.052	0.074
-138.443	100.027	-0.172	-0.197
-137.429	-200.000	-0.060	0.501
-136.414	-200.000	-0.007	0.113
-135.399	-140.033	-0.142	0.015
-134.385	226.796	0.012	0.020
-133.370	-200.000	-0.006	-0.179
-132.356	-24.950	-0.060	0.035
-131.341	800.000	-0.077	-0.213
-130.326	-97.571	0.594	-0.153
-129.312	-200.000	-0.050	0.248
-128.297	-121.550	0.429	-0.070
-127.283	-134.755	0.286	0.034
-126.268	605.494	-0.006	0.015
-125.253	-131.203	0.088	0.012
-124.239	-200.000	-0.034	-0.241
-123.224	323.776	0.191	-0.360
-122.210	253.305	-0.027	0.045
-121.195	-200.000	-0.018	0.191
