DTS Sentinel unit serial number:	SN413079Multiplexer serial number:	ORYXHardware model number:	OX4-SRSoftware version number:	ORYX F/W v4.00 Oryx Data Collector v3.7.2.0data status	okinstallation	princeton_trtdifferential loss correction	single-endedforward channel	channel 3reverse channel	N/Adate	2019/09/19time	06:52:35forward acquisition time	60.00reverse acquisition time	0.00gamma	496.2192k internal	0.2348k external	0.2348temperature offset calibration	0.9989default loss term (dB/km)	0.3790temperature slope calibration	1.0000multiplexer offset coefficient	1.0000multiplexer slope coefficient	1.0000fibre end	0.00T internal ref (°C)	19.00T ext. ref 1 (°C)	0.57T ext. ref 2 (°C)	12.70length (m)	temperature (°C)	Stokes	anti-Stokes-747.200	225.721	0.133	0.215
-746.185	-73.908	0.248	0.090
-745.171	696.578	-0.039	0.103
-744.156	-100.320	-0.386	0.096
-743.142	70.838	0.072	0.075
-742.127	179.642	-0.101	0.148
-741.112	-200.000	-0.023	-0.210
-740.098	444.844	-0.178	0.391
-739.083	-101.010	0.181	0.044
-738.069	-80.572	-0.521	0.173
-737.054	-90.797	-0.517	0.149
-736.039	-200.000	0.009	-0.186
-735.025	-64.615	0.444	-0.180
-734.010	366.221	-0.261	-0.525
-732.996	60.699	-0.185	-0.183
-731.981	-43.003	-0.019	0.010
-730.966	309.219	0.032	0.060
-729.952	-143.691	-0.250	0.024
-728.937	800.000	-0.033	-0.092
-727.923	542.188	0.069	-0.163
-726.908	151.982	-0.108	-0.147
-725.894	-18.477	-0.343	-0.214
-724.879	24.301	-0.154	-0.127
-723.864	-176.020	0.023	-0.001
-722.850	28.033	0.111	-0.094
-721.835	-171.089	-0.303	-0.010
-720.821	-64.188	0.242	0.098
-719.806	198.401	0.104	0.159
-718.791	-58.970	-0.268	0.115
-717.777	-60.237	0.183	-0.078
-716.762	-113.934	-0.477	0.092
-715.748	-33.820	0.113	-0.062
-714.733	-192.799	-0.168	-0.002
-713.718	-2.629	-0.205	-0.143
-712.704	340.775	-0.069	-0.134
-711.689	75.495	-0.292	-0.308
-710.675	6.341	0.107	0.079
-709.660	626.499	0.046	-0.115
-708.645	-145.281	0.221	-0.020
-707.631	556.589	0.143	0.343
-706.616	149.902	0.185	-0.250
-705.602	131.813	-0.049	0.063
-704.587	-58.087	0.499	0.217
-703.572	278.661	-0.120	0.213
-702.558	-145.124	0.351	0.032
-701.543	224.384	0.058	-0.094
-700.529	-83.071	0.288	0.092
-699.514	-79.046	0.186	-0.063
-698.499	99.171	-0.181	-0.209
-697.485	800.000	-0.054	-0.181
-696.470	245.984	-0.139	-0.234
-695.456	800.000	0.061	-0.221
-694.441	41.809	-0.162	-0.146
-693.426	-125.491	0.142	-0.022
-692.412	-63.663	-0.294	0.120
-691.397	241.996	-0.126	-0.210
-690.383	-200.000	0.050	0.255
-689.368	141.357	-0.255	-0.336
-688.354	564.870	-0.067	-0.162
-687.339	231.828	-0.118	-0.193
-686.324	-200.000	0.011	-0.074
-685.310	-174.835	-0.248	0.007
-684.295	37.720	0.079	0.070
-683.281	800.000	0.080	-0.323
-682.266	403.067	-0.079	-0.165
-681.251	-122.214	0.166	-0.027
-680.237	-130.243	0.115	-0.016
-679.222	-200.000	0.016	0.302
-678.208	191.035	0.099	-0.148
-677.193	31.343	0.170	0.145
-676.178	155.481	0.198	0.272
-675.164	-62.436	0.248	-0.103
-674.149	32.400	-0.141	0.121
-673.135	74.446	0.186	-0.194
-672.120	-3.807	0.180	-0.125
-671.105	-88.785	0.117	0.035
-670.091	-86.780	-0.323	-0.098
-669.076	142.779	-0.315	-0.417
-668.062	-90.260	0.290	-0.084
-667.047	16.679	0.301	0.237
-666.032	800.000	0.069	0.201
-665.018	-200.000	0.028	-0.401
-664.003	-0.601	-0.018	0.013
-662.989	800.000	-0.134	-0.434
-661.974	98.497	0.188	0.216
-660.959	-47.473	-0.090	0.043
-659.945	-116.953	-0.158	0.029
-658.930	194.623	0.166	-0.251
-657.916	64.901	-0.288	-0.290
-656.901	590.581	0.020	-0.049
-655.886	-124.881	-0.445	0.068
-654.872	-32.895	-0.118	0.066
-653.857	-166.799	0.288	0.012
-652.843	243.436	0.143	-0.239
-651.828	800.000	-0.075	0.241
-650.814	-66.263	-0.133	0.053
-649.799	-117.108	-0.202	0.037
-648.784	800.000	0.037	-0.140
-647.770	33.275	-0.116	0.100
-646.755	9.283	0.267	-0.201
-645.741	-61.772	0.287	0.120
-644.726	278.813	0.052	-0.092
-643.711	87.097	-0.131	-0.144
-642.697	3.513	-0.283	0.205
-641.682	-145.765	0.308	-0.027
-640.668	-200.000	-0.023	0.157
-639.653	-200.000	0.023	-0.184
-638.638	-177.748	-0.124	-0.003
-637.624	-200.000	0.013	-0.058
-636.609	-67.463	0.458	0.179
-635.595	-109.527	-0.169	0.036
-634.580	17.439	-0.092	-0.073
-633.565	15.186	0.098	0.077
-632.551	-55.221	0.141	-0.063
-631.536	-37.904	-0.172	-0.091
-630.522	114.624	-0.079	0.096
-629.507	-85.456	-0.063	-0.020
-628.492	38.589	0.216	0.191
-627.478	5.449	-0.151	-0.111
-626.463	126.031	-0.113	-0.142
-625.449	-200.000	0.005	-0.026
-624.434	65.414	-0.165	0.166
-623.419	-57.918	-0.354	-0.154
-622.405	-200.000	-0.000	0.060
-621.390	-106.324	0.242	0.054
-620.376	169.975	-0.117	0.166
-619.361	-23.893	0.163	0.097
-618.346	-69.124	0.130	0.050
-617.332	81.733	0.059	-0.064
-616.317	-117.352	0.173	-0.031
-615.303	-200.000	0.025	-0.349
-614.288	-83.303	-0.210	-0.067
-613.273	118.591	0.037	0.045
-612.259	-148.877	-0.456	0.037
-611.244	89.629	-0.069	0.076
-610.230	176.270	0.169	-0.244
-609.215	87.477	-0.131	-0.144
-608.201	-200.000	-0.003	-0.137
-607.186	-200.000	-0.069	0.371
-606.171	18.557	-0.219	-0.174
-605.157	562.472	0.046	-0.112
-604.142	-12.955	0.065	0.042
-603.128	-51.905	-0.162	-0.075
-602.113	-176.084	-0.216	-0.006
-601.098	586.869	0.117	-0.285
-600.084	-200.000	0.022	-0.218
-599.069	-132.535	0.218	-0.028
-598.055	-119.342	-0.349	-0.060
-597.040	-200.000	0.017	0.252
-596.025	800.000	-0.057	-0.165
-595.011	150.008	0.169	-0.228
-593.996	208.692	0.090	-0.139
-592.982	16.841	-0.487	0.383
-591.967	-180.236	-0.421	-0.009
-590.952	251.509	-0.160	-0.271
-589.938	-30.223	0.315	0.177
-588.923	301.277	0.057	-0.104
-587.909	-31.151	-0.332	-0.186
-586.894	-200.000	-0.010	0.068
-585.879	-200.000	-0.002	-0.250
-584.865	-200.000	0.091	-0.419
-583.850	-109.981	-0.263	-0.055
-582.836	800.000	0.112	-0.364
-581.821	-200.000	-0.062	0.280
-580.806	-200.000	0.060	-0.267
-579.792	331.887	-0.044	0.084
-578.777	189.656	-0.128	-0.190
-577.763	-142.287	0.136	0.013
-576.748	61.901	-0.329	0.325
-575.733	-21.207	0.230	0.139
-574.719	-154.220	-0.296	0.020
-573.704	-177.920	-0.170	-0.004
-572.690	273.516	-0.075	-0.131
-571.675	715.661	0.031	0.082
-570.661	-130.723	-0.332	-0.044
-569.646	-177.603	-0.061	0.001
-568.631	800.000	-0.034	0.129
-567.617	159.893	-0.090	-0.125
-566.602	-200.000	-0.054	-0.246
-565.588	-200.000	-0.018	0.349
-564.573	381.335	-0.111	0.227
-563.558	-36.719	0.194	-0.104
-562.544	-61.893	0.249	-0.103
-561.529	-200.000	-0.026	0.144
-560.515	129.718	0.108	0.137
-559.500	216.412	0.236	-0.373
-558.485	-93.690	-0.275	0.075
-557.471	-200.000	-0.004	0.051
-556.456	-52.075	0.230	0.106
-555.442	-152.583	-0.057	-0.004
-554.427	-52.323	0.130	-0.060
-553.412	-72.512	-0.351	-0.129
-552.398	600.559	0.120	-0.294
-551.383	800.000	0.019	0.072
-550.369	-21.952	-0.127	0.076
-549.354	-75.773	0.164	0.058
-548.339	-27.776	-0.101	-0.058
-547.325	465.271	0.030	-0.066
-546.310	470.153	-0.204	0.454
-545.296	1.065	-0.331	0.235
-544.281	-121.289	0.226	0.037
-543.266	582.690	-0.104	-0.252
-542.252	638.865	-0.062	-0.156
-541.237	-20.108	-0.222	0.136
-540.223	-38.119	-0.045	-0.023
-539.208	-35.911	0.345	0.185
-538.193	-200.000	0.003	0.027
-537.179	-200.000	0.002	0.100
-536.164	-107.547	-0.251	-0.054
-535.150	800.000	0.052	0.181
-534.135	24.403	0.119	-0.097
-533.121	-63.673	-0.339	0.138
-532.106	-200.000	0.083	-0.478
-531.091	-2.935	-0.230	-0.159
-530.077	-26.961	-0.331	-0.191
-529.062	-65.686	0.292	-0.116
-528.048	62.277	0.087	-0.086
-527.033	-200.000	0.001	0.039
-526.018	-92.234	0.229	-0.064
-525.004	-93.227	0.152	-0.042
-523.989	36.732	0.245	-0.215
-522.975	-47.842	0.104	0.050
-521.960	-82.651	0.251	0.081
-520.945	-67.889	0.199	-0.077
-519.931	-53.687	-0.164	-0.074
-518.916	-6.766	-0.332	0.223
-517.902	-146.004	0.322	-0.028
-516.887	725.337	-0.103	-0.272
-515.872	322.392	-0.088	-0.166
-514.858	267.755	0.143	0.248
-513.843	83.295	0.229	0.247
-512.829	-4.505	-0.260	-0.178
-511.814	240.310	0.050	0.083
-510.799	55.502	-0.061	0.059
-509.785	-28.098	-0.417	0.239
-508.770	800.000	0.036	-0.137
-507.756	-182.181	0.181	0.003
-506.741	-0.160	-0.238	-0.168
-505.726	53.684	0.192	-0.183
-504.712	-200.000	0.031	-0.180
-503.697	-56.458	-0.313	0.137
-502.683	-200.000	0.009	-0.342
-501.668	421.949	0.027	-0.057
-500.653	6.009	-0.274	-0.201
-499.639	-200.000	0.008	0.150
-498.624	-131.067	0.236	-0.031
-497.610	-131.175	0.188	0.025
-496.595	211.074	-0.177	-0.275
-495.581	0.412	-0.227	-0.160
-494.566	26.065	0.112	-0.093
-493.551	-200.000	0.071	0.468
-492.537	205.676	-0.211	-0.324
-491.522	-145.799	0.323	0.028
-490.508	-200.000	-0.025	0.155
-489.493	54.056	-0.209	-0.199
-488.478	494.676	-0.119	-0.271
-487.464	-16.047	-0.245	-0.154
-486.449	-199.024	-0.355	0.002
-485.435	-116.537	0.074	-0.014
-484.420	104.510	0.048	0.056
-483.405	80.973	0.141	0.150
-482.391	22.948	0.377	-0.306
-481.376	-7.814	0.200	-0.134
-480.362	346.932	-0.218	-0.424
-479.347	800.000	0.110	0.353
-478.332	-154.989	0.235	-0.015
-477.318	-123.528	0.364	0.057
-476.303	431.818	0.172	-0.370
-475.289	800.000	-0.074	0.278
-474.274	100.202	-0.124	-0.142
-473.259	42.589	0.048	-0.043
-472.245	341.657	-0.138	-0.266
-471.230	800.000	-0.082	-0.225
-470.216	-200.000	0.020	-0.159
-469.201	59.630	-0.062	0.060
-468.186	-79.139	0.279	0.094
-467.172	800.000	-0.069	-0.287
-466.157	-59.207	0.031	0.013
-465.143	40.863	0.106	0.094
-464.128	123.649	0.163	0.202
-463.113	428.805	-0.069	0.146
-462.099	197.922	0.102	0.154
-461.084	-200.000	0.001	0.004
-460.070	800.000	-0.135	-0.406
-459.055	690.487	-0.131	-0.339
-458.040	-10.409	0.166	-0.109
-457.026	-200.000	0.027	0.334
-456.011	-25.291	0.170	-0.100
-454.997	-3.362	-0.141	-0.097
-453.982	-35.249	-0.218	0.117
-452.968	90.483	-0.262	0.289
-451.953	286.228	-0.073	-0.130
-450.938	-200.000	0.018	-0.323
-449.924	-109.218	-0.155	-0.033
-448.909	-126.076	0.177	0.026
-447.895	-35.182	-0.114	-0.062
-446.880	213.527	-0.110	-0.172
-445.865	-95.884	0.224	0.059
-444.851	-31.787	-0.407	-0.225
-443.836	800.000	-0.061	0.171
-442.822	37.961	0.221	0.194
-441.807	185.865	-0.146	-0.214
-440.792	-84.546	0.265	0.082
-439.778	190.785	-0.092	0.136
-438.763	800.000	0.134	0.451
-437.749	-200.000	0.051	0.488
-436.734	800.000	-0.051	0.156
-435.719	363.856	0.066	-0.132
-434.705	-147.467	0.123	-0.010
-433.690	-13.531	0.347	0.222
-432.676	800.000	-0.061	-0.186
-431.661	702.012	0.048	-0.126
-430.646	800.000	0.015	-0.064
-429.632	68.115	-0.104	-0.105
-428.617	-37.895	-0.326	0.171
-427.603	-144.288	-0.271	-0.025
-426.588	800.000	0.032	-0.094
-425.573	19.568	-0.133	0.106
-424.559	-194.137	-0.281	-0.002
-423.544	469.952	0.063	0.139
-422.530	-130.208	-0.050	0.007
-421.515	191.463	0.121	0.179
-420.500	166.195	-0.114	0.159
-419.486	27.576	0.128	0.106
-418.471	266.259	0.123	-0.212
-417.457	-127.849	-0.161	-0.023
-416.442	139.711	-0.037	-0.048
-415.428	-200.000	-0.014	0.160
-414.413	800.000	-0.052	-0.209
-413.398	-107.761	0.372	0.080
-412.384	438.689	0.105	-0.226
-411.369	-132.505	0.048	0.006
-410.355	-59.972	0.125	-0.053
-409.340	67.675	-0.181	-0.183
-408.325	-166.965	-0.307	0.012
-407.311	-22.346	0.105	-0.063
-406.296	337.013	-0.170	0.325
-405.282	-87.414	0.196	-0.059
-404.267	-44.730	0.164	0.080
-403.252	-68.637	0.478	-0.182
-402.238	800.000	0.089	-0.267
-401.223	25.912	-0.233	-0.191
-400.209	-91.841	-0.186	0.052
-399.194	47.009	-0.182	0.167
-398.179	66.237	0.243	-0.243
-397.165	-97.646	-0.131	0.033
-396.150	-140.038	-0.186	-0.019
-395.136	-21.473	-0.386	-0.232
-394.121	-169.407	0.498	-0.018
-393.106	98.685	-0.221	-0.252
-392.092	173.440	0.205	-0.291
-391.077	89.039	-0.133	0.146
-390.063	-24.088	-0.140	0.082
-389.048	-145.253	0.127	-0.011
-388.033	-66.325	0.127	0.050
-387.019	-200.000	0.032	0.257
-386.004	-200.000	0.016	0.169
-384.990	71.699	-0.132	-0.135
-383.975	112.246	-0.156	0.186
-382.960	800.000	0.088	-0.347
-381.946	-73.365	0.213	0.077
-380.931	-111.545	-0.162	0.032
-379.917	800.000	-0.025	0.079
-378.902	-110.563	-0.193	-0.039
-377.888	-32.497	-0.354	-0.194
-376.873	-200.000	0.018	0.093
-375.858	-169.821	-0.409	0.014
-374.844	-47.986	-0.163	0.078
-373.829	-26.869	0.142	0.082
-372.815	-156.188	-0.122	-0.008
-371.800	427.878	0.080	0.170
-370.785	-200.000	0.009	0.272
-369.771	-154.056	0.057	0.004
-368.756	-91.989	0.168	-0.047
-367.742	800.000	-0.034	0.106
-366.727	25.362	0.266	-0.218
-365.712	-62.867	0.075	0.031
-364.698	142.893	-0.131	-0.171
-363.683	-116.017	0.384	-0.070
-362.669	-80.758	0.043	0.014
-361.654	674.335	0.072	-0.185
-360.639	124.415	-0.148	0.183
-359.625	480.260	0.114	-0.255
-358.610	800.000	-0.055	0.151
-357.596	-60.111	-0.271	0.114
-356.581	-200.000	0.075	0.325
-355.566	-8.013	0.029	-0.019
-354.552	339.628	-0.132	-0.254
-353.537	-29.353	-0.129	-0.072
-352.523	-200.000	0.004	-0.056
-351.508	-200.000	-0.010	0.251
-350.493	327.586	-0.157	-0.297
-349.479	178.326	0.054	-0.077
-348.464	537.309	0.005	-0.012
-347.450	244.870	-0.343	0.567
-346.435	395.458	-0.080	0.163
-345.420	477.986	-0.085	-0.189
-344.406	-143.924	0.263	-0.024
-343.391	-120.108	0.277	0.047
-342.377	800.000	0.040	0.149
-341.362	-200.000	0.028	-0.166
-340.348	336.066	0.073	-0.138
-339.333	-79.903	0.174	-0.057
-338.318	-90.585	0.286	-0.081
-337.304	244.325	0.109	0.180
-336.289	18.711	0.176	0.139
-335.275	45.372	0.141	0.128
-334.260	105.941	-0.254	0.295
-333.245	76.119	-0.281	0.292
-332.231	-168.919	0.391	-0.014
-331.216	-200.000	0.049	0.288
-330.202	-200.000	0.011	0.107
-329.187	13.811	-0.126	-0.096
-328.172	-200.000	-0.038	-0.171
-327.158	-200.000	0.050	-0.260
-326.143	-200.000	0.023	-0.384
-325.129	-2.489	0.139	0.095
-324.114	286.079	-0.118	-0.210
-323.099	-200.000	0.013	0.068
-322.085	522.730	0.151	0.348
-321.070	-200.000	-0.011	0.132
-320.056	516.740	0.068	0.156
-319.041	799.836	0.087	0.237
-318.026	-79.534	0.517	-0.172
-317.012	144.711	-0.195	0.255
-315.997	-175.322	-0.225	0.006
-314.983	175.951	0.105	0.150
-313.968	383.644	0.099	0.201
-312.953	-167.141	-0.192	0.008
-311.939	109.931	-0.067	0.079
-310.924	630.915	-0.073	-0.181
-309.910	-8.707	-0.153	-0.101
-308.895	-127.058	0.267	0.039
-307.880	-66.780	-0.190	0.074
-306.866	800.000	0.044	-0.151
-305.851	-127.784	0.162	0.023
-304.837	800.000	-0.062	-0.197
-303.822	-64.605	0.044	-0.017
-302.807	-197.858	0.460	-0.003
-301.793	86.071	0.125	-0.135
-300.778	-44.616	0.042	-0.020
-299.764	311.467	-0.019	-0.036
-298.749	-91.426	0.128	0.036
-297.735	-200.000	0.009	-0.094
-296.720	185.814	0.094	-0.138
-295.705	-28.510	0.114	-0.065
-294.691	-30.374	-0.190	0.106
-293.676	800.000	0.175	0.492
-292.662	440.975	-0.175	0.376
-291.647	-103.942	-0.319	-0.073
-290.632	82.891	-0.120	-0.128
-289.618	527.652	0.170	-0.392
-288.603	-104.648	-0.288	0.065
-287.589	800.000	0.039	-0.155
-286.574	800.000	0.046	-0.191
-285.559	-113.732	0.315	0.060
-284.545	85.548	-0.052	-0.056
-283.530	-200.000	0.000	-0.289
-282.516	-200.000	-0.035	0.252
-281.501	123.957	-0.088	-0.109
-280.486	-143.501	-0.332	-0.031
-279.472	-137.074	0.221	-0.025
-278.457	-200.000	-0.047	0.000
-277.443	474.272	-0.086	0.189
-276.428	169.315	-0.071	0.100
-275.413	90.165	-0.043	0.047
-274.399	18.611	-0.230	0.181
-273.384	-200.000	-0.139	0.000
-272.370	-200.000	0.057	0.329
-271.355	91.393	-0.051	-0.057
-270.340	-8.927	-0.215	0.142
-269.326	-125.805	0.561	0.083
-268.311	800.000	-0.044	-0.135
-267.297	-31.009	0.198	0.109
-266.282	-93.337	-0.073	0.020
-265.267	192.227	0.092	-0.136
-264.253	-66.985	-0.254	0.098
-263.238	-125.660	0.330	0.049
-262.224	-160.179	0.214	0.011
-261.209	-200.000	-0.015	-0.156
-260.195	55.431	-0.083	-0.079
-259.180	-161.568	0.168	-0.008
-258.165	116.208	-0.143	-0.172
-257.151	-79.691	0.260	-0.086
-256.136	358.443	-0.033	0.065
-255.122	-200.000	-0.021	-0.103
-254.107	-64.400	0.325	-0.130
-253.092	157.270	0.091	0.124
-252.078	13.537	-0.129	-0.098
-251.063	306.076	0.178	-0.325
-250.049	-200.000	-0.000	-0.202
-249.034	-115.578	0.264	-0.049
-248.019	-105.127	0.198	-0.044
-247.005	-124.677	-0.258	-0.039
-245.990	-6.199	0.086	0.057
-244.976	48.713	-0.071	-0.065
-243.961	66.722	0.269	-0.268
-242.946	131.959	0.145	0.183
-241.932	-200.000	0.000	0.211
-240.917	-11.966	0.238	-0.153
-239.903	580.388	-0.075	-0.181
-238.888	-181.827	-0.133	0.002
-237.873	800.000	-0.110	-0.301
-236.859	191.056	0.340	0.502
-235.844	-84.755	0.589	0.182
-234.830	185.069	-0.198	0.287
-233.815	109.552	0.244	-0.286
-232.800	262.329	0.199	0.338
-231.786	800.000	0.028	0.084
-230.771	-200.000	0.029	0.364
-229.757	-200.000	-0.001	0.206
-228.742	-1.364	-0.442	-0.305
-227.727	-52.392	0.313	0.142
-226.713	-120.315	-0.367	0.061
-225.698	558.100	-0.046	-0.110
-224.684	-200.000	-0.077	-0.379
-223.669	303.402	0.112	-0.203
-222.655	288.017	0.164	0.291
-221.640	-93.975	0.100	0.027
-220.625	-175.696	-0.190	0.005
-219.611	-200.000	-0.022	0.157
-218.596	556.937	-0.114	-0.268
-217.582	9.479	0.164	0.121
-216.567	-200.000	0.040	0.207
-215.552	79.353	-0.221	0.232
-214.538	46.481	0.158	0.143
-213.523	-62.339	-0.240	-0.098
-212.509	800.000	-0.118	0.505
-211.494	-200.000	-0.021	-0.153
-210.479	59.441	-0.250	0.241
-209.465	94.846	0.141	0.157
-208.450	79.735	0.146	0.153
-207.436	-200.000	-0.027	0.134
-206.421	-130.889	0.480	-0.063
-205.406	39.221	-0.160	-0.140
-204.392	-94.249	0.326	-0.087
-203.377	138.650	-0.051	0.065
-202.363	800.000	0.033	0.113
-201.348	-69.920	0.207	0.077
-200.333	-200.000	0.043	0.211
-199.319	-200.000	0.017	-0.234
-198.304	-66.004	-0.169	-0.066
-197.290	93.273	-0.056	-0.062
-196.275	-152.465	-0.178	-0.012
-195.260	718.168	-0.135	-0.351
-194.246	800.000	0.029	-0.120
-193.231	-200.000	0.001	0.062
-192.217	-200.000	0.032	0.218
-191.202	156.056	0.228	0.308
-190.187	6.333	-0.130	0.095
-189.173	-83.040	0.314	-0.099
-188.158	203.346	-0.173	0.262
-187.144	336.493	0.103	0.196
-186.129	-200.000	0.001	-0.154
-185.114	545.036	0.142	0.332
-184.100	-30.084	0.054	0.030
-183.085	254.043	-0.127	0.213
-182.071	-78.553	0.120	0.040
-181.056	-94.781	0.199	-0.053
-180.042	189.921	0.090	-0.132
-179.027	-178.287	0.177	-0.004
-178.012	-22.260	0.125	0.074
-176.998	20.485	0.120	-0.095
-175.983	-200.000	0.039	0.183
-174.969	-200.000	0.028	0.189
-173.954	309.517	-0.225	0.412
-172.939	-24.105	-0.115	0.067
-171.925	254.287	-0.139	0.233
-170.910	-200.000	-0.015	-0.184
-169.896	-200.000	0.047	0.203
-168.881	11.680	0.204	0.153
-167.866	277.837	-0.195	0.339
-166.852	800.000	-0.014	-0.042
-165.837	-200.000	0.015	0.075
-164.823	-117.699	-0.318	-0.056
-163.808	66.451	0.164	0.163
-162.793	-26.457	-0.235	-0.134
-161.779	-130.752	-0.089	0.012
-160.764	-200.000	-0.028	0.217
-159.750	724.421	-0.073	0.189
-158.735	55.708	0.036	0.035
-157.720	31.401	-0.118	-0.099
-156.706	-200.000	0.031	0.185
-155.691	213.270	-0.138	0.212
-154.677	453.003	0.033	-0.071
-153.662	-200.000	-0.031	-0.185
-152.647	74.590	-0.201	-0.206
-151.633	-147.803	0.176	-0.014
-150.618	-122.164	0.146	-0.023
-149.604	-72.135	0.382	-0.138
-148.589	-94.674	0.211	0.056
-147.574	-14.131	-0.095	0.060
-146.560	252.406	0.307	0.510
-145.545	256.865	0.145	0.243
-144.531	181.042	-0.048	-0.069
-143.516	140.712	-0.105	0.135
-142.502	11.928	0.161	0.121
-141.487	-56.107	0.253	0.110
-140.472	-64.787	-0.138	0.054
-139.458	-200.000	0.019	0.119
-138.443	276.728	-0.085	0.147
-137.429	356.167	-0.060	0.117
-136.414	-75.696	0.046	0.016
-135.399	-56.707	-0.181	-0.078
-134.385	494.572	-0.066	-0.147
-133.370	-65.941	0.163	-0.064
-132.356	-26.609	0.194	0.111
-131.341	-142.683	0.020	-0.002
-130.326	-40.129	-0.176	0.089
-129.312	800.000	-0.097	-0.298
-128.297	-196.110	0.581	0.004
-127.283	396.918	0.149	0.303
-126.268	800.000	-0.100	0.343
-125.253	-106.678	-0.210	0.046
-124.239	93.414	-0.145	0.161
-123.224	-200.000	0.017	0.124
-122.210	210.870	-0.108	-0.165
-121.195	-200.000	-0.005	0.256
