DTS Sentinel unit serial number:	SN413079Multiplexer serial number:	ORYXHardware model number:	OX4-SRSoftware version number:	ORYX F/W v4.00 Oryx Data Collector v3.7.2.0data status	okinstallation	princeton_trtdifferential loss correction	single-endedforward channel	channel 3reverse channel	N/Adate	2019/09/18time	21:40:35forward acquisition time	60.00reverse acquisition time	0.00gamma	496.2192k internal	0.2345k external	0.2345temperature offset calibration	0.9993default loss term (dB/km)	0.3790temperature slope calibration	1.0000multiplexer offset coefficient	1.0000multiplexer slope coefficient	1.0000fibre end	0.00T internal ref (°C)	25.00T ext. ref 1 (°C)	0.82T ext. ref 2 (°C)	18.33length (m)	temperature (°C)	Stokes	anti-Stokes-747.200	109.311	0.091	-0.110
-746.185	596.234	-0.093	0.230
-745.171	89.919	0.118	0.132
-744.156	319.614	0.125	0.237
-743.142	93.858	0.173	-0.196
-742.127	186.032	-0.226	0.336
-741.112	-200.000	0.005	-0.051
-740.098	174.053	-0.048	0.069
-739.083	156.276	0.259	0.358
-738.069	53.035	-0.253	0.242
-737.054	-12.656	0.188	-0.122
-736.039	76.434	-0.201	-0.213
-735.025	-58.293	0.296	0.129
-734.010	-200.000	0.003	-0.089
-732.996	776.748	-0.168	-0.459
-731.981	-169.974	-0.265	0.009
-730.966	-109.052	0.087	-0.018
-729.952	59.781	-0.274	-0.270
-728.937	379.496	0.172	-0.352
-727.923	161.131	-0.074	0.103
-726.908	-200.000	0.026	-0.183
-725.894	800.000	-0.023	-0.069
-724.879	145.338	-0.241	-0.322
-723.864	57.499	-0.138	0.135
-722.850	800.000	0.032	-0.119
-721.835	-59.391	-0.146	-0.063
-720.821	-123.213	0.410	0.066
-719.806	332.762	-0.072	0.139
-718.791	-150.056	-0.147	0.011
-717.777	-52.957	-0.322	0.148
-716.762	88.723	-0.164	0.183
-715.748	92.758	-0.089	-0.100
-714.733	800.000	0.042	-0.127
-713.718	-36.253	-0.245	0.132
-712.704	757.266	-0.034	0.093
-711.689	-10.867	-0.151	0.099
-710.675	-200.000	0.039	-0.207
-709.660	-36.124	0.248	-0.134
-708.645	-200.000	-0.030	0.321
-707.631	-107.154	0.317	-0.070
-706.616	219.344	-0.185	-0.296
-705.602	118.273	0.238	-0.293
-704.587	-43.581	-0.488	-0.246
-703.572	90.425	-0.080	-0.090
-702.558	29.567	0.099	0.084
-701.543	800.000	-0.051	0.151
-700.529	148.504	0.206	-0.278
-699.514	35.986	0.067	-0.059
-698.499	327.592	0.096	-0.183
-697.485	19.224	0.101	-0.081
-696.470	1.061	0.137	0.098
-695.456	-62.557	-0.255	0.106
-694.441	-183.845	0.186	-0.003
-693.426	-24.100	0.191	-0.114
-692.412	-46.745	-0.106	0.052
-691.397	-50.037	0.259	-0.122
-690.383	63.009	0.172	0.172
-689.368	27.729	0.048	-0.040
-688.354	420.603	0.128	0.274
-687.339	-155.930	0.177	0.011
-686.324	-38.240	-0.302	-0.160
-685.310	19.396	-0.312	-0.250
-684.295	-200.000	-0.060	0.319
-683.281	-4.359	0.131	0.090
-682.266	800.000	0.103	-0.427
-681.251	800.000	-0.063	0.226
-680.237	159.578	-0.097	-0.135
-679.222	-88.867	-0.169	0.050
-678.208	-35.225	0.537	-0.292
-677.193	758.498	0.103	0.278
-676.178	-21.601	0.096	0.058
-675.164	48.811	-0.192	0.180
-674.149	-200.000	0.004	-0.334
-673.135	-200.000	-0.029	0.254
-672.120	142.503	-0.103	0.136
-671.105	244.429	0.190	-0.318
-670.091	-36.212	0.128	-0.069
-669.076	-119.997	0.300	-0.051
-668.062	-54.072	-0.289	-0.131
-667.047	-107.084	0.105	-0.023
-666.032	-108.428	-0.117	-0.025
-665.018	-176.390	-0.374	-0.010
-664.003	-200.000	0.000	0.374
-662.989	89.557	0.217	-0.241
-661.974	-200.000	0.007	-0.045
-660.959	800.000	0.056	-0.188
-659.945	800.000	-0.050	-0.186
-658.930	383.885	0.121	0.248
-657.916	-12.354	-0.113	-0.074
-656.901	-83.781	-0.229	0.073
-655.886	325.456	0.055	-0.105
-654.872	800.000	-0.069	-0.258
-653.857	800.000	0.090	-0.295
-652.843	-200.000	-0.019	-0.350
-651.828	201.697	0.175	0.268
-650.814	-182.436	0.135	0.002
-649.799	-40.518	-0.256	0.132
-648.784	800.000	0.068	0.221
-647.770	462.178	-0.050	-0.112
-646.755	800.000	-0.118	-0.369
-645.741	-57.048	0.201	-0.088
-644.726	15.542	0.187	0.146
-643.711	800.000	-0.043	-0.184
-642.697	289.892	-0.197	-0.356
-641.682	-46.113	0.071	-0.035
-640.668	-10.616	-0.425	-0.280
-639.653	-132.064	0.295	0.038
-638.638	-79.684	0.354	-0.119
-637.624	369.848	0.115	-0.232
-636.609	92.937	-0.171	0.192
-635.595	671.720	0.094	0.242
-634.580	-123.166	0.258	-0.041
-633.565	-129.963	-0.178	0.024
-632.551	58.299	-0.255	-0.249
-631.536	31.733	-0.335	-0.287
-630.522	-200.000	0.059	0.389
-629.507	1.938	0.134	0.096
-628.492	-200.000	0.054	0.584
-627.478	-74.639	-0.025	0.009
-626.463	-200.000	-0.021	-0.466
-625.449	-200.000	0.011	-0.188
-624.434	83.794	-0.288	-0.313
-623.419	-200.000	0.023	-0.156
-622.405	-200.000	0.004	0.125
-621.390	-200.000	0.081	-0.623
-620.376	607.997	-0.148	-0.368
-619.361	210.964	0.135	-0.212
-618.346	800.000	0.067	0.217
-617.332	145.225	0.067	-0.090
-616.317	-10.191	-0.146	-0.097
-615.303	617.644	0.108	-0.269
-614.288	173.993	0.067	0.097
-613.273	-54.851	0.353	-0.158
-612.259	800.000	0.079	-0.262
-611.244	-200.000	0.053	0.302
-610.230	-66.218	0.220	0.087
-609.215	-44.736	0.085	-0.042
-608.201	98.076	-0.117	0.135
-607.186	-147.735	-0.372	0.031
-606.171	-155.443	0.145	0.009
-605.157	-105.105	0.329	-0.075
-604.142	163.025	-0.056	0.078
-603.128	224.472	-0.165	0.265
-602.113	5.295	-0.148	-0.108
-601.098	154.218	-0.101	-0.137
-600.084	-177.704	-0.121	0.003
-599.069	-8.539	0.086	0.057
-598.055	-200.000	0.034	-0.152
-597.040	-173.854	0.140	0.004
-596.025	25.856	0.121	0.100
-595.011	341.089	0.048	-0.093
-593.996	-161.800	-0.109	-0.006
-592.982	-68.158	-0.293	0.113
-591.967	-144.602	0.030	-0.003
-590.952	-13.991	-0.284	0.182
-589.938	19.633	0.178	-0.143
-588.923	-102.376	-0.416	-0.099
-587.909	9.387	-0.185	-0.139
-586.894	-33.890	0.227	-0.124
-585.879	-87.168	0.511	-0.155
-584.865	568.331	0.028	0.068
-583.850	294.611	-0.091	-0.166
-582.836	-200.000	0.011	0.095
-581.821	-27.919	-0.091	-0.052
-580.806	406.434	0.112	-0.236
-579.792	325.725	-0.062	-0.118
-578.777	-185.945	-0.234	-0.003
-577.763	-114.937	0.205	-0.039
-576.748	18.680	0.219	0.174
-575.733	288.728	-0.134	-0.241
-574.719	13.139	0.111	0.085
-573.704	-57.198	-0.201	-0.088
-572.690	-200.000	0.001	0.066
-571.675	-162.230	0.159	-0.008
-570.661	-60.588	-0.220	0.093
-569.646	-80.946	-0.263	0.087
-568.631	-87.845	-0.208	-0.062
-567.617	800.000	0.076	-0.244
-566.602	-144.422	-0.253	-0.023
-565.588	53.580	-0.234	0.223
-564.573	-38.699	0.325	-0.170
-563.558	780.872	0.065	-0.176
-562.544	7.376	0.320	0.237
-561.529	-149.901	0.437	0.034
-560.515	110.113	0.096	-0.114
-559.500	218.352	-0.110	-0.174
-558.485	489.771	0.106	-0.240
-557.471	-200.000	-0.007	0.105
-556.456	157.440	-0.164	0.225
-555.442	-200.000	-0.285	0.001
-554.427	98.619	0.061	-0.070
-553.412	-123.702	0.250	-0.039
-552.398	374.934	-0.194	-0.392
-551.383	-140.759	0.337	0.035
-550.369	-200.000	0.017	-0.110
-549.354	-103.570	-0.071	-0.017
-548.339	-108.938	0.204	0.043
-547.325	-128.793	0.141	-0.020
-546.310	182.520	0.124	-0.182
-545.296	30.037	-0.330	0.280
-544.281	-200.000	-0.021	-0.183
-543.266	216.686	0.106	-0.167
-542.252	203.271	-0.177	0.272
-541.237	800.000	-0.038	0.161
-540.223	87.199	-0.043	0.047
-539.208	-79.123	0.130	-0.044
-538.193	734.327	0.067	-0.177
-537.179	-5.091	0.249	0.170
-536.164	11.966	-0.038	-0.029
-535.150	8.144	-0.321	0.239
-534.135	133.447	-0.099	0.127
-533.121	-200.000	0.008	-0.275
-532.106	-152.579	-0.207	0.015
-531.091	187.799	0.034	0.051
-530.077	-56.132	0.217	0.096
-529.062	800.000	-0.025	0.069
-528.048	-200.000	0.009	-0.152
-527.033	51.098	0.050	-0.047
-526.018	800.000	-0.052	-0.186
-525.004	-155.318	-0.329	0.021
-523.989	-62.519	-0.321	-0.132
-522.975	-200.000	0.025	0.140
-521.960	173.015	-0.254	0.363
-520.945	107.589	-0.211	-0.248
-519.931	-143.578	0.243	0.023
-518.916	-200.000	-0.009	0.237
-517.902	800.000	0.082	-0.344
-516.887	-45.562	0.220	0.108
-515.872	-200.000	-0.004	-0.332
-514.858	87.517	0.102	-0.112
-513.843	-52.754	-0.147	0.067
-512.829	-130.095	-0.329	0.044
-511.814	-104.237	-0.233	0.054
-510.799	-29.133	-0.221	0.126
-509.785	800.000	0.073	0.295
-508.770	-200.000	-0.055	0.364
-507.756	-80.665	0.124	0.041
-506.741	-124.785	0.044	0.007
-505.726	-139.283	-0.117	0.012
-504.712	-27.732	0.431	0.248
-503.697	-128.382	-0.256	-0.036
-502.683	319.221	0.064	-0.121
-501.668	-22.541	-0.104	0.062
-500.653	-151.209	0.397	0.029
-499.639	-200.000	0.051	0.359
-498.624	-96.741	-0.281	0.073
-497.610	178.789	-0.099	0.143
-496.595	-156.854	0.279	-0.017
-495.581	150.647	0.118	-0.159
-494.566	169.237	-0.118	0.167
-493.551	-163.238	-0.188	-0.009
-492.537	193.316	0.127	-0.190
-491.522	-200.000	0.005	-0.084
-490.508	-200.000	-0.008	0.093
-489.493	-111.466	-0.427	-0.086
-488.478	298.146	-0.091	0.165
-487.464	-132.056	-0.321	-0.041
-486.449	474.479	0.051	0.113
-485.435	800.000	0.045	0.146
-484.420	-27.328	-0.317	-0.183
-483.405	247.935	0.104	0.174
-482.391	458.778	0.082	-0.180
-481.376	364.544	-0.117	-0.233
-480.362	-56.062	-0.209	-0.092
-479.347	-143.650	0.289	0.027
-478.332	11.121	-0.289	-0.219
-477.318	621.034	0.040	-0.101
-476.303	-36.313	0.322	0.172
-475.289	31.310	0.143	0.122
-474.274	-200.000	0.021	-0.326
-473.259	260.993	0.082	-0.141
-472.245	-200.000	-0.022	0.158
-471.230	800.000	-0.080	0.245
-470.216	-200.000	-0.001	-0.151
-469.201	-200.000	-0.067	-0.423
-468.186	190.383	0.064	0.095
-467.172	84.810	-0.139	-0.151
-466.157	55.134	-0.105	0.100
-465.143	-55.940	-0.124	0.055
-464.128	-14.755	0.063	0.040
-463.113	-12.985	0.179	0.115
-462.099	-80.296	-0.029	0.010
-461.084	-195.309	0.216	0.002
-460.070	69.178	0.017	-0.017
-459.055	-53.199	-0.109	-0.049
-458.040	-52.732	0.317	0.145
-457.026	800.000	-0.006	0.022
-456.011	-99.755	0.059	0.015
-454.997	609.275	0.069	-0.171
-453.982	800.000	0.067	-0.214
-452.968	-200.000	-0.015	0.132
-451.953	-77.574	0.521	-0.178
-450.938	-100.666	-0.165	-0.040
-449.924	18.447	-0.211	0.167
-448.909	-200.000	-0.022	-0.563
-447.895	97.059	0.004	-0.005
-446.880	394.320	0.073	-0.151
-445.865	-129.384	0.124	0.017
-444.851	250.043	0.081	0.136
-443.836	-126.198	0.165	-0.024
-442.822	-136.373	-0.490	-0.056
-441.807	-79.334	0.409	0.137
-440.792	800.000	0.075	0.251
-439.778	-123.730	0.324	0.051
-438.763	-4.785	0.382	0.260
-437.749	-106.801	-0.173	-0.038
-436.734	287.235	-0.065	-0.115
-435.719	800.000	-0.087	0.272
-434.705	68.686	0.236	0.239
-433.690	-106.155	-0.285	0.063
-432.676	37.322	-0.071	0.063
-431.661	-19.428	0.234	0.143
-430.646	-103.926	0.108	-0.025
-429.632	-107.283	0.163	-0.035
-428.617	199.418	0.126	-0.192
-427.603	-120.372	0.330	-0.056
-426.588	99.219	-0.034	-0.039
-425.573	-121.443	0.152	0.025
-424.559	23.413	0.135	0.109
-423.544	-200.000	0.204	-0.001
-422.530	800.000	-0.015	0.054
-421.515	-138.221	-0.071	0.008
-420.500	-200.000	-0.054	0.296
-419.486	189.916	-0.147	0.218
-418.471	-200.000	-0.009	-0.117
-417.457	-87.451	-0.060	-0.018
-416.442	4.056	-0.071	0.051
-415.428	-40.364	-0.410	0.210
-414.413	-156.010	-0.114	-0.007
-413.398	12.745	-0.277	0.211
-412.384	44.618	0.050	-0.045
-411.369	-42.374	0.198	-0.100
-410.355	-62.720	0.258	-0.106
-409.340	-63.358	0.168	-0.068
-408.325	282.595	-0.130	-0.230
-407.311	-64.502	0.136	-0.055
-406.296	416.008	-0.083	-0.175
-405.282	-72.623	0.070	-0.025
-404.267	-200.000	0.009	0.219
-403.252	124.205	0.223	-0.277
-402.238	285.633	0.060	0.107
-401.223	22.539	-0.099	0.080
-400.209	-150.278	0.198	0.015
-399.194	8.713	-0.207	-0.154
-398.179	-134.830	0.177	0.021
-397.165	419.361	0.029	0.062
-396.150	184.264	0.143	0.208
-395.136	-200.000	0.030	0.142
-394.121	-30.308	-0.143	0.080
-393.106	-105.949	0.253	-0.056
-392.092	120.240	0.157	-0.193
-391.077	800.000	-0.060	0.210
-390.063	-200.000	-0.011	-0.182
-389.048	800.000	0.091	-0.292
-388.033	800.000	-0.048	-0.206
-387.019	390.593	-0.129	0.264
-386.004	-62.344	0.135	0.055
-384.990	5.454	-0.118	0.086
-383.975	29.228	-0.160	0.134
-382.960	-38.020	-0.138	-0.072
-381.946	-71.866	-0.145	0.053
-380.931	-167.210	-0.099	0.004
-379.917	-200.000	0.007	0.040
-378.902	-23.207	-0.074	-0.044
-377.888	800.000	0.038	-0.121
-376.873	232.683	0.160	0.260
-375.858	-200.000	0.008	0.053
-374.844	320.213	-0.020	-0.037
-373.829	-95.069	0.300	-0.080
-372.815	-90.309	-0.175	-0.050
-371.800	196.414	0.126	-0.189
-370.785	245.469	-0.114	-0.189
-369.771	-93.188	0.457	-0.125
-368.756	-200.000	-0.007	0.413
-367.742	34.561	0.083	0.071
-366.727	-166.938	0.168	0.007
-365.712	-176.638	0.151	0.004
-364.698	149.138	0.126	-0.168
-363.683	28.687	0.275	0.229
-362.669	174.707	-0.108	0.154
-361.654	-41.953	0.172	0.087
-360.639	-61.895	-0.163	-0.067
-359.625	-51.863	0.463	0.212
-358.610	800.000	-0.048	0.197
-357.596	-30.217	0.096	0.054
-356.581	800.000	-0.093	-0.308
-355.566	83.642	0.135	-0.145
-354.552	800.000	-0.038	-0.129
-353.537	-153.067	0.287	0.020
-352.523	121.201	-0.247	-0.303
-351.508	72.425	-0.225	-0.231
-350.493	-200.000	-0.031	0.366
-349.479	-37.932	-0.082	-0.043
-348.464	-93.002	-0.062	0.017
-347.450	-39.344	-0.146	0.075
-346.435	-74.461	0.192	-0.068
-345.420	-50.663	-0.119	-0.055
-344.406	800.000	0.045	0.160
-343.391	56.911	-0.091	0.087
-342.377	46.871	0.151	-0.138
-341.362	-141.519	0.173	-0.017
-340.348	-191.620	0.101	0.001
-339.333	340.884	-0.141	0.272
-338.318	800.000	0.121	-0.366
-337.304	-100.538	-0.354	-0.086
-336.289	-200.000	0.002	0.311
-335.275	572.803	-0.109	0.263
-334.260	-200.000	0.051	0.325
-333.245	283.292	0.139	0.245
-332.231	-200.000	0.000	-0.208
-331.216	-200.000	-0.011	0.059
-330.202	-200.000	-0.010	0.193
-329.187	-9.845	0.111	-0.072
-328.172	800.000	0.064	-0.178
-327.158	170.723	0.158	0.222
-326.143	-9.148	-0.171	0.112
-325.129	651.273	0.021	0.052
-324.114	271.354	-0.081	0.140
-323.099	-200.000	0.056	0.355
-322.085	376.777	0.145	0.292
-321.070	232.392	0.058	-0.094
-320.056	-85.060	0.080	-0.025
-319.041	187.704	-0.136	0.200
-318.026	-47.952	-0.188	-0.090
-317.012	-111.177	0.118	0.024
-315.997	-56.627	0.234	0.102
-314.983	-90.859	-0.247	0.070
-313.968	-200.000	0.047	0.206
-312.953	-200.000	0.028	0.171
-311.939	800.000	-0.051	-0.143
-310.924	-73.642	0.171	-0.061
-309.910	157.359	-0.154	0.209
-308.895	-200.000	-0.098	0.435
-307.880	-64.090	-0.005	-0.002
-306.866	-23.330	-0.245	0.145
-305.851	-200.000	0.037	-0.227
-304.837	60.382	-0.303	0.295
-303.822	800.000	-0.095	-0.311
-302.807	180.559	0.056	-0.080
-301.793	-72.760	-0.160	-0.058
-300.778	-70.691	-0.148	-0.055
-299.764	25.946	0.068	-0.055
-298.749	104.173	-0.157	-0.182
-297.735	-22.106	-0.120	-0.072
-296.720	71.011	0.127	-0.129
-295.705	433.068	0.100	-0.213
-294.691	-150.313	-0.284	-0.022
-293.676	528.679	0.076	-0.176
-292.662	175.577	-0.073	0.104
-291.647	-200.000	0.054	0.492
-290.632	800.000	-0.066	-0.195
-289.618	-88.079	0.121	0.036
-288.603	52.339	-0.214	-0.201
-287.589	-200.000	0.059	0.302
-286.574	-150.035	-0.121	-0.009
-285.559	-155.981	-0.379	-0.024
-284.545	-38.424	-0.366	-0.190
-283.530	800.000	0.006	-0.027
-282.516	-148.098	0.198	0.016
-281.501	-57.627	0.414	-0.178
-280.486	-200.000	0.010	0.288
-279.472	226.096	0.201	0.319
-278.457	-2.869	-0.091	0.062
-277.443	-80.282	-0.147	0.048
-276.428	377.825	-0.101	0.204
-275.413	137.687	-0.286	-0.368
-274.399	1.528	0.095	-0.067
-273.384	257.919	0.191	0.322
-272.370	-13.965	0.169	0.107
-271.355	5.961	0.236	0.172
-270.340	-99.124	0.107	0.027
-269.326	43.002	-0.189	-0.170
-268.311	-129.886	-0.201	-0.027
-267.297	115.930	0.131	0.158
-266.282	183.709	0.288	0.418
-265.267	279.627	-0.159	-0.279
-264.253	246.974	0.083	0.138
-263.238	-200.000	-0.030	-0.162
-262.224	706.074	-0.014	-0.036
-261.209	800.000	-0.032	0.117
-260.195	42.532	0.253	0.226
-259.180	480.165	-0.077	-0.171
-258.165	-200.000	-0.032	-0.217
-257.151	-200.000	0.025	0.183
-256.136	-200.000	-0.011	-0.059
-255.122	-62.819	0.210	-0.086
-254.107	-200.000	0.036	-0.164
-253.092	-200.000	-0.053	-0.249
-252.078	5.841	-0.193	0.140
-251.063	196.926	0.069	0.103
-250.049	-73.221	-0.106	0.038
-249.034	-108.743	0.173	0.036
-248.019	-65.742	-0.417	0.164
-247.005	-88.992	-0.230	0.067
-245.990	-200.000	0.011	-0.056
-244.976	-140.074	0.145	0.015
-243.961	800.000	-0.051	0.186
-242.946	-74.809	0.307	0.108
-241.932	294.351	0.089	-0.160
-240.917	419.249	-0.017	0.036
-239.903	85.607	-0.276	-0.298
-238.888	156.706	0.078	0.106
-237.873	-57.359	0.150	0.065
-236.859	67.024	-0.165	0.165
-235.844	-200.000	0.006	-0.115
-234.830	480.087	0.093	-0.208
-233.815	-163.985	-0.338	0.015
-232.800	-10.590	0.190	0.123
-231.786	-183.167	0.371	-0.006
-230.771	-200.000	0.052	-0.464
-229.757	-146.292	0.361	-0.031
-228.742	-121.025	-0.176	-0.029
-227.727	-32.873	0.075	-0.041
-226.713	44.079	0.098	0.088
-225.698	-130.505	-0.139	-0.018
-224.684	10.976	-0.097	-0.073
-223.669	-47.045	0.220	-0.105
-222.655	-85.963	0.118	0.036
-221.640	16.498	-0.271	0.210
-220.625	777.687	-0.048	0.130
-219.611	-45.317	0.434	0.211
-218.596	-51.295	-0.255	-0.117
-217.582	-26.547	-0.221	-0.127
-216.567	303.179	0.127	-0.231
-215.552	-62.460	-0.174	-0.071
-214.538	-24.809	-0.188	-0.109
-213.523	63.095	0.152	-0.150
-212.509	322.169	-0.148	0.276
-211.494	-200.000	-0.016	0.105
-210.479	5.486	-0.133	-0.096
-209.465	-200.000	0.037	0.222
-208.450	-73.453	-0.129	0.046
-207.436	57.889	-0.100	0.096
-206.421	442.380	-0.013	0.027
-205.406	6.782	0.200	0.146
-204.392	-19.774	-0.156	-0.095
-203.377	-138.442	0.088	0.009
-202.363	800.000	0.030	-0.124
-201.348	-41.163	-0.108	-0.055
-200.333	-200.000	-0.005	-0.448
-199.319	800.000	-0.090	-0.310
-198.304	-78.471	0.110	-0.037
-197.290	135.004	-0.079	0.101
-196.275	-200.000	-0.014	0.118
-195.260	800.000	-0.063	-0.268
-194.246	737.481	0.109	0.285
-193.231	19.757	0.087	0.069
-192.217	-38.408	-0.334	-0.173
-191.202	-200.000	0.018	0.097
-190.187	9.090	-0.153	0.113
-189.173	-73.883	-0.130	-0.046
-188.158	-13.346	0.071	0.045
-187.144	58.599	-0.125	0.120
-186.129	287.311	0.043	0.076
-185.114	-90.679	-0.027	0.008
-184.100	61.445	-0.195	-0.190
-183.085	800.000	0.086	-0.270
-182.071	6.497	0.083	0.060
-181.056	39.424	0.257	0.225
-180.042	800.000	0.053	0.223
-179.027	305.712	0.031	-0.056
-178.012	-103.350	-0.510	0.118
-176.998	-200.000	0.019	-0.176
-175.983	-54.662	-0.191	0.084
-174.969	599.937	0.070	-0.169
-173.954	46.403	-0.025	0.023
-172.939	-200.000	0.006	-0.186
-171.925	192.911	-0.109	-0.160
-170.910	800.000	-0.018	0.056
-169.896	50.964	0.136	-0.126
-168.881	15.026	0.112	-0.086
-167.866	-200.000	0.020	0.218
-166.852	607.574	-0.023	0.056
-165.837	800.000	-0.082	0.263
-164.823	42.448	0.246	0.219
-163.808	-97.099	0.154	-0.039
-162.793	-20.856	-0.281	-0.168
-161.779	153.703	0.161	0.216
-160.764	368.045	0.135	0.267
-159.750	-4.375	-0.332	-0.225
-158.735	246.333	0.121	0.199
-157.720	704.556	-0.037	-0.096
-156.706	-85.710	0.146	0.044
-155.691	186.105	-0.193	-0.281
-154.677	14.891	-0.275	-0.210
-153.662	-73.265	0.243	0.087
-152.647	-27.234	-0.441	0.251
-151.633	49.140	-0.075	-0.069
-150.618	20.902	0.073	-0.058
-149.604	800.000	-0.017	-0.070
-148.589	-200.000	0.016	-0.181
-147.574	-200.000	-0.014	-0.209
-146.560	-51.754	0.213	0.097
-145.545	800.000	-0.130	-0.377
-144.531	49.040	0.349	0.320
-143.516	-200.000	0.073	0.340
-142.502	47.340	-0.202	-0.184
-141.487	-2.131	0.143	-0.098
-140.472	15.805	0.139	-0.107
-139.458	-22.976	-0.304	-0.179
-138.443	479.167	0.030	-0.065
-137.429	-200.000	-0.067	0.409
-136.414	27.409	0.096	-0.079
-135.399	289.708	0.029	0.051
-134.385	-148.273	-0.175	0.014
-133.370	54.316	0.390	0.367
-132.356	286.624	0.135	-0.239
-131.341	16.449	-0.094	0.073
-130.326	24.806	0.221	0.179
-129.312	125.398	0.145	-0.179
-128.297	800.000	0.069	-0.241
-127.283	374.509	0.065	0.130
-126.268	-7.641	-0.222	-0.147
-125.253	67.540	-0.066	-0.066
-124.239	-45.992	0.315	0.152
-123.224	61.612	0.079	-0.076
-122.210	-41.464	-0.461	-0.231
-121.195	629.527	-0.093	-0.231
-120.180	-140.872	-0.035	0.004
