DTS Sentinel unit serial number:	SN413079Multiplexer serial number:	ORYXHardware model number:	OX4-SRSoftware version number:	ORYX F/W v4.00 Oryx Data Collector v3.7.2.0data status	okinstallation	princeton_trtdifferential loss correction	single-endedforward channel	channel 3reverse channel	N/Adate	2019/09/12time	12:30:11forward acquisition time	60.00reverse acquisition time	0.00gamma	496.2192k internal	0.2292k external	0.2292temperature offset calibration	1.0047default loss term (dB/km)	0.3790temperature slope calibration	1.0000multiplexer offset coefficient	1.0000multiplexer slope coefficient	1.0000fibre end	0.00T internal ref (°C)	40.50T ext. ref 1 (°C)	2.03T ext. ref 2 (°C)	35.56length (m)	temperature (°C)	Stokes	anti-Stokes-747.200	307.736	-0.133	0.254
-746.185	219.369	0.067	0.110
-745.171	610.109	-0.036	0.093
-744.156	273.233	0.079	0.144
-743.142	-25.399	-0.224	0.136
-742.127	101.706	0.116	0.139
-741.112	-20.740	0.206	0.130
-740.098	77.926	0.043	0.047
-739.083	800.000	0.078	0.240
-738.069	-200.000	0.005	-0.093
-737.054	-200.000	-0.009	0.372
-736.039	-141.929	-0.315	0.032
-735.025	408.216	0.090	0.194
-734.010	129.498	0.167	-0.218
-732.996	25.257	0.186	-0.158
-731.981	-117.875	-0.369	-0.068
-730.966	90.931	0.136	-0.156
-729.952	74.437	0.104	-0.112
-728.937	-122.367	-0.063	0.010
-727.923	-164.447	0.150	-0.007
-726.908	34.042	-0.159	-0.142
-725.894	306.224	-0.174	-0.330
-724.879	-200.000	0.021	-0.336
-723.864	-6.834	-0.238	-0.165
-722.850	800.000	0.060	0.249
-721.835	109.219	-0.137	0.168
-720.821	800.000	-0.096	-0.279
-719.806	-89.901	0.108	-0.032
-718.791	800.000	-0.169	-0.497
-717.777	595.171	0.224	-0.568
-716.762	-39.115	0.069	-0.037
-715.748	800.000	-0.096	0.368
-714.733	-79.918	-0.167	-0.057
-713.718	-200.000	0.069	-0.439
-712.704	-36.609	-0.160	0.088
-711.689	81.660	0.135	0.149
-710.675	-132.414	0.287	-0.038
-709.660	-72.880	-0.096	-0.036
-708.645	230.277	-0.068	-0.114
-707.631	-200.000	-0.050	-0.262
-706.616	-84.874	-0.194	-0.062
-705.602	-98.542	-0.179	0.047
-704.587	-2.050	0.170	0.122
-703.572	98.967	0.169	-0.199
-702.558	800.000	-0.075	-0.246
-701.543	130.535	-0.206	0.270
-700.529	800.000	0.047	-0.192
-699.514	238.951	0.036	-0.061
-698.499	-179.712	-0.123	0.003
-697.485	-60.868	-0.216	0.093
-696.470	-83.221	0.279	0.092
-695.456	147.149	-0.073	-0.101
-694.441	202.440	0.125	0.197
-693.426	-200.000	-0.028	-0.160
-692.412	-200.000	0.018	-0.254
-691.397	-80.552	-0.069	0.024
-690.383	23.170	0.240	-0.201
-689.368	-166.002	-0.265	0.012
-688.354	-200.000	-0.092	0.411
-687.339	-26.330	-0.087	0.052
-686.324	-92.574	-0.506	-0.145
-685.310	762.959	-0.051	-0.141
-684.295	-65.117	-0.056	-0.023
-683.281	-91.104	-0.181	-0.053
-682.266	141.274	-0.167	-0.226
-681.251	154.207	0.120	-0.168
-680.237	800.000	0.030	-0.107
-679.222	8.740	0.176	-0.136
-678.208	230.413	0.075	0.125
-677.193	34.073	-0.382	0.340
-676.178	760.842	-0.056	-0.154
-675.164	118.239	-0.184	0.232
-674.149	-200.000	0.044	-0.242
-673.135	800.000	-0.040	0.137
-672.120	186.285	-0.127	-0.192
-671.105	33.485	-0.209	-0.185
-670.091	-200.000	0.010	-0.221
-669.076	-200.000	-0.011	-0.187
-668.062	800.000	-0.038	0.149
-667.047	-106.341	-0.118	-0.027
-666.032	800.000	-0.126	-0.445
-665.018	-64.634	0.377	-0.156
-664.003	216.104	0.054	0.087
-662.989	526.990	0.054	0.129
-661.974	-83.540	0.146	-0.048
-660.959	-68.769	0.130	-0.051
-659.945	301.674	0.130	0.245
-658.930	258.397	0.127	0.224
-657.916	-95.514	-0.205	-0.056
-656.901	800.000	0.047	0.132
-655.886	-200.000	0.045	-0.223
-654.872	-44.017	-0.228	-0.117
-653.857	81.881	0.052	0.058
-652.843	-51.949	0.110	0.052
-651.828	-200.000	-0.036	0.164
-650.814	-41.198	-0.150	0.079
-649.799	-92.113	-0.090	-0.026
-648.784	14.233	-0.371	0.294
-647.770	-25.065	-0.071	-0.043
-646.755	205.878	-0.109	0.173
-645.741	434.928	0.081	-0.179
-644.726	356.988	0.249	-0.507
-643.711	56.935	0.311	-0.309
-642.697	128.538	0.054	0.071
-641.682	-200.000	0.003	-0.242
-640.668	657.528	-0.073	0.191
-639.653	-67.319	-0.380	0.152
-638.638	800.000	0.072	0.305
-637.624	174.252	-0.232	0.341
-636.609	290.917	-0.137	-0.253
-635.595	-74.844	0.243	0.089
-634.580	-77.232	0.257	0.091
-633.565	-74.943	-0.306	0.112
-632.551	-125.483	-0.284	0.044
-631.536	-96.590	-0.057	0.015
-630.522	800.000	-0.028	0.093
-629.507	151.648	-0.309	-0.429
-628.492	-124.155	-0.235	-0.038
-627.478	-64.038	-0.135	-0.056
-626.463	213.040	0.103	-0.165
-625.449	23.825	0.309	0.259
-624.434	-200.000	-0.005	0.212
-623.419	111.478	-0.160	-0.197
-622.405	-41.250	0.292	0.154
-621.390	-200.000	-0.036	0.216
-620.376	-87.030	0.195	-0.060
-619.361	800.000	-0.069	0.223
-618.346	-25.527	-0.249	-0.150
-617.332	-200.000	-0.025	-0.222
-616.317	-161.676	-0.136	0.007
-615.303	18.121	-0.332	-0.269
-614.288	-200.000	-0.011	-0.198
-613.273	520.703	0.161	0.384
-612.259	-32.226	-0.378	0.215
-611.244	700.515	-0.051	0.136
-610.230	-5.444	-0.141	0.098
-609.215	511.304	0.040	0.095
-608.201	-70.639	0.162	-0.062
-607.186	-34.233	0.332	-0.185
-606.171	-200.000	-0.031	-0.254
-605.157	7.523	-0.106	-0.080
-604.142	78.305	0.275	-0.299
-603.128	707.860	-0.078	-0.209
-602.113	-176.922	-0.374	0.010
-601.098	-119.726	0.053	0.009
-600.084	33.187	-0.224	0.197
-599.069	428.212	0.062	0.136
-598.055	-200.000	-0.022	-0.154
-597.040	-123.052	-0.439	0.072
-596.025	-30.950	-0.246	-0.141
-595.011	283.781	0.182	-0.332
-593.996	-151.826	0.231	-0.017
-592.982	-106.371	-0.209	-0.048
-591.967	-37.743	-0.134	-0.073
-590.952	-134.235	-0.295	0.037
-589.938	800.000	-0.058	0.191
-588.923	-83.302	-0.171	-0.056
-587.909	72.504	0.188	-0.199
-586.894	-66.006	-0.229	0.093
-585.879	24.918	0.214	0.181
-584.865	85.565	-0.171	0.191
-583.850	-65.410	-0.119	0.049
-582.836	-198.830	-0.229	-0.001
-581.821	-4.957	-0.274	-0.192
-580.806	-116.931	-0.167	0.031
-579.792	-5.218	-0.062	-0.043
-578.777	-76.782	-0.226	-0.080
-577.763	-24.249	-0.303	0.184
-576.748	-58.646	-0.230	0.101
-575.733	-45.674	0.027	-0.014
-574.719	-58.260	0.378	0.167
-573.704	800.000	-0.097	-0.282
-572.690	600.991	-0.076	-0.192
-571.675	-162.968	-0.364	-0.018
-570.661	309.901	-0.116	0.220
-569.646	-90.022	-0.338	0.100
-568.631	365.339	-0.089	-0.183
-567.617	174.991	-0.119	-0.175
-566.602	160.065	-0.084	0.118
-565.588	-163.708	-0.218	-0.010
-564.573	-110.103	0.239	0.051
-563.558	51.818	0.154	-0.149
-562.544	111.428	-0.052	0.064
-561.529	525.384	-0.048	-0.115
-560.515	12.929	-0.089	0.070
-559.500	512.220	-0.079	0.188
-558.485	152.969	-0.186	-0.258
-557.471	-7.047	0.208	0.144
-556.456	-200.000	-0.035	0.260
-555.442	34.257	0.322	0.285
-554.427	-200.000	0.007	-0.092
-553.412	800.000	-0.093	-0.391
-552.398	140.948	-0.134	-0.180
-551.383	-200.000	-0.029	-0.352
-550.369	611.540	0.173	0.439
-549.354	-200.000	-0.014	0.293
-548.339	191.655	0.307	0.470
-547.325	-141.614	0.245	0.025
-546.310	-26.211	-0.347	-0.207
-545.296	800.000	-0.135	-0.383
-544.281	-200.000	-0.001	-0.132
-543.266	-200.000	-0.002	0.031
-542.252	800.000	-0.104	-0.350
-541.237	-29.680	-0.312	-0.181
-540.223	-68.933	0.235	-0.092
-539.208	-200.000	0.028	0.238
-538.193	39.084	0.079	-0.071
-537.179	800.000	-0.088	0.276
-536.164	133.383	0.170	0.224
-535.150	-116.705	0.142	-0.026
-534.135	800.000	0.046	-0.183
-533.121	197.340	-0.268	-0.416
-532.106	-139.321	-0.102	-0.011
-531.091	-103.742	-0.170	0.040
-530.077	63.522	0.106	-0.108
-529.062	141.431	0.135	0.181
-528.048	-131.214	0.267	0.036
-527.033	59.764	0.244	0.244
-526.018	-150.959	0.126	0.010
-525.004	-158.333	-0.063	-0.004
-523.989	-94.226	-0.076	0.021
-522.975	-66.542	0.274	-0.110
-521.960	-6.732	-0.165	0.114
-520.945	56.110	0.168	-0.166
-519.931	-32.560	-0.038	-0.022
-518.916	-51.692	-0.199	-0.094
-517.902	47.481	0.282	0.266
-516.887	185.181	0.111	0.167
-515.872	68.309	0.071	0.074
-514.858	-132.838	0.202	-0.026
-513.843	397.526	0.189	-0.400
-512.829	272.048	-0.164	0.293
-511.814	-97.411	-0.275	-0.072
-510.799	800.000	-0.033	0.125
-509.785	800.000	-0.058	0.195
-508.770	-0.644	-0.132	0.095
-507.756	290.054	-0.058	-0.107
-506.741	-51.780	0.264	-0.125
-505.726	-91.143	-0.154	0.045
-504.712	-200.000	0.039	0.265
-503.697	174.267	-0.058	0.085
-502.683	233.494	-0.073	-0.122
-501.668	169.066	-0.226	-0.326
-500.653	800.000	0.010	-0.038
-499.639	-137.951	0.109	0.012
-498.624	-173.390	-0.237	-0.007
-497.610	-200.000	0.015	-0.078
-496.595	93.265	0.124	-0.143
-495.581	-156.041	0.186	-0.012
-494.566	800.000	0.021	-0.080
-493.551	171.114	-0.247	-0.359
-492.537	800.000	-0.101	-0.432
-491.522	2.713	0.171	-0.126
-490.508	-56.803	-0.338	0.152
-489.493	64.312	-0.187	0.191
-488.478	-200.000	-0.054	-0.325
-487.464	-62.191	-0.205	-0.087
-486.449	-200.000	0.040	-0.274
-485.435	-75.634	-0.112	-0.040
-484.420	-200.000	0.019	-0.089
-483.405	-178.245	0.382	0.009
-482.391	-200.000	-0.003	0.030
-481.376	44.011	0.201	-0.186
-480.362	-144.734	-0.412	0.038
-479.347	282.530	-0.141	0.256
-478.332	-30.768	-0.180	-0.103
-477.318	113.850	-0.268	-0.330
-476.303	350.531	-0.119	0.239
-475.289	73.142	0.015	0.016
-474.274	94.264	-0.242	-0.278
-473.259	800.000	-0.122	-0.362
-472.245	-45.749	-0.210	-0.105
-471.230	-200.000	-0.018	-0.241
-470.216	-200.000	0.059	-0.293
-469.201	-49.613	0.251	-0.121
-468.186	-72.535	0.153	0.057
-467.172	-200.000	0.002	-0.066
-466.157	713.203	0.047	-0.126
-465.143	-63.395	0.030	0.013
-464.128	212.117	0.117	0.187
-463.113	22.326	0.117	-0.097
-462.099	-73.105	0.017	-0.006
-461.084	-200.000	-0.024	0.142
-460.070	-78.924	0.238	0.082
-459.055	-2.089	0.264	-0.187
-458.040	420.492	-0.099	0.214
-457.026	586.748	-0.040	-0.100
-456.011	-200.000	0.007	-0.199
-454.997	12.654	0.132	0.103
-453.982	33.536	-0.151	-0.132
-452.968	-129.825	0.237	-0.033
-451.953	39.357	-0.194	0.176
-450.938	-200.000	-0.057	0.322
-449.924	-7.669	-0.138	0.094
-448.909	-150.431	-0.089	-0.007
-447.895	-87.014	0.173	0.053
-446.880	-200.000	0.036	0.235
-445.865	632.772	0.063	-0.160
-444.851	100.640	-0.048	-0.056
-443.836	80.029	0.198	0.215
-442.822	-200.000	0.008	0.331
-441.807	-200.000	-0.005	-0.081
-440.792	380.625	0.056	0.117
-439.778	800.000	0.071	0.209
-438.763	111.570	-0.104	-0.127
-437.749	414.203	0.088	-0.190
-436.734	-147.156	0.226	0.019
-435.719	60.530	-0.234	-0.234
-434.705	95.459	-0.108	-0.124
-433.690	44.346	0.166	0.154
-432.676	-116.133	0.196	-0.037
-431.661	-200.000	-0.017	-0.301
-430.646	-200.000	0.024	0.288
-429.632	555.916	0.055	0.133
-428.617	-200.000	0.015	0.238
-427.603	277.143	-0.074	-0.132
-426.588	-93.211	0.108	-0.030
-425.573	697.966	0.119	-0.315
-424.559	120.736	-0.120	-0.150
-423.544	-145.771	0.027	-0.002
-422.530	78.353	0.116	0.125
-421.515	-156.626	-0.215	0.013
-420.500	342.760	-0.122	0.242
-419.486	135.952	0.133	0.175
-418.471	800.000	-0.087	-0.339
-417.457	-168.332	0.415	0.016
-416.442	79.118	0.070	0.076
-415.428	-196.434	0.391	-0.003
-414.413	48.009	0.008	0.008
-413.398	-52.024	0.425	0.199
-412.384	143.068	0.148	-0.199
-411.369	-152.798	-0.044	-0.003
-410.355	72.337	-0.194	0.204
-409.340	-48.500	0.267	-0.130
-408.325	361.222	0.118	0.238
-407.311	36.263	-0.009	-0.008
-406.296	144.002	-0.043	0.057
-405.282	-200.000	-0.074	-0.398
-404.267	743.088	-0.111	-0.300
-403.252	409.282	-0.082	-0.175
-402.238	29.111	0.145	0.124
-401.223	159.658	0.080	0.112
-400.209	-200.000	-0.003	-0.161
-399.194	-65.232	-0.130	0.053
-398.179	110.964	-0.177	-0.215
-397.165	-35.049	-0.279	0.154
-396.150	404.496	-0.091	-0.193
-395.136	800.000	0.029	-0.097
-394.121	-4.268	-0.102	-0.071
-393.106	55.713	0.364	0.356
-392.092	-200.000	-0.015	0.089
-391.077	-200.000	0.009	0.085
-390.063	199.678	-0.110	0.170
-389.048	135.475	0.033	-0.043
-388.033	-74.288	0.143	-0.052
-387.019	800.000	0.036	-0.109
-386.004	278.947	-0.153	-0.276
-384.990	396.529	0.110	-0.231
-383.975	-127.092	0.238	-0.035
-382.960	427.309	-0.069	0.150
-381.946	-98.734	-0.183	0.047
-380.931	-200.000	-0.030	-0.194
-379.917	-53.835	-0.300	-0.138
-378.902	38.831	0.167	0.150
-377.888	-18.361	0.061	0.039
-376.873	429.951	-0.086	0.188
-375.858	19.471	0.229	0.186
-374.844	625.680	0.054	0.137
-373.829	20.729	0.301	-0.246
-372.815	-148.372	-0.108	-0.009
-371.800	-68.295	0.333	-0.130
-370.785	21.999	0.171	0.141
-369.771	107.066	-0.189	-0.226
-368.756	-111.814	0.130	-0.027
-367.742	137.258	0.171	0.226
-366.727	-30.968	0.223	0.127
-365.712	-113.904	-0.079	0.015
-364.698	190.263	-0.113	-0.170
-363.683	-200.000	0.022	-0.202
-362.669	-200.000	-0.022	-0.110
-361.654	-38.246	0.095	-0.051
-360.639	800.000	0.058	-0.215
-359.625	-99.574	0.268	0.068
-358.610	259.062	0.128	-0.223
-357.596	-105.534	0.304	-0.070
-356.581	-93.306	0.288	0.081
-355.566	-53.447	0.046	-0.021
-354.552	-41.836	0.298	-0.154
-353.537	-200.000	0.019	0.578
-352.523	-101.770	-0.261	0.064
-351.508	-41.639	0.120	-0.062
-350.493	9.488	0.255	-0.195
-349.479	24.608	0.017	0.014
-348.464	152.116	0.123	0.168
-347.450	-86.558	0.463	-0.143
-346.435	784.445	0.026	-0.073
-345.420	-200.000	-0.023	0.228
-344.406	-62.242	0.335	0.141
-343.391	-82.079	0.182	-0.060
-342.377	-23.958	-0.025	-0.015
-341.362	-91.750	-0.280	0.080
-340.348	59.208	0.097	0.096
-339.333	-200.000	0.006	0.119
-338.318	-120.385	0.264	0.045
-337.304	160.658	0.146	0.205
-336.289	-24.181	0.117	0.071
-335.275	209.474	-0.128	-0.202
-334.260	-4.958	0.259	-0.180
-333.245	-200.000	0.018	-0.238
-332.231	-200.000	0.002	-0.037
-331.216	-56.945	-0.127	-0.057
-330.202	84.715	0.194	0.214
-329.187	-200.000	-0.006	0.218
-328.172	-200.000	0.002	-0.026
-327.158	-80.906	0.303	-0.101
-326.143	-189.261	-0.173	0.002
-325.129	-200.000	0.054	-0.320
-324.114	-46.220	0.200	0.099
-323.099	-134.742	0.139	-0.017
-322.085	282.836	0.109	0.198
-321.070	800.000	0.069	-0.241
-320.056	-200.000	0.016	0.129
-319.041	377.257	0.143	-0.295
-318.026	800.000	-0.067	0.211
-317.012	-200.000	-0.019	0.109
-315.997	171.590	0.127	-0.184
-314.983	20.158	0.379	-0.308
-313.968	-154.962	0.249	-0.016
-312.953	-200.000	0.000	0.172
-311.939	-25.240	-0.118	-0.070
-310.924	800.000	-0.057	0.163
-309.910	-200.000	-0.021	-0.147
-308.895	42.051	0.156	0.142
-307.880	800.000	0.067	-0.250
-306.866	169.362	0.130	-0.186
-305.851	79.587	0.117	-0.126
-304.837	780.901	0.020	-0.056
-303.822	3.430	-0.071	-0.052
-302.807	-200.000	-0.035	0.288
-301.793	194.318	0.020	-0.031
-300.778	800.000	0.019	0.064
-299.764	-62.952	-0.353	0.147
-298.749	69.850	0.085	-0.088
-297.735	586.093	-0.057	0.141
-296.720	800.000	-0.029	0.114
-295.705	-163.592	-0.178	-0.008
-294.691	-35.221	0.209	-0.115
-293.676	138.056	-0.097	0.128
-292.662	11.810	-0.129	0.100
-291.647	800.000	-0.015	-0.047
-290.632	-19.906	-0.296	0.184
-289.618	26.117	0.034	0.029
-288.603	-126.271	0.356	0.053
-287.589	221.008	-0.028	0.044
-286.574	-93.264	0.237	0.066
-285.559	13.379	-0.175	0.136
-284.545	349.599	-0.055	-0.109
-283.530	-200.000	-0.016	0.153
-282.516	-73.684	-0.294	0.108
-281.501	-25.716	-0.095	0.056
-280.486	84.844	-0.263	0.290
-279.472	76.684	0.092	-0.098
-278.457	-74.768	0.119	-0.043
-277.443	125.897	-0.036	-0.046
-276.428	88.639	0.056	-0.063
-275.413	-0.944	0.178	-0.127
-274.399	800.000	-0.085	0.336
-273.384	128.046	0.055	0.070
-272.370	-71.104	0.043	0.016
-271.355	-200.000	-0.000	0.002
-270.340	-200.000	0.012	-0.098
-269.326	800.000	-0.110	0.382
-268.311	-200.000	-0.024	0.179
-267.297	-71.241	0.260	0.098
-266.282	-200.000	0.003	0.292
-265.267	318.288	0.170	0.324
-264.253	58.169	-0.096	0.095
-263.238	-200.000	-0.017	0.121
-262.224	-95.728	-0.045	-0.012
-261.209	-106.992	-0.173	-0.038
-260.195	-79.130	-0.202	0.069
-259.180	102.791	-0.118	0.139
-258.165	-59.253	-0.020	0.008
-257.151	-200.000	0.044	-0.222
-256.136	-80.155	-0.368	-0.124
-255.122	76.208	-0.276	-0.293
-254.107	-4.471	-0.185	-0.128
-253.092	157.263	-0.027	-0.037
-252.078	162.478	0.056	0.078
-251.063	127.119	0.195	0.248
-250.049	-200.000	-0.031	0.137
-249.034	530.630	-0.076	0.180
-248.019	-200.000	-0.025	-0.115
-247.005	-65.849	0.260	-0.105
-245.990	-104.793	-0.194	-0.045
-244.976	800.000	0.036	-0.106
-243.961	389.175	0.081	0.169
-242.946	68.818	-0.190	0.196
-241.932	72.223	-0.193	0.201
-240.917	65.486	0.188	-0.191
-239.903	-200.000	-0.021	0.356
-238.888	254.040	-0.220	-0.377
-237.873	13.863	0.056	0.044
-236.859	-115.571	-0.382	-0.072
-235.844	-200.000	-0.048	-0.232
-234.830	-200.000	0.000	0.279
-233.815	-200.000	-0.011	0.111
-232.800	147.497	0.113	0.153
-231.786	800.000	0.034	-0.103
-230.771	800.000	0.127	-0.401
-229.757	122.646	0.052	-0.065
-228.742	673.408	-0.111	-0.288
-227.727	8.736	-0.039	-0.029
-226.713	179.380	-0.141	-0.208
-225.698	-200.000	0.032	-0.339
-224.684	-55.272	-0.316	-0.142
-223.669	-139.940	0.229	0.024
-222.655	-96.977	0.218	-0.057
-221.640	357.050	0.133	0.265
-220.625	-51.295	0.066	0.031
-219.611	5.797	0.240	-0.178
-218.596	499.883	0.109	0.252
-217.582	282.171	0.123	-0.220
-216.567	-200.000	0.007	0.224
-215.552	-55.357	-0.114	0.051
-214.538	-178.855	-0.025	0.001
-213.523	-72.546	-0.089	-0.033
-212.509	158.102	0.041	0.057
-211.494	-200.000	-0.002	-0.192
-210.479	102.019	-0.182	0.213
-209.465	-108.099	-0.282	0.061
-208.450	3.433	0.156	0.114
-207.436	-81.504	-0.212	0.070
-206.421	-31.100	0.188	0.106
-205.406	800.000	-0.048	0.166
-204.392	258.567	0.219	0.378
-203.377	78.789	0.082	0.088
-202.363	-173.457	0.172	-0.005
-201.348	-200.000	0.046	-0.236
-200.333	250.223	-0.120	-0.204
-199.319	800.000	0.056	-0.159
-198.304	-102.518	-0.161	0.039
-197.290	-122.281	-0.212	0.035
-196.275	110.303	-0.113	-0.135
-195.260	-125.443	0.254	-0.039
-194.246	129.627	0.208	0.267
-193.231	-121.113	-0.243	-0.041
-192.217	104.348	0.183	-0.216
-191.202	800.000	-0.062	0.181
-190.187	-72.058	-0.187	0.070
-189.173	-101.103	0.128	0.031
-188.158	-200.000	0.014	-0.085
-187.144	171.600	-0.074	-0.107
-186.129	800.000	0.044	-0.178
-185.114	-66.202	-0.154	-0.061
-184.100	46.107	-0.326	0.302
-183.085	97.267	-0.103	0.119
-182.071	-25.002	-0.237	-0.141
-181.056	-200.000	0.000	0.139
-180.042	-93.090	0.044	-0.012
-179.027	166.819	0.205	0.291
-178.012	377.278	-0.230	0.469
-176.998	321.708	0.088	0.168
-175.983	800.000	0.018	0.059
-174.969	255.149	-0.092	0.158
-173.954	-200.000	-0.021	0.121
-172.939	-58.975	0.281	0.122
-171.925	800.000	0.078	0.287
-170.910	-30.367	0.096	0.055
-169.896	-71.058	0.225	0.085
-168.881	-76.383	0.070	0.025
-167.866	-75.811	-0.480	-0.170
-166.852	-200.000	0.015	-0.209
-165.837	-57.973	-0.220	-0.096
-164.823	-200.000	-0.001	0.213
-163.808	-200.000	0.033	0.321
-162.793	-70.282	0.112	-0.043
-161.779	240.432	0.023	0.038
-160.764	13.531	0.109	-0.084
-159.750	-38.122	0.111	-0.059
-158.735	800.000	-0.040	0.169
-157.720	-200.000	-0.033	0.202
-156.706	-109.341	0.080	0.017
-155.691	184.403	0.146	-0.217
-154.677	-200.000	-0.050	-0.240
-153.662	-159.242	0.066	-0.004
-152.647	-183.847	0.073	0.001
-151.633	-71.192	0.212	0.079
-150.618	9.153	0.190	-0.143
-149.604	-24.604	-0.264	0.157
-148.589	94.985	0.076	-0.087
-147.574	-8.481	-0.308	0.207
-146.560	10.386	-0.166	-0.126
-145.545	800.000	0.037	-0.104
-144.531	-160.010	0.385	-0.021
-143.516	-4.226	0.072	0.050
-142.502	-176.854	0.025	0.001
-141.487	-200.000	0.008	0.235
-140.472	-129.343	-0.100	0.014
-139.458	42.321	0.124	0.112
-138.443	800.000	-0.045	0.169
-137.429	799.072	-0.036	-0.098
-136.414	-200.000	0.033	0.152
-135.399	-122.400	0.234	0.038
-134.385	800.000	-0.074	-0.243
-133.370	179.808	0.089	-0.131
-132.356	42.712	0.346	0.315
-131.341	-103.726	0.039	-0.009
-130.326	112.184	-0.057	-0.069
-129.312	-200.000	0.012	0.093
-128.297	-3.580	0.169	0.117
-127.283	-159.984	-0.027	0.001
-126.268	800.000	0.045	0.179
-125.253	800.000	-0.039	-0.108
-124.239	-84.444	-0.203	0.064
-123.224	18.245	-0.227	0.181
-122.210	-85.737	-0.320	-0.099
-121.195	-10.087	-0.150	-0.099
