DTS Sentinel unit serial number:	SN413079Multiplexer serial number:	ORYXHardware model number:	OX4-SRSoftware version number:	ORYX F/W v4.00 Oryx Data Collector v3.7.2.0data status	okinstallation	princeton_trtdifferential loss correction	single-endedforward channel	channel 3reverse channel	N/Adate	2019/09/13time	20:08:35forward acquisition time	60.00reverse acquisition time	0.00gamma	496.2192k internal	0.2330k external	0.2330temperature offset calibration	1.0072default loss term (dB/km)	0.3790temperature slope calibration	1.0000multiplexer offset coefficient	1.0000multiplexer slope coefficient	1.0000fibre end	0.00T internal ref (°C)	29.56T ext. ref 1 (°C)	3.32T ext. ref 2 (°C)	23.92length (m)	temperature (°C)	Stokes	anti-Stokes-747.200	-200.000	0.011	-0.180
-746.185	800.000	0.072	0.295
-745.171	-113.837	-0.294	-0.058
-744.156	-200.000	0.023	0.147
-743.142	-179.666	0.192	0.004
-742.127	-200.000	-0.019	0.202
-741.112	-2.079	0.202	0.143
-740.098	76.940	-0.179	-0.192
-739.083	-200.000	-0.042	-0.380
-738.069	237.588	0.034	0.056
-737.054	153.462	-0.248	0.341
-736.039	-200.000	0.055	-0.326
-735.025	-76.585	0.348	0.123
-734.010	-46.075	-0.340	-0.169
-732.996	-110.127	-0.132	-0.028
-731.981	42.703	0.124	0.114
-730.966	-155.949	0.090	-0.006
-729.952	-200.000	0.064	-0.374
-728.937	-200.000	-0.028	-0.341
-727.923	-63.021	0.238	-0.099
-726.908	-123.126	0.514	-0.083
-725.894	-152.579	0.178	-0.013
-724.879	-200.000	0.007	-0.149
-723.864	-75.014	0.232	-0.084
-722.850	-200.000	-0.010	0.223
-721.835	48.877	-0.086	-0.082
-720.821	-73.114	0.190	0.070
-719.806	172.021	-0.035	0.050
-718.791	-200.000	-0.032	0.224
-717.777	-103.174	-0.155	0.037
-716.762	336.186	-0.083	0.161
-715.748	-124.505	-0.185	-0.029
-714.733	-200.000	0.001	0.073
-713.718	-88.040	-0.225	-0.068
-712.704	-154.724	0.138	-0.009
-711.689	-175.660	-0.071	0.002
-710.675	-150.096	-0.357	-0.028
-709.660	-22.488	0.294	-0.179
-708.645	-96.412	-0.205	0.055
-707.631	-72.566	-0.052	0.019
-706.616	800.000	-0.118	0.370
-705.602	-120.367	-0.462	0.079
-704.587	800.000	0.100	-0.298
-703.572	367.425	0.136	-0.277
-702.558	-200.000	0.030	-0.190
-701.543	87.190	0.017	-0.018
-700.529	-200.000	0.024	0.397
-699.514	800.000	-0.055	-0.165
-698.499	-11.419	-0.194	-0.129
-697.485	164.765	0.163	0.232
-696.470	800.000	0.063	0.243
-695.456	-93.517	-0.044	0.012
-694.441	800.000	0.060	-0.232
-693.426	800.000	0.080	-0.286
-692.412	800.000	-0.050	-0.215
-691.397	-90.636	-0.464	0.135
-690.383	391.142	-0.092	0.192
-689.368	800.000	-0.130	0.387
-688.354	-135.991	-0.221	0.026
-687.339	278.283	0.128	-0.230
-686.324	42.003	0.064	0.058
-685.310	-200.000	0.004	-0.222
-684.295	-63.383	-0.252	-0.104
-683.281	208.800	0.079	-0.123
-682.266	177.218	-0.074	0.108
-681.251	218.451	-0.141	-0.226
-680.237	-73.008	-0.118	-0.043
-679.222	-135.588	-0.322	-0.038
-678.208	-85.523	-0.256	-0.080
-677.193	-24.964	-0.128	0.076
-676.178	620.097	-0.095	0.240
-675.164	-200.000	-0.003	0.289
-674.149	800.000	-0.088	-0.275
-673.135	-200.000	-0.015	-0.168
-672.120	-11.887	0.262	-0.173
-671.105	-79.405	-0.283	0.096
-670.091	800.000	-0.023	0.088
-669.076	-200.000	0.005	-0.130
-668.062	43.878	-0.110	0.101
-667.047	154.630	-0.118	0.163
-666.032	-200.000	-0.033	0.173
-665.018	493.621	0.095	-0.218
-664.003	97.437	-0.018	-0.021
-662.989	159.171	-0.114	0.158
-661.974	-47.634	0.114	0.056
-660.959	-103.503	0.286	-0.067
-659.945	159.806	0.190	-0.265
-658.930	798.251	-0.153	0.423
-657.916	136.563	-0.338	0.442
-656.901	5.870	0.096	0.071
-655.886	-200.000	-0.038	0.200
-654.872	76.918	0.151	0.160
-653.857	-134.259	0.201	0.025
-652.843	36.716	-0.207	0.184
-651.828	13.155	-0.193	0.150
-650.814	-200.000	-0.001	-0.077
-649.799	-43.101	0.072	0.037
-648.784	135.858	0.097	-0.127
-647.770	169.219	-0.124	-0.178
-646.755	235.308	-0.112	-0.186
-645.741	-157.592	-0.122	0.007
-644.726	-200.000	-0.008	-0.044
-643.711	-29.089	0.421	-0.242
-642.697	-200.000	-0.028	0.427
-641.682	-95.465	0.228	-0.061
-640.668	87.689	0.169	-0.188
-639.653	-200.000	0.060	-0.330
-638.638	-102.097	-0.103	0.025
-637.624	-36.968	-0.185	0.099
-636.609	-200.000	0.014	-0.262
-635.595	22.117	-0.175	-0.143
-634.580	-14.201	-0.341	-0.221
-633.565	249.936	-0.095	-0.162
-632.551	-97.691	-0.368	0.095
-631.536	800.000	0.047	0.201
-630.522	-200.000	-0.005	-0.043
-629.507	-155.347	0.169	0.011
-628.492	455.782	0.115	0.255
-627.478	212.476	0.172	0.272
-626.463	-200.000	0.021	-0.163
-625.449	-59.822	0.355	-0.152
-624.434	-108.253	0.358	-0.078
-623.419	100.971	-0.114	-0.133
-622.405	94.398	0.154	-0.175
-621.390	738.645	-0.032	0.087
-620.376	800.000	-0.138	-0.387
-619.361	-200.000	-0.024	-0.225
-618.346	-67.470	-0.137	-0.054
-617.332	800.000	-0.070	-0.285
-616.317	592.377	-0.103	0.256
-615.303	800.000	0.064	0.226
-614.288	276.188	-0.151	-0.269
-613.273	216.375	0.064	-0.102
-612.259	-7.205	0.116	0.079
-611.244	-200.000	0.032	0.222
-610.230	-59.866	-0.125	-0.054
-609.215	98.527	-0.096	-0.111
-608.201	-200.000	0.019	0.149
-607.186	-200.000	-0.016	-0.168
-606.171	78.133	0.152	0.163
-605.157	-59.494	-0.257	0.111
-604.142	800.000	0.037	-0.114
-603.128	-0.697	-0.126	0.090
-602.113	-200.000	-0.013	0.376
-601.098	-47.398	0.228	-0.111
-600.084	-36.403	-0.208	-0.112
-599.069	800.000	-0.047	0.207
-598.055	-62.311	0.333	-0.139
-597.040	-52.513	-0.072	-0.034
-596.025	1.000	-0.127	0.091
-595.011	-113.933	-0.174	0.034
-593.996	-121.733	0.255	0.042
-592.982	-117.768	-0.093	-0.017
-591.967	-37.570	-0.453	-0.242
-590.952	-137.390	-0.156	0.018
-589.938	54.105	-0.201	0.194
-588.923	162.971	-0.113	0.159
-587.909	421.440	-0.087	-0.187
-586.894	-130.564	-0.183	-0.025
-585.879	-109.269	0.355	0.075
-584.865	154.320	-0.102	0.141
-583.850	-200.000	0.035	0.272
-582.836	-140.841	-0.261	0.027
-581.821	-143.077	-0.298	0.029
-580.806	-16.942	0.044	-0.028
-579.792	144.226	-0.084	0.113
-578.777	-46.725	0.143	-0.070
-577.763	-73.930	-0.290	0.105
-576.748	-35.515	-0.133	0.072
-575.733	-122.262	-0.490	-0.080
-574.719	-170.352	-0.316	-0.011
-573.704	134.150	-0.109	0.141
-572.690	195.343	0.117	-0.178
-571.675	800.000	-0.034	-0.110
-570.661	161.106	0.054	-0.076
-569.646	-76.508	0.396	-0.139
-568.631	596.011	-0.105	-0.259
-567.617	57.148	-0.112	-0.109
-566.602	-11.118	-0.307	-0.203
-565.588	800.000	-0.108	-0.378
-564.573	-200.000	0.041	0.236
-563.558	-200.000	-0.010	0.055
-562.544	41.919	-0.153	-0.139
-561.529	800.000	-0.068	0.236
-560.515	-114.263	-0.216	0.042
-559.500	563.423	-0.112	0.270
-558.485	359.492	-0.126	0.252
-557.471	-200.000	0.032	-0.189
-556.456	-151.410	0.371	-0.028
-555.442	-121.648	-0.168	-0.028
-554.427	-200.000	-0.023	-0.166
-553.412	110.788	-0.073	-0.088
-552.398	343.553	-0.081	0.159
-551.383	156.578	0.147	0.202
-550.369	-59.707	0.081	0.034
-549.354	-200.000	-0.024	-0.162
-548.339	16.359	0.174	-0.137
-547.325	-136.053	-0.171	0.020
-546.310	382.317	-0.040	0.082
-545.296	4.939	-0.273	0.200
-544.281	641.355	0.137	0.350
-543.266	-200.000	0.031	-0.273
-542.252	139.103	-0.111	-0.146
-541.237	-61.954	-0.205	0.086
-540.223	610.306	0.164	0.409
-539.208	435.721	-0.020	-0.043
-538.193	254.564	0.204	0.349
-537.179	-24.677	-0.172	-0.102
-536.164	-200.000	-0.016	-0.073
-535.150	295.267	-0.108	0.197
-534.135	-200.000	0.021	0.113
-533.121	-153.279	-0.211	-0.015
-532.106	-71.839	0.268	-0.100
-531.091	-31.885	0.166	-0.093
-530.077	-37.783	0.325	-0.173
-529.062	-8.880	-0.121	-0.081
-528.048	-156.034	0.164	-0.010
-527.033	-53.264	0.061	0.028
-526.018	35.494	-0.241	0.212
-525.004	-105.168	-0.141	0.032
-523.989	220.176	0.053	0.084
-522.975	47.559	0.098	-0.091
-521.960	-151.895	-0.311	-0.023
-520.945	800.000	0.058	-0.235
-519.931	510.180	0.044	-0.101
-518.916	-118.945	0.327	-0.057
-517.902	-200.000	0.012	-0.156
-516.887	33.911	-0.220	-0.191
-515.872	51.166	0.121	-0.115
-514.858	44.022	0.154	-0.141
-513.843	11.778	-0.143	0.110
-512.829	473.287	-0.038	-0.086
-511.814	-200.000	-0.037	0.339
-510.799	117.216	0.145	0.178
-509.785	158.433	0.212	-0.293
-508.770	86.880	0.151	0.166
-507.756	-200.000	-0.047	-0.227
-506.741	411.943	0.015	0.031
-505.726	-200.000	-0.005	-0.116
-504.712	44.035	0.038	0.034
-503.697	486.051	-0.055	-0.126
-502.683	-200.000	-0.007	-0.104
-501.668	-83.658	-0.207	-0.066
-500.653	11.077	0.106	0.081
-499.639	800.000	-0.060	0.169
-498.624	-141.460	0.310	-0.031
-497.610	100.185	-0.033	-0.038
-496.595	800.000	0.076	-0.233
-495.581	-157.034	0.127	0.008
-494.566	-60.084	0.084	0.036
-493.551	160.587	0.029	0.040
-492.537	68.311	0.058	-0.059
-491.522	-169.885	0.213	0.008
-490.508	-63.968	-0.135	-0.055
-489.493	-76.791	-0.132	0.046
-488.478	-48.520	-0.400	-0.192
-487.464	23.992	-0.120	0.099
-486.449	-125.457	0.194	0.029
-485.435	-114.638	0.079	0.015
-484.420	-40.699	0.324	-0.167
-483.405	330.597	-0.095	-0.182
-482.391	-108.269	0.059	0.013
-481.376	800.000	-0.090	-0.297
-480.362	18.588	-0.120	0.096
-479.347	-188.087	0.246	0.003
-478.332	191.932	-0.052	0.078
-477.318	-59.753	0.119	-0.051
-476.303	227.718	0.099	0.161
-475.289	-200.000	0.009	0.165
-474.274	214.257	0.087	0.136
-473.259	195.731	-0.161	-0.245
-472.245	800.000	0.038	-0.115
-471.230	-28.914	0.182	-0.104
-470.216	39.069	-0.191	0.170
-469.201	-200.000	0.028	0.130
-468.186	-200.000	0.021	-0.172
-467.172	-115.688	-0.218	-0.041
-466.157	135.039	0.137	-0.177
-465.143	-200.000	-0.015	-0.183
-464.128	-58.858	-0.123	-0.053
-463.113	-200.000	0.090	-0.396
-462.099	313.077	-0.021	0.039
-461.084	96.747	-0.159	-0.181
-460.070	-200.000	-0.001	0.085
-459.055	-53.738	-0.130	0.059
-458.040	763.554	0.140	0.378
-457.026	1.166	-0.053	-0.038
-456.011	-49.589	-0.190	0.090
-454.997	145.435	-0.074	-0.099
-453.982	150.675	0.088	-0.119
-452.968	-92.775	0.209	0.058
-451.953	-15.172	0.284	-0.181
-450.938	58.787	-0.148	0.145
-449.924	-110.983	0.226	-0.046
-448.909	267.906	0.191	-0.333
-447.895	117.942	-0.030	-0.037
-446.880	384.826	0.062	-0.127
-445.865	284.175	-0.212	-0.379
-444.851	434.591	-0.095	0.206
-443.836	541.409	0.195	0.462
-442.822	-200.000	-0.005	0.079
-441.807	-76.782	-0.143	-0.050
-440.792	77.442	-0.234	-0.248
-439.778	14.611	0.158	0.123
-438.763	32.431	0.194	-0.167
-437.749	57.727	0.080	-0.078
-436.734	11.348	-0.118	0.090
-435.719	-93.490	-0.285	-0.078
-434.705	800.000	0.029	-0.082
-433.690	73.317	0.103	-0.108
-432.676	-200.000	-0.013	-0.169
-431.661	-48.700	0.320	0.153
-430.646	-200.000	-0.013	0.155
-429.632	-200.000	-0.006	0.054
-428.617	-169.708	0.218	-0.008
-427.603	544.515	0.038	0.089
-426.588	-102.834	-0.155	0.037
-425.573	-37.778	-0.347	-0.183
-424.559	283.189	-0.085	-0.151
-423.544	-17.684	-0.190	0.119
-422.530	-58.029	-0.139	-0.060
-421.515	800.000	-0.076	0.257
-420.500	-200.000	0.241	-0.001
-419.486	375.883	-0.127	0.257
-418.471	-132.069	-0.266	0.034
-417.457	800.000	0.083	-0.307
-416.442	162.517	-0.128	-0.178
-415.428	-200.000	-0.055	-0.245
-414.413	-94.909	-0.253	-0.068
-413.398	-112.288	0.104	0.021
-412.384	-53.970	-0.150	-0.068
-411.369	-200.000	-0.003	-0.176
-410.355	25.465	-0.198	0.163
-409.340	46.162	-0.109	0.101
-408.325	-152.277	-0.489	0.035
-407.311	-68.961	0.502	-0.192
-406.296	49.448	0.110	0.103
-405.282	-200.000	-0.025	-0.121
-404.267	-75.876	0.041	0.014
-403.252	-15.728	0.234	0.149
-402.238	24.509	-0.071	-0.058
-401.223	49.115	0.211	0.197
-400.209	-140.566	0.330	0.034
-399.194	375.237	-0.155	-0.313
-398.179	-200.000	0.008	-0.175
-397.165	60.576	-0.265	0.261
-396.150	212.227	0.182	0.286
-395.136	462.373	-0.064	-0.141
-394.121	-14.402	-0.268	0.172
-393.106	-91.431	0.178	0.050
-392.092	-121.721	0.434	0.071
-391.077	42.148	-0.222	-0.200
-390.063	32.116	0.140	0.120
-389.048	293.908	-0.037	0.066
-388.033	66.485	0.089	-0.090
-387.019	800.000	-0.034	0.145
-386.004	-200.000	-0.068	-0.389
-384.990	56.311	0.226	-0.218
-383.975	-200.000	-0.009	-0.153
-382.960	800.000	0.077	0.315
-381.946	316.832	0.161	0.302
-380.931	-168.913	-0.239	-0.009
-379.917	-46.532	-0.071	0.035
-378.902	-200.000	-0.025	0.236
-377.888	107.712	-0.240	-0.283
-376.873	-122.612	-0.064	0.010
-375.858	215.519	-0.156	-0.246
-374.844	173.839	-0.087	0.125
-373.829	800.000	0.063	0.172
-372.815	87.070	0.145	0.159
-371.800	34.552	0.185	0.161
-370.785	-200.000	0.044	-0.336
-369.771	-200.000	0.029	-0.266
-368.756	57.255	-0.242	0.234
-367.742	-13.938	0.098	0.063
-366.727	-200.000	0.035	0.348
-365.712	28.505	0.100	0.084
-364.698	-0.317	-0.191	0.135
-363.683	196.641	-0.030	0.045
-362.669	119.734	-0.097	0.120
-361.654	85.668	-0.091	0.099
-360.639	-152.923	-0.057	-0.004
-359.625	800.000	0.073	0.239
-358.610	-38.976	-0.316	0.165
-357.596	398.487	0.142	0.295
-356.581	119.413	0.162	-0.199
-355.566	-107.313	-0.196	-0.043
-354.552	7.916	0.519	0.386
-353.537	153.513	-0.239	0.325
-352.523	-103.520	-0.226	0.053
-351.508	800.000	-0.140	0.513
-350.493	-102.095	0.165	0.040
-349.479	751.323	-0.197	-0.527
-348.464	4.354	-0.106	-0.077
-347.450	-200.000	0.002	0.244
-346.435	246.974	0.141	-0.237
-345.420	-74.572	0.076	0.027
-344.406	78.951	-0.115	-0.122
-343.391	800.000	-0.043	0.125
-342.377	-200.000	-0.052	-0.466
-341.362	-200.000	0.034	-0.147
-340.348	-83.013	0.391	-0.125
-339.333	-60.872	0.110	-0.046
-338.318	11.486	-0.217	-0.165
-337.304	142.791	0.193	0.255
-336.289	707.776	0.098	0.258
-335.275	-200.000	-0.048	-0.269
-334.260	-121.425	0.111	0.018
-333.245	-200.000	0.019	-0.263
-332.231	206.235	0.152	-0.234
-331.216	-200.000	0.050	-0.260
-330.202	-106.447	0.108	0.024
-329.187	-101.658	-0.229	0.055
-328.172	800.000	-0.075	0.256
-327.158	800.000	0.102	-0.286
-326.143	-200.000	0.015	0.126
-325.129	158.493	-0.084	0.116
-324.114	45.186	0.056	0.051
-323.099	-122.330	0.343	-0.056
-322.085	-16.021	-0.274	-0.173
-321.070	92.565	-0.057	0.064
-320.056	413.616	-0.124	0.260
-319.041	15.700	-0.273	0.213
-318.026	42.022	0.269	0.242
-317.012	352.329	-0.132	-0.258
-315.997	249.719	-0.140	-0.234
-314.983	24.932	-0.183	0.150
-313.968	-200.000	0.017	0.300
-312.953	-200.000	0.021	-0.093
-311.939	-174.658	0.206	-0.006
-310.924	-157.660	-0.121	0.007
-309.910	-187.697	0.057	-0.001
-308.895	-53.845	0.291	-0.132
-307.880	-7.730	0.246	-0.165
-306.866	653.577	0.102	-0.259
-305.851	-200.000	0.005	-0.269
-304.837	800.000	0.054	-0.157
-303.822	-200.000	0.009	-0.200
-302.807	204.253	0.106	-0.162
-301.793	-76.491	-0.234	0.082
-300.778	800.000	-0.057	0.180
-299.764	-36.004	0.096	-0.052
-298.749	-135.828	-0.264	-0.031
-297.735	-44.969	-0.251	-0.124
-296.720	-47.503	-0.156	-0.075
-295.705	245.076	0.202	0.336
-294.691	127.555	0.109	-0.136
-293.676	-120.856	-0.348	-0.058
-292.662	97.804	-0.043	-0.049
-291.647	-157.549	-0.296	-0.018
-290.632	66.150	0.037	0.037
-289.618	52.101	0.315	0.297
-288.603	409.573	-0.097	0.203
-287.589	-200.000	0.010	-0.092
-286.574	18.806	0.092	-0.073
-285.559	-165.900	0.214	-0.009
-284.545	800.000	0.028	0.099
-283.530	800.000	-0.036	-0.108
-282.516	-6.454	-0.235	-0.158
-281.501	-200.000	0.003	0.037
-280.486	16.425	0.321	0.251
-279.472	156.748	-0.111	0.151
-278.457	8.247	0.105	-0.078
-277.443	22.025	-0.276	-0.223
-276.428	-120.809	-0.063	0.010
-275.413	-200.000	0.001	0.231
-274.399	554.633	0.015	-0.035
-273.384	800.000	0.018	-0.064
-272.370	51.886	0.164	0.154
-271.355	69.965	0.197	0.201
-270.340	334.390	0.150	0.287
-269.326	-148.922	-0.196	-0.016
-268.311	-114.775	0.206	-0.039
-267.297	-71.097	-0.231	-0.086
-266.282	63.963	0.047	0.046
-265.267	-28.511	0.212	0.121
-264.253	-62.065	-0.050	0.021
-263.238	435.744	0.080	0.172
-262.224	-76.001	-0.214	-0.075
-261.209	364.875	-0.039	-0.078
-260.195	-200.000	-0.001	-0.096
-259.180	98.562	0.268	-0.305
-258.165	-200.000	-0.023	0.315
-257.151	-200.000	-0.042	0.284
-256.136	-55.147	0.083	0.037
-255.122	800.000	-0.070	-0.229
-254.107	32.457	0.191	-0.163
-253.092	-200.000	0.048	-0.233
-252.078	96.887	0.170	-0.193
-251.063	-200.000	0.013	-0.256
-250.049	-116.097	0.321	-0.059
-249.034	139.710	0.220	0.286
-248.019	80.778	0.290	0.309
-247.005	-109.620	0.162	-0.034
-245.990	-200.000	0.021	0.226
-244.976	212.464	0.049	0.077
-243.961	-16.000	-0.366	0.230
-242.946	-88.407	0.066	0.020
-241.932	2.842	0.104	0.075
-240.917	-27.574	-0.163	-0.094
-239.903	33.642	-0.253	-0.217
-238.888	438.001	0.044	-0.096
-237.873	800.000	0.019	0.071
-236.859	110.599	-0.213	0.253
-235.844	-200.000	0.030	0.369
-234.830	800.000	-0.080	-0.218
-233.815	800.000	-0.050	0.154
-232.800	800.000	0.077	0.210
-231.786	-61.544	-0.105	0.043
-230.771	-52.310	-0.160	0.073
-229.757	800.000	-0.084	-0.273
-228.742	-139.687	0.286	0.030
-227.727	28.337	0.148	-0.123
-226.713	627.844	0.040	-0.101
-225.698	-79.962	0.427	-0.142
-224.684	-4.489	-0.319	0.218
-223.669	-7.154	0.373	0.250
-222.655	252.647	0.119	0.200
-221.640	-89.693	0.102	-0.029
-220.625	-200.000	-0.007	-0.286
-219.611	25.527	0.086	-0.071
-218.596	-200.000	0.014	0.192
-217.582	494.555	-0.049	-0.111
-216.567	305.683	0.061	-0.112
-215.552	35.137	-0.211	0.182
-214.538	79.707	0.149	-0.158
-213.523	644.882	0.016	0.040
-212.509	-46.222	0.129	0.063
-211.494	-24.698	0.223	0.131
-210.479	-110.119	-0.242	0.050
-209.465	226.707	0.138	0.221
-208.450	-152.594	-0.129	0.009
-207.436	800.000	-0.029	0.108
-206.421	332.830	0.027	-0.051
-205.406	-200.000	-0.015	0.143
-204.392	-200.000	-0.011	0.279
-203.377	-21.683	-0.088	-0.053
-202.363	68.760	0.117	-0.118
-201.348	327.696	-0.123	0.232
-200.333	85.890	-0.073	-0.079
-199.319	800.000	-0.079	-0.304
-198.304	800.000	0.041	0.123
-197.290	-10.584	-0.053	0.035
-196.275	-20.180	0.057	0.035
-195.260	241.231	-0.171	0.281
-194.246	541.948	-0.071	0.167
-193.231	48.135	-0.223	0.206
-192.217	151.632	0.163	-0.218
-191.202	85.887	-0.218	0.236
-190.187	-2.740	0.244	0.168
-189.173	-142.445	0.329	-0.032
-188.158	-25.217	-0.425	-0.248
-187.144	96.804	-0.072	-0.082
-186.129	-72.599	0.256	0.093
-185.114	-200.000	-0.005	-0.166
-184.100	-91.148	-0.060	0.017
-183.085	-118.035	0.107	0.019
-182.071	274.718	0.066	-0.115
-181.056	-59.126	0.207	-0.088
-180.042	800.000	-0.047	0.136
-179.027	60.381	0.224	0.219
-178.012	-200.000	0.036	-0.181
-176.998	110.149	-0.072	0.085
-175.983	669.800	0.096	-0.244
-174.969	258.885	0.146	-0.248
-173.954	78.805	-0.104	0.110
-172.939	800.000	0.104	-0.295
-171.925	800.000	-0.012	0.033
-170.910	-200.000	-0.024	0.391
-169.896	-24.396	0.402	0.236
-168.881	-200.000	0.001	0.274
-167.866	135.652	-0.202	0.259
-166.852	-200.000	0.013	0.137
-165.837	-200.000	0.059	-0.429
-164.823	-200.000	0.013	0.160
-163.808	-84.045	-0.215	-0.067
-162.793	-47.944	-0.143	0.068
-161.779	60.793	0.171	-0.166
-160.764	-96.958	-0.169	-0.043
-159.750	-123.726	0.222	0.035
-158.735	174.923	0.115	0.163
-157.720	-33.765	0.215	0.117
-156.706	777.801	0.200	-0.537
-155.691	-75.288	0.129	-0.045
-154.677	35.073	-0.142	0.122
-153.662	340.825	0.154	0.295
-152.647	-4.470	-0.058	-0.039
-151.633	752.130	-0.086	0.228
-150.618	247.203	0.139	0.231
-149.604	800.000	-0.030	0.116
-148.589	338.394	-0.180	-0.344
-147.574	289.635	0.103	0.184
-146.560	247.316	-0.176	0.292
-145.545	753.213	-0.099	0.262
-144.531	-74.199	-0.164	0.058
-143.516	-20.146	-0.055	0.033
-142.502	30.060	-0.255	-0.214
-141.487	16.529	-0.176	-0.137
-140.472	-84.926	-0.211	0.065
-139.458	27.274	0.124	0.103
-138.443	-42.591	0.292	0.146
-137.429	160.246	-0.107	-0.147
-136.414	211.047	-0.175	0.270
-135.399	-163.665	-0.167	-0.008
-134.385	-67.649	0.229	-0.088
-133.370	143.522	0.115	0.150
-132.356	15.548	-0.285	-0.220
-131.341	-123.212	0.109	0.017
-130.326	68.046	0.148	0.149
-129.312	-51.749	-0.038	0.017
-128.297	-161.778	-0.100	-0.005
-127.283	23.995	0.231	0.188
-126.268	-158.867	0.249	-0.014
-125.253	-54.811	-0.237	0.105
-124.239	-139.409	0.082	0.009
-123.224	197.601	0.111	-0.167
-122.210	-134.130	0.230	0.028
-121.195	-45.201	-0.009	-0.004
