DTS Sentinel unit serial number:	SN413079Multiplexer serial number:	ORYXHardware model number:	OX4-SRSoftware version number:	ORYX F/W v4.00 Oryx Data Collector v3.7.2.0data status	okinstallation	princeton_trtdifferential loss correction	single-endedforward channel	channel 3reverse channel	N/Adate	2019/09/12time	19:08:04forward acquisition time	15.00reverse acquisition time	0.00gamma	496.2192k internal	0.2319k external	0.2319temperature offset calibration	1.0105default loss term (dB/km)	0.3790temperature slope calibration	1.0000multiplexer offset coefficient	1.0000multiplexer slope coefficient	1.0000fibre end	0.00T internal ref (°C)	32.62T ext. ref 1 (°C)	3.18T ext. ref 2 (°C)	27.24length (m)	temperature (°C)	Stokes	anti-Stokes-747.200	179.184	-0.515	0.763
-746.185	-60.514	-0.505	0.217
-745.171	103.368	0.702	0.833
-744.156	61.266	0.305	-0.306
-743.142	330.274	-0.198	-0.385
-742.127	-50.627	-0.366	-0.175
-741.112	-19.170	0.641	0.402
-740.098	-112.811	-0.089	-0.018
-739.083	-200.000	-0.120	-0.644
-738.069	-200.000	0.064	0.357
-737.054	800.000	-0.069	0.218
-736.039	61.563	0.277	0.279
-735.025	-90.651	-0.402	0.117
-734.010	-81.899	0.103	0.034
-732.996	-97.414	-0.067	-0.018
-731.981	37.892	0.429	-0.385
-730.966	-158.665	-0.875	0.051
-729.952	-61.070	0.230	-0.098
-728.937	179.082	-0.278	-0.411
-727.923	20.218	0.323	-0.264
-726.908	-25.642	-0.079	0.047
-725.894	-11.360	-0.293	-0.195
-724.879	-200.000	-0.039	-0.953
-723.864	323.265	-0.095	-0.183
-722.850	-200.000	-0.072	-0.551
-721.835	276.672	0.161	-0.289
-720.821	-200.000	-0.183	0.821
-719.806	210.154	0.309	-0.490
-718.791	284.644	-0.349	-0.635
-717.777	2.377	-0.349	-0.255
-716.762	-186.640	-0.552	0.008
-715.748	-131.631	0.292	-0.039
-714.733	152.646	0.205	0.282
-713.718	45.873	0.948	0.886
-712.704	-200.000	-0.042	-0.392
-711.689	479.719	-0.299	-0.685
-710.675	-200.000	0.089	-0.419
-709.660	-200.000	0.078	-0.590
-708.645	-200.000	-0.058	0.466
-707.631	297.181	-0.343	0.637
-706.616	35.735	-0.319	-0.283
-705.602	-200.000	-0.099	0.488
-704.587	51.998	-0.590	-0.567
-703.572	-4.818	-0.301	0.209
-702.558	75.902	0.760	-0.811
-701.543	6.508	0.135	0.101
-700.529	-3.216	0.341	-0.240
-699.514	-23.968	0.559	0.338
-698.499	133.198	0.248	0.323
-697.485	-200.000	-0.115	0.749
-696.470	-170.957	-0.226	0.008
-695.456	-159.507	-0.356	0.020
-694.441	135.516	-0.706	-0.927
-693.426	32.210	0.193	0.168
-692.412	-108.274	-0.570	0.124
-691.397	200.134	-0.202	-0.314
-690.383	-189.048	-0.966	0.012
-689.368	-200.000	-0.061	0.282
-688.354	146.200	0.116	-0.158
-687.339	-189.764	-0.840	0.010
-686.324	21.204	-0.578	-0.474
-685.310	-14.696	0.451	0.292
-684.295	-35.703	0.558	-0.305
-683.281	-70.749	0.267	0.102
-682.266	-147.798	0.326	0.028
-681.251	528.796	0.253	0.602
-680.237	-200.000	0.009	-0.737
-679.222	294.006	0.333	-0.614
-678.208	-126.794	0.394	0.059
-677.193	800.000	-0.416	-1.238
-676.178	-200.000	-0.046	-0.491
-675.164	-97.735	-0.687	0.179
-674.149	-200.000	-0.029	0.998
-673.135	800.000	-0.188	0.582
-672.120	375.944	-0.396	-0.815
-671.105	-45.980	0.087	0.043
-670.091	104.327	-0.651	-0.773
-669.076	212.633	-0.344	-0.548
-668.062	-10.454	-0.467	-0.312
-667.047	-79.512	0.703	0.239
-666.032	467.423	0.098	0.222
-665.018	-112.260	-0.607	-0.123
-664.003	-6.916	-0.568	0.389
-662.989	-168.178	0.161	0.006
-661.974	263.969	-0.273	-0.478
-660.959	216.658	-0.026	0.042
-659.945	267.040	0.123	0.216
-658.930	-182.689	0.871	0.016
-657.916	224.309	-0.156	0.255
-656.901	51.245	-0.344	0.329
-655.886	-109.835	-0.738	0.156
-654.872	46.675	0.263	0.246
-653.857	-59.832	0.401	-0.173
-652.843	-200.000	-0.124	-1.085
-651.828	560.978	-0.351	-0.855
-650.814	800.000	-0.068	-0.296
-649.799	-152.253	-0.970	0.071
-648.784	-40.066	0.808	0.425
-647.770	800.000	-0.157	0.582
-646.755	-39.084	0.753	-0.399
-645.741	19.564	-0.086	0.070
-644.726	38.693	-0.192	0.173
-643.711	430.649	-0.408	0.891
-642.697	76.453	-0.171	-0.183
-641.682	-110.305	-0.737	0.154
-640.668	307.700	-0.384	-0.722
-639.653	617.610	0.261	0.661
-638.638	-135.325	-1.126	0.136
-637.624	-85.799	0.397	0.124
-636.609	-52.077	0.348	-0.163
-635.595	6.770	-0.099	-0.074
-634.580	800.000	-0.187	-0.641
-633.565	-200.000	0.007	0.383
-632.551	-53.591	-0.964	0.444
-631.536	-200.000	-0.134	-0.686
-630.522	-47.788	0.600	-0.293
-629.507	800.000	-0.092	-0.351
-628.492	160.860	0.385	-0.542
-627.478	278.680	-0.247	-0.443
-626.463	-50.107	-0.320	-0.153
-625.449	-8.310	-0.229	-0.155
-624.434	-200.000	-0.106	-0.920
-623.419	-123.300	0.975	-0.157
-622.405	-58.265	-0.219	-0.096
-621.390	441.199	-0.113	-0.249
-620.376	-53.995	0.229	0.105
-619.361	-118.099	0.974	0.175
-618.346	8.688	-0.606	-0.460
-617.332	146.579	-0.410	-0.554
-616.317	-200.000	-0.036	0.886
-615.303	-130.867	0.343	-0.046
-614.288	110.823	0.225	0.273
-613.273	-168.273	-0.236	-0.009
-612.259	287.865	-0.115	0.210
-611.244	-200.000	0.050	0.500
-610.230	421.520	0.151	-0.325
-609.215	413.024	0.097	-0.208
-608.201	-2.848	-0.775	0.545
-607.186	800.000	-0.181	-0.504
-606.171	239.701	-0.212	0.355
-605.157	87.417	0.312	0.347
-604.142	-4.801	0.187	-0.130
-603.128	403.592	0.357	-0.756
-602.113	563.849	0.128	0.311
-601.098	2.826	-0.774	-0.565
-600.084	-57.248	0.335	-0.148
-599.069	69.782	0.593	-0.615
-598.055	291.257	-0.323	0.590
-597.040	59.302	0.266	-0.263
-596.025	1.505	0.468	0.338
-595.011	-165.534	0.256	-0.011
-593.996	-200.000	-0.006	-0.867
-592.982	105.122	-0.584	-0.693
-591.967	48.589	0.586	0.552
-590.952	-21.086	0.160	0.098
-589.938	800.000	0.120	0.342
-588.923	116.506	0.350	0.431
-587.909	-116.073	-0.304	-0.057
-586.894	59.677	0.225	-0.223
-585.879	103.314	0.510	0.601
-584.865	87.435	-0.556	-0.618
-583.850	800.000	-0.094	-0.296
-582.836	527.328	-0.295	0.699
-581.821	52.719	-0.113	0.108
-580.806	-43.078	0.174	-0.089
-579.792	19.650	0.117	-0.095
-578.777	800.000	0.125	0.400
-577.763	-122.351	0.593	0.097
-576.748	-6.982	0.826	-0.564
-575.733	-28.552	-0.789	0.457
-574.719	-43.416	0.255	0.129
-573.704	-70.444	0.280	0.107
-572.690	-129.969	0.641	-0.088
-571.675	-36.551	0.462	-0.250
-570.661	756.521	0.201	-0.546
-569.646	285.617	-0.105	0.190
-568.631	-89.958	-0.959	0.281
-567.617	17.322	-0.549	0.438
-566.602	300.750	0.306	-0.566
-565.588	-0.024	0.027	-0.019
-564.573	-118.237	-0.746	0.133
-563.558	800.000	0.143	0.591
-562.544	-19.164	0.392	-0.244
-561.529	168.327	-0.060	0.086
-560.515	70.471	-0.550	0.571
-559.500	42.040	-0.184	-0.167
-558.485	-177.010	-0.103	0.003
-557.471	542.387	-0.213	0.509
-556.456	800.000	0.191	-0.611
-555.442	-119.633	-0.664	-0.115
-554.427	800.000	0.132	0.520
-553.412	26.194	-0.472	-0.395
-552.398	12.945	-0.616	-0.478
-551.383	301.468	-0.321	-0.596
-550.369	-69.926	-0.641	0.245
-549.354	207.582	0.391	0.612
-548.339	113.154	-0.172	-0.209
-547.325	43.377	-0.529	0.485
-546.310	-15.655	-0.112	0.071
-545.296	-45.385	0.381	0.190
-544.281	-148.106	-0.567	-0.047
-543.266	-200.000	0.006	-0.593
-542.252	19.037	0.136	-0.109
-541.237	279.725	-0.219	-0.393
-540.223	-200.000	-0.038	0.250
-539.208	-83.164	-0.117	-0.038
-538.193	405.951	0.199	0.422
-537.179	541.470	0.215	-0.514
-536.164	167.806	-0.099	0.141
-535.150	-200.000	0.053	0.464
-534.135	633.314	-0.024	0.062
-533.121	-200.000	-0.058	-0.342
-532.106	-141.031	-0.602	0.062
-531.091	12.903	0.671	0.520
-530.077	-200.000	-0.456	-0.000
-529.062	252.820	-0.204	-0.349
-528.048	66.222	-0.577	0.588
-527.033	-122.435	0.567	0.093
-526.018	130.748	-0.436	-0.561
-525.004	-117.082	-0.335	0.061
-523.989	522.896	-0.233	-0.550
-522.975	-97.101	-0.802	-0.210
-521.960	-42.283	0.502	0.257
-520.945	800.000	0.063	-0.252
-519.931	16.212	0.184	-0.145
-518.916	-126.190	0.112	0.017
-517.902	368.840	0.180	0.364
-516.887	93.407	0.755	-0.857
-515.872	-50.165	0.374	-0.177
-514.858	-49.681	0.500	-0.238
-513.843	1.345	0.130	-0.093
-512.829	166.504	-0.304	0.431
-511.814	-67.521	-0.141	0.055
-510.799	721.967	0.282	-0.753
-509.785	-38.497	-0.578	-0.306
-508.770	-144.415	0.422	0.039
-507.756	-22.386	0.457	-0.278
-506.741	-3.127	-0.334	-0.233
-505.726	-141.773	0.619	0.062
-504.712	800.000	0.401	-1.200
-503.697	79.743	-0.580	0.624
-502.683	42.382	-0.562	-0.512
-501.668	44.548	-0.089	-0.082
-500.653	450.545	0.464	1.025
-499.639	194.951	-0.181	0.276
-498.624	250.122	0.312	-0.531
-497.610	-200.000	-0.017	-0.084
-496.595	115.845	0.098	0.120
-495.581	20.238	-0.703	-0.569
-494.566	5.426	0.614	-0.454
-493.551	-200.000	-0.031	0.237
-492.537	792.839	-0.288	0.793
-491.522	18.957	0.152	-0.122
-490.508	-12.626	-0.095	-0.062
-489.493	-135.553	0.359	-0.043
-488.478	-167.041	0.602	0.025
-487.464	-79.207	0.113	-0.038
-486.449	-65.853	1.098	0.440
-485.435	234.294	-0.177	0.292
-484.420	-97.601	-0.874	0.227
-483.405	-190.950	0.309	-0.003
-482.391	-200.000	-0.092	-0.514
-481.376	-54.547	-0.740	0.335
-480.362	-200.000	-0.134	-0.828
-479.347	-200.000	0.000	-0.454
-478.332	-59.404	0.988	0.425
-477.318	-200.000	0.002	0.189
-476.303	-121.761	-0.250	0.041
-475.289	800.000	0.230	0.950
-474.274	-75.333	0.939	-0.335
-473.259	47.223	0.443	0.413
-472.245	800.000	-0.050	0.201
-471.230	211.061	0.135	-0.212
-470.216	-40.079	-0.625	-0.326
-469.201	152.034	0.420	0.573
-468.186	-108.517	0.233	-0.050
-467.172	-132.746	1.000	-0.128
-466.157	-2.052	0.698	0.491
-465.143	800.000	0.170	-0.722
-464.128	104.065	-0.236	-0.278
-463.113	426.958	0.333	0.719
-462.099	207.454	0.454	-0.709
-461.084	21.653	0.967	-0.787
-460.070	20.913	0.638	0.517
-459.055	-39.514	1.036	0.543
-458.040	-40.178	0.164	0.086
-457.026	-200.000	-0.125	1.046
-456.011	800.000	0.195	0.800
-454.997	-200.000	-0.096	0.643
-453.982	412.909	-0.147	-0.312
-452.968	401.259	0.418	-0.878
-451.953	361.888	-0.322	-0.645
-450.938	-93.462	0.758	-0.210
-449.924	428.435	0.378	0.817
-448.909	104.753	0.514	0.606
-447.895	70.635	-0.261	-0.270
-446.880	-57.746	0.309	-0.135
-445.865	-200.000	-0.020	-0.465
-444.851	800.000	-0.146	-0.407
-443.836	-49.556	-0.389	-0.185
-442.822	-7.140	0.703	-0.477
-441.807	-97.239	0.273	0.071
-440.792	-200.000	-0.069	0.493
-439.778	-9.252	-0.600	0.401
-438.763	73.626	0.300	-0.314
-437.749	-103.462	-0.523	-0.123
-436.734	-200.000	-0.025	0.467
-435.719	140.260	-0.144	-0.190
-434.705	800.000	-0.103	-0.297
-433.690	-177.328	1.005	-0.025
-432.676	142.016	0.137	-0.182
-431.661	-7.852	-0.207	-0.139
-430.646	-121.760	0.125	-0.021
-429.632	47.567	-0.536	-0.500
-428.617	-200.000	-0.033	-0.270
-427.603	-155.512	0.228	0.015
-426.588	-80.029	-0.359	0.120
-425.573	800.000	0.201	-0.591
-424.559	-95.164	-0.551	-0.148
-423.544	-200.000	-0.020	0.241
-422.530	-200.000	-0.027	-0.534
-421.515	800.000	-0.282	-0.802
-420.500	-21.820	0.081	-0.049
-419.486	339.978	0.089	0.174
-418.471	116.157	0.201	-0.246
-417.457	-93.091	0.687	-0.191
-416.442	95.555	0.436	-0.496
-415.428	-200.000	0.059	-0.273
-414.413	67.113	-0.310	-0.316
-413.398	-128.215	0.370	0.053
-412.384	157.968	-0.301	0.416
-411.369	-84.425	-0.383	-0.121
-410.355	179.829	-0.395	-0.577
-409.340	287.188	0.075	0.135
-408.325	-200.000	-0.045	0.260
-407.311	-46.020	0.345	-0.170
-406.296	114.756	0.960	-1.168
-405.282	184.908	0.097	-0.144
-404.267	238.086	0.060	-0.099
-403.252	-200.000	0.071	0.440
-402.238	93.460	-0.221	0.250
-401.223	9.706	0.143	0.108
-400.209	-200.000	-0.062	0.463
-399.194	55.593	0.443	-0.429
-398.179	800.000	-0.279	0.830
-397.165	473.902	0.287	0.645
-396.150	-200.000	-0.138	0.744
-395.136	-69.604	0.213	-0.081
-394.121	-100.479	-1.180	0.291
-393.106	-63.329	-0.464	0.190
-392.092	256.813	0.149	0.255
-391.077	91.869	0.207	0.232
-390.063	795.616	0.429	-1.178
-389.048	-200.000	-0.034	0.624
-388.033	390.118	-0.157	0.325
-387.019	-74.232	0.103	0.037
-386.004	68.404	0.318	0.325
-384.990	-104.733	0.296	-0.068
-383.975	800.000	-0.180	-0.756
-382.960	64.308	-0.638	-0.640
-381.946	-170.209	-0.595	-0.021
-380.931	-37.923	0.237	-0.126
-379.917	800.000	0.211	-0.634
-378.902	390.373	-0.246	-0.509
-377.888	-101.854	0.273	-0.066
-376.873	692.910	-0.429	1.121
-375.858	-6.305	0.745	0.507
-374.844	22.714	-0.734	-0.599
-373.829	161.488	-0.310	-0.433
-372.815	29.982	-0.718	-0.610
-371.800	-200.000	-0.018	-0.750
-370.785	-44.640	0.676	0.337
-369.771	-131.140	-0.584	0.077
-368.756	32.574	0.555	-0.478
-367.742	1.731	-0.716	0.514
-366.727	-135.678	0.388	-0.046
-365.712	-111.103	-0.179	-0.036
-364.698	-200.000	0.015	0.359
-363.683	-105.435	0.341	0.077
-362.669	-102.025	-0.652	0.157
-361.654	-200.000	0.078	-0.463
-360.639	-85.692	-0.350	-0.108
-359.625	-73.844	0.409	-0.148
-358.610	-153.148	0.291	-0.020
-357.596	116.726	-0.553	0.676
-356.581	650.856	-0.316	-0.806
-355.566	91.418	0.666	0.745
-354.552	369.449	0.376	-0.758
-353.537	51.160	-0.488	-0.462
-352.523	0.687	0.888	0.633
-351.508	-200.000	-0.193	1.197
-350.493	-200.000	-0.056	-1.062
-349.479	82.427	0.462	0.499
-348.464	28.233	0.279	-0.235
-347.450	-200.000	0.092	-0.472
-346.435	-97.695	0.617	0.159
-345.420	553.658	-0.115	0.275
-344.406	16.228	0.402	-0.316
-343.391	-0.152	-0.495	0.351
-342.377	800.000	0.146	0.416
-341.362	270.951	0.293	-0.513
-340.348	43.037	0.067	0.061
-339.333	800.000	0.179	0.709
-338.318	-28.982	0.467	0.267
-337.304	-80.035	-0.787	0.263
-336.289	300.973	-0.535	0.983
-335.275	-200.000	0.069	0.761
-334.260	-167.467	0.535	-0.021
-333.245	107.121	-0.277	-0.328
-332.231	76.611	-0.304	-0.321
-331.216	-200.000	0.005	-0.180
-330.202	800.000	0.042	-0.165
-329.187	481.684	-0.155	-0.349
-328.172	-116.608	-0.543	-0.099
-327.158	-176.645	0.876	-0.022
-326.143	2.541	0.338	-0.244
-325.129	30.112	-0.698	-0.592
-324.114	-100.646	0.531	0.130
-323.099	-200.000	-0.483	0.001
-322.085	-200.000	0.040	0.214
-321.070	-159.906	-0.333	-0.018
-320.056	-200.000	-0.029	-0.150
-319.041	131.873	-0.590	0.755
-318.026	-83.346	-0.632	-0.202
-317.012	4.305	-0.482	-0.352
-315.997	-200.000	0.092	1.262
-314.983	406.110	0.310	0.651
-313.968	-54.492	-0.827	-0.373
-312.953	33.425	0.439	0.379
-311.939	-13.838	0.427	0.274
-310.924	-57.899	-0.343	-0.149
-309.910	251.989	0.456	-0.772
-308.895	800.000	0.175	0.509
-307.880	22.224	-0.193	0.157
-306.866	800.000	-0.206	0.849
-305.851	-167.998	-0.907	-0.035
-304.837	330.282	-0.226	0.432
-303.822	258.147	0.379	0.648
-302.807	385.223	-0.107	0.219
-301.793	-181.190	-0.670	-0.013
-300.778	-85.535	0.414	0.128
-299.764	184.435	0.241	0.354
-298.749	-200.000	0.060	-0.278
-297.735	-77.978	-1.103	-0.378
-296.720	-200.000	-0.014	0.161
-295.705	-19.462	-0.158	0.097
-294.691	-29.772	-0.565	0.320
-293.676	-7.341	-0.648	-0.436
-292.662	-126.771	0.300	-0.044
-291.647	-68.334	-0.663	0.256
-290.632	519.310	-0.122	-0.284
-289.618	37.772	0.649	-0.573
-288.603	152.954	0.580	-0.788
-287.589	800.000	0.154	-0.593
-286.574	800.000	-0.171	0.568
-285.559	70.532	-0.661	0.679
-284.545	52.766	0.363	0.345
-283.530	127.467	0.211	0.266
-282.516	779.506	0.253	0.688
-281.501	800.000	0.108	0.315
-280.486	800.000	0.274	0.981
-279.472	373.306	-0.353	0.714
-278.457	27.664	0.215	0.180
-277.443	-17.442	-0.821	0.513
-276.428	-146.200	0.436	-0.038
-275.413	66.979	0.259	0.262
-274.399	426.367	-0.279	0.596
-273.384	16.700	-0.925	-0.727
-272.370	-1.167	-0.224	-0.158
-271.355	216.886	-0.067	0.106
-270.340	-130.493	-0.507	0.068
-269.326	35.023	-0.541	0.470
-268.311	21.317	-0.340	-0.274
-267.297	-199.779	-0.785	0.004
-266.282	-200.000	0.076	-0.771
-265.267	386.680	-0.053	0.108
-264.253	-149.486	0.150	-0.012
-263.238	-200.000	0.044	-0.313
-262.224	74.906	0.532	-0.556
-261.209	-83.531	0.420	-0.133
-260.195	133.420	-0.355	-0.455
-259.180	-119.975	0.876	-0.149
-258.165	800.000	0.126	0.368
-257.151	800.000	0.035	0.137
-256.136	324.971	-0.190	0.360
-255.122	333.715	0.270	-0.518
-254.107	-42.363	0.452	-0.229
-253.092	-81.939	0.406	0.132
-252.078	-161.968	-0.367	-0.018
-251.063	-145.267	-0.230	-0.021
-250.049	-200.000	0.021	0.198
-249.034	800.000	-0.177	-0.741
-248.019	83.613	-0.770	-0.833
-247.005	-200.000	0.050	0.372
-245.990	20.779	-0.630	0.507
-244.976	-200.000	-0.001	-0.608
-243.961	-200.000	0.015	-0.378
-242.946	-200.000	-0.064	-0.457
-241.932	-146.127	1.055	-0.092
-240.917	-57.848	0.988	0.428
-239.903	-200.000	0.068	-1.169
-238.888	800.000	0.056	0.180
-237.873	83.270	-0.156	-0.169
-236.859	-200.000	-0.066	0.620
-235.844	25.763	-0.269	-0.222
-234.830	-100.061	-0.400	-0.099
-233.815	800.000	0.181	-0.534
-232.800	800.000	-0.213	0.601
-231.786	-200.000	-0.077	-0.803
-230.771	-200.000	-0.019	-0.206
-229.757	91.091	0.278	-0.309
-228.742	-19.813	0.397	-0.243
-227.727	162.787	-0.175	-0.243
-226.713	-177.397	-1.049	-0.026
-225.698	70.163	0.420	-0.430
-224.684	621.922	-0.181	0.451
-223.669	-200.000	0.167	-0.751
-222.655	800.000	0.207	-0.897
-221.640	800.000	0.113	0.388
-220.625	-18.641	-0.516	0.319
-219.611	-51.874	0.197	-0.091
-218.596	-38.812	0.245	0.128
-217.582	170.625	-0.186	-0.264
-216.567	31.669	-0.224	0.191
-215.552	104.533	-0.186	0.217
-214.538	-200.000	-0.025	0.257
-213.523	572.681	0.192	-0.464
-212.509	314.612	-0.135	-0.253
-211.494	-200.000	-0.137	0.846
-210.479	800.000	-0.197	0.718
-209.465	18.873	0.292	-0.232
-208.450	-54.487	0.168	0.076
-207.436	-20.498	0.082	-0.050
-206.421	-200.000	-0.141	-1.001
-205.406	800.000	0.150	-0.600
-204.392	426.323	0.176	0.375
-203.377	121.342	-0.253	0.312
-202.363	800.000	0.091	0.374
-201.348	-107.722	-0.228	0.049
-200.333	514.587	-0.416	0.962
-199.319	-200.000	0.045	0.545
-198.304	-35.935	-0.325	-0.174
-197.290	14.450	-0.047	-0.036
-196.275	90.453	0.320	0.354
-195.260	-200.000	-0.026	-0.627
-194.246	800.000	-0.418	-1.193
-193.231	-20.663	-0.156	0.095
-192.217	-130.499	-0.448	-0.060
-191.202	-97.918	-0.370	-0.095
-190.187	-56.594	-0.615	0.270
-189.173	-136.312	0.556	-0.064
-188.158	-3.824	0.421	0.289
-187.144	238.700	-0.226	0.371
-186.129	139.597	-0.161	0.209
-185.114	-99.859	-0.606	0.150
-184.100	-98.250	0.695	0.177
-183.085	800.000	-0.281	0.998
-182.071	-100.975	-0.418	-0.102
-181.056	-38.686	0.402	-0.210
-180.042	153.433	0.229	0.311
-179.027	697.452	0.405	1.053
-178.012	-97.446	-0.591	-0.152
-176.998	-157.973	-0.577	-0.034
-175.983	-200.000	0.112	0.517
-174.969	751.818	0.358	0.956
-173.954	627.448	-0.192	0.479
-172.939	2.562	0.397	0.285
-171.925	800.000	0.080	-0.311
-170.910	800.000	0.089	0.313
-169.896	-46.573	0.705	0.342
-168.881	-42.099	-0.414	-0.210
-167.866	800.000	-0.025	-0.106
-166.852	98.325	-0.317	-0.361
-165.837	70.514	0.487	0.498
-164.823	-20.547	-0.505	-0.307
-163.808	-88.251	1.058	0.313
-162.793	-57.660	-0.239	-0.103
-161.779	130.963	-0.330	-0.419
-160.764	35.225	0.453	0.393
-159.750	64.090	0.215	-0.214
-158.735	-53.280	0.847	0.384
-157.720	800.000	-0.230	0.824
-156.706	-110.807	0.541	0.110
-155.691	800.000	-0.066	0.248
-154.677	345.129	-0.268	-0.520
-153.662	118.929	-0.462	0.564
-152.647	-200.000	0.056	-0.927
-151.633	800.000	-0.018	-0.054
-150.618	691.699	-0.159	-0.412
-149.604	-200.000	0.026	-0.410
-148.589	800.000	0.208	-0.590
-147.574	-51.672	-0.515	0.237
-146.560	27.287	0.199	-0.165
-145.545	-79.546	-0.569	-0.190
-144.531	-33.493	0.996	-0.544
-143.516	-67.264	-1.138	-0.442
-142.502	-67.418	0.166	0.064
-141.487	137.415	-0.423	-0.546
-140.472	724.270	0.256	-0.673
-139.458	156.935	0.231	0.315
-138.443	393.920	0.139	-0.285
-137.429	-65.560	0.720	0.285
-136.414	-200.000	-0.069	-0.753
-135.399	-132.778	0.554	-0.070
-134.385	-139.651	0.567	0.060
-133.370	438.401	-0.184	0.397
-132.356	161.466	-0.362	0.500
-131.341	354.163	0.331	-0.649
-130.326	-118.818	-0.545	0.095
-129.312	-200.000	-0.026	0.389
-128.297	-200.000	0.030	0.356
-127.283	769.469	0.240	0.646
-126.268	-200.000	-0.002	-0.086
-125.253	-28.252	0.213	0.122
-124.239	-188.125	-0.775	0.010
-123.224	302.077	0.363	-0.662
-122.210	-117.619	-0.719	-0.128
-121.195	23.246	-0.136	-0.110
