DTS Sentinel unit serial number:	SN413079Multiplexer serial number:	ORYXHardware model number:	OX4-SRSoftware version number:	ORYX F/W v4.00 Oryx Data Collector v3.7.2.0data status	okinstallation	princeton_trtdifferential loss correction	single-endedforward channel	channel 3reverse channel	N/Adate	2019/09/13time	23:36:35forward acquisition time	60.00reverse acquisition time	0.00gamma	496.2192k internal	0.2340k external	0.2340temperature offset calibration	1.0061default loss term (dB/km)	0.3790temperature slope calibration	1.0000multiplexer offset coefficient	1.0000multiplexer slope coefficient	1.0000fibre end	0.00T internal ref (°C)	26.75T ext. ref 1 (°C)	3.17T ext. ref 2 (°C)	21.03length (m)	temperature (°C)	Stokes	anti-Stokes-747.200	-200.000	0.072	0.584
-746.185	259.121	0.051	0.089
-745.171	800.000	-0.034	-0.104
-744.156	-9.260	-0.373	0.250
-743.142	-38.336	-0.286	0.152
-742.127	147.055	-0.099	0.133
-741.112	-200.000	0.007	-0.164
-740.098	800.000	-0.044	0.180
-739.083	115.551	0.100	-0.122
-738.069	82.968	0.136	-0.148
-737.054	800.000	-0.073	0.248
-736.039	-124.274	-0.269	-0.042
-735.025	-200.000	-0.001	0.137
-734.010	84.994	-0.205	0.225
-732.996	5.431	0.206	-0.152
-731.981	-87.551	-0.428	0.130
-730.966	800.000	-0.053	0.169
-729.952	26.839	-0.289	-0.243
-728.937	800.000	0.066	0.287
-727.923	-106.567	-0.443	-0.099
-726.908	-100.210	0.358	-0.089
-725.894	-22.157	-0.148	-0.090
-724.879	-89.974	-0.157	-0.046
-723.864	-200.000	0.024	-0.391
-722.850	105.628	0.226	-0.267
-721.835	800.000	0.095	-0.380
-720.821	-63.382	-0.264	-0.109
-719.806	-122.739	0.265	-0.043
-718.791	-119.858	0.198	-0.034
-717.777	-200.000	0.021	-0.254
-716.762	-125.662	-0.403	-0.061
-715.748	-59.222	-0.149	0.064
-714.733	78.609	0.151	0.162
-713.718	-38.600	0.136	0.072
-712.704	328.177	-0.228	0.439
-711.689	-200.000	-0.008	0.047
-710.675	158.301	-0.105	-0.146
-709.660	-200.000	-0.010	0.312
-708.645	-137.564	0.209	-0.024
-707.631	213.818	-0.086	0.137
-706.616	-21.004	0.179	-0.109
-705.602	-95.584	0.148	0.040
-704.587	23.144	0.181	0.149
-703.572	-156.559	-0.159	-0.010
-702.558	-200.000	0.028	-0.226
-701.543	797.166	-0.138	-0.380
-700.529	29.012	-0.052	-0.044
-699.514	153.487	0.185	0.254
-698.499	39.798	-0.079	-0.071
-697.485	793.246	0.059	-0.163
-696.470	355.942	-0.095	-0.188
-695.456	200.398	0.180	-0.277
-694.441	-200.000	-0.056	-0.320
-693.426	-34.564	-0.389	0.213
-692.412	-200.000	-0.033	-0.195
-691.397	800.000	0.042	0.139
-690.383	800.000	-0.134	-0.493
-689.368	194.329	-0.118	-0.178
-688.354	-5.936	-0.277	-0.189
-687.339	-162.151	0.527	0.026
-686.324	-200.000	0.024	0.138
-685.310	-17.208	0.234	0.147
-684.295	-61.936	-0.060	-0.025
-683.281	97.159	0.181	-0.208
-682.266	-1.637	-0.322	-0.227
-681.251	-53.703	0.212	-0.097
-680.237	-0.344	-0.317	-0.225
-679.222	281.087	-0.089	-0.159
-678.208	-58.242	0.167	-0.073
-677.193	-79.599	0.052	0.018
-676.178	-132.443	-0.212	-0.027
-675.164	114.270	0.193	-0.235
-674.149	-200.000	-0.011	-0.219
-673.135	-100.693	-0.118	0.029
-672.120	34.395	0.046	-0.040
-671.105	800.000	-0.064	-0.260
-670.091	-129.629	-0.114	-0.016
-669.076	47.441	-0.139	-0.130
-668.062	800.000	-0.028	-0.086
-667.047	-133.198	-0.223	-0.028
-666.032	-3.218	0.226	-0.157
-665.018	-2.103	-0.205	-0.144
-664.003	-200.000	-0.054	-0.397
-662.989	-93.573	-0.164	0.045
-661.974	43.955	-0.143	0.131
-660.959	-200.000	0.012	-0.305
-659.945	-200.000	-0.032	0.523
-658.930	-5.494	-0.411	-0.282
-657.916	-200.000	0.030	-0.194
-656.901	229.199	-0.215	0.351
-655.886	-87.250	0.135	0.041
-654.872	-109.769	-0.087	0.018
-653.857	-98.558	-0.174	0.044
-652.843	-15.119	0.220	-0.141
-651.828	85.547	-0.084	-0.092
-650.814	-77.683	-0.274	-0.095
-649.799	800.000	0.059	-0.185
-648.784	72.388	-0.101	-0.105
-647.770	162.336	-0.238	0.333
-646.755	5.222	0.056	0.041
-645.741	-200.000	-0.007	0.154
-644.726	94.548	0.032	0.036
-643.711	-200.000	-0.030	-0.183
-642.697	800.000	-0.077	-0.220
-641.682	203.693	-0.149	0.230
-640.668	315.818	-0.141	0.266
-639.653	503.411	-0.110	0.254
-638.638	-200.000	-0.053	-0.315
-637.624	800.000	-0.028	-0.120
-636.609	47.415	0.144	-0.134
-635.595	-152.044	0.263	-0.019
-634.580	268.419	-0.111	0.194
-633.565	128.440	-0.150	0.191
-632.551	164.362	0.150	0.211
-631.536	-17.030	0.181	0.114
-630.522	447.929	0.060	-0.132
-629.507	504.478	0.071	0.163
-628.492	69.709	0.184	-0.189
-627.478	-40.308	0.159	-0.083
-626.463	-200.000	-0.026	0.189
-625.449	-57.680	0.169	0.074
-624.434	-200.000	-0.001	0.091
-623.419	-30.003	0.091	0.052
-622.405	-33.309	-0.214	0.118
-621.390	-97.369	-0.091	-0.024
-620.376	-22.487	0.063	0.038
-619.361	148.747	-0.056	-0.076
-618.346	-200.000	-0.038	-0.188
-617.332	111.084	-0.096	-0.115
-616.317	-81.687	-0.103	-0.034
-615.303	-89.757	0.163	-0.048
-614.288	-62.303	0.233	-0.097
-613.273	400.076	0.056	0.117
-612.259	-200.000	-0.010	0.155
-611.244	348.828	-0.166	-0.328
-610.230	-96.193	0.212	0.056
-609.215	800.000	0.125	0.451
-608.201	16.255	-0.071	0.056
-607.186	-181.819	0.150	0.003
-606.171	12.143	-0.222	0.170
-605.157	-4.144	0.067	-0.046
-604.142	-31.013	-0.098	0.055
-603.128	-95.770	-0.201	0.053
-602.113	114.416	-0.189	-0.230
-601.098	-97.199	-0.219	-0.057
-600.084	59.666	-0.059	0.058
-599.069	-17.097	0.190	0.120
-598.055	-65.844	-0.165	-0.066
-597.040	-113.190	0.081	-0.016
-596.025	390.168	0.093	-0.192
-595.011	800.000	-0.036	-0.101
-593.996	-61.271	0.502	0.211
-592.982	-46.832	0.232	-0.113
-591.967	-117.245	-0.207	-0.038
-590.952	800.000	-0.061	0.247
-589.938	-200.000	0.001	0.157
-588.923	-97.997	0.171	0.044
-587.909	-200.000	0.016	-0.117
-586.894	-72.179	-0.096	-0.035
-585.879	-74.652	-0.163	-0.058
-584.865	-86.547	-0.121	0.037
-583.850	-23.832	-0.100	-0.059
-582.836	-44.824	0.229	0.114
-581.821	-91.504	-0.168	0.048
-580.806	629.487	-0.070	0.176
-579.792	800.000	-0.094	0.313
-578.777	570.756	-0.104	-0.253
-577.763	800.000	-0.032	-0.125
-576.748	220.672	0.206	-0.329
-575.733	-96.474	0.192	-0.050
-574.719	-67.024	-0.179	-0.070
-573.704	800.000	-0.061	-0.260
-572.690	-27.645	0.181	0.104
-571.675	209.840	-0.071	0.111
-570.661	-56.289	0.119	0.053
-569.646	-69.009	0.098	0.038
-568.631	73.361	-0.071	-0.074
-567.617	-132.560	0.419	-0.054
-566.602	800.000	0.036	-0.121
-565.588	-200.000	-0.013	0.064
-564.573	128.206	0.032	0.040
-563.558	-200.000	-0.001	0.049
-562.544	4.132	-0.207	-0.151
-561.529	-62.634	0.110	-0.045
-560.515	45.003	-0.143	-0.131
-559.500	800.000	-0.008	-0.027
-558.485	399.233	-0.078	0.163
-557.471	-95.781	0.210	-0.056
-556.456	253.084	0.104	-0.177
-555.442	122.881	0.055	-0.069
-554.427	-200.000	-0.015	0.115
-553.412	-200.000	-0.033	-0.292
-552.398	-200.000	-0.009	0.215
-551.383	-200.000	0.002	0.101
-550.369	-33.449	-0.082	-0.045
-549.354	-126.779	0.322	0.047
-548.339	800.000	-0.102	0.396
-547.325	-6.948	0.249	-0.169
-546.310	-76.796	0.022	0.008
-545.296	20.788	0.166	-0.133
-544.281	46.885	-0.235	-0.217
-543.266	-124.073	0.221	0.034
-542.252	30.893	-0.279	0.238
-541.237	-200.000	0.057	0.258
-540.223	152.002	0.131	-0.178
-539.208	-200.000	-0.005	-0.313
-538.193	-127.378	0.179	0.026
-537.179	627.995	-0.011	0.027
-536.164	-200.000	0.171	0.000
-535.150	583.717	0.056	-0.137
-534.135	-67.375	-0.180	0.070
-533.121	-200.000	-0.050	-0.253
-532.106	214.766	-0.097	-0.153
-531.091	-33.247	-0.184	-0.101
-530.077	430.924	-0.016	0.035
-529.062	-51.190	-0.357	0.166
-528.048	-19.200	-0.155	-0.096
-527.033	68.107	0.038	-0.038
-526.018	104.513	0.119	-0.140
-525.004	-200.000	-0.005	0.160
-523.989	47.965	-0.173	-0.161
-522.975	-23.449	-0.343	-0.205
-521.960	-200.000	0.032	0.288
-520.945	-151.257	0.293	-0.022
-519.931	-44.637	0.440	0.218
-518.916	-48.169	0.338	0.162
-517.902	-200.000	0.017	0.260
-516.887	216.445	0.133	-0.210
-515.872	-180.506	0.186	-0.004
-514.858	-54.220	-0.228	0.103
-513.843	-52.008	0.182	0.084
-512.829	618.721	0.129	0.323
-511.814	-200.000	0.010	-0.117
-510.799	-115.490	0.049	-0.009
-509.785	124.314	0.202	0.252
-508.770	136.732	-0.047	-0.062
-507.756	62.446	-0.077	-0.076
-506.741	-34.699	0.186	0.101
-505.726	65.217	0.220	-0.221
-504.712	-200.000	-0.586	0.000
-503.697	470.502	0.193	-0.431
-502.683	-61.509	-0.111	-0.046
-501.668	366.224	0.109	-0.217
-500.653	-71.713	-0.187	-0.069
-499.639	15.849	-0.229	-0.179
-498.624	50.864	0.018	0.017
-497.610	113.268	0.065	0.079
-496.595	-88.623	-0.217	0.064
-495.581	489.293	-0.078	0.177
-494.566	-51.697	0.064	0.029
-493.551	-200.000	0.107	-0.610
-492.537	800.000	-0.027	0.107
-491.522	97.368	0.196	-0.223
-490.508	-107.694	-0.050	-0.011
-489.493	-144.860	0.103	0.009
-488.478	419.653	-0.075	-0.160
-487.464	-200.000	-0.022	-0.216
-486.449	-200.000	0.002	-0.061
-485.435	800.000	0.095	-0.388
-484.420	800.000	-0.094	-0.346
-483.405	-200.000	0.065	-0.284
-482.391	-200.000	0.003	0.264
-481.376	-7.966	-0.140	-0.094
-480.362	-95.257	-0.169	-0.045
-479.347	-63.784	0.124	-0.050
-478.332	-25.894	0.253	0.148
-477.318	111.622	0.223	-0.267
-476.303	-200.000	-0.024	-0.228
-475.289	738.956	0.081	-0.215
-474.274	-10.676	-0.140	-0.092
-473.259	15.138	-0.178	-0.138
-472.245	-65.933	0.037	0.015
-471.230	-7.968	0.247	0.165
-470.216	266.919	0.166	0.287
-469.201	-200.000	0.019	0.130
-468.186	-117.117	-0.230	0.042
-467.172	-200.000	0.001	0.040
-466.157	-116.021	0.055	-0.010
-465.143	72.569	0.310	0.321
-464.128	800.000	-0.014	-0.047
-463.113	-24.242	-0.334	0.198
-462.099	92.802	0.139	-0.156
-461.084	-200.000	0.008	-0.100
-460.070	-40.722	0.190	-0.097
-459.055	-109.887	0.303	0.063
-458.040	-200.000	0.003	-0.186
-457.026	83.856	0.152	0.164
-456.011	330.810	-0.186	0.355
-454.997	800.000	-0.080	-0.261
-453.982	-104.633	0.307	-0.070
-452.968	4.040	0.044	-0.032
-451.953	188.853	0.116	-0.172
-450.938	31.927	-0.298	0.255
-449.924	688.229	-0.062	-0.161
-448.909	-97.081	0.239	0.062
-447.895	-153.351	0.237	0.016
-446.880	-29.126	-0.082	-0.047
-445.865	-107.142	-0.309	-0.068
-444.851	12.652	0.077	0.059
-443.836	234.368	0.025	0.041
-442.822	-21.205	-0.284	-0.172
-441.807	-161.573	-0.412	0.021
-440.792	-61.954	0.183	0.076
-439.778	-142.450	-0.154	0.015
-438.763	-113.045	0.054	-0.011
-437.749	-93.763	-0.335	0.091
-436.734	800.000	0.017	-0.068
-435.719	278.443	-0.181	0.320
-434.705	303.278	0.095	0.174
-433.690	-100.828	0.161	-0.039
-432.676	-175.357	0.193	0.005
-431.661	359.772	-0.082	0.163
-430.646	-121.521	0.129	-0.021
-429.632	38.193	-0.165	-0.146
-428.617	-46.193	-0.390	0.190
-427.603	-124.173	-0.063	0.010
-426.588	32.039	0.217	0.185
-425.573	-150.966	-0.272	-0.020
-424.559	342.564	-0.096	0.186
-423.544	133.146	-0.167	0.213
-422.530	-4.909	0.036	-0.025
-421.515	-200.000	-0.013	0.062
-420.500	211.575	0.059	-0.092
-419.486	-94.739	-0.251	0.068
-418.471	-112.314	-0.285	0.057
-417.457	221.107	0.108	-0.171
-416.442	134.009	0.019	-0.024
-415.428	-36.853	-0.159	-0.085
-414.413	32.230	0.131	0.112
-413.398	800.000	0.092	-0.261
-412.384	-178.045	-0.124	-0.003
-411.369	18.539	0.348	0.275
-410.355	-200.000	0.029	0.163
-409.340	85.964	0.090	0.098
-408.325	151.576	-0.149	0.200
-407.311	-154.500	-0.188	-0.012
-406.296	-99.950	-0.303	-0.075
-405.282	-200.000	0.016	0.110
-404.267	-144.565	-0.150	0.014
-403.252	12.627	-0.151	0.115
-402.238	-133.838	-0.278	0.034
-401.223	-135.594	-0.149	-0.017
-400.209	81.908	0.075	-0.081
-399.194	164.409	0.064	0.090
-398.179	-200.000	-0.026	0.225
-397.165	63.267	0.132	-0.131
-396.150	-123.099	-0.204	-0.032
-395.136	182.595	-0.081	0.118
-394.121	15.482	0.117	-0.091
-393.106	-44.857	-0.088	0.043
-392.092	136.742	0.142	0.184
-391.077	-27.016	0.215	0.124
-390.063	-200.000	0.022	-0.164
-389.048	-200.000	0.071	-0.435
-388.033	-200.000	0.012	-0.242
-387.019	400.135	-0.118	-0.245
-386.004	-130.261	-0.206	-0.028
-384.990	-56.764	-0.122	-0.053
-383.975	800.000	-0.095	0.355
-382.960	-200.000	-0.001	0.071
-381.946	-200.000	0.002	-0.053
-380.931	-113.611	-0.232	0.045
-379.917	676.739	0.023	0.058
-378.902	-200.000	0.011	0.265
-377.888	-10.541	0.137	-0.090
-376.873	63.105	0.232	-0.230
-375.858	164.453	0.108	-0.150
-374.844	34.961	-0.276	0.239
-373.829	204.020	-0.090	-0.138
-372.815	-200.000	-0.007	-0.170
-371.800	-171.779	0.075	0.002
-370.785	-61.289	-0.146	0.061
-369.771	9.292	-0.270	-0.201
-368.756	-200.000	-0.003	-0.199
-367.742	228.037	0.223	-0.358
-366.727	-200.000	0.056	0.281
-365.712	-127.748	-0.345	0.049
-364.698	27.387	0.159	-0.132
-363.683	389.624	-0.164	-0.336
-362.669	544.071	0.121	-0.285
-361.654	93.805	0.184	-0.206
-360.639	-170.542	0.113	0.004
-359.625	43.340	0.103	-0.093
-358.610	41.492	0.164	0.147
-357.596	-200.000	-0.027	0.238
-356.581	800.000	0.028	0.090
-355.566	-191.130	0.106	0.001
-354.552	41.722	0.181	0.162
-353.537	-122.299	0.079	-0.013
-352.523	-143.930	-0.122	0.011
-351.508	800.000	0.115	0.466
-350.493	74.545	-0.101	-0.105
-349.479	-200.000	0.033	-0.256
-348.464	413.898	0.083	0.175
-347.450	95.269	-0.135	-0.152
-346.435	-62.821	-0.311	-0.127
-345.420	767.774	0.070	0.187
-344.406	-158.178	-0.286	0.017
-343.391	-115.356	-0.118	-0.022
-342.377	-200.000	0.004	-0.435
-341.362	-179.179	-0.137	0.003
-340.348	-200.000	0.029	-0.166
-339.333	10.111	-0.065	0.049
-338.318	-71.795	0.178	0.066
-337.304	289.127	0.056	-0.099
-336.289	489.911	-0.138	-0.311
-335.275	70.889	-0.283	-0.289
-334.260	-125.884	0.008	-0.001
-333.245	-95.278	0.157	0.042
-332.231	-84.508	-0.288	-0.090
-331.216	-62.790	0.254	0.104
-330.202	800.000	-0.094	0.387
-329.187	167.134	-0.097	-0.137
-328.172	-113.620	0.115	-0.022
-327.158	-200.000	0.059	0.378
-326.143	448.357	-0.117	0.253
-325.129	11.012	0.223	0.168
-324.114	800.000	-0.106	-0.309
-323.099	-55.333	-0.213	-0.095
-322.085	-32.371	0.253	0.139
-321.070	233.013	-0.106	-0.172
-320.056	317.110	0.131	-0.244
-319.041	-200.000	0.014	0.101
-318.026	-34.969	0.069	-0.037
-317.012	1.529	0.132	0.094
-315.997	-44.494	0.316	0.156
-314.983	1.409	-0.157	-0.111
-313.968	800.000	-0.017	0.069
-312.953	-78.523	0.115	0.039
-311.939	-16.377	-0.025	-0.016
-310.924	-93.160	0.343	0.094
-309.910	358.434	0.140	0.275
-308.895	20.625	0.255	0.204
-307.880	346.517	-0.066	0.129
-306.866	15.759	0.323	-0.250
-305.851	161.395	0.094	-0.130
-304.837	153.895	-0.082	-0.110
-303.822	211.728	-0.092	-0.143
-302.807	421.585	-0.030	-0.064
-301.793	-200.000	0.018	-0.260
-300.778	-100.317	-0.313	-0.077
-299.764	-200.000	-0.017	0.094
-298.749	321.295	0.020	-0.037
-297.735	34.399	-0.171	0.147
-296.720	-200.000	0.165	-0.001
-295.705	319.879	0.151	0.282
-294.691	-200.000	0.007	-0.123
-293.676	52.064	-0.184	-0.172
-292.662	-75.158	-0.214	-0.076
-291.647	-200.000	-0.039	0.236
-290.632	-200.000	-0.002	0.201
-289.618	-15.675	0.159	0.100
-288.603	102.234	-0.188	0.216
-287.589	-68.794	0.224	0.085
-286.574	-158.029	0.155	-0.009
-285.559	800.000	0.024	0.070
-284.545	-55.246	-0.124	0.055
-283.530	633.687	0.063	0.157
-282.516	-200.000	0.036	0.262
-281.501	598.987	-0.026	-0.063
-280.486	32.205	-0.184	-0.157
-279.472	800.000	-0.095	0.355
-278.457	126.891	-0.146	0.182
-277.443	-115.021	0.297	-0.056
-276.428	340.036	-0.194	-0.372
-275.413	800.000	-0.119	-0.345
-274.399	-200.000	0.017	0.100
-273.384	-65.297	-0.098	0.039
-272.370	6.808	-0.326	0.239
-271.355	-150.494	0.316	-0.024
-270.340	-200.000	-0.003	-0.110
-269.326	-139.787	-0.347	0.036
-268.311	-103.043	-0.275	-0.064
-267.297	25.054	0.193	0.157
-266.282	-164.792	-0.239	0.011
-265.267	183.332	0.181	0.264
-264.253	1.206	-0.190	0.135
-263.238	-177.314	0.056	0.001
-262.224	534.553	-0.044	0.102
-261.209	130.263	0.157	-0.198
-260.195	-170.189	0.242	-0.008
-259.180	123.747	-0.112	0.138
-258.165	436.055	-0.208	0.445
-257.151	-160.945	0.230	0.012
-256.136	5.088	-0.093	-0.067
-255.122	-74.785	-0.133	-0.047
-254.107	-62.215	0.260	-0.107
-253.092	13.835	-0.434	-0.332
-252.078	-168.628	0.166	-0.006
-251.063	178.032	-0.284	-0.408
-250.049	-4.809	-0.184	-0.125
-249.034	42.644	0.069	-0.062
-248.019	-79.240	-0.122	0.041
-247.005	-62.272	-0.078	-0.032
-245.990	24.833	-0.111	-0.090
-244.976	-84.413	0.329	-0.102
-243.961	800.000	0.076	0.300
-242.946	559.562	0.049	0.117
-241.932	-200.000	-0.015	-0.135
-240.917	156.541	-0.108	-0.146
-239.903	-200.000	-0.012	0.182
-238.888	172.308	0.061	-0.087
-237.873	-92.166	0.348	-0.097
-236.859	-85.537	-0.286	0.088
-235.844	350.485	-0.269	0.522
-234.830	800.000	0.056	0.234
-233.815	-200.000	-0.008	-0.048
-232.800	305.890	0.125	0.229
-231.786	-113.710	-0.189	-0.036
-230.771	-200.000	0.004	0.071
-229.757	-111.682	-0.088	-0.018
-228.742	800.000	0.043	-0.147
-227.727	-83.137	-0.249	-0.079
-226.713	-118.579	-0.083	0.014
-225.698	80.826	0.048	-0.051
-224.684	-59.639	-0.313	-0.132
-223.669	-31.296	-0.143	-0.079
-222.655	-150.949	0.278	0.021
-221.640	129.853	0.103	-0.129
-220.625	-72.542	-0.070	0.026
-219.611	-163.471	0.036	0.002
-218.596	-71.668	-0.274	-0.100
-217.582	8.148	-0.115	0.085
-216.567	-124.184	0.143	0.022
-215.552	48.027	0.146	-0.134
-214.538	65.652	0.185	-0.184
-213.523	51.628	-0.048	0.045
-212.509	-33.512	0.124	0.067
-211.494	-143.807	0.172	-0.016
-210.479	-0.175	0.270	-0.189
-209.465	207.615	-0.099	0.151
-208.450	106.401	0.229	0.267
-207.436	-126.225	-0.244	-0.036
-206.421	183.756	0.281	0.409
-205.406	11.905	-0.230	-0.174
-204.392	96.730	0.129	0.145
-203.377	-200.000	0.008	0.107
-202.363	-29.558	-0.035	0.020
-201.348	174.195	0.034	0.048
-200.333	800.000	-0.058	0.214
-199.319	-76.974	0.156	-0.053
-198.304	51.657	0.216	0.202
-197.290	169.738	0.175	-0.245
-196.275	800.000	-0.084	-0.347
-195.260	-200.000	0.016	0.080
-194.246	103.026	-0.052	0.060
-193.231	24.902	0.160	0.130
-192.217	107.593	-0.142	0.166
-191.202	-3.766	0.313	0.213
-190.187	-66.940	0.202	-0.078
-189.173	-200.000	-0.014	-0.107
-188.158	-75.401	0.156	0.055
-187.144	74.423	0.076	0.079
-186.129	-200.000	0.009	-0.062
-185.114	618.153	0.055	0.135
-184.100	83.112	-0.068	-0.073
-183.085	-200.000	0.025	0.239
-182.071	-69.613	0.098	0.037
-181.056	127.595	0.116	-0.145
-180.042	47.999	-0.051	0.046
-179.027	167.812	-0.018	0.025
-178.012	57.482	-0.207	0.198
-176.998	-58.926	-0.269	-0.114
-175.983	800.000	0.082	-0.258
-174.969	60.316	-0.236	0.229
-173.954	-102.960	0.216	0.050
-172.939	-200.000	-0.047	-0.450
-171.925	800.000	0.023	-0.088
-170.910	-81.225	-0.081	0.026
-169.896	-113.415	0.028	-0.005
-168.881	261.916	-0.115	0.195
-167.866	-173.601	-0.267	-0.008
-166.852	-36.019	0.353	-0.187
-165.837	520.080	0.109	-0.251
-164.823	-82.800	0.166	0.053
-163.808	800.000	0.131	-0.444
-162.793	-130.199	-0.166	0.022
-161.779	-46.334	-0.188	0.090
-160.764	617.635	0.055	-0.134
-159.750	30.390	-0.165	0.138
-158.735	157.809	0.105	-0.143
-157.720	262.726	0.402	0.683
-156.706	800.000	-0.007	-0.030
-155.691	47.958	-0.147	0.134
-154.677	391.193	-0.152	0.308
-153.662	-25.180	0.051	0.030
-152.647	260.781	0.124	-0.209
-151.633	-200.000	0.017	-0.276
-150.618	-18.411	-0.219	0.134
-149.604	800.000	0.036	0.131
-148.589	30.855	-0.144	0.121
-147.574	-200.000	-0.104	0.556
-146.560	-200.000	0.046	0.240
-145.545	-69.049	-0.170	0.064
-144.531	-78.856	-0.141	0.047
-143.516	-200.000	0.043	-0.403
-142.502	-120.560	0.265	0.044
-141.487	-112.828	0.321	0.062
-140.472	468.540	-0.107	0.236
-139.458	-191.407	-0.258	0.003
-138.443	229.919	-0.073	0.117
-137.429	155.022	0.133	-0.179
-136.414	526.446	0.058	0.134
-135.399	-125.047	-0.427	-0.064
-134.385	60.988	0.209	0.203
-133.370	512.677	0.179	-0.409
-132.356	-79.553	-0.512	0.169
-131.341	101.153	-0.146	-0.166
-130.326	88.959	0.113	0.123
-129.312	-58.444	-0.527	-0.224
-128.297	-142.207	0.371	0.036
-127.283	-170.727	-0.078	-0.003
-126.268	-21.889	0.144	-0.085
-125.253	-89.573	0.172	0.049
-124.239	450.935	-0.168	-0.363
-123.224	125.007	0.144	0.177
-122.210	303.144	0.089	0.161
-121.195	800.000	0.056	-0.175
