DTS Sentinel unit serial number:	SN413079Multiplexer serial number:	ORYXHardware model number:	OX4-SRSoftware version number:	ORYX F/W v4.00 Oryx Data Collector v3.7.2.0data status	okinstallation	princeton_trtdifferential loss correction	single-endedforward channel	channel 3reverse channel	N/Adate	2019/09/15time	15:20:34forward acquisition time	60.00reverse acquisition time	0.00gamma	496.2192k internal	0.2292k external	0.2292temperature offset calibration	0.9942default loss term (dB/km)	0.3790temperature slope calibration	1.0000multiplexer offset coefficient	1.0000multiplexer slope coefficient	1.0000fibre end	0.00T internal ref (°C)	40.86T ext. ref 1 (°C)	5.03T ext. ref 2 (°C)	38.28length (m)	temperature (°C)	Stokes	anti-Stokes-747.200	8.371	0.321	-0.247
-746.185	156.836	-0.150	0.213
-745.171	-84.324	-0.198	-0.064
-744.156	92.120	-0.207	0.238
-743.142	-200.000	0.006	-0.114
-742.127	-87.613	0.408	0.126
-741.112	800.000	-0.106	-0.363
-740.098	-200.000	0.005	0.162
-739.083	-34.529	-0.322	0.181
-738.069	-200.000	0.005	-0.045
-737.054	234.970	0.021	-0.036
-736.039	134.711	-0.145	0.192
-735.025	-200.000	0.012	0.121
-734.010	22.922	-0.215	0.181
-732.996	-200.000	-0.014	-0.115
-731.981	800.000	-0.063	0.236
-730.966	-149.271	-0.296	-0.024
-729.952	-102.827	0.143	0.035
-728.937	-200.000	0.008	-0.246
-727.923	93.530	0.048	-0.055
-726.908	-75.937	0.110	0.040
-725.894	-200.000	0.046	0.345
-724.879	-27.689	0.164	0.098
-723.864	-69.682	0.365	0.143
-722.850	424.579	0.079	0.175
-721.835	-18.243	-0.357	-0.228
-720.821	1.588	-0.239	-0.176
-719.806	333.755	-0.186	0.368
-718.791	675.021	0.065	-0.172
-717.777	214.021	-0.012	0.020
-716.762	-89.663	0.198	-0.059
-715.748	-138.390	0.381	-0.043
-714.733	-107.064	-0.153	-0.035
-713.718	-64.118	-0.165	-0.069
-712.704	-89.332	0.282	0.085
-711.689	186.230	0.016	-0.025
-710.675	-27.444	0.249	-0.148
-709.660	121.250	-0.124	-0.158
-708.645	154.609	0.098	-0.138
-707.631	-114.164	0.343	-0.068
-706.616	87.665	-0.045	0.051
-705.602	-200.000	-0.016	0.194
-704.587	25.036	-0.106	-0.090
-703.572	-9.515	0.086	-0.059
-702.558	728.004	0.015	-0.040
-701.543	-200.000	-0.152	0.001
-700.529	344.210	0.028	-0.055
-699.514	800.000	0.084	-0.258
-698.499	-138.871	-0.231	0.026
-697.485	248.434	0.157	-0.271
-696.470	169.048	0.183	-0.267
-695.456	-53.524	0.357	0.167
-694.441	114.824	-0.087	0.108
-693.426	800.000	-0.032	-0.119
-692.412	84.107	-0.100	0.112
-691.397	69.988	0.334	0.352
-690.383	80.939	0.183	0.202
-689.368	-156.744	-0.180	0.011
-688.354	-89.555	0.401	0.120
-687.339	-124.242	-0.182	0.029
-686.324	-88.428	0.141	0.043
-685.310	-11.477	-0.175	0.118
-684.295	254.897	0.331	-0.579
-683.281	800.000	-0.029	-0.095
-682.266	-103.208	-0.038	-0.009
-681.251	12.766	-0.069	0.054
-680.237	99.559	-0.097	0.115
-679.222	-129.230	-0.075	0.011
-678.208	206.512	-0.084	-0.133
-677.193	-18.669	0.219	-0.139
-676.178	-127.541	-0.337	-0.050
-675.164	-200.000	-0.034	0.177
-674.149	-161.079	-0.214	0.011
-673.135	65.105	0.162	0.167
-672.120	472.273	0.127	0.293
-671.105	-61.209	0.060	0.026
-670.091	51.907	0.273	-0.265
-669.076	170.723	-0.073	0.107
-668.062	196.396	0.123	0.191
-667.047	-103.613	0.219	-0.052
-666.032	358.386	-0.082	-0.166
-665.018	800.000	-0.038	-0.135
-664.003	-200.000	-0.001	0.008
-662.989	115.449	0.105	0.131
-661.974	285.191	-0.077	-0.142
-660.959	-1.891	-0.111	-0.080
-659.945	800.000	0.024	0.092
-658.930	-200.000	0.001	-0.095
-657.916	-86.038	-0.044	0.014
-656.901	47.651	0.196	-0.187
-655.886	-104.340	0.394	-0.093
-654.872	-69.653	0.135	-0.053
-653.857	-200.000	-0.054	-0.417
-652.843	28.642	0.282	-0.243
-651.828	-41.743	0.046	0.024
-650.814	223.428	0.050	-0.082
-649.799	29.090	-0.049	0.043
-648.784	-200.000	-0.006	0.162
-647.770	35.639	-0.243	0.218
-646.755	106.218	-0.329	-0.397
-645.741	-13.870	-0.185	-0.122
-644.726	46.905	-0.108	0.102
-643.711	-100.739	-0.269	0.068
-642.697	-200.000	-0.027	-0.167
-641.682	164.535	0.124	-0.178
-640.668	-17.879	0.161	0.103
-639.653	-11.310	-0.367	-0.246
-638.638	4.293	0.249	-0.186
-637.624	-108.954	0.251	-0.055
-636.609	-14.988	0.044	0.028
-635.595	218.108	0.038	0.062
-634.580	-200.000	-0.053	0.248
-633.565	-200.000	-0.042	0.224
-632.551	800.000	0.071	0.273
-631.536	-200.000	-0.041	0.569
-630.522	-200.000	-0.030	-0.169
-629.507	-140.771	0.025	-0.003
-628.492	49.960	-0.076	0.073
-627.478	-175.795	0.213	0.006
-626.463	-36.098	-0.193	0.106
-625.449	-200.000	-0.018	-0.152
-624.434	-26.953	-0.327	0.194
-623.419	143.336	-0.041	0.055
-622.405	-82.233	0.526	-0.174
-621.390	-0.808	-0.254	-0.183
-620.376	13.982	0.181	-0.143
-619.361	464.284	0.038	-0.087
-618.346	-200.000	0.005	-0.186
-617.332	56.234	0.141	-0.140
-616.317	-139.605	-0.411	0.045
-615.303	-131.350	-0.222	0.030
-614.288	-28.828	0.103	-0.060
-613.273	-40.001	-0.237	0.126
-612.259	-95.358	0.281	-0.077
-611.244	231.474	0.061	0.101
-610.230	174.398	0.018	0.026
-609.215	-200.000	0.002	-0.280
-608.201	-34.859	-0.159	-0.088
-607.186	86.853	0.101	0.113
-606.171	-200.000	-0.037	-0.188
-605.157	-200.000	-0.013	0.255
-604.142	1.391	0.109	0.080
-603.128	61.772	-0.356	-0.361
-602.113	-70.804	-0.101	-0.039
-601.098	-114.423	0.304	-0.060
-600.084	800.000	-0.077	-0.309
-599.069	-120.064	0.226	-0.039
-598.055	105.270	-0.141	0.170
-597.040	-200.000	-0.027	0.130
-596.025	800.000	-0.107	0.322
-595.011	-200.000	-0.034	-0.228
-593.996	-14.129	-0.348	-0.229
-592.982	-36.286	0.089	-0.049
-591.967	800.000	-0.070	-0.259
-590.952	-48.599	0.126	-0.062
-589.938	-3.483	-0.100	0.071
-588.923	800.000	-0.035	-0.152
-587.909	800.000	-0.024	0.090
-586.894	-200.000	-0.002	0.203
-585.879	-200.000	-0.008	0.130
-584.865	-102.683	-0.184	-0.045
-583.850	464.141	0.099	-0.225
-582.836	159.935	0.137	-0.194
-581.821	129.376	0.127	0.165
-580.806	87.142	-0.037	-0.041
-579.792	83.210	0.082	-0.090
-578.777	-200.000	0.005	-0.245
-577.763	-90.990	-0.313	0.091
-576.748	-79.275	0.440	-0.152
-575.733	800.000	-0.041	0.145
-574.719	-200.000	-0.038	-0.493
-573.704	-133.869	0.110	0.014
-572.690	-78.183	0.225	0.079
-571.675	229.119	-0.111	-0.184
-570.661	-176.236	0.188	-0.005
-569.646	200.509	-0.134	0.209
-568.631	-200.000	0.036	-0.321
-567.617	98.319	0.153	-0.180
-566.602	-2.119	-0.236	0.168
-565.588	224.614	0.091	0.150
-564.573	-67.744	0.344	-0.137
-563.558	-65.933	0.090	0.037
-562.544	-19.232	-0.123	0.078
-561.529	-47.371	0.317	-0.157
-560.515	-65.213	-0.075	-0.031
-559.500	113.926	-0.057	0.071
-558.485	-75.210	0.300	0.109
-557.471	-200.000	-0.018	-0.184
-556.456	205.770	-0.154	0.243
-555.442	81.709	0.338	-0.372
-554.427	-36.992	0.289	0.158
-553.412	246.718	-0.072	0.124
-552.398	-200.000	0.011	-0.055
-551.383	-152.096	-0.136	0.010
-550.369	-3.247	-0.064	0.046
-549.354	-12.311	-0.062	0.041
-548.339	91.228	-0.146	-0.166
-547.325	189.272	-0.131	0.199
-546.310	276.031	-0.251	-0.453
-545.296	396.216	0.083	0.175
-544.281	22.624	0.286	-0.238
-543.266	-19.718	0.035	-0.022
-542.252	-22.671	0.126	-0.077
-541.237	225.576	-0.085	-0.139
-540.223	-124.011	-0.313	-0.050
-539.208	-55.463	0.234	0.106
-538.193	-72.608	-0.316	0.118
-537.179	598.643	-0.018	0.044
-536.164	-87.898	0.371	0.113
-535.150	-148.145	-0.141	0.012
-534.135	236.582	0.157	-0.264
-533.121	-200.000	-0.025	-0.183
-532.106	-157.673	-0.340	-0.021
-531.091	325.279	0.146	-0.284
-530.077	238.311	-0.059	-0.099
-529.062	30.899	-0.410	-0.356
-528.048	-152.508	-0.193	-0.014
-527.033	-104.088	-0.083	0.020
-526.018	20.493	0.357	-0.293
-525.004	-200.000	-0.005	-0.457
-523.989	800.000	0.059	0.169
-522.975	-32.388	0.284	0.161
-521.960	-200.000	0.005	-0.184
-520.945	-200.000	-0.003	0.296
-519.931	800.000	0.082	-0.317
-518.916	-72.374	0.064	-0.024
-517.902	800.000	0.048	0.136
-516.887	389.608	0.025	0.052
-515.872	434.058	0.124	-0.273
-514.858	127.871	-0.186	-0.240
-513.843	628.309	0.042	0.107
-512.829	-52.044	-0.126	-0.059
-511.814	800.000	0.023	0.087
-510.799	-49.626	-0.060	-0.029
-509.785	-9.011	0.105	-0.072
-508.770	-119.729	0.100	0.017
-507.756	11.866	-0.176	0.137
-506.741	29.275	-0.118	-0.101
-505.726	-200.000	0.008	0.197
-504.712	-45.357	-0.188	0.095
-503.697	-33.619	-0.275	-0.154
-502.683	-200.000	0.002	0.123
-501.668	181.152	0.094	-0.141
-500.653	619.923	0.111	0.282
-499.639	800.000	-0.113	0.383
-498.624	43.004	0.094	-0.087
-497.610	-77.722	0.093	-0.032
-496.595	192.355	-0.070	-0.107
-495.581	324.688	0.074	0.144
-494.566	306.019	0.048	-0.091
-493.551	396.917	0.131	-0.277
-492.537	11.933	0.299	-0.233
-491.522	-200.000	0.106	0.000
-490.508	34.642	0.197	-0.175
-489.493	-3.918	-0.224	0.158
-488.478	-195.245	-0.182	-0.001
-487.464	-200.000	-0.005	-0.196
-486.449	-101.234	-0.249	0.062
-485.435	197.903	0.099	0.153
-484.420	-90.568	0.163	-0.048
-483.405	57.460	-0.139	0.138
-482.391	800.000	0.075	0.311
-481.376	-66.317	0.315	0.127
-480.362	-200.000	-0.003	-0.138
-479.347	66.481	-0.101	0.104
-478.332	-200.000	-0.015	0.468
-477.318	132.881	-0.196	-0.257
-476.303	32.266	-0.098	-0.086
-475.289	215.974	0.095	0.154
-474.274	620.666	0.059	0.150
-473.259	-27.160	-0.189	-0.112
-472.245	138.499	0.173	0.230
-471.230	452.937	0.099	0.222
-470.216	239.976	0.066	0.112
-469.201	-56.554	0.304	0.136
-468.186	-120.029	-0.225	-0.039
-467.172	97.791	0.202	0.236
-466.157	-109.082	0.167	-0.036
-465.143	-103.606	0.186	0.044
-464.128	-49.213	0.177	-0.085
-463.113	333.139	0.160	0.313
-462.099	-62.457	-0.193	-0.081
-461.084	-200.000	-0.007	-0.188
-460.070	-139.806	-0.190	0.020
-459.055	-59.916	-0.110	0.047
-458.040	93.241	0.167	-0.191
-457.026	60.093	0.090	0.090
-456.011	-143.136	0.152	-0.015
-454.997	170.183	-0.187	0.271
-453.982	28.951	-0.374	-0.321
-452.968	429.831	-0.074	0.162
-451.953	62.776	-0.160	0.161
-450.938	-55.731	0.188	-0.085
-449.924	50.096	0.101	0.097
-448.909	-200.000	0.004	-0.193
-447.895	165.385	-0.192	-0.275
-446.880	-200.000	-0.039	0.261
-445.865	421.102	0.046	0.099
-444.851	58.056	0.125	0.124
-443.836	-200.000	0.026	0.304
-442.822	800.000	-0.058	-0.179
-441.807	175.194	-0.268	0.393
-440.792	-200.000	-0.055	-0.000
-439.778	68.443	0.138	0.143
-438.763	42.130	0.020	0.018
-437.749	12.239	0.349	-0.271
-436.734	-66.637	-0.281	-0.113
-435.719	240.546	0.020	0.034
-434.705	-131.876	0.046	0.006
-433.690	-132.989	-0.078	0.010
-432.676	800.000	-0.035	0.138
-431.661	-200.000	0.032	0.238
-430.646	-200.000	0.034	0.324
-429.632	-200.000	0.014	-0.075
-428.617	-78.316	-0.278	0.097
-427.603	25.945	0.236	0.199
-426.588	800.000	-0.031	-0.094
-425.573	-200.000	0.045	0.372
-424.559	-195.775	-0.229	0.002
-423.544	28.601	-0.173	-0.148
-422.530	55.923	-0.157	0.154
-421.515	-200.000	-0.020	-0.197
-420.500	-146.647	0.179	-0.016
-419.486	-74.543	-0.039	-0.014
-418.471	-104.825	-0.204	0.047
-417.457	-200.000	0.077	0.347
-416.442	-200.000	0.008	-0.172
-415.428	-48.923	0.254	0.123
-414.413	-138.927	-0.087	-0.010
-413.398	32.117	0.228	-0.199
-412.384	105.028	-0.094	0.113
-411.369	800.000	-0.036	0.136
-410.355	446.245	0.044	0.099
-409.340	-109.453	0.022	-0.005
-408.325	38.738	0.121	-0.109
-407.311	35.508	-0.131	0.116
-406.296	-200.000	-0.051	-0.293
-405.282	-200.000	0.015	0.321
-404.267	333.226	-0.236	0.460
-403.252	800.000	-0.032	-0.106
-402.238	5.549	0.152	-0.113
-401.223	-200.000	-0.016	0.091
-400.209	-47.261	0.068	-0.033
-399.194	-156.288	-0.214	-0.014
-398.179	697.819	0.061	-0.163
-397.165	-109.208	-0.443	0.095
-396.150	432.186	-0.262	0.574
-395.136	159.355	-0.066	0.092
-394.121	240.641	-0.116	0.196
-393.106	-75.618	-0.236	-0.085
-392.092	725.322	0.190	-0.510
-391.077	-105.350	-0.125	0.029
-390.063	-200.000	0.003	-0.119
-389.048	-200.000	-0.005	0.253
-388.033	92.166	-0.215	0.244
-387.019	-74.001	0.314	0.115
-386.004	800.000	0.034	-0.130
-384.990	112.541	-0.167	-0.204
-383.975	-200.000	0.023	-0.239
-382.960	794.152	-0.064	0.178
-381.946	-63.908	0.289	-0.119
-380.931	147.152	-0.173	-0.235
-379.917	103.799	-0.153	-0.182
-378.902	304.621	-0.106	-0.199
-377.888	62.767	0.061	-0.062
-376.873	-200.000	-0.038	0.301
-375.858	-110.528	0.233	0.049
-374.844	-98.954	-0.035	-0.009
-373.829	800.000	0.022	0.088
-372.815	198.746	-0.086	0.133
-371.800	65.233	0.051	-0.052
-370.785	165.639	-0.192	0.274
-369.771	-55.968	0.143	0.064
-368.756	125.431	0.123	0.157
-367.742	-123.021	0.314	0.051
-366.727	31.427	0.146	0.127
-365.712	274.106	-0.164	0.292
-364.698	-165.656	-0.111	0.005
-363.683	143.296	0.077	0.104
-362.669	137.481	0.149	-0.197
-361.654	-169.293	-0.129	0.005
-360.639	5.616	0.124	-0.092
-359.625	-46.997	-0.228	0.112
-358.610	-15.928	-0.125	0.080
-357.596	-23.136	-0.220	-0.134
-356.581	1.942	0.103	-0.075
-355.566	-9.536	0.236	-0.159
-354.552	-127.154	-0.023	0.003
-353.537	800.000	0.101	0.308
-352.523	-133.987	-0.193	0.024
-351.508	-27.569	0.261	0.153
-350.493	-74.651	0.333	-0.121
-349.479	800.000	0.024	-0.068
-348.464	-200.000	-0.005	0.134
-347.450	-154.741	0.205	0.014
-346.435	-200.000	0.007	0.247
-345.420	-152.877	0.197	-0.014
-344.406	498.808	0.082	-0.190
-343.391	-136.445	-0.044	-0.005
-342.377	-27.634	-0.314	-0.184
-341.362	-98.761	-0.120	-0.031
-340.348	-18.684	0.151	0.095
-339.333	69.871	0.416	0.432
-338.318	203.204	-0.036	-0.056
-337.304	21.577	-0.316	-0.259
-336.289	243.736	0.200	-0.338
-335.275	-200.000	-0.344	-0.001
-334.260	609.868	-0.049	-0.123
-333.245	-127.325	-0.082	-0.012
-332.231	24.695	0.183	-0.153
-331.216	800.000	-0.016	-0.067
-330.202	-200.000	-0.034	0.275
-329.187	720.794	0.041	0.110
-328.172	-200.000	-0.024	-0.136
-327.158	46.743	-0.227	-0.213
-326.143	-200.000	-0.001	-0.074
-325.129	-41.813	0.326	0.168
-324.114	598.351	-0.240	0.600
-323.099	105.749	-0.106	-0.126
-322.085	33.873	-0.235	0.206
-321.070	-123.996	0.184	0.029
-320.056	113.067	-0.046	0.056
-319.041	223.510	-0.052	-0.084
-318.026	60.048	-0.196	0.195
-317.012	301.269	0.126	0.234
-315.997	-10.439	0.319	0.213
-314.983	326.460	-0.018	0.035
-313.968	514.235	-0.196	0.461
-312.953	-200.000	0.014	-0.080
-311.939	-19.293	-0.268	0.167
-310.924	24.229	-0.120	0.100
-309.910	219.533	0.127	-0.205
-308.895	-68.170	0.308	0.121
-307.880	44.136	0.085	-0.078
-306.866	-200.000	0.009	-0.119
-305.851	800.000	0.074	-0.325
-304.837	-31.481	0.115	0.065
-303.822	564.746	-0.087	0.212
-302.807	-122.656	0.086	0.014
-301.793	662.856	0.065	-0.169
-300.778	-129.755	-0.258	-0.036
-299.764	-96.056	-0.240	0.064
-298.749	-200.000	0.015	-0.121
-297.735	-58.378	0.159	-0.070
-296.720	-200.000	-0.013	-0.094
-295.705	-36.934	-0.232	-0.125
-294.691	800.000	-0.017	0.068
-293.676	-133.919	0.291	0.036
-292.662	-200.000	-0.050	-0.240
-291.647	-171.683	-0.106	0.004
-290.632	-32.905	0.346	0.193
-289.618	-38.261	0.222	-0.119
-288.603	-197.278	-0.344	-0.002
-287.589	-200.000	-0.011	0.217
-286.574	6.130	-0.218	-0.162
-285.559	69.398	0.008	-0.009
-284.545	800.000	-0.041	-0.174
-283.530	800.000	0.065	0.222
-282.516	-200.000	0.001	0.215
-281.501	-14.195	0.194	-0.126
-280.486	800.000	-0.042	0.143
-279.472	-87.999	0.260	0.079
-278.457	80.110	-0.090	0.098
-277.443	30.948	0.233	-0.201
-276.428	-65.139	-0.108	0.044
-275.413	1.305	-0.166	0.120
-274.399	231.793	0.186	0.307
-273.384	15.873	0.174	-0.138
-272.370	-200.000	0.036	0.185
-271.355	-15.720	-0.248	0.159
-270.340	80.084	-0.158	-0.171
-269.326	247.106	0.127	-0.215
-268.311	-200.000	0.039	0.384
-267.297	-72.984	0.152	-0.056
-266.282	599.351	-0.033	-0.082
-265.267	9.313	-0.090	-0.068
-264.253	-200.000	-0.176	-0.001
-263.238	66.765	0.206	-0.211
-262.224	-45.559	0.071	0.035
-261.209	-54.738	-0.116	0.053
-260.195	-5.101	0.167	-0.115
-259.180	175.591	0.036	-0.053
-258.165	80.403	0.145	0.156
-257.151	151.971	-0.045	0.061
-256.136	-143.594	0.312	0.030
-255.122	57.772	0.089	0.087
-254.107	-5.082	0.157	-0.109
-253.092	20.084	-0.226	0.183
-252.078	148.133	0.119	-0.161
-251.063	11.477	0.138	0.106
-250.049	-66.948	-0.116	0.046
-249.034	45.054	0.097	-0.089
-248.019	-141.306	-0.367	0.037
-247.005	-50.448	0.026	0.012
-245.990	87.984	-0.061	0.068
-244.976	780.489	-0.052	-0.144
-243.961	800.000	0.008	0.030
-242.946	25.822	-0.138	-0.115
-241.932	46.400	0.105	-0.098
-240.917	170.635	0.360	-0.518
-239.903	411.716	0.087	-0.186
-238.888	597.894	0.026	0.066
-237.873	-200.000	0.052	-0.364
-236.859	-200.000	-0.006	-0.050
-235.844	24.708	-0.161	0.134
-234.830	68.287	0.058	-0.060
-233.815	-66.879	0.241	-0.096
-232.800	-200.000	0.006	-0.046
-231.786	-82.290	-0.321	0.105
-230.771	-84.455	-0.095	-0.030
-229.757	51.669	-0.031	0.030
-228.742	800.000	-0.056	0.181
-227.727	800.000	0.007	0.025
-226.713	-71.913	0.148	0.055
-225.698	-200.000	0.073	0.336
-224.684	-151.615	0.288	0.021
-223.669	-33.753	0.284	0.157
-222.655	-200.000	0.023	-0.150
-221.640	-21.520	-0.162	-0.099
-220.625	-128.925	0.141	0.020
-219.611	169.105	0.117	-0.167
-218.596	112.442	-0.135	-0.164
-217.582	118.532	-0.218	0.270
-216.567	-200.000	0.031	0.194
-215.552	-63.339	0.290	-0.120
-214.538	800.000	-0.097	-0.382
-213.523	2.165	0.150	-0.109
-212.509	-50.058	0.082	-0.039
-211.494	-127.699	-0.213	-0.031
-210.479	-91.856	0.213	0.060
-209.465	-43.369	0.104	0.053
-208.450	-127.611	0.402	-0.058
-207.436	90.405	-0.189	-0.212
-206.421	-151.111	0.074	0.006
-205.406	4.723	-0.097	0.072
-204.392	-200.000	0.024	0.160
-203.377	800.000	0.027	-0.102
-202.363	-184.139	0.092	-0.002
-201.348	35.616	-0.137	0.121
-200.333	36.676	0.121	-0.107
-199.319	-46.799	-0.163	0.080
-198.304	-88.143	0.071	0.021
-197.290	-168.589	-0.090	0.003
-196.275	-50.976	-0.176	0.083
-195.260	213.079	0.211	0.334
-194.246	-128.615	-0.170	-0.024
-193.231	-79.787	-0.249	-0.084
-192.217	-200.000	-0.025	0.278
-191.202	192.875	-0.154	0.234
-190.187	54.417	0.213	0.206
-189.173	800.000	0.083	0.254
-188.158	371.833	-0.020	0.040
-187.144	93.410	-0.105	-0.119
-186.129	49.179	0.145	0.137
-185.114	800.000	-0.064	0.242
-184.100	-88.919	-0.056	0.017
-183.085	-29.249	0.307	0.176
-182.071	-200.000	-0.039	-0.334
-181.056	800.000	0.120	-0.463
-180.042	-103.352	-0.215	0.051
-179.027	399.601	-0.086	-0.180
-178.012	-200.000	0.020	0.168
-176.998	92.752	-0.233	-0.264
-175.983	-61.066	-0.453	-0.191
-174.969	-200.000	0.007	0.177
-173.954	-104.518	-0.082	-0.019
-172.939	800.000	-0.055	0.185
-171.925	-66.486	0.391	0.155
-170.910	800.000	-0.103	-0.339
-169.896	134.399	-0.253	-0.329
-168.881	49.993	-0.167	0.157
-167.866	800.000	0.083	-0.321
-166.852	346.762	0.145	-0.286
-165.837	-103.654	-0.292	0.069
-164.823	-200.000	0.002	-0.173
-163.808	-94.304	-0.213	0.058
-162.793	31.856	-0.194	-0.167
-161.779	800.000	0.114	-0.320
-160.764	-123.131	0.346	-0.056
-159.750	47.752	0.251	-0.234
-158.735	800.000	-0.029	-0.085
-157.720	49.872	-0.071	-0.067
-156.706	-126.649	-0.110	0.016
-155.691	800.000	-0.084	-0.233
-154.677	286.091	0.040	0.072
-153.662	69.451	0.092	0.094
-152.647	-26.376	-0.143	-0.084
-151.633	-151.824	0.128	-0.009
-150.618	-200.000	-0.002	-0.021
-149.604	104.586	-0.092	0.108
-148.589	-113.273	-0.140	0.027
-147.574	-91.589	-0.098	-0.028
-146.560	-200.000	0.024	-0.303
-145.545	-160.697	0.129	-0.007
-144.531	223.998	-0.079	-0.128
-143.516	32.017	0.132	-0.114
-142.502	11.309	0.255	-0.195
-141.487	-200.000	-0.002	-0.209
-140.472	110.028	0.098	-0.117
-139.458	800.000	0.047	-0.145
-138.443	9.250	0.170	0.129
-137.429	648.023	-0.070	-0.179
-136.414	-200.000	0.002	-0.128
-135.399	-200.000	-0.059	0.259
-134.385	-36.674	0.117	0.063
-133.370	-96.558	0.073	-0.019
-132.356	-87.821	0.252	0.076
-131.341	-54.740	-0.342	-0.154
-130.326	-136.921	-0.047	0.005
-129.312	-165.993	-0.137	-0.006
-128.297	-123.138	-0.273	-0.044
-127.283	-94.707	0.300	-0.081
-126.268	148.065	0.142	-0.191
-125.253	496.633	0.184	-0.423
-124.239	12.599	-0.235	0.182
-123.224	83.126	-0.026	0.028
-122.210	-109.667	-0.293	0.062
-121.195	-125.320	-0.225	-0.034
-120.180	379.551	-0.104	0.212
