DTS Sentinel unit serial number:	SN413079Multiplexer serial number:	ORYXHardware model number:	OX4-SRSoftware version number:	ORYX F/W v4.00 Oryx Data Collector v3.7.2.0data status	okinstallation	princeton_trtdifferential loss correction	single-endedforward channel	channel 3reverse channel	N/Adate	2019/09/17time	17:04:34forward acquisition time	60.00reverse acquisition time	0.00gamma	496.2192k internal	0.2291k external	0.2291temperature offset calibration	0.9952default loss term (dB/km)	0.3790temperature slope calibration	1.0000multiplexer offset coefficient	1.0000multiplexer slope coefficient	1.0000fibre end	0.00T internal ref (°C)	42.62T ext. ref 1 (°C)	0.35T ext. ref 2 (°C)	39.14length (m)	temperature (°C)	Stokes	anti-Stokes-747.200	300.114	-0.104	-0.196
-746.185	799.742	0.069	-0.195
-745.171	800.000	-0.062	0.221
-744.156	227.135	0.245	0.407
-743.142	800.000	-0.031	0.115
-742.127	-127.833	0.048	-0.007
-741.112	-128.407	0.156	0.023
-740.098	456.573	-0.135	0.307
-739.083	-89.218	-0.159	0.048
-738.069	-11.903	-0.100	0.067
-737.054	-37.436	-0.257	0.140
-736.039	-20.478	-0.249	-0.157
-735.025	-94.610	-0.285	0.079
-734.010	-17.868	0.134	-0.086
-732.996	-200.000	0.002	-0.057
-731.981	-154.655	-0.183	-0.012
-730.966	-10.023	-0.231	-0.157
-729.952	-181.877	-0.068	0.001
-728.937	122.819	-0.048	-0.062
-727.923	68.558	-0.114	-0.120
-726.908	800.000	0.135	0.386
-725.894	-116.406	-0.089	0.017
-724.879	-27.927	0.069	-0.041
-723.864	-112.199	-0.383	0.079
-722.850	-6.381	0.142	0.099
-721.835	-200.000	-0.092	-0.471
-720.821	259.556	-0.156	0.276
-719.806	486.846	-0.055	-0.128
-718.791	376.400	0.161	0.337
-717.777	-39.636	-0.233	0.125
-716.762	-137.064	0.141	0.017
-715.748	160.748	0.025	-0.035
-714.733	148.524	-0.071	-0.098
-713.718	193.705	-0.086	0.133
-712.704	-200.000	0.034	0.249
-711.689	-200.000	-0.030	0.155
-710.675	364.720	-0.035	-0.073
-709.660	-64.214	0.377	0.157
-708.645	47.033	0.069	-0.066
-707.631	-200.000	0.003	-0.348
-706.616	-179.139	-0.308	-0.007
-705.602	-200.000	-0.036	-0.281
-704.587	-200.000	-0.028	-0.248
-703.572	800.000	-0.037	-0.156
-702.558	-160.303	0.203	0.011
-701.543	-108.998	-0.332	-0.072
-700.529	24.754	0.210	0.178
-699.514	354.840	-0.071	-0.144
-698.499	591.443	-0.115	-0.291
-697.485	-200.000	-0.054	-0.399
-696.470	54.303	0.035	-0.034
-695.456	15.235	-0.369	-0.296
-694.441	-77.669	0.332	0.117
-693.426	-145.653	-0.411	-0.038
-692.412	416.281	-0.053	-0.115
-691.397	-189.253	0.356	0.004
-690.383	-163.581	-0.134	-0.006
-689.368	450.188	-0.037	-0.083
-688.354	-200.000	-0.002	0.032
-687.339	-42.005	0.178	-0.093
-686.324	9.452	-0.092	0.072
-685.310	-26.913	-0.120	0.071
-684.295	-152.065	-0.484	-0.036
-683.281	43.039	0.062	0.058
-682.266	-98.104	-0.242	-0.064
-681.251	774.054	-0.038	0.105
-680.237	173.000	0.194	-0.286
-679.222	420.682	-0.034	-0.075
-678.208	-155.059	-0.473	0.032
-677.193	229.079	-0.055	-0.092
-676.178	137.221	-0.096	-0.128
-675.164	259.068	-0.071	0.125
-674.149	-130.268	0.333	0.046
-673.135	-200.000	0.028	0.322
-672.120	132.991	0.151	0.199
-671.105	155.137	-0.179	0.251
-670.091	800.000	-0.018	-0.069
-669.076	49.695	-0.253	-0.243
-668.062	-45.063	-0.400	0.203
-667.047	-141.649	0.175	0.018
-666.032	309.700	-0.084	-0.160
-665.018	226.133	0.122	-0.202
-664.003	113.760	-0.127	0.157
-662.989	43.388	0.129	0.120
-661.974	-168.338	0.255	0.010
-660.959	-82.526	0.375	0.124
-659.945	800.000	0.058	0.221
-658.930	16.041	-0.144	-0.116
-657.916	-4.364	0.210	0.148
-656.901	-200.000	0.004	-0.065
-655.886	209.385	-0.086	-0.137
-654.872	-200.000	-0.024	-0.196
-653.857	-164.143	-0.068	-0.003
-652.843	209.760	0.053	-0.084
-651.828	-36.324	-0.270	-0.148
-650.814	-200.000	-0.067	0.552
-649.799	292.065	0.087	-0.161
-648.784	233.869	0.145	-0.243
-647.770	-84.586	-0.125	0.040
-646.755	117.122	0.263	-0.330
-645.741	-200.000	-0.078	-0.373
-644.726	186.970	-0.076	-0.116
-643.711	-36.444	-0.340	0.187
-642.697	800.000	0.123	0.359
-641.682	278.682	-0.087	-0.159
-640.668	-140.184	0.497	0.053
-639.653	-19.204	-0.168	0.106
-638.638	800.000	0.027	0.087
-637.624	227.826	-0.109	0.181
-636.609	-151.793	-0.473	0.035
-635.595	-40.534	0.258	-0.136
-634.580	-2.427	-0.146	0.104
-633.565	616.432	0.144	-0.367
-632.551	-200.000	-0.018	0.394
-631.536	-114.201	-0.129	0.025
-630.522	103.302	0.109	0.130
-629.507	-15.727	-0.234	-0.152
-628.492	-2.418	-0.220	0.157
-627.478	-200.000	-0.013	-0.093
-626.463	-138.018	-0.110	0.012
-625.449	164.069	-0.171	-0.246
-624.434	155.703	-0.071	0.100
-623.419	16.098	-0.127	0.102
-622.405	-200.000	-0.060	0.348
-621.390	324.079	0.117	-0.228
-620.376	43.353	0.287	-0.267
-619.361	-59.730	-0.125	-0.055
-618.346	-72.378	0.359	0.135
-617.332	769.573	0.081	0.225
-616.317	800.000	-0.029	0.125
-615.303	-200.000	0.028	-0.184
-614.288	79.298	0.215	0.235
-613.273	-85.055	0.024	0.008
-612.259	225.735	0.203	0.335
-611.244	-78.494	0.182	0.064
-610.230	-200.000	-0.015	0.168
-609.215	-200.000	-0.025	0.118
-608.201	23.076	0.135	0.113
-607.186	174.647	0.067	0.099
-606.171	-200.000	0.000	-0.242
-605.157	134.356	-0.081	0.107
-604.142	173.253	-0.045	0.066
-603.128	-200.000	-0.030	-0.198
-602.113	-78.535	0.240	0.083
-601.098	578.216	0.062	0.155
-600.084	-149.161	-0.178	-0.015
-599.069	800.000	0.042	-0.183
-598.055	-200.000	-0.018	0.190
-597.040	52.421	-0.211	-0.205
-596.025	238.119	-0.196	0.331
-595.011	-22.304	-0.319	0.197
-593.996	62.899	-0.073	0.074
-592.982	-124.323	-0.264	0.042
-591.967	-66.745	-0.272	-0.110
-590.952	90.566	-0.112	-0.128
-589.938	87.857	0.023	0.026
-588.923	-69.791	-0.223	-0.087
-587.909	3.697	-0.307	0.228
-586.894	305.959	-0.115	0.218
-585.879	-200.000	-0.020	-0.289
-584.865	-63.796	-0.170	-0.071
-583.850	86.794	-0.060	-0.068
-582.836	-74.936	-0.129	-0.047
-581.821	580.042	0.167	-0.415
-580.806	-200.000	-0.075	-0.391
-579.792	503.896	-0.076	-0.179
-578.777	157.884	0.140	-0.197
-577.763	280.424	0.198	-0.360
-576.748	-11.083	0.120	0.081
-575.733	-102.816	-0.055	-0.013
-574.719	324.174	-0.237	-0.460
-573.704	-200.000	0.050	0.226
-572.690	-200.000	-0.038	-0.214
-571.675	-2.745	0.296	0.210
-570.661	-184.869	0.317	0.005
-569.646	63.111	0.154	-0.157
-568.631	-82.441	-0.289	0.096
-567.617	90.790	0.160	-0.182
-566.602	309.871	-0.119	-0.226
-565.588	-80.077	0.133	-0.045
-564.573	-54.284	0.186	0.086
-563.558	-54.895	0.076	-0.035
-562.544	295.803	-0.058	0.109
-561.529	490.637	0.047	0.109
-560.515	800.000	-0.118	-0.367
-559.500	-24.909	-0.348	-0.210
-558.485	138.932	0.300	0.400
-557.471	-200.000	-0.022	0.685
-556.456	-119.812	-0.193	0.034
-555.442	-165.191	0.238	-0.011
-554.427	240.686	0.115	-0.194
-553.412	-9.873	0.042	0.029
-552.398	129.952	0.210	0.274
-551.383	-87.431	0.555	-0.171
-550.369	76.320	0.041	-0.044
-549.354	-63.260	-0.261	0.109
-548.339	-172.226	-0.148	-0.005
-547.325	800.000	0.024	0.080
-546.310	12.818	0.183	0.144
-545.296	-142.077	-0.191	0.019
-544.281	82.675	0.120	0.133
-543.266	800.000	0.076	-0.278
-542.252	628.645	0.064	-0.165
-541.237	751.023	-0.046	0.126
-540.223	-7.513	-0.290	-0.199
-539.208	186.834	-0.164	-0.247
-538.193	-72.259	0.337	0.127
-537.179	-96.835	0.385	-0.103
-536.164	278.979	0.090	0.163
-535.150	-200.000	0.084	0.397
-534.135	800.000	-0.125	0.498
-533.121	-130.026	0.130	0.018
-532.106	-42.497	-0.035	-0.018
-531.091	104.270	0.161	-0.192
-530.077	800.000	-0.086	-0.243
-529.062	31.903	0.183	0.160
-528.048	-200.000	-0.023	0.107
-527.033	-47.244	0.313	-0.155
-526.018	269.755	-0.125	-0.223
-525.004	149.165	-0.116	-0.159
-523.989	-200.000	0.020	-0.147
-522.975	75.237	0.098	0.105
-521.960	800.000	-0.042	-0.126
-520.945	534.399	0.053	-0.127
-519.931	-49.587	0.067	-0.033
-518.916	-18.485	0.132	-0.083
-517.902	-200.000	-0.021	0.254
-516.887	69.650	0.077	-0.080
-515.872	-200.000	-0.063	0.299
-514.858	16.825	-0.126	0.101
-513.843	-77.630	0.307	-0.108
-512.829	-138.356	0.248	0.028
-511.814	-22.824	0.194	-0.119
-510.799	160.471	0.178	0.252
-509.785	-200.000	0.011	0.071
-508.770	-93.493	0.251	0.070
-507.756	188.614	-0.102	-0.155
-506.741	133.180	0.151	0.198
-505.726	-8.314	-0.225	0.154
-504.712	1.955	0.149	-0.109
-503.697	39.450	-0.390	0.354
-502.683	-200.000	-0.011	0.095
-501.668	-119.234	0.166	0.029
-500.653	-152.584	-0.384	-0.028
-499.639	100.609	-0.160	0.189
-498.624	-46.156	-0.204	0.102
-497.610	-75.993	0.292	0.105
-496.595	800.000	0.019	-0.083
-495.581	173.075	-0.126	0.184
-494.566	-21.708	0.191	-0.118
-493.551	-200.000	-0.084	0.000
-492.537	-72.813	-0.139	0.052
-491.522	238.408	0.043	-0.073
-490.508	-200.000	-0.018	-0.135
-489.493	-200.000	-0.005	-0.284
-488.478	273.799	0.035	0.063
-487.464	142.558	0.133	-0.179
-486.449	800.000	0.120	0.339
-485.435	800.000	0.085	0.376
-484.420	-12.492	0.184	-0.122
-483.405	800.000	0.115	0.345
-482.391	188.744	0.249	0.378
-481.376	0.758	-0.113	-0.082
-480.362	-200.000	0.001	-0.067
-479.347	800.000	0.093	0.332
-478.332	-200.000	-0.056	-0.650
-477.318	-200.000	-0.016	-0.131
-476.303	-137.091	-0.260	0.030
-475.289	-200.000	0.165	0.001
-474.274	-40.053	-0.134	0.071
-473.259	-71.343	-0.235	0.089
-472.245	73.395	-0.317	0.336
-471.230	800.000	-0.027	0.080
-470.216	-5.347	0.132	0.092
-469.201	-122.723	0.273	-0.045
-468.186	-120.521	0.111	-0.019
-467.172	-164.105	-0.125	0.006
-466.157	619.948	0.055	-0.139
-465.143	471.051	0.030	-0.068
-464.128	204.522	-0.066	-0.104
-463.113	-70.684	0.294	-0.112
-462.099	356.329	-0.106	0.214
-461.084	-200.000	0.002	0.095
-460.070	-200.000	0.006	-0.244
-459.055	350.458	-0.118	-0.236
-458.040	800.000	0.021	0.074
-457.026	-93.639	0.236	-0.066
-456.011	-40.410	-0.114	-0.060
-454.997	-200.000	0.030	-0.255
-453.982	800.000	0.141	-0.450
-452.968	-80.826	-0.223	0.075
-451.953	-44.722	-0.212	-0.107
-450.938	11.648	-0.130	-0.101
-449.924	-81.938	0.051	-0.017
-448.909	800.000	-0.075	-0.240
-447.895	61.538	0.224	-0.225
-446.880	34.006	0.267	-0.235
-445.865	-124.699	-0.131	0.021
-444.851	-200.000	-0.009	0.076
-443.836	235.839	0.003	-0.005
-442.822	-130.761	0.123	0.017
-441.807	97.740	-0.063	0.073
-440.792	-200.000	-0.017	0.212
-439.778	-200.000	0.024	-0.199
-438.763	3.639	0.245	-0.181
-437.749	-56.537	-0.115	-0.052
-436.734	-122.318	0.168	-0.028
-435.719	351.220	-0.262	0.525
-434.705	-34.442	-0.377	-0.209
-433.690	-73.203	-0.240	0.089
-432.676	-200.000	0.023	-0.275
-431.661	-200.000	-0.039	0.248
-430.646	-103.758	0.262	-0.062
-429.632	321.438	0.144	0.277
-428.617	800.000	-0.081	-0.235
-427.603	-200.000	0.053	-0.264
-426.588	88.117	-0.064	-0.072
-425.573	75.493	-0.143	-0.153
-424.559	-36.005	-0.167	0.091
-423.544	2.601	0.100	0.073
-422.530	-95.787	0.172	-0.046
-421.515	-65.518	-0.267	-0.109
-420.500	-129.622	-0.142	0.020
-419.486	677.375	-0.092	-0.242
-418.471	-200.000	0.089	0.000
-417.457	800.000	0.049	-0.138
-416.442	800.000	-0.071	-0.226
-415.428	800.000	0.099	0.421
-414.413	127.865	-0.272	0.350
-413.398	-19.432	-0.274	-0.172
-412.384	752.274	-0.100	-0.273
-411.369	-200.000	-0.003	-0.098
-410.355	29.059	0.210	-0.180
-409.340	227.290	-0.161	0.264
-408.325	236.141	-0.015	0.026
-407.311	-104.882	0.471	-0.109
-406.296	502.804	0.083	-0.195
-405.282	498.670	-0.113	0.264
-404.267	-15.446	-0.183	-0.118
-403.252	-130.989	-0.298	-0.040
-402.238	39.709	-0.211	-0.192
-401.223	-47.305	0.197	0.097
-400.209	-37.893	-0.056	-0.030
-399.194	799.884	0.056	0.156
-398.179	229.528	-0.187	-0.309
-397.165	-132.711	-0.170	-0.022
-396.150	-114.807	0.378	0.073
-395.136	-154.951	0.082	0.005
-394.121	-59.466	0.394	0.171
-393.106	-200.000	0.005	-0.061
-392.092	-22.305	0.272	-0.167
-391.077	-200.000	-0.044	-0.348
-390.063	536.371	-0.055	-0.131
-389.048	104.857	-0.059	0.070
-388.033	-16.505	-0.132	-0.084
-387.019	-200.000	0.010	0.249
-386.004	-144.349	0.170	0.016
-384.990	-200.000	0.007	-0.105
-383.975	-200.000	-0.050	0.324
-382.960	-119.736	0.218	-0.038
-381.946	-26.700	0.120	0.071
-380.931	64.547	-0.153	-0.155
-379.917	-8.399	-0.146	-0.099
-378.902	-200.000	-0.064	-0.317
-377.888	-200.000	0.001	-0.170
-376.873	510.023	0.097	-0.229
-375.858	45.185	0.091	0.085
-374.844	800.000	0.110	0.314
-373.829	-160.328	0.310	-0.017
-372.815	-109.473	-0.406	-0.087
-371.800	800.000	-0.029	-0.082
-370.785	50.120	0.152	0.145
-369.771	71.944	0.093	-0.098
-368.756	3.226	-0.245	-0.180
-367.742	131.030	-0.109	-0.141
-366.727	-34.961	0.263	-0.145
-365.712	-86.420	0.297	0.092
-364.698	-84.951	-0.120	0.038
-363.683	-10.538	-0.035	-0.023
-362.669	255.393	0.080	-0.138
-361.654	-200.000	-0.012	0.080
-360.639	-155.027	-0.150	-0.010
-359.625	-92.668	-0.231	0.065
-358.610	-14.421	0.065	0.042
-357.596	694.629	-0.065	0.171
-356.581	800.000	-0.073	0.221
-355.566	370.193	-0.074	0.152
-354.552	-107.042	-0.232	-0.052
-353.537	-186.329	-0.230	-0.003
-352.523	-37.970	0.190	0.102
-351.508	534.277	-0.104	-0.248
-350.493	-173.356	0.082	0.003
-349.479	9.376	0.132	0.101
-348.464	224.657	-0.178	-0.290
-347.450	91.445	0.124	0.141
-346.435	316.377	0.072	0.137
-345.420	-74.029	-0.297	0.109
-344.406	58.181	-0.058	0.057
-343.391	-200.000	0.012	0.099
-342.377	-200.000	0.008	0.137
-341.362	501.061	0.063	-0.146
-340.348	-200.000	0.012	-0.114
-339.333	-200.000	-0.023	0.151
-338.318	228.366	0.168	-0.276
-337.304	79.656	-0.180	-0.195
-336.289	24.953	-0.074	0.062
-335.275	130.385	-0.139	0.180
-334.260	-200.000	0.041	0.309
-333.245	186.988	-0.173	0.259
-332.231	792.075	0.029	0.079
-331.216	-200.000	-0.052	0.248
-330.202	273.068	0.087	-0.156
-329.187	800.000	0.062	-0.197
-328.172	559.428	0.167	-0.406
-327.158	-84.805	-0.231	0.073
-326.143	-57.166	0.053	0.024
-325.129	-200.000	0.067	-0.387
-324.114	-55.641	-0.157	0.071
-323.099	-200.000	0.030	-0.259
-322.085	-200.000	-0.029	-0.161
-321.070	85.075	-0.347	0.383
-320.056	-200.000	-0.351	0.001
-319.041	-68.430	0.193	0.076
-318.026	-200.000	-0.079	-0.400
-317.012	27.673	-0.120	0.102
-315.997	114.245	-0.067	0.082
-314.983	25.578	-0.020	0.017
-313.968	-80.359	0.284	-0.096
-312.953	-26.686	0.429	-0.253
-311.939	800.000	-0.018	-0.052
-310.924	-85.270	0.057	0.018
-309.910	-200.000	-0.002	-0.131
-308.895	-146.614	-0.075	0.007
-307.880	409.550	-0.064	-0.137
-306.866	-88.189	0.080	-0.024
-305.851	-200.000	-0.005	-0.198
-304.837	-200.000	0.081	-0.378
-303.822	-103.200	0.256	0.061
-302.807	6.044	0.122	0.091
-301.793	-67.050	-0.214	-0.085
-300.778	128.710	0.051	0.066
-299.764	800.000	0.080	-0.341
-298.749	-100.146	0.128	0.032
-297.735	-81.978	-0.481	-0.158
-296.720	-200.000	0.039	0.212
-295.705	88.124	0.292	0.326
-294.691	189.380	-0.135	-0.204
-293.676	-167.804	0.194	-0.008
-292.662	800.000	0.042	-0.164
-291.647	800.000	0.064	-0.278
-290.632	800.000	0.024	-0.070
-289.618	35.010	0.221	0.195
-288.603	95.086	0.097	0.111
-287.589	4.680	0.063	0.047
-286.574	233.328	-0.104	-0.173
-285.559	800.000	-0.039	0.148
-284.545	-200.000	0.007	0.116
-283.530	718.264	0.120	0.321
-282.516	661.622	0.115	0.299
-281.501	-8.506	0.202	-0.137
-280.486	800.000	-0.093	-0.279
-279.472	-132.944	0.293	0.038
-278.457	181.020	0.169	0.249
-277.443	190.363	0.106	-0.160
-276.428	-37.998	0.137	-0.073
-275.413	136.505	0.087	-0.114
-274.399	-200.000	0.004	-0.122
-273.384	-200.000	-0.039	-0.286
-272.370	228.021	-0.047	0.077
-271.355	-200.000	-0.028	0.244
-270.340	-200.000	0.015	0.496
-269.326	242.985	0.125	-0.211
-268.311	-133.635	-0.136	0.017
-267.297	-108.923	0.166	-0.036
-266.282	-18.235	-0.301	0.189
-265.267	800.000	-0.024	-0.079
-264.253	-74.513	0.072	0.026
-263.238	184.745	0.066	0.099
-262.224	-106.243	0.304	0.069
-261.209	126.077	-0.034	0.043
-260.195	800.000	0.062	-0.246
-259.180	-200.000	-0.010	-0.045
-258.165	-78.902	0.458	-0.157
-257.151	800.000	0.101	-0.290
-256.136	-94.962	-0.347	-0.094
-255.122	800.000	-0.094	0.340
-254.107	-185.292	0.119	0.002
-253.092	-138.630	-0.026	-0.003
-252.078	-57.221	-0.060	-0.026
-251.063	100.338	-0.074	-0.086
-250.049	-36.400	0.111	0.060
-249.034	101.165	-0.094	0.110
-248.019	-112.428	-0.150	-0.030
-247.005	66.748	-0.123	0.125
-245.990	722.809	0.148	-0.395
-244.976	561.952	-0.129	-0.314
-243.961	-59.376	-0.133	0.057
-242.946	-116.561	0.086	-0.016
-241.932	-93.642	0.311	-0.086
-240.917	800.000	-0.018	0.071
-239.903	800.000	0.046	0.184
-238.888	332.151	-0.092	-0.178
-237.873	324.575	0.085	0.163
-236.859	242.531	-0.215	-0.361
-235.844	-100.378	-0.199	0.049
-234.830	515.859	0.069	-0.161
-233.815	800.000	-0.092	0.377
-232.800	89.333	-0.221	0.247
-231.786	560.371	0.179	0.433
-230.771	-52.342	-0.197	0.092
-229.757	260.829	-0.100	0.174
-228.742	800.000	-0.103	0.423
-227.727	101.895	-0.063	0.074
-226.713	-200.000	-0.108	0.512
-225.698	136.686	0.282	0.369
-224.684	-200.000	0.000	-0.135
-223.669	-49.075	0.262	-0.126
-222.655	-54.585	0.396	0.180
-221.640	-90.143	0.331	0.097
-220.625	365.058	0.134	0.270
-219.611	-59.935	0.139	-0.060
-218.596	-102.200	-0.235	0.057
-217.582	-200.000	-0.005	0.327
-216.567	-200.000	0.090	0.494
-215.552	-82.391	-0.294	0.096
-214.538	-200.000	-0.015	-0.526
-213.523	-200.000	-0.016	-0.092
-212.509	325.221	-0.102	-0.195
-211.494	-128.907	0.232	-0.033
-210.479	-136.776	-0.125	-0.014
-209.465	-100.498	0.287	0.071
-208.450	-90.529	-0.244	-0.071
-207.436	-60.201	-0.319	0.136
-206.421	-106.807	0.389	0.086
-205.406	-200.000	-0.018	-0.184
-204.392	183.448	-0.021	0.031
-203.377	-95.347	-0.310	-0.084
-202.363	800.000	0.137	-0.391
-201.348	83.033	-0.124	-0.135
-200.333	-14.257	-0.073	0.047
-199.319	-200.000	0.009	0.166
-198.304	-200.000	-0.010	0.100
-197.290	-200.000	-0.048	0.278
-196.275	-53.101	-0.246	-0.113
-195.260	-45.925	0.210	0.104
-194.246	-200.000	0.048	0.481
-193.231	-200.000	-0.002	0.249
-192.217	800.000	0.117	-0.443
-191.202	-200.000	-0.068	0.398
-190.187	-24.211	0.118	-0.071
-189.173	-72.003	0.162	-0.060
-188.158	600.832	0.115	-0.287
-187.144	-48.886	0.541	-0.260
-186.129	-103.563	-0.369	0.087
-185.114	-200.000	0.026	0.241
-184.100	-91.739	0.108	0.031
-183.085	-200.000	-0.046	-0.290
-182.071	800.000	-0.112	0.459
-181.056	-200.000	-0.003	-0.206
-180.042	557.776	-0.077	0.186
-179.027	146.054	0.026	0.035
-178.012	187.392	-0.169	-0.253
-176.998	-200.000	-0.056	-0.287
-175.983	223.650	0.078	0.127
-174.969	-128.724	-0.172	0.024
-173.954	-96.858	-0.385	-0.101
-172.939	800.000	0.044	0.147
-171.925	238.769	0.108	-0.179
-170.910	74.758	-0.156	0.164
-169.896	110.423	-0.026	0.031
-168.881	-126.536	-0.170	-0.025
-167.866	800.000	-0.071	-0.297
-166.852	228.066	-0.107	0.175
-165.837	232.311	0.034	-0.055
-164.823	21.226	-0.204	0.166
-163.808	-137.536	-0.302	-0.034
-162.793	50.333	0.115	0.109
-161.779	-0.819	-0.226	0.160
-160.764	-151.958	0.447	-0.033
-159.750	-18.077	-0.301	0.189
-158.735	-155.419	-0.099	0.006
-157.720	800.000	-0.049	0.194
-156.706	230.240	-0.010	-0.017
-155.691	-165.427	-0.247	0.011
-154.677	57.775	-0.192	0.188
-153.662	71.710	-0.149	0.155
-152.647	800.000	-0.044	0.160
-151.633	43.275	-0.189	-0.172
-150.618	-141.810	0.202	0.020
-149.604	-200.000	0.003	-0.063
-148.589	-200.000	0.013	-0.335
-147.574	-166.857	-0.310	0.013
-146.560	23.713	0.018	-0.015
-145.545	307.167	-0.004	0.007
-144.531	800.000	0.186	0.548
-143.516	-93.774	0.138	-0.038
-142.502	-42.524	-0.123	0.063
-141.487	-200.000	0.025	-0.203
-140.472	-200.000	0.037	0.363
-139.458	137.149	0.222	-0.290
-138.443	246.432	0.137	-0.231
-137.429	550.813	-0.079	-0.190
-136.414	-200.000	-0.001	-0.315
-135.399	-92.160	-0.269	0.076
-134.385	65.305	0.238	0.241
-133.370	192.344	0.075	-0.114
-132.356	59.736	0.233	0.230
-131.341	-35.460	-0.239	-0.130
-130.326	-139.656	0.249	0.026
-129.312	-200.000	-0.028	0.217
-128.297	69.368	0.022	-0.023
-127.283	554.862	0.156	-0.376
-126.268	320.567	-0.173	0.329
-125.253	-200.000	0.006	0.311
-124.239	800.000	-0.031	0.115
-123.224	289.299	0.126	-0.227
-122.210	573.623	0.038	-0.093
