DTS Sentinel unit serial number:	SN413079Multiplexer serial number:	ORYXHardware model number:	OX4-SRSoftware version number:	ORYX F/W v4.00 Oryx Data Collector v3.7.2.0data status	okinstallation	princeton_trtdifferential loss correction	single-endedforward channel	channel 3reverse channel	N/Adate	2019/09/16time	09:04:35forward acquisition time	60.00reverse acquisition time	0.00gamma	496.2192k internal	0.2324k external	0.2324temperature offset calibration	0.9952default loss term (dB/km)	0.3790temperature slope calibration	1.0000multiplexer offset coefficient	1.0000multiplexer slope coefficient	1.0000fibre end	0.00T internal ref (°C)	30.66T ext. ref 1 (°C)	12.07T ext. ref 2 (°C)	28.21length (m)	temperature (°C)	Stokes	anti-Stokes-747.200	-97.229	0.107	-0.028
-746.185	6.517	0.128	0.096
-745.171	-200.000	-0.048	0.392
-744.156	-139.344	-0.376	-0.041
-743.142	-200.000	-0.019	0.119
-742.127	329.244	-0.041	-0.080
-741.112	-10.523	-0.051	0.034
-740.098	77.078	0.024	-0.026
-739.083	-200.000	-0.014	-0.174
-738.069	800.000	0.052	-0.159
-737.054	93.469	-0.201	-0.229
-736.039	-26.077	-0.392	-0.232
-735.025	76.879	-0.148	0.158
-734.010	96.115	-0.029	0.034
-732.996	-109.983	0.372	-0.079
-731.981	2.689	0.015	0.011
-730.966	-32.583	-0.228	0.128
-729.952	35.902	0.131	0.116
-728.937	-200.000	-0.006	-0.080
-727.923	269.492	-0.154	0.272
-726.908	2.856	-0.265	0.194
-725.894	-82.458	-0.369	0.121
-724.879	-84.591	-0.113	-0.036
-723.864	-14.697	-0.202	-0.131
-722.850	-97.346	-0.394	-0.104
-721.835	-62.245	-0.234	-0.098
-720.821	800.000	0.018	-0.054
-719.806	146.140	0.176	0.238
-718.791	318.153	0.129	0.246
-717.777	121.958	0.181	-0.227
-716.762	112.439	0.070	-0.085
-715.748	333.522	-0.203	-0.396
-714.733	-45.591	-0.100	0.050
-713.718	-19.722	-0.186	0.116
-712.704	-125.505	-0.205	-0.031
-711.689	800.000	0.032	0.108
-710.675	110.688	-0.308	-0.374
-709.660	218.516	0.143	-0.231
-708.645	-172.101	0.117	0.004
-707.631	800.000	-0.007	-0.023
-706.616	800.000	-0.036	-0.127
-705.602	2.122	-0.276	0.201
-704.587	2.918	0.300	-0.220
-703.572	800.000	0.065	0.287
-702.558	-31.398	0.165	-0.094
-701.543	-56.093	-0.265	0.119
-700.529	-200.000	-0.006	-0.343
-699.514	142.507	-0.171	0.228
-698.499	800.000	-0.022	-0.077
-697.485	-200.000	0.001	-0.157
-696.470	-40.871	0.310	-0.162
-695.456	33.870	-0.027	0.024
-694.441	-200.000	0.010	0.126
-693.426	317.001	-0.139	-0.264
-692.412	-88.453	-0.137	-0.041
-691.397	-150.771	-0.491	0.038
-690.383	800.000	-0.043	-0.162
-689.368	-130.654	0.287	0.039
-688.354	-71.890	-0.093	0.035
-687.339	71.627	-0.197	-0.206
-686.324	75.389	-0.062	0.066
-685.310	-200.000	-0.062	-0.324
-684.295	300.140	0.178	-0.330
-683.281	-50.121	0.262	-0.125
-682.266	-68.092	-0.194	0.076
-681.251	-200.000	-0.066	-0.428
-680.237	-85.029	0.160	-0.050
-679.222	-200.000	0.017	0.148
-678.208	-14.485	-0.292	-0.189
-677.193	-108.937	0.254	-0.055
-676.178	-29.905	0.123	0.071
-675.164	-26.110	-0.131	-0.078
-674.149	-192.620	-0.196	-0.002
-673.135	150.354	0.054	-0.074
-672.120	-10.836	-0.182	-0.121
-671.105	-165.897	0.334	0.014
-670.091	800.000	0.022	-0.080
-669.076	1.547	-0.108	-0.078
-668.062	-104.207	-0.347	-0.081
-667.047	462.627	0.186	-0.419
-666.032	-149.100	-0.077	0.006
-665.018	-80.869	-0.171	0.057
-664.003	-200.000	-0.034	0.178
-662.989	19.659	0.060	-0.049
-661.974	-200.000	-0.018	-0.195
-660.959	65.766	0.041	0.042
-659.945	-151.846	-0.213	0.016
-658.930	166.264	-0.040	-0.056
-657.916	257.596	-0.210	-0.363
-656.901	-33.401	0.175	0.097
-655.886	155.505	0.143	0.198
-654.872	83.604	-0.163	0.178
-653.857	-13.023	0.189	0.124
-652.843	-136.073	-0.314	-0.037
-651.828	91.974	-0.257	0.291
-650.814	67.135	0.214	0.220
-649.799	-14.955	0.169	0.109
-648.784	-48.079	-0.335	0.163
-647.770	126.645	0.134	-0.170
-646.755	-47.094	0.215	0.105
-645.741	214.240	-0.089	-0.142
-644.726	-61.498	0.277	0.117
-643.711	-200.000	0.035	0.334
-642.697	800.000	0.060	-0.207
-641.682	-9.121	0.184	-0.124
-640.668	148.227	-0.146	-0.198
-639.653	-200.000	-0.026	-0.253
-638.638	-143.756	-0.112	-0.011
-637.624	-48.336	0.430	-0.209
-636.609	-139.646	-0.437	0.047
-635.595	-22.044	0.101	0.062
-634.580	-50.973	-0.298	-0.141
-633.565	-200.000	-0.099	0.547
-632.551	800.000	0.096	-0.318
-631.536	761.931	-0.040	0.108
-630.522	-11.912	-0.200	-0.132
-629.507	696.755	-0.098	0.258
-628.492	61.871	0.230	-0.230
-627.478	800.000	-0.042	0.137
-626.463	153.125	-0.087	-0.119
-625.449	800.000	0.048	0.179
-624.434	-59.824	-0.370	0.159
-623.419	-200.000	0.042	-0.190
-622.405	-91.492	0.106	0.030
-621.390	-29.862	0.140	0.080
-620.376	-99.425	-0.262	0.066
-619.361	756.503	0.084	-0.229
-618.346	-148.615	0.117	0.010
-617.332	-200.000	-0.034	0.466
-616.317	162.614	0.039	-0.055
-615.303	-144.418	0.302	0.028
-614.288	-123.753	-0.260	-0.041
-613.273	92.217	-0.152	-0.172
-612.259	-200.000	0.008	-0.277
-611.244	-119.772	-0.336	-0.058
-610.230	-70.876	0.094	-0.036
-609.215	-200.000	0.015	-0.167
-608.201	-179.202	0.256	-0.006
-607.186	51.859	-0.075	-0.072
-606.171	10.119	0.184	-0.140
-605.157	-181.079	-0.091	-0.002
-604.142	800.000	-0.015	0.062
-603.128	772.800	0.048	-0.132
-602.113	17.234	0.203	-0.162
-601.098	621.784	0.033	-0.084
-600.084	50.953	-0.106	0.101
-599.069	-200.000	0.014	0.126
-598.055	662.229	0.033	-0.086
-597.040	166.964	-0.195	-0.278
-596.025	-200.000	-0.000	-0.180
-595.011	800.000	0.110	-0.368
-593.996	92.424	0.216	-0.245
-592.982	193.209	-0.149	0.225
-591.967	-135.973	-0.258	0.030
-590.952	33.342	0.275	-0.239
-589.938	124.716	-0.126	0.160
-588.923	-116.043	-0.256	0.048
-587.909	41.770	0.040	0.037
-586.894	-106.076	0.274	-0.062
-585.879	-200.000	-0.080	-0.416
-584.865	-200.000	0.010	-0.078
-583.850	-21.668	-0.317	-0.194
-582.836	-200.000	0.054	-0.354
-581.821	-200.000	-0.019	-0.220
-580.806	85.833	-0.084	-0.093
-579.792	-50.843	0.301	-0.142
-578.777	-91.700	-0.242	-0.069
-577.763	-161.821	-0.142	-0.007
-576.748	-200.000	-0.020	0.339
-575.733	-127.180	-0.182	0.027
-574.719	26.512	0.116	-0.097
-573.704	-41.198	-0.221	0.114
-572.690	-18.647	-0.125	0.078
-571.675	-89.298	0.271	0.080
-570.661	662.272	-0.084	-0.218
-569.646	-200.000	-0.061	-0.379
-568.631	0.218	0.124	-0.089
-567.617	57.306	-0.307	-0.301
-566.602	-114.695	-0.179	0.034
-565.588	-111.001	0.254	-0.052
-564.573	-200.000	0.028	-0.146
-563.558	1.661	0.059	-0.043
-562.544	-18.187	-0.073	0.046
-561.529	-61.099	-0.232	0.098
-560.515	290.257	0.188	-0.341
-559.500	-104.882	-0.012	-0.003
-558.485	77.924	-0.102	0.109
-557.471	-51.067	0.159	0.075
-556.456	231.820	-0.075	0.123
-555.442	-105.201	0.051	-0.012
-554.427	-34.165	-0.070	-0.039
-553.412	106.642	-0.204	0.242
-552.398	800.000	0.077	0.214
-551.383	800.000	0.126	-0.456
-550.369	22.702	-0.268	-0.220
-549.354	-60.463	-0.081	-0.034
-548.339	-116.722	0.384	0.071
-547.325	-163.840	0.336	0.016
-546.310	-200.000	-0.024	0.243
-545.296	294.773	0.125	0.228
-544.281	253.977	-0.144	-0.246
-543.266	-180.765	-0.223	-0.005
-542.252	98.584	0.051	0.059
-541.237	-200.000	-0.080	0.400
-540.223	800.000	0.002	-0.005
-539.208	800.000	-0.016	-0.063
-538.193	-94.814	-0.266	-0.072
-537.179	800.000	0.108	0.317
-536.164	695.854	0.140	0.368
-535.150	22.077	0.118	-0.097
-534.135	800.000	0.016	-0.053
-533.121	0.404	0.247	0.177
-532.106	545.150	-0.105	-0.251
-531.091	-200.000	0.051	-0.246
-530.077	55.521	-0.069	-0.067
-529.062	92.717	0.184	0.208
-528.048	189.887	-0.184	-0.276
-527.033	46.252	0.131	-0.122
-526.018	-65.267	0.340	0.137
-525.004	-164.195	0.253	-0.012
-523.989	-200.000	0.013	-0.141
-522.975	800.000	-0.029	0.095
-521.960	552.316	-0.072	0.173
-520.945	-140.047	0.219	-0.023
-519.931	119.475	-0.158	0.195
-518.916	800.000	-0.083	-0.290
-517.902	-68.389	0.316	-0.123
-516.887	-177.316	0.086	0.002
-515.872	18.101	0.151	-0.121
-514.858	-30.478	-0.430	-0.244
-513.843	421.260	0.023	-0.049
-512.829	-105.015	-0.212	-0.049
-511.814	82.233	0.259	0.281
-510.799	-200.000	0.023	-0.411
-509.785	-75.489	-0.132	0.047
-508.770	-35.727	-0.251	-0.136
-507.756	16.310	-0.130	-0.102
-506.741	282.531	-0.160	0.287
-505.726	-168.801	0.058	0.002
-504.712	96.869	-0.190	0.218
-503.697	800.000	-0.075	-0.238
-502.683	-200.000	0.048	0.381
-501.668	-47.154	-0.061	0.030
-500.653	269.805	0.147	0.258
-499.639	-137.396	-0.251	0.028
-498.624	93.972	0.065	0.073
-497.610	76.678	-0.176	-0.186
-496.595	-34.630	0.103	-0.056
-495.581	-110.261	0.117	0.024
-494.566	800.000	0.065	-0.225
-493.551	-200.000	-0.016	-0.076
-492.537	66.577	-0.032	-0.032
-491.522	85.432	-0.170	0.187
-490.508	800.000	-0.067	-0.219
-489.493	-200.000	-0.024	-0.288
-488.478	-165.222	0.320	0.014
-487.464	-41.862	0.150	0.077
-486.449	455.206	0.153	-0.338
-485.435	-200.000	0.026	0.386
-484.420	-200.000	0.010	0.070
-483.405	-200.000	0.019	0.315
-482.391	-200.000	-0.022	-0.294
-481.376	800.000	0.107	-0.301
-480.362	345.878	0.058	-0.114
-479.347	800.000	-0.090	-0.257
-478.332	800.000	-0.072	0.235
-477.318	25.796	-0.313	-0.260
-476.303	-73.053	0.143	0.052
-475.289	800.000	-0.028	0.080
-474.274	-8.761	0.140	-0.094
-473.259	-162.341	0.186	-0.009
-472.245	183.952	-0.264	0.390
-471.230	-30.535	0.186	-0.105
-470.216	78.342	0.113	-0.121
-469.201	-132.235	0.098	-0.013
-468.186	-144.905	-0.198	-0.018
-467.172	-200.000	-0.011	0.177
-466.157	145.735	0.106	-0.142
-465.143	580.038	0.077	-0.188
-464.128	-200.000	-0.042	0.290
-463.113	500.277	0.156	-0.360
-462.099	-166.756	-0.044	0.002
-461.084	-100.160	0.080	0.020
-460.070	-200.000	0.051	-0.571
-459.055	-200.000	-0.034	-0.197
-458.040	800.000	0.091	-0.302
-457.026	20.755	-0.100	0.081
-456.011	240.074	-0.050	0.083
-454.997	-16.424	0.473	0.299
-453.982	117.183	-0.109	0.134
-452.968	800.000	0.158	0.465
-451.953	-200.000	-0.057	0.264
-450.938	-34.643	-0.209	-0.114
-449.924	-62.196	0.110	-0.046
-448.909	2.381	0.118	-0.085
-447.895	298.262	0.045	0.083
-446.880	-200.000	-0.041	-0.223
-445.865	12.480	-0.199	0.153
-444.851	800.000	-0.060	-0.216
-443.836	-80.130	0.213	0.071
-442.822	-200.000	0.008	-0.108
-441.807	379.209	0.130	0.266
-440.792	-0.358	0.093	0.066
-439.778	534.971	0.116	0.274
-438.763	556.384	0.084	0.201
-437.749	-200.000	-0.005	0.025
-436.734	-9.768	-0.226	-0.150
-435.719	-99.297	-0.185	-0.047
-434.705	692.769	0.052	0.135
-433.690	-200.000	0.022	0.252
-432.676	-44.012	0.013	-0.007
-431.661	-200.000	-0.027	0.208
-430.646	107.072	-0.247	0.292
-429.632	75.334	0.231	-0.243
-428.617	800.000	-0.037	0.138
-427.603	482.567	0.018	-0.042
-426.588	-131.206	0.141	-0.019
-425.573	800.000	0.056	0.166
-424.559	-11.203	-0.478	0.314
-423.544	-75.593	-0.171	-0.061
-422.530	23.256	0.162	-0.133
-421.515	291.113	-0.058	0.105
-420.500	747.770	0.049	0.131
-419.486	76.337	0.235	0.248
-418.471	800.000	-0.039	-0.153
-417.457	679.815	0.132	-0.342
-416.442	-146.779	-0.193	-0.017
-415.428	-118.659	0.333	0.059
-414.413	4.338	0.072	0.052
-413.398	-22.583	-0.102	-0.061
-412.384	73.320	-0.086	-0.090
-411.369	124.117	0.074	0.092
-410.355	-19.674	0.211	0.130
-409.340	-200.000	-0.027	-0.189
-408.325	668.080	0.059	-0.151
-407.311	2.596	0.176	0.127
-406.296	-134.907	-0.337	-0.041
-405.282	-137.832	-0.312	-0.035
-404.267	66.346	-0.125	0.126
-403.252	-200.000	0.019	0.108
-402.238	667.460	-0.100	-0.258
-401.223	-118.821	-0.214	0.038
-400.209	-15.515	-0.404	-0.257
-399.194	800.000	-0.124	-0.349
-398.179	-125.468	-0.239	0.036
-397.165	182.756	-0.101	0.148
-396.150	-32.864	-0.164	0.091
-395.136	-103.901	0.179	0.042
-394.121	210.449	0.186	-0.290
-393.106	-153.386	0.151	0.010
-392.092	-185.593	0.155	0.002
-391.077	351.084	0.096	0.190
-390.063	232.286	-0.095	0.155
-389.048	-129.955	-0.354	-0.048
-388.033	-74.875	-0.215	-0.077
-387.019	-38.757	0.404	0.212
-386.004	1.541	0.149	-0.106
-384.990	800.000	0.109	0.351
-383.975	800.000	0.032	0.097
-382.960	647.652	0.097	-0.247
-381.946	281.710	0.092	0.165
-380.931	408.680	0.131	0.275
-379.917	-200.000	0.012	0.202
-378.902	76.728	-0.261	0.276
-377.888	-93.468	-0.171	-0.047
-376.873	-74.614	-0.173	-0.062
-375.858	47.134	0.130	-0.121
-374.844	-56.020	-0.118	-0.052
-373.829	-175.568	-0.312	0.008
-372.815	247.179	0.014	0.023
-371.800	-200.000	0.002	-0.031
-370.785	37.427	-0.142	0.125
-369.771	156.911	-0.158	0.217
-368.756	-200.000	-0.021	0.249
-367.742	645.543	-0.059	0.149
-366.727	-123.274	0.293	0.047
-365.712	-41.224	-0.080	-0.041
-364.698	800.000	-0.026	-0.084
-363.683	-148.852	-0.265	0.021
-362.669	-103.307	-0.115	0.027
-361.654	800.000	0.053	-0.221
-360.639	197.458	-0.280	-0.425
-359.625	-200.000	0.036	-0.187
-358.610	410.434	-0.103	-0.218
-357.596	-58.281	0.333	-0.144
-356.581	380.062	-0.087	-0.178
-355.566	-78.318	0.173	-0.059
-354.552	-88.362	-0.161	-0.048
-353.537	-89.798	0.251	-0.073
-352.523	5.122	0.387	-0.283
-351.508	-13.048	-0.272	-0.176
-350.493	159.118	-0.063	0.087
-349.479	-171.751	-0.135	0.004
-348.464	291.623	0.274	-0.496
-347.450	800.000	0.042	-0.169
-346.435	-200.000	0.039	-0.177
-345.420	-0.714	-0.196	-0.138
-344.406	590.319	0.036	-0.089
-343.391	-182.138	0.196	0.004
-342.377	236.346	-0.097	0.160
-341.362	554.955	-0.226	0.540
-340.348	33.099	0.249	0.214
-339.333	270.835	-0.164	-0.287
-338.318	118.124	-0.077	0.094
-337.304	-102.940	0.235	0.055
-336.289	-200.000	0.025	0.119
-335.275	177.680	-0.104	-0.151
-334.260	90.385	-0.193	-0.215
-333.245	-33.711	0.319	0.175
-332.231	-128.091	0.408	0.058
-331.216	-108.751	0.424	-0.090
-330.202	107.915	0.191	0.226
-329.187	-124.242	0.204	0.032
-328.172	-53.530	-0.264	0.120
-327.158	531.240	-0.041	-0.097
-326.143	129.286	0.167	0.212
-325.129	800.000	0.066	-0.239
-324.114	-200.000	0.054	-0.258
-323.099	773.818	-0.143	0.387
-322.085	-5.004	-0.075	-0.051
-321.070	800.000	-0.098	0.329
-320.056	-200.000	-0.004	-0.189
-319.041	-144.909	-0.061	-0.006
-318.026	653.728	-0.077	-0.197
-317.012	-200.000	0.037	-0.175
-315.997	-137.275	0.377	-0.043
-314.983	140.833	-0.167	-0.219
-313.968	255.119	0.155	-0.263
-312.953	-144.128	0.173	-0.016
-311.939	-60.580	-0.224	0.094
-310.924	52.786	0.191	-0.182
-309.910	196.671	-0.152	0.230
-308.895	-164.375	-0.113	0.005
-307.880	1.597	-0.171	0.122
-306.866	-171.553	0.303	-0.010
-305.851	-51.351	-0.363	-0.169
-304.837	800.000	-0.065	0.196
-303.822	-100.006	-0.200	-0.049
-302.807	540.953	-0.089	0.210
-301.793	-172.544	0.315	-0.010
-300.778	800.000	0.064	-0.230
-299.764	800.000	0.058	0.187
-298.749	-76.156	-0.229	0.080
-297.735	-24.097	-0.259	0.153
-296.720	-200.000	0.003	0.545
-295.705	171.438	0.149	0.213
-294.691	254.101	0.058	0.099
-293.676	-123.676	0.439	-0.069
-292.662	415.578	-0.189	0.399
-291.647	-95.627	-0.182	0.048
-290.632	-78.539	-0.086	0.029
-289.618	-200.000	0.026	0.512
-288.603	218.726	0.131	0.208
-287.589	-200.000	-0.005	-0.041
-286.574	-36.563	0.191	-0.102
-285.559	-200.000	-0.008	-0.050
-284.545	37.151	-0.136	-0.120
-283.530	800.000	0.077	-0.323
-282.516	705.461	0.274	0.716
-281.501	32.533	-0.172	-0.148
-280.486	-200.000	-0.045	0.330
-279.472	-180.591	-0.150	-0.003
-278.457	-79.272	-0.162	0.054
-277.443	138.327	-0.216	0.281
-276.428	-119.325	0.302	-0.052
-275.413	-108.225	0.298	0.064
-274.399	58.032	0.240	0.233
-273.384	-200.000	0.044	-0.201
-272.370	485.223	-0.043	0.097
-271.355	171.288	-0.042	0.060
-270.340	222.105	0.018	-0.028
-269.326	-200.000	0.052	0.303
-268.311	130.208	-0.057	0.072
-267.297	415.415	0.032	-0.067
-266.282	-57.067	0.118	-0.052
-265.267	-15.888	0.173	0.109
-264.253	-200.000	0.008	0.036
-263.238	-35.464	0.114	-0.061
-262.224	-179.802	0.353	0.008
-261.209	12.188	-0.185	-0.141
-260.195	800.000	-0.019	0.058
-259.180	-4.373	0.324	-0.222
-258.165	-64.932	0.292	-0.117
-257.151	84.881	-0.113	0.123
-256.136	-200.000	-0.003	-0.039
-255.122	-103.124	0.328	-0.077
-254.107	98.667	-0.329	-0.376
-253.092	484.381	-0.134	0.302
-252.078	55.431	-0.167	0.160
-251.063	-19.265	-0.388	0.238
-250.049	136.332	0.109	0.140
-249.034	-88.186	-0.139	-0.041
-248.019	370.149	-0.062	0.125
-247.005	65.446	-0.097	0.098
-245.990	-195.630	0.386	0.003
-244.976	-114.342	-0.190	-0.036
-243.961	439.644	0.040	0.087
-242.946	-63.863	-0.144	0.058
-241.932	-200.000	-0.011	0.082
-240.917	-120.308	-0.083	0.014
-239.903	-162.775	0.218	-0.011
-238.888	-200.000	-0.017	0.096
-237.873	65.787	-0.054	0.054
-236.859	725.549	0.012	-0.032
-235.844	115.471	0.154	0.186
-234.830	-39.328	-0.356	0.185
-233.815	-200.000	-0.046	0.275
-232.800	92.235	0.032	0.035
-231.786	-200.000	-0.017	-0.138
-230.771	-200.000	0.016	0.443
-229.757	86.420	0.116	-0.127
-228.742	-25.972	-0.089	-0.052
-227.727	-143.452	0.157	-0.015
-226.713	5.701	-0.103	0.075
-225.698	-103.922	0.202	-0.047
-224.684	75.336	-0.227	-0.237
-223.669	-106.270	-0.218	-0.048
-222.655	-85.763	-0.136	0.042
-221.640	-200.000	0.009	0.099
-220.625	-6.379	0.335	0.226
-219.611	-69.531	-0.113	-0.043
-218.596	49.155	-0.209	0.194
-217.582	-104.960	0.106	0.024
-216.567	280.347	-0.096	-0.170
-215.552	85.513	-0.222	-0.241
-214.538	800.000	-0.051	-0.169
-213.523	-18.294	-0.226	0.140
-212.509	34.877	-0.128	-0.111
-211.494	27.745	-0.053	-0.045
-210.479	82.983	-0.121	0.130
-209.465	-120.244	-0.381	-0.064
-208.450	132.394	-0.020	0.025
-207.436	-75.788	0.200	-0.070
-206.421	800.000	0.036	-0.118
-205.406	-138.580	0.104	0.011
-204.392	-181.253	0.141	-0.003
-203.377	401.344	-0.108	0.223
-202.363	117.526	-0.214	-0.260
-201.348	-200.000	0.023	0.136
-200.333	-63.260	-0.081	0.033
-199.319	-30.354	-0.109	0.061
-198.304	2.441	-0.081	0.058
-197.290	-200.000	-0.002	-0.491
-196.275	-29.576	0.311	0.176
-195.260	-105.837	-0.086	0.019
-194.246	-70.402	-0.211	0.079
-193.231	-49.187	-0.296	-0.140
-192.217	-92.384	-0.263	0.073
-191.202	-9.492	-0.153	-0.101
-190.187	-200.000	-0.027	0.372
-189.173	-200.000	-0.011	0.221
-188.158	397.794	0.067	0.138
-187.144	474.829	0.022	0.049
-186.129	-36.967	0.302	0.160
-185.114	-167.301	0.440	-0.018
-184.100	800.000	0.067	0.200
-183.085	16.300	-0.186	-0.145
-182.071	800.000	0.069	0.212
-181.056	-200.000	0.172	0.000
-180.042	-200.000	-0.004	0.184
-179.027	109.939	0.142	0.168
-178.012	103.411	0.159	-0.184
-176.998	735.298	0.060	0.159
-175.983	199.872	0.234	0.355
-174.969	215.854	-0.062	0.097
-173.954	-73.223	0.144	0.052
-172.939	126.980	-0.142	0.178
-171.925	-105.483	0.216	0.049
-170.910	-53.956	0.170	-0.077
-169.896	-11.927	0.464	-0.301
-168.881	800.000	-0.043	-0.126
-167.866	800.000	0.099	-0.303
-166.852	-8.958	-0.030	-0.020
-165.837	32.383	-0.048	-0.041
-164.823	-106.315	-0.230	-0.051
-163.808	116.655	0.212	-0.257
-162.793	152.365	-0.044	-0.060
-161.779	-200.000	0.021	-0.090
-160.764	-52.757	0.072	-0.033
-159.750	67.647	-0.266	0.268
-158.735	-69.348	0.080	-0.030
-157.720	-200.000	-0.086	-0.373
-156.706	800.000	-0.068	-0.198
-155.691	120.877	0.129	-0.159
-154.677	81.404	-0.274	-0.292
-153.662	-200.000	0.046	0.218
-152.647	135.074	0.053	0.068
-151.633	-200.000	-0.007	-0.073
-150.618	-63.395	-0.271	-0.110
-149.604	34.203	0.378	-0.325
-148.589	182.268	-0.162	0.235
-147.574	800.000	-0.045	-0.136
-146.560	205.409	0.222	-0.339
-145.545	-107.060	-0.134	0.029
-144.531	-200.000	0.006	-0.236
-143.516	-147.257	-0.266	0.022
-142.502	75.270	-0.108	0.113
-141.487	-200.000	0.018	-0.125
-140.472	-24.222	-0.050	-0.030
-139.458	225.730	0.046	-0.074
-138.443	141.094	-0.174	0.227
-137.429	-200.000	0.019	0.406
-136.414	-200.000	0.051	0.265
-135.399	-172.081	-0.337	0.011
-134.385	-200.000	0.029	-0.521
-133.370	511.744	0.040	-0.092
-132.356	800.000	-0.027	-0.090
-131.341	96.067	0.087	0.099
-130.326	-200.000	0.017	0.086
-129.312	-200.000	-0.029	0.201
-128.297	800.000	0.056	0.186
-127.283	51.110	-0.289	-0.270
-126.268	136.311	-0.111	0.142
-125.253	-31.835	0.369	-0.204
-124.239	560.443	0.144	-0.343
-123.224	-19.232	0.149	0.091
-122.210	-200.000	0.045	-0.256
