DTS Sentinel unit serial number:	SN413079Multiplexer serial number:	ORYXHardware model number:	OX4-SRSoftware version number:	ORYX F/W v4.00 Oryx Data Collector v3.7.2.0data status	okinstallation	princeton_trtdifferential loss correction	single-endedforward channel	channel 3reverse channel	N/Adate	2019/09/10time	23:02:11forward acquisition time	60.00reverse acquisition time	0.00gamma	496.2192k internal	0.2331k external	0.2331temperature offset calibration	0.9916default loss term (dB/km)	0.3790temperature slope calibration	1.0000multiplexer offset coefficient	1.0000multiplexer slope coefficient	1.0000fibre end	0.00T internal ref (°C)	30.00T ext. ref 1 (°C)	-0.32T ext. ref 2 (°C)	23.56length (m)	temperature (°C)	Stokes	anti-Stokes-747.200	125.660	0.028	0.036
-746.185	-200.000	-0.029	-0.163
-745.171	110.115	0.043	0.052
-744.156	-64.103	-0.347	-0.142
-743.142	-200.000	-0.001	-0.166
-742.127	22.677	0.245	0.202
-741.112	76.895	0.248	0.265
-740.098	20.043	-0.237	0.192
-739.083	-191.518	-0.212	-0.002
-738.069	-200.000	0.081	0.465
-737.054	800.000	-0.021	-0.089
-736.039	179.143	0.163	0.240
-735.025	800.000	-0.102	0.428
-734.010	-200.000	0.000	-0.158
-732.996	61.621	-0.145	-0.145
-731.981	148.762	0.145	-0.198
-730.966	-119.130	0.130	0.023
-729.952	-118.508	-0.342	-0.061
-728.937	185.906	0.173	-0.258
-727.923	150.488	-0.325	-0.443
-726.908	756.215	0.106	0.289
-725.894	-200.000	-0.012	0.212
-724.879	494.181	-0.068	-0.156
-723.864	48.924	-0.054	-0.051
-722.850	-108.015	0.242	0.053
-721.835	-81.773	-0.324	-0.107
-720.821	-89.348	0.245	-0.072
-719.806	82.833	-0.102	0.111
-718.791	-153.539	-0.364	-0.025
-717.777	-67.312	0.350	-0.138
-716.762	161.225	-0.290	-0.408
-715.748	800.000	0.137	-0.408
-714.733	-174.517	-0.322	0.009
-713.718	800.000	-0.040	0.124
-712.704	241.525	0.208	-0.350
-711.689	-95.131	0.303	0.082
-710.675	14.485	0.192	-0.151
-709.660	-142.827	0.314	-0.031
-708.645	-24.353	-0.116	-0.070
-707.631	47.070	-0.165	-0.154
-706.616	269.992	0.022	-0.039
-705.602	-200.000	-0.004	-0.065
-704.587	29.365	0.171	-0.146
-703.572	-200.000	0.001	-0.470
-702.558	90.817	0.138	0.155
-701.543	112.192	0.214	-0.260
-700.529	699.336	0.038	0.100
-699.514	-200.000	0.074	-0.440
-698.499	800.000	-0.083	-0.267
-697.485	-50.075	-0.048	-0.023
-696.470	-200.000	-0.008	-0.036
-695.456	-19.562	0.355	-0.221
-694.441	-47.660	0.224	0.109
-693.426	49.239	-0.234	0.221
-692.412	35.623	-0.318	0.281
-691.397	-147.850	-0.343	-0.029
-690.383	-2.727	0.161	-0.113
-689.368	711.130	-0.034	0.090
-688.354	57.022	-0.210	-0.206
-687.339	-200.000	0.004	-0.342
-686.324	-21.353	-0.088	-0.054
-685.310	472.912	0.090	-0.204
-684.295	-124.602	0.302	-0.047
-683.281	-200.000	-0.010	0.106
-682.266	46.896	0.166	-0.155
-681.251	-200.000	-0.001	-0.122
-680.237	722.831	0.039	0.105
-679.222	499.179	0.138	0.320
-678.208	800.000	-0.085	-0.342
-677.193	-200.000	0.258	0.001
-676.178	33.943	-0.102	0.089
-675.164	0.511	-0.109	0.078
-674.149	322.093	-0.181	-0.346
-673.135	-67.079	-0.342	-0.136
-672.120	-140.609	-0.357	-0.037
-671.105	684.814	0.109	0.285
-670.091	346.316	-0.108	0.214
-669.076	137.485	0.051	0.068
-668.062	38.552	-0.135	0.121
-667.047	184.031	-0.145	0.215
-666.032	322.119	-0.284	0.542
-665.018	208.256	-0.031	-0.049
-664.003	-119.722	0.182	0.032
-662.989	-74.765	0.238	-0.086
-661.974	-200.000	-0.042	0.199
-660.959	203.788	-0.211	0.328
-659.945	-128.456	-0.084	0.012
-658.930	-200.000	-0.008	0.423
-657.916	-16.924	-0.100	-0.063
-656.901	342.930	0.086	0.170
-655.886	-90.381	-0.289	0.084
-654.872	362.547	0.086	-0.173
-653.857	800.000	0.071	0.217
-652.843	-82.305	0.232	0.076
-651.828	6.064	-0.061	-0.045
-650.814	-104.888	0.096	-0.022
-649.799	249.780	0.244	0.414
-648.784	800.000	-0.090	-0.360
-647.770	-47.840	0.167	-0.081
-646.755	-13.173	-0.209	-0.136
-645.741	-200.000	-0.182	0.001
-644.726	-94.961	-0.044	0.012
-643.711	-200.000	0.011	0.164
-642.697	-179.502	0.235	-0.005
-641.682	134.519	0.113	-0.146
-640.668	-156.324	0.222	0.014
-639.653	-47.802	-0.249	0.121
-638.638	800.000	0.059	-0.237
-637.624	-129.985	-0.224	-0.031
-636.609	-90.654	-0.431	-0.125
-635.595	-165.369	-0.238	0.010
-634.580	25.082	0.142	0.118
-633.565	-166.967	0.186	0.008
-632.551	119.603	-0.140	0.173
-631.536	-115.166	0.139	0.026
-630.522	-93.783	-0.102	0.028
-629.507	-60.594	0.147	0.063
-628.492	-6.946	-0.256	-0.174
-627.478	-82.062	-0.518	0.169
-626.463	-52.674	-0.241	-0.111
-625.449	800.000	0.089	0.372
-624.434	-178.764	0.228	0.005
-623.419	-32.044	-0.057	-0.032
-622.405	-39.626	0.086	-0.045
-621.390	-95.558	-0.239	0.064
-620.376	-91.855	0.301	0.085
-619.361	448.265	-0.042	-0.093
-618.346	669.101	-0.052	-0.135
-617.332	-67.948	-0.237	0.093
-616.317	-200.000	0.009	-0.271
-615.303	76.761	-0.085	-0.091
-614.288	-200.000	-0.016	0.228
-613.273	-200.000	0.012	0.086
-612.259	669.907	-0.095	-0.247
-611.244	-21.313	-0.163	-0.099
-610.230	85.434	-0.089	-0.098
-609.215	197.494	0.114	-0.175
-608.201	-13.483	-0.269	-0.175
-607.186	-104.991	0.252	0.058
-606.171	-29.210	-0.183	-0.105
-605.157	-10.586	-0.246	0.163
-604.142	359.467	-0.124	-0.249
-603.128	-200.000	0.228	0.001
-602.113	800.000	-0.065	-0.201
-601.098	-200.000	-0.006	0.147
-600.084	-123.063	-0.283	0.046
-599.069	-200.000	-0.233	-0.000
-598.055	-49.863	-0.226	0.107
-597.040	-113.237	0.237	0.047
-596.025	172.302	0.157	-0.226
-595.011	-44.852	0.091	-0.046
-593.996	63.691	-0.174	-0.175
-592.982	84.347	-0.085	0.093
-591.967	245.517	-0.196	0.330
-590.952	-200.000	-0.020	-0.281
-589.938	-14.449	-0.389	-0.250
-588.923	-200.000	0.025	-0.321
-587.909	136.581	-0.104	-0.136
-586.894	-9.954	-0.177	-0.118
-585.879	262.056	0.024	-0.041
-584.865	31.648	-0.321	0.277
-583.850	-200.000	-0.028	-0.395
-582.836	-200.000	-0.038	-0.391
-581.821	325.057	-0.121	0.232
-580.806	44.874	0.188	0.173
-579.792	-200.000	0.016	-0.252
-578.777	-40.513	0.263	-0.136
-577.763	-94.819	0.447	0.121
-576.748	158.807	-0.084	0.116
-575.733	80.194	-0.169	0.181
-574.719	-138.400	-0.114	-0.013
-573.704	97.871	0.244	0.281
-572.690	800.000	0.013	-0.051
-571.675	14.341	-0.304	-0.237
-570.661	118.568	-0.182	0.225
-569.646	800.000	0.023	-0.091
-568.631	-6.215	-0.315	-0.215
-567.617	-200.000	-0.014	-0.092
-566.602	271.355	-0.085	-0.150
-565.588	-31.344	-0.221	-0.124
-564.573	800.000	0.083	-0.333
-563.558	-91.603	-0.200	0.057
-562.544	568.993	-0.137	-0.332
-561.529	131.147	-0.076	0.098
-560.515	-37.249	0.068	0.037
-559.500	-97.539	0.267	0.069
-558.485	-52.223	0.237	-0.110
-557.471	-173.599	0.286	-0.009
-556.456	-65.044	-0.448	0.181
-555.442	800.000	-0.115	-0.337
-554.427	-95.496	-0.069	-0.018
-553.412	-24.685	-0.138	-0.082
-552.398	-148.624	-0.119	-0.010
-551.383	-122.866	-0.131	-0.021
-550.369	-133.276	-0.330	0.042
-549.354	200.635	0.167	-0.257
-548.339	-30.270	0.270	-0.153
-547.325	800.000	-0.104	0.350
-546.310	-132.374	0.468	0.060
-545.296	-110.621	-0.121	-0.025
-544.281	249.700	0.160	-0.271
-543.266	54.829	-0.119	0.114
-542.252	494.684	-0.072	-0.166
-541.237	800.000	0.017	-0.072
-540.223	-98.190	-0.372	0.095
-539.208	-87.995	-0.239	-0.072
-538.193	-101.743	0.176	-0.043
-537.179	138.247	-0.170	0.222
-536.164	-167.235	-0.329	0.013
-535.150	-200.000	0.023	0.183
-534.135	-93.653	0.169	0.047
-533.121	-157.250	0.142	-0.009
-532.106	-68.803	-0.234	0.090
-531.091	-160.629	0.136	-0.007
-530.077	-200.000	-0.003	0.361
-529.062	-74.320	0.421	0.152
-528.048	103.738	-0.141	0.165
-527.033	-77.645	0.289	0.100
-526.018	-117.367	-0.053	-0.010
-525.004	-200.000	0.012	0.129
-523.989	-23.195	-0.086	0.052
-522.975	800.000	-0.054	0.159
-521.960	-200.000	0.054	-0.296
-520.945	-89.412	0.232	0.068
-519.931	149.035	0.023	-0.031
-518.916	-166.874	-0.365	-0.015
-517.902	-120.086	0.152	0.026
-516.887	-133.143	-0.417	-0.053
-515.872	800.000	-0.005	0.015
-514.858	-84.830	-0.042	0.013
-513.843	129.862	0.023	0.029
-512.829	-107.856	-0.126	-0.027
-511.814	24.343	-0.197	0.163
-510.799	-63.006	-0.102	0.042
-509.785	-137.142	0.394	-0.045
-508.770	-96.797	0.318	0.083
-507.756	-200.000	-0.004	-0.267
-506.741	-47.940	0.208	0.100
-505.726	1.705	-0.194	-0.139
-504.712	-200.000	-0.045	-0.314
-503.697	-36.131	0.361	-0.194
-502.683	800.000	-0.093	-0.287
-501.668	-80.782	0.308	0.102
-500.653	81.296	-0.069	0.074
-499.639	-200.000	-0.015	0.212
-498.624	-200.000	-0.008	0.159
-497.610	-116.678	0.077	0.014
-496.595	-135.765	0.123	0.015
-495.581	89.284	-0.250	-0.277
-494.566	800.000	0.079	-0.263
-493.551	-66.979	-0.115	-0.045
-492.537	-88.921	-0.088	-0.026
-491.522	-40.081	0.205	-0.107
-490.508	-33.011	0.417	0.231
-489.493	800.000	0.073	-0.302
-488.478	-192.797	-0.062	-0.001
-487.464	-1.172	0.299	0.211
-486.449	114.742	-0.077	0.094
-485.435	141.655	0.113	0.149
-484.420	47.667	0.364	0.339
-483.405	628.129	-0.132	0.332
-482.391	48.986	0.033	0.031
-481.376	-33.848	-0.062	0.034
-480.362	-42.977	-0.180	0.091
-479.347	-200.000	0.040	0.244
-478.332	200.038	-0.150	-0.229
-477.318	-21.529	-0.266	-0.161
-476.303	-132.152	0.161	0.021
-475.289	122.850	0.150	0.187
-474.274	-152.077	0.225	-0.016
-473.259	-28.839	-0.200	0.115
-472.245	254.568	-0.187	-0.319
-471.230	88.939	0.224	-0.248
-470.216	21.423	0.087	0.070
-469.201	-200.000	-0.009	-0.275
-468.186	-200.000	0.047	0.341
-467.172	-53.945	-0.119	0.054
-466.157	-32.421	0.243	-0.135
-465.143	-8.794	0.282	-0.188
-464.128	93.178	-0.145	0.163
-463.113	-89.798	-0.224	-0.065
-462.099	800.000	-0.031	0.098
-461.084	411.287	-0.066	0.139
-460.070	58.497	-0.238	-0.233
-459.055	-106.385	0.223	-0.050
-458.040	9.104	-0.216	-0.162
-457.026	175.330	0.116	-0.167
-456.011	-200.000	0.021	-0.116
-454.997	157.112	0.047	-0.065
-453.982	800.000	-0.075	0.209
-452.968	-133.594	0.367	-0.046
-451.953	111.358	-0.007	0.009
-450.938	110.806	0.143	0.171
-449.924	-200.000	0.045	-0.232
-448.909	-200.000	-0.016	0.110
-447.895	-46.045	0.357	-0.175
-446.880	7.222	-0.214	-0.159
-445.865	-131.477	0.070	0.009
-444.851	103.972	0.128	-0.150
-443.836	-26.503	-0.076	0.044
-442.822	-200.000	-0.351	0.000
-441.807	800.000	0.094	-0.333
-440.792	8.536	0.180	-0.135
-439.778	431.815	-0.010	-0.021
-438.763	2.273	0.067	-0.048
-437.749	346.875	0.021	0.041
-436.734	-65.894	0.087	0.035
-435.719	228.735	-0.150	0.243
-434.705	-34.771	0.128	0.069
-433.690	234.611	0.092	0.150
-432.676	96.978	-0.136	-0.155
-431.661	427.891	0.101	0.218
-430.646	278.774	0.208	0.368
-429.632	-200.000	-0.030	-0.398
-428.617	-71.942	-0.198	-0.073
-427.603	-127.333	-0.108	-0.016
-426.588	-59.744	0.281	0.120
-425.573	800.000	0.069	-0.209
-424.559	-43.784	0.401	-0.201
-423.544	81.131	0.232	-0.249
-422.530	-200.000	0.004	0.149
-421.515	-109.099	0.306	0.065
-420.500	-95.970	-0.289	0.076
-419.486	-160.170	0.287	0.015
-418.471	34.422	0.120	-0.104
-417.457	56.860	0.251	0.243
-416.442	2.893	0.209	-0.150
-415.428	-200.000	0.020	0.101
-414.413	-153.422	0.274	0.019
-413.398	-23.503	-0.194	-0.116
-412.384	47.423	-0.100	0.092
-411.369	11.539	0.116	-0.089
-410.355	607.393	0.073	-0.181
-409.340	10.925	0.067	0.051
-408.325	-200.000	-0.044	-0.467
-407.311	-164.799	-0.210	0.009
-406.296	-29.109	-0.282	-0.161
-405.282	-2.619	-0.221	-0.154
-404.267	5.972	0.275	-0.202
-403.252	182.062	0.112	-0.164
-402.238	63.789	0.064	-0.064
-401.223	800.000	0.131	0.409
-400.209	-28.941	0.129	0.074
-399.194	-67.542	-0.150	0.058
-398.179	770.550	-0.054	-0.145
-397.165	-87.711	-0.130	-0.039
-396.150	223.882	-0.148	0.238
-395.136	-67.025	0.264	-0.103
-394.121	156.152	0.282	0.386
-393.106	-34.346	-0.201	-0.109
-392.092	47.494	-0.187	-0.173
-391.077	-200.000	0.002	0.039
-390.063	160.976	0.113	-0.156
-389.048	156.908	-0.142	0.195
-388.033	-200.000	-0.043	0.209
-387.019	167.297	-0.114	-0.161
-386.004	-185.174	-0.197	-0.003
-384.990	-52.458	0.253	0.116
-383.975	800.000	-0.020	0.081
-382.960	-3.483	-0.208	0.144
-381.946	-180.082	-0.166	0.003
-380.931	463.988	0.090	-0.200
-379.917	-200.000	0.021	-0.318
-378.902	-173.464	-0.120	0.004
-377.888	800.000	-0.062	0.257
-376.873	800.000	-0.080	0.222
-375.858	-107.492	0.230	-0.050
-374.844	37.497	0.133	-0.117
-373.829	-200.000	-0.052	-0.294
-372.815	110.203	0.125	0.148
-371.800	48.926	0.054	-0.050
-370.785	-37.708	0.221	0.117
-369.771	-200.000	0.022	-0.313
-368.756	-200.000	-0.008	-0.278
-367.742	411.108	-0.166	-0.350
-366.727	90.017	-0.095	-0.106
-365.712	-200.000	-0.022	-0.148
-364.698	-85.626	0.363	-0.112
-363.683	-200.000	0.018	-0.123
-362.669	681.173	-0.079	-0.204
-361.654	266.972	0.015	-0.026
-360.639	217.901	-0.192	-0.303
-359.625	186.394	0.118	0.174
-358.610	-140.129	-0.121	-0.013
-357.596	135.349	0.139	0.179
-356.581	-96.759	-0.409	0.107
-355.566	800.000	-0.121	0.391
-354.552	126.224	-0.168	0.211
-353.537	-200.000	-0.007	0.190
-352.523	57.900	0.196	-0.190
-351.508	-42.728	0.045	-0.023
-350.493	165.061	-0.048	-0.067
-349.479	-89.603	-0.022	-0.006
-348.464	-162.834	0.168	-0.008
-347.450	-55.996	-0.069	0.031
-346.435	800.000	0.016	0.063
-345.420	-48.368	0.241	0.115
-344.406	46.017	0.189	-0.173
-343.391	-200.000	-0.017	0.298
-342.377	-129.158	-0.217	-0.030
-341.362	291.545	-0.069	-0.124
-340.348	-134.110	-0.200	-0.024
-339.333	-22.449	0.218	0.131
-338.318	195.690	-0.108	-0.162
-337.304	-92.844	0.201	0.056
-336.289	-200.000	-0.024	0.175
-335.275	-180.451	0.191	-0.004
-334.260	40.961	0.327	0.292
-333.245	800.000	-0.138	0.393
-332.231	118.075	-0.020	0.024
-331.216	-200.000	-0.058	0.356
-330.202	-110.331	-0.118	0.024
-329.187	-92.835	-0.124	0.034
-328.172	-41.518	-0.075	-0.038
-327.158	-81.199	0.024	-0.008
-326.143	-37.865	-0.192	-0.101
-325.129	-95.787	0.030	0.008
-324.114	-80.209	0.301	0.100
-323.099	-200.000	-0.066	-0.338
-322.085	19.682	-0.160	-0.128
-321.070	-63.224	0.227	0.092
-320.056	-200.000	-0.021	-0.156
-319.041	36.600	-0.132	-0.115
-318.026	199.674	0.042	0.064
-317.012	295.843	-0.093	0.169
-315.997	-140.683	0.038	0.004
-314.983	-21.954	0.132	0.079
-313.968	-15.391	0.131	0.083
-312.953	377.038	-0.032	0.065
-311.939	-200.000	0.253	0.001
-310.924	-126.057	0.155	-0.023
-309.910	146.666	0.026	0.035
-308.895	-141.555	-0.366	-0.037
-307.880	-200.000	-0.072	0.387
-306.866	-80.722	-0.242	0.079
-305.851	-59.331	0.195	-0.083
-304.837	-45.056	-0.136	0.067
-303.822	41.506	0.223	0.200
-302.807	-60.236	0.269	-0.114
-301.793	-44.945	-0.318	-0.156
-300.778	-22.426	0.406	-0.243
-299.764	422.620	0.100	-0.213
-298.749	-200.000	0.040	0.273
-297.735	-144.527	-0.018	-0.002
-296.720	-106.255	0.105	0.023
-295.705	440.280	0.082	0.177
-294.691	-73.574	-0.117	0.042
-293.676	127.248	-0.098	0.123
-292.662	-21.702	-0.191	0.115
-291.647	499.309	0.081	-0.184
-290.632	800.000	-0.048	-0.134
-289.618	8.219	-0.036	0.027
-288.603	-85.665	0.154	0.047
-287.589	-200.000	-0.052	0.339
-286.574	356.964	0.158	0.312
-285.559	-48.922	0.076	-0.036
-284.545	-200.000	0.001	-0.332
-283.530	238.401	0.143	0.235
-282.516	162.866	-0.042	0.059
-281.501	-14.198	-0.140	-0.089
-280.486	-200.000	-0.058	-0.351
-279.472	-78.288	0.357	-0.121
-278.457	-130.726	0.358	-0.048
-277.443	622.947	0.032	0.079
-276.428	800.000	0.083	-0.356
-275.413	96.234	-0.146	0.165
-274.399	-125.150	-0.261	-0.040
-273.384	800.000	0.070	-0.244
-272.370	-108.700	-0.236	-0.050
-271.355	780.070	-0.062	-0.168
-270.340	-2.731	-0.322	-0.222
-269.326	-200.000	0.076	0.340
-268.311	-163.480	0.182	0.009
-267.297	800.000	0.096	-0.359
-266.282	-85.809	-0.321	0.098
-265.267	-126.196	-0.332	0.049
-264.253	-37.146	0.308	0.163
-263.238	-53.124	0.220	0.100
-262.224	16.586	0.016	-0.013
-261.209	-2.334	0.027	0.019
-260.195	-59.915	0.223	-0.094
-259.180	-82.352	-0.080	0.026
-258.165	-200.000	0.019	0.335
-257.151	-200.000	0.064	-0.296
-256.136	10.117	0.132	-0.099
-255.122	-22.881	-0.188	-0.112
-254.107	316.508	-0.139	0.260
-253.092	-48.501	-0.073	-0.035
-252.078	-72.943	0.271	0.098
-251.063	135.374	-0.128	-0.165
-250.049	51.695	-0.288	0.270
-249.034	238.420	-0.221	0.363
-248.019	-132.131	0.307	-0.039
-247.005	204.086	0.083	0.128
-245.990	-33.186	0.180	0.098
-244.976	174.276	0.079	0.113
-243.961	-130.847	-0.278	0.037
-242.946	124.827	-0.261	0.325
-241.932	-143.417	0.218	0.021
-240.917	6.262	-0.063	-0.046
-239.903	800.000	0.137	0.531
-238.888	-90.071	0.123	-0.035
-237.873	125.645	-0.086	0.108
-236.859	-129.967	0.277	0.037
-235.844	54.458	-0.054	-0.051
-234.830	34.697	0.247	0.213
-233.815	69.563	-0.224	0.227
-232.800	489.176	0.025	0.056
-231.786	800.000	-0.077	-0.250
-230.771	645.640	0.112	-0.281
-229.757	91.381	0.021	0.023
-228.742	97.691	0.274	0.310
-227.727	-116.165	0.130	0.024
-226.713	-90.699	-0.178	0.051
-225.698	-20.677	-0.329	-0.199
-224.684	68.862	0.108	-0.110
-223.669	382.406	0.159	0.322
-222.655	-200.000	0.017	0.331
-221.640	162.933	0.106	-0.146
-220.625	-200.000	-0.048	0.365
-219.611	21.714	0.154	-0.124
-218.596	-68.071	0.282	-0.109
-217.582	800.000	0.014	0.050
-216.567	-125.972	-0.120	0.018
-215.552	-18.534	-0.240	-0.148
-214.538	-200.000	0.022	0.105
-213.523	-200.000	0.013	-0.133
-212.509	481.492	0.122	0.272
-211.494	-109.360	-0.186	-0.039
-210.479	-200.000	0.060	0.293
-209.465	-30.124	-0.067	-0.037
-208.450	33.058	0.178	-0.152
-207.436	24.236	-0.152	-0.124
-206.421	286.731	0.168	0.299
-205.406	-200.000	0.038	0.233
-204.392	421.043	0.116	0.245
-203.377	-182.617	0.202	0.004
-202.363	373.071	-0.126	0.252
-201.348	247.884	-0.075	0.124
-200.333	186.181	-0.250	0.366
-199.319	-200.000	-0.029	-0.224
-198.304	619.091	0.031	-0.078
-197.290	-22.216	-0.349	0.209
-196.275	47.506	0.230	0.211
-195.260	196.779	0.088	-0.131
-194.246	-158.093	-0.175	0.010
-193.231	-102.441	0.098	-0.023
-192.217	-20.171	-0.249	0.151
-191.202	386.717	-0.011	0.022
-190.187	-29.009	-0.131	0.074
-189.173	-109.465	-0.610	0.127
-188.158	116.683	0.169	0.204
-187.144	36.204	-0.403	0.349
-186.129	-200.000	-0.007	0.058
-185.114	-78.384	-0.162	-0.055
-184.100	-159.576	-0.345	0.019
-183.085	344.494	-0.103	0.199
-182.071	-91.703	-0.125	-0.035
-181.056	61.100	0.229	0.224
-180.042	388.507	0.121	-0.247
-179.027	646.055	0.089	-0.224
-178.012	-200.000	0.001	0.128
-176.998	-93.481	-0.307	0.084
-175.983	323.410	0.063	-0.119
-174.969	-85.270	0.211	0.065
-173.954	-111.232	-0.210	-0.042
-172.939	323.631	0.113	-0.212
-171.925	-124.101	0.440	0.068
-170.910	-200.000	0.022	0.119
-169.896	13.524	0.167	-0.128
-168.881	175.807	0.093	-0.132
-167.866	246.643	-0.249	-0.413
-166.852	-143.671	-0.041	0.004
-165.837	101.012	0.224	0.257
-164.823	-46.668	-0.076	-0.037
-163.808	-59.387	0.056	0.024
-162.793	-200.000	-0.019	0.116
-161.779	-115.265	-0.308	-0.057
-160.764	-101.320	0.315	-0.076
-159.750	-200.000	0.062	-0.378
-158.735	-200.000	0.000	-0.076
-157.720	800.000	0.060	-0.251
-156.706	-57.617	-0.149	0.064
-155.691	66.069	-0.217	0.217
-154.677	800.000	0.150	-0.514
-153.662	90.562	0.162	0.179
-152.647	61.781	0.142	0.139
-151.633	-22.174	0.305	-0.182
-150.618	-19.918	0.146	-0.088
-149.604	-200.000	-0.003	0.091
-148.589	-3.086	-0.017	0.012
-147.574	-162.094	-0.417	-0.021
-146.560	441.244	0.144	0.310
-145.545	-156.185	-0.266	-0.016
-144.531	637.964	0.111	-0.277
-143.516	165.895	0.084	0.117
-142.502	-79.779	-0.199	0.066
-141.487	800.000	-0.051	-0.196
-140.472	31.377	0.204	-0.172
-139.458	-173.686	0.218	0.006
-138.443	27.455	-0.121	0.100
-137.429	20.376	-0.091	-0.072
-136.414	800.000	-0.029	-0.082
-135.399	-94.875	-0.363	0.097
-134.385	-33.441	-0.215	-0.117
-133.370	-106.982	0.240	0.052
-132.356	-91.196	0.114	0.032
-131.341	-108.160	-0.231	-0.049
-130.326	-16.130	-0.217	0.135
-129.312	-61.666	-0.434	-0.179
-128.297	800.000	-0.032	-0.088
-127.283	-200.000	-0.002	0.072
-126.268	-155.039	-0.194	0.013
-125.253	-173.070	-0.236	0.007
-124.239	216.660	0.088	0.138
-123.224	283.004	-0.061	-0.108
-122.210	-13.344	-0.098	0.063
