DTS Sentinel unit serial number:	SN413079Multiplexer serial number:	ORYXHardware model number:	OX4-SRSoftware version number:	ORYX F/W v4.00 Oryx Data Collector v3.7.2.0data status	okinstallation	princeton_trtdifferential loss correction	single-endedforward channel	channel 3reverse channel	N/Adate	2019/09/16time	06:40:35forward acquisition time	60.00reverse acquisition time	0.00gamma	496.2192k internal	0.2335k external	0.2335temperature offset calibration	0.9956default loss term (dB/km)	0.3790temperature slope calibration	1.0000multiplexer offset coefficient	1.0000multiplexer slope coefficient	1.0000fibre end	0.00T internal ref (°C)	27.37T ext. ref 1 (°C)	11.41T ext. ref 2 (°C)	21.95length (m)	temperature (°C)	Stokes	anti-Stokes-747.200	172.842	0.140	0.203
-746.185	-200.000	0.061	0.330
-745.171	-9.699	0.279	0.187
-744.156	800.000	-0.120	0.337
-743.142	146.939	0.066	0.089
-742.127	242.282	0.186	-0.313
-741.112	-25.776	0.151	-0.089
-740.098	127.582	0.123	0.156
-739.083	61.699	0.117	0.117
-738.069	-200.000	-0.030	-0.141
-737.054	132.578	-0.110	-0.142
-736.039	-200.000	-0.129	-0.580
-735.025	166.271	-0.188	0.267
-734.010	387.221	0.088	-0.184
-732.996	29.222	-0.238	-0.203
-731.981	3.942	0.303	-0.223
-730.966	-45.876	-0.242	0.120
-729.952	273.000	-0.061	0.108
-728.937	96.120	-0.323	-0.371
-727.923	800.000	0.052	-0.190
-726.908	-124.240	-0.281	-0.044
-725.894	746.412	0.049	0.133
-724.879	-200.000	0.010	-0.327
-723.864	371.084	-0.135	-0.274
-722.850	800.000	0.032	-0.121
-721.835	477.146	-0.102	0.232
-720.821	800.000	-0.087	-0.313
-719.806	-200.000	-0.062	0.321
-718.791	800.000	0.102	-0.345
-717.777	-200.000	0.036	-0.232
-716.762	25.368	0.084	-0.070
-715.748	292.767	0.006	0.012
-714.733	-45.285	-0.379	0.189
-713.718	222.976	-0.046	0.074
-712.704	-200.000	0.009	0.114
-711.689	-120.605	-0.190	0.032
-710.675	-92.155	0.219	-0.062
-709.660	178.170	0.198	-0.289
-708.645	60.612	0.345	-0.343
-707.631	-71.352	0.254	-0.096
-706.616	-111.352	0.536	0.110
-705.602	91.503	-0.258	0.291
-704.587	42.929	0.148	0.135
-703.572	800.000	0.031	0.093
-702.558	244.882	0.143	0.242
-701.543	55.432	0.218	0.211
-700.529	800.000	-0.074	0.210
-699.514	800.000	-0.018	0.066
-698.499	66.101	-0.197	-0.200
-697.485	188.109	-0.192	-0.287
-696.470	800.000	-0.055	0.154
-695.456	-34.080	-0.130	0.071
-694.441	-161.884	-0.210	0.011
-693.426	-46.140	0.239	-0.118
-692.412	-107.016	0.264	0.058
-691.397	29.770	0.231	0.198
-690.383	30.512	-0.309	0.265
-689.368	-111.293	0.246	-0.050
-688.354	572.191	-0.052	-0.127
-687.339	-23.884	0.297	-0.178
-686.324	-119.157	0.130	-0.023
-685.310	-34.194	0.364	0.201
-684.295	-18.952	-0.195	0.121
-683.281	718.104	-0.116	-0.309
-682.266	71.079	0.293	0.304
-681.251	-136.053	-0.150	0.018
-680.237	-200.000	-0.012	-0.457
-679.222	-200.000	0.001	-0.149
-678.208	-159.163	0.028	0.002
-677.193	-200.000	0.006	0.368
-676.178	-85.809	-0.361	0.112
-675.164	-150.089	0.294	-0.023
-674.149	46.315	0.191	-0.177
-673.135	-79.922	0.156	0.052
-672.120	-200.000	0.041	0.259
-671.105	84.066	0.328	-0.359
-670.091	148.311	0.046	-0.062
-669.076	-82.549	0.279	0.091
-668.062	-49.182	-0.246	-0.118
-667.047	-16.494	0.243	0.155
-666.032	-121.289	-0.115	0.019
-665.018	-200.000	-0.031	0.220
-664.003	-200.000	-0.001	-0.008
-662.989	253.178	0.049	0.084
-661.974	-200.000	-0.032	-0.168
-660.959	220.215	0.118	0.190
-659.945	23.329	-0.088	-0.073
-658.930	-28.268	0.182	-0.105
-657.916	-31.172	-0.172	-0.097
-656.901	-21.675	0.113	-0.069
-655.886	223.015	-0.168	0.272
-654.872	7.719	0.247	-0.185
-653.857	712.648	0.048	0.127
-652.843	-156.110	-0.124	0.008
-651.828	-200.000	-0.001	-0.279
-650.814	-200.000	0.002	-0.030
-649.799	-200.000	0.007	-0.458
-648.784	-200.000	-0.022	-0.164
-647.770	-200.000	0.019	0.161
-646.755	800.000	0.034	0.112
-645.741	800.000	-0.022	-0.086
-644.726	-200.000	0.039	-0.231
-643.711	16.431	-0.363	-0.287
-642.697	22.810	0.193	0.158
-641.682	98.558	0.249	0.288
-640.668	72.078	-0.152	-0.158
-639.653	-64.967	0.273	-0.111
-638.638	264.190	-0.232	-0.403
-637.624	266.821	-0.071	-0.125
-636.609	441.717	0.056	-0.122
-635.595	-200.000	-0.204	0.001
-634.580	-200.000	-0.006	0.102
-633.565	73.463	-0.264	0.277
-632.551	-96.505	-0.038	-0.010
-631.536	-200.000	0.065	-0.406
-630.522	181.702	-0.145	-0.214
-629.507	-152.338	0.321	-0.023
-628.492	58.241	0.123	-0.121
-627.478	-155.451	-0.308	-0.020
-626.463	-113.842	-0.223	-0.043
-625.449	-200.000	0.015	0.158
-624.434	303.961	0.119	0.220
-623.419	13.949	-0.137	0.107
-622.405	169.028	-0.082	0.117
-621.390	-113.519	0.087	0.017
-620.376	-93.332	-0.162	-0.045
-619.361	720.061	0.024	-0.065
-618.346	-19.386	-0.197	-0.122
-617.332	-65.742	-0.097	0.039
-616.317	-200.000	0.015	-0.114
-615.303	-168.358	-0.190	-0.007
-614.288	-200.000	0.049	-0.350
-613.273	-131.306	0.639	-0.085
-612.259	7.444	-0.365	0.273
-611.244	23.196	0.243	0.200
-610.230	-200.000	0.029	0.224
-609.215	104.958	-0.128	0.151
-608.201	-81.911	-0.216	-0.071
-607.186	-200.000	-0.006	0.186
-606.171	-114.099	-0.167	-0.032
-605.157	-120.530	0.165	-0.028
-604.142	800.000	-0.038	-0.113
-603.128	-200.000	0.020	-0.150
-602.113	-21.708	0.213	0.130
-601.098	-200.000	-0.041	0.306
-600.084	-92.959	0.206	-0.057
-599.069	270.135	0.151	-0.264
-598.055	-8.619	0.107	-0.072
-597.040	800.000	-0.045	0.125
-596.025	215.259	0.045	0.072
-595.011	-29.894	0.232	0.132
-593.996	94.838	0.233	0.265
-592.982	-39.705	0.118	-0.062
-591.967	28.865	-0.177	-0.150
-590.952	-58.641	0.358	-0.155
-589.938	-103.570	-0.452	0.106
-588.923	177.840	0.210	0.305
-587.909	7.382	-0.406	0.303
-586.894	-200.000	-0.064	0.347
-585.879	-200.000	-0.001	0.363
-584.865	597.160	0.035	-0.086
-583.850	-200.000	-0.049	-0.274
-582.836	111.629	0.372	0.449
-581.821	-85.042	-0.296	0.093
-580.806	800.000	0.028	-0.109
-579.792	800.000	0.082	-0.228
-578.777	-200.000	-0.023	-0.325
-577.763	61.860	-0.254	-0.253
-576.748	-9.796	0.317	-0.210
-575.733	-200.000	0.043	0.271
-574.719	281.850	-0.103	0.185
-573.704	81.282	0.248	0.267
-572.690	-130.827	0.228	0.031
-571.675	-54.964	0.229	-0.103
-570.661	-6.706	0.163	-0.110
-569.646	266.516	0.088	-0.153
-568.631	271.753	-0.092	-0.162
-567.617	800.000	0.058	-0.239
-566.602	29.677	-0.207	0.176
-565.588	168.087	-0.255	0.363
-564.573	-200.000	-0.030	-0.216
-563.558	-122.858	0.468	-0.075
-562.544	374.932	-0.128	-0.261
-561.529	264.599	-0.040	-0.069
-560.515	720.029	-0.125	-0.333
-559.500	-200.000	0.002	-0.249
-558.485	-53.518	-0.335	-0.153
-557.471	800.000	0.078	0.249
-556.456	-45.007	0.093	-0.046
-555.442	-69.369	-0.125	0.048
-554.427	9.977	-0.147	-0.112
-553.412	-90.080	0.048	-0.014
-552.398	-200.000	0.008	-0.360
-551.383	-169.811	0.210	0.008
-550.369	207.564	-0.051	0.079
-549.354	-29.070	0.235	0.135
-548.339	14.678	-0.233	-0.181
-547.325	-110.172	-0.192	-0.040
-546.310	65.287	0.239	-0.241
-545.296	800.000	-0.037	-0.150
-544.281	-155.781	0.463	0.029
-543.266	-20.295	0.159	0.098
-542.252	255.849	0.115	0.196
-541.237	39.480	0.196	-0.175
-540.223	198.770	-0.185	-0.282
-539.208	-164.899	-0.217	-0.010
-538.193	-98.682	-0.018	0.005
-537.179	-200.000	-0.033	0.221
-536.164	275.043	0.137	-0.243
-535.150	-47.274	0.046	0.022
-534.135	800.000	0.025	-0.073
-533.121	268.342	0.076	-0.133
-532.106	-200.000	-0.040	-0.193
-531.091	-97.560	0.242	-0.062
-530.077	58.992	0.417	0.409
-529.062	183.409	0.046	0.068
-528.048	34.638	0.208	-0.181
-527.033	225.285	0.170	-0.274
-526.018	800.000	0.028	-0.095
-525.004	27.390	-0.162	-0.135
-523.989	-86.492	-0.214	-0.065
-522.975	-200.000	0.064	0.423
-521.960	800.000	0.033	0.127
-520.945	68.539	0.130	-0.133
-519.931	103.192	-0.094	0.110
-518.916	-64.507	-0.157	-0.064
-517.902	-200.000	0.096	-0.496
-516.887	800.000	-0.088	0.262
-515.872	58.412	0.012	0.012
-514.858	-16.027	-0.308	-0.195
-513.843	-200.000	0.039	0.172
-512.829	84.200	-0.140	0.152
-511.814	48.036	0.065	-0.061
-510.799	574.476	-0.155	-0.377
-509.785	-29.124	0.254	0.145
-508.770	800.000	0.093	-0.294
-507.756	-43.695	-0.343	0.172
-506.741	19.318	-0.412	-0.330
-505.726	190.752	-0.098	0.147
-504.712	91.345	-0.239	0.267
-503.697	107.070	-0.148	-0.175
-502.683	-40.827	-0.092	-0.048
-501.668	624.650	0.118	0.297
-500.653	533.624	0.123	-0.290
-499.639	-31.208	-0.083	0.047
-498.624	-138.098	0.129	-0.014
-497.610	42.916	0.137	0.125
-496.595	-200.000	0.068	-0.412
-495.581	235.583	0.094	-0.154
-494.566	-200.000	-0.013	0.125
-493.551	72.863	-0.109	-0.114
-492.537	231.261	0.156	0.255
-491.522	-173.260	-0.157	-0.005
-490.508	-84.039	-0.093	0.029
-489.493	-200.000	-0.002	0.058
-488.478	-200.000	-0.022	0.281
-487.464	291.114	-0.133	-0.241
-486.449	-200.000	-0.080	0.354
-485.435	800.000	0.026	-0.097
-484.420	-46.420	0.271	0.132
-483.405	489.602	0.044	0.099
-482.391	800.000	0.067	-0.211
-481.376	-200.000	-0.002	-0.136
-480.362	244.177	-0.155	-0.258
-479.347	-31.923	-0.088	-0.049
-478.332	-41.447	0.289	-0.148
-477.318	-200.000	0.049	-0.257
-476.303	276.458	0.153	-0.271
-475.289	-200.000	-0.033	-0.164
-474.274	-115.770	-0.278	-0.052
-473.259	198.593	0.326	-0.496
-472.245	-0.592	-0.205	0.145
-471.230	-167.143	-0.348	0.014
-470.216	-115.495	0.297	-0.056
-469.201	66.633	0.165	-0.167
-468.186	-200.000	0.278	0.000
-467.172	-200.000	0.007	-0.307
-466.157	155.014	-0.143	0.196
-465.143	27.575	-0.240	-0.201
-464.128	332.514	0.040	-0.076
-463.113	222.602	-0.136	0.218
-462.099	-2.762	-0.067	0.046
-461.084	-200.000	0.101	0.564
-460.070	-200.000	0.021	0.225
-459.055	-85.222	-0.295	0.092
-458.040	800.000	0.038	0.130
-457.026	12.848	0.322	0.247
-456.011	-200.000	0.001	0.095
-454.997	800.000	0.072	-0.261
-453.982	-175.564	-0.123	-0.003
-452.968	-200.000	-0.036	-0.343
-451.953	734.739	-0.076	-0.203
-450.938	-200.000	0.011	0.210
-449.924	-81.122	0.179	-0.059
-448.909	543.370	-0.157	-0.372
-447.895	264.734	-0.154	-0.266
-446.880	-200.000	-0.018	-0.081
-445.865	-104.456	-0.308	0.071
-444.851	-129.619	-0.232	0.032
-443.836	-200.000	-0.005	0.222
-442.822	24.978	-0.032	0.027
-441.807	23.530	0.223	0.182
-440.792	-14.414	0.317	0.203
-439.778	-200.000	-0.026	0.178
-438.763	21.174	0.218	0.176
-437.749	-110.531	-0.180	-0.037
-436.734	-200.000	0.018	-0.095
-435.719	96.537	-0.141	-0.160
-434.705	-200.000	0.079	0.410
-433.690	238.145	0.198	0.326
-432.676	-63.678	0.129	0.053
-431.661	91.078	-0.193	-0.215
-430.646	-44.005	-0.315	-0.157
-429.632	-156.819	-0.312	-0.019
-428.617	-171.109	-0.136	0.005
-427.603	-75.681	-0.214	-0.075
-426.588	-72.760	-0.077	0.028
-425.573	102.569	-0.101	-0.118
-424.559	-200.000	0.011	0.160
-423.544	-200.000	-0.029	-0.174
-422.530	-79.450	-0.163	-0.055
-421.515	82.935	-0.139	0.150
-420.500	92.290	0.186	-0.208
-419.486	22.779	-0.102	-0.083
-418.471	-84.438	0.295	0.092
-417.457	-85.650	-0.328	-0.101
-416.442	576.085	0.048	0.117
-415.428	64.958	-0.261	0.261
-414.413	-200.000	-0.041	-0.287
-413.398	800.000	-0.092	-0.380
-412.384	800.000	0.076	-0.237
-411.369	-30.082	-0.036	-0.020
-410.355	800.000	0.029	0.090
-409.340	-69.494	-0.102	0.039
-408.325	-58.503	-0.294	0.127
-407.311	-161.537	-0.136	0.007
-406.296	-36.413	0.162	-0.087
-405.282	70.399	0.287	0.294
-404.267	7.900	0.054	0.040
-403.252	-10.125	0.220	0.145
-402.238	215.478	-0.099	0.156
-401.223	101.959	-0.152	-0.176
-400.209	82.187	0.185	-0.199
-399.194	-131.357	0.303	-0.040
-398.179	-26.463	0.167	-0.097
-397.165	-88.135	0.273	-0.081
-396.150	-99.030	-0.348	0.087
-395.136	-200.000	0.034	0.214
-394.121	-80.731	0.143	-0.047
-393.106	485.482	0.017	0.039
-392.092	800.000	0.091	0.344
-391.077	2.352	-0.328	0.235
-390.063	193.296	-0.035	-0.053
-389.048	177.853	-0.089	0.129
-388.033	-89.275	0.129	0.038
-387.019	266.998	-0.095	-0.165
-386.004	294.324	-0.375	0.679
-384.990	279.209	-0.054	-0.096
-383.975	736.289	-0.009	-0.024
-382.960	162.034	-0.142	-0.198
-381.946	-148.902	-0.116	0.009
-380.931	-200.000	0.029	-0.194
-379.917	-57.130	0.219	0.096
-378.902	475.627	0.091	-0.203
-377.888	51.625	-0.302	0.285
-376.873	121.832	0.169	-0.208
-375.858	75.148	0.133	-0.139
-374.844	-56.415	0.106	0.047
-373.829	92.365	-0.086	-0.096
-372.815	-185.660	0.082	-0.001
-371.800	120.062	-0.140	0.172
-370.785	-200.000	-0.057	0.250
-369.771	-117.443	-0.102	-0.018
-368.756	413.197	0.148	-0.312
-367.742	-88.223	-0.345	0.102
-366.727	199.063	-0.171	-0.259
-365.712	95.383	0.057	-0.064
-364.698	800.000	-0.019	0.053
-363.683	275.323	0.096	-0.168
-362.669	-13.273	-0.192	-0.124
-361.654	-197.010	0.189	-0.001
-360.639	-98.116	-0.310	0.079
-359.625	407.739	-0.199	0.416
-358.610	800.000	0.046	0.171
-357.596	-67.062	0.295	-0.115
-356.581	-200.000	0.021	-0.244
-355.566	-185.522	-0.284	0.004
-354.552	95.798	0.234	0.265
-353.537	-103.148	0.171	-0.040
-352.523	305.758	-0.199	0.366
-351.508	-51.375	-0.115	-0.053
-350.493	-34.914	-0.181	-0.098
-349.479	311.245	0.085	-0.158
-348.464	159.244	0.114	-0.156
-347.450	198.556	0.128	-0.194
-346.435	-200.000	-0.027	0.193
-345.420	-6.787	-0.135	-0.091
-344.406	-200.000	-0.049	0.220
-343.391	297.198	0.110	0.200
-342.377	-43.264	0.119	0.060
-341.362	-178.519	-0.109	0.002
-340.348	-94.913	0.208	-0.056
-339.333	183.725	-0.080	0.117
-338.318	255.338	0.155	-0.262
-337.304	-58.729	-0.283	0.121
-336.289	-200.000	0.057	0.385
-335.275	-9.848	-0.140	-0.092
-334.260	-99.986	-0.187	-0.046
-333.245	-200.000	0.021	0.097
-332.231	800.000	0.036	-0.145
-331.216	800.000	0.099	-0.284
-330.202	-56.168	0.123	0.054
-329.187	66.335	-0.096	-0.097
-328.172	-59.702	-0.063	-0.027
-327.158	-108.598	0.123	-0.026
-326.143	-200.000	0.004	0.292
-325.129	48.750	0.122	0.113
-324.114	436.058	-0.202	0.435
-323.099	555.503	0.092	0.220
-322.085	-98.508	0.142	0.036
-321.070	-20.525	-0.125	0.076
-320.056	7.849	0.233	0.172
-319.041	-200.000	0.002	0.251
-318.026	-200.000	0.056	0.000
-317.012	12.466	-0.143	0.109
-315.997	-107.663	0.289	-0.062
-314.983	-130.782	-0.282	0.037
-313.968	147.358	0.307	0.408
-312.953	-114.297	-0.222	-0.042
-311.939	608.838	0.063	-0.156
-310.924	-107.070	-0.228	0.050
-309.910	-107.879	-0.487	-0.105
-308.895	-90.140	0.307	0.088
-307.880	-15.019	-0.093	-0.059
-306.866	-21.155	-0.071	-0.043
-305.851	92.007	0.115	0.128
-304.837	-200.000	0.018	-0.217
-303.822	-137.703	0.210	-0.023
-302.807	800.000	-0.058	0.193
-301.793	-96.751	-0.229	0.060
-300.778	-70.348	0.269	-0.101
-299.764	373.336	0.077	-0.155
-298.749	-200.000	-0.007	0.048
-297.735	38.880	0.061	-0.053
-296.720	289.361	0.043	-0.076
-295.705	83.150	0.084	0.090
-294.691	28.197	-0.360	0.300
-293.676	-111.513	0.181	0.036
-292.662	-103.068	-0.114	-0.027
-291.647	800.000	-0.051	-0.217
-290.632	127.315	0.269	0.337
-289.618	-27.704	-0.198	-0.113
-288.603	-5.036	0.012	0.008
-287.589	260.566	0.234	-0.400
-286.574	-34.251	-0.117	-0.063
-285.559	-200.000	-0.039	0.251
-284.545	-19.284	0.324	-0.199
-283.530	423.855	-0.217	0.461
-282.516	800.000	0.065	0.271
-281.501	-200.000	-0.026	0.156
-280.486	-105.048	-0.157	0.035
-279.472	-69.653	0.190	-0.072
-278.457	-90.863	-0.345	0.098
-277.443	110.519	-0.187	0.222
-276.428	-42.123	-0.292	0.148
-275.413	-6.495	-0.018	0.012
-274.399	211.866	-0.229	-0.355
-273.384	-200.000	0.079	-0.393
-272.370	-157.223	-0.333	-0.020
-271.355	800.000	0.037	0.130
-270.340	49.924	-0.250	0.233
-269.326	311.874	-0.111	0.205
-268.311	35.551	0.231	0.200
-267.297	-138.130	0.346	0.038
-266.282	556.488	-0.074	0.176
-265.267	78.497	-0.232	0.244
-264.253	800.000	-0.057	-0.214
-263.238	-62.519	0.189	-0.077
-262.224	128.361	0.129	-0.162
-261.209	135.960	-0.074	-0.096
-260.195	-200.000	0.003	0.116
-259.180	-132.985	-0.403	-0.050
-258.165	-200.000	0.003	-0.320
-257.151	49.463	0.130	-0.120
-256.136	-122.319	0.236	-0.038
-255.122	-162.161	-0.157	-0.008
-254.107	42.125	0.199	-0.178
-253.092	69.653	0.220	0.224
-252.078	-177.772	0.143	0.003
-251.063	-92.819	0.283	-0.078
-250.049	-126.218	0.270	-0.040
-249.034	248.200	0.257	-0.428
-248.019	-200.000	-0.060	0.427
-247.005	-200.000	0.035	-0.300
-245.990	30.692	0.294	0.248
-244.976	47.882	0.041	-0.038
-243.961	800.000	0.030	0.094
-242.946	70.809	0.215	0.219
-241.932	-69.655	-0.083	-0.031
-240.917	23.119	-0.151	-0.122
-239.903	-200.000	-0.003	0.308
-238.888	-200.000	0.025	0.160
-237.873	-200.000	-0.011	0.101
-236.859	59.767	0.143	0.139
-235.844	-200.000	0.012	0.060
-234.830	-200.000	-0.003	-0.060
-233.815	154.777	-0.040	0.054
-232.800	86.519	0.108	-0.118
-231.786	-19.359	0.065	-0.040
-230.771	4.215	-0.350	0.252
-229.757	2.339	0.168	0.119
-228.742	267.735	-0.096	0.165
-227.727	-138.669	0.287	-0.031
-226.713	-67.220	0.254	0.098
-225.698	-200.000	-0.001	0.216
-224.684	497.929	-0.147	-0.334
-223.669	290.541	0.081	0.144
-222.655	-70.896	0.065	-0.024
-221.640	-19.090	0.028	0.017
-220.625	-73.806	0.363	0.130
-219.611	438.328	0.054	-0.116
-218.596	-200.000	-0.053	-0.281
-217.582	800.000	-0.083	0.267
-216.567	-79.304	0.238	0.079
-215.552	-70.400	0.182	0.068
-214.538	509.593	-0.120	0.275
-213.523	-128.266	0.124	-0.017
-212.509	-200.000	-0.015	-0.105
-211.494	375.715	0.058	-0.117
-210.479	46.019	-0.080	-0.073
-209.465	222.912	-0.051	0.081
-208.450	-200.000	0.013	-0.377
-207.436	-24.895	-0.085	-0.049
-206.421	-72.214	-0.330	0.121
-205.406	-23.936	-0.100	-0.059
-204.392	800.000	0.073	0.206
-203.377	-200.000	-0.032	0.299
-202.363	800.000	0.056	0.155
-201.348	104.205	0.283	-0.328
-200.333	-144.544	-0.384	0.035
-199.319	-2.021	-0.353	0.244
-198.304	-23.335	-0.257	0.152
-197.290	-200.000	0.031	-0.165
-196.275	87.815	-0.098	0.106
-195.260	506.829	0.008	-0.018
-194.246	800.000	0.013	0.041
-193.231	-107.397	-0.552	0.119
-192.217	-156.351	0.302	-0.019
-191.202	-17.542	-0.110	-0.068
-190.187	-36.228	-0.327	0.174
-189.173	84.335	0.147	-0.158
-188.158	-162.583	0.416	0.020
-187.144	-20.050	0.060	0.036
-186.129	-84.839	0.175	-0.054
-185.114	502.759	0.012	-0.028
-184.100	-200.000	-0.064	0.305
-183.085	-110.512	-0.085	0.017
-182.071	800.000	0.138	-0.464
-181.056	-159.497	0.162	0.009
-180.042	-149.717	0.306	-0.024
-179.027	800.000	-0.086	0.308
-178.012	528.656	-0.024	0.055
-176.998	-68.414	-0.351	-0.134
-175.983	126.005	0.178	0.222
-174.969	-125.231	-0.213	0.032
-173.954	38.150	0.359	0.314
-172.939	-200.000	0.016	0.182
-171.925	129.586	0.293	-0.368
-170.910	532.011	0.121	-0.281
-169.896	-135.639	0.274	0.032
-168.881	160.758	-0.215	-0.294
-167.866	-168.820	0.327	0.012
-166.852	-200.000	-0.007	-0.128
-165.837	88.133	-0.077	-0.084
-164.823	170.613	-0.135	-0.190
-163.808	-152.175	-0.079	0.006
-162.793	55.003	0.187	-0.177
-161.779	-200.000	0.046	-0.602
-160.764	92.292	-0.098	0.108
-159.750	-117.211	0.188	0.034
-158.735	266.884	-0.170	0.292
-157.720	18.079	0.193	0.151
-156.706	20.894	0.106	0.084
-155.691	318.364	-0.110	0.205
-154.677	-200.000	-0.021	-0.370
-153.662	-200.000	0.004	0.188
-152.647	51.975	0.134	-0.125
-151.633	-52.108	-0.251	-0.115
-150.618	-70.457	0.282	-0.105
-149.604	-55.475	-0.229	-0.101
-148.589	-200.000	0.028	0.188
-147.574	800.000	0.120	0.345
-146.560	-65.084	-0.359	-0.142
-145.545	-79.158	0.188	-0.063
-144.531	800.000	-0.064	-0.233
-143.516	-200.000	0.026	-0.178
-142.502	-43.472	0.110	-0.054
-141.487	-200.000	-0.002	-0.066
-140.472	-200.000	0.028	0.390
-139.458	-200.000	-0.011	0.054
-138.443	121.163	-0.234	-0.285
-137.429	-129.076	-0.326	-0.045
-136.414	767.604	0.104	-0.279
-135.399	-200.000	-0.012	-0.379
-134.385	-200.000	-0.058	-0.307
-133.370	-138.918	-0.167	0.018
-132.356	-43.306	0.287	-0.143
-131.341	272.793	0.082	0.142
-130.326	-0.190	-0.250	0.174
-129.312	-200.000	-0.006	-0.104
-128.297	-128.929	-0.105	0.015
-127.283	-27.471	0.274	0.156
-126.268	268.161	-0.209	0.359
-125.253	56.601	-0.147	-0.140
-124.239	221.468	0.185	-0.292
-123.224	9.709	0.136	0.101
-122.210	173.647	-0.139	-0.197
-121.195	800.000	0.029	0.111
