DTS Sentinel unit serial number:	SN413079Multiplexer serial number:	ORYXHardware model number:	OX4-SRSoftware version number:	ORYX F/W v4.00 Oryx Data Collector v3.7.2.0data status	okinstallation	princeton_trtdifferential loss correction	single-endedforward channel	channel 3reverse channel	N/Adate	2019/09/13time	11:00:35forward acquisition time	60.00reverse acquisition time	0.00gamma	496.2192k internal	0.2318k external	0.2318temperature offset calibration	1.0141default loss term (dB/km)	0.3790temperature slope calibration	1.0000multiplexer offset coefficient	1.0000multiplexer slope coefficient	1.0000fibre end	0.00T internal ref (°C)	31.86T ext. ref 1 (°C)	4.63T ext. ref 2 (°C)	28.53length (m)	temperature (°C)	Stokes	anti-Stokes-747.200	195.927	0.061	-0.095
-746.185	-98.136	-0.521	0.136
-745.171	800.000	0.051	-0.213
-744.156	82.997	-0.116	0.127
-743.142	-34.206	0.145	0.081
-742.127	-56.970	-0.167	0.075
-741.112	562.699	-0.102	-0.251
-740.098	656.134	-0.034	-0.089
-739.083	-165.747	0.254	-0.011
-738.069	-5.602	-0.101	-0.070
-737.054	337.389	0.048	0.095
-736.039	-41.128	-0.106	-0.055
-735.025	-120.218	0.262	-0.045
-734.010	-137.281	-0.248	-0.028
-732.996	-13.370	-0.057	-0.037
-731.981	-200.000	-0.025	0.177
-730.966	59.802	-0.307	-0.306
-729.952	-200.000	-0.024	-0.159
-728.937	-200.000	-0.011	-0.164
-727.923	-62.223	-0.201	-0.085
-726.908	483.500	-0.115	-0.264
-725.894	-114.162	-0.436	0.085
-724.879	700.689	-0.099	0.263
-723.864	-5.657	-0.250	0.173
-722.850	-200.000	0.042	0.279
-721.835	9.704	-0.195	-0.150
-720.821	-140.668	-0.362	0.038
-719.806	568.624	-0.169	-0.415
-718.791	-118.998	0.066	-0.012
-717.777	800.000	0.019	-0.058
-716.762	-18.402	-0.140	0.089
-715.748	419.752	0.168	0.364
-714.733	-200.000	0.026	0.225
-713.718	355.098	-0.067	0.136
-712.704	48.575	-0.028	-0.026
-711.689	719.826	-0.034	0.092
-710.675	167.008	-0.083	0.119
-709.660	-200.000	-0.051	0.371
-708.645	56.562	0.069	-0.067
-707.631	800.000	-0.116	0.375
-706.616	-82.379	0.132	0.043
-705.602	60.695	-0.094	-0.094
-704.587	-106.410	0.073	-0.016
-703.572	-30.019	0.078	-0.045
-702.558	-51.755	0.226	0.106
-701.543	800.000	-0.094	0.273
-700.529	61.810	-0.121	-0.122
-699.514	483.254	0.144	0.330
-698.499	-39.906	0.054	0.029
-697.485	-110.477	0.199	0.042
-696.470	60.786	-0.108	-0.108
-695.456	-173.679	-0.105	0.003
-694.441	-6.203	-0.063	0.044
-693.426	171.883	0.253	-0.367
-692.412	800.000	0.046	-0.187
-691.397	-160.975	0.118	0.006
-690.383	-200.000	0.025	-0.332
-689.368	-5.853	-0.096	-0.066
-688.354	-200.000	-0.005	0.229
-687.339	-69.338	0.207	0.080
-686.324	95.841	0.115	-0.132
-685.310	800.000	0.056	-0.224
-684.295	-200.000	0.037	-0.200
-683.281	-47.541	-0.213	0.104
-682.266	-153.196	0.350	-0.025
-681.251	-111.027	0.287	-0.060
-680.237	-96.698	-0.420	0.112
-679.222	32.884	0.139	0.122
-678.208	22.630	0.078	0.065
-677.193	-87.366	0.240	-0.073
-676.178	61.468	-0.047	-0.047
-675.164	19.381	-0.334	-0.271
-674.149	-40.784	-0.265	0.138
-673.135	-97.784	-0.366	0.096
-672.120	92.170	-0.074	0.085
-671.105	78.574	0.153	-0.166
-670.091	800.000	0.076	0.294
-669.076	136.157	-0.144	-0.189
-668.062	-200.000	-0.010	0.072
-667.047	-200.000	0.004	0.229
-666.032	197.404	-0.120	0.185
-665.018	240.320	-0.214	-0.360
-664.003	360.163	0.078	0.158
-662.989	-172.923	-0.348	0.011
-661.974	-31.226	-0.089	0.051
-660.959	539.233	-0.077	0.185
-659.945	-56.629	-0.275	0.123
-658.930	12.244	0.097	-0.075
-657.916	-17.154	0.061	0.039
-656.901	708.451	-0.110	-0.292
-655.886	53.338	0.227	-0.219
-654.872	-6.507	-0.243	0.167
-653.857	800.000	-0.119	0.337
-652.843	33.877	0.290	0.254
-651.828	63.198	0.136	0.137
-650.814	-102.504	-0.359	0.086
-649.799	14.916	-0.231	0.182
-648.784	800.000	-0.077	-0.225
-647.770	101.499	0.134	0.157
-646.755	-200.000	-0.025	0.124
-645.741	188.349	-0.059	-0.089
-644.726	-25.493	-0.095	0.057
-643.711	-26.409	0.216	-0.128
-642.697	800.000	-0.023	-0.066
-641.682	11.659	0.267	-0.207
-640.668	77.342	0.260	-0.279
-639.653	-15.335	-0.102	-0.066
-638.638	-73.898	0.155	0.057
-637.624	-200.000	-0.006	0.129
-636.609	-102.551	0.287	-0.069
-635.595	-178.786	-0.027	0.001
-634.580	-11.584	0.389	-0.258
-633.565	209.761	0.062	-0.098
-632.551	31.860	0.307	0.266
-631.536	-33.934	0.114	-0.063
-630.522	294.943	0.087	0.160
-629.507	613.454	0.036	-0.092
-628.492	-200.000	-0.056	0.261
-627.478	-131.899	0.269	0.035
-626.463	-108.452	-0.132	0.029
-625.449	24.751	-0.396	-0.330
-624.434	800.000	0.054	0.185
-623.419	-192.702	0.044	-0.000
-622.405	-81.944	0.241	-0.079
-621.390	275.606	0.144	-0.257
-620.376	-200.000	0.015	-0.197
-619.361	230.199	-0.023	-0.038
-618.346	-64.285	-0.056	-0.023
-617.332	-163.164	-0.114	0.006
-616.317	-41.428	0.025	-0.013
-615.303	-69.525	0.082	-0.032
-614.288	326.197	0.034	0.065
-613.273	222.172	0.119	0.193
-612.259	-102.742	0.071	-0.017
-611.244	-47.000	-0.036	-0.018
-610.230	-200.000	0.007	-0.305
-609.215	-200.000	-0.029	-0.306
-608.201	-4.081	0.023	0.016
-607.186	800.000	0.070	-0.196
-606.171	-0.926	0.178	-0.127
-605.157	800.000	-0.109	-0.407
-604.142	72.649	-0.160	-0.168
-603.128	433.144	-0.095	-0.207
-602.113	25.116	-0.192	-0.161
-601.098	-186.564	-0.361	-0.005
-600.084	96.368	-0.061	-0.070
-599.069	-200.000	-0.026	-0.140
-598.055	294.546	0.042	0.077
-597.040	757.270	0.081	-0.221
-596.025	-170.263	0.278	0.010
-595.011	-51.469	0.209	-0.098
-593.996	-200.000	0.005	-0.208
-592.982	467.383	-0.027	0.060
-591.967	-94.423	0.093	-0.026
-590.952	110.065	0.066	-0.080
-589.938	-161.098	0.070	-0.004
-588.923	-200.000	-0.000	0.131
-587.909	58.004	-0.373	0.367
-586.894	147.278	-0.078	0.105
-585.879	-73.508	-0.173	0.064
-584.865	185.815	-0.194	-0.290
-583.850	800.000	-0.041	0.177
-582.836	-200.000	0.000	-0.152
-581.821	-21.289	-0.210	0.129
-580.806	-122.193	-0.316	-0.052
-579.792	-108.771	-0.229	-0.049
-578.777	-49.529	-0.014	0.007
-577.763	800.000	0.058	0.203
-576.748	-114.245	0.187	-0.036
-575.733	27.805	0.265	-0.224
-574.719	-5.892	-0.414	-0.285
-573.704	-28.460	0.126	0.073
-572.690	-200.000	-0.058	0.347
-571.675	-126.708	0.085	0.013
-570.661	203.609	0.129	-0.201
-569.646	-200.000	0.030	-0.138
-568.631	8.846	0.247	-0.187
-567.617	161.929	0.183	-0.257
-566.602	-165.546	-0.203	-0.009
-565.588	108.864	0.036	-0.044
-564.573	800.000	-0.139	-0.397
-563.558	-200.000	-0.010	-0.061
-562.544	-18.673	-0.111	0.070
-561.529	0.339	-0.118	-0.084
-560.515	-200.000	0.027	-0.197
-559.500	79.552	0.052	-0.056
-558.485	7.144	-0.322	0.242
-557.471	146.318	-0.273	-0.368
-556.456	450.974	-0.087	-0.194
-555.442	147.892	0.163	0.221
-554.427	20.521	-0.096	-0.078
-553.412	-147.458	0.159	-0.013
-552.398	-136.063	0.099	0.012
-551.383	-200.000	0.373	0.001
-550.369	800.000	-0.008	-0.034
-549.354	-200.000	-0.001	-0.415
-548.339	297.426	0.099	-0.182
-547.325	142.060	-0.117	0.156
-546.310	-110.062	-0.242	-0.051
-545.296	591.661	0.036	0.089
-544.281	-52.281	0.060	-0.028
-543.266	65.322	0.051	-0.052
-542.252	136.145	-0.254	-0.332
-541.237	-200.000	0.005	-0.199
-540.223	36.098	0.134	-0.119
-539.208	216.751	-0.245	0.391
-538.193	-33.414	-0.222	0.123
-537.179	780.990	0.036	-0.099
-536.164	-68.492	0.523	-0.204
-535.150	212.386	-0.101	-0.161
-534.135	-177.472	0.249	0.006
-533.121	3.906	-0.188	-0.138
-532.106	-200.000	-0.011	-0.076
-531.091	42.496	-0.104	-0.095
-530.077	370.520	0.049	0.099
-529.062	287.263	-0.153	-0.278
-528.048	123.757	0.171	0.215
-527.033	-92.464	0.284	-0.080
-526.018	552.040	-0.106	0.255
-525.004	-78.445	-0.182	-0.062
-523.989	-200.000	0.046	0.234
-522.975	-55.654	-0.156	0.070
-521.960	35.110	-0.098	-0.086
-520.945	-90.943	-0.615	-0.178
-519.931	800.000	0.124	0.466
-518.916	-200.000	-0.021	0.474
-517.902	391.387	0.042	0.086
-516.887	541.311	0.022	0.053
-515.872	-200.000	-0.048	-0.263
-514.858	-97.283	-0.161	-0.042
-513.843	-200.000	-0.049	0.261
-512.829	146.519	-0.087	-0.117
-511.814	-200.000	0.100	0.494
-510.799	204.540	-0.150	-0.233
-509.785	-111.013	0.188	0.039
-508.770	-30.202	-0.285	-0.163
-507.756	696.993	0.103	0.270
-506.741	-103.919	0.160	-0.037
-505.726	-59.278	-0.088	0.038
-504.712	-200.000	0.009	0.090
-503.697	-45.215	0.238	0.119
-502.683	613.846	-0.082	0.206
-501.668	800.000	-0.038	-0.152
-500.653	57.174	-0.230	-0.225
-499.639	-84.002	0.422	0.135
-498.624	72.618	0.068	0.071
-497.610	547.408	-0.043	0.103
-496.595	392.899	-0.019	0.040
-495.581	27.595	-0.094	0.080
-494.566	545.498	0.043	0.102
-493.551	-200.000	0.027	0.132
-492.537	454.978	0.134	0.297
-491.522	274.019	0.049	-0.087
-490.508	349.651	0.014	-0.027
-489.493	-200.000	-0.009	-0.062
-488.478	8.431	-0.128	-0.097
-487.464	50.666	-0.217	0.206
-486.449	-200.000	-0.011	0.202
-485.435	800.000	-0.060	-0.167
-484.420	-127.933	-0.508	0.073
-483.405	-27.015	-0.199	-0.116
-482.391	-110.381	0.138	0.029
-481.376	143.656	-0.165	0.220
-480.362	800.000	0.041	-0.120
-479.347	-15.188	0.308	-0.198
-478.332	103.018	0.317	0.372
-477.318	800.000	0.013	0.049
-476.303	-149.635	0.377	-0.030
-475.289	-103.057	0.215	-0.051
-474.274	-200.000	-0.001	-0.252
-473.259	368.813	-0.122	0.247
-472.245	174.505	0.074	0.107
-471.230	210.631	0.098	0.155
-470.216	-200.000	-0.059	-0.409
-469.201	-170.986	0.306	0.010
-468.186	-72.362	0.308	0.114
-467.172	800.000	-0.034	0.097
-466.157	-67.851	-0.277	-0.109
-465.143	-38.593	0.162	-0.086
-464.128	-200.000	-0.013	0.125
-463.113	-167.357	0.224	-0.009
-462.099	705.225	-0.066	0.175
-461.084	-123.484	0.191	-0.030
-460.070	-91.509	-0.131	-0.037
-459.055	33.388	0.494	0.429
-458.040	-73.422	-0.305	0.112
-457.026	60.379	-0.075	-0.074
-456.011	3.787	-0.114	0.084
-454.997	-9.393	-0.180	0.120
-453.982	-200.000	-0.012	-0.085
-452.968	-59.182	0.281	-0.121
-451.953	-13.605	0.133	0.086
-450.938	-63.056	-0.192	0.079
-449.924	305.843	0.081	0.152
-448.909	800.000	0.012	-0.050
-447.895	-23.257	0.250	0.151
-446.880	-36.736	-0.069	0.037
-445.865	50.289	-0.228	-0.215
-444.851	-31.744	0.092	-0.052
-443.836	-131.030	-0.046	-0.006
-442.822	640.853	0.081	-0.207
-441.807	167.052	-0.224	-0.319
-440.792	-200.000	-0.000	0.171
-439.778	206.661	-0.059	-0.093
-438.763	-33.899	-0.356	0.196
-437.749	-41.871	-0.209	0.107
-436.734	413.091	-0.041	0.088
-435.719	-22.766	-0.219	-0.132
-434.705	-107.096	0.078	-0.017
-433.690	-200.000	-0.004	0.137
-432.676	12.890	0.140	0.108
-431.661	-43.766	-0.223	0.112
-430.646	-125.108	0.160	-0.025
-429.632	800.000	0.066	0.213
-428.617	-55.025	-0.562	0.253
-427.603	789.093	0.046	-0.125
-426.588	-67.425	0.308	0.121
-425.573	-88.876	0.492	-0.146
-424.559	800.000	0.040	-0.127
-423.544	-200.000	0.046	0.319
-422.530	116.777	-0.023	0.029
-421.515	-153.358	0.152	0.011
-420.500	710.161	0.066	-0.175
-419.486	702.737	-0.075	0.196
-418.471	-200.000	0.017	-0.105
-417.457	574.395	0.067	0.164
-416.442	-115.760	0.201	0.038
-415.428	127.346	-0.109	0.138
-414.413	-200.000	0.020	-0.301
-413.398	681.719	0.120	-0.311
-412.384	261.012	-0.095	0.165
-411.369	-101.518	-0.200	-0.049
-410.355	800.000	-0.036	0.129
-409.340	800.000	-0.070	0.269
-408.325	800.000	-0.093	0.267
-407.311	-32.539	-0.052	-0.029
-406.296	22.463	0.070	-0.057
-405.282	-200.000	-0.008	-0.120
-404.267	99.222	-0.187	0.216
-403.252	-79.788	0.147	0.049
-402.238	627.563	0.169	0.426
-401.223	87.544	-0.295	0.326
-400.209	-57.488	0.155	0.068
-399.194	-112.354	-0.273	-0.054
-398.179	-64.706	0.134	0.054
-397.165	-64.115	0.255	0.104
-396.150	-124.538	-0.179	0.028
-395.136	173.304	0.184	-0.265
-394.121	-8.017	-0.177	-0.119
-393.106	800.000	0.070	0.288
-392.092	-132.630	0.187	0.024
-391.077	-176.835	0.333	-0.008
-390.063	144.416	-0.184	-0.245
-389.048	530.146	0.062	-0.146
-388.033	103.689	-0.149	0.175
-387.019	-28.094	0.241	-0.139
-386.004	40.008	0.138	-0.123
-384.990	6.114	-0.171	0.126
-383.975	310.077	0.035	-0.065
-382.960	-174.721	0.143	0.004
-381.946	56.873	0.159	-0.154
-380.931	161.229	0.198	0.277
-379.917	-92.553	-0.303	0.085
-378.902	117.288	-0.074	-0.091
-377.888	-27.265	0.023	-0.013
-376.873	-65.278	0.081	0.032
-375.858	255.211	-0.106	-0.181
-374.844	103.146	0.260	0.304
-373.829	-98.269	0.206	-0.053
-372.815	272.886	0.019	-0.033
-371.800	-29.549	-0.119	-0.068
-370.785	-89.004	0.200	0.059
-369.771	4.273	-0.161	0.117
-368.756	-33.935	-0.119	-0.065
-367.742	-200.000	0.008	-0.082
-366.727	122.795	0.155	0.193
-365.712	-178.374	-0.101	-0.002
-364.698	-200.000	-0.005	-0.261
-363.683	-7.990	-0.158	0.107
-362.669	12.508	-0.248	-0.191
-361.654	-98.896	0.353	0.089
-360.639	800.000	-0.045	-0.148
-359.625	100.483	0.161	-0.187
-358.610	-2.708	-0.121	0.085
-357.596	362.945	-0.012	0.025
-356.581	-200.000	-0.028	0.162
-355.566	-16.420	-0.137	0.087
-354.552	99.653	-0.087	-0.100
-353.537	800.000	-0.065	-0.257
-352.523	-61.755	0.033	0.014
-351.508	334.286	0.032	-0.062
-350.493	-89.272	-0.119	-0.035
-349.479	335.797	0.162	0.313
-348.464	-90.236	-0.083	-0.024
-347.450	-200.000	0.002	-0.128
-346.435	230.307	0.193	-0.314
-345.420	-200.000	0.003	-0.139
-344.406	-200.000	-0.012	0.284
-343.391	-26.242	-0.383	0.224
-342.377	-101.903	-0.285	0.069
-341.362	156.042	-0.092	0.127
-340.348	-27.678	0.360	0.208
-339.333	-103.028	-0.039	0.009
-338.318	800.000	0.039	-0.140
-337.304	-200.000	0.005	0.214
-336.289	167.110	-0.247	-0.349
-335.275	88.436	0.163	0.180
-334.260	73.094	-0.033	-0.034
-333.245	210.237	-0.160	0.250
-332.231	304.607	-0.197	0.364
-331.216	630.022	0.101	0.254
-330.202	-200.000	0.010	-0.293
-329.187	-200.000	-0.051	0.253
-328.172	10.783	-0.074	-0.056
-327.158	-3.216	-0.238	-0.165
-326.143	-200.000	0.024	-0.361
-325.129	91.575	-0.203	-0.228
-324.114	243.968	0.074	-0.124
-323.099	-0.935	-0.123	0.087
-322.085	-50.361	0.353	-0.166
-321.070	400.684	-0.059	0.123
-320.056	324.573	0.050	0.096
-319.041	-200.000	0.022	0.272
-318.026	-72.387	0.163	0.060
-317.012	-141.002	-0.201	0.021
-315.997	-200.000	0.007	0.213
-314.983	405.741	-0.091	0.191
-313.968	-200.000	-0.014	-0.135
-312.953	-59.379	-0.198	-0.085
-311.939	370.593	0.052	-0.106
-310.924	-200.000	0.009	0.066
-309.910	-59.590	-0.457	0.195
-308.895	374.990	-0.041	-0.084
-307.880	-200.000	0.030	-0.377
-306.866	-200.000	0.016	-0.123
-305.851	800.000	0.027	-0.082
-304.837	800.000	0.029	-0.084
-303.822	800.000	-0.056	-0.160
-302.807	-114.142	0.057	-0.011
-301.793	-135.877	0.064	0.007
-300.778	-200.000	0.041	0.296
-299.764	-13.370	0.115	-0.074
-298.749	68.404	-0.109	-0.111
-297.735	-200.000	0.054	0.248
-296.720	-18.576	0.200	-0.124
-295.705	36.302	0.073	-0.064
-294.691	800.000	-0.072	-0.206
-293.676	-150.403	0.353	-0.027
-292.662	592.267	0.111	0.272
-291.647	187.406	0.110	0.163
-290.632	34.951	0.107	0.093
-289.618	165.908	0.173	-0.244
-288.603	-200.000	0.005	-0.034
-287.589	193.710	-0.081	0.122
-286.574	424.619	0.021	0.044
-285.559	-200.000	-0.003	-0.057
-284.545	-110.352	-0.103	-0.021
-283.530	167.980	0.115	0.162
-282.516	-46.483	0.165	0.081
-281.501	532.699	-0.082	-0.192
-280.486	491.020	-0.086	-0.196
-279.472	50.001	-0.289	-0.271
-278.457	-50.401	0.111	0.052
-277.443	800.000	0.099	-0.287
-276.428	800.000	-0.086	-0.324
-275.413	-49.228	0.162	0.077
-274.399	-13.983	-0.186	-0.120
-273.384	-200.000	0.046	0.396
-272.370	800.000	0.033	-0.119
-271.355	-32.440	-0.020	-0.011
-270.340	-68.249	-0.226	-0.087
-269.326	621.479	0.028	0.070
-268.311	-35.655	0.211	-0.114
-267.297	13.601	-0.245	0.189
-266.282	-106.055	-0.214	0.048
-265.267	28.373	-0.152	-0.127
-264.253	-86.468	0.210	0.064
-263.238	-200.000	0.006	-0.299
-262.224	-136.946	-0.251	-0.029
-261.209	-200.000	0.003	0.061
-260.195	185.384	-0.056	-0.082
-259.180	-125.117	0.230	-0.035
-258.165	-52.908	-0.314	-0.144
-257.151	125.293	-0.130	-0.163
-256.136	-90.775	0.373	0.107
-255.122	39.214	-0.099	0.088
-254.107	-54.036	-0.261	-0.118
-253.092	800.000	0.022	0.082
-252.078	-189.454	-0.112	-0.001
-251.063	800.000	0.064	0.236
-250.049	-40.641	-0.075	0.039
-249.034	800.000	-0.081	-0.237
-248.019	8.076	0.271	0.202
-247.005	435.744	-0.131	0.283
-245.990	800.000	-0.046	-0.164
-244.976	-118.759	-0.182	-0.032
-243.961	-200.000	-0.059	0.353
-242.946	-24.742	-0.399	0.236
-241.932	15.432	-0.279	-0.217
-240.917	-24.664	-0.125	0.074
-239.903	-110.602	0.248	0.051
-238.888	3.988	0.182	0.132
-237.873	-22.941	0.067	-0.040
-236.859	141.430	-0.164	-0.216
-235.844	266.518	-0.096	-0.166
-234.830	78.830	0.118	0.125
-233.815	181.195	0.150	-0.219
-232.800	132.738	-0.097	0.124
-231.786	800.000	-0.054	0.161
-230.771	-200.000	-0.186	-0.001
-229.757	-200.000	-0.015	0.119
-228.742	34.519	-0.060	-0.052
-227.727	4.260	0.154	0.112
-226.713	-179.126	-0.313	-0.007
-225.698	-126.603	-0.157	0.023
-224.684	-4.463	-0.067	0.046
-223.669	-181.884	0.261	0.005
-222.655	-133.740	0.349	-0.043
-221.640	43.506	0.237	-0.215
-220.625	50.779	-0.091	0.086
-219.611	663.135	0.085	-0.219
-218.596	326.776	-0.207	0.392
-217.582	-200.000	-0.023	-0.149
-216.567	131.026	0.181	-0.230
-215.552	-171.268	0.200	-0.007
-214.538	54.225	-0.231	0.221
-213.523	94.912	0.076	-0.085
-212.509	-143.214	-0.074	-0.007
-211.494	13.753	-0.159	0.123
-210.479	-47.735	-0.188	0.090
-209.465	-200.000	-0.005	0.052
-208.450	800.000	-0.045	0.159
-207.436	369.422	0.078	0.156
-206.421	-106.749	0.141	-0.031
-205.406	-15.746	-0.073	-0.046
-204.392	109.222	-0.228	-0.270
-203.377	-200.000	-0.085	0.437
-202.363	-51.538	0.151	0.070
-201.348	-107.007	0.140	0.031
-200.333	-119.874	-0.324	0.055
-199.319	-64.197	0.128	-0.052
-198.304	138.596	0.131	-0.170
-197.290	800.000	0.035	-0.147
-196.275	-62.112	0.163	0.067
-195.260	-4.377	-0.215	-0.148
-194.246	-200.000	-0.018	-0.165
-193.231	469.602	-0.072	-0.159
-192.217	340.614	-0.024	-0.046
-191.202	415.576	0.074	-0.157
-190.187	-30.216	-0.152	-0.086
-189.173	-39.843	-0.304	0.157
-188.158	-200.000	-0.068	0.395
-187.144	-28.948	-0.371	0.211
-186.129	-17.611	0.161	0.100
-185.114	-96.353	-0.060	-0.016
-184.100	-127.482	0.251	-0.036
-183.085	795.634	-0.044	0.119
-182.071	-73.571	-0.140	0.050
-181.056	-77.007	0.251	0.087
-180.042	738.040	0.123	-0.328
-179.027	183.748	0.231	0.338
-178.012	-50.646	0.205	0.096
-176.998	-15.254	0.160	-0.101
-175.983	-3.079	-0.216	-0.149
-174.969	134.807	-0.163	0.209
-173.954	74.974	0.175	-0.183
-172.939	8.178	-0.164	0.122
-171.925	-116.778	0.039	0.007
-170.910	418.502	-0.064	-0.134
-169.896	438.933	-0.086	0.186
-168.881	437.599	-0.078	0.167
-167.866	-99.381	0.396	0.099
-166.852	11.899	-0.212	-0.161
-165.837	161.158	0.009	0.012
-164.823	-200.000	0.007	0.050
-163.808	-200.000	-0.051	0.232
-162.793	271.175	0.150	0.261
-161.779	-200.000	-0.007	0.279
-160.764	-200.000	-0.036	-0.377
-159.750	-140.375	0.417	-0.043
-158.735	-44.893	0.232	-0.114
-157.720	-200.000	0.004	-0.051
-156.706	-81.891	0.479	-0.155
-155.691	-110.057	0.157	0.033
-154.677	800.000	0.061	-0.220
-153.662	-139.631	0.146	-0.015
-152.647	-130.563	-0.087	-0.012
-151.633	-200.000	-0.039	0.281
-150.618	-96.250	0.173	-0.045
-149.604	800.000	0.016	-0.056
-148.589	58.520	0.263	0.256
-147.574	-104.343	0.145	0.033
-146.560	124.699	0.100	-0.125
-145.545	-200.000	-0.009	0.042
-144.531	-200.000	-0.029	-0.408
-143.516	176.679	-0.115	-0.165
-142.502	76.186	0.050	0.053
-141.487	-165.009	0.181	-0.008
-140.472	-70.088	-0.267	-0.100
-139.458	-123.018	0.153	0.024
-138.443	-200.000	0.009	0.195
-137.429	-12.907	-0.216	0.139
-136.414	-93.556	-0.197	0.054
-135.399	-176.292	-0.344	-0.009
-134.385	76.265	0.152	0.159
-133.370	119.999	0.101	0.124
-132.356	-93.700	-0.460	-0.125
-131.341	-6.650	0.214	0.144
-130.326	-50.513	0.213	0.099
-129.312	-200.000	-0.028	0.261
-128.297	174.872	0.070	-0.100
-127.283	-54.653	0.123	-0.055
-126.268	-84.047	0.170	0.053
-125.253	-143.763	-0.142	0.013
-124.239	-107.354	0.162	0.035
-123.224	-133.819	0.137	-0.017
-122.210	-78.950	0.100	-0.034
-121.195	-14.719	-0.048	-0.030
