DTS Sentinel unit serial number:	SN413079Multiplexer serial number:	ORYXHardware model number:	OX4-SRSoftware version number:	ORYX F/W v4.00 Oryx Data Collector v3.7.2.0data status	okinstallation	princeton_trtdifferential loss correction	single-endedforward channel	channel 3reverse channel	N/Adate	2019/09/11time	04:30:11forward acquisition time	60.00reverse acquisition time	0.00gamma	496.2192k internal	0.2331k external	0.2331temperature offset calibration	0.9910default loss term (dB/km)	0.3790temperature slope calibration	1.0000multiplexer offset coefficient	1.0000multiplexer slope coefficient	1.0000fibre end	0.00T internal ref (°C)	29.56T ext. ref 1 (°C)	-0.31T ext. ref 2 (°C)	23.40length (m)	temperature (°C)	Stokes	anti-Stokes-747.200	25.234	0.252	0.210
-746.185	800.000	-0.084	0.299
-745.171	-39.957	0.130	0.068
-744.156	-135.871	0.039	-0.005
-743.142	-88.834	-0.039	-0.012
-742.127	-40.857	-0.081	0.042
-741.112	84.224	0.208	0.229
-740.098	40.863	-0.329	0.299
-739.083	-77.882	0.156	0.054
-738.069	-200.000	0.010	0.194
-737.054	30.182	-0.233	-0.200
-736.039	-200.000	-0.025	0.357
-735.025	63.333	0.107	0.107
-734.010	800.000	-0.075	-0.275
-732.996	-200.000	-0.010	-0.171
-731.981	-200.000	-0.028	-0.233
-730.966	56.466	-0.310	-0.304
-729.952	228.003	0.059	-0.096
-728.937	-110.983	-0.354	0.073
-727.923	512.524	-0.073	0.171
-726.908	-28.722	0.122	0.071
-725.894	73.857	0.056	-0.060
-724.879	-200.000	-0.052	0.260
-723.864	-186.324	-0.304	0.004
-722.850	37.555	0.127	-0.114
-721.835	2.433	-0.166	0.121
-720.821	-128.125	-0.031	0.004
-719.806	82.660	0.058	-0.063
-718.791	-42.068	-0.306	0.158
-717.777	-200.000	0.017	-0.165
-716.762	-200.000	-0.033	-0.191
-715.748	17.651	0.239	0.191
-714.733	-18.536	-0.213	-0.134
-713.718	-98.106	-0.101	-0.026
-712.704	-200.000	0.010	-0.139
-711.689	-158.886	0.474	0.027
-710.675	543.818	0.071	0.171
-709.660	12.403	-0.092	0.071
-708.645	79.418	0.252	0.272
-707.631	-23.172	0.078	0.047
-706.616	-200.000	-0.001	0.227
-705.602	68.535	0.287	0.296
-704.587	-100.554	-0.214	0.053
-703.572	-13.484	-0.238	-0.155
-702.558	109.505	0.187	0.225
-701.543	734.554	0.044	0.117
-700.529	-200.000	-0.054	0.373
-699.514	-200.000	0.001	-0.094
-698.499	-95.754	0.304	-0.082
-697.485	419.273	0.099	-0.213
-696.470	-200.000	-0.036	-0.176
-695.456	-16.719	-0.218	-0.138
-694.441	11.069	-0.158	-0.121
-693.426	-171.659	0.069	-0.002
-692.412	55.716	0.175	-0.170
-691.397	-124.405	-0.192	0.030
-690.383	-200.000	-0.152	-0.000
-689.368	204.177	-0.120	0.187
-688.354	13.863	0.059	0.046
-687.339	3.712	0.246	-0.180
-686.324	371.961	-0.076	-0.155
-685.310	188.887	0.177	0.266
-684.295	-200.000	0.049	0.303
-683.281	-200.000	0.006	0.254
-682.266	32.172	0.036	0.031
-681.251	-200.000	0.023	0.328
-680.237	594.394	0.059	0.147
-679.222	-145.911	0.119	-0.011
-678.208	400.535	-0.032	0.067
-677.193	-13.594	-0.383	-0.249
-676.178	-43.864	-0.118	0.059
-675.164	-51.343	-0.320	0.150
-674.149	462.803	0.082	-0.184
-673.135	800.000	-0.025	0.076
-672.120	-52.167	0.049	0.023
-671.105	-73.669	-0.427	0.156
-670.091	-97.530	-0.187	-0.049
-669.076	-200.000	-0.003	0.083
-668.062	34.403	-0.079	0.069
-667.047	-200.000	0.013	-0.084
-666.032	35.137	0.200	-0.176
-665.018	-200.000	-0.063	0.463
-664.003	800.000	0.024	0.087
-662.989	1.904	0.122	-0.088
-661.974	-200.000	-0.001	0.262
-660.959	800.000	0.117	0.464
-659.945	800.000	-0.066	-0.225
-658.930	-36.390	-0.080	0.043
-657.916	-15.335	-0.184	-0.118
-656.901	-32.299	0.144	-0.080
-655.886	-200.000	-0.012	0.103
-654.872	56.851	0.163	-0.159
-653.857	-43.694	0.285	0.144
-652.843	-122.994	0.280	0.045
-651.828	-200.000	-0.005	0.266
-650.814	-108.063	0.149	0.032
-649.799	-102.039	-0.285	-0.069
-648.784	0.939	0.088	0.063
-647.770	-156.593	-0.182	-0.011
-646.755	-43.879	0.098	0.049
-645.741	800.000	-0.056	-0.191
-644.726	-173.923	0.062	-0.002
-643.711	-33.064	-0.218	-0.121
-642.697	408.853	-0.116	-0.246
-641.682	338.390	0.052	0.102
-640.668	-200.000	-0.022	0.411
-639.653	-109.153	-0.187	0.040
-638.638	155.415	-0.294	-0.406
-637.624	502.612	-0.025	-0.059
-636.609	-19.125	-0.183	-0.114
-635.595	45.285	-0.076	-0.070
-634.580	438.894	-0.080	-0.175
-633.565	-29.266	-0.390	-0.224
-632.551	-200.000	-0.018	-0.093
-631.536	-78.227	-0.180	0.062
-630.522	77.699	0.142	0.151
-629.507	86.822	0.047	0.052
-628.492	-23.818	0.078	0.047
-627.478	264.931	-0.074	-0.129
-626.463	670.013	-0.129	0.335
-625.449	-200.000	-0.010	-0.298
-624.434	-200.000	0.019	-0.116
-623.419	-200.000	-0.022	0.136
-622.405	132.098	0.143	0.184
-621.390	244.710	-0.163	0.274
-620.376	148.525	0.101	0.137
-619.361	24.188	0.190	-0.157
-618.346	800.000	-0.023	-0.094
-617.332	-200.000	-0.035	-0.196
-616.317	517.298	0.053	0.125
-615.303	-7.477	0.175	-0.119
-614.288	-73.822	0.081	-0.030
-613.273	-29.940	0.076	0.043
-612.259	200.552	-0.153	0.235
-611.244	56.727	-0.138	-0.135
-610.230	444.046	0.208	0.458
-609.215	-5.059	0.109	0.075
-608.201	-124.320	-0.197	-0.031
-607.186	-101.091	-0.032	0.008
-606.171	107.981	0.111	-0.132
-605.157	-200.000	0.052	0.337
-604.142	-81.957	0.068	0.022
-603.128	-26.512	0.288	0.169
-602.113	14.188	-0.022	-0.017
-601.098	-43.724	0.210	0.106
-600.084	-153.153	0.096	-0.007
-599.069	-47.731	-0.340	-0.165
-598.055	-200.000	-0.012	0.128
-597.040	667.944	-0.090	0.233
-596.025	-103.615	-0.045	-0.011
-595.011	-3.737	-0.150	-0.104
-593.996	-172.922	0.279	-0.009
-592.982	119.900	-0.190	-0.236
-591.967	23.496	0.197	-0.162
-590.952	472.880	0.081	0.183
-589.938	-146.928	0.273	-0.024
-588.923	-192.951	0.179	0.002
-587.909	-199.178	0.103	0.001
-586.894	-101.749	-0.078	0.019
-585.879	635.315	0.062	-0.158
-584.865	-92.966	0.288	-0.080
-583.850	-43.244	-0.142	-0.072
-582.836	-91.026	0.244	0.070
-581.821	800.000	-0.114	-0.321
-580.806	58.261	0.117	-0.114
-579.792	-92.742	0.156	-0.044
-578.777	-56.689	0.356	0.158
-577.763	-200.000	0.025	-0.302
-576.748	72.052	-0.060	-0.063
-575.733	-86.550	-0.074	-0.023
-574.719	-8.293	-0.130	-0.087
-573.704	800.000	-0.135	0.513
-572.690	386.266	-0.099	0.204
-571.675	-200.000	-0.004	0.177
-570.661	-200.000	-0.010	0.290
-569.646	226.039	0.114	-0.184
-568.631	-101.279	-0.159	0.039
-567.617	256.982	0.074	0.128
-566.602	-104.195	-0.201	-0.047
-565.588	122.471	0.155	-0.193
-564.573	-123.101	-0.370	-0.059
-563.558	-100.579	-0.346	-0.086
-562.544	-200.000	0.070	-0.333
-561.529	32.419	0.154	0.133
-560.515	-67.518	0.222	-0.087
-559.500	-44.184	0.273	0.137
-558.485	399.313	-0.153	-0.319
-557.471	800.000	0.126	0.446
-556.456	115.699	0.162	-0.198
-555.442	-59.850	0.327	-0.140
-554.427	800.000	-0.069	0.237
-553.412	-149.698	0.116	-0.009
-552.398	-58.945	0.140	-0.061
-551.383	-56.519	-0.178	-0.079
-550.369	-32.097	0.286	0.160
-549.354	-98.889	-0.279	-0.071
-548.339	800.000	0.054	0.163
-547.325	34.141	0.343	0.299
-546.310	94.463	0.185	-0.210
-545.296	-30.784	-0.058	-0.033
-544.281	-200.000	-0.017	0.298
-543.266	800.000	0.031	-0.114
-542.252	-85.589	0.132	0.041
-541.237	14.348	0.125	0.098
-540.223	-184.345	0.427	-0.007
-539.208	253.752	-0.146	-0.249
-538.193	-200.000	0.006	-0.286
-537.179	800.000	-0.006	0.023
-536.164	-107.691	-0.158	0.034
-535.150	-200.000	0.039	-0.520
-534.135	-200.000	-0.044	-0.227
-533.121	-138.350	-0.111	0.012
-532.106	-200.000	0.008	0.232
-531.091	-134.842	0.124	0.015
-530.077	239.530	0.044	0.074
-529.062	-200.000	-0.046	0.317
-528.048	-200.000	0.010	0.167
-527.033	5.668	-0.267	-0.197
-526.018	47.195	0.236	0.219
-525.004	-4.316	-0.244	0.168
-523.989	220.478	0.011	-0.018
-522.975	44.124	-0.133	-0.122
-521.960	-82.594	-0.351	-0.113
-520.945	405.215	0.133	0.279
-519.931	800.000	-0.081	0.292
-518.916	-165.996	0.095	-0.004
-517.902	17.199	0.091	-0.072
-516.887	-200.000	0.007	0.161
-515.872	-93.215	-0.124	-0.034
-514.858	-200.000	0.033	0.197
-513.843	380.455	-0.048	0.098
-512.829	-200.000	-0.019	-0.110
-511.814	-177.923	0.269	-0.006
-510.799	2.638	-0.339	0.245
-509.785	-118.196	0.136	0.024
-508.770	-200.000	0.057	-0.276
-507.756	-117.960	0.513	0.092
-506.741	107.002	-0.097	0.115
-505.726	-173.903	-0.112	-0.003
-504.712	800.000	-0.048	0.136
-503.697	222.510	0.054	-0.087
-502.683	-200.000	-0.012	-0.139
-501.668	317.755	-0.067	0.126
-500.653	28.796	-0.287	-0.242
-499.639	547.130	0.112	0.267
-498.624	-123.555	0.191	-0.030
-497.610	-21.060	-0.113	0.069
-496.595	800.000	0.036	-0.104
-495.581	-30.645	0.169	0.095
-494.566	-63.401	-0.084	-0.034
-493.551	-200.000	-0.041	0.320
-492.537	-200.000	-0.003	-0.211
-491.522	-194.244	-0.272	0.002
-490.508	-200.000	-0.062	-0.320
-489.493	-52.562	-0.150	0.069
-488.478	-126.102	0.139	-0.021
-487.464	515.746	-0.140	-0.325
-486.449	-144.171	-0.110	0.010
-485.435	69.731	0.125	-0.128
-484.420	149.497	-0.228	-0.308
-483.405	-123.339	-0.201	-0.032
-482.391	800.000	0.017	0.073
-481.376	-56.490	-0.147	0.065
-480.362	-28.396	-0.277	-0.159
-479.347	-129.945	-0.128	0.018
-478.332	-200.000	0.036	0.236
-477.318	133.414	0.241	0.310
-476.303	11.703	-0.226	0.172
-475.289	-17.261	-0.141	-0.088
-474.274	386.792	-0.203	0.417
-473.259	800.000	-0.086	0.337
-472.245	301.834	0.154	0.284
-471.230	-85.441	0.118	-0.037
-470.216	260.196	0.093	-0.161
-469.201	800.000	0.018	0.053
-468.186	-200.000	0.003	0.116
-467.172	121.528	0.093	0.116
-466.157	-69.772	-0.156	-0.059
-465.143	-50.483	0.192	-0.090
-464.128	-11.276	-0.027	0.018
-463.113	-117.733	-0.310	0.056
-462.099	106.368	0.131	0.154
-461.084	-154.832	-0.144	0.009
-460.070	254.719	0.035	-0.060
-459.055	146.109	0.107	-0.143
-458.040	170.860	0.088	-0.125
-457.026	-130.254	-0.312	0.042
-456.011	36.880	0.078	-0.069
-454.997	-200.000	0.004	-0.049
-453.982	-51.313	-0.316	0.147
-452.968	67.495	0.069	0.070
-451.953	-60.291	0.352	0.149
-450.938	74.405	-0.228	0.238
-449.924	-67.916	0.107	0.042
-448.909	800.000	-0.052	0.166
-447.895	-200.000	0.018	-0.182
-446.880	-57.196	0.167	0.073
-445.865	800.000	0.029	0.098
-444.851	-103.318	0.249	-0.059
-443.836	114.585	-0.205	-0.248
-442.822	-200.000	0.016	-0.251
-441.807	106.088	-0.160	0.189
-440.792	247.609	-0.150	-0.252
-439.778	27.580	-0.365	0.306
-438.763	-52.332	-0.139	0.064
-437.749	-200.000	-0.008	-0.545
-436.734	-26.876	-0.297	-0.173
-435.719	800.000	0.054	0.204
-434.705	-93.917	0.157	0.043
-433.690	12.334	0.300	-0.230
-432.676	338.335	0.039	0.076
-431.661	800.000	-0.040	0.134
-430.646	-200.000	0.005	0.152
-429.632	-200.000	0.020	-0.216
-428.617	496.347	0.159	-0.362
-427.603	-47.230	0.161	-0.078
-426.588	800.000	0.040	0.142
-425.573	-53.959	0.178	-0.080
-424.559	-110.485	0.189	-0.039
-423.544	-128.292	0.208	-0.029
-422.530	54.157	0.155	0.148
-421.515	-147.270	-0.382	-0.032
-420.500	145.925	0.203	-0.270
-419.486	-200.000	-0.011	0.066
-418.471	-152.455	-0.054	0.004
-417.457	-93.190	0.341	-0.094
-416.442	800.000	-0.031	-0.091
-415.428	-147.648	-0.409	-0.034
-414.413	-131.852	0.375	0.049
-413.398	-66.769	0.055	-0.022
-412.384	-100.611	0.096	-0.023
-411.369	-51.194	0.080	0.037
-410.355	125.820	0.039	-0.049
-409.340	-13.345	0.202	-0.130
-408.325	-89.882	-0.115	0.033
-407.311	-3.686	-0.153	0.106
-406.296	-114.535	-0.206	0.039
-405.282	121.082	0.089	-0.110
-404.267	800.000	0.048	0.154
-403.252	49.601	-0.141	-0.132
-402.238	416.695	-0.079	0.168
-401.223	39.012	-0.215	-0.191
-400.209	-37.627	0.057	0.030
-399.194	576.826	-0.086	-0.208
-398.179	-13.338	0.147	0.095
-397.165	-120.421	-0.344	0.058
-396.150	201.063	-0.122	0.187
-395.136	34.562	-0.232	0.201
-394.121	-77.871	-0.220	-0.075
-393.106	371.582	-0.046	0.093
-392.092	-115.369	0.214	0.040
-391.077	126.554	-0.315	0.396
-390.063	78.655	0.139	0.147
-389.048	800.000	-0.042	0.147
-388.033	-197.108	-0.399	-0.003
-387.019	16.097	-0.281	0.220
-386.004	-200.000	-0.159	0.000
-384.990	469.833	-0.012	-0.028
-383.975	44.810	0.230	0.210
-382.960	-200.000	-0.016	0.235
-381.946	800.000	0.066	-0.275
-380.931	-107.966	0.196	0.042
-379.917	19.052	-0.095	-0.075
-378.902	800.000	0.079	0.309
-377.888	-105.019	-0.214	-0.049
-376.873	17.063	0.213	0.168
-375.858	-53.033	-0.095	0.043
-374.844	183.864	-0.085	-0.125
-373.829	-200.000	-0.025	-0.167
-372.815	-200.000	-0.048	-0.223
-371.800	275.568	0.160	-0.281
-370.785	20.473	0.096	-0.077
-369.771	213.033	0.036	0.057
-368.756	-200.000	-0.020	-0.458
-367.742	93.771	-0.071	-0.080
-366.727	-165.863	-0.163	0.007
-365.712	800.000	0.088	0.258
-364.698	-200.000	0.066	0.323
-363.683	320.980	-0.126	-0.238
-362.669	78.155	-0.147	-0.156
-361.654	139.891	-0.108	-0.141
-360.639	-61.238	-0.260	-0.109
-359.625	62.464	-0.275	0.272
-358.610	278.657	-0.054	-0.095
-357.596	-151.756	-0.198	-0.014
-356.581	745.392	0.072	-0.192
-355.566	800.000	-0.038	-0.128
-354.552	-200.000	0.026	0.165
-353.537	-38.128	-0.074	-0.039
-352.523	-7.419	-0.187	0.125
-351.508	600.751	0.102	-0.252
-350.493	515.885	-0.108	0.250
-349.479	-58.636	0.127	0.055
-348.464	422.748	0.049	-0.104
-347.450	-200.000	-0.358	-0.001
-346.435	-200.000	-0.004	-0.221
-345.420	-101.285	0.060	0.015
-344.406	-110.187	0.526	0.109
-343.391	251.857	0.051	-0.086
-342.377	-9.953	0.315	-0.208
-341.362	800.000	-0.004	0.015
-340.348	531.033	-0.123	0.289
-339.333	-33.997	-0.075	-0.041
-338.318	-54.004	0.217	0.098
-337.304	800.000	0.007	0.024
-336.289	-200.000	0.050	-0.313
-335.275	362.439	0.212	-0.422
-334.260	229.011	0.066	-0.106
-333.245	146.775	-0.072	-0.096
-332.231	505.529	-0.074	-0.170
-331.216	-97.999	0.196	0.050
-330.202	800.000	0.093	-0.299
-329.187	291.520	0.120	-0.216
-328.172	-175.134	-0.182	0.005
-327.158	333.892	0.031	-0.060
-326.143	0.606	-0.062	-0.044
-325.129	373.284	-0.120	-0.241
-324.114	-112.227	-0.295	-0.059
-323.099	66.365	0.184	0.185
-322.085	-118.918	0.083	0.014
-321.070	800.000	-0.021	0.075
-320.056	-79.092	-0.324	0.109
-319.041	-91.003	-0.161	0.046
-318.026	-200.000	-0.021	-0.248
-317.012	307.419	-0.034	0.062
-315.997	-143.910	-0.288	0.027
-314.983	-68.295	0.221	0.085
-313.968	-200.000	-0.076	0.359
-312.953	-169.630	-0.223	0.008
-311.939	216.372	-0.088	-0.138
-310.924	-200.000	0.012	-0.106
-309.910	800.000	-0.118	-0.466
-308.895	31.207	-0.132	-0.112
-307.880	-200.000	-0.010	0.168
-306.866	-16.553	0.095	0.060
-305.851	-56.620	-0.262	0.115
-304.837	350.270	0.051	0.099
-303.822	800.000	0.088	-0.322
-302.807	174.712	0.291	0.417
-301.793	167.235	0.132	0.185
-300.778	243.464	-0.121	0.201
-299.764	126.914	-0.155	0.194
-298.749	-200.000	0.018	-0.161
-297.735	-87.614	0.127	0.038
-296.720	-57.776	0.144	-0.062
-295.705	186.864	0.104	0.153
-294.691	36.176	-0.079	-0.069
-293.676	-167.378	0.464	-0.018
-292.662	-125.171	0.336	-0.051
-291.647	-7.680	0.407	-0.272
-290.632	9.966	0.087	0.065
-289.618	757.737	-0.078	0.208
-288.603	410.050	0.058	-0.121
-287.589	14.224	0.102	-0.079
-286.574	-18.571	-0.187	-0.115
-285.559	39.562	0.063	-0.056
-284.545	-19.810	0.306	0.187
-283.530	190.982	0.143	-0.213
-282.516	2.184	0.171	0.122
-281.501	34.709	-0.171	-0.148
-280.486	543.508	0.078	0.184
-279.472	-200.000	0.167	-0.001
-278.457	195.657	-0.179	-0.268
-277.443	-136.240	0.257	0.030
-276.428	-169.549	-0.214	0.008
-275.413	276.171	-0.048	0.084
-274.399	280.519	-0.090	0.159
-273.384	-200.000	-0.007	0.064
-272.370	545.669	0.026	-0.062
-271.355	124.392	-0.084	-0.104
-270.340	44.533	0.203	0.184
-269.326	-15.186	0.211	0.133
-268.311	-150.492	0.257	0.019
-267.297	400.426	0.110	-0.227
-266.282	-23.376	-0.148	0.088
-265.267	657.962	-0.046	0.116
-264.253	800.000	0.041	0.132
-263.238	267.444	0.102	-0.176
-262.224	282.924	-0.039	0.070
-261.209	442.943	0.074	0.160
-260.195	20.768	-0.208	-0.166
-259.180	18.968	-0.254	-0.201
-258.165	-200.000	-0.022	-0.381
-257.151	800.000	-0.153	0.496
-256.136	257.910	0.087	-0.148
-255.122	-82.199	-0.302	0.097
-254.107	-100.332	-0.097	0.024
-253.092	-34.292	0.280	0.152
-252.078	104.500	0.040	-0.046
-251.063	38.592	0.244	0.215
-250.049	399.452	0.041	0.085
-249.034	78.515	-0.403	0.425
-248.019	-29.524	0.120	0.068
-247.005	-161.398	-0.039	-0.002
-245.990	178.790	0.110	-0.159
-244.976	287.024	0.142	-0.254
-243.961	2.470	-0.125	-0.089
-242.946	-31.877	-0.147	0.081
-241.932	-170.297	0.090	-0.003
-240.917	-14.270	0.087	-0.056
-239.903	-20.825	0.139	0.084
-238.888	97.288	0.023	0.026
-237.873	-200.000	0.016	-0.290
-236.859	-146.987	-0.407	-0.034
-235.844	219.413	-0.121	0.190
-234.830	324.438	0.116	0.219
-233.815	12.503	0.277	-0.211
-232.800	58.187	-0.259	0.251
-231.786	-119.054	-0.064	0.011
-230.771	245.188	-0.187	-0.311
-229.757	-66.300	0.134	0.053
-228.742	314.207	0.012	-0.022
-227.727	-18.771	-0.284	-0.175
-226.713	34.889	0.092	-0.080
-225.698	164.432	0.130	-0.181
-224.684	-200.000	0.055	0.298
-223.669	-51.608	-0.352	0.162
-222.655	-116.411	0.221	-0.040
-221.640	-200.000	-0.022	0.182
-220.625	519.779	-0.103	0.239
-219.611	371.263	-0.202	0.403
-218.596	-2.189	0.355	0.246
-217.582	-134.063	-0.385	0.047
-216.567	119.802	-0.135	-0.165
-215.552	-17.445	-0.150	0.093
-214.538	-163.276	0.062	0.003
-213.523	-123.397	-0.210	0.033
-212.509	-11.354	-0.163	-0.106
-211.494	537.433	-0.125	0.294
-210.479	-200.000	0.063	0.284
-209.465	215.203	-0.205	0.320
-208.450	800.000	-0.035	-0.120
-207.436	800.000	0.107	-0.437
-206.421	122.974	0.107	-0.132
-205.406	800.000	0.066	-0.208
-204.392	-200.000	0.010	0.068
-203.377	800.000	0.015	-0.050
-202.363	-51.578	0.233	0.107
-201.348	-200.000	-0.058	0.394
-200.333	-200.000	-0.070	-0.383
-199.319	-200.000	-0.004	0.032
-198.304	168.700	0.050	0.070
-197.290	34.614	0.203	-0.175
-196.275	-161.044	0.154	0.008
-195.260	161.944	-0.057	-0.078
-194.246	-200.000	-0.009	-0.138
-193.231	119.955	0.240	-0.293
-192.217	3.202	0.206	0.148
-191.202	800.000	-0.033	-0.116
-190.187	-56.840	-0.162	0.070
-189.173	-81.208	0.235	-0.076
-188.158	604.157	-0.139	0.341
-187.144	447.448	-0.078	-0.169
-186.129	211.918	0.123	-0.191
-185.114	-83.087	-0.256	-0.081
-184.100	80.197	-0.177	-0.187
-183.085	-85.656	0.294	0.090
-182.071	-200.000	-0.002	0.148
-181.056	-129.002	-0.256	-0.035
-180.042	290.702	-0.185	-0.331
-179.027	-11.086	0.032	0.021
-178.012	54.077	0.245	0.232
-176.998	7.225	0.250	0.184
-175.983	-34.441	-0.146	-0.079
-174.969	361.429	0.110	-0.218
-173.954	126.734	0.069	0.086
-172.939	-2.194	0.203	0.141
-171.925	149.142	-0.138	-0.183
-170.910	-200.000	0.048	0.223
-169.896	274.617	0.144	-0.251
-168.881	600.339	-0.125	-0.306
-167.866	321.888	0.087	-0.163
-166.852	-26.108	-0.146	0.084
-165.837	-100.522	0.329	0.080
-164.823	-160.601	0.377	-0.020
-163.808	763.713	0.081	-0.215
-162.793	-51.979	-0.295	0.135
-161.779	218.261	-0.091	-0.142
-160.764	-200.000	0.004	0.201
-159.750	-107.179	0.216	0.047
-158.735	-1.177	0.298	-0.207
-157.720	-140.642	-0.222	-0.023
-156.706	-200.000	-0.001	0.150
-155.691	-54.193	0.321	0.143
-154.677	800.000	0.050	-0.186
-153.662	-200.000	-0.003	-0.090
-152.647	-200.000	0.019	-0.089
-151.633	-112.453	0.270	0.053
-150.618	34.282	-0.165	-0.142
-149.604	800.000	0.048	0.142
-148.589	800.000	0.054	-0.153
-147.574	80.797	-0.165	0.175
-146.560	12.624	-0.144	-0.110
-145.545	48.203	-0.105	0.097
-144.531	-91.146	0.290	-0.082
-143.516	800.000	-0.082	-0.298
-142.502	258.590	-0.141	0.240
-141.487	-2.037	0.068	0.047
-140.472	-200.000	-0.014	0.123
-139.458	-67.338	0.394	0.152
-138.443	800.000	0.120	0.344
-137.429	800.000	0.019	-0.059
-136.414	-50.439	-0.174	-0.081
-135.399	-200.000	-0.017	-0.173
-134.385	32.015	0.143	-0.121
-133.370	-200.000	0.002	0.328
-132.356	-102.805	0.071	-0.017
-131.341	184.050	-0.106	-0.154
-130.326	-84.560	0.167	0.052
-129.312	315.066	0.093	-0.172
-128.297	137.744	0.145	0.187
-127.283	133.769	-0.045	-0.058
-126.268	581.180	-0.056	-0.136
-125.253	382.730	0.150	-0.302
-124.239	-108.216	-0.383	-0.081
-123.224	-71.402	0.074	-0.027
-122.210	55.572	0.200	0.190
-121.195	62.244	-0.277	0.272
