DTS Sentinel unit serial number:	SN413079Multiplexer serial number:	ORYXHardware model number:	OX4-SRSoftware version number:	ORYX F/W v4.00 Oryx Data Collector v3.7.2.0data status	okinstallation	princeton_trtdifferential loss correction	single-endedforward channel	channel 3reverse channel	N/Adate	2019/09/18time	13:08:35forward acquisition time	60.00reverse acquisition time	0.00gamma	496.2192k internal	0.2314k external	0.2314temperature offset calibration	0.9968default loss term (dB/km)	0.3790temperature slope calibration	1.0000multiplexer offset coefficient	1.0000multiplexer slope coefficient	1.0000fibre end	0.00T internal ref (°C)	33.75T ext. ref 1 (°C)	0.59T ext. ref 2 (°C)	31.58length (m)	temperature (°C)	Stokes	anti-Stokes-747.200	411.792	0.186	0.402
-746.185	-3.215	0.073	-0.052
-745.171	-71.009	0.206	0.079
-744.156	173.907	0.277	0.405
-743.142	52.259	-0.119	0.115
-742.127	80.304	-0.104	0.113
-741.112	800.000	0.025	0.101
-740.098	5.777	-0.137	0.103
-739.083	52.955	-0.175	0.170
-738.069	498.833	0.184	0.430
-737.054	223.410	0.024	0.039
-736.039	-46.261	-0.178	-0.089
-735.025	-200.000	0.017	0.286
-734.010	-39.964	0.134	-0.071
-732.996	49.736	-0.232	-0.221
-731.981	160.425	0.193	-0.273
-730.966	-83.508	-0.269	0.087
-729.952	83.213	-0.168	-0.185
-728.937	239.144	-0.162	-0.273
-727.923	90.799	-0.203	0.231
-726.908	-200.000	-0.001	0.181
-725.894	800.000	-0.105	0.316
-724.879	23.033	-0.112	-0.093
-723.864	-24.506	0.146	-0.088
-722.850	-85.083	0.363	-0.115
-721.835	35.315	-0.069	-0.062
-720.821	800.000	0.147	-0.418
-719.806	43.431	0.150	0.138
-718.791	-71.507	0.080	0.030
-717.777	-44.356	0.077	0.039
-716.762	-119.857	-0.440	-0.077
-715.748	-97.905	0.241	0.063
-714.733	-131.813	-0.170	0.022
-713.718	-200.000	0.011	-0.057
-712.704	-124.355	-0.223	0.035
-711.689	-11.839	-0.059	-0.039
-710.675	-200.000	0.027	0.231
-709.660	101.761	-0.043	-0.051
-708.645	0.836	-0.167	-0.121
-707.631	84.258	-0.287	0.318
-706.616	94.619	-0.248	-0.285
-705.602	-200.000	0.003	-0.017
-704.587	-47.355	-0.163	0.081
-703.572	-132.970	-0.288	0.037
-702.558	8.387	0.228	-0.173
-701.543	-80.887	-0.193	0.065
-700.529	22.836	0.097	0.081
-699.514	800.000	-0.036	-0.153
-698.499	-200.000	-0.003	0.174
-697.485	464.136	-0.101	0.229
-696.470	129.318	0.122	0.158
-695.456	21.902	-0.139	-0.115
-694.441	69.836	0.206	0.215
-693.426	258.711	-0.189	0.330
-692.412	304.797	-0.045	0.084
-691.397	182.096	0.195	0.291
-690.383	-14.097	0.104	0.068
-689.368	201.117	0.208	0.325
-688.354	113.017	-0.208	0.255
-687.339	-184.237	-0.084	0.001
-686.324	-98.457	-0.183	-0.047
-685.310	586.390	-0.027	0.066
-684.295	-133.166	-0.256	0.033
-683.281	1.402	0.223	-0.163
-682.266	60.014	0.105	-0.105
-681.251	386.438	0.123	-0.257
-680.237	-58.443	0.409	0.180
-679.222	66.211	0.184	0.189
-678.208	132.525	-0.124	0.162
-677.193	277.637	-0.171	0.309
-676.178	-200.000	-0.034	0.236
-675.164	800.000	-0.095	-0.387
-674.149	244.553	-0.082	0.139
-673.135	-62.098	0.352	0.148
-672.120	-200.000	0.020	-0.149
-671.105	800.000	-0.064	0.209
-670.091	-200.000	0.068	0.406
-669.076	138.357	0.042	-0.056
-668.062	161.798	0.047	0.066
-667.047	266.582	0.119	-0.211
-666.032	-200.000	0.013	0.166
-665.018	183.095	-0.196	0.293
-664.003	555.873	0.028	-0.069
-662.989	-153.876	-0.083	0.006
-661.974	132.948	-0.210	-0.274
-660.959	-200.000	-0.003	0.119
-659.945	800.000	-0.071	0.241
-658.930	-13.051	-0.121	0.079
-657.916	800.000	0.110	-0.319
-656.901	-72.250	0.287	-0.107
-655.886	-144.665	-0.243	-0.023
-654.872	800.000	-0.053	-0.151
-653.857	71.797	0.064	-0.067
-652.843	-112.696	-0.436	0.088
-651.828	43.558	-0.151	-0.139
-650.814	-61.720	0.191	-0.081
-649.799	-121.219	0.135	0.023
-648.784	110.638	0.114	-0.139
-647.770	-200.000	0.013	0.134
-646.755	-42.385	-0.142	-0.073
-645.741	-103.025	0.058	-0.014
-644.726	225.975	0.073	-0.120
-643.711	47.491	-0.201	-0.189
-642.697	557.208	0.128	0.311
-641.682	-46.352	-0.229	-0.114
-640.668	23.400	0.223	0.185
-639.653	-104.548	-0.241	-0.056
-638.638	800.000	0.025	-0.110
-637.624	-112.053	-0.153	0.031
-636.609	44.358	-0.196	0.182
-635.595	644.803	-0.119	0.306
-634.580	-94.973	0.319	-0.087
-633.565	-24.037	0.171	-0.103
-632.551	800.000	-0.166	-0.521
-631.536	60.180	-0.022	-0.022
-630.522	-15.943	-0.173	-0.111
-629.507	800.000	-0.083	-0.259
-628.492	97.255	0.227	0.263
-627.478	-27.197	0.107	-0.063
-626.463	800.000	0.085	-0.349
-625.449	13.496	0.351	-0.275
-624.434	800.000	-0.069	-0.255
-623.419	-93.799	0.270	-0.075
-622.405	-52.608	0.188	-0.088
-621.390	-200.000	-0.023	-0.137
-620.376	48.568	0.130	0.123
-619.361	-26.273	0.130	0.077
-618.346	-58.695	-0.288	-0.126
-617.332	264.031	-0.080	0.141
-616.317	151.164	-0.187	0.257
-615.303	204.425	-0.019	0.029
-614.288	-172.873	0.073	0.002
-613.273	79.113	-0.036	-0.039
-612.259	800.000	-0.049	-0.168
-611.244	-84.562	-0.140	0.044
-610.230	-70.380	-0.183	-0.070
-609.215	323.665	-0.024	-0.046
-608.201	170.302	-0.137	0.198
-607.186	48.068	-0.167	-0.157
-606.171	-87.733	-0.615	-0.187
-605.157	-200.000	-0.032	0.181
-604.142	-65.956	0.205	0.083
-603.128	-174.585	-0.282	-0.008
-602.113	128.398	-0.058	-0.075
-601.098	-76.969	0.123	-0.043
-600.084	-200.000	-0.007	0.255
-599.069	180.333	-0.099	0.146
-598.055	744.098	0.100	-0.270
-597.040	-101.244	-0.167	0.041
-596.025	-200.000	-0.022	0.140
-595.011	-200.000	0.048	-0.326
-593.996	382.535	0.064	0.132
-592.982	-192.356	-0.318	0.003
-591.967	-161.006	-0.391	0.021
-590.952	-154.729	-0.221	0.015
-589.938	800.000	-0.015	0.049
-588.923	-84.760	0.312	0.099
-587.909	117.283	-0.084	0.104
-586.894	204.806	0.014	-0.022
-585.879	372.078	0.165	-0.337
-584.865	34.870	0.049	-0.044
-583.850	-95.123	0.418	0.114
-582.836	800.000	-0.094	-0.296
-581.821	248.371	-0.125	-0.213
-580.806	-2.511	0.066	-0.046
-579.792	239.860	0.101	-0.169
-578.777	-58.719	0.239	-0.104
-577.763	15.770	-0.020	-0.016
-576.748	-200.000	0.010	0.083
-575.733	-162.773	-0.409	-0.020
-574.719	-200.000	-0.002	-0.051
-573.704	-104.384	-0.174	-0.040
-572.690	112.936	-0.209	0.255
-571.675	210.821	-0.156	0.246
-570.661	-173.466	0.036	0.001
-569.646	-200.000	-0.028	0.196
-568.631	-27.279	-0.269	-0.157
-567.617	15.320	0.120	-0.095
-566.602	-129.079	0.133	-0.019
-565.588	61.799	0.119	0.119
-564.573	-125.327	0.157	-0.024
-563.558	-200.000	0.070	0.324
-562.544	-150.420	-0.212	-0.016
-561.529	-77.722	0.135	-0.047
-560.515	58.732	0.264	0.262
-559.500	10.734	0.113	-0.087
-558.485	296.295	-0.031	-0.057
-557.471	-106.949	0.198	0.044
-556.456	14.388	0.129	0.101
-555.442	-64.446	0.178	-0.073
-554.427	331.294	-0.173	0.335
-553.412	-200.000	-0.040	0.229
-552.398	-81.913	-0.334	0.110
-551.383	-129.961	0.326	0.045
-550.369	37.135	0.107	0.095
-549.354	-200.000	0.046	-0.240
-548.339	-185.410	-0.273	0.004
-547.325	-10.915	-0.303	0.201
-546.310	392.599	0.065	-0.137
-545.296	121.291	0.149	-0.187
-544.281	26.756	-0.182	0.153
-543.266	13.304	-0.115	0.090
-542.252	58.352	0.250	0.247
-541.237	-26.154	-0.112	0.066
-540.223	431.862	-0.066	0.145
-539.208	-57.527	0.075	-0.033
-538.193	32.846	0.144	0.126
-537.179	513.255	-0.027	-0.064
-536.164	392.751	-0.040	-0.084
-535.150	117.827	0.246	-0.305
-534.135	442.860	-0.068	0.150
-533.121	27.073	-0.110	-0.093
-532.106	800.000	-0.064	0.215
-531.091	-115.559	-0.251	-0.047
-530.077	-200.000	0.001	-0.331
-529.062	-130.760	0.235	0.032
-528.048	-82.221	0.289	0.095
-527.033	-190.059	0.085	0.001
-526.018	75.943	-0.124	-0.132
-525.004	3.168	-0.088	-0.065
-523.989	-6.228	0.272	0.187
-522.975	-9.049	-0.115	-0.077
-521.960	497.158	-0.051	-0.118
-520.945	-85.791	0.526	0.164
-519.931	29.207	-0.098	0.083
-518.916	-72.571	-0.147	-0.055
-517.902	800.000	0.096	-0.301
-516.887	404.538	-0.155	-0.327
-515.872	332.460	0.126	-0.244
-514.858	-200.000	-0.027	0.193
-513.843	111.168	-0.165	0.199
-512.829	-200.000	0.026	0.169
-511.814	-120.887	0.442	-0.075
-510.799	-200.000	-0.024	-0.604
-509.785	78.049	0.067	0.072
-508.770	-188.893	0.285	0.003
-507.756	79.544	0.237	0.255
-506.741	-47.128	0.191	-0.094
-505.726	-147.930	0.563	0.047
-504.712	500.571	-0.042	0.097
-503.697	800.000	-0.027	0.103
-502.683	10.252	-0.197	0.150
-501.668	-37.991	-0.186	0.099
-500.653	479.040	-0.180	-0.409
-499.639	-30.020	-0.225	0.128
-498.624	-24.588	0.108	0.065
-497.610	-183.235	-0.138	0.002
-496.595	-200.000	-0.012	-0.066
-495.581	800.000	-0.068	-0.203
-494.566	-147.175	-0.198	0.017
-493.551	-200.000	-0.004	-0.023
-492.537	-128.243	-0.174	-0.025
-491.522	-200.000	-0.026	-0.179
-490.508	800.000	0.054	0.206
-489.493	81.715	-0.088	0.096
-488.478	114.931	0.087	-0.106
-487.464	-157.623	-0.331	-0.020
-486.449	18.190	-0.029	0.023
-485.435	-96.801	-0.055	0.015
-484.420	21.449	-0.215	-0.175
-483.405	350.104	0.112	-0.223
-482.391	160.720	0.042	-0.059
-481.376	238.280	0.091	-0.152
-480.362	-75.447	0.284	0.102
-479.347	42.707	0.199	0.182
-478.332	-200.000	0.021	-0.190
-477.318	732.022	-0.129	0.345
-476.303	-109.971	-0.280	0.059
-475.289	159.641	0.116	0.162
-474.274	800.000	-0.130	-0.395
-473.259	-9.055	-0.218	-0.147
-472.245	74.278	0.272	-0.287
-471.230	800.000	-0.049	-0.213
-470.216	310.328	-0.219	-0.410
-469.201	4.759	0.063	0.046
-468.186	75.674	-0.226	0.239
-467.172	-200.000	0.008	0.192
-466.157	-14.103	0.133	-0.086
-465.143	-145.176	-0.427	0.039
-464.128	-101.714	0.246	0.060
-463.113	800.000	0.075	-0.235
-462.099	-74.463	-0.128	-0.046
-461.084	78.016	0.213	-0.228
-460.070	-43.767	-0.326	0.165
-459.055	179.443	-0.123	-0.180
-458.040	-14.857	0.089	0.058
-457.026	-133.166	0.051	-0.006
-456.011	-200.000	-0.007	0.044
-454.997	-200.000	0.027	-0.175
-453.982	-53.006	0.156	-0.072
-452.968	-183.888	-0.418	-0.007
-451.953	-158.307	0.134	-0.008
-450.938	-72.226	0.242	0.090
-449.924	429.703	0.199	0.432
-448.909	-158.553	0.436	-0.025
-447.895	27.581	-0.187	0.158
-446.880	-200.000	-0.050	0.222
-445.865	112.896	0.176	-0.214
-444.851	-96.513	-0.137	0.036
-443.836	-38.892	0.157	-0.083
-442.822	-114.943	-0.092	-0.017
-441.807	-73.405	-0.436	0.160
-440.792	-4.710	0.102	0.071
-439.778	170.029	0.152	-0.217
-438.763	692.198	-0.081	-0.212
-437.749	800.000	-0.079	-0.230
-436.734	-133.339	0.174	-0.022
-435.719	-200.000	0.059	-0.310
-434.705	-200.000	-0.039	-0.568
-433.690	59.067	-0.137	0.135
-432.676	196.071	-0.101	0.154
-431.661	70.169	0.193	-0.199
-430.646	-200.000	-0.015	-0.495
-429.632	-101.466	-0.091	0.022
-428.617	800.000	0.123	-0.430
-427.603	-145.085	0.404	-0.037
-426.588	-77.263	0.276	0.096
-425.573	28.655	0.158	0.134
-424.559	14.346	-0.146	0.114
-423.544	-143.673	-0.371	0.035
-422.530	-110.356	0.267	-0.055
-421.515	785.096	-0.109	-0.298
-420.500	-200.000	-0.012	-0.076
-419.486	-114.892	0.081	0.015
-418.471	-41.507	-0.315	-0.162
-417.457	-145.034	-0.124	0.011
-416.442	-200.000	-0.042	0.198
-415.428	-5.726	0.339	0.232
-414.413	68.196	0.073	0.075
-413.398	4.330	-0.340	-0.250
-412.384	-200.000	0.000	-0.215
-411.369	-200.000	0.059	-0.328
-410.355	-200.000	-0.049	0.357
-409.340	-32.674	-0.115	-0.064
-408.325	16.158	-0.239	-0.189
-407.311	-118.243	0.160	0.029
-406.296	15.215	0.122	-0.096
-405.282	-66.489	0.210	-0.084
-404.267	-200.000	-0.006	-0.052
-403.252	-200.000	-0.000	0.225
-402.238	-200.000	0.271	0.000
-401.223	-110.186	-0.176	0.037
-400.209	-23.362	-0.305	-0.183
-399.194	-49.325	-0.053	0.025
-398.179	178.032	-0.191	0.279
-397.165	800.000	-0.041	0.120
-396.150	-94.191	0.457	0.125
-395.136	-114.459	0.061	0.012
-394.121	800.000	0.035	-0.155
-393.106	6.262	0.190	-0.141
-392.092	-95.810	0.349	0.093
-391.077	-55.111	-0.184	0.083
-390.063	-156.423	0.101	-0.006
-389.048	-145.464	0.171	-0.015
-388.033	-200.000	0.023	-0.181
-387.019	800.000	0.063	0.197
-386.004	-26.868	-0.067	-0.039
-384.990	800.000	-0.045	-0.186
-383.975	-200.000	0.152	-0.001
-382.960	-140.979	0.329	0.034
-381.946	800.000	-0.058	-0.229
-380.931	-123.427	0.286	-0.046
-379.917	-126.413	0.270	-0.040
-378.902	70.898	-0.404	-0.418
-377.888	210.149	0.106	0.166
-376.873	-99.551	-0.239	-0.060
-375.858	-200.000	0.008	0.247
-374.844	-102.848	0.164	0.039
-373.829	52.246	-0.273	0.260
-372.815	-26.849	-0.268	-0.157
-371.800	556.899	0.218	-0.525
-370.785	800.000	0.071	-0.234
-369.771	-0.367	-0.158	-0.112
-368.756	800.000	0.056	0.219
-367.742	-124.793	0.194	-0.030
-366.727	106.631	-0.151	-0.179
-365.712	396.346	0.234	0.487
-364.698	-66.890	-0.066	-0.026
-363.683	-133.196	-0.173	0.022
-362.669	62.219	0.259	0.258
-361.654	-32.390	0.173	-0.096
-360.639	-32.604	-0.204	0.113
-359.625	-200.000	-0.029	0.183
-358.610	-200.000	0.008	0.108
-357.596	-180.088	-0.304	0.006
-356.581	55.906	-0.181	0.176
-355.566	-113.743	-0.341	0.066
-354.552	11.106	0.431	-0.329
-353.537	-200.000	-0.019	0.205
-352.523	-36.518	-0.473	0.254
-351.508	-63.444	-0.167	0.069
-350.493	-106.503	0.276	0.061
-349.479	94.305	-0.173	0.196
-348.464	-57.753	0.191	0.084
-347.450	-133.317	0.161	-0.020
-346.435	13.144	-0.162	0.126
-345.420	223.216	-0.158	0.254
-344.406	3.690	0.035	-0.025
-343.391	-114.863	-0.261	-0.050
-342.377	41.030	-0.147	0.132
-341.362	-109.903	0.318	-0.067
-340.348	-109.288	0.188	0.040
-339.333	5.499	-0.167	-0.123
-338.318	-29.771	0.227	0.129
-337.304	-200.000	0.005	0.125
-336.289	195.412	0.412	0.625
-335.275	-19.666	0.312	-0.193
-334.260	-200.000	-0.005	0.193
-333.245	-120.061	-0.093	0.016
-332.231	12.981	0.201	-0.155
-331.216	-150.147	-0.248	0.019
-330.202	-19.388	0.068	0.042
-329.187	-200.000	-0.050	0.333
-328.172	-63.400	-0.093	-0.038
-327.158	-43.997	0.265	0.133
-326.143	18.388	0.044	0.035
-325.129	-200.000	-0.007	-0.117
-324.114	-200.000	-0.035	0.233
-323.099	-12.489	0.061	-0.040
-322.085	254.756	-0.080	-0.136
-321.070	-200.000	0.003	0.223
-320.056	-200.000	-0.005	0.204
-319.041	199.474	-0.148	0.226
-318.026	298.419	-0.160	-0.293
-317.012	-200.000	-0.042	-0.286
-315.997	310.211	-0.227	-0.424
-314.983	-8.648	0.112	-0.075
-313.968	-25.051	0.076	-0.045
-312.953	-94.125	0.237	-0.065
-311.939	64.986	-0.209	0.211
-310.924	-119.755	-0.184	0.032
-309.910	-200.000	-0.001	0.140
-308.895	-200.000	-0.032	0.174
-307.880	-200.000	0.023	0.154
-306.866	-139.466	0.311	-0.033
-305.851	181.238	-0.114	-0.166
-304.837	-200.000	0.006	0.057
-303.822	27.050	0.225	0.188
-302.807	800.000	0.016	-0.060
-301.793	370.432	0.167	0.337
-300.778	-200.000	-0.028	0.261
-299.764	54.859	0.387	0.373
-298.749	128.771	0.043	-0.054
-297.735	-200.000	0.077	0.000
-296.720	15.070	-0.289	0.226
-295.705	-43.310	-0.057	0.029
-294.691	200.770	0.135	-0.206
-293.676	70.821	-0.131	-0.135
-292.662	32.943	-0.132	0.113
-291.647	-186.147	-0.035	0.001
-290.632	-4.965	-0.136	0.093
-289.618	800.000	0.060	0.235
-288.603	-77.686	0.272	0.094
-287.589	-52.224	0.087	-0.040
-286.574	25.109	-0.209	-0.173
-285.559	2.306	-0.264	-0.190
-284.545	64.473	0.237	-0.238
-283.530	-5.811	0.037	-0.025
-282.516	-9.518	0.207	0.137
-281.501	-66.927	-0.377	0.148
-280.486	222.045	-0.082	0.131
-279.472	-24.904	-0.038	-0.022
-278.457	-91.870	-0.319	0.090
-277.443	-125.313	-0.176	-0.027
-276.428	86.976	-0.166	-0.183
-275.413	-200.000	-0.008	-0.054
-274.399	-42.583	-0.137	0.069
-273.384	-28.452	-0.082	-0.047
-272.370	-200.000	-0.053	-0.319
-271.355	-42.201	-0.222	0.113
-270.340	20.874	0.177	-0.143
-269.326	33.874	-0.315	-0.273
-268.311	-110.140	-0.072	0.015
-267.297	-57.134	-0.130	0.057
-266.282	-200.000	-0.023	0.374
-265.267	-5.707	0.034	-0.023
-264.253	-101.265	0.361	0.088
-263.238	516.041	0.061	-0.143
-262.224	-142.529	0.279	0.027
-261.209	83.314	-0.022	0.024
-260.195	-200.000	0.048	0.218
-259.180	440.975	-0.115	-0.250
-258.165	-34.352	0.105	0.057
-257.151	-44.506	0.222	0.110
-256.136	38.243	-0.281	0.249
-255.122	200.571	-0.191	0.292
-254.107	-200.000	0.008	-0.540
-253.092	13.703	0.097	0.075
-252.078	800.000	0.030	0.081
-251.063	428.877	-0.085	-0.182
-250.049	113.949	0.173	-0.209
-249.034	-200.000	0.057	-0.392
-248.019	92.973	-0.031	0.034
-247.005	800.000	0.014	0.051
-245.990	268.893	-0.057	0.100
-244.976	-12.643	0.173	-0.112
-243.961	50.897	-0.070	-0.066
-242.946	-104.905	0.086	-0.020
-241.932	-120.621	0.291	-0.049
-240.917	375.736	0.157	0.318
-239.903	-44.522	0.200	-0.100
-238.888	671.124	0.074	0.190
-237.873	-65.380	0.282	0.113
-236.859	-120.952	-0.309	-0.052
-235.844	-117.337	-0.637	-0.115
-234.830	-200.000	0.051	0.410
-233.815	58.260	0.193	-0.188
-232.800	-142.729	0.133	-0.013
-231.786	36.745	-0.121	-0.106
-230.771	800.000	-0.086	0.297
-229.757	800.000	-0.064	-0.237
-228.742	800.000	0.013	-0.044
-227.727	-82.561	0.085	-0.027
-226.713	800.000	-0.022	-0.083
-225.698	-22.126	0.224	0.135
-224.684	-109.905	-0.234	-0.049
-223.669	605.159	0.117	0.288
-222.655	-200.000	-0.044	0.243
-221.640	800.000	-0.029	-0.120
-220.625	-35.610	-0.237	0.128
-219.611	-47.267	0.191	-0.093
-218.596	-117.892	0.202	-0.036
-217.582	-18.767	0.196	-0.122
-216.567	176.351	0.157	0.226
-215.552	800.000	-0.044	-0.137
-214.538	-82.286	-0.331	0.107
-213.523	29.981	-0.185	-0.157
-212.509	-200.000	0.022	-0.107
-211.494	223.470	0.310	-0.496
-210.479	-9.571	-0.140	-0.093
-209.465	81.423	-0.143	0.153
-208.450	-200.000	0.012	0.097
-207.436	-153.867	0.246	-0.017
-206.421	800.000	0.056	-0.234
-205.406	800.000	-0.023	0.071
-204.392	641.535	-0.063	-0.160
-203.377	102.176	0.091	0.105
-202.363	-89.329	0.263	0.077
-201.348	-200.000	-0.018	0.279
-200.333	800.000	0.056	0.196
-199.319	800.000	0.030	0.088
-198.304	-11.124	-0.217	0.142
-197.290	459.574	-0.093	0.206
-196.275	117.589	0.200	0.244
-195.260	-200.000	0.070	0.505
-194.246	-49.403	0.098	0.047
-193.231	120.382	0.139	-0.171
-192.217	-64.457	0.232	0.094
-191.202	142.947	-0.188	0.248
-190.187	-69.099	-0.074	0.028
-189.173	-11.152	-0.299	0.195
-188.158	203.996	-0.147	0.226
-187.144	-74.741	-0.146	0.052
-186.129	279.441	-0.052	0.092
-185.114	279.946	-0.020	-0.036
-184.100	-200.000	0.017	0.322
-183.085	74.523	0.078	-0.081
-182.071	-44.575	-0.045	-0.023
-181.056	-17.161	0.258	0.162
-180.042	-96.690	-0.434	-0.113
-179.027	-81.904	-0.228	0.074
-178.012	-200.000	0.091	0.412
-176.998	-112.658	-0.186	-0.037
-175.983	800.000	0.071	-0.243
-174.969	42.425	-0.267	0.240
-173.954	5.342	0.266	0.195
-172.939	60.745	-0.031	0.030
-171.925	-149.213	-0.085	0.007
-170.910	206.634	0.004	0.006
-169.896	-112.991	0.359	-0.070
-168.881	198.010	-0.203	-0.308
-167.866	-179.830	-0.137	-0.003
-166.852	-200.000	0.030	0.199
-165.837	731.725	0.060	0.158
-164.823	800.000	-0.101	-0.319
-163.808	80.380	-0.188	-0.200
-162.793	-200.000	0.009	0.139
-161.779	-200.000	0.016	-0.081
-160.764	-109.362	-0.208	-0.044
-159.750	-65.534	0.211	-0.084
-158.735	266.588	0.070	0.121
-157.720	204.344	0.110	0.169
-156.706	-49.723	0.359	-0.169
-155.691	659.777	0.086	-0.218
-154.677	43.770	-0.085	-0.077
-153.662	-200.000	-0.069	-0.402
-152.647	227.122	-0.198	-0.318
-151.633	-20.816	0.085	0.052
-150.618	-54.998	0.508	-0.227
-149.604	262.635	0.081	0.140
-148.589	277.192	0.149	0.263
-147.574	-74.473	0.081	0.029
-146.560	6.014	0.277	0.203
-145.545	-200.000	-0.039	0.228
-144.531	286.473	0.039	0.070
-143.516	205.627	-0.041	-0.063
-142.502	-200.000	0.040	0.202
-141.487	-137.003	-0.238	-0.027
-140.472	-164.509	0.054	0.002
-139.458	34.657	-0.152	-0.132
-138.443	-3.112	-0.231	-0.160
-137.429	-153.978	0.111	-0.008
-136.414	-2.401	-0.216	0.150
-135.399	85.195	-0.134	0.145
-134.385	415.456	0.135	0.285
-133.370	600.232	-0.081	0.198
-132.356	-200.000	-0.008	-0.078
-131.341	169.438	-0.298	0.422
-130.326	106.096	-0.236	-0.277
-129.312	104.705	0.154	-0.179
-128.297	-200.000	0.064	0.355
-127.283	46.059	-0.182	0.166
-126.268	-1.537	-0.284	-0.198
-125.253	57.638	0.067	0.065
-124.239	800.000	-0.120	0.516
-123.224	-88.370	0.307	-0.091
-122.210	-200.000	0.010	-0.292
-121.195	-200.000	0.020	0.265
-120.180	87.312	0.164	0.180
