DTS Sentinel unit serial number:	SN413079Multiplexer serial number:	ORYXHardware model number:	OX4-SRSoftware version number:	ORYX F/W v4.00 Oryx Data Collector v3.7.2.0data status	okinstallation	princeton_trtdifferential loss correction	single-endedforward channel	channel 3reverse channel	N/Adate	2019/09/18time	13:24:35forward acquisition time	60.00reverse acquisition time	0.00gamma	496.2192k internal	0.2312k external	0.2312temperature offset calibration	0.9975default loss term (dB/km)	0.3790temperature slope calibration	1.0000multiplexer offset coefficient	1.0000multiplexer slope coefficient	1.0000fibre end	0.00T internal ref (°C)	34.12T ext. ref 1 (°C)	0.61T ext. ref 2 (°C)	29.42length (m)	temperature (°C)	Stokes	anti-Stokes-747.200	800.000	-0.030	0.089
-746.185	800.000	0.103	0.397
-745.171	68.593	-0.114	0.119
-744.156	-200.000	-0.025	0.249
-743.142	39.990	-0.081	-0.074
-742.127	-200.000	0.040	0.299
-741.112	-112.831	-0.202	-0.041
-740.098	-139.460	0.210	0.023
-739.083	146.021	-0.114	0.155
-738.069	-181.974	-0.274	0.005
-737.054	-31.092	0.258	0.148
-736.039	324.672	-0.168	0.326
-735.025	141.483	-0.164	-0.221
-734.010	-200.000	0.012	0.223
-732.996	-142.493	-0.251	-0.025
-731.981	-200.000	-0.048	-0.271
-730.966	82.231	-0.217	-0.238
-729.952	-41.988	-0.248	-0.129
-728.937	-200.000	0.004	0.147
-727.923	-30.749	-0.145	-0.083
-726.908	-60.957	-0.132	0.057
-725.894	541.106	-0.059	-0.143
-724.879	-200.000	0.022	0.337
-723.864	-31.536	0.426	-0.243
-722.850	-124.200	0.177	-0.028
-721.835	132.564	-0.122	0.159
-720.821	91.893	-0.182	-0.208
-719.806	185.290	-0.125	-0.189
-718.791	-148.224	-0.126	-0.011
-717.777	-200.000	-0.030	0.210
-716.762	97.210	-0.280	0.325
-715.748	-95.937	-0.275	0.074
-714.733	800.000	-0.082	-0.305
-713.718	161.414	0.045	-0.063
-712.704	-200.000	-0.005	-0.091
-711.689	7.052	-0.113	-0.085
-710.675	182.207	0.262	0.391
-709.660	176.424	-0.162	-0.238
-708.645	622.445	0.070	-0.178
-707.631	30.346	0.119	-0.103
-706.616	53.758	-0.108	0.105
-705.602	-200.000	0.061	-0.273
-704.587	222.311	0.151	0.245
-703.572	106.013	0.135	0.161
-702.558	-200.000	0.005	-0.132
-701.543	-6.412	-0.244	-0.169
-700.529	-200.000	0.046	0.327
-699.514	549.347	0.069	-0.168
-698.499	57.775	0.024	-0.024
-697.485	742.616	-0.114	0.310
-696.470	226.034	-0.255	-0.418
-695.456	31.345	-0.354	-0.308
-694.441	117.026	-0.056	0.070
-693.426	59.129	-0.265	0.264
-692.412	33.587	-0.077	-0.068
-691.397	-200.000	0.057	-0.287
-690.383	-120.961	0.538	-0.092
-689.368	378.110	-0.138	-0.286
-688.354	-124.563	-0.335	-0.053
-687.339	-88.842	0.144	-0.043
-686.324	-113.485	-0.165	-0.033
-685.310	78.980	0.187	-0.203
-684.295	38.999	0.282	-0.255
-683.281	800.000	-0.103	0.299
-682.266	48.141	-0.168	-0.159
-681.251	527.559	0.051	-0.121
-680.237	-195.690	-0.115	-0.001
-679.222	-200.000	-0.003	-0.202
-678.208	-200.000	-0.041	0.209
-677.193	41.864	0.071	-0.065
-676.178	214.536	-0.219	-0.352
-675.164	-137.494	-0.398	0.046
-674.149	800.000	-0.075	0.285
-673.135	800.000	-0.014	-0.042
-672.120	-82.386	0.374	-0.123
-671.105	-200.000	0.005	-0.101
-670.091	-187.757	0.261	0.003
-669.076	-134.828	0.055	0.007
-668.062	-92.147	-0.415	0.119
-667.047	56.737	-0.086	0.085
-666.032	8.948	-0.314	0.240
-665.018	349.666	-0.171	0.342
-664.003	-99.846	-0.146	-0.037
-662.989	-200.000	0.015	-0.223
-661.974	51.149	-0.174	-0.167
-660.959	800.000	-0.056	0.172
-659.945	-67.841	0.144	0.057
-658.930	62.797	-0.180	0.182
-657.916	-200.000	-0.007	0.206
-656.901	256.509	-0.139	0.241
-655.886	754.840	0.046	-0.127
-654.872	-67.173	-0.214	0.085
-653.857	-200.000	0.033	-0.169
-652.843	109.815	0.225	0.273
-651.828	-123.999	0.215	-0.034
-650.814	112.740	-0.247	0.302
-649.799	-153.531	0.358	-0.025
-648.784	-200.000	0.010	0.135
-647.770	-117.860	-0.167	-0.030
-646.755	-107.904	-0.177	-0.039
-645.741	-139.279	-0.338	-0.037
-644.726	-200.000	0.011	-0.148
-643.711	47.162	-0.438	-0.412
-642.697	800.000	0.099	0.318
-641.682	278.608	0.174	-0.313
-640.668	375.756	0.019	-0.039
-639.653	800.000	-0.032	0.141
-638.638	267.660	0.179	-0.317
-637.624	-27.907	0.249	0.146
-636.609	-158.396	-0.485	0.028
-635.595	-50.456	-0.269	-0.128
-634.580	87.962	-0.134	0.150
-633.565	-72.059	0.282	-0.106
-632.551	99.461	-0.130	0.151
-631.536	-112.858	-0.259	-0.052
-630.522	-94.546	-0.130	0.036
-629.507	800.000	0.014	-0.044
-628.492	-116.930	0.036	0.007
-627.478	-96.086	-0.435	-0.117
-626.463	800.000	0.092	-0.320
-625.449	-46.749	-0.218	0.108
-624.434	-26.767	0.067	-0.039
-623.419	120.669	0.200	-0.251
-622.405	-89.187	-0.393	-0.117
-621.390	800.000	0.008	-0.023
-620.376	-141.609	-0.166	0.017
-619.361	181.409	0.067	-0.099
-618.346	-34.498	-0.192	-0.106
-617.332	252.783	0.107	-0.184
-616.317	-200.000	0.000	0.050
-615.303	40.350	0.305	-0.277
-614.288	-128.546	-0.339	0.049
-613.273	68.742	-0.073	-0.076
-612.259	-200.000	-0.049	-0.280
-611.244	-65.873	0.192	-0.077
-610.230	-7.067	-0.046	0.031
-609.215	42.063	-0.078	-0.072
-608.201	54.599	0.135	0.131
-607.186	425.085	-0.028	-0.062
-606.171	82.311	-0.024	0.026
-605.157	119.410	0.134	-0.167
-604.142	-200.000	-0.074	-0.409
-603.128	-65.616	0.186	-0.075
-602.113	578.220	-0.121	-0.300
-601.098	-113.183	-0.379	0.075
-600.084	-158.884	-0.169	0.010
-599.069	208.125	-0.026	-0.041
-598.055	-105.984	-0.412	0.094
-597.040	-49.620	-0.053	0.026
-596.025	-107.370	-0.234	-0.052
-595.011	800.000	-0.014	-0.038
-593.996	159.699	-0.355	0.498
-592.982	221.294	0.031	0.050
-591.967	7.190	0.174	0.131
-590.952	800.000	0.057	0.246
-589.938	800.000	0.070	-0.198
-588.923	-118.902	-0.271	-0.048
-587.909	-185.582	0.092	0.001
-586.894	209.459	-0.085	-0.134
-585.879	37.818	0.273	0.245
-584.865	-200.000	-0.005	0.268
-583.850	-138.991	0.117	-0.013
-582.836	-11.981	0.141	0.093
-581.821	660.483	-0.055	-0.144
-580.806	-92.843	0.174	-0.049
-579.792	800.000	-0.101	-0.286
-578.777	340.825	-0.091	-0.179
-577.763	-17.601	0.110	0.070
-576.748	449.786	-0.117	0.259
-575.733	394.118	0.116	-0.243
-574.719	-22.417	-0.139	-0.085
-573.704	-81.655	0.381	0.126
-572.690	-200.000	-0.034	-0.277
-571.675	800.000	0.105	0.346
-570.661	-200.000	0.027	0.286
-569.646	-200.000	0.005	0.113
-568.631	-3.417	0.189	-0.133
-567.617	800.000	-0.024	0.084
-566.602	-82.863	-0.150	-0.049
-565.588	62.806	0.284	0.287
-564.573	-138.539	0.076	-0.008
-563.558	-119.367	0.154	-0.027
-562.544	-139.444	0.151	-0.016
-561.529	223.947	-0.131	0.213
-560.515	800.000	0.051	0.142
-559.500	-150.935	0.321	-0.024
-558.485	-18.528	-0.295	0.186
-557.471	-171.851	0.246	-0.008
-556.456	-165.932	-0.212	-0.009
-555.442	-200.000	0.035	-0.259
-554.427	-200.000	-0.035	0.357
-553.412	800.000	0.071	0.212
-552.398	-82.916	0.043	0.014
-551.383	-123.605	0.224	0.036
-550.369	-200.000	-0.025	-0.247
-549.354	-200.000	-0.073	-0.352
-548.339	-200.000	-0.028	-0.221
-547.325	800.000	0.030	-0.120
-546.310	-7.926	0.092	0.062
-545.296	272.418	0.136	-0.241
-544.281	459.084	0.034	-0.077
-543.266	800.000	-0.047	0.146
-542.252	132.277	-0.065	0.085
-541.237	-108.130	0.193	0.042
-540.223	364.523	0.031	-0.062
-539.208	-200.000	-0.033	-0.416
-538.193	-116.352	0.222	-0.041
-537.179	-38.167	-0.136	0.072
-536.164	-30.488	0.250	0.143
-535.150	102.229	0.070	0.082
-534.135	-77.846	-0.108	0.038
-533.121	-124.583	-0.151	0.024
-532.106	-43.003	0.233	-0.119
-531.091	101.745	-0.058	0.069
-530.077	134.786	0.188	-0.245
-529.062	-64.703	-0.099	0.040
-528.048	245.775	-0.042	-0.072
-527.033	-153.336	-0.183	-0.013
-526.018	306.792	-0.048	-0.090
-525.004	139.610	-0.102	0.135
-523.989	731.297	-0.024	0.065
-522.975	16.051	-0.327	0.259
-521.960	60.063	-0.274	0.272
-520.945	28.428	-0.126	0.107
-519.931	-52.065	-0.138	0.065
-518.916	-32.464	0.108	-0.060
-517.902	81.774	-0.058	-0.063
-516.887	-54.078	-0.266	-0.122
-515.872	-129.076	0.208	0.029
-514.858	51.055	0.242	-0.231
-513.843	-16.697	-0.170	-0.108
-512.829	-20.240	-0.270	-0.167
-511.814	-143.032	-0.300	0.029
-510.799	776.126	0.120	0.329
-509.785	-61.064	0.260	0.111
-508.770	193.934	0.037	0.057
-507.756	800.000	0.063	0.209
-506.741	-127.506	0.336	-0.049
-505.726	24.400	-0.156	0.130
-504.712	-200.000	0.010	0.233
-503.697	293.572	-0.105	-0.192
-502.683	-177.320	0.416	0.010
-501.668	505.420	0.034	-0.079
-500.653	146.459	0.299	-0.403
-499.639	127.651	0.051	-0.065
-498.624	-200.000	0.023	0.138
-497.610	-200.000	0.034	-0.156
-496.595	554.508	0.179	-0.434
-495.581	-130.342	-0.194	-0.026
-494.566	292.933	0.048	0.088
-493.551	-200.000	-0.175	-0.001
-492.537	-77.101	0.130	-0.046
-491.522	800.000	-0.120	-0.377
-490.508	-76.254	0.111	-0.039
-489.493	122.345	0.094	-0.118
-488.478	800.000	0.040	0.147
-487.464	-67.494	0.129	-0.051
-486.449	-125.369	0.195	0.030
-485.435	167.754	-0.012	0.018
-484.420	-200.000	0.036	-0.384
-483.405	88.815	0.138	0.154
-482.391	548.094	0.020	0.047
-481.376	319.621	0.149	-0.284
-480.362	81.019	0.164	-0.177
-479.347	-79.402	0.175	-0.059
-478.332	115.817	-0.072	0.088
-477.318	-171.515	-0.181	-0.006
-476.303	-163.658	-0.064	-0.003
-475.289	-115.342	-0.130	-0.025
-474.274	-101.111	0.189	-0.047
-473.259	-164.179	-0.405	0.019
-472.245	501.440	0.158	0.365
-471.230	40.521	-0.158	0.143
-470.216	-109.701	0.104	-0.022
-469.201	-50.851	0.320	-0.151
-468.186	-150.031	0.239	-0.019
-467.172	70.348	-0.109	0.113
-466.157	-200.000	0.033	-0.189
-465.143	-36.266	0.294	-0.159
-464.128	627.413	0.106	0.268
-463.113	270.317	-0.147	-0.259
-462.099	800.000	0.046	-0.140
-461.084	-16.534	-0.146	0.093
-460.070	-53.068	-0.196	0.091
-459.055	-200.000	0.014	0.171
-458.040	-105.422	0.214	0.049
-457.026	65.002	-0.213	0.216
-456.011	730.239	-0.037	-0.100
-454.997	-34.041	-0.386	-0.213
-453.982	-127.831	-0.226	-0.033
-452.968	-166.845	0.474	-0.020
-451.953	-64.867	0.207	-0.084
-450.938	202.522	-0.218	0.337
-449.924	-155.816	-0.358	-0.023
-448.909	-39.942	0.030	0.016
-447.895	105.313	-0.078	-0.093
-446.880	-171.226	0.104	-0.004
-445.865	-9.305	-0.045	-0.030
-444.851	-4.823	0.083	-0.057
-443.836	-124.178	0.104	-0.016
-442.822	10.364	0.182	-0.139
-441.807	-200.000	-0.032	0.213
-440.792	-176.933	0.243	0.006
-439.778	-160.366	-0.183	0.010
-438.763	-200.000	-0.031	0.167
-437.749	68.529	-0.306	-0.315
-436.734	-14.653	-0.177	-0.114
-435.719	800.000	-0.063	-0.265
-434.705	-51.013	-0.049	-0.023
-433.690	-200.000	0.023	0.158
-432.676	85.334	-0.170	-0.187
-431.661	-6.213	-0.078	-0.053
-430.646	196.198	0.220	0.336
-429.632	60.458	-0.230	0.228
-428.617	-35.401	-0.236	-0.129
-427.603	676.262	0.155	-0.403
-426.588	-200.000	0.010	0.127
-425.573	-200.000	-0.054	-0.237
-424.559	-70.177	-0.465	-0.177
-423.544	-144.984	0.218	0.020
-422.530	150.123	-0.075	-0.102
-421.515	503.060	-0.117	0.272
-420.500	-200.000	0.010	-0.076
-419.486	-148.414	0.355	-0.029
-418.471	95.956	0.330	0.378
-417.457	-27.560	0.106	-0.062
-416.442	245.649	-0.137	-0.231
-415.428	-200.000	0.071	-0.453
-414.413	-189.989	0.260	-0.003
-413.398	92.242	-0.056	-0.063
-412.384	35.246	0.318	0.279
-411.369	-200.000	-0.003	0.094
-410.355	30.506	0.244	0.209
-409.340	74.409	-0.133	0.140
-408.325	104.128	0.107	0.126
-407.311	-200.000	0.018	-0.104
-406.296	-41.931	0.210	-0.108
-405.282	13.975	0.083	-0.065
-404.267	296.881	-0.085	-0.156
-403.252	-139.900	-0.462	-0.049
-402.238	800.000	0.022	-0.062
-401.223	541.915	-0.075	-0.180
-400.209	-88.769	0.291	0.087
-399.194	-32.917	-0.153	0.085
-398.179	-59.089	-0.125	0.054
-397.165	163.976	-0.077	0.109
-396.150	377.662	0.192	0.393
-395.136	800.000	0.107	0.310
-394.121	485.246	-0.109	-0.249
-393.106	67.010	0.275	0.280
-392.092	800.000	0.046	0.182
-391.077	249.810	-0.091	-0.154
-390.063	464.338	0.104	0.232
-389.048	329.424	-0.065	-0.125
-388.033	-129.367	-0.059	0.008
-387.019	-200.000	-0.034	-0.242
-386.004	309.862	-0.062	0.116
-384.990	189.820	-0.087	0.131
-383.975	-200.000	-0.010	0.144
-382.960	-197.468	-0.346	-0.002
-381.946	14.027	0.117	0.091
-380.931	165.424	-0.039	-0.054
-379.917	800.000	0.014	-0.058
-378.902	22.733	0.146	0.120
-377.888	81.951	-0.188	-0.203
-376.873	-87.001	-0.234	-0.071
-375.858	-7.064	-0.066	-0.045
-374.844	-39.969	0.160	0.084
-373.829	-200.000	0.011	0.084
-372.815	139.583	-0.122	0.161
-371.800	-200.000	-0.052	-0.255
-370.785	-132.411	0.362	-0.047
-369.771	41.513	0.090	-0.082
-368.756	800.000	-0.073	0.212
-367.742	112.803	0.020	0.024
-366.727	-182.597	0.191	0.003
-365.712	-168.356	-0.233	0.009
-364.698	37.317	0.204	-0.181
-363.683	-200.000	0.004	0.166
-362.669	800.000	-0.001	-0.005
-361.654	800.000	-0.123	0.412
-360.639	-200.000	-0.055	-0.320
-359.625	-122.554	0.265	-0.043
-358.610	171.930	-0.198	0.285
-357.596	71.072	0.282	-0.292
-356.581	-50.321	0.344	0.163
-355.566	103.694	0.136	-0.160
-354.552	-43.872	-0.251	0.126
-353.537	80.390	-0.250	-0.269
-352.523	58.489	-0.330	0.323
-351.508	-15.438	-0.242	-0.154
-350.493	800.000	0.065	-0.242
-349.479	-200.000	0.112	-0.000
-348.464	-97.530	0.195	-0.051
-347.450	-139.334	0.286	-0.031
-346.435	-200.000	-0.006	-0.030
-345.420	53.203	0.228	0.218
-344.406	-95.850	0.149	0.040
-343.391	800.000	0.069	0.236
-342.377	79.402	-0.138	0.148
-341.362	61.747	-0.032	-0.032
-340.348	-100.821	-0.215	-0.053
-339.333	-27.064	0.038	-0.022
-338.318	800.000	0.076	0.220
-337.304	-200.000	-0.035	0.189
-336.289	-84.396	0.241	-0.076
-335.275	130.413	0.106	0.135
-334.260	-200.000	-0.001	0.011
-333.245	-104.839	0.294	0.067
-332.231	2.624	0.111	-0.080
-331.216	8.312	0.160	-0.120
-330.202	53.781	0.070	0.067
-329.187	800.000	0.036	0.156
-328.172	-190.000	0.232	0.003
-327.158	-200.000	0.004	0.128
-326.143	-200.000	0.008	0.078
-325.129	377.572	0.108	-0.220
-324.114	153.425	-0.043	-0.058
-323.099	271.435	0.098	-0.172
-322.085	-200.000	0.038	0.193
-321.070	227.612	-0.074	-0.120
-320.056	347.231	-0.128	-0.252
-319.041	-168.492	-0.505	-0.019
-318.026	-87.438	-0.116	-0.035
-317.012	-18.326	0.263	0.164
-315.997	636.803	-0.028	-0.071
-314.983	-119.935	0.107	0.018
-313.968	790.579	0.069	0.190
-312.953	-87.829	-0.440	0.132
-311.939	-116.059	0.236	-0.044
-310.924	800.000	-0.064	0.195
-309.910	395.971	-0.052	0.109
-308.895	-200.000	0.114	0.511
-307.880	-15.519	0.120	0.077
-306.866	-74.091	-0.283	-0.102
-305.851	-200.000	0.044	0.205
-304.837	-124.830	0.223	-0.034
-303.822	33.173	0.257	0.222
-302.807	800.000	0.211	0.651
-301.793	258.322	-0.082	-0.140
-300.778	-200.000	0.029	-0.198
-299.764	65.451	-0.212	-0.214
-298.749	-200.000	0.001	-0.027
-297.735	42.772	0.039	0.036
-296.720	-157.843	-0.261	-0.015
-295.705	486.110	-0.088	-0.201
-294.691	42.249	0.110	-0.099
-293.676	-149.808	0.149	0.012
-292.662	-31.201	0.180	-0.101
-291.647	-200.000	-0.008	0.181
-290.632	-26.140	0.220	-0.129
-289.618	-95.593	0.262	0.070
-288.603	60.338	0.093	-0.092
-287.589	-200.000	-0.032	0.329
-286.574	614.411	-0.147	0.368
-285.559	-21.943	-0.157	0.095
-284.545	40.085	0.185	-0.165
-283.530	125.258	-0.254	0.319
-282.516	548.614	-0.163	0.389
-281.501	21.414	0.170	0.138
-280.486	-170.496	-0.147	0.005
-279.472	-200.000	-0.024	0.124
-278.457	-21.025	-0.124	-0.076
-277.443	-155.112	-0.224	0.015
-276.428	-61.630	0.232	-0.097
-275.413	-35.856	-0.117	-0.063
-274.399	591.932	0.096	-0.235
-273.384	270.584	0.060	-0.104
-272.370	-7.081	0.191	-0.129
-271.355	287.451	-0.182	-0.327
-270.340	535.167	0.061	0.143
-269.326	800.000	-0.040	-0.170
-268.311	-43.299	0.274	0.138
-267.297	125.841	-0.191	0.240
-266.282	-76.096	-0.435	-0.153
-265.267	-3.970	0.208	-0.143
-264.253	-197.832	0.230	0.001
-263.238	-57.021	-0.123	0.054
-262.224	9.633	0.077	0.058
-261.209	-145.261	-0.197	0.018
-260.195	-158.772	0.155	0.009
-259.180	-55.321	0.014	-0.006
-258.165	-68.866	0.053	0.020
-257.151	800.000	0.069	-0.250
-256.136	800.000	-0.099	-0.392
-255.122	64.668	-0.191	0.191
-254.107	-101.845	-0.255	-0.061
-253.092	-173.244	0.110	-0.003
-252.078	-144.962	-0.207	-0.019
-251.063	306.252	0.142	0.263
-250.049	-43.877	-0.138	-0.069
-249.034	-160.211	0.211	-0.011
-248.019	-200.000	0.011	-0.144
-247.005	800.000	-0.087	0.261
-245.990	196.727	0.076	0.115
-244.976	-142.743	-0.445	0.043
-243.961	-9.556	-0.162	0.108
-242.946	-60.378	0.130	0.055
-241.932	800.000	0.063	-0.250
-240.917	429.554	-0.184	0.396
-239.903	-152.265	-0.059	0.004
-238.888	346.319	-0.103	-0.201
-237.873	-108.628	0.091	0.019
-236.859	-200.000	0.053	0.329
-235.844	-200.000	0.026	0.275
-234.830	-121.049	0.106	0.018
-233.815	800.000	0.025	0.093
-232.800	800.000	-0.023	-0.084
-231.786	523.458	-0.035	0.082
-230.771	-12.631	-0.088	0.057
-229.757	474.794	0.066	0.147
-228.742	130.641	-0.143	-0.183
-227.727	290.565	0.051	0.092
-226.713	-157.591	-0.393	-0.023
-225.698	-200.000	-0.068	-0.464
-224.684	800.000	-0.100	-0.298
-223.669	-5.779	0.102	0.069
-222.655	8.606	0.043	0.032
-221.640	-92.318	-0.113	0.032
-220.625	-103.471	0.355	0.083
-219.611	125.749	-0.145	0.182
-218.596	-200.000	0.002	-0.207
-217.582	18.849	-0.230	-0.183
-216.567	-114.573	-0.201	-0.038
-215.552	800.000	0.040	0.139
-214.538	-22.275	-0.332	-0.200
-213.523	-85.185	0.159	0.049
-212.509	718.929	0.122	0.322
-211.494	-200.000	0.020	0.324
-210.479	-200.000	-0.030	-0.383
-209.465	334.624	0.219	0.422
-208.450	88.087	0.181	0.199
-207.436	183.896	-0.175	-0.258
-206.421	-68.224	-0.073	-0.028
-205.406	39.096	-0.273	0.242
-204.392	800.000	0.082	0.260
-203.377	247.783	0.125	0.209
-202.363	-8.073	-0.169	-0.113
-201.348	-200.000	0.026	0.196
-200.333	313.597	-0.103	-0.192
-199.319	25.403	-0.091	-0.075
-198.304	311.349	-0.123	0.229
-197.290	330.619	-0.047	0.090
-196.275	34.576	0.061	-0.053
-195.260	283.445	0.043	-0.076
-194.246	3.361	0.154	0.111
-193.231	-9.064	-0.041	-0.027
-192.217	-84.595	0.292	-0.092
-191.202	-200.000	0.039	-0.324
-190.187	-100.489	0.129	-0.032
-189.173	-92.778	-0.218	-0.061
-188.158	-110.565	0.125	0.026
-187.144	-41.616	-0.121	0.062
-186.129	-126.269	0.322	0.048
-185.114	133.668	-0.078	-0.100
-184.100	-200.000	-0.078	-0.378
-183.085	800.000	-0.037	0.147
-182.071	-129.068	0.196	0.027
-181.056	-7.834	-0.047	-0.032
-180.042	-56.796	-0.347	0.152
-179.027	-39.129	0.296	-0.155
-178.012	676.170	-0.085	0.219
-176.998	-97.987	0.346	0.089
-175.983	85.284	0.103	-0.112
-174.969	23.140	-0.051	0.041
-173.954	-9.512	-0.150	-0.099
-172.939	162.963	0.075	-0.104
-171.925	800.000	-0.066	0.226
-170.910	196.636	-0.315	0.477
-169.896	800.000	0.075	0.227
-168.881	51.083	-0.225	0.212
-167.866	-42.836	-0.231	-0.116
-166.852	233.706	0.093	-0.152
-165.837	-193.916	0.153	-0.001
-164.823	64.217	0.093	0.093
-163.808	110.451	-0.056	-0.067
-162.793	-146.757	-0.147	-0.013
-161.779	357.066	0.101	-0.201
-160.764	157.031	0.136	-0.186
-159.750	800.000	0.144	-0.528
-158.735	79.814	0.142	-0.151
-157.720	177.024	0.077	0.111
-156.706	167.985	-0.064	0.091
-155.691	-196.083	0.289	-0.002
-154.677	-139.937	-0.236	-0.025
-153.662	-200.000	0.031	-0.201
-152.647	800.000	0.052	-0.210
-151.633	-200.000	0.037	0.242
-150.618	271.440	0.085	-0.149
-149.604	796.041	-0.034	0.092
-148.589	-200.000	0.071	-0.380
-147.574	-86.115	0.230	-0.070
-146.560	-77.532	-0.239	0.082
-145.545	714.720	0.098	0.256
-144.531	158.292	0.083	0.114
-143.516	277.708	0.152	-0.268
-142.502	800.000	0.064	-0.219
-141.487	-67.010	0.323	-0.126
-140.472	-80.464	0.223	-0.074
-139.458	0.918	-0.215	-0.152
-138.443	9.889	-0.171	-0.129
-137.429	-200.000	0.009	0.159
-136.414	800.000	-0.084	0.303
-135.399	-153.530	0.166	-0.011
-134.385	155.190	-0.245	-0.334
-133.370	-36.779	-0.076	0.040
-132.356	158.404	0.065	0.089
-131.341	-178.045	0.155	0.004
-130.326	800.000	-0.089	-0.257
-129.312	189.522	0.179	0.266
-128.297	289.495	0.079	0.142
-127.283	-137.625	0.303	-0.034
-126.268	-200.000	-0.003	-0.074
-125.253	-77.052	-0.118	0.041
-124.239	359.718	0.088	0.175
-123.224	-85.526	0.360	0.111
-122.210	-70.527	0.164	-0.062
