DTS Sentinel unit serial number:	SN413079Multiplexer serial number:	ORYXHardware model number:	OX4-SRSoftware version number:	ORYX F/W v4.00 Oryx Data Collector v3.7.2.0data status	okinstallation	princeton_trtdifferential loss correction	single-endedforward channel	channel 3reverse channel	N/Adate	2019/09/12time	15:54:11forward acquisition time	60.00reverse acquisition time	0.00gamma	496.2192k internal	0.2297k external	0.2297temperature offset calibration	1.0064default loss term (dB/km)	0.3790temperature slope calibration	1.0000multiplexer offset coefficient	1.0000multiplexer slope coefficient	1.0000fibre end	0.00T internal ref (°C)	39.37T ext. ref 1 (°C)	2.48T ext. ref 2 (°C)	32.34length (m)	temperature (°C)	Stokes	anti-Stokes-747.200	85.023	0.108	-0.121
-746.185	0.450	0.085	0.062
-745.171	-200.000	-0.027	-0.191
-744.156	338.860	0.105	0.208
-743.142	197.081	-0.037	0.057
-742.127	-41.179	-0.116	0.061
-741.112	-136.867	0.388	-0.046
-740.098	-25.734	-0.153	0.092
-739.083	-163.147	-0.290	0.014
-738.069	267.304	0.134	0.239
-737.054	480.124	0.057	-0.132
-736.039	26.974	-0.156	-0.133
-735.025	7.309	-0.088	-0.067
-734.010	191.673	-0.109	-0.168
-732.996	-158.503	0.083	-0.005
-731.981	-100.211	-0.431	-0.109
-730.966	-35.528	-0.310	-0.172
-729.952	-200.000	-0.023	0.131
-728.937	436.191	-0.044	0.097
-727.923	-141.345	-0.216	0.022
-726.908	236.343	-0.194	-0.327
-725.894	-178.566	-0.398	-0.009
-724.879	305.430	0.096	-0.183
-723.864	-42.834	-0.132	0.069
-722.850	-36.457	0.233	0.128
-721.835	670.859	-0.045	0.119
-720.821	123.383	-0.271	-0.347
-719.806	-200.000	0.010	-0.274
-718.791	-115.648	0.179	-0.034
-717.777	199.920	-0.264	-0.414
-716.762	583.253	0.107	-0.268
-715.748	55.900	0.076	0.075
-714.733	27.736	-0.238	0.204
-713.718	800.000	-0.051	-0.187
-712.704	5.987	-0.262	0.198
-711.689	-89.027	0.031	0.009
-710.675	-200.000	0.009	-0.061
-709.660	-127.917	0.227	0.033
-708.645	-200.000	-0.001	-0.218
-707.631	-39.117	-0.302	-0.162
-706.616	-200.000	0.015	0.087
-705.602	-146.442	-0.269	-0.024
-704.587	200.204	-0.129	-0.201
-703.572	49.645	-0.134	-0.128
-702.558	-200.000	-0.000	0.167
-701.543	-7.245	0.286	-0.198
-700.529	-125.623	0.468	0.072
-699.514	-85.612	-0.205	0.065
-698.499	-154.111	0.043	-0.003
-697.485	-148.202	-0.139	0.012
-696.470	800.000	-0.074	-0.235
-695.456	-66.177	-0.214	0.087
-694.441	706.545	-0.043	0.116
-693.426	-200.000	-0.018	-0.151
-692.412	800.000	0.115	0.349
-691.397	-77.726	-0.345	-0.122
-690.383	440.242	0.041	-0.091
-689.368	-200.000	0.002	0.254
-688.354	-200.000	-0.015	-0.545
-687.339	304.283	0.088	0.166
-686.324	615.073	0.170	0.434
-685.310	-88.064	-0.198	0.061
-684.295	-61.968	-0.279	-0.119
-683.281	313.894	0.166	0.318
-682.266	-88.623	-0.261	-0.079
-681.251	93.845	0.167	-0.193
-680.237	38.477	-0.017	-0.015
-679.222	-200.000	-0.016	0.182
-678.208	-119.762	0.158	-0.028
-677.193	137.375	0.179	-0.239
-676.178	-200.000	0.006	0.085
-675.164	-200.000	0.021	-0.272
-674.149	356.830	-0.114	0.231
-673.135	6.225	-0.110	0.083
-672.120	-200.000	-0.381	-0.001
-671.105	90.464	-0.144	0.165
-670.091	463.569	-0.016	0.037
-669.076	681.786	-0.086	-0.228
-668.062	398.214	0.025	-0.053
-667.047	76.344	-0.080	0.086
-666.032	317.958	-0.055	0.105
-665.018	-200.000	0.029	-0.236
-664.003	-200.000	-0.070	-0.370
-662.989	115.784	0.103	-0.129
-661.974	-78.502	-0.138	0.048
-660.959	-74.809	-0.189	-0.069
-659.945	424.192	-0.081	0.177
-658.930	800.000	-0.112	0.331
-657.916	-25.360	-0.201	-0.121
-656.901	-59.535	0.142	0.062
-655.886	125.046	-0.095	0.122
-654.872	-200.000	0.045	-0.569
-653.857	-45.544	-0.345	0.174
-652.843	-23.717	0.207	-0.126
-651.828	25.753	0.319	-0.271
-650.814	-17.003	0.098	-0.063
-649.799	687.023	-0.036	-0.095
-648.784	15.889	-0.174	0.140
-647.770	37.507	-0.136	0.123
-646.755	183.536	0.176	-0.265
-645.741	-124.367	0.214	0.034
-644.726	800.000	0.060	-0.198
-643.711	-200.000	-0.005	-0.054
-642.697	-93.107	-0.165	-0.047
-641.682	-26.384	0.273	-0.163
-640.668	-93.530	0.051	-0.014
-639.653	-91.338	-0.075	-0.022
-638.638	17.710	0.303	0.245
-637.624	484.610	0.041	0.095
-636.609	103.356	-0.132	-0.157
-635.595	-200.000	0.010	-0.246
-634.580	-18.769	-0.245	-0.155
-633.565	-6.165	0.230	-0.160
-632.551	712.944	0.048	-0.130
-631.536	-126.987	-0.114	0.017
-630.522	-156.572	0.446	0.028
-629.507	179.094	-0.042	-0.062
-628.492	81.511	-0.344	-0.378
-627.478	500.550	-0.200	0.469
-626.463	-44.647	0.205	0.104
-625.449	125.037	0.101	0.129
-624.434	-38.914	-0.126	0.067
-623.419	-56.445	0.203	-0.091
-622.405	-164.225	0.305	-0.014
-621.390	-62.672	-0.064	-0.027
-620.376	179.786	0.149	0.221
-619.361	800.000	0.124	0.389
-618.346	800.000	0.045	-0.134
-617.332	286.354	0.179	-0.329
-616.317	800.000	0.099	0.402
-615.303	-200.000	-0.041	0.274
-614.288	-85.236	0.058	0.019
-613.273	5.885	0.297	-0.223
-612.259	60.874	-0.174	0.175
-611.244	-71.787	-0.138	0.052
-610.230	-75.301	-0.261	0.095
-609.215	30.645	-0.096	-0.083
-608.201	800.000	0.059	0.231
-607.186	76.865	-0.120	-0.130
-606.171	-200.000	0.014	0.144
-605.157	-162.134	0.210	0.011
-604.142	80.207	-0.219	0.240
-603.128	-7.999	0.274	0.187
-602.113	800.000	0.096	0.382
-601.098	-76.831	-0.300	0.107
-600.084	800.000	-0.073	0.209
-599.069	172.104	-0.045	0.066
-598.055	-200.000	-0.071	0.388
-597.040	-27.283	-0.379	0.224
-596.025	800.000	0.026	-0.099
-595.011	-200.000	0.032	-0.188
-593.996	776.937	-0.111	-0.309
-592.982	-200.000	-0.018	0.352
-591.967	-133.184	-0.205	-0.026
-590.952	-46.252	-0.053	0.026
-589.938	508.325	-0.139	0.329
-588.923	-39.120	0.109	0.058
-587.909	-34.450	0.088	-0.049
-586.894	-0.093	-0.250	0.180
-585.879	182.798	0.169	0.253
-584.865	-130.909	-0.264	0.036
-583.850	-200.000	-0.019	-0.224
-582.836	-131.525	0.202	-0.027
-581.821	231.041	0.017	0.029
-580.806	136.238	0.104	0.137
-579.792	-97.806	-0.445	0.117
-578.777	-58.507	-0.166	-0.073
-577.763	-130.326	0.167	-0.023
-576.748	-81.016	-0.103	0.035
-575.733	800.000	-0.048	-0.179
-574.719	8.004	0.072	-0.055
-573.704	-92.479	0.326	-0.093
-572.690	201.723	-0.168	0.263
-571.675	-126.891	-0.308	0.046
-570.661	69.582	-0.197	0.206
-569.646	-81.100	-0.449	-0.151
-568.631	800.000	-0.043	0.192
-567.617	28.983	-0.276	0.237
-566.602	-200.000	0.043	0.258
-565.588	800.000	0.079	0.231
-564.573	-200.000	0.003	0.074
-563.558	-200.000	-0.025	-0.312
-562.544	338.162	-0.060	-0.119
-561.529	311.229	-0.094	0.178
-560.515	382.778	-0.042	0.088
-559.500	-99.282	0.257	-0.066
-558.485	39.125	-0.120	-0.109
-557.471	-124.895	-0.197	0.031
-556.456	-122.908	0.358	-0.058
-555.442	-117.353	0.232	-0.043
-554.427	39.042	-0.264	0.239
-553.412	-1.181	0.276	-0.198
-552.398	-200.000	-0.026	-0.215
-551.383	2.894	0.412	0.303
-550.369	-200.000	0.062	0.293
-549.354	-200.000	-0.003	-0.036
-548.339	-27.333	-0.215	-0.127
-547.325	-200.000	0.030	0.383
-546.310	-170.544	-0.168	0.006
-545.296	-172.743	-0.121	0.004
-544.281	800.000	-0.089	0.330
-543.266	430.011	-0.084	0.185
-542.252	800.000	0.086	0.261
-541.237	-200.000	-0.016	0.165
-540.223	13.634	-0.130	-0.102
-539.208	-106.789	0.174	-0.039
-538.193	-15.579	0.209	-0.135
-537.179	-80.517	-0.381	-0.129
-536.164	96.764	0.053	0.062
-535.150	800.000	0.042	-0.153
-534.135	81.344	-0.126	0.138
-533.121	-55.505	-0.174	0.079
-532.106	-57.195	0.194	0.087
-531.091	0.895	0.164	0.119
-530.077	436.268	-0.063	-0.139
-529.062	38.604	-0.165	-0.149
-528.048	201.826	0.206	0.322
-527.033	-104.821	0.178	0.041
-526.018	-108.396	0.177	0.039
-525.004	168.182	-0.106	0.152
-523.989	800.000	-0.049	-0.193
-522.975	26.581	0.090	-0.076
-521.960	70.370	0.341	0.357
-520.945	-200.000	0.006	-0.109
-519.931	-200.000	0.007	0.436
-518.916	-143.801	-0.304	0.029
-517.902	49.863	-0.380	0.363
-516.887	-157.270	-0.225	0.014
-515.872	-200.000	-0.041	0.263
-514.858	14.242	0.269	-0.212
-513.843	-200.000	-0.007	-0.040
-512.829	-61.909	0.088	-0.037
-511.814	800.000	-0.062	0.260
-510.799	-200.000	0.042	-0.350
-509.785	334.292	0.174	-0.341
-508.770	-200.000	-0.014	0.175
-507.756	-92.053	0.152	-0.043
-506.741	-56.202	0.220	0.099
-505.726	80.439	-0.075	0.082
-504.712	-57.099	0.126	-0.056
-503.697	-57.212	-0.223	-0.099
-502.683	-88.659	-0.222	-0.067
-501.668	-99.033	0.141	0.036
-500.653	-139.267	0.152	0.017
-499.639	-19.341	-0.223	-0.140
-498.624	306.813	0.146	-0.275
-497.610	20.760	-0.543	-0.445
-496.595	3.780	-0.191	-0.141
-495.581	104.615	-0.268	0.319
-494.566	-50.260	0.381	0.182
-493.551	-83.252	-0.253	-0.082
-492.537	-5.367	0.117	-0.081
-491.522	-200.000	-0.003	0.316
-490.508	644.357	-0.064	0.165
-489.493	-200.000	-0.011	0.156
-488.478	-188.028	0.389	-0.005
-487.464	-200.000	-0.062	0.304
-486.449	800.000	0.041	0.162
-485.435	405.397	-0.036	-0.077
-484.420	63.961	0.176	0.179
-483.405	164.336	0.191	0.273
-482.391	-146.436	0.079	-0.007
-481.376	800.000	0.024	-0.080
-480.362	67.004	-0.136	-0.140
-479.347	38.211	0.311	-0.279
-478.332	13.905	0.136	-0.107
-477.318	-113.770	0.230	-0.045
-476.303	23.410	-0.132	-0.110
-475.289	130.801	-0.088	-0.114
-474.274	-37.930	0.024	-0.013
-473.259	800.000	0.096	-0.354
-472.245	-200.000	0.042	-0.341
-471.230	249.120	-0.097	-0.166
-470.216	21.041	0.469	-0.385
-469.201	153.744	-0.071	-0.098
-468.186	432.800	-0.070	0.153
-467.172	-54.002	-0.297	-0.137
-466.157	-154.362	0.199	-0.014
-465.143	800.000	-0.085	0.250
-464.128	-7.500	0.187	0.128
-463.113	52.732	0.127	-0.122
-462.099	-200.000	-0.012	-0.222
-461.084	-1.554	-0.069	0.049
-460.070	-20.820	0.072	-0.045
-459.055	-33.278	-0.124	-0.069
-458.040	-7.546	-0.359	-0.245
-457.026	230.931	-0.135	-0.224
-456.011	163.600	0.190	0.270
-454.997	-200.000	0.003	0.353
-453.982	800.000	0.039	-0.148
-452.968	-200.000	-0.007	-0.044
-451.953	55.059	-0.034	-0.033
-450.938	-165.309	0.251	0.011
-449.924	-200.000	0.072	0.338
-448.909	800.000	-0.059	-0.228
-447.895	-44.102	-0.146	-0.074
-446.880	84.807	0.090	0.100
-445.865	-200.000	-0.028	0.210
-444.851	-6.848	-0.226	-0.155
-443.836	730.739	0.148	-0.400
-442.822	245.187	-0.339	-0.576
-441.807	229.356	0.036	-0.059
-440.792	65.126	0.115	-0.117
-439.778	-49.348	-0.175	-0.084
-438.763	-168.373	-0.153	-0.006
-437.749	-3.020	0.426	-0.300
-436.734	-200.000	-0.001	0.100
-435.719	-200.000	-0.083	-0.494
-434.705	-113.481	-0.367	-0.072
-433.690	-8.074	0.052	-0.035
-432.676	800.000	-0.008	0.034
-431.661	-200.000	0.013	0.253
-430.646	-173.710	-0.301	-0.009
-429.632	310.611	0.127	0.240
-428.617	-81.207	0.163	-0.054
-427.603	-58.466	-0.084	0.037
-426.588	158.684	-0.120	0.168
-425.573	800.000	-0.057	0.171
-424.559	-156.987	0.219	-0.014
-423.544	-96.729	-0.254	-0.067
-422.530	559.347	-0.074	-0.181
-421.515	176.690	-0.075	-0.110
-420.500	-176.145	0.056	-0.001
-419.486	324.747	0.064	0.124
-418.471	-200.000	0.008	-0.197
-417.457	60.467	-0.079	0.079
-416.442	162.565	-0.045	0.063
-415.428	-200.000	-0.041	0.227
-414.413	-97.863	0.345	0.090
-413.398	-122.799	-0.466	0.076
-412.384	179.441	-0.172	-0.254
-411.369	116.869	-0.124	0.153
-410.355	98.414	-0.096	-0.111
-409.340	-200.000	-0.001	0.140
-408.325	800.000	0.043	-0.181
-407.311	-200.000	0.006	-0.273
-406.296	-149.094	0.569	-0.046
-405.282	-92.184	-0.210	0.060
-404.267	-114.629	-0.070	0.014
-403.252	-200.000	-0.011	0.277
-402.238	40.797	0.456	-0.414
-401.223	438.923	-0.109	0.240
-400.209	800.000	-0.005	0.022
-399.194	-122.248	-0.437	-0.072
-398.179	-149.746	0.412	0.033
-397.165	410.649	0.027	-0.057
-396.150	-85.934	0.139	-0.043
-395.136	1.490	-0.183	-0.133
-394.121	89.984	-0.153	0.172
-393.106	-200.000	0.004	-0.309
-392.092	-32.482	0.315	0.177
-391.077	800.000	0.039	-0.140
-390.063	751.825	-0.121	-0.329
-389.048	38.310	-0.195	0.175
-388.033	-33.407	-0.139	-0.077
-387.019	-22.249	0.294	0.180
-386.004	-137.699	-0.028	0.003
-384.990	363.069	-0.141	-0.285
-383.975	-63.813	0.062	0.026
-382.960	2.572	-0.194	-0.141
-381.946	15.377	-0.226	0.179
-380.931	-63.800	0.268	-0.111
-379.917	596.571	-0.185	-0.462
-378.902	129.114	-0.216	-0.277
-377.888	-143.832	0.425	0.040
-376.873	800.000	-0.055	0.170
-375.858	800.000	0.080	0.265
-374.844	244.616	-0.147	0.248
-373.829	59.801	0.061	0.060
-372.815	-200.000	0.042	0.303
-371.800	800.000	-0.044	0.190
-370.785	-115.856	-0.009	0.002
-369.771	217.143	0.162	0.259
-368.756	-118.656	0.090	0.016
-367.742	-200.000	-0.050	-0.447
-366.727	17.330	0.195	-0.156
-365.712	-110.449	0.092	-0.019
-364.698	800.000	-0.044	0.165
-363.683	51.145	0.113	0.108
-362.669	243.821	0.140	0.237
-361.654	-200.000	-0.007	-0.224
-360.639	-114.503	0.151	0.029
-359.625	-76.652	0.164	0.058
-358.610	-9.176	-0.107	0.072
-357.596	1.087	0.239	0.172
-356.581	-200.000	0.026	0.235
-355.566	800.000	-0.044	-0.154
-354.552	-200.000	0.046	-0.251
-353.537	735.774	0.051	0.139
-352.523	369.459	0.085	-0.173
-351.508	-30.917	0.241	0.137
-350.493	204.124	0.123	0.191
-349.479	-177.674	-0.237	0.006
-348.464	800.000	0.034	-0.111
-347.450	-49.463	-0.267	0.128
-346.435	-23.567	-0.195	0.118
-345.420	-24.147	0.231	0.139
-344.406	115.118	0.196	-0.240
-343.391	-52.825	0.298	-0.138
-342.377	-103.319	-0.133	-0.032
-341.362	-74.490	0.171	-0.062
-340.348	800.000	-0.122	-0.445
-339.333	797.980	0.129	-0.358
-338.318	-64.147	-0.379	0.156
-337.304	298.589	0.080	0.148
-336.289	-200.000	0.055	-0.277
-335.275	-16.925	-0.204	-0.130
-334.260	-161.081	-0.190	-0.010
-333.245	-200.000	0.023	-0.192
-332.231	-200.000	-0.016	-0.108
-331.216	60.724	0.137	0.136
-330.202	64.172	0.284	0.287
-329.187	39.824	-0.340	0.306
-328.172	-81.115	-0.063	-0.021
-327.158	74.229	-0.171	0.180
-326.143	67.221	0.126	-0.129
-325.129	-172.499	0.107	-0.003
-324.114	-85.475	-0.177	0.055
-323.099	-200.000	0.031	-0.184
-322.085	153.141	0.098	-0.135
-321.070	586.304	-0.056	-0.140
-320.056	22.103	0.260	-0.213
-319.041	800.000	0.080	0.251
-318.026	-200.000	-0.009	-0.211
-317.012	-200.000	-0.036	0.284
-315.997	-168.624	0.116	0.004
-314.983	90.664	-0.077	0.086
-313.968	2.476	0.044	-0.032
-312.953	-32.510	-0.362	0.202
-311.939	52.926	-0.025	-0.024
-310.924	82.077	0.073	0.079
-309.910	96.946	0.398	0.459
-308.895	-189.263	-0.200	-0.002
-307.880	-71.773	0.336	-0.126
-306.866	-200.000	-0.016	0.206
-305.851	80.969	0.024	0.026
-304.837	14.655	0.157	0.123
-303.822	445.435	-0.102	0.224
-302.807	-38.416	0.127	-0.068
-301.793	-115.886	-0.308	-0.058
-300.778	-41.397	-0.223	0.115
-299.764	-68.975	-0.354	-0.137
-298.749	800.000	0.049	-0.156
-297.735	109.350	0.067	0.080
-296.720	-71.358	0.146	0.055
-295.705	800.000	-0.032	-0.126
-294.691	-105.559	0.119	-0.027
-293.676	-127.079	0.275	-0.040
-292.662	291.798	0.086	-0.157
-291.647	-46.237	0.470	0.232
-290.632	-45.416	0.224	0.112
-289.618	-200.000	0.053	-0.364
-288.603	-200.000	-0.035	-0.618
-287.589	738.208	-0.098	-0.263
-286.574	16.050	-0.293	0.231
-285.559	-12.124	-0.229	0.150
-284.545	35.359	-0.234	-0.206
-283.530	-1.062	-0.078	0.055
-282.516	294.988	-0.141	-0.259
-281.501	9.956	0.169	0.129
-280.486	141.740	-0.074	-0.099
-279.472	-166.650	-0.167	0.007
-278.457	-26.560	-0.189	-0.111
-277.443	222.773	-0.050	0.081
-276.428	-35.339	0.019	-0.010
-275.413	-31.539	0.104	-0.059
-274.399	800.000	-0.024	-0.086
-273.384	339.755	0.115	0.224
-272.370	-149.802	-0.238	-0.019
-271.355	175.205	-0.183	-0.265
-270.340	-70.647	-0.207	0.078
-269.326	389.058	0.108	-0.225
-268.311	-200.000	-0.023	0.437
-267.297	465.059	-0.132	0.297
-266.282	43.924	-0.215	0.198
-265.267	-200.000	-0.020	-0.117
-264.253	800.000	0.041	0.148
-263.238	-200.000	-0.001	0.149
-262.224	542.320	0.033	-0.080
-261.209	69.575	-0.310	-0.320
-260.195	-24.150	-0.229	0.137
-259.180	-1.902	-0.013	-0.009
-258.165	-71.618	0.253	0.095
-257.151	174.042	-0.066	0.095
-256.136	-96.423	-0.131	-0.035
-255.122	23.318	0.221	-0.182
-254.107	-54.705	0.297	0.134
-253.092	-124.458	-0.201	0.031
-252.078	21.468	-0.257	-0.209
-251.063	19.537	-0.044	0.036
-250.049	292.504	0.254	-0.463
-249.034	77.221	-0.227	0.242
-248.019	-86.953	-0.095	-0.029
-247.005	-11.852	0.154	0.101
-245.990	-25.064	-0.088	-0.052
-244.976	-19.974	0.234	-0.144
-243.961	30.323	-0.114	-0.098
-242.946	119.926	0.138	-0.171
-241.932	800.000	-0.069	-0.229
-240.917	-12.164	0.097	-0.064
-239.903	-66.684	0.163	0.065
-238.888	-104.504	-0.322	-0.074
-237.873	-200.000	-0.008	0.232
-236.859	225.829	0.036	-0.058
-235.844	68.926	-0.196	-0.202
-234.830	64.528	-0.088	-0.089
-233.815	59.121	-0.064	-0.064
-232.800	-153.376	0.256	-0.018
-231.786	-105.389	0.461	-0.105
-230.771	-40.303	0.332	0.173
-229.757	-63.448	0.211	0.087
-228.742	-7.854	-0.172	0.116
-227.727	800.000	-0.150	-0.587
-226.713	-25.340	-0.078	0.046
-225.698	518.019	-0.017	0.039
-224.684	-87.272	0.195	0.059
-223.669	-155.885	-0.079	0.005
-222.655	-128.983	-0.215	-0.030
-221.640	-29.468	0.218	-0.125
-220.625	800.000	-0.071	0.238
-219.611	-118.762	-0.196	-0.035
-218.596	-200.000	0.008	-0.330
-217.582	230.639	0.204	-0.334
-216.567	-103.224	0.100	-0.024
-215.552	406.033	-0.107	-0.226
-214.538	-109.351	-0.152	-0.032
-213.523	550.038	0.136	0.327
-212.509	101.075	0.049	0.057
-211.494	675.304	0.124	-0.321
-210.479	304.570	-0.122	0.226
-209.465	-152.539	-0.292	-0.021
-208.450	1.088	-0.099	0.071
-207.436	-83.818	0.493	-0.157
-206.421	-89.451	-0.080	0.023
-205.406	-138.155	-0.072	0.008
-204.392	377.319	0.070	0.143
-203.377	7.158	-0.182	-0.136
-202.363	-9.263	0.060	-0.040
-201.348	-38.913	-0.155	-0.082
-200.333	800.000	0.076	-0.317
-199.319	-126.723	0.082	0.012
-198.304	-200.000	0.015	0.184
-197.290	-60.553	-0.100	0.042
-196.275	705.097	-0.060	0.158
-195.260	-56.918	0.265	-0.117
-194.246	-161.629	-0.269	0.014
-193.231	-27.815	-0.210	-0.122
-192.217	-80.930	-0.178	0.059
-191.202	800.000	0.082	0.240
-190.187	577.935	-0.129	0.316
-189.173	800.000	-0.095	0.265
-188.158	800.000	0.110	0.362
-187.144	-147.010	0.246	-0.021
-186.129	3.329	0.083	-0.060
-185.114	-85.085	0.156	-0.049
-184.100	63.461	-0.024	-0.024
-183.085	-200.000	0.047	-0.253
-182.071	120.392	0.260	-0.322
-181.056	-107.463	0.116	0.025
-180.042	-144.883	0.266	0.024
-179.027	25.415	0.314	0.261
-178.012	800.000	-0.051	-0.193
-176.998	11.989	-0.150	-0.115
-175.983	9.942	-0.271	0.206
-174.969	241.855	0.255	0.425
-173.954	-77.850	0.379	0.131
-172.939	800.000	-0.055	0.174
-171.925	135.887	-0.262	0.341
-170.910	-176.438	0.132	0.003
-169.896	-151.831	0.164	0.012
-168.881	-132.277	0.157	-0.020
-167.866	800.000	-0.094	-0.266
-166.852	-200.000	0.012	-0.118
-165.837	325.058	-0.139	-0.265
-164.823	800.000	0.074	-0.216
-163.808	-124.431	0.247	0.038
-162.793	-200.000	-0.073	-0.391
-161.779	-85.079	-0.259	-0.081
-160.764	465.015	-0.026	-0.058
-159.750	-200.000	-0.038	-0.268
-158.735	-200.000	0.048	0.239
-157.720	-147.143	0.173	-0.015
-156.706	-97.382	0.209	0.054
-155.691	-115.278	-0.350	0.066
-154.677	-97.093	-0.338	0.088
-153.662	-200.000	0.060	-0.370
-152.647	483.373	-0.091	-0.207
-151.633	-123.983	0.203	0.032
-150.618	800.000	0.024	-0.069
-149.604	118.521	0.080	-0.099
-148.589	62.631	-0.253	0.253
-147.574	-144.719	-0.312	0.029
-146.560	-3.124	0.069	0.048
-145.545	-107.192	-0.149	0.033
-144.531	271.549	0.115	0.202
-143.516	-127.276	0.442	0.064
-142.502	-200.000	0.015	0.077
-141.487	800.000	0.022	0.089
-140.472	-200.000	-0.004	0.096
-139.458	-43.409	0.220	-0.111
-138.443	87.146	-0.085	0.094
-137.429	169.430	0.093	-0.133
-136.414	355.083	-0.053	-0.104
-135.399	-54.954	0.124	-0.056
-134.385	25.893	0.195	-0.162
-133.370	374.153	-0.167	-0.339
-132.356	389.933	-0.058	0.119
-131.341	89.579	-0.308	-0.343
-130.326	0.140	-0.127	0.090
-129.312	-200.000	0.013	-0.214
-128.297	800.000	-0.047	0.174
-127.283	-200.000	0.031	0.190
-126.268	-200.000	-0.016	0.206
-125.253	353.806	0.098	0.195
-124.239	-135.516	0.166	-0.020
-123.224	376.227	-0.097	0.198
-122.210	220.744	-0.115	-0.184
-121.195	48.354	-0.114	-0.107
