DTS Sentinel unit serial number:	SN413079Multiplexer serial number:	ORYXHardware model number:	OX4-SRSoftware version number:	ORYX F/W v4.00 Oryx Data Collector v3.7.2.0data status	okinstallation	princeton_trtdifferential loss correction	single-endedforward channel	channel 3reverse channel	N/Adate	2019/09/18time	11:04:35forward acquisition time	60.00reverse acquisition time	0.00gamma	496.2192k internal	0.2326k external	0.2326temperature offset calibration	0.9955default loss term (dB/km)	0.3790temperature slope calibration	1.0000multiplexer offset coefficient	1.0000multiplexer slope coefficient	1.0000fibre end	0.00T internal ref (°C)	29.44T ext. ref 1 (°C)	0.40T ext. ref 2 (°C)	26.08length (m)	temperature (°C)	Stokes	anti-Stokes-747.200	14.052	0.200	0.157
-746.185	-200.000	0.023	0.127
-745.171	57.670	-0.179	0.176
-744.156	-200.000	-0.072	0.369
-743.142	-155.955	-0.488	0.031
-742.127	117.578	-0.080	0.100
-741.112	-79.059	-0.148	0.051
-740.098	93.429	-0.163	-0.186
-739.083	513.873	0.096	0.226
-738.069	-200.000	-0.033	0.149
-737.054	-111.653	0.014	-0.003
-736.039	-54.569	0.359	-0.164
-735.025	-124.579	-0.214	-0.033
-734.010	95.799	-0.151	-0.174
-732.996	208.599	-0.125	-0.198
-731.981	-200.000	0.006	0.079
-730.966	17.590	0.139	0.111
-729.952	101.989	-0.137	-0.161
-728.937	-179.838	-0.155	-0.003
-727.923	131.676	-0.065	0.085
-726.908	-200.000	0.047	0.429
-725.894	-76.709	0.370	0.131
-724.879	45.972	-0.182	-0.169
-723.864	-80.266	-0.165	0.056
-722.850	347.634	-0.096	-0.191
-721.835	-200.000	-0.032	-0.212
-720.821	91.092	0.212	-0.240
-719.806	-38.162	-0.273	-0.146
-718.791	92.319	0.253	-0.288
-717.777	74.482	0.110	0.117
-716.762	330.533	0.101	-0.195
-715.748	172.146	0.200	-0.290
-714.733	251.245	0.102	-0.175
-713.718	-200.000	0.040	-0.333
-712.704	-59.740	0.214	0.092
-711.689	24.432	0.124	-0.103
-710.675	112.757	-0.242	-0.295
-709.660	-200.000	0.008	-0.047
-708.645	-31.663	-0.135	0.076
-707.631	123.800	-0.220	-0.278
-706.616	-12.597	0.517	-0.339
-705.602	-109.901	-0.306	0.065
-704.587	-21.479	0.181	-0.111
-703.572	7.694	0.082	-0.061
-702.558	-37.286	-0.515	-0.277
-701.543	-99.201	0.311	0.079
-700.529	210.275	-0.063	0.100
-699.514	319.642	-0.125	-0.238
-698.499	800.000	-0.163	0.553
-697.485	800.000	-0.077	-0.236
-696.470	247.734	-0.281	-0.478
-695.456	-57.905	0.157	0.069
-694.441	-59.042	0.178	0.077
-693.426	469.664	0.046	-0.103
-692.412	359.795	-0.157	-0.317
-691.397	-200.000	0.006	0.029
-690.383	16.013	0.165	0.131
-689.368	-76.584	0.183	-0.064
-688.354	800.000	0.055	-0.174
-687.339	128.127	-0.132	-0.169
-686.324	-14.006	0.032	0.021
-685.310	250.250	-0.262	-0.448
-684.295	-24.543	-0.393	-0.235
-683.281	135.649	-0.056	0.073
-682.266	36.896	0.139	0.124
-681.251	-200.000	-0.046	0.314
-680.237	548.366	0.223	-0.538
-679.222	-126.762	0.183	0.027
-678.208	499.347	0.040	0.092
-677.193	-140.964	0.146	-0.015
-676.178	-69.623	0.126	0.048
-675.164	-200.000	-0.004	0.359
-674.149	-40.692	0.240	0.125
-673.135	-131.715	0.097	0.013
-672.120	-112.662	-0.221	-0.044
-671.105	-129.673	-0.107	0.015
-670.091	800.000	0.024	0.083
-669.076	-200.000	0.044	0.216
-668.062	143.907	-0.179	-0.240
-667.047	532.702	-0.087	0.206
-666.032	-83.484	-0.279	-0.090
-665.018	170.836	-0.144	-0.207
-664.003	151.260	0.141	-0.193
-662.989	800.000	0.045	-0.125
-661.974	502.041	-0.073	0.170
-660.959	246.041	0.136	0.231
-659.945	-60.177	-0.258	-0.110
-658.930	-6.035	0.278	-0.191
-657.916	-147.735	0.086	-0.007
-656.901	-79.582	-0.071	0.024
-655.886	605.124	-0.143	-0.359
-654.872	73.233	-0.102	0.107
-653.857	-200.000	0.018	0.162
-652.843	63.247	0.183	0.184
-651.828	-37.755	0.306	0.163
-650.814	150.954	-0.157	0.214
-649.799	220.993	0.055	0.089
-648.784	-200.000	-0.059	-0.327
-647.770	666.138	0.070	-0.181
-646.755	800.000	0.044	-0.170
-645.741	800.000	0.022	-0.090
-644.726	800.000	0.057	-0.198
-643.711	15.298	0.049	0.039
-642.697	-40.092	0.032	-0.017
-641.682	125.242	0.053	0.067
-640.668	-19.310	-0.197	-0.123
-639.653	-200.000	0.038	0.252
-638.638	-23.070	-0.315	0.191
-637.624	-111.234	-0.138	-0.028
-636.609	-21.543	0.259	-0.159
-635.595	-200.000	0.045	0.204
-634.580	800.000	0.038	0.131
-633.565	-23.071	-0.184	0.112
-632.551	-57.686	-0.234	0.103
-631.536	-24.645	-0.237	-0.142
-630.522	-110.548	0.217	0.045
-629.507	800.000	0.046	-0.199
-628.492	464.076	-0.084	0.189
-627.478	-200.000	-0.026	-0.163
-626.463	679.529	0.034	-0.089
-625.449	185.387	-0.239	0.356
-624.434	226.470	0.176	0.287
-623.419	640.596	-0.129	-0.329
-622.405	16.692	-0.036	0.028
-621.390	-84.572	0.312	0.099
-620.376	-200.000	-0.042	-0.257
-619.361	-59.241	-0.109	-0.047
-618.346	-200.000	0.013	0.147
-617.332	135.967	-0.157	0.205
-616.317	-200.000	-0.004	-0.073
-615.303	90.037	-0.065	-0.073
-614.288	84.524	0.017	0.018
-613.273	-113.367	0.294	0.058
-612.259	247.438	-0.086	-0.146
-611.244	-200.000	0.002	-0.276
-610.230	-129.901	0.344	-0.047
-609.215	-100.122	0.270	-0.067
-608.201	-53.447	-0.121	0.055
-607.186	-200.000	-0.008	0.320
-606.171	207.620	-0.192	0.300
-605.157	-55.493	0.343	-0.154
-604.142	-200.000	-0.007	0.083
-603.128	-162.562	-0.181	0.009
-602.113	7.626	0.169	0.127
-601.098	-136.942	0.243	0.028
-600.084	70.979	0.277	0.288
-599.069	-130.468	0.094	-0.013
-598.055	25.691	-0.152	0.127
-597.040	-200.000	-0.008	0.627
-596.025	112.180	-0.181	-0.220
-595.011	-16.262	-0.091	0.058
-593.996	167.793	-0.020	-0.028
-592.982	800.000	0.028	-0.090
-591.967	-157.067	0.190	-0.012
-590.952	-200.000	-0.027	0.326
-589.938	51.528	0.205	-0.195
-588.923	-71.756	-0.144	-0.054
-587.909	261.514	-0.072	-0.125
-586.894	38.690	0.046	-0.041
-585.879	-90.714	-0.144	-0.042
-584.865	279.938	-0.188	-0.337
-583.850	-72.687	0.202	-0.075
-582.836	-200.000	0.017	0.098
-581.821	-150.763	-0.223	-0.017
-580.806	-0.298	0.362	0.258
-579.792	253.671	-0.132	-0.226
-578.777	-122.975	0.282	0.045
-577.763	30.078	-0.245	0.209
-576.748	800.000	-0.075	0.250
-575.733	-84.820	-0.514	0.162
-574.719	-182.458	-0.333	0.006
-573.704	-200.000	0.010	0.243
-572.690	-200.000	0.004	-0.072
-571.675	-200.000	0.023	-0.413
-570.661	186.439	0.051	0.076
-569.646	-119.471	0.351	-0.061
-568.631	-200.000	0.086	-0.387
-567.617	800.000	0.101	0.351
-566.602	-115.044	-0.502	0.095
-565.588	258.213	0.183	-0.315
-564.573	-41.989	0.355	0.182
-563.558	-200.000	-0.010	0.165
-562.544	-67.749	-0.388	-0.152
-561.529	-200.000	-0.053	0.269
-560.515	-137.611	0.114	0.013
-559.500	-82.039	-0.286	0.093
-558.485	-93.913	-0.102	-0.028
-557.471	800.000	0.055	0.154
-556.456	-98.429	0.138	-0.035
-555.442	-70.101	-0.082	0.031
-554.427	18.158	0.196	0.156
-553.412	-105.868	-0.104	0.024
-552.398	-42.473	-0.302	-0.154
-551.383	-200.000	-0.005	-0.244
-550.369	-200.000	0.032	-0.304
-549.354	800.000	0.013	-0.056
-548.339	-74.593	-0.286	-0.103
-547.325	-6.598	-0.183	-0.125
-546.310	-139.051	-0.052	-0.006
-545.296	-200.000	0.029	0.157
-544.281	1.291	0.146	-0.105
-543.266	-104.267	0.163	0.038
-542.252	224.019	-0.090	0.145
-541.237	-200.000	-0.043	-0.190
-540.223	-99.373	0.192	-0.048
-539.208	-121.004	0.152	-0.026
-538.193	-32.224	-0.250	-0.139
-537.179	-63.257	-0.367	-0.151
-536.164	72.331	-0.187	0.195
-535.150	-133.207	0.124	0.016
-534.135	800.000	0.117	-0.446
-533.121	109.130	0.225	-0.269
-532.106	-200.000	-0.002	0.092
-531.091	328.266	-0.086	0.165
-530.077	77.973	-0.137	-0.147
-529.062	-200.000	0.017	0.157
-528.048	25.737	-0.065	0.054
-527.033	-200.000	-0.031	0.184
-526.018	765.323	-0.027	-0.073
-525.004	-132.726	-0.085	-0.011
-523.989	316.982	-0.083	-0.157
-522.975	-20.330	0.280	-0.173
-521.960	-66.871	0.181	0.071
-520.945	546.459	-0.015	0.037
-519.931	268.075	0.131	0.230
-518.916	95.811	0.212	-0.242
-517.902	459.841	-0.152	0.338
-516.887	233.379	0.159	0.261
-515.872	-200.000	-0.014	0.081
-514.858	-200.000	0.035	0.217
-513.843	-67.678	0.083	0.032
-512.829	123.645	0.050	-0.062
-511.814	129.512	-0.110	-0.141
-510.799	800.000	-0.085	0.257
-509.785	-37.517	-0.174	0.093
-508.770	-87.895	0.175	-0.053
-507.756	268.449	0.086	0.150
-506.741	-11.044	0.130	-0.085
-505.726	-200.000	-0.006	0.067
-504.712	-200.000	-0.062	0.372
-503.697	-110.772	0.384	-0.079
-502.683	34.076	0.219	-0.191
-501.668	-8.265	-0.112	0.075
-500.653	377.364	-0.114	0.233
-499.639	229.843	0.073	-0.119
-498.624	-200.000	-0.021	0.223
-497.610	-123.490	-0.132	-0.021
-496.595	-79.055	-0.213	0.072
-495.581	-74.352	-0.158	0.057
-494.566	-124.095	-0.271	-0.043
-493.551	145.252	-0.069	-0.093
-492.537	-38.004	0.049	-0.026
-491.522	-172.375	-0.227	-0.007
-490.508	-129.605	0.161	-0.022
-489.493	-108.912	0.249	-0.053
-488.478	-4.369	0.047	0.032
-487.464	-17.847	-0.257	0.161
-486.449	-51.815	-0.083	0.038
-485.435	302.363	-0.094	-0.173
-484.420	-200.000	0.014	0.210
-483.405	800.000	-0.025	-0.088
-482.391	-200.000	-0.028	-0.438
-481.376	139.118	-0.152	-0.199
-480.362	106.805	-0.243	0.287
-479.347	-59.837	-0.191	-0.082
-478.332	344.951	0.138	0.271
-477.318	-63.233	-0.136	0.056
-476.303	-125.453	-0.045	0.007
-475.289	134.239	0.167	0.215
-474.274	-24.787	0.100	0.059
-473.259	-200.000	0.001	0.073
-472.245	800.000	0.137	-0.430
-471.230	-36.414	0.071	0.038
-470.216	-132.514	-0.314	-0.040
-469.201	452.310	0.020	0.045
-468.186	-200.000	-0.052	-0.281
-467.172	4.672	0.113	-0.083
-466.157	164.094	0.079	0.111
-465.143	527.970	-0.193	-0.455
-464.128	149.171	0.145	-0.196
-463.113	63.474	0.235	0.235
-462.099	-89.891	0.189	0.055
-461.084	39.466	0.212	0.189
-460.070	126.238	0.030	-0.038
-459.055	-77.859	0.197	-0.068
-458.040	-200.000	0.068	-0.306
-457.026	506.882	-0.076	0.176
-456.011	-200.000	-0.001	0.481
-454.997	-171.869	-0.161	0.005
-453.982	-18.700	-0.276	-0.172
-452.968	380.214	0.102	-0.209
-451.953	-200.000	-0.050	-0.354
-450.938	-172.964	-0.488	0.015
-449.924	800.000	0.016	0.064
-448.909	-200.000	0.065	-0.392
-447.895	800.000	-0.039	0.145
-446.880	55.037	0.288	0.277
-445.865	800.000	-0.023	0.066
-444.851	49.960	-0.238	0.224
-443.836	-94.865	-0.205	-0.055
-442.822	800.000	0.130	0.358
-441.807	-69.089	-0.035	-0.013
-440.792	-200.000	0.003	0.045
-439.778	20.051	0.168	0.135
-438.763	-200.000	-0.009	-0.172
-437.749	468.117	0.021	-0.047
-436.734	186.590	-0.102	0.152
-435.719	-200.000	0.039	-0.274
-434.705	-41.108	0.104	-0.053
-433.690	-200.000	-0.006	-0.163
-432.676	-92.090	-0.188	0.053
-431.661	172.529	0.174	0.250
-430.646	-137.598	-0.296	-0.033
-429.632	301.020	-0.129	-0.237
-428.617	271.007	0.077	0.135
-427.603	-40.670	0.326	-0.168
-426.588	-99.325	0.071	-0.018
-425.573	89.368	0.135	-0.150
-424.559	618.383	0.092	0.231
-423.544	-138.240	0.188	-0.021
-422.530	62.121	0.237	0.236
-421.515	-1.452	0.151	-0.106
-420.500	-200.000	0.022	-0.185
-419.486	-54.813	0.152	0.068
-418.471	-62.607	0.215	-0.089
-417.457	-9.993	-0.127	0.084
-416.442	207.622	0.137	-0.213
-415.428	574.125	-0.037	-0.090
-414.413	4.768	-0.176	-0.128
-413.398	-200.000	-0.052	-0.277
-412.384	401.479	-0.043	-0.091
-411.369	-64.611	0.322	-0.130
-410.355	282.397	-0.070	-0.125
-409.340	39.577	0.115	-0.102
-408.325	132.159	-0.108	-0.138
-407.311	800.000	-0.082	-0.336
-406.296	44.174	-0.316	-0.289
-405.282	-81.087	0.384	-0.126
-404.267	-200.000	0.055	-0.420
-403.252	238.284	0.226	-0.374
-402.238	800.000	0.055	-0.159
-401.223	-169.523	0.285	0.010
-400.209	-1.880	-0.052	-0.036
-399.194	15.829	0.192	0.150
-398.179	-77.632	-0.140	-0.048
-397.165	64.369	0.270	0.270
-396.150	547.822	-0.043	-0.103
-395.136	85.910	-0.201	0.220
-394.121	-137.741	-0.135	0.015
-393.106	14.311	-0.104	0.081
-392.092	16.334	0.161	-0.127
-391.077	800.000	0.008	-0.028
-390.063	-79.809	0.394	0.132
-389.048	28.955	-0.107	-0.090
-388.033	-62.152	0.046	-0.019
-387.019	-194.862	0.186	0.001
-386.004	-100.631	-0.171	-0.042
-384.990	-200.000	0.026	-0.117
-383.975	-34.791	-0.446	0.242
-382.960	-200.000	0.011	-0.068
-381.946	-56.832	0.131	0.058
-380.931	-200.000	-0.321	0.000
-379.917	800.000	0.054	0.182
-378.902	-121.968	-0.076	0.012
-377.888	800.000	-0.027	0.086
-376.873	-200.000	0.047	-0.244
-375.858	-176.641	0.301	-0.008
-374.844	626.502	-0.046	-0.115
-373.829	-172.846	0.338	0.010
-372.815	223.902	0.185	0.298
-371.800	71.096	0.070	0.072
-370.785	-81.196	-0.122	-0.040
-369.771	800.000	-0.105	-0.359
-368.756	153.618	-0.199	0.271
-367.742	-97.011	0.167	-0.044
-366.727	-69.486	-0.333	0.127
-365.712	-147.979	0.301	-0.025
-364.698	800.000	-0.117	-0.331
-363.683	178.077	0.096	-0.139
-362.669	-7.669	-0.242	-0.163
-361.654	-65.897	0.128	-0.051
-360.639	151.551	-0.100	0.135
-359.625	633.546	-0.075	0.188
-358.610	-55.566	0.201	-0.089
-357.596	553.047	-0.025	0.059
-356.581	-45.923	-0.247	-0.121
-355.566	219.252	0.080	-0.126
-354.552	-50.532	0.227	0.106
-353.537	-155.080	-0.176	0.011
-352.523	174.261	0.113	-0.162
-351.508	125.341	0.088	0.111
-350.493	-94.192	0.230	0.063
-349.479	18.524	-0.202	0.161
-348.464	-65.845	0.319	-0.127
-347.450	-200.000	0.009	-0.214
-346.435	800.000	0.107	0.406
-345.420	280.880	0.270	0.479
-344.406	240.130	-0.078	-0.129
-343.391	-200.000	0.055	0.244
-342.377	-83.759	-0.269	-0.085
-341.362	-200.000	0.043	-0.203
-340.348	328.833	-0.081	-0.155
-339.333	-128.845	-0.314	0.044
-338.318	800.000	-0.057	-0.211
-337.304	-106.202	0.102	0.023
-336.289	-24.953	-0.357	0.211
-335.275	-63.494	0.144	0.059
-334.260	-200.000	-0.012	0.062
-333.245	-70.277	0.278	-0.105
-332.231	-56.521	-0.048	0.021
-331.216	50.747	0.196	0.184
-330.202	800.000	0.039	-0.147
-329.187	31.607	-0.159	-0.136
-328.172	110.998	0.045	-0.053
-327.158	426.925	-0.040	-0.085
-326.143	-137.333	0.235	0.027
-325.129	-22.430	0.159	0.095
-324.114	-200.000	-0.020	-0.109
-323.099	-42.907	0.124	-0.062
-322.085	-106.777	-0.298	0.066
-321.070	150.100	0.100	0.134
-320.056	-200.000	0.038	0.372
-319.041	-32.528	-0.173	-0.096
-318.026	-35.268	-0.185	-0.100
-317.012	89.217	-0.081	0.090
-315.997	-106.448	0.133	-0.029
-314.983	-153.533	-0.153	-0.010
-313.968	-22.662	-0.143	0.086
-312.953	152.652	-0.153	-0.207
-311.939	-200.000	-0.014	-0.342
-310.924	98.676	0.278	-0.318
-309.910	-200.000	-0.016	0.077
-308.895	-39.873	0.076	-0.039
-307.880	135.887	0.229	-0.295
-306.866	-83.883	0.349	-0.110
-305.851	-14.133	-0.122	-0.078
-304.837	-21.221	0.208	0.126
-303.822	17.105	-0.105	-0.083
-302.807	-94.560	0.305	0.082
-301.793	-152.786	0.206	0.014
-300.778	-200.000	-0.024	-0.121
-299.764	-200.000	0.004	0.134
-298.749	-119.872	0.162	0.028
-297.735	-36.588	-0.361	0.192
-296.720	10.124	-0.161	0.121
-295.705	-20.829	0.167	-0.101
-294.691	-32.777	0.133	-0.073
-293.676	-46.536	-0.281	-0.137
-292.662	8.058	0.129	0.096
-291.647	-4.658	-0.230	0.157
-290.632	-143.537	-0.260	0.025
-289.618	800.000	-0.100	0.299
-288.603	-105.267	0.011	0.003
-287.589	85.900	-0.201	-0.219
-286.574	-200.000	-0.012	-0.257
-285.559	75.998	0.160	-0.168
-284.545	-200.000	-0.035	-0.256
-283.530	9.173	0.110	-0.082
-282.516	121.071	-0.194	0.239
-281.501	800.000	-0.087	-0.361
-280.486	-200.000	0.010	-0.230
-279.472	-200.000	-0.054	0.263
-278.457	-200.000	0.033	0.146
-277.443	-200.000	0.035	-0.279
-276.428	97.511	-0.148	0.169
-275.413	4.702	-0.162	-0.118
-274.399	800.000	-0.089	-0.292
-273.384	338.487	-0.084	0.163
-272.370	-200.000	-0.043	0.368
-271.355	-124.563	-0.052	-0.008
-270.340	-75.022	-0.071	0.025
-269.326	36.907	0.118	0.103
-268.311	-39.746	-0.199	-0.103
-267.297	-200.000	-0.055	0.408
-266.282	99.062	0.168	-0.192
-265.267	-200.000	0.000	-0.132
-264.253	-200.000	-0.068	0.483
-263.238	-43.294	-0.228	-0.114
-262.224	620.755	-0.090	-0.224
-261.209	-200.000	-0.060	0.268
-260.195	-127.825	-0.217	0.031
-259.180	449.408	0.084	-0.184
-258.165	800.000	0.090	-0.297
-257.151	20.158	0.198	0.158
-256.136	-200.000	-0.004	-0.078
-255.122	-114.764	-0.151	0.029
-254.107	-136.310	-0.164	0.019
-253.092	120.643	0.041	0.050
-252.078	247.634	0.128	0.214
-251.063	99.980	-0.154	-0.176
-250.049	-200.000	0.016	-0.319
-249.034	-97.729	0.182	0.047
-248.019	326.717	-0.137	0.260
-247.005	306.660	0.060	0.110
-245.990	730.760	-0.164	0.435
-244.976	-35.068	-0.244	0.132
-243.961	466.033	0.059	-0.131
-242.946	-56.541	0.250	0.110
-241.932	800.000	0.030	0.106
-240.917	-40.781	0.335	0.171
-239.903	800.000	0.141	0.500
-238.888	3.106	0.213	0.153
-237.873	664.110	0.085	0.216
-236.859	-200.000	-0.090	0.401
-235.844	740.005	-0.109	-0.289
-234.830	800.000	-0.056	0.199
-233.815	800.000	0.028	-0.107
-232.800	-200.000	0.079	0.420
-231.786	257.556	-0.130	0.221
-230.771	-126.604	0.290	-0.043
-229.757	157.805	0.089	0.122
-228.742	560.310	0.226	-0.540
-227.727	-9.605	-0.053	-0.035
-226.713	596.666	0.126	-0.308
-225.698	293.577	-0.225	-0.405
-224.684	-107.870	-0.257	0.055
-223.669	234.514	0.045	0.073
-222.655	35.669	0.095	-0.082
-221.640	-200.000	0.022	0.209
-220.625	-200.000	-0.016	-0.176
-219.611	476.353	0.076	-0.169
-218.596	-80.842	-0.206	0.068
-217.582	800.000	0.028	0.079
-216.567	62.981	0.277	-0.274
-215.552	-16.700	0.020	0.013
-214.538	800.000	-0.022	0.092
-213.523	-103.040	-0.074	-0.017
-212.509	44.663	-0.141	-0.128
-211.494	-116.979	-0.093	-0.017
-210.479	36.057	-0.112	0.098
-209.465	443.584	-0.118	-0.255
-208.450	800.000	0.095	0.290
-207.436	-200.000	0.110	0.000
-206.421	-78.364	0.187	0.063
-205.406	-197.003	0.171	0.001
-204.392	-138.500	0.057	0.006
-203.377	-200.000	-0.065	0.447
-202.363	-168.319	-0.087	-0.003
-201.348	277.542	-0.090	-0.158
-200.333	-102.632	-0.153	-0.036
-199.319	155.863	-0.121	0.165
-198.304	-200.000	-0.016	0.095
-197.290	-85.418	0.066	-0.020
-196.275	-200.000	0.036	0.173
-195.260	-11.740	0.252	0.164
-194.246	548.384	-0.104	0.246
-193.231	-186.314	-0.516	-0.007
-192.217	246.161	-0.152	0.253
-191.202	-200.000	-0.033	-0.174
-190.187	-137.824	-0.326	0.036
-189.173	-200.000	-0.031	-0.186
-188.158	-136.986	-0.127	-0.014
-187.144	800.000	-0.027	0.102
-186.129	20.395	-0.182	0.145
-185.114	578.761	-0.089	0.215
-184.100	55.184	0.199	0.190
-183.085	-162.818	-0.109	0.005
-182.071	-27.238	0.207	-0.119
-181.056	-200.000	-0.017	-0.222
-180.042	18.291	-0.218	-0.172
-179.027	-200.000	-0.010	-0.293
-178.012	-200.000	-0.001	0.206
-176.998	46.039	-0.211	0.193
-175.983	-200.000	0.001	0.158
-174.969	34.339	0.066	0.056
-173.954	-14.966	0.231	-0.146
-172.939	167.817	0.126	0.177
-171.925	-137.523	0.225	0.025
-170.910	800.000	0.093	-0.341
-169.896	112.670	0.087	0.104
-168.881	800.000	-0.108	-0.309
-167.866	-174.882	-0.372	-0.010
-166.852	513.310	0.050	0.115
-165.837	49.343	0.129	-0.120
-164.823	7.312	0.168	0.123
-163.808	-200.000	0.011	-0.052
-162.793	-200.000	-0.014	0.301
-161.779	54.684	-0.120	0.114
-160.764	-35.613	0.202	0.108
-159.750	71.698	-0.123	0.126
-158.735	-69.008	-0.086	0.033
-157.720	-102.879	0.158	0.037
-156.706	-200.000	-0.028	-0.189
-155.691	-105.482	-0.177	0.040
-154.677	70.786	0.362	-0.369
-153.662	50.643	0.062	0.058
-152.647	-103.359	0.215	-0.050
-151.633	-200.000	-0.026	-0.268
-150.618	223.766	-0.173	-0.275
-149.604	161.451	0.169	-0.232
-148.589	97.386	-0.085	-0.097
-147.574	-117.469	0.211	-0.038
-146.560	-66.705	0.130	-0.051
-145.545	800.000	0.052	0.161
-144.531	255.577	-0.148	0.249
-143.516	-36.002	-0.260	-0.139
-142.502	-200.000	-0.060	-0.323
-141.487	-170.238	0.087	-0.003
-140.472	-32.335	0.310	-0.171
-139.458	189.308	-0.204	0.301
-138.443	21.426	0.083	0.067
-137.429	-172.142	-0.086	-0.003
-136.414	-200.000	-0.017	-0.214
-135.399	-200.000	0.012	0.162
-134.385	95.979	-0.200	-0.225
-133.370	-200.000	0.010	0.258
-132.356	800.000	0.041	0.166
-131.341	169.118	0.069	-0.097
-130.326	-30.524	-0.139	0.078
-129.312	-122.861	-0.141	0.022
-128.297	243.143	0.018	-0.030
-127.283	397.733	0.117	0.241
-126.268	-91.911	0.216	0.060
-125.253	-69.734	0.234	-0.088
-124.239	351.910	0.135	-0.263
-123.224	18.295	0.239	-0.188
-122.210	83.951	0.297	-0.319
