DTS Sentinel unit serial number:	SN413079Multiplexer serial number:	ORYXHardware model number:	OX4-SRSoftware version number:	ORYX F/W v4.00 Oryx Data Collector v3.7.2.0data status	okinstallation	princeton_trtdifferential loss correction	single-endedforward channel	channel 3reverse channel	N/Adate	2019/09/15time	13:24:34forward acquisition time	60.00reverse acquisition time	0.00gamma	496.2192k internal	0.2294k external	0.2294temperature offset calibration	0.9959default loss term (dB/km)	0.3790temperature slope calibration	1.0000multiplexer offset coefficient	1.0000multiplexer slope coefficient	1.0000fibre end	0.00T internal ref (°C)	37.39T ext. ref 1 (°C)	4.92T ext. ref 2 (°C)	34.30length (m)	temperature (°C)	Stokes	anti-Stokes-747.200	58.299	0.189	-0.189
-746.185	551.101	-0.107	0.263
-745.171	179.431	-0.112	0.168
-744.156	-46.877	-0.176	0.088
-743.142	543.167	-0.021	-0.050
-742.127	-52.573	0.166	0.078
-741.112	800.000	-0.100	-0.308
-740.098	-25.744	0.190	0.114
-739.083	-78.550	0.109	0.038
-738.069	-50.859	-0.218	0.105
-737.054	-200.000	-0.224	-0.001
-736.039	457.331	-0.160	-0.363
-735.025	241.789	-0.131	-0.224
-734.010	-54.949	-0.303	0.140
-732.996	-16.670	-0.165	-0.107
-731.981	106.983	0.249	0.303
-730.966	171.322	-0.223	0.327
-729.952	78.979	-0.240	0.263
-728.937	99.890	0.120	-0.142
-727.923	109.660	-0.219	0.269
-726.908	-24.884	0.283	0.172
-725.894	183.824	-0.259	-0.392
-724.879	-103.997	-0.153	0.036
-723.864	-200.000	0.017	0.140
-722.850	235.552	-0.237	0.400
-721.835	62.255	-0.210	0.214
-720.821	-38.356	0.397	0.215
-719.806	273.240	-0.084	-0.152
-718.791	14.047	-0.057	0.045
-717.777	800.000	-0.179	0.654
-716.762	154.831	0.096	-0.135
-715.748	800.000	-0.062	0.252
-714.733	76.731	-0.235	-0.255
-713.718	464.431	-0.082	0.187
-712.704	398.304	-0.049	-0.104
-711.689	184.462	0.202	-0.305
-710.675	65.184	0.204	-0.211
-709.660	-200.000	0.032	0.251
-708.645	-200.000	0.010	0.062
-707.631	-200.000	0.019	-0.150
-706.616	81.285	-0.039	-0.043
-705.602	-200.000	0.020	-0.207
-704.587	329.950	-0.028	0.055
-703.572	-70.141	0.102	0.040
-702.558	-4.836	-0.058	0.041
-701.543	-200.000	-0.080	-0.405
-700.529	157.240	0.094	-0.133
-699.514	72.468	0.281	-0.299
-698.499	80.246	0.121	-0.133
-697.485	4.386	-0.224	-0.167
-696.470	-51.947	0.141	-0.067
-695.456	800.000	0.085	-0.274
-694.441	-43.446	0.258	-0.133
-693.426	-74.056	-0.162	-0.060
-692.412	146.736	0.181	-0.249
-691.397	64.011	0.174	-0.179
-690.383	-140.155	-0.229	0.024
-689.368	-60.069	-0.174	-0.076
-688.354	31.321	0.155	-0.136
-687.339	800.000	-0.119	0.391
-686.324	-74.609	-0.294	0.108
-685.310	-158.063	-0.396	0.024
-684.295	-15.996	-0.111	0.072
-683.281	-200.000	0.010	-0.360
-682.266	20.816	0.435	-0.359
-681.251	-147.615	0.106	0.009
-680.237	103.220	-0.111	-0.133
-679.222	-38.559	-0.250	-0.135
-678.208	-200.000	0.004	-0.261
-677.193	-6.440	0.374	-0.260
-676.178	-146.858	-0.331	-0.029
-675.164	-118.365	0.280	0.051
-674.149	800.000	0.057	-0.244
-673.135	511.143	0.113	0.268
-672.120	297.869	-0.063	-0.119
-671.105	-2.433	-0.195	-0.139
-670.091	-130.077	-0.177	0.025
-669.076	-117.783	0.291	-0.053
-668.062	52.515	-0.083	0.081
-667.047	106.671	0.334	-0.404
-666.032	-94.045	0.309	-0.086
-665.018	686.363	-0.043	0.114
-664.003	-180.746	-0.334	-0.007
-662.989	-19.108	0.196	0.124
-661.974	-34.642	-0.077	-0.043
-660.959	800.000	-0.096	-0.287
-659.945	441.860	-0.069	-0.153
-658.930	56.620	0.201	-0.199
-657.916	-105.656	-0.211	0.049
-656.901	-200.000	-0.011	-0.087
-655.886	-46.742	-0.042	0.021
-654.872	597.987	0.173	0.438
-653.857	75.140	0.137	-0.147
-652.843	-18.375	-0.001	-0.001
-651.828	-129.533	0.117	0.016
-650.814	-186.997	0.307	0.004
-649.799	58.094	0.022	-0.022
-648.784	133.235	-0.134	0.177
-647.770	-169.712	-0.226	0.008
-646.755	13.577	-0.154	-0.122
-645.741	800.000	0.084	-0.240
-644.726	5.573	-0.409	0.308
-643.711	-116.450	-0.130	0.024
-642.697	-159.007	0.026	0.001
-641.682	251.895	0.110	0.190
-640.668	-98.423	0.064	0.017
-639.653	-115.749	0.137	-0.026
-638.638	-116.046	-0.368	-0.070
-637.624	800.000	-0.056	0.190
-636.609	94.841	-0.115	0.133
-635.595	-8.459	-0.182	0.124
-634.580	218.994	-0.162	0.263
-633.565	198.465	0.083	0.129
-632.551	-56.741	-0.252	-0.114
-631.536	87.254	-0.202	-0.228
-630.522	55.950	0.048	-0.048
-629.507	182.621	-0.205	-0.308
-628.492	242.438	-0.111	-0.190
-627.478	-200.000	0.002	-0.239
-626.463	-53.793	0.234	-0.109
-625.449	-136.984	0.099	0.012
-624.434	-66.720	-0.146	0.059
-623.419	-23.710	0.179	-0.109
-622.405	-45.088	-0.319	0.162
-621.390	387.118	0.133	-0.279
-620.376	444.479	0.078	-0.173
-619.361	530.811	-0.069	0.167
-618.346	332.477	-0.026	0.052
-617.332	-197.580	-0.311	0.002
-616.317	-36.868	0.147	-0.080
-615.303	-129.266	-0.129	-0.018
-614.288	290.062	0.056	0.104
-613.273	-173.110	-0.309	0.010
-612.259	-88.948	-0.271	-0.082
-611.244	800.000	0.082	0.292
-610.230	494.283	0.015	-0.034
-609.215	344.959	-0.091	0.183
-608.201	667.908	-0.131	0.344
-607.186	51.017	0.254	0.245
-606.171	-24.363	-0.137	0.083
-605.157	-200.000	-0.001	0.079
-604.142	192.087	0.177	-0.272
-603.128	308.902	0.072	-0.136
-602.113	-128.188	0.187	0.027
-601.098	28.713	-0.047	0.040
-600.084	-109.522	0.367	0.079
-599.069	85.183	0.074	-0.083
-598.055	-200.000	-0.012	-0.067
-597.040	-200.000	0.071	0.338
-596.025	110.880	-0.179	0.219
-595.011	567.953	-0.165	0.407
-593.996	-108.243	-0.185	-0.041
-592.982	20.900	0.148	-0.122
-591.967	-16.971	-0.186	-0.120
-590.952	800.000	-0.101	0.311
-589.938	-200.000	0.019	0.095
-588.923	190.821	-0.248	0.379
-587.909	-99.511	0.083	-0.021
-586.894	-61.653	-0.131	-0.056
-585.879	468.302	-0.022	0.050
-584.865	324.659	0.072	-0.141
-583.850	-63.468	0.302	-0.126
-582.836	276.372	0.047	-0.086
-581.821	46.552	0.151	0.142
-580.806	-200.000	0.031	-0.214
-579.792	-46.930	0.175	-0.087
-578.777	100.328	0.051	0.061
-577.763	-200.000	0.004	-0.048
-576.748	58.569	-0.236	-0.235
-575.733	-58.797	0.107	0.047
-574.719	800.000	0.026	0.090
-573.704	586.816	0.099	0.247
-572.690	52.189	-0.149	0.145
-571.675	-116.741	0.018	0.003
-570.661	-12.370	-0.109	-0.072
-569.646	-200.000	-0.045	-0.281
-568.631	-30.377	0.133	-0.077
-567.617	-183.795	0.257	-0.004
-566.602	800.000	0.027	-0.109
-565.588	-200.000	-0.003	-0.171
-564.573	800.000	-0.042	0.156
-563.558	45.601	0.301	0.283
-562.544	800.000	-0.007	0.030
-561.529	-76.352	0.159	0.057
-560.515	-194.746	-0.133	0.001
-559.500	-84.402	0.487	0.156
-558.485	-32.449	0.042	-0.024
-557.471	-200.000	0.015	-0.304
-556.456	449.201	0.043	-0.096
-555.442	-144.844	-0.211	0.020
-554.427	392.856	0.102	0.216
-553.412	221.324	0.126	-0.205
-552.398	-200.000	0.026	-0.150
-551.383	800.000	0.077	-0.303
-550.369	-200.000	-0.113	-0.544
-549.354	72.987	-0.194	0.205
-548.339	273.608	-0.024	-0.044
-547.325	-200.000	0.052	-0.343
-546.310	-80.073	0.463	-0.158
-545.296	360.396	-0.134	-0.272
-544.281	-62.836	0.018	0.008
-543.266	68.755	0.089	-0.093
-542.252	-200.000	0.018	0.180
-541.237	-0.542	0.097	-0.070
-540.223	-60.766	0.291	0.125
-539.208	-15.177	0.128	0.083
-538.193	581.118	-0.062	0.155
-537.179	482.256	-0.058	0.133
-536.164	800.000	-0.084	0.347
-535.150	-44.069	-0.389	-0.198
-534.135	-194.354	0.311	0.003
-533.121	4.676	-0.109	-0.081
-532.106	566.657	0.028	0.068
-531.091	185.151	-0.114	0.172
-530.077	-21.635	-0.238	-0.147
-529.062	300.501	0.145	-0.271
-528.048	50.884	-0.173	0.167
-527.033	160.903	-0.075	0.106
-526.018	30.464	-0.250	-0.217
-525.004	-121.544	-0.343	-0.058
-523.989	192.551	0.135	0.206
-522.975	-200.000	-0.001	-0.250
-521.960	-200.000	-0.044	-0.369
-520.945	340.235	0.081	-0.160
-519.931	-108.737	-0.216	-0.047
-518.916	-116.908	0.160	0.030
-517.902	197.801	0.126	0.195
-516.887	-125.366	-0.238	-0.037
-515.872	73.092	-0.229	-0.243
-514.858	72.002	-0.021	-0.022
-513.843	-200.000	0.015	-0.171
-512.829	-128.402	-0.267	0.038
-511.814	800.000	0.082	0.310
-510.799	-51.112	0.364	0.173
-509.785	-200.000	-0.005	0.036
-508.770	-200.000	-0.017	-0.288
-507.756	-147.776	-0.140	0.012
-506.741	800.000	0.028	0.089
-505.726	-200.000	-0.006	0.111
-504.712	64.538	-0.096	-0.098
-503.697	-9.821	0.104	-0.070
-502.683	-122.262	0.307	0.051
-501.668	-200.000	0.014	-0.237
-500.653	800.000	0.110	-0.332
-499.639	-200.000	0.035	-0.215
-498.624	-146.110	-0.151	0.014
-497.610	528.656	-0.048	0.115
-496.595	83.421	-0.330	-0.365
-495.581	-66.441	-0.312	0.125
-494.566	626.641	0.027	0.070
-493.551	-97.210	0.251	0.066
-492.537	-190.272	-0.451	-0.005
-491.522	-200.000	0.005	0.056
-490.508	-4.486	0.278	0.195
-489.493	117.436	-0.147	-0.183
-488.478	-58.200	-0.177	0.078
-487.464	-169.300	0.191	0.007
-486.449	-63.235	0.567	0.237
-485.435	-61.801	-0.155	-0.066
-484.420	-146.556	0.221	-0.019
-483.405	64.558	-0.334	0.341
-482.391	-200.000	0.003	0.385
-481.376	-200.000	-0.032	-0.277
-480.362	170.591	-0.128	-0.185
-479.347	-200.000	-0.002	-0.008
-478.332	-99.219	0.197	-0.050
-477.318	1.364	0.328	-0.238
-476.303	540.349	0.114	0.275
-475.289	54.060	0.146	-0.142
-474.274	256.291	-0.089	0.155
-473.259	98.832	0.124	0.145
-472.245	-38.595	-0.212	-0.113
-471.230	297.840	-0.273	-0.507
-470.216	-87.435	0.312	0.096
-469.201	-0.867	-0.191	-0.137
-468.186	-84.882	0.181	-0.058
-467.172	209.860	-0.243	-0.385
-466.157	-129.033	-0.214	-0.030
-465.143	-80.896	0.074	0.025
-464.128	49.792	-0.140	0.134
-463.113	800.000	-0.012	-0.047
-462.099	291.884	0.177	-0.326
-461.084	21.596	-0.246	-0.203
-460.070	330.417	0.161	0.313
-459.055	-20.856	-0.043	-0.026
-458.040	-96.566	-0.102	0.027
-457.026	800.000	0.015	0.047
-456.011	755.449	-0.110	-0.301
-454.997	409.794	0.158	0.338
-453.982	47.149	0.166	-0.156
-452.968	371.121	-0.047	-0.096
-451.953	-84.960	-0.165	0.052
-450.938	28.951	0.139	0.119
-449.924	186.020	0.222	-0.334
-448.909	-200.000	0.021	0.109
-447.895	-45.230	0.066	-0.033
-446.880	-132.388	-0.325	0.042
-445.865	-146.876	-0.090	0.008
-444.851	-91.917	0.169	-0.048
-443.836	-200.000	0.007	0.069
-442.822	125.922	0.053	-0.067
-441.807	-200.000	0.001	0.118
-440.792	25.751	-0.103	-0.087
-439.778	-200.000	-0.027	0.205
-438.763	241.900	-0.084	0.142
-437.749	114.246	-0.115	0.142
-436.734	31.555	-0.266	0.232
-435.719	-200.000	0.010	0.214
-434.705	41.135	-0.080	0.073
-433.690	800.000	0.088	0.330
-432.676	-8.538	-0.146	0.099
-431.661	-41.481	-0.264	-0.137
-430.646	-148.832	0.259	-0.021
-429.632	115.044	-0.069	-0.085
-428.617	202.610	-0.056	-0.087
-427.603	-200.000	-0.011	0.187
-426.588	64.528	0.025	0.025
-425.573	-52.716	-0.062	-0.029
-424.559	800.000	0.145	0.489
-423.544	-73.916	0.131	0.048
-422.530	-200.000	-0.006	0.085
-421.515	89.436	0.279	-0.314
-420.500	77.427	0.133	-0.143
-419.486	800.000	0.074	-0.268
-418.471	-53.250	0.132	-0.061
-417.457	-65.018	0.205	0.084
-416.442	-47.605	-0.095	0.047
-415.428	8.893	0.242	0.184
-414.413	380.727	-0.115	0.239
-413.398	-70.416	0.469	0.179
-412.384	-68.082	0.152	0.060
-411.369	8.859	0.212	-0.162
-410.355	-100.465	0.256	-0.064
-409.340	-175.913	0.221	0.006
-408.325	-34.721	-0.234	0.129
-407.311	-5.957	0.093	-0.064
-406.296	-200.000	0.076	-0.397
-405.282	-77.614	0.088	-0.031
-404.267	-200.000	-0.005	-0.073
-403.252	753.898	-0.046	-0.125
-402.238	36.315	-0.233	-0.207
-401.223	-46.468	-0.100	-0.050
-400.209	-123.967	0.326	-0.052
-399.194	21.331	-0.170	0.140
-398.179	-11.565	0.128	0.085
-397.165	-118.201	0.261	-0.047
-396.150	-27.063	0.189	-0.111
-395.136	683.222	-0.089	0.233
-394.121	-113.119	-0.017	-0.003
-393.106	-200.000	0.011	-0.117
-392.092	-114.881	0.266	-0.051
-391.077	68.170	0.096	0.099
-390.063	-200.000	0.010	0.085
-389.048	105.625	-0.055	0.066
-388.033	378.496	0.039	0.081
-387.019	-85.194	0.190	-0.060
-386.004	-130.732	0.105	-0.014
-384.990	-46.147	-0.350	-0.174
-383.975	-66.624	-0.262	0.105
-382.960	204.360	0.123	0.192
-381.946	-44.381	0.153	0.077
-380.931	-98.603	-0.304	-0.078
-379.917	-149.098	0.203	-0.016
-378.902	800.000	0.038	-0.156
-377.888	74.702	-0.244	0.259
-376.873	362.262	-0.057	0.115
-375.858	-72.162	0.101	0.038
-374.844	79.783	-0.090	0.097
-373.829	294.753	-0.072	-0.133
-372.815	322.409	0.132	0.254
-371.800	285.964	-0.101	0.183
-370.785	7.942	-0.186	0.141
-369.771	-118.790	-0.302	0.054
-368.756	-0.662	-0.330	0.236
-367.742	27.508	0.304	-0.258
-366.727	-22.254	-0.132	0.081
-365.712	-22.239	-0.180	0.110
-364.698	800.000	-0.084	-0.335
-363.683	-160.194	0.098	0.005
-362.669	-0.268	0.126	-0.090
-361.654	600.357	-0.219	-0.547
-360.639	39.853	0.307	-0.278
-359.625	-27.675	-0.352	-0.206
-358.610	800.000	0.047	-0.175
-357.596	800.000	0.042	0.138
-356.581	-116.964	-0.160	0.029
-355.566	120.583	-0.140	-0.176
-354.552	211.455	0.159	-0.253
-353.537	-129.923	0.289	-0.040
-352.523	800.000	0.078	0.313
-351.508	-39.633	0.207	-0.109
-350.493	66.411	0.057	-0.058
-349.479	-200.000	-0.005	0.169
-348.464	-200.000	0.065	-0.301
-347.450	-106.302	-0.204	-0.046
-346.435	-123.436	-0.314	0.050
-345.420	-93.103	-0.248	0.069
-344.406	-136.765	0.229	0.027
-343.391	38.822	-0.038	-0.034
-342.377	53.035	-0.220	0.212
-341.362	141.062	0.146	-0.195
-340.348	129.813	0.093	0.120
-339.333	-200.000	-0.003	0.039
-338.318	273.755	-0.082	0.145
-337.304	-111.790	0.069	0.014
-336.289	-200.000	0.023	-0.144
-335.275	-52.791	0.094	0.044
-334.260	800.000	0.060	-0.236
-333.245	337.568	0.022	-0.043
-332.231	-200.000	0.015	-0.201
-331.216	183.174	0.112	-0.167
-330.202	800.000	0.072	0.286
-329.187	-94.673	-0.070	-0.019
-328.172	21.041	-0.207	-0.169
-327.158	-98.290	0.298	0.077
-326.143	-101.955	-0.344	0.084
-325.129	93.490	0.190	-0.216
-324.114	-96.430	0.206	0.055
-323.099	800.000	-0.039	0.165
-322.085	-200.000	0.003	0.204
-321.070	-172.325	-0.115	-0.004
-320.056	21.634	-0.613	-0.502
-319.041	377.072	0.080	-0.165
-318.026	800.000	0.074	0.253
-317.012	-7.606	0.261	0.178
-315.997	109.453	0.230	-0.277
-314.983	-29.817	-0.133	0.076
-313.968	341.523	0.116	-0.228
-312.953	248.512	0.091	-0.155
-311.939	-175.335	0.150	-0.004
-310.924	151.473	-0.219	0.300
-309.910	101.607	-0.076	0.089
-308.895	290.405	0.088	0.161
-307.880	73.151	-0.150	-0.158
-306.866	-56.520	-0.093	0.041
-305.851	109.615	-0.139	-0.167
-304.837	800.000	0.047	0.135
-303.822	-69.199	0.063	0.024
-302.807	24.767	0.126	0.105
-301.793	-144.691	-0.215	-0.020
-300.778	-200.000	-0.014	-0.097
-299.764	105.439	-0.230	0.273
-298.749	-136.651	-0.230	0.027
-297.735	-200.000	-0.027	0.253
-296.720	452.787	0.164	0.365
-295.705	-200.000	0.014	0.124
-294.691	800.000	-0.038	-0.108
-293.676	-97.022	0.168	0.044
-292.662	-121.975	0.235	0.039
-291.647	-118.244	-0.297	0.053
-290.632	-9.589	-0.101	0.068
-289.618	75.748	0.161	-0.171
-288.603	-32.715	0.062	0.035
-287.589	33.795	-0.115	-0.100
-286.574	-141.892	-0.385	-0.039
-285.559	800.000	0.033	-0.140
-284.545	-68.538	-0.057	-0.022
-283.530	-184.761	0.195	0.003
-282.516	145.611	-0.109	-0.146
-281.501	-92.555	-0.490	-0.138
-280.486	-81.259	0.336	-0.111
-279.472	-200.000	-0.003	0.145
-278.457	-190.454	-0.111	0.001
-277.443	392.096	0.137	-0.285
-276.428	410.578	0.012	0.027
-275.413	457.330	-0.087	0.195
-274.399	-200.000	-0.005	-0.027
-273.384	110.214	0.022	0.026
-272.370	-200.000	-0.021	-0.125
-271.355	-110.856	0.362	0.075
-270.340	-200.000	0.011	0.109
-269.326	63.434	0.168	-0.169
-268.311	-70.940	0.071	0.027
-267.297	-69.741	-0.003	0.001
-266.282	125.850	-0.088	-0.111
-265.267	-20.506	0.360	0.222
-264.253	327.452	-0.187	0.360
-263.238	51.848	0.168	0.161
-262.224	-42.176	0.058	0.030
-261.209	-99.308	0.269	0.068
-260.195	26.257	0.181	-0.152
-259.180	-99.247	-0.195	0.049
-258.165	230.568	-0.111	-0.182
-257.151	-54.191	0.073	-0.033
-256.136	486.565	0.038	0.086
-255.122	800.000	-0.036	-0.118
-254.107	164.840	0.118	-0.167
-253.092	30.120	0.046	0.039
-252.078	54.906	-0.192	0.186
-251.063	-17.875	-0.306	0.193
-250.049	222.921	0.094	-0.152
-249.034	634.836	-0.066	0.167
-248.019	-160.042	0.209	-0.011
-247.005	597.728	-0.041	-0.103
-245.990	-200.000	0.007	0.117
-244.976	-66.464	0.130	0.052
-243.961	83.237	0.227	-0.248
-242.946	-44.001	-0.327	-0.165
-241.932	116.249	0.198	0.244
-240.917	648.774	-0.128	0.329
-239.903	-170.609	-0.179	-0.006
-238.888	388.035	-0.047	-0.098
-237.873	490.462	-0.147	0.336
-236.859	-66.641	0.151	-0.060
-235.844	-99.174	-0.174	0.044
-234.830	-200.000	-0.057	0.256
-233.815	161.686	-0.088	0.123
-232.800	38.459	-0.060	-0.054
-231.786	-5.742	-0.029	0.020
-230.771	-158.734	0.374	-0.021
-229.757	184.759	0.115	-0.171
-228.742	800.000	0.073	0.230
-227.727	249.315	-0.106	-0.181
-226.713	-87.064	-0.172	0.052
-225.698	76.070	-0.116	0.123
-224.684	-200.000	-0.029	-0.372
-223.669	-141.555	0.277	0.028
-222.655	-111.764	-0.045	0.009
-221.640	-200.000	0.005	-0.316
-220.625	12.522	-0.115	0.089
-219.611	-104.353	-0.144	-0.033
-218.596	56.462	0.131	0.128
-217.582	299.470	-0.048	-0.088
-216.567	119.068	-0.179	0.222
-215.552	-26.384	0.143	0.084
-214.538	261.324	-0.010	-0.018
-213.523	31.840	-0.085	0.073
-212.509	-200.000	0.034	-0.288
-211.494	-200.000	0.019	0.162
-210.479	38.918	0.217	-0.194
-209.465	12.387	0.286	-0.220
-208.450	800.000	-0.082	0.252
-207.436	402.442	-0.057	0.120
-206.421	-200.000	-0.016	0.102
-205.406	-101.380	-0.109	0.027
-204.392	220.435	0.077	-0.124
-203.377	-200.000	-0.003	-0.058
-202.363	708.977	-0.115	-0.303
-201.348	-37.495	0.220	-0.118
-200.333	67.250	0.204	-0.208
-199.319	-10.945	0.068	-0.045
-198.304	-200.000	0.017	0.173
-197.290	-110.964	0.214	0.044
-196.275	-18.789	-0.169	-0.105
-195.260	-32.726	-0.069	-0.038
-194.246	-32.709	-0.201	0.112
-193.231	-134.114	0.493	0.061
-192.217	-69.652	-0.070	-0.027
-191.202	800.000	-0.124	-0.380
-190.187	364.584	-0.072	0.146
-189.173	800.000	-0.039	0.148
-188.158	133.644	0.072	0.093
-187.144	800.000	0.045	0.188
-186.129	-104.374	0.259	0.060
-185.114	-117.655	-0.020	-0.004
-184.100	-94.517	0.129	0.035
-183.085	800.000	0.036	-0.109
-182.071	19.998	-0.261	-0.211
-181.056	-200.000	0.001	0.159
-180.042	145.951	0.101	0.135
-179.027	-10.662	-0.064	-0.042
-178.012	488.187	-0.179	0.410
-176.998	-79.839	0.054	-0.018
-175.983	173.174	-0.059	-0.086
-174.969	-94.577	0.263	-0.071
-173.954	-69.140	0.122	-0.047
-172.939	-88.906	0.076	0.023
-171.925	402.193	-0.115	-0.241
-170.910	-119.504	0.370	0.064
-169.896	-15.130	-0.159	-0.102
-168.881	-189.631	0.269	-0.003
-167.866	10.919	-0.266	0.203
-166.852	-8.850	-0.179	-0.120
-165.837	-102.636	0.129	0.031
-164.823	207.457	-0.116	0.180
-163.808	-200.000	0.018	0.088
-162.793	327.136	0.023	0.045
-161.779	215.736	-0.320	0.509
-160.764	800.000	-0.061	-0.245
-159.750	14.821	0.194	-0.152
-158.735	-134.961	-0.130	0.016
-157.720	-68.931	0.312	0.120
-156.706	-200.000	0.013	0.076
-155.691	-100.017	0.371	-0.092
-154.677	265.395	0.022	0.038
-153.662	-15.316	-0.370	-0.236
-152.647	28.111	-0.272	0.230
-151.633	30.695	0.105	0.090
-150.618	-106.236	-0.099	0.022
-149.604	800.000	0.050	0.191
-148.589	-53.592	-0.482	0.220
-147.574	221.842	0.079	0.127
-146.560	-5.768	-0.338	0.231
-145.545	33.084	-0.260	-0.225
-144.531	270.039	0.048	-0.085
-143.516	800.000	-0.097	0.273
-142.502	280.006	-0.149	-0.267
-141.487	-21.619	-0.175	0.106
-140.472	116.355	0.019	-0.023
-139.458	-80.814	-0.100	-0.033
-138.443	-134.737	-0.322	-0.039
-137.429	-65.566	0.064	-0.025
-136.414	27.812	-0.145	0.122
-135.399	-200.000	-0.007	-0.036
-134.385	-59.944	0.298	0.127
-133.370	800.000	-0.044	-0.122
-132.356	-91.282	-0.581	0.166
-131.341	259.478	-0.049	0.085
-130.326	-200.000	-0.003	0.259
-129.312	150.414	-0.124	-0.168
-128.297	266.708	0.181	0.316
-127.283	-189.762	0.259	-0.003
-126.268	-31.776	-0.120	-0.067
-125.253	-54.508	-0.229	0.104
-124.239	800.000	0.087	0.333
-123.224	26.467	-0.201	0.168
-122.210	127.426	-0.132	-0.167
-121.195	39.315	-0.120	-0.107
-120.180	-66.056	0.233	0.093
