DTS Sentinel unit serial number:	SN413079Multiplexer serial number:	ORYXHardware model number:	OX4-SRSoftware version number:	ORYX F/W v4.00 Oryx Data Collector v3.7.2.0data status	okinstallation	princeton_trtdifferential loss correction	single-endedforward channel	channel 3reverse channel	N/Adate	2019/09/17time	08:00:35forward acquisition time	60.00reverse acquisition time	0.00gamma	496.2192k internal	0.2334k external	0.2334temperature offset calibration	0.9938default loss term (dB/km)	0.3790temperature slope calibration	1.0000multiplexer offset coefficient	1.0000multiplexer slope coefficient	1.0000fibre end	0.00T internal ref (°C)	27.25T ext. ref 1 (°C)	0.11T ext. ref 2 (°C)	22.39length (m)	temperature (°C)	Stokes	anti-Stokes-747.200	521.073	0.151	-0.356
-746.185	472.434	-0.158	0.359
-745.171	-200.000	0.024	0.233
-744.156	156.353	0.034	0.048
-743.142	163.585	-0.049	0.069
-742.127	-116.696	-0.559	-0.103
-741.112	-64.904	-0.234	0.095
-740.098	83.620	-0.162	0.177
-739.083	56.576	0.156	0.153
-738.069	-49.679	-0.261	0.125
-737.054	78.051	-0.240	0.257
-736.039	-58.664	-0.257	0.112
-735.025	800.000	-0.081	0.273
-734.010	40.911	-0.357	-0.324
-732.996	17.122	-0.249	-0.198
-731.981	800.000	0.120	-0.472
-730.966	-165.607	-0.155	-0.007
-729.952	-200.000	-0.003	-0.245
-728.937	69.911	0.134	-0.139
-727.923	-200.000	-0.059	-0.326
-726.908	372.501	0.120	-0.244
-725.894	-11.858	-0.299	-0.197
-724.879	-200.000	0.028	0.241
-723.864	38.908	-0.224	0.201
-722.850	3.817	0.158	0.116
-721.835	734.084	0.026	0.070
-720.821	35.827	-0.296	0.262
-719.806	-95.899	-0.375	0.100
-718.791	-200.000	0.062	-0.306
-717.777	-200.000	0.000	0.170
-716.762	-74.874	0.149	-0.054
-715.748	552.866	0.032	0.078
-714.733	-12.285	0.213	-0.140
-713.718	-200.000	-0.002	0.175
-712.704	-43.612	0.301	0.153
-711.689	54.113	-0.201	-0.194
-710.675	292.250	0.024	-0.044
-709.660	349.484	-0.092	0.182
-708.645	69.349	0.166	-0.171
-707.631	800.000	-0.016	0.057
-706.616	232.684	0.062	-0.102
-705.602	16.969	-0.107	0.085
-704.587	800.000	0.035	-0.112
-703.572	-160.324	-0.285	-0.015
-702.558	-200.000	-0.005	0.351
-701.543	-200.000	-0.038	-0.309
-700.529	-68.540	-0.284	-0.111
-699.514	-51.016	0.220	0.104
-698.499	53.738	-0.068	0.066
-697.485	584.320	-0.123	-0.304
-696.470	800.000	0.046	0.191
-695.456	-189.398	-0.190	0.002
-694.441	-200.000	0.022	0.166
-693.426	-58.908	0.139	-0.060
-692.412	139.274	0.164	0.216
-691.397	-200.000	0.014	-0.066
-690.383	800.000	0.144	-0.567
-689.368	-105.690	-0.329	0.075
-688.354	800.000	-0.101	-0.314
-687.339	-200.000	0.035	-0.180
-686.324	-106.972	-0.089	0.020
-685.310	344.184	-0.108	-0.213
-684.295	-0.998	-0.171	0.122
-683.281	-22.536	-0.218	0.132
-682.266	6.573	-0.056	0.042
-681.251	-130.232	-0.191	0.026
-680.237	120.367	0.195	-0.243
-679.222	-111.288	0.229	-0.047
-678.208	-83.409	-0.297	0.095
-677.193	58.434	0.257	-0.253
-676.178	35.943	0.085	-0.075
-675.164	-15.149	-0.292	0.187
-674.149	525.586	-0.187	0.442
-673.135	-14.194	0.024	0.015
-672.120	-130.013	0.086	-0.012
-671.105	-200.000	-0.056	0.306
-670.091	-105.818	-0.245	0.056
-669.076	-113.535	0.074	-0.015
-668.062	382.874	-0.052	-0.107
-667.047	800.000	0.053	0.175
-666.032	-200.000	-0.008	0.207
-665.018	-200.000	0.026	0.175
-664.003	-121.537	-0.168	0.028
-662.989	48.771	0.036	-0.034
-661.974	475.308	0.099	0.225
-660.959	527.839	0.080	-0.189
-659.945	14.792	-0.365	0.286
-658.930	-45.571	0.085	-0.042
-657.916	-23.818	-0.163	0.098
-656.901	0.280	-0.137	0.098
-655.886	-154.370	-0.209	-0.014
-654.872	65.069	-0.192	0.195
-653.857	-130.059	-0.242	-0.033
-652.843	321.034	0.154	-0.293
-651.828	-200.000	-0.003	-0.109
-650.814	-10.338	0.074	0.049
-649.799	407.080	0.110	-0.233
-648.784	-200.000	-0.020	0.117
-647.770	-200.000	-0.021	0.215
-646.755	-87.841	-0.208	-0.063
-645.741	473.535	-0.098	0.221
-644.726	800.000	0.114	-0.427
-643.711	-41.351	0.143	-0.074
-642.697	157.048	0.059	-0.082
-641.682	-69.455	0.291	-0.112
-640.668	-200.000	0.037	-0.267
-639.653	122.512	0.207	0.259
-638.638	-122.723	-0.247	-0.040
-637.624	-51.778	0.069	-0.032
-636.609	-21.110	-0.240	-0.147
-635.595	131.274	-0.190	-0.244
-634.580	95.838	0.283	-0.323
-633.565	-44.458	-0.245	0.123
-632.551	745.328	0.037	-0.098
-631.536	-200.000	-0.039	-0.206
-630.522	-200.000	0.322	-0.000
-629.507	-129.535	-0.076	-0.010
-628.492	-59.073	-0.159	0.069
-627.478	-119.927	-0.267	0.046
-626.463	-92.595	-0.062	-0.017
-625.449	-185.029	-0.251	-0.004
-624.434	-200.000	0.012	-0.430
-623.419	-93.957	-0.215	-0.059
-622.405	40.930	0.047	-0.042
-621.390	-22.563	0.314	0.190
-620.376	277.803	-0.055	0.098
-619.361	617.586	0.120	0.302
-618.346	-155.652	-0.220	0.014
-617.332	113.892	0.210	0.255
-616.317	-51.130	-0.173	-0.081
-615.303	800.000	0.065	-0.187
-614.288	-86.745	-0.126	-0.038
-613.273	-200.000	-0.018	-0.367
-612.259	-73.494	-0.124	-0.045
-611.244	-200.000	-0.024	-0.235
-610.230	-200.000	0.011	0.074
-609.215	346.988	0.089	-0.175
-608.201	617.576	-0.111	0.279
-607.186	-78.771	0.026	-0.009
-606.171	-122.423	0.380	-0.062
-605.157	-108.349	0.116	-0.025
-604.142	-94.881	-0.438	-0.118
-603.128	28.598	0.024	0.020
-602.113	134.797	-0.017	-0.022
-601.098	490.689	0.171	-0.392
-600.084	174.329	-0.103	-0.149
-599.069	-61.670	0.236	-0.099
-598.055	-81.788	-0.286	-0.094
-597.040	4.114	-0.286	0.209
-596.025	-71.506	-0.198	-0.074
-595.011	-200.000	-0.000	0.161
-593.996	-53.662	-0.230	-0.105
-592.982	-106.944	0.198	-0.044
-591.967	-200.000	-0.036	0.177
-590.952	-200.000	0.011	0.063
-589.938	268.649	-0.082	-0.144
-588.923	-3.289	-0.115	-0.080
-587.909	37.321	-0.383	0.339
-586.894	-154.833	0.288	0.019
-585.879	622.580	0.056	-0.141
-584.865	345.316	0.056	0.110
-583.850	-39.582	-0.153	-0.080
-582.836	800.000	0.039	0.145
-581.821	-112.787	0.224	0.044
-580.806	174.054	0.106	0.153
-579.792	171.630	-0.043	0.062
-578.777	800.000	-0.077	0.239
-577.763	-94.622	-0.134	-0.036
-576.748	-86.491	-0.052	-0.016
-575.733	61.680	0.185	-0.184
-574.719	-127.289	-0.336	0.049
-573.704	-115.081	0.184	0.035
-572.690	493.114	-0.042	-0.095
-571.675	89.512	0.271	-0.302
-570.661	-200.000	0.048	-0.312
-569.646	-1.796	0.188	-0.132
-568.631	217.058	-0.082	-0.130
-567.617	-54.503	0.132	-0.060
-566.602	-200.000	0.056	0.301
-565.588	-200.000	-0.002	0.107
-564.573	-92.251	-0.070	-0.020
-563.558	-200.000	0.000	-0.079
-562.544	-200.000	-0.353	-0.001
-561.529	174.228	0.080	0.115
-560.515	114.651	0.077	-0.093
-559.500	-14.322	0.300	0.193
-558.485	-116.432	-0.057	0.011
-557.471	-200.000	0.023	-0.123
-556.456	-115.306	0.250	-0.047
-555.442	107.881	-0.076	0.090
-554.427	108.626	-0.047	0.056
-553.412	321.011	0.034	-0.065
-552.398	-67.485	0.077	0.030
-551.383	-3.391	-0.265	-0.184
-550.369	-200.000	0.012	0.054
-549.354	-18.556	-0.275	0.171
-548.339	16.963	0.190	-0.150
-547.325	-25.954	-0.072	0.042
-546.310	-32.297	0.317	0.176
-545.296	-88.517	-0.327	-0.097
-544.281	-188.336	0.075	0.001
-543.266	800.000	0.088	0.353
-542.252	800.000	0.039	-0.166
-541.237	-108.375	-0.339	-0.073
-540.223	7.194	-0.325	0.242
-539.208	-71.079	-0.339	0.127
-538.193	200.193	0.067	0.102
-537.179	-119.066	0.054	0.009
-536.164	263.290	0.120	0.208
-535.150	110.132	0.156	0.187
-534.135	800.000	-0.046	0.133
-533.121	-85.697	-0.128	-0.040
-532.106	273.030	-0.005	0.009
-531.091	96.134	-0.132	-0.151
-530.077	317.227	-0.029	-0.055
-529.062	-71.779	-0.130	-0.048
-528.048	278.697	0.148	0.263
-527.033	-200.000	-0.039	0.271
-526.018	-200.000	-0.057	-0.376
-525.004	-101.893	0.080	-0.019
-523.989	-200.000	0.001	0.264
-522.975	-200.000	0.057	0.330
-521.960	-103.155	-0.069	-0.016
-520.945	-200.000	0.050	-0.297
-519.931	11.080	0.239	-0.182
-518.916	-38.474	-0.166	-0.088
-517.902	-200.000	0.049	-0.213
-516.887	38.023	-0.159	0.141
-515.872	-108.055	-0.214	-0.046
-514.858	673.625	0.048	-0.124
-513.843	-200.000	-0.002	-0.151
-512.829	-115.499	0.220	-0.041
-511.814	-120.639	-0.226	-0.038
-510.799	-200.000	-0.021	-0.096
-509.785	-103.455	-0.236	-0.055
-508.770	77.955	0.057	0.060
-507.756	-200.000	-0.067	0.312
-506.741	343.481	0.052	-0.101
-505.726	-144.174	0.050	-0.005
-504.712	-97.681	-0.022	0.006
-503.697	138.053	-0.295	-0.385
-502.683	57.720	-0.223	-0.218
-501.668	568.089	-0.083	0.201
-500.653	70.968	-0.097	0.100
-499.639	253.051	0.185	-0.315
-498.624	-200.000	-0.055	-0.334
-497.610	-200.000	0.018	-0.135
-496.595	255.761	0.058	0.098
-495.581	-16.403	-0.404	-0.255
-494.566	36.646	0.182	-0.160
-493.551	225.200	-0.170	0.274
-492.537	-60.009	-0.116	-0.050
-491.522	-10.426	-0.086	0.057
-490.508	800.000	-0.074	0.271
-489.493	-27.242	0.214	0.124
-488.478	-200.000	-0.024	-0.223
-487.464	-69.617	0.101	-0.039
-486.449	-200.000	-0.021	-0.113
-485.435	-69.365	-0.254	-0.097
-484.420	-200.000	-0.026	0.206
-483.405	2.273	-0.301	0.216
-482.391	-200.000	0.027	0.155
-481.376	76.903	0.015	-0.016
-480.362	-123.091	0.137	-0.022
-479.347	13.631	-0.167	-0.129
-478.332	-12.971	0.167	0.108
-477.318	-200.000	-0.038	-0.202
-476.303	117.053	-0.243	0.297
-475.289	-200.000	-0.050	-0.234
-474.274	800.000	0.018	-0.075
-473.259	372.690	-0.099	0.200
-472.245	166.118	0.264	-0.372
-471.230	0.447	-0.057	-0.041
-470.216	-9.371	-0.150	0.100
-469.201	158.813	0.113	0.156
-468.186	33.826	-0.275	0.238
-467.172	-148.575	0.142	-0.012
-466.157	-159.077	-0.143	0.008
-465.143	147.539	-0.196	-0.262
-464.128	-63.779	-0.044	-0.018
-463.113	147.659	0.085	0.113
-462.099	800.000	-0.063	-0.189
-461.084	-200.000	-0.010	-0.377
-460.070	109.925	-0.154	0.184
-459.055	149.609	0.218	0.293
-458.040	800.000	0.051	-0.207
-457.026	251.728	-0.112	-0.189
-456.011	54.284	0.142	0.136
-454.997	376.118	0.158	0.321
-453.982	-129.004	-0.261	0.036
-452.968	-200.000	-0.003	-0.061
-451.953	-26.137	-0.326	0.190
-450.938	206.140	-0.070	0.108
-449.924	-33.579	0.117	0.064
-448.909	-200.000	0.045	0.407
-447.895	-200.000	-0.022	0.106
-446.880	800.000	-0.062	0.220
-445.865	-104.470	-0.179	-0.041
-444.851	292.632	-0.092	0.166
-443.836	22.914	-0.067	-0.054
-442.822	125.595	-0.120	-0.150
-441.807	-200.000	-0.008	0.049
-440.792	-200.000	-0.045	0.249
-439.778	-21.871	-0.347	-0.209
-438.763	16.720	-0.200	0.157
-437.749	-101.304	0.062	-0.015
-436.734	-200.000	-0.010	-0.192
-435.719	-133.509	-0.084	-0.011
-434.705	-96.068	-0.186	-0.049
-433.690	-119.464	0.289	-0.050
-432.676	-200.000	0.001	-0.121
-431.661	373.814	0.051	-0.103
-430.646	-117.462	-0.191	0.034
-429.632	317.998	-0.153	0.288
-428.617	58.575	-0.110	0.107
-427.603	-104.070	0.228	-0.053
-426.588	-78.930	-0.191	0.065
-425.573	3.482	0.211	-0.152
-424.559	-27.201	0.214	0.124
-423.544	-200.000	0.017	-0.182
-422.530	-79.023	-0.213	0.072
-421.515	-53.589	-0.043	-0.019
-420.500	48.769	-0.143	0.134
-419.486	-200.000	-0.012	0.079
-418.471	21.677	-0.204	-0.165
-417.457	-199.510	-0.372	-0.002
-416.442	-112.618	0.088	0.017
-415.428	800.000	-0.066	-0.212
-414.413	-200.000	-0.053	-0.311
-413.398	-150.775	-0.020	0.001
-412.384	-95.368	0.241	0.064
-411.369	28.230	-0.197	0.165
-410.355	1.934	0.274	-0.196
-409.340	-200.000	0.013	-0.329
-408.325	-16.465	-0.040	-0.025
-407.311	764.767	0.048	-0.129
-406.296	-200.000	0.044	0.218
-405.282	386.648	-0.152	-0.311
-404.267	-200.000	-0.088	0.403
-403.252	-200.000	0.037	0.249
-402.238	114.652	0.070	0.085
-401.223	-37.999	-0.210	0.110
-400.209	-108.081	0.225	0.048
-399.194	-56.230	-0.337	0.148
-398.179	-200.000	-0.018	-0.136
-397.165	-200.000	0.021	0.381
-396.150	-118.454	-0.158	0.028
-395.136	46.348	0.170	-0.156
-394.121	-13.447	-0.119	0.076
-393.106	260.987	-0.124	-0.213
-392.092	-200.000	-0.022	-0.124
-391.077	-14.363	0.098	-0.063
-390.063	65.261	-0.031	-0.031
-389.048	-84.045	0.425	0.134
-388.033	395.488	-0.097	-0.201
-387.019	-145.565	-0.215	0.019
-386.004	-0.348	-0.219	0.154
-384.990	156.534	0.193	-0.264
-383.975	800.000	-0.021	-0.087
-382.960	133.253	0.147	-0.188
-381.946	-38.211	0.155	0.081
-380.931	98.202	0.196	0.224
-379.917	-90.069	0.482	-0.139
-378.902	-200.000	0.028	-0.152
-377.888	109.718	0.076	-0.090
-376.873	-84.331	-0.279	-0.087
-375.858	-100.036	-0.332	0.082
-374.844	99.295	0.057	-0.065
-373.829	800.000	-0.069	0.240
-372.815	-34.350	0.150	0.081
-371.800	138.062	0.193	-0.250
-370.785	-200.000	0.010	-0.291
-369.771	-101.911	-0.246	0.059
-368.756	480.394	-0.079	0.177
-367.742	-200.000	0.010	0.127
-366.727	337.916	-0.097	0.187
-365.712	-200.000	0.004	-0.266
-364.698	499.062	0.011	-0.025
-363.683	-88.187	-0.134	-0.040
-362.669	27.261	0.091	-0.076
-361.654	-96.804	-0.063	0.016
-360.639	400.112	0.197	0.409
-359.625	351.567	0.087	-0.170
-358.610	19.646	-0.067	-0.053
-357.596	800.000	0.031	-0.122
-356.581	-86.599	0.303	0.092
-355.566	-200.000	0.112	-0.580
-354.552	-116.306	0.230	0.042
-353.537	5.956	0.140	-0.102
-352.523	-110.101	-0.084	-0.017
-351.508	47.361	0.157	0.145
-350.493	800.000	0.124	-0.464
-349.479	-0.529	0.421	0.296
-348.464	776.823	-0.076	-0.206
-347.450	773.249	-0.029	0.079
-346.435	-200.000	0.028	0.164
-345.420	-59.589	-0.160	0.068
-344.406	800.000	-0.034	0.102
-343.391	800.000	-0.069	0.216
-342.377	141.524	0.229	-0.300
-341.362	123.717	0.235	0.291
-340.348	321.733	-0.100	-0.188
-339.333	800.000	-0.134	0.432
-338.318	40.238	-0.213	-0.190
-337.304	800.000	0.069	0.232
-336.289	-118.872	0.201	-0.035
-335.275	206.228	-0.097	-0.150
-334.260	-77.128	-0.283	-0.097
-333.245	-29.802	-0.100	0.057
-332.231	39.760	-0.299	-0.265
-331.216	-20.522	0.141	0.086
-330.202	800.000	0.106	0.307
-329.187	-31.034	0.126	-0.070
-328.172	69.588	0.330	-0.336
-327.158	-200.000	0.015	-0.238
-326.143	-200.000	-0.014	0.149
-325.129	-74.486	0.150	0.054
-324.114	-85.982	0.236	-0.072
-323.099	-108.880	-0.198	-0.042
-322.085	-4.577	0.157	0.107
-321.070	800.000	-0.046	-0.155
-320.056	-128.164	0.251	-0.035
-319.041	-200.000	-0.019	0.220
-318.026	62.605	-0.130	0.128
-317.012	-13.302	0.406	-0.260
-315.997	-200.000	-0.306	-0.001
-314.983	72.672	-0.304	0.313
-313.968	25.746	-0.057	-0.047
-312.953	-200.000	0.018	0.107
-311.939	-83.948	0.275	0.086
-310.924	-88.718	0.131	0.038
-309.910	-200.000	0.388	-0.001
-308.895	-200.000	-0.024	0.215
-307.880	-200.000	-0.032	0.184
-306.866	800.000	0.022	0.070
-305.851	272.180	0.054	-0.093
-304.837	108.306	-0.165	0.195
-303.822	-143.458	0.083	0.008
-302.807	-162.936	-0.005	-0.000
-301.793	183.969	-0.096	0.141
-300.778	13.642	-0.134	-0.103
-299.764	1.724	0.186	-0.133
-298.749	386.719	-0.042	-0.085
-297.735	266.869	0.122	-0.210
-296.720	119.033	0.039	-0.048
-295.705	-200.000	0.007	-0.194
-294.691	800.000	-0.039	0.151
-293.676	-200.000	0.019	0.136
-292.662	103.228	-0.335	0.388
-291.647	45.493	0.078	0.071
-290.632	-200.000	0.016	0.177
-289.618	-150.497	0.143	-0.011
-288.603	320.747	-0.117	-0.219
-287.589	674.179	0.165	0.424
-286.574	176.409	-0.060	-0.086
-285.559	-150.769	-0.223	-0.017
-284.545	163.231	0.144	0.200
-283.530	800.000	-0.139	0.585
-282.516	-150.100	-0.131	-0.010
-281.501	148.133	0.102	-0.135
-280.486	-200.000	0.050	0.399
-279.472	-122.906	-0.114	-0.018
-278.457	367.049	0.025	0.051
-277.443	-41.196	-0.019	-0.010
-276.428	-48.438	0.180	0.085
-275.413	102.880	0.162	-0.187
-274.399	134.535	0.150	-0.192
-273.384	621.962	0.160	0.398
-272.370	800.000	-0.034	-0.111
-271.355	-149.993	0.293	-0.023
-270.340	-200.000	-0.052	-0.276
-269.326	800.000	0.039	-0.122
-268.311	-104.837	-0.331	-0.075
-267.297	-200.000	0.039	0.337
-266.282	26.059	0.225	-0.185
-265.267	800.000	-0.047	0.164
-264.253	-127.339	0.220	0.032
-263.238	-200.000	0.005	-0.299
-262.224	-32.533	-0.033	-0.018
-261.209	-93.852	-0.181	0.049
-260.195	49.347	0.169	-0.156
-259.180	-92.509	0.256	-0.071
-258.165	-76.871	0.121	0.042
-257.151	800.000	0.036	0.119
-256.136	-163.808	-0.296	0.014
-255.122	764.519	0.119	-0.318
-254.107	-49.580	-0.034	-0.016
-253.092	477.553	0.158	0.351
-252.078	194.686	0.162	-0.242
-251.063	-200.000	-0.030	-0.186
-250.049	229.541	-0.078	0.125
-249.034	-200.000	-0.038	0.307
-248.019	24.757	0.129	0.105
-247.005	-1.516	0.244	0.170
-245.990	-89.925	-0.168	-0.048
-244.976	800.000	0.077	0.324
-243.961	-200.000	0.012	-0.263
-242.946	87.991	0.116	-0.126
-241.932	77.276	0.176	-0.184
-240.917	-57.355	-0.147	0.064
-239.903	13.454	-0.146	0.112
-238.888	27.415	-0.093	0.077
-237.873	24.883	0.070	-0.057
-236.859	-132.562	0.189	0.024
-235.844	-153.964	-0.251	-0.017
-234.830	212.132	0.043	-0.066
-233.815	-200.000	0.011	0.283
-232.800	486.653	0.122	0.273
-231.786	301.274	0.091	-0.166
-230.771	-154.204	-0.171	-0.011
-229.757	42.078	0.226	-0.202
-228.742	-200.000	-0.004	0.301
-227.727	-143.380	-0.071	0.007
-226.713	-115.332	0.358	-0.067
-225.698	195.370	-0.037	0.055
-224.684	-146.173	0.229	-0.020
-223.669	-132.759	0.068	-0.009
-222.655	-170.585	0.230	-0.008
-221.640	-200.000	0.002	0.044
-220.625	800.000	-0.073	0.295
-219.611	-146.914	0.062	-0.005
-218.596	27.124	-0.102	0.084
-217.582	56.455	-0.076	0.073
-216.567	6.837	-0.111	0.081
-215.552	-103.737	0.541	-0.125
-214.538	-33.910	-0.198	0.108
-213.523	-64.357	-0.348	-0.139
-212.509	-170.954	0.132	-0.004
-211.494	-200.000	-0.023	-0.186
-210.479	38.206	-0.170	-0.149
-209.465	800.000	-0.004	0.014
-208.450	86.024	-0.152	0.165
-207.436	-98.202	-0.082	-0.021
-206.421	490.037	0.219	0.493
-205.406	-200.000	0.029	0.155
-204.392	56.685	-0.083	-0.080
-203.377	-29.952	0.143	-0.080
-202.363	114.704	0.074	-0.089
-201.348	-200.000	0.043	0.288
-200.333	800.000	-0.110	-0.337
-199.319	397.059	0.222	-0.456
-198.304	-200.000	-0.006	0.035
-197.290	-135.437	0.138	-0.016
-196.275	-77.444	-0.092	-0.032
-195.260	-200.000	-0.038	-0.290
-194.246	190.217	0.102	-0.151
-193.231	16.896	0.147	0.115
-192.217	800.000	0.059	0.248
-191.202	800.000	0.105	-0.416
-190.187	-200.000	0.007	-0.103
-189.173	-148.731	-0.270	0.022
-188.158	-59.662	0.116	-0.049
-187.144	26.385	0.204	-0.167
-186.129	-200.000	-0.048	-0.239
-185.114	377.088	0.100	-0.201
-184.100	-200.000	0.212	0.000
-183.085	-200.000	-0.000	-0.302
-182.071	-64.399	-0.123	-0.049
-181.056	118.411	0.155	0.188
-180.042	237.904	0.118	0.193
-179.027	16.029	-0.236	0.183
-178.012	234.344	0.156	0.252
-176.998	31.967	-0.331	-0.281
-175.983	468.494	0.137	0.302
-174.969	-26.209	0.287	-0.166
-173.954	-37.138	-0.005	0.002
-172.939	-166.319	0.116	0.005
-171.925	800.000	-0.027	0.112
-170.910	-89.390	0.211	0.061
-169.896	-55.420	0.158	0.070
-168.881	-200.000	-0.032	-0.332
-167.866	-32.459	-0.410	0.224
-166.852	800.000	0.089	0.363
-165.837	-3.956	0.166	-0.113
-164.823	98.934	-0.096	-0.109
-163.808	463.825	-0.029	-0.065
-162.793	-145.083	0.289	0.026
-161.779	33.089	0.143	0.122
-160.764	-20.414	-0.223	0.135
-159.750	3.710	0.093	0.067
-158.735	-4.865	-0.412	0.279
-157.720	18.304	0.256	0.201
-156.706	224.361	0.132	-0.209
-155.691	311.703	-0.106	-0.194
-154.677	-85.957	0.343	0.104
-153.662	-200.000	0.015	0.234
-152.647	-200.000	0.046	0.417
-151.633	-200.000	-0.069	-0.333
-150.618	800.000	0.043	0.130
-149.604	82.547	-0.133	-0.142
-148.589	14.517	-0.045	-0.034
-147.574	-137.572	-0.204	0.023
-146.560	184.262	0.141	-0.205
-145.545	-42.853	0.098	-0.049
-144.531	-32.451	-0.238	-0.130
-143.516	-56.331	0.053	-0.023
-142.502	-128.213	-0.148	0.021
-141.487	272.238	-0.049	-0.084
-140.472	95.028	-0.181	0.202
-139.458	67.614	0.081	-0.081
-138.443	-200.000	0.035	0.406
-137.429	800.000	-0.070	0.295
-136.414	-127.622	-0.222	0.031
-135.399	-45.967	0.068	-0.033
-134.385	-43.463	0.062	-0.031
-133.370	-200.000	0.063	0.471
-132.356	-200.000	0.042	0.224
-131.341	800.000	-0.032	0.132
-130.326	800.000	-0.048	0.203
-129.312	-200.000	0.152	0.000
-128.297	308.932	-0.136	-0.248
-127.283	323.128	0.051	0.096
-126.268	114.422	0.233	0.279
-125.253	403.084	-0.149	-0.307
-124.239	800.000	0.043	-0.124
-123.224	-45.168	-0.199	0.097
-122.210	-66.499	0.378	-0.147
