DTS Sentinel unit serial number:	SN413079Multiplexer serial number:	ORYXHardware model number:	OX4-SRSoftware version number:	ORYX F/W v4.00 Oryx Data Collector v3.7.2.0data status	okinstallation	princeton_trtdifferential loss correction	single-endedforward channel	channel 3reverse channel	N/Adate	2019/09/12time	12:02:10forward acquisition time	60.00reverse acquisition time	0.00gamma	496.2192k internal	0.2293k external	0.2293temperature offset calibration	1.0040default loss term (dB/km)	0.3790temperature slope calibration	1.0000multiplexer offset coefficient	1.0000multiplexer slope coefficient	1.0000fibre end	0.00T internal ref (°C)	40.39T ext. ref 1 (°C)	2.02T ext. ref 2 (°C)	38.36length (m)	temperature (°C)	Stokes	anti-Stokes-747.200	-200.000	-0.122	0.587
-746.185	155.293	0.102	0.143
-745.171	204.078	-0.194	-0.308
-744.156	-143.673	-0.066	-0.006
-743.142	-62.755	0.132	0.056
-742.127	-200.000	-0.057	0.378
-741.112	-200.000	-0.019	-0.097
-740.098	-73.455	-0.367	0.137
-739.083	-108.023	0.057	-0.013
-738.069	-70.270	-0.177	0.069
-737.054	-146.154	-0.298	-0.027
-736.039	-49.462	-0.268	0.131
-735.025	-108.811	-0.255	-0.056
-734.010	-45.175	-0.260	0.132
-732.996	-96.365	-0.395	-0.107
-731.981	-0.438	0.195	-0.142
-730.966	213.468	0.139	-0.225
-729.952	800.000	0.070	-0.215
-728.937	800.000	0.053	0.205
-727.923	55.727	-0.195	-0.194
-726.908	-200.000	-0.064	-0.290
-725.894	800.000	-0.081	-0.231
-724.879	59.115	0.190	-0.192
-723.864	-200.000	-0.002	0.199
-722.850	366.421	0.037	0.077
-721.835	-200.000	0.012	-0.389
-720.821	-50.924	-0.202	0.097
-719.806	-58.659	-0.167	-0.074
-718.791	161.302	-0.092	-0.132
-717.777	-118.135	0.273	-0.050
-716.762	170.787	0.136	-0.199
-715.748	-80.001	-0.588	-0.202
-714.733	71.705	0.144	0.153
-713.718	-200.000	-0.237	0.000
-712.704	-200.000	0.035	0.251
-711.689	-154.895	-0.039	0.003
-710.675	38.541	0.372	0.339
-709.660	800.000	0.065	-0.195
-708.645	536.640	-0.065	-0.157
-707.631	-65.132	0.030	-0.012
-706.616	-76.291	0.274	-0.099
-705.602	-58.789	0.330	0.146
-704.587	91.200	-0.191	-0.219
-703.572	14.787	-0.113	-0.090
-702.558	-141.895	0.208	0.021
-701.543	392.901	-0.037	-0.078
-700.529	-102.213	0.164	-0.040
-699.514	722.203	0.099	0.269
-698.499	-12.013	0.264	-0.177
-697.485	800.000	-0.071	-0.235
-696.470	175.418	0.109	0.162
-695.456	22.032	-0.128	0.106
-694.441	-0.186	0.129	-0.093
-693.426	-62.960	-0.117	-0.049
-692.412	-200.000	-0.033	-0.345
-691.397	-200.000	-0.026	-0.294
-690.383	228.633	-0.218	-0.364
-689.368	-200.000	-0.008	0.180
-688.354	-200.000	0.036	-0.358
-687.339	278.187	0.101	-0.183
-686.324	-200.000	0.007	-0.040
-685.310	-102.347	0.188	0.046
-684.295	-18.729	0.064	-0.040
-683.281	-175.322	0.160	-0.004
-682.266	-200.000	-0.028	-0.158
-681.251	-200.000	0.023	-0.283
-680.237	-149.138	-0.096	-0.008
-679.222	-18.327	-0.025	-0.016
-678.208	800.000	0.108	-0.428
-677.193	-66.425	-0.141	-0.057
-676.178	-19.139	0.257	0.163
-675.164	-106.469	0.185	0.042
-674.149	73.459	0.200	-0.214
-673.135	126.538	-0.033	0.043
-672.120	-146.630	0.397	0.035
-671.105	800.000	0.045	0.157
-670.091	-200.000	0.107	-0.560
-669.076	-62.071	0.062	0.026
-668.062	800.000	-0.074	0.293
-667.047	118.914	-0.066	-0.083
-666.032	534.588	0.104	0.251
-665.018	800.000	-0.035	-0.132
-664.003	-90.918	-0.163	-0.048
-662.989	202.978	0.097	-0.152
-661.974	-77.819	0.204	-0.072
-660.959	-140.991	-0.216	-0.023
-659.945	-139.833	-0.396	-0.043
-658.930	-74.115	-0.269	0.099
-657.916	-98.786	0.389	0.101
-656.901	-200.000	-0.018	-0.119
-655.886	-200.000	0.034	-0.167
-654.872	24.557	0.188	0.159
-653.857	-129.064	0.311	-0.044
-652.843	-157.810	-0.207	-0.013
-651.828	-63.615	0.253	0.106
-650.814	-149.481	0.379	0.031
-649.799	-80.571	-0.135	-0.046
-648.784	98.959	0.147	-0.173
-647.770	-178.934	-0.323	0.007
-646.755	-129.009	0.063	0.009
-645.741	-14.426	0.072	-0.047
-644.726	77.208	-0.178	0.193
-643.711	-76.811	0.399	-0.142
-642.697	-67.983	-0.288	-0.115
-641.682	-200.000	0.008	0.037
-640.668	-48.233	0.305	-0.150
-639.653	-200.000	0.053	0.242
-638.638	101.987	0.015	0.018
-637.624	-200.000	-0.005	-0.130
-636.609	68.568	0.074	-0.078
-635.595	520.097	0.093	-0.223
-634.580	-90.427	0.125	-0.037
-633.565	-156.181	-0.046	-0.003
-632.551	169.227	0.169	0.246
-631.536	-54.414	0.218	-0.101
-630.522	96.377	0.070	-0.081
-629.507	78.712	-0.153	0.166
-628.492	-68.113	0.235	0.093
-627.478	-117.781	-0.067	-0.012
-626.463	71.288	0.083	-0.087
-625.449	-200.000	0.027	-0.386
-624.434	119.415	-0.191	-0.241
-623.419	-200.000	-0.006	-0.180
-622.405	129.559	0.088	-0.115
-621.390	538.227	-0.024	-0.058
-620.376	45.972	-0.265	-0.249
-619.361	-200.000	0.005	-0.024
-618.346	-33.462	-0.181	-0.102
-617.332	2.865	-0.121	0.089
-616.317	3.979	0.232	-0.173
-615.303	262.869	-0.100	0.177
-614.288	322.006	0.221	0.429
-613.273	-200.000	-0.017	0.192
-612.259	-26.077	0.232	0.139
-611.244	498.385	0.133	-0.311
-610.230	-200.000	0.001	-0.110
-609.215	-200.000	0.020	-0.134
-608.201	-133.867	-0.278	-0.035
-607.186	-49.300	-0.136	0.066
-606.171	-118.215	-0.169	-0.031
-605.157	-120.595	-0.155	0.027
-604.142	732.001	0.138	0.376
-603.128	-44.613	-0.214	-0.109
-602.113	40.428	0.166	0.152
-601.098	5.286	-0.047	0.036
-600.084	-93.758	-0.043	0.012
-599.069	124.820	0.118	-0.151
-598.055	-105.850	0.104	0.024
-597.040	520.805	0.106	-0.252
-596.025	-148.545	-0.164	0.014
-595.011	221.441	-0.116	-0.189
-593.996	800.000	0.044	-0.157
-592.982	-153.751	-0.356	-0.025
-591.967	39.477	-0.341	-0.311
-590.952	-120.964	-0.287	0.049
-589.938	-200.000	-0.010	-0.183
-588.923	244.965	-0.147	0.252
-587.909	71.850	0.134	0.141
-586.894	268.523	0.050	-0.090
-585.879	194.280	-0.088	-0.136
-584.865	-84.495	-0.398	-0.128
-583.850	15.087	-0.160	0.127
-582.836	43.255	-0.240	0.223
-581.821	-24.550	0.130	-0.079
-580.806	147.651	0.245	-0.335
-579.792	-200.000	-0.005	-0.042
-578.777	-13.591	0.204	0.135
-577.763	800.000	-0.152	-0.464
-576.748	800.000	-0.028	-0.090
-575.733	800.000	0.058	-0.168
-574.719	800.000	-0.068	-0.271
-573.704	320.856	0.058	0.113
-572.690	-47.026	-0.093	0.046
-571.675	257.368	-0.181	-0.317
-570.661	-43.722	0.176	-0.090
-569.646	-8.075	0.174	-0.119
-568.631	58.565	-0.088	-0.088
-567.617	800.000	0.125	-0.363
-566.602	309.973	-0.156	0.297
-565.588	412.124	-0.044	-0.095
-564.573	-16.992	0.263	-0.169
-563.558	-73.318	0.092	-0.034
-562.544	-200.000	-0.023	0.352
-561.529	800.000	0.087	0.263
-560.515	614.597	-0.163	0.415
-559.500	396.348	-0.109	-0.231
-558.485	-138.374	0.159	0.018
-557.471	-77.291	0.271	0.096
-556.456	-64.141	0.183	-0.076
-555.442	-148.814	0.374	0.031
-554.427	-77.234	0.201	0.071
-553.412	-94.287	-0.503	-0.140
-552.398	173.355	-0.042	0.062
-551.383	-200.000	-0.032	-0.173
-550.369	260.530	0.077	0.135
-549.354	33.667	0.174	0.153
-548.339	-80.080	0.184	-0.063
-547.325	170.586	-0.201	-0.292
-546.310	747.102	0.075	-0.206
-545.296	-200.000	-0.008	-0.161
-544.281	-200.000	-0.022	-0.115
-543.266	368.583	-0.191	0.392
-542.252	-33.189	0.160	0.090
-541.237	324.493	0.103	-0.199
-540.223	-150.096	-0.222	0.018
-539.208	-35.262	-0.129	0.071
-538.193	800.000	0.008	-0.027
-537.179	-25.938	-0.526	-0.315
-536.164	143.642	0.024	-0.032
-535.150	-200.000	0.023	-0.283
-534.135	-200.000	0.012	0.303
-533.121	800.000	0.063	-0.265
-532.106	147.263	-0.155	0.212
-531.091	125.540	-0.193	0.247
-530.077	82.911	-0.220	0.242
-529.062	80.587	0.172	0.188
-528.048	800.000	0.119	0.402
-527.033	-200.000	0.002	0.099
-526.018	120.273	0.179	0.225
-525.004	241.177	-0.067	-0.113
-523.989	121.140	0.262	0.331
-522.975	516.225	-0.058	0.137
-521.960	-70.246	-0.017	0.006
-520.945	-81.416	-0.323	0.108
-519.931	-88.173	-0.324	0.098
-518.916	-10.002	-0.082	0.055
-517.902	-59.146	0.171	-0.075
-516.887	10.113	0.043	0.033
-515.872	-200.000	-0.035	-0.224
-514.858	179.366	-0.028	-0.042
-513.843	-36.880	0.140	-0.076
-512.829	800.000	-0.104	0.320
-511.814	800.000	-0.074	-0.314
-510.799	800.000	-0.077	-0.268
-509.785	-76.255	-0.091	-0.032
-508.770	-17.558	0.346	0.221
-507.756	-123.246	-0.289	-0.047
-506.741	-78.839	-0.201	-0.070
-505.726	-200.000	0.009	0.296
-504.712	-102.317	0.145	-0.035
-503.697	647.498	-0.066	0.172
-502.683	-195.031	0.185	0.001
-501.668	-162.351	0.123	-0.006
-500.653	-182.888	0.247	-0.004
-499.639	-92.151	-0.404	-0.116
-498.624	179.970	-0.052	0.078
-497.610	800.000	0.058	-0.219
-496.595	448.680	0.083	-0.186
-495.581	-179.764	-0.249	-0.005
-494.566	-5.865	-0.299	-0.207
-493.551	48.106	-0.049	-0.047
-492.537	9.876	-0.147	0.113
-491.522	-41.506	0.101	-0.052
-490.508	12.934	0.252	-0.197
-489.493	-85.486	-0.181	0.057
-488.478	-200.000	-0.073	0.343
-487.464	35.128	-0.080	0.071
-486.449	433.882	0.126	-0.277
-485.435	83.232	-0.066	-0.072
-484.420	-200.000	0.004	-0.075
-483.405	104.951	0.114	-0.137
-482.391	453.916	0.067	0.150
-481.376	-68.808	-0.247	-0.097
-480.362	-118.639	0.121	-0.022
-479.347	-200.000	0.016	-0.149
-478.332	253.632	-0.140	-0.242
-477.318	-182.957	0.084	0.002
-476.303	414.484	-0.098	-0.211
-475.289	-200.000	0.039	0.177
-474.274	-41.073	-0.152	0.080
-473.259	-129.454	-0.364	-0.051
-472.245	214.222	0.156	-0.251
-471.230	-137.817	0.363	-0.041
-470.216	-105.703	-0.033	0.008
-469.201	-37.079	0.156	-0.085
-468.186	-89.330	0.084	-0.025
-467.172	-200.000	0.050	-0.637
-466.157	-144.418	-0.626	-0.059
-465.143	735.876	-0.050	-0.135
-464.128	-200.000	0.002	-0.057
-463.113	-51.932	-0.284	-0.134
-462.099	75.908	-0.240	0.257
-461.084	-32.781	-0.460	-0.259
-460.070	-79.140	0.141	-0.049
-459.055	-200.000	-0.051	-0.330
-458.040	-93.704	-0.316	-0.088
-457.026	92.231	0.172	0.196
-456.011	-64.793	-0.136	-0.056
-454.997	46.264	0.050	-0.047
-453.982	673.513	-0.069	-0.181
-452.968	-122.230	-0.321	-0.053
-451.953	-31.490	0.238	-0.136
-450.938	800.000	0.036	-0.110
-449.924	-53.546	-0.135	0.062
-448.909	-200.000	-0.016	-0.077
-447.895	-24.032	0.249	0.151
-446.880	-126.315	-0.259	-0.039
-445.865	-43.164	-0.202	-0.103
-444.851	-110.841	0.318	0.066
-443.836	-200.000	0.060	-0.377
-442.822	-200.000	0.043	-0.214
-441.807	800.000	0.086	0.326
-440.792	391.304	-0.061	0.128
-439.778	-114.772	0.353	0.068
-438.763	14.724	-0.288	-0.228
-437.749	-80.998	-0.121	-0.041
-436.734	241.617	0.062	0.105
-435.719	165.231	0.125	-0.178
-434.705	182.462	0.140	-0.209
-433.690	-200.000	0.031	0.300
-432.676	-200.000	-0.021	0.160
-431.661	79.866	-0.116	0.126
-430.646	95.891	0.195	0.225
-429.632	-47.982	-0.137	-0.067
-428.617	-80.326	-0.046	-0.016
-427.603	-21.872	0.282	0.174
-426.588	-200.000	-0.011	-0.066
-425.573	67.294	0.142	-0.147
-424.559	-51.038	0.116	0.055
-423.544	-48.944	-0.135	0.065
-422.530	-124.127	0.192	0.030
-421.515	-13.767	0.217	-0.142
-420.500	-13.949	-0.306	0.200
-419.486	-79.693	-0.184	-0.063
-418.471	-124.491	-0.262	-0.041
-417.457	-103.125	-0.132	-0.032
-416.442	-200.000	-0.098	-0.474
-415.428	56.254	0.120	0.117
-414.413	-7.375	-0.168	0.115
-413.398	19.029	-0.147	-0.119
-412.384	135.372	-0.118	0.155
-411.369	800.000	-0.024	-0.084
-410.355	800.000	-0.046	0.174
-409.340	-200.000	0.092	-0.461
-408.325	53.227	0.141	-0.137
-407.311	34.073	-0.197	-0.174
-406.296	343.067	0.235	0.464
-405.282	32.293	-0.238	-0.207
-404.267	800.000	0.047	0.182
-403.252	-200.000	-0.024	0.346
-402.238	777.569	0.065	0.178
-401.223	800.000	0.070	-0.288
-400.209	496.762	-0.057	-0.132
-399.194	-101.261	-0.082	0.020
-398.179	-90.837	0.098	-0.029
-397.165	-49.645	0.140	-0.067
-396.150	-10.822	0.239	0.160
-395.136	128.424	0.226	-0.290
-394.121	60.435	-0.074	-0.074
-393.106	-142.864	0.378	0.037
-392.092	-200.000	-0.052	-0.228
-391.077	-125.645	0.225	-0.034
-390.063	-200.000	0.062	-0.292
-389.048	-200.000	0.010	0.367
-388.033	248.977	0.114	0.196
-387.019	-200.000	0.005	0.309
-386.004	-200.000	-0.010	-0.195
-384.990	-200.000	0.069	0.315
-383.975	800.000	0.032	0.128
-382.960	-122.873	-0.114	-0.019
-381.946	-94.394	-0.206	-0.057
-380.931	-200.000	-0.019	0.084
-379.917	164.748	-0.197	0.281
-378.902	177.295	0.014	0.021
-377.888	-200.000	-0.048	0.234
-376.873	206.386	-0.093	-0.146
-375.858	414.498	0.087	0.187
-374.844	630.309	-0.087	0.221
-373.829	-56.290	0.264	0.119
-372.815	-2.778	-0.088	0.062
-371.800	188.844	-0.212	-0.320
-370.785	695.386	0.071	-0.188
-369.771	159.075	0.097	0.135
-368.756	-146.186	0.171	-0.015
-367.742	-106.022	0.112	-0.025
-366.727	-88.580	0.272	-0.082
-365.712	-121.347	-0.141	0.024
-364.698	-147.720	-0.287	0.024
-363.683	143.227	0.161	0.216
-362.669	253.788	0.098	-0.170
-361.654	-200.000	0.044	-0.223
-360.639	-68.333	-0.355	-0.139
-359.625	-93.477	0.159	0.044
-358.610	-74.090	-0.014	0.005
-357.596	-200.000	0.014	0.131
-356.581	-44.331	0.387	0.195
-355.566	-59.575	-0.275	-0.119
-354.552	800.000	0.070	0.265
-353.537	703.537	-0.088	0.233
-352.523	-83.277	-0.487	0.157
-351.508	53.870	0.082	0.079
-350.493	-13.825	0.194	0.126
-349.479	65.139	-0.232	-0.236
-348.464	-88.058	0.158	0.048
-347.450	-200.000	0.007	0.100
-346.435	-200.000	-0.027	0.178
-345.420	-132.777	0.225	0.029
-344.406	220.544	0.125	-0.203
-343.391	-101.172	0.103	0.025
-342.377	-200.000	-0.040	0.326
-341.362	-66.560	0.194	-0.078
-340.348	44.131	0.075	-0.069
-339.333	125.096	0.136	-0.173
-338.318	432.365	-0.050	-0.109
-337.304	-99.909	0.099	-0.025
-336.289	258.169	-0.012	-0.021
-335.275	800.000	-0.072	0.248
-334.260	28.790	0.301	0.256
-333.245	-81.898	0.206	0.068
-332.231	-48.066	0.117	-0.057
-331.216	-15.132	-0.094	0.061
-330.202	-200.000	-0.010	0.137
-329.187	-45.947	-0.127	0.063
-328.172	-95.650	0.186	-0.050
-327.158	-63.329	-0.314	0.130
-326.143	-200.000	-0.047	0.396
-325.129	-9.721	-0.268	-0.180
-324.114	91.310	-0.114	0.129
-323.099	242.090	0.043	0.073
-322.085	-18.971	-0.299	-0.187
-321.070	800.000	-0.011	0.042
-320.056	255.162	0.048	0.082
-319.041	800.000	0.025	0.079
-318.026	-92.955	-0.165	-0.046
-317.012	322.359	0.039	-0.074
-315.997	800.000	-0.047	0.174
-314.983	320.668	0.227	0.434
-313.968	-200.000	0.008	0.185
-312.953	-76.473	-0.139	-0.049
-311.939	-62.310	0.246	-0.103
-310.924	145.998	0.082	0.111
-309.910	-40.571	-0.163	-0.085
-308.895	380.889	0.146	-0.302
-307.880	-200.000	-0.041	0.247
-306.866	-200.000	-0.007	-0.097
-305.851	57.152	-0.334	0.328
-304.837	-200.000	-0.055	0.421
-303.822	96.159	-0.253	0.291
-302.807	-40.904	0.186	-0.097
-301.793	633.482	-0.044	0.112
-300.778	310.330	-0.029	0.055
-299.764	-73.389	-0.170	-0.063
-298.749	141.601	0.049	0.066
-297.735	800.000	0.060	-0.236
-296.720	2.946	0.064	-0.047
-295.705	118.325	0.027	0.034
-294.691	-115.505	0.222	-0.042
-293.676	-200.000	0.019	-0.191
-292.662	800.000	0.139	0.399
-291.647	457.807	0.048	-0.107
-290.632	-200.000	0.013	-0.232
-289.618	-163.850	-0.121	-0.006
-288.603	143.276	0.164	0.219
-287.589	127.918	0.087	-0.111
-286.574	-153.986	-0.197	-0.013
-285.559	0.521	0.165	0.118
-284.545	-106.950	-0.150	0.033
-283.530	76.344	0.094	0.100
-282.516	8.210	0.370	-0.279
-281.501	-91.863	0.352	-0.100
-280.486	-200.000	0.030	0.242
-279.472	-200.000	0.032	0.229
-278.457	800.000	-0.060	0.212
-277.443	-200.000	0.073	0.343
-276.428	-200.000	-0.014	0.096
-275.413	-200.000	-0.021	0.156
-274.399	-200.000	0.019	0.190
-273.384	129.341	0.247	0.317
-272.370	0.501	0.085	0.061
-271.355	53.807	0.187	-0.181
-270.340	55.438	-0.241	-0.235
-269.326	200.331	-0.099	0.153
-268.311	261.417	0.026	-0.045
-267.297	114.507	0.141	0.173
-266.282	-200.000	-0.045	-0.303
-265.267	276.821	0.094	0.167
-264.253	526.680	0.101	-0.239
-263.238	-70.519	0.194	-0.074
-262.224	-80.550	0.194	0.065
-261.209	102.352	-0.109	-0.128
-260.195	95.629	-0.055	0.063
-259.180	27.409	0.047	0.039
-258.165	337.293	0.065	0.127
-257.151	-144.841	-0.127	0.012
-256.136	58.587	0.098	0.097
-255.122	-68.993	0.363	0.141
-254.107	126.148	-0.140	0.178
-253.092	-51.150	0.176	-0.083
-252.078	-200.000	-0.002	-0.014
-251.063	201.597	0.181	0.280
-250.049	124.209	0.175	-0.221
-249.034	218.891	-0.160	-0.257
-248.019	-132.179	-0.265	0.034
-247.005	-96.513	-0.140	0.037
-245.990	-10.591	-0.105	-0.070
-244.976	152.071	0.068	0.094
-243.961	-63.523	0.035	-0.014
-242.946	-200.000	0.010	0.155
-241.932	-200.000	0.073	0.562
-240.917	161.021	-0.077	0.108
-239.903	430.428	-0.183	-0.397
-238.888	-103.105	-0.290	0.069
-237.873	-173.186	0.378	0.012
-236.859	-177.805	-0.440	0.011
-235.844	-47.118	0.410	0.201
-234.830	-129.845	-0.075	-0.010
-233.815	167.462	-0.112	-0.159
-232.800	31.498	0.176	-0.151
-231.786	31.918	0.173	-0.150
-230.771	-103.425	0.223	-0.053
-229.757	32.176	-0.038	0.033
-228.742	170.705	-0.150	0.215
-227.727	-14.848	-0.286	-0.184
-226.713	-18.615	-0.059	0.037
-225.698	-78.479	-0.217	-0.075
-224.684	95.002	0.193	-0.220
-223.669	108.925	-0.237	0.284
-222.655	-64.947	-0.148	0.060
-221.640	800.000	-0.072	0.209
-220.625	102.295	0.138	-0.162
-219.611	-200.000	0.013	-0.225
-218.596	-200.000	-0.022	0.343
-217.582	-38.139	0.163	0.087
-216.567	286.038	0.129	-0.232
-215.552	-106.878	-0.298	-0.066
-214.538	106.034	-0.048	-0.057
-213.523	-4.922	0.108	0.075
-212.509	412.057	-0.116	0.246
-211.494	-77.570	0.254	-0.088
-210.479	-200.000	0.009	-0.248
-209.465	-1.127	0.215	-0.152
-208.450	-200.000	-0.008	-0.329
-207.436	687.704	-0.026	-0.069
-206.421	-150.351	0.239	-0.018
-205.406	-200.000	-0.066	-0.323
-204.392	-200.000	0.033	-0.207
-203.377	-144.664	-0.209	-0.019
-202.363	-200.000	0.057	0.510
-201.348	213.342	0.101	-0.159
-200.333	-110.108	-0.232	0.049
-199.319	-144.566	0.302	0.028
-198.304	571.183	-0.065	0.158
-197.290	800.000	0.158	0.591
-196.275	-82.015	0.159	-0.052
-195.260	-200.000	0.000	0.074
-194.246	-53.916	-0.223	-0.102
-193.231	-118.865	-0.341	-0.060
-192.217	800.000	0.044	-0.165
-191.202	-85.698	0.454	-0.141
-190.187	-141.163	-0.135	-0.014
-189.173	6.003	0.113	0.084
-188.158	-76.079	-0.106	0.038
-187.144	-200.000	0.030	0.142
-186.129	697.414	-0.041	-0.108
-185.114	-197.708	0.092	-0.001
-184.100	-130.520	0.240	0.032
-183.085	190.087	0.032	-0.048
-182.071	-200.000	0.006	-0.174
-181.056	258.990	0.143	-0.247
-180.042	189.607	-0.061	0.092
-179.027	121.260	0.266	-0.332
-178.012	15.784	-0.108	0.085
-176.998	-68.678	0.404	0.156
-175.983	-200.000	-0.005	0.199
-174.969	-109.830	-0.199	-0.042
-173.954	395.915	-0.129	0.270
-172.939	-200.000	-0.011	0.065
-171.925	-200.000	-0.011	-0.198
-170.910	154.008	0.202	-0.277
-169.896	-55.600	0.144	-0.065
-168.881	745.460	0.038	0.102
-167.866	7.532	-0.207	0.155
-166.852	10.517	0.062	0.047
-165.837	-200.000	-0.009	0.057
-164.823	-200.000	-0.044	-0.274
-163.808	-200.000	0.019	0.279
-162.793	537.605	0.079	-0.187
-161.779	110.297	-0.069	-0.082
-160.764	-170.430	-0.160	-0.006
-159.750	-200.000	0.026	-0.188
-158.735	-66.465	-0.026	-0.010
-157.720	-62.535	0.092	0.038
-156.706	-200.000	-0.040	0.372
-155.691	800.000	0.044	0.185
-154.677	-8.224	-0.191	0.129
-153.662	538.617	-0.104	-0.247
-152.647	674.305	0.053	0.137
-151.633	800.000	0.055	0.180
-150.618	-119.027	0.234	-0.041
-149.604	-73.154	0.275	-0.101
-148.589	-131.294	0.380	-0.050
-147.574	-40.653	-0.130	0.068
-146.560	-109.640	0.113	0.024
-145.545	15.015	0.150	-0.117
-144.531	158.668	0.083	-0.115
-143.516	154.950	-0.213	-0.292
-142.502	-200.000	0.008	-0.443
-141.487	-200.000	-0.006	-0.113
-140.472	800.000	0.086	0.359
-139.458	522.209	0.159	0.373
-138.443	-28.089	-0.012	-0.007
-137.429	92.540	-0.123	0.139
-136.414	43.715	0.320	0.293
-135.399	-108.643	0.101	-0.022
-134.385	-59.282	0.098	0.042
-133.370	456.316	-0.064	-0.142
-132.356	-200.000	-0.066	-0.424
-131.341	104.811	-0.096	0.113
-130.326	168.420	0.174	-0.247
-129.312	800.000	0.121	-0.460
-128.297	75.073	0.194	-0.205
-127.283	800.000	-0.049	-0.163
-126.268	-35.242	-0.164	-0.089
-125.253	176.996	-0.097	0.141
-124.239	220.760	0.121	-0.194
-123.224	-21.609	0.288	-0.175
