DTS Sentinel unit serial number:	SN413079Multiplexer serial number:	ORYXHardware model number:	OX4-SRSoftware version number:	ORYX F/W v4.00 Oryx Data Collector v3.7.2.0data status	okinstallation	princeton_trtdifferential loss correction	single-endedforward channel	channel 3reverse channel	N/Adate	2019/09/13time	21:48:35forward acquisition time	60.00reverse acquisition time	0.00gamma	496.2192k internal	0.2335k external	0.2335temperature offset calibration	1.0055default loss term (dB/km)	0.3790temperature slope calibration	1.0000multiplexer offset coefficient	1.0000multiplexer slope coefficient	1.0000fibre end	0.00T internal ref (°C)	28.11T ext. ref 1 (°C)	3.10T ext. ref 2 (°C)	22.71length (m)	temperature (°C)	Stokes	anti-Stokes-747.200	-71.784	0.387	0.145
-746.185	-22.219	-0.061	0.037
-745.171	228.156	-0.117	-0.191
-744.156	-139.283	-0.128	0.014
-743.142	-51.699	-0.082	0.038
-742.127	-76.766	-0.424	-0.149
-741.112	-157.214	0.300	0.018
-740.098	-20.772	0.324	0.200
-739.083	800.000	-0.043	0.158
-738.069	29.611	-0.317	0.271
-737.054	-200.000	-0.014	0.383
-736.039	15.178	-0.165	0.130
-735.025	153.229	0.272	0.373
-734.010	-95.324	-0.147	0.040
-732.996	800.000	0.111	0.390
-731.981	-133.394	0.076	0.010
-730.966	-86.680	-0.219	0.067
-729.952	442.091	0.224	0.493
-728.937	-137.142	-0.156	-0.018
-727.923	73.262	-0.323	0.339
-726.908	510.215	-0.071	0.165
-725.894	37.517	-0.040	0.035
-724.879	154.630	0.121	0.167
-723.864	160.366	-0.172	-0.241
-722.850	132.167	0.113	0.146
-721.835	42.104	0.015	-0.014
-720.821	-27.427	0.247	0.144
-719.806	-148.789	0.444	0.036
-718.791	-17.663	-0.252	-0.159
-717.777	483.888	-0.075	-0.172
-716.762	-46.449	0.336	0.165
-715.748	62.340	0.146	0.147
-714.733	248.562	0.108	0.183
-713.718	-132.651	0.253	-0.033
-712.704	-200.000	-0.070	0.350
-711.689	679.018	0.071	-0.186
-710.675	-82.171	0.121	0.040
-709.660	443.732	-0.082	-0.179
-708.645	-187.166	-0.113	0.002
-707.631	-68.602	-0.128	0.050
-706.616	-200.000	0.016	-0.157
-705.602	-153.994	0.242	-0.017
-704.587	-97.803	0.105	-0.027
-703.572	-44.340	0.016	0.008
-702.558	8.266	-0.257	-0.194
-701.543	379.639	-0.167	-0.342
-700.529	-104.416	-0.175	0.041
-699.514	-110.116	-0.212	0.044
-698.499	-82.107	-0.196	-0.064
-697.485	-200.000	-0.046	0.372
-696.470	-50.834	-0.300	0.141
-695.456	-20.769	0.069	0.042
-694.441	-1.257	0.069	-0.049
-693.426	-200.000	0.021	-0.129
-692.412	-200.000	0.023	-0.335
-691.397	800.000	0.060	-0.172
-690.383	-140.700	-0.181	-0.019
-689.368	-200.000	-0.014	0.063
-688.354	-200.000	0.114	-0.000
-687.339	46.648	0.227	0.212
-686.324	-147.086	-0.312	-0.027
-685.310	-119.895	0.201	-0.035
-684.295	609.979	-0.134	-0.335
-683.281	-75.495	-0.145	-0.052
-682.266	243.254	-0.131	0.220
-681.251	-162.380	-0.213	0.011
-680.237	514.525	-0.054	-0.126
-679.222	-170.743	-0.427	-0.015
-678.208	-200.000	0.037	0.243
-677.193	-200.000	0.031	0.278
-676.178	0.586	-0.307	0.220
-675.164	134.031	-0.126	-0.164
-674.149	212.711	0.156	-0.247
-673.135	-108.096	-0.150	-0.033
-672.120	620.149	0.085	-0.214
-671.105	250.794	-0.133	0.226
-670.091	-114.095	-0.257	-0.050
-669.076	95.077	0.080	-0.091
-668.062	-92.516	0.218	-0.061
-667.047	800.000	0.123	-0.459
-666.032	-48.675	-0.089	-0.043
-665.018	721.241	-0.097	-0.259
-664.003	-200.000	-0.020	0.221
-662.989	-39.094	0.431	0.227
-661.974	-41.361	0.258	0.133
-660.959	37.463	0.328	-0.291
-659.945	-200.000	0.001	0.022
-658.930	800.000	-0.032	0.098
-657.916	-168.999	-0.541	-0.020
-656.901	484.063	0.107	-0.243
-655.886	-126.064	-0.439	0.066
-654.872	94.480	-0.052	0.059
-653.857	-75.483	0.163	-0.058
-652.843	-64.261	-0.178	0.072
-651.828	229.050	0.189	-0.308
-650.814	-164.331	0.386	0.018
-649.799	-126.831	-0.059	0.009
-648.784	-147.958	0.156	-0.013
-647.770	449.251	-0.099	0.219
-646.755	587.147	-0.111	0.273
-645.741	134.361	-0.077	0.100
-644.726	800.000	0.028	-0.093
-643.711	-76.715	0.120	-0.042
-642.697	-31.618	-0.178	-0.100
-641.682	435.380	0.070	-0.153
-640.668	-200.000	-0.018	-0.266
-639.653	800.000	0.008	0.031
-638.638	-200.000	-0.109	-0.000
-637.624	1.391	-0.107	0.077
-636.609	-173.216	-0.410	0.013
-635.595	-145.973	-0.292	-0.026
-634.580	-43.766	0.216	0.109
-633.565	-85.515	-0.196	-0.061
-632.551	-128.640	0.087	-0.012
-631.536	-13.145	-0.097	-0.063
-630.522	-200.000	-0.022	0.363
-629.507	-200.000	-0.028	-0.179
-628.492	55.911	0.124	-0.120
-627.478	-177.158	-0.092	0.002
-626.463	-200.000	0.033	0.366
-625.449	-51.040	-0.178	0.084
-624.434	732.746	-0.115	0.307
-623.419	251.264	0.139	0.237
-622.405	-200.000	-0.090	-0.579
-621.390	98.862	-0.119	-0.137
-620.376	347.486	-0.185	-0.365
-619.361	219.188	-0.244	-0.390
-618.346	-200.000	-0.002	0.044
-617.332	-2.080	-0.166	0.117
-616.317	-200.000	-0.007	0.104
-615.303	330.470	-0.211	0.406
-614.288	40.105	-0.107	0.096
-613.273	87.853	-0.114	-0.126
-612.259	496.650	0.110	0.254
-611.244	10.989	-0.154	0.118
-610.230	-27.482	-0.285	-0.165
-609.215	-200.000	-0.038	0.266
-608.201	800.000	-0.041	-0.148
-607.186	85.916	-0.184	0.203
-606.171	-132.684	-0.131	0.017
-605.157	-150.744	-0.137	0.010
-604.142	-23.227	0.123	-0.074
-603.128	54.040	0.178	-0.171
-602.113	46.853	-0.200	-0.186
-601.098	76.621	0.065	-0.069
-600.084	82.734	0.075	-0.081
-599.069	365.203	0.106	-0.213
-598.055	41.320	0.211	0.190
-597.040	-45.634	-0.023	0.011
-596.025	-16.447	-0.102	0.065
-595.011	196.768	0.127	-0.194
-593.996	-94.157	-0.170	-0.046
-592.982	487.422	0.135	0.307
-591.967	77.312	-0.135	0.144
-590.952	-200.000	-0.016	0.130
-589.938	800.000	0.026	-0.095
-588.923	-200.000	0.015	-0.096
-587.909	683.266	0.051	0.133
-586.894	-200.000	-0.022	-0.113
-585.879	-200.000	-0.029	0.287
-584.865	-200.000	-0.007	-0.059
-583.850	-93.593	0.452	0.125
-582.836	196.721	-0.055	-0.084
-581.821	-200.000	0.075	-0.434
-580.806	-125.220	-0.396	0.061
-579.792	-74.881	0.230	-0.082
-578.777	143.478	-0.099	-0.132
-577.763	-135.497	0.194	-0.023
-576.748	-112.337	0.152	-0.030
-575.733	-75.201	-0.098	-0.035
-574.719	243.943	-0.021	-0.035
-573.704	301.642	0.099	0.182
-572.690	-49.605	-0.068	0.032
-571.675	-200.000	-0.018	-0.119
-570.661	-35.256	-0.207	-0.112
-569.646	481.743	0.192	0.435
-568.631	-48.444	0.142	-0.068
-567.617	734.643	-0.048	-0.129
-566.602	-45.801	0.288	-0.142
-565.588	2.954	0.166	0.121
-564.573	-79.337	-0.235	0.079
-563.558	618.642	-0.059	-0.147
-562.544	46.113	-0.265	-0.245
-561.529	-126.236	-0.190	-0.028
-560.515	-82.408	-0.186	0.060
-559.500	-57.726	-0.421	0.184
-558.485	95.920	0.193	-0.220
-557.471	-6.838	-0.104	-0.071
-556.456	-132.937	0.136	-0.017
-555.442	-200.000	-0.014	-0.289
-554.427	800.000	-0.062	0.244
-553.412	-200.000	-0.016	-0.248
-552.398	390.414	-0.119	0.246
-551.383	288.140	-0.052	-0.093
-550.369	5.699	0.136	-0.101
-549.354	-200.000	-0.036	-0.290
-548.339	-200.000	0.047	-0.313
-547.325	434.292	0.050	-0.109
-546.310	-102.266	-0.391	0.094
-545.296	800.000	-0.068	-0.243
-544.281	333.346	0.148	-0.285
-543.266	14.800	0.167	0.130
-542.252	244.504	0.295	-0.494
-541.237	11.076	-0.149	-0.114
-540.223	-132.807	-0.121	0.015
-539.208	-65.367	0.300	-0.120
-538.193	-200.000	0.049	-0.304
-537.179	800.000	0.057	0.157
-536.164	138.531	0.138	0.180
-535.150	486.852	-0.055	0.125
-534.135	-200.000	0.033	0.205
-533.121	345.407	-0.083	0.163
-532.106	-142.744	-0.036	-0.003
-531.091	17.091	-0.232	0.183
-530.077	137.431	0.193	-0.251
-529.062	-200.000	0.007	-0.248
-528.048	-200.000	0.026	0.154
-527.033	-200.000	0.007	-0.054
-526.018	-105.776	0.154	-0.035
-525.004	122.790	0.066	-0.082
-523.989	-53.797	-0.282	0.128
-522.975	-110.600	0.410	-0.084
-521.960	-177.107	-0.134	0.003
-520.945	-122.680	0.094	-0.015
-519.931	-200.000	0.057	-0.260
-518.916	-200.000	-0.003	-0.363
-517.902	326.577	0.031	0.060
-516.887	582.311	-0.088	0.214
-515.872	-87.299	0.448	0.135
-514.858	299.590	0.126	0.231
-513.843	530.954	-0.200	-0.472
-512.829	334.011	-0.111	-0.214
-511.814	-17.684	0.279	-0.174
-510.799	-153.683	0.423	0.029
-509.785	267.973	0.073	0.128
-508.770	150.817	-0.069	0.093
-507.756	10.848	0.168	-0.128
-506.741	249.488	0.087	0.146
-505.726	800.000	0.077	-0.280
-504.712	-99.998	0.147	0.036
-503.697	359.971	0.004	-0.008
-502.683	800.000	-0.083	0.291
-501.668	581.398	0.080	0.194
-500.653	-64.609	-0.125	0.050
-499.639	-200.000	-0.004	0.521
-498.624	-72.142	0.099	-0.037
-497.610	-102.707	0.447	0.106
-496.595	-159.286	-0.169	-0.009
-495.581	-200.000	0.022	0.139
-494.566	-65.843	-0.195	-0.078
-493.551	-23.328	0.118	0.071
-492.537	656.888	0.045	-0.116
-491.522	-200.000	-0.060	-0.281
-490.508	800.000	-0.059	0.211
-489.493	-41.473	0.085	-0.044
-488.478	-200.000	-0.016	-0.156
-487.464	303.110	-0.061	0.112
-486.449	37.144	0.213	0.187
-485.435	-116.665	-0.344	0.063
-484.420	800.000	0.059	-0.197
-483.405	-95.837	-0.196	-0.052
-482.391	-200.000	-0.029	0.141
-481.376	-152.588	0.107	0.008
-480.362	13.481	0.195	0.150
-479.347	1.027	-0.395	-0.282
-478.332	-40.607	0.134	-0.069
-477.318	-27.253	0.181	-0.105
-476.303	-18.886	-0.244	-0.151
-475.289	47.040	-0.174	-0.161
-474.274	232.536	0.158	-0.258
-473.259	130.245	-0.163	-0.207
-472.245	-93.421	-0.171	-0.047
-471.230	800.000	-0.016	-0.068
-470.216	-123.174	0.155	-0.025
-469.201	497.845	0.049	0.112
-468.186	800.000	0.022	0.078
-467.172	-59.357	0.134	-0.057
-466.157	74.389	-0.223	-0.232
-465.143	15.316	-0.240	0.188
-464.128	-69.007	-0.167	0.064
-463.113	-40.432	-0.092	0.047
-462.099	-14.431	0.336	-0.215
-461.084	-200.000	-0.047	-0.490
-460.070	-57.344	-0.232	0.101
-459.055	-21.932	0.212	0.128
-458.040	-200.000	-0.017	0.152
-457.026	800.000	-0.094	0.303
-456.011	55.275	0.030	0.029
-454.997	285.691	0.211	0.378
-453.982	-200.000	-0.009	-0.072
-452.968	-144.631	0.062	0.006
-451.953	-200.000	-0.010	-0.069
-450.938	-200.000	-0.043	-0.228
-449.924	-200.000	0.044	-0.233
-448.909	-200.000	0.026	0.232
-447.895	669.444	0.067	-0.172
-446.880	800.000	-0.064	-0.237
-445.865	-200.000	0.044	0.380
-444.851	-8.493	-0.404	0.270
-443.836	14.187	-0.313	0.242
-442.822	-83.475	0.146	0.046
-441.807	-0.368	0.232	-0.164
-440.792	48.716	0.019	0.018
-439.778	-200.000	0.003	-0.108
-438.763	-200.000	0.008	0.381
-437.749	800.000	-0.061	0.206
-436.734	-56.287	0.154	0.068
-435.719	333.083	0.176	0.338
-434.705	-75.361	0.135	-0.048
-433.690	-200.000	-0.026	0.161
-432.676	-200.000	-0.003	-0.138
-431.661	-90.047	-0.157	0.045
-430.646	14.108	0.159	-0.123
-429.632	-7.733	-0.180	-0.121
-428.617	-149.045	0.088	0.007
-427.603	-179.572	0.415	-0.009
-426.588	-75.821	-0.228	-0.080
-425.573	-103.025	0.452	0.106
-424.559	161.884	-0.094	0.130
-423.544	-200.000	0.016	-0.274
-422.530	800.000	-0.043	0.153
-421.515	-200.000	-0.053	0.255
-420.500	-200.000	0.069	0.305
-419.486	-200.000	0.031	-0.181
-418.471	471.322	-0.044	0.097
-417.457	-200.000	0.018	0.164
-416.442	-98.264	-0.117	-0.030
-415.428	-73.334	-0.522	-0.189
-414.413	-2.306	-0.171	-0.119
-413.398	21.825	0.233	-0.189
-412.384	-31.409	-0.168	-0.094
-411.369	-120.069	0.178	-0.030
-410.355	42.071	-0.148	0.133
-409.340	-102.642	0.469	0.111
-408.325	800.000	0.068	-0.242
-407.311	-143.495	0.176	-0.017
-406.296	800.000	-0.023	-0.063
-405.282	-200.000	-0.007	-0.119
-404.267	800.000	-0.154	0.453
-403.252	-200.000	0.001	0.367
-402.238	19.786	-0.224	0.179
-401.223	800.000	-0.048	-0.133
-400.209	260.284	0.089	0.152
-399.194	46.897	0.162	-0.150
-398.179	-200.000	-0.048	-0.304
-397.165	77.318	-0.240	-0.253
-396.150	-68.932	0.071	-0.027
-395.136	-200.000	0.023	-0.236
-394.121	800.000	0.030	-0.127
-393.106	194.928	0.047	-0.071
-392.092	-15.218	0.071	0.045
-391.077	264.656	-0.013	0.022
-390.063	-152.568	-0.204	-0.014
-389.048	-42.432	-0.319	0.161
-388.033	0.617	0.282	-0.200
-387.019	-200.000	-0.026	0.147
-386.004	-200.000	0.042	-0.302
-384.990	-200.000	0.015	0.293
-383.975	-114.650	0.552	-0.105
-382.960	-164.208	-0.197	-0.009
-381.946	485.126	-0.046	-0.104
-380.931	-72.725	0.097	-0.035
-379.917	234.217	0.079	0.129
-378.902	-200.000	0.056	0.299
-377.888	-113.306	0.036	-0.007
-376.873	-130.992	0.182	-0.024
-375.858	-55.276	0.105	-0.047
-374.844	-200.000	-0.051	0.436
-373.829	367.567	-0.134	-0.268
-372.815	553.813	0.027	-0.065
-371.800	181.140	0.137	-0.200
-370.785	-200.000	-0.000	-0.055
-369.771	743.868	-0.037	-0.098
-368.756	361.479	0.003	-0.005
-367.742	508.656	0.132	0.304
-366.727	-59.555	0.166	0.070
-365.712	-78.961	0.354	0.119
-364.698	-71.878	0.350	0.129
-363.683	559.023	0.193	0.461
-362.669	-200.000	0.019	0.159
-361.654	-87.283	0.272	-0.082
-360.639	124.047	-0.012	0.015
-359.625	-97.858	-0.475	-0.122
-358.610	-103.812	-0.428	-0.099
-357.596	48.868	-0.105	0.097
-356.581	800.000	-0.112	-0.362
-355.566	450.111	0.131	0.287
-354.552	696.679	-0.051	0.131
-353.537	-200.000	-0.027	0.188
-352.523	359.334	0.030	-0.059
-351.508	-52.876	-0.306	0.140
-350.493	-200.000	-0.003	-0.022
-349.479	-35.699	0.232	-0.124
-348.464	296.258	-0.130	-0.236
-347.450	-200.000	-0.013	-0.221
-346.435	-200.000	-0.020	0.416
-345.420	-200.000	0.063	0.283
-344.406	-67.207	-0.291	0.113
-343.391	172.234	-0.164	0.233
-342.377	161.112	-0.198	-0.274
-341.362	425.289	0.121	-0.257
-340.348	-120.016	-0.208	0.035
-339.333	401.694	0.040	0.082
-338.318	-134.119	-0.160	0.019
-337.304	57.027	-0.141	-0.136
-336.289	-120.829	0.264	-0.044
-335.275	-41.282	-0.474	-0.242
-334.260	62.674	-0.264	-0.261
-333.245	71.825	0.105	0.108
-332.231	-200.000	0.005	-0.065
-331.216	203.039	-0.230	-0.351
-330.202	-114.223	-0.286	0.055
-329.187	800.000	0.023	0.079
-328.172	-53.987	-0.138	0.062
-327.158	-200.000	0.029	0.428
-326.143	195.500	-0.183	0.275
-325.129	-0.015	0.185	-0.130
-324.114	176.119	-0.036	-0.052
-323.099	297.429	0.165	-0.300
-322.085	-95.517	0.114	0.030
-321.070	-86.037	0.113	0.035
-320.056	-65.189	-0.174	-0.069
-319.041	800.000	-0.016	-0.058
-318.026	71.252	-0.070	0.072
-317.012	-70.644	-0.093	0.035
-315.997	289.977	0.199	0.357
-314.983	800.000	0.197	0.593
-313.968	-122.878	0.325	-0.052
-312.953	197.337	0.280	-0.422
-311.939	303.192	-0.311	-0.569
-310.924	800.000	-0.032	-0.121
-309.910	800.000	0.189	-0.538
-308.895	51.801	-0.085	0.080
-307.880	-200.000	0.003	0.054
-306.866	158.583	-0.155	-0.212
-305.851	-44.743	-0.185	-0.091
-304.837	14.814	0.206	-0.159
-303.822	20.840	0.108	-0.086
-302.807	-126.131	-0.417	0.062
-301.793	-39.852	-0.475	0.245
-300.778	800.000	-0.049	0.169
-299.764	1.413	-0.104	0.074
-298.749	-158.946	0.303	-0.017
-297.735	41.837	0.204	0.183
-296.720	-93.108	-0.340	0.093
-295.705	800.000	-0.072	0.199
-294.691	139.531	-0.113	0.146
-293.676	-177.441	0.401	-0.010
-292.662	175.576	0.036	-0.051
-291.647	73.843	-0.113	0.117
-290.632	-99.319	-0.116	0.029
-289.618	109.321	0.268	-0.317
-288.603	504.562	0.121	-0.277
-287.589	623.862	-0.124	-0.308
-286.574	-200.000	0.106	0.522
-285.559	139.458	0.041	0.053
-284.545	-162.046	-0.171	0.009
-283.530	800.000	0.149	0.465
-282.516	-60.692	0.318	0.133
-281.501	572.066	0.050	0.121
-280.486	491.503	-0.072	-0.163
-279.472	-200.000	-0.019	-0.298
-278.457	-83.720	-0.433	0.136
-277.443	-86.452	0.434	0.132
-276.428	-200.000	0.003	0.114
-275.413	252.423	0.087	-0.147
-274.399	-117.550	-0.249	-0.044
-273.384	328.566	-0.122	-0.232
-272.370	-166.653	0.215	0.009
-271.355	260.001	0.128	0.219
-270.340	10.727	-0.251	-0.189
-269.326	23.275	0.120	-0.098
-268.311	-131.162	0.099	0.013
-267.297	72.609	0.267	-0.275
-266.282	-1.373	-0.149	0.104
-265.267	800.000	0.055	-0.234
-264.253	-195.496	0.213	0.002
-263.238	-183.333	0.082	-0.001
-262.224	-127.176	-0.271	0.039
-261.209	-2.163	-0.153	0.106
-260.195	-91.260	0.521	-0.147
-259.180	-23.489	-0.202	0.119
-258.165	-7.988	-0.225	0.150
-257.151	72.828	-0.105	-0.108
-256.136	800.000	-0.041	-0.141
-255.122	125.264	-0.152	-0.189
-254.107	-53.731	0.262	0.118
-253.092	45.928	-0.044	-0.040
-252.078	800.000	0.029	-0.086
-251.063	69.552	0.099	-0.100
-250.049	357.018	0.082	0.162
-249.034	-200.000	-0.019	0.090
-248.019	-112.399	0.283	-0.056
-247.005	302.119	0.123	0.224
-245.990	-76.052	-0.186	-0.065
-244.976	85.949	0.027	-0.029
-243.961	59.064	-0.098	-0.095
-242.946	-71.984	-0.190	0.069
-241.932	-56.941	-0.192	-0.084
-240.917	-200.000	0.010	-0.118
-239.903	-69.239	-0.276	0.105
-238.888	-200.000	-0.072	0.490
-237.873	-72.249	0.135	0.049
-236.859	-66.778	-0.247	0.096
-235.844	-99.743	0.349	-0.086
-234.830	7.482	0.100	0.073
-233.815	187.188	0.149	-0.219
-232.800	143.666	0.134	0.176
-231.786	300.098	0.077	-0.139
-230.771	-119.129	-0.228	0.039
-229.757	-140.388	0.266	-0.027
-228.742	-43.590	-0.133	0.066
-227.727	-200.000	0.048	0.299
-226.713	-200.000	0.019	-0.154
-225.698	-35.991	-0.135	0.072
-224.684	145.344	-0.186	0.245
-223.669	-143.651	-0.239	-0.022
-222.655	-200.000	-0.023	0.158
-221.640	-200.000	-0.002	0.227
-220.625	-98.723	-0.338	-0.085
-219.611	318.271	0.092	-0.171
-218.596	-151.164	0.103	0.008
-217.582	92.363	0.178	0.198
-216.567	-160.115	0.168	-0.009
-215.552	-37.744	0.120	-0.063
-214.538	-200.000	0.007	0.103
-213.523	-36.636	0.105	0.056
-212.509	-128.547	-0.330	0.046
-211.494	1.587	0.318	-0.225
-210.479	800.000	0.066	0.279
-209.465	-85.461	-0.244	0.075
-208.450	-86.942	0.509	0.153
-207.436	390.125	0.073	-0.148
-206.421	-63.205	-0.222	0.090
-205.406	-131.519	0.247	0.032
-204.392	36.433	-0.175	-0.152
-203.377	92.214	0.196	0.217
-202.363	340.241	0.124	0.238
-201.348	-200.000	-0.044	0.240
-200.333	379.007	-0.162	-0.326
-199.319	115.736	-0.178	-0.214
-198.304	-176.394	-0.247	0.006
-197.290	128.132	-0.182	-0.228
-196.275	-39.251	0.362	-0.187
-195.260	-200.000	-0.054	0.234
-194.246	800.000	-0.121	0.360
-193.231	-59.233	0.219	0.093
-192.217	800.000	0.064	-0.209
-191.202	-14.238	0.035	-0.022
-190.187	-55.650	-0.206	-0.091
-189.173	-171.921	0.091	-0.003
-188.158	-172.260	-0.054	0.002
-187.144	-27.882	0.263	0.150
-186.129	-200.000	0.015	-0.264
-185.114	-131.559	0.037	0.005
-184.100	193.243	0.138	-0.206
-183.085	539.839	-0.027	-0.064
-182.071	31.994	-0.159	-0.135
-181.056	-56.583	0.337	0.147
-180.042	47.151	0.242	0.221
-179.027	254.354	0.115	-0.193
-178.012	800.000	-0.068	0.207
-176.998	800.000	-0.035	0.112
-175.983	800.000	-0.116	-0.340
-174.969	-200.000	-0.005	0.104
-173.954	-52.464	0.263	0.120
-172.939	-200.000	0.092	0.564
-171.925	301.286	0.023	0.043
-170.910	315.742	0.179	0.332
-169.896	55.185	0.242	0.230
-168.881	170.572	-0.112	-0.158
-167.866	-91.015	0.134	0.038
-166.852	-200.000	0.033	-0.172
-165.837	254.802	0.041	0.069
-164.823	800.000	0.029	-0.085
-163.808	569.295	0.072	0.171
-162.793	-200.000	-0.025	-0.143
-161.779	800.000	-0.142	-0.389
-160.764	-82.089	-0.253	0.081
-159.750	800.000	0.003	-0.009
-158.735	181.128	0.040	0.057
-157.720	438.737	-0.030	-0.065
-156.706	-13.386	0.155	-0.099
-155.691	-200.000	0.041	0.295
-154.677	-132.854	-0.323	0.040
-153.662	75.678	0.191	-0.198
-152.647	800.000	-0.078	-0.298
-151.633	107.834	0.155	-0.181
-150.618	-91.816	0.021	-0.006
-149.604	-31.037	0.058	-0.032
-148.589	-107.062	0.041	-0.009
-147.574	-200.000	0.036	0.308
-146.560	-200.000	-0.024	-0.179
-145.545	-92.366	0.075	-0.021
-144.531	-200.000	-0.029	0.135
-143.516	307.520	0.117	0.214
-142.502	-89.356	0.128	-0.037
-141.487	-200.000	-0.049	0.221
-140.472	-44.468	0.178	0.088
-139.458	-136.471	0.139	0.016
-138.443	717.592	0.031	0.080
-137.429	-64.504	-0.147	0.059
-136.414	-200.000	-0.009	0.192
-135.399	22.147	0.182	-0.146
-134.385	-159.977	0.303	0.016
-133.370	800.000	-0.047	-0.127
-132.356	-145.018	-0.157	-0.014
-131.341	-54.907	0.116	-0.052
-130.326	800.000	0.109	0.334
-129.312	-200.000	-0.004	0.263
-128.297	12.322	0.158	0.119
-127.283	800.000	0.049	0.174
-126.268	187.946	0.026	-0.037
-125.253	-200.000	0.011	0.394
-124.239	-200.000	0.040	0.376
-123.224	185.581	-0.151	-0.220
-122.210	184.619	0.214	0.311
