DTS Sentinel unit serial number:	SN413079Multiplexer serial number:	ORYXHardware model number:	OX4-SRSoftware version number:	ORYX F/W v4.00 Oryx Data Collector v3.7.2.0data status	okinstallation	princeton_trtdifferential loss correction	single-endedforward channel	channel 3reverse channel	N/Adate	2019/09/19time	13:00:34forward acquisition time	60.00reverse acquisition time	0.00gamma	496.2192k internal	0.2329k external	0.2329temperature offset calibration	0.9992default loss term (dB/km)	0.3790temperature slope calibration	1.0000multiplexer offset coefficient	1.0000multiplexer slope coefficient	1.0000fibre end	0.00T internal ref (°C)	28.64T ext. ref 1 (°C)	0.92T ext. ref 2 (°C)	26.84length (m)	temperature (°C)	Stokes	anti-Stokes-747.200	321.562	-0.041	0.079
-746.185	67.906	0.247	0.254
-745.171	-22.027	0.118	0.072
-744.156	800.000	-0.067	0.223
-743.142	-99.156	-0.314	0.080
-742.127	80.411	-0.220	0.238
-741.112	-117.489	0.053	0.010
-740.098	-141.299	0.340	0.035
-739.083	339.352	0.242	0.475
-738.069	31.258	-0.267	-0.231
-737.054	-200.000	0.035	0.179
-736.039	16.082	-0.113	0.090
-735.025	-42.546	-0.254	0.131
-734.010	-60.977	0.093	-0.040
-732.996	-200.000	-0.004	0.325
-731.981	-191.192	0.181	-0.002
-730.966	-200.000	-0.018	0.363
-729.952	800.000	0.054	0.212
-728.937	-200.000	-0.002	-0.086
-727.923	-165.072	0.107	0.005
-726.908	24.854	-0.191	0.159
-725.894	-87.445	-0.268	-0.082
-724.879	-21.367	0.072	0.044
-723.864	143.240	-0.190	-0.254
-722.850	-200.000	0.011	-0.214
-721.835	79.235	-0.235	-0.253
-720.821	275.573	-0.111	0.198
-719.806	220.570	0.032	-0.051
-718.791	-96.847	0.209	-0.055
-717.777	19.643	0.063	-0.051
-716.762	-43.593	0.025	0.013
-715.748	9.330	0.193	0.147
-714.733	-91.738	-0.151	-0.043
-713.718	-109.411	-0.157	-0.033
-712.704	-43.171	0.020	0.010
-711.689	-38.771	-0.203	0.107
-710.675	-22.253	-0.486	0.297
-709.660	109.879	-0.073	-0.088
-708.645	-99.522	-0.067	-0.017
-707.631	-135.328	0.309	0.037
-706.616	-200.000	0.000	-0.307
-705.602	-50.112	-0.155	0.074
-704.587	-178.020	0.165	0.004
-703.572	-200.000	0.087	-0.395
-702.558	-75.139	-0.136	-0.049
-701.543	-200.000	0.019	-0.121
-700.529	-200.000	0.056	0.535
-699.514	-24.679	0.192	-0.115
-698.499	-11.613	0.104	0.069
-697.485	180.229	0.069	-0.101
-696.470	-117.519	0.214	-0.039
-695.456	-188.005	-0.144	-0.002
-694.441	-99.019	-0.112	0.029
-693.426	120.826	-0.248	-0.310
-692.412	27.850	-0.251	-0.212
-691.397	-21.314	-0.118	0.072
-690.383	-41.707	0.185	-0.096
-689.368	800.000	-0.101	0.436
-688.354	274.144	0.144	0.256
-687.339	235.491	0.072	0.119
-686.324	-200.000	0.034	-0.428
-685.310	15.589	-0.240	0.190
-684.295	800.000	-0.023	-0.088
-683.281	122.821	0.312	0.393
-682.266	800.000	-0.065	0.205
-681.251	571.099	0.065	-0.159
-680.237	-116.476	0.103	-0.019
-679.222	-56.344	0.119	-0.053
-678.208	-74.921	-0.224	-0.081
-677.193	34.061	-0.160	0.140
-676.178	-144.500	0.162	-0.015
-675.164	800.000	0.056	0.200
-674.149	-37.206	0.118	0.064
-673.135	-14.569	0.114	0.073
-672.120	-27.451	-0.097	-0.057
-671.105	102.557	0.073	0.085
-670.091	684.044	0.095	0.250
-669.076	-161.449	-0.225	-0.012
-668.062	800.000	-0.082	-0.254
-667.047	-200.000	-0.002	-0.317
-666.032	109.642	0.157	0.189
-665.018	-200.000	0.012	0.287
-664.003	47.870	-0.105	0.098
-662.989	800.000	-0.057	-0.161
-661.974	-200.000	0.009	-0.237
-660.959	-200.000	0.018	-0.108
-659.945	736.399	-0.106	0.284
-658.930	-99.178	-0.185	-0.047
-657.916	204.178	-0.169	-0.263
-656.901	-93.810	-0.050	0.014
-655.886	206.710	0.085	0.133
-654.872	195.523	0.066	0.101
-653.857	-147.379	-0.357	0.030
-652.843	-200.000	0.018	-0.227
-651.828	-103.231	-0.160	-0.038
-650.814	212.537	0.032	0.051
-649.799	-76.895	-0.114	0.040
-648.784	99.733	-0.101	0.117
-647.770	84.921	0.273	-0.301
-646.755	800.000	-0.036	0.128
-645.741	-66.683	0.155	-0.062
-644.726	-153.803	-0.275	0.019
-643.711	-15.042	0.118	0.076
-642.697	800.000	-0.032	0.090
-641.682	-80.944	0.142	-0.047
-640.668	-117.345	0.259	-0.047
-639.653	0.439	-0.416	-0.298
-638.638	-200.000	0.020	-0.111
-637.624	-89.939	0.206	-0.060
-636.609	579.778	-0.100	-0.245
-635.595	-100.109	-0.126	-0.031
-634.580	70.813	0.048	0.050
-633.565	242.713	-0.148	0.248
-632.551	127.260	0.080	0.102
-631.536	-86.988	0.255	-0.078
-630.522	113.949	0.121	-0.148
-629.507	87.516	0.102	0.114
-628.492	800.000	-0.107	-0.359
-627.478	-134.191	-0.170	0.021
-626.463	-200.000	0.018	0.202
-625.449	102.195	0.106	-0.125
-624.434	-137.469	0.121	0.014
-623.419	-24.456	0.184	-0.110
-622.405	207.347	0.082	-0.128
-621.390	87.667	-0.257	-0.285
-620.376	-56.660	-0.176	0.078
-619.361	119.030	0.010	-0.013
-618.346	335.394	0.072	0.140
-617.332	282.003	-0.200	0.360
-616.317	-116.140	-0.358	-0.067
-615.303	800.000	-0.071	0.267
-614.288	-154.485	-0.397	-0.027
-613.273	-200.000	0.024	0.272
-612.259	-200.000	0.036	0.224
-611.244	209.325	0.133	-0.208
-610.230	-200.000	0.030	-0.257
-609.215	-55.101	0.090	0.041
-608.201	215.332	0.238	-0.379
-607.186	442.889	-0.027	0.059
-606.171	800.000	0.039	0.112
-605.157	4.493	-0.119	0.087
-604.142	-149.426	-0.152	-0.012
-603.128	-153.217	-0.215	0.015
-602.113	-7.042	-0.239	0.163
-601.098	341.713	0.087	0.171
-600.084	456.105	-0.110	-0.245
-599.069	115.481	-0.068	-0.083
-598.055	-116.175	0.188	-0.035
-597.040	163.151	0.126	0.177
-596.025	62.721	-0.145	-0.145
-595.011	186.254	-0.256	-0.382
-593.996	-200.000	0.010	-0.082
-592.982	160.582	-0.037	-0.052
-591.967	91.017	0.197	0.221
-590.952	274.581	0.144	0.256
-589.938	96.234	0.178	0.203
-588.923	-141.459	-0.110	-0.011
-587.909	-100.269	0.316	0.079
-586.894	-125.011	0.129	0.020
-585.879	-81.240	-0.162	-0.054
-584.865	57.154	0.107	0.105
-583.850	-12.680	0.134	0.087
-582.836	-200.000	-0.024	-0.259
-581.821	-68.597	-0.145	-0.056
-580.806	72.985	-0.166	0.173
-579.792	238.927	0.084	0.140
-578.777	726.249	0.105	0.279
-577.763	42.617	0.229	0.209
-576.748	-83.310	0.432	0.139
-575.733	800.000	0.120	-0.342
-574.719	-200.000	0.053	-0.289
-573.704	800.000	-0.039	0.133
-572.690	-124.893	-0.116	0.018
-571.675	-9.363	0.201	0.134
-570.661	-200.000	0.033	-0.472
-569.646	-53.256	-0.210	-0.096
-568.631	-138.280	-0.308	-0.034
-567.617	-81.669	0.495	0.163
-566.602	-69.461	0.085	-0.032
-565.588	54.354	-0.039	0.038
-564.573	800.000	-0.062	-0.260
-563.558	-131.928	-0.083	0.011
-562.544	-36.003	0.502	0.271
-561.529	84.652	-0.071	-0.078
-560.515	-200.000	-0.029	0.356
-559.500	153.099	-0.142	-0.194
-558.485	67.446	-0.250	-0.255
-557.471	-200.000	0.042	-0.188
-556.456	-160.697	-0.029	-0.002
-555.442	800.000	0.103	0.319
-554.427	-48.912	0.013	-0.006
-553.412	-165.613	-0.166	-0.007
-552.398	22.196	0.188	-0.154
-551.383	-41.642	-0.259	0.133
-550.369	91.120	-0.050	-0.056
-549.354	66.697	-0.126	-0.128
-548.339	261.290	-0.172	0.298
-547.325	-138.839	-0.205	0.022
-546.310	97.504	-0.013	0.015
-545.296	-6.192	0.150	0.102
-544.281	9.040	0.065	-0.049
-543.266	-128.534	0.215	0.030
-542.252	-110.002	-0.303	0.063
-541.237	-34.904	0.132	0.072
-540.223	-69.253	-0.170	0.065
-539.208	800.000	-0.020	0.078
-538.193	-23.167	0.187	-0.113
-537.179	34.075	-0.149	-0.129
-536.164	800.000	0.074	0.210
-535.150	74.432	-0.060	0.063
-534.135	-119.199	0.041	0.007
-533.121	-25.426	0.349	-0.206
-532.106	-119.733	-0.186	0.032
-531.091	204.084	-0.029	0.045
-530.077	-200.000	0.007	0.055
-529.062	167.380	0.093	0.132
-528.048	800.000	-0.107	-0.336
-527.033	-200.000	-0.049	-0.491
-526.018	-42.528	-0.130	0.066
-525.004	-22.381	0.074	-0.045
-523.989	-200.000	-0.005	-0.114
-522.975	-200.000	0.090	-0.432
-521.960	135.988	-0.077	0.100
-520.945	143.118	0.094	0.125
-519.931	800.000	-0.025	0.105
-518.916	-101.641	0.289	0.070
-517.902	67.208	0.090	0.092
-516.887	-200.000	0.020	-0.133
-515.872	72.284	0.214	-0.223
-514.858	800.000	-0.092	-0.324
-513.843	-159.860	-0.132	0.007
-512.829	-200.000	0.064	0.310
-511.814	-80.602	0.170	-0.056
-510.799	-30.618	0.069	0.039
-509.785	-5.868	0.288	-0.197
-508.770	104.074	-0.057	-0.067
-507.756	-15.635	-0.198	0.126
-506.741	61.399	0.254	-0.252
-505.726	-200.000	0.078	-0.345
-504.712	34.680	-0.143	-0.125
-503.697	-136.683	-0.171	0.020
-502.683	695.472	0.116	0.303
-501.668	-200.000	-0.013	-0.262
-500.653	3.872	0.122	0.089
-499.639	-84.321	0.128	-0.040
-498.624	-200.000	0.023	-0.106
-497.610	405.048	-0.020	0.041
-496.595	9.364	0.022	0.017
-495.581	371.546	0.087	-0.176
-494.566	6.538	0.195	-0.145
-493.551	46.529	-0.100	-0.092
-492.537	-35.313	0.128	-0.069
-491.522	-68.482	-0.153	-0.059
-490.508	-17.546	0.200	-0.126
-489.493	-200.000	-0.001	-0.275
-488.478	-67.034	-0.420	0.165
-487.464	-144.349	-0.164	-0.015
-486.449	456.325	0.187	0.414
-485.435	52.423	0.185	-0.176
-484.420	-46.415	-0.244	-0.120
-483.405	295.267	-0.064	0.117
-482.391	28.195	0.280	-0.236
-481.376	177.340	0.089	0.129
-480.362	-200.000	-0.049	0.335
-479.347	490.020	-0.087	0.198
-478.332	800.000	-0.080	0.224
-477.318	-200.000	-0.005	0.130
-476.303	265.732	-0.152	0.265
-475.289	146.009	0.152	-0.203
-474.274	273.001	-0.140	0.246
-473.259	-200.000	0.017	0.454
-472.245	431.394	-0.048	0.103
-471.230	-121.727	0.106	-0.017
-470.216	47.908	-0.345	0.322
-469.201	800.000	-0.051	-0.221
-468.186	-200.000	-0.019	-0.114
-467.172	-165.371	-0.043	0.002
-466.157	-145.635	-0.261	-0.023
-465.143	-70.403	0.129	0.049
-464.128	710.879	0.037	-0.097
-463.113	-200.000	-0.029	0.137
-462.099	156.659	-0.175	-0.241
-461.084	71.001	-0.074	0.076
-460.070	-52.669	-0.122	0.056
-459.055	-18.772	0.110	0.068
-458.040	-200.000	0.038	-0.179
-457.026	800.000	0.051	-0.172
-456.011	50.279	-0.210	-0.198
-454.997	-200.000	0.013	0.078
-453.982	-55.455	-0.356	-0.159
-452.968	-114.492	0.435	-0.083
-451.953	-125.844	-0.166	-0.025
-450.938	418.762	-0.044	0.094
-449.924	-125.727	0.232	-0.035
-448.909	-139.126	-0.312	0.034
-447.895	-163.353	0.419	0.020
-446.880	-20.572	0.052	-0.032
-445.865	-30.261	0.207	-0.117
-444.851	-27.024	0.342	-0.199
-443.836	9.917	0.185	-0.140
-442.822	-183.125	-0.307	-0.005
-441.807	-200.000	0.009	0.147
-440.792	296.998	0.112	0.204
-439.778	-144.782	-0.231	0.021
-438.763	-47.238	0.329	-0.159
-437.749	-188.225	-0.172	-0.002
-436.734	30.056	0.178	0.151
-435.719	-120.321	0.288	0.049
-434.705	52.497	-0.113	-0.107
-433.690	-6.078	-0.024	-0.017
-432.676	-72.922	-0.219	-0.080
-431.661	7.296	-0.096	0.072
-430.646	9.143	-0.229	0.172
-429.632	54.782	0.205	-0.197
-428.617	-200.000	-0.001	0.027
-427.603	-116.673	-0.162	0.030
-426.588	81.690	-0.186	-0.200
-425.573	95.875	-0.117	0.133
-424.559	-41.215	0.184	0.094
-423.544	518.353	-0.051	-0.119
-422.530	-200.000	-0.070	0.317
-421.515	-17.505	0.041	-0.026
-420.500	-200.000	0.031	-0.451
-419.486	785.029	-0.062	-0.168
-418.471	800.000	-0.029	0.090
-417.457	-200.000	-0.092	0.434
-416.442	14.094	0.183	0.142
-415.428	-64.528	-0.312	0.126
-414.413	800.000	-0.057	-0.182
-413.398	-200.000	0.013	-0.095
-412.384	-200.000	0.036	-0.305
-411.369	800.000	-0.046	-0.181
-410.355	-200.000	0.039	-0.184
-409.340	-72.627	-0.127	0.047
-408.325	800.000	-0.041	-0.113
-407.311	608.911	0.173	-0.429
-406.296	563.917	0.084	0.203
-405.282	800.000	-0.075	-0.295
-404.267	71.381	-0.024	0.025
-403.252	246.561	-0.175	-0.294
-402.238	119.949	-0.250	0.308
-401.223	-74.892	-0.218	0.078
-400.209	-43.408	0.117	0.059
-399.194	-32.493	0.073	0.040
-398.179	-62.057	0.188	-0.078
-397.165	31.575	0.014	0.012
-396.150	58.995	-0.131	0.128
-395.136	-133.995	-0.302	0.037
-394.121	-200.000	-0.053	-0.266
-393.106	-136.906	-0.310	0.035
-392.092	-200.000	-0.054	0.369
-391.077	800.000	-0.054	0.156
-390.063	-146.375	-0.317	-0.028
-389.048	-100.664	0.147	0.036
-388.033	-200.000	0.020	0.155
-387.019	-48.790	-0.233	0.111
-386.004	349.766	-0.041	0.080
-384.990	128.419	-0.114	0.145
-383.975	150.420	0.029	-0.040
-382.960	-86.548	0.110	-0.034
-381.946	528.574	-0.032	0.075
-380.931	-62.150	-0.301	-0.125
-379.917	92.928	-0.169	0.190
-378.902	9.888	0.138	0.104
-377.888	-64.206	-0.320	-0.129
-376.873	161.939	-0.125	0.174
-375.858	-200.000	-0.021	-0.115
-374.844	-32.480	-0.248	0.137
-373.829	89.150	0.262	0.290
-372.815	107.324	-0.050	-0.059
-371.800	-110.195	0.265	-0.055
-370.785	-78.058	-0.167	-0.057
-369.771	800.000	-0.137	0.379
-368.756	-200.000	0.095	0.000
-367.742	-109.831	0.274	-0.057
-366.727	-200.000	-0.009	-0.164
-365.712	-33.907	-0.208	0.114
-364.698	800.000	-0.050	-0.210
-363.683	165.150	0.220	0.309
-362.669	-61.329	0.257	0.107
-361.654	-200.000	-0.071	0.408
-360.639	-110.768	-0.093	0.019
-359.625	-26.502	-0.148	-0.086
-358.610	-152.463	-0.247	0.018
-357.596	269.011	0.053	-0.092
-356.581	149.610	-0.062	0.084
-355.566	-200.000	-0.045	0.387
-354.552	-87.889	-0.299	-0.089
-353.537	-200.000	0.003	-0.282
-352.523	-200.000	0.013	-0.077
-351.508	-70.233	0.256	0.097
-350.493	210.181	-0.098	0.153
-349.479	-150.200	-0.070	-0.005
-348.464	-200.000	-0.008	0.214
-347.450	51.509	-0.152	0.143
-346.435	-38.303	0.118	-0.062
-345.420	-165.777	0.290	0.012
-344.406	-67.357	0.182	-0.071
-343.391	800.000	-0.051	0.144
-342.377	-169.470	-0.374	0.014
-341.362	728.188	0.027	0.071
-340.348	-104.815	0.185	-0.042
-339.333	-38.682	-0.128	-0.067
-338.318	405.521	0.090	0.189
-337.304	-200.000	-0.019	-0.195
-336.289	92.661	0.039	0.044
-335.275	-65.210	-0.495	-0.198
-334.260	725.141	0.128	0.338
-333.245	-200.000	0.006	0.140
-332.231	-74.209	0.216	0.078
-331.216	-200.000	-0.011	-0.080
-330.202	29.569	0.097	-0.082
-329.187	45.406	0.193	0.176
-328.172	-149.347	0.023	0.002
-327.158	-62.739	-0.464	-0.191
-326.143	171.605	-0.111	-0.158
-325.129	-16.418	0.384	0.241
-324.114	-52.890	0.193	-0.088
-323.099	91.311	0.163	-0.182
-322.085	126.482	-0.078	-0.098
-321.070	-100.622	-0.244	0.060
-320.056	-86.577	-0.295	-0.090
-319.041	-200.000	-0.013	0.254
-318.026	-1.253	0.082	-0.058
-317.012	-84.982	-0.042	-0.013
-315.997	-200.000	0.013	-0.107
-314.983	162.467	0.125	-0.173
-313.968	-165.843	-0.236	-0.010
-312.953	519.802	0.039	-0.090
-311.939	-82.493	0.182	0.059
-310.924	207.168	0.086	0.133
-309.910	-200.000	-0.025	0.235
-308.895	-200.000	0.025	-0.297
-307.880	650.200	0.124	-0.314
-306.866	-125.763	0.131	0.020
-305.851	-56.342	-0.211	-0.093
-304.837	573.124	0.055	-0.133
-303.822	37.495	0.281	0.247
-302.807	174.108	-0.115	0.165
-301.793	-200.000	0.013	-0.122
-300.778	-68.871	-0.152	-0.058
-299.764	-4.354	0.171	0.117
-298.749	-85.260	0.249	-0.077
-297.735	800.000	0.077	-0.325
-296.720	-164.883	-0.360	-0.016
-295.705	262.151	0.080	0.138
-294.691	-101.845	0.267	0.064
-293.676	12.087	0.217	-0.165
-292.662	-2.512	-0.093	0.064
-291.647	11.512	0.136	0.103
-290.632	800.000	0.068	-0.270
-289.618	-115.097	-0.131	-0.025
-288.603	-191.814	0.116	0.001
-287.589	-107.077	-0.316	0.069
-286.574	-76.670	0.059	0.020
-285.559	-200.000	0.007	-0.172
-284.545	78.521	0.142	-0.150
-283.530	-115.926	0.283	-0.052
-282.516	-200.000	-0.050	-0.239
-281.501	-200.000	-0.011	-0.084
-280.486	297.912	0.167	0.304
-279.472	-200.000	-0.038	-0.174
-278.457	-200.000	-0.014	0.137
-277.443	601.560	0.051	-0.126
-276.428	259.760	0.066	0.112
-275.413	133.774	0.199	0.255
-274.399	-58.707	-0.360	-0.154
-273.384	-80.000	-0.080	-0.027
-272.370	80.775	0.232	-0.248
-271.355	-200.000	-0.014	0.060
-270.340	72.792	-0.073	-0.076
-269.326	-200.000	0.021	0.241
-268.311	-148.593	0.444	0.036
-267.297	-12.813	-0.324	-0.209
-266.282	233.760	-0.032	0.053
-265.267	18.806	0.108	-0.086
-264.253	-51.830	-0.161	-0.074
-263.238	0.348	0.157	0.111
-262.224	-44.504	0.338	0.167
-261.209	800.000	-0.040	0.169
-260.195	126.897	-0.019	-0.024
-259.180	-155.516	0.236	0.015
-258.165	41.735	-0.117	-0.105
-257.151	51.186	0.268	0.252
-256.136	-127.688	0.260	0.037
-255.122	-21.594	-0.318	-0.192
-254.107	277.011	-0.095	0.168
-253.092	25.325	0.150	-0.124
-252.078	364.007	0.158	-0.313
-251.063	550.424	-0.034	0.081
-250.049	-74.571	0.139	0.049
-249.034	-23.897	-0.087	0.051
-248.019	-56.785	-0.063	-0.028
-247.005	-169.090	0.382	-0.014
-245.990	12.693	-0.030	-0.023
-244.976	74.785	0.088	0.091
-243.961	87.796	-0.049	-0.053
-242.946	302.589	0.176	0.322
-241.932	-26.009	0.276	-0.161
-240.917	109.306	0.087	-0.103
-239.903	800.000	0.062	-0.213
-238.888	20.916	-0.145	-0.116
-237.873	-66.948	0.050	-0.020
-236.859	43.246	-0.256	0.231
-235.844	-68.438	-0.131	0.050
-234.830	-25.349	0.259	0.151
-233.815	-30.393	-0.101	0.056
-232.800	166.179	0.163	0.227
-231.786	9.218	-0.326	-0.243
-230.771	-99.536	-0.239	0.059
-229.757	108.162	-0.043	-0.050
-228.742	387.897	0.095	-0.194
-227.727	81.903	-0.116	0.124
-226.713	-56.314	-0.126	-0.055
-225.698	6.222	-0.150	0.110
-224.684	-93.303	0.392	0.107
-223.669	-54.483	-0.068	-0.030
-222.655	-35.514	0.033	0.018
-221.640	146.955	-0.074	0.099
-220.625	-108.797	0.154	-0.033
-219.611	116.022	-0.101	0.122
-218.596	327.644	0.124	0.235
-217.582	-62.760	-0.206	-0.084
-216.567	-184.789	-0.022	0.000
-215.552	-20.178	0.168	-0.102
-214.538	800.000	0.031	-0.105
-213.523	-116.871	0.142	-0.026
-212.509	224.761	0.042	-0.067
-211.494	-29.303	-0.221	-0.125
-210.479	302.144	0.120	0.218
-209.465	-22.348	-0.250	0.149
-208.450	31.260	-0.086	0.073
-207.436	800.000	-0.041	-0.168
-206.421	-162.180	0.335	0.017
-205.406	-168.588	-0.195	-0.007
-204.392	800.000	-0.124	-0.387
-203.377	39.611	0.151	0.134
-202.363	527.886	-0.129	0.301
-201.348	29.931	0.030	0.025
-200.333	-200.000	0.048	0.306
-199.319	-32.071	-0.177	-0.098
-198.304	-119.401	-0.175	0.030
-197.290	82.387	-0.051	0.055
-196.275	-194.240	-0.307	-0.002
-195.260	127.916	0.057	0.071
-194.246	-121.839	0.216	-0.035
-193.231	-109.609	0.187	0.039
-192.217	-200.000	-0.022	0.143
-191.202	-200.000	-0.033	-0.226
-190.187	-64.637	0.328	0.131
-189.173	-65.893	-0.116	0.046
-188.158	209.458	-0.160	0.248
-187.144	-200.000	-0.010	0.218
-186.129	-90.000	-0.236	-0.068
-185.114	-108.184	0.177	0.038
-184.100	-200.000	0.098	0.536
-183.085	-200.000	0.036	-0.255
-182.071	800.000	-0.053	-0.165
-181.056	87.037	-0.209	0.228
-180.042	-200.000	0.054	0.433
-179.027	-28.610	0.151	-0.086
-178.012	-200.000	-0.027	-0.202
-176.998	47.132	0.093	0.085
-175.983	160.138	0.171	-0.235
-174.969	0.319	0.191	0.135
-173.954	800.000	0.057	-0.179
-172.939	43.376	-0.163	0.147
-171.925	-200.000	0.091	-0.446
-170.910	-200.000	-0.067	-0.363
-169.896	626.914	-0.071	0.178
-168.881	6.902	0.091	-0.067
-167.866	-200.000	0.024	-0.159
-166.852	-200.000	-0.022	-0.122
-165.837	243.315	-0.131	-0.216
-164.823	434.237	0.027	-0.058
-163.808	47.939	-0.168	0.155
-162.793	343.027	0.111	0.214
-161.779	-129.190	0.268	0.037
-160.764	264.092	0.132	0.226
-159.750	-200.000	0.001	-0.229
-158.735	-100.409	-0.112	0.027
-157.720	-53.736	0.085	0.038
-156.706	-125.312	-0.338	-0.051
-155.691	67.888	-0.116	0.117
-154.677	16.913	-0.074	0.058
-153.662	60.040	-0.062	-0.061
-152.647	-62.550	0.219	0.090
-151.633	-200.000	-0.001	-0.322
-150.618	534.626	0.043	0.099
-149.604	112.570	-0.219	-0.261
-148.589	-6.979	0.062	-0.042
-147.574	309.320	0.054	0.099
-146.560	609.417	0.139	-0.342
-145.545	535.756	0.058	-0.135
-144.531	-103.953	0.128	0.029
-143.516	-52.363	0.224	0.102
-142.502	-19.476	-0.144	-0.088
-141.487	253.752	-0.180	-0.303
-140.472	-14.935	-0.170	0.108
-139.458	-4.660	-0.075	-0.051
-138.443	-186.719	-0.262	-0.004
-137.429	-53.141	-0.317	-0.143
-136.414	-58.382	-0.096	-0.041
-135.399	-18.601	0.070	0.043
-134.385	-145.703	-0.511	-0.045
-133.370	-148.204	0.213	0.017
-132.356	-198.869	-0.372	0.002
-131.341	157.987	-0.198	-0.270
-130.326	253.067	-0.130	0.218
-129.312	5.251	-0.136	0.098
-128.297	800.000	-0.114	0.437
-127.283	84.399	0.139	-0.149
-126.268	90.638	-0.051	0.057
-125.253	-159.629	-0.029	-0.002
-124.239	800.000	-0.057	-0.233
-123.224	27.802	0.353	-0.292
-122.210	760.690	0.099	-0.264
-121.195	-57.679	0.342	-0.147
