DTS Sentinel unit serial number:	SN413079Multiplexer serial number:	ORYXHardware model number:	OX4-SRSoftware version number:	ORYX F/W v4.00 Oryx Data Collector v3.7.2.0data status	okinstallation	princeton_trtdifferential loss correction	single-endedforward channel	channel 3reverse channel	N/Adate	2019/09/15time	05:12:35forward acquisition time	60.00reverse acquisition time	0.00gamma	496.2192k internal	0.2325k external	0.2325temperature offset calibration	0.9976default loss term (dB/km)	0.3790temperature slope calibration	1.0000multiplexer offset coefficient	1.0000multiplexer slope coefficient	1.0000fibre end	0.00T internal ref (°C)	30.62T ext. ref 1 (°C)	4.78T ext. ref 2 (°C)	25.33length (m)	temperature (°C)	Stokes	anti-Stokes-747.200	-159.901	-0.205	-0.011
-746.185	103.016	0.111	0.131
-745.171	-137.434	0.276	-0.032
-744.156	7.069	-0.309	0.233
-743.142	-73.230	0.116	0.043
-742.127	800.000	0.095	0.351
-741.112	-99.080	0.064	0.016
-740.098	-104.380	-0.245	0.057
-739.083	490.116	0.049	0.113
-738.069	800.000	0.054	0.155
-737.054	800.000	0.044	-0.164
-736.039	-200.000	0.006	-0.162
-735.025	-11.361	0.248	0.165
-734.010	-200.000	0.018	0.128
-732.996	120.358	-0.159	-0.199
-731.981	343.108	0.080	-0.159
-730.966	-148.207	0.184	-0.015
-729.952	236.177	-0.161	-0.268
-728.937	377.162	-0.110	-0.226
-727.923	156.784	-0.136	-0.189
-726.908	-137.625	-0.083	-0.009
-725.894	-17.749	-0.146	0.092
-724.879	-200.000	0.003	0.136
-723.864	616.029	0.151	0.381
-722.850	100.441	0.187	0.219
-721.835	150.461	-0.039	-0.053
-720.821	-200.000	-0.032	0.294
-719.806	-200.000	0.051	-0.311
-718.791	56.140	0.053	-0.052
-717.777	-70.609	0.170	0.065
-716.762	-71.456	-0.229	0.086
-715.748	-200.000	-0.022	-0.260
-714.733	297.021	0.056	0.104
-713.718	308.705	-0.040	0.075
-712.704	23.050	0.134	-0.111
-711.689	-148.589	-0.155	-0.013
-710.675	231.188	0.082	-0.135
-709.660	-146.945	0.142	-0.012
-708.645	-200.000	0.031	-0.153
-707.631	413.872	-0.064	0.137
-706.616	-200.000	0.011	0.264
-705.602	329.556	0.097	0.188
-704.587	800.000	0.103	0.291
-703.572	-2.837	-0.228	-0.160
-702.558	-133.510	-0.363	0.046
-701.543	149.097	-0.057	-0.078
-700.529	-200.000	-0.028	-0.228
-699.514	129.338	-0.112	0.144
-698.499	800.000	0.027	0.076
-697.485	-11.770	0.174	0.115
-696.470	-96.762	0.205	-0.054
-695.456	127.968	-0.133	-0.170
-694.441	126.309	-0.161	-0.206
-693.426	9.809	-0.154	0.117
-692.412	23.365	0.265	-0.220
-691.397	-157.032	0.052	-0.003
-690.383	-143.862	-0.125	0.012
-689.368	112.522	0.126	0.153
-688.354	6.275	-0.161	0.120
-687.339	-78.953	-0.174	0.059
-686.324	-49.202	0.179	-0.086
-685.310	-77.065	0.175	-0.062
-684.295	4.599	0.174	-0.129
-683.281	-176.660	-0.049	-0.001
-682.266	-74.412	-0.123	0.045
-681.251	-48.253	0.209	0.101
-680.237	-65.767	0.072	-0.029
-679.222	-54.801	-0.159	0.072
-678.208	800.000	0.020	-0.071
-677.193	-200.000	0.010	-0.391
-676.178	148.985	0.094	-0.127
-675.164	16.262	-0.101	-0.080
-674.149	-148.865	-0.303	0.025
-673.135	340.065	-0.099	-0.195
-672.120	-15.338	-0.162	-0.104
-671.105	52.150	0.170	-0.163
-670.091	50.124	-0.049	0.046
-669.076	13.065	-0.087	-0.068
-668.062	73.837	-0.091	0.096
-667.047	-200.000	-0.040	-0.261
-666.032	-48.195	0.054	-0.026
-665.018	-49.614	0.212	0.102
-664.003	800.000	-0.060	0.179
-662.989	270.868	-0.092	0.163
-661.974	329.595	0.069	-0.134
-660.959	-66.334	-0.191	-0.076
-659.945	-36.613	-0.130	0.070
-658.930	800.000	-0.042	0.140
-657.916	131.393	0.201	-0.260
-656.901	-200.000	-0.078	-0.423
-655.886	393.634	0.068	-0.142
-654.872	-15.922	0.194	-0.124
-653.857	673.280	-0.114	0.298
-652.843	-70.515	0.242	0.092
-651.828	-67.260	0.086	-0.034
-650.814	800.000	0.045	-0.141
-649.799	-200.000	0.011	-0.462
-648.784	-38.968	0.308	-0.163
-647.770	-90.137	-0.133	-0.039
-646.755	-200.000	-0.012	-0.125
-645.741	414.464	-0.070	-0.151
-644.726	-200.000	-0.007	-0.046
-643.711	800.000	0.086	-0.264
-642.697	101.717	0.297	-0.348
-641.682	-200.000	0.015	0.258
-640.668	314.658	-0.249	0.471
-639.653	8.054	0.272	0.205
-638.638	-200.000	0.028	-0.250
-637.624	-200.000	-0.028	-0.170
-636.609	615.489	-0.058	0.147
-635.595	-200.000	-0.033	-0.269
-634.580	-200.000	-0.029	0.275
-633.565	-200.000	0.008	0.189
-632.551	-93.257	-0.256	0.071
-631.536	-189.784	-0.469	-0.005
-630.522	-168.828	0.296	0.011
-629.507	-153.930	0.393	-0.027
-628.492	-37.890	-0.084	0.045
-627.478	-200.000	0.050	0.223
-626.463	308.363	-0.079	0.149
-625.449	-5.970	-0.304	-0.209
-624.434	50.661	0.255	-0.243
-623.419	59.965	-0.230	-0.228
-622.405	363.450	0.086	0.174
-621.390	-200.000	-0.047	0.287
-620.376	800.000	-0.094	-0.285
-619.361	-138.467	0.140	0.015
-618.346	296.030	-0.123	0.227
-617.332	800.000	-0.024	-0.082
-616.317	-130.993	-0.226	0.030
-615.303	58.276	-0.267	-0.263
-614.288	104.549	0.173	0.205
-613.273	-145.571	-0.271	-0.024
-612.259	-51.447	0.165	0.077
-611.244	16.784	0.032	-0.026
-610.230	-3.889	0.328	-0.228
-609.215	-200.000	0.025	0.242
-608.201	-7.686	0.168	-0.114
-607.186	800.000	0.048	-0.153
-606.171	-25.023	0.420	0.250
-605.157	-110.465	-0.310	0.065
-604.142	-62.878	-0.381	-0.158
-603.128	242.615	0.069	-0.116
-602.113	397.972	-0.150	-0.315
-601.098	-129.374	-0.173	-0.024
-600.084	181.749	-0.245	-0.361
-599.069	-200.000	-0.012	0.118
-598.055	-13.989	0.216	0.140
-597.040	800.000	-0.085	-0.329
-596.025	-200.000	-0.080	-0.456
-595.011	-99.678	0.061	0.015
-593.996	-16.447	0.091	-0.058
-592.982	264.476	-0.109	-0.191
-591.967	32.266	-0.196	-0.170
-590.952	242.637	0.166	-0.280
-589.938	-155.166	-0.151	-0.010
-588.923	-49.613	-0.345	-0.165
-587.909	418.253	-0.113	0.242
-586.894	521.843	0.058	-0.137
-585.879	17.143	0.043	-0.035
-584.865	-157.795	-0.168	-0.010
-583.850	-41.186	0.113	0.059
-582.836	-63.298	-0.218	-0.090
-581.821	68.530	0.116	0.119
-580.806	-62.491	0.401	-0.167
-579.792	139.367	0.192	-0.253
-578.777	800.000	-0.058	-0.190
-577.763	-200.000	0.014	0.157
-576.748	190.813	-0.018	0.028
-575.733	315.453	-0.127	-0.240
-574.719	157.931	0.086	-0.120
-573.704	-47.672	0.094	-0.046
-572.690	380.154	0.129	-0.265
-571.675	-200.000	-0.028	0.316
-570.661	-104.163	0.348	-0.081
-569.646	132.768	0.249	-0.322
-568.631	-188.805	0.342	-0.004
-567.617	163.871	-0.115	-0.162
-566.602	-200.000	-0.000	0.106
-565.588	800.000	-0.105	-0.292
-564.573	47.195	0.092	-0.086
-563.558	207.232	0.051	-0.079
-562.544	-157.341	0.116	-0.007
-561.529	-38.524	-0.117	-0.062
-560.515	-200.000	-0.052	-0.246
-559.500	220.480	-0.163	0.262
-558.485	800.000	-0.030	0.119
-557.471	47.485	0.240	0.224
-556.456	-99.571	-0.295	-0.074
-555.442	566.649	-0.128	-0.310
-554.427	-3.904	0.084	0.058
-553.412	-18.838	0.114	0.071
-552.398	-144.699	0.203	-0.019
-551.383	800.000	-0.068	0.291
-550.369	-112.603	-0.308	0.061
-549.354	326.565	-0.096	-0.184
-548.339	-133.001	-0.146	0.019
-547.325	340.068	0.145	0.283
-546.310	-39.236	-0.036	0.019
-545.296	19.528	0.064	-0.051
-544.281	178.884	0.126	-0.185
-543.266	-21.801	-0.300	-0.182
-542.252	453.317	-0.141	0.312
-541.237	-31.485	-0.109	0.061
-540.223	-26.549	-0.109	0.064
-539.208	-200.000	-0.025	0.112
-538.193	67.977	0.210	0.215
-537.179	33.010	-0.245	-0.213
-536.164	273.375	0.079	0.139
-535.150	-200.000	0.006	0.163
-534.135	177.552	-0.101	-0.147
-533.121	-36.855	0.172	0.092
-532.106	-1.287	0.075	0.053
-531.091	-35.211	0.323	-0.176
-530.077	800.000	-0.019	-0.057
-529.062	52.148	-0.064	-0.061
-528.048	434.542	0.120	-0.260
-527.033	-124.886	0.335	-0.052
-526.018	2.938	-0.258	-0.187
-525.004	50.545	-0.042	0.040
-523.989	97.450	0.145	0.166
-522.975	3.483	0.167	-0.122
-521.960	149.052	0.171	0.231
-520.945	49.605	-0.223	-0.210
-519.931	-21.910	-0.297	0.181
-518.916	-59.062	-0.207	-0.089
-517.902	800.000	0.098	0.307
-516.887	26.776	0.039	-0.033
-515.872	-81.023	-0.494	-0.164
-514.858	-12.561	0.267	0.174
-513.843	-200.000	0.035	-0.161
-512.829	6.976	0.285	-0.212
-511.814	25.014	-0.081	0.068
-510.799	-200.000	0.023	0.573
-509.785	102.789	0.255	0.299
-508.770	-2.794	-0.416	0.290
-507.756	-85.229	0.024	0.008
-506.741	264.613	-0.016	-0.029
-505.726	474.151	0.103	0.232
-504.712	-200.000	-0.015	0.280
-503.697	343.171	0.146	-0.286
-502.683	-101.472	0.268	-0.065
-501.668	233.210	-0.104	-0.171
-500.653	151.845	0.066	0.089
-499.639	198.379	0.111	-0.169
-498.624	-27.606	0.328	-0.191
-497.610	55.994	0.166	0.161
-496.595	-1.275	0.294	0.207
-495.581	651.797	0.105	-0.268
-494.566	-96.840	-0.247	-0.065
-493.551	-200.000	0.037	0.442
-492.537	-9.087	-0.061	-0.041
-491.522	-20.018	0.178	-0.109
-490.508	159.919	-0.095	-0.132
-489.493	-146.796	0.142	-0.012
-488.478	-200.000	-0.020	0.108
-487.464	380.672	-0.080	-0.164
-486.449	-44.662	0.441	0.220
-485.435	65.529	-0.126	0.127
-484.420	-120.782	-0.268	-0.045
-483.405	443.873	-0.062	-0.136
-482.391	-96.368	0.298	-0.079
-481.376	218.292	-0.162	-0.258
-480.362	-38.039	-0.273	0.145
-479.347	-26.279	-0.075	0.044
-478.332	191.076	-0.181	-0.273
-477.318	-175.679	0.144	-0.004
-476.303	106.103	-0.129	0.153
-475.289	-116.307	0.395	0.073
-474.274	343.806	0.092	0.180
-473.259	-109.609	0.191	0.040
-472.245	304.893	0.029	0.054
-471.230	718.817	-0.074	0.195
-470.216	76.689	0.078	-0.083
-469.201	23.464	0.170	0.140
-468.186	-111.416	-0.114	-0.023
-467.172	-200.000	-0.029	-0.187
-466.157	269.882	-0.115	-0.202
-465.143	625.152	-0.090	-0.226
-464.128	-6.754	0.176	-0.120
-463.113	800.000	0.050	-0.193
-462.099	99.041	-0.225	-0.260
-461.084	-108.290	0.205	0.044
-460.070	2.748	-0.287	0.208
-459.055	-107.126	-0.301	0.066
-458.040	-200.000	0.038	0.273
-457.026	-20.862	0.439	0.269
-456.011	189.532	-0.140	-0.210
-454.997	-165.578	-0.374	-0.016
-453.982	-0.136	0.126	-0.090
-452.968	452.422	-0.082	-0.181
-451.953	345.826	0.100	-0.196
-450.938	492.286	-0.085	-0.194
-449.924	-200.000	-0.033	-0.204
-448.909	271.858	-0.093	0.164
-447.895	103.013	-0.087	0.102
-446.880	566.673	0.035	-0.084
-445.865	-12.007	0.163	-0.106
-444.851	78.217	0.047	-0.050
-443.836	-200.000	0.052	-0.308
-442.822	-200.000	0.006	0.131
-441.807	-50.432	0.281	0.132
-440.792	189.213	-0.129	-0.192
-439.778	271.024	-0.066	0.116
-438.763	-93.048	-0.155	-0.043
-437.749	-200.000	0.066	-0.346
-436.734	285.233	0.135	0.243
-435.719	-44.463	0.228	0.114
-434.705	241.933	0.143	0.239
-433.690	14.879	-0.363	0.283
-432.676	52.056	0.046	-0.044
-431.661	119.250	0.078	0.097
-430.646	-12.212	-0.482	0.314
-429.632	-126.879	0.230	-0.034
-428.617	171.076	0.024	0.034
-427.603	-104.327	0.326	0.075
-426.588	234.646	0.062	0.102
-425.573	800.000	-0.039	-0.152
-424.559	683.984	-0.039	-0.102
-423.544	-55.250	0.288	-0.129
-422.530	306.677	-0.142	-0.264
-421.515	-200.000	-0.019	-0.232
-420.500	162.051	-0.076	-0.106
-419.486	-12.699	-0.120	-0.078
-418.471	-190.199	0.281	0.003
-417.457	260.214	-0.087	-0.150
-416.442	-2.373	-0.187	0.131
-415.428	11.957	0.361	0.276
-414.413	393.186	0.115	0.239
-413.398	-6.393	-0.321	0.218
-412.384	-20.849	0.158	-0.097
-411.369	-136.605	-0.284	-0.033
-410.355	-30.612	-0.224	0.126
-409.340	98.592	-0.308	0.353
-408.325	383.863	0.089	0.183
-407.311	-55.510	-0.067	0.030
-406.296	-96.402	0.205	-0.054
-405.282	-200.000	-0.027	0.175
-404.267	-108.680	-0.333	0.071
-403.252	55.919	-0.183	0.177
-402.238	365.158	0.127	0.254
-401.223	302.605	-0.173	0.318
-400.209	-200.000	-0.001	-0.100
-399.194	-79.750	0.436	-0.146
-398.179	412.985	-0.096	0.203
-397.165	800.000	0.039	-0.122
-396.150	-124.257	0.331	-0.052
-395.136	697.260	-0.091	0.237
-394.121	800.000	-0.025	0.074
-393.106	-149.065	-0.081	-0.006
-392.092	43.188	-0.101	-0.092
-391.077	-200.000	-0.005	-0.166
-390.063	146.268	0.133	0.178
-389.048	-69.604	0.166	0.063
-388.033	-200.000	0.001	-0.210
-387.019	-148.809	-0.322	-0.026
-386.004	800.000	-0.091	-0.262
-384.990	-28.929	0.269	0.154
-383.975	-105.170	0.173	-0.039
-382.960	-200.000	0.001	-0.159
-381.946	97.779	0.170	-0.194
-380.931	800.000	-0.140	-0.571
-379.917	-63.529	0.158	0.064
-378.902	-126.423	-0.244	0.036
-377.888	775.950	0.090	-0.244
-376.873	107.790	-0.201	0.238
-375.858	-131.601	-0.378	0.049
-374.844	298.899	-0.069	0.126
-373.829	69.543	-0.305	-0.312
-372.815	134.366	0.122	-0.158
-371.800	-44.261	-0.102	-0.051
-370.785	-118.864	0.312	-0.054
-369.771	800.000	-0.071	-0.200
-368.756	437.039	0.069	0.150
-367.742	-200.000	-0.066	0.299
-366.727	-128.154	-0.238	0.034
-365.712	335.895	-0.208	0.402
-364.698	-200.000	0.016	0.189
-363.683	57.377	0.150	-0.146
-362.669	-100.986	-0.128	0.031
-361.654	6.336	0.124	-0.092
-360.639	-3.228	-0.168	0.117
-359.625	-200.000	0.016	0.107
-358.610	-83.114	-0.398	-0.127
-357.596	-81.245	0.316	-0.104
-356.581	-33.565	-0.037	0.020
-355.566	-62.888	0.132	0.054
-354.552	28.952	-0.132	-0.111
-353.537	23.023	-0.136	0.111
-352.523	-134.081	-0.102	0.013
-351.508	38.091	0.218	0.192
-350.493	-45.459	-0.304	0.150
-349.479	555.865	0.099	-0.238
-348.464	400.872	-0.118	-0.245
-347.450	-200.000	0.001	0.143
-346.435	683.066	0.047	-0.123
-345.420	400.499	0.017	-0.036
-344.406	-118.705	-0.177	-0.031
-343.391	-11.771	-0.186	0.121
-342.377	-29.905	-0.273	0.154
-341.362	174.255	-0.239	0.343
-340.348	-97.337	-0.100	-0.026
-339.333	-71.128	0.561	-0.209
-338.318	-200.000	0.044	-0.260
-337.304	-167.258	0.588	0.024
-336.289	-92.788	0.021	0.006
-335.275	-115.201	-0.292	-0.055
-334.260	-112.114	-0.380	-0.076
-333.245	466.872	0.120	0.268
-332.231	-200.000	-0.091	0.459
-331.216	-200.000	0.036	0.340
-330.202	800.000	0.110	0.339
-329.187	527.500	0.129	0.302
-328.172	-10.290	-0.152	-0.100
-327.158	-123.759	-0.424	-0.067
-326.143	457.453	0.034	-0.074
-325.129	159.375	-0.039	0.054
-324.114	-84.507	0.061	-0.019
-323.099	93.489	-0.290	0.326
-322.085	129.709	0.148	0.188
-321.070	-35.278	0.167	0.090
-320.056	-200.000	0.001	-0.098
-319.041	-17.936	-0.125	0.078
-318.026	165.397	0.200	0.281
-317.012	105.232	0.130	-0.153
-315.997	28.170	0.128	0.107
-314.983	-200.000	0.051	0.235
-313.968	87.737	-0.170	-0.187
-312.953	-200.000	-0.000	-0.398
-311.939	-200.000	-0.030	-0.191
-310.924	684.951	0.045	0.116
-309.910	313.956	-0.084	-0.158
-308.895	-200.000	-0.020	-0.138
-307.880	252.405	0.167	-0.282
-306.866	-200.000	0.021	-0.398
-305.851	264.689	-0.153	0.264
-304.837	80.779	-0.193	0.207
-303.822	51.329	-0.049	0.046
-302.807	324.087	-0.094	-0.178
-301.793	-200.000	0.008	-0.185
-300.778	-90.092	0.315	-0.091
-299.764	-1.176	-0.172	0.121
-298.749	32.865	-0.021	-0.018
-297.735	215.213	0.131	-0.206
-296.720	428.714	-0.021	0.045
-295.705	-125.291	0.180	-0.027
-294.691	-200.000	-0.052	0.356
-293.676	800.000	0.053	-0.175
-292.662	295.488	0.199	0.361
-291.647	-156.446	-0.174	0.011
-290.632	733.758	0.054	0.144
-289.618	-81.349	0.197	0.064
-288.603	-98.705	0.254	-0.064
-287.589	43.266	0.377	-0.342
-286.574	276.529	0.083	-0.147
-285.559	97.187	-0.185	0.210
-284.545	-24.763	-0.279	-0.165
-283.530	-200.000	-0.025	-0.224
-282.516	175.381	-0.147	0.211
-281.501	-174.368	-0.180	-0.005
-280.486	22.307	-0.099	0.080
-279.472	-200.000	-0.017	-0.281
-278.457	800.000	0.036	-0.143
-277.443	210.070	0.099	0.153
-276.428	-49.023	0.288	-0.137
-275.413	-200.000	-0.034	0.325
-274.399	106.149	-0.241	-0.282
-273.384	-200.000	0.016	-0.070
-272.370	-200.000	0.049	0.539
-271.355	-200.000	0.045	-0.211
-270.340	-40.598	0.091	0.047
-269.326	-89.593	0.089	-0.026
-268.311	519.025	-0.038	-0.089
-267.297	800.000	-0.045	-0.185
-266.282	137.358	0.142	-0.185
-265.267	19.197	-0.260	0.207
-264.253	-137.560	-0.230	-0.026
-263.238	-131.417	0.259	0.034
-262.224	76.727	0.238	0.250
-261.209	-101.562	0.355	-0.085
-260.195	172.782	0.127	-0.181
-259.180	411.001	0.048	-0.102
-258.165	-200.000	-0.023	-0.227
-257.151	-200.000	-0.035	-0.397
-256.136	487.150	0.096	-0.216
-255.122	800.000	-0.061	-0.244
-254.107	800.000	0.148	0.406
-253.092	-38.812	-0.198	0.103
-252.078	681.315	0.026	-0.067
-251.063	-137.542	0.247	0.028
-250.049	19.774	-0.270	0.215
-249.034	-200.000	0.010	0.116
-248.019	241.738	-0.159	-0.263
-247.005	-22.934	-0.089	0.053
-245.990	-86.653	-0.219	0.066
-244.976	649.226	0.023	-0.059
-243.961	800.000	0.020	-0.086
-242.946	-132.984	-0.140	-0.018
-241.932	800.000	-0.014	0.059
-240.917	-112.774	-0.083	-0.016
-239.903	102.769	0.276	0.320
-238.888	-200.000	0.009	-0.128
-237.873	-141.555	0.305	-0.030
-236.859	395.231	0.042	0.086
-235.844	272.251	0.063	-0.110
-234.830	370.488	0.140	0.280
-233.815	49.149	0.212	-0.197
-232.800	582.910	-0.061	-0.149
-231.786	-54.535	-0.188	-0.084
-230.771	78.937	0.152	-0.161
-229.757	-70.170	-0.243	-0.091
-228.742	31.802	0.086	0.073
-227.727	-200.000	-0.014	0.120
-226.713	47.390	-0.148	0.136
-225.698	56.214	-0.047	0.045
-224.684	-173.645	0.264	-0.008
-223.669	-93.119	-0.383	-0.105
-222.655	13.449	-0.116	0.089
-221.640	421.155	-0.223	-0.472
-220.625	-14.207	-0.049	0.031
-219.611	-200.000	0.026	0.134
-218.596	-200.000	0.015	0.139
-217.582	76.718	0.135	-0.142
-216.567	-148.963	-0.193	0.015
-215.552	-95.851	-0.212	-0.056
-214.538	76.637	-0.070	0.074
-213.523	-50.053	-0.148	-0.069
-212.509	-64.158	0.144	-0.058
-211.494	-200.000	0.006	0.223
-210.479	30.927	-0.110	0.093
-209.465	275.599	-0.084	-0.147
-208.450	-55.507	-0.165	-0.073
-207.436	269.131	-0.150	0.260
-206.421	707.756	0.095	0.249
-205.406	-26.765	-0.173	0.100
-204.392	91.569	-0.219	0.243
-203.377	9.074	-0.107	-0.079
-202.363	-97.011	0.551	-0.143
-201.348	252.723	0.079	-0.133
-200.333	-200.000	0.008	-0.118
-199.319	-109.536	0.179	0.037
-198.304	13.053	-0.346	0.264
-197.290	-200.000	-0.008	0.316
-196.275	-96.559	0.082	0.021
-195.260	24.536	0.211	-0.172
-194.246	575.940	-0.154	-0.371
-193.231	-58.761	0.129	-0.055
-192.217	153.285	-0.296	0.400
-191.202	-58.938	0.152	0.065
-190.187	-200.000	0.043	-0.388
-189.173	-10.228	-0.026	0.017
-188.158	135.744	-0.064	-0.082
-187.144	-25.792	-0.161	-0.094
-186.129	-97.613	0.258	0.066
-185.114	-200.000	-0.039	0.347
-184.100	-124.903	0.391	0.059
-183.085	326.044	-0.208	0.394
-182.071	90.225	0.243	0.268
-181.056	800.000	-0.074	0.237
-180.042	32.233	0.279	0.238
-179.027	-100.179	0.177	0.043
-178.012	800.000	0.035	0.102
-176.998	65.052	0.096	0.095
-175.983	191.134	0.126	0.187
-174.969	781.722	-0.097	-0.262
-173.954	35.204	0.073	0.063
-172.939	-97.780	0.161	-0.041
-171.925	7.990	-0.093	-0.069
-170.910	-78.548	0.182	-0.062
-169.896	433.665	-0.067	-0.144
-168.881	-111.327	0.095	0.019
-167.866	-117.369	-0.216	0.039
-166.852	-198.176	0.125	0.001
-165.837	355.047	-0.108	0.213
-164.823	-200.000	0.024	0.368
-163.808	149.956	0.067	-0.090
-162.793	-161.390	0.079	-0.004
-161.779	-200.000	-0.004	0.126
-160.764	-200.000	-0.030	0.232
-159.750	99.523	0.268	-0.306
-158.735	-156.803	-0.177	-0.011
-157.720	-200.000	-0.043	0.433
-156.706	-75.540	-0.097	-0.034
-155.691	21.872	0.248	-0.199
-154.677	-123.732	-0.169	-0.026
-153.662	214.391	-0.219	0.342
-152.647	36.652	0.109	-0.095
-151.633	104.814	-0.094	0.109
-150.618	-125.125	0.206	-0.031
-149.604	800.000	0.063	0.190
-148.589	-200.000	0.047	0.309
-147.574	-200.000	-0.013	-0.147
-146.560	141.275	-0.222	0.289
-145.545	373.477	-0.303	-0.608
-144.531	81.693	-0.248	0.265
-143.516	44.153	0.252	-0.228
-142.502	1.924	-0.134	-0.095
-141.487	-133.368	-0.274	0.034
-140.472	-200.000	-0.019	-0.153
-139.458	-167.884	0.412	0.016
-138.443	-40.085	-0.159	-0.081
-137.429	800.000	-0.052	0.193
-136.414	104.004	-0.158	-0.183
-135.399	0.567	0.401	-0.283
-134.385	-127.111	-0.257	0.037
-133.370	800.000	-0.124	0.360
-132.356	-42.213	0.275	0.138
-131.341	-13.013	-0.524	-0.336
-130.326	-133.443	0.315	0.039
-129.312	716.894	-0.124	-0.323
-128.297	-189.813	-0.197	0.002
-127.283	111.549	-0.232	-0.276
-126.268	90.062	0.108	0.119
-125.253	26.484	0.077	-0.064
-124.239	131.626	0.140	0.178
-123.224	50.865	0.189	0.176
-122.210	187.694	0.061	0.090
-121.195	84.891	0.133	0.144
