DTS Sentinel unit serial number:	SN413079Multiplexer serial number:	ORYXHardware model number:	OX4-SRSoftware version number:	ORYX F/W v4.00 Oryx Data Collector v3.7.2.0data status	okinstallation	princeton_trtdifferential loss correction	single-endedforward channel	channel 3reverse channel	N/Adate	2019/09/12time	17:50:11forward acquisition time	60.00reverse acquisition time	0.00gamma	496.2192k internal	0.2317k external	0.2317temperature offset calibration	1.0094default loss term (dB/km)	0.3790temperature slope calibration	1.0000multiplexer offset coefficient	1.0000multiplexer slope coefficient	1.0000fibre end	0.00T internal ref (°C)	34.02T ext. ref 1 (°C)	2.91T ext. ref 2 (°C)	28.22length (m)	temperature (°C)	Stokes	anti-Stokes-747.200	-200.000	0.037	0.579
-746.185	-41.129	0.179	0.094
-745.171	130.894	-0.083	0.108
-744.156	-99.417	-0.369	-0.094
-743.142	-124.777	0.146	-0.023
-742.127	-200.000	-0.008	0.202
-741.112	-127.018	-0.246	-0.037
-740.098	-36.355	0.379	0.207
-739.083	299.305	-0.045	0.085
-738.069	177.157	-0.164	0.241
-737.054	800.000	-0.076	0.292
-736.039	19.504	-0.184	-0.149
-735.025	-96.743	0.128	0.034
-734.010	84.523	-0.070	0.077
-732.996	128.378	-0.205	0.264
-731.981	-54.650	-0.264	0.121
-730.966	776.650	-0.035	-0.096
-729.952	228.495	-0.250	0.412
-728.937	-200.000	-0.030	-0.284
-727.923	123.935	-0.188	0.239
-726.908	-41.937	0.176	0.091
-725.894	184.538	-0.236	-0.354
-724.879	486.865	-0.099	-0.228
-723.864	-73.142	0.175	0.065
-722.850	-200.000	0.032	0.152
-721.835	447.531	0.070	-0.156
-720.821	-5.666	-0.061	-0.043
-719.806	126.479	0.089	-0.114
-718.791	-170.535	-0.173	-0.006
-717.777	-28.963	-0.164	0.095
-716.762	-179.075	0.315	0.007
-715.748	-93.819	0.324	0.090
-714.733	125.846	0.092	-0.118
-713.718	-106.415	-0.272	0.062
-712.704	-110.407	-0.303	-0.064
-711.689	57.875	0.313	-0.310
-710.675	-200.000	0.006	0.065
-709.660	151.957	0.019	0.026
-708.645	-169.038	0.216	-0.008
-707.631	461.506	-0.026	0.058
-706.616	-200.000	-0.054	-0.250
-705.602	-106.866	-0.174	-0.039
-704.587	-4.911	0.291	-0.202
-703.572	-74.351	-0.057	-0.021
-702.558	-200.000	0.028	0.246
-701.543	260.614	-0.051	0.089
-700.529	-65.151	0.174	0.071
-699.514	669.807	-0.111	-0.291
-698.499	-149.977	0.219	0.017
-697.485	-80.422	-0.167	-0.056
-696.470	-110.739	-0.580	0.121
-695.456	800.000	0.034	-0.148
-694.441	47.433	0.219	-0.206
-693.426	113.762	-0.160	0.196
-692.412	-29.569	0.330	0.190
-691.397	-2.317	-0.105	0.074
-690.383	387.770	0.012	-0.026
-689.368	568.425	0.171	-0.421
-688.354	45.433	0.219	-0.204
-687.339	-58.797	-0.278	-0.122
-686.324	-93.532	-0.044	-0.012
-685.310	-200.000	0.042	-0.207
-684.295	670.757	0.081	-0.212
-683.281	690.003	0.093	0.247
-682.266	14.220	-0.132	-0.104
-681.251	67.225	-0.096	0.099
-680.237	243.801	0.122	-0.206
-679.222	-200.000	0.037	0.193
-678.208	-64.907	0.176	-0.072
-677.193	-77.605	0.082	0.029
-676.178	-112.894	0.134	-0.027
-675.164	-46.029	-0.244	-0.121
-674.149	-20.784	-0.181	0.112
-673.135	142.817	-0.248	0.333
-672.120	-50.358	0.069	-0.033
-671.105	-200.000	0.007	-0.039
-670.091	-200.000	0.009	0.071
-669.076	-27.568	-0.237	-0.139
-668.062	18.226	-0.074	0.060
-667.047	-200.000	0.027	0.305
-666.032	-1.676	0.182	-0.129
-665.018	207.373	0.175	0.275
-664.003	-78.715	0.365	-0.126
-662.989	800.000	0.089	-0.359
-661.974	94.321	-0.186	-0.213
-660.959	-200.000	0.011	-0.134
-659.945	-152.966	0.110	-0.008
-658.930	-84.829	-0.313	0.099
-657.916	100.157	0.024	-0.028
-656.901	-200.000	0.058	-0.374
-655.886	-35.744	0.247	-0.135
-654.872	-82.478	-0.228	-0.075
-653.857	-113.673	0.182	0.036
-652.843	-200.000	0.007	-0.104
-651.828	104.740	-0.091	0.109
-650.814	-28.085	0.176	-0.103
-649.799	-200.000	-0.004	0.106
-648.784	-112.852	-0.234	0.047
-647.770	800.000	0.073	-0.206
-646.755	172.920	-0.109	-0.158
-645.741	-46.580	-0.068	-0.033
-644.726	7.763	0.049	-0.037
-643.711	800.000	-0.108	0.432
-642.697	-87.573	0.043	-0.013
-641.682	-200.000	0.047	-0.257
-640.668	-142.922	-0.224	-0.022
-639.653	800.000	0.099	0.317
-638.638	78.235	-0.093	-0.101
-637.624	50.606	-0.074	-0.071
-636.609	-123.765	0.152	0.024
-635.595	-200.000	-0.025	-0.311
-634.580	54.749	-0.131	-0.127
-633.565	188.024	0.039	0.058
-632.551	85.458	0.230	-0.255
-631.536	700.047	0.027	-0.071
-630.522	470.719	0.145	0.328
-629.507	800.000	0.041	0.117
-628.492	-63.705	-0.434	0.179
-627.478	397.100	0.101	-0.212
-626.463	-83.146	-0.100	-0.032
-625.449	-200.000	0.044	-0.304
-624.434	176.548	0.067	-0.098
-623.419	10.149	0.171	-0.131
-622.405	-91.527	-0.299	0.086
-621.390	-47.912	-0.083	0.040
-620.376	451.254	0.118	-0.264
-619.361	-58.104	0.152	0.067
-618.346	-62.473	0.303	0.127
-617.332	-30.250	-0.155	-0.089
-616.317	-200.000	-0.017	0.176
-615.303	-30.987	-0.237	0.135
-614.288	41.260	-0.402	-0.366
-613.273	-200.000	0.009	-0.331
-612.259	-200.000	-0.009	0.181
-611.244	8.375	-0.154	0.117
-610.230	719.490	0.077	-0.206
-609.215	-200.000	-0.001	-0.111
-608.201	-188.443	-0.057	-0.001
-607.186	208.373	0.120	0.190
-606.171	800.000	0.017	-0.054
-605.157	-154.174	-0.196	-0.013
-604.142	-122.055	0.175	0.029
-603.128	-137.985	0.044	-0.005
-602.113	-200.000	-0.031	-0.189
-601.098	-22.702	-0.195	-0.119
-600.084	44.727	-0.149	-0.138
-599.069	800.000	-0.106	0.352
-598.055	-162.185	0.404	0.020
-597.040	576.333	-0.049	0.121
-596.025	-200.000	0.032	-0.201
-595.011	800.000	-0.058	-0.244
-593.996	-132.728	0.516	0.066
-592.982	-22.512	0.391	0.238
-591.967	15.605	-0.182	-0.144
-590.952	66.358	-0.328	-0.335
-589.938	800.000	0.023	0.071
-588.923	-164.695	-0.102	0.005
-587.909	18.423	-0.022	0.018
-586.894	221.815	0.041	-0.067
-585.879	800.000	0.196	-0.638
-584.865	404.649	0.098	0.208
-583.850	-128.295	0.182	0.026
-582.836	181.450	0.025	0.037
-581.821	158.160	-0.116	-0.162
-580.806	-39.154	0.145	-0.077
-579.792	-8.915	-0.239	-0.161
-578.777	46.333	0.184	0.171
-577.763	-200.000	-0.014	0.162
-576.748	-121.914	0.277	0.046
-575.733	46.571	0.299	-0.279
-574.719	-29.670	-0.292	-0.168
-573.704	-200.000	-0.001	-0.080
-572.690	-64.293	0.244	-0.100
-571.675	-200.000	0.010	0.187
-570.661	-102.393	0.187	0.045
-569.646	180.424	-0.216	-0.319
-568.631	-200.000	0.021	-0.130
-567.617	-81.404	0.240	-0.079
-566.602	-200.000	0.034	-0.150
-565.588	-114.202	0.206	-0.040
-564.573	-79.343	-0.215	-0.073
-563.558	526.832	-0.125	0.297
-562.544	21.721	0.280	0.229
-561.529	209.260	-0.051	0.080
-560.515	-96.230	-0.275	-0.073
-559.500	94.582	-0.157	-0.180
-558.485	800.000	0.017	-0.072
-557.471	-21.764	0.118	-0.072
-556.456	-200.000	-0.015	-0.172
-555.442	-107.623	0.461	-0.101
-554.427	800.000	0.072	0.201
-553.412	357.008	0.082	-0.164
-552.398	26.843	0.280	0.236
-551.383	670.393	-0.166	0.432
-550.369	-31.504	-0.191	0.108
-549.354	-115.756	0.202	0.038
-548.339	800.000	-0.074	0.216
-547.325	-200.000	-0.038	0.286
-546.310	23.258	-0.070	-0.057
-545.296	800.000	0.056	-0.169
-544.281	-200.000	-0.004	-0.082
-543.266	369.685	0.033	0.066
-542.252	-153.683	-0.153	0.011
-541.237	48.489	0.157	0.148
-540.223	-54.720	-0.084	-0.038
-539.208	-67.296	-0.253	-0.100
-538.193	-182.234	-0.063	-0.001
-537.179	-18.936	0.088	0.055
-536.164	222.045	0.065	-0.105
-535.150	800.000	0.069	0.217
-534.135	687.612	0.126	-0.331
-533.121	-149.129	0.093	0.007
-532.106	172.283	-0.032	0.046
-531.091	-200.000	-0.057	-0.285
-530.077	198.059	-0.156	0.240
-529.062	-35.152	0.089	-0.049
-528.048	74.582	0.192	-0.203
-527.033	-50.872	-0.040	-0.019
-526.018	-125.093	0.471	0.073
-525.004	331.814	0.073	-0.141
-523.989	71.829	-0.061	-0.064
-522.975	-116.962	-0.111	0.020
-521.960	-140.431	-0.074	0.008
-520.945	-200.000	-0.020	0.189
-519.931	-45.895	-0.092	0.045
-518.916	85.315	-0.193	-0.212
-517.902	16.032	-0.214	-0.169
-516.887	-50.057	0.384	0.183
-515.872	179.641	0.037	-0.054
-514.858	267.586	-0.011	0.018
-513.843	-10.581	-0.095	0.063
-512.829	-31.386	0.252	0.142
-511.814	-7.355	0.199	0.135
-510.799	51.303	-0.263	-0.251
-509.785	-63.342	-0.067	-0.027
-508.770	-34.165	-0.305	-0.168
-507.756	-200.000	0.010	0.049
-506.741	-36.865	-0.099	-0.053
-505.726	-159.878	-0.100	0.006
-504.712	368.752	0.093	-0.188
-503.697	-87.958	-0.193	-0.058
-502.683	-200.000	0.006	-0.045
-501.668	395.942	-0.134	0.281
-500.653	-200.000	0.019	-0.129
-499.639	-56.014	0.179	0.080
-498.624	-124.806	0.142	0.022
-497.610	-200.000	-0.002	0.296
-496.595	800.000	-0.037	0.143
-495.581	-53.578	0.289	0.132
-494.566	-39.817	0.243	-0.127
-493.551	-200.000	-0.020	0.166
-492.537	43.384	-0.561	0.514
-491.522	-200.000	0.029	-0.146
-490.508	-45.869	0.267	0.132
-489.493	29.902	0.142	0.121
-488.478	-25.746	0.228	-0.135
-487.464	98.265	-0.257	-0.297
-486.449	-136.381	-0.204	0.024
-485.435	210.434	-0.040	0.063
-484.420	14.189	-0.262	0.205
-483.405	19.911	-0.263	0.212
-482.391	-200.000	-0.034	-0.266
-481.376	-200.000	0.049	-0.290
-480.362	420.439	-0.111	-0.239
-479.347	45.422	0.088	-0.081
-478.332	94.283	0.128	0.146
-477.318	344.236	-0.045	0.089
-476.303	99.808	0.135	-0.157
-475.289	-200.000	-0.042	0.247
-474.274	4.710	-0.240	-0.177
-473.259	800.000	-0.087	-0.368
-472.245	-80.825	-0.296	0.099
-471.230	-200.000	-0.002	-0.182
-470.216	-16.667	-0.069	-0.043
-469.201	12.563	-0.324	-0.250
-468.186	-200.000	0.017	-0.147
-467.172	140.114	-0.113	0.149
-466.157	-166.072	0.154	0.007
-465.143	168.392	0.045	0.064
-464.128	82.972	0.159	-0.173
-463.113	-200.000	0.037	-0.163
-462.099	39.397	0.079	-0.071
-461.084	-41.779	-0.209	-0.107
-460.070	-132.164	-0.383	-0.050
-459.055	30.988	-0.183	0.157
-458.040	130.183	0.127	-0.162
-457.026	179.430	0.134	0.196
-456.011	769.091	-0.077	0.211
-454.997	-89.718	0.173	-0.051
-453.982	-58.913	-0.330	-0.143
-452.968	-61.827	0.211	0.088
-451.953	11.683	-0.134	-0.103
-450.938	14.346	-0.496	-0.387
-449.924	18.797	-0.024	-0.019
-448.909	-144.775	0.268	-0.025
-447.895	197.825	0.236	0.361
-446.880	247.065	-0.106	-0.178
-445.865	-133.375	-0.304	-0.038
-444.851	800.000	0.050	0.153
-443.836	800.000	-0.111	-0.319
-442.822	-92.101	0.329	-0.093
-441.807	25.753	-0.191	0.159
-440.792	-88.168	0.332	-0.100
-439.778	511.251	0.091	0.213
-438.763	98.451	0.424	-0.489
-437.749	800.000	-0.048	-0.143
-436.734	-200.000	0.007	-0.372
-435.719	-110.017	0.228	-0.048
-434.705	-130.073	-0.415	-0.057
-433.690	-16.103	-0.142	0.090
-432.676	-26.626	-0.196	-0.115
-431.661	-200.000	-0.067	0.456
-430.646	289.957	-0.076	0.138
-429.632	-200.000	0.011	0.115
-428.617	373.320	-0.120	0.243
-427.603	-123.731	0.247	-0.039
-426.588	18.085	0.187	-0.149
-425.573	32.084	-0.115	0.099
-424.559	800.000	-0.115	0.462
-423.544	677.988	0.122	-0.318
-422.530	20.325	-0.149	0.120
-421.515	164.740	-0.066	0.093
-420.500	42.343	0.265	-0.241
-419.486	-82.862	0.127	0.041
-418.471	458.745	-0.045	0.100
-417.457	800.000	0.080	0.272
-416.442	-67.201	0.084	-0.033
-415.428	-14.600	0.106	-0.068
-414.413	275.732	0.073	-0.130
-413.398	-134.389	-0.178	0.022
-412.384	-200.000	0.006	0.074
-411.369	17.449	0.202	-0.161
-410.355	45.058	-0.170	-0.157
-409.340	-200.000	-0.006	-0.152
-408.325	-93.591	0.241	0.067
-407.311	-64.178	-0.133	0.054
-406.296	800.000	-0.062	0.250
-405.282	-200.000	0.048	-0.311
-404.267	-8.551	0.212	0.143
-403.252	-29.866	-0.150	0.086
-402.238	800.000	0.068	0.231
-401.223	-172.826	-0.106	0.003
-400.209	-61.837	-0.150	0.063
-399.194	-58.117	0.247	0.107
-398.179	-82.486	-0.069	0.022
-397.165	-89.160	0.106	0.031
-396.150	-89.956	-0.240	0.070
-395.136	124.896	0.099	0.125
-394.121	-106.980	0.115	0.025
-393.106	-200.000	-0.016	0.470
-392.092	-200.000	0.004	-0.160
-391.077	721.586	0.124	0.329
-390.063	-22.935	-0.288	-0.173
-389.048	-47.849	0.194	-0.094
-388.033	54.899	-0.185	0.178
-387.019	97.892	-0.122	-0.140
-386.004	-200.000	-0.021	-0.224
-384.990	-51.421	0.118	-0.055
-383.975	800.000	-0.029	-0.102
-382.960	101.336	-0.019	-0.022
-381.946	108.478	-0.052	0.062
-380.931	-200.000	-0.058	-0.351
-379.917	-161.845	0.167	0.008
-378.902	-200.000	-0.008	0.355
-377.888	403.509	-0.098	0.206
-376.873	42.693	0.150	0.137
-375.858	-200.000	0.077	0.370
-374.844	-43.019	0.213	0.108
-373.829	-200.000	-0.001	0.108
-372.815	-139.717	-0.178	0.019
-371.800	800.000	0.048	0.153
-370.785	-200.000	-0.030	0.276
-369.771	97.782	-0.169	0.194
-368.756	-113.953	-0.027	0.005
-367.742	129.116	0.054	0.068
-366.727	27.862	0.138	0.116
-365.712	-200.000	0.049	0.323
-364.698	-120.027	0.244	0.042
-363.683	-171.388	-0.276	-0.009
-362.669	199.655	-0.127	0.195
-361.654	-100.115	0.304	0.076
-360.639	49.768	-0.158	0.148
-359.625	517.956	-0.094	0.219
-358.610	-200.000	-0.078	0.517
-357.596	321.287	0.122	0.231
-356.581	-200.000	-0.011	-0.108
-355.566	77.560	-0.135	0.144
-354.552	293.197	-0.178	0.324
-353.537	-79.498	0.444	0.150
-352.523	-41.543	0.168	0.086
-351.508	-43.809	0.021	-0.011
-350.493	187.503	0.121	0.180
-349.479	458.225	0.106	-0.236
-348.464	-22.034	-0.285	-0.172
-347.450	-74.405	0.259	-0.093
-346.435	-42.247	0.200	-0.102
-345.420	800.000	0.048	-0.205
-344.406	11.103	0.145	-0.110
-343.391	-43.847	0.153	-0.077
-342.377	-200.000	0.035	0.331
-341.362	-95.390	-0.107	0.029
-340.348	76.971	-0.211	-0.223
-339.333	-181.568	0.277	0.005
-338.318	800.000	0.014	-0.059
-337.304	57.636	0.146	0.142
-336.289	297.473	-0.105	-0.192
-335.275	-200.000	-0.022	-0.113
-334.260	-158.666	-0.371	-0.021
-333.245	-142.094	-0.190	-0.019
-332.231	53.529	0.233	0.223
-331.216	-43.168	-0.112	-0.057
-330.202	-50.185	0.404	-0.191
-329.187	-148.983	-0.265	0.021
-328.172	-200.000	-0.017	-0.173
-327.158	11.334	-0.205	-0.156
-326.143	800.000	0.039	-0.112
-325.129	-200.000	-0.024	0.247
-324.114	-20.162	-0.266	-0.163
-323.099	649.493	0.053	0.134
-322.085	-20.599	-0.087	0.053
-321.070	269.404	0.152	-0.266
-320.056	175.668	-0.306	-0.443
-319.041	78.675	0.020	-0.021
-318.026	-71.412	0.193	0.072
-317.012	-1.708	0.192	-0.134
-315.997	-200.000	-0.003	-0.078
-314.983	8.517	0.068	-0.051
-313.968	800.000	-0.105	0.355
-312.953	-55.057	0.411	-0.184
-311.939	-53.552	0.070	0.032
-310.924	85.804	0.298	-0.327
-309.910	-200.000	-0.001	0.279
-308.895	-200.000	0.005	-0.368
-307.880	164.809	-0.032	-0.044
-306.866	-88.384	-0.327	0.097
-305.851	-200.000	0.000	0.102
-304.837	-70.098	0.158	-0.060
-303.822	100.410	0.216	-0.250
-302.807	311.359	0.140	-0.262
-301.793	-60.815	0.146	0.062
-300.778	166.590	0.153	0.216
-299.764	-200.000	-0.010	0.129
-298.749	-120.944	0.329	-0.055
-297.735	-64.865	-0.088	-0.035
-296.720	-70.103	0.056	0.021
-295.705	-200.000	-0.047	-0.315
-294.691	-107.463	-0.310	-0.068
-293.676	-200.000	-0.053	0.340
-292.662	34.049	-0.024	-0.021
-291.647	-121.222	-0.260	0.043
-290.632	-170.456	-0.103	0.004
-289.618	-142.362	0.048	-0.005
-288.603	443.238	-0.077	-0.168
-287.589	-168.228	0.142	-0.005
-286.574	114.809	0.029	0.035
-285.559	-117.295	0.156	-0.028
-284.545	292.410	-0.072	-0.130
-283.530	-130.399	0.179	0.024
-282.516	-49.203	0.241	0.115
-281.501	-112.819	-0.460	0.091
-280.486	-185.125	0.364	0.006
-279.472	-200.000	-0.050	0.245
-278.457	33.910	0.161	-0.139
-277.443	-58.898	-0.270	-0.116
-276.428	150.858	0.116	0.156
-275.413	-200.000	0.022	-0.218
-274.399	-78.523	0.345	-0.117
-273.384	800.000	0.078	0.232
-272.370	-63.605	0.166	0.068
-271.355	-3.666	-0.227	-0.157
-270.340	-200.000	-0.012	-0.082
-269.326	326.530	-0.082	0.157
-268.311	62.692	-0.215	-0.214
-267.297	-115.812	-0.394	-0.073
-266.282	-140.299	-0.321	-0.033
-265.267	248.244	0.061	0.102
-264.253	513.708	-0.208	0.482
-263.238	594.908	-0.057	-0.140
-262.224	-56.771	-0.235	0.103
-261.209	13.011	-0.153	0.118
-260.195	147.486	-0.181	0.242
-259.180	-200.000	-0.074	0.510
-258.165	14.323	-0.218	-0.169
-257.151	-59.382	-0.079	0.034
-256.136	-110.985	0.375	0.077
-255.122	-5.028	0.202	-0.138
-254.107	22.575	0.157	-0.128
-253.092	7.432	-0.071	0.053
-252.078	-164.844	0.347	0.015
-251.063	-91.488	0.365	0.103
-250.049	-200.000	-0.009	0.041
-249.034	-82.466	0.081	0.026
-248.019	800.000	-0.043	-0.120
-247.005	102.254	-0.075	-0.087
-245.990	-52.156	-0.307	-0.141
-244.976	453.105	-0.031	0.067
-243.961	105.777	-0.179	-0.210
-242.946	54.519	0.156	0.149
-241.932	32.348	-0.106	-0.091
-240.917	442.428	0.159	-0.346
-239.903	-200.000	0.008	-0.297
-238.888	55.055	-0.199	0.190
-237.873	91.818	-0.088	0.098
-236.859	443.006	-0.036	0.079
-235.844	-1.081	0.099	0.069
-234.830	800.000	0.032	0.116
-233.815	155.987	0.076	0.104
-232.800	1.364	-0.262	-0.187
-231.786	-200.000	-0.019	0.134
-230.771	-37.237	-0.200	0.106
-229.757	-88.065	-0.045	0.014
-228.742	-195.084	-0.161	0.001
-227.727	-26.212	0.284	-0.166
-226.713	285.020	-0.117	0.209
-225.698	-34.403	-0.207	-0.113
-224.684	800.000	-0.059	0.174
-223.669	127.219	-0.094	0.118
-222.655	1.599	0.128	-0.091
-221.640	-126.240	-0.134	-0.020
-220.625	-130.310	0.437	0.059
-219.611	492.363	0.111	0.251
-218.596	-200.000	-0.012	-0.317
-217.582	-200.000	0.005	0.106
-216.567	-71.951	-0.229	-0.084
-215.552	-18.335	0.190	-0.118
-214.538	-200.000	0.055	-0.314
-213.523	88.467	-0.147	-0.162
-212.509	-51.644	-0.171	-0.079
-211.494	153.592	-0.100	-0.136
-210.479	-76.892	0.112	0.039
-209.465	91.087	-0.118	0.131
-208.450	-95.065	-0.302	0.081
-207.436	-71.019	0.101	-0.038
-206.421	-200.000	0.035	0.396
-205.406	-115.661	0.030	0.006
-204.392	-15.998	0.300	-0.189
-203.377	419.842	-0.206	0.437
-202.363	-167.710	0.374	-0.015
-201.348	-200.000	0.003	0.027
-200.333	-83.097	-0.151	-0.048
-199.319	52.876	-0.128	0.121
-198.304	42.340	-0.191	-0.172
-197.290	-27.933	0.130	0.075
-196.275	22.090	0.120	-0.097
-195.260	-143.436	-0.403	-0.038
-194.246	426.854	0.043	-0.093
-193.231	195.771	0.103	-0.156
-192.217	28.514	0.059	0.049
-191.202	-200.000	-0.066	0.389
-190.187	145.635	0.201	-0.267
-189.173	463.600	-0.113	-0.251
-188.158	239.007	0.220	0.362
-187.144	17.571	-0.026	0.020
-186.129	-200.000	0.028	-0.245
-185.114	-200.000	-0.038	-0.478
-184.100	-200.000	-0.091	0.507
-183.085	-200.000	-0.014	0.103
-182.071	-200.000	0.021	-0.171
-181.056	14.993	-0.141	0.109
-180.042	-123.307	-0.166	0.026
-179.027	-57.369	0.169	-0.074
-178.012	800.000	-0.134	-0.434
-176.998	69.953	-0.098	0.100
-175.983	100.410	0.183	0.211
-174.969	385.494	-0.213	0.435
-173.954	46.713	-0.076	-0.070
-172.939	397.714	-0.131	-0.271
-171.925	-177.428	-0.166	0.004
-170.910	129.178	0.110	-0.139
-169.896	-178.421	0.208	0.005
-168.881	-99.464	0.073	-0.018
-167.866	-25.866	0.221	0.129
-166.852	-13.447	0.063	0.040
-165.837	44.443	0.302	0.274
-164.823	-79.419	0.145	-0.049
-163.808	-81.922	0.140	-0.045
-162.793	100.965	-0.119	0.137
-161.779	90.646	-0.075	-0.083
-160.764	-77.602	-0.230	0.079
-159.750	-200.000	-0.043	-0.258
-158.735	-89.218	0.173	0.051
-157.720	39.386	0.097	0.086
-156.706	-200.000	-0.040	-0.201
-155.691	94.312	-0.169	0.190
-154.677	581.520	-0.144	0.349
-153.662	52.928	0.054	-0.051
-152.647	-200.000	-0.022	0.272
-151.633	174.741	0.062	-0.089
-150.618	800.000	-0.059	0.215
-149.604	191.222	0.002	-0.003
-148.589	-146.012	0.059	-0.005
-147.574	-179.936	-0.268	0.006
-146.560	511.233	-0.061	0.141
-145.545	-200.000	-0.020	0.186
-144.531	-23.442	0.104	0.062
-143.516	25.003	-0.373	0.306
-142.502	-85.769	0.101	0.031
-141.487	45.113	0.191	0.175
-140.472	-80.921	0.224	-0.074
-139.458	800.000	0.081	-0.226
-138.443	747.849	-0.064	0.169
-137.429	167.678	0.009	0.013
-136.414	-200.000	0.007	0.195
-135.399	800.000	-0.031	-0.087
-134.385	-18.149	0.125	0.077
-133.370	-200.000	-0.001	0.009
-132.356	-98.253	-0.155	-0.039
-131.341	331.709	-0.163	-0.310
-130.326	-119.214	-0.028	0.005
-129.312	-200.000	-0.039	-0.228
-128.297	800.000	-0.112	0.341
-127.283	-113.926	-0.368	0.071
-126.268	41.648	0.175	0.157
-125.253	757.347	0.059	-0.157
-124.239	623.473	-0.034	0.086
-123.224	-200.000	0.030	-0.378
-122.210	-122.601	-0.296	0.047
-121.195	-33.260	0.107	0.059
