DTS Sentinel unit serial number:	SN413079Multiplexer serial number:	ORYXHardware model number:	OX4-SRSoftware version number:	ORYX F/W v4.00 Oryx Data Collector v3.7.2.0data status	okinstallation	princeton_trtdifferential loss correction	single-endedforward channel	channel 3reverse channel	N/Adate	2019/09/11time	04:22:10forward acquisition time	60.00reverse acquisition time	0.00gamma	496.2192k internal	0.2330k external	0.2330temperature offset calibration	0.9914default loss term (dB/km)	0.3790temperature slope calibration	1.0000multiplexer offset coefficient	1.0000multiplexer slope coefficient	1.0000fibre end	0.00T internal ref (°C)	29.56T ext. ref 1 (°C)	-0.27T ext. ref 2 (°C)	23.34length (m)	temperature (°C)	Stokes	anti-Stokes-747.200	-91.254	0.179	0.052
-746.185	-81.407	-0.140	0.046
-745.171	-15.853	0.131	0.084
-744.156	406.006	-0.094	0.200
-743.142	-66.741	0.130	-0.052
-742.127	533.020	-0.040	-0.095
-741.112	-8.082	0.214	-0.145
-740.098	800.000	-0.070	0.270
-739.083	246.468	-0.038	0.064
-738.069	-32.799	-0.125	-0.070
-737.054	-200.000	0.007	0.336
-736.039	-53.828	-0.192	-0.088
-735.025	-31.230	0.156	0.088
-734.010	-3.470	-0.063	0.044
-732.996	-200.000	-0.007	0.238
-731.981	-79.279	0.096	-0.033
-730.966	-40.914	-0.255	-0.132
-729.952	31.865	0.137	-0.119
-728.937	53.919	-0.212	-0.205
-727.923	-31.352	-0.222	-0.126
-726.908	800.000	-0.053	0.179
-725.894	67.801	-0.322	-0.331
-724.879	800.000	0.118	-0.345
-723.864	-200.000	-0.021	-0.100
-722.850	-10.284	0.020	0.014
-721.835	-1.964	0.048	-0.034
-720.821	-200.000	0.066	0.449
-719.806	-112.653	-0.168	-0.034
-718.791	-11.421	0.135	-0.089
-717.777	63.004	-0.071	0.072
-716.762	-200.000	-0.003	0.130
-715.748	-21.031	0.159	0.098
-714.733	-134.488	-0.284	0.035
-713.718	-89.185	-0.259	-0.077
-712.704	-135.752	-0.242	-0.029
-711.689	-67.112	-0.222	-0.088
-710.675	187.138	-0.064	0.096
-709.660	800.000	-0.071	-0.244
-708.645	73.353	0.192	-0.202
-707.631	13.930	0.276	0.216
-706.616	135.684	0.185	-0.242
-705.602	96.861	0.073	-0.084
-704.587	58.554	-0.181	-0.179
-703.572	-133.104	-0.175	-0.022
-702.558	377.568	-0.091	0.186
-701.543	134.332	0.073	0.095
-700.529	-200.000	-0.017	0.246
-699.514	800.000	-0.055	0.160
-698.499	-200.000	-0.040	-0.383
-697.485	-34.481	-0.230	-0.127
-696.470	-0.109	-0.058	0.042
-695.456	78.202	-0.263	0.282
-694.441	-107.893	-0.095	-0.021
-693.426	66.972	-0.320	-0.327
-692.412	67.668	0.159	0.163
-691.397	-120.345	-0.411	-0.070
-690.383	-151.641	0.149	0.011
-689.368	246.426	0.077	-0.131
-688.354	-17.060	0.248	-0.157
-687.339	-112.463	0.190	-0.038
-686.324	260.807	0.072	-0.126
-685.310	-173.373	-0.108	-0.003
-684.295	-92.967	-0.320	0.090
-683.281	800.000	-0.088	-0.253
-682.266	4.867	0.184	-0.136
-681.251	120.901	-0.165	-0.206
-680.237	34.976	-0.059	-0.052
-679.222	-200.000	0.012	0.100
-678.208	-131.969	-0.173	0.023
-677.193	-200.000	0.016	-0.237
-676.178	-200.000	0.034	-0.180
-675.164	88.421	-0.099	-0.110
-674.149	220.329	-0.148	-0.238
-673.135	800.000	-0.133	0.434
-672.120	800.000	-0.038	-0.118
-671.105	278.022	0.152	0.272
-670.091	-200.000	0.003	0.216
-669.076	-96.647	-0.214	0.056
-668.062	800.000	-0.033	-0.125
-667.047	-123.896	0.413	-0.065
-666.032	-200.000	-0.005	-0.097
-665.018	286.051	-0.108	-0.196
-664.003	-75.877	-0.044	-0.015
-662.989	-95.307	0.100	-0.027
-661.974	-162.595	-0.085	-0.004
-660.959	-116.567	-0.106	0.020
-659.945	-62.083	-0.068	-0.029
-658.930	374.450	0.107	-0.219
-657.916	-70.453	-0.157	-0.060
-656.901	155.283	-0.182	0.251
-655.886	-200.000	0.007	0.167
-654.872	-200.000	0.051	-0.290
-653.857	81.048	-0.299	0.324
-652.843	-200.000	0.032	-0.375
-651.828	376.546	-0.060	0.122
-650.814	-200.000	0.009	-0.186
-649.799	-91.451	-0.095	0.027
-648.784	-50.201	0.352	0.167
-647.770	5.681	-0.055	0.040
-646.755	-82.662	0.303	0.098
-645.741	80.895	0.162	-0.175
-644.726	-13.966	0.113	-0.073
-643.711	-157.504	-0.016	0.001
-642.697	800.000	0.137	-0.390
-641.682	-200.000	-0.004	-0.104
-640.668	-131.671	-0.201	0.027
-639.653	255.797	-0.261	0.448
-638.638	111.845	-0.127	0.154
-637.624	52.618	0.157	-0.150
-636.609	84.014	-0.094	0.103
-635.595	-36.409	-0.128	-0.069
-634.580	76.146	-0.145	-0.154
-633.565	76.287	-0.122	-0.130
-632.551	-59.429	0.241	-0.104
-631.536	215.315	0.042	0.067
-630.522	-200.000	-0.024	-0.150
-629.507	-124.269	-0.057	0.009
-628.492	-134.333	-0.438	-0.054
-627.478	-200.000	0.017	0.103
-626.463	128.629	0.130	0.167
-625.449	-123.572	0.144	-0.023
-624.434	720.788	-0.037	-0.097
-623.419	-200.000	0.038	0.237
-622.405	198.402	0.160	0.246
-621.390	34.584	0.228	-0.200
-620.376	-159.217	0.313	-0.018
-619.361	64.510	-0.152	0.153
-618.346	-200.000	-0.019	0.099
-617.332	-200.000	0.030	-0.200
-616.317	321.180	0.153	-0.292
-615.303	10.504	0.294	-0.224
-614.288	236.431	-0.086	0.142
-613.273	-199.490	-0.182	-0.001
-612.259	-71.140	-0.178	-0.067
-611.244	61.951	0.282	0.281
-610.230	-22.054	0.191	0.116
-609.215	741.059	-0.094	-0.253
-608.201	-39.661	0.032	0.017
-607.186	-126.812	-0.268	-0.040
-606.171	-6.134	0.167	0.114
-605.157	-94.072	-0.320	-0.088
-604.142	290.686	-0.081	-0.148
-603.128	-200.000	0.062	-0.385
-602.113	154.939	0.077	-0.106
-601.098	-93.047	0.242	0.068
-600.084	-200.000	-0.024	0.250
-599.069	-32.810	0.102	-0.057
-598.055	48.186	-0.039	0.036
-597.040	-200.000	0.006	-0.096
-596.025	-152.155	-0.080	-0.006
-595.011	-176.541	-0.376	-0.010
-593.996	-62.526	-0.204	-0.085
-592.982	-108.157	0.446	0.097
-591.967	-113.284	0.209	-0.041
-590.952	116.411	-0.043	-0.053
-589.938	44.820	-0.310	-0.285
-588.923	36.640	-0.295	-0.260
-587.909	-34.640	-0.320	-0.175
-586.894	-200.000	-0.016	-0.092
-585.879	647.438	-0.094	-0.240
-584.865	800.000	-0.054	0.163
-583.850	-200.000	0.044	0.197
-582.836	-85.003	-0.167	-0.052
-581.821	254.300	0.116	-0.198
-580.806	-123.809	0.291	0.046
-579.792	-102.135	-0.244	0.059
-578.777	475.030	-0.072	-0.162
-577.763	800.000	-0.062	-0.230
-576.748	247.726	-0.078	0.132
-575.733	-21.933	0.084	-0.051
-574.719	800.000	0.040	0.132
-573.704	-7.058	-0.160	-0.108
-572.690	-63.056	-0.222	0.092
-571.675	-8.277	0.216	-0.146
-570.661	758.318	0.119	-0.321
-569.646	-131.385	0.259	-0.034
-568.631	-151.519	-0.119	-0.009
-567.617	-45.104	-0.142	-0.070
-566.602	-198.886	0.173	-0.001
-565.588	-155.207	-0.068	0.004
-564.573	83.146	0.164	0.178
-563.558	83.648	0.291	-0.317
-562.544	800.000	-0.072	-0.268
-561.529	-13.831	-0.152	-0.098
-560.515	800.000	-0.031	-0.134
-559.500	663.135	-0.106	0.273
-558.485	-200.000	0.041	-0.181
-557.471	-200.000	-0.011	0.351
-556.456	800.000	-0.034	-0.102
-555.442	-103.817	0.536	0.125
-554.427	-7.760	0.219	-0.148
-553.412	-47.730	-0.155	-0.075
-552.398	710.707	0.087	0.230
-551.383	-106.940	0.121	-0.027
-550.369	41.296	0.103	-0.093
-549.354	-200.000	0.010	0.103
-548.339	-28.380	-0.126	-0.073
-547.325	-200.000	-0.004	-0.141
-546.310	69.934	-0.306	0.316
-545.296	-200.000	-0.033	-0.223
-544.281	42.662	-0.301	0.274
-543.266	-200.000	0.027	-0.150
-542.252	402.176	-0.132	0.278
-541.237	-36.690	0.042	-0.023
-540.223	33.324	-0.080	-0.070
-539.208	800.000	-0.059	0.214
-538.193	11.808	-0.062	0.047
-537.179	-83.128	-0.325	-0.105
-536.164	-198.330	-0.190	-0.001
-535.150	-200.000	0.053	-0.296
-534.135	800.000	0.108	0.341
-533.121	-200.000	-0.025	-0.117
-532.106	757.895	0.101	0.272
-531.091	38.147	0.079	0.070
-530.077	-200.000	0.011	-0.153
-529.062	21.623	-0.122	0.099
-528.048	-167.869	-0.062	-0.002
-527.033	-200.000	-0.068	-0.371
-526.018	-4.983	0.099	0.068
-525.004	256.823	-0.179	-0.307
-523.989	-200.000	0.023	-0.124
-522.975	39.942	0.155	0.139
-521.960	195.534	0.141	-0.214
-520.945	220.594	0.184	0.295
-519.931	-90.861	-0.210	0.060
-518.916	-11.471	0.121	0.079
-517.902	22.923	0.147	-0.121
-516.887	3.510	-0.208	0.151
-515.872	800.000	-0.051	-0.146
-514.858	175.341	-0.016	-0.023
-513.843	88.814	-0.109	0.121
-512.829	291.368	0.123	0.224
-511.814	-200.000	0.004	-0.029
-510.799	596.475	-0.102	-0.251
-509.785	-200.000	-0.008	0.071
-508.770	-31.912	0.261	0.146
-507.756	-127.397	0.308	0.045
-506.741	-47.889	-0.118	-0.057
-505.726	121.307	-0.117	-0.145
-504.712	-200.000	-0.044	0.296
-503.697	179.869	-0.112	-0.163
-502.683	-16.139	-0.144	-0.091
-501.668	-200.000	-0.021	0.160
-500.653	-83.671	-0.422	-0.135
-499.639	-89.879	0.308	0.090
-498.624	-34.824	0.254	-0.138
-497.610	-70.569	-0.051	-0.019
-496.595	140.561	-0.062	-0.081
-495.581	-141.621	-0.255	0.026
-494.566	-90.753	-0.217	0.062
-493.551	-162.459	0.326	0.016
-492.537	239.485	-0.186	-0.308
-491.522	0.166	-0.121	-0.086
-490.508	-9.714	-0.119	0.079
-489.493	-16.126	-0.245	0.155
-488.478	213.986	-0.153	0.241
-487.464	605.609	-0.085	-0.211
-486.449	-90.380	0.544	-0.157
-485.435	267.379	-0.106	-0.186
-484.420	-200.000	-0.037	-0.234
-483.405	-91.333	-0.122	0.035
-482.391	800.000	0.044	-0.135
-481.376	-200.000	-0.012	-0.133
-480.362	103.372	0.208	-0.243
-479.347	217.963	0.028	-0.045
-478.332	-126.936	0.329	0.048
-477.318	-19.723	0.179	0.111
-476.303	-37.510	0.255	-0.135
-475.289	-176.991	0.353	0.009
-474.274	-146.665	-0.296	-0.026
-473.259	-200.000	0.019	-0.201
-472.245	-200.000	-0.005	0.096
-471.230	-41.132	-0.195	-0.100
-470.216	168.584	0.111	0.158
-469.201	-54.453	0.131	0.059
-468.186	800.000	-0.010	-0.035
-467.172	26.547	0.154	-0.128
-466.157	-20.791	-0.116	-0.071
-465.143	800.000	-0.074	0.236
-464.128	-69.126	-0.169	0.065
-463.113	601.866	0.082	-0.204
-462.099	-131.517	0.155	-0.020
-461.084	471.015	-0.205	-0.459
-460.070	-200.000	-0.042	0.201
-459.055	-5.900	-0.228	0.156
-458.040	600.276	-0.077	-0.190
-457.026	-38.772	0.264	0.138
-456.011	126.740	0.055	-0.069
-454.997	-160.409	-0.090	0.005
-453.982	294.118	-0.086	-0.156
-452.968	-200.000	-0.237	-0.001
-451.953	-174.107	0.255	-0.007
-450.938	93.221	-0.192	-0.216
-449.924	-38.153	0.346	-0.183
-448.909	-10.064	-0.343	0.227
-447.895	-48.411	-0.237	-0.114
-446.880	73.332	0.174	-0.181
-445.865	67.475	0.110	-0.112
-444.851	-200.000	0.005	-0.375
-443.836	-70.981	-0.259	-0.097
-442.822	92.654	-0.036	-0.040
-441.807	-32.453	-0.185	0.102
-440.792	-200.000	0.062	0.286
-439.778	800.000	-0.139	0.385
-438.763	-79.360	0.349	-0.117
-437.749	451.213	-0.094	-0.207
-436.734	0.457	0.190	-0.135
-435.719	800.000	0.038	0.121
-434.705	118.669	-0.015	-0.019
-433.690	110.145	0.124	-0.148
-432.676	-89.174	-0.153	-0.045
-431.661	95.746	-0.049	-0.055
-430.646	18.375	0.073	-0.058
-429.632	-200.000	-0.025	-0.128
-428.617	-200.000	0.019	-0.177
-427.603	-51.762	-0.428	0.198
-426.588	800.000	0.058	0.183
-425.573	99.285	0.142	0.164
-424.559	355.501	0.081	0.161
-423.544	-137.255	0.270	0.031
-422.530	-195.342	-0.389	-0.003
-421.515	57.615	-0.034	-0.033
-420.500	-81.509	-0.209	0.068
-419.486	800.000	-0.067	0.204
-418.471	-200.000	0.029	0.314
-417.457	68.073	0.109	-0.111
-416.442	-200.000	0.047	0.381
-415.428	-200.000	0.036	0.297
-414.413	-200.000	-0.032	-0.267
-413.398	196.017	0.172	-0.260
-412.384	800.000	-0.019	0.068
-411.369	-200.000	0.022	0.170
-410.355	151.710	0.370	0.502
-409.340	-33.404	-0.186	0.102
-408.325	-72.843	-0.273	0.100
-407.311	-54.919	-0.415	0.186
-406.296	-101.403	-0.194	0.047
-405.282	693.114	0.118	0.306
-404.267	800.000	-0.101	-0.423
-403.252	68.956	0.193	-0.197
-402.238	84.770	0.098	0.107
-401.223	570.224	-0.046	0.112
-400.209	-113.072	0.040	0.008
-399.194	346.821	0.192	-0.375
-398.179	-200.000	-0.052	-0.420
-397.165	192.533	0.311	0.467
-396.150	-95.892	0.310	0.082
-395.136	281.467	0.202	0.359
-394.121	152.962	0.107	0.145
-393.106	-29.526	0.170	0.096
-392.092	25.602	0.120	0.099
-391.077	69.758	-0.141	0.145
-390.063	114.356	0.166	-0.200
-389.048	-200.000	-0.047	-0.215
-388.033	181.597	-0.170	0.248
-387.019	-140.802	0.054	-0.006
-386.004	800.000	-0.034	0.099
-384.990	-2.792	-0.400	0.278
-383.975	-200.000	-0.008	0.068
-382.960	-200.000	0.051	-0.456
-381.946	162.035	-0.041	-0.057
-380.931	-186.295	-0.360	0.005
-379.917	-74.966	-0.062	0.022
-378.902	-115.775	0.137	0.025
-377.888	-127.647	0.183	-0.026
-376.873	50.297	-0.243	-0.228
-375.858	-43.399	0.026	-0.013
-374.844	-200.000	0.009	-0.100
-373.829	120.636	-0.179	0.221
-372.815	800.000	0.061	0.234
-371.800	138.890	0.267	0.348
-370.785	66.694	0.090	-0.091
-369.771	114.295	0.110	0.133
-368.756	128.254	-0.108	0.136
-367.742	-112.033	0.306	0.061
-366.727	-102.393	0.241	0.057
-365.712	64.508	-0.058	0.058
-364.698	-200.000	0.009	-0.138
-363.683	22.683	0.206	0.168
-362.669	-200.000	-0.003	0.293
-361.654	-200.000	0.026	-0.118
-360.639	-118.275	-0.162	-0.029
-359.625	-29.490	0.009	0.005
-358.610	443.444	-0.144	-0.313
-357.596	-175.927	0.390	-0.010
-356.581	-200.000	-0.003	-0.025
-355.566	-87.923	-0.260	0.078
-354.552	-200.000	0.031	-0.143
-353.537	1.753	-0.412	0.295
-352.523	327.666	-0.071	-0.135
-351.508	800.000	-0.065	0.252
-350.493	-200.000	0.060	-0.424
-349.479	-132.470	0.169	-0.022
-348.464	-96.340	-0.150	0.039
-347.450	-26.434	0.148	-0.086
-346.435	-68.963	-0.221	0.085
-345.420	-8.911	0.230	-0.153
-344.406	258.038	0.103	-0.175
-343.391	-117.687	0.128	-0.023
-342.377	-46.081	0.253	-0.124
-341.362	127.442	-0.237	0.298
-340.348	374.870	-0.029	0.059
-339.333	105.379	-0.171	0.200
-338.318	-57.196	-0.271	-0.118
-337.304	-111.552	-0.070	0.014
-336.289	-200.000	-0.016	0.133
-335.275	563.493	-0.116	0.278
-334.260	-49.018	-0.252	-0.120
-333.245	126.529	0.173	-0.217
-332.231	-200.000	0.584	-0.001
-331.216	-74.581	-0.391	-0.140
-330.202	133.108	0.161	0.205
-329.187	230.076	-0.229	-0.371
-328.172	71.480	-0.091	0.093
-327.158	7.271	-0.104	-0.077
-326.143	16.643	0.133	0.104
-325.129	-12.151	0.171	0.111
-324.114	-60.860	0.325	-0.136
-323.099	800.000	-0.119	-0.486
-322.085	150.870	-0.171	0.230
-321.070	372.549	-0.040	0.080
-320.056	173.594	-0.151	0.215
-319.041	174.470	-0.098	-0.140
-318.026	416.602	-0.042	0.088
-317.012	-21.727	-0.193	-0.117
-315.997	187.663	-0.113	0.167
-314.983	-176.988	-0.206	0.005
-313.968	-4.565	-0.048	0.033
-312.953	268.802	0.067	-0.116
-311.939	-69.001	-0.229	-0.088
-310.924	-200.000	0.053	0.243
-309.910	-179.958	0.379	0.008
-308.895	178.311	0.062	0.090
-307.880	62.649	-0.287	0.284
-306.866	-122.525	0.151	0.024
-305.851	-200.000	0.007	0.107
-304.837	800.000	-0.019	0.058
-303.822	214.276	-0.149	0.233
-302.807	127.858	0.258	-0.324
-301.793	800.000	-0.039	-0.133
-300.778	114.962	-0.142	-0.171
-299.764	303.570	0.086	0.158
-298.749	159.942	0.244	0.336
-297.735	111.665	0.109	-0.130
-296.720	-200.000	-0.068	0.354
-295.705	156.045	-0.206	0.281
-294.691	-200.000	0.036	0.391
-293.676	170.920	0.046	0.066
-292.662	663.799	0.169	0.431
-291.647	334.842	0.024	-0.046
-290.632	120.133	0.105	0.129
-289.618	-59.071	0.303	-0.129
-288.603	-182.532	-0.103	0.002
-287.589	-5.129	0.303	-0.206
-286.574	-98.856	0.303	0.076
-285.559	-0.941	-0.160	0.112
-284.545	-200.000	0.005	-0.102
-283.530	153.663	-0.075	-0.101
-282.516	-200.000	0.045	0.411
-281.501	-200.000	-0.008	0.054
-280.486	-140.306	0.346	-0.036
-279.472	-80.042	0.309	0.102
-278.457	-200.000	-0.012	-0.138
-277.443	146.165	0.394	0.522
-276.428	312.916	0.116	-0.216
-275.413	282.407	-0.053	0.094
-274.399	-115.896	-0.090	0.017
-273.384	16.088	-0.075	-0.059
-272.370	391.365	-0.106	0.217
-271.355	-60.882	0.160	-0.067
-270.340	-200.000	-0.054	-0.337
-269.326	93.954	-0.216	-0.242
-268.311	249.954	-0.133	0.224
-267.297	800.000	-0.074	0.293
-266.282	264.745	-0.115	-0.198
-265.267	76.290	-0.158	0.165
-264.253	-128.185	0.139	0.020
-263.238	-200.000	-0.008	0.048
-262.224	800.000	-0.116	0.490
-261.209	-41.990	-0.041	0.021
-260.195	-131.186	-0.109	0.014
-259.180	-162.462	-0.294	-0.014
-258.165	319.730	-0.098	0.183
-257.151	-4.226	0.150	0.103
-256.136	39.874	-0.129	-0.114
-255.122	32.794	0.132	0.113
-254.107	96.118	0.163	-0.184
-253.092	99.148	-0.290	-0.330
-252.078	-8.185	0.289	0.192
-251.063	1.020	0.146	-0.103
-250.049	-200.000	-0.018	-0.291
-249.034	59.217	0.108	-0.105
-248.019	374.313	0.158	-0.317
-247.005	293.852	-0.111	-0.201
-245.990	77.338	-0.233	-0.245
-244.976	49.587	0.043	0.040
-243.961	26.970	0.077	-0.063
-242.946	160.216	0.064	0.089
-241.932	-200.000	0.018	0.180
-240.917	43.728	-0.104	-0.094
-239.903	-12.105	0.019	0.012
-238.888	351.772	-0.073	0.143
-237.873	-53.206	0.268	0.122
-236.859	-151.278	-0.106	0.008
-235.844	-145.670	0.275	0.024
-234.830	753.780	0.066	0.176
-233.815	132.005	-0.254	-0.323
-232.800	10.057	-0.138	0.104
-231.786	-110.098	-0.394	0.081
-230.771	-17.035	0.299	-0.186
-229.757	800.000	-0.035	-0.107
-228.742	-129.045	0.243	0.034
-227.727	-109.652	-0.096	0.020
-226.713	275.080	0.127	-0.221
-225.698	-200.000	0.045	-0.204
-224.684	-61.859	-0.103	0.042
-223.669	-164.040	0.300	0.014
-222.655	-70.334	0.103	-0.038
-221.640	246.898	-0.254	0.423
-220.625	8.310	0.189	0.140
-219.611	800.000	0.043	0.178
-218.596	-200.000	-0.020	-0.256
-217.582	-75.601	-0.298	-0.104
-216.567	-176.025	0.381	-0.010
-215.552	-147.222	-0.294	0.025
-214.538	110.105	0.181	0.215
-213.523	-31.535	-0.269	0.149
-212.509	241.899	0.093	0.154
-211.494	-113.201	0.118	-0.023
-210.479	-148.509	-0.090	0.007
-209.465	-200.000	0.043	-0.294
-208.450	-90.054	-0.214	-0.062
-207.436	-3.891	0.261	0.178
-206.421	800.000	-0.076	-0.226
-205.406	-200.000	0.012	-0.110
-204.392	86.283	0.203	-0.221
-203.377	-200.000	-0.007	-0.039
-202.363	-150.451	0.202	-0.015
-201.348	-200.000	0.058	-0.546
-200.333	-115.731	-0.100	-0.019
-199.319	-58.907	-0.195	0.083
-198.304	769.873	-0.030	0.081
-197.290	-84.799	0.153	-0.048
-196.275	-200.000	-0.006	0.031
-195.260	800.000	0.014	-0.041
-194.246	-56.211	-0.449	0.197
-193.231	312.084	0.236	0.435
-192.217	38.142	-0.166	0.145
-191.202	-200.000	-0.004	-0.068
-190.187	-8.664	0.037	0.024
-189.173	-75.658	-0.198	0.069
-188.158	-86.313	-0.233	-0.071
-187.144	800.000	0.044	-0.166
-186.129	73.380	0.133	0.137
-185.114	506.516	-0.039	-0.088
-184.100	118.696	0.060	-0.073
-183.085	-200.000	0.051	-0.360
-182.071	-34.662	-0.133	0.071
-181.056	-122.593	0.261	0.042
-180.042	-108.360	-0.057	0.012
-179.027	-20.402	0.120	-0.073
-178.012	31.139	-0.399	0.337
-176.998	-51.349	0.203	0.094
-175.983	-5.223	0.062	0.042
-174.969	30.588	-0.161	-0.135
-173.954	-68.937	0.376	0.143
-172.939	732.261	-0.060	0.159
-171.925	-200.000	0.061	0.312
-170.910	482.362	0.068	0.152
-169.896	-200.000	-0.081	-0.349
-168.881	-200.000	-0.041	-0.210
-167.866	-200.000	0.052	-0.377
-166.852	-141.404	0.201	-0.020
-165.837	238.294	-0.054	-0.089
-164.823	123.977	-0.273	0.338
-163.808	-126.156	0.145	-0.021
-162.793	800.000	0.014	-0.043
-161.779	-127.182	-0.156	-0.022
-160.764	70.559	0.095	0.097
-159.750	283.486	0.135	0.238
-158.735	450.630	-0.047	-0.103
-157.720	-200.000	-0.262	0.000
-156.706	-113.064	0.130	0.025
-155.691	-200.000	-0.003	-0.135
-154.677	14.714	-0.175	-0.135
-153.662	800.000	0.057	0.183
-152.647	169.016	0.213	-0.298
-151.633	6.816	-0.367	0.269
-150.618	-172.616	0.170	-0.005
-149.604	59.210	0.246	0.238
-148.589	-76.925	-0.287	0.099
-147.574	-152.899	-0.254	-0.018
-146.560	-115.744	0.289	-0.053
-145.545	-161.210	-0.333	-0.017
-144.531	699.879	-0.048	0.124
-143.516	-27.056	-0.176	0.101
-142.502	219.561	-0.097	0.152
-141.487	-200.000	0.005	0.075
-140.472	-20.056	0.402	-0.244
-139.458	-16.291	-0.184	-0.115
-138.443	-144.012	-0.137	-0.013
-137.429	4.506	-0.155	0.112
-136.414	-117.142	0.253	-0.045
-135.399	-122.054	0.220	0.036
-134.385	25.620	-0.320	0.262
-133.370	-124.707	0.166	0.025
-132.356	9.507	-0.191	0.142
-131.341	339.755	-0.082	0.157
-130.326	279.090	0.006	0.010
-129.312	-200.000	-0.010	-0.210
-128.297	-146.636	-0.198	0.017
-127.283	-165.717	-0.060	-0.003
-126.268	140.190	-0.105	0.136
-125.253	-150.132	0.128	0.010
-124.239	-130.724	0.443	0.059
-123.224	26.361	0.122	0.100
-122.210	54.239	-0.194	-0.184
