DTS Sentinel unit serial number:	SN413079Multiplexer serial number:	ORYXHardware model number:	OX4-SRSoftware version number:	ORYX F/W v4.00 Oryx Data Collector v3.7.2.0data status	okinstallation	princeton_trtdifferential loss correction	single-endedforward channel	channel 3reverse channel	N/Adate	2019/09/16time	14:04:34forward acquisition time	60.00reverse acquisition time	0.00gamma	496.2192k internal	0.2293k external	0.2293temperature offset calibration	0.9943default loss term (dB/km)	0.3790temperature slope calibration	1.0000multiplexer offset coefficient	1.0000multiplexer slope coefficient	1.0000fibre end	0.00T internal ref (°C)	42.37T ext. ref 1 (°C)	14.06T ext. ref 2 (°C)	37.01length (m)	temperature (°C)	Stokes	anti-Stokes-747.200	800.000	-0.068	0.233
-746.185	-118.583	-0.297	-0.054
-745.171	167.453	0.159	-0.232
-744.156	85.261	-0.161	0.181
-743.142	-135.606	0.161	-0.020
-742.127	-4.775	-0.087	0.061
-741.112	800.000	-0.068	-0.253
-740.098	-148.240	-0.350	0.030
-739.083	800.000	-0.087	-0.279
-738.069	102.228	-0.176	0.210
-737.054	111.814	0.165	0.204
-736.039	-200.000	-0.245	0.000
-735.025	-144.573	0.270	0.026
-734.010	57.169	-0.185	0.184
-732.996	-109.640	-0.148	-0.032
-731.981	310.113	-0.088	-0.169
-730.966	-200.000	-0.086	-0.465
-729.952	87.486	-0.197	-0.222
-728.937	179.540	-0.042	-0.063
-727.923	-34.215	0.163	0.092
-726.908	-120.471	-0.095	0.016
-725.894	44.460	-0.142	-0.134
-724.879	-200.000	0.016	0.144
-723.864	135.365	-0.118	-0.157
-722.850	-200.000	-0.006	0.033
-721.835	-200.000	0.003	-0.340
-720.821	550.958	0.052	0.127
-719.806	-143.567	-0.372	0.036
-718.791	760.915	-0.048	-0.134
-717.777	-73.732	-0.208	0.077
-716.762	-200.000	-0.039	-0.236
-715.748	-147.361	-0.132	0.011
-714.733	-36.818	-0.161	-0.088
-713.718	-200.000	-0.081	-0.367
-712.704	-109.762	0.182	0.039
-711.689	-200.000	-0.018	-0.140
-710.675	37.237	0.182	-0.164
-709.660	-180.852	-0.349	-0.007
-708.645	-69.384	-0.366	-0.144
-707.631	-200.000	0.280	0.001
-706.616	646.379	-0.056	0.147
-705.602	-51.062	0.152	0.073
-704.587	-11.910	0.103	0.069
-703.572	142.531	-0.227	-0.308
-702.558	-31.671	-0.241	0.138
-701.543	-200.000	0.065	0.319
-700.529	673.686	0.087	0.230
-699.514	-200.000	0.040	0.197
-698.499	27.939	-0.138	-0.119
-697.485	-146.872	0.211	0.019
-696.470	-200.000	0.000	-0.223
-695.456	-35.522	0.118	-0.065
-694.441	-8.420	-0.125	-0.086
-693.426	-39.945	0.225	-0.120
-692.412	167.421	0.062	-0.090
-691.397	800.000	0.091	-0.259
-690.383	51.234	0.053	0.052
-689.368	134.158	-0.182	-0.241
-688.354	800.000	-0.046	-0.164
-687.339	-133.010	0.115	0.015
-686.324	800.000	0.069	0.214
-685.310	43.628	0.127	0.119
-684.295	-46.430	-0.070	-0.035
-683.281	696.425	0.049	0.130
-682.266	-200.000	0.009	0.347
-681.251	652.155	-0.124	0.323
-680.237	800.000	-0.108	0.384
-679.222	800.000	0.109	-0.322
-678.208	-77.490	-0.215	-0.076
-677.193	800.000	-0.051	0.202
-676.178	49.294	-0.066	-0.063
-675.164	-200.000	0.004	0.284
-674.149	-40.586	0.136	0.072
-673.135	-101.437	0.273	-0.068
-672.120	488.787	-0.084	-0.197
-671.105	-51.068	0.137	-0.065
-670.091	-26.798	-0.164	0.098
-669.076	615.067	-0.088	-0.225
-668.062	-200.000	-0.006	0.152
-667.047	-118.842	0.155	-0.028
-666.032	-62.658	-0.157	-0.066
-665.018	-45.298	-0.157	0.079
-664.003	209.665	0.110	0.175
-662.989	17.412	-0.187	-0.151
-661.974	409.455	-0.135	-0.291
-660.959	-118.284	0.362	0.066
-659.945	-129.060	-0.363	0.052
-658.930	-123.818	-0.202	0.033
-657.916	245.509	-0.092	0.158
-656.901	-89.466	-0.131	-0.039
-655.886	659.428	-0.029	-0.076
-654.872	180.553	0.030	0.044
-653.857	10.762	-0.101	0.078
-652.843	-117.661	-0.372	0.068
-651.828	-77.205	-0.338	-0.120
-650.814	-200.000	-0.045	0.375
-649.799	-200.000	-0.005	-0.071
-648.784	-12.485	-0.161	0.107
-647.770	800.000	-0.027	0.105
-646.755	130.657	-0.077	-0.100
-645.741	-1.442	-0.401	-0.289
-644.726	800.000	0.005	0.024
-643.711	-200.000	0.025	-0.291
-642.697	-59.615	-0.270	0.118
-641.682	614.276	0.103	0.263
-640.668	-200.000	0.023	-0.164
-639.653	-66.568	-0.178	-0.072
-638.638	-55.901	-0.114	0.052
-637.624	117.730	0.010	0.013
-636.609	56.208	-0.282	0.279
-635.595	97.171	-0.125	0.146
-634.580	-51.349	-0.030	-0.014
-633.565	800.000	-0.073	0.226
-632.551	-200.000	0.030	-0.244
-631.536	800.000	-0.086	-0.361
-630.522	-200.000	-0.016	0.093
-629.507	-108.294	-0.315	-0.069
-628.492	55.842	-0.178	0.175
-627.478	800.000	0.042	0.147
-626.463	800.000	-0.092	-0.411
-625.449	1.154	0.210	0.154
-624.434	-27.363	0.185	-0.109
-623.419	-158.668	-0.352	0.021
-622.405	482.636	0.058	-0.133
-621.390	86.769	0.108	-0.121
-620.376	-166.217	0.183	0.008
-619.361	-2.939	0.250	-0.178
-618.346	-140.139	0.071	0.008
-617.332	-200.000	-0.063	0.391
-616.317	89.314	-0.181	-0.206
-615.303	-19.836	-0.110	-0.069
-614.288	800.000	-0.048	0.153
-613.273	-200.000	-0.024	-0.160
-612.259	-74.136	-0.308	0.114
-611.244	-131.865	0.197	0.026
-610.230	-200.000	-0.141	0.000
-609.215	398.759	0.077	0.163
-608.201	-200.000	-0.018	-0.207
-607.186	-200.000	-0.059	-0.343
-606.171	800.000	-0.133	-0.397
-605.157	800.000	-0.039	0.136
-604.142	-120.476	-0.174	-0.030
-603.128	-200.000	-0.049	-0.264
-602.113	800.000	0.033	-0.122
-601.098	-200.000	-0.021	0.150
-600.084	226.802	0.102	-0.168
-599.069	24.442	-0.249	0.209
-598.055	-75.792	-0.105	-0.038
-597.040	-53.654	0.179	-0.083
-596.025	800.000	0.076	-0.316
-595.011	-141.482	-0.417	0.043
-593.996	-95.102	0.077	-0.021
-592.982	-8.002	0.064	-0.044
-591.967	192.481	0.191	-0.293
-590.952	-24.082	-0.062	0.038
-589.938	-78.557	0.377	-0.131
-588.923	-200.000	-0.018	-0.237
-587.909	53.478	-0.185	0.181
-586.894	-200.000	-0.006	0.273
-585.879	67.380	0.228	-0.236
-584.865	-200.000	-0.015	-0.105
-583.850	-48.559	-0.179	-0.088
-582.836	51.332	0.129	-0.125
-581.821	-200.000	-0.011	0.076
-580.806	442.571	-0.056	0.125
-579.792	-164.213	-0.386	-0.018
-578.777	-56.190	0.226	-0.102
-577.763	-188.934	-0.335	-0.004
-576.748	-91.358	0.453	0.132
-575.733	-83.232	0.203	-0.066
-574.719	-8.784	-0.156	0.106
-573.704	633.713	-0.070	-0.180
-572.690	800.000	-0.061	0.222
-571.675	-200.000	0.018	-0.143
-570.661	-200.000	0.012	-0.116
-569.646	212.991	-0.058	0.093
-568.631	-49.116	0.049	0.024
-567.617	800.000	-0.029	-0.121
-566.602	-78.746	-0.137	-0.047
-565.588	-92.071	0.108	-0.031
-564.573	23.744	-0.217	0.182
-563.558	174.108	0.054	-0.079
-562.544	606.213	0.077	0.196
-561.529	670.787	0.096	-0.252
-560.515	32.020	-0.181	0.159
-559.500	64.115	-0.227	-0.232
-558.485	-59.860	-0.220	0.096
-557.471	160.147	0.036	-0.050
-556.456	359.529	0.155	0.314
-555.442	208.610	-0.167	0.266
-554.427	112.521	-0.120	0.147
-553.412	-98.382	-0.182	-0.047
-552.398	66.156	0.417	-0.430
-551.383	-127.658	-0.038	-0.006
-550.369	-75.825	0.257	-0.092
-549.354	-128.826	0.152	-0.022
-548.339	-131.540	-0.316	0.042
-547.325	-115.661	0.040	0.008
-546.310	703.507	0.070	-0.187
-545.296	-146.197	-0.218	0.019
-544.281	-200.000	0.045	-0.234
-543.266	128.115	-0.090	-0.116
-542.252	-110.994	0.117	0.024
-541.237	-81.481	0.194	0.065
-540.223	19.299	0.091	0.074
-539.208	109.207	-0.150	-0.182
-538.193	406.181	0.177	0.379
-537.179	-133.587	-0.180	0.023
-536.164	-167.914	0.339	-0.014
-535.150	64.638	0.337	0.345
-534.135	800.000	-0.066	0.278
-533.121	-4.051	0.043	0.030
-532.106	-30.004	0.067	-0.039
-531.091	19.706	-0.384	0.313
-530.077	409.792	0.055	-0.119
-529.062	6.091	-0.128	0.097
-528.048	-14.230	-0.171	-0.112
-527.033	122.604	0.127	0.161
-526.018	-82.876	-0.392	-0.128
-525.004	-200.000	-0.038	-0.179
-523.989	47.482	-0.202	-0.191
-522.975	-200.000	0.001	0.096
-521.960	-200.000	0.004	0.061
-520.945	550.241	0.044	0.108
-519.931	54.134	-0.170	0.166
-518.916	-24.136	0.194	-0.117
-517.902	455.210	0.049	-0.110
-516.887	-200.000	-0.005	-0.079
-515.872	55.157	-0.149	0.146
-514.858	404.568	0.019	0.040
-513.843	372.678	0.092	0.190
-512.829	-96.148	0.279	0.075
-511.814	33.828	0.208	-0.184
-510.799	55.963	0.273	-0.269
-509.785	-93.782	-0.352	-0.098
-508.770	419.723	-0.024	0.051
-507.756	-200.000	0.001	0.397
-506.741	-173.474	-0.248	0.008
-505.726	-101.165	-0.165	-0.041
-504.712	-66.022	-0.259	-0.105
-503.697	-102.081	0.494	0.121
-502.683	-27.900	-0.139	0.082
-501.668	293.634	0.161	-0.298
-500.653	69.803	0.161	-0.168
-499.639	-200.000	-0.211	0.001
-498.624	800.000	-0.020	0.062
-497.610	800.000	0.103	0.338
-496.595	-66.482	0.386	-0.155
-495.581	117.849	0.121	-0.151
-494.566	-154.561	-0.366	-0.025
-493.551	-44.263	-0.422	-0.214
-492.537	-138.847	-0.105	0.012
-491.522	-93.753	-0.243	0.068
-490.508	-95.111	-0.120	-0.033
-489.493	-200.000	-0.013	0.109
-488.478	-124.642	0.205	0.032
-487.464	-67.443	-0.222	0.088
-486.449	800.000	-0.090	-0.326
-485.435	-124.858	0.156	0.024
-484.420	-200.000	0.011	0.105
-483.405	109.893	-0.057	-0.070
-482.391	-126.231	0.105	0.016
-481.376	380.904	-0.056	0.116
-480.362	-31.138	0.325	-0.186
-479.347	-70.764	-0.135	0.051
-478.332	713.814	0.088	0.235
-477.318	-84.989	0.113	-0.036
-476.303	-61.948	0.037	0.016
-475.289	-63.883	0.002	-0.001
-474.274	-96.098	-0.259	-0.070
-473.259	492.514	-0.098	-0.228
-472.245	169.209	0.129	0.187
-471.230	66.753	0.137	-0.141
-470.216	157.235	-0.183	0.257
-469.201	319.886	0.106	-0.203
-468.186	44.954	0.099	-0.092
-467.172	-77.960	0.246	0.086
-466.157	84.089	0.204	0.225
-465.143	800.000	-0.049	0.175
-464.128	-156.332	0.388	-0.025
-463.113	-200.000	-0.058	-0.354
-462.099	35.749	-0.283	0.252
-461.084	-200.000	0.037	-0.337
-460.070	-41.808	-0.025	0.013
-459.055	-178.362	-0.107	-0.003
-458.040	-143.610	0.111	0.011
-457.026	17.522	-0.084	-0.067
-456.011	300.555	-0.009	0.016
-454.997	-200.000	-0.029	-0.274
-453.982	247.834	-0.047	-0.080
-452.968	-50.757	0.276	0.131
-451.953	-200.000	0.015	0.076
-450.938	285.076	-0.133	0.243
-449.924	800.000	-0.075	0.311
-448.909	-5.600	0.046	-0.032
-447.895	-38.045	-0.093	0.050
-446.880	26.112	-0.127	-0.108
-445.865	-36.338	0.132	0.072
-444.851	326.171	0.056	0.109
-443.836	1.093	0.103	0.075
-442.822	-200.000	0.035	0.159
-441.807	-50.834	-0.044	0.021
-440.792	-12.234	-0.110	-0.073
-439.778	114.830	-0.082	0.101
-438.763	800.000	-0.031	-0.110
-437.749	7.690	0.178	0.135
-436.734	-200.000	0.006	-0.232
-435.719	-4.922	0.042	-0.029
-434.705	104.327	0.051	0.061
-433.690	-83.236	-0.287	-0.093
-432.676	32.327	-0.191	0.167
-431.661	-54.860	-0.168	-0.077
-430.646	51.040	0.253	-0.243
-429.632	499.810	-0.064	0.150
-428.617	455.410	-0.011	-0.025
-427.603	5.501	0.123	-0.092
-426.588	800.000	0.028	-0.091
-425.573	305.486	0.090	0.169
-424.559	-200.000	0.008	0.100
-423.544	78.620	-0.183	0.198
-422.530	4.722	-0.195	-0.145
-421.515	-113.366	-0.182	-0.036
-420.500	-141.507	-0.171	-0.018
-419.486	-5.412	0.249	-0.173
-418.471	-7.169	-0.177	-0.121
-417.457	268.070	-0.098	-0.174
-416.442	-69.293	0.271	-0.105
-415.428	-98.533	-0.177	0.046
-414.413	-10.777	-0.367	0.245
-413.398	800.000	-0.038	-0.110
-412.384	-200.000	-0.049	0.233
-411.369	800.000	-0.068	-0.228
-410.355	224.840	0.107	-0.175
-409.340	-44.096	0.290	-0.147
-408.325	-71.328	0.202	0.077
-407.311	800.000	0.035	-0.110
-406.296	-140.972	0.431	-0.045
-405.282	301.839	0.190	0.354
-404.267	654.271	0.103	-0.267
-403.252	76.567	0.351	-0.376
-402.238	-33.080	-0.108	0.060
-401.223	-172.521	-0.071	0.002
-400.209	45.749	0.111	-0.104
-399.194	-200.000	0.026	-0.147
-398.179	-161.392	-0.242	0.013
-397.165	-92.426	0.187	-0.053
-396.150	-119.937	-0.278	0.048
-395.136	800.000	0.063	0.243
-394.121	103.897	-0.168	0.200
-393.106	387.432	-0.143	0.298
-392.092	341.953	0.136	0.269
-391.077	-19.298	0.283	0.177
-390.063	47.636	0.281	0.265
-389.048	-200.000	0.028	0.325
-388.033	57.010	0.119	0.117
-387.019	-71.520	0.178	-0.067
-386.004	-118.342	0.363	0.065
-384.990	-45.856	0.140	0.070
-383.975	-200.000	0.008	-0.178
-382.960	-108.885	0.084	-0.018
-381.946	-200.000	-0.000	0.044
-380.931	177.078	0.131	0.193
-379.917	-2.870	0.131	-0.092
-378.902	-123.216	-0.226	0.037
-377.888	-122.693	0.236	-0.039
-376.873	-200.000	0.009	-0.043
-375.858	-26.312	0.189	-0.112
-374.844	-136.069	-0.168	0.020
-373.829	-200.000	0.213	0.001
-372.815	800.000	0.020	0.060
-371.800	-65.839	-0.169	-0.068
-370.785	-200.000	-0.004	-0.126
-369.771	-200.000	-0.033	0.202
-368.756	-68.354	-0.239	0.093
-367.742	-51.201	-0.099	0.047
-366.727	800.000	0.093	0.382
-365.712	775.147	-0.120	0.331
-364.698	-56.780	-0.228	0.102
-363.683	-200.000	-0.013	0.082
-362.669	-49.725	0.184	-0.088
-361.654	197.720	-0.098	0.151
-360.639	259.331	0.075	0.130
-359.625	181.079	-0.069	-0.103
-358.610	-147.678	0.228	0.019
-357.596	-42.947	0.262	0.134
-356.581	-26.827	-0.286	0.169
-355.566	70.499	0.151	-0.158
-354.552	62.976	0.064	-0.064
-353.537	-142.792	0.157	-0.015
-352.523	-169.243	0.079	-0.003
-351.508	300.488	0.076	0.141
-350.493	21.139	-0.125	-0.102
-349.479	-200.000	-0.011	0.156
-348.464	-200.000	-0.026	-0.209
-347.450	676.810	-0.036	-0.093
-346.435	313.899	0.049	0.093
-345.420	-200.000	-0.009	-0.074
-344.406	-133.242	-0.057	0.007
-343.391	-200.000	0.022	-0.151
-342.377	-128.768	-0.583	-0.083
-341.362	-98.757	0.148	0.038
-340.348	800.000	-0.061	-0.175
-339.333	25.888	0.168	-0.141
-338.318	-200.000	-0.006	0.401
-337.304	254.875	-0.173	-0.298
-336.289	-106.366	0.356	-0.080
-335.275	800.000	-0.036	-0.146
-334.260	571.772	-0.054	-0.132
-333.245	800.000	-0.061	-0.201
-332.231	-12.331	-0.313	-0.206
-331.216	-200.000	0.017	-0.299
-330.202	68.186	-0.054	0.055
-329.187	-88.236	-0.325	0.098
-328.172	24.359	0.376	-0.313
-327.158	-92.692	0.098	-0.028
-326.143	321.251	0.101	0.194
-325.129	64.580	-0.031	0.032
-324.114	-101.312	0.300	0.074
-323.099	76.883	0.171	0.182
-322.085	-200.000	-0.120	-0.000
-321.070	12.140	-0.258	0.200
-320.056	85.147	0.183	0.202
-319.041	-40.882	0.226	0.117
-318.026	-200.000	-0.042	0.345
-317.012	136.574	-0.048	-0.063
-315.997	70.861	0.066	-0.069
-314.983	-21.411	0.119	0.073
-313.968	800.000	0.105	0.314
-312.953	210.223	-0.110	0.174
-311.939	324.989	-0.097	-0.186
-310.924	800.000	-0.025	0.091
-309.910	-30.916	-0.187	-0.106
-308.895	766.014	-0.120	-0.329
-307.880	-98.209	-0.343	0.089
-306.866	279.702	-0.084	-0.151
-305.851	200.355	-0.040	0.061
-304.837	268.777	-0.048	0.084
-303.822	-31.802	0.262	0.148
-302.807	22.299	0.376	0.309
-301.793	232.963	0.094	0.156
-300.778	-200.000	0.033	0.277
-299.764	-200.000	0.046	0.409
-298.749	761.662	0.017	-0.047
-297.735	-110.453	0.227	0.047
-296.720	-12.209	0.219	-0.144
-295.705	-3.832	0.087	0.061
-294.691	-140.552	0.305	0.032
-293.676	208.585	0.122	0.192
-292.662	513.055	-0.139	0.325
-291.647	512.916	0.166	0.389
-290.632	800.000	0.018	-0.049
-289.618	72.816	0.131	-0.138
-288.603	-200.000	0.012	-0.146
-287.589	-200.000	0.009	-0.217
-286.574	218.818	-0.097	0.155
-285.559	-24.852	0.139	0.083
-284.545	21.627	-0.286	-0.234
-283.530	518.376	-0.094	0.222
-282.516	-135.612	0.215	0.026
-281.501	-4.435	-0.180	0.125
-280.486	-93.332	0.229	-0.064
-279.472	-59.204	0.149	-0.064
-278.457	84.962	0.175	0.193
-277.443	284.249	0.140	0.253
-276.428	-182.282	-0.055	0.001
-275.413	-199.811	-0.241	0.001
-274.399	-72.517	-0.118	0.044
-273.384	-157.731	0.621	0.037
-272.370	-200.000	-0.006	-0.063
-271.355	90.161	-0.050	-0.056
-270.340	5.616	0.106	0.079
-269.326	18.178	0.184	-0.147
-268.311	-200.000	-0.017	-0.258
-267.297	-115.608	-0.076	-0.014
-266.282	-100.617	-0.054	0.013
-265.267	549.492	0.015	-0.035
-264.253	-200.000	-0.030	-0.429
-263.238	-200.000	-0.002	-0.223
-262.224	800.000	-0.106	-0.349
-261.209	-200.000	0.015	-0.304
-260.195	-200.000	-0.017	0.137
-259.180	-155.550	-0.603	-0.039
-258.165	-118.779	0.073	0.013
-257.151	-200.000	-0.045	-0.427
-256.136	46.681	0.140	-0.131
-255.122	24.343	0.134	-0.111
-254.107	402.261	-0.138	0.292
-253.092	-42.745	-0.217	0.111
-252.078	-200.000	-0.017	0.106
-251.063	800.000	0.040	-0.127
-250.049	-50.658	0.354	-0.167
-249.034	-47.595	-0.265	0.129
-248.019	-135.578	-0.062	0.007
-247.005	178.287	0.039	0.057
-245.990	800.000	0.086	0.279
-244.976	-65.570	0.211	-0.085
-243.961	54.563	-0.117	-0.113
-242.946	366.054	0.035	0.070
-241.932	-200.000	0.010	-0.074
-240.917	116.622	-0.116	-0.142
-239.903	242.114	-0.056	-0.093
-238.888	114.524	-0.094	0.114
-237.873	-200.000	0.052	-0.319
-236.859	-98.354	0.340	0.087
-235.844	-200.000	-0.003	0.252
-234.830	19.810	-0.142	-0.115
-233.815	800.000	-0.116	-0.330
-232.800	-159.846	0.239	-0.013
-231.786	-97.954	0.404	0.104
-230.771	800.000	0.016	-0.060
-229.757	43.439	0.246	0.225
-228.742	-180.573	-0.016	0.000
-227.727	-200.000	0.035	-0.193
-226.713	218.223	0.043	0.069
-225.698	-24.779	-0.112	0.066
-224.684	800.000	0.032	0.094
-223.669	-70.178	-0.334	0.127
-222.655	509.783	-0.050	0.116
-221.640	-200.000	0.033	0.239
-220.625	-200.000	0.049	-0.394
-219.611	-200.000	0.006	0.101
-218.596	800.000	-0.040	-0.153
-217.582	-20.904	-0.083	-0.051
-216.567	-74.577	-0.160	-0.058
-215.552	49.882	-0.218	-0.206
-214.538	404.351	0.244	-0.515
-213.523	695.434	0.040	-0.105
-212.509	-120.624	0.275	-0.047
-211.494	-107.064	0.135	0.030
-210.479	36.066	0.262	0.231
-209.465	-139.974	-0.264	-0.028
-208.450	-50.485	-0.306	-0.145
-207.436	182.508	0.182	-0.269
-206.421	50.196	0.294	0.278
-205.406	165.237	-0.097	-0.137
-204.392	-58.931	-0.331	-0.143
-203.377	800.000	-0.084	-0.332
-202.363	-38.106	0.126	0.067
-201.348	-98.143	-0.375	0.097
-200.333	-148.485	-0.171	-0.014
-199.319	-13.378	0.124	0.080
-198.304	115.776	-0.107	0.131
-197.290	-17.170	0.117	-0.074
-196.275	210.137	0.072	-0.113
-195.260	-9.896	-0.330	-0.220
-194.246	-42.547	0.245	-0.125
-193.231	-32.157	-0.062	-0.035
-192.217	-160.939	0.394	-0.021
-191.202	27.666	0.358	0.302
-190.187	-200.000	-0.004	0.187
-189.173	-50.168	0.148	0.070
-188.158	4.808	0.298	0.219
-187.144	415.950	0.102	-0.218
-186.129	517.974	0.109	-0.256
-185.114	-81.506	0.086	-0.028
-184.100	-104.104	-0.031	0.007
-183.085	-45.905	-0.110	0.054
-182.071	800.000	-0.065	0.218
-181.056	-200.000	0.002	-0.032
-180.042	800.000	-0.049	0.183
-179.027	236.115	0.072	0.118
-178.012	-200.000	-0.042	0.225
-176.998	89.700	-0.138	0.155
-175.983	-28.972	-0.383	0.220
-174.969	-200.000	-0.001	0.157
-173.954	800.000	0.036	-0.117
-172.939	57.567	-0.126	-0.123
-171.925	158.274	0.258	0.358
-170.910	-200.000	-0.071	0.502
-169.896	-101.620	-0.263	0.064
-168.881	-38.999	-0.118	-0.062
-167.866	253.754	0.087	0.149
-166.852	-200.000	-0.012	0.060
-165.837	119.240	-0.245	-0.303
-164.823	-200.000	-0.020	-0.459
-163.808	-200.000	0.032	-0.287
-162.793	51.715	-0.238	0.226
-161.779	-122.308	-0.468	-0.076
-160.764	138.746	0.039	0.051
-159.750	-36.437	-0.139	-0.075
-158.735	340.573	-0.111	-0.216
-157.720	800.000	-0.044	0.172
-156.706	4.866	0.253	0.186
-155.691	-99.139	0.088	-0.022
-154.677	-46.101	-0.039	0.019
-153.662	739.164	0.127	-0.339
-152.647	228.111	0.207	0.338
-151.633	-129.839	-0.209	0.029
-150.618	800.000	-0.032	0.092
-149.604	-200.000	-0.024	0.165
-148.589	-33.568	-0.029	-0.016
-147.574	244.054	-0.089	0.150
-146.560	-152.019	0.079	0.006
-145.545	-200.000	0.005	-0.182
-144.531	-200.000	-0.012	0.103
-143.516	410.001	0.086	0.182
-142.502	112.349	0.278	0.336
-141.487	121.641	-0.076	0.094
-140.472	43.137	0.152	0.139
-139.458	7.725	0.041	0.031
-138.443	6.802	-0.434	-0.323
-137.429	-200.000	0.017	0.441
-136.414	-55.433	0.172	-0.077
-135.399	44.810	-0.109	-0.100
-134.385	296.427	-0.199	-0.365
-133.370	73.782	-0.074	-0.078
-132.356	-200.000	-0.032	-0.138
-131.341	41.442	0.337	-0.305
-130.326	800.000	0.136	0.434
-129.312	-67.043	0.205	-0.081
-128.297	379.720	0.088	0.180
-127.283	-59.460	0.280	0.120
-126.268	314.835	0.098	-0.185
-125.253	401.729	-0.178	0.373
-124.239	126.348	-0.268	-0.339
-123.224	179.672	-0.116	-0.170
-122.210	-24.807	0.236	0.140
-121.195	-62.734	-0.272	0.113
