DTS Sentinel unit serial number:	SN413079Multiplexer serial number:	ORYXHardware model number:	OX4-SRSoftware version number:	ORYX F/W v4.00 Oryx Data Collector v3.7.2.0data status	okinstallation	princeton_trtdifferential loss correction	single-endedforward channel	channel 3reverse channel	N/Adate	2019/09/15time	12:32:35forward acquisition time	60.00reverse acquisition time	0.00gamma	496.2192k internal	0.2299k external	0.2299temperature offset calibration	0.9972default loss term (dB/km)	0.3790temperature slope calibration	1.0000multiplexer offset coefficient	1.0000multiplexer slope coefficient	1.0000fibre end	0.00T internal ref (°C)	35.22T ext. ref 1 (°C)	5.05T ext. ref 2 (°C)	33.06length (m)	temperature (°C)	Stokes	anti-Stokes-747.200	-148.313	0.204	-0.017
-746.185	-61.070	0.565	0.244
-745.171	800.000	-0.054	-0.192
-744.156	118.952	-0.084	0.106
-743.142	485.581	-0.040	0.093
-742.127	109.720	0.078	-0.096
-741.112	-116.357	0.207	0.039
-740.098	-200.000	-0.019	0.142
-739.083	266.162	0.071	-0.127
-738.069	8.594	0.057	0.044
-737.054	19.145	0.117	0.096
-736.039	64.116	-0.061	0.062
-735.025	-86.040	0.207	-0.065
-734.010	-8.361	0.046	-0.032
-732.996	197.682	-0.152	-0.236
-731.981	150.483	0.169	0.234
-730.966	600.168	-0.016	0.042
-729.952	-200.000	-0.003	0.086
-728.937	-143.348	0.174	0.017
-727.923	41.946	-0.113	0.105
-726.908	369.177	-0.058	-0.119
-725.894	-138.483	-0.297	-0.033
-724.879	-108.594	-0.131	0.029
-723.864	130.212	-0.096	0.126
-722.850	-62.670	-0.093	0.039
-721.835	72.160	0.113	-0.120
-720.821	-200.000	-0.105	-0.535
-719.806	308.474	-0.131	-0.250
-718.791	191.147	0.156	-0.240
-717.777	800.000	-0.017	-0.052
-716.762	-200.000	-0.019	-0.157
-715.748	-111.055	-0.318	-0.067
-714.733	-200.000	0.017	-0.150
-713.718	-11.402	-0.180	-0.121
-712.704	-200.000	-0.003	-0.034
-711.689	-104.243	0.439	0.104
-710.675	500.449	-0.071	-0.167
-709.660	-53.030	-0.332	0.155
-708.645	-34.639	0.143	-0.080
-707.631	-85.531	0.264	0.084
-706.616	800.000	0.092	-0.260
-705.602	-157.488	-0.043	-0.003
-704.587	-25.478	-0.274	0.165
-703.572	-118.959	0.221	0.039
-702.558	77.042	0.204	-0.221
-701.543	-41.393	-0.116	-0.061
-700.529	165.469	-0.223	-0.322
-699.514	800.000	-0.076	0.248
-698.499	-200.000	-0.005	-0.089
-697.485	800.000	-0.136	0.440
-696.470	-62.595	0.174	-0.074
-695.456	-200.000	0.004	-0.229
-694.441	129.921	-0.103	0.134
-693.426	83.574	0.034	-0.038
-692.412	-20.407	-0.087	-0.054
-691.397	-200.000	-0.002	0.059
-690.383	-102.379	-0.158	-0.039
-689.368	-129.041	0.100	-0.014
-688.354	-102.804	-0.228	-0.055
-687.339	-33.754	-0.260	-0.146
-686.324	-36.684	0.253	-0.138
-685.310	-200.000	0.005	-0.225
-684.295	-200.000	-0.031	0.255
-683.281	-111.414	-0.123	0.026
-682.266	169.417	-0.185	-0.268
-681.251	-127.278	-0.244	0.036
-680.237	-200.000	-0.028	0.234
-679.222	-200.000	0.015	-0.181
-678.208	-94.590	-0.196	0.054
-677.193	430.649	-0.151	0.333
-676.178	-118.353	-0.314	-0.057
-675.164	3.187	0.079	-0.059
-674.149	695.415	0.085	-0.228
-673.135	66.615	-0.366	-0.379
-672.120	-102.915	0.222	-0.054
-671.105	394.727	-0.128	-0.271
-670.091	-198.066	-0.289	0.002
-669.076	148.471	-0.078	-0.108
-668.062	74.572	-0.130	0.139
-667.047	-165.739	-0.118	-0.005
-666.032	-184.462	-0.311	0.005
-665.018	524.936	0.072	-0.172
-664.003	545.139	-0.088	0.214
-662.989	-138.107	-0.147	0.017
-661.974	-109.447	-0.052	0.011
-660.959	469.345	0.064	0.147
-659.945	-152.844	-0.066	-0.005
-658.930	334.587	0.175	-0.346
-657.916	351.465	0.041	-0.082
-656.901	345.232	-0.094	-0.187
-655.886	143.988	-0.264	-0.359
-654.872	48.296	0.209	-0.199
-653.857	-110.545	-0.140	-0.029
-652.843	-7.933	-0.088	0.061
-651.828	8.398	-0.127	-0.097
-650.814	-117.826	0.368	-0.067
-649.799	-200.000	-0.006	-0.156
-648.784	-200.000	0.053	0.381
-647.770	270.490	0.046	-0.083
-646.755	68.861	-0.312	-0.326
-645.741	70.463	-0.254	0.267
-644.726	23.094	0.233	0.194
-643.711	74.253	0.164	0.175
-642.697	-200.000	-0.016	-0.143
-641.682	244.647	-0.147	-0.251
-640.668	-106.462	0.333	0.076
-639.653	141.759	0.055	-0.073
-638.638	211.116	0.065	-0.104
-637.624	-96.819	-0.222	-0.059
-636.609	-200.000	0.129	0.000
-635.595	800.000	-0.047	-0.160
-634.580	190.766	0.134	-0.205
-633.565	218.326	0.056	0.092
-632.551	-200.000	0.022	-0.125
-631.536	800.000	0.112	0.374
-630.522	26.711	-0.206	-0.175
-629.507	-43.020	0.101	-0.052
-628.492	39.181	-0.263	-0.239
-627.478	-200.000	-0.066	-0.298
-626.463	-200.000	0.067	-0.402
-625.449	800.000	0.008	0.037
-624.434	-126.341	0.024	0.004
-623.419	-60.281	-0.138	0.060
-622.405	-162.471	-0.357	0.018
-621.390	75.227	-0.150	-0.161
-620.376	-200.000	-0.049	0.252
-619.361	-62.637	0.430	0.181
-618.346	21.572	0.019	0.016
-617.332	-200.000	0.000	-0.186
-616.317	-86.332	-0.317	0.099
-615.303	-200.000	-0.007	-0.411
-614.288	-128.200	-0.447	-0.065
-613.273	497.775	0.057	-0.132
-612.259	469.706	0.091	-0.209
-611.244	-38.289	0.423	0.227
-610.230	669.185	0.087	0.228
-609.215	33.991	-0.078	-0.069
-608.201	98.586	-0.121	0.141
-607.186	-53.093	0.273	-0.127
-606.171	120.438	0.242	-0.306
-605.157	-123.229	0.367	-0.060
-604.142	-132.304	-0.087	0.011
-603.128	-59.100	-0.063	-0.027
-602.113	-125.186	0.309	-0.048
-601.098	-200.000	-0.015	0.138
-600.084	-29.531	0.184	-0.106
-599.069	800.000	0.212	0.597
-598.055	800.000	0.028	-0.082
-597.040	-104.519	-0.377	0.088
-596.025	501.442	-0.055	0.128
-595.011	166.321	-0.085	-0.123
-593.996	-12.803	0.136	-0.090
-592.982	-173.755	0.067	0.002
-591.967	-40.462	-0.046	-0.024
-590.952	-50.636	-0.141	0.067
-589.938	-97.646	0.194	-0.051
-588.923	-26.732	-0.219	0.130
-587.909	23.393	0.327	0.273
-586.894	49.796	-0.164	0.157
-585.879	224.293	0.178	0.292
-584.865	239.865	0.280	0.473
-583.850	381.183	-0.010	-0.021
-582.836	-83.298	-0.339	-0.110
-581.821	-76.868	-0.039	0.014
-580.806	-65.917	-0.307	-0.124
-579.792	169.483	-0.236	0.341
-578.777	-61.858	-0.169	-0.072
-577.763	460.967	-0.127	0.287
-576.748	-69.986	-0.102	0.039
-575.733	-25.417	0.200	0.120
-574.719	-200.000	0.041	0.211
-573.704	-2.166	0.136	-0.097
-572.690	243.787	-0.046	-0.078
-571.675	-200.000	0.155	0.001
-570.661	225.746	-0.124	0.204
-569.646	-166.896	0.314	0.013
-568.631	-92.507	-0.379	0.108
-567.617	-81.530	-0.074	0.025
-566.602	800.000	0.058	0.168
-565.588	15.874	-0.212	0.169
-564.573	31.386	-0.113	0.098
-563.558	202.801	0.109	-0.171
-562.544	456.828	-0.101	-0.228
-561.529	-200.000	-0.019	0.178
-560.515	297.290	-0.099	0.183
-559.500	32.299	0.094	0.082
-558.485	-200.000	-0.002	-0.113
-557.471	252.949	0.051	0.087
-556.456	-200.000	0.062	-0.371
-555.442	-122.586	0.203	0.033
-554.427	-40.823	-0.222	0.117
-553.412	-72.842	-0.286	0.107
-552.398	800.000	0.011	-0.043
-551.383	-143.281	-0.148	0.014
-550.369	182.304	0.195	-0.291
-549.354	-200.000	-0.000	-0.030
-548.339	800.000	0.046	-0.147
-547.325	-200.000	0.003	-0.173
-546.310	800.000	-0.020	0.074
-545.296	191.979	0.102	0.155
-544.281	-23.658	-0.168	0.102
-543.266	-200.000	-0.008	-0.230
-542.252	-174.685	-0.193	-0.006
-541.237	-84.009	0.084	0.027
-540.223	-0.034	-0.181	0.130
-539.208	-200.000	-0.015	0.249
-538.193	8.051	0.086	0.066
-537.179	-200.000	0.017	-0.075
-536.164	39.922	0.229	-0.208
-535.150	-97.960	-0.089	-0.023
-534.135	-16.116	0.103	-0.066
-533.121	-128.354	-0.024	-0.003
-532.106	145.136	-0.247	0.334
-531.091	-119.553	0.191	-0.034
-530.077	-30.585	0.123	-0.071
-529.062	-200.000	0.029	0.163
-528.048	183.370	-0.183	0.274
-527.033	73.511	0.135	-0.143
-526.018	800.000	-0.109	-0.400
-525.004	-48.644	0.124	-0.060
-523.989	-115.298	-0.100	-0.019
-522.975	-64.564	-0.182	0.075
-521.960	69.787	0.153	-0.160
-520.945	800.000	-0.011	-0.036
-519.931	279.287	0.075	-0.135
-518.916	-89.842	-0.606	0.179
-517.902	227.459	-0.053	-0.087
-516.887	78.415	0.028	0.030
-515.872	-103.893	0.258	-0.061
-514.858	-86.207	-0.619	-0.193
-513.843	-125.823	0.123	0.019
-512.829	106.044	0.084	0.100
-511.814	-60.780	-0.251	0.108
-510.799	94.681	0.004	-0.005
-509.785	2.643	-0.154	-0.113
-508.770	101.820	0.017	-0.021
-507.756	148.810	0.110	-0.151
-506.741	228.404	0.164	-0.270
-505.726	129.094	0.177	0.228
-504.712	-200.000	0.008	0.183
-503.697	6.263	0.170	0.128
-502.683	382.795	0.091	-0.189
-501.668	-138.058	0.107	-0.012
-500.653	38.197	0.195	-0.176
-499.639	-200.000	0.059	0.330
-498.624	-128.436	-0.096	-0.014
-497.610	1.468	0.210	-0.153
-496.595	800.000	-0.035	0.154
-495.581	31.009	-0.119	0.103
-494.566	800.000	-0.048	-0.202
-493.551	264.371	0.270	-0.476
-492.537	-70.223	-0.362	0.139
-491.522	445.193	-0.031	0.068
-490.508	442.416	-0.124	0.273
-489.493	92.382	-0.215	0.245
-488.478	-200.000	0.006	-0.067
-487.464	74.911	-0.211	-0.224
-486.449	164.085	-0.134	-0.190
-485.435	-40.121	0.350	0.184
-484.420	153.449	-0.036	0.050
-483.405	-200.000	0.019	-0.296
-482.391	-137.527	-0.103	-0.012
-481.376	140.975	-0.094	0.126
-480.362	51.516	0.229	-0.220
-479.347	-152.101	-0.140	-0.010
-478.332	-117.782	-0.302	0.055
-477.318	-67.051	0.130	0.052
-476.303	800.000	0.017	0.075
-475.289	-200.000	-0.042	-0.375
-474.274	554.058	0.043	-0.104
-473.259	0.781	0.095	-0.069
-472.245	-29.637	-0.182	0.105
-471.230	484.423	0.076	-0.176
-470.216	800.000	0.028	-0.081
-469.201	97.135	0.158	-0.183
-468.186	-24.657	0.426	0.256
-467.172	312.111	-0.119	-0.225
-466.157	-192.402	0.251	0.002
-465.143	-141.506	0.185	-0.019
-464.128	-59.235	-0.312	-0.136
-463.113	279.606	-0.154	0.278
-462.099	-157.516	0.164	-0.010
-461.084	-143.535	-0.349	-0.034
-460.070	-82.276	-0.228	0.075
-459.055	171.311	0.206	-0.299
-458.040	-200.000	0.005	-0.181
-457.026	-11.828	-0.126	-0.083
-456.011	66.083	-0.128	-0.131
-454.997	-29.099	-0.299	-0.173
-453.982	69.751	0.063	-0.066
-452.968	-200.000	0.016	0.153
-451.953	-22.665	0.159	-0.097
-450.938	-39.013	0.100	0.053
-449.924	-74.787	0.210	-0.076
-448.909	-200.000	-0.009	-0.167
-447.895	168.873	-0.154	0.221
-446.880	133.114	-0.175	0.228
-445.865	44.443	0.391	-0.363
-444.851	23.228	0.064	0.053
-443.836	170.216	0.113	-0.163
-442.822	13.602	-0.194	-0.152
-441.807	-200.000	-0.060	-0.338
-440.792	-79.234	0.132	-0.045
-439.778	351.216	0.204	0.406
-438.763	670.940	0.157	0.411
-437.749	-96.196	0.020	0.005
-436.734	151.843	-0.108	0.148
-435.719	800.000	-0.046	-0.138
-434.705	-154.389	0.218	-0.015
-433.690	136.254	0.095	0.125
-432.676	-128.563	0.208	-0.030
-431.661	-46.240	0.067	0.033
-430.646	80.531	0.167	0.181
-429.632	477.883	0.166	-0.379
-428.617	-145.472	-0.219	0.020
-427.603	87.564	-0.028	0.031
-426.588	696.274	-0.010	-0.027
-425.573	54.798	-0.136	0.133
-424.559	298.551	0.145	-0.270
-423.544	158.602	-0.051	0.072
-422.530	377.073	0.232	-0.477
-421.515	61.223	-0.092	-0.092
-420.500	78.194	0.045	0.048
-419.486	67.804	0.114	-0.117
-418.471	800.000	-0.019	-0.069
-417.457	672.301	0.089	-0.233
-416.442	-27.562	0.161	-0.095
-415.428	186.308	-0.146	0.219
-414.413	138.369	-0.242	0.320
-413.398	800.000	0.044	0.157
-412.384	-200.000	-0.022	0.129
-411.369	220.906	-0.102	0.165
-410.355	-200.000	0.083	0.436
-409.340	-200.000	0.016	0.152
-408.325	181.260	0.229	0.339
-407.311	800.000	-0.018	0.078
-406.296	-78.291	-0.110	-0.038
-405.282	-200.000	0.038	0.216
-404.267	-124.845	-0.267	0.041
-403.252	82.877	-0.179	-0.196
-402.238	-90.753	-0.262	0.076
-401.223	-200.000	0.042	-0.214
-400.209	1.918	0.137	-0.099
-399.194	-9.368	-0.126	0.085
-398.179	-129.823	0.234	-0.032
-397.165	41.416	-0.010	0.009
-396.150	12.898	0.095	-0.074
-395.136	87.181	0.078	0.087
-394.121	800.000	0.094	0.310
-393.106	-200.000	0.045	0.441
-392.092	293.086	0.083	-0.152
-391.077	800.000	0.051	0.222
-390.063	59.500	0.028	-0.028
-389.048	598.421	-0.091	-0.227
-388.033	-116.224	0.420	0.078
-387.019	-27.523	-0.114	0.067
-386.004	56.236	-0.096	0.094
-384.990	-200.000	-0.007	0.169
-383.975	73.438	-0.095	-0.100
-382.960	-200.000	0.025	0.134
-381.946	71.957	0.109	-0.115
-380.931	-107.649	0.204	0.045
-379.917	-53.150	-0.072	-0.033
-378.902	800.000	0.064	0.264
-377.888	-107.016	0.079	0.018
-376.873	-200.000	-0.028	0.332
-375.858	-82.149	0.137	0.045
-374.844	-96.461	0.159	0.042
-373.829	344.607	-0.241	-0.475
-372.815	-200.000	-0.030	-0.224
-371.800	18.283	0.135	-0.108
-370.785	86.373	-0.105	-0.116
-369.771	173.383	0.128	-0.186
-368.756	647.012	0.086	-0.221
-367.742	246.621	-0.099	0.167
-366.727	-24.205	0.169	0.102
-365.712	-54.565	0.154	0.070
-364.698	-200.000	0.037	-0.368
-363.683	-94.549	-0.111	-0.030
-362.669	195.126	-0.068	0.103
-361.654	-25.951	0.123	-0.073
-360.639	-200.000	-0.025	-0.244
-359.625	-200.000	-0.029	-0.176
-358.610	-200.000	0.032	-0.180
-357.596	-81.678	0.244	-0.080
-356.581	35.681	-0.244	0.216
-355.566	87.613	0.039	0.044
-354.552	39.976	-0.132	0.119
-353.537	-89.314	0.157	-0.046
-352.523	-200.000	-0.010	-0.126
-351.508	-200.000	0.002	0.068
-350.493	-200.000	-0.057	0.441
-349.479	-154.681	0.055	0.004
-348.464	398.079	-0.067	-0.142
-347.450	177.840	0.083	0.121
-346.435	-200.000	-0.003	0.018
-345.420	43.772	-0.092	0.084
-344.406	-71.966	0.352	0.132
-343.391	101.948	0.095	0.112
-342.377	800.000	0.065	-0.250
-341.362	-6.770	-0.230	0.157
-340.348	31.242	0.111	0.095
-339.333	-87.773	-0.217	0.066
-338.318	-60.527	0.214	-0.091
-337.304	-200.000	0.000	-0.125
-336.289	-97.415	-0.078	0.020
-335.275	800.000	0.066	0.191
-334.260	-119.491	-0.263	0.046
-333.245	158.048	0.145	-0.202
-332.231	-44.772	0.170	0.085
-331.216	-200.000	-0.032	-0.184
-330.202	85.549	-0.139	0.154
-329.187	30.621	0.139	0.119
-328.172	401.142	0.144	-0.303
-327.158	346.205	0.083	-0.163
-326.143	-200.000	0.006	0.176
-325.129	-92.639	0.145	0.041
-324.114	-110.299	-0.166	0.035
-323.099	-178.560	0.328	-0.008
-322.085	-171.980	0.300	-0.010
-321.070	203.633	-0.033	0.051
-320.056	172.949	-0.146	-0.210
-319.041	800.000	0.043	0.160
-318.026	7.506	0.192	0.144
-317.012	54.694	0.127	-0.123
-315.997	-141.942	0.508	0.051
-314.983	80.392	0.036	-0.039
-313.968	-153.307	0.269	0.019
-312.953	4.181	0.171	0.125
-311.939	-149.301	0.178	0.014
-310.924	92.706	0.101	-0.115
-309.910	-79.688	0.157	0.053
-308.895	449.993	0.106	0.234
-307.880	800.000	-0.043	0.190
-306.866	601.302	-0.057	0.141
-305.851	-129.722	0.192	-0.027
-304.837	36.651	0.063	-0.056
-303.822	-200.000	-0.056	-0.316
-302.807	-17.276	0.181	0.114
-301.793	629.247	-0.121	0.308
-300.778	163.939	0.085	0.120
-299.764	-79.541	0.086	0.029
-298.749	-110.263	0.056	0.012
-297.735	800.000	0.048	0.199
-296.720	110.910	-0.125	-0.150
-295.705	-36.253	0.225	0.122
-294.691	-167.673	0.113	-0.004
-293.676	-51.431	-0.022	0.010
-292.662	631.794	0.020	0.051
-291.647	140.096	-0.168	0.222
-290.632	-95.427	-0.324	0.087
-289.618	-200.000	0.011	0.373
-288.603	-108.620	0.293	0.063
-287.589	-114.035	-0.193	-0.038
-286.574	327.768	0.115	-0.221
-285.559	761.728	-0.031	-0.084
-284.545	709.243	-0.073	0.192
-283.530	-75.205	-0.221	-0.079
-282.516	41.297	-0.142	0.129
-281.501	-200.000	-0.025	0.165
-280.486	-73.516	-0.241	0.088
-279.472	-174.044	-0.045	-0.001
-278.457	-125.779	0.411	-0.062
-277.443	126.213	0.078	-0.099
-276.428	-200.000	-0.045	-0.457
-275.413	-142.561	-0.089	0.009
-274.399	-200.000	-0.007	-0.116
-273.384	-200.000	-0.043	0.380
-272.370	-200.000	-0.020	0.146
-271.355	-200.000	0.001	0.086
-270.340	-200.000	0.047	-0.276
-269.326	-10.869	0.192	-0.127
-268.311	178.825	0.029	0.042
-267.297	72.343	0.112	-0.117
-266.282	800.000	-0.109	0.460
-265.267	-108.798	-0.412	0.088
-264.253	-124.954	-0.136	-0.021
-263.238	-65.071	-0.174	0.070
-262.224	53.569	-0.268	0.257
-261.209	63.796	0.242	-0.243
-260.195	-84.183	-0.135	0.043
-259.180	-92.167	-0.219	0.062
-258.165	314.131	-0.120	-0.226
-257.151	144.497	0.085	-0.113
-256.136	-131.209	-0.225	0.030
-255.122	800.000	0.140	-0.398
-254.107	-200.000	-0.038	-0.277
-253.092	800.000	-0.120	0.439
-252.078	28.035	-0.234	-0.197
-251.063	-200.000	0.058	-0.259
-250.049	800.000	-0.040	0.131
-249.034	186.315	-0.117	0.174
-248.019	-200.000	-0.000	-0.094
-247.005	188.571	-0.015	0.022
-245.990	-200.000	0.011	0.059
-244.976	105.332	0.205	0.242
-243.961	29.904	0.086	-0.073
-242.946	135.845	-0.150	0.195
-241.932	-22.001	0.120	0.073
-240.917	20.851	0.100	-0.081
-239.903	-12.924	-0.429	0.279
-238.888	642.135	0.112	-0.287
-237.873	-138.871	-0.282	0.031
-236.859	-40.359	-0.147	0.076
-235.844	-8.311	-0.156	0.105
-234.830	434.303	0.064	0.138
-233.815	-108.676	-0.098	-0.021
-232.800	-200.000	0.006	0.143
-231.786	-145.364	0.382	-0.034
-230.771	-27.900	-0.162	-0.094
-229.757	336.778	0.093	0.180
-228.742	-200.000	-0.006	-0.057
-227.727	-71.033	-0.146	0.055
-226.713	800.000	0.041	0.127
-225.698	-200.000	0.112	0.540
-224.684	-200.000	0.050	0.264
-223.669	-200.000	0.032	-0.192
-222.655	237.426	-0.067	0.111
-221.640	116.597	-0.163	0.200
-220.625	569.217	-0.090	-0.220
-219.611	112.326	0.202	0.244
-218.596	-200.000	-0.004	0.241
-217.582	-57.430	-0.154	-0.068
-216.567	176.185	0.115	-0.166
-215.552	-34.416	-0.104	-0.057
-214.538	-200.000	-0.012	-0.242
-213.523	31.569	-0.311	-0.268
-212.509	-200.000	0.046	-0.384
-211.494	800.000	-0.033	-0.136
-210.479	71.917	-0.040	-0.042
-209.465	36.659	0.245	-0.216
-208.450	-49.078	-0.348	-0.167
-207.436	800.000	0.041	0.144
-206.421	800.000	0.101	-0.307
-205.406	356.379	-0.131	-0.260
-204.392	-130.423	-0.196	-0.027
-203.377	-47.660	-0.135	-0.065
-202.363	576.178	-0.066	0.162
-201.348	-20.990	0.164	0.100
-200.333	-28.878	0.215	-0.124
-199.319	36.151	0.023	-0.020
-198.304	69.593	0.119	0.122
-197.290	111.853	0.137	-0.165
-196.275	135.849	0.110	-0.144
-195.260	-200.000	-0.007	0.187
-194.246	325.273	-0.187	0.357
-193.231	321.887	-0.122	0.233
-192.217	-86.406	-0.248	-0.076
-191.202	800.000	-0.038	-0.143
-190.187	-200.000	-0.010	-0.287
-189.173	-18.904	0.033	-0.021
-188.158	34.065	-0.012	0.010
-187.144	88.779	0.165	0.183
-186.129	-152.780	-0.142	-0.010
-185.114	-200.000	-0.005	0.071
-184.100	-54.214	-0.254	0.115
-183.085	360.084	0.017	-0.033
-182.071	176.273	-0.071	0.103
-181.056	142.554	-0.185	0.246
-180.042	800.000	0.025	0.105
-179.027	60.365	-0.240	0.237
-178.012	-116.292	-0.221	-0.041
-176.998	-164.697	0.459	-0.021
-175.983	-183.179	0.076	0.001
-174.969	17.027	-0.080	-0.063
-173.954	-139.365	-0.264	0.028
-172.939	400.489	-0.046	-0.096
-171.925	126.665	0.111	-0.140
-170.910	156.604	0.066	-0.091
-169.896	-200.000	0.050	-0.353
-168.881	-90.380	-0.302	-0.088
-167.866	-200.000	-0.017	-0.192
-166.852	-142.099	-0.502	-0.050
-165.837	-200.000	0.024	-0.146
-164.823	-120.521	0.107	0.018
-163.808	-64.042	-0.171	0.070
-162.793	412.218	0.065	0.138
-161.779	-65.037	0.449	-0.181
-160.764	-31.224	0.210	-0.118
-159.750	292.356	0.044	-0.079
-158.735	51.103	-0.159	-0.151
-157.720	78.938	-0.304	-0.324
-156.706	-21.019	-0.307	-0.187
-155.691	-176.890	-0.241	0.006
-154.677	-14.573	0.151	-0.097
-153.662	-200.000	0.003	-0.234
-152.647	-28.256	0.245	-0.141
-151.633	-200.000	-0.008	0.053
-150.618	-112.290	-0.343	0.068
-149.604	-200.000	-0.004	-0.263
-148.589	94.320	-0.218	-0.247
-147.574	161.751	0.097	-0.136
-146.560	-103.874	-0.143	-0.033
-145.545	162.248	-0.230	0.321
-144.531	-200.000	0.001	0.176
-143.516	511.590	0.200	0.465
-142.502	-135.214	0.150	0.018
-141.487	572.595	0.148	-0.361
-140.472	201.311	0.067	-0.103
-139.458	3.981	0.183	-0.133
-138.443	-12.960	-0.198	-0.128
-137.429	197.642	0.151	0.229
-136.414	386.621	0.072	0.147
-135.399	-200.000	0.001	-0.086
-134.385	-131.536	-0.074	0.010
-133.370	-200.000	-0.003	-0.021
-132.356	0.460	-0.046	-0.033
-131.341	487.886	-0.124	0.282
-130.326	800.000	-0.110	0.335
-129.312	-200.000	0.027	0.138
-128.297	-116.032	-0.407	0.076
-127.283	800.000	-0.061	0.233
-126.268	-171.703	0.107	0.004
-125.253	639.467	0.043	-0.110
-124.239	-175.120	0.238	-0.007
-123.224	-29.665	0.126	-0.072
-122.210	-75.786	-0.061	-0.022
