DTS Sentinel unit serial number:	SN413079Multiplexer serial number:	ORYXHardware model number:	OX4-SRSoftware version number:	ORYX F/W v4.00 Oryx Data Collector v3.7.2.0data status	okinstallation	princeton_trtdifferential loss correction	single-endedforward channel	channel 3reverse channel	N/Adate	2019/09/17time	22:12:34forward acquisition time	60.00reverse acquisition time	0.00gamma	496.2192k internal	0.2345k external	0.2345temperature offset calibration	0.9949default loss term (dB/km)	0.3790temperature slope calibration	1.0000multiplexer offset coefficient	1.0000multiplexer slope coefficient	1.0000fibre end	0.00T internal ref (°C)	25.75T ext. ref 1 (°C)	0.18T ext. ref 2 (°C)	18.62length (m)	temperature (°C)	Stokes	anti-Stokes-747.200	-42.671	0.045	0.023
-746.185	354.700	-0.115	0.228
-745.171	307.099	-0.156	0.291
-744.156	732.760	0.115	0.307
-743.142	65.567	0.117	-0.119
-742.127	-200.000	-0.006	0.089
-741.112	-200.000	0.037	0.170
-740.098	-42.547	-0.343	0.175
-739.083	62.825	-0.272	0.273
-738.069	28.111	-0.070	0.059
-737.054	111.206	0.080	-0.096
-736.039	-2.497	-0.182	0.128
-735.025	52.873	0.333	0.319
-734.010	800.000	-0.026	-0.111
-732.996	-118.829	-0.336	-0.059
-731.981	-200.000	0.005	-0.021
-730.966	352.580	0.131	-0.260
-729.952	-200.000	0.006	-0.310
-728.937	390.296	0.086	0.178
-727.923	-86.114	0.238	-0.074
-726.908	5.011	-0.316	-0.233
-725.894	276.713	-0.044	-0.079
-724.879	-40.770	0.268	0.139
-723.864	-114.647	0.164	0.031
-722.850	-200.000	-0.102	-0.511
-721.835	-200.000	-0.021	0.149
-720.821	-32.742	0.089	-0.050
-719.806	-200.000	-0.044	-0.324
-718.791	110.173	-0.131	-0.158
-717.777	-111.473	0.540	0.110
-716.762	159.705	0.070	-0.097
-715.748	-12.864	0.226	-0.147
-714.733	-200.000	-0.017	-0.165
-713.718	800.000	0.130	0.508
-712.704	-199.100	-0.356	-0.002
-711.689	-172.396	0.255	-0.008
-710.675	-158.875	-0.448	0.026
-709.660	-149.362	0.383	0.030
-708.645	-100.262	-0.415	0.103
-707.631	-9.925	0.273	-0.181
-706.616	407.824	-0.087	0.184
-705.602	-195.088	0.150	-0.001
-704.587	256.515	-0.218	0.374
-703.572	-27.440	0.067	0.039
-702.558	-107.204	0.296	-0.065
-701.543	3.578	-0.223	0.162
-700.529	800.000	-0.055	0.173
-699.514	71.706	-0.282	0.293
-698.499	-96.480	-0.166	0.044
-697.485	142.606	-0.188	0.249
-696.470	192.634	-0.125	-0.188
-695.456	-162.805	0.229	0.011
-694.441	315.364	0.020	0.038
-693.426	-70.740	-0.169	-0.064
-692.412	-67.905	-0.259	0.101
-691.397	-200.000	0.019	-0.201
-690.383	-200.000	-0.010	-0.404
-689.368	-112.041	-0.270	-0.054
-688.354	36.224	0.378	-0.333
-687.339	-75.310	-0.282	-0.101
-686.324	800.000	0.053	0.228
-685.310	800.000	-0.058	-0.207
-684.295	-1.798	-0.193	0.136
-683.281	99.508	-0.142	-0.165
-682.266	162.433	0.123	-0.172
-681.251	-75.966	-0.305	0.108
-680.237	800.000	0.064	-0.242
-679.222	615.784	0.076	0.190
-678.208	-200.000	-0.100	-0.634
-677.193	-62.137	0.232	-0.097
-676.178	124.015	-0.127	0.159
-675.164	-25.973	-0.205	0.121
-674.149	-200.000	0.001	-0.300
-673.135	-6.123	0.293	-0.200
-672.120	436.386	0.157	0.342
-671.105	-200.000	0.153	-0.000
-670.091	800.000	-0.044	-0.125
-669.076	349.268	0.103	0.203
-668.062	-54.135	0.186	-0.085
-667.047	-200.000	0.012	-0.202
-666.032	-200.000	-0.019	0.208
-665.018	-167.846	0.307	0.012
-664.003	-98.219	-0.073	-0.019
-662.989	-126.567	0.127	0.019
-661.974	-200.000	0.046	-0.000
-660.959	-134.710	-0.152	0.018
-659.945	-13.611	-0.135	0.087
-658.930	-200.000	-0.010	0.538
-657.916	101.920	-0.210	0.244
-656.901	217.407	0.086	-0.137
-655.886	138.362	-0.144	-0.188
-654.872	-200.000	0.031	0.364
-653.857	-200.000	0.031	-0.231
-652.843	800.000	0.066	-0.185
-651.828	10.894	0.222	0.169
-650.814	-65.888	-0.194	0.077
-649.799	326.163	0.103	-0.196
-648.784	4.242	0.110	-0.080
-647.770	-200.000	0.014	-0.246
-646.755	49.285	-0.218	-0.204
-645.741	91.778	-0.041	-0.046
-644.726	736.130	0.091	0.244
-643.711	-136.666	0.278	0.032
-642.697	-129.111	-0.376	0.052
-641.682	697.672	0.057	0.149
-640.668	234.053	-0.092	-0.151
-639.653	-43.877	0.296	0.148
-638.638	-84.256	0.368	0.116
-637.624	-200.000	-0.033	-0.180
-636.609	-86.162	0.265	0.081
-635.595	41.580	-0.168	-0.151
-634.580	48.538	-0.241	-0.225
-633.565	800.000	0.152	-0.447
-632.551	-200.000	0.012	-0.318
-631.536	14.078	0.092	-0.072
-630.522	-165.940	-0.329	-0.014
-629.507	800.000	0.046	-0.140
-628.492	518.166	-0.114	0.265
-627.478	645.030	0.051	0.131
-626.463	-200.000	-0.002	-0.195
-625.449	261.702	-0.075	-0.130
-624.434	43.968	-0.037	-0.034
-623.419	8.663	-0.119	-0.089
-622.405	800.000	0.116	0.432
-621.390	-200.000	0.030	-0.285
-620.376	155.153	-0.187	-0.257
-619.361	-57.013	-0.239	-0.105
-618.346	-200.000	0.010	-0.262
-617.332	20.192	-0.237	0.191
-616.317	-200.000	0.018	0.216
-615.303	-132.320	0.096	-0.012
-614.288	754.390	0.113	0.303
-613.273	-200.000	0.025	-0.143
-612.259	-90.982	0.022	-0.006
-611.244	-200.000	-0.007	-0.095
-610.230	488.333	-0.070	-0.159
-609.215	387.860	-0.061	-0.125
-608.201	-143.531	0.153	-0.014
-607.186	-99.753	-0.037	-0.009
-606.171	-111.084	0.140	0.029
-605.157	162.706	-0.012	-0.016
-604.142	-116.610	-0.321	-0.059
-603.128	-200.000	-0.038	-0.363
-602.113	-200.000	0.053	-0.251
-601.098	291.309	-0.188	0.340
-600.084	-200.000	-0.005	-0.309
-599.069	11.222	0.104	-0.079
-598.055	-9.362	-0.166	-0.110
-597.040	151.669	-0.187	-0.254
-596.025	297.779	-0.122	-0.223
-595.011	-200.000	0.043	0.236
-593.996	63.262	-0.284	0.283
-592.982	-74.755	-0.296	0.106
-591.967	-114.245	-0.093	0.018
-590.952	800.000	0.041	0.164
-589.938	91.266	0.207	0.232
-588.923	142.606	-0.071	0.093
-587.909	443.902	-0.064	0.139
-586.894	-91.114	0.268	0.077
-585.879	58.468	0.150	-0.146
-584.865	471.491	0.117	0.261
-583.850	-200.000	0.076	-0.356
-582.836	-146.407	-0.295	0.026
-581.821	34.790	0.127	0.111
-580.806	-200.000	-0.001	-0.015
-579.792	112.380	-0.258	-0.311
-578.777	13.892	0.155	-0.120
-577.763	31.646	-0.038	0.033
-576.748	-90.669	0.215	-0.062
-575.733	25.731	0.093	0.077
-574.719	272.858	-0.076	-0.134
-573.704	-55.208	0.256	0.115
-572.690	-43.923	-0.307	-0.153
-571.675	-44.178	0.044	-0.022
-570.661	-138.897	-0.178	0.019
-569.646	-48.732	-0.391	-0.186
-568.631	-200.000	0.039	-0.513
-567.617	-100.136	-0.279	-0.069
-566.602	-200.000	-0.021	-0.105
-565.588	218.585	-0.066	-0.105
-564.573	-200.000	-0.007	0.209
-563.558	109.433	-0.161	-0.191
-562.544	-59.227	-0.632	-0.270
-561.529	173.424	-0.097	-0.139
-560.515	-84.180	-0.175	-0.055
-559.500	332.375	-0.125	0.241
-558.485	359.171	0.053	0.105
-557.471	217.459	0.082	0.130
-556.456	-72.254	0.073	0.027
-555.442	399.433	-0.104	0.216
-554.427	-27.231	0.280	-0.162
-553.412	423.547	0.148	0.317
-552.398	-200.000	-0.356	-0.000
-551.383	-108.796	0.285	0.061
-550.369	800.000	0.094	0.388
-549.354	-126.967	-0.190	0.028
-548.339	-93.152	-0.292	0.081
-547.325	800.000	0.099	0.381
-546.310	294.060	-0.162	0.293
-545.296	217.461	0.094	0.148
-544.281	56.036	-0.111	0.107
-543.266	-200.000	0.003	-0.188
-542.252	-200.000	-0.001	0.483
-541.237	-15.965	-0.189	0.119
-540.223	-16.536	0.147	-0.093
-539.208	-24.956	-0.213	-0.125
-538.193	-23.099	-0.035	-0.021
-537.179	116.305	0.199	0.242
-536.164	-71.661	0.385	0.143
-535.150	-169.373	0.312	-0.011
-534.135	210.155	-0.038	0.060
-533.121	-47.461	0.265	-0.128
-532.106	728.715	0.066	-0.176
-531.091	482.481	-0.140	-0.317
-530.077	800.000	-0.093	-0.375
-529.062	-132.888	0.199	0.025
-528.048	155.853	0.126	0.172
-527.033	800.000	-0.041	-0.135
-526.018	-200.000	-0.024	0.194
-525.004	6.581	0.050	-0.037
-523.989	34.694	0.310	-0.269
-522.975	124.734	0.106	-0.133
-521.960	-200.000	-0.021	0.291
-520.945	148.251	0.238	-0.319
-519.931	32.226	-0.147	0.126
-518.916	-106.724	0.222	0.049
-517.902	33.703	0.084	-0.072
-516.887	-200.000	-0.095	0.630
-515.872	-3.388	0.257	-0.177
-514.858	-95.697	-0.220	-0.058
-513.843	-51.116	0.063	-0.029
-512.829	-200.000	0.037	0.212
-511.814	-160.666	0.169	-0.009
-510.799	-145.187	-0.142	0.013
-509.785	32.130	0.162	0.139
-508.770	-129.159	-0.124	-0.017
-507.756	-6.623	0.140	-0.094
-506.741	-24.961	-0.166	0.098
-505.726	-14.771	-0.085	0.054
-504.712	-59.658	0.319	0.136
-503.697	800.000	-0.034	0.121
-502.683	-110.707	0.121	0.025
-501.668	-160.236	-0.183	0.010
-500.653	8.506	-0.143	0.107
-499.639	100.268	0.082	0.094
-498.624	-200.000	0.048	-0.230
-497.610	-159.928	0.117	-0.006
-496.595	475.348	0.072	-0.161
-495.581	5.232	-0.093	0.068
-494.566	-200.000	-0.044	-0.235
-493.551	523.218	0.086	0.201
-492.537	-174.849	0.177	0.005
-491.522	-200.000	-0.042	0.218
-490.508	-200.000	-0.017	-0.208
-489.493	-182.684	-0.182	0.003
-488.478	459.518	0.159	0.351
-487.464	431.362	-0.131	0.281
-486.449	-96.814	0.130	0.034
-485.435	-200.000	0.020	0.140
-484.420	193.941	-0.225	0.338
-483.405	-70.762	0.285	0.107
-482.391	-129.272	-0.222	0.031
-481.376	2.114	-0.045	0.032
-480.362	379.667	-0.123	-0.249
-479.347	-30.406	-0.124	0.070
-478.332	50.078	0.041	0.038
-477.318	-200.000	-0.019	0.128
-476.303	-200.000	0.058	0.309
-475.289	12.194	-0.232	-0.177
-474.274	157.856	-0.073	0.100
-473.259	65.305	0.154	-0.155
-472.245	-117.877	0.256	-0.045
-471.230	-45.039	0.236	0.116
-470.216	-102.227	-0.163	-0.039
-469.201	366.665	-0.151	-0.302
-468.186	-158.222	-0.224	0.013
-467.172	-18.602	0.250	-0.155
-466.157	-54.514	0.142	-0.063
-465.143	524.209	-0.095	-0.220
-464.128	-200.000	0.005	-0.025
-463.113	93.409	0.243	0.272
-462.099	-130.102	-0.351	0.047
-461.084	247.194	-0.048	0.080
-460.070	-84.615	0.355	-0.111
-459.055	-123.766	-0.313	0.049
-458.040	32.359	0.269	0.230
-457.026	-46.409	-0.261	-0.127
-456.011	389.345	0.107	0.219
-454.997	-200.000	-0.024	-0.245
-453.982	-127.196	0.252	0.037
-452.968	-28.829	-0.190	0.108
-451.953	-200.000	0.036	0.273
-450.938	-200.000	0.021	-0.097
-449.924	-45.229	-0.097	-0.048
-448.909	-200.000	0.025	-0.138
-447.895	-36.961	0.342	-0.181
-446.880	-177.616	0.055	-0.001
-445.865	-133.924	0.217	-0.027
-444.851	237.049	0.108	0.177
-443.836	69.047	-0.195	0.199
-442.822	-200.000	-0.010	0.114
-441.807	577.283	-0.087	-0.210
-440.792	-38.204	-0.109	-0.057
-439.778	-32.477	0.171	0.095
-438.763	-88.211	0.190	0.056
-437.749	-33.819	0.126	0.069
-436.734	-200.000	-0.067	-0.329
-435.719	800.000	-0.021	0.069
-434.705	-200.000	0.020	-0.095
-433.690	-2.840	0.062	0.043
-432.676	-118.537	-0.222	0.039
-431.661	-64.749	0.080	-0.032
-430.646	650.419	0.148	0.375
-429.632	-22.481	-0.129	0.077
-428.617	28.441	-0.213	0.178
-427.603	576.691	0.086	-0.208
-426.588	-23.967	0.251	0.148
-425.573	-154.760	-0.238	0.016
-424.559	-136.158	0.082	-0.009
-423.544	-38.920	0.124	-0.064
-422.530	211.088	0.108	0.168
-421.515	727.862	0.072	0.189
-420.500	-200.000	-0.073	0.425
-419.486	-199.609	-0.242	0.001
-418.471	800.000	0.036	0.121
-417.457	99.874	-0.086	0.098
-416.442	-26.396	-0.132	0.077
-415.428	241.494	0.069	-0.115
-414.413	227.713	0.062	0.100
-413.398	-127.687	0.140	-0.020
-412.384	140.444	-0.110	0.143
-411.369	800.000	0.129	0.392
-410.355	689.875	-0.065	0.169
-409.340	-124.571	-0.157	-0.024
-408.325	45.850	0.119	-0.109
-407.311	-48.433	0.253	0.120
-406.296	-77.459	0.278	0.095
-405.282	-108.481	0.438	0.093
-404.267	34.757	-0.054	0.046
-403.252	-104.848	-0.049	-0.011
-402.238	-200.000	0.028	-0.279
-401.223	-132.741	0.184	-0.023
-400.209	-25.972	-0.167	0.097
-399.194	-43.486	-0.161	0.080
-398.179	-109.154	-0.135	0.028
-397.165	-200.000	0.025	0.265
-396.150	800.000	0.021	0.085
-395.136	238.410	-0.041	-0.068
-394.121	-67.191	0.216	-0.084
-393.106	-41.623	0.159	0.081
-392.092	-29.099	-0.243	-0.137
-391.077	132.038	-0.018	0.023
-390.063	32.620	-0.242	0.206
-389.048	44.913	-0.058	0.052
-388.033	220.150	0.137	-0.217
-387.019	121.710	-0.220	-0.271
-386.004	-52.936	0.362	-0.164
-384.990	-200.000	0.175	-0.001
-383.975	-80.286	0.193	0.064
-382.960	-60.363	-0.279	0.117
-381.946	-81.518	-0.098	-0.032
-380.931	482.870	-0.092	-0.206
-379.917	-200.000	0.060	0.479
-378.902	-200.000	-0.003	-0.159
-377.888	360.520	-0.148	0.292
-376.873	-200.000	-0.007	0.081
-375.858	-200.000	0.056	-0.366
-374.844	73.162	0.216	-0.223
-373.829	-150.092	0.219	0.017
-372.815	22.818	-0.199	-0.161
-371.800	-200.000	0.005	0.164
-370.785	339.945	0.038	-0.073
-369.771	32.083	0.218	-0.186
-368.756	-79.933	0.318	0.105
-367.742	800.000	-0.066	-0.252
-366.727	14.755	0.235	-0.181
-365.712	527.162	-0.053	-0.122
-364.698	605.314	-0.152	-0.374
-363.683	494.293	-0.071	0.161
-362.669	-114.868	0.087	-0.016
-361.654	-96.836	0.326	-0.084
-360.639	-47.042	-0.119	-0.057
-359.625	-11.387	-0.361	0.234
-358.610	-200.000	-0.002	0.151
-357.596	-156.728	-0.171	0.010
-356.581	62.101	0.069	0.067
-355.566	33.327	-0.071	0.061
-354.552	67.253	-0.044	0.044
-353.537	297.631	-0.164	-0.297
-352.523	-139.224	0.358	-0.038
-351.508	-52.549	-0.345	-0.157
-350.493	-200.000	0.022	-0.121
-349.479	207.466	0.072	-0.110
-348.464	72.306	0.096	0.098
-347.450	-39.830	-0.336	-0.173
-346.435	-92.762	-0.099	0.027
-345.420	-200.000	0.023	-0.152
-344.406	271.093	0.049	-0.085
-343.391	28.131	0.334	0.277
-342.377	59.970	-0.416	0.405
-341.362	-150.815	0.178	-0.013
-340.348	-140.328	-0.057	0.006
-339.333	800.000	-0.031	-0.111
-338.318	-165.872	-0.251	-0.011
-337.304	-77.730	0.125	-0.042
-336.289	4.996	-0.263	-0.191
-335.275	787.679	-0.054	0.147
-334.260	40.837	-0.266	0.237
-333.245	800.000	0.081	0.233
-332.231	-17.627	-0.423	0.261
-331.216	-200.000	0.007	0.144
-330.202	455.723	0.146	-0.318
-329.187	-113.069	-0.336	-0.065
-328.172	661.472	0.025	0.064
-327.158	-163.968	-0.169	0.008
-326.143	-200.000	-0.020	-0.142
-325.129	18.366	0.130	-0.102
-324.114	-92.219	-0.321	0.089
-323.099	-123.511	-0.507	0.079
-322.085	183.783	-0.127	0.185
-321.070	-200.000	0.035	-0.215
-320.056	-121.920	-0.148	-0.024
-319.041	158.453	0.072	0.098
-318.026	31.648	-0.180	0.152
-317.012	800.000	-0.096	-0.294
-315.997	-184.978	-0.169	-0.003
-314.983	35.580	-0.134	-0.116
-313.968	-68.782	0.165	-0.063
-312.953	-162.905	-0.062	0.003
-311.939	16.676	-0.078	0.061
-310.924	132.940	-0.269	0.341
-309.910	367.153	-0.108	0.215
-308.895	-200.000	-0.022	-0.233
-307.880	-45.682	0.075	0.036
-306.866	800.000	-0.076	-0.292
-305.851	25.849	0.079	0.065
-304.837	-200.000	-0.017	-0.335
-303.822	-51.419	0.487	0.224
-302.807	-111.387	0.174	-0.035
-301.793	325.776	0.085	0.161
-300.778	-200.000	-0.017	-0.150
-299.764	-200.000	0.107	-0.471
-298.749	-41.038	0.162	0.082
-297.735	92.448	-0.176	-0.195
-296.720	-113.815	-0.147	0.028
-295.705	11.324	0.324	-0.244
-294.691	92.902	0.062	0.069
-293.676	612.351	-0.043	-0.106
-292.662	-42.008	-0.104	0.052
-291.647	251.772	0.149	-0.249
-290.632	787.738	0.197	-0.531
-289.618	800.000	0.053	-0.226
-288.603	-135.022	0.300	-0.036
-287.589	254.196	-0.152	0.255
-286.574	-76.746	-0.142	-0.049
-285.559	-200.000	-0.089	-0.401
-284.545	-200.000	-0.003	0.019
-283.530	-50.600	0.152	0.070
-282.516	15.949	0.126	-0.098
-281.501	96.287	0.249	0.280
-280.486	-105.153	-0.018	-0.004
-279.472	-109.788	0.558	0.115
-278.457	36.679	-0.202	-0.176
-277.443	14.363	-0.079	0.061
-276.428	-124.744	-0.160	0.024
-275.413	381.835	0.090	0.181
-274.399	-181.145	0.462	-0.009
-273.384	-88.578	0.100	-0.029
-272.370	-76.338	-0.200	0.069
-271.355	-186.016	-0.151	-0.002
-270.340	-42.112	-0.166	-0.083
-269.326	109.697	-0.066	-0.078
-268.311	-17.188	-0.393	0.243
-267.297	555.003	0.105	0.249
-266.282	-200.000	0.003	0.226
-265.267	553.083	0.043	0.102
-264.253	-104.128	0.221	-0.051
-263.238	24.741	-0.258	0.210
-262.224	14.932	-0.111	-0.085
-261.209	201.172	0.208	-0.315
-260.195	78.561	0.236	0.247
-259.180	-81.409	-0.203	0.066
-258.165	-168.738	0.264	0.010
-257.151	480.900	-0.068	0.151
-256.136	-84.036	0.435	0.136
-255.122	-178.933	-0.416	0.009
-254.107	-108.663	0.308	0.065
-253.092	-122.658	0.148	0.023
-252.078	-12.005	0.065	0.042
-251.063	-200.000	-0.022	0.096
-250.049	-145.824	0.394	0.034
-249.034	-200.000	0.067	0.363
-248.019	-164.800	-0.155	0.007
-247.005	-10.261	0.273	0.178
-245.990	163.405	-0.129	-0.178
-244.976	-200.000	-0.051	-0.258
-243.961	-34.293	-0.136	-0.073
-242.946	-88.174	0.224	-0.066
-241.932	-200.000	-0.024	-0.153
-240.917	-200.000	0.052	0.237
-239.903	198.746	-0.109	0.163
-238.888	378.835	-0.149	-0.300
-237.873	-200.000	-0.057	-0.287
-236.859	800.000	0.156	-0.450
-235.844	-200.000	-0.045	0.310
-234.830	5.936	0.254	-0.184
-233.815	64.021	-0.235	-0.232
-232.800	609.940	-0.050	-0.122
-231.786	-142.070	0.371	0.036
-230.771	-102.437	-0.103	-0.024
-229.757	-200.000	-0.023	-0.163
-228.742	-69.897	0.441	-0.165
-227.727	-172.830	-0.286	-0.009
-226.713	800.000	0.061	-0.185
-225.698	-70.740	-0.149	0.055
-224.684	58.367	0.103	-0.099
-223.669	-175.194	-0.322	-0.009
-222.655	-200.000	-0.043	-0.230
-221.640	371.071	-0.048	0.096
-220.625	71.683	-0.269	-0.274
-219.611	-58.824	-0.146	-0.062
-218.596	-16.134	-0.243	-0.151
-217.582	-53.871	-0.505	0.226
-216.567	149.383	-0.127	-0.169
-215.552	114.396	-0.158	0.188
-214.538	-94.952	0.175	-0.046
-213.523	362.114	0.168	-0.331
-212.509	653.178	-0.183	-0.459
-211.494	-75.772	0.371	0.129
-210.479	432.919	-0.103	0.219
-209.465	800.000	0.028	0.113
-208.450	300.815	-0.144	0.260
-207.436	-144.244	0.100	-0.009
-206.421	35.460	0.220	0.189
-205.406	40.721	-0.092	0.081
-204.392	24.390	-0.079	-0.064
-203.377	-200.000	0.040	0.217
-202.363	495.656	-0.074	0.167
-201.348	-133.842	0.251	0.031
-200.333	535.822	0.030	0.070
-199.319	115.663	0.055	0.066
-198.304	63.324	-0.070	0.069
-197.290	-200.000	0.025	-0.454
-196.275	-71.883	-0.206	0.075
-195.260	-200.000	0.009	-0.062
-194.246	-148.595	-0.219	-0.017
-193.231	31.434	0.032	0.027
-192.217	-200.000	-0.022	0.157
-191.202	-200.000	0.004	0.275
-190.187	-200.000	-0.017	-0.078
-189.173	-104.363	0.349	0.079
-188.158	-62.434	-0.129	-0.052
-187.144	200.734	0.110	-0.166
-186.129	-37.177	-0.320	-0.168
-185.114	4.178	0.254	-0.182
-184.100	800.000	0.062	-0.206
-183.085	-195.983	0.192	-0.001
-182.071	-200.000	0.013	0.250
-181.056	112.002	-0.122	0.145
-180.042	10.817	-0.197	0.147
-179.027	-63.882	0.114	-0.046
-178.012	-200.000	0.032	-0.161
-176.998	-52.216	0.246	0.112
-175.983	78.088	0.106	-0.111
-174.969	130.240	0.218	0.273
-173.954	106.335	0.161	0.186
-172.939	-31.241	0.299	0.165
-171.925	-72.831	-0.167	-0.060
-170.910	-200.000	-0.025	-0.193
-169.896	-149.158	-0.210	-0.016
-168.881	535.486	-0.197	-0.456
-167.866	-98.508	0.208	-0.052
-166.852	800.000	-0.035	0.118
-165.837	-128.925	-0.361	-0.050
-164.823	-12.864	-0.193	-0.123
-163.808	-147.563	-0.345	-0.028
-162.793	-117.340	0.388	-0.069
-161.779	-200.000	-0.017	0.086
-160.764	92.633	-0.308	-0.340
-159.750	61.739	0.212	-0.207
-158.735	731.669	0.234	0.612
-157.720	-28.142	0.294	0.166
-156.706	800.000	0.035	0.102
-155.691	-28.715	0.181	-0.102
-154.677	244.134	-0.077	0.126
-153.662	-200.000	-0.008	0.246
-152.647	800.000	-0.039	0.144
-151.633	-19.690	0.273	0.165
-150.618	-200.000	0.052	-0.272
-149.604	138.675	-0.114	-0.146
-148.589	153.437	0.193	0.258
-147.574	65.060	0.090	-0.088
-146.560	-145.483	0.162	0.014
-145.545	-144.635	0.077	-0.007
-144.531	-138.909	-0.546	0.058
-143.516	-200.000	0.123	-0.000
-142.502	800.000	0.034	0.113
-141.487	48.576	0.146	0.134
-140.472	-22.174	0.085	0.050
-139.458	98.301	0.201	0.226
-138.443	-61.314	0.284	-0.117
-137.429	-200.000	-0.028	0.401
-136.414	317.574	-0.145	0.269
-135.399	133.655	-0.121	0.153
-134.385	73.704	-0.297	0.304
-133.370	222.591	0.143	-0.226
-132.356	93.841	-0.331	0.367
-131.341	800.000	0.119	0.357
-130.326	-40.122	-0.045	-0.023
-129.312	-10.955	0.055	-0.036
-128.297	228.247	-0.232	-0.370
-127.283	81.095	0.175	-0.185
-126.268	-39.039	0.375	-0.193
-125.253	127.953	0.027	0.034
-124.239	515.568	-0.092	-0.210
-123.224	122.148	-0.280	-0.341
-122.210	-200.000	0.048	-0.394
