DTS Sentinel unit serial number:	SN413079Multiplexer serial number:	ORYXHardware model number:	OX4-SRSoftware version number:	ORYX F/W v4.00 Oryx Data Collector v3.7.2.0data status	okinstallation	princeton_trtdifferential loss correction	single-endedforward channel	channel 3reverse channel	N/Adate	2019/09/19time	14:04:35forward acquisition time	60.00reverse acquisition time	0.00gamma	496.2192k internal	0.2323k external	0.2323temperature offset calibration	0.9999default loss term (dB/km)	0.3790temperature slope calibration	1.0000multiplexer offset coefficient	1.0000multiplexer slope coefficient	1.0000fibre end	0.00T internal ref (°C)	31.28T ext. ref 1 (°C)	1.02T ext. ref 2 (°C)	28.48length (m)	temperature (°C)	Stokes	anti-Stokes-747.200	-83.596	0.188	-0.061
-746.185	800.000	-0.041	0.159
-745.171	-170.799	-0.104	0.004
-744.156	38.350	-0.448	0.403
-743.142	-200.000	0.023	0.104
-742.127	461.264	-0.058	-0.130
-741.112	-96.679	-0.191	-0.051
-740.098	-118.269	0.076	0.014
-739.083	800.000	-0.059	0.255
-738.069	-60.131	0.115	0.049
-737.054	800.000	-0.068	0.207
-736.039	-199.311	-0.264	0.001
-735.025	800.000	0.076	0.230
-734.010	-200.000	-0.032	0.254
-732.996	-19.996	-0.193	0.120
-731.981	136.031	0.049	0.065
-730.966	-62.300	-0.375	-0.158
-729.952	158.132	-0.144	0.202
-728.937	-68.575	0.218	0.085
-727.923	336.035	-0.106	-0.208
-726.908	-26.682	-0.252	0.149
-725.894	623.917	-0.020	-0.052
-724.879	-200.000	-0.021	0.105
-723.864	319.639	0.193	0.369
-722.850	100.452	-0.131	0.154
-721.835	185.535	0.066	-0.099
-720.821	267.359	-0.134	-0.236
-719.806	-14.665	-0.380	-0.246
-718.791	-85.884	-0.203	-0.063
-717.777	-200.000	-0.016	-0.344
-716.762	800.000	0.054	0.176
-715.748	800.000	0.055	-0.194
-714.733	-200.000	0.018	0.090
-713.718	64.256	-0.104	-0.105
-712.704	-113.135	-0.230	0.046
-711.689	-70.718	0.330	-0.126
-710.675	99.307	-0.120	-0.140
-709.660	129.677	-0.069	-0.088
-708.645	75.194	-0.065	0.069
-707.631	14.423	-0.251	0.198
-706.616	-200.000	-0.012	-0.110
-705.602	33.299	-0.115	-0.101
-704.587	86.632	-0.140	-0.155
-703.572	-200.000	0.047	0.237
-702.558	12.956	0.283	-0.221
-701.543	79.596	0.275	-0.297
-700.529	276.611	0.123	0.221
-699.514	-159.692	0.089	-0.005
-698.499	424.322	-0.031	-0.067
-697.485	800.000	0.110	0.395
-696.470	-200.000	0.043	-0.265
-695.456	-200.000	0.091	-0.486
-694.441	-173.255	-0.084	0.003
-693.426	-28.940	0.190	-0.110
-692.412	295.925	-0.220	-0.407
-691.397	-99.966	-0.267	-0.067
-690.383	-200.000	-0.052	-0.321
-689.368	793.541	-0.029	0.080
-688.354	-196.101	-0.286	-0.002
-687.339	-25.812	-0.223	0.133
-686.324	-81.936	-0.071	0.023
-685.310	-113.877	0.163	-0.032
-684.295	800.000	0.119	-0.354
-683.281	583.965	-0.018	-0.044
-682.266	215.313	0.086	-0.138
-681.251	-52.304	0.155	-0.072
-680.237	-46.391	0.334	-0.165
-679.222	800.000	0.055	0.205
-678.208	-71.898	0.167	-0.063
-677.193	20.736	0.356	-0.291
-676.178	-200.000	0.013	-0.252
-675.164	-77.424	0.136	0.048
-674.149	800.000	0.063	-0.225
-673.135	800.000	-0.055	0.160
-672.120	800.000	0.017	0.052
-671.105	296.738	0.145	0.268
-670.091	-53.057	-0.158	0.073
-669.076	-200.000	-0.003	0.127
-668.062	-200.000	-0.005	0.100
-667.047	-50.946	0.321	-0.152
-666.032	-200.000	-0.000	-0.219
-665.018	248.818	0.082	-0.140
-664.003	436.184	-0.133	-0.292
-662.989	800.000	-0.087	0.272
-661.974	-160.969	-0.122	-0.006
-660.959	-200.000	0.007	0.192
-659.945	119.831	-0.111	0.138
-658.930	-173.116	0.094	-0.003
-657.916	-83.340	0.323	0.104
-656.901	-91.482	0.239	0.069
-655.886	-15.243	0.207	0.134
-654.872	-36.711	-0.239	-0.129
-653.857	800.000	0.034	-0.120
-652.843	-200.000	0.018	0.233
-651.828	-107.174	0.093	-0.021
-650.814	-200.000	0.038	0.327
-649.799	499.647	0.130	-0.302
-648.784	-182.256	0.288	-0.005
-647.770	80.843	-0.111	-0.121
-646.755	-200.000	-0.040	-0.350
-645.741	-57.281	-0.152	-0.067
-644.726	-11.483	0.182	-0.120
-643.711	70.724	-0.176	-0.183
-642.697	147.351	-0.101	-0.137
-641.682	800.000	0.103	-0.302
-640.668	-126.966	-0.142	-0.021
-639.653	-13.857	-0.180	0.117
-638.638	-169.037	0.101	-0.004
-637.624	800.000	-0.057	-0.168
-636.609	-47.067	-0.110	0.054
-635.595	-53.377	0.190	0.088
-634.580	-200.000	-0.049	-0.351
-633.565	121.889	0.097	0.121
-632.551	-200.000	0.021	0.219
-631.536	-29.026	0.078	-0.045
-630.522	126.995	0.232	0.296
-629.507	-200.000	-0.000	0.387
-628.492	-75.281	-0.140	-0.050
-627.478	-57.801	-0.006	-0.002
-626.463	800.000	-0.127	0.425
-625.449	-49.953	-0.152	-0.073
-624.434	205.476	-0.145	-0.227
-623.419	-160.662	-0.171	-0.009
-622.405	23.262	-0.201	0.166
-621.390	-200.000	0.036	-0.284
-620.376	-160.842	-0.253	-0.013
-619.361	-43.984	0.055	-0.028
-618.346	-200.000	-0.010	-0.287
-617.332	800.000	0.009	-0.029
-616.317	-69.638	0.367	-0.141
-615.303	73.452	-0.042	0.044
-614.288	-10.272	-0.239	-0.159
-613.273	-26.850	-0.030	0.018
-612.259	-143.358	-0.271	-0.026
-611.244	-200.000	0.050	-0.234
-610.230	-50.610	-0.276	-0.130
-609.215	-191.189	-0.080	-0.001
-608.201	-200.000	-0.006	-0.226
-607.186	25.397	-0.286	-0.239
-606.171	-200.000	-0.023	-0.134
-605.157	-200.000	-0.021	0.211
-604.142	-80.842	0.207	0.069
-603.128	73.471	-0.123	0.129
-602.113	-200.000	-0.043	-0.317
-601.098	-131.677	-0.258	-0.034
-600.084	-118.416	0.111	-0.020
-599.069	-20.976	0.089	-0.055
-598.055	136.568	-0.141	0.185
-597.040	418.842	0.141	-0.304
-596.025	-200.000	-0.061	0.388
-595.011	770.860	0.059	0.162
-593.996	-200.000	-0.005	0.069
-592.982	-200.000	-0.050	-0.269
-591.967	-45.428	0.175	0.087
-590.952	-200.000	0.000	0.014
-589.938	518.067	-0.009	-0.022
-588.923	244.204	0.134	-0.226
-587.909	749.642	0.074	-0.201
-586.894	-200.000	-0.015	0.179
-585.879	32.901	0.288	-0.250
-584.865	-72.929	-0.321	0.118
-583.850	800.000	-0.031	0.128
-582.836	226.500	-0.093	0.152
-581.821	234.305	-0.103	0.170
-580.806	800.000	-0.075	-0.263
-579.792	63.210	0.293	0.295
-578.777	-69.702	-0.165	-0.063
-577.763	800.000	-0.112	-0.416
-576.748	-200.000	-0.003	-0.064
-575.733	142.604	0.152	-0.203
-574.719	-200.000	0.037	-0.239
-573.704	78.059	0.159	-0.170
-572.690	600.817	0.046	-0.115
-571.675	578.187	0.106	-0.260
-570.661	-125.096	0.091	0.014
-569.646	-200.000	-0.024	0.342
-568.631	4.453	-0.213	-0.157
-567.617	217.319	0.120	-0.192
-566.602	243.626	0.145	0.244
-565.588	-26.832	-0.174	-0.102
-564.573	-158.473	0.434	-0.025
-563.558	-119.179	0.299	-0.052
-562.544	69.451	-0.109	0.112
-561.529	-8.596	-0.247	0.166
-560.515	40.621	0.112	0.101
-559.500	96.215	0.098	0.113
-558.485	-152.922	0.353	0.025
-557.471	157.728	-0.113	0.156
-556.456	-71.013	-0.193	0.073
-555.442	-200.000	0.052	-0.324
-554.427	235.398	0.106	-0.175
-553.412	800.000	0.076	0.250
-552.398	-200.000	-0.070	0.485
-551.383	524.046	-0.070	-0.164
-550.369	-69.603	0.091	0.035
-549.354	0.728	0.195	-0.140
-548.339	328.213	-0.053	0.102
-547.325	20.204	-0.171	0.138
-546.310	-48.316	0.275	0.133
-545.296	800.000	-0.114	-0.323
-544.281	-68.397	-0.303	-0.118
-543.266	-200.000	-0.006	0.047
-542.252	-119.911	-0.118	-0.020
-541.237	298.474	0.080	-0.148
-540.223	226.875	-0.036	-0.059
-539.208	-171.708	-0.164	0.005
-538.193	-200.000	0.017	0.494
-537.179	-200.000	0.027	-0.213
-536.164	-200.000	0.022	-0.156
-535.150	136.608	-0.094	-0.123
-534.135	-26.697	-0.037	-0.021
-533.121	-80.576	0.191	0.064
-532.106	149.379	-0.104	-0.141
-531.091	91.390	0.188	0.211
-530.077	186.548	0.139	-0.208
-529.062	8.722	0.200	0.151
-528.048	-107.694	-0.169	0.037
-527.033	-43.221	0.454	0.230
-526.018	90.539	-0.212	-0.237
-525.004	-144.224	0.128	0.012
-523.989	-75.132	-0.181	-0.065
-522.975	269.557	-0.147	0.258
-521.960	-50.199	-0.075	-0.036
-520.945	-200.000	0.019	-0.440
-519.931	55.359	0.169	0.164
-518.916	-91.072	0.482	0.139
-517.902	-22.398	-0.071	0.043
-516.887	55.174	0.201	0.194
-515.872	141.364	-0.099	-0.131
-514.858	-161.090	-0.330	0.017
-513.843	271.824	-0.071	-0.125
-512.829	266.056	0.061	-0.106
-511.814	-139.573	0.142	-0.015
-510.799	800.000	-0.063	-0.228
-509.785	133.981	-0.254	-0.329
-508.770	36.466	0.097	-0.086
-507.756	-200.000	0.000	-0.230
-506.741	268.924	0.060	0.105
-505.726	-95.147	-0.104	-0.028
-504.712	92.652	-0.052	0.058
-503.697	67.636	0.115	0.118
-502.683	19.972	-0.118	0.095
-501.668	91.680	0.254	0.286
-500.653	800.000	-0.115	0.426
-499.639	235.876	0.146	-0.241
-498.624	800.000	0.125	0.419
-497.610	-44.604	-0.331	0.165
-496.595	125.565	0.113	-0.143
-495.581	-131.125	-0.432	0.057
-494.566	110.889	-0.188	0.226
-493.551	-200.000	0.070	-0.351
-492.537	-87.684	-0.058	-0.018
-491.522	800.000	0.096	0.326
-490.508	-200.000	-0.038	0.459
-489.493	-200.000	-0.018	0.179
-488.478	27.597	0.043	-0.036
-487.464	-52.885	-0.384	-0.177
-486.449	-6.124	0.270	-0.184
-485.435	56.615	0.457	-0.444
-484.420	-29.842	-0.181	-0.103
-483.405	438.762	-0.100	0.217
-482.391	-200.000	0.012	0.321
-481.376	-200.000	-0.020	-0.178
-480.362	-46.755	-0.198	0.097
-479.347	-140.378	-0.183	-0.019
-478.332	-5.270	-0.169	0.116
-477.318	-67.483	0.282	-0.111
-476.303	152.079	0.035	0.047
-475.289	-132.640	0.285	0.037
-474.274	-200.000	-0.019	-0.096
-473.259	-4.994	-0.139	-0.096
-472.245	-200.000	-0.030	0.253
-471.230	-32.450	-0.231	0.129
-470.216	239.977	-0.061	0.101
-469.201	48.220	0.124	-0.116
-468.186	292.590	-0.306	-0.557
-467.172	-200.000	-0.017	-0.197
-466.157	800.000	0.050	-0.187
-465.143	-200.000	0.010	-0.204
-464.128	-19.470	-0.234	-0.145
-463.113	-88.755	0.045	0.013
-462.099	249.112	0.063	0.106
-461.084	-200.000	0.023	0.124
-460.070	28.631	-0.120	0.101
-459.055	336.419	-0.138	-0.267
-458.040	333.896	0.084	0.162
-457.026	340.760	-0.059	-0.114
-456.011	52.079	-0.156	-0.149
-454.997	169.279	0.199	0.283
-453.982	-200.000	0.077	0.403
-452.968	356.749	-0.044	0.088
-451.953	-31.577	0.151	0.084
-450.938	-97.819	-0.122	-0.031
-449.924	743.520	0.012	-0.032
-448.909	191.432	0.073	-0.109
-447.895	495.584	0.035	-0.081
-446.880	-200.000	-0.005	0.205
-445.865	-200.000	0.024	0.202
-444.851	646.601	-0.036	0.092
-443.836	-200.000	0.008	0.169
-442.822	-180.063	0.220	0.005
-441.807	45.495	0.119	0.109
-440.792	44.652	0.199	-0.183
-439.778	-97.565	0.273	0.071
-438.763	-54.900	-0.273	0.123
-437.749	-200.000	-0.005	-0.303
-436.734	-105.719	0.119	0.027
-435.719	-200.000	0.023	-0.227
-434.705	61.658	-0.154	-0.153
-433.690	-43.381	-0.210	-0.106
-432.676	22.500	0.022	-0.018
-431.661	6.628	0.138	0.102
-430.646	387.202	-0.046	0.094
-429.632	164.663	-0.058	0.082
-428.617	-79.984	0.250	0.084
-427.603	-200.000	0.029	0.353
-426.588	20.904	0.049	0.039
-425.573	193.876	0.071	-0.107
-424.559	-50.087	-0.054	0.025
-423.544	20.261	-0.115	-0.093
-422.530	7.738	-0.099	0.074
-421.515	-116.084	-0.391	0.073
-420.500	-126.567	0.271	-0.040
-419.486	424.487	-0.126	0.270
-418.471	301.944	0.116	0.214
-417.457	13.437	0.147	0.114
-416.442	-134.791	-0.252	0.030
-415.428	-163.410	-0.233	-0.011
-414.413	109.130	0.207	0.247
-413.398	153.236	0.069	0.094
-412.384	246.152	0.122	0.204
-411.369	-200.000	-0.023	0.151
-410.355	-21.087	-0.244	-0.149
-409.340	8.614	0.122	0.091
-408.325	-24.004	0.221	0.132
-407.311	237.274	0.059	-0.097
-406.296	142.882	-0.097	0.129
-405.282	-125.246	-0.347	0.053
-404.267	83.213	-0.120	0.130
-403.252	99.535	0.065	0.075
-402.238	-200.000	0.018	-0.212
-401.223	46.432	-0.169	-0.156
-400.209	-109.875	0.199	-0.042
-399.194	204.102	-0.193	-0.297
-398.179	-66.941	0.260	-0.102
-397.165	25.490	-0.329	-0.273
-396.150	-11.875	-0.176	0.115
-395.136	-200.000	0.056	0.460
-394.121	305.279	0.094	0.174
-393.106	569.053	0.200	0.485
-392.092	582.397	0.071	0.173
-391.077	-144.008	0.269	0.025
-390.063	800.000	-0.009	-0.032
-389.048	-46.275	0.090	-0.044
-388.033	-200.000	-0.006	-0.225
-387.019	-154.302	-0.160	-0.011
-386.004	-56.684	-0.328	-0.145
-384.990	-200.000	0.011	-0.184
-383.975	-70.201	-0.209	0.079
-382.960	554.558	-0.118	-0.283
-381.946	-24.218	-0.233	-0.139
-380.931	800.000	0.131	0.377
-379.917	-85.751	0.383	-0.118
-378.902	-26.118	-0.287	0.168
-377.888	577.432	0.045	0.109
-376.873	-86.912	0.294	-0.089
-375.858	114.522	-0.090	0.110
-374.844	402.903	0.085	-0.178
-373.829	-40.674	-0.076	-0.039
-372.815	800.000	-0.140	-0.408
-371.800	-200.000	-0.003	-0.053
-370.785	800.000	0.030	-0.088
-369.771	81.377	0.142	-0.152
-368.756	-99.209	-0.300	0.075
-367.742	800.000	-0.060	0.200
-366.727	-95.943	-0.257	0.068
-365.712	93.518	0.136	0.153
-364.698	-119.190	0.252	-0.044
-363.683	-132.119	0.084	-0.011
-362.669	66.844	0.138	-0.140
-361.654	40.975	0.384	-0.345
-360.639	-103.864	-0.203	-0.047
-359.625	-109.789	-0.218	-0.045
-358.610	201.573	0.068	-0.104
-357.596	-69.863	0.097	-0.037
-356.581	800.000	-0.127	0.518
-355.566	-123.933	0.335	0.052
-354.552	800.000	-0.143	-0.536
-353.537	-200.000	-0.004	-0.027
-352.523	103.583	-0.083	0.097
-351.508	-200.000	-0.015	-0.249
-350.493	-16.196	0.165	-0.104
-349.479	25.654	-0.137	0.114
-348.464	-200.000	-0.024	0.310
-347.450	-25.607	0.305	-0.179
-346.435	-103.833	-0.103	-0.024
-345.420	-55.911	0.081	0.036
-344.406	800.000	-0.060	-0.175
-343.391	133.599	-0.174	-0.224
-342.377	-63.440	-0.122	-0.050
-341.362	1.620	-0.235	0.168
-340.348	149.061	-0.078	0.105
-339.333	-200.000	0.053	0.280
-338.318	-39.319	-0.343	0.179
-337.304	-85.585	-0.519	0.160
-336.289	58.898	0.116	-0.114
-335.275	800.000	0.080	-0.252
-334.260	-97.435	0.215	-0.056
-333.245	-101.164	0.286	0.069
-332.231	107.052	-0.215	-0.254
-331.216	-200.000	0.001	0.262
-330.202	-90.269	0.174	0.050
-329.187	328.973	-0.141	-0.269
-328.172	141.349	-0.119	0.157
-327.158	-151.372	0.069	-0.005
-326.143	94.858	-0.207	-0.234
-325.129	-66.955	-0.219	-0.086
-324.114	-85.338	0.377	-0.117
-323.099	-184.380	-0.341	0.006
-322.085	-153.997	-0.337	-0.023
-321.070	-85.616	-0.237	-0.073
-320.056	12.139	-0.108	0.083
-319.041	-72.420	0.120	-0.044
-318.026	-141.583	0.230	-0.023
-317.012	-90.464	-0.286	0.082
-315.997	-200.000	-0.022	-0.146
-314.983	-33.800	0.232	-0.127
-313.968	800.000	0.133	0.465
-312.953	145.393	-0.027	-0.036
-311.939	-6.056	0.419	-0.284
-310.924	81.107	0.239	-0.256
-309.910	-92.975	0.217	0.060
-308.895	-111.039	-0.535	-0.109
-307.880	-116.580	0.112	-0.021
-306.866	-57.718	-0.097	-0.042
-305.851	-88.708	0.074	0.022
-304.837	611.925	0.133	-0.329
-303.822	-117.118	-0.123	-0.022
-302.807	-57.824	0.372	-0.161
-301.793	-200.000	0.028	0.141
-300.778	-59.640	0.334	0.142
-299.764	800.000	0.054	0.182
-298.749	10.009	-0.233	-0.175
-297.735	800.000	-0.177	0.562
-296.720	158.672	-0.125	0.173
-295.705	-97.499	0.394	0.102
-294.691	388.674	-0.150	0.309
-293.676	800.000	0.109	-0.365
-292.662	-200.000	0.021	-0.136
-291.647	422.693	0.056	-0.120
-290.632	800.000	-0.008	-0.028
-289.618	-200.000	-0.039	0.350
-288.603	-119.367	0.111	-0.019
-287.589	1.936	0.155	0.111
-286.574	-118.432	-0.050	-0.009
-285.559	183.557	0.091	-0.133
-284.545	800.000	-0.066	0.229
-283.530	-200.000	0.031	-0.379
-282.516	-90.744	0.388	-0.111
-281.501	-63.089	0.085	0.035
-280.486	-14.239	0.205	0.131
-279.472	-200.000	0.018	0.156
-278.457	33.662	0.088	0.076
-277.443	214.598	0.256	-0.402
-276.428	15.547	-0.216	-0.168
-275.413	-120.605	0.373	0.063
-274.399	-175.039	0.411	-0.011
-273.384	-34.083	0.353	-0.192
-272.370	-104.279	-0.131	-0.030
-271.355	-54.509	0.409	-0.184
-270.340	382.384	0.023	0.047
-269.326	201.562	0.076	-0.116
-268.311	-6.507	0.166	0.112
-267.297	-94.346	-0.097	0.026
-266.282	315.187	0.113	-0.211
-265.267	-159.943	0.198	0.011
-264.253	372.749	0.114	-0.229
-263.238	37.666	-0.415	-0.365
-262.224	42.595	0.236	-0.213
-261.209	238.622	-0.186	-0.306
-260.195	-14.401	0.115	-0.074
-259.180	181.101	0.116	0.169
-258.165	800.000	0.053	-0.162
-257.151	354.006	-0.027	-0.053
-256.136	-143.999	0.345	0.032
-255.122	-200.000	-0.011	0.265
-254.107	-81.279	-0.154	-0.050
-253.092	-123.672	-0.321	0.050
-252.078	-167.558	-0.303	-0.012
-251.063	-200.000	0.028	-0.165
-250.049	-71.992	0.153	-0.056
-249.034	-173.110	0.159	0.005
-248.019	800.000	0.051	0.154
-247.005	800.000	0.068	0.273
-245.990	-42.774	-0.220	-0.111
-244.976	-125.986	0.330	-0.049
-243.961	88.536	0.040	-0.044
-242.946	4.076	-0.278	-0.201
-241.932	-142.945	0.662	-0.064
-240.917	27.854	-0.062	0.052
-239.903	210.754	-0.247	0.385
-238.888	10.088	0.165	0.124
-237.873	45.724	0.234	-0.214
-236.859	-97.401	-0.195	0.050
-235.844	800.000	-0.097	0.287
-234.830	403.691	-0.158	0.329
-233.815	269.492	-0.152	0.265
-232.800	494.593	-0.092	0.209
-231.786	-163.378	0.196	0.009
-230.771	-15.318	-0.123	-0.078
-229.757	800.000	-0.079	0.255
-228.742	-70.281	0.175	0.066
-227.727	-200.000	0.022	0.216
-226.713	-71.284	-0.218	-0.081
-225.698	800.000	0.060	-0.178
-224.684	96.341	0.171	0.194
-223.669	-96.025	0.171	-0.045
-222.655	-200.000	0.065	-0.377
-221.640	435.942	-0.147	-0.317
-220.625	-161.129	-0.154	0.008
-219.611	-200.000	0.030	-0.180
-218.596	-200.000	-0.041	-0.238
-217.582	58.646	-0.168	-0.163
-216.567	-200.000	-0.007	-0.092
-215.552	74.839	-0.242	0.252
-214.538	-18.373	-0.057	0.035
-213.523	14.083	-0.206	0.159
-212.509	665.390	-0.012	0.031
-211.494	379.930	-0.055	0.111
-210.479	518.055	0.066	0.154
-209.465	-25.790	0.160	0.093
-208.450	-105.537	-0.226	0.051
-207.436	-5.005	0.260	-0.177
-206.421	-83.432	-0.072	0.023
-205.406	140.099	0.018	-0.023
-204.392	800.000	-0.075	-0.229
-203.377	8.222	0.131	-0.097
-202.363	-90.620	-0.036	-0.010
-201.348	800.000	0.082	0.236
-200.333	134.173	0.064	0.083
-199.319	-0.583	-0.089	-0.062
-198.304	800.000	-0.065	-0.178
-197.290	-91.390	-0.160	0.045
-196.275	598.408	0.045	-0.111
-195.260	-200.000	-0.035	0.361
-194.246	53.860	-0.115	-0.110
-193.231	492.120	-0.091	0.206
-192.217	-39.395	-0.264	0.137
-191.202	-77.031	-0.024	0.008
-190.187	800.000	0.053	-0.182
-189.173	-84.346	0.184	0.058
-188.158	-21.647	-0.125	-0.075
-187.144	-200.000	0.066	0.325
-186.129	254.532	-0.127	-0.214
-185.114	-59.297	-0.072	0.031
-184.100	800.000	0.103	-0.345
-183.085	-126.583	0.124	-0.018
-182.071	-95.304	-0.364	-0.097
-181.056	-200.000	0.247	-0.001
-180.042	-60.745	-0.151	0.063
-179.027	-200.000	-0.014	0.148
-178.012	-83.681	-0.022	0.007
-176.998	-69.292	0.257	-0.097
-175.983	16.627	0.223	0.174
-174.969	382.016	-0.036	0.072
-173.954	455.598	-0.116	0.253
-172.939	-59.007	-0.231	0.098
-171.925	-200.000	0.039	0.188
-170.910	-200.000	0.055	0.240
-169.896	97.739	-0.072	-0.082
-168.881	-112.306	-0.118	0.023
-167.866	-73.927	0.270	-0.097
-166.852	6.450	0.099	0.073
-165.837	-154.950	0.211	0.014
-164.823	800.000	0.085	0.357
-163.808	800.000	0.043	-0.171
-162.793	-65.674	0.149	-0.059
-161.779	243.988	-0.079	0.132
-160.764	-58.590	-0.212	-0.091
-159.750	139.906	-0.151	0.197
-158.735	-200.000	0.077	0.488
-157.720	111.895	0.173	0.206
-156.706	58.292	-0.272	0.264
-155.691	637.141	0.187	0.469
-154.677	37.230	-0.251	0.220
-153.662	800.000	-0.070	-0.201
-152.647	148.909	-0.214	0.286
-151.633	-198.384	-0.223	0.001
-150.618	-11.016	0.192	-0.125
-149.604	-35.435	0.264	-0.142
-148.589	32.813	0.121	0.103
-147.574	-146.144	0.201	0.017
-146.560	-7.327	0.074	0.049
-145.545	-15.557	-0.203	-0.128
-144.531	-200.000	0.002	0.070
-143.516	-38.594	0.241	0.126
-142.502	-200.000	0.025	0.120
-141.487	106.913	0.200	0.234
-140.472	98.119	-0.130	0.148
-139.458	-134.178	0.165	0.020
-138.443	-200.000	0.032	-0.243
-137.429	-115.660	0.279	-0.052
-136.414	78.592	-0.060	-0.063
-135.399	-54.239	0.356	-0.160
-134.385	33.786	-0.185	-0.159
-133.370	-106.004	0.195	-0.043
-132.356	244.140	0.085	0.141
-131.341	-200.000	0.000	0.087
-130.326	30.858	-0.547	-0.462
-129.312	-18.524	0.117	0.072
-128.297	158.010	0.086	-0.117
-127.283	-200.000	-0.022	-0.124
-126.268	-64.388	-0.165	-0.066
-125.253	-42.834	0.138	-0.069
-124.239	164.923	0.029	-0.040
-123.224	-200.000	-0.004	0.182
-122.210	-43.251	0.075	-0.037
