DTS Sentinel unit serial number:	SN413079Multiplexer serial number:	ORYXHardware model number:	OX4-SRSoftware version number:	ORYX F/W v4.00 Oryx Data Collector v3.7.2.0data status	okinstallation	princeton_trtdifferential loss correction	single-endedforward channel	channel 3reverse channel	N/Adate	2019/09/16time	15:40:34forward acquisition time	60.00reverse acquisition time	0.00gamma	496.2192k internal	0.2292k external	0.2292temperature offset calibration	0.9943default loss term (dB/km)	0.3790temperature slope calibration	1.0000multiplexer offset coefficient	1.0000multiplexer slope coefficient	1.0000fibre end	0.00T internal ref (°C)	41.17T ext. ref 1 (°C)	14.75T ext. ref 2 (°C)	36.51length (m)	temperature (°C)	Stokes	anti-Stokes-747.200	19.405	0.034	0.028
-746.185	-66.339	0.034	0.014
-745.171	800.000	-0.099	-0.293
-744.156	106.160	0.139	0.169
-743.142	-34.628	-0.142	-0.080
-742.127	68.157	0.156	0.163
-741.112	201.196	-0.111	-0.175
-740.098	800.000	0.048	0.149
-739.083	-200.000	0.014	0.163
-738.069	800.000	-0.116	0.483
-737.054	800.000	-0.042	0.154
-736.039	121.405	0.049	-0.063
-735.025	105.425	0.102	-0.124
-734.010	-200.000	0.004	0.271
-732.996	-135.393	0.213	0.026
-731.981	-64.881	-0.182	0.075
-730.966	119.462	-0.238	-0.301
-729.952	96.973	-0.044	-0.052
-728.937	-46.380	0.211	-0.106
-727.923	800.000	0.067	-0.219
-726.908	-14.197	0.054	-0.036
-725.894	289.794	0.095	0.177
-724.879	271.747	-0.077	0.139
-723.864	-26.904	-0.127	0.076
-722.850	800.000	-0.100	-0.370
-721.835	-66.620	-0.261	-0.106
-720.821	71.726	-0.280	-0.298
-719.806	472.554	-0.137	-0.315
-718.791	800.000	0.085	-0.320
-717.777	-76.154	-0.071	-0.025
-716.762	257.883	0.057	0.100
-715.748	-161.834	0.143	0.007
-714.733	-200.000	-0.024	-0.276
-713.718	395.811	0.095	0.202
-712.704	-200.000	0.045	-0.347
-711.689	-50.539	0.473	-0.228
-710.675	-150.652	0.115	0.009
-709.660	126.798	0.202	0.262
-708.645	108.359	0.120	0.147
-707.631	800.000	-0.049	0.168
-706.616	800.000	-0.068	-0.195
-705.602	-132.651	0.265	-0.035
-704.587	118.066	-0.280	-0.353
-703.572	135.401	-0.330	-0.438
-702.558	177.412	-0.118	0.176
-701.543	191.353	0.158	-0.243
-700.529	281.302	0.131	-0.239
-699.514	-200.000	0.066	0.469
-698.499	-43.734	0.196	0.101
-697.485	23.559	-0.016	0.013
-696.470	-4.380	0.021	-0.015
-695.456	75.573	-0.227	-0.245
-694.441	467.900	0.002	0.005
-693.426	-102.581	0.501	-0.122
-692.412	38.482	0.458	-0.417
-691.397	800.000	-0.046	0.133
-690.383	-175.752	-0.079	0.002
-689.368	-200.000	-0.004	0.237
-688.354	-84.456	0.427	-0.138
-687.339	22.236	-0.077	-0.064
-686.324	214.576	0.145	-0.234
-685.310	56.153	0.195	-0.193
-684.295	57.525	0.243	0.242
-683.281	119.102	-0.173	0.218
-682.266	204.349	0.219	-0.347
-681.251	739.743	0.090	-0.246
-680.237	17.249	-0.196	-0.159
-679.222	-101.689	0.281	0.070
-678.208	-17.666	-0.065	-0.042
-677.193	259.942	0.063	-0.112
-676.178	232.621	0.088	0.147
-675.164	4.641	0.198	-0.148
-674.149	-112.566	0.137	-0.028
-673.135	284.183	0.027	-0.050
-672.120	800.000	-0.041	-0.120
-671.105	-8.783	0.124	-0.085
-670.091	-200.000	-0.026	0.127
-669.076	-200.000	0.012	-0.123
-668.062	188.302	-0.191	-0.291
-667.047	-200.000	0.038	0.254
-666.032	-43.585	0.161	-0.083
-665.018	119.669	0.121	0.154
-664.003	-200.000	-0.005	-0.245
-662.989	-200.000	0.001	-0.365
-661.974	-200.000	-0.002	0.294
-660.959	-3.459	-0.153	0.109
-659.945	-200.000	0.043	0.342
-658.930	440.447	-0.076	0.170
-657.916	-98.058	0.343	0.090
-656.901	72.470	0.231	-0.246
-655.886	-118.572	-0.316	0.057
-654.872	78.170	0.120	0.130
-653.857	-200.000	-0.012	-0.251
-652.843	30.377	-0.067	-0.059
-651.828	-200.000	-0.026	-0.119
-650.814	-200.000	0.012	-0.175
-649.799	-64.985	-0.216	0.089
-648.784	800.000	0.132	0.430
-647.770	-173.673	-0.149	0.005
-646.755	105.761	0.058	-0.069
-645.741	-200.000	-0.038	0.261
-644.726	151.768	-0.176	-0.244
-643.711	485.777	-0.147	0.341
-642.697	-89.338	0.189	0.057
-641.682	82.062	0.181	0.200
-640.668	34.951	-0.069	-0.062
-639.653	-79.056	-0.141	-0.049
-638.638	-200.000	0.007	0.193
-637.624	800.000	-0.027	0.111
-636.609	362.190	0.113	0.231
-635.595	102.977	-0.068	0.081
-634.580	-5.269	-0.101	-0.071
-633.565	158.869	-0.107	-0.151
-632.551	-61.936	0.320	-0.137
-631.536	181.960	0.118	0.177
-630.522	681.698	-0.066	0.176
-629.507	-32.377	0.158	0.090
-628.492	7.983	-0.327	0.250
-627.478	57.487	0.118	0.118
-626.463	-93.957	0.034	-0.009
-625.449	201.666	-0.141	-0.221
-624.434	-200.000	-0.045	0.303
-623.419	-14.159	-0.412	0.271
-622.405	618.202	0.114	0.291
-621.390	-103.880	0.190	0.045
-620.376	-20.835	0.262	-0.164
-619.361	-41.855	-0.230	-0.120
-618.346	800.000	0.031	0.117
-617.332	-200.000	-0.003	-0.069
-616.317	-5.614	-0.051	0.035
-615.303	194.743	-0.128	-0.197
-614.288	196.177	-0.151	-0.235
-613.273	-200.000	0.057	-0.271
-612.259	3.245	0.098	0.073
-611.244	800.000	0.037	-0.111
-610.230	147.785	-0.106	0.146
-609.215	-98.073	-0.362	-0.095
-608.201	-200.000	0.034	-0.181
-607.186	-106.952	-0.054	0.012
-606.171	114.997	-0.177	-0.220
-605.157	-145.919	-0.170	0.015
-604.142	-200.000	0.002	0.284
-603.128	85.247	0.188	-0.209
-602.113	159.144	0.152	0.214
-601.098	433.088	-0.050	-0.110
-600.084	376.625	0.090	0.187
-599.069	232.178	-0.132	-0.220
-598.055	-200.000	0.022	0.185
-597.040	-110.179	0.266	0.056
-596.025	-39.958	0.198	-0.105
-595.011	89.537	-0.166	0.188
-593.996	84.963	-0.191	-0.213
-592.982	58.124	-0.109	-0.109
-591.967	45.385	0.238	-0.223
-590.952	-75.338	-0.301	-0.109
-589.938	-89.732	0.137	0.041
-588.923	425.024	0.065	0.142
-587.909	-103.834	-0.213	-0.051
-586.894	494.117	0.095	0.222
-585.879	800.000	-0.054	-0.231
-584.865	429.116	0.066	0.146
-583.850	-92.326	0.021	-0.006
-582.836	-68.497	-0.153	0.060
-581.821	-200.000	0.046	-0.235
-580.806	-7.771	0.179	0.123
-579.792	-17.276	0.221	-0.141
-578.777	32.126	0.220	0.193
-577.763	-27.832	-0.189	0.112
-576.748	800.000	-0.027	-0.090
-575.733	-200.000	0.016	-0.213
-574.719	195.803	-0.047	0.073
-573.704	-71.889	-0.118	0.045
-572.690	800.000	0.073	0.242
-571.675	-200.000	0.032	0.165
-570.661	-159.232	0.176	0.010
-569.646	-200.000	0.007	-0.230
-568.631	-57.223	-0.148	0.066
-567.617	33.795	-0.217	0.192
-566.602	-200.000	0.000	-0.081
-565.588	-33.520	-0.339	0.190
-564.573	193.498	-0.064	0.098
-563.558	800.000	-0.061	-0.226
-562.544	-113.143	0.334	0.067
-561.529	800.000	-0.082	0.292
-560.515	90.599	-0.367	0.418
-559.500	133.610	0.159	0.208
-558.485	257.467	0.078	0.137
-557.471	-200.000	0.008	-0.220
-556.456	196.341	-0.050	0.077
-555.442	89.334	-0.151	-0.171
-554.427	-173.221	-0.233	0.007
-553.412	-200.000	-0.034	-0.193
-552.398	-47.803	-0.305	-0.150
-551.383	-39.024	-0.171	-0.091
-550.369	-69.636	-0.526	0.204
-549.354	253.820	0.060	-0.104
-548.339	-42.313	-0.139	0.072
-547.325	224.032	0.092	-0.152
-546.310	397.505	0.015	-0.032
-545.296	-200.000	-0.022	-0.247
-544.281	-79.609	0.353	0.121
-543.266	56.288	-0.255	0.251
-542.252	-200.000	-0.032	0.188
-541.237	66.944	0.131	0.136
-540.223	770.837	-0.088	0.244
-539.208	-200.000	-0.005	0.116
-538.193	-200.000	0.011	0.172
-537.179	-86.897	-0.379	-0.117
-536.164	-2.137	-0.064	0.046
-535.150	24.288	0.148	0.124
-534.135	331.744	0.191	-0.374
-533.121	52.944	-0.223	-0.216
-532.106	-15.664	0.107	0.069
-531.091	-200.000	-0.036	-0.217
-530.077	280.188	0.070	-0.127
-529.062	-33.010	-0.444	0.250
-528.048	-113.104	0.131	0.026
-527.033	204.674	-0.143	0.225
-526.018	237.054	0.091	-0.153
-525.004	139.789	-0.094	-0.126
-523.989	7.033	0.096	-0.073
-522.975	-11.750	-0.148	0.099
-521.960	-17.275	-0.046	-0.029
-520.945	251.485	-0.132	-0.228
-519.931	204.656	0.158	0.249
-518.916	293.187	-0.089	0.164
-517.902	-200.000	-0.011	-0.159
-516.887	235.619	0.230	-0.385
-515.872	-200.000	-0.041	-0.225
-514.858	-34.013	-0.035	0.019
-513.843	7.371	0.163	0.123
-512.829	33.892	0.229	0.202
-511.814	-75.316	-0.131	0.047
-510.799	316.409	0.050	0.096
-509.785	-108.963	0.475	0.103
-508.770	-101.586	-0.266	-0.066
-507.756	466.502	0.064	-0.146
-506.741	72.482	0.063	0.066
-505.726	-33.563	-0.181	0.102
-504.712	-22.635	-0.288	-0.176
-503.697	69.303	0.211	0.220
-502.683	800.000	-0.037	-0.128
-501.668	-89.313	-0.304	0.091
-500.653	-200.000	-0.032	0.188
-499.639	-105.561	0.375	0.086
-498.624	800.000	0.046	0.149
-497.610	-88.487	0.048	0.015
-496.595	121.864	0.045	-0.057
-495.581	-79.573	-0.427	-0.146
-494.566	-61.258	-0.382	0.163
-493.551	800.000	-0.065	0.209
-492.537	459.292	-0.033	0.075
-491.522	-179.532	0.359	0.008
-490.508	-127.114	0.310	-0.046
-489.493	-60.571	-0.136	-0.058
-488.478	189.379	0.170	-0.258
-487.464	-200.000	-0.037	-0.412
-486.449	-90.507	0.201	-0.059
-485.435	-31.293	-0.252	-0.144
-484.420	387.795	0.146	-0.306
-483.405	-200.000	-0.015	-0.073
-482.391	-200.000	0.002	-0.109
-481.376	486.490	0.122	-0.281
-480.362	32.372	-0.102	-0.089
-479.347	-113.995	-0.333	0.065
-478.332	79.637	0.135	0.146
-477.318	-103.758	-0.216	0.051
-476.303	37.535	-0.081	-0.073
-475.289	800.000	-0.038	-0.124
-474.274	-116.244	0.287	-0.054
-473.259	-178.105	0.400	0.010
-472.245	-131.025	-0.194	0.026
-471.230	332.150	0.059	0.116
-470.216	-117.023	-0.415	-0.077
-469.201	-156.096	-0.148	0.009
-468.186	381.313	-0.081	0.169
-467.172	-2.590	0.115	-0.082
-466.157	-155.359	0.332	0.022
-465.143	-200.000	-0.015	0.167
-464.128	291.775	0.057	0.105
-463.113	-75.534	-0.141	0.051
-462.099	469.734	0.153	0.348
-461.084	85.890	-0.269	-0.299
-460.070	735.100	0.105	0.283
-459.055	800.000	0.050	0.176
-458.040	-20.008	-0.164	-0.102
-457.026	-13.256	0.331	0.217
-456.011	800.000	-0.139	-0.455
-454.997	-57.874	0.195	-0.086
-453.982	-200.000	0.102	-0.613
-452.968	-51.204	-0.097	-0.046
-451.953	490.508	-0.085	-0.197
-450.938	-200.000	0.029	0.166
-449.924	-17.233	0.105	0.067
-448.909	-118.840	-0.205	-0.037
-447.895	121.565	-0.162	0.204
-446.880	197.800	0.085	0.131
-445.865	800.000	0.043	0.184
-444.851	-23.284	-0.154	0.094
-443.836	483.397	0.106	-0.244
-442.822	-5.582	0.289	-0.200
-441.807	-111.565	0.156	-0.032
-440.792	145.439	-0.191	-0.259
-439.778	259.832	-0.079	0.138
-438.763	-200.000	0.004	-0.065
-437.749	110.849	-0.115	-0.140
-436.734	267.879	0.054	-0.096
-435.719	-48.436	-0.186	0.091
-434.705	-124.647	-0.329	-0.052
-433.690	-171.531	0.207	-0.007
-432.676	-149.774	0.091	0.007
-431.661	-56.567	0.112	0.050
-430.646	125.894	-0.045	0.058
-429.632	310.860	0.048	-0.090
-428.617	190.966	-0.089	-0.135
-427.603	354.062	0.129	-0.259
-426.588	179.482	-0.163	-0.241
-425.573	-200.000	0.008	-0.350
-424.559	-83.783	0.082	0.027
-423.544	-15.711	0.114	-0.074
-422.530	-50.316	0.276	0.132
-421.515	3.856	0.388	-0.286
-420.500	-14.682	0.199	-0.129
-419.486	63.616	-0.241	-0.244
-418.471	-200.000	-0.045	-0.287
-417.457	-118.023	-0.134	0.024
-416.442	485.822	-0.116	0.268
-415.428	6.712	0.112	-0.084
-414.413	23.248	0.263	0.218
-413.398	-200.000	0.003	0.183
-412.384	419.585	-0.051	-0.111
-411.369	83.296	0.121	-0.133
-410.355	10.100	-0.127	0.098
-409.340	27.127	-0.117	-0.099
-408.325	17.448	-0.427	0.343
-407.311	346.522	0.088	0.176
-406.296	3.740	0.076	-0.056
-405.282	-24.313	0.280	-0.169
-404.267	800.000	-0.095	0.362
-403.252	-87.205	0.186	0.057
-402.238	189.932	0.150	-0.228
-401.223	19.223	0.288	-0.234
-400.209	-200.000	0.013	-0.285
-399.194	-98.204	-0.421	-0.109
-398.179	343.059	0.096	-0.190
-397.165	-109.784	0.108	-0.023
-396.150	-103.330	0.338	-0.080
-395.136	-179.604	-0.197	0.004
-394.121	334.414	-0.100	0.196
-393.106	-128.838	-0.124	0.018
-392.092	-40.177	-0.193	-0.102
-391.077	800.000	0.053	0.151
-390.063	800.000	0.054	-0.206
-389.048	272.974	0.121	-0.215
-388.033	-52.428	-0.126	-0.059
-387.019	40.506	0.168	-0.153
-386.004	-77.832	0.222	-0.077
-384.990	320.250	0.052	0.101
-383.975	-200.000	-0.002	0.055
-382.960	-120.226	-0.183	0.032
-381.946	0.107	-0.087	0.063
-380.931	-36.108	-0.144	0.078
-379.917	-103.326	-0.247	0.059
-378.902	165.463	-0.234	-0.334
-377.888	223.721	-0.182	-0.296
-376.873	13.716	-0.417	0.327
-375.858	-200.000	0.004	0.322
-374.844	-111.419	-0.047	-0.010
-373.829	-124.069	-0.257	0.041
-372.815	43.544	0.154	0.142
-371.800	-200.000	-0.041	-0.237
-370.785	-65.642	-0.072	0.029
-369.771	-89.946	-0.029	-0.008
-368.756	233.981	-0.062	0.103
-367.742	-90.405	0.383	0.112
-366.727	402.997	-0.111	0.236
-365.712	-100.405	-0.146	-0.036
-364.698	-15.424	0.158	-0.102
-363.683	-0.616	0.075	0.054
-362.669	-134.434	0.066	0.008
-361.654	-7.385	-0.088	0.060
-360.639	-200.000	0.038	-0.169
-359.625	301.846	-0.199	-0.371
-358.610	800.000	-0.047	0.163
-357.596	203.094	-0.163	0.255
-356.581	101.759	0.102	0.120
-355.566	800.000	0.124	-0.378
-354.552	-51.340	-0.398	-0.188
-353.537	144.229	0.068	-0.092
-352.523	15.908	-0.225	0.179
-351.508	100.589	0.086	-0.101
-350.493	121.895	0.217	0.272
-349.479	800.000	0.011	0.041
-348.464	126.808	0.102	0.130
-347.450	229.642	0.137	0.226
-346.435	564.722	0.070	-0.172
-345.420	24.884	0.169	-0.141
-344.406	-148.306	0.111	0.009
-343.391	441.065	-0.044	-0.098
-342.377	800.000	-0.066	-0.277
-341.362	161.625	-0.072	-0.101
-340.348	800.000	-0.125	0.494
-339.333	94.489	0.160	0.183
-338.318	15.517	-0.221	0.175
-337.304	-200.000	-0.027	0.163
-336.289	-48.403	0.112	-0.054
-335.275	8.364	0.264	-0.200
-334.260	405.721	-0.158	0.336
-333.245	-200.000	0.044	0.199
-332.231	-136.862	0.117	0.014
-331.216	-200.000	-0.175	-0.000
-330.202	-81.555	-0.102	-0.034
-329.187	-38.975	0.499	-0.265
-328.172	496.454	0.014	-0.032
-327.158	-200.000	-0.100	0.573
-326.143	-30.314	0.195	0.111
-325.129	406.518	-0.064	0.136
-324.114	137.768	-0.193	-0.254
-323.099	-168.736	-0.067	-0.003
-322.085	49.917	-0.079	0.075
-321.070	517.303	0.175	-0.411
-320.056	-17.015	-0.133	-0.085
-319.041	-200.000	-0.016	0.105
-318.026	20.411	0.200	-0.163
-317.012	421.503	-0.144	0.311
-315.997	-130.187	-0.109	0.015
-314.983	63.110	0.239	0.241
-313.968	-200.000	-0.004	0.106
-312.953	282.042	0.087	-0.158
-311.939	-115.472	0.351	0.066
-310.924	-10.095	0.134	-0.089
-309.910	72.414	-0.182	0.191
-308.895	413.446	-0.057	-0.122
-307.880	-200.000	-0.022	0.248
-306.866	150.998	-0.088	-0.120
-305.851	638.936	0.039	-0.101
-304.837	-200.000	0.021	0.348
-303.822	-200.000	0.208	-0.001
-302.807	-7.952	-0.359	-0.243
-301.793	-197.075	-0.133	-0.001
-300.778	800.000	-0.074	0.262
-299.764	139.393	-0.093	-0.123
-298.749	24.248	0.375	-0.311
-297.735	-35.852	0.229	0.125
-296.720	0.167	-0.360	-0.259
-295.705	-79.818	-0.132	0.045
-294.691	-57.631	-0.074	-0.033
-293.676	88.382	0.172	-0.193
-292.662	351.571	0.069	0.137
-291.647	-200.000	0.011	-0.139
-290.632	-78.619	0.102	-0.035
-289.618	44.986	-0.137	-0.127
-288.603	-200.000	-0.045	-0.225
-287.589	-200.000	-0.041	-0.339
-286.574	-83.884	0.069	-0.022
-285.559	260.141	0.088	0.154
-284.545	-158.505	0.231	-0.013
-283.530	-138.402	-0.325	-0.036
-282.516	-6.187	-0.214	0.147
-281.501	2.620	-0.072	0.052
-280.486	-85.159	0.367	-0.115
-279.472	371.952	0.058	-0.119
-278.457	408.382	-0.074	-0.158
-277.443	-200.000	0.063	-0.334
-276.428	62.968	-0.148	0.149
-275.413	-119.393	0.173	-0.030
-274.399	182.051	0.126	-0.186
-273.384	525.448	-0.139	-0.328
-272.370	-68.830	-0.204	-0.079
-271.355	-63.954	-0.226	-0.093
-270.340	-42.847	0.300	-0.153
-269.326	88.415	0.071	0.079
-268.311	128.143	-0.058	-0.074
-267.297	-141.210	0.434	-0.044
-266.282	-200.000	0.006	0.329
-265.267	245.798	0.128	-0.217
-264.253	800.000	0.030	-0.118
-263.238	-10.453	0.335	0.223
-262.224	30.785	-0.130	-0.111
-261.209	-36.318	-0.226	0.122
-260.195	-31.012	-0.298	0.169
-259.180	208.498	-0.090	-0.141
-258.165	-94.465	-0.096	-0.026
-257.151	800.000	-0.134	0.377
-256.136	-132.850	-0.375	0.048
-255.122	-124.187	0.237	0.037
-254.107	800.000	0.026	-0.103
-253.092	400.569	0.082	-0.173
-252.078	76.216	0.154	0.163
-251.063	-24.487	0.115	0.069
-250.049	-156.328	0.060	-0.004
-249.034	-200.000	-0.016	-0.136
-248.019	-200.000	0.009	0.295
-247.005	-110.645	0.232	0.048
-245.990	57.639	0.056	-0.055
-244.976	90.249	0.083	-0.094
-243.961	375.869	-0.072	-0.148
-242.946	-200.000	0.026	-0.231
-241.932	118.245	0.061	0.075
-240.917	174.620	0.189	-0.275
-239.903	-200.000	0.006	-0.191
-238.888	685.645	-0.003	-0.007
-237.873	-57.234	0.336	-0.149
-236.859	36.311	0.090	0.079
-235.844	-3.708	-0.154	0.107
-234.830	-190.117	0.056	0.001
-233.815	370.235	0.020	-0.041
-232.800	279.976	0.040	0.071
-231.786	216.077	-0.164	-0.262
-230.771	342.963	-0.077	-0.151
-229.757	-45.984	0.109	-0.054
-228.742	49.374	0.090	-0.085
-227.727	302.002	-0.137	-0.254
-226.713	-101.880	0.191	-0.046
-225.698	800.000	0.024	-0.068
-224.684	622.705	-0.145	0.366
-223.669	250.120	0.114	0.194
-222.655	10.312	-0.221	0.169
-221.640	800.000	0.040	0.156
-220.625	-95.855	0.302	-0.081
-219.611	187.177	-0.082	0.123
-218.596	-200.000	0.024	-0.146
-217.582	-200.000	0.048	0.362
-216.567	-200.000	0.036	0.601
-215.552	-200.000	0.004	0.090
-214.538	-200.000	-0.007	-0.040
-213.523	89.182	-0.186	-0.208
-212.509	-102.279	0.114	-0.028
-211.494	199.241	0.097	-0.149
-210.479	-200.000	0.036	0.164
-209.465	-6.655	0.137	0.093
-208.450	6.923	0.091	0.068
-207.436	-101.755	-0.128	0.031
-206.421	-198.514	0.135	0.001
-205.406	-17.586	0.121	0.076
-204.392	-11.881	-0.255	0.168
-203.377	-108.213	0.243	0.053
-202.363	-102.197	-0.083	0.020
-201.348	-42.886	-0.140	0.071
-200.333	619.390	-0.144	0.363
-199.319	800.000	0.029	0.123
-198.304	493.765	-0.067	0.154
-197.290	-200.000	-0.060	0.288
-196.275	800.000	-0.034	0.134
-195.260	211.749	0.044	-0.070
-194.246	-164.158	-0.171	0.008
-193.231	-37.196	0.104	-0.056
-192.217	68.661	0.264	0.271
-191.202	449.650	-0.069	-0.152
-190.187	115.761	-0.154	0.188
-189.173	-81.077	0.210	0.070
-188.158	-44.927	-0.305	-0.152
-187.144	-135.214	0.409	0.049
-186.129	-16.708	-0.013	0.008
-185.114	-7.507	-0.116	-0.079
-184.100	-200.000	0.020	0.434
-183.085	-63.616	0.250	-0.103
-182.071	102.928	-0.156	0.182
-181.056	-73.073	0.302	-0.111
-180.042	-83.306	0.113	-0.036
-179.027	165.039	-0.081	0.115
-178.012	-4.152	0.077	-0.053
-176.998	551.695	-0.036	0.086
-175.983	-57.473	-0.174	-0.077
-174.969	163.630	0.122	-0.171
-173.954	-22.289	0.036	0.022
-172.939	32.351	-0.067	0.058
-171.925	20.419	0.223	-0.180
-170.910	48.555	-0.028	0.027
-169.896	18.626	-0.032	0.026
-168.881	-200.000	-0.029	-0.223
-167.866	800.000	-0.028	0.081
-166.852	-120.446	0.292	-0.050
-165.837	-25.657	0.194	-0.115
-164.823	160.790	0.121	-0.169
-163.808	340.442	0.063	-0.123
-162.793	706.478	0.026	0.068
-161.779	772.971	0.170	0.465
-160.764	-200.000	-0.004	0.128
-159.750	140.080	-0.164	-0.216
-158.735	-200.000	-0.049	-0.237
-157.720	87.954	0.156	-0.173
-156.706	83.779	0.128	-0.140
-155.691	236.956	0.095	0.157
-154.677	478.388	0.173	-0.392
-153.662	-19.109	0.157	-0.097
-152.647	43.557	-0.182	0.167
-151.633	-112.858	-0.087	0.017
-150.618	42.944	-0.456	-0.416
-149.604	-41.808	-0.236	0.121
-148.589	54.295	0.146	0.140
-147.574	-31.969	0.251	0.140
-146.560	-89.543	-0.306	-0.090
-145.545	225.923	-0.040	-0.065
-144.531	29.197	-0.090	-0.076
-143.516	800.000	0.051	-0.164
-142.502	50.921	-0.152	0.144
-141.487	41.976	-0.072	0.065
-140.472	190.355	-0.135	-0.202
-139.458	-25.936	0.131	-0.077
-138.443	154.996	-0.095	-0.130
-137.429	647.647	-0.148	-0.379
-136.414	-74.431	-0.226	-0.081
-135.399	-7.272	-0.140	0.095
-134.385	487.975	-0.102	0.234
-133.370	-131.597	0.398	-0.052
-132.356	800.000	0.038	0.150
-131.341	-200.000	0.059	-0.453
-130.326	-28.448	-0.159	0.092
-129.312	8.837	0.119	0.090
-128.297	511.499	-0.090	0.209
-127.283	2.489	-0.403	0.292
-126.268	-18.891	0.154	0.096
-125.253	252.319	-0.043	-0.072
-124.239	-90.175	-0.238	-0.069
-123.224	-35.095	0.246	0.134
-122.210	716.440	-0.153	0.407
-121.195	-200.000	0.010	0.252
-120.180	-6.364	0.098	-0.067
