DTS Sentinel unit serial number:	SN413079Multiplexer serial number:	ORYXHardware model number:	OX4-SRSoftware version number:	ORYX F/W v4.00 Oryx Data Collector v3.7.2.0data status	okinstallation	princeton_trtdifferential loss correction	single-endedforward channel	channel 3reverse channel	N/Adate	2019/09/12time	22:16:34forward acquisition time	60.00reverse acquisition time	0.00gamma	496.2192k internal	0.2326k external	0.2326temperature offset calibration	1.0132default loss term (dB/km)	0.3790temperature slope calibration	1.0000multiplexer offset coefficient	1.0000multiplexer slope coefficient	1.0000fibre end	0.00T internal ref (°C)	29.87T ext. ref 1 (°C)	3.74T ext. ref 2 (°C)	24.42length (m)	temperature (°C)	Stokes	anti-Stokes-747.200	-200.000	-0.007	0.051
-746.185	256.307	0.086	0.150
-745.171	36.714	0.102	-0.091
-744.156	-200.000	0.015	0.227
-743.142	-164.298	-0.049	-0.002
-742.127	238.403	-0.137	0.230
-741.112	-200.000	0.049	-0.231
-740.098	-10.384	0.360	-0.241
-739.083	-17.041	-0.102	-0.065
-738.069	-75.160	-0.237	-0.085
-737.054	-125.158	0.047	0.007
-736.039	-83.364	-0.171	-0.055
-735.025	280.983	0.129	-0.232
-734.010	-200.000	-0.005	0.229
-732.996	-63.257	0.195	-0.081
-731.981	-176.747	0.056	-0.001
-730.966	-200.000	0.068	0.616
-729.952	-116.192	-0.175	-0.033
-728.937	9.956	-0.170	0.130
-727.923	-179.652	-0.269	-0.006
-726.908	208.868	0.157	0.247
-725.894	-54.012	-0.321	0.147
-724.879	-169.236	-0.392	-0.015
-723.864	-119.216	-0.202	-0.036
-722.850	-200.000	0.022	0.347
-721.835	-182.164	0.167	0.003
-720.821	-200.000	0.012	0.409
-719.806	-200.000	-0.151	-0.001
-718.791	7.932	-0.236	-0.179
-717.777	81.372	-0.075	-0.081
-716.762	-200.000	-0.039	-0.288
-715.748	274.417	-0.095	-0.169
-714.733	-6.133	-0.290	-0.200
-713.718	381.136	-0.169	-0.350
-712.704	-5.500	-0.378	-0.261
-711.689	581.851	0.031	0.077
-710.675	-5.987	0.190	-0.131
-709.660	800.000	-0.085	0.314
-708.645	421.815	-0.068	0.147
-707.631	64.247	-0.116	-0.118
-706.616	200.844	0.123	-0.190
-705.602	-88.738	0.209	-0.062
-704.587	-98.786	0.005	0.001
-703.572	-29.770	-0.342	-0.196
-702.558	-63.395	-0.076	-0.031
-701.543	-90.418	-0.242	0.071
-700.529	79.394	0.035	0.038
-699.514	-200.000	-0.005	-0.048
-698.499	207.509	-0.045	0.071
-697.485	800.000	0.059	-0.216
-696.470	99.531	0.232	-0.270
-695.456	-2.941	-0.079	-0.056
-694.441	-31.192	0.126	-0.071
-693.426	-200.000	0.004	-0.137
-692.412	-200.000	0.046	-0.232
-691.397	141.688	0.234	0.312
-690.383	-55.999	-0.085	-0.038
-689.368	86.001	-0.153	-0.169
-688.354	-200.000	-0.027	0.183
-687.339	28.352	-0.230	-0.196
-686.324	-23.706	0.118	0.071
-685.310	412.338	-0.113	-0.242
-684.295	270.121	0.125	-0.221
-683.281	-35.921	0.441	-0.240
-682.266	-93.517	-0.166	-0.046
-681.251	-177.347	-0.154	-0.004
-680.237	-164.570	-0.142	0.006
-679.222	37.352	0.308	-0.275
-678.208	-37.872	-0.169	-0.090
-677.193	-189.490	-0.206	0.002
-676.178	253.497	-0.085	0.146
-675.164	1.716	-0.133	-0.096
-674.149	-149.548	0.063	0.005
-673.135	135.359	-0.130	0.170
-672.120	25.167	0.139	-0.116
-671.105	-78.577	-0.239	-0.082
-670.091	-123.254	-0.326	-0.052
-669.076	-96.260	-0.162	-0.043
-668.062	-92.233	0.193	-0.055
-667.047	12.526	0.107	-0.083
-666.032	800.000	0.071	-0.283
-665.018	90.839	0.105	-0.118
-664.003	543.760	0.089	0.214
-662.989	43.513	-0.164	-0.150
-661.974	-20.848	-0.374	-0.231
-660.959	-5.004	-0.192	0.133
-659.945	-200.000	-0.007	0.052
-658.930	45.936	-0.179	0.167
-657.916	-200.000	-0.064	0.000
-656.901	800.000	-0.053	-0.199
-655.886	244.600	0.130	-0.220
-654.872	-30.531	-0.206	0.117
-653.857	773.510	0.021	-0.057
-652.843	394.216	0.164	0.343
-651.828	416.295	0.200	-0.430
-650.814	-200.000	0.002	-0.196
-649.799	800.000	0.102	-0.297
-648.784	800.000	-0.027	0.116
-647.770	8.731	0.229	-0.173
-646.755	-105.803	-0.249	-0.056
-645.741	-15.990	-0.495	-0.317
-644.726	97.347	-0.206	-0.237
-643.711	-76.521	-0.090	0.032
-642.697	-47.960	-0.166	0.081
-641.682	77.746	0.089	0.095
-640.668	16.723	-0.090	0.072
-639.653	-147.049	-0.020	-0.002
-638.638	-92.634	-0.117	-0.033
-637.624	257.236	-0.199	-0.344
-636.609	-53.614	-0.216	0.099
-635.595	27.918	0.296	-0.251
-634.580	243.041	0.096	0.161
-633.565	-102.638	0.201	0.048
-632.551	800.000	-0.030	-0.104
-631.536	46.310	0.094	0.088
-630.522	23.453	0.246	0.203
-629.507	-57.137	-0.237	-0.105
-628.492	437.854	-0.059	-0.129
-627.478	54.211	0.267	0.258
-626.463	449.008	0.072	-0.160
-625.449	-79.291	0.060	0.020
-624.434	-200.000	-0.013	-0.080
-623.419	123.104	-0.309	-0.388
-622.405	-43.139	-0.161	0.082
-621.390	-120.271	0.129	-0.022
-620.376	99.436	-0.164	0.191
-619.361	-164.137	0.247	-0.011
-618.346	800.000	-0.034	-0.137
-617.332	-200.000	-0.029	0.266
-616.317	59.574	0.103	-0.102
-615.303	-102.449	-0.250	0.060
-614.288	-3.319	-0.099	-0.069
-613.273	39.718	-0.101	-0.091
-612.259	-200.000	-0.019	-0.239
-611.244	458.061	0.078	0.174
-610.230	-22.085	0.161	0.098
-609.215	-84.121	0.111	-0.035
-608.201	38.494	-0.209	0.187
-607.186	-15.164	0.327	0.210
-606.171	-116.352	-0.120	-0.022
-605.157	-133.061	-0.230	-0.029
-604.142	188.433	-0.158	-0.237
-603.128	-90.167	0.129	-0.038
-602.113	186.959	0.185	0.276
-601.098	-200.000	-0.075	-0.346
-600.084	-31.756	0.030	-0.017
-599.069	66.192	-0.107	-0.109
-598.055	-61.165	0.044	-0.019
-597.040	26.735	0.220	0.185
-596.025	-91.124	-0.074	0.021
-595.011	438.386	0.076	-0.167
-593.996	-154.894	-0.117	0.008
-592.982	105.455	0.078	-0.092
-591.967	81.104	-0.356	-0.385
-590.952	-200.000	0.044	-0.287
-589.938	-98.041	0.072	-0.019
-588.923	-61.019	-0.100	-0.042
-587.909	-0.525	-0.208	-0.148
-586.894	-66.241	-0.155	0.062
-585.879	207.382	0.117	-0.183
-584.865	-194.042	0.222	-0.002
-583.850	-200.000	0.012	-0.056
-582.836	-90.269	-0.147	-0.043
-581.821	-200.000	-0.017	-0.254
-580.806	800.000	0.051	-0.167
-579.792	681.506	-0.091	-0.239
-578.777	-200.000	0.000	0.076
-577.763	-107.565	0.022	0.005
-576.748	-46.008	-0.155	-0.076
-575.733	261.444	-0.387	-0.671
-574.719	-46.070	0.132	0.065
-573.704	-32.603	-0.103	0.058
-572.690	-152.738	0.117	-0.008
-571.675	70.216	-0.194	0.201
-570.661	-70.499	0.075	0.028
-569.646	242.818	-0.054	0.091
-568.631	-200.000	-0.036	-0.197
-567.617	89.514	-0.095	-0.106
-566.602	-70.339	-0.301	-0.114
-565.588	-72.088	-0.239	0.089
-564.573	560.611	0.182	-0.441
-563.558	-97.773	0.196	-0.051
-562.544	-200.000	-0.024	0.114
-561.529	166.612	0.141	-0.200
-560.515	75.633	0.257	-0.272
-559.500	-84.917	0.115	0.036
-558.485	-51.308	-0.186	0.087
-557.471	-126.061	-0.164	0.025
-556.456	-14.611	0.254	-0.164
-555.442	800.000	-0.060	-0.254
-554.427	240.560	0.175	0.292
-553.412	10.119	0.120	0.091
-552.398	93.560	0.245	0.277
-551.383	800.000	0.075	0.252
-550.369	283.548	-0.140	0.252
-549.354	-200.000	-0.044	0.233
-548.339	-64.577	-0.058	-0.024
-547.325	96.046	0.015	0.017
-546.310	-200.000	-0.003	0.284
-545.296	-200.000	0.018	0.175
-544.281	-114.028	-0.260	-0.050
-543.266	800.000	0.060	0.220
-542.252	-86.039	0.157	0.048
-541.237	70.664	-0.033	-0.034
-540.223	-68.348	-0.133	0.052
-539.208	161.350	-0.174	0.244
-538.193	-106.033	0.207	-0.046
-537.179	494.429	0.048	-0.110
-536.164	215.475	-0.195	-0.310
-535.150	800.000	-0.072	-0.236
-534.135	-131.860	0.262	-0.034
-533.121	-107.453	0.339	-0.074
-532.106	-63.539	-0.252	0.103
-531.091	800.000	-0.102	0.422
-530.077	800.000	0.069	-0.234
-529.062	-168.459	-0.473	0.018
-528.048	86.240	-0.117	0.129
-527.033	-99.450	-0.150	0.038
-526.018	-155.520	-0.169	0.011
-525.004	29.302	-0.192	0.163
-523.989	92.321	0.121	-0.137
-522.975	-200.000	0.017	0.183
-521.960	-118.904	-0.212	-0.037
-520.945	-86.651	0.304	-0.093
-519.931	-89.831	0.241	-0.070
-518.916	-118.476	0.210	-0.037
-517.902	-197.279	0.126	-0.001
-516.887	-200.000	-0.022	-0.099
-515.872	159.930	0.053	-0.074
-514.858	175.808	-0.100	-0.145
-513.843	-152.486	-0.136	0.010
-512.829	-11.463	-0.244	-0.161
-511.814	32.338	0.145	0.125
-510.799	-165.092	0.150	-0.007
-509.785	800.000	-0.054	-0.176
-508.770	237.140	-0.102	-0.168
-507.756	-132.907	0.217	0.028
-506.741	120.775	-0.118	-0.147
-505.726	-200.000	-0.025	-0.175
-504.712	-136.253	0.163	0.019
-503.697	-66.989	-0.440	-0.174
-502.683	-92.209	-0.576	0.162
-501.668	-119.859	0.050	-0.009
-500.653	-48.109	0.079	-0.038
-499.639	-74.248	-0.188	0.068
-498.624	275.604	-0.222	-0.393
-497.610	800.000	-0.048	0.145
-496.595	-135.237	0.246	-0.029
-495.581	-93.705	-0.268	-0.074
-494.566	-143.893	0.265	0.025
-493.551	-125.857	0.133	0.020
-492.537	23.097	0.241	0.198
-491.522	-45.613	-0.072	-0.035
-490.508	-96.450	-0.516	-0.136
-489.493	-63.210	-0.251	-0.103
-488.478	-84.150	0.385	0.122
-487.464	-200.000	-0.017	0.162
-486.449	-73.519	0.335	-0.122
-485.435	-29.529	0.191	-0.109
-484.420	800.000	0.092	-0.259
-483.405	800.000	0.059	-0.205
-482.391	51.677	0.290	-0.276
-481.376	-166.261	0.205	-0.009
-480.362	-6.403	0.358	-0.244
-479.347	177.916	-0.041	-0.059
-478.332	-200.000	0.039	0.220
-477.318	135.922	0.111	0.144
-476.303	-127.724	-0.265	-0.038
-475.289	219.201	0.044	-0.070
-474.274	77.311	0.116	-0.123
-473.259	800.000	0.010	0.043
-472.245	330.085	0.080	0.154
-471.230	202.759	-0.122	-0.188
-470.216	-200.000	0.062	-0.331
-469.201	800.000	-0.055	-0.167
-468.186	137.352	-0.166	0.217
-467.172	185.380	0.087	-0.129
-466.157	-1.579	0.177	0.125
-465.143	7.764	-0.267	-0.199
-464.128	-36.647	0.167	0.089
-463.113	125.209	0.061	-0.077
-462.099	-0.933	0.341	0.241
-461.084	-114.256	-0.318	-0.061
-460.070	532.467	0.045	0.106
-459.055	35.424	0.131	-0.115
-458.040	-99.220	0.203	0.051
-457.026	554.362	-0.064	0.152
-456.011	-143.653	0.152	-0.014
-454.997	-200.000	-0.018	0.081
-453.982	-25.077	0.051	-0.030
-452.968	800.000	0.024	0.076
-451.953	25.514	-0.235	-0.195
-450.938	465.862	0.171	-0.383
-449.924	-126.119	0.290	0.043
-448.909	800.000	-0.158	-0.467
-447.895	-75.808	-0.128	0.045
-446.880	530.056	-0.142	-0.334
-445.865	-12.830	0.161	-0.104
-444.851	152.959	0.108	-0.147
-443.836	278.649	-0.111	0.197
-442.822	32.823	-0.105	-0.090
-441.807	-27.271	-0.116	0.067
-440.792	-200.000	0.013	-0.095
-439.778	-68.407	0.353	-0.137
-438.763	23.865	-0.096	-0.079
-437.749	53.401	0.071	-0.067
-436.734	-200.000	0.037	0.220
-435.719	800.000	0.045	-0.148
-434.705	-138.578	0.338	-0.037
-433.690	50.961	-0.048	-0.046
-432.676	-15.677	0.145	-0.092
-431.661	336.146	0.070	-0.134
-430.646	710.611	0.059	-0.155
-429.632	29.310	0.259	0.219
-428.617	-129.659	-0.155	-0.021
-427.603	95.597	-0.110	0.125
-426.588	-162.564	-0.524	0.026
-425.573	800.000	-0.096	-0.376
-424.559	-15.322	0.218	0.139
-423.544	-45.532	0.115	-0.057
-422.530	72.459	0.251	-0.261
-421.515	800.000	-0.110	0.453
-420.500	374.801	-0.004	0.009
-419.486	432.289	0.063	0.135
-418.471	186.055	-0.167	-0.247
-417.457	-200.000	-0.046	-0.273
-416.442	-200.000	-0.041	-0.250
-415.428	800.000	0.083	0.278
-414.413	33.767	-0.113	-0.098
-413.398	-147.494	-0.200	0.017
-412.384	-200.000	0.004	-0.164
-411.369	-200.000	0.011	-0.252
-410.355	58.771	0.081	0.079
-409.340	-56.304	-0.125	0.055
-408.325	-3.654	-0.186	0.128
-407.311	-38.697	0.119	0.062
-406.296	54.243	0.272	-0.260
-405.282	375.985	0.087	-0.176
-404.267	492.377	0.213	0.487
-403.252	136.623	-0.158	0.206
-402.238	800.000	0.054	0.182
-401.223	800.000	0.033	-0.123
-400.209	69.529	-0.096	-0.099
-399.194	-118.052	0.156	0.028
-398.179	135.162	0.159	-0.205
-397.165	789.328	-0.082	-0.224
-396.150	82.466	-0.164	0.177
-395.136	0.857	-0.123	-0.088
-394.121	792.361	-0.076	0.207
-393.106	-66.029	0.224	-0.089
-392.092	-178.320	0.201	0.005
-391.077	-200.000	-0.030	0.208
-390.063	-109.489	-0.145	-0.030
-389.048	131.686	0.140	-0.179
-388.033	22.114	-0.157	0.127
-387.019	-115.876	0.173	0.032
-386.004	704.286	0.060	-0.158
-384.990	-200.000	0.012	-0.192
-383.975	-132.060	-0.037	-0.005
-382.960	-3.366	0.113	0.078
-381.946	-118.743	-0.132	0.023
-380.931	-46.369	-0.029	0.014
-379.917	-17.656	-0.102	0.064
-378.902	5.095	0.129	-0.094
-377.888	56.701	-0.050	-0.049
-376.873	-38.542	0.369	-0.194
-375.858	491.102	0.108	0.246
-374.844	-200.000	-0.048	0.309
-373.829	124.011	-0.134	-0.167
-372.815	137.682	-0.028	0.037
-371.800	-69.373	0.133	0.051
-370.785	28.079	0.072	0.061
-369.771	-200.000	0.057	0.346
-368.756	545.990	-0.070	0.165
-367.742	-139.926	-0.276	-0.029
-366.727	-50.676	-0.119	-0.056
-365.712	15.808	-0.053	-0.041
-364.698	22.445	0.272	0.221
-363.683	-200.000	0.043	-0.262
-362.669	-200.000	0.010	0.158
-361.654	103.814	0.132	0.154
-360.639	-200.000	-0.026	0.114
-359.625	-38.575	-0.296	-0.155
-358.610	156.359	0.123	0.169
-357.596	-11.956	0.353	-0.230
-356.581	-70.657	-0.264	-0.099
-355.566	800.000	0.021	-0.090
-354.552	-200.000	0.004	-0.170
-353.537	483.211	0.133	0.300
-352.523	-200.000	-0.004	-0.245
-351.508	-97.671	-0.263	-0.068
-350.493	-118.722	-0.085	-0.015
-349.479	-200.000	-0.019	0.313
-348.464	256.426	-0.149	0.255
-347.450	126.569	0.022	0.028
-346.435	325.042	-0.099	-0.188
-345.420	800.000	0.072	-0.305
-344.406	-81.967	-0.443	-0.144
-343.391	-13.555	0.203	0.130
-342.377	70.451	0.061	-0.062
-341.362	-69.753	0.323	0.123
-340.348	117.304	-0.267	0.325
-339.333	-64.136	0.102	0.041
-338.318	748.137	0.173	0.462
-337.304	388.456	-0.147	0.302
-336.289	-30.806	0.167	0.093
-335.275	800.000	-0.006	-0.024
-334.260	-153.062	0.230	0.016
-333.245	-150.802	-0.202	0.015
-332.231	-113.453	0.101	0.020
-331.216	-58.417	0.152	-0.065
-330.202	72.448	-0.146	-0.151
-329.187	-112.967	-0.227	-0.045
-328.172	-8.896	0.063	0.042
-327.158	-200.000	-0.020	0.201
-326.143	306.471	0.091	-0.168
-325.129	-65.448	-0.197	-0.078
-324.114	29.153	-0.194	-0.164
-323.099	608.972	0.176	0.437
-322.085	-200.000	-0.033	-0.165
-321.070	-40.852	0.379	-0.195
-320.056	-79.127	-0.082	0.028
-319.041	124.314	0.056	-0.070
-318.026	-134.390	-0.306	-0.037
-317.012	396.481	0.132	-0.273
-315.997	-134.943	-0.043	-0.005
-314.983	-42.356	0.238	0.120
-313.968	-30.832	0.190	0.107
-312.953	-200.000	-0.022	0.127
-311.939	113.398	0.048	-0.058
-310.924	-200.000	-0.026	0.315
-309.910	41.377	-0.184	0.165
-308.895	-107.422	-0.092	0.020
-307.880	118.586	-0.059	-0.073
-306.866	-70.571	0.186	-0.070
-305.851	-200.000	-0.025	-0.304
-304.837	54.174	0.074	0.070
-303.822	800.000	-0.023	0.064
-302.807	-64.637	-0.090	-0.036
-301.793	-193.133	-0.105	0.001
-300.778	157.840	-0.137	-0.188
-299.764	-137.318	0.166	0.019
-298.749	-200.000	0.122	0.000
-297.735	-79.389	0.140	0.047
-296.720	-149.583	-0.139	0.011
-295.705	43.679	0.137	-0.124
-294.691	800.000	0.057	0.180
-293.676	-154.686	-0.172	0.011
-292.662	735.952	0.161	0.428
-291.647	-76.444	0.111	0.039
-290.632	-122.472	0.155	-0.025
-289.618	248.635	0.043	-0.073
-288.603	327.854	0.037	0.070
-287.589	-200.000	-0.046	-0.231
-286.574	-37.383	-0.193	-0.102
-285.559	302.162	-0.077	0.140
-284.545	-118.053	0.186	0.033
-283.530	-60.202	0.031	0.013
-282.516	-137.778	0.275	0.030
-281.501	22.553	-0.277	0.225
-280.486	247.500	-0.038	0.064
-279.472	18.303	0.458	-0.362
-278.457	800.000	0.084	0.317
-277.443	-159.592	0.174	0.010
-276.428	-167.744	0.150	0.006
-275.413	104.880	0.158	-0.185
-274.399	-149.939	-0.254	-0.020
-273.384	-42.425	0.066	0.034
-272.370	142.603	-0.074	-0.097
-271.355	178.119	-0.122	-0.176
-270.340	425.425	-0.142	-0.304
-269.326	-28.719	0.171	-0.097
-268.311	-104.529	-0.350	-0.080
-267.297	-126.459	0.102	-0.015
-266.282	800.000	0.087	0.319
-265.267	-200.000	-0.028	0.344
-264.253	-63.685	-0.200	-0.081
-263.238	-200.000	-0.072	0.350
-262.224	800.000	0.074	0.209
-261.209	-30.757	-0.125	-0.070
-260.195	8.257	0.087	0.065
-259.180	-168.604	0.302	-0.011
-258.165	-52.211	0.312	0.143
-257.151	-4.555	0.048	-0.033
-256.136	-91.351	0.236	-0.067
-255.122	51.349	0.194	-0.182
-254.107	-46.357	0.168	0.082
-253.092	-128.415	-0.134	0.019
-252.078	-25.961	0.056	0.033
-251.063	39.059	0.070	0.062
-250.049	68.033	-0.112	0.114
-249.034	266.586	0.140	0.242
-248.019	109.206	0.048	0.057
-247.005	-16.780	-0.177	0.111
-245.990	6.140	-0.207	0.152
-244.976	-153.143	0.172	0.012
-243.961	-66.649	-0.175	0.069
-242.946	800.000	-0.161	-0.462
-241.932	-16.804	-0.189	0.118
-240.917	22.526	-0.240	-0.194
-239.903	172.129	-0.089	0.126
-238.888	-102.177	0.030	-0.007
-237.873	16.651	-0.266	0.208
-236.859	-193.895	0.390	-0.003
-235.844	-200.000	-0.130	-0.001
-234.830	-87.085	-0.107	0.032
-233.815	434.924	0.069	-0.148
-232.800	-46.771	-0.007	0.003
-231.786	256.237	-0.215	0.365
-230.771	6.175	-0.195	-0.143
-229.757	800.000	-0.019	-0.054
-228.742	34.619	-0.254	-0.219
-227.727	-200.000	0.032	-0.239
-226.713	528.967	0.096	0.223
-225.698	24.122	0.084	-0.068
-224.684	592.617	-0.024	0.059
-223.669	387.274	-0.083	0.170
-222.655	-68.730	0.486	0.186
-221.640	-85.935	-0.204	-0.062
-220.625	-200.000	-0.003	0.270
-219.611	-200.000	-0.065	0.387
-218.596	109.478	0.286	0.339
-217.582	111.841	-0.204	0.243
-216.567	6.206	-0.207	-0.152
-215.552	-200.000	0.036	0.192
-214.538	-131.313	0.091	0.012
-213.523	-82.249	0.363	0.117
-212.509	-200.000	0.005	0.428
-211.494	-200.000	0.056	0.344
-210.479	-61.714	0.125	0.052
-209.465	-200.000	0.018	0.296
-208.450	-40.500	-0.073	-0.037
-207.436	-121.245	0.251	0.041
-206.421	-154.867	-0.138	-0.009
-205.406	-144.218	0.149	0.014
-204.392	-43.076	-0.208	-0.104
-203.377	-44.291	-0.404	0.200
-202.363	-200.000	0.017	0.074
-201.348	-21.183	0.091	0.055
-200.333	137.856	-0.177	0.229
-199.319	-185.922	-0.288	-0.004
-198.304	-32.881	-0.131	-0.072
-197.290	-47.301	-0.073	0.035
-196.275	199.302	-0.322	0.487
-195.260	-13.458	-0.036	-0.023
-194.246	0.289	-0.086	0.061
-193.231	138.187	0.127	-0.164
-192.217	77.926	0.050	-0.053
-191.202	-200.000	0.049	0.327
-190.187	347.840	-0.114	0.223
-189.173	69.807	0.119	0.121
-188.158	120.781	0.253	0.311
-187.144	87.239	0.117	0.128
-186.129	-145.546	-0.373	-0.033
-185.114	-56.107	0.226	-0.099
-184.100	-200.000	-0.010	0.428
-183.085	-30.670	-0.031	0.018
-182.071	-118.506	0.246	0.043
-181.056	73.254	0.041	-0.042
-180.042	-33.482	0.213	0.116
-179.027	189.683	-0.100	0.148
-178.012	-112.544	0.093	-0.018
-176.998	601.846	0.076	-0.187
-175.983	-200.000	0.009	-0.185
-174.969	145.912	-0.053	0.070
-173.954	15.805	-0.139	-0.108
-172.939	71.607	-0.170	-0.174
-171.925	-64.249	0.341	0.137
-170.910	-200.000	0.002	0.023
-169.896	-118.181	0.099	-0.017
-168.881	-162.715	-0.309	0.015
-167.866	800.000	0.042	0.138
-166.852	-36.021	-0.398	0.212
-165.837	-100.100	0.042	-0.010
-164.823	-99.336	0.306	0.076
-163.808	-54.152	-0.171	-0.076
-162.793	800.000	-0.086	-0.284
-161.779	1.690	-0.273	-0.194
-160.764	324.933	0.072	0.136
-159.750	-38.588	0.152	0.079
-158.735	35.565	-0.033	0.028
-157.720	166.912	-0.083	0.116
-156.706	-13.869	-0.228	0.145
-155.691	70.772	-0.079	-0.081
-154.677	-54.450	0.249	0.111
-153.662	439.756	-0.088	-0.190
-152.647	778.137	0.079	-0.213
-151.633	308.161	0.028	0.052
-150.618	95.402	-0.101	0.114
-149.604	134.336	0.199	-0.254
-148.589	-8.488	-0.085	0.057
-147.574	188.564	-0.136	-0.201
-146.560	800.000	-0.057	0.219
-145.545	50.536	-0.114	-0.106
-144.531	-94.678	-0.340	0.091
-143.516	-200.000	0.038	0.201
-142.502	203.906	-0.132	0.202
-141.487	4.955	-0.127	-0.092
-140.472	-200.000	-0.001	-0.066
-139.458	-27.994	0.224	-0.127
-138.443	-76.674	-0.151	0.052
-137.429	800.000	-0.101	-0.328
-136.414	-200.000	0.023	0.161
-135.399	305.637	-0.160	-0.292
-134.385	30.327	-0.123	-0.104
-133.370	-200.000	0.066	-0.462
-132.356	-13.040	0.207	0.133
-131.341	28.807	-0.300	0.250
-130.326	-154.504	0.440	-0.029
-129.312	-98.773	0.062	-0.016
-128.297	35.385	0.136	-0.118
-127.283	-125.639	-0.185	0.028
-126.268	-200.000	-0.003	-0.293
-125.253	-128.768	0.178	-0.025
-124.239	249.220	-0.211	0.352
-123.224	-68.994	-0.196	-0.075
-122.210	-60.194	0.085	-0.036
-121.195	-96.703	0.308	0.080
