DTS Sentinel unit serial number:	SN413079Multiplexer serial number:	ORYXHardware model number:	OX4-SRSoftware version number:	ORYX F/W v4.00 Oryx Data Collector v3.7.2.0data status	okinstallation	princeton_trtdifferential loss correction	single-endedforward channel	channel 3reverse channel	N/Adate	2019/09/16time	10:16:35forward acquisition time	60.00reverse acquisition time	0.00gamma	496.2192k internal	0.2309k external	0.2309temperature offset calibration	0.9947default loss term (dB/km)	0.3790temperature slope calibration	1.0000multiplexer offset coefficient	1.0000multiplexer slope coefficient	1.0000fibre end	0.00T internal ref (°C)	34.47T ext. ref 1 (°C)	12.49T ext. ref 2 (°C)	33.22length (m)	temperature (°C)	Stokes	anti-Stokes-747.200	-80.775	-0.497	0.168
-746.185	109.609	-0.249	0.304
-745.171	160.360	0.101	-0.143
-744.156	-61.094	-0.394	-0.169
-743.142	-57.190	0.225	0.100
-742.127	-162.577	-0.280	-0.014
-741.112	130.476	0.191	-0.249
-740.098	320.578	0.084	-0.161
-739.083	-79.706	0.254	-0.087
-738.069	69.807	-0.137	0.144
-737.054	-200.000	0.015	0.068
-736.039	-135.081	-0.243	-0.030
-735.025	-53.244	-0.088	-0.041
-734.010	-106.268	-0.195	-0.044
-732.996	171.140	-0.261	-0.380
-731.981	-142.062	-0.142	0.014
-730.966	149.904	0.132	-0.181
-729.952	-63.223	-0.154	-0.064
-728.937	-78.813	-0.108	-0.037
-727.923	800.000	0.036	0.134
-726.908	-200.000	-0.093	-0.415
-725.894	-200.000	0.039	-0.189
-724.879	139.704	0.125	-0.167
-723.864	-81.889	-0.173	0.057
-722.850	62.198	0.158	0.160
-721.835	456.395	-0.056	0.125
-720.821	64.193	0.063	-0.065
-719.806	-200.000	-0.004	0.250
-718.791	85.185	0.050	0.056
-717.777	-73.346	-0.481	-0.178
-716.762	-39.418	0.176	0.094
-715.748	-200.000	0.027	-0.279
-714.733	92.983	-0.254	-0.292
-713.718	250.571	-0.146	0.251
-712.704	-117.217	0.073	-0.014
-711.689	-200.000	0.041	-0.222
-710.675	-106.723	-0.103	-0.023
-709.660	180.975	-0.098	0.147
-708.645	-36.685	-0.224	0.122
-707.631	69.020	0.130	-0.136
-706.616	41.407	0.187	0.171
-705.602	201.490	-0.021	0.032
-704.587	-158.547	0.133	-0.008
-703.572	800.000	0.083	-0.323
-702.558	-71.414	-0.084	0.032
-701.543	-152.860	0.189	-0.014
-700.529	-200.000	0.007	-0.103
-699.514	384.583	0.179	-0.374
-698.499	-50.245	0.049	-0.023
-697.485	-91.188	-0.282	0.082
-696.470	51.080	-0.395	0.380
-695.456	-12.971	0.335	-0.221
-694.441	-192.054	-0.399	-0.004
-693.426	38.218	-0.245	-0.221
-692.412	215.808	-0.110	-0.177
-691.397	800.000	-0.072	0.257
-690.383	302.855	0.149	-0.280
-689.368	-200.000	0.066	-0.409
-688.354	800.000	-0.131	0.392
-687.339	221.940	0.120	0.195
-686.324	18.090	-0.283	0.229
-685.310	100.174	0.119	0.140
-684.295	-64.202	-0.071	0.029
-683.281	55.482	-0.130	-0.127
-682.266	236.939	-0.122	0.205
-681.251	96.919	-0.053	0.061
-680.237	-111.771	0.339	-0.070
-679.222	-200.000	0.018	0.208
-678.208	-18.813	-0.126	0.079
-677.193	-135.230	0.120	-0.015
-676.178	800.000	-0.038	-0.159
-675.164	-200.000	0.028	-0.190
-674.149	-103.224	-0.137	0.033
-673.135	-200.000	-0.083	-0.555
-672.120	224.008	0.059	0.096
-671.105	-38.982	0.022	-0.011
-670.091	-21.323	-0.085	0.053
-669.076	525.254	-0.075	-0.178
-668.062	-111.259	-0.331	0.069
-667.047	57.592	0.260	-0.257
-666.032	164.721	-0.098	-0.140
-665.018	441.180	0.125	-0.278
-664.003	-200.000	-0.052	0.257
-662.989	-143.850	-0.153	-0.015
-661.974	-200.000	-0.010	-0.147
-660.959	800.000	0.023	-0.099
-659.945	23.009	-0.085	0.071
-658.930	9.943	-0.138	-0.106
-657.916	503.706	0.125	0.293
-656.901	800.000	-0.068	-0.227
-655.886	800.000	0.105	-0.301
-654.872	-69.126	-0.262	-0.102
-653.857	27.059	0.252	-0.214
-652.843	-132.898	0.314	-0.041
-651.828	454.462	0.120	0.269
-650.814	-96.957	0.292	0.077
-649.799	-93.122	-0.103	-0.029
-648.784	800.000	-0.004	-0.015
-647.770	-94.441	-0.200	-0.055
-646.755	30.605	-0.171	-0.148
-645.741	800.000	-0.053	0.194
-644.726	684.372	0.127	0.335
-643.711	-61.337	0.274	-0.117
-642.697	-13.463	-0.272	-0.179
-641.682	-64.704	-0.102	-0.042
-640.668	-135.241	0.066	0.008
-639.653	-200.000	0.500	-0.002
-638.638	360.009	0.160	0.325
-637.624	-200.000	-0.000	-0.228
-636.609	-200.000	0.016	0.106
-635.595	800.000	-0.010	0.043
-634.580	395.708	-0.106	-0.225
-633.565	-37.051	-0.327	0.177
-632.551	78.773	0.189	-0.204
-631.536	223.095	-0.198	-0.323
-630.522	-162.151	-0.264	-0.013
-629.507	141.480	0.101	-0.135
-628.492	-14.887	0.028	-0.018
-627.478	30.461	-0.174	0.150
-626.463	544.804	0.082	-0.198
-625.449	-200.000	0.057	0.312
-624.434	-91.264	-0.054	-0.016
-623.419	-75.957	0.372	-0.133
-622.405	16.645	-0.351	-0.280
-621.390	800.000	0.096	0.290
-620.376	87.195	0.269	-0.300
-619.361	-31.468	-0.291	-0.166
-618.346	240.256	0.129	0.217
-617.332	-200.000	-0.020	-0.097
-616.317	115.016	0.129	0.160
-615.303	-200.000	0.058	0.321
-614.288	-200.000	0.029	0.333
-613.273	-136.621	-0.165	-0.019
-612.259	180.254	-0.218	-0.324
-611.244	-98.850	-0.195	-0.050
-610.230	91.206	0.191	-0.217
-609.215	-130.736	-0.284	0.039
-608.201	-16.312	0.166	0.107
-607.186	-0.488	0.274	-0.197
-606.171	118.117	-0.052	-0.065
-605.157	-200.000	-0.171	0.001
-604.142	-100.509	0.249	0.062
-603.128	350.937	0.195	0.390
-602.113	-162.493	-0.483	0.024
-601.098	-30.693	-0.046	-0.026
-600.084	-124.493	0.170	0.027
-599.069	-10.451	0.288	-0.193
-598.055	-61.313	0.178	0.076
-597.040	-200.000	0.041	-0.344
-596.025	53.383	0.115	-0.112
-595.011	642.282	-0.105	0.269
-593.996	-75.950	0.226	-0.081
-592.982	-200.000	-0.037	-0.224
-591.967	554.684	0.043	0.105
-590.952	54.513	-0.222	0.216
-589.938	-200.000	0.021	-0.369
-588.923	49.410	-0.102	0.096
-587.909	-200.000	-0.025	-0.321
-586.894	-113.318	-0.247	0.049
-585.879	-150.730	0.575	0.044
-584.865	-54.177	0.172	-0.079
-583.850	800.000	-0.079	-0.249
-582.836	-146.297	0.232	0.021
-581.821	-200.000	0.005	0.360
-580.806	-200.000	-0.039	-0.309
-579.792	-43.914	-0.225	0.114
-578.777	221.174	0.230	-0.373
-577.763	-73.023	-0.110	0.041
-576.748	88.919	-0.214	-0.240
-575.733	-15.857	0.228	0.146
-574.719	47.513	-0.314	0.296
-573.704	231.196	0.019	0.032
-572.690	47.634	0.031	0.030
-571.675	-200.000	-0.017	0.251
-570.661	-200.000	-0.016	-0.101
-569.646	-200.000	0.000	-0.014
-568.631	545.286	-0.086	-0.208
-567.617	-54.658	-0.289	0.132
-566.602	800.000	0.145	0.448
-565.588	-200.000	0.029	-0.257
-564.573	-200.000	-0.192	-0.000
-563.558	-200.000	-0.055	0.385
-562.544	427.399	0.054	-0.117
-561.529	-77.464	0.154	0.054
-560.515	671.357	0.089	0.232
-559.500	-45.867	-0.223	-0.111
-558.485	-156.277	0.088	0.006
-557.471	89.414	0.288	0.324
-556.456	-200.000	0.004	-0.022
-555.442	236.684	-0.199	-0.333
-554.427	-73.567	0.309	0.114
-553.412	-95.788	-0.323	0.087
-552.398	41.506	-0.143	0.131
-551.383	-34.056	-0.158	-0.087
-550.369	553.674	0.100	0.242
-549.354	-200.000	-0.056	-0.325
-548.339	800.000	-0.045	0.195
-547.325	-55.501	-0.038	0.017
-546.310	100.694	-0.191	-0.224
-545.296	38.618	0.232	0.208
-544.281	157.521	-0.115	0.161
-543.266	-144.735	0.423	-0.039
-542.252	800.000	0.053	-0.158
-541.237	-71.228	-0.401	-0.152
-540.223	-99.081	0.138	0.035
-539.208	-69.296	-0.140	0.054
-538.193	-61.886	-0.044	-0.018
-537.179	733.470	0.143	-0.385
-536.164	-125.178	-0.195	0.030
-535.150	-200.000	-0.077	-0.448
-534.135	-167.185	0.159	0.006
-533.121	-96.766	0.371	-0.098
-532.106	345.822	-0.078	-0.155
-531.091	-32.696	-0.244	0.137
-530.077	800.000	-0.023	-0.088
-529.062	-119.010	-0.078	0.014
-528.048	-200.000	-0.039	-0.245
-527.033	443.471	-0.101	-0.222
-526.018	-200.000	0.022	0.112
-525.004	-29.810	0.259	-0.149
-523.989	-200.000	0.012	-0.119
-522.975	-86.711	-0.360	-0.111
-521.960	-34.959	-0.204	0.112
-520.945	-48.111	0.254	-0.124
-519.931	-95.738	0.287	-0.077
-518.916	244.625	0.133	-0.226
-517.902	-161.573	-0.292	0.015
-516.887	122.186	0.085	-0.107
-515.872	123.011	-0.160	0.201
-514.858	42.759	0.164	-0.150
-513.843	-47.368	0.159	0.078
-512.829	3.449	0.096	0.070
-511.814	-168.499	-0.153	0.006
-510.799	800.000	-0.022	-0.092
-509.785	777.005	0.113	-0.310
-508.770	216.267	-0.165	0.264
-507.756	-200.000	-0.013	0.143
-506.741	-52.471	-0.330	0.154
-505.726	800.000	0.144	-0.509
-504.712	-200.000	-0.017	-0.446
-503.697	154.742	-0.042	-0.059
-502.683	90.870	0.275	0.310
-501.668	800.000	-0.104	0.342
-500.653	-34.623	-0.147	0.081
-499.639	456.929	-0.103	-0.231
-498.624	671.816	0.067	0.176
-497.610	-200.000	-0.013	0.122
-496.595	729.477	-0.113	-0.304
-495.581	11.521	0.254	-0.196
-494.566	90.624	-0.113	0.127
-493.551	328.053	0.075	-0.145
-492.537	-75.477	0.209	0.075
-491.522	-80.267	-0.161	-0.054
-490.508	114.188	-0.184	0.226
-489.493	164.406	0.320	-0.454
-488.478	-200.000	-0.022	-0.464
-487.464	-200.000	-0.019	-0.091
-486.449	61.198	0.059	0.059
-485.435	314.628	-0.033	-0.062
-484.420	494.753	-0.009	0.022
-483.405	-104.713	0.134	-0.031
-482.391	-34.835	0.253	-0.139
-481.376	-106.337	-0.271	0.061
-480.362	800.000	0.061	0.217
-479.347	-20.937	0.137	-0.084
-478.332	800.000	-0.040	0.123
-477.318	-82.719	0.136	-0.044
-476.303	-82.981	0.269	0.087
-475.289	52.928	0.162	-0.155
-474.274	29.123	0.173	0.148
-473.259	-107.096	0.147	-0.033
-472.245	-21.689	-0.218	0.134
-471.230	-31.033	0.064	0.036
-470.216	91.835	0.063	0.071
-469.201	-200.000	0.031	0.338
-468.186	292.041	0.203	0.372
-467.172	-110.548	-0.245	0.051
-466.157	256.508	-0.100	-0.172
-465.143	-152.000	-0.216	0.016
-464.128	-26.049	-0.421	0.249
-463.113	-200.000	-0.111	0.000
-462.099	800.000	0.052	0.212
-461.084	-200.000	0.316	-0.002
-460.070	-172.667	0.135	0.004
-459.055	-54.023	-0.150	-0.068
-458.040	496.426	-0.094	0.217
-457.026	-90.144	-0.202	0.059
-456.011	21.130	0.288	0.235
-454.997	-200.000	-0.021	-0.413
-453.982	-38.653	-0.264	-0.140
-452.968	94.898	-0.161	-0.184
-451.953	6.513	-0.297	-0.221
-450.938	-16.384	-0.250	-0.159
-449.924	-200.000	-0.006	0.049
-448.909	-96.064	0.075	-0.020
-447.895	-96.340	-0.135	-0.036
-446.880	-61.611	0.300	0.126
-445.865	-200.000	0.014	0.229
-444.851	-200.000	0.076	-0.420
-443.836	282.930	0.067	-0.120
-442.822	800.000	0.028	0.095
-441.807	-200.000	0.031	0.153
-440.792	312.636	0.038	0.072
-439.778	90.185	0.108	-0.121
-438.763	66.877	-0.298	-0.304
-437.749	117.920	0.110	-0.136
-436.734	-6.457	-0.130	0.089
-435.719	-74.163	0.050	-0.018
-434.705	51.893	0.098	0.094
-433.690	-89.974	0.081	-0.024
-432.676	800.000	0.024	-0.093
-431.661	-125.591	-0.203	0.031
-430.646	288.679	0.135	-0.246
-429.632	-200.000	-0.021	-0.158
-428.617	-200.000	-0.019	0.171
-427.603	-145.071	0.103	0.009
-426.588	-117.698	-0.140	0.025
-425.573	800.000	-0.137	0.382
-424.559	0.408	-0.278	0.200
-423.544	-10.618	-0.461	0.306
-422.530	171.078	0.061	0.088
-421.515	-171.094	-0.351	-0.012
-420.500	376.914	0.071	0.146
-419.486	12.280	-0.157	-0.121
-418.471	-21.067	-0.161	-0.099
-417.457	-135.437	-0.227	-0.027
-416.442	-81.426	0.357	0.118
-415.428	-88.072	0.177	-0.053
-414.413	-107.749	-0.194	0.042
-413.398	800.000	-0.065	0.222
-412.384	-200.000	0.059	0.349
-411.369	16.596	-0.208	-0.165
-410.355	622.275	-0.100	0.253
-409.340	-200.000	-0.005	0.511
-408.325	63.846	-0.230	0.232
-407.311	9.206	0.226	-0.171
-406.296	64.683	0.056	-0.057
-405.282	-78.849	0.196	-0.067
-404.267	-17.604	0.062	-0.039
-403.252	-128.048	-0.288	0.041
-402.238	-200.000	-0.064	0.357
-401.223	-200.000	-0.012	0.529
-400.209	153.173	0.150	0.206
-399.194	151.302	0.158	0.215
-398.179	495.055	0.067	0.154
-397.165	97.721	-0.198	-0.228
-396.150	-183.286	-0.172	-0.003
-395.136	236.985	-0.131	-0.217
-394.121	-138.837	-0.243	0.026
-393.106	-93.988	-0.321	0.088
-392.092	800.000	-0.049	-0.175
-391.077	223.419	0.076	-0.122
-390.063	-9.083	-0.186	0.125
-389.048	-39.532	0.035	-0.018
-388.033	145.837	-0.114	0.154
-387.019	301.203	0.109	0.202
-386.004	800.000	-0.073	-0.225
-384.990	800.000	0.043	-0.138
-383.975	-168.639	-0.212	-0.008
-382.960	329.375	0.087	0.168
-381.946	-161.844	0.180	0.009
-380.931	538.706	0.043	0.101
-379.917	800.000	0.018	0.067
-378.902	72.971	0.204	0.213
-377.888	-117.039	-0.128	0.023
-376.873	370.056	-0.122	-0.247
-375.858	420.872	-0.062	0.132
-374.844	-200.000	-0.142	-0.000
-373.829	295.767	-0.164	0.300
-372.815	-42.692	0.310	0.158
-371.800	183.842	-0.126	-0.186
-370.785	-151.863	0.399	-0.029
-369.771	-38.689	0.247	-0.130
-368.756	-200.000	0.028	0.248
-367.742	-128.339	-0.298	-0.042
-366.727	-200.000	0.001	0.133
-365.712	-200.000	-0.003	0.092
-364.698	-200.000	-0.013	0.178
-363.683	88.845	0.068	-0.076
-362.669	73.813	-0.159	0.166
-361.654	-117.159	0.279	0.051
-360.639	-72.758	-0.210	0.078
-359.625	-69.742	-0.085	0.032
-358.610	4.936	0.109	0.080
-357.596	254.961	0.135	-0.231
-356.581	147.163	0.124	-0.167
-355.566	-23.148	-0.112	-0.068
-354.552	610.519	0.116	-0.290
-353.537	-200.000	-0.007	0.242
-352.523	-75.241	-0.040	-0.014
-351.508	-200.000	0.001	0.096
-350.493	-65.692	-0.201	-0.080
-349.479	-29.186	-0.238	-0.137
-348.464	418.983	0.046	-0.098
-347.450	-187.493	0.115	-0.002
-346.435	31.790	0.373	0.321
-345.420	-33.473	-0.265	0.146
-344.406	103.853	0.119	0.140
-343.391	286.759	0.125	0.226
-342.377	-117.249	-0.107	-0.019
-341.362	800.000	-0.037	-0.118
-340.348	0.339	0.260	0.186
-339.333	172.266	-0.020	0.028
-338.318	16.102	0.244	-0.192
-337.304	-142.730	0.153	0.015
-336.289	-60.452	-0.208	-0.088
-335.275	-112.819	0.299	0.059
-334.260	-24.818	-0.187	0.111
-333.245	305.543	0.212	-0.394
-332.231	94.779	0.036	-0.041
-331.216	237.558	-0.013	0.022
-330.202	686.756	0.011	0.029
-329.187	179.491	-0.130	0.190
-328.172	79.097	-0.062	0.067
-327.158	-75.948	0.095	0.033
-326.143	437.272	0.162	-0.353
-325.129	20.344	-0.101	-0.081
-324.114	-48.090	0.332	0.160
-323.099	677.244	0.087	0.227
-322.085	162.831	-0.210	-0.295
-321.070	42.675	0.065	0.059
-320.056	-76.913	0.221	0.077
-319.041	-59.088	0.189	-0.081
-318.026	8.038	-0.398	0.298
-317.012	-200.000	-0.036	0.167
-315.997	-110.370	0.335	0.069
-314.983	-39.525	0.249	0.130
-313.968	-100.329	0.373	-0.092
-312.953	-200.000	-0.038	-0.220
-311.939	-32.893	0.139	-0.077
-310.924	800.000	-0.065	0.241
-309.910	-148.443	0.327	0.027
-308.895	-200.000	-0.012	-0.108
-307.880	43.516	-0.126	-0.115
-306.866	104.838	-0.189	0.222
-305.851	-64.410	-0.116	-0.047
-304.837	-180.707	-0.296	0.006
-303.822	-200.000	-0.028	0.184
-302.807	-92.117	0.075	0.021
-301.793	-56.107	0.340	-0.151
-300.778	305.321	-0.161	-0.299
-299.764	12.067	-0.354	0.272
-298.749	-200.000	0.013	-0.275
-297.735	-6.955	-0.406	-0.275
-296.720	-105.711	0.127	0.029
-295.705	-26.209	0.198	0.116
-294.691	-41.985	-0.164	-0.084
-293.676	-200.000	0.013	-0.114
-292.662	800.000	0.041	-0.122
-291.647	-200.000	-0.035	0.182
-290.632	-89.537	-0.286	-0.084
-289.618	132.560	0.149	0.191
-288.603	237.038	0.009	-0.015
-287.589	-17.086	0.055	0.035
-286.574	200.771	-0.109	-0.168
-285.559	134.688	0.093	-0.121
-284.545	-39.139	0.301	-0.158
-283.530	433.817	0.212	-0.459
-282.516	-110.153	-0.126	-0.026
-281.501	204.309	0.021	0.033
-280.486	800.000	-0.078	0.317
-279.472	128.034	0.118	-0.150
-278.457	97.474	-0.062	0.071
-277.443	209.019	0.092	-0.144
-276.428	-200.000	0.003	0.106
-275.413	154.171	0.152	0.208
-274.399	800.000	0.042	-0.124
-273.384	800.000	-0.021	0.063
-272.370	120.162	0.184	-0.228
-271.355	-139.738	-0.258	-0.027
-270.340	-86.349	-0.004	-0.001
-269.326	40.122	-0.119	0.107
-268.311	18.564	-0.133	-0.106
-267.297	-10.734	-0.291	-0.192
-266.282	-57.125	-0.031	-0.014
-265.267	188.979	0.088	-0.131
-264.253	301.521	-0.121	0.223
-263.238	-195.234	-0.151	0.001
-262.224	-166.473	0.191	0.008
-261.209	143.677	-0.104	0.138
-260.195	-62.997	0.237	0.098
-259.180	-121.040	-0.166	-0.028
-258.165	10.236	0.118	-0.090
-257.151	-120.590	-0.179	-0.030
-256.136	439.806	0.122	-0.266
-255.122	165.853	0.068	-0.096
-254.107	-163.908	0.308	0.014
-253.092	472.653	-0.086	-0.194
-252.078	-3.957	0.123	-0.085
-251.063	800.000	-0.167	0.574
-250.049	-200.000	0.011	-0.090
-249.034	59.402	0.175	0.172
-248.019	-200.000	-0.058	-0.312
-247.005	800.000	-0.029	0.086
-245.990	800.000	-0.040	0.174
-244.976	14.573	-0.103	-0.080
-243.961	9.675	-0.026	-0.020
-242.946	47.859	0.087	-0.081
-241.932	108.470	0.142	-0.169
-240.917	-200.000	-0.004	-0.059
-239.903	194.827	-0.036	0.055
-238.888	800.000	0.009	0.029
-237.873	552.564	-0.086	-0.205
-236.859	56.423	0.288	-0.279
-235.844	-154.545	-0.597	0.040
-234.830	2.479	-0.144	0.104
-233.815	800.000	0.036	0.103
-232.800	-123.078	0.207	-0.033
-231.786	-86.757	0.196	0.060
-230.771	-200.000	0.125	-0.575
-229.757	-96.771	0.178	0.047
-228.742	800.000	-0.060	-0.231
-227.727	125.930	-0.139	0.175
-226.713	800.000	0.055	0.152
-225.698	15.688	0.120	0.094
-224.684	42.184	0.165	0.149
-223.669	800.000	0.044	-0.134
-222.655	-114.818	-0.297	-0.056
-221.640	-56.022	-0.251	0.111
-220.625	-138.535	0.122	0.013
-219.611	180.261	0.067	-0.099
-218.596	800.000	0.122	-0.420
-217.582	-69.733	0.275	-0.104
-216.567	119.496	-0.077	0.095
-215.552	-103.939	0.258	-0.060
-214.538	4.626	-0.031	0.023
-213.523	33.386	0.277	-0.240
-212.509	-27.758	-0.302	0.174
-211.494	-200.000	0.071	0.383
-210.479	50.057	-0.176	-0.166
-209.465	-174.482	-0.232	0.007
-208.450	-39.067	-0.202	0.106
-207.436	225.704	0.188	-0.302
-206.421	110.138	0.132	-0.157
-205.406	-70.395	0.163	-0.061
-204.392	383.296	-0.033	-0.068
-203.377	-166.502	0.267	0.011
-202.363	800.000	-0.089	-0.370
-201.348	276.885	-0.084	0.148
-200.333	-189.424	-0.170	-0.002
-199.319	800.000	0.098	0.308
-198.304	-166.215	0.364	-0.015
-197.290	207.229	-0.171	-0.264
-196.275	-158.130	0.146	-0.009
-195.260	-109.765	-0.245	0.051
-194.246	153.439	-0.087	0.118
-193.231	-95.323	-0.044	0.012
-192.217	12.389	-0.326	0.250
-191.202	294.830	0.169	0.308
-190.187	-10.431	0.462	-0.304
-189.173	-41.044	0.308	0.158
-188.158	192.902	0.125	0.188
-187.144	61.490	0.149	0.147
-186.129	127.102	-0.129	0.163
-185.114	-36.172	0.245	-0.131
-184.100	507.230	0.088	-0.204
-183.085	-200.000	-0.070	0.364
-182.071	150.375	0.095	0.129
-181.056	-72.154	0.180	-0.066
-180.042	800.000	0.038	-0.158
-179.027	-200.000	-0.031	-0.172
-178.012	-200.000	0.023	-0.301
-176.998	800.000	0.073	0.214
-175.983	-96.146	-0.254	0.067
-174.969	-200.000	0.022	0.160
-173.954	-141.708	-0.212	0.021
-172.939	89.829	0.084	-0.094
-171.925	-112.223	-0.259	0.052
-170.910	43.155	-0.085	0.077
-169.896	-200.000	-0.013	0.094
-168.881	-118.658	0.229	-0.040
-167.866	34.151	0.116	-0.100
-166.852	32.667	-0.172	-0.148
-165.837	-112.557	-0.438	-0.087
-164.823	524.894	0.019	-0.043
-163.808	140.500	0.072	0.094
-162.793	-91.360	0.249	0.071
-161.779	-179.368	0.117	-0.003
-160.764	-50.354	0.206	0.097
-159.750	66.371	-0.029	0.029
-158.735	-117.729	-0.230	0.041
-157.720	-200.000	-0.013	0.156
-156.706	141.263	-0.147	0.193
-155.691	-10.651	0.123	0.080
-154.677	-31.179	-0.208	0.117
-153.662	127.378	-0.098	-0.124
-152.647	162.245	0.056	-0.078
-151.633	800.000	-0.086	0.303
-150.618	-142.415	0.185	0.018
-149.604	-37.677	0.076	0.040
-148.589	-200.000	0.088	-0.388
-147.574	-58.399	0.155	-0.067
-146.560	-52.220	0.210	0.096
-145.545	401.008	-0.041	0.085
-144.531	-87.657	0.413	-0.124
-143.516	-200.000	0.032	-0.209
-142.502	70.311	-0.238	-0.244
-141.487	800.000	0.023	-0.090
-140.472	38.708	-0.161	0.142
-139.458	6.637	-0.193	-0.143
-138.443	-140.927	-0.359	0.037
-137.429	159.296	-0.171	0.236
-136.414	-200.000	-0.000	-0.110
-135.399	-200.000	-0.012	0.232
-134.385	444.819	0.113	0.246
-133.370	-200.000	0.035	0.233
-132.356	800.000	0.093	-0.373
-131.341	139.301	0.112	0.146
-130.326	-44.700	0.088	0.043
-129.312	-200.000	0.007	-0.147
-128.297	-168.862	-0.196	-0.007
-127.283	-121.909	-0.305	0.050
-126.268	-20.138	0.340	0.208
-125.253	25.386	0.102	0.084
-124.239	300.704	-0.182	-0.332
-123.224	237.139	-0.072	-0.118
-122.210	-200.000	-0.008	-0.238
-121.195	18.246	-0.153	-0.121
