DTS Sentinel unit serial number:	SN413079Multiplexer serial number:	ORYXHardware model number:	OX4-SRSoftware version number:	ORYX F/W v4.00 Oryx Data Collector v3.7.2.0data status	okinstallation	princeton_trtdifferential loss correction	single-endedforward channel	channel 3reverse channel	N/Adate	2019/09/13time	09:28:35forward acquisition time	60.00reverse acquisition time	0.00gamma	496.2192k internal	0.2325k external	0.2325temperature offset calibration	1.0141default loss term (dB/km)	0.3790temperature slope calibration	1.0000multiplexer offset coefficient	1.0000multiplexer slope coefficient	1.0000fibre end	0.00T internal ref (°C)	29.44T ext. ref 1 (°C)	4.41T ext. ref 2 (°C)	26.20length (m)	temperature (°C)	Stokes	anti-Stokes-747.200	-32.665	0.124	0.070
-746.185	-200.000	0.011	0.342
-745.171	-200.000	-0.026	0.204
-744.156	336.657	0.087	0.170
-743.142	-16.995	0.230	0.147
-742.127	-27.104	-0.113	0.066
-741.112	-200.000	-0.061	-0.333
-740.098	800.000	-0.084	0.315
-739.083	-36.978	-0.208	0.113
-738.069	800.000	0.083	0.290
-737.054	116.516	0.145	-0.179
-736.039	-200.000	-0.004	-0.204
-735.025	-47.947	0.440	0.215
-734.010	-74.999	-0.532	-0.192
-732.996	800.000	0.078	-0.246
-731.981	-34.156	-0.031	0.017
-730.966	14.359	-0.112	-0.088
-729.952	438.139	-0.117	-0.258
-728.937	-139.644	0.290	0.031
-727.923	-101.550	-0.228	-0.056
-726.908	-86.121	-0.072	0.022
-725.894	-200.000	0.034	-0.505
-724.879	171.424	-0.106	-0.154
-723.864	430.306	0.094	0.205
-722.850	-72.257	-0.083	0.031
-721.835	54.908	0.340	-0.331
-720.821	-200.000	-0.001	-0.059
-719.806	592.032	-0.094	-0.235
-718.791	254.498	-0.168	-0.290
-717.777	-58.988	-0.042	-0.018
-716.762	800.000	-0.097	-0.316
-715.748	800.000	0.092	-0.260
-714.733	-200.000	-0.024	0.309
-713.718	-104.526	-0.309	0.072
-712.704	-61.829	0.214	-0.090
-711.689	143.797	0.065	0.087
-710.675	119.596	-0.120	-0.150
-709.660	-200.000	-0.048	-0.280
-708.645	-37.687	0.114	0.061
-707.631	800.000	-0.059	-0.189
-706.616	800.000	0.044	0.162
-705.602	-27.210	-0.279	0.164
-704.587	-109.680	0.370	0.078
-703.572	-170.562	-0.148	-0.005
-702.558	-126.544	0.542	0.081
-701.543	-114.327	0.209	-0.041
-700.529	-14.659	-0.064	0.041
-699.514	-97.571	0.276	-0.072
-698.499	-200.000	-0.006	-0.032
-697.485	-118.808	-0.255	-0.045
-696.470	222.566	0.208	-0.337
-695.456	-17.384	-0.145	-0.092
-694.441	800.000	0.126	0.414
-693.426	33.098	0.189	0.165
-692.412	-27.772	0.197	0.115
-691.397	11.138	0.314	0.242
-690.383	295.354	0.103	0.189
-689.368	88.163	0.069	-0.078
-688.354	-76.418	-0.360	-0.127
-687.339	153.210	-0.082	-0.112
-686.324	-143.136	-0.454	0.044
-685.310	0.683	0.578	0.417
-684.295	394.610	-0.145	0.304
-683.281	-200.000	-0.025	0.279
-682.266	-75.735	-0.427	0.153
-681.251	-77.001	0.374	0.132
-680.237	-19.431	-0.150	-0.093
-679.222	-98.759	0.088	0.023
-678.208	-36.666	0.125	-0.067
-677.193	154.520	-0.156	0.215
-676.178	-95.953	0.169	0.045
-675.164	329.490	-0.179	0.347
-674.149	-85.038	0.281	0.089
-673.135	86.073	-0.068	0.075
-672.120	-21.881	-0.429	-0.262
-671.105	-26.305	-0.145	-0.086
-670.091	-114.998	0.045	0.009
-669.076	134.229	-0.086	-0.112
-668.062	162.519	0.062	0.087
-667.047	227.996	0.104	0.170
-666.032	-146.377	-0.332	0.029
-665.018	97.851	-0.009	0.010
-664.003	135.237	0.162	-0.212
-662.989	-151.093	0.247	-0.019
-661.974	375.437	-0.117	0.239
-660.959	-49.488	-0.185	0.089
-659.945	538.775	0.077	-0.184
-658.930	219.672	0.163	0.263
-657.916	-19.882	-0.107	-0.067
-656.901	417.666	0.156	0.336
-655.886	71.845	-0.119	0.125
-654.872	800.000	0.042	0.156
-653.857	107.600	0.078	0.093
-652.843	-200.000	0.027	-0.246
-651.828	139.930	0.197	0.262
-650.814	-200.000	-0.011	-0.204
-649.799	800.000	-0.041	-0.155
-648.784	116.339	-0.145	-0.179
-647.770	30.363	-0.476	-0.408
-646.755	-44.563	0.313	0.158
-645.741	449.168	-0.103	0.228
-644.726	-31.730	0.212	0.120
-643.711	418.626	-0.058	-0.125
-642.697	796.141	0.035	0.097
-641.682	-29.610	-0.052	0.030
-640.668	38.996	-0.107	-0.096
-639.653	0.405	-0.278	0.199
-638.638	-42.583	0.148	0.076
-637.624	-200.000	0.007	0.043
-636.609	-200.000	-0.009	0.225
-635.595	-200.000	0.026	0.253
-634.580	-200.000	0.001	0.047
-633.565	-41.491	0.308	0.159
-632.551	50.518	-0.111	-0.106
-631.536	88.952	0.071	-0.079
-630.522	566.388	0.072	-0.176
-629.507	-13.937	-0.234	-0.152
-628.492	-38.374	-0.282	0.150
-627.478	-35.482	-0.344	0.188
-626.463	555.474	-0.159	-0.385
-625.449	-76.366	-0.083	0.029
-624.434	496.109	-0.091	-0.209
-623.419	-200.000	-0.003	0.016
-622.405	-200.000	-0.001	0.187
-621.390	-200.000	0.018	0.187
-620.376	-200.000	0.022	-0.172
-619.361	-81.576	0.235	-0.077
-618.346	-38.063	0.092	-0.049
-617.332	-157.222	-0.281	-0.017
-616.317	-200.000	-0.003	-0.116
-615.303	-140.564	0.362	-0.038
-614.288	425.241	-0.079	-0.170
-613.273	124.725	0.244	0.309
-612.259	417.734	-0.225	0.482
-611.244	-200.000	0.013	-0.497
-610.230	-13.809	0.339	-0.220
-609.215	-104.028	0.162	-0.038
-608.201	-153.814	-0.330	-0.023
-607.186	51.978	0.277	0.265
-606.171	288.789	-0.081	0.147
-605.157	448.428	0.109	0.241
-604.142	64.608	0.074	-0.074
-603.128	706.751	-0.037	0.099
-602.113	548.010	0.122	0.293
-601.098	605.097	0.158	-0.396
-600.084	151.629	0.129	-0.176
-599.069	52.034	0.213	0.204
-598.055	-200.000	0.035	-0.183
-597.040	-66.533	-0.174	0.069
-596.025	100.660	-0.103	-0.120
-595.011	53.140	0.127	-0.122
-593.996	-101.694	0.017	0.004
-592.982	206.475	-0.090	-0.140
-591.967	-141.022	0.304	-0.031
-590.952	-145.551	-0.372	-0.033
-589.938	137.080	0.197	0.259
-588.923	36.235	-0.091	0.081
-587.909	1.892	-0.322	0.233
-586.894	-137.191	-0.511	-0.058
-585.879	335.199	-0.153	0.297
-584.865	19.182	0.287	0.231
-583.850	-148.883	-0.324	-0.026
-582.836	-200.000	0.009	0.098
-581.821	-130.706	0.163	0.022
-580.806	-38.345	-0.138	0.073
-579.792	-200.000	0.011	-0.088
-578.777	-121.437	0.378	-0.063
-577.763	-72.748	0.276	0.102
-576.748	-100.071	-0.227	-0.057
-575.733	-200.000	-0.072	0.356
-574.719	-20.409	-0.312	-0.192
-573.704	-67.467	0.340	0.134
-572.690	-30.644	0.278	-0.158
-571.675	214.187	-0.106	-0.168
-570.661	93.305	0.227	0.257
-569.646	-99.884	0.096	-0.024
-568.631	-96.294	-0.116	0.031
-567.617	800.000	-0.065	-0.251
-566.602	-200.000	-0.001	-0.209
-565.588	-200.000	0.012	-0.176
-564.573	-81.503	-0.428	0.141
-563.558	-200.000	0.036	0.254
-562.544	-76.478	0.102	0.036
-561.529	358.494	0.189	0.378
-560.515	800.000	-0.038	0.122
-559.500	505.726	0.127	-0.295
-558.485	800.000	-0.093	0.319
-557.471	800.000	0.030	-0.111
-556.456	22.538	0.273	-0.223
-555.442	563.668	-0.202	-0.490
-554.427	187.347	0.226	-0.337
-553.412	-87.175	0.131	0.040
-552.398	-109.099	-0.457	-0.097
-551.383	-122.216	0.094	0.015
-550.369	38.253	-0.120	-0.107
-549.354	267.764	-0.101	-0.176
-548.339	-200.000	0.021	0.099
-547.325	800.000	-0.075	0.222
-546.310	-17.129	0.164	0.104
-545.296	81.174	0.114	0.123
-544.281	800.000	-0.105	-0.351
-543.266	469.815	-0.034	-0.077
-542.252	57.690	-0.157	0.154
-541.237	-38.684	0.129	0.068
-540.223	-76.842	0.118	-0.041
-539.208	800.000	0.156	-0.537
-538.193	48.457	-0.191	0.179
-537.179	-200.000	-0.039	0.175
-536.164	800.000	0.085	0.246
-535.150	-10.498	-0.262	0.174
-534.135	638.751	0.112	0.286
-533.121	-10.247	0.238	0.158
-532.106	682.893	-0.057	0.148
-531.091	169.899	-0.114	-0.163
-530.077	92.168	0.048	-0.054
-529.062	112.088	-0.138	0.167
-528.048	-147.253	0.424	-0.036
-527.033	-147.016	0.105	-0.009
-526.018	-78.949	-0.271	-0.092
-525.004	55.826	-0.090	-0.088
-523.989	-135.901	0.304	-0.036
-522.975	-97.680	0.239	-0.062
-521.960	-167.414	-0.183	-0.007
-520.945	123.629	0.140	-0.176
-519.931	-200.000	-0.016	0.259
-518.916	101.198	-0.373	-0.434
-517.902	-128.001	-0.067	0.010
-516.887	800.000	0.070	0.258
-515.872	-0.915	0.248	0.176
-514.858	-200.000	-0.003	0.389
-513.843	152.556	-0.180	0.245
-512.829	321.427	-0.317	0.604
-511.814	-200.000	0.007	-0.106
-510.799	-84.531	0.112	0.035
-509.785	-112.310	-0.195	0.039
-508.770	-92.891	0.416	0.116
-507.756	382.769	0.076	0.156
-506.741	38.351	-0.227	-0.202
-505.726	207.656	0.235	0.367
-504.712	-60.890	-0.144	0.061
-503.697	133.167	-0.210	0.271
-502.683	27.189	-0.177	-0.148
-501.668	-13.863	0.131	0.084
-500.653	-36.830	-0.195	-0.104
-499.639	-200.000	0.039	-0.508
-498.624	36.629	0.062	-0.055
-497.610	-200.000	0.041	-0.251
-496.595	662.133	-0.028	0.073
-495.581	-89.235	0.009	-0.003
-494.566	20.007	-0.341	0.274
-493.551	-200.000	-0.008	-0.122
-492.537	232.318	0.026	0.043
-491.522	78.310	0.085	-0.091
-490.508	-11.205	0.321	0.211
-489.493	164.667	-0.078	0.110
-488.478	800.000	-0.043	0.169
-487.464	135.082	0.262	-0.340
-486.449	-82.128	0.254	-0.083
-485.435	-0.986	-0.178	0.126
-484.420	-89.581	-0.114	0.033
-483.405	31.937	-0.269	-0.231
-482.391	-110.023	-0.163	-0.034
-481.376	-16.370	0.147	0.093
-480.362	800.000	0.079	0.218
-479.347	-200.000	0.008	-0.139
-478.332	-200.000	-0.041	0.207
-477.318	180.783	0.220	-0.322
-476.303	-66.668	-0.171	0.068
-475.289	-105.175	0.425	0.097
-474.274	40.136	0.223	0.200
-473.259	-94.628	-0.280	0.076
-472.245	-3.255	-0.291	-0.203
-471.230	-200.000	-0.003	0.068
-470.216	-200.000	0.016	-0.254
-469.201	-119.727	-0.430	0.074
-468.186	-162.547	-0.317	0.016
-467.172	116.616	-0.109	-0.133
-466.157	202.654	-0.123	-0.189
-465.143	176.590	0.057	0.083
-464.128	291.559	-0.065	0.117
-463.113	263.669	0.233	-0.405
-462.099	-117.393	-0.070	-0.013
-461.084	-102.428	0.619	-0.148
-460.070	61.115	-0.144	0.143
-459.055	-46.594	0.208	-0.102
-458.040	-18.052	-0.241	0.150
-457.026	800.000	0.116	-0.346
-456.011	357.082	0.148	0.294
-454.997	-82.158	-0.577	-0.188
-453.982	-115.402	-0.023	-0.004
-452.968	39.109	0.235	0.209
-451.953	-162.793	-0.281	0.014
-450.938	-87.016	-0.201	0.061
-449.924	-103.465	0.281	-0.066
-448.909	55.980	0.201	-0.194
-447.895	-14.013	0.278	-0.179
-446.880	145.857	-0.164	-0.219
-445.865	-121.934	-0.387	0.064
-444.851	-118.139	-0.243	0.043
-443.836	212.220	-0.109	-0.171
-442.822	-86.155	0.273	0.084
-441.807	-145.200	-0.127	0.011
-440.792	104.287	-0.052	0.061
-439.778	-93.394	0.235	0.065
-438.763	800.000	0.039	0.110
-437.749	-200.000	-0.038	-0.195
-436.734	101.189	0.123	-0.143
-435.719	-148.042	0.281	-0.023
-434.705	-134.686	-0.094	-0.011
-433.690	186.208	0.115	0.170
-432.676	-108.684	0.261	0.056
-431.661	112.323	0.316	-0.380
-430.646	-200.000	-0.015	-0.075
-429.632	800.000	0.079	-0.289
-428.617	-120.631	-0.150	-0.025
-427.603	615.830	0.080	0.201
-426.588	-200.000	-0.074	0.000
-425.573	13.593	-0.181	0.140
-424.559	-200.000	0.009	-0.120
-423.544	112.170	0.122	-0.147
-422.530	-17.469	-0.151	-0.095
-421.515	38.368	0.120	0.106
-420.500	-24.450	-0.181	-0.107
-419.486	-159.668	-0.321	0.018
-418.471	-110.322	0.168	-0.035
-417.457	160.348	0.177	-0.246
-416.442	-64.241	0.161	-0.065
-415.428	281.865	0.106	-0.190
-414.413	-114.511	-0.225	-0.043
-413.398	217.876	-0.217	0.345
-412.384	-136.285	0.408	-0.047
-411.369	-200.000	0.056	-0.402
-410.355	416.358	0.054	0.115
-409.340	-91.768	0.011	0.003
-408.325	-200.000	0.072	-0.368
-407.311	20.803	-0.048	0.038
-406.296	-200.000	-0.007	-0.143
-405.282	406.638	0.194	-0.407
-404.267	-200.000	-0.031	-0.174
-403.252	-28.381	0.190	0.109
-402.238	800.000	-0.076	0.249
-401.223	-50.628	0.248	-0.116
-400.209	-119.503	-0.156	-0.027
-399.194	-35.558	0.087	0.047
-398.179	-5.423	-0.119	-0.081
-397.165	54.834	-0.102	0.098
-396.150	-163.500	-0.121	0.006
-395.136	-11.347	0.215	0.141
-394.121	83.710	0.179	-0.194
-393.106	16.005	-0.130	-0.102
-392.092	-19.060	-0.322	0.199
-391.077	-159.122	0.256	-0.014
-390.063	800.000	-0.058	-0.165
-389.048	62.953	0.105	0.104
-388.033	-200.000	0.002	-0.084
-387.019	-79.447	-0.227	-0.076
-386.004	175.668	0.094	0.136
-384.990	800.000	0.150	-0.576
-383.975	-13.008	-0.239	0.154
-382.960	-200.000	-0.006	-0.110
-381.946	162.761	0.169	-0.235
-380.931	800.000	0.044	-0.177
-379.917	-200.000	-0.078	0.000
-378.902	8.498	-0.035	0.026
-377.888	44.317	0.085	-0.077
-376.873	342.990	-0.054	0.105
-375.858	-40.724	-0.258	0.133
-374.844	-41.830	0.138	-0.070
-373.829	-200.000	0.018	0.101
-372.815	24.039	-0.254	-0.209
-371.800	-73.334	0.145	-0.053
-370.785	800.000	0.063	0.240
-369.771	-200.000	0.005	-0.031
-368.756	64.842	0.217	0.218
-367.742	77.395	-0.086	-0.091
-366.727	54.800	0.101	0.097
-365.712	-15.094	-0.155	-0.099
-364.698	-74.091	0.274	-0.099
-363.683	-28.092	0.289	0.166
-362.669	-131.241	-0.247	0.033
-361.654	-200.000	0.032	0.212
-360.639	-200.000	-0.004	0.129
-359.625	68.669	-0.108	-0.110
-358.610	-191.805	-0.286	-0.003
-357.596	0.895	0.196	-0.139
-356.581	800.000	-0.037	-0.117
-355.566	2.327	-0.229	0.165
-354.552	800.000	0.056	-0.213
-353.537	-57.818	0.235	0.102
-352.523	-200.000	-0.037	0.436
-351.508	-61.477	-0.438	0.183
-350.493	-125.620	0.302	-0.046
-349.479	-154.670	-0.181	0.012
-348.464	-153.101	-0.191	-0.013
-347.450	-200.000	-0.006	0.151
-346.435	8.692	-0.191	-0.143
-345.420	0.906	-0.040	0.029
-344.406	-108.727	0.081	0.017
-343.391	-97.179	0.284	0.074
-342.377	-87.353	0.092	-0.028
-341.362	115.555	0.135	-0.164
-340.348	800.000	-0.030	-0.091
-339.333	-200.000	-0.015	0.100
-338.318	-40.566	-0.133	-0.069
-337.304	800.000	-0.093	0.265
-336.289	17.468	0.156	-0.123
-335.275	-125.776	0.262	0.039
-334.260	-57.351	-0.146	0.064
-333.245	800.000	-0.006	-0.025
-332.231	-34.382	-0.264	0.144
-331.216	12.387	0.186	-0.143
-330.202	-200.000	-0.073	0.327
-329.187	8.075	0.259	-0.193
-328.172	34.243	0.054	-0.047
-327.158	-200.000	0.000	-0.337
-326.143	-200.000	0.058	0.340
-325.129	157.520	0.152	0.209
-324.114	312.967	0.072	0.135
-323.099	-2.084	0.184	0.128
-322.085	-38.101	0.038	0.020
-321.070	-200.000	-0.001	0.014
-320.056	800.000	-0.074	-0.203
-319.041	-60.733	-0.223	0.094
-318.026	-200.000	-0.038	0.236
-317.012	-200.000	0.029	-0.204
-315.997	459.023	0.073	0.162
-314.983	40.451	-0.058	0.051
-313.968	329.914	0.080	-0.153
-312.953	-67.427	-0.229	0.089
-311.939	-81.953	-0.357	0.116
-310.924	800.000	0.079	0.219
-309.910	327.570	-0.089	0.169
-308.895	-200.000	0.021	-0.175
-307.880	78.483	-0.468	-0.496
-306.866	800.000	0.089	0.322
-305.851	-200.000	-0.022	0.137
-304.837	24.761	0.093	-0.076
-303.822	26.172	-0.249	-0.206
-302.807	-200.000	0.007	0.052
-301.793	-90.788	-0.021	0.006
-300.778	568.573	0.155	-0.374
-299.764	175.328	0.066	-0.095
-298.749	-61.362	-0.230	0.096
-297.735	800.000	0.079	0.239
-296.720	384.992	-0.083	0.170
-295.705	-200.000	-0.002	-0.081
-294.691	23.501	0.292	-0.238
-293.676	-133.904	-0.211	-0.026
-292.662	-120.095	-0.396	-0.067
-291.647	161.223	0.100	0.138
-290.632	-13.818	0.126	0.081
-289.618	-200.000	-0.052	-0.290
-288.603	-133.224	-0.235	0.029
-287.589	-70.430	0.146	-0.055
-286.574	-125.909	-0.393	-0.059
-285.559	134.784	0.207	-0.266
-284.545	-35.147	-0.034	0.018
-283.530	23.465	0.356	-0.290
-282.516	-87.296	0.096	0.029
-281.501	7.702	0.342	-0.254
-280.486	549.131	0.027	0.063
-279.472	55.934	0.115	-0.111
-278.457	21.027	-0.189	0.152
-277.443	800.000	-0.059	0.231
-276.428	30.151	0.140	0.118
-275.413	-26.462	0.125	0.072
-274.399	-200.000	-0.004	0.070
-273.384	-151.116	-0.107	-0.008
-272.370	609.274	-0.178	0.439
-271.355	227.238	-0.090	0.145
-270.340	147.487	-0.146	0.195
-269.326	509.361	-0.074	0.170
-268.311	800.000	-0.075	0.223
-267.297	-23.206	0.227	0.135
-266.282	-71.073	-0.191	0.071
-265.267	129.240	-0.106	-0.134
-264.253	-71.010	0.332	0.124
-263.238	501.393	0.164	0.375
-262.224	178.131	-0.071	-0.103
-261.209	800.000	-0.048	0.186
-260.195	-64.845	-0.242	-0.097
-259.180	-200.000	0.012	-0.123
-258.165	262.929	0.041	-0.070
-257.151	-83.389	-0.269	0.085
-256.136	52.870	0.152	0.144
-255.122	97.445	-0.104	0.118
-254.107	-63.156	0.139	-0.057
-253.092	378.087	0.177	-0.358
-252.078	-36.586	-0.144	-0.077
-251.063	621.350	0.078	0.193
-250.049	-28.302	-0.107	-0.061
-249.034	-39.723	-0.294	0.152
-248.019	359.343	0.011	0.021
-247.005	132.965	-0.081	0.103
-245.990	800.000	0.091	-0.319
-244.976	-59.702	0.353	-0.150
-243.961	-53.348	-0.382	-0.173
-242.946	-45.465	-0.136	0.067
-241.932	-152.434	-0.085	0.006
-240.917	-200.000	-0.019	-0.316
-239.903	29.026	0.147	-0.124
-238.888	-26.550	-0.297	0.172
-237.873	-200.000	0.043	0.243
-236.859	192.948	0.231	0.345
-235.844	521.234	0.030	0.070
-234.830	2.509	0.133	0.095
-233.815	-200.000	0.044	0.246
-232.800	800.000	0.010	-0.027
-231.786	-200.000	0.024	-0.212
-230.771	29.994	0.302	-0.255
-229.757	800.000	-0.053	-0.177
-228.742	35.900	-0.229	0.199
-227.727	-157.007	-0.261	-0.016
-226.713	-19.206	-0.370	-0.227
-225.698	127.829	0.233	0.292
-224.684	275.253	-0.047	-0.082
-223.669	800.000	-0.126	-0.415
-222.655	-58.941	0.250	-0.107
-221.640	135.741	0.189	0.243
-220.625	-72.710	-0.107	-0.039
-219.611	-8.838	-0.273	0.181
-218.596	-200.000	-0.018	0.391
-217.582	70.977	-0.059	0.061
-216.567	84.827	0.190	-0.205
-215.552	111.588	0.142	-0.170
-214.538	578.817	0.063	0.153
-213.523	-78.537	-0.232	0.078
-212.509	-200.000	0.004	-0.237
-211.494	116.492	-0.100	-0.121
-210.479	-107.118	0.102	0.022
-209.465	-79.911	0.286	0.095
-208.450	-136.867	0.179	-0.020
-207.436	241.672	-0.058	0.095
-206.421	441.621	0.057	-0.123
-205.406	12.863	0.093	0.071
-204.392	37.143	-0.173	0.151
-203.377	-28.628	0.186	-0.106
-202.363	-148.143	-0.243	-0.020
-201.348	-200.000	-0.007	0.158
-200.333	-119.516	0.075	-0.013
-199.319	62.535	0.224	-0.221
-198.304	-15.630	-0.116	-0.073
-197.290	-192.574	0.509	-0.005
-196.275	-200.000	0.005	0.056
-195.260	4.924	0.357	-0.260
-194.246	-9.207	0.156	0.103
-193.231	-200.000	-0.012	-0.235
-192.217	-62.806	0.070	0.029
-191.202	593.881	-0.161	0.392
-190.187	-88.335	-0.351	-0.104
-189.173	-103.091	0.102	-0.024
-188.158	94.885	0.020	0.022
-187.144	-103.520	-0.181	0.042
-186.129	56.206	0.096	0.092
-185.114	4.182	-0.166	-0.120
-184.100	-56.181	-0.034	0.015
-183.085	36.828	0.415	-0.362
-182.071	-41.058	0.178	-0.091
-181.056	-37.444	-0.083	-0.044
-180.042	-109.373	-0.089	0.019
-179.027	128.066	0.047	0.059
-178.012	132.410	-0.082	-0.104
-176.998	-116.587	0.109	0.020
-175.983	-70.837	0.252	0.094
-174.969	-66.157	-0.061	-0.024
-173.954	-200.000	-0.001	0.063
-172.939	139.349	-0.112	0.145
-171.925	565.290	-0.083	-0.199
-170.910	-135.756	0.100	0.012
-169.896	228.180	0.052	-0.084
-168.881	38.626	-0.138	0.121
-167.866	191.258	-0.171	-0.253
-166.852	429.272	-0.190	0.405
-165.837	-31.241	0.150	-0.083
-164.823	-72.851	0.070	0.025
-163.808	101.116	0.133	-0.153
-162.793	-175.660	-0.220	-0.006
-161.779	5.798	-0.262	-0.191
-160.764	-54.633	-0.222	-0.099
-159.750	-104.788	0.150	-0.034
-158.735	-82.916	0.193	-0.061
-157.720	-43.972	-0.203	0.101
-156.706	-130.211	0.436	-0.059
-155.691	-200.000	-0.019	-0.252
-154.677	-200.000	-0.013	-0.106
-153.662	236.663	0.137	0.223
-152.647	-5.390	0.150	0.102
-151.633	800.000	-0.156	0.426
-150.618	800.000	-0.082	-0.296
-149.604	102.055	-0.135	0.155
-148.589	-101.443	0.178	0.043
-147.574	-55.118	0.234	0.104
-146.560	-48.958	0.105	-0.049
-145.545	-200.000	-0.013	0.219
-144.531	-13.323	-0.317	0.203
-143.516	21.090	-0.225	0.180
-142.502	300.544	0.090	0.163
-141.487	-200.000	-0.099	0.433
-140.472	125.940	-0.170	0.212
-139.458	-0.251	0.126	-0.088
-138.443	183.256	-0.065	0.094
-137.429	26.196	0.129	-0.106
-136.414	-21.454	0.425	-0.256
-135.399	800.000	-0.122	-0.494
-134.385	121.611	0.096	-0.119
-133.370	113.751	0.037	0.044
-132.356	687.391	0.115	0.297
-131.341	-175.751	-0.209	0.006
-130.326	13.358	-0.099	0.075
-129.312	-71.712	0.130	-0.048
-128.297	-168.084	0.017	-0.001
-127.283	119.461	-0.057	-0.070
-126.268	21.252	0.058	-0.047
-125.253	240.664	0.052	-0.086
-124.239	513.420	-0.095	0.217
-123.224	-11.395	0.335	0.217
-122.210	-77.319	-0.256	0.088
-121.195	-67.259	-0.083	-0.032
-120.180	-79.542	0.392	0.130
