DTS Sentinel unit serial number:	SN413079Multiplexer serial number:	ORYXHardware model number:	OX4-SRSoftware version number:	ORYX F/W v4.00 Oryx Data Collector v3.7.2.0data status	okinstallation	princeton_trtdifferential loss correction	single-endedforward channel	channel 3reverse channel	N/Adate	2019/09/14time	23:16:35forward acquisition time	60.00reverse acquisition time	0.00gamma	496.2192k internal	0.2319k external	0.2319temperature offset calibration	0.9984default loss term (dB/km)	0.3790temperature slope calibration	1.0000multiplexer offset coefficient	1.0000multiplexer slope coefficient	1.0000fibre end	0.00T internal ref (°C)	32.39T ext. ref 1 (°C)	4.66T ext. ref 2 (°C)	27.37length (m)	temperature (°C)	Stokes	anti-Stokes-747.200	-200.000	-0.014	-0.183
-746.185	-38.795	-0.242	0.129
-745.171	-80.837	0.113	0.038
-744.156	-200.000	-0.021	0.178
-743.142	95.819	-0.156	0.181
-742.127	800.000	-0.085	0.333
-741.112	-4.560	0.197	-0.138
-740.098	84.721	-0.016	-0.018
-739.083	14.786	-0.104	-0.082
-738.069	-122.363	-0.167	0.028
-737.054	-200.000	-0.040	0.216
-736.039	-51.382	0.091	-0.043
-735.025	-200.000	0.005	0.209
-734.010	25.908	-0.141	-0.119
-732.996	305.756	-0.085	0.160
-731.981	249.743	0.130	0.222
-730.966	800.000	0.011	0.048
-729.952	384.655	0.098	-0.204
-728.937	63.004	0.154	-0.156
-727.923	100.808	0.056	0.066
-726.908	296.981	-0.180	0.334
-725.894	210.470	-0.160	0.254
-724.879	-115.107	-0.071	0.014
-723.864	421.627	-0.163	-0.353
-722.850	246.278	0.066	0.113
-721.835	-187.481	-0.138	0.002
-720.821	115.971	-0.155	0.192
-719.806	-82.507	0.336	0.110
-718.791	-200.000	0.045	-0.347
-717.777	-138.244	0.108	-0.012
-716.762	123.491	-0.195	-0.247
-715.748	-137.316	0.474	0.054
-714.733	-0.169	-0.131	-0.094
-713.718	-17.446	-0.195	-0.124
-712.704	111.464	-0.067	0.081
-711.689	-84.498	0.033	0.010
-710.675	16.393	0.139	-0.111
-709.660	52.594	-0.150	-0.144
-708.645	-200.000	-0.009	-0.136
-707.631	800.000	0.018	0.074
-706.616	238.843	-0.134	0.226
-705.602	54.176	0.098	0.095
-704.587	-200.000	0.041	0.382
-703.572	-30.399	-0.116	-0.066
-702.558	-38.125	0.368	0.197
-701.543	22.979	-0.030	0.025
-700.529	169.784	0.125	0.181
-699.514	689.113	0.056	-0.147
-698.499	800.000	-0.087	-0.338
-697.485	139.713	-0.073	0.097
-696.470	84.883	0.110	0.122
-695.456	205.319	-0.044	0.069
-694.441	8.188	0.158	-0.120
-693.426	-62.852	-0.139	-0.058
-692.412	626.991	-0.047	0.119
-691.397	234.493	0.130	-0.216
-690.383	-115.751	-0.130	-0.025
-689.368	-138.136	0.300	0.034
-688.354	800.000	0.079	0.235
-687.339	511.663	0.069	-0.163
-686.324	205.501	-0.282	-0.443
-685.310	416.753	-0.085	-0.184
-684.295	50.031	0.090	0.086
-683.281	171.975	-0.069	0.101
-682.266	-29.501	-0.111	0.064
-681.251	66.036	-0.054	0.055
-680.237	-37.259	0.268	-0.145
-679.222	-200.000	0.000	0.193
-678.208	-8.338	0.312	-0.212
-677.193	800.000	-0.030	0.087
-676.178	-122.711	0.145	0.024
-675.164	-200.000	-0.015	0.136
-674.149	187.080	-0.072	-0.108
-673.135	-200.000	-0.028	-0.130
-672.120	-41.374	-0.101	0.052
-671.105	13.782	-0.100	0.078
-670.091	800.000	-0.065	-0.191
-669.076	40.925	-0.154	0.141
-668.062	280.888	-0.075	0.135
-667.047	11.753	-0.086	0.067
-666.032	-200.000	-0.031	0.280
-665.018	800.000	0.043	0.156
-664.003	800.000	0.107	-0.321
-662.989	127.863	-0.075	-0.096
-661.974	-57.628	0.273	-0.120
-660.959	-47.421	0.262	0.129
-659.945	279.104	-0.085	0.152
-658.930	611.057	0.026	-0.066
-657.916	-200.000	0.007	-0.193
-656.901	800.000	0.079	-0.229
-655.886	-20.825	-0.320	0.198
-654.872	105.083	0.027	-0.032
-653.857	-8.804	-0.128	0.086
-652.843	191.192	-0.042	0.063
-651.828	363.897	-0.105	-0.213
-650.814	-36.060	0.145	0.079
-649.799	-34.008	-0.314	-0.174
-648.784	124.448	0.194	0.246
-647.770	196.976	0.021	0.032
-646.755	-17.744	0.014	-0.009
-645.741	800.000	0.086	-0.315
-644.726	-164.660	0.203	-0.009
-643.711	-73.424	-0.307	-0.113
-642.697	-200.000	0.013	-0.263
-641.682	-169.924	0.160	-0.006
-640.668	109.700	-0.109	0.132
-639.653	-51.489	0.168	-0.079
-638.638	-200.000	0.009	0.190
-637.624	-66.800	-0.057	0.023
-636.609	150.270	0.070	0.096
-635.595	-119.479	0.184	0.032
-634.580	-42.242	-0.158	0.082
-633.565	-75.436	0.291	0.105
-632.551	144.464	-0.005	0.007
-631.536	518.609	-0.034	0.080
-630.522	800.000	-0.147	-0.461
-629.507	-22.922	-0.202	-0.122
-628.492	263.026	0.089	0.156
-627.478	-113.681	0.075	0.015
-626.463	400.673	-0.155	-0.328
-625.449	-80.308	-0.204	-0.069
-624.434	312.768	-0.248	-0.469
-623.419	176.979	0.160	0.235
-622.405	800.000	-0.060	0.206
-621.390	-58.596	0.224	-0.098
-620.376	800.000	0.109	0.303
-619.361	-200.000	-0.021	0.118
-618.346	376.779	0.142	-0.292
-617.332	26.000	-0.139	0.117
-616.317	-104.559	0.160	0.037
-615.303	-3.846	-0.208	-0.146
-614.288	-143.790	-0.102	-0.010
-613.273	-200.000	0.021	0.107
-612.259	-111.396	0.450	-0.092
-611.244	-92.977	-0.295	-0.083
-610.230	189.519	0.013	-0.020
-609.215	-200.000	-0.076	-0.351
-608.201	-115.247	-0.352	-0.067
-607.186	-200.000	0.014	0.134
-606.171	44.349	-0.285	-0.263
-605.157	-55.887	0.168	-0.076
-604.142	-200.000	0.060	-0.324
-603.128	-200.000	0.000	-0.087
-602.113	-138.745	-0.329	0.036
-601.098	-46.971	0.219	-0.108
-600.084	300.199	0.100	-0.186
-599.069	185.251	0.080	-0.119
-598.055	657.377	0.077	0.198
-597.040	10.885	-0.096	0.074
-596.025	264.200	-0.042	0.074
-595.011	295.872	0.167	0.307
-593.996	11.629	0.424	0.327
-592.982	800.000	-0.028	-0.112
-591.967	-200.000	0.014	-0.127
-590.952	-7.831	-0.156	-0.106
-589.938	159.064	0.073	-0.102
-588.923	-200.000	-0.043	-0.263
-587.909	-200.000	0.003	-0.360
-586.894	-200.000	-0.050	0.286
-585.879	-69.036	-0.122	0.047
-584.865	202.991	-0.044	0.068
-583.850	256.356	0.068	0.117
-582.836	-22.139	-0.110	-0.067
-581.821	-117.456	0.246	0.045
-580.806	256.179	0.111	0.191
-579.792	-107.214	-0.482	0.107
-578.777	-71.511	0.347	0.130
-577.763	-58.346	-0.030	0.013
-576.748	-133.778	0.329	-0.041
-575.733	188.466	0.193	-0.290
-574.719	-200.000	-0.007	-0.164
-573.704	536.220	-0.082	0.196
-572.690	-105.150	-0.300	0.069
-571.675	0.589	-0.185	-0.133
-570.661	-62.529	0.188	0.079
-569.646	21.265	-0.247	0.202
-568.631	-84.854	0.093	0.029
-567.617	-200.000	0.019	0.353
-566.602	-65.098	-0.201	-0.081
-565.588	-39.918	-0.299	-0.157
-564.573	800.000	0.058	0.200
-563.558	-121.269	0.368	0.062
-562.544	-112.922	-0.179	0.036
-561.529	3.323	-0.402	0.294
-560.515	800.000	-0.040	0.132
-559.500	-6.135	0.539	-0.370
-558.485	-150.728	-0.106	-0.008
-557.471	-200.000	-0.009	0.136
-556.456	-160.909	-0.173	-0.009
-555.442	-107.945	-0.160	-0.035
-554.427	627.256	-0.108	0.274
-553.412	27.397	0.222	-0.188
-552.398	-177.822	-0.143	0.003
-551.383	-27.250	-0.126	0.074
-550.369	-200.000	-0.013	0.532
-549.354	103.612	0.159	0.188
-548.339	-200.000	-0.028	-0.177
-547.325	-24.806	0.170	0.101
-546.310	346.713	0.263	0.519
-545.296	800.000	0.019	0.060
-544.281	-200.000	0.001	0.003
-543.266	800.000	0.074	-0.235
-542.252	-200.000	0.036	-0.301
-541.237	61.721	-0.058	0.058
-540.223	141.185	-0.215	0.285
-539.208	800.000	-0.062	0.198
-538.193	128.718	0.085	-0.109
-537.179	9.150	-0.193	-0.147
-536.164	-200.000	0.021	0.261
-535.150	800.000	-0.062	-0.215
-534.135	-154.147	0.168	-0.011
-533.121	209.237	-0.197	0.309
-532.106	1.212	-0.086	-0.062
-531.091	-200.000	0.027	-0.143
-530.077	102.184	0.114	-0.133
-529.062	-200.000	0.022	0.351
-528.048	800.000	0.060	-0.198
-527.033	184.191	-0.107	-0.159
-526.018	-95.125	-0.352	0.095
-525.004	21.252	0.219	0.178
-523.989	-104.332	-0.171	-0.040
-522.975	-111.735	0.157	0.032
-521.960	800.000	-0.073	-0.244
-520.945	-200.000	0.014	0.087
-519.931	-190.403	0.207	0.002
-518.916	-134.798	-0.129	-0.016
-517.902	-114.206	-0.256	-0.050
-516.887	-75.410	0.113	0.040
-515.872	-44.670	0.280	-0.140
-514.858	209.772	-0.191	0.300
-513.843	42.493	-0.231	-0.211
-512.829	-160.546	-0.242	-0.013
-511.814	-200.000	0.015	0.097
-510.799	-200.000	0.014	0.156
-509.785	-171.231	-0.177	0.006
-508.770	166.374	0.133	-0.189
-507.756	-90.081	0.470	-0.137
-506.741	800.000	-0.116	-0.387
-505.726	92.230	-0.078	-0.088
-504.712	-200.000	0.008	-0.115
-503.697	800.000	0.051	-0.211
-502.683	200.458	0.101	-0.156
-501.668	-81.878	0.043	-0.014
-500.653	-140.935	0.306	-0.032
-499.639	-101.728	0.281	0.068
-498.624	103.414	-0.063	0.074
-497.610	-19.605	-0.152	0.094
-496.595	-1.846	-0.063	-0.044
-495.581	185.043	0.063	0.094
-494.566	800.000	0.041	0.141
-493.551	800.000	-0.104	0.294
-492.537	-200.000	-0.037	0.345
-491.522	238.087	-0.138	0.229
-490.508	-134.651	-0.161	-0.020
-489.493	76.446	-0.055	-0.059
-488.478	-115.500	-0.231	-0.044
-487.464	800.000	0.050	0.164
-486.449	167.032	-0.059	-0.084
-485.435	285.745	0.049	-0.089
-484.420	-200.000	-0.016	-0.114
-483.405	800.000	0.132	-0.421
-482.391	-69.262	-0.260	-0.100
-481.376	-13.836	-0.237	-0.153
-480.362	464.690	-0.112	-0.251
-479.347	-31.449	-0.162	0.091
-478.332	307.939	-0.230	-0.429
-477.318	-34.057	0.383	0.211
-476.303	-57.654	-0.100	0.044
-475.289	-97.150	-0.029	-0.008
-474.274	-4.470	0.154	-0.106
-473.259	139.942	0.087	0.114
-472.245	-200.000	-0.028	-0.126
-471.230	73.831	-0.093	-0.097
-470.216	-49.306	0.081	-0.039
-469.201	-93.026	0.153	-0.043
-468.186	125.977	0.144	-0.182
-467.172	-60.154	0.191	0.082
-466.157	-42.948	-0.085	-0.043
-465.143	-95.680	0.071	0.019
-464.128	114.042	0.028	0.034
-463.113	-112.108	-0.267	-0.054
-462.099	-42.596	0.125	0.064
-461.084	-111.320	0.287	0.059
-460.070	-200.000	0.013	0.253
-459.055	67.784	-0.091	-0.093
-458.040	-38.482	0.148	-0.078
-457.026	-167.716	-0.173	0.007
-456.011	800.000	0.156	0.454
-454.997	-1.092	-0.286	-0.202
-453.982	-200.000	-0.014	-0.211
-452.968	-103.933	-0.203	-0.047
-451.953	-200.000	-0.065	0.550
-450.938	-86.122	0.147	0.045
-449.924	191.362	0.129	0.194
-448.909	640.304	0.060	-0.152
-447.895	357.015	-0.096	0.191
-446.880	800.000	0.051	0.180
-445.865	-98.984	-0.085	0.021
-444.851	-200.000	0.063	0.307
-443.836	-146.998	0.160	0.014
-442.822	-91.428	0.367	-0.105
-441.807	800.000	0.075	0.263
-440.792	68.345	0.129	0.133
-439.778	467.325	0.055	-0.123
-438.763	40.929	0.246	-0.222
-437.749	-45.243	0.501	-0.249
-436.734	721.725	0.102	0.270
-435.719	114.638	-0.256	0.311
-434.705	-158.982	0.105	0.006
-433.690	221.041	0.174	-0.279
-432.676	239.119	0.147	0.244
-431.661	27.115	0.205	0.172
-430.646	185.704	0.066	-0.098
-429.632	800.000	0.022	0.073
-428.617	524.499	-0.159	0.373
-427.603	800.000	-0.049	-0.196
-426.588	-98.657	-0.133	-0.034
-425.573	-69.375	0.130	0.050
-424.559	444.101	0.117	0.257
-423.544	800.000	-0.052	0.207
-422.530	229.412	0.194	0.317
-421.515	393.969	0.028	-0.058
-420.500	135.530	0.189	-0.246
-419.486	-200.000	0.024	-0.127
-418.471	-26.050	-0.255	-0.150
-417.457	150.700	-0.054	0.074
-416.442	31.808	-0.174	0.150
-415.428	-26.945	-0.183	-0.107
-414.413	190.196	-0.170	-0.254
-413.398	169.333	0.222	0.316
-412.384	479.959	-0.049	0.111
-411.369	365.699	0.027	-0.054
-410.355	82.208	-0.184	-0.200
-409.340	484.571	-0.117	0.266
-408.325	-142.082	0.240	-0.024
-407.311	800.000	0.055	-0.164
-406.296	-129.381	-0.169	-0.023
-405.282	-125.814	0.243	-0.037
-404.267	-0.929	-0.134	-0.095
-403.252	-170.354	-0.223	0.008
-402.238	331.631	-0.105	0.201
-401.223	767.691	-0.128	-0.346
-400.209	112.650	-0.122	0.147
-399.194	210.758	0.073	0.115
-398.179	48.908	0.298	-0.280
-397.165	29.096	0.115	-0.097
-396.150	46.603	-0.150	0.139
-395.136	320.305	-0.079	-0.150
-394.121	100.695	-0.100	0.116
-393.106	404.917	-0.164	-0.345
-392.092	-89.293	-0.226	0.067
-391.077	-85.969	-0.128	0.040
-390.063	-200.000	-0.060	-0.265
-389.048	571.176	0.104	0.252
-388.033	-82.191	-0.104	0.034
-387.019	351.672	0.071	0.140
-386.004	62.003	0.285	0.284
-384.990	-151.878	-0.269	-0.020
-383.975	304.781	-0.093	0.172
-382.960	68.451	0.201	-0.205
-381.946	52.596	-0.079	-0.075
-380.931	-200.000	-0.001	-0.041
-379.917	31.248	0.090	-0.077
-378.902	800.000	-0.039	-0.114
-377.888	-40.535	0.408	-0.211
-376.873	800.000	-0.035	-0.149
-375.858	-79.428	-0.246	-0.083
-374.844	-200.000	-0.002	-0.113
-373.829	-40.801	-0.135	0.070
-372.815	365.494	-0.065	-0.131
-371.800	800.000	0.031	-0.115
-370.785	-102.563	0.031	0.007
-369.771	800.000	-0.080	0.280
-368.756	-200.000	0.001	0.122
-367.742	245.942	0.085	0.143
-366.727	-110.562	0.458	-0.095
-365.712	-200.000	0.020	-0.159
-364.698	-48.853	-0.269	-0.129
-363.683	-200.000	-0.006	-0.211
-362.669	-46.996	-0.100	-0.049
-361.654	-83.023	-0.197	-0.063
-360.639	-5.375	0.112	-0.076
-359.625	107.314	-0.225	-0.267
-358.610	180.220	-0.120	0.175
-357.596	197.937	0.086	0.131
-356.581	42.158	-0.281	-0.255
-355.566	-93.227	-0.243	0.067
-354.552	267.797	0.119	-0.207
-353.537	83.819	-0.108	0.117
-352.523	-31.691	-0.112	-0.063
-351.508	-0.489	0.032	0.023
-350.493	-98.595	0.138	0.035
-349.479	-51.714	-0.082	0.038
-348.464	324.438	0.076	-0.144
-347.450	405.126	0.052	0.110
-346.435	256.059	0.169	0.290
-345.420	251.834	-0.120	-0.204
-344.406	126.283	-0.060	0.075
-343.391	-181.572	0.232	0.004
-342.377	141.464	-0.159	-0.209
-341.362	-200.000	-0.020	0.200
-340.348	-83.237	-0.263	-0.084
-339.333	-200.000	0.009	0.211
-338.318	215.190	-0.002	-0.003
-337.304	-92.298	0.069	0.019
-336.289	-112.619	0.162	0.032
-335.275	800.000	0.005	-0.020
-334.260	-200.000	0.029	0.131
-333.245	800.000	0.025	0.085
-332.231	-45.925	0.185	0.091
-331.216	199.444	-0.177	0.270
-330.202	44.813	-0.184	-0.169
-329.187	800.000	0.009	0.037
-328.172	-120.360	0.115	0.020
-327.158	-52.666	0.023	0.011
-326.143	6.702	-0.075	0.056
-325.129	-28.989	0.133	0.076
-324.114	800.000	-0.090	-0.293
-323.099	-200.000	-0.012	-0.094
-322.085	503.375	-0.048	0.111
-321.070	-26.956	0.081	-0.047
-320.056	-156.319	-0.339	-0.021
-319.041	41.801	0.135	-0.122
-318.026	-66.786	-0.133	-0.052
-317.012	435.321	-0.150	0.324
-315.997	-104.078	0.341	0.079
-314.983	26.678	0.159	0.132
-313.968	266.810	-0.107	0.187
-312.953	-28.143	0.142	0.082
-311.939	-1.459	0.302	-0.212
-310.924	-40.910	0.126	-0.065
-309.910	-35.626	-0.230	-0.124
-308.895	159.426	0.052	0.071
-307.880	692.833	0.106	0.277
-306.866	-123.742	-0.401	-0.063
-305.851	-19.438	-0.244	-0.150
-304.837	-10.549	-0.136	-0.089
-303.822	-87.665	-0.121	-0.036
-302.807	0.484	0.195	0.138
-301.793	800.000	0.090	-0.253
-300.778	479.466	0.157	-0.354
-299.764	268.509	0.179	-0.311
-298.749	145.163	0.044	-0.058
-297.735	-34.812	-0.092	0.050
-296.720	-120.782	-0.328	0.055
-295.705	-200.000	-0.041	-0.201
-294.691	800.000	0.053	-0.193
-293.676	100.969	0.209	-0.241
-292.662	153.863	0.086	0.117
-291.647	800.000	-0.094	0.360
-290.632	390.805	0.050	0.104
-289.618	-27.675	-0.255	0.147
-288.603	402.942	0.142	0.297
-287.589	-89.449	0.180	0.053
-286.574	146.714	-0.096	0.128
-285.559	64.301	0.095	-0.095
-284.545	121.884	0.159	0.197
-283.530	4.950	-0.209	0.153
-282.516	97.393	-0.134	-0.153
-281.501	-200.000	-0.012	-0.138
-280.486	-48.054	0.170	-0.082
-279.472	145.210	-0.172	-0.229
-278.457	-60.349	0.359	0.152
-277.443	-108.929	0.254	-0.054
-276.428	-74.981	0.113	-0.040
-275.413	800.000	0.084	0.276
-274.399	243.869	-0.070	0.117
-273.384	-200.000	0.050	0.379
-272.370	48.454	0.226	-0.210
-271.355	-21.627	-0.198	-0.120
-270.340	240.898	-0.132	-0.218
-269.326	223.629	0.182	0.292
-268.311	661.329	-0.107	-0.273
-267.297	185.390	-0.128	0.189
-266.282	-200.000	-0.031	0.274
-265.267	-200.000	-0.015	0.124
-264.253	-200.000	0.020	0.163
-263.238	-102.661	0.133	-0.032
-262.224	800.000	-0.069	-0.244
-261.209	-69.850	0.176	0.067
-260.195	-200.000	0.020	0.127
-259.180	-21.597	-0.125	-0.076
-258.165	-200.000	-0.014	0.074
-257.151	492.995	0.011	0.026
-256.136	-2.663	-0.192	0.133
-255.122	-86.118	-0.131	-0.040
-254.107	800.000	-0.079	-0.322
-253.092	47.186	0.268	0.247
-252.078	-81.757	0.189	-0.062
-251.063	-73.890	-0.113	0.041
-250.049	-18.227	0.103	-0.064
-249.034	-153.054	-0.061	-0.004
-248.019	-154.652	-0.287	-0.019
-247.005	-200.000	-0.030	0.213
-245.990	-129.146	0.052	-0.007
-244.976	728.873	0.069	-0.184
-243.961	-200.000	-0.035	-0.152
-242.946	-185.601	0.262	0.004
-241.932	8.689	0.057	0.043
-240.917	-109.493	0.154	0.032
-239.903	-140.800	0.142	-0.015
-238.888	-26.651	-0.201	-0.117
-237.873	464.739	-0.080	-0.176
-236.859	222.886	-0.089	0.142
-235.844	280.670	-0.105	0.187
-234.830	800.000	0.092	0.337
-233.815	83.285	0.124	-0.134
-232.800	800.000	0.096	0.314
-231.786	-53.189	-0.166	-0.076
-230.771	-194.811	-0.338	0.003
-229.757	-159.407	-0.172	0.010
-228.742	-200.000	-0.028	0.141
-227.727	-200.000	0.027	0.246
-226.713	295.532	-0.083	0.150
-225.698	335.376	0.050	-0.096
-224.684	-18.074	-0.210	-0.130
-223.669	59.006	0.209	-0.204
-222.655	145.751	0.039	0.052
-221.640	-200.000	0.045	-0.410
-220.625	-176.307	-0.077	-0.002
-219.611	-200.000	0.016	-0.307
-218.596	29.608	-0.289	-0.244
-217.582	-200.000	-0.037	-0.335
-216.567	155.472	0.115	-0.157
-215.552	800.000	-0.076	-0.257
-214.538	-42.171	-0.059	0.030
-213.523	800.000	0.041	0.121
-212.509	187.425	0.076	-0.113
-211.494	134.477	0.147	-0.189
-210.479	-187.285	-0.238	0.003
-209.465	28.343	-0.265	-0.222
-208.450	800.000	-0.100	-0.295
-207.436	286.743	0.064	-0.114
-206.421	280.517	-0.107	-0.189
-205.406	-200.000	-0.004	-0.036
-204.392	65.678	0.287	0.288
-203.377	-152.156	-0.078	-0.006
-202.363	800.000	0.124	0.361
-201.348	500.905	-0.131	0.298
-200.333	316.120	-0.079	-0.147
-199.319	181.241	0.083	-0.121
-198.304	-200.000	0.055	-0.259
-197.290	27.127	-0.167	-0.139
-196.275	-200.000	-0.004	-0.423
-195.260	800.000	-0.078	0.222
-194.246	-28.578	0.104	-0.059
-193.231	18.748	-0.101	0.080
-192.217	-82.290	0.039	-0.013
-191.202	-200.000	-0.026	-0.145
-190.187	1.562	0.355	0.253
-189.173	-112.679	0.203	-0.040
-188.158	-97.769	0.114	-0.029
-187.144	-200.000	0.010	0.107
-186.129	-200.000	0.020	0.109
-185.114	-175.975	-0.434	-0.011
-184.100	-200.000	0.002	0.083
-183.085	800.000	0.021	-0.086
-182.071	800.000	-0.060	-0.197
-181.056	-128.850	-0.384	0.053
-180.042	29.080	0.313	0.263
-179.027	-200.000	-0.013	-0.230
-178.012	-177.913	0.116	0.003
-176.998	-200.000	0.025	0.156
-175.983	-110.653	-0.045	0.009
-174.969	-83.815	0.199	0.063
-173.954	798.736	0.063	-0.171
-172.939	-200.000	0.023	-0.191
-171.925	-163.968	0.321	0.015
-170.910	275.759	0.180	0.317
-169.896	357.839	-0.149	0.295
-168.881	-166.047	0.068	0.003
-167.866	358.097	-0.042	-0.083
-166.852	800.000	-0.034	0.140
-165.837	-200.000	-0.016	0.349
-164.823	-171.084	0.269	-0.009
-163.808	-200.000	-0.010	0.158
-162.793	562.434	-0.053	-0.127
-161.779	-200.000	0.018	0.103
-160.764	-200.000	-0.001	0.058
-159.750	-200.000	-0.020	-0.124
-158.735	312.525	0.088	0.163
-157.720	219.529	0.099	0.157
-156.706	378.097	0.059	-0.119
-155.691	64.082	-0.223	0.222
-154.677	64.152	0.036	-0.036
-153.662	279.829	-0.093	-0.163
-152.647	-146.047	0.234	-0.020
-151.633	-82.579	0.118	-0.038
-150.618	28.076	-0.109	0.091
-149.604	281.071	0.183	0.324
-148.589	340.562	0.141	-0.272
-147.574	-72.473	-0.362	-0.132
-146.560	-120.665	0.126	-0.021
-145.545	-200.000	0.010	-0.143
-144.531	-2.223	0.239	-0.166
-143.516	199.246	0.060	0.091
-142.502	-200.000	-0.016	-0.208
-141.487	257.930	-0.043	0.073
-140.472	800.000	0.046	0.167
-139.458	-19.716	-0.121	-0.074
-138.443	800.000	-0.056	0.173
-137.429	-200.000	-0.080	0.366
-136.414	800.000	-0.025	0.103
-135.399	-200.000	-0.001	0.125
-134.385	16.747	-0.322	0.252
-133.370	201.856	0.068	0.104
-132.356	68.157	0.188	0.190
-131.341	-117.666	-0.330	-0.059
-130.326	-117.890	0.172	-0.031
-129.312	-3.572	0.072	-0.049
-128.297	-200.000	-0.008	-0.209
-127.283	-31.946	-0.090	-0.050
-126.268	35.230	0.171	-0.148
-125.253	-46.751	0.378	0.183
-124.239	-132.166	-0.044	-0.006
-123.224	-13.967	-0.285	0.182
-122.210	-23.379	0.203	0.121
-121.195	-91.001	0.156	0.044
