DTS Sentinel unit serial number:	SN413079Multiplexer serial number:	ORYXHardware model number:	OX4-SRSoftware version number:	ORYX F/W v4.00 Oryx Data Collector v3.7.2.0data status	okinstallation	princeton_trtdifferential loss correction	single-endedforward channel	channel 3reverse channel	N/Adate	2019/09/10time	16:42:11forward acquisition time	60.00reverse acquisition time	0.00gamma	496.2192k internal	0.2300k external	0.2300temperature offset calibration	0.9907default loss term (dB/km)	0.3790temperature slope calibration	1.0000multiplexer offset coefficient	1.0000multiplexer slope coefficient	1.0000fibre end	0.00T internal ref (°C)	37.78T ext. ref 1 (°C)	-0.29T ext. ref 2 (°C)	30.25length (m)	temperature (°C)	Stokes	anti-Stokes-747.200	36.134	0.103	-0.092
-746.185	800.000	0.025	0.097
-745.171	800.000	-0.020	0.066
-744.156	287.629	-0.069	0.128
-743.142	284.603	-0.093	0.170
-742.127	-200.000	-0.022	0.350
-741.112	103.471	0.232	0.278
-740.098	-99.198	-0.397	0.102
-739.083	800.000	-0.010	0.033
-738.069	-96.017	0.148	0.040
-737.054	763.054	0.054	0.148
-736.039	-73.100	-0.315	0.118
-735.025	-118.370	-0.265	-0.048
-734.010	-64.675	0.162	-0.067
-732.996	800.000	-0.112	0.332
-731.981	-68.587	-0.291	-0.115
-730.966	-48.730	0.170	-0.083
-729.952	-200.000	-0.007	0.229
-728.937	800.000	-0.060	0.248
-727.923	768.888	0.034	0.094
-726.908	-113.595	-0.113	0.022
-725.894	17.264	-0.271	0.220
-724.879	800.000	-0.089	-0.306
-723.864	-200.000	-0.015	-0.290
-722.850	438.617	-0.118	0.261
-721.835	-33.452	-0.111	0.063
-720.821	-147.499	0.105	0.009
-719.806	800.000	-0.064	-0.250
-718.791	-63.199	0.233	0.098
-717.777	-200.000	0.021	-0.208
-716.762	707.841	0.010	0.027
-715.748	-200.000	-0.047	-0.303
-714.733	-51.111	0.260	-0.124
-713.718	-200.000	0.006	-0.057
-712.704	800.000	0.024	0.094
-711.689	-24.223	0.303	0.184
-710.675	-88.146	-0.201	-0.061
-709.660	242.642	0.075	-0.128
-708.645	87.070	-0.148	0.166
-707.631	-200.000	0.107	-0.507
-706.616	800.000	-0.107	-0.329
-705.602	562.730	-0.115	-0.283
-704.587	474.035	0.101	-0.232
-703.572	122.923	0.248	-0.316
-702.558	-74.664	-0.059	0.022
-701.543	-15.441	0.215	-0.140
-700.529	125.510	-0.175	0.225
-699.514	28.577	0.398	-0.343
-698.499	303.050	0.094	0.177
-697.485	-63.665	-0.146	0.061
-696.470	-58.644	-0.199	0.088
-695.456	71.647	0.119	-0.126
-694.441	800.000	0.104	-0.320
-693.426	800.000	-0.145	-0.474
-692.412	-200.000	0.035	-0.252
-691.397	-92.135	-0.143	-0.041
-690.383	-124.087	0.383	-0.061
-689.368	-184.111	-0.158	-0.003
-688.354	4.743	0.186	-0.139
-687.339	55.911	0.155	-0.153
-686.324	194.170	0.222	0.343
-685.310	9.176	0.158	0.122
-684.295	-200.000	0.061	0.317
-683.281	361.799	-0.064	0.130
-682.266	165.337	-0.169	-0.243
-681.251	800.000	0.066	-0.243
-680.237	-57.769	0.222	0.099
-679.222	-53.985	0.094	0.044
-678.208	158.236	0.097	-0.137
-677.193	-149.836	-0.335	-0.027
-676.178	-164.202	-0.093	-0.004
-675.164	-79.902	-0.437	0.149
-674.149	-200.000	-0.001	-0.353
-673.135	-200.000	-0.040	-0.298
-672.120	-112.897	0.413	0.083
-671.105	132.780	0.109	-0.143
-670.091	-17.093	0.056	-0.036
-669.076	800.000	-0.048	0.168
-668.062	346.664	-0.028	-0.057
-667.047	-132.277	-0.346	0.046
-666.032	-22.480	-0.105	-0.064
-665.018	-200.000	-0.014	0.079
-664.003	-58.259	0.061	0.027
-662.989	-200.000	0.031	-0.228
-661.974	-137.366	-0.177	0.020
-660.959	-104.774	0.114	0.027
-659.945	-22.886	0.095	-0.058
-658.930	-101.393	0.139	-0.035
-657.916	74.978	0.064	-0.069
-656.901	-160.823	0.097	-0.005
-655.886	800.000	0.085	-0.245
-654.872	99.219	-0.124	-0.146
-653.857	39.566	-0.005	0.004
-652.843	-162.629	-0.279	-0.014
-651.828	385.184	0.142	0.297
-650.814	-104.446	-0.236	0.056
-649.799	-63.325	0.055	-0.023
-648.784	-126.950	-0.178	0.027
-647.770	-200.000	-0.043	-0.294
-646.755	-6.615	-0.415	-0.287
-645.741	-200.000	0.002	0.279
-644.726	-200.000	0.063	-0.439
-643.711	-200.000	0.026	0.186
-642.697	148.586	0.072	0.099
-641.682	623.818	-0.131	-0.336
-640.668	-183.916	0.077	0.001
-639.653	62.893	0.099	0.101
-638.638	-45.938	-0.329	-0.165
-637.624	-24.755	0.016	0.010
-636.609	30.330	0.087	0.075
-635.595	225.664	-0.021	-0.034
-634.580	-144.507	-0.221	-0.021
-633.565	-146.464	-0.077	-0.007
-632.551	156.906	-0.187	-0.263
-631.536	-131.838	0.158	-0.021
-630.522	555.966	0.063	-0.154
-629.507	26.539	-0.325	-0.276
-628.492	-28.707	-0.117	-0.069
-627.478	-8.299	0.116	0.079
-626.463	800.000	-0.086	0.363
-625.449	193.538	-0.100	-0.153
-624.434	-188.875	0.121	-0.001
-623.419	-200.000	-0.062	-0.347
-622.405	-43.184	-0.090	0.046
-621.390	-104.082	0.249	0.059
-620.376	56.876	-0.144	0.143
-619.361	800.000	-0.049	-0.192
-618.346	-74.556	0.232	-0.085
-617.332	-109.087	-0.074	-0.016
-616.317	-61.355	-0.160	-0.069
-615.303	26.024	0.258	0.219
-614.288	800.000	-0.055	0.165
-613.273	-142.930	0.556	-0.055
-612.259	389.821	-0.025	0.053
-611.244	174.102	-0.062	0.091
-610.230	-92.926	-0.343	-0.097
-609.215	622.458	0.020	-0.052
-608.201	137.476	-0.116	0.154
-607.186	800.000	0.020	0.081
-606.171	-145.437	-0.232	-0.021
-605.157	-200.000	-0.026	0.200
-604.142	116.650	0.166	-0.207
-603.128	-200.000	0.026	-0.205
-602.113	285.105	0.105	0.191
-601.098	-124.370	-0.271	0.043
-600.084	-200.000	-0.068	-0.384
-599.069	-75.784	-0.114	0.041
-598.055	68.370	0.063	-0.065
-597.040	700.903	-0.239	-0.638
-596.025	-29.282	-0.193	0.112
-595.011	-86.665	-0.231	0.072
-593.996	-74.979	0.220	0.080
-592.982	-146.091	0.174	0.016
-591.967	154.730	-0.097	0.135
-590.952	-200.000	-0.052	0.279
-589.938	-60.864	0.190	0.081
-588.923	64.750	0.079	0.080
-587.909	-11.879	0.136	-0.091
-586.894	-33.043	-0.019	-0.011
-585.879	235.224	-0.074	0.124
-584.865	-151.504	-0.157	0.012
-583.850	31.286	0.157	-0.137
-582.836	197.318	-0.164	-0.254
-581.821	-97.554	0.255	-0.067
-580.806	44.686	0.231	0.216
-579.792	-81.507	-0.290	-0.097
-578.777	103.881	-0.015	-0.018
-577.763	72.803	0.224	-0.237
-576.748	-200.000	0.001	-0.092
-575.733	565.759	-0.120	0.295
-574.719	-40.424	0.168	0.088
-573.704	-21.480	-0.059	0.036
-572.690	-134.012	0.269	-0.034
-571.675	-83.787	0.233	-0.075
-570.661	83.714	-0.169	-0.186
-569.646	-8.665	0.116	-0.079
-568.631	800.000	-0.061	0.180
-567.617	800.000	0.091	0.348
-566.602	186.759	0.041	0.061
-565.588	62.342	-0.330	0.333
-564.573	292.169	-0.094	-0.173
-563.558	-34.166	0.145	-0.081
-562.544	-69.649	-0.155	0.060
-561.529	-143.476	0.138	0.013
-560.515	-200.000	-0.010	-0.140
-559.500	-104.122	-0.313	-0.074
-558.485	458.262	0.189	-0.425
-557.471	129.884	0.169	0.219
-556.456	-90.861	0.220	-0.064
-555.442	800.000	-0.084	-0.322
-554.427	282.212	0.036	-0.065
-553.412	-5.309	-0.231	-0.161
-552.398	-79.201	-0.080	-0.027
-551.383	-200.000	-0.028	-0.210
-550.369	303.759	-0.052	-0.097
-549.354	-200.000	0.024	-0.192
-548.339	92.991	-0.077	-0.088
-547.325	-74.972	-0.300	0.109
-546.310	-124.624	-0.108	0.017
-545.296	-200.000	0.022	0.293
-544.281	180.937	0.212	0.315
-543.266	-169.233	0.262	-0.010
-542.252	-177.497	-0.286	0.007
-541.237	792.299	0.062	0.174
-540.223	109.192	0.079	0.095
-539.208	-87.850	-0.184	-0.056
-538.193	-121.418	0.190	0.032
-537.179	-156.940	-0.196	-0.012
-536.164	765.397	0.048	0.131
-535.150	-98.218	-0.390	0.101
-534.135	-129.155	0.223	0.032
-533.121	230.311	0.278	0.459
-532.106	800.000	-0.029	0.102
-531.091	316.981	-0.134	-0.255
-530.077	-49.907	0.291	0.140
-529.062	-23.234	0.150	0.091
-528.048	315.935	0.066	0.125
-527.033	-99.570	-0.189	0.048
-526.018	72.808	-0.239	0.252
-525.004	-200.000	-0.060	0.317
-523.989	7.430	0.147	-0.111
-522.975	800.000	-0.060	-0.254
-521.960	800.000	-0.033	0.119
-520.945	-200.000	-0.009	0.307
-519.931	507.116	0.199	-0.466
-518.916	77.286	0.015	0.016
-517.902	-200.000	0.028	0.174
-516.887	-1.762	-0.201	0.143
-515.872	23.471	0.254	0.211
-514.858	214.268	-0.120	-0.193
-513.843	-15.091	0.246	0.159
-512.829	-146.117	0.133	-0.012
-511.814	-147.484	0.288	0.025
-510.799	-132.705	0.305	0.039
-509.785	24.689	0.325	-0.272
-508.770	-200.000	0.005	0.189
-507.756	-68.911	0.109	0.042
-506.741	-117.149	-0.138	-0.025
-505.726	-200.000	0.003	0.060
-504.712	-95.006	0.121	-0.033
-503.697	-83.468	-0.058	0.019
-502.683	353.311	0.117	-0.235
-501.668	12.653	-0.232	0.181
-500.653	-193.177	-0.099	0.001
-499.639	63.238	-0.090	-0.091
-498.624	43.493	0.098	0.091
-497.610	-200.000	0.011	0.051
-496.595	337.011	-0.053	0.104
-495.581	-104.061	-0.114	-0.027
-494.566	653.148	-0.123	-0.320
-493.551	651.925	-0.027	0.069
-492.537	29.309	0.212	0.182
-491.522	-123.453	-0.190	-0.031
-490.508	76.634	-0.267	-0.286
-489.493	-132.413	0.318	-0.041
-488.478	-12.406	-0.076	0.050
-487.464	-200.000	0.014	0.165
-486.449	67.880	-0.083	-0.086
-485.435	-58.581	-0.384	-0.168
-484.420	-43.439	-0.096	0.049
-483.405	800.000	0.071	0.308
-482.391	-80.232	-0.104	-0.035
-481.376	-140.396	0.062	-0.007
-480.362	287.837	-0.169	0.308
-479.347	-200.000	-0.019	0.173
-478.332	-131.425	0.128	-0.017
-477.318	48.416	-0.312	0.295
-476.303	384.832	-0.018	-0.038
-475.289	291.699	-0.055	-0.100
-474.274	117.415	0.358	0.445
-473.259	-107.448	-0.228	0.050
-472.245	-185.372	-0.105	0.002
-471.230	-58.144	-0.321	-0.141
-470.216	-94.032	0.130	0.036
-469.201	275.556	0.126	-0.226
-468.186	-86.062	0.485	-0.151
-467.172	-200.000	0.060	-0.281
-466.157	779.942	-0.080	0.220
-465.143	-156.995	0.357	0.022
-464.128	-200.000	0.001	0.022
-463.113	460.438	0.130	0.292
-462.099	717.314	0.085	0.227
-461.084	352.820	0.121	0.242
-460.070	-200.000	0.021	-0.224
-459.055	-189.704	0.299	-0.003
-458.040	800.000	0.119	0.362
-457.026	-200.000	0.006	-0.029
-456.011	-35.573	0.179	0.098
-454.997	-129.728	0.170	-0.024
-453.982	800.000	-0.046	-0.165
-452.968	-200.000	-0.044	-0.224
-451.953	-36.490	-0.160	-0.087
-450.938	12.804	0.266	-0.207
-449.924	-64.480	0.241	-0.099
-448.909	151.366	-0.155	-0.212
-447.895	156.007	0.070	0.098
-446.880	-37.057	-0.191	-0.103
-445.865	800.000	0.077	0.218
-444.851	269.646	-0.071	0.126
-443.836	177.273	-0.051	-0.074
-442.822	-200.000	0.021	0.161
-441.807	105.286	-0.039	-0.046
-440.792	-103.493	-0.088	0.021
-439.778	67.952	-0.164	-0.169
-438.763	-37.612	-0.050	0.027
-437.749	-11.361	0.047	0.031
-436.734	800.000	-0.042	-0.155
-435.719	118.108	-0.070	0.087
-434.705	-104.729	0.452	0.105
-433.690	800.000	0.038	-0.151
-432.676	-19.394	-0.345	-0.216
-431.661	-146.743	0.150	0.013
-430.646	-14.233	0.163	-0.106
-429.632	-110.531	0.126	0.026
-428.617	433.876	-0.034	-0.074
-427.603	161.315	0.114	-0.161
-426.588	445.258	-0.076	0.169
-425.573	-57.832	-0.230	-0.101
-424.559	13.147	-0.071	-0.055
-423.544	68.611	0.282	-0.292
-422.530	50.186	-0.159	-0.151
-421.515	-47.096	-0.171	0.084
-420.500	274.455	0.172	0.307
-419.486	-118.261	-0.350	0.063
-418.471	601.719	-0.152	-0.381
-417.457	-4.036	0.310	-0.216
-416.442	-111.764	-0.083	-0.017
-415.428	124.665	-0.112	-0.141
-414.413	-23.015	0.282	0.171
-413.398	196.636	-0.093	-0.143
-412.384	-131.889	-0.393	-0.052
-411.369	-32.515	-0.316	-0.177
-410.355	-200.000	-0.015	-0.223
-409.340	121.073	-0.295	-0.370
-408.325	53.375	0.165	0.159
-407.311	95.528	0.135	0.155
-406.296	27.992	0.283	-0.240
-405.282	71.977	-0.170	-0.178
-404.267	-42.428	-0.282	-0.145
-403.252	110.078	0.175	-0.211
-402.238	7.785	0.150	0.113
-401.223	800.000	0.029	-0.091
-400.209	19.250	-0.288	-0.233
-399.194	39.151	-0.050	-0.045
-398.179	175.434	-0.071	0.103
-397.165	615.415	0.030	-0.075
-396.150	800.000	-0.040	-0.122
-395.136	800.000	0.094	0.313
-394.121	-200.000	-0.270	0.001
-393.106	20.525	-0.241	0.196
-392.092	168.271	0.148	-0.213
-391.077	-200.000	0.048	-0.251
-390.063	-115.312	0.427	0.081
-389.048	-200.000	0.012	-0.062
-388.033	-200.000	-0.301	0.001
-387.019	-130.021	0.180	0.025
-386.004	-19.724	-0.293	0.182
-384.990	800.000	-0.052	-0.145
-383.975	538.709	-0.069	-0.164
-382.960	-44.931	0.106	0.053
-381.946	71.075	-0.234	0.244
-380.931	226.113	0.158	-0.258
-379.917	800.000	-0.069	-0.204
-378.902	-61.882	0.252	-0.106
-377.888	800.000	-0.018	-0.074
-376.873	14.740	-0.174	-0.137
-375.858	227.287	-0.078	-0.128
-374.844	-146.324	0.261	0.023
-373.829	-67.044	-0.093	0.037
-372.815	-136.932	-0.445	-0.051
-371.800	26.287	-0.188	0.158
-370.785	-152.434	0.347	-0.025
-369.771	-48.790	-0.300	0.145
-368.756	-72.683	0.083	0.031
-367.742	-131.610	-0.258	-0.034
-366.727	-3.011	-0.223	-0.156
-365.712	-104.342	-0.279	-0.065
-364.698	-131.866	-0.037	-0.005
-363.683	-200.000	0.059	-0.269
-362.669	-98.235	-0.172	-0.044
-361.654	-84.234	-0.194	0.062
-360.639	251.891	0.159	0.272
-359.625	-48.240	-0.167	0.081
-358.610	-189.465	-0.153	-0.002
-357.596	-200.000	-0.026	-0.189
-356.581	-112.818	-0.287	-0.057
-355.566	-117.279	0.329	-0.060
-354.552	100.709	0.147	0.172
-353.537	-4.202	0.107	-0.075
-352.523	-200.000	0.004	0.120
-351.508	-200.000	0.012	-0.084
-350.493	33.558	-0.240	0.210
-349.479	-35.823	0.159	-0.086
-348.464	76.578	0.168	0.179
-347.450	-105.756	-0.226	0.051
-346.435	-200.000	0.004	0.066
-345.420	-64.332	0.154	0.063
-344.406	-92.444	0.132	-0.037
-343.391	-38.758	0.095	0.050
-342.377	-96.888	0.353	-0.093
-341.362	-200.000	-0.010	-0.081
-340.348	-120.854	-0.293	0.050
-339.333	-111.682	-0.057	-0.012
-338.318	800.000	0.082	-0.354
-337.304	-83.712	0.113	0.036
-336.289	-126.570	0.156	0.023
-335.275	52.310	0.262	0.251
-334.260	406.837	-0.056	-0.120
-333.245	64.161	-0.228	-0.230
-332.231	49.644	0.271	-0.256
-331.216	-180.837	0.097	-0.002
-330.202	800.000	-0.083	-0.291
-329.187	-200.000	-0.015	-0.087
-328.172	-90.458	0.140	0.041
-327.158	-138.838	-0.239	-0.026
-326.143	-200.000	0.020	-0.125
-325.129	-58.288	0.116	-0.051
-324.114	4.286	-0.097	-0.071
-323.099	-98.386	-0.385	0.099
-322.085	15.903	-0.139	-0.110
-321.070	-200.000	-0.023	-0.349
-320.056	88.351	0.153	-0.170
-319.041	-48.988	0.049	-0.024
-318.026	57.934	-0.286	-0.281
-317.012	-200.000	0.040	0.329
-315.997	33.309	-0.219	0.190
-314.983	476.664	0.253	0.574
-313.968	598.158	0.130	-0.322
-312.953	-12.895	-0.181	0.118
-311.939	128.863	-0.169	0.216
-310.924	-101.849	0.037	-0.009
-309.910	-200.000	0.039	-0.306
-308.895	82.529	-0.111	-0.121
-307.880	800.000	0.013	-0.050
-306.866	88.859	0.066	0.073
-305.851	800.000	0.047	-0.150
-304.837	-117.461	-0.126	-0.023
-303.822	-14.759	0.223	-0.143
-302.807	-166.942	0.189	-0.008
-301.793	664.756	0.092	0.239
-300.778	454.676	0.040	0.089
-299.764	157.693	0.166	0.230
-298.749	113.702	0.193	-0.235
-297.735	-200.000	-0.012	-0.063
-296.720	800.000	-0.085	-0.252
-295.705	34.741	-0.076	-0.067
-294.691	150.250	-0.113	-0.153
-293.676	-138.164	-0.307	0.034
-292.662	-200.000	0.011	-0.108
-291.647	800.000	-0.078	0.259
-290.632	-147.468	0.334	0.028
-289.618	-75.592	0.102	0.036
-288.603	68.557	0.188	0.193
-287.589	68.699	0.113	0.116
-286.574	683.647	-0.070	-0.182
-285.559	-182.155	0.142	-0.003
-284.545	439.431	0.067	-0.147
-283.530	-122.427	0.289	0.047
-282.516	522.489	0.146	0.343
-281.501	-36.363	-0.365	-0.197
-280.486	-32.087	-0.138	-0.077
-279.472	-200.000	0.031	-0.159
-278.457	-77.977	-0.282	-0.097
-277.443	-108.971	0.058	-0.012
-276.428	59.968	-0.082	0.081
-275.413	-200.000	-0.030	0.277
-274.399	-29.565	-0.049	0.028
-273.384	274.825	0.123	-0.218
-272.370	-200.000	-0.014	0.129
-271.355	39.624	0.219	-0.196
-270.340	800.000	0.091	0.280
-269.326	103.875	-0.283	0.333
-268.311	-200.000	-0.040	0.177
-267.297	462.923	-0.136	-0.305
-266.282	-49.341	0.294	-0.141
-265.267	-55.419	-0.091	-0.041
-264.253	223.805	-0.209	0.338
-263.238	-105.997	-0.112	-0.025
-262.224	48.126	0.327	0.306
-261.209	-0.578	-0.207	0.147
-260.195	140.098	-0.206	-0.271
-259.180	34.112	0.290	-0.253
-258.165	30.282	-0.158	-0.135
-257.151	-200.000	0.052	0.320
-256.136	-31.004	-0.033	0.019
-255.122	20.106	-0.063	-0.051
-254.107	179.575	0.056	0.082
-253.092	419.191	-0.026	-0.056
-252.078	800.000	0.068	-0.274
-251.063	-137.712	-0.383	0.043
-250.049	-200.000	-0.057	-0.263
-249.034	-14.869	-0.147	0.094
-248.019	800.000	-0.022	-0.091
-247.005	-122.265	0.187	0.031
-245.990	800.000	-0.047	0.130
-244.976	800.000	-0.041	0.161
-243.961	47.526	0.231	0.216
-242.946	269.246	-0.099	0.174
-241.932	-200.000	-0.015	-0.077
-240.917	441.395	-0.031	0.068
-239.903	289.140	-0.029	0.052
-238.888	244.698	0.108	-0.181
-237.873	311.409	0.246	0.462
-236.859	-200.000	-0.024	-0.219
-235.844	0.438	0.333	0.238
-234.830	-71.113	0.120	0.045
-233.815	75.785	-0.200	-0.212
-232.800	-200.000	0.037	-0.329
-231.786	800.000	-0.076	0.263
-230.771	-174.560	-0.187	-0.005
-229.757	222.543	-0.156	0.252
-228.742	-16.704	0.420	-0.266
-227.727	398.661	0.004	0.009
-226.713	-91.195	-0.193	-0.055
-225.698	-101.039	0.154	-0.038
-224.684	273.014	-0.136	0.241
-223.669	-200.000	-0.041	-0.237
-222.655	-68.859	0.104	0.040
-221.640	-110.254	-0.300	-0.062
-220.625	115.595	0.164	0.200
-219.611	26.495	-0.104	-0.087
-218.596	27.658	0.119	-0.100
-217.582	-12.705	-0.202	0.131
-216.567	191.573	0.179	0.269
-215.552	-114.974	-0.018	-0.003
-214.538	101.812	-0.048	-0.056
-213.523	-73.655	0.171	0.062
-212.509	-65.178	-0.284	0.114
-211.494	47.324	-0.318	0.296
-210.479	97.196	0.121	-0.139
-209.465	-41.566	-0.093	-0.048
-208.450	196.665	0.133	-0.202
-207.436	-200.000	-0.023	-0.105
-206.421	289.439	0.057	-0.104
-205.406	-200.000	-0.019	-0.201
-204.392	-20.583	0.291	0.179
-203.377	-146.757	-0.095	-0.008
-202.363	-200.000	0.018	0.426
-201.348	139.930	0.032	0.041
-200.333	22.967	-0.046	0.037
-199.319	36.626	-0.029	-0.026
-198.304	25.470	-0.110	0.091
-197.290	-166.884	-0.276	-0.011
-196.275	53.221	-0.193	-0.184
-195.260	-65.362	-0.151	-0.061
-194.246	-64.395	0.146	0.059
-193.231	-200.000	0.000	0.001
-192.217	81.291	-0.155	0.167
-191.202	800.000	0.038	-0.112
-190.187	-34.971	0.160	0.087
-189.173	-200.000	-0.030	0.227
-188.158	-142.878	0.390	0.038
-187.144	-120.788	0.264	0.044
-186.129	800.000	0.066	0.187
-185.114	144.027	-0.089	0.118
-184.100	-61.414	-0.131	-0.055
-183.085	-200.000	0.051	0.275
-182.071	-63.194	0.134	0.055
-181.056	-200.000	-0.005	-0.040
-180.042	231.507	0.219	0.357
-179.027	-200.000	0.420	0.001
-178.012	283.679	0.106	0.190
-176.998	-147.141	0.185	-0.016
-175.983	-173.038	0.135	0.004
-174.969	-134.959	0.232	0.028
-173.954	-83.736	-0.161	0.051
-172.939	-200.000	-0.042	0.443
-171.925	800.000	-0.093	0.320
-170.910	800.000	-0.170	0.563
-169.896	-56.402	-0.094	0.042
-168.881	-33.482	0.551	-0.304
-167.866	-170.858	-0.100	-0.003
-166.852	-52.537	-0.150	0.069
-165.837	71.969	-0.132	-0.137
-164.823	800.000	-0.087	-0.279
-163.808	-98.287	0.261	0.067
-162.793	-95.062	-0.221	-0.060
-161.779	-149.785	-0.023	0.002
-160.764	230.862	0.134	0.219
-159.750	170.193	0.181	0.258
-158.735	-90.228	0.036	0.010
-157.720	-54.398	0.158	-0.071
-156.706	-25.268	-0.114	-0.068
-155.691	130.086	0.291	0.372
-154.677	120.740	0.108	-0.134
-153.662	209.786	-0.260	0.407
-152.647	-24.231	0.266	-0.158
-151.633	-70.143	0.360	-0.136
-150.618	-200.000	0.016	-0.251
-149.604	800.000	-0.058	0.200
-148.589	800.000	0.061	0.195
-147.574	92.414	0.115	0.129
-146.560	-120.894	0.151	0.025
-145.545	90.337	0.179	0.199
-144.531	-85.985	-0.184	-0.057
-143.516	800.000	-0.039	0.169
-142.502	-200.000	-0.031	-0.150
-141.487	-145.496	-0.308	-0.028
-140.472	45.697	0.133	0.122
-139.458	800.000	0.044	-0.141
-138.443	-200.000	0.003	-0.199
-137.429	-191.462	0.149	-0.001
-136.414	22.261	0.306	0.249
-135.399	-78.737	0.325	-0.110
-134.385	-200.000	0.021	-0.349
-133.370	-200.000	-0.004	-0.307
-132.356	795.414	0.065	-0.179
-131.341	-200.000	-0.027	-0.226
-130.326	-200.000	0.042	-0.257
-129.312	9.888	0.255	0.193
-128.297	-37.092	0.198	0.106
-127.283	-66.911	0.363	0.143
-126.268	-58.279	0.325	-0.141
-125.253	-177.849	-0.335	0.008
-124.239	638.563	0.164	-0.416
-123.224	-200.000	0.003	0.246
-122.210	14.008	0.098	-0.076
