DTS Sentinel unit serial number:	SN413079Multiplexer serial number:	ORYXHardware model number:	OX4-SRSoftware version number:	ORYX F/W v4.00 Oryx Data Collector v3.7.2.0data status	okinstallation	princeton_trtdifferential loss correction	single-endedforward channel	channel 3reverse channel	N/Adate	2019/09/16time	00:52:35forward acquisition time	60.00reverse acquisition time	0.00gamma	496.2192k internal	0.2338k external	0.2338temperature offset calibration	0.9953default loss term (dB/km)	0.3790temperature slope calibration	1.0000multiplexer offset coefficient	1.0000multiplexer slope coefficient	1.0000fibre end	0.00T internal ref (°C)	27.37T ext. ref 1 (°C)	9.70T ext. ref 2 (°C)	21.42length (m)	temperature (°C)	Stokes	anti-Stokes-747.200	-200.000	-0.042	0.212
-746.185	-56.531	-0.174	-0.077
-745.171	-200.000	-0.019	-0.457
-744.156	-174.254	-0.336	0.010
-743.142	-200.000	-0.057	0.259
-742.127	-35.745	-0.429	0.233
-741.112	238.590	-0.195	-0.326
-740.098	-200.000	-0.005	-0.062
-739.083	54.391	-0.087	-0.084
-738.069	460.495	0.054	-0.120
-737.054	3.677	0.171	0.125
-736.039	-200.000	0.003	-0.140
-735.025	4.533	-0.235	0.173
-734.010	-200.000	-0.005	-0.119
-732.996	800.000	-0.053	0.209
-731.981	-200.000	-0.013	-0.108
-730.966	-200.000	-0.014	-0.236
-729.952	26.421	-0.163	-0.136
-728.937	-97.915	0.150	-0.039
-727.923	204.473	0.062	0.096
-726.908	-121.995	0.113	0.019
-725.894	-200.000	0.064	-0.507
-724.879	800.000	-0.118	-0.368
-723.864	249.688	0.126	-0.215
-722.850	-141.826	-0.311	0.031
-721.835	-200.000	0.005	0.063
-720.821	-48.585	0.139	0.067
-719.806	-3.186	-0.173	-0.121
-718.791	-200.000	-0.018	-0.307
-717.777	268.569	0.070	-0.123
-716.762	-200.000	-0.033	0.171
-715.748	-8.291	-0.168	0.113
-714.733	800.000	-0.118	0.343
-713.718	-200.000	0.097	0.475
-712.704	-200.000	-0.052	0.307
-711.689	800.000	0.099	0.277
-710.675	-46.423	-0.255	0.126
-709.660	-119.959	-0.145	0.025
-708.645	800.000	-0.078	0.307
-707.631	-200.000	0.012	-0.253
-706.616	-57.854	0.093	-0.041
-705.602	95.839	-0.085	-0.098
-704.587	-108.209	0.194	-0.042
-703.572	-132.739	-0.171	-0.022
-702.558	221.740	-0.219	-0.352
-701.543	800.000	-0.093	-0.374
-700.529	-80.984	0.082	-0.027
-699.514	466.280	-0.054	0.121
-698.499	20.724	-0.070	-0.057
-697.485	252.064	0.140	0.238
-696.470	116.417	-0.043	-0.053
-695.456	22.450	0.192	-0.157
-694.441	-200.000	0.040	-0.186
-693.426	-200.000	0.018	-0.128
-692.412	-44.729	-0.047	0.024
-691.397	-58.250	-0.125	-0.055
-690.383	124.949	-0.133	-0.168
-689.368	18.367	-0.076	0.061
-688.354	114.530	0.225	-0.275
-687.339	-200.000	-0.000	-0.070
-686.324	-74.785	-0.091	0.033
-685.310	174.816	0.094	-0.136
-684.295	-121.170	-0.175	-0.029
-683.281	11.133	0.467	-0.358
-682.266	-179.013	-0.102	-0.002
-681.251	30.275	0.081	0.069
-680.237	21.101	-0.177	0.144
-679.222	260.152	0.016	0.028
-678.208	87.146	0.064	-0.071
-677.193	-200.000	-0.042	0.245
-676.178	159.327	-0.080	0.111
-675.164	-33.587	-0.242	-0.134
-674.149	448.724	-0.147	-0.324
-673.135	800.000	-0.074	-0.234
-672.120	-200.000	-0.037	0.162
-671.105	-171.573	0.094	-0.003
-670.091	602.217	0.108	-0.269
-669.076	-39.189	0.136	-0.072
-668.062	-81.002	0.224	0.074
-667.047	-7.012	-0.210	-0.142
-666.032	-133.426	-0.203	-0.026
-665.018	-54.992	0.119	-0.054
-664.003	-136.286	0.186	0.022
-662.989	456.830	-0.053	-0.117
-661.974	209.099	0.111	0.173
-660.959	800.000	-0.020	-0.084
-659.945	-200.000	0.002	-0.399
-658.930	-89.501	0.277	-0.081
-657.916	-92.816	-0.314	-0.088
-656.901	41.830	-0.242	-0.219
-655.886	33.214	-0.137	0.119
-654.872	731.161	-0.081	-0.215
-653.857	800.000	0.012	0.042
-652.843	-200.000	-0.025	0.226
-651.828	-82.471	-0.029	-0.009
-650.814	97.973	-0.231	-0.265
-649.799	800.000	-0.052	0.180
-648.784	-200.000	-0.008	0.092
-647.770	-107.064	0.145	-0.032
-646.755	-121.577	-0.365	0.061
-645.741	-200.000	-0.087	-0.413
-644.726	800.000	0.130	-0.483
-643.711	-59.896	-0.224	-0.096
-642.697	58.615	0.294	0.289
-641.682	39.800	-0.116	0.104
-640.668	-22.852	0.100	-0.060
-639.653	263.208	-0.044	0.077
-638.638	-182.885	-0.298	0.005
-637.624	-46.362	0.469	-0.230
-636.609	134.274	0.259	0.336
-635.595	-85.889	-0.111	-0.034
-634.580	-200.000	0.009	0.146
-633.565	668.333	0.052	0.135
-632.551	-53.626	0.232	0.106
-631.536	-44.593	-0.215	0.107
-630.522	-149.338	0.313	0.025
-629.507	179.821	0.010	0.015
-628.492	17.238	-0.207	0.164
-627.478	692.563	0.032	-0.084
-626.463	328.949	-0.036	-0.068
-625.449	-118.245	0.237	-0.042
-624.434	-34.688	-0.123	-0.067
-623.419	-181.539	-0.340	0.007
-622.405	-124.385	0.510	0.079
-621.390	-179.087	0.170	0.004
-620.376	466.961	0.070	-0.157
-619.361	-38.121	-0.278	-0.147
-618.346	-67.109	-0.192	-0.076
-617.332	-112.092	0.216	-0.043
-616.317	283.510	0.098	-0.175
-615.303	29.185	0.212	-0.180
-614.288	476.402	-0.176	-0.398
-613.273	114.718	-0.213	0.259
-612.259	-20.026	0.154	0.095
-611.244	800.000	-0.026	-0.104
-610.230	189.749	-0.095	-0.142
-609.215	800.000	0.022	-0.087
-608.201	-200.000	-0.045	-0.226
-607.186	-101.128	-0.164	0.040
-606.171	800.000	0.155	0.475
-605.157	-200.000	0.051	0.361
-604.142	800.000	0.059	0.252
-603.128	-87.567	-0.251	0.076
-602.113	-88.682	-0.114	0.034
-601.098	-103.126	0.181	0.043
-600.084	521.560	-0.053	-0.125
-599.069	-36.606	-0.375	0.201
-598.055	4.944	0.243	0.178
-597.040	66.860	-0.170	-0.173
-596.025	-143.402	0.051	-0.005
-595.011	135.205	-0.238	-0.309
-593.996	-200.000	0.032	-0.223
-592.982	0.239	0.137	-0.098
-591.967	381.990	0.142	-0.291
-590.952	-200.000	0.044	0.215
-589.938	24.295	-0.255	-0.210
-588.923	-84.100	-0.213	-0.068
-587.909	610.418	0.126	0.315
-586.894	101.130	0.084	-0.097
-585.879	72.669	-0.149	0.155
-584.865	118.194	0.048	0.059
-583.850	-99.279	-0.103	0.026
-582.836	602.441	-0.083	-0.206
-581.821	-111.652	0.158	-0.032
-580.806	-132.836	-0.186	-0.024
-579.792	619.466	-0.056	0.139
-578.777	-28.005	0.247	-0.143
-577.763	93.668	-0.093	0.105
-576.748	25.826	0.224	-0.186
-575.733	75.472	-0.122	-0.128
-574.719	-200.000	0.001	-0.068
-573.704	19.132	0.141	0.113
-572.690	-200.000	0.053	0.362
-571.675	-28.385	-0.077	0.044
-570.661	393.353	0.264	-0.547
-569.646	27.235	-0.088	-0.074
-568.631	-35.584	-0.214	-0.116
-567.617	-27.644	-0.272	0.157
-566.602	-16.044	-0.149	0.094
-565.588	673.418	0.061	0.158
-564.573	112.259	-0.204	-0.246
-563.558	-100.887	-0.162	0.040
-562.544	-109.314	-0.243	-0.051
-561.529	800.000	-0.028	0.122
-560.515	-200.000	0.015	-0.252
-559.500	744.194	0.052	-0.139
-558.485	-70.672	-0.289	0.109
-557.471	-120.372	0.187	0.032
-556.456	-53.806	0.319	-0.145
-555.442	-36.626	-0.244	0.131
-554.427	800.000	-0.040	0.110
-553.412	-110.864	-0.290	-0.059
-552.398	52.919	0.120	0.114
-551.383	-200.000	-0.056	0.274
-550.369	152.524	-0.130	0.177
-549.354	-172.589	0.099	0.003
-548.339	-200.000	-0.001	-0.086
-547.325	-200.000	-0.029	0.245
-546.310	-200.000	0.023	0.113
-545.296	-69.106	-0.277	-0.106
-544.281	-129.587	0.136	-0.019
-543.266	380.521	-0.101	-0.207
-542.252	-200.000	0.069	0.337
-541.237	118.112	0.122	0.150
-540.223	-200.000	0.003	0.060
-539.208	159.862	-0.029	0.040
-538.193	-15.022	0.228	0.146
-537.179	148.784	0.178	-0.239
-536.164	23.617	0.146	0.120
-535.150	627.227	0.015	-0.039
-534.135	-200.000	0.025	0.158
-533.121	-60.031	-0.179	-0.076
-532.106	98.641	-0.201	-0.230
-531.091	226.571	-0.096	-0.155
-530.077	159.937	-0.140	0.194
-529.062	81.694	0.199	-0.214
-528.048	800.000	0.015	0.060
-527.033	-56.229	0.073	-0.032
-526.018	82.791	0.098	0.106
-525.004	240.573	0.129	0.214
-523.989	466.604	0.140	-0.312
-522.975	-146.895	-0.277	-0.024
-521.960	-126.628	0.266	0.039
-520.945	-0.642	-0.099	-0.070
-519.931	-39.463	-0.323	0.168
-518.916	-75.299	0.260	0.092
-517.902	298.295	0.162	0.296
-516.887	-121.172	-0.469	0.078
-515.872	-44.979	0.456	0.226
-514.858	-73.258	0.226	-0.082
-513.843	-200.000	0.036	0.294
-512.829	-85.904	-0.400	0.123
-511.814	-45.219	-0.116	-0.057
-510.799	145.075	0.191	-0.254
-509.785	133.299	-0.166	-0.213
-508.770	108.204	-0.057	0.067
-507.756	184.266	0.056	0.083
-506.741	21.305	-0.203	-0.164
-505.726	-75.164	0.124	0.044
-504.712	44.862	0.324	-0.297
-503.697	78.765	-0.237	-0.252
-502.683	130.696	-0.197	0.251
-501.668	-168.489	0.189	-0.007
-500.653	375.193	0.099	-0.201
-499.639	216.641	-0.043	0.068
-498.624	-9.074	-0.073	-0.049
-497.610	-10.142	0.288	0.190
-496.595	-200.000	0.020	-0.253
-495.581	800.000	0.098	-0.279
-494.566	-191.222	-0.116	0.001
-493.551	48.259	-0.118	0.109
-492.537	141.379	0.211	-0.277
-491.522	-100.010	-0.239	0.059
-490.508	27.234	-0.093	0.078
-489.493	-117.153	-0.157	0.028
-488.478	-52.822	-0.199	0.091
-487.464	454.495	0.030	0.067
-486.449	37.207	0.232	-0.204
-485.435	31.493	-0.131	-0.112
-484.420	-87.295	-0.244	-0.073
-483.405	-136.221	0.298	0.035
-482.391	13.981	0.229	0.177
-481.376	800.000	0.060	0.229
-480.362	1.680	0.134	-0.096
-479.347	-200.000	0.090	0.503
-478.332	-66.072	-0.363	0.144
-477.318	-85.262	-0.213	0.066
-476.303	-94.077	0.166	-0.045
-475.289	176.142	0.169	-0.243
-474.274	-200.000	-0.066	0.301
-473.259	-46.231	-0.389	-0.190
-472.245	739.449	-0.036	-0.095
-471.230	800.000	-0.086	-0.331
-470.216	774.260	-0.036	-0.098
-469.201	800.000	0.165	0.627
-468.186	-200.000	0.002	0.052
-467.172	123.144	0.149	0.186
-466.157	-157.378	0.312	-0.019
-465.143	-126.745	0.161	-0.024
-464.128	98.155	-0.204	-0.234
-463.113	-106.180	-0.060	0.013
-462.099	-20.802	0.163	-0.099
-461.084	-200.000	-0.003	-0.501
-460.070	800.000	0.056	-0.155
-459.055	67.806	-0.270	0.274
-458.040	29.214	0.344	-0.289
-457.026	778.868	-0.076	-0.207
-456.011	-200.000	0.001	0.180
-454.997	-45.289	-0.081	0.040
-453.982	800.000	-0.009	0.029
-452.968	-35.343	0.072	-0.039
-451.953	-152.187	0.099	-0.007
-450.938	-31.096	-0.327	-0.183
-449.924	218.074	0.100	-0.158
-448.909	25.282	-0.242	0.199
-447.895	-100.076	0.297	0.073
-446.880	166.377	-0.233	0.328
-445.865	-180.985	-0.104	-0.002
-444.851	-39.462	-0.114	-0.059
-443.836	152.290	0.175	0.236
-442.822	-200.000	-0.008	-0.182
-441.807	241.661	-0.036	0.059
-440.792	-114.744	-0.051	-0.010
-439.778	461.975	-0.133	-0.293
-438.763	-67.028	-0.343	-0.134
-437.749	522.546	0.083	-0.194
-436.734	141.957	-0.122	0.160
-435.719	334.100	-0.033	-0.064
-434.705	800.000	0.052	0.146
-433.690	-200.000	0.004	-0.118
-432.676	164.312	-0.062	0.086
-431.661	125.957	-0.273	0.342
-430.646	-12.673	0.111	0.072
-429.632	-113.226	0.090	-0.018
-428.617	336.676	0.126	-0.243
-427.603	-200.000	0.021	-0.204
-426.588	-200.000	-0.015	-0.270
-425.573	26.550	-0.052	-0.043
-424.559	-175.601	0.240	-0.006
-423.544	139.078	0.209	0.272
-422.530	800.000	-0.144	-0.434
-421.515	-66.532	0.121	0.048
-420.500	-80.150	0.034	0.011
-419.486	-141.322	-0.286	0.029
-418.471	-9.191	0.168	-0.111
-417.457	533.308	-0.069	0.162
-416.442	800.000	0.057	0.244
-415.428	-72.627	0.079	-0.029
-414.413	-200.000	-0.046	-0.240
-413.398	18.885	0.251	0.199
-412.384	-44.353	-0.124	-0.061
-411.369	41.693	0.276	0.248
-410.355	-25.671	-0.184	0.107
-409.340	-36.916	-0.247	-0.131
-408.325	147.699	-0.137	0.183
-407.311	-200.000	-0.008	-0.091
-406.296	715.100	-0.026	0.069
-405.282	144.380	0.024	-0.031
-404.267	528.658	0.190	0.443
-403.252	-41.537	-0.401	0.204
-402.238	-200.000	0.019	-0.176
-401.223	-81.752	0.027	-0.009
-400.209	-200.000	-0.024	0.156
-399.194	-45.193	0.137	0.067
-398.179	124.128	-0.197	0.245
-397.165	6.467	0.146	-0.108
-396.150	-200.000	-0.011	0.151
-395.136	-54.403	-0.367	0.165
-394.121	-83.727	-0.028	-0.009
-393.106	-106.529	-0.112	0.025
-392.092	-91.795	-0.338	-0.095
-391.077	-191.342	-0.118	-0.001
-390.063	9.369	0.131	-0.098
-389.048	-128.727	0.136	-0.019
-388.033	-189.385	0.325	-0.004
-387.019	328.763	-0.014	-0.027
-386.004	-72.338	0.192	0.070
-384.990	-94.111	0.314	0.085
-383.975	71.998	0.100	0.103
-382.960	-160.985	-0.106	-0.005
-381.946	625.625	0.149	0.373
-380.931	48.649	0.280	0.259
-379.917	-113.896	-0.172	-0.033
-378.902	-124.962	0.093	-0.014
-377.888	-200.000	0.024	-0.189
-376.873	-187.687	-0.239	0.003
-375.858	800.000	-0.057	0.169
-374.844	-200.000	0.050	0.348
-373.829	-177.103	-0.147	0.004
-372.815	-200.000	0.003	-0.133
-371.800	-200.000	-0.104	-0.556
-370.785	14.748	-0.224	0.173
-369.771	576.014	-0.032	0.077
-368.756	19.154	0.416	0.330
-367.742	389.484	0.109	-0.224
-366.727	-107.352	-0.311	-0.068
-365.712	663.050	-0.044	0.113
-364.698	11.117	-0.349	-0.264
-363.683	176.293	0.039	-0.056
-362.669	-43.667	-0.053	-0.026
-361.654	-40.186	-0.204	-0.105
-360.639	-200.000	0.047	-0.254
-359.625	276.562	0.067	0.118
-358.610	-59.860	0.143	-0.061
-357.596	800.000	0.058	0.180
-356.581	-200.000	-0.026	0.146
-355.566	-14.641	-0.312	0.198
-354.552	-200.000	-0.024	-0.121
-353.537	307.630	0.084	0.154
-352.523	210.544	-0.227	0.352
-351.508	-3.823	-0.063	-0.043
-350.493	-8.631	0.234	-0.155
-349.479	374.797	-0.056	-0.112
-348.464	535.998	-0.139	-0.327
-347.450	208.045	0.198	-0.306
-346.435	-200.000	0.072	-0.352
-345.420	319.400	0.121	0.226
-344.406	-200.000	0.033	0.239
-343.391	156.466	-0.149	-0.203
-342.377	137.581	0.082	-0.105
-341.362	-138.131	-0.518	-0.057
-340.348	-200.000	0.043	-0.246
-339.333	-31.117	0.216	-0.120
-338.318	-4.662	-0.170	0.116
-337.304	-76.812	-0.169	-0.058
-336.289	-117.530	-0.120	0.021
-335.275	137.264	0.228	-0.294
-334.260	-143.209	-0.208	-0.020
-333.245	54.002	0.130	-0.123
-332.231	-61.124	-0.192	0.080
-331.216	-144.517	-0.063	0.006
-330.202	101.340	-0.230	-0.264
-329.187	753.612	-0.086	0.229
-328.172	544.004	0.101	-0.237
-327.158	-200.000	0.001	0.019
-326.143	-120.155	0.162	-0.027
-325.129	-197.030	-0.246	0.002
-324.114	503.053	-0.174	0.398
-323.099	800.000	0.078	-0.271
-322.085	-12.575	-0.031	0.020
-321.070	800.000	0.038	-0.116
-320.056	-98.167	0.251	-0.064
-319.041	-51.276	0.263	-0.122
-318.026	251.609	0.033	0.056
-317.012	4.904	-0.203	-0.147
-315.997	-84.614	-0.158	0.049
-314.983	-200.000	-0.028	-0.345
-313.968	800.000	0.050	-0.190
-312.953	-80.805	-0.122	-0.040
-311.939	91.636	-0.208	0.230
-310.924	-122.005	0.139	-0.022
-309.910	27.330	0.373	-0.309
-308.895	-200.000	-0.040	-0.216
-307.880	-146.912	-0.080	0.007
-306.866	-200.000	-0.053	-0.252
-305.851	-200.000	0.032	-0.153
-304.837	755.656	0.085	-0.226
-303.822	800.000	-0.049	-0.183
-302.807	367.705	0.059	-0.117
-301.793	0.268	-0.094	-0.066
-300.778	-111.208	0.154	0.031
-299.764	-103.747	-0.612	-0.141
-298.749	800.000	-0.041	0.132
-297.735	167.601	0.097	0.136
-296.720	-78.791	0.117	0.039
-295.705	-200.000	0.078	0.421
-294.691	229.001	0.095	0.152
-293.676	439.603	-0.146	0.314
-292.662	145.386	0.091	-0.120
-291.647	-154.857	-0.326	0.021
-290.632	70.739	-0.074	-0.075
-289.618	1.097	0.262	-0.185
-288.603	-91.890	-0.195	-0.055
-287.589	-46.437	-0.181	-0.088
-286.574	67.993	-0.076	0.076
-285.559	-168.479	0.393	-0.015
-284.545	395.834	0.019	0.038
-283.530	-200.000	-0.019	0.123
-282.516	-159.040	0.155	-0.009
-281.501	164.354	0.140	-0.194
-280.486	-33.617	0.106	-0.058
-279.472	69.215	-0.186	0.189
-278.457	613.324	-0.041	0.100
-277.443	800.000	0.070	-0.280
-276.428	63.210	0.204	-0.201
-275.413	-178.796	-0.112	0.003
-274.399	-46.081	0.162	-0.079
-273.384	488.929	0.178	0.401
-272.370	-16.956	-0.194	-0.121
-271.355	-20.815	-0.276	0.167
-270.340	39.061	-0.119	0.105
-269.326	100.986	0.144	0.165
-268.311	18.533	0.215	0.169
-267.297	-200.000	-0.040	0.260
-266.282	57.171	0.224	0.215
-265.267	602.241	0.102	-0.249
-264.253	-200.000	0.015	0.078
-263.238	36.785	-0.160	-0.139
-262.224	381.822	-0.078	-0.157
-261.209	107.721	-0.178	-0.209
-260.195	-73.071	0.292	0.106
-259.180	-64.072	-0.240	0.096
-258.165	-39.712	0.526	0.271
-257.151	-200.000	-0.006	-0.069
-256.136	800.000	-0.063	-0.180
-255.122	-161.371	0.341	-0.017
-254.107	800.000	0.055	-0.153
-253.092	-117.883	-0.343	-0.061
-252.078	215.634	0.187	0.292
-251.063	-94.930	0.168	-0.045
-250.049	-200.000	-0.050	0.296
-249.034	800.000	0.091	0.300
-248.019	-9.874	-0.351	0.230
-247.005	174.904	-0.231	0.329
-245.990	301.038	0.123	-0.224
-244.976	-97.430	0.137	0.035
-243.961	376.169	-0.113	0.226
-242.946	800.000	-0.125	-0.340
-241.932	-200.000	-0.014	-0.068
-240.917	-200.000	0.004	0.042
-239.903	265.883	-0.059	-0.101
-238.888	380.242	0.176	0.355
-237.873	-168.179	0.293	-0.011
-236.859	-111.502	0.230	0.046
-235.844	350.677	0.068	0.132
-234.830	30.342	0.253	0.213
-233.815	-63.786	-0.087	0.035
-232.800	-200.000	-0.048	-0.459
-231.786	-200.000	0.004	-0.176
-230.771	-77.786	0.432	0.147
-229.757	8.174	0.027	-0.020
-228.742	633.158	0.089	-0.222
-227.727	-89.971	0.207	0.059
-226.713	-121.894	0.143	-0.023
-225.698	4.929	-0.303	0.219
-224.684	-166.418	0.166	-0.007
-223.669	-158.717	-0.073	0.004
-222.655	208.501	0.123	0.189
-221.640	144.434	-0.261	0.342
-220.625	-132.521	0.473	0.060
-219.611	404.306	-0.059	0.122
-218.596	-126.577	-0.339	-0.049
-217.582	-93.390	-0.307	0.084
-216.567	800.000	-0.162	-0.505
-215.552	-28.281	0.128	-0.073
-214.538	800.000	0.109	0.312
-213.523	113.222	0.154	0.184
-212.509	371.351	0.017	0.035
-211.494	-200.000	0.058	0.365
-210.479	-200.000	-0.009	0.222
-209.465	800.000	0.062	-0.179
-208.450	32.412	-0.108	0.092
-207.436	-200.000	-0.027	0.166
-206.421	800.000	0.065	0.194
-205.406	75.016	0.320	0.331
-204.392	-66.289	-0.245	0.096
-203.377	-60.930	-0.170	-0.071
-202.363	-200.000	-0.025	-0.304
-201.348	46.723	0.122	0.111
-200.333	-97.809	0.261	-0.066
-199.319	77.993	0.068	-0.071
-198.304	33.638	-0.052	0.044
-197.290	-32.697	0.105	-0.058
-196.275	206.546	-0.094	0.144
-195.260	-200.000	0.002	0.172
-194.246	-55.152	-0.172	-0.076
-193.231	-122.320	0.293	0.047
-192.217	14.655	0.033	0.025
-191.202	-67.878	0.059	-0.022
-190.187	15.162	-0.242	0.186
-189.173	383.226	0.045	0.091
-188.158	-11.500	0.285	-0.184
-187.144	-150.732	0.257	-0.019
-186.129	-200.000	-0.012	0.180
-185.114	-72.522	0.332	-0.120
-184.100	800.000	-0.038	0.125
-183.085	8.762	-0.116	0.086
-182.071	312.322	0.100	0.184
-181.056	-200.000	-0.032	-0.183
-180.042	305.156	0.091	-0.167
-179.027	77.167	0.243	-0.253
-178.012	-94.822	0.111	-0.030
-176.998	-87.362	0.171	0.051
-175.983	-200.000	-0.018	-0.273
-174.969	-21.672	0.342	-0.205
-173.954	-200.000	-0.004	-0.293
-172.939	-66.450	-0.260	-0.101
-171.925	-200.000	-0.023	-0.182
-170.910	-97.587	-0.260	-0.066
-169.896	800.000	0.036	0.118
-168.881	-200.000	-0.053	-0.535
-167.866	-174.056	0.217	0.006
-166.852	608.031	0.012	0.029
-165.837	-59.232	-0.128	-0.054
-164.823	-76.094	-0.243	0.084
-163.808	-106.716	-0.348	-0.076
-162.793	-118.868	0.234	-0.040
-161.779	-44.491	0.070	-0.034
-160.764	528.485	-0.041	-0.094
-159.750	468.002	0.213	0.469
-158.735	450.894	0.059	0.128
-157.720	-200.000	0.025	-0.337
-156.706	187.452	-0.038	0.055
-155.691	-200.000	-0.023	-0.103
-154.677	-37.046	-0.064	0.034
-153.662	760.633	0.072	0.191
-152.647	-104.522	-0.135	-0.031
-151.633	800.000	0.047	-0.181
-150.618	150.094	0.139	0.185
-149.604	-101.565	-0.133	-0.032
-148.589	-58.882	-0.253	-0.107
-147.574	-78.811	-0.205	-0.069
-146.560	327.036	-0.010	-0.019
-145.545	94.725	-0.218	-0.243
-144.531	41.724	-0.026	0.023
-143.516	-200.000	0.023	-0.147
-142.502	-200.000	-0.017	-0.176
-141.487	-55.523	-0.143	-0.063
-140.472	-81.748	0.484	-0.156
-139.458	-131.334	0.097	0.013
-138.443	-65.489	0.365	0.144
-137.429	-53.384	-0.362	-0.163
-136.414	221.064	0.116	0.182
-135.399	-91.432	0.283	0.079
-134.385	800.000	-0.047	-0.135
-133.370	-92.142	-0.058	0.016
-132.356	646.260	0.175	0.438
-131.341	-28.116	0.136	-0.077
-130.326	1.812	0.057	0.040
-129.312	-4.299	0.072	0.049
-128.297	-103.013	-0.110	-0.026
-127.283	18.053	0.058	-0.045
-126.268	-200.000	-0.015	-0.147
-125.253	-38.001	-0.194	-0.101
-124.239	89.446	-0.171	-0.187
-123.224	91.849	0.058	-0.064
-122.210	30.471	0.117	0.098
