DTS Sentinel unit serial number:	SN413079Multiplexer serial number:	ORYXHardware model number:	OX4-SRSoftware version number:	ORYX F/W v4.00 Oryx Data Collector v3.7.2.0data status	okinstallation	princeton_trtdifferential loss correction	single-endedforward channel	channel 3reverse channel	N/Adate	2019/09/18time	05:04:35forward acquisition time	60.00reverse acquisition time	0.00gamma	496.2192k internal	0.2342k external	0.2342temperature offset calibration	0.9948default loss term (dB/km)	0.3790temperature slope calibration	1.0000multiplexer offset coefficient	1.0000multiplexer slope coefficient	1.0000fibre end	0.00T internal ref (°C)	23.50T ext. ref 1 (°C)	0.19T ext. ref 2 (°C)	17.68length (m)	temperature (°C)	Stokes	anti-Stokes-747.200	-2.540	-0.153	0.107
-746.185	247.314	0.014	0.024
-745.171	-97.779	0.156	-0.041
-744.156	213.131	-0.093	0.147
-743.142	404.075	-0.148	0.312
-742.127	-13.547	-0.191	0.124
-741.112	46.447	-0.162	-0.150
-740.098	121.844	-0.253	0.316
-739.083	-200.000	0.007	-0.374
-738.069	11.315	0.067	0.051
-737.054	609.859	0.067	0.167
-736.039	32.167	-0.340	0.294
-735.025	-108.001	0.499	-0.108
-734.010	427.745	-0.130	-0.282
-732.996	92.239	-0.076	-0.086
-731.981	-200.000	0.091	-0.432
-730.966	-93.424	-0.223	0.062
-729.952	-54.595	-0.111	0.050
-728.937	-102.121	-0.134	0.032
-727.923	-200.000	-0.039	0.268
-726.908	-200.000	0.044	-0.268
-725.894	-28.550	-0.538	-0.310
-724.879	457.025	-0.045	0.100
-723.864	83.834	0.105	-0.115
-722.850	59.256	0.223	-0.220
-721.835	-200.000	0.005	0.084
-720.821	115.137	0.053	0.065
-719.806	-169.300	-0.383	0.014
-718.791	-86.662	-0.205	-0.063
-717.777	58.221	0.036	-0.035
-716.762	-84.275	0.347	0.110
-715.748	-69.961	-0.082	-0.031
-714.733	-97.271	-0.238	0.062
-713.718	-107.263	-0.084	0.019
-712.704	-200.000	-0.013	0.066
-711.689	468.859	0.119	0.267
-710.675	157.554	0.215	-0.298
-709.660	110.826	0.305	-0.367
-708.645	154.602	0.156	0.214
-707.631	211.958	-0.117	0.185
-706.616	-96.560	-0.238	-0.063
-705.602	-4.597	-0.217	-0.150
-704.587	800.000	0.045	-0.141
-703.572	-17.028	0.115	-0.073
-702.558	800.000	0.051	-0.169
-701.543	800.000	0.083	0.278
-700.529	-45.944	0.358	-0.177
-699.514	-200.000	-0.036	0.239
-698.499	53.465	0.190	-0.182
-697.485	766.110	0.026	-0.071
-696.470	-55.657	-0.472	-0.211
-695.456	-75.485	-0.235	0.084
-694.441	-39.180	-0.319	-0.168
-693.426	287.695	0.089	0.162
-692.412	-20.962	0.216	0.132
-691.397	411.847	-0.127	-0.269
-690.383	-119.816	0.032	0.006
-689.368	-52.091	-0.332	0.154
-688.354	-55.660	-0.323	0.144
-687.339	23.733	0.137	-0.113
-686.324	11.233	0.125	-0.096
-685.310	-18.379	-0.045	0.028
-684.295	-200.000	0.007	-0.169
-683.281	53.060	-0.054	-0.051
-682.266	-183.104	-0.213	-0.004
-681.251	47.097	-0.113	-0.105
-680.237	21.733	-0.157	0.128
-679.222	-49.562	0.140	-0.067
-678.208	800.000	-0.117	0.380
-677.193	61.244	0.411	-0.408
-676.178	51.870	-0.294	0.280
-675.164	168.205	-0.190	-0.270
-674.149	-16.019	-0.214	-0.136
-673.135	137.628	0.086	0.112
-672.120	-200.000	-0.028	0.156
-671.105	145.139	-0.120	-0.160
-670.091	610.968	-0.138	-0.344
-669.076	-200.000	0.007	0.140
-668.062	283.900	-0.192	0.344
-667.047	800.000	-0.044	0.150
-666.032	564.559	-0.024	-0.059
-665.018	-112.063	0.219	0.044
-664.003	-111.243	0.205	0.042
-662.989	3.221	-0.176	0.128
-661.974	-66.064	0.224	-0.089
-660.959	-200.000	-0.039	0.335
-659.945	43.623	-0.014	-0.013
-658.930	0.065	0.269	0.191
-657.916	-182.559	0.344	-0.006
-656.901	-200.000	0.078	-0.362
-655.886	-128.294	-0.212	-0.030
-654.872	-200.000	0.010	-0.214
-653.857	157.716	-0.157	-0.217
-652.843	800.000	-0.034	0.150
-651.828	78.476	-0.234	0.250
-650.814	-178.094	0.089	0.002
-649.799	71.727	-0.293	-0.304
-648.784	177.176	0.091	-0.132
-647.770	571.095	-0.101	-0.245
-646.755	-141.087	-0.080	0.008
-645.741	14.486	-0.077	-0.060
-644.726	-200.000	-0.023	0.133
-643.711	-29.696	-0.314	-0.179
-642.697	240.165	0.108	0.180
-641.682	-33.841	-0.137	-0.076
-640.668	220.089	0.120	-0.192
-639.653	-200.000	0.015	-0.268
-638.638	-200.000	0.024	0.155
-637.624	100.591	0.055	0.063
-636.609	116.420	-0.220	-0.269
-635.595	0.754	-0.276	-0.197
-634.580	800.000	-0.076	0.316
-633.565	-121.680	0.197	-0.033
-632.551	368.888	-0.094	0.190
-631.536	134.523	-0.211	0.274
-630.522	93.303	-0.128	0.144
-629.507	-200.000	0.005	-0.145
-628.492	596.573	0.065	0.162
-627.478	118.854	0.124	-0.153
-626.463	16.668	0.130	-0.103
-625.449	-50.368	-0.326	0.154
-624.434	149.169	0.143	0.194
-623.419	-90.930	-0.212	0.061
-622.405	-60.820	-0.187	-0.079
-621.390	-200.000	0.031	0.182
-620.376	-16.007	0.285	-0.181
-619.361	26.690	-0.322	0.269
-618.346	800.000	0.042	-0.132
-617.332	-161.876	0.398	0.020
-616.317	-200.000	-0.033	-0.203
-615.303	-98.014	-0.024	0.006
-614.288	-101.423	0.271	0.066
-613.273	-85.969	0.114	-0.035
-612.259	355.798	-0.072	0.143
-611.244	-200.000	0.033	0.165
-610.230	238.692	0.100	-0.166
-609.215	800.000	-0.038	-0.112
-608.201	-53.885	-0.165	0.075
-607.186	375.464	0.105	-0.212
-606.171	207.759	0.054	-0.084
-605.157	-200.000	-0.003	-0.285
-604.142	-83.924	-0.191	-0.061
-603.128	800.000	-0.088	0.289
-602.113	-33.661	-0.364	0.200
-601.098	68.702	0.169	-0.173
-600.084	-176.182	-0.143	0.004
-599.069	137.952	0.206	0.269
-598.055	426.699	0.083	0.178
-597.040	343.254	0.169	0.329
-596.025	-155.381	-0.183	-0.012
-595.011	258.791	0.227	-0.389
-593.996	800.000	-0.097	0.414
-592.982	596.758	-0.076	-0.186
-591.967	217.352	-0.062	0.099
-590.952	-200.000	-0.074	-0.339
-589.938	800.000	-0.040	0.118
-588.923	0.798	0.300	0.214
-587.909	-200.000	0.069	0.388
-586.894	515.440	-0.044	-0.103
-585.879	-200.000	-0.054	0.298
-584.865	471.909	-0.146	0.328
-583.850	85.255	0.237	-0.259
-582.836	-158.386	-0.129	-0.007
-581.821	490.168	-0.050	0.114
-580.806	-38.217	-0.204	-0.108
-579.792	-200.000	0.007	0.127
-578.777	-110.404	-0.262	-0.054
-577.763	-85.803	0.143	-0.044
-576.748	484.722	0.103	-0.234
-575.733	45.287	0.165	-0.152
-574.719	-60.666	0.094	-0.040
-573.704	-106.757	-0.138	0.030
-572.690	16.277	-0.259	-0.203
-571.675	38.455	0.327	-0.290
-570.661	521.151	-0.112	-0.261
-569.646	169.417	-0.085	0.121
-568.631	-138.556	-0.248	0.027
-567.617	-35.485	0.350	0.189
-566.602	-40.424	-0.243	-0.125
-565.588	-200.000	-0.002	-0.027
-564.573	-200.000	0.020	-0.141
-563.558	365.665	-0.096	-0.193
-562.544	254.169	-0.144	0.244
-561.529	47.590	-0.038	-0.036
-560.515	87.505	-0.286	-0.315
-559.500	-12.127	0.169	-0.110
-558.485	800.000	-0.020	0.057
-557.471	202.832	0.159	-0.244
-556.456	225.385	0.143	0.230
-555.442	595.740	0.045	-0.111
-554.427	800.000	-0.021	0.067
-553.412	-200.000	-0.007	-0.096
-552.398	413.688	-0.078	-0.166
-551.383	-60.196	-0.055	0.023
-550.369	169.882	-0.118	0.168
-549.354	800.000	0.085	0.320
-548.339	-200.000	-0.008	-0.127
-547.325	-51.880	0.100	-0.046
-546.310	-131.908	0.311	0.040
-545.296	9.892	-0.186	0.140
-544.281	-139.412	-0.191	-0.020
-543.266	-9.290	0.103	-0.068
-542.252	-62.685	0.148	0.061
-541.237	-200.000	0.002	0.070
-540.223	-92.160	-0.124	-0.035
-539.208	-66.275	-0.238	-0.094
-538.193	-200.000	0.004	-0.186
-537.179	-85.716	0.107	0.033
-536.164	800.000	-0.031	-0.088
-535.150	67.656	-0.135	0.137
-534.135	-18.788	-0.172	0.107
-533.121	-106.359	-0.258	-0.057
-532.106	207.843	0.191	-0.296
-531.091	240.202	-0.090	0.149
-530.077	69.249	0.317	0.324
-529.062	-126.831	-0.408	-0.060
-528.048	-101.822	-0.190	0.046
-527.033	164.403	-0.133	-0.186
-526.018	62.662	-0.340	0.338
-525.004	-88.377	-0.291	0.086
-523.989	12.894	-0.191	-0.146
-522.975	-200.000	-0.015	-0.072
-521.960	-100.487	0.256	-0.063
-520.945	472.865	0.079	0.177
-519.931	800.000	0.062	-0.265
-518.916	-49.903	-0.221	-0.104
-517.902	800.000	-0.055	0.161
-516.887	-200.000	-0.000	-0.101
-515.872	172.533	-0.101	0.145
-514.858	800.000	0.122	-0.337
-513.843	53.693	-0.219	0.208
-512.829	800.000	0.042	-0.121
-511.814	800.000	-0.031	-0.136
-510.799	-200.000	0.058	-0.254
-509.785	81.848	0.368	0.395
-508.770	-79.869	0.137	0.046
-507.756	-169.923	-0.207	0.007
-506.741	-80.796	0.369	0.121
-505.726	-200.000	0.006	0.052
-504.712	236.213	0.105	-0.172
-503.697	800.000	0.045	0.126
-502.683	-62.730	-0.393	-0.162
-501.668	195.784	0.063	0.095
-500.653	73.099	0.201	-0.209
-499.639	-200.000	0.016	0.408
-498.624	-35.055	-0.112	0.061
-497.610	-91.262	0.116	-0.033
-496.595	27.006	-0.236	-0.197
-495.581	57.353	-0.096	-0.093
-494.566	-200.000	-0.023	-0.328
-493.551	130.223	0.167	0.212
-492.537	84.899	-0.155	0.168
-491.522	121.451	-0.261	-0.323
-490.508	-76.647	-0.198	-0.069
-489.493	-200.000	-0.009	-0.241
-488.478	68.141	0.085	0.086
-487.464	118.281	-0.159	0.195
-486.449	86.124	-0.157	-0.172
-485.435	71.996	-0.153	0.158
-484.420	144.009	-0.120	-0.159
-483.405	-32.957	0.080	-0.044
-482.391	237.909	-0.160	-0.263
-481.376	-139.322	0.250	0.027
-480.362	-76.299	0.121	-0.042
-479.347	-9.231	0.219	0.145
-478.332	-116.845	0.107	-0.019
-477.318	39.016	-0.110	-0.097
-476.303	61.451	0.141	-0.139
-475.289	-200.000	0.019	0.233
-474.274	800.000	-0.113	0.354
-473.259	-72.450	-0.294	0.108
-472.245	-198.010	-0.197	-0.001
-471.230	-200.000	0.021	0.449
-470.216	50.344	0.256	-0.240
-469.201	-90.779	-0.131	0.037
-468.186	-69.741	-0.215	-0.081
-467.172	-42.935	0.372	0.187
-466.157	-80.047	-0.260	-0.087
-465.143	-88.323	0.426	-0.126
-464.128	-200.000	0.028	-0.430
-463.113	686.675	0.105	0.271
-462.099	-200.000	0.116	-0.001
-461.084	-200.000	-0.015	-0.231
-460.070	579.044	-0.093	0.225
-459.055	-61.957	0.195	-0.081
-458.040	-132.539	-0.257	-0.033
-457.026	64.570	0.278	-0.278
-456.011	-49.366	0.443	0.210
-454.997	800.000	-0.053	-0.211
-453.982	-3.405	0.240	0.165
-452.968	141.235	-0.047	-0.062
-451.953	800.000	0.066	0.197
-450.938	-81.567	-0.311	-0.101
-449.924	-142.166	-0.188	0.018
-448.909	800.000	-0.030	-0.114
-447.895	-112.776	0.203	-0.040
-446.880	-200.000	0.011	-0.102
-445.865	607.456	-0.001	0.002
-444.851	-200.000	0.049	0.256
-443.836	-31.971	0.276	-0.153
-442.822	-7.439	0.267	-0.179
-441.807	179.898	-0.194	0.281
-440.792	-200.000	-0.012	-0.080
-439.778	-200.000	0.027	-0.195
-438.763	214.878	-0.092	-0.144
-437.749	-76.893	0.094	-0.032
-436.734	-50.130	-0.054	0.025
-435.719	132.445	-0.166	0.212
-434.705	18.937	0.172	-0.137
-433.690	-0.395	-0.290	-0.204
-432.676	-135.179	-0.198	0.024
-431.661	800.000	0.042	-0.124
-430.646	0.220	-0.113	-0.080
-429.632	-90.833	-0.179	-0.051
-428.617	-103.730	-0.200	0.046
-427.603	-91.631	-0.115	0.032
-426.588	70.507	-0.152	-0.156
-425.573	-85.767	-0.129	0.039
-424.559	-137.463	0.237	-0.026
-423.544	64.533	0.082	-0.082
-422.530	800.000	-0.120	0.335
-421.515	800.000	0.027	-0.099
-420.500	-111.031	0.372	-0.076
-419.486	-36.517	0.187	-0.099
-418.471	-41.706	0.418	0.212
-417.457	503.990	0.108	0.248
-416.442	272.096	-0.068	-0.119
-415.428	54.538	0.201	-0.192
-414.413	-12.374	0.135	-0.087
-413.398	-200.000	0.039	-0.371
-412.384	-200.000	0.042	-0.274
-411.369	-41.607	0.367	-0.186
-410.355	800.000	0.060	0.180
-409.340	-91.617	0.201	0.057
-408.325	-140.219	0.344	-0.036
-407.311	236.321	-0.194	0.317
-406.296	-200.000	0.013	0.200
-405.282	41.722	-0.058	-0.052
-404.267	-126.262	-0.227	-0.034
-403.252	-200.000	0.024	0.172
-402.238	800.000	-0.078	0.268
-401.223	136.582	-0.065	-0.083
-400.209	-68.969	0.197	0.075
-399.194	-89.698	0.229	-0.066
-398.179	-53.440	0.383	-0.173
-397.165	-113.043	0.076	-0.015
-396.150	-200.000	0.004	-0.036
-395.136	168.276	-0.232	0.326
-394.121	-123.211	-0.134	-0.021
-393.106	-200.000	0.009	0.093
-392.092	-200.000	0.021	0.150
-391.077	10.963	0.138	-0.104
-390.063	-134.226	0.203	-0.025
-389.048	-200.000	-0.012	0.076
-388.033	53.824	-0.239	0.227
-387.019	-200.000	0.020	-0.249
-386.004	-86.667	-0.304	0.092
-384.990	-97.494	-0.082	-0.021
-383.975	485.484	-0.125	0.280
-382.960	800.000	0.033	0.120
-381.946	3.373	-0.029	0.021
-380.931	-53.228	-0.236	0.107
-379.917	-200.000	-0.002	0.223
-378.902	131.926	-0.144	-0.183
-377.888	19.862	0.085	0.068
-376.873	-200.000	-0.003	0.188
-375.858	-99.315	0.163	0.041
-374.844	-178.513	-0.161	-0.004
-373.829	-56.461	0.079	-0.035
-372.815	207.101	0.087	0.134
-371.800	421.444	0.034	0.073
-370.785	800.000	-0.102	-0.337
-369.771	800.000	-0.117	0.404
-368.756	-87.522	-0.020	0.006
-367.742	-15.014	-0.214	-0.135
-366.727	-200.000	-0.020	0.209
-365.712	-124.902	0.321	0.049
-364.698	-40.225	0.185	-0.095
-363.683	-46.574	-0.164	0.080
-362.669	-97.466	-0.209	0.054
-361.654	454.683	0.082	0.179
-360.639	800.000	-0.077	0.301
-359.625	-200.000	0.007	-0.186
-358.610	-136.576	0.105	-0.012
-357.596	800.000	-0.103	-0.347
-356.581	-42.325	0.307	-0.155
-355.566	12.236	-0.064	0.049
-354.552	161.029	-0.100	-0.138
-353.537	-200.000	0.019	-0.256
-352.523	327.368	-0.085	0.160
-351.508	380.114	-0.120	0.243
-350.493	9.253	-0.258	0.192
-349.479	-200.000	-0.001	-0.053
-348.464	27.021	-0.140	-0.116
-347.450	2.367	0.439	0.313
-346.435	-48.397	-0.143	0.068
-345.420	-46.745	-0.090	-0.044
-344.406	101.752	-0.068	-0.079
-343.391	-200.000	0.009	-0.211
-342.377	-125.107	-0.216	-0.033
-341.362	390.547	-0.071	0.146
-340.348	581.317	-0.093	-0.225
-339.333	-200.000	-0.021	-0.285
-338.318	133.074	-0.087	0.111
-337.304	24.917	0.430	-0.352
-336.289	315.989	0.106	-0.198
-335.275	-200.000	0.038	-0.336
-334.260	-200.000	-0.073	-0.328
-333.245	-63.499	-0.151	-0.061
-332.231	800.000	0.130	0.384
-331.216	-50.824	0.104	-0.048
-330.202	-59.858	-0.050	0.021
-329.187	-25.149	0.121	0.071
-328.172	1.131	0.143	-0.101
-327.158	-154.326	-0.180	0.012
-326.143	523.002	0.083	-0.193
-325.129	43.458	-0.041	-0.037
-324.114	-1.899	-0.063	-0.043
-323.099	110.648	-0.272	-0.322
-322.085	-8.542	0.220	-0.145
-321.070	-44.628	-0.035	0.017
-320.056	-56.157	-0.022	-0.009
-319.041	37.742	0.122	-0.107
-318.026	-200.000	-0.011	0.104
-317.012	75.258	0.085	0.089
-315.997	-200.000	-0.012	0.063
-314.983	800.000	0.109	-0.347
-313.968	800.000	-0.037	0.135
-312.953	800.000	-0.076	0.305
-311.939	212.936	0.165	0.257
-310.924	-119.821	0.202	0.034
-309.910	-155.389	0.139	-0.009
-308.895	800.000	0.073	0.281
-307.880	131.389	-0.164	0.207
-306.866	12.378	0.174	0.132
-305.851	217.137	-0.096	-0.150
-304.837	800.000	-0.091	-0.381
-303.822	578.653	0.015	-0.037
-302.807	431.283	-0.162	-0.345
-301.793	800.000	0.035	0.149
-300.778	-200.000	0.026	-0.315
-299.764	-45.799	-0.119	-0.058
-298.749	-200.000	-0.008	0.045
-297.735	-200.000	0.022	0.165
-296.720	-41.378	0.214	0.108
-295.705	169.444	-0.256	-0.359
-294.691	-165.567	0.244	-0.010
-293.676	-20.369	-0.200	-0.121
-292.662	-5.253	0.123	0.083
-291.647	-47.066	-0.162	0.078
-290.632	376.849	0.050	0.100
-289.618	-200.000	-0.022	-0.096
-288.603	450.395	-0.084	0.182
-287.589	-51.436	0.295	-0.136
-286.574	800.000	0.073	0.235
-285.559	-36.844	-0.178	-0.094
-284.545	-119.899	0.142	-0.024
-283.530	-200.000	-0.008	-0.050
-282.516	138.786	-0.143	-0.185
-281.501	-24.334	-0.359	-0.210
-280.486	136.225	0.148	-0.190
-279.472	-200.000	-0.080	0.366
-278.457	-41.178	0.336	0.170
-277.443	-75.194	0.260	-0.091
-276.428	-26.348	0.073	-0.042
-275.413	267.604	0.085	-0.147
-274.399	-18.142	0.190	-0.117
-273.384	-156.750	-0.272	0.016
-272.370	-44.845	0.038	0.019
-271.355	-200.000	0.022	-0.164
-270.340	-36.470	-0.439	-0.232
-269.326	323.269	0.145	0.273
-268.311	-200.000	-0.039	0.237
-267.297	-56.257	-0.060	0.026
-266.282	-62.199	-0.053	-0.022
-265.267	109.983	0.103	-0.121
-264.253	-93.076	-0.371	0.102
-263.238	-30.936	-0.057	0.032
-262.224	469.852	0.031	0.068
-261.209	295.282	-0.062	0.111
-260.195	-163.984	0.242	0.011
-259.180	459.686	-0.028	0.061
-258.165	-58.975	-0.112	-0.048
-257.151	144.461	0.092	0.121
-256.136	-160.604	0.256	-0.013
-255.122	44.591	0.473	0.427
-254.107	-15.013	-0.196	0.123
-253.092	-84.386	0.522	-0.162
-252.078	800.000	0.075	0.272
-251.063	-73.167	-0.211	-0.076
-250.049	-6.627	0.261	-0.174
-249.034	395.335	0.043	0.088
-248.019	-12.534	-0.127	-0.081
-247.005	-112.834	0.170	0.033
-245.990	44.530	-0.124	0.112
-244.976	38.789	0.120	0.105
-243.961	66.883	0.305	0.305
-242.946	-200.000	-0.019	0.180
-241.932	-3.837	0.180	-0.123
-240.917	-200.000	-0.192	0.000
-239.903	42.911	-0.040	0.036
-238.888	16.522	0.199	0.155
-237.873	-195.825	0.094	-0.001
-236.859	-9.506	0.087	0.057
-235.844	-200.000	-0.039	0.261
-234.830	3.673	-0.187	0.134
-233.815	532.524	0.077	-0.180
-232.800	-55.208	0.181	0.080
-231.786	117.725	-0.253	-0.306
-230.771	335.999	0.039	-0.074
-229.757	-7.424	0.240	0.160
-228.742	800.000	0.134	-0.364
-227.727	-200.000	0.085	-0.395
-226.713	88.502	-0.118	-0.129
-225.698	-118.800	0.177	0.030
-224.684	41.800	-0.205	-0.183
-223.669	800.000	0.019	0.078
-222.655	105.496	0.132	-0.153
-221.640	-128.649	0.057	0.008
-220.625	-41.531	-0.249	0.126
-219.611	-77.066	-0.137	0.047
-218.596	-139.671	0.131	0.014
-217.582	-200.000	-0.041	0.276
-216.567	-60.372	0.256	-0.107
-215.552	402.780	-0.133	0.275
-214.538	30.738	0.105	-0.088
-213.523	698.529	-0.093	0.240
-212.509	800.000	-0.048	-0.170
-211.494	376.406	-0.185	0.371
-210.479	-24.998	0.061	0.036
-209.465	65.818	0.174	-0.173
-208.450	495.941	0.030	0.067
-207.436	-103.928	-0.187	-0.043
-206.421	-49.866	0.269	-0.125
-205.406	800.000	-0.039	0.163
-204.392	-200.000	0.047	0.282
-203.377	161.797	-0.180	0.247
-202.363	-200.000	0.037	0.347
-201.348	-67.295	0.353	-0.136
-200.333	79.684	-0.153	-0.161
-199.319	46.956	-0.170	-0.155
-198.304	0.846	-0.318	-0.223
-197.290	265.911	-0.060	-0.103
-196.275	-76.134	-0.159	0.055
-195.260	-82.848	0.141	0.045
-194.246	-103.079	0.118	0.027
-193.231	139.539	0.088	-0.114
-192.217	800.000	0.186	0.541
-191.202	-114.097	0.112	-0.021
-190.187	-62.175	-0.180	-0.073
-189.173	-200.000	-0.005	0.123
-188.158	108.907	-0.078	0.092
-187.144	41.439	-0.348	-0.309
-186.129	-71.288	0.108	-0.040
-185.114	85.630	0.081	-0.088
-184.100	-164.336	0.201	-0.009
-183.085	397.966	-0.062	0.128
-182.071	606.876	0.131	-0.320
-181.056	146.260	-0.137	0.181
-180.042	-121.584	0.062	0.010
-179.027	375.415	0.053	-0.106
-178.012	-81.933	0.073	-0.023
-176.998	128.224	-0.110	-0.137
-175.983	57.559	0.185	0.177
-174.969	-4.839	-0.327	0.221
-173.954	97.512	-0.172	-0.194
-172.939	-200.000	0.046	-0.241
-171.925	-89.681	0.291	-0.083
-170.910	800.000	0.032	-0.113
-169.896	49.614	-0.080	-0.074
-168.881	-200.000	-0.022	0.138
-167.866	800.000	0.077	-0.268
-166.852	-108.956	0.247	0.052
-165.837	-200.000	0.036	0.202
-164.823	-58.021	0.042	-0.018
-163.808	-84.636	-0.267	0.082
-162.793	201.006	-0.016	-0.024
-161.779	-37.617	0.222	-0.116
-160.764	-169.127	-0.186	0.007
-159.750	800.000	-0.031	0.122
-158.735	-112.594	0.150	-0.029
-157.720	-103.611	-0.242	0.055
-156.706	-200.000	0.008	-0.222
-155.691	-126.117	0.423	-0.062
-154.677	-134.384	-0.334	-0.040
-153.662	800.000	0.131	0.407
-152.647	800.000	-0.113	0.345
-151.633	-200.000	0.005	0.597
-150.618	-200.000	-0.017	-0.085
-149.604	573.807	0.126	-0.301
-148.589	-111.683	-0.293	-0.058
-147.574	150.757	-0.054	0.072
-146.560	263.294	-0.036	-0.061
-145.545	-200.000	-0.070	-0.340
-144.531	117.337	0.319	0.384
-143.516	178.381	0.182	-0.260
-142.502	-68.912	0.320	0.121
-141.487	-187.803	0.137	-0.002
-140.472	26.213	-0.099	-0.081
-139.458	-123.305	0.220	-0.034
-138.443	114.234	-0.145	0.173
-137.429	-86.047	-0.062	0.019
-136.414	800.000	0.112	0.302
-135.399	-176.634	-0.348	-0.009
-134.385	-200.000	0.003	0.042
-133.370	147.437	-0.035	0.047
-132.356	-117.333	0.107	0.019
-131.341	348.855	0.071	0.137
-130.326	642.848	-0.073	-0.183
-129.312	-200.000	-0.070	0.431
-128.297	-63.751	0.215	0.086
-127.283	-159.319	-0.167	-0.009
-126.268	-135.152	-0.259	0.030
-125.253	651.644	0.060	0.151
-124.239	226.314	0.085	0.135
-123.224	160.413	-0.052	0.072
-122.210	193.520	-0.091	-0.134
-121.195	800.000	-0.042	-0.141
