DTS Sentinel unit serial number:	SN413079Multiplexer serial number:	ORYXHardware model number:	OX4-SRSoftware version number:	ORYX F/W v4.00 Oryx Data Collector v3.7.2.0data status	okinstallation	princeton_trtdifferential loss correction	single-endedforward channel	channel 3reverse channel	N/Adate	2019/09/19time	01:00:35forward acquisition time	60.00reverse acquisition time	0.00gamma	496.2192k internal	0.2347k external	0.2347temperature offset calibration	0.9995default loss term (dB/km)	0.3790temperature slope calibration	1.0000multiplexer offset coefficient	1.0000multiplexer slope coefficient	1.0000fibre end	0.00T internal ref (°C)	21.94T ext. ref 1 (°C)	0.73T ext. ref 2 (°C)	15.37length (m)	temperature (°C)	Stokes	anti-Stokes-747.200	-160.726	-0.337	0.018
-746.185	-200.000	-0.021	0.383
-745.171	-147.193	0.182	0.015
-744.156	717.495	0.046	-0.123
-743.142	-114.011	-0.036	0.007
-742.127	-200.000	0.003	0.333
-741.112	96.964	-0.302	-0.346
-740.098	-5.216	0.213	-0.147
-739.083	-130.964	-0.287	-0.038
-738.069	-139.738	-0.161	0.017
-737.054	17.443	-0.135	-0.107
-736.039	800.000	-0.124	-0.367
-735.025	59.222	0.297	0.292
-734.010	39.067	-0.187	-0.167
-732.996	681.401	-0.030	-0.078
-731.981	-103.479	-0.125	-0.029
-730.966	-200.000	-0.043	-0.259
-729.952	247.359	-0.147	0.248
-728.937	278.841	-0.110	-0.196
-727.923	-50.832	-0.090	-0.042
-726.908	800.000	-0.027	-0.103
-725.894	800.000	-0.053	-0.220
-724.879	-200.000	0.102	0.483
-723.864	657.865	0.066	0.170
-722.850	82.882	-0.094	-0.102
-721.835	-200.000	-0.014	0.286
-720.821	762.739	-0.088	-0.238
-719.806	800.000	-0.083	-0.321
-718.791	467.426	-0.054	-0.121
-717.777	0.652	-0.299	-0.214
-716.762	133.281	0.072	0.093
-715.748	750.813	0.099	-0.267
-714.733	-200.000	-0.010	-0.310
-713.718	159.537	0.257	-0.357
-712.704	-200.000	-0.041	0.424
-711.689	-111.475	-0.334	0.068
-710.675	800.000	-0.095	-0.310
-709.660	230.721	0.101	-0.165
-708.645	60.094	0.156	-0.154
-707.631	-200.000	-0.021	-0.291
-706.616	656.697	-0.071	-0.181
-705.602	-200.000	0.006	0.032
-704.587	-116.348	-0.101	-0.019
-703.572	230.343	-0.038	0.063
-702.558	-101.297	0.246	-0.060
-701.543	-33.269	-0.313	-0.173
-700.529	800.000	0.075	-0.274
-699.514	460.809	-0.138	0.307
-698.499	96.133	0.074	-0.084
-697.485	-200.000	0.031	-0.149
-696.470	-200.000	-0.019	-0.167
-695.456	-200.000	-0.095	-0.550
-694.441	10.419	0.197	0.149
-693.426	-128.694	0.322	0.045
-692.412	800.000	-0.062	0.176
-691.397	59.372	-0.140	-0.137
-690.383	-48.581	-0.190	-0.091
-689.368	-200.000	0.002	-0.104
-688.354	-160.647	-0.253	0.013
-687.339	800.000	-0.085	0.273
-686.324	-51.604	-0.216	-0.101
-685.310	10.872	-0.190	0.145
-684.295	561.612	0.035	0.084
-683.281	-94.515	-0.160	-0.044
-682.266	-157.670	-0.294	-0.017
-681.251	-100.294	0.358	0.089
-680.237	800.000	-0.089	-0.334
-679.222	-74.821	0.306	-0.109
-678.208	-165.135	0.331	-0.015
-677.193	-152.350	-0.408	0.029
-676.178	-138.741	0.414	-0.045
-675.164	-120.211	-0.523	0.089
-674.149	800.000	0.066	-0.260
-673.135	-97.314	0.092	0.024
-672.120	-107.381	-0.222	-0.048
-671.105	-200.000	0.320	-0.001
-670.091	-51.267	-0.097	0.045
-669.076	-106.723	-0.195	0.043
-668.062	308.603	-0.144	0.269
-667.047	-200.000	0.002	0.121
-666.032	-200.000	-0.038	-0.235
-665.018	-0.892	0.065	-0.046
-664.003	197.007	-0.274	-0.417
-662.989	-200.000	0.012	-0.098
-661.974	28.896	-0.326	0.276
-660.959	74.701	0.204	-0.214
-659.945	-15.159	-0.128	0.082
-658.930	-36.456	0.064	0.034
-657.916	420.009	-0.116	-0.247
-656.901	-124.983	-0.335	0.051
-655.886	-68.001	-0.334	-0.130
-654.872	-19.739	-0.057	0.035
-653.857	142.297	-0.070	0.092
-652.843	205.183	-0.073	-0.113
-651.828	800.000	0.069	-0.255
-650.814	-160.601	-0.110	0.006
-649.799	-140.686	-0.320	0.033
-648.784	224.533	-0.148	-0.238
-647.770	-124.923	-0.319	-0.049
-646.755	420.745	0.080	-0.171
-645.741	-70.603	-0.060	0.023
-644.726	-159.367	0.234	-0.013
-643.711	93.288	0.229	0.258
-642.697	-55.762	-0.175	-0.078
-641.682	-57.290	-0.240	-0.105
-640.668	-65.187	-0.268	-0.108
-639.653	800.000	0.034	0.108
-638.638	-137.271	0.237	-0.027
-637.624	40.367	0.100	0.090
-636.609	-103.749	0.122	0.028
-635.595	-3.746	-0.346	0.239
-634.580	-115.820	-0.032	-0.006
-633.565	2.836	-0.254	0.183
-632.551	-120.915	-0.108	0.018
-631.536	528.464	0.088	0.207
-630.522	-102.216	0.116	0.028
-629.507	-31.975	-0.277	-0.154
-628.492	800.000	-0.037	-0.128
-627.478	800.000	-0.085	-0.269
-626.463	-100.550	0.438	0.108
-625.449	-106.597	0.145	-0.032
-624.434	-15.895	-0.171	-0.108
-623.419	-147.381	-0.117	-0.010
-622.405	126.359	0.053	0.067
-621.390	-69.973	-0.092	0.035
-620.376	-200.000	-0.060	-0.334
-619.361	312.854	-0.062	-0.116
-618.346	17.666	-0.334	-0.264
-617.332	762.111	0.036	-0.098
-616.317	-200.000	-0.012	0.092
-615.303	-200.000	0.048	-0.243
-614.288	-71.327	-0.281	-0.105
-613.273	81.527	-0.099	-0.106
-612.259	-86.466	-0.311	-0.095
-611.244	-198.211	0.170	-0.001
-610.230	-98.367	-0.175	-0.045
-609.215	59.434	-0.168	-0.164
-608.201	-200.000	-0.011	0.277
-607.186	-200.000	0.045	0.386
-606.171	6.760	-0.129	0.095
-605.157	-174.823	0.072	-0.002
-604.142	57.015	-0.151	0.146
-603.128	-161.205	-0.145	-0.008
-602.113	93.025	0.078	-0.087
-601.098	-200.000	-0.011	-0.157
-600.084	3.016	-0.267	0.193
-599.069	-31.446	-0.144	0.081
-598.055	327.514	-0.171	-0.326
-597.040	-200.000	0.013	0.288
-596.025	115.009	-0.073	0.089
-595.011	-103.984	-0.310	-0.072
-593.996	-136.870	-0.058	0.007
-592.982	-200.000	-0.033	0.267
-591.967	-59.557	-0.099	0.042
-590.952	24.649	-0.156	-0.129
-589.938	151.886	-0.107	0.145
-588.923	-125.829	-0.048	-0.007
-587.909	-200.000	-0.012	-0.093
-586.894	-199.191	0.325	-0.002
-585.879	800.000	-0.053	-0.183
-584.865	184.640	0.093	-0.137
-583.850	-88.951	0.134	0.040
-582.836	21.921	-0.321	0.260
-581.821	-107.125	0.307	-0.067
-580.806	108.084	-0.123	-0.145
-579.792	17.004	-0.128	0.101
-578.777	122.234	0.031	0.039
-577.763	-200.000	0.023	0.163
-576.748	-17.408	-0.303	-0.190
-575.733	-30.067	-0.188	-0.106
-574.719	377.753	0.173	0.352
-573.704	-56.304	-0.056	-0.025
-572.690	-200.000	-0.017	-0.162
-571.675	125.313	0.074	-0.092
-570.661	-104.156	0.339	0.078
-569.646	-133.566	0.169	0.021
-568.631	-200.000	0.034	-0.306
-567.617	-200.000	0.014	0.000
-566.602	-85.441	0.230	0.071
-565.588	-82.388	-0.174	0.056
-564.573	270.994	0.060	0.105
-563.558	-5.167	0.108	0.073
-562.544	84.683	-0.173	0.188
-561.529	-200.000	-0.121	0.733
-560.515	-74.460	-0.243	-0.087
-559.500	-200.000	0.074	0.349
-558.485	-200.000	-0.036	0.164
-557.471	-61.109	-0.348	-0.146
-556.456	-44.988	-0.268	0.132
-555.442	-75.881	-0.319	0.112
-554.427	-128.240	-0.370	-0.052
-553.412	25.864	-0.330	0.273
-552.398	-82.538	0.166	0.053
-551.383	-200.000	0.001	0.017
-550.369	99.308	0.179	-0.205
-549.354	-77.756	-0.294	-0.101
-548.339	-47.912	-0.189	0.091
-547.325	-79.450	0.257	-0.086
-546.310	243.316	-0.005	0.009
-545.296	142.943	0.196	-0.259
-544.281	-97.910	-0.272	-0.070
-543.266	30.029	-0.049	-0.042
-542.252	-122.445	0.241	-0.039
-541.237	212.956	-0.106	0.165
-540.223	-102.372	0.349	0.083
-539.208	-43.558	-0.075	-0.038
-538.193	73.470	0.061	0.063
-537.179	-182.451	-0.135	-0.002
-536.164	-44.502	-0.301	0.149
-535.150	170.790	0.083	0.118
-534.135	425.828	0.185	-0.395
-533.121	-200.000	0.041	0.181
-532.106	74.695	0.237	0.247
-531.091	-5.006	-0.204	0.139
-530.077	-152.391	-0.043	-0.003
-529.062	208.685	-0.020	0.030
-528.048	800.000	-0.017	0.071
-527.033	-149.747	0.178	0.014
-526.018	-200.000	-0.007	0.039
-525.004	800.000	0.040	-0.117
-523.989	-84.148	-0.100	-0.032
-522.975	-200.000	-0.007	-0.074
-521.960	56.829	-0.123	0.119
-520.945	-11.540	0.102	0.066
-519.931	800.000	-0.042	-0.151
-518.916	800.000	0.113	-0.345
-517.902	800.000	-0.136	-0.400
-516.887	-128.107	0.165	-0.023
-515.872	-200.000	-0.013	0.339
-514.858	-200.000	-0.001	-0.166
-513.843	-145.466	0.482	0.043
-512.829	-200.000	0.036	0.212
-511.814	13.273	0.324	-0.249
-510.799	-109.659	0.299	-0.062
-509.785	-200.000	-0.007	0.099
-508.770	-52.016	-0.148	-0.068
-507.756	193.757	0.138	0.207
-506.741	221.188	-0.169	-0.269
-505.726	-200.000	-0.009	0.054
-504.712	70.162	0.219	0.224
-503.697	23.476	-0.082	0.066
-502.683	16.898	0.276	0.216
-501.668	-123.466	-0.167	0.026
-500.653	-106.342	0.228	-0.050
-499.639	-105.540	0.289	0.065
-498.624	3.355	0.087	-0.063
-497.610	-59.969	-0.193	-0.082
-496.595	-11.752	0.072	-0.047
-495.581	800.000	0.119	-0.327
-494.566	-84.982	0.072	-0.022
-493.551	223.479	-0.194	0.309
-492.537	69.818	0.218	0.223
-491.522	-80.736	-0.116	0.038
-490.508	359.358	0.042	0.084
-489.493	84.621	0.158	0.171
-488.478	800.000	-0.039	-0.131
-487.464	-27.749	-0.381	0.218
-486.449	-114.939	0.212	-0.040
-485.435	220.077	-0.090	-0.142
-484.420	749.851	-0.073	0.195
-483.405	146.210	0.078	0.103
-482.391	-18.362	0.100	-0.062
-481.376	22.930	0.252	0.204
-480.362	124.424	-0.094	0.117
-479.347	137.031	0.101	0.131
-478.332	-133.110	0.276	0.035
-477.318	592.351	-0.121	0.295
-476.303	455.206	-0.020	-0.044
-475.289	79.338	-0.065	-0.069
-474.274	-200.000	-0.003	-0.423
-473.259	310.837	-0.178	-0.331
-472.245	-200.000	0.028	0.180
-471.230	-132.972	-0.142	0.018
-470.216	-141.713	0.464	-0.046
-469.201	-140.274	0.259	0.027
-468.186	118.721	0.231	0.282
-467.172	262.231	0.047	0.080
-466.157	592.125	-0.093	0.227
-465.143	-108.848	0.402	0.085
-464.128	-177.494	-0.317	-0.008
-463.113	-61.510	-0.105	0.044
-462.099	-200.000	-0.007	-0.117
-461.084	159.789	-0.172	-0.236
-460.070	-200.000	0.023	-0.207
-459.055	-200.000	0.031	0.134
-458.040	-40.490	0.230	-0.118
-457.026	658.161	0.069	-0.174
-456.011	-153.420	-0.215	0.015
-454.997	227.907	-0.046	0.075
-453.982	800.000	-0.007	0.024
-452.968	28.868	0.237	-0.198
-451.953	255.350	0.080	0.136
-450.938	-126.770	-0.179	0.026
-449.924	-121.634	-0.122	0.020
-448.909	63.701	0.221	0.219
-447.895	48.609	0.124	-0.115
-446.880	-39.213	0.228	-0.119
-445.865	-200.000	-0.007	0.174
-444.851	800.000	-0.047	-0.154
-443.836	-19.926	-0.237	-0.145
-442.822	-93.163	0.111	-0.030
-441.807	183.364	-0.148	-0.215
-440.792	133.452	-0.076	-0.097
-439.778	115.271	-0.217	0.262
-438.763	-20.609	-0.432	-0.262
-437.749	57.870	-0.055	0.053
-436.734	-37.218	-0.070	0.037
-435.719	129.423	-0.156	-0.197
-434.705	-148.410	0.038	-0.003
-433.690	-115.740	-0.223	-0.041
-432.676	-61.636	-0.073	0.030
-431.661	-200.000	-0.037	-0.393
-430.646	76.638	0.264	-0.277
-429.632	-120.089	0.096	-0.016
-428.617	-91.002	0.194	0.055
-427.603	-14.916	-0.149	-0.094
-426.588	-184.238	0.331	0.005
-425.573	-51.164	0.249	0.115
-424.559	370.250	0.164	-0.329
-423.544	-102.835	0.226	0.053
-422.530	-47.758	0.272	0.130
-421.515	207.319	-0.099	-0.152
-420.500	-103.889	-0.183	-0.042
-419.486	134.334	0.284	0.364
-418.471	-200.000	0.025	0.164
-417.457	-146.882	-0.073	-0.006
-416.442	-85.515	0.275	0.085
-415.428	23.617	0.165	0.134
-414.413	800.000	0.074	-0.210
-413.398	800.000	-0.022	-0.084
-412.384	-200.000	0.013	0.146
-411.369	-96.800	-0.218	-0.057
-410.355	-117.719	0.165	0.029
-409.340	21.237	-0.252	-0.202
-408.325	-99.654	0.423	0.105
-407.311	-128.329	0.049	0.007
-406.296	800.000	-0.050	-0.188
-405.282	800.000	-0.059	-0.230
-404.267	800.000	0.085	-0.274
-403.252	-200.000	-0.063	0.000
-402.238	-137.862	-0.395	-0.044
-401.223	689.028	0.104	0.269
-400.209	800.000	-0.106	-0.361
-399.194	423.808	0.041	-0.087
-398.179	421.522	-0.038	0.081
-397.165	-76.834	-0.204	-0.070
-396.150	68.931	0.227	0.230
-395.136	62.701	-0.129	-0.127
-394.121	68.520	-0.108	0.110
-393.106	-200.000	0.001	0.236
-392.092	-18.000	0.192	-0.119
-391.077	134.751	0.089	0.114
-390.063	-103.570	0.463	-0.107
-389.048	-25.257	0.133	0.078
-388.033	463.932	-0.024	0.053
-387.019	-125.598	-0.159	-0.024
-386.004	281.312	-0.059	-0.104
-384.990	126.358	0.189	0.236
-383.975	-23.755	-0.351	0.207
-382.960	443.585	0.060	-0.130
-381.946	-200.000	-0.051	0.249
-380.931	288.201	-0.200	0.357
-379.917	-26.715	-0.127	-0.073
-378.902	35.890	0.190	0.165
-377.888	-120.717	0.313	-0.052
-376.873	-170.244	0.190	0.007
-375.858	-62.844	0.108	0.044
-374.844	-200.000	-0.005	0.085
-373.829	72.609	0.052	0.053
-372.815	-91.106	-0.320	-0.090
-371.800	-156.861	0.469	0.028
-370.785	-200.000	-0.006	-0.027
-369.771	-62.227	-0.366	0.150
-368.756	194.304	-0.256	-0.383
-367.742	525.621	-0.222	-0.515
-366.727	-200.000	0.034	0.300
-365.712	179.328	-0.238	0.343
-364.698	-60.773	-0.124	0.052
-363.683	-46.875	-0.108	-0.052
-362.669	800.000	-0.079	0.231
-361.654	74.485	0.181	-0.187
-360.639	24.342	0.295	-0.240
-359.625	-198.414	-0.201	-0.001
-358.610	-16.381	0.183	0.114
-357.596	649.444	-0.075	-0.190
-356.581	-200.000	0.008	0.185
-355.566	150.548	-0.059	-0.078
-354.552	-173.166	-0.116	-0.004
-353.537	-81.562	-0.185	-0.060
-352.523	-200.000	-0.004	0.132
-351.508	-200.000	0.003	0.207
-350.493	-200.000	-0.032	0.227
-349.479	-101.834	0.501	0.119
-348.464	-200.000	-0.019	-0.459
-347.450	800.000	-0.057	-0.164
-346.435	800.000	0.078	-0.238
-345.420	119.495	-0.158	-0.192
-344.406	-200.000	-0.034	-0.153
-343.391	-129.123	0.216	-0.030
-342.377	462.199	0.069	-0.152
-341.362	800.000	-0.018	-0.063
-340.348	-154.833	0.243	-0.016
-339.333	99.092	0.079	0.090
-338.318	800.000	0.075	0.269
-337.304	-49.522	-0.165	0.077
-336.289	388.045	0.139	0.284
-335.275	614.417	0.061	-0.150
-334.260	800.000	-0.046	-0.197
-333.245	26.024	-0.057	0.047
-332.231	-56.411	0.024	0.010
-331.216	-19.158	-0.262	-0.160
-330.202	-84.448	-0.308	0.096
-329.187	-160.319	-0.035	-0.002
-328.172	-149.039	0.170	0.013
-327.158	-200.000	-0.010	0.072
-326.143	800.000	0.056	0.220
-325.129	-160.516	0.180	-0.009
-324.114	198.036	0.041	-0.061
-323.099	-52.588	-0.092	0.042
-322.085	27.043	-0.168	-0.139
-321.070	-74.242	-0.259	0.092
-320.056	435.729	0.090	-0.192
-319.041	-63.082	-0.186	-0.076
-318.026	30.120	0.279	-0.234
-317.012	-159.828	0.081	0.004
-315.997	800.000	-0.076	0.206
-314.983	270.226	0.065	-0.112
-313.968	-74.597	0.196	0.069
-312.953	83.507	0.078	0.084
-311.939	-48.061	0.261	-0.124
-310.924	-120.267	0.256	0.043
-309.910	59.009	0.088	0.085
-308.895	-200.000	0.021	0.190
-307.880	-200.000	0.005	0.031
-306.866	44.574	0.287	0.259
-305.851	13.689	0.226	-0.172
-304.837	-73.643	-0.126	-0.045
-303.822	-123.025	0.217	-0.034
-302.807	800.000	-0.067	0.220
-301.793	-67.485	-0.195	0.075
-300.778	54.657	-0.437	0.414
-299.764	-132.967	-0.336	0.042
-298.749	-126.569	0.173	-0.025
-297.735	-115.283	-0.161	-0.030
-296.720	37.070	0.126	-0.110
-295.705	199.552	0.153	0.231
-294.691	800.000	0.061	0.222
-293.676	-70.942	0.234	-0.086
-292.662	172.021	-0.162	-0.229
-291.647	15.998	-0.166	-0.128
-290.632	-23.388	-0.089	-0.052
-289.618	-99.706	0.296	0.073
-288.603	-38.759	-0.188	0.097
-287.589	-42.449	-0.214	0.107
-286.574	-58.371	0.107	0.045
-285.559	-200.000	0.045	-0.220
-284.545	800.000	-0.109	-0.391
-283.530	-174.488	0.203	0.006
-282.516	70.533	-0.049	0.050
-281.501	-2.260	0.053	0.037
-280.486	800.000	-0.031	-0.112
-279.472	800.000	-0.106	-0.320
-278.457	-101.525	0.240	-0.057
-277.443	133.564	0.158	-0.201
-276.428	38.248	0.065	0.057
-275.413	-117.867	-0.231	0.041
-274.399	37.750	0.069	-0.061
-273.384	315.736	0.068	-0.125
-272.370	51.320	-0.219	-0.204
-271.355	-122.279	0.234	0.037
-270.340	-61.256	0.099	0.041
-269.326	-126.551	-0.309	0.045
-268.311	635.052	0.096	0.238
-267.297	147.756	-0.144	0.191
-266.282	-200.000	-0.014	0.294
-265.267	-176.440	-0.172	0.004
-264.253	-200.000	-0.078	-0.350
-263.238	-200.000	-0.007	0.114
-262.224	-200.000	0.017	0.256
-261.209	800.000	-0.088	0.240
-260.195	-103.348	0.208	0.048
-259.180	-141.891	0.078	0.008
-258.165	-50.082	-0.289	0.134
-257.151	106.675	0.118	-0.138
-256.136	411.887	0.094	-0.196
-255.122	211.665	0.073	0.113
-254.107	121.967	-0.130	-0.159
-253.092	-127.207	0.186	0.027
-252.078	-101.854	-0.386	-0.092
-251.063	294.466	0.011	-0.019
-250.049	226.026	-0.040	0.063
-249.034	-200.000	-0.008	0.078
-248.019	-112.778	0.110	0.021
-247.005	-200.000	0.011	0.220
-245.990	-200.000	0.067	0.291
-244.976	-200.000	0.059	0.295
-243.961	-150.607	0.142	-0.011
-242.946	72.872	-0.369	0.377
-241.932	230.634	-0.081	0.131
-240.917	-69.911	0.167	0.062
-239.903	283.520	0.087	-0.153
-238.888	-135.655	-0.570	-0.066
-237.873	-200.000	0.003	-0.155
-236.859	-56.818	0.328	0.142
-235.844	-42.596	-0.042	0.021
-234.830	63.550	-0.100	-0.099
-233.815	-200.000	-0.060	0.263
-232.800	147.288	0.191	-0.252
-231.786	800.000	0.095	-0.261
-230.771	-200.000	0.048	0.245
-229.757	-200.000	-0.063	0.000
-228.742	-200.000	0.058	0.281
-227.727	618.122	-0.188	0.461
-226.713	-43.716	-0.204	-0.101
-225.698	-100.589	0.066	0.016
-224.684	-38.802	0.302	-0.156
-223.669	-200.000	-0.011	-0.076
-222.655	-42.871	-0.279	-0.139
-221.640	-14.210	0.210	-0.133
-220.625	398.628	-0.089	-0.183
-219.611	70.130	0.265	0.268
-218.596	69.635	-0.060	0.061
-217.582	128.180	0.047	0.058
-216.567	800.000	-0.015	-0.045
-215.552	-64.539	-0.484	-0.192
-214.538	97.259	0.099	-0.111
-213.523	800.000	-0.070	-0.240
-212.509	-110.557	0.030	0.006
-211.494	-49.205	0.014	0.006
-210.479	-200.000	0.057	-0.408
-209.465	181.783	-0.175	0.252
-208.450	-51.225	0.306	0.140
-207.436	5.443	0.199	0.143
-206.421	-28.290	-0.134	0.076
-205.406	128.084	-0.076	0.094
-204.392	-109.307	-0.120	0.025
-203.377	154.702	0.084	-0.114
-202.363	-122.855	-0.106	0.017
-201.348	-57.718	0.423	-0.181
-200.333	-47.799	-0.210	0.099
-199.319	154.196	0.152	-0.204
-198.304	-53.490	0.376	0.168
-197.290	-200.000	0.010	-0.094
-196.275	-21.932	0.178	0.106
-195.260	-18.471	0.002	0.001
-194.246	-129.689	-0.344	-0.046
-193.231	-86.948	0.087	-0.026
-192.217	-8.724	-0.140	0.092
-191.202	591.372	-0.114	-0.274
-190.187	69.440	0.068	0.069
-189.173	-119.797	-0.117	0.020
-188.158	-15.472	-0.131	-0.082
-187.144	800.000	0.148	-0.479
-186.129	720.922	0.082	-0.214
-185.114	-200.000	0.011	0.443
-184.100	125.591	0.130	0.160
-183.085	-40.542	0.174	-0.088
-182.071	119.255	-0.043	0.052
-181.056	345.115	0.052	0.100
-180.042	-2.483	-0.093	0.064
-179.027	-102.302	0.071	-0.017
-178.012	141.029	0.075	0.097
-176.998	125.625	0.106	-0.131
-175.983	20.400	0.179	-0.141
-174.969	-200.000	0.032	0.446
-173.954	-32.507	-0.111	0.060
-172.939	149.866	0.214	-0.283
-171.925	-97.644	-0.301	-0.076
-170.910	-147.970	-0.116	0.009
-169.896	-200.000	0.018	0.353
-168.881	-200.000	0.034	0.153
-167.866	-92.620	-0.227	-0.062
-166.852	-18.779	-0.164	-0.100
-165.837	57.683	0.409	-0.391
-164.823	-200.000	-0.002	-0.254
-163.808	-21.700	-0.116	0.069
-162.793	-27.568	0.101	0.057
-161.779	415.186	-0.089	-0.185
-160.764	129.063	0.154	-0.192
-159.750	-10.227	-0.230	-0.149
-158.735	122.344	0.047	0.057
-157.720	213.779	0.146	-0.226
-156.706	-105.518	-0.227	0.050
-155.691	700.019	0.157	-0.404
-154.677	800.000	-0.022	-0.085
-153.662	-17.293	0.409	-0.251
-152.647	800.000	0.063	-0.172
-151.633	-148.769	0.229	0.018
-150.618	189.200	0.057	0.083
-149.604	800.000	0.022	0.086
-148.589	-200.000	-0.056	0.379
-147.574	-81.991	-0.302	0.096
-146.560	207.547	0.017	0.027
-145.545	-200.000	0.028	-0.181
-144.531	-90.699	-0.128	0.036
-143.516	-65.476	0.330	-0.129
-142.502	-60.156	0.363	-0.151
-141.487	-200.000	0.035	-0.186
-140.472	-200.000	-0.014	-0.340
-139.458	-26.787	0.519	0.296
-138.443	-59.013	0.100	0.042
-137.429	-200.000	-0.053	0.250
-136.414	28.012	-0.263	-0.216
-135.399	-128.783	-0.117	-0.016
-134.385	294.498	-0.088	0.157
-133.370	-135.932	-0.299	0.034
-132.356	24.187	0.162	0.130
-131.341	-22.187	-0.314	0.186
-130.326	-28.261	0.055	-0.031
-129.312	-104.082	-0.160	-0.036
-128.297	-67.589	-0.521	-0.199
-127.283	6.446	0.069	-0.050
-126.268	28.115	-0.313	0.257
-125.253	-200.000	-0.024	0.114
-124.239	-118.284	0.355	0.062
-123.224	-25.329	0.192	0.111
