DTS Sentinel unit serial number:	SN413079Multiplexer serial number:	ORYXHardware model number:	OX4-SRSoftware version number:	ORYX F/W v4.00 Oryx Data Collector v3.7.2.0data status	okinstallation	princeton_trtdifferential loss correction	single-endedforward channel	channel 3reverse channel	N/Adate	2019/09/11time	16:06:11forward acquisition time	60.00reverse acquisition time	0.00gamma	496.2192k internal	0.2288k external	0.2288temperature offset calibration	0.9986default loss term (dB/km)	0.3790temperature slope calibration	1.0000multiplexer offset coefficient	1.0000multiplexer slope coefficient	1.0000fibre end	0.00T internal ref (°C)	43.12T ext. ref 1 (°C)	1.03T ext. ref 2 (°C)	38.60length (m)	temperature (°C)	Stokes	anti-Stokes-747.200	800.000	-0.080	-0.298
-746.185	-63.073	-0.117	-0.050
-745.171	-200.000	-0.026	-0.231
-744.156	-56.157	0.292	-0.133
-743.142	-88.631	-0.078	-0.024
-742.127	187.071	-0.263	0.401
-741.112	-200.000	-0.031	0.229
-740.098	-192.491	0.109	0.001
-739.083	-34.859	-0.184	-0.103
-738.069	27.798	-0.364	0.314
-737.054	132.358	-0.133	-0.176
-736.039	-143.417	-0.198	-0.019
-735.025	-23.110	0.404	0.250
-734.010	-28.895	-0.276	-0.162
-732.996	800.000	0.090	-0.328
-731.981	207.298	0.030	0.047
-730.966	-200.000	0.020	-0.352
-729.952	772.754	-0.101	-0.283
-728.937	-107.958	-0.050	-0.011
-727.923	-200.000	-0.007	-0.065
-726.908	-200.000	0.026	-0.138
-725.894	-25.865	-0.270	0.163
-724.879	84.201	-0.100	-0.112
-723.864	-1.662	0.064	0.046
-722.850	389.860	0.024	0.052
-721.835	-200.000	0.013	0.176
-720.821	-50.679	-0.458	0.221
-719.806	591.996	-0.104	0.264
-718.791	-66.429	-0.295	-0.120
-717.777	-95.356	-0.061	0.017
-716.762	18.868	-0.116	-0.095
-715.748	-200.000	0.014	-0.384
-714.733	800.000	0.103	-0.327
-713.718	-200.000	-0.021	-0.288
-712.704	250.875	0.061	-0.106
-711.689	-103.003	-0.188	0.046
-710.675	4.850	-0.202	0.152
-709.660	-200.000	-0.034	0.238
-708.645	-76.782	0.138	0.050
-707.631	111.668	-0.141	0.174
-706.616	-132.296	-0.067	0.009
-705.602	398.611	-0.058	-0.124
-704.587	-200.000	0.018	0.085
-703.572	-94.766	-0.244	0.068
-702.558	517.938	0.032	-0.076
-701.543	-119.725	-0.144	0.025
-700.529	-53.732	-0.165	-0.077
-699.514	-52.342	-0.115	-0.054
-698.499	-144.787	0.511	0.048
-697.485	-74.766	-0.174	-0.064
-696.470	800.000	-0.069	0.224
-695.456	-41.240	-0.184	0.097
-694.441	-200.000	-0.007	-0.316
-693.426	-113.155	0.377	-0.076
-692.412	605.397	0.066	-0.168
-691.397	-106.342	-0.156	-0.036
-690.383	-75.645	0.251	0.091
-689.368	20.276	0.335	-0.277
-688.354	-113.138	0.139	-0.028
-687.339	102.925	-0.134	-0.160
-686.324	316.955	-0.088	-0.171
-685.310	800.000	-0.017	-0.055
-684.295	-20.359	-0.085	-0.053
-683.281	-183.232	-0.141	0.003
-682.266	88.291	-0.189	-0.215
-681.251	-9.464	0.219	-0.150
-680.237	-45.470	-0.303	-0.154
-679.222	-192.683	-0.283	-0.003
-678.208	-200.000	-0.004	-0.275
-677.193	136.603	-0.221	-0.295
-676.178	800.000	0.074	-0.275
-675.164	-32.514	0.090	0.051
-674.149	-84.231	0.303	0.098
-673.135	57.942	0.156	0.156
-672.120	13.318	0.139	-0.110
-671.105	-200.000	0.040	0.265
-670.091	363.512	-0.121	0.249
-669.076	73.180	-0.092	-0.098
-668.062	-200.000	-0.014	-0.565
-667.047	5.371	-0.350	0.264
-666.032	-200.000	0.004	0.269
-665.018	-23.433	-0.343	-0.210
-664.003	-200.000	-0.005	-0.043
-662.989	-131.038	-0.348	-0.047
-661.974	-80.123	-0.041	-0.014
-660.959	-97.013	-0.364	-0.097
-659.945	-200.000	0.086	0.426
-658.930	192.077	0.076	-0.117
-657.916	-67.649	-0.093	-0.037
-656.901	-44.238	-0.519	0.266
-655.886	97.020	-0.105	0.123
-654.872	37.920	-0.228	0.207
-653.857	800.000	0.032	0.116
-652.843	601.626	-0.062	-0.157
-651.828	-200.000	-0.020	-0.226
-650.814	-136.948	-0.146	0.017
-649.799	278.746	0.037	-0.068
-648.784	-40.841	-0.291	0.154
-647.770	-200.000	-0.004	-0.358
-646.755	12.138	0.059	0.046
-645.741	368.087	0.098	0.201
-644.726	-141.436	0.330	-0.034
-643.711	-143.770	0.248	-0.024
-642.697	41.802	-0.267	-0.247
-641.682	214.067	0.167	0.270
-640.668	413.266	0.050	-0.109
-639.653	456.143	0.124	-0.281
-638.638	596.313	0.040	0.101
-637.624	-200.000	-0.008	-0.368
-636.609	-146.010	0.212	-0.019
-635.595	132.912	0.113	-0.149
-634.580	-76.251	-0.112	0.040
-633.565	-200.000	-0.001	-0.254
-632.551	800.000	0.108	-0.363
-631.536	289.839	0.109	0.201
-630.522	-50.356	-0.382	0.184
-629.507	-142.010	-0.081	-0.008
-628.492	-108.510	0.280	0.062
-627.478	-200.000	0.248	-0.001
-626.463	-200.000	0.015	0.505
-625.449	-200.000	-0.013	-0.079
-624.434	386.351	0.118	-0.248
-623.419	-92.631	-0.239	-0.068
-622.405	-37.964	-0.242	-0.131
-621.390	499.840	0.103	-0.243
-620.376	83.357	0.067	0.074
-619.361	197.728	-0.063	0.099
-618.346	-4.123	-0.058	0.041
-617.332	-200.000	-0.009	-0.109
-616.317	211.931	0.162	-0.260
-615.303	-200.000	0.011	0.076
-614.288	-200.000	0.260	0.001
-613.273	57.196	0.063	0.063
-612.259	-93.453	-0.196	-0.055
-611.244	-116.221	-0.427	-0.081
-610.230	-154.565	-0.096	0.007
-609.215	326.216	-0.076	0.149
-608.201	-15.007	-0.307	0.201
-607.186	215.753	-0.053	0.085
-606.171	585.472	0.085	0.212
-605.157	-37.829	-0.038	0.021
-604.142	-63.900	0.405	-0.169
-603.128	-96.842	-0.264	-0.071
-602.113	-8.932	-0.332	-0.227
-601.098	-18.048	-0.308	-0.197
-600.084	800.000	0.032	0.111
-599.069	-142.147	0.228	-0.023
-598.055	-200.000	-0.009	-0.107
-597.040	41.788	-0.152	0.141
-596.025	-68.440	0.243	0.096
-595.011	175.420	-0.240	0.354
-593.996	800.000	-0.072	0.220
-592.982	114.248	-0.260	0.323
-591.967	-200.000	0.011	-0.339
-590.952	74.689	0.067	-0.072
-589.938	-146.336	-0.304	-0.027
-588.923	161.453	0.105	0.149
-587.909	-200.000	-0.025	-0.165
-586.894	-200.000	0.062	0.361
-585.879	98.511	0.098	0.115
-584.865	140.064	0.098	-0.132
-583.850	-200.000	0.001	0.022
-582.836	76.884	-0.227	-0.245
-581.821	-3.429	-0.214	-0.152
-580.806	-61.411	0.342	0.147
-579.792	398.605	-0.142	0.302
-578.777	-43.129	0.040	0.020
-577.763	-124.039	0.095	-0.015
-576.748	-107.010	-0.425	0.096
-575.733	-200.000	0.017	0.423
-574.719	71.516	0.028	0.030
-573.704	-71.544	0.136	-0.052
-572.690	62.037	0.077	0.078
-571.675	-200.000	-0.029	0.258
-570.661	-101.609	0.113	0.028
-569.646	-200.000	0.032	-0.228
-568.631	-153.885	0.242	0.017
-567.617	-60.560	0.161	-0.070
-566.602	21.705	-0.174	0.145
-565.588	-91.587	0.118	0.034
-564.573	-200.000	-0.010	0.081
-563.558	4.184	0.095	0.071
-562.544	-161.579	0.243	0.013
-561.529	1.517	0.295	0.216
-560.515	24.850	-0.167	-0.141
-559.500	189.569	-0.081	0.123
-558.485	-65.297	-0.143	0.059
-557.471	-77.775	-0.154	-0.054
-556.456	-152.531	0.212	-0.015
-555.442	800.000	0.066	-0.215
-554.427	264.160	0.008	0.013
-553.412	-146.743	0.137	-0.012
-552.398	-6.234	-0.253	-0.176
-551.383	-200.000	0.048	-0.321
-550.369	48.927	-0.166	-0.159
-549.354	-200.000	0.011	0.364
-548.339	13.562	0.096	-0.076
-547.325	-111.515	-0.404	0.084
-546.310	-37.644	-0.182	-0.099
-545.296	11.153	-0.084	0.065
-544.281	-53.034	-0.064	-0.030
-543.266	-10.545	-0.144	-0.097
-542.252	800.000	-0.091	-0.332
-541.237	545.956	-0.025	-0.060
-540.223	234.967	0.127	0.213
-539.208	800.000	0.044	-0.153
-538.193	-53.422	-0.307	0.143
-537.179	-200.000	-0.029	-0.222
-536.164	678.450	-0.019	0.052
-535.150	95.504	-0.309	-0.358
-534.135	800.000	0.040	-0.151
-533.121	215.749	0.057	0.092
-532.106	-78.024	-0.266	0.093
-531.091	202.119	-0.041	0.064
-530.077	-21.940	0.309	0.191
-529.062	80.277	0.214	-0.234
-528.048	-69.716	-0.213	0.083
-527.033	800.000	0.049	-0.150
-526.018	41.904	-0.145	-0.134
-525.004	-200.000	-0.051	-0.254
-523.989	-80.004	0.172	-0.059
-522.975	-71.756	0.153	0.058
-521.960	222.025	-0.107	0.175
-520.945	144.346	0.192	-0.261
-519.931	734.047	-0.045	-0.123
-518.916	40.277	-0.047	-0.043
-517.902	-70.716	0.070	0.027
-516.887	800.000	0.059	-0.200
-515.872	108.316	-0.262	0.317
-514.858	76.933	0.135	-0.146
-513.843	472.069	-0.210	-0.482
-512.829	195.941	-0.162	-0.251
-511.814	-46.976	-0.226	0.112
-510.799	-119.842	-0.098	-0.017
-509.785	-200.000	0.008	-0.134
-508.770	87.430	-0.060	-0.067
-507.756	-5.047	0.350	0.245
-506.741	-25.244	0.169	0.102
-505.726	30.725	-0.085	-0.074
-504.712	-89.943	0.243	-0.072
-503.697	-106.366	0.213	-0.048
-502.683	800.000	-0.066	0.200
-501.668	800.000	0.069	-0.233
-500.653	712.439	0.061	0.163
-499.639	800.000	-0.056	0.247
-498.624	131.673	0.102	-0.134
-497.610	112.702	0.132	0.162
-496.595	-102.511	0.142	-0.034
-495.581	57.089	-0.184	-0.182
-494.566	431.737	-0.134	-0.296
-493.551	-87.155	0.199	0.061
-492.537	163.049	-0.224	-0.320
-491.522	72.359	-0.103	0.109
-490.508	178.737	-0.101	0.150
-489.493	137.869	-0.134	-0.178
-488.478	800.000	-0.045	0.147
-487.464	204.581	-0.023	0.036
-486.449	-108.421	0.115	-0.025
-485.435	0.936	0.045	0.033
-484.420	322.131	-0.181	0.349
-483.405	491.571	-0.055	0.127
-482.391	-103.892	-0.189	0.045
-481.376	-110.401	-0.191	0.040
-480.362	-200.000	0.020	0.130
-479.347	21.405	0.168	-0.139
-478.332	350.603	0.129	-0.259
-477.318	800.000	-0.036	0.158
-476.303	-95.727	-0.025	0.007
-475.289	-79.499	0.369	0.127
-474.274	41.198	-0.074	-0.068
-473.259	328.862	0.121	-0.235
-472.245	800.000	-0.071	0.240
-471.230	368.518	-0.030	-0.063
-470.216	-121.039	-0.162	-0.028
-469.201	4.596	-0.166	0.123
-468.186	-200.000	-0.003	0.172
-467.172	-200.000	-0.011	0.161
-466.157	-52.293	0.462	0.217
-465.143	-67.164	-0.212	-0.085
-464.128	184.578	0.103	0.155
-463.113	800.000	0.021	0.087
-462.099	394.412	0.117	-0.247
-461.084	-200.000	-0.008	-0.531
-460.070	-101.882	-0.145	0.035
-459.055	-2.912	0.066	-0.047
-458.040	400.411	0.076	-0.162
-457.026	-194.278	0.133	-0.001
-456.011	-200.000	0.013	0.105
-454.997	78.065	-0.101	0.109
-453.982	-137.451	0.168	0.019
-452.968	43.882	0.235	0.218
-451.953	273.581	-0.095	0.171
-450.938	-118.134	-0.267	0.048
-449.924	-200.000	0.030	0.160
-448.909	-200.000	0.025	-0.466
-447.895	50.300	0.186	0.178
-446.880	37.029	0.118	-0.106
-445.865	200.297	0.072	-0.112
-444.851	320.776	0.116	-0.223
-443.836	800.000	-0.165	0.640
-442.822	-113.859	0.184	0.036
-441.807	-131.086	-0.195	0.026
-440.792	13.795	-0.183	-0.144
-439.778	142.176	-0.110	-0.148
-438.763	60.364	-0.226	0.227
-437.749	-31.352	0.224	-0.128
-436.734	-129.771	-0.356	0.050
-435.719	-8.829	0.056	0.038
-434.705	653.544	-0.051	-0.132
-433.690	447.230	-0.129	0.287
-432.676	113.793	0.078	-0.096
-431.661	-36.767	0.073	0.040
-430.646	122.037	0.204	0.258
-429.632	334.707	-0.180	-0.353
-428.617	364.087	-0.162	-0.331
-427.603	91.151	0.067	-0.077
-426.588	119.400	0.217	-0.272
-425.573	-120.340	-0.361	-0.062
-424.559	-118.337	0.016	-0.003
-423.544	-200.000	-0.037	-0.190
-422.530	-48.092	-0.098	0.048
-421.515	505.686	-0.025	0.059
-420.500	-119.580	-0.431	0.076
-419.486	0.315	-0.171	-0.123
-418.471	800.000	0.112	-0.348
-417.457	149.364	0.181	-0.249
-416.442	-200.000	0.021	-0.308
-415.428	-200.000	-0.004	0.122
-414.413	35.590	-0.135	0.120
-413.398	-61.270	-0.196	0.083
-412.384	-200.000	-0.049	0.234
-411.369	-4.204	0.108	0.075
-410.355	-200.000	0.012	0.098
-409.340	-200.000	0.025	0.132
-408.325	194.167	0.107	0.164
-407.311	-108.821	-0.286	-0.062
-406.296	-143.990	0.231	-0.022
-405.282	-30.795	0.050	-0.029
-404.267	-28.940	0.343	-0.199
-403.252	-56.013	-0.168	0.076
-402.238	26.294	-0.170	0.143
-401.223	313.605	0.116	-0.221
-400.209	560.322	0.140	-0.343
-399.194	-73.432	0.102	-0.038
-398.179	-200.000	0.040	0.282
-397.165	-88.747	-0.322	0.097
-396.150	-129.860	-0.384	-0.053
-395.136	800.000	-0.073	-0.223
-394.121	359.798	0.039	-0.078
-393.106	-38.580	0.132	0.070
-392.092	-85.419	0.321	-0.101
-391.077	800.000	0.083	-0.272
-390.063	-96.217	0.250	-0.067
-389.048	-10.519	-0.250	0.167
-388.033	-103.520	-0.314	0.075
-387.019	-20.010	0.054	-0.034
-386.004	4.205	0.195	-0.144
-384.990	-141.678	-0.442	-0.045
-383.975	800.000	-0.033	0.098
-382.960	800.000	-0.034	0.144
-381.946	169.424	-0.029	0.042
-380.931	800.000	0.102	0.340
-379.917	-150.988	-0.080	-0.006
-378.902	-68.696	-0.235	-0.092
-377.888	229.532	-0.086	-0.141
-376.873	-200.000	0.052	0.328
-375.858	-200.000	-0.002	-0.088
-374.844	-53.768	0.126	0.058
-373.829	325.695	0.044	0.085
-372.815	255.960	-0.125	0.217
-371.800	-125.901	0.431	-0.066
-370.785	-95.645	-0.389	-0.105
-369.771	-162.611	0.311	-0.015
-368.756	217.611	0.124	-0.200
-367.742	653.856	0.166	0.430
-366.727	-139.777	-0.237	0.025
-365.712	-51.425	-0.238	0.113
-364.698	-25.228	-0.092	-0.055
-363.683	-117.657	0.113	0.021
-362.669	294.359	-0.208	0.384
-361.654	405.878	-0.027	0.057
-360.639	57.694	-0.050	-0.050
-359.625	800.000	0.059	0.186
-358.610	30.066	-0.211	0.182
-357.596	-200.000	-0.013	-0.216
-356.581	-66.137	0.310	-0.125
-355.566	-49.776	0.221	-0.106
-354.552	266.027	-0.008	0.013
-353.537	212.835	0.122	0.194
-352.523	18.844	0.089	0.072
-351.508	-82.790	0.113	0.037
-350.493	77.066	-0.318	0.341
-349.479	-102.520	-0.439	-0.106
-348.464	93.712	-0.250	-0.286
-347.450	-45.022	0.225	0.113
-346.435	70.677	-0.106	0.111
-345.420	-200.000	-0.017	-0.096
-344.406	-135.941	0.232	0.028
-343.391	23.817	-0.105	0.087
-342.377	-82.580	0.212	-0.069
-341.362	54.195	0.058	-0.057
-340.348	311.520	0.037	-0.070
-339.333	25.907	-0.151	0.127
-338.318	-86.633	-0.078	0.024
-337.304	-200.000	-0.009	-0.116
-336.289	78.285	0.173	0.186
-335.275	-21.789	0.384	-0.236
-334.260	-169.747	-0.061	0.002
-333.245	117.757	0.092	-0.114
-332.231	45.799	-0.151	-0.141
-331.216	-97.125	-0.110	-0.029
-330.202	15.218	0.253	0.200
-329.187	34.267	-0.112	0.099
-328.172	-43.885	0.058	-0.030
-327.158	265.333	-0.086	0.151
-326.143	193.104	-0.053	0.081
-325.129	-200.000	0.015	0.102
-324.114	-96.951	0.165	0.044
-323.099	-117.457	0.236	0.043
-322.085	440.744	-0.056	0.122
-321.070	-36.440	0.327	-0.177
-320.056	436.567	0.147	0.322
-319.041	800.000	0.009	0.032
-318.026	800.000	-0.022	0.087
-317.012	-186.847	-0.088	-0.001
-315.997	67.624	0.119	0.122
-314.983	-200.000	-0.010	-0.227
-313.968	-144.799	-0.146	-0.013
-312.953	91.879	-0.136	0.154
-311.939	246.289	-0.165	-0.280
-310.924	49.202	0.199	-0.189
-309.910	-104.458	0.150	-0.035
-308.895	-120.660	-0.205	0.035
-307.880	-200.000	-0.052	-0.255
-306.866	-35.097	0.171	0.094
-305.851	-200.000	0.069	-0.343
-304.837	-200.000	0.056	0.385
-303.822	-200.000	0.099	-0.442
-302.807	-200.000	0.038	-0.273
-301.793	800.000	-0.057	0.249
-300.778	-177.089	0.104	0.003
-299.764	-40.001	0.119	0.063
-298.749	176.140	-0.092	-0.134
-297.735	563.801	0.021	0.050
-296.720	-70.428	0.146	-0.056
-295.705	145.636	0.199	-0.268
-294.691	44.432	0.111	0.103
-293.676	-200.000	-0.016	0.227
-292.662	-34.429	-0.233	-0.129
-291.647	125.389	-0.043	-0.055
-290.632	197.813	0.043	-0.067
-289.618	-181.921	0.295	0.006
-288.603	-200.000	0.001	-0.015
-287.589	211.812	0.205	-0.326
-286.574	-200.000	-0.028	-0.228
-285.559	322.104	0.154	-0.296
-284.545	-107.476	0.114	-0.025
-283.530	-200.000	0.036	0.175
-282.516	-200.000	-0.055	0.251
-281.501	111.304	0.211	-0.256
-280.486	-2.310	0.121	-0.085
-279.472	-49.576	0.310	0.149
-278.457	-57.551	-0.271	0.120
-277.443	-20.062	0.194	0.120
-276.428	179.357	-0.174	0.256
-275.413	165.860	-0.260	-0.371
-274.399	-45.135	0.152	-0.076
-273.384	784.510	-0.065	0.179
-272.370	574.716	-0.157	0.387
-271.355	283.264	0.020	-0.036
-270.340	-125.261	0.161	0.025
-269.326	-143.453	-0.148	-0.014
-268.311	-108.220	0.225	-0.049
-267.297	519.713	-0.020	-0.048
-266.282	-200.000	0.022	-0.308
-265.267	800.000	0.009	-0.036
-264.253	-94.722	-0.191	0.052
-263.238	422.088	-0.031	0.068
-262.224	-56.566	0.244	0.109
-261.209	56.479	-0.201	0.196
-260.195	-166.073	0.227	0.010
-259.180	361.824	-0.081	-0.163
-258.165	401.350	0.096	0.202
-257.151	-135.435	0.126	0.015
-256.136	-200.000	-0.020	0.159
-255.122	-18.303	-0.221	-0.139
-254.107	158.076	-0.076	0.106
-253.092	-81.843	-0.066	-0.022
-252.078	-111.136	-0.199	0.041
-251.063	-200.000	-0.052	0.284
-250.049	-72.043	0.144	0.054
-249.034	40.287	-0.203	0.184
-248.019	-200.000	0.003	-0.175
-247.005	-53.779	0.249	-0.114
-245.990	681.024	-0.025	-0.066
-244.976	-104.884	0.114	0.026
-243.961	-200.000	-0.026	-0.169
-242.946	-21.117	0.049	-0.030
-241.932	88.034	-0.027	0.031
-240.917	-200.000	-0.010	0.062
-239.903	-98.588	0.165	-0.042
-238.888	-33.748	-0.248	0.138
-237.873	141.970	0.048	-0.064
-236.859	112.425	0.079	-0.096
-235.844	-108.964	-0.221	0.047
-234.830	-26.222	-0.068	0.040
-233.815	-132.314	0.223	-0.029
-232.800	87.240	-0.177	-0.197
-231.786	-200.000	0.002	-0.061
-230.771	70.132	-0.071	0.073
-229.757	-53.930	0.185	-0.085
-228.742	-60.042	-0.138	-0.059
-227.727	210.950	-0.061	-0.096
-226.713	-19.877	-0.259	0.161
-225.698	-200.000	-0.008	-0.183
-224.684	737.900	0.084	-0.227
-223.669	-39.440	-0.123	-0.065
-222.655	-50.832	-0.161	0.076
-221.640	-200.000	0.037	0.200
-220.625	40.436	0.053	0.048
-219.611	420.391	-0.028	0.060
-218.596	-129.430	-0.108	0.015
-217.582	428.386	-0.071	-0.155
-216.567	-200.000	-0.012	0.062
-215.552	-38.482	0.125	0.067
-214.538	-88.069	0.122	0.037
-213.523	120.825	-0.088	-0.110
-212.509	19.791	0.165	-0.133
-211.494	301.372	0.129	-0.239
-210.479	-62.603	0.233	-0.097
-209.465	800.000	-0.017	0.050
-208.450	800.000	-0.148	0.492
-207.436	-200.000	-0.049	0.370
-206.421	60.306	-0.229	-0.228
-205.406	109.872	0.126	0.151
-204.392	157.444	-0.088	-0.123
-203.377	98.079	-0.221	0.256
-202.363	-11.092	0.366	-0.243
-201.348	94.659	-0.150	-0.171
-200.333	214.372	0.137	0.218
-199.319	262.890	-0.090	-0.157
-198.304	478.496	0.042	0.095
-197.290	502.140	-0.057	-0.133
-196.275	24.680	0.015	0.012
-195.260	73.911	-0.014	-0.015
-194.246	154.151	0.165	0.228
-193.231	-69.761	0.127	0.049
-192.217	-122.159	-0.249	0.041
-191.202	238.500	-0.103	0.171
-190.187	-200.000	0.016	0.245
-189.173	-163.407	-0.287	-0.014
-188.158	-200.000	0.086	-0.409
-187.144	-19.671	-0.153	-0.095
-186.129	-183.886	0.219	0.004
-185.114	-78.811	-0.432	0.148
-184.100	-8.665	0.252	-0.170
-183.085	-200.000	-0.006	-0.065
-182.071	-200.000	-0.040	-0.232
-181.056	-156.273	0.091	0.006
-180.042	-151.055	0.346	0.026
-179.027	-167.907	0.235	-0.009
-178.012	800.000	0.035	-0.145
-176.998	-76.090	-0.058	-0.021
-175.983	-200.000	0.049	-0.231
-174.969	-41.779	0.115	0.059
-173.954	-53.068	0.157	0.073
-172.939	237.988	0.129	0.215
-171.925	-200.000	-0.099	0.475
-170.910	-200.000	-0.022	0.119
-169.896	800.000	-0.084	0.308
-168.881	-200.000	-0.026	0.486
-167.866	-187.175	0.184	-0.003
-166.852	-133.069	0.047	0.006
-165.837	7.738	0.050	-0.038
-164.823	159.180	0.054	0.076
-163.808	-53.777	0.223	-0.102
-162.793	-38.874	-0.169	-0.089
-161.779	-200.000	-0.027	-0.197
-160.764	142.756	-0.167	0.222
-159.750	-114.094	-0.184	-0.036
-158.735	-133.016	0.222	-0.028
-157.720	35.602	0.395	0.348
-156.706	-160.730	-0.110	-0.006
-155.691	-200.000	-0.035	0.190
-154.677	-107.075	0.111	0.025
-153.662	-31.220	-0.127	0.072
-152.647	62.747	0.071	0.071
-151.633	-200.000	-0.002	-0.098
-150.618	37.388	-0.137	-0.121
-149.604	102.320	0.191	-0.224
-148.589	-200.000	-0.037	0.311
-147.574	800.000	-0.031	-0.113
-146.560	-200.000	0.032	0.272
-145.545	640.401	0.107	0.272
-144.531	-107.623	0.248	0.054
-143.516	279.930	-0.067	-0.120
-142.502	-85.440	-0.213	0.066
-141.487	-163.454	-0.324	-0.015
-140.472	-110.315	0.324	0.068
-139.458	-118.177	0.128	0.023
-138.443	133.250	0.301	-0.390
-137.429	-200.000	0.050	-0.319
-136.414	0.325	0.168	0.120
-135.399	39.022	-0.331	-0.296
-134.385	-149.039	0.292	0.024
-133.370	-37.642	0.264	-0.141
-132.356	93.440	-0.140	0.158
-131.341	49.996	-0.230	0.218
-130.326	-200.000	0.056	0.253
-129.312	701.783	-0.079	-0.208
-128.297	467.291	-0.069	0.155
-127.283	800.000	-0.063	0.225
-126.268	-188.196	-0.066	0.001
-125.253	-62.882	0.307	0.127
-124.239	-6.646	0.140	0.096
-123.224	-143.796	0.194	-0.018
-122.210	-149.702	0.144	-0.011
