DTS Sentinel unit serial number:	SN413079Multiplexer serial number:	ORYXHardware model number:	OX4-SRSoftware version number:	ORYX F/W v4.00 Oryx Data Collector v3.7.2.0data status	okinstallation	princeton_trtdifferential loss correction	single-endedforward channel	channel 3reverse channel	N/Adate	2019/09/18time	04:08:34forward acquisition time	60.00reverse acquisition time	0.00gamma	496.2192k internal	0.2343k external	0.2343temperature offset calibration	0.9948default loss term (dB/km)	0.3790temperature slope calibration	1.0000multiplexer offset coefficient	1.0000multiplexer slope coefficient	1.0000fibre end	0.00T internal ref (°C)	23.27T ext. ref 1 (°C)	0.18T ext. ref 2 (°C)	17.88length (m)	temperature (°C)	Stokes	anti-Stokes-747.200	-68.994	-0.085	-0.033
-746.185	131.410	0.047	-0.060
-745.171	-134.202	-0.262	0.032
-744.156	-200.000	0.005	0.205
-743.142	-200.000	-0.002	0.052
-742.127	91.486	-0.213	0.240
-741.112	179.681	-0.030	0.044
-740.098	800.000	-0.168	0.504
-739.083	-200.000	0.025	-0.123
-738.069	-8.505	0.137	0.092
-737.054	135.261	0.150	0.195
-736.039	-200.000	-0.089	0.405
-735.025	387.062	0.100	0.206
-734.010	-93.278	-0.122	0.034
-732.996	265.950	-0.057	-0.099
-731.981	45.093	-0.054	0.050
-730.966	-146.740	-0.378	-0.033
-729.952	34.808	-0.211	-0.185
-728.937	29.985	-0.221	-0.189
-727.923	-27.279	0.242	-0.141
-726.908	-170.416	-0.217	0.008
-725.894	41.417	0.076	-0.069
-724.879	184.334	-0.102	0.151
-723.864	328.347	0.040	-0.077
-722.850	-35.239	-0.071	-0.039
-721.835	-200.000	0.023	-0.341
-720.821	43.695	-0.053	-0.048
-719.806	-200.000	0.047	0.255
-718.791	233.831	-0.151	-0.248
-717.777	-98.123	0.128	0.033
-716.762	465.749	-0.224	-0.502
-715.748	800.000	0.148	-0.565
-714.733	-143.196	0.113	0.011
-713.718	46.552	-0.267	-0.248
-712.704	140.681	0.067	-0.088
-711.689	-71.697	-0.245	0.092
-710.675	800.000	-0.084	0.233
-709.660	-200.000	0.006	-0.047
-708.645	169.306	0.101	-0.144
-707.631	-200.000	-0.026	0.146
-706.616	38.659	0.181	0.162
-705.602	-49.983	0.163	-0.077
-704.587	186.867	0.204	-0.304
-703.572	-200.000	0.034	-0.336
-702.558	-36.077	-0.123	0.066
-701.543	277.203	0.082	0.147
-700.529	-148.901	-0.267	0.022
-699.514	800.000	-0.094	0.369
-698.499	-200.000	-0.023	-0.134
-697.485	-183.241	-0.034	-0.001
-696.470	546.306	-0.043	0.103
-695.456	-39.037	0.181	-0.095
-694.441	-200.000	0.020	0.096
-693.426	-47.567	0.171	-0.083
-692.412	800.000	0.037	0.148
-691.397	-200.000	-0.020	-0.131
-690.383	800.000	0.096	-0.354
-689.368	-112.930	-0.519	0.103
-688.354	-200.000	-0.005	-0.202
-687.339	-200.000	-0.112	0.492
-686.324	-10.078	0.166	-0.110
-685.310	21.712	-0.324	0.264
-684.295	510.613	-0.137	0.318
-683.281	208.912	0.053	-0.084
-682.266	-200.000	-0.024	-0.178
-681.251	465.921	0.086	0.192
-680.237	182.563	-0.136	-0.201
-679.222	-200.000	-0.044	-0.228
-678.208	-155.059	0.326	0.021
-677.193	-200.000	-0.031	-0.476
-676.178	-72.759	0.363	-0.134
-675.164	800.000	-0.031	0.098
-674.149	-65.714	-0.275	0.110
-673.135	-46.637	-0.260	0.127
-672.120	105.089	-0.041	-0.048
-671.105	-168.674	0.341	0.013
-670.091	-200.000	0.033	-0.179
-669.076	800.000	0.049	-0.194
-668.062	-18.142	-0.348	0.217
-667.047	-183.526	0.069	0.001
-666.032	261.230	-0.093	-0.161
-665.018	800.000	-0.063	0.181
-664.003	800.000	0.008	-0.028
-662.989	-200.000	-0.013	0.192
-661.974	-151.220	-0.196	-0.015
-660.959	-58.499	-0.310	-0.134
-659.945	-59.226	0.416	0.179
-658.930	-191.372	0.190	-0.002
-657.916	-13.538	0.243	0.157
-656.901	-86.403	0.245	0.075
-655.886	-94.237	-0.369	-0.101
-654.872	199.115	-0.046	0.071
-653.857	-28.640	-0.055	0.032
-652.843	102.045	0.126	-0.147
-651.828	-193.399	-0.134	-0.001
-650.814	-200.000	-0.002	-0.229
-649.799	124.153	-0.093	-0.116
-648.784	-200.000	0.041	0.219
-647.770	113.542	-0.062	0.075
-646.755	-72.855	0.194	-0.071
-645.741	-164.250	-0.025	-0.001
-644.726	338.133	0.174	-0.338
-643.711	32.581	-0.165	-0.142
-642.697	800.000	0.092	-0.367
-641.682	-200.000	0.000	0.207
-640.668	46.212	-0.024	-0.022
-639.653	361.596	0.069	-0.137
-638.638	-111.328	-0.322	0.066
-637.624	167.889	0.171	-0.243
-636.609	-50.245	0.112	-0.053
-635.595	-85.607	0.322	-0.100
-634.580	-21.883	-0.244	-0.148
-633.565	-200.000	-0.034	-0.169
-632.551	-13.542	-0.207	0.134
-631.536	11.249	-0.319	-0.243
-630.522	-187.093	0.119	0.002
-629.507	-92.948	0.229	-0.064
-628.492	-200.000	0.012	-0.066
-627.478	616.756	0.056	-0.139
-626.463	-200.000	-0.008	-0.254
-625.449	346.630	-0.168	-0.330
-624.434	240.141	-0.014	0.023
-623.419	-118.061	-0.279	0.050
-622.405	-88.130	0.325	0.097
-621.390	800.000	-0.054	-0.222
-620.376	430.056	-0.085	0.183
-619.361	-54.479	0.211	-0.095
-618.346	-200.000	0.026	-0.330
-617.332	405.218	-0.044	-0.092
-616.317	31.842	-0.178	-0.153
-615.303	-190.135	-0.266	-0.003
-614.288	611.537	-0.100	-0.249
-613.273	-145.145	0.069	0.006
-612.259	-92.418	-0.389	-0.109
-611.244	-90.719	-0.211	0.061
-610.230	-200.000	-0.102	0.000
-609.215	589.485	-0.108	0.264
-608.201	-200.000	-0.032	-0.143
-607.186	307.774	0.093	-0.172
-606.171	-86.167	0.334	-0.102
-605.157	-200.000	0.011	-0.070
-604.142	38.304	-0.120	-0.106
-603.128	87.244	0.018	0.020
-602.113	-66.808	-0.189	-0.074
-601.098	297.033	-0.093	0.169
-600.084	800.000	-0.134	0.417
-599.069	-113.674	0.170	-0.033
-598.055	-45.504	0.459	0.227
-597.040	-106.741	-0.471	-0.104
-596.025	30.451	0.147	-0.125
-595.011	89.133	-0.202	-0.223
-593.996	-200.000	0.004	-0.188
-592.982	-72.432	-0.053	0.020
-591.967	-93.610	0.374	0.103
-590.952	-200.000	-0.016	-0.228
-589.938	-42.395	0.459	0.233
-588.923	-88.498	-0.114	0.034
-587.909	-88.129	-0.226	-0.067
-586.894	-98.330	0.053	-0.013
-585.879	-200.000	0.001	0.105
-584.865	-183.032	-0.236	0.004
-583.850	800.000	0.022	0.065
-582.836	-44.628	0.198	0.099
-581.821	-15.035	-0.275	-0.175
-580.806	-197.044	-0.142	0.001
-579.792	270.212	0.078	-0.137
-578.777	179.147	-0.187	0.272
-577.763	496.837	-0.133	0.305
-576.748	102.432	0.275	-0.319
-575.733	-109.493	-0.352	0.074
-574.719	144.014	-0.063	-0.083
-573.704	37.233	-0.158	0.139
-572.690	-16.277	0.190	-0.120
-571.675	-144.897	0.068	0.006
-570.661	-107.020	0.258	-0.057
-569.646	-22.737	-0.166	0.100
-568.631	-79.644	0.204	-0.068
-567.617	33.778	0.171	-0.148
-566.602	-63.188	0.089	-0.037
-565.588	164.762	0.109	0.152
-564.573	279.130	-0.087	0.155
-563.558	26.891	0.075	-0.063
-562.544	-85.568	-0.104	-0.032
-561.529	-200.000	-0.016	-0.118
-560.515	-1.725	-0.125	0.088
-559.500	800.000	-0.091	-0.258
-558.485	800.000	0.096	0.284
-557.471	800.000	0.189	-0.521
-556.456	-200.000	-0.002	-0.151
-555.442	-18.401	0.150	-0.093
-554.427	36.476	-0.077	0.068
-553.412	405.442	-0.007	0.014
-552.398	99.831	0.193	0.222
-551.383	-200.000	-0.030	0.274
-550.369	187.483	-0.293	0.434
-549.354	-117.481	0.143	-0.026
-548.339	-134.585	-0.149	-0.018
-547.325	-115.446	-0.038	-0.007
-546.310	39.308	-0.194	-0.172
-545.296	-95.586	0.202	-0.054
-544.281	170.883	-0.027	0.038
-543.266	-200.000	0.018	0.159
-542.252	800.000	-0.029	0.101
-541.237	404.161	-0.145	-0.304
-540.223	-107.841	0.211	-0.046
-539.208	-57.540	-0.103	-0.045
-538.193	-112.450	-0.276	0.055
-537.179	122.709	0.062	-0.077
-536.164	-83.808	-0.200	0.063
-535.150	800.000	0.032	0.090
-534.135	-164.406	-0.133	-0.006
-533.121	800.000	-0.148	-0.419
-532.106	-88.149	0.322	0.096
-531.091	-8.167	-0.120	-0.080
-530.077	-200.000	0.008	-0.193
-529.062	-200.000	-0.025	-0.314
-528.048	-200.000	-0.064	-0.366
-527.033	270.555	-0.100	0.174
-526.018	-172.413	-0.366	-0.012
-525.004	670.300	-0.166	0.426
-523.989	-82.009	-0.300	0.097
-522.975	-61.331	-0.165	0.069
-521.960	496.909	0.088	0.201
-520.945	-200.000	-0.028	-0.451
-519.931	-90.723	0.162	-0.046
-518.916	-148.400	0.260	0.021
-517.902	256.583	0.219	-0.374
-516.887	40.595	0.120	0.108
-515.872	28.791	0.115	-0.096
-514.858	134.155	-0.074	-0.096
-513.843	800.000	0.037	-0.134
-512.829	-4.170	0.047	0.032
-511.814	73.149	-0.261	-0.270
-510.799	-74.545	-0.163	-0.058
-509.785	-200.000	-0.030	-0.465
-508.770	87.334	-0.112	-0.123
-507.756	-7.674	0.234	-0.157
-506.741	-108.133	0.375	-0.081
-505.726	6.707	-0.080	-0.059
-504.712	-126.687	-0.142	-0.021
-503.697	-8.637	-0.169	0.113
-502.683	119.231	-0.157	-0.193
-501.668	-43.248	-0.098	-0.049
-500.653	800.000	-0.084	-0.293
-499.639	800.000	0.089	-0.310
-498.624	-200.000	0.016	-0.147
-497.610	-48.263	-0.208	0.100
-496.595	-29.768	-0.097	0.055
-495.581	601.057	-0.009	-0.021
-494.566	-78.126	0.418	0.143
-493.551	-104.832	-0.171	0.039
-492.537	333.533	0.189	-0.363
-491.522	-72.931	-0.203	0.074
-490.508	-200.000	0.017	0.150
-489.493	-20.488	0.124	0.076
-488.478	84.751	0.185	0.201
-487.464	-61.881	-0.106	0.044
-486.449	148.545	0.234	0.314
-485.435	202.999	-0.110	0.168
-484.420	292.973	0.064	0.116
-483.405	-198.589	-0.322	0.002
-482.391	-200.000	-0.028	0.237
-481.376	-158.656	0.213	-0.012
-480.362	733.309	0.088	-0.233
-479.347	-200.000	-0.002	-0.094
-478.332	-50.687	-0.170	0.079
-477.318	-11.508	0.167	0.109
-476.303	276.192	0.185	0.325
-475.289	-69.864	-0.083	-0.032
-474.274	-152.473	-0.167	0.012
-473.259	196.950	-0.060	-0.090
-472.245	10.814	-0.094	-0.071
-471.230	78.002	-0.132	0.139
-470.216	-200.000	-0.047	0.323
-469.201	-134.624	0.145	-0.017
-468.186	-64.245	-0.250	0.101
-467.172	-200.000	-0.009	-0.080
-466.157	-162.515	-0.391	0.019
-465.143	-76.215	0.351	0.123
-464.128	-62.131	-0.220	-0.091
-463.113	140.011	0.042	-0.055
-462.099	-3.965	0.051	-0.035
-461.084	-200.000	-0.019	0.283
-460.070	51.117	0.121	0.114
-459.055	-76.877	0.098	-0.034
-458.040	-63.656	0.066	0.027
-457.026	135.975	-0.122	-0.157
-456.011	-82.060	-0.213	0.069
-454.997	169.885	-0.194	0.274
-453.982	-21.364	0.125	0.076
-452.968	-200.000	-0.019	0.270
-451.953	126.655	0.160	0.201
-450.938	-200.000	0.023	0.123
-449.924	-92.202	0.409	-0.114
-448.909	14.041	-0.109	-0.084
-447.895	142.638	-0.116	0.153
-446.880	-149.004	0.145	0.012
-445.865	-143.417	0.041	-0.004
-444.851	800.000	-0.107	-0.332
-443.836	800.000	0.010	0.036
-442.822	-122.792	-0.062	0.010
-441.807	-200.000	-0.008	0.203
-440.792	214.792	-0.282	-0.442
-439.778	-200.000	-0.003	-0.166
-438.763	-200.000	-0.028	-0.194
-437.749	-167.570	0.372	0.015
-436.734	-200.000	-0.029	0.220
-435.719	800.000	0.074	-0.295
-434.705	-70.271	-0.114	-0.043
-433.690	-98.829	0.263	0.066
-432.676	571.134	-0.039	0.095
-431.661	-99.244	0.213	-0.053
-430.646	-200.000	0.042	-0.237
-429.632	46.337	-0.101	0.092
-428.617	75.239	0.055	-0.057
-427.603	-107.664	-0.433	0.094
-426.588	258.610	-0.103	-0.175
-425.573	386.997	-0.161	-0.330
-424.559	-200.000	-0.024	-0.173
-423.544	144.804	-0.250	0.331
-422.530	-146.891	0.293	0.025
-421.515	-200.000	-0.006	-0.319
-420.500	-146.250	-0.104	-0.009
-419.486	99.041	-0.099	0.113
-418.471	82.733	0.393	0.422
-417.457	434.951	-0.124	0.267
-416.442	559.905	0.059	0.140
-415.428	-59.344	0.058	0.025
-414.413	-200.000	0.056	-0.299
-413.398	-40.335	-0.078	-0.040
-412.384	800.000	-0.080	-0.303
-411.369	-1.181	0.159	0.111
-410.355	10.633	-0.096	-0.072
-409.340	-75.717	0.160	0.056
-408.325	-73.185	-0.272	0.099
-407.311	240.963	0.084	-0.139
-406.296	258.135	0.240	0.408
-405.282	800.000	0.007	-0.020
-404.267	26.700	-0.185	-0.153
-403.252	-200.000	-0.016	0.102
-402.238	654.071	-0.030	0.077
-401.223	-131.529	-0.286	-0.037
-400.209	-143.142	0.170	-0.016
-399.194	25.882	0.150	0.124
-398.179	240.455	0.300	0.494
-397.165	295.490	0.062	0.111
-396.150	265.744	0.093	-0.161
-395.136	-30.776	0.141	0.079
-394.121	800.000	-0.069	0.290
-393.106	36.659	-0.077	0.067
-392.092	-58.337	-0.300	0.129
-391.077	53.812	0.230	0.218
-390.063	800.000	0.048	0.189
-389.048	-200.000	-0.005	-0.099
-388.033	163.230	0.223	0.309
-387.019	800.000	0.081	0.266
-386.004	800.000	-0.054	0.173
-384.990	146.203	-0.271	-0.359
-383.975	-27.452	0.385	-0.221
-382.960	-200.000	0.017	0.395
-381.946	800.000	0.093	0.273
-380.931	55.633	0.084	0.080
-379.917	-121.804	0.141	0.023
-378.902	88.149	-0.328	0.359
-377.888	-3.335	0.096	-0.066
-376.873	-93.848	-0.105	-0.029
-375.858	800.000	0.113	0.410
-374.844	-120.265	0.303	0.051
-373.829	233.059	-0.068	0.110
-372.815	-200.000	-0.002	0.012
-371.800	-67.411	0.195	0.076
-370.785	-65.928	0.086	0.034
-369.771	-200.000	-0.022	-0.101
-368.756	189.053	-0.177	0.261
-367.742	-141.529	-0.238	0.024
-366.727	-66.239	0.148	-0.058
-365.712	161.218	0.026	0.036
-364.698	-128.113	-0.213	-0.030
-363.683	-18.568	0.129	0.080
-362.669	68.775	-0.206	0.209
-361.654	-19.375	-0.297	-0.182
-360.639	-49.859	-0.191	0.089
-359.625	-90.223	-0.363	-0.104
-358.610	-5.747	0.249	-0.168
-357.596	-58.452	0.180	0.077
-356.581	800.000	-0.094	0.347
-355.566	18.685	-0.164	-0.129
-354.552	-200.000	-0.005	0.212
-353.537	15.182	0.178	0.138
-352.523	40.770	0.091	0.081
-351.508	-41.316	0.112	0.057
-350.493	-48.419	-0.090	-0.043
-349.479	5.963	0.096	0.070
-348.464	-80.263	0.178	-0.059
-347.450	-106.373	-0.348	-0.077
-346.435	-200.000	0.037	0.201
-345.420	309.164	0.139	-0.257
-344.406	-31.939	-0.360	0.199
-343.391	-78.051	0.205	-0.070
-342.377	56.379	-0.235	0.225
-341.362	-200.000	0.016	0.392
-340.348	374.253	-0.030	0.060
-339.333	97.523	-0.187	-0.212
-338.318	-200.000	-0.037	0.332
-337.304	-200.000	-0.082	0.361
-336.289	-82.310	-0.240	-0.077
-335.275	-200.000	0.081	0.388
-334.260	-200.000	0.104	0.000
-333.245	134.407	-0.207	0.265
-332.231	-111.853	0.160	0.032
-331.216	-200.000	-0.005	-0.131
-330.202	-51.701	-0.403	-0.185
-329.187	468.363	-0.057	0.126
-328.172	-200.000	0.010	-0.156
-327.158	-9.664	-0.154	0.101
-326.143	-200.000	0.003	-0.210
-325.129	59.701	0.306	0.298
-324.114	4.510	-0.246	0.178
-323.099	-30.189	-0.139	0.078
-322.085	-200.000	-0.004	-0.210
-321.070	695.450	0.049	-0.127
-320.056	11.654	-0.273	0.207
-319.041	24.769	-0.105	-0.086
-318.026	-118.563	0.150	0.026
-317.012	-114.031	0.222	-0.042
-315.997	747.909	0.060	0.159
-314.983	-200.000	-0.006	-0.476
-313.968	800.000	0.163	-0.494
-312.953	-179.743	0.287	0.006
-311.939	396.658	0.023	-0.047
-310.924	78.768	-0.203	-0.214
-309.910	144.933	-0.170	0.224
-308.895	289.542	0.194	0.346
-307.880	12.687	0.366	-0.279
-306.866	-63.213	0.235	0.095
-305.851	-200.000	0.008	-0.199
-304.837	15.971	-0.141	-0.109
-303.822	-28.718	0.070	0.039
-302.807	-200.000	0.008	0.161
-301.793	-13.313	-0.297	-0.190
-300.778	800.000	0.079	0.242
-299.764	-189.107	-0.341	0.004
-298.749	-83.079	-0.250	0.079
-297.735	800.000	-0.020	0.075
-296.720	26.833	0.133	-0.110
-295.705	-82.946	-0.103	0.033
-294.691	19.270	-0.134	0.106
-293.676	-200.000	-0.017	0.111
-292.662	9.278	0.319	0.237
-291.647	109.444	0.379	0.447
-290.632	7.887	0.246	-0.182
-289.618	-9.126	0.221	0.145
-288.603	-2.915	0.132	0.090
-287.589	-200.000	-0.004	-0.149
-286.574	-200.000	-0.046	0.390
-285.559	82.071	0.118	0.125
-284.545	-134.431	0.249	0.030
-283.530	-71.328	0.278	-0.102
-282.516	800.000	0.041	0.122
-281.501	-39.467	-0.335	-0.173
-280.486	62.969	0.161	0.158
-279.472	-63.636	0.101	-0.041
-278.457	800.000	0.024	-0.069
-277.443	-200.000	0.035	-0.221
-276.428	14.349	0.129	0.099
-275.413	-102.760	0.294	0.069
-274.399	800.000	0.040	-0.138
-273.384	57.779	0.041	-0.040
-272.370	-200.000	-0.065	-0.357
-271.355	-39.369	0.101	0.052
-270.340	56.753	0.142	-0.136
-269.326	135.728	-0.042	0.053
-268.311	-23.888	0.125	0.073
-267.297	291.479	-0.092	0.164
-266.282	-200.000	0.038	-0.202
-265.267	411.215	-0.041	0.085
-264.253	-109.490	0.316	-0.066
-263.238	-45.596	-0.095	0.046
-262.224	-65.310	-0.171	-0.067
-261.209	-100.389	0.183	-0.044
-260.195	679.870	-0.095	0.244
-259.180	-128.775	0.321	-0.044
-258.165	-127.526	-0.087	-0.012
-257.151	-45.103	0.258	-0.126
-256.136	238.459	0.153	-0.250
-255.122	-28.994	-0.118	-0.066
-254.107	800.000	-0.038	0.122
-253.092	-0.512	-0.147	-0.103
-252.078	-14.442	-0.171	-0.108
-251.063	-106.529	-0.184	-0.040
-250.049	-72.317	-0.102	0.037
-249.034	42.724	-0.043	0.038
-248.019	9.917	-0.170	0.127
-247.005	-200.000	0.058	-0.365
-245.990	108.556	-0.103	-0.121
-244.976	392.418	-0.105	0.214
-243.961	-130.948	-0.467	-0.061
-242.946	-178.074	-0.127	0.003
-241.932	800.000	-0.095	0.277
-240.917	800.000	-0.104	-0.421
-239.903	56.881	0.191	-0.183
-238.888	172.655	0.087	-0.123
-237.873	439.740	0.135	-0.290
-236.859	800.000	0.021	-0.066
-235.844	-200.000	0.004	0.067
-234.830	214.739	-0.164	0.256
-233.815	154.383	-0.170	0.230
-232.800	-74.491	0.131	-0.046
-231.786	-91.752	0.140	0.039
-230.771	-31.072	-0.237	0.131
-229.757	39.645	-0.083	-0.073
-228.742	-151.570	0.112	0.008
-227.727	43.457	0.200	0.179
-226.713	296.003	-0.091	-0.163
-225.698	-67.602	0.323	-0.124
-224.684	-200.000	-0.009	-0.111
-223.669	-200.000	-0.013	0.249
-222.655	-74.439	-0.197	0.070
-221.640	-85.784	-0.111	0.034
-220.625	-5.743	0.088	-0.059
-219.611	400.812	-0.179	-0.369
-218.596	702.516	-0.075	-0.193
-217.582	240.760	0.086	0.142
-216.567	400.715	-0.172	0.354
-215.552	302.137	0.026	-0.047
-214.538	-129.135	-0.274	0.038
-213.523	57.812	-0.120	0.116
-212.509	135.022	-0.099	0.126
-211.494	-200.000	0.021	-0.135
-210.479	800.000	-0.137	-0.461
-209.465	-200.000	0.005	0.057
-208.450	-87.243	-0.169	-0.050
-207.436	-151.192	0.511	0.038
-206.421	190.419	0.050	-0.073
-205.406	-126.409	-0.099	-0.015
-204.392	800.000	0.049	0.199
-203.377	-157.162	0.388	-0.023
-202.363	800.000	0.072	0.284
-201.348	-171.363	0.207	-0.007
-200.333	17.923	0.163	-0.127
-199.319	582.637	0.080	-0.193
-198.304	-82.589	0.300	-0.095
-197.290	286.431	-0.083	0.148
-196.275	-37.691	-0.130	0.068
-195.260	-20.381	0.204	0.123
-194.246	269.212	0.150	-0.257
-193.231	-200.000	-0.027	0.127
-192.217	-33.257	-0.239	0.130
-191.202	-129.804	-0.081	0.011
-190.187	249.621	0.208	-0.346
-189.173	-90.786	0.054	-0.015
-188.158	221.189	0.049	0.078
-187.144	-200.000	-0.044	-0.352
-186.129	71.129	-0.006	0.007
-185.114	-163.394	-0.276	-0.013
-184.100	-80.232	0.320	-0.105
-183.085	237.427	0.220	-0.358
-182.071	800.000	0.076	-0.231
-181.056	-101.901	-0.163	0.039
-180.042	-33.756	0.338	-0.182
-179.027	95.364	-0.227	0.253
-178.012	-200.000	0.001	-0.074
-176.998	31.333	0.217	0.183
-175.983	-116.294	0.150	-0.027
-174.969	-23.030	-0.117	-0.069
-173.954	-32.068	0.154	0.084
-172.939	200.251	0.171	-0.257
-171.925	-45.186	0.158	0.077
-170.910	-108.832	-0.299	0.063
-169.896	800.000	0.163	0.538
-168.881	800.000	0.045	-0.141
-167.866	-48.341	-0.117	-0.055
-166.852	800.000	0.058	0.199
-165.837	-200.000	-0.055	-0.287
-164.823	-200.000	-0.011	-0.082
-163.808	-13.463	-0.257	-0.163
-162.793	-122.825	0.373	0.059
-161.779	-200.000	0.028	-0.170
-160.764	-130.542	-0.484	0.064
-159.750	535.150	0.055	0.128
-158.735	-200.000	0.003	0.390
-157.720	642.045	-0.187	0.467
-156.706	-55.626	0.223	-0.098
-155.691	800.000	0.037	-0.123
-154.677	-200.000	-0.011	-0.196
-153.662	-200.000	0.012	0.106
-152.647	-176.597	0.261	0.007
-151.633	-87.305	0.218	0.065
-150.618	-148.666	0.089	-0.007
-149.604	800.000	0.057	-0.200
-148.589	-46.134	0.125	0.060
-147.574	-55.214	-0.140	-0.061
-146.560	-200.000	-0.069	-0.420
-145.545	-83.596	0.074	0.023
-144.531	192.093	0.105	-0.156
-143.516	47.080	0.133	0.121
-142.502	28.995	-0.225	-0.187
-141.487	-150.218	-0.251	-0.019
-140.472	28.123	-0.274	-0.226
-139.458	287.872	0.096	0.170
-138.443	683.882	-0.121	-0.309
-137.429	-86.684	-0.412	0.123
-136.414	-104.386	0.245	-0.055
-135.399	-54.259	-0.188	-0.084
-134.385	-119.740	-0.171	-0.029
-133.370	-74.890	0.298	-0.104
-132.356	-2.086	0.159	0.109
-131.341	270.971	0.258	0.445
-130.326	-61.893	0.143	-0.058
-129.312	-2.096	0.121	0.083
-128.297	-7.753	0.027	-0.018
-127.283	-200.000	-0.050	-0.269
-126.268	-49.779	0.316	-0.147
-125.253	471.301	0.015	-0.032
-124.239	-22.939	-0.273	-0.161
-123.224	-132.998	-0.297	0.037
-122.210	-104.938	0.108	-0.024
