DTS Sentinel unit serial number:	SN413079Multiplexer serial number:	ORYXHardware model number:	OX4-SRSoftware version number:	ORYX F/W v4.00 Oryx Data Collector v3.7.2.0data status	okinstallation	princeton_trtdifferential loss correction	single-endedforward channel	channel 3reverse channel	N/Adate	2019/09/12time	19:48:04forward acquisition time	15.00reverse acquisition time	0.00gamma	496.2192k internal	0.2322k external	0.2322temperature offset calibration	1.0116default loss term (dB/km)	0.3790temperature slope calibration	1.0000multiplexer offset coefficient	1.0000multiplexer slope coefficient	1.0000fibre end	0.00T internal ref (°C)	31.94T ext. ref 1 (°C)	3.48T ext. ref 2 (°C)	26.49length (m)	temperature (°C)	Stokes	anti-Stokes-747.200	92.989	0.439	-0.502
-746.185	125.633	0.584	-0.745
-745.171	676.905	0.099	-0.261
-744.156	163.615	-0.247	0.351
-743.142	67.767	-0.579	0.598
-742.127	-43.393	0.363	-0.186
-741.112	-8.975	0.736	-0.498
-740.098	168.185	-0.250	0.360
-739.083	-56.958	-0.198	0.088
-738.069	-200.000	-0.029	0.301
-737.054	-54.370	0.445	0.204
-736.039	125.648	-0.373	0.476
-735.025	666.860	0.182	0.474
-734.010	761.337	-0.122	0.334
-732.996	369.890	-0.450	0.920
-731.981	-22.468	0.543	0.332
-730.966	149.956	-0.252	-0.346
-729.952	-55.022	-0.581	-0.264
-728.937	-200.000	0.073	-0.943
-727.923	-30.961	0.627	-0.357
-726.908	105.520	0.477	-0.569
-725.894	-26.015	-0.625	0.371
-724.879	40.218	-0.611	-0.554
-723.864	-6.027	0.080	0.055
-722.850	-84.064	0.352	-0.113
-721.835	0.428	-0.318	0.229
-720.821	177.875	0.630	0.927
-719.806	47.742	-0.385	0.363
-718.791	-124.392	-0.354	0.056
-717.777	47.846	0.237	-0.224
-716.762	-0.350	0.787	-0.564
-715.748	-200.000	0.138	-1.606
-714.733	264.734	0.145	-0.256
-713.718	800.000	0.130	-0.408
-712.704	-200.000	-0.020	-0.778
-711.689	-164.090	0.510	0.024
-710.675	-200.000	0.025	-0.421
-709.660	227.970	-0.581	-0.955
-708.645	-96.890	0.328	0.087
-707.631	190.458	0.502	0.761
-706.616	-126.580	0.583	0.087
-705.602	-12.386	-0.568	0.374
-704.587	-128.948	-0.435	-0.062
-703.572	-129.638	0.658	0.092
-702.558	800.000	-0.127	-0.499
-701.543	800.000	-0.289	1.001
-700.529	-107.335	-0.114	-0.025
-699.514	-146.759	0.777	-0.068
-698.499	800.000	0.153	-0.490
-697.485	-199.666	-0.678	0.003
-696.470	42.358	0.516	0.473
-695.456	-58.593	0.630	0.275
-694.441	-200.000	-0.152	0.708
-693.426	-15.556	0.620	0.399
-692.412	75.312	0.527	0.561
-691.397	-140.822	-0.564	-0.059
-690.383	-200.000	0.023	-0.334
-689.368	132.206	-0.506	0.658
-688.354	309.886	0.350	0.660
-687.339	-156.141	0.092	-0.006
-686.324	-200.000	-0.077	0.364
-685.310	800.000	0.282	-0.937
-684.295	192.706	0.397	0.604
-683.281	206.903	-0.236	-0.371
-682.266	445.100	-0.309	0.684
-681.251	52.173	-0.386	-0.371
-680.237	78.842	0.684	-0.737
-679.222	-185.670	-0.371	0.006
-678.208	-136.910	-0.206	-0.024
-677.193	367.577	0.189	-0.384
-676.178	-115.630	0.165	0.031
-675.164	208.993	-0.024	-0.039
-674.149	-184.676	-0.754	-0.012
-673.135	-200.000	0.034	0.521
-672.120	59.992	-0.361	-0.360
-671.105	800.000	-0.209	0.665
-670.091	-200.000	-0.070	0.904
-669.076	-200.000	-0.029	-0.267
-668.062	800.000	0.303	-1.181
-667.047	-101.317	-0.186	-0.046
-666.032	73.226	0.120	-0.126
-665.018	800.000	0.190	0.563
-664.003	569.462	-0.186	0.456
-662.989	-60.484	0.504	0.216
-661.974	-200.000	0.125	-0.572
-660.959	210.251	0.399	0.630
-659.945	800.000	0.143	-0.525
-658.930	-75.907	-0.566	0.202
-657.916	0.597	0.319	-0.230
-656.901	-88.457	0.685	-0.206
-655.886	-200.000	0.008	-0.439
-654.872	788.955	-0.192	-0.530
-653.857	39.671	0.421	0.380
-652.843	102.561	-0.524	-0.617
-651.828	-62.550	-0.342	-0.143
-650.814	-151.239	0.278	0.021
-649.799	41.296	0.126	-0.115
-648.784	-165.600	-0.478	-0.021
-647.770	800.000	0.224	-0.691
-646.755	-114.241	-0.167	-0.032
-645.741	-24.866	0.501	0.299
-644.726	437.207	-0.290	-0.636
-643.711	800.000	0.247	-0.814
-642.697	-200.000	-0.002	0.540
-641.682	-127.924	0.443	0.064
-640.668	107.291	0.232	-0.278
-639.653	-8.599	0.975	0.658
-638.638	-105.825	0.544	0.124
-637.624	-142.578	0.833	0.082
-636.609	76.088	0.360	0.383
-635.595	73.115	-0.897	0.944
-634.580	230.183	0.021	0.035
-633.565	-200.000	-0.155	-1.495
-632.551	106.039	0.308	0.367
-631.536	-60.303	-0.346	0.148
-630.522	272.897	-0.345	-0.613
-629.507	154.533	0.168	-0.232
-628.492	-60.414	-0.810	0.346
-627.478	228.583	-0.096	0.157
-626.463	-13.450	0.454	-0.296
-625.449	-200.000	0.051	-0.368
-624.434	-98.944	-0.787	0.201
-623.419	-44.138	0.200	-0.101
-622.405	-200.000	0.147	-0.651
-621.390	-23.257	0.340	0.206
-620.376	400.254	-0.160	-0.338
-619.361	-93.672	-0.780	0.216
-618.346	-200.000	0.051	-0.461
-617.332	-141.052	-0.506	-0.052
-616.317	77.996	0.664	0.712
-615.303	-135.106	0.321	0.039
-614.288	-28.570	-0.507	0.293
-613.273	-6.132	0.410	0.281
-612.259	-61.548	-0.593	0.250
-611.244	800.000	-0.118	0.400
-610.230	-19.012	1.020	0.637
-609.215	-140.320	-0.354	0.037
-608.201	-200.000	-0.131	-0.879
-607.186	264.615	-0.395	-0.692
-606.171	271.232	0.119	-0.211
-605.157	-9.466	1.218	0.817
-604.142	242.508	0.111	0.187
-603.128	36.926	0.282	0.251
-602.113	-62.721	-1.153	-0.480
-601.098	-200.000	-0.001	-0.533
-600.084	28.655	-0.612	-0.520
-599.069	800.000	0.159	0.479
-598.055	-116.227	0.201	0.038
-597.040	-73.922	0.384	-0.140
-596.025	800.000	-0.112	0.334
-595.011	-169.645	-0.340	0.012
-593.996	174.705	0.704	1.022
-592.982	-8.858	0.507	0.341
-591.967	-54.287	0.054	0.025
-590.952	428.074	-0.185	-0.400
-589.938	233.829	-0.145	-0.240
-588.923	800.000	-0.081	-0.279
-587.909	-200.000	0.017	0.502
-586.894	85.759	0.426	0.470
-585.879	79.772	-0.426	0.460
-584.865	366.999	0.107	-0.216
-583.850	39.911	0.380	-0.343
-582.836	-78.689	0.221	-0.076
-581.821	119.412	-0.214	0.266
-580.806	122.517	0.531	0.667
-579.792	-66.039	0.097	0.039
-578.777	308.348	-0.388	-0.727
-577.763	800.000	-0.058	-0.234
-576.748	-200.000	-0.026	-0.302
-575.733	-200.000	-0.051	0.472
-574.719	-200.000	-0.000	-0.978
-573.704	-200.000	0.058	-0.446
-572.690	3.989	-0.560	0.411
-571.675	-180.378	-0.547	-0.011
-570.661	-200.000	-0.001	-1.327
-569.646	-200.000	-0.019	-0.250
-568.631	-200.000	0.081	-0.465
-567.617	406.307	0.222	0.471
-566.602	-200.000	-0.007	-0.331
-565.588	75.159	0.157	0.166
-564.573	-200.000	0.040	0.373
-563.558	-200.000	0.064	-0.521
-562.544	-182.123	-0.832	-0.016
-561.529	-200.000	0.056	-0.586
-560.515	-200.000	0.268	0.001
-559.500	-32.216	-0.035	0.020
-558.485	124.234	-0.576	-0.726
-557.471	-35.902	0.345	0.187
-556.456	800.000	-0.115	0.448
-555.442	-105.146	0.162	-0.037
-554.427	146.063	0.579	0.779
-553.412	8.160	0.752	0.566
-552.398	-148.279	0.811	-0.067
-551.383	763.481	-0.064	-0.173
-550.369	561.861	-0.359	-0.871
-549.354	-200.000	-0.064	-0.804
-548.339	-36.611	-1.054	0.568
-547.325	18.235	-0.439	-0.352
-546.310	134.865	-0.180	0.234
-545.296	-139.544	0.137	0.015
-544.281	-200.000	0.031	-0.451
-543.266	-200.000	-0.076	-0.584
-542.252	-74.883	-0.240	-0.086
-541.237	91.722	-0.351	0.395
-540.223	-103.217	-0.607	0.144
-539.208	-26.618	0.734	-0.430
-538.193	-200.000	0.036	0.319
-537.179	386.764	0.219	0.453
-536.164	573.953	0.099	0.242
-535.150	800.000	-0.246	-0.748
-534.135	-60.160	0.804	-0.344
-533.121	-80.611	-1.468	-0.489
-532.106	800.000	0.416	-1.175
-531.091	490.408	-0.300	-0.687
-530.077	153.885	-0.560	-0.769
-529.062	-200.000	-0.090	0.439
-528.048	-132.496	0.446	0.057
-527.033	53.107	-0.373	0.357
-526.018	-200.000	-0.014	0.581
-525.004	-200.000	0.094	0.434
-523.989	-37.610	0.459	0.245
-522.975	39.667	-0.216	0.194
-521.960	-39.266	-0.539	0.283
-520.945	-200.000	0.003	-0.039
-519.931	-200.000	0.010	-0.615
-518.916	250.987	0.085	-0.144
-517.902	-89.095	0.176	-0.052
-516.887	-52.851	-0.456	0.211
-515.872	-128.390	-0.421	-0.060
-514.858	-28.046	0.744	-0.431
-513.843	-107.846	-0.942	-0.205
-512.829	38.035	-0.126	-0.112
-511.814	-200.000	-0.045	-0.303
-510.799	-111.426	-0.572	0.117
-509.785	-66.839	-0.438	-0.173
-508.770	-69.905	-0.279	-0.106
-507.756	-75.487	0.183	-0.065
-506.741	208.439	-0.361	-0.565
-505.726	-103.964	0.762	0.178
-504.712	-200.000	0.160	0.758
-503.697	-77.132	-0.194	0.068
-502.683	216.936	-0.091	-0.145
-501.668	155.135	0.508	-0.699
-500.653	-44.934	0.207	-0.103
-499.639	50.050	0.508	-0.480
-498.624	-200.000	0.082	-0.565
-497.610	800.000	-0.269	0.846
-496.595	800.000	0.162	-0.630
-495.581	134.207	-0.667	-0.864
-494.566	132.709	0.028	0.036
-493.551	-166.549	-0.529	0.022
-492.537	-122.121	-0.366	-0.060
-491.522	800.000	0.163	0.634
-490.508	-118.077	-0.765	0.137
-489.493	-51.929	0.470	0.219
-488.478	800.000	0.170	-0.671
-487.464	-120.359	0.278	-0.047
-486.449	227.214	-0.138	0.224
-485.435	-200.000	-0.022	-0.597
-484.420	-18.136	-0.404	-0.253
-483.405	95.571	0.242	0.276
-482.391	-121.110	-0.626	0.105
-481.376	-200.000	-0.030	-0.241
-480.362	-159.568	-0.417	0.023
-479.347	-114.644	-0.337	0.065
-478.332	120.015	0.768	0.952
-477.318	-200.000	0.039	-0.204
-476.303	66.814	0.502	0.511
-475.289	56.563	0.742	0.722
-474.274	800.000	0.136	0.522
-473.259	800.000	0.091	-0.253
-472.245	-99.939	-0.472	-0.118
-471.230	-200.000	-0.017	-0.331
-470.216	-137.048	-0.741	0.085
-469.201	-78.456	1.220	0.418
-468.186	-24.323	1.322	-0.788
-467.172	-23.929	0.406	0.243
-466.157	-200.000	0.031	-0.587
-465.143	-133.555	-0.246	-0.031
-464.128	376.846	-0.135	0.275
-463.113	34.109	-0.636	0.554
-462.099	-63.260	0.419	-0.172
-461.084	-66.400	-0.515	0.205
-460.070	-200.000	-0.085	0.687
-459.055	31.340	-0.452	0.388
-458.040	15.340	-0.397	-0.311
-457.026	-200.000	0.052	-0.644
-456.011	2.971	0.466	0.338
-454.997	52.923	-0.210	-0.201
-453.982	146.381	0.276	0.370
-452.968	499.652	0.286	-0.659
-451.953	126.546	-0.405	-0.512
-450.938	-64.193	-0.290	0.118
-449.924	-62.057	-0.189	-0.079
-448.909	50.629	-0.616	0.582
-447.895	438.399	-0.143	0.312
-446.880	-149.990	0.894	-0.070
-445.865	-62.179	0.346	-0.144
-444.851	44.720	0.629	0.577
-443.836	390.845	-0.138	0.286
-442.822	-200.000	-0.106	0.545
-441.807	393.838	0.139	-0.290
-440.792	800.000	0.213	-0.636
-439.778	323.272	0.431	-0.821
-438.763	-100.628	0.388	-0.096
-437.749	38.833	0.134	0.119
-436.734	232.743	-0.723	1.186
-435.719	743.093	0.209	0.562
-434.705	95.184	-0.423	-0.481
-433.690	-5.423	-0.501	-0.344
-432.676	113.208	0.531	0.643
-431.661	196.890	0.438	0.667
-430.646	-122.997	1.126	0.181
-429.632	20.051	-0.419	-0.337
-428.617	-196.666	0.361	0.002
-427.603	-70.399	0.092	-0.035
-426.588	176.418	-0.297	-0.430
-425.573	-200.000	-0.049	0.266
-424.559	91.486	0.042	-0.047
-423.544	-200.000	-0.043	0.199
-422.530	-135.270	-1.072	0.128
-421.515	9.180	0.425	-0.320
-420.500	62.986	-0.519	-0.518
-419.486	-166.571	0.603	-0.025
-418.471	-52.835	-0.660	-0.303
-417.457	312.950	0.352	0.660
-416.442	-77.001	-0.695	0.242
-415.428	363.775	-0.048	-0.097
-414.413	-152.361	0.883	0.063
-413.398	192.445	0.264	0.397
-412.384	430.509	0.027	-0.058
-411.369	377.511	0.241	0.491
-410.355	800.000	0.168	0.475
-409.340	320.266	-0.226	0.429
-408.325	-200.000	0.017	0.208
-407.311	-135.001	-0.644	-0.077
-406.296	-200.000	0.167	-0.892
-405.282	138.975	-0.196	0.257
-404.267	-124.616	-0.513	-0.079
-403.252	46.858	0.387	-0.359
-402.238	800.000	-0.136	0.396
-401.223	-154.711	0.635	0.042
-400.209	-158.219	-0.392	0.023
-399.194	8.911	-0.389	-0.292
-398.179	692.759	-0.198	0.518
-397.165	-132.590	-0.098	-0.013
-396.150	-119.243	0.373	-0.065
-395.136	-182.516	-0.161	0.003
-394.121	-200.000	0.071	0.573
-393.106	-190.570	-1.101	0.012
-392.092	-200.000	-0.038	0.242
-391.077	202.745	-0.291	-0.447
-390.063	-71.270	0.456	-0.171
-389.048	11.245	-0.591	-0.451
-388.033	800.000	-0.284	-0.823
-387.019	-98.103	0.659	-0.169
-386.004	-200.000	-0.161	0.716
-384.990	-200.000	0.025	0.207
-383.975	576.931	-0.305	0.743
-382.960	82.397	-0.413	-0.447
-381.946	104.222	-0.279	-0.327
-380.931	-166.658	-0.620	0.026
-379.917	-81.105	-0.292	0.096
-378.902	66.704	-0.149	-0.150
-377.888	-77.157	-0.349	-0.121
-376.873	-85.154	0.449	0.140
-375.858	800.000	-0.078	0.260
-374.844	800.000	-0.102	0.372
-373.829	800.000	0.179	-0.551
-372.815	-200.000	0.099	0.653
-371.800	800.000	0.196	-0.623
-370.785	295.955	-0.569	-1.037
-369.771	9.579	0.432	-0.326
-368.756	-122.005	-0.658	-0.108
-367.742	-50.541	0.388	-0.182
-366.727	-163.983	-0.481	0.022
-365.712	323.328	0.184	0.350
-364.698	-123.296	0.685	0.109
-363.683	31.722	-0.156	-0.134
-362.669	107.315	-0.396	0.468
-361.654	572.974	0.063	0.153
-360.639	-103.497	-0.405	0.095
-359.625	-135.884	-0.986	-0.116
-358.610	-6.843	0.231	-0.156
-357.596	-137.348	0.305	-0.034
-356.581	800.000	-0.138	0.496
-355.566	-26.864	0.288	-0.167
-354.552	-92.598	-0.618	0.173
-353.537	-200.000	-0.062	0.324
-352.523	86.563	0.349	0.383
-351.508	297.863	0.458	0.836
-350.493	-100.946	0.304	0.074
-349.479	-26.453	-0.741	0.432
-348.464	-181.866	0.788	0.015
-347.450	19.279	0.615	-0.491
-346.435	800.000	-0.255	-0.851
-345.420	-200.000	0.043	-0.331
-344.406	125.018	-0.844	1.057
-343.391	800.000	-0.216	0.650
-342.377	-75.692	0.251	-0.089
-341.362	36.928	0.240	-0.211
-340.348	-200.000	-0.139	0.672
-339.333	-54.419	0.848	-0.382
-338.318	-200.000	0.130	-0.724
-337.304	456.482	-0.423	0.933
-336.289	92.666	-0.324	0.363
-335.275	170.783	-0.250	-0.356
-334.260	369.452	0.134	-0.269
-333.245	57.251	0.388	0.376
-332.231	503.482	-0.068	0.156
-331.216	361.853	0.177	-0.352
-330.202	-200.000	0.073	-0.470
-329.187	60.793	-0.414	0.408
-328.172	12.031	-0.358	-0.273
-327.158	-75.252	0.459	0.163
-326.143	595.317	0.225	0.552
-325.129	800.000	-0.264	-0.803
-324.114	433.737	-0.243	-0.524
-323.099	-133.061	0.109	0.014
-322.085	-200.000	0.035	0.565
-321.070	-48.831	0.869	-0.414
-320.056	-116.102	-0.622	-0.115
-319.041	288.035	-0.282	0.508
-318.026	800.000	-0.079	0.324
-317.012	-76.193	-0.673	0.236
-315.997	68.894	0.024	-0.024
-314.983	-200.000	0.017	-0.356
-313.968	-136.366	1.330	-0.154
-312.953	-28.164	-0.420	0.241
-311.939	800.000	0.179	0.715
-310.924	-63.060	-0.750	0.307
-309.910	255.379	-0.168	-0.286
-308.895	317.279	-0.716	1.345
-307.880	-164.741	-0.437	0.020
-306.866	29.897	-0.482	0.408
-305.851	-165.463	0.693	-0.030
-304.837	245.069	-0.204	0.340
-303.822	340.375	0.168	-0.326
-302.807	-133.464	0.744	0.093
-301.793	-3.984	0.248	0.171
-300.778	705.715	0.308	0.808
-299.764	-200.000	0.158	-1.102
-298.749	-138.422	0.905	0.099
-297.735	-133.670	0.973	0.121
-296.720	171.469	-0.590	0.841
-295.705	358.078	0.433	-0.857
-294.691	-123.352	0.476	-0.075
-293.676	-14.156	-0.386	-0.247
-292.662	-87.293	-0.062	0.019
-291.647	-16.601	0.231	-0.145
-290.632	77.597	0.609	-0.644
-289.618	-42.485	0.828	-0.419
-288.603	97.785	-0.345	-0.394
-287.589	-153.712	-0.736	0.050
-286.574	-183.171	-0.298	0.005
-285.559	48.862	0.659	0.614
-284.545	320.353	-0.433	-0.815
-283.530	800.000	-0.211	0.581
-282.516	249.101	0.390	-0.655
-281.501	77.047	0.222	-0.234
-280.486	-0.067	-0.511	0.361
-279.472	148.777	0.393	0.527
-278.457	-43.147	-0.486	0.244
-277.443	-16.576	0.637	-0.401
-276.428	131.105	0.427	-0.543
-275.413	356.723	0.216	0.427
-274.399	29.764	0.492	0.415
-273.384	-79.357	0.469	-0.158
-272.370	84.649	-0.789	-0.856
-271.355	145.452	-0.165	0.220
-270.340	-120.952	0.404	0.067
-269.326	-78.441	-0.779	-0.265
-268.311	-200.000	0.061	0.964
-267.297	-200.000	-0.078	0.986
-266.282	-32.772	-0.513	0.283
-265.267	-55.312	-0.314	0.140
-264.253	800.000	0.026	0.085
-263.238	-126.459	0.630	0.093
-262.224	7.307	0.334	0.247
-261.209	800.000	0.232	0.730
-260.195	-89.507	0.401	-0.117
-259.180	-200.000	0.051	0.406
-258.165	800.000	0.076	0.318
-257.151	800.000	0.114	-0.408
-256.136	81.870	0.222	-0.238
-255.122	-58.443	0.151	0.065
-254.107	-108.196	0.992	0.213
-253.092	18.215	0.047	-0.037
-252.078	-61.066	0.759	-0.317
-251.063	516.821	-0.245	0.568
-250.049	284.965	-0.034	-0.061
-249.034	12.657	0.517	-0.396
-248.019	-128.589	0.838	-0.118
-247.005	-79.559	-0.362	0.121
-245.990	-4.174	0.496	0.340
-244.976	32.737	-0.740	0.635
-243.961	-50.921	0.326	0.152
-242.946	25.147	-0.236	-0.194
-241.932	-189.224	-0.427	-0.005
-240.917	-200.000	-0.022	-0.365
-239.903	-200.000	-0.007	-0.426
-238.888	-79.048	1.370	-0.461
-237.873	-114.000	0.722	0.139
-236.859	-62.752	-0.864	0.355
-235.844	39.007	-0.021	0.019
-234.830	-200.000	0.021	0.189
-233.815	-103.555	-0.280	-0.065
-232.800	-200.000	-0.110	-0.592
-231.786	199.333	0.307	0.466
-230.771	-200.000	0.034	0.343
-229.757	-149.643	-0.673	-0.053
-228.742	-146.542	0.576	-0.050
-227.727	414.095	0.313	0.660
-226.713	110.313	0.143	-0.170
-225.698	-200.000	0.019	-0.434
-224.684	800.000	0.184	-0.743
-223.669	-54.561	-0.990	0.443
-222.655	43.684	0.145	0.131
-221.640	137.273	0.296	-0.383
-220.625	-34.392	-0.663	-0.360
-219.611	-165.853	0.241	0.010
-218.596	92.176	0.118	-0.131
-217.582	-200.000	0.068	-0.390
-216.567	-51.614	0.916	0.423
-215.552	380.563	-0.387	0.784
-214.538	278.237	0.100	0.177
-213.523	-200.000	0.166	-1.050
-212.509	-74.525	0.701	0.250
-211.494	131.876	-0.531	0.676
-210.479	-200.000	-0.066	0.666
-209.465	-66.890	0.139	0.054
-208.450	164.394	0.435	-0.607
-207.436	-12.386	-0.722	-0.467
-206.421	-154.151	-0.681	0.046
-205.406	-200.000	0.023	-0.459
-204.392	126.412	0.666	0.834
-203.377	-6.942	-0.221	-0.148
-202.363	-200.000	0.181	0.958
-201.348	-196.786	-0.424	-0.003
-200.333	-200.000	0.110	-0.668
-199.319	174.714	-0.229	-0.327
-198.304	-200.000	-0.042	0.321
-197.290	-58.305	0.396	-0.170
-196.275	155.396	0.621	-0.845
-195.260	-34.068	1.225	-0.666
-194.246	-108.643	-0.533	0.113
-193.231	-88.677	-1.449	0.426
-192.217	-200.000	0.008	-0.272
-191.202	-20.062	0.529	-0.323
-190.187	-79.676	0.052	0.017
-189.173	-142.681	-0.892	-0.086
-188.158	-53.539	0.162	0.073
-187.144	10.869	-0.192	0.145
-186.129	73.050	0.197	0.203
-185.114	63.365	0.044	0.044
-184.100	-200.000	0.063	0.457
-183.085	-90.121	-0.817	0.235
-182.071	-91.448	-0.685	0.193
-181.056	-200.000	-0.014	0.473
-180.042	-106.955	0.476	-0.104
-179.027	-136.830	-0.450	0.051
-178.012	-200.000	0.065	-0.284
-176.998	800.000	0.153	0.530
-175.983	709.078	-0.314	-0.820
-174.969	-200.000	-0.105	-1.363
-173.954	-200.000	0.123	0.971
-172.939	472.113	-0.141	0.314
-171.925	102.882	-0.254	-0.294
-170.910	2.964	0.358	0.257
-169.896	-63.019	0.314	-0.128
-168.881	76.574	-0.348	0.365
-167.866	39.380	-0.280	0.248
-166.852	50.937	-0.194	0.182
-165.837	-158.557	-0.422	-0.024
-164.823	-67.910	0.385	-0.149
-163.808	49.944	0.219	-0.204
-162.793	800.000	-0.039	-0.151
-161.779	-39.445	-0.083	0.043
-160.764	-90.817	0.089	-0.025
-159.750	92.528	0.149	-0.166
-158.735	800.000	0.133	0.450
-157.720	76.473	-0.319	-0.334
-156.706	-32.088	0.264	0.146
-155.691	-200.000	0.057	0.344
-154.677	-146.765	-0.766	-0.065
-153.662	376.445	-0.381	-0.767
-152.647	62.993	-0.509	-0.503
-151.633	-56.751	0.462	-0.202
-150.618	-176.342	-1.061	-0.027
-149.604	100.686	-0.635	0.728
-148.589	40.503	0.483	0.430
-147.574	-36.026	0.691	0.368
-146.560	-200.000	0.042	0.750
-145.545	733.376	-0.315	0.832
-144.531	-54.911	-0.165	-0.074
-143.516	-132.698	0.324	-0.041
-142.502	72.861	0.018	-0.018
-141.487	42.161	-0.266	-0.239
-140.472	10.306	-0.203	0.152
-139.458	-158.810	-0.643	-0.036
-138.443	77.334	-0.371	0.389
-137.429	48.307	-0.213	-0.197
-136.414	-118.142	-0.406	-0.072
-135.399	-123.906	0.774	-0.120
-134.385	-200.000	-0.138	-0.845
-133.370	-31.889	0.208	0.115
-132.356	46.919	-0.429	0.394
-131.341	107.817	-0.589	0.692
-130.326	-6.466	0.102	-0.069
-129.312	-200.000	0.095	-0.544
-128.297	-127.095	0.432	0.062
-127.283	6.726	0.263	0.193
-126.268	-153.089	0.419	0.029
-125.253	-46.730	0.411	0.198
-124.239	-120.035	0.372	0.063
-123.224	-200.000	-0.083	1.156
-122.210	-200.000	-0.043	1.166
-121.195	-112.580	0.126	0.025
