DTS Sentinel unit serial number:	SN413079Multiplexer serial number:	ORYXHardware model number:	OX4-SRSoftware version number:	ORYX F/W v4.00 Oryx Data Collector v3.7.2.0data status	okinstallation	princeton_trtdifferential loss correction	single-endedforward channel	channel 3reverse channel	N/Adate	2019/09/14time	15:20:35forward acquisition time	60.00reverse acquisition time	0.00gamma	496.2192k internal	0.2293k external	0.2293temperature offset calibration	1.0059default loss term (dB/km)	0.3790temperature slope calibration	1.0000multiplexer offset coefficient	1.0000multiplexer slope coefficient	1.0000fibre end	0.00T internal ref (°C)	39.06T ext. ref 1 (°C)	5.11T ext. ref 2 (°C)	34.04length (m)	temperature (°C)	Stokes	anti-Stokes-747.200	800.000	-0.040	0.155
-746.185	-200.000	-0.047	-0.352
-745.171	55.130	0.074	-0.073
-744.156	800.000	0.062	0.248
-743.142	7.594	-0.008	-0.006
-742.127	21.259	0.280	-0.232
-741.112	-32.277	0.138	0.079
-740.098	-151.548	-0.247	0.019
-739.083	-117.498	-0.209	-0.039
-738.069	565.638	-0.075	0.187
-737.054	294.255	0.106	-0.198
-736.039	-55.428	-0.152	-0.070
-735.025	800.000	-0.064	-0.223
-734.010	-200.000	0.018	0.238
-732.996	-88.806	-0.238	-0.072
-731.981	23.105	0.026	-0.022
-730.966	-147.376	-0.072	-0.006
-729.952	-4.900	-0.190	-0.134
-728.937	-0.189	-0.171	0.125
-727.923	255.790	0.099	0.174
-726.908	-51.839	-0.277	-0.132
-725.894	-148.979	-0.317	-0.026
-724.879	-93.940	0.044	-0.013
-723.864	-77.808	-0.218	-0.077
-722.850	-109.728	0.565	-0.121
-721.835	-128.705	0.235	-0.034
-720.821	445.363	-0.099	0.222
-719.806	-200.000	-0.004	0.094
-718.791	19.911	-0.415	-0.342
-717.777	-63.347	0.055	-0.023
-716.762	-93.797	0.313	0.088
-715.748	-200.000	0.008	0.091
-714.733	24.647	-0.255	-0.216
-713.718	39.063	-0.245	-0.224
-712.704	-1.599	0.114	-0.082
-711.689	800.000	-0.137	-0.411
-710.675	-57.286	-0.288	0.129
-709.660	77.455	-0.098	0.106
-708.645	-97.454	-0.089	-0.024
-707.631	-93.349	-0.303	0.086
-706.616	800.000	-0.064	-0.204
-705.602	-10.268	-0.280	-0.190
-704.587	560.675	-0.069	-0.169
-703.572	-200.000	0.030	0.460
-702.558	-108.014	0.132	0.029
-701.543	26.730	0.256	-0.219
-700.529	-70.850	-0.310	-0.119
-699.514	-106.588	-0.341	0.078
-698.499	-167.663	0.212	0.009
-697.485	442.539	-0.117	-0.261
-696.470	-200.000	0.030	0.170
-695.456	44.196	-0.224	-0.210
-694.441	-107.497	0.165	-0.037
-693.426	-121.647	-0.265	-0.045
-692.412	-99.608	-0.213	0.055
-691.397	800.000	0.054	0.179
-690.383	-94.708	0.118	-0.033
-689.368	-39.961	0.171	0.091
-688.354	800.000	0.066	-0.232
-687.339	137.118	0.089	-0.119
-686.324	-130.719	0.085	0.012
-685.310	-109.923	-0.291	-0.062
-684.295	-200.000	-0.009	-0.105
-683.281	-9.349	-0.179	-0.122
-682.266	-33.387	0.170	0.096
-681.251	196.422	0.080	0.124
-680.237	200.658	-0.074	0.116
-679.222	-110.414	0.265	-0.056
-678.208	-75.081	-0.292	-0.106
-677.193	-200.000	-0.094	0.428
-676.178	288.500	-0.119	-0.219
-675.164	112.803	0.064	-0.080
-674.149	-200.000	0.009	-0.059
-673.135	-60.828	-0.264	-0.114
-672.120	-29.232	0.044	-0.026
-671.105	-31.605	0.204	-0.117
-670.091	-55.557	0.108	-0.049
-669.076	35.442	-0.066	0.059
-668.062	-123.465	0.420	-0.068
-667.047	-200.000	-0.076	-0.361
-666.032	-200.000	-0.037	-0.171
-665.018	-200.000	0.011	-0.249
-664.003	-40.669	0.136	0.072
-662.989	800.000	-0.029	-0.086
-661.974	-167.227	-0.316	0.013
-660.959	-61.816	-0.328	0.140
-659.945	486.844	0.136	0.317
-658.930	121.746	0.195	0.248
-657.916	-105.754	-0.248	0.057
-656.901	-200.000	-0.020	0.169
-655.886	-200.000	0.010	-0.072
-654.872	50.697	-0.210	-0.202
-653.857	-22.845	0.207	-0.127
-652.843	11.388	0.059	0.046
-651.828	133.943	0.162	0.214
-650.814	-150.804	-0.026	-0.002
-649.799	5.723	0.096	-0.072
-648.784	44.514	0.149	-0.139
-647.770	800.000	-0.038	-0.113
-646.755	800.000	0.071	0.208
-645.741	3.264	0.155	0.115
-644.726	374.907	0.068	-0.142
-643.711	-78.785	0.128	-0.044
-642.697	156.572	-0.100	0.141
-641.682	320.939	0.078	-0.152
-640.668	-200.000	-0.036	0.350
-639.653	-200.000	-0.051	0.254
-638.638	800.000	0.103	-0.384
-637.624	48.042	-0.209	-0.199
-636.609	-161.885	0.098	0.005
-635.595	419.156	-0.110	-0.240
-634.580	-200.000	0.049	-0.319
-633.565	151.118	-0.258	-0.357
-632.551	34.511	-0.264	-0.235
-631.536	-93.792	-0.293	-0.082
-630.522	-46.297	0.373	-0.187
-629.507	21.847	0.017	0.014
-628.492	-62.028	-0.414	-0.176
-627.478	233.431	0.057	0.096
-626.463	-51.254	0.381	0.182
-625.449	-69.891	-0.204	-0.079
-624.434	-61.441	-0.178	-0.076
-623.419	800.000	0.089	-0.258
-622.405	-172.802	-0.197	0.006
-621.390	31.258	-0.193	-0.169
-620.376	194.340	0.260	0.402
-619.361	67.556	0.179	0.186
-618.346	-200.000	0.017	-0.115
-617.332	191.014	0.052	-0.080
-616.317	-58.958	-0.163	-0.072
-615.303	-41.451	-0.125	0.065
-614.288	-104.976	-0.222	0.052
-613.273	-104.804	0.083	0.019
-612.259	-200.000	-0.048	-0.274
-611.244	-48.065	0.131	0.065
-610.230	-45.200	-0.280	-0.142
-609.215	-72.861	-0.346	-0.130
-608.201	485.435	-0.024	-0.056
-607.186	-98.544	-0.102	-0.027
-606.171	-200.000	-0.020	0.174
-605.157	800.000	-0.084	-0.257
-604.142	75.492	0.154	0.165
-603.128	800.000	-0.137	-0.403
-602.113	-200.000	0.002	-0.443
-601.098	800.000	0.048	-0.162
-600.084	-73.164	0.268	0.100
-599.069	570.726	-0.068	-0.168
-598.055	46.649	0.226	-0.214
-597.040	227.402	-0.121	-0.200
-596.025	-109.165	-0.159	-0.034
-595.011	188.507	0.073	-0.112
-593.996	-58.714	0.247	-0.109
-592.982	-200.000	-0.030	-0.148
-591.967	-77.743	-0.289	-0.102
-590.952	221.593	-0.118	-0.193
-589.938	-123.960	-0.509	0.082
-588.923	-106.305	0.108	-0.025
-587.909	-31.264	-0.198	-0.114
-586.894	-40.034	0.127	-0.067
-585.879	-19.461	-0.137	-0.087
-584.865	-59.892	0.133	-0.058
-583.850	-200.000	-0.015	0.282
-582.836	166.738	0.119	-0.171
-581.821	-124.956	-0.138	0.022
-580.806	-200.000	-0.063	0.356
-579.792	-135.285	-0.220	0.027
-578.777	252.917	-0.181	-0.313
-577.763	-54.977	0.125	0.057
-576.748	-92.920	-0.211	-0.060
-575.733	-113.526	-0.330	-0.066
-574.719	800.000	-0.026	-0.083
-573.704	20.975	0.110	0.090
-572.690	-70.947	-0.161	-0.061
-571.675	800.000	0.078	-0.266
-570.661	435.947	-0.064	-0.141
-569.646	83.766	0.128	0.142
-568.631	508.236	-0.135	0.318
-567.617	87.393	0.079	-0.089
-566.602	218.161	-0.137	-0.222
-565.588	-136.310	0.189	-0.022
-564.573	-46.513	0.011	0.006
-563.558	37.568	0.055	-0.050
-562.544	-200.000	-0.024	0.183
-561.529	-67.531	-0.305	0.122
-560.515	-13.579	-0.180	0.118
-559.500	-200.000	0.037	-0.327
-558.485	-200.000	-0.019	0.094
-557.471	-200.000	0.004	0.153
-556.456	-178.727	0.212	-0.005
-555.442	99.487	-0.170	-0.199
-554.427	-200.000	-0.019	0.098
-553.412	800.000	-0.046	-0.191
-552.398	70.549	-0.088	-0.093
-551.383	228.337	-0.191	-0.315
-550.369	-199.558	0.205	-0.001
-549.354	-57.082	0.321	-0.144
-548.339	-128.161	0.099	-0.014
-547.325	-52.295	-0.535	-0.252
-546.310	72.896	-0.061	-0.065
-545.296	402.854	-0.135	-0.289
-544.281	-58.603	0.188	0.083
-543.266	-54.553	-0.322	0.148
-542.252	161.578	0.141	0.200
-541.237	68.894	0.129	0.135
-540.223	-200.000	-0.018	-0.090
-539.208	6.334	0.198	-0.149
-538.193	20.087	0.019	-0.016
-537.179	56.404	0.027	-0.027
-536.164	-44.903	-0.146	-0.074
-535.150	131.794	-0.034	-0.044
-534.135	800.000	0.096	0.382
-533.121	1.933	-0.197	0.144
-532.106	-40.440	0.166	-0.087
-531.091	-200.000	0.068	-0.353
-530.077	-127.585	0.272	-0.040
-529.062	800.000	0.074	0.252
-528.048	62.961	0.057	0.058
-527.033	55.540	0.282	-0.277
-526.018	-200.000	0.019	-0.239
-525.004	-4.417	0.318	0.223
-523.989	98.215	-0.186	-0.217
-522.975	-89.016	0.112	-0.034
-521.960	800.000	-0.099	0.301
-520.945	22.376	0.225	-0.186
-519.931	49.630	-0.033	-0.032
-518.916	141.261	0.116	-0.156
-517.902	-58.329	-0.125	-0.055
-516.887	132.821	-0.181	0.237
-515.872	62.965	-0.112	0.114
-514.858	-95.264	0.112	-0.031
-513.843	-171.998	0.132	-0.004
-512.829	155.066	0.063	-0.088
-511.814	126.251	-0.162	-0.208
-510.799	24.042	0.102	-0.085
-509.785	800.000	0.080	-0.266
-508.770	-162.435	-0.151	0.008
-507.756	222.938	-0.059	0.096
-506.741	-20.270	-0.181	0.113
-505.726	-106.942	0.202	0.045
-504.712	168.629	-0.075	-0.108
-503.697	119.916	-0.070	0.088
-502.683	67.825	-0.163	-0.169
-501.668	-73.589	0.112	-0.041
-500.653	800.000	-0.023	-0.101
-499.639	301.439	0.031	-0.057
-498.624	-70.445	-0.055	-0.021
-497.610	35.336	0.126	0.112
-496.595	231.605	-0.099	-0.165
-495.581	-200.000	0.077	-0.353
-494.566	-65.704	0.261	0.106
-493.551	72.511	-0.181	-0.191
-492.537	-200.000	0.003	0.218
-491.522	-6.077	-0.117	-0.081
-490.508	-158.465	-0.093	-0.005
-489.493	800.000	-0.069	-0.264
-488.478	-200.000	0.026	-0.115
-487.464	-14.549	-0.239	0.156
-486.449	-70.513	-0.098	0.037
-485.435	343.340	0.031	-0.062
-484.420	64.264	0.090	0.092
-483.405	-79.262	0.414	0.142
-482.391	-200.000	0.007	-0.433
-481.376	349.848	0.042	0.085
-480.362	-127.582	-0.043	0.006
-479.347	86.795	-0.147	-0.165
-478.332	-89.229	0.200	0.060
-477.318	800.000	-0.114	0.327
-476.303	-117.433	-0.108	-0.020
-475.289	1.812	-0.042	0.031
-474.274	238.974	-0.125	0.211
-473.259	-136.641	-0.064	-0.007
-472.245	-11.378	-0.060	-0.040
-471.230	53.095	0.154	0.149
-470.216	-95.863	-0.267	0.072
-469.201	800.000	-0.040	-0.131
-468.186	-76.705	-0.239	-0.085
-467.172	-200.000	-0.019	0.117
-466.157	146.266	0.261	0.354
-465.143	-200.000	-0.047	0.256
-464.128	666.454	0.175	0.457
-463.113	768.387	-0.168	0.463
-462.099	-122.866	-0.212	0.035
-461.084	-173.116	0.331	-0.010
-460.070	-181.631	-0.036	-0.001
-459.055	-200.000	-0.039	0.337
-458.040	-15.970	0.099	0.064
-457.026	96.267	-0.120	-0.139
-456.011	24.860	0.258	0.217
-454.997	750.859	0.058	0.157
-453.982	-200.000	-0.013	-0.295
-452.968	-33.841	-0.017	-0.010
-451.953	698.001	-0.103	0.273
-450.938	-6.923	-0.202	-0.139
-449.924	-200.000	0.027	-0.155
-448.909	-200.000	0.027	-0.344
-447.895	34.645	-0.177	0.157
-446.880	-134.077	0.157	-0.020
-445.865	-36.836	-0.317	-0.172
-444.851	-200.000	-0.058	-0.319
-443.836	800.000	0.047	0.133
-442.822	65.505	-0.056	-0.058
-441.807	84.701	-0.212	-0.234
-440.792	-96.734	-0.171	-0.045
-439.778	23.904	-0.128	0.107
-438.763	-52.455	-0.204	-0.095
-437.749	800.000	0.037	0.151
-436.734	93.169	-0.127	-0.145
-435.719	22.279	0.191	0.158
-434.705	-200.000	-0.004	-0.055
-433.690	-12.543	-0.074	-0.049
-432.676	800.000	-0.078	-0.256
-431.661	-157.971	0.167	0.010
-430.646	-200.000	0.001	-0.054
-429.632	-5.993	-0.218	0.151
-428.617	-200.000	0.010	-0.138
-427.603	-200.000	-0.033	0.301
-426.588	-184.752	0.035	0.001
-425.573	-93.036	0.257	-0.072
-424.559	-30.442	-0.033	-0.019
-423.544	800.000	-0.072	-0.276
-422.530	-160.573	0.221	-0.012
-421.515	-78.734	0.193	-0.067
-420.500	-200.000	-0.068	-0.427
-419.486	-11.668	-0.096	0.063
-418.471	77.337	0.263	0.283
-417.457	117.778	-0.159	0.198
-416.442	74.783	0.172	-0.183
-415.428	-200.000	0.003	-0.144
-414.413	800.000	0.086	0.353
-413.398	-200.000	-0.044	0.273
-412.384	208.366	-0.141	0.223
-411.369	295.427	-0.181	0.335
-410.355	-144.005	0.050	-0.005
-409.340	24.778	-0.099	-0.083
-408.325	-176.508	0.227	0.006
-407.311	-186.138	-0.224	0.003
-406.296	-198.208	0.182	-0.001
-405.282	-98.210	0.264	-0.068
-404.267	22.129	-0.131	0.108
-403.252	-16.815	-0.274	-0.175
-402.238	-37.813	-0.134	-0.072
-401.223	-129.147	0.201	0.028
-400.209	493.224	-0.137	0.318
-399.194	150.577	-0.044	-0.061
-398.179	-80.850	-0.206	0.069
-397.165	-97.676	0.233	0.061
-396.150	-98.878	-0.119	0.030
-395.136	162.270	0.070	-0.099
-394.121	56.269	0.153	0.150
-393.106	476.468	-0.103	0.236
-392.092	-200.000	-0.189	0.001
-391.077	673.012	0.078	0.204
-390.063	8.723	0.266	-0.202
-389.048	231.307	0.111	-0.184
-388.033	-200.000	-0.010	0.155
-387.019	-26.466	-0.169	-0.100
-386.004	800.000	-0.041	-0.152
-384.990	-200.000	0.045	0.218
-383.975	-88.105	-0.254	-0.077
-382.960	-200.000	0.000	0.198
-381.946	406.281	0.228	0.486
-380.931	-200.000	0.020	0.134
-379.917	-118.199	0.130	0.023
-378.902	800.000	-0.096	0.271
-377.888	-12.693	-0.363	0.239
-376.873	-138.589	-0.155	0.017
-375.858	-128.766	-0.150	0.021
-374.844	9.160	0.090	0.069
-373.829	-135.688	-0.226	-0.027
-372.815	-130.096	-0.495	0.068
-371.800	83.526	0.221	0.243
-370.785	308.410	-0.151	-0.285
-369.771	-100.386	-0.172	0.043
-368.756	18.043	0.310	-0.249
-367.742	-200.000	-0.013	0.129
-366.727	-200.000	0.022	-0.121
-365.712	-200.000	0.010	-0.225
-364.698	-200.000	-0.047	0.295
-363.683	144.611	-0.168	-0.227
-362.669	-146.507	-0.070	0.006
-361.654	-88.981	0.279	-0.083
-360.639	-162.573	0.264	0.013
-359.625	-58.608	-0.047	-0.021
-358.610	-140.052	-0.386	-0.041
-357.596	-130.030	-0.259	-0.036
-356.581	25.601	-0.151	0.126
-355.566	66.770	-0.020	0.021
-354.552	-30.722	0.162	0.092
-353.537	442.432	0.065	0.144
-352.523	35.744	-0.120	0.106
-351.508	-129.339	0.315	-0.044
-350.493	-142.786	0.292	-0.029
-349.479	623.237	0.070	0.177
-348.464	-142.061	-0.260	-0.026
-347.450	-44.420	-0.193	-0.098
-346.435	-139.638	-0.125	0.013
-345.420	-200.000	-0.029	0.127
-344.406	168.713	0.279	0.401
-343.391	229.040	-0.163	-0.268
-342.377	-200.000	0.015	0.206
-341.362	73.409	0.200	0.211
-340.348	542.734	-0.023	0.056
-339.333	359.117	-0.149	0.299
-338.318	243.385	0.065	0.110
-337.304	-169.509	-0.292	-0.011
-336.289	-200.000	-0.015	-0.182
-335.275	-200.000	-0.003	-0.219
-334.260	-53.303	-0.171	-0.079
-333.245	191.076	0.120	-0.182
-332.231	-114.489	-0.101	0.019
-331.216	-31.504	-0.125	-0.071
-330.202	800.000	0.049	0.212
-329.187	-184.900	-0.365	-0.006
-328.172	-49.396	0.385	-0.185
-327.158	-53.864	-0.153	0.070
-326.143	-112.876	0.254	-0.051
-325.129	-115.357	0.312	0.059
-324.114	-200.000	-0.047	-0.249
-323.099	41.213	0.103	-0.094
-322.085	800.000	0.074	-0.259
-321.070	-27.366	-0.092	-0.054
-320.056	-166.512	0.167	0.007
-319.041	-68.358	0.234	0.092
-318.026	72.299	-0.119	-0.125
-317.012	-126.047	-0.251	0.038
-315.997	-200.000	0.001	0.003
-314.983	143.017	0.163	-0.218
-313.968	-14.998	0.096	-0.062
-312.953	763.960	-0.097	0.265
-311.939	-200.000	-0.001	-0.120
-310.924	327.558	0.147	0.284
-309.910	210.941	-0.119	-0.189
-308.895	651.546	0.029	0.074
-307.880	-8.684	-0.075	-0.051
-306.866	332.798	-0.130	0.253
-305.851	1.621	-0.188	0.136
-304.837	428.254	0.075	0.163
-303.822	30.660	0.077	0.066
-302.807	364.178	0.073	0.148
-301.793	28.082	0.113	0.096
-300.778	800.000	0.042	-0.183
-299.764	38.749	0.112	0.100
-298.749	-200.000	-0.033	-0.181
-297.735	38.234	-0.167	-0.150
-296.720	-108.185	0.154	-0.034
-295.705	800.000	-0.055	-0.219
-294.691	7.987	0.133	-0.100
-293.676	40.143	0.091	0.082
-292.662	-110.045	0.375	0.079
-291.647	-200.000	0.007	0.066
-290.632	-86.737	0.111	-0.034
-289.618	-200.000	0.034	0.173
-288.603	800.000	-0.010	0.036
-287.589	800.000	0.038	0.142
-286.574	-146.746	0.269	-0.023
-285.559	-71.024	-0.110	0.042
-284.545	408.845	-0.121	-0.257
-283.530	800.000	0.015	-0.057
-282.516	-92.083	0.332	0.094
-281.501	-200.000	0.044	0.253
-280.486	800.000	-0.095	-0.291
-279.472	800.000	0.052	-0.222
-278.457	-53.118	0.105	-0.048
-277.443	-36.882	-0.097	-0.052
-276.428	-73.869	-0.016	-0.006
-275.413	171.930	-0.050	-0.072
-274.399	-110.870	0.356	0.074
-273.384	-115.524	-0.166	0.031
-272.370	36.737	0.073	0.064
-271.355	248.122	0.132	-0.225
-270.340	27.904	-0.169	0.143
-269.326	-200.000	-0.020	-0.294
-268.311	12.493	0.114	-0.089
-267.297	-79.078	0.085	0.029
-266.282	-76.083	0.353	-0.125
-265.267	23.452	0.065	0.053
-264.253	800.000	0.134	0.384
-263.238	-200.000	-0.011	-0.209
-262.224	-200.000	-0.017	-0.183
-261.209	66.607	-0.175	-0.178
-260.195	465.642	-0.078	-0.176
-259.180	-26.013	-0.291	0.172
-258.165	-133.635	-0.205	-0.026
-257.151	128.496	0.218	-0.279
-256.136	-111.070	-0.113	0.023
-255.122	-139.338	-0.261	0.028
-254.107	-200.000	0.005	0.174
-253.092	77.859	0.216	-0.231
-252.078	-74.864	-0.239	0.086
-251.063	-200.000	-0.051	0.254
-250.049	-76.277	-0.090	0.032
-249.034	143.385	0.116	-0.156
-248.019	-97.807	-0.358	-0.093
-247.005	-4.734	-0.258	-0.179
-245.990	107.212	0.019	0.023
-244.976	-142.506	0.351	0.035
-243.961	315.036	-0.028	-0.052
-242.946	-200.000	-0.004	-0.031
-241.932	-200.000	0.017	0.141
-240.917	800.000	0.041	-0.130
-239.903	-200.000	0.060	0.347
-238.888	-56.152	0.279	0.125
-237.873	-114.961	-0.532	-0.102
-236.859	-129.871	0.335	0.046
-235.844	174.302	-0.089	-0.130
-234.830	-200.000	0.014	0.099
-233.815	-28.245	0.237	0.137
-232.800	800.000	0.050	-0.162
-231.786	-116.465	0.419	-0.078
-230.771	800.000	0.069	-0.205
-229.757	116.476	0.059	0.073
-228.742	88.322	0.120	0.134
-227.727	60.876	-0.180	0.179
-226.713	241.206	-0.099	-0.165
-225.698	-43.968	-0.115	0.058
-224.684	198.749	-0.191	0.293
-223.669	-28.752	-0.122	-0.070
-222.655	670.338	-0.035	-0.091
-221.640	203.571	-0.071	-0.109
-220.625	800.000	0.089	0.276
-219.611	-27.072	-0.200	0.117
-218.596	227.827	-0.154	0.251
-217.582	800.000	0.143	0.511
-216.567	35.239	0.108	0.095
-215.552	-200.000	-0.008	0.240
-214.538	-72.259	0.283	-0.105
-213.523	-193.081	0.220	-0.002
-212.509	384.782	0.052	0.107
-211.494	344.756	0.037	-0.073
-210.479	-200.000	-0.002	0.199
-209.465	26.029	0.090	-0.075
-208.450	178.702	0.141	-0.206
-207.436	65.895	0.103	0.104
-206.421	800.000	0.057	-0.161
-205.406	-79.699	0.270	0.091
-204.392	-15.532	-0.250	0.160
-203.377	800.000	0.008	-0.033
-202.363	800.000	0.085	0.269
-201.348	-200.000	0.012	0.144
-200.333	-72.808	0.264	-0.098
-199.319	-104.106	0.146	0.034
-198.304	-200.000	0.014	0.112
-197.290	-43.762	0.195	0.098
-196.275	45.999	0.269	-0.250
-195.260	140.499	0.172	0.228
-194.246	44.898	-0.152	-0.140
-193.231	92.921	-0.261	0.295
-192.217	-200.000	0.046	0.237
-191.202	-151.572	-0.057	-0.004
-190.187	358.785	-0.144	0.288
-189.173	130.054	0.319	-0.409
-188.158	-32.027	0.432	0.242
-187.144	157.131	0.182	-0.253
-186.129	-200.000	0.011	-0.073
-185.114	-33.253	-0.126	-0.070
-184.100	-100.068	0.217	-0.054
-183.085	-175.665	0.455	0.012
-182.071	-44.568	0.059	0.029
-181.056	-6.869	-0.214	-0.146
-180.042	-30.730	-0.362	0.205
-179.027	-31.926	0.152	0.085
-178.012	44.535	-0.261	-0.240
-176.998	365.325	-0.087	0.175
-175.983	239.036	0.197	-0.327
-174.969	263.312	-0.183	0.319
-173.954	800.000	0.069	0.275
-172.939	89.591	0.227	0.254
-171.925	800.000	-0.077	0.234
-170.910	800.000	-0.060	0.168
-169.896	208.886	0.076	0.120
-168.881	16.591	0.277	0.219
-167.866	463.591	-0.063	0.141
-166.852	-200.000	0.004	-0.078
-165.837	96.388	-0.083	0.095
-164.823	-183.745	-0.076	0.001
-163.808	-200.000	0.019	0.128
-162.793	800.000	0.017	0.062
-161.779	-33.715	0.516	-0.285
-160.764	800.000	-0.088	-0.251
-159.750	173.058	0.053	0.077
-158.735	397.864	-0.111	-0.233
-157.720	-200.000	0.016	0.165
-156.706	-200.000	-0.015	0.073
-155.691	-200.000	-0.032	0.215
-154.677	378.342	-0.048	-0.098
-153.662	-182.172	0.204	-0.004
-152.647	32.289	0.359	0.310
-151.633	410.346	0.143	0.302
-150.618	9.695	0.088	-0.067
-149.604	-52.087	0.173	-0.080
-148.589	-143.860	-0.340	0.032
-147.574	283.187	0.122	0.219
-146.560	-200.000	0.068	0.394
-145.545	-43.774	-0.212	0.106
-144.531	-39.389	0.232	-0.122
-143.516	-130.995	0.279	0.037
-142.502	800.000	-0.044	0.153
-141.487	800.000	-0.020	-0.066
-140.472	58.096	0.194	-0.190
-139.458	257.060	-0.082	0.140
-138.443	583.309	-0.082	-0.201
-137.429	-74.005	0.155	-0.056
-136.414	-105.213	0.224	0.051
-135.399	-125.011	-0.251	0.039
-134.385	-94.008	-0.151	-0.041
-133.370	153.192	-0.205	0.281
-132.356	-136.866	-0.204	0.023
-131.341	800.000	0.029	0.095
-130.326	99.070	-0.216	-0.249
-129.312	-145.023	-0.426	0.039
-128.297	-148.386	0.286	0.023
-127.283	199.415	0.106	0.162
-126.268	-43.276	-0.168	-0.085
-125.253	46.304	-0.259	0.240
-124.239	-86.913	0.320	-0.098
-123.224	-200.000	0.044	0.199
-122.210	40.989	0.208	0.188
