DTS Sentinel unit serial number:	SN413079Multiplexer serial number:	ORYXHardware model number:	OX4-SRSoftware version number:	ORYX F/W v4.00 Oryx Data Collector v3.7.2.0data status	okinstallation	princeton_trtdifferential loss correction	single-endedforward channel	channel 3reverse channel	N/Adate	2019/09/13time	03:56:35forward acquisition time	60.00reverse acquisition time	0.00gamma	496.2192k internal	0.2336k external	0.2336temperature offset calibration	1.0132default loss term (dB/km)	0.3790temperature slope calibration	1.0000multiplexer offset coefficient	1.0000multiplexer slope coefficient	1.0000fibre end	0.00T internal ref (°C)	27.06T ext. ref 1 (°C)	4.06T ext. ref 2 (°C)	21.32length (m)	temperature (°C)	Stokes	anti-Stokes-747.200	-80.160	0.285	0.096
-746.185	50.421	-0.193	0.183
-745.171	118.776	0.206	0.256
-744.156	115.342	-0.132	0.162
-743.142	-200.000	0.046	-0.244
-742.127	-200.000	0.014	-0.092
-741.112	44.276	0.076	-0.070
-740.098	-56.101	-0.159	0.071
-739.083	800.000	-0.029	0.089
-738.069	-200.000	-0.129	0.590
-737.054	-200.000	0.002	0.011
-736.039	341.172	-0.158	0.309
-735.025	9.531	0.115	-0.088
-734.010	38.155	-0.325	0.291
-732.996	-130.283	-0.017	-0.002
-731.981	89.560	-0.168	-0.188
-730.966	-43.673	-0.385	0.195
-729.952	395.665	-0.097	-0.203
-728.937	200.098	-0.167	0.257
-727.923	800.000	0.034	0.128
-726.908	40.816	0.173	-0.156
-725.894	22.562	-0.170	-0.140
-724.879	5.760	0.211	-0.157
-723.864	-200.000	-0.026	-0.187
-722.850	800.000	-0.072	-0.279
-721.835	161.694	0.081	-0.114
-720.821	800.000	-0.055	-0.242
-719.806	-200.000	-0.017	0.226
-718.791	-54.583	0.074	-0.033
-717.777	314.140	-0.090	-0.169
-716.762	800.000	-0.028	-0.109
-715.748	-108.002	-0.175	-0.038
-714.733	144.502	-0.044	0.059
-713.718	-67.592	-0.167	-0.066
-712.704	-74.267	-0.093	0.034
-711.689	236.949	0.161	-0.267
-710.675	-138.085	0.283	0.032
-709.660	93.660	-0.254	-0.288
-708.645	-129.976	-0.112	0.015
-707.631	-77.767	0.208	-0.072
-706.616	83.732	-0.056	0.061
-705.602	28.719	-0.146	-0.124
-704.587	-88.094	0.284	-0.085
-703.572	-200.000	-0.017	-0.206
-702.558	800.000	-0.148	-0.558
-701.543	-200.000	-0.067	-0.582
-700.529	800.000	0.080	-0.236
-699.514	407.456	0.153	-0.325
-698.499	697.968	-0.096	-0.252
-697.485	-117.596	0.117	0.021
-696.470	214.814	0.143	-0.227
-695.456	116.096	0.175	0.215
-694.441	25.010	-0.090	-0.075
-693.426	-7.029	0.136	0.093
-692.412	19.759	0.352	-0.284
-691.397	-200.000	-0.036	-0.274
-690.383	-200.000	0.091	0.479
-689.368	-200.000	-0.013	0.139
-688.354	741.808	-0.118	-0.317
-687.339	-200.000	0.028	-0.336
-686.324	800.000	0.015	-0.053
-685.310	-162.072	0.114	0.006
-684.295	164.497	0.142	-0.200
-683.281	-11.429	-0.231	0.152
-682.266	85.275	-0.053	0.058
-681.251	-114.718	-0.228	-0.044
-680.237	-22.592	-0.218	-0.132
-679.222	-200.000	-0.004	0.158
-678.208	-200.000	0.014	-0.401
-677.193	-34.030	0.208	0.115
-676.178	702.245	0.140	-0.369
-675.164	-114.243	0.126	0.024
-674.149	-115.247	-0.272	-0.051
-673.135	-89.010	0.141	-0.042
-672.120	130.413	-0.161	-0.206
-671.105	95.216	-0.208	-0.237
-670.091	800.000	0.038	-0.131
-669.076	43.105	-0.123	0.113
-668.062	74.103	-0.058	-0.061
-667.047	-200.000	-0.015	0.190
-666.032	69.512	-0.391	-0.403
-665.018	-101.727	-0.283	0.069
-664.003	172.356	-0.091	0.131
-662.989	-43.357	0.176	-0.089
-661.974	-51.873	0.106	0.049
-660.959	245.845	0.113	0.190
-659.945	-143.430	-0.255	0.024
-658.930	-200.000	0.034	-0.253
-657.916	-172.880	-0.314	-0.010
-656.901	-136.791	0.224	0.026
-655.886	-200.000	-0.038	-0.199
-654.872	-111.199	0.428	0.088
-653.857	-9.186	0.207	-0.138
-652.843	59.509	-0.348	0.343
-651.828	-200.000	0.002	-0.012
-650.814	-200.000	0.031	0.315
-649.799	-122.592	-0.444	0.072
-648.784	-108.571	-0.307	-0.066
-647.770	26.264	-0.100	0.083
-646.755	358.013	-0.245	0.489
-645.741	146.541	0.182	-0.244
-644.726	129.830	-0.126	0.161
-643.711	800.000	0.123	-0.381
-642.697	-200.000	-0.038	-0.366
-641.682	-200.000	-0.011	0.159
-640.668	-96.978	-0.181	0.047
-639.653	-200.000	-0.032	-0.184
-638.638	-200.000	0.006	0.039
-637.624	138.569	0.133	-0.175
-636.609	-200.000	-0.015	-0.156
-635.595	-81.538	-0.199	-0.065
-634.580	-200.000	0.049	-0.323
-633.565	-19.449	-0.101	-0.063
-632.551	-50.817	0.034	-0.016
-631.536	-87.566	-0.317	-0.096
-630.522	5.306	0.470	-0.346
-629.507	-200.000	-0.001	-0.227
-628.492	475.097	-0.136	0.308
-627.478	597.327	0.160	-0.397
-626.463	800.000	0.039	-0.117
-625.449	-40.476	-0.179	-0.093
-624.434	707.838	0.087	-0.229
-623.419	335.698	0.061	0.117
-622.405	-72.189	-0.325	-0.120
-621.390	-93.031	0.212	-0.059
-620.376	386.577	-0.043	-0.089
-619.361	-29.702	-0.065	-0.037
-618.346	0.276	-0.176	-0.126
-617.332	-4.810	0.479	0.330
-616.317	-2.054	0.200	0.141
-615.303	100.380	-0.176	-0.204
-614.288	-135.444	0.064	-0.008
-613.273	-200.000	0.008	0.141
-612.259	800.000	0.071	0.234
-611.244	-137.215	-0.191	0.022
-610.230	29.853	-0.140	0.119
-609.215	800.000	-0.050	-0.161
-608.201	-97.546	-0.059	0.015
-607.186	138.879	-0.204	0.268
-606.171	412.603	-0.047	0.099
-605.157	800.000	-0.037	0.132
-604.142	108.975	-0.072	0.086
-603.128	242.432	0.091	-0.151
-602.113	58.253	-0.232	-0.227
-601.098	-53.584	0.225	0.103
-600.084	-72.583	-0.181	-0.067
-599.069	-154.982	-0.135	-0.009
-598.055	-13.508	0.342	-0.221
-597.040	-85.127	-0.202	0.063
-596.025	800.000	0.055	-0.233
-595.011	134.666	-0.189	0.245
-593.996	-200.000	0.046	0.271
-592.982	550.515	-0.109	-0.262
-591.967	-173.622	0.101	-0.003
-590.952	114.631	-0.053	0.065
-589.938	-200.000	0.010	-0.182
-588.923	310.483	-0.124	-0.232
-587.909	800.000	0.036	-0.101
-586.894	17.985	-0.064	0.051
-585.879	-157.454	-0.390	-0.023
-584.865	-12.339	0.165	-0.108
-583.850	800.000	0.038	0.149
-582.836	-110.394	0.219	0.045
-581.821	-112.415	0.422	-0.084
-580.806	-92.222	-0.137	-0.039
-579.792	800.000	0.078	-0.257
-578.777	-73.052	0.194	0.071
-577.763	800.000	0.019	0.069
-576.748	-125.652	-0.185	-0.028
-575.733	-116.016	0.322	0.060
-574.719	-200.000	-0.041	-0.283
-573.704	61.083	0.336	-0.333
-572.690	24.512	-0.331	-0.273
-571.675	-130.091	-0.173	-0.024
-570.661	-200.000	0.039	0.209
-569.646	34.406	0.115	-0.100
-568.631	-79.674	-0.258	0.087
-567.617	-31.432	0.235	0.132
-566.602	-200.000	0.025	0.171
-565.588	-200.000	0.013	0.189
-564.573	-99.462	-0.311	0.078
-563.558	111.895	0.202	0.244
-562.544	800.000	-0.065	0.247
-561.529	-8.382	0.388	0.260
-560.515	38.570	-0.066	-0.058
-559.500	-68.254	0.322	0.125
-558.485	-128.307	0.201	0.029
-557.471	-116.590	-0.053	-0.010
-556.456	98.042	-0.117	0.135
-555.442	800.000	-0.095	0.348
-554.427	65.037	0.218	0.219
-553.412	25.093	0.104	-0.086
-552.398	7.333	-0.174	-0.130
-551.383	73.039	-0.233	-0.242
-550.369	329.377	-0.134	-0.257
-549.354	-60.197	-0.268	-0.114
-548.339	-200.000	0.007	-0.043
-547.325	331.085	-0.126	-0.242
-546.310	-200.000	0.051	-0.280
-545.296	-67.526	0.262	-0.102
-544.281	61.773	-0.113	-0.112
-543.266	800.000	0.011	-0.046
-542.252	-111.305	-0.295	-0.060
-541.237	-35.221	-0.208	-0.113
-540.223	76.489	0.212	-0.224
-539.208	-66.244	-0.308	0.122
-538.193	56.283	0.464	0.449
-537.179	-103.805	0.704	-0.164
-536.164	-200.000	-0.092	-0.423
-535.150	-95.622	-0.214	0.057
-534.135	103.383	0.360	0.421
-533.121	-48.264	0.067	-0.032
-532.106	800.000	0.037	0.135
-531.091	70.717	-0.131	0.136
-530.077	523.894	0.092	0.215
-529.062	0.469	-0.183	0.130
-528.048	800.000	0.072	0.258
-527.033	-91.015	0.168	-0.048
-526.018	250.057	0.147	-0.248
-525.004	-194.333	0.340	-0.003
-523.989	800.000	-0.012	-0.043
-522.975	-13.912	-0.047	0.030
-521.960	800.000	-0.032	-0.104
-520.945	18.173	-0.125	-0.099
-519.931	-106.840	0.274	-0.060
-518.916	-49.049	-0.240	0.114
-517.902	-200.000	-0.021	0.197
-516.887	-200.000	0.006	0.085
-515.872	49.365	-0.118	0.110
-514.858	27.503	0.276	0.231
-513.843	2.690	-0.078	-0.057
-512.829	-26.250	0.148	-0.087
-511.814	800.000	-0.093	0.299
-510.799	-54.521	-0.208	-0.094
-509.785	6.367	0.078	0.057
-508.770	-36.983	-0.039	-0.021
-507.756	800.000	0.043	0.132
-506.741	-200.000	0.023	0.198
-505.726	-53.087	-0.141	0.064
-504.712	800.000	-0.058	0.224
-503.697	-63.291	0.411	-0.168
-502.683	94.117	-0.307	-0.347
-501.668	-123.885	0.187	0.029
-500.653	27.384	-0.102	0.085
-499.639	-46.721	0.324	0.158
-498.624	-54.151	-0.232	-0.105
-497.610	-16.193	-0.264	0.166
-496.595	-39.640	-0.126	0.066
-495.581	-77.349	0.073	-0.025
-494.566	-200.000	-0.018	-0.186
-493.551	-200.000	-0.003	0.087
-492.537	-200.000	-0.043	-0.198
-491.522	-200.000	0.032	-0.349
-490.508	-72.433	0.164	-0.060
-489.493	526.726	0.070	-0.165
-488.478	88.762	0.100	-0.110
-487.464	-200.000	-0.001	-0.105
-486.449	800.000	0.107	-0.360
-485.435	508.413	-0.128	0.295
-484.420	-30.423	-0.430	-0.242
-483.405	159.035	0.196	0.271
-482.391	-145.643	-0.215	0.019
-481.376	-200.000	-0.035	-0.204
-480.362	-105.158	-0.315	-0.071
-479.347	-0.932	0.246	0.173
-478.332	167.947	-0.099	0.140
-477.318	-131.226	-0.355	0.047
-476.303	-158.431	0.164	-0.009
-475.289	29.682	0.235	0.199
-474.274	-55.138	0.326	-0.146
-473.259	73.242	-0.131	0.136
-472.245	-200.000	-0.013	-0.181
-471.230	-78.073	-0.210	0.072
-470.216	-117.791	0.224	-0.040
-469.201	273.807	0.129	-0.226
-468.186	-200.000	0.076	0.350
-467.172	456.409	-0.048	0.107
-466.157	117.117	-0.135	0.165
-465.143	-47.691	0.162	0.078
-464.128	46.598	0.186	0.172
-463.113	72.162	0.164	-0.169
-462.099	-52.855	-0.315	-0.144
-461.084	638.184	-0.014	-0.036
-460.070	-95.996	0.203	-0.054
-459.055	-62.495	0.267	-0.110
-458.040	264.631	-0.199	0.344
-457.026	121.408	0.108	0.134
-456.011	800.000	-0.073	-0.276
-454.997	-200.000	0.050	-0.311
-453.982	-93.828	0.336	-0.092
-452.968	-63.288	-0.048	-0.020
-451.953	-200.000	0.023	0.155
-450.938	-200.000	-0.001	0.147
-449.924	-200.000	-0.123	0.555
-448.909	164.042	0.367	0.513
-447.895	-200.000	0.016	0.230
-446.880	800.000	-0.091	-0.345
-445.865	79.266	-0.147	-0.156
-444.851	800.000	-0.050	0.194
-443.836	785.202	-0.068	-0.185
-442.822	-200.000	-0.000	-0.175
-441.807	390.593	0.100	-0.205
-440.792	44.475	0.353	-0.322
-439.778	65.743	0.195	0.196
-438.763	-200.000	0.013	0.263
-437.749	273.612	-0.138	-0.242
-436.734	225.246	-0.090	0.145
-435.719	800.000	-0.037	-0.128
-434.705	180.930	0.070	-0.102
-433.690	-200.000	0.021	-0.220
-432.676	-200.000	-0.028	-0.226
-431.661	531.055	0.052	0.122
-430.646	-200.000	-0.030	0.178
-429.632	-109.273	-0.213	-0.045
-428.617	-121.265	-0.328	0.054
-427.603	-200.000	0.050	-0.419
-426.588	77.790	-0.197	-0.208
-425.573	-13.346	-0.451	-0.290
-424.559	51.407	0.170	-0.160
-423.544	216.307	-0.071	0.111
-422.530	-32.675	-0.159	0.087
-421.515	800.000	-0.056	0.190
-420.500	385.854	0.040	-0.082
-419.486	-200.000	-0.005	0.077
-418.471	66.171	0.037	-0.037
-417.457	-151.792	0.199	-0.014
-416.442	279.252	0.050	0.088
-415.428	-200.000	0.026	0.349
-414.413	800.000	-0.060	0.185
-413.398	298.303	0.087	0.159
-412.384	-67.682	-0.340	-0.132
-411.369	-28.753	-0.114	0.065
-410.355	484.567	-0.073	0.166
-409.340	-162.229	0.128	0.006
-408.325	517.494	-0.068	0.158
-407.311	209.064	-0.066	0.102
-406.296	-200.000	-0.028	-0.195
-405.282	336.835	0.084	0.161
-404.267	-63.042	0.147	0.060
-403.252	-40.328	-0.241	-0.124
-402.238	-79.193	0.145	-0.049
-401.223	-200.000	0.137	0.001
-400.209	247.258	-0.107	-0.180
-399.194	-200.000	0.067	-0.476
-398.179	800.000	0.074	-0.296
-397.165	82.323	0.179	0.193
-396.150	15.697	0.106	0.083
-395.136	515.894	0.071	0.165
-394.121	40.951	-0.140	-0.125
-393.106	67.598	-0.334	0.338
-392.092	-52.116	0.040	0.018
-391.077	695.911	0.052	-0.135
-390.063	24.765	0.171	-0.140
-389.048	6.529	0.172	0.127
-388.033	-77.676	-0.040	-0.014
-387.019	28.171	0.147	-0.123
-386.004	-200.000	-0.004	-0.129
-384.990	241.390	-0.077	-0.128
-383.975	4.700	0.137	0.099
-382.960	30.144	-0.371	-0.314
-381.946	36.375	0.285	0.249
-380.931	30.429	0.125	-0.106
-379.917	198.780	-0.167	0.253
-378.902	-73.619	-0.228	0.082
-377.888	-58.935	-0.399	0.171
-376.873	-200.000	0.020	0.105
-375.858	-200.000	-0.030	0.268
-374.844	284.271	-0.075	-0.133
-373.829	63.009	0.164	0.162
-372.815	770.798	-0.106	-0.287
-371.800	-191.121	0.200	-0.002
-370.785	262.845	0.122	-0.210
-369.771	-116.287	0.143	0.026
-368.756	-174.320	0.050	0.001
-367.742	4.973	0.045	0.033
-366.727	-17.402	0.212	-0.132
-365.712	52.159	-0.185	-0.174
-364.698	216.266	-0.132	-0.208
-363.683	32.795	0.338	-0.289
-362.669	31.121	0.076	0.065
-361.654	-126.151	-0.538	-0.080
-360.639	543.600	-0.050	-0.119
-359.625	630.926	0.080	-0.201
-358.610	-200.000	0.022	0.145
-357.596	371.937	0.033	0.066
-356.581	426.466	-0.138	-0.294
-355.566	-149.434	-0.318	0.025
-354.552	800.000	0.094	0.364
-353.537	800.000	-0.046	0.145
-352.523	-81.899	-0.216	0.070
-351.508	28.873	0.144	-0.121
-350.493	26.688	0.210	0.174
-349.479	49.858	-0.046	-0.043
-348.464	-32.263	0.041	0.023
-347.450	217.005	-0.140	-0.220
-346.435	729.424	0.027	0.072
-345.420	800.000	-0.067	0.272
-344.406	-117.881	-0.224	-0.040
-343.391	182.460	-0.061	-0.088
-342.377	-148.848	-0.031	-0.002
-341.362	116.775	0.152	-0.184
-340.348	-131.318	0.405	-0.053
-339.333	800.000	0.051	-0.143
-338.318	146.414	-0.088	0.117
-337.304	5.247	0.115	-0.083
-336.289	218.356	0.127	0.200
-335.275	-151.620	0.286	-0.021
-334.260	-200.000	0.001	-0.124
-333.245	800.000	0.011	-0.042
-332.231	-24.952	-0.053	-0.031
-331.216	119.759	0.012	0.015
-330.202	-200.000	0.001	0.053
-329.187	-123.159	-0.296	0.047
-328.172	800.000	-0.078	0.267
-327.158	-150.710	0.196	0.015
-326.143	190.214	0.087	-0.129
-325.129	-200.000	0.003	-0.457
-324.114	800.000	0.050	-0.184
-323.099	-200.000	-0.041	-0.378
-322.085	-200.000	-0.046	0.312
-321.070	542.818	0.077	-0.182
-320.056	-200.000	-0.033	-0.296
-319.041	-69.547	-0.203	-0.077
-318.026	-90.820	0.170	0.048
-317.012	116.412	-0.026	0.032
-315.997	11.611	-0.246	-0.186
-314.983	-155.307	-0.269	0.017
-313.968	-4.313	-0.127	-0.087
-312.953	-68.601	-0.158	-0.060
-311.939	-62.390	0.368	0.151
-310.924	-200.000	-0.006	0.030
-309.910	291.690	-0.114	-0.204
-308.895	800.000	-0.071	0.216
-307.880	72.438	0.153	-0.158
-306.866	-39.352	0.218	-0.113
-305.851	-11.459	-0.116	-0.075
-304.837	137.423	-0.099	0.127
-303.822	-36.216	-0.122	-0.065
-302.807	-200.000	0.006	-0.308
-301.793	-105.649	-0.190	-0.043
-300.778	-200.000	-0.006	0.366
-299.764	196.916	0.108	0.163
-298.749	441.924	-0.021	-0.045
-297.735	-177.693	-0.071	-0.002
-296.720	-106.682	-0.431	0.094
-295.705	-200.000	0.024	0.406
-294.691	93.132	0.109	-0.121
-293.676	475.764	-0.190	0.422
-292.662	80.270	-0.092	-0.097
-291.647	-200.000	0.007	0.042
-290.632	292.620	-0.168	-0.302
-289.618	15.570	-0.067	-0.052
-288.603	-164.461	-0.377	0.017
-287.589	-13.032	0.193	0.124
-286.574	431.558	0.113	-0.242
-285.559	-6.075	-0.098	0.066
-284.545	-68.767	0.154	-0.059
-283.530	-171.709	0.080	0.003
-282.516	264.382	0.038	-0.065
-281.501	-47.831	-0.351	-0.168
-280.486	-37.537	0.279	0.147
-279.472	300.924	-0.056	0.103
-278.457	-200.000	-0.003	0.163
-277.443	-146.495	-0.061	-0.005
-276.428	-169.256	-0.115	0.004
-275.413	-91.180	0.238	0.067
-274.399	71.681	-0.161	0.165
-273.384	86.354	0.241	0.262
-272.370	104.758	0.164	0.191
-271.355	287.669	0.094	-0.168
-270.340	8.776	-0.287	0.213
-269.326	-46.287	-0.205	0.099
-268.311	-83.421	-0.196	0.062
-267.297	-125.737	-0.367	-0.055
-266.282	50.057	0.271	-0.252
-265.267	606.808	-0.162	0.398
-264.253	800.000	-0.161	-0.456
-263.238	-130.717	-0.195	-0.026
-262.224	12.498	-0.076	0.058
-261.209	-139.918	0.535	-0.056
-260.195	-107.459	0.164	0.036
-259.180	-64.698	0.171	-0.068
-258.165	-78.682	-0.060	0.020
-257.151	-102.709	-0.448	0.105
-256.136	-200.000	0.010	0.350
-255.122	800.000	0.061	0.203
-254.107	-87.486	-0.080	0.024
-253.092	-200.000	0.054	0.491
-252.078	-200.000	0.007	-0.045
-251.063	353.041	-0.149	0.291
-250.049	67.163	-0.052	0.052
-249.034	-166.968	0.282	0.011
-248.019	800.000	0.091	-0.263
-247.005	800.000	-0.051	0.152
-245.990	-142.157	-0.171	0.017
-244.976	-59.991	-0.111	-0.047
-243.961	-200.000	-0.003	-0.147
-242.946	-139.317	-0.111	-0.012
-241.932	800.000	-0.020	0.060
-240.917	268.409	0.085	-0.146
-239.903	46.231	-0.268	0.245
-238.888	800.000	0.042	-0.176
-237.873	-170.802	-0.207	0.007
-236.859	-97.307	0.080	-0.021
-235.844	275.605	-0.210	-0.366
-234.830	-21.873	0.118	0.071
-233.815	-116.100	-0.141	0.026
-232.800	20.157	-0.009	-0.007
-231.786	-167.530	0.113	-0.004
-230.771	134.538	-0.083	0.106
-229.757	-44.357	-0.265	0.131
-228.742	-23.117	-0.191	0.113
-227.727	-200.000	0.024	0.333
-226.713	114.073	-0.040	0.048
-225.698	-91.901	-0.215	0.060
-224.684	355.557	-0.066	-0.128
-223.669	-65.923	0.299	0.117
-222.655	-12.543	-0.149	-0.095
-221.640	452.123	0.099	-0.215
-220.625	-57.842	0.115	0.050
-219.611	-200.000	0.019	-0.132
-218.596	338.218	0.044	0.084
-217.582	16.411	0.225	0.175
-216.567	-200.000	-0.037	-0.213
-215.552	47.777	-0.098	-0.090
-214.538	-131.131	0.100	-0.013
-213.523	54.346	0.084	0.080
-212.509	-143.992	-0.055	-0.005
-211.494	-200.000	0.006	0.135
-210.479	9.188	0.179	0.133
-209.465	-114.968	-0.203	0.038
-208.450	-41.768	0.189	0.095
-207.436	-200.000	-0.008	0.170
-206.421	-45.933	0.032	0.015
-205.406	-98.560	0.294	-0.074
-204.392	-54.760	0.050	-0.022
-203.377	-127.909	0.040	0.006
-202.363	143.806	-0.148	0.194
-201.348	-129.880	0.180	-0.024
-200.333	-124.338	0.367	-0.056
-199.319	-111.379	0.390	0.078
-198.304	59.281	0.236	0.229
-197.290	-200.000	-0.033	-0.147
-196.275	-53.799	-0.345	-0.154
-195.260	-200.000	0.040	0.212
-194.246	-125.643	0.443	-0.066
-193.231	-125.984	0.293	-0.043
-192.217	108.543	-0.059	0.069
-191.202	-79.345	0.046	0.015
-190.187	-200.000	-0.043	-0.202
-189.173	-8.806	0.168	0.111
-188.158	-70.829	-0.434	-0.161
-187.144	-77.327	0.182	-0.062
-186.129	-32.947	-0.198	-0.108
-185.114	800.000	0.115	0.385
-184.100	800.000	0.009	0.035
-183.085	-113.159	-0.073	0.014
-182.071	-84.450	-0.172	-0.054
-181.056	704.430	0.144	0.372
-180.042	-54.162	0.066	-0.029
-179.027	-26.959	0.093	0.053
-178.012	-40.128	0.200	-0.102
-176.998	148.964	0.106	0.141
-175.983	458.305	-0.142	0.310
-174.969	-200.000	-0.012	0.090
-173.954	-39.493	0.192	0.099
-172.939	-200.000	0.049	-0.253
-171.925	-156.879	-0.115	0.007
-170.910	51.085	0.175	0.163
-169.896	-93.882	0.068	0.018
-168.881	-32.923	0.078	-0.042
-167.866	-174.626	0.348	0.010
-166.852	1.910	-0.136	-0.096
-165.837	-162.432	0.283	0.014
-164.823	7.084	0.166	-0.122
-163.808	629.462	-0.105	-0.261
-162.793	800.000	0.098	0.287
-161.779	-135.768	0.378	-0.044
-160.764	-200.000	0.001	0.327
-159.750	-97.063	-0.159	-0.041
-158.735	-68.071	0.072	0.028
-157.720	800.000	-0.036	0.136
-156.706	-200.000	-0.046	-0.205
-155.691	-19.386	-0.118	0.072
-154.677	141.209	-0.018	-0.023
-153.662	-151.325	0.281	0.021
-152.647	-99.511	-0.250	0.062
-151.633	-26.902	0.118	-0.068
-150.618	-114.045	0.105	0.020
-149.604	-5.565	0.045	0.031
-148.589	-7.180	-0.264	-0.176
-147.574	-200.000	0.056	0.447
-146.560	-112.544	0.178	-0.035
-145.545	-32.541	-0.057	0.031
-144.531	87.884	0.146	0.159
-143.516	3.524	-0.171	-0.123
-142.502	-153.076	0.061	0.004
-141.487	-15.653	0.208	-0.130
-140.472	-200.000	-0.003	0.155
-139.458	-147.991	0.141	0.012
-138.443	800.000	-0.134	-0.440
-137.429	-200.000	-0.012	0.082
-136.414	18.692	0.222	-0.174
-135.399	89.801	0.163	0.179
-134.385	800.000	0.142	0.545
-133.370	13.946	-0.066	0.051
-132.356	9.580	0.199	-0.148
-131.341	8.814	-0.207	-0.153
-130.326	78.952	0.015	0.016
-129.312	800.000	-0.018	-0.064
-128.297	387.903	-0.090	0.183
-127.283	-31.433	0.110	0.060
-126.268	-200.000	-0.035	-0.173
-125.253	581.113	0.101	0.243
-124.239	-200.000	-0.034	-0.149
-123.224	-200.000	0.071	0.382
-122.210	-59.839	0.221	0.093
-121.195	-59.674	0.256	0.107
