DTS Sentinel unit serial number:	SN413079Multiplexer serial number:	ORYXHardware model number:	OX4-SRSoftware version number:	ORYX F/W v4.00 Oryx Data Collector v3.7.2.0data status	okinstallation	princeton_trtdifferential loss correction	single-endedforward channel	channel 3reverse channel	N/Adate	2019/09/15time	12:40:35forward acquisition time	60.00reverse acquisition time	0.00gamma	496.2192k internal	0.2297k external	0.2297temperature offset calibration	0.9970default loss term (dB/km)	0.3790temperature slope calibration	1.0000multiplexer offset coefficient	1.0000multiplexer slope coefficient	1.0000fibre end	0.00T internal ref (°C)	35.56T ext. ref 1 (°C)	5.04T ext. ref 2 (°C)	33.41length (m)	temperature (°C)	Stokes	anti-Stokes-747.200	-53.811	-0.237	-0.110
-746.185	-200.000	0.002	0.287
-745.171	40.742	-0.048	0.044
-744.156	-200.000	-0.022	0.119
-743.142	161.473	-0.209	-0.299
-742.127	-171.847	-0.223	0.007
-741.112	-200.000	0.063	0.312
-740.098	-200.000	0.025	0.172
-739.083	433.691	-0.098	0.218
-738.069	-91.902	-0.183	0.053
-737.054	-200.000	-0.037	-0.238
-736.039	-29.044	0.252	0.148
-735.025	778.575	0.096	0.269
-734.010	-92.231	-0.195	-0.056
-732.996	229.563	-0.190	-0.316
-731.981	87.960	-0.335	-0.379
-730.966	-200.000	0.071	-0.445
-729.952	-103.713	0.144	-0.034
-728.937	-200.000	-0.056	-0.278
-727.923	-173.772	0.112	-0.003
-726.908	-24.626	-0.189	-0.115
-725.894	-86.262	-0.243	-0.076
-724.879	166.348	-0.170	-0.245
-723.864	-57.762	0.259	-0.116
-722.850	-29.078	0.226	-0.132
-721.835	17.257	-0.221	0.179
-720.821	-88.116	0.162	0.050
-719.806	-200.000	-0.049	0.245
-718.791	175.665	-0.135	-0.199
-717.777	-6.125	-0.120	-0.083
-716.762	135.055	0.212	0.281
-715.748	431.891	-0.044	0.098
-714.733	16.516	0.186	-0.150
-713.718	-200.000	-0.019	-0.097
-712.704	68.721	-0.043	0.045
-711.689	-28.717	0.191	-0.112
-710.675	-168.233	-0.256	-0.010
-709.660	34.479	0.269	-0.239
-708.645	118.586	0.102	-0.129
-707.631	800.000	0.020	0.062
-706.616	-200.000	0.059	0.285
-705.602	17.545	0.230	-0.186
-704.587	-6.656	0.199	-0.138
-703.572	-165.184	-0.425	-0.019
-702.558	-5.615	-0.176	-0.123
-701.543	800.000	-0.023	0.078
-700.529	-89.065	-0.247	-0.075
-699.514	-7.378	0.356	-0.246
-698.499	340.205	0.084	-0.167
-697.485	97.031	0.189	0.221
-696.470	-79.486	-0.091	0.031
-695.456	407.251	-0.165	-0.354
-694.441	134.553	0.055	-0.073
-693.426	-200.000	-0.016	0.110
-692.412	-100.749	-0.111	-0.028
-691.397	348.301	0.064	0.129
-690.383	39.706	-0.195	-0.178
-689.368	800.000	-0.042	-0.148
-688.354	-142.600	-0.092	0.009
-687.339	250.168	0.032	-0.056
-686.324	277.185	0.120	-0.218
-685.310	-103.196	0.084	0.020
-684.295	366.124	-0.033	-0.067
-683.281	72.676	-0.234	-0.249
-682.266	-177.265	0.276	-0.007
-681.251	568.736	-0.123	0.304
-680.237	-87.561	-0.167	0.051
-679.222	344.459	-0.033	-0.066
-678.208	-12.678	-0.145	-0.096
-677.193	37.719	-0.073	-0.066
-676.178	-162.650	-0.457	0.023
-675.164	21.346	0.148	-0.123
-674.149	100.896	-0.055	-0.065
-673.135	-69.455	0.149	0.058
-672.120	-102.764	-0.162	-0.039
-671.105	-186.051	-0.386	-0.006
-670.091	-50.397	-0.197	-0.095
-669.076	-164.888	-0.033	0.001
-668.062	153.256	-0.113	-0.158
-667.047	-195.475	0.179	0.001
-666.032	106.821	-0.051	-0.061
-665.018	-200.000	-0.025	-0.131
-664.003	-53.223	0.425	-0.199
-662.989	76.651	-0.160	0.173
-661.974	800.000	0.052	-0.188
-660.959	800.000	-0.020	0.071
-659.945	-110.079	-0.246	-0.052
-658.930	27.589	-0.138	0.118
-657.916	-200.000	-0.039	0.245
-656.901	733.720	-0.079	-0.216
-655.886	-67.981	-0.219	-0.087
-654.872	-200.000	0.011	0.053
-653.857	800.000	-0.057	0.163
-652.843	-51.156	0.074	-0.035
-651.828	334.660	-0.046	-0.091
-650.814	800.000	-0.120	0.394
-649.799	50.945	-0.257	0.248
-648.784	-172.973	-0.056	-0.002
-647.770	-20.758	-0.275	-0.172
-646.755	9.447	-0.191	-0.147
-645.741	684.060	0.121	-0.320
-644.726	-195.342	0.334	0.003
-643.711	128.173	0.060	-0.078
-642.697	-11.302	0.164	-0.110
-641.682	-99.382	-0.113	-0.029
-640.668	-77.033	0.299	-0.106
-639.653	-200.000	0.044	-0.199
-638.638	191.187	-0.136	-0.209
-637.624	-57.293	-0.223	0.100
-636.609	-200.000	-0.031	0.348
-635.595	206.387	-0.083	0.132
-634.580	98.102	-0.144	-0.169
-633.565	-200.000	-0.050	-0.465
-632.551	129.569	0.070	-0.091
-631.536	-155.449	-0.099	0.007
-630.522	-171.627	-0.097	0.003
-629.507	-13.023	-0.325	-0.215
-628.492	-131.863	0.287	0.038
-627.478	-132.733	0.266	-0.035
-626.463	-121.670	-0.070	-0.012
-625.449	140.061	0.104	0.139
-624.434	-94.589	0.072	-0.020
-623.419	-126.071	0.186	-0.028
-622.405	85.827	-0.018	0.020
-621.390	800.000	0.012	-0.052
-620.376	-79.598	-0.275	-0.094
-619.361	107.561	-0.124	0.150
-618.346	-10.618	-0.063	-0.042
-617.332	-113.147	0.308	0.062
-616.317	-165.972	-0.174	-0.008
-615.303	455.609	-0.083	-0.187
-614.288	-200.000	-0.017	-0.104
-613.273	-155.117	-0.395	-0.026
-612.259	283.963	-0.107	0.195
-611.244	-122.391	-0.320	-0.053
-610.230	-63.491	0.238	-0.099
-609.215	-20.549	0.350	0.219
-608.201	49.845	-0.113	0.108
-607.186	-200.000	-0.039	-0.210
-606.171	123.801	-0.170	-0.217
-605.157	800.000	0.009	-0.034
-604.142	-131.127	-0.598	-0.081
-603.128	51.387	-0.238	-0.229
-602.113	-156.416	-0.115	0.007
-601.098	54.963	-0.105	-0.103
-600.084	800.000	-0.042	-0.139
-599.069	-100.297	-0.183	-0.046
-598.055	-28.748	0.158	-0.092
-597.040	79.559	-0.151	-0.165
-596.025	-24.130	-0.112	0.068
-595.011	126.664	-0.244	-0.314
-593.996	72.664	-0.342	-0.362
-592.982	61.012	0.105	-0.106
-591.967	-200.000	0.024	-0.216
-590.952	-30.229	0.129	0.074
-589.938	-127.724	0.161	-0.024
-588.923	680.300	0.153	-0.406
-587.909	52.742	0.289	0.280
-586.894	800.000	0.059	0.250
-585.879	-90.206	-0.127	0.038
-584.865	-63.475	0.225	-0.094
-583.850	-97.436	0.304	-0.080
-582.836	72.927	-0.201	-0.213
-581.821	53.844	-0.375	-0.366
-580.806	-47.130	-0.345	0.171
-579.792	347.538	-0.028	0.056
-578.777	-179.274	0.224	0.005
-577.763	-48.549	0.074	0.036
-576.748	-200.000	0.045	-0.217
-575.733	116.480	-0.174	-0.217
-574.719	-12.773	-0.115	0.076
-573.704	-110.210	0.157	-0.033
-572.690	-41.752	-0.314	-0.163
-571.675	14.705	-0.098	0.077
-570.661	-22.121	0.284	-0.175
-569.646	-87.301	-0.194	0.060
-568.631	614.708	-0.046	-0.116
-567.617	-4.715	-0.107	-0.075
-566.602	-126.600	-0.127	-0.019
-565.588	232.739	-0.156	-0.261
-564.573	800.000	-0.064	-0.216
-563.558	537.198	0.067	-0.162
-562.544	265.917	-0.081	0.144
-561.529	777.603	0.096	0.267
-560.515	512.152	-0.172	-0.406
-559.500	693.189	0.114	-0.303
-558.485	-18.278	-0.062	-0.039
-557.471	287.721	-0.035	0.064
-556.456	800.000	0.091	0.368
-555.442	-127.368	0.234	0.035
-554.427	111.144	0.096	0.118
-553.412	17.691	0.149	0.120
-552.398	86.947	-0.252	0.283
-551.383	-162.132	-0.321	-0.016
-550.369	-91.525	-0.278	-0.080
-549.354	266.334	-0.107	0.189
-548.339	539.627	-0.063	0.153
-547.325	22.808	-0.067	-0.055
-546.310	-99.665	-0.144	-0.037
-545.296	248.141	-0.120	0.205
-544.281	1.849	0.119	-0.087
-543.266	53.854	0.022	-0.022
-542.252	-54.054	0.121	0.056
-541.237	-200.000	0.048	0.382
-540.223	-10.411	-0.109	-0.073
-539.208	146.409	-0.151	0.205
-538.193	-35.027	0.234	-0.129
-537.179	-200.000	0.033	-0.395
-536.164	-86.575	-0.280	-0.087
-535.150	-112.403	0.175	0.035
-534.135	19.296	-0.058	0.047
-533.121	-100.168	-0.260	0.065
-532.106	-87.992	-0.326	0.099
-531.091	46.627	0.174	-0.164
-530.077	-144.926	0.039	0.004
-529.062	-41.934	-0.086	-0.044
-528.048	-128.352	0.239	0.034
-527.033	-110.117	-0.113	-0.024
-526.018	262.303	-0.096	0.168
-525.004	-75.336	0.205	-0.074
-523.989	0.754	0.286	0.208
-522.975	518.275	-0.093	0.221
-521.960	-73.344	0.276	-0.102
-520.945	800.000	0.078	0.249
-519.931	800.000	0.036	0.154
-518.916	124.480	0.049	-0.063
-517.902	-200.000	-0.044	-0.278
-516.887	-27.590	0.412	-0.242
-515.872	134.519	-0.177	-0.232
-514.858	362.775	-0.181	-0.369
-513.843	-200.000	0.021	0.231
-512.829	-200.000	-0.007	-0.040
-511.814	-96.980	-0.521	0.138
-510.799	87.492	-0.264	-0.296
-509.785	298.216	0.049	-0.091
-508.770	-157.427	-0.258	-0.016
-507.756	-119.088	-0.179	0.032
-506.741	-200.000	0.039	0.218
-505.726	267.404	0.138	0.245
-504.712	-112.940	0.255	0.051
-503.697	-200.000	-0.031	0.308
-502.683	-57.727	-0.249	-0.110
-501.668	393.108	-0.078	0.164
-500.653	-162.065	0.131	0.007
-499.639	167.923	0.226	-0.325
-498.624	-86.629	0.087	-0.027
-497.610	123.589	0.173	-0.220
-496.595	-108.719	-0.129	-0.028
-495.581	532.835	0.055	0.131
-494.566	53.830	0.209	-0.203
-493.551	-16.953	-0.192	-0.123
-492.537	-27.356	0.193	0.114
-491.522	404.350	-0.154	0.328
-490.508	800.000	-0.108	0.322
-489.493	800.000	0.067	-0.213
-488.478	-91.636	0.279	0.080
-487.464	188.466	0.240	-0.362
-486.449	-48.022	0.125	0.061
-485.435	800.000	-0.057	0.213
-484.420	-81.340	0.163	-0.054
-483.405	501.651	0.049	0.115
-482.391	800.000	0.048	-0.146
-481.376	-8.883	-0.183	-0.124
-480.362	800.000	0.020	-0.064
-479.347	-152.379	0.120	-0.009
-478.332	83.574	-0.041	-0.045
-477.318	76.591	0.241	-0.258
-476.303	494.398	-0.070	0.161
-475.289	-166.719	0.160	0.007
-474.274	-74.317	-0.122	0.044
-473.259	-200.000	0.008	-0.198
-472.245	-173.424	-0.379	0.012
-471.230	236.542	0.037	-0.061
-470.216	-200.000	0.041	-0.240
-469.201	129.679	0.142	-0.183
-468.186	-80.962	-0.026	-0.009
-467.172	-174.349	-0.173	0.005
-466.157	150.767	0.115	-0.157
-465.143	-73.308	-0.197	-0.073
-464.128	-182.021	0.094	0.002
-463.113	-28.308	0.242	0.141
-462.099	800.000	-0.049	0.189
-461.084	800.000	0.067	0.271
-460.070	681.435	0.120	0.317
-459.055	48.264	-0.077	-0.073
-458.040	800.000	0.055	0.242
-457.026	-200.000	-0.025	0.393
-456.011	-26.328	-0.256	0.151
-454.997	335.251	0.119	0.232
-453.982	349.223	-0.098	-0.195
-452.968	319.073	-0.092	-0.176
-451.953	12.049	0.145	0.113
-450.938	102.456	-0.092	-0.108
-449.924	-114.747	0.092	-0.018
-448.909	132.403	-0.047	-0.061
-447.895	152.691	-0.106	-0.146
-446.880	-43.979	-0.104	-0.053
-445.865	-200.000	0.069	0.306
-444.851	-29.443	0.021	-0.012
-443.836	-65.008	0.451	-0.184
-442.822	-93.413	0.145	-0.041
-441.807	415.125	0.042	-0.089
-440.792	-98.774	0.169	0.044
-439.778	-200.000	-0.016	-0.371
-438.763	-55.382	0.315	-0.143
-437.749	-200.000	-0.023	-0.318
-436.734	-53.391	0.362	0.167
-435.719	305.288	0.078	-0.147
-434.705	76.112	-0.183	-0.195
-433.690	-164.502	0.336	-0.015
-432.676	31.732	0.046	0.040
-431.661	542.014	0.047	-0.112
-430.646	-136.661	0.280	0.033
-429.632	-97.561	-0.231	0.060
-428.617	58.014	-0.288	0.284
-427.603	-73.856	-0.043	-0.016
-426.588	-83.463	0.176	0.057
-425.573	-25.485	-0.180	0.107
-424.559	7.303	-0.086	0.065
-423.544	456.006	0.113	-0.253
-422.530	-200.000	0.006	-0.311
-421.515	-200.000	-0.005	0.310
-420.500	800.000	0.053	-0.159
-419.486	-200.000	0.009	-0.165
-418.471	84.171	0.139	0.153
-417.457	424.121	0.152	0.331
-416.442	-46.879	0.217	0.107
-415.428	800.000	-0.116	-0.345
-414.413	52.158	-0.006	0.005
-413.398	-200.000	-0.022	0.175
-412.384	5.702	-0.052	-0.039
-411.369	387.542	0.125	0.261
-410.355	-200.000	-0.001	0.270
-409.340	-67.164	0.165	-0.065
-408.325	306.023	0.193	-0.361
-407.311	154.370	-0.279	-0.386
-406.296	-200.000	-0.069	0.406
-405.282	76.283	0.082	0.087
-404.267	76.453	0.119	-0.127
-403.252	94.413	0.117	-0.134
-402.238	282.908	-0.029	0.052
-401.223	74.924	0.150	0.160
-400.209	-162.450	-0.086	0.004
-399.194	531.476	0.009	-0.020
-398.179	-100.961	0.450	-0.111
-397.165	393.794	0.031	-0.064
-396.150	-145.202	-0.382	0.035
-395.136	-94.351	0.237	-0.065
-394.121	-81.853	0.279	-0.092
-393.106	-124.544	-0.229	-0.036
-392.092	800.000	0.050	-0.194
-391.077	-70.989	-0.238	-0.090
-390.063	-171.599	0.370	-0.012
-389.048	800.000	-0.073	-0.285
-388.033	800.000	0.071	-0.282
-387.019	85.288	0.030	-0.033
-386.004	568.609	-0.039	-0.095
-384.990	201.406	-0.085	-0.132
-383.975	119.513	-0.093	-0.117
-382.960	-47.609	0.205	0.100
-381.946	-145.503	0.036	0.003
-380.931	-94.655	0.203	-0.056
-379.917	75.560	0.126	-0.133
-378.902	495.584	0.038	-0.089
-377.888	106.974	-0.064	-0.077
-376.873	552.293	0.036	-0.087
-375.858	8.802	0.304	0.231
-374.844	-79.908	0.022	0.007
-373.829	-161.337	0.174	-0.009
-372.815	-55.355	0.330	0.149
-371.800	-136.729	0.047	-0.005
-370.785	-17.865	-0.215	-0.136
-369.771	-19.791	0.410	-0.255
-368.756	165.741	0.171	-0.244
-367.742	-108.356	-0.378	0.082
-366.727	-200.000	-0.018	0.210
-365.712	-200.000	-0.078	0.412
-364.698	-172.475	-0.363	-0.012
-363.683	107.090	-0.088	-0.106
-362.669	800.000	-0.030	0.112
-361.654	182.870	-0.086	0.128
-360.639	-16.619	0.199	-0.127
-359.625	635.006	-0.011	0.027
-358.610	591.840	-0.113	0.280
-357.596	-197.852	0.122	-0.001
-356.581	2.712	-0.082	0.060
-355.566	352.195	0.205	-0.408
-354.552	-94.535	0.273	0.075
-353.537	-149.610	-0.093	-0.007
-352.523	10.364	-0.191	0.147
-351.508	310.779	0.046	0.087
-350.493	-162.810	-0.384	-0.019
-349.479	-58.436	0.168	-0.073
-348.464	326.543	0.056	-0.108
-347.450	372.303	-0.115	-0.235
-346.435	73.866	-0.133	0.141
-345.420	39.599	0.152	0.137
-344.406	216.191	0.148	0.236
-343.391	0.658	0.145	0.104
-342.377	-93.312	0.138	0.039
-341.362	33.602	-0.155	-0.135
-340.348	159.023	0.117	-0.163
-339.333	283.693	-0.123	-0.222
-338.318	-13.480	0.187	0.122
-337.304	-200.000	-0.012	0.204
-336.289	-200.000	-0.044	-0.229
-335.275	-200.000	-0.002	-0.039
-334.260	45.108	-0.117	0.108
-333.245	15.344	-0.205	0.161
-332.231	-18.235	0.070	0.044
-331.216	113.109	0.352	0.429
-330.202	41.606	-0.195	0.178
-329.187	-0.637	0.105	0.075
-328.172	581.446	-0.070	0.173
-327.158	140.817	-0.127	-0.168
-326.143	172.791	0.037	0.054
-325.129	-102.489	0.172	0.041
-324.114	800.000	0.084	0.237
-323.099	457.829	-0.150	-0.335
-322.085	35.742	0.092	0.082
-321.070	-92.831	-0.219	-0.062
-320.056	522.950	0.074	0.174
-319.041	200.303	-0.059	0.092
-318.026	-55.730	-0.250	-0.112
-317.012	61.444	-0.182	0.182
-315.997	233.253	0.172	0.285
-314.983	9.558	-0.105	-0.080
-313.968	191.708	-0.278	0.421
-312.953	301.595	-0.136	-0.252
-311.939	64.629	-0.069	-0.069
-310.924	101.569	-0.163	0.190
-309.910	463.872	0.094	0.211
-308.895	710.786	-0.061	0.162
-307.880	800.000	0.071	0.202
-306.866	-57.728	-0.218	0.096
-305.851	56.993	-0.091	0.089
-304.837	-120.969	-0.099	-0.017
-303.822	-22.823	0.486	0.294
-302.807	-148.393	-0.321	0.026
-301.793	-87.199	-0.077	-0.024
-300.778	-200.000	0.266	0.000
-299.764	800.000	0.080	-0.279
-298.749	-58.609	-0.153	-0.067
-297.735	598.561	-0.031	-0.077
-296.720	-64.039	0.130	0.053
-295.705	-200.000	0.038	-0.293
-294.691	-48.170	0.098	0.048
-293.676	-60.496	-0.262	-0.112
-292.662	-37.596	0.174	0.093
-291.647	68.259	-0.069	0.071
-290.632	-36.076	-0.276	-0.150
-289.618	405.333	-0.090	0.189
-288.603	47.490	0.109	0.102
-287.589	65.237	-0.277	-0.281
-286.574	-133.948	-0.183	-0.023
-285.559	-158.296	-0.379	-0.022
-284.545	-7.849	0.165	0.112
-283.530	800.000	-0.071	-0.279
-282.516	800.000	-0.034	-0.115
-281.501	40.346	-0.307	0.277
-280.486	800.000	-0.030	0.114
-279.472	94.904	-0.165	-0.188
-278.457	-2.818	0.202	0.142
-277.443	8.614	0.412	0.311
-276.428	351.374	-0.230	0.457
-275.413	12.247	-0.215	-0.166
-274.399	800.000	0.012	-0.041
-273.384	-29.712	0.286	0.164
-272.370	380.859	0.127	0.261
-271.355	-200.000	-0.014	0.494
-270.340	126.889	0.099	-0.126
-269.326	-113.780	0.050	-0.010
-268.311	12.541	0.137	0.106
-267.297	-75.850	0.281	-0.100
-266.282	18.982	0.118	0.095
-265.267	800.000	-0.104	0.335
-264.253	14.891	0.175	-0.137
-263.238	300.609	-0.093	-0.172
-262.224	-65.345	0.320	0.129
-261.209	-64.420	-0.180	-0.073
-260.195	800.000	-0.091	0.351
-259.180	13.132	0.217	-0.168
-258.165	-9.354	0.373	-0.250
-257.151	100.514	0.182	-0.212
-256.136	-119.469	-0.272	-0.047
-255.122	-200.000	0.019	0.103
-254.107	93.353	0.189	0.215
-253.092	-6.277	-0.065	-0.045
-252.078	-127.726	0.321	-0.046
-251.063	-151.868	0.156	-0.011
-250.049	-82.887	-0.377	-0.122
-249.034	-71.565	-0.223	0.083
-248.019	-33.850	0.391	-0.216
-247.005	-128.478	-0.237	0.034
-245.990	404.023	-0.166	-0.350
-244.976	165.586	-0.072	0.102
-243.961	-156.439	-0.138	0.009
-242.946	-107.784	0.081	-0.018
-241.932	-157.395	0.261	-0.016
-240.917	610.156	0.162	-0.406
-239.903	-20.521	-0.209	0.128
-238.888	-176.544	0.190	0.005
-237.873	-102.748	0.180	-0.043
-236.859	93.476	0.036	0.041
-235.844	337.362	-0.105	-0.204
-234.830	582.350	0.233	0.572
-233.815	-200.000	-0.055	-0.272
-232.800	145.660	-0.304	0.408
-231.786	36.314	-0.205	-0.181
-230.771	-200.000	-0.029	-0.200
-229.757	63.285	0.019	-0.019
-228.742	-132.524	-0.252	0.032
-227.727	-200.000	-0.085	0.401
-226.713	-200.000	-0.001	0.169
-225.698	9.333	-0.151	0.114
-224.684	623.012	0.092	0.232
-223.669	-86.535	-0.140	-0.043
-222.655	286.060	-0.138	0.248
-221.640	170.267	0.150	0.215
-220.625	-124.087	0.370	-0.058
-219.611	-66.015	-0.164	0.065
-218.596	83.209	-0.091	0.099
-217.582	50.522	0.115	-0.109
-216.567	47.181	0.266	-0.248
-215.552	18.853	-0.271	0.217
-214.538	-200.000	-0.036	0.188
-213.523	-171.220	-0.339	-0.011
-212.509	219.361	0.159	0.254
-211.494	800.000	-0.119	0.493
-210.479	-104.103	-0.041	0.010
-209.465	-124.478	-0.197	0.031
-208.450	-35.166	0.110	0.060
-207.436	-21.187	0.208	0.127
-206.421	-200.000	0.021	-0.301
-205.406	-200.000	0.007	-0.128
-204.392	800.000	0.088	0.293
-203.377	-15.987	0.096	-0.061
-202.363	93.877	-0.031	0.035
-201.348	-200.000	0.003	0.143
-200.333	-11.971	-0.167	-0.110
-199.319	-200.000	-0.027	-0.178
-198.304	67.653	-0.208	0.212
-197.290	308.566	0.072	0.135
-196.275	-35.981	-0.199	-0.108
-195.260	-81.901	-0.106	0.035
-194.246	260.904	-0.261	0.452
-193.231	3.516	0.236	0.172
-192.217	-79.994	0.112	-0.038
-191.202	467.636	-0.156	0.349
-190.187	265.717	-0.122	0.213
-189.173	571.777	-0.077	0.187
-188.158	99.382	-0.227	0.262
-187.144	-132.004	-0.196	0.026
-186.129	-125.181	0.169	0.026
-185.114	48.874	-0.304	0.285
-184.100	-61.225	-0.094	0.040
-183.085	302.161	-0.057	-0.105
-182.071	-107.072	0.242	0.053
-181.056	297.028	0.257	-0.471
-180.042	-65.917	0.260	-0.104
-179.027	800.000	0.054	-0.185
-178.012	43.340	-0.087	-0.079
-176.998	314.897	0.020	-0.038
-175.983	198.269	0.162	0.248
-174.969	528.463	-0.067	0.158
-173.954	353.264	-0.101	-0.200
-172.939	1.127	0.199	0.143
-171.925	-200.000	0.038	-0.346
-170.910	-82.655	0.253	-0.082
-169.896	-200.000	0.035	-0.284
-168.881	143.616	0.082	0.109
-167.866	-124.488	0.377	-0.059
-166.852	48.095	-0.126	0.118
-165.837	-68.879	0.093	0.036
-164.823	800.000	-0.031	0.127
-163.808	-173.396	0.123	0.004
-162.793	130.843	0.109	-0.139
-161.779	-17.457	0.396	-0.249
-160.764	800.000	-0.070	0.209
-159.750	-117.746	-0.228	-0.041
-158.735	-1.028	0.306	0.216
-157.720	-36.287	-0.161	0.087
-156.706	-63.370	0.219	0.090
-155.691	152.387	0.151	-0.205
-154.677	-200.000	-0.018	0.628
-153.662	-30.822	-0.209	-0.118
-152.647	-200.000	0.003	-0.390
-151.633	-200.000	-0.012	-0.365
-150.618	-180.597	0.318	-0.007
-149.604	-200.000	-0.018	0.104
-148.589	742.986	-0.122	-0.326
-147.574	166.262	-0.146	0.206
-146.560	108.927	0.123	-0.147
-145.545	114.811	0.019	0.023
-144.531	49.638	-0.210	0.198
-143.516	176.097	0.064	0.093
-142.502	424.251	-0.094	0.201
-141.487	-174.888	-0.079	-0.002
-140.472	-200.000	0.022	0.101
-139.458	131.088	-0.235	-0.301
-138.443	-42.930	-0.100	0.051
-137.429	-11.081	0.083	0.055
-136.414	51.042	0.064	0.061
-135.399	-200.000	0.007	0.154
-134.385	-65.258	0.237	0.095
-133.370	-101.492	0.162	-0.039
-132.356	-61.026	0.018	0.008
-131.341	-107.852	-0.174	0.038
-130.326	-148.657	0.229	0.019
-129.312	-17.666	0.241	-0.151
-128.297	800.000	-0.060	0.223
-127.283	71.877	0.077	-0.080
-126.268	2.846	0.174	-0.126
-125.253	-26.447	-0.194	-0.113
-124.239	800.000	0.037	-0.123
-123.224	-116.785	-0.123	0.022
-122.210	-36.331	0.208	0.112
-121.195	32.400	-0.295	0.254
