DTS Sentinel unit serial number:	SN413079Multiplexer serial number:	ORYXHardware model number:	OX4-SRSoftware version number:	ORYX F/W v4.00 Oryx Data Collector v3.7.2.0data status	okinstallation	princeton_trtdifferential loss correction	single-endedforward channel	channel 3reverse channel	N/Adate	2019/09/13time	19:44:34forward acquisition time	60.00reverse acquisition time	0.00gamma	496.2192k internal	0.2328k external	0.2328temperature offset calibration	1.0068default loss term (dB/km)	0.3790temperature slope calibration	1.0000multiplexer offset coefficient	1.0000multiplexer slope coefficient	1.0000fibre end	0.00T internal ref (°C)	30.25T ext. ref 1 (°C)	3.37T ext. ref 2 (°C)	24.22length (m)	temperature (°C)	Stokes	anti-Stokes-747.200	10.308	0.209	-0.161
-746.185	-200.000	-0.022	0.179
-745.171	-200.000	0.025	0.227
-744.156	14.164	-0.265	0.208
-743.142	137.893	0.102	-0.135
-742.127	-28.188	-0.132	0.077
-741.112	155.326	0.132	0.183
-740.098	272.450	-0.139	-0.247
-739.083	-117.556	-0.207	0.038
-738.069	-105.996	-0.210	-0.048
-737.054	85.427	0.207	-0.229
-736.039	800.000	-0.059	-0.181
-735.025	365.755	-0.127	0.258
-734.010	-48.627	-0.246	-0.119
-732.996	800.000	-0.034	-0.113
-731.981	18.141	0.114	-0.092
-730.966	119.516	0.088	-0.109
-729.952	-148.763	0.199	0.016
-728.937	-138.378	0.385	0.043
-727.923	800.000	0.082	-0.305
-726.908	23.679	-0.058	0.048
-725.894	800.000	0.051	-0.191
-724.879	179.131	-0.295	0.434
-723.864	-200.000	0.073	0.330
-722.850	707.578	-0.015	-0.041
-721.835	-200.000	0.038	-0.174
-720.821	800.000	0.065	0.261
-719.806	-88.635	-0.302	0.091
-718.791	-64.622	0.371	-0.152
-717.777	-200.000	-0.040	-0.204
-716.762	575.278	0.069	-0.170
-715.748	-6.975	-0.136	0.093
-714.733	86.726	-0.308	-0.342
-713.718	716.527	0.100	-0.267
-712.704	-148.211	0.477	-0.040
-711.689	106.900	0.190	-0.227
-710.675	-87.259	-0.291	-0.089
-709.660	-99.183	0.243	0.062
-708.645	-65.252	-0.125	-0.051
-707.631	182.205	-0.034	0.051
-706.616	-175.125	0.332	-0.009
-705.602	800.000	-0.052	0.199
-704.587	-114.566	-0.112	-0.022
-703.572	-89.118	0.197	0.059
-702.558	-6.498	-0.163	-0.112
-701.543	98.808	0.231	0.268
-700.529	54.047	0.131	-0.127
-699.514	44.490	-0.209	0.193
-698.499	-200.000	-0.016	0.199
-697.485	-52.546	0.248	0.115
-696.470	-26.703	0.213	-0.126
-695.456	800.000	0.018	-0.068
-694.441	-85.910	-0.158	-0.049
-693.426	372.044	-0.104	-0.213
-692.412	-42.013	-0.041	0.021
-691.397	90.166	0.180	-0.202
-690.383	136.978	-0.097	0.127
-689.368	-200.000	0.005	-0.306
-688.354	-72.686	-0.337	0.125
-687.339	140.671	0.119	0.158
-686.324	281.737	0.161	0.289
-685.310	-128.133	-0.346	0.050
-684.295	152.018	0.085	-0.117
-683.281	-13.318	0.115	-0.075
-682.266	-200.000	-0.008	0.077
-681.251	-42.177	0.305	0.157
-680.237	-92.441	-0.382	-0.108
-679.222	-200.000	0.010	-0.046
-678.208	7.905	0.213	0.160
-677.193	-111.215	-0.181	0.037
-676.178	-32.264	-0.349	-0.196
-675.164	800.000	-0.054	-0.218
-674.149	-200.000	-0.028	-0.266
-673.135	415.029	-0.010	0.022
-672.120	34.659	-0.231	-0.203
-671.105	-36.614	-0.053	-0.028
-670.091	7.436	0.118	0.089
-669.076	538.240	-0.132	-0.314
-668.062	-200.000	-0.047	0.214
-667.047	-105.075	0.053	0.012
-666.032	800.000	-0.015	-0.044
-665.018	87.297	-0.167	-0.185
-664.003	-200.000	0.020	-0.253
-662.989	93.156	-0.214	0.243
-661.974	235.282	-0.097	-0.161
-660.959	-148.070	-0.352	-0.029
-659.945	-100.286	-0.129	-0.032
-658.930	-87.607	0.161	-0.049
-657.916	-5.123	-0.282	0.195
-656.901	649.319	-0.062	-0.159
-655.886	200.769	-0.163	0.251
-654.872	-200.000	-0.056	-0.677
-653.857	800.000	0.063	0.212
-652.843	488.627	0.057	-0.131
-651.828	800.000	0.065	-0.188
-650.814	-77.047	0.112	-0.039
-649.799	60.480	-0.112	-0.111
-648.784	50.505	-0.114	-0.109
-647.770	-97.802	0.354	0.092
-646.755	239.494	-0.069	0.115
-645.741	249.314	-0.197	0.336
-644.726	-96.318	0.241	-0.064
-643.711	-11.966	-0.041	-0.027
-642.697	-200.000	0.052	-0.230
-641.682	-60.220	0.121	0.052
-640.668	-160.036	0.316	-0.017
-639.653	-120.376	0.019	0.003
-638.638	-200.000	-0.035	-0.275
-637.624	219.555	-0.116	0.186
-636.609	-26.462	0.029	0.017
-635.595	-105.150	-0.320	0.073
-634.580	800.000	-0.015	-0.062
-633.565	89.892	0.331	0.371
-632.551	-50.172	0.059	-0.028
-631.536	800.000	-0.043	-0.135
-630.522	-148.432	-0.250	0.021
-629.507	-200.000	-0.030	0.167
-628.492	-98.076	-0.334	0.086
-627.478	-112.323	-0.033	0.007
-626.463	800.000	0.039	0.146
-625.449	800.000	-0.065	0.200
-624.434	155.198	-0.140	0.193
-623.419	-6.309	-0.060	-0.041
-622.405	-111.019	0.522	-0.107
-621.390	384.003	0.009	0.019
-620.376	-3.253	-0.110	0.077
-619.361	186.741	-0.114	-0.171
-618.346	589.117	-0.147	0.363
-617.332	-174.608	-0.216	0.006
-616.317	-183.427	-0.166	-0.003
-615.303	236.662	0.148	-0.245
-614.288	160.086	-0.048	-0.067
-613.273	37.881	-0.132	0.118
-612.259	341.635	-0.074	0.146
-611.244	-110.621	0.184	-0.038
-610.230	-107.696	0.026	-0.006
-609.215	-36.699	0.159	0.086
-608.201	24.110	0.133	-0.110
-607.186	-109.920	0.235	-0.049
-606.171	-81.594	0.125	0.041
-605.157	-108.912	-0.334	0.071
-604.142	519.944	-0.098	0.230
-603.128	-200.000	0.011	-0.274
-602.113	355.141	-0.115	0.230
-601.098	-94.618	0.041	0.011
-600.084	-187.195	0.364	0.005
-599.069	-94.371	-0.059	0.016
-598.055	800.000	0.090	-0.385
-597.040	800.000	0.061	-0.196
-596.025	-200.000	0.027	0.421
-595.011	55.128	0.083	0.080
-593.996	-14.719	-0.088	-0.057
-592.982	-78.498	0.240	-0.082
-591.967	517.251	0.150	-0.350
-590.952	-200.000	0.045	-0.425
-589.938	151.224	0.173	0.236
-588.923	-86.548	-0.150	0.046
-587.909	800.000	0.030	0.116
-586.894	-46.172	0.012	0.006
-585.879	-200.000	0.009	0.118
-584.865	-98.240	0.233	0.060
-583.850	248.620	-0.144	-0.244
-582.836	-0.811	0.108	0.076
-581.821	792.067	0.049	-0.134
-580.806	-6.759	-0.271	-0.185
-579.792	74.626	-0.139	-0.147
-578.777	170.433	0.064	-0.092
-577.763	-84.771	0.336	-0.106
-576.748	-32.846	0.355	0.197
-575.733	-17.749	0.092	0.058
-574.719	322.687	0.074	-0.141
-573.704	-14.381	-0.111	-0.071
-572.690	583.688	0.032	0.078
-571.675	-19.701	0.080	0.049
-570.661	83.070	0.202	-0.220
-569.646	-79.435	-0.442	0.150
-568.631	121.561	-0.231	-0.288
-567.617	-106.336	0.122	-0.027
-566.602	461.648	0.124	0.277
-565.588	113.430	-0.171	-0.207
-564.573	-3.899	-0.203	-0.141
-563.558	800.000	-0.082	0.240
-562.544	-169.819	-0.208	-0.007
-561.529	-129.345	0.290	-0.040
-560.515	-51.351	-0.318	-0.149
-559.500	167.145	-0.128	-0.181
-558.485	-94.460	-0.157	0.043
-557.471	724.377	0.167	-0.445
-556.456	800.000	-0.029	0.106
-555.442	251.554	-0.118	-0.201
-554.427	800.000	0.049	-0.170
-553.412	-34.878	0.146	-0.080
-552.398	-200.000	-0.002	0.164
-551.383	785.816	-0.154	-0.422
-550.369	484.042	0.069	-0.157
-549.354	201.699	-0.235	-0.363
-548.339	85.053	0.076	-0.083
-547.325	-156.721	0.256	-0.016
-546.310	-200.000	0.008	0.063
-545.296	-112.072	0.260	0.052
-544.281	245.673	-0.034	0.058
-543.266	48.129	0.197	0.184
-542.252	-200.000	0.046	-0.336
-541.237	106.778	-0.198	-0.235
-540.223	-33.795	0.271	0.150
-539.208	96.399	0.034	-0.039
-538.193	-170.023	-0.252	0.009
-537.179	-75.645	-0.220	-0.078
-536.164	-200.000	0.001	-0.091
-535.150	-131.006	0.037	-0.005
-534.135	18.856	-0.123	0.098
-533.121	-8.536	0.226	-0.152
-532.106	173.218	-0.148	0.214
-531.091	-200.000	-0.021	-0.533
-530.077	103.256	-0.120	0.140
-529.062	-200.000	0.002	0.565
-528.048	-49.171	0.310	0.148
-527.033	-33.674	0.230	0.127
-526.018	239.323	-0.138	0.229
-525.004	83.334	-0.247	0.269
-523.989	-129.506	0.199	-0.027
-522.975	27.951	0.218	-0.183
-521.960	-117.063	0.267	0.049
-520.945	175.124	0.074	0.107
-519.931	26.923	-0.199	0.167
-518.916	76.559	0.233	0.247
-517.902	-122.371	-0.073	-0.012
-516.887	96.613	-0.018	-0.020
-515.872	-18.969	-0.143	0.089
-514.858	-19.002	0.178	0.110
-513.843	800.000	-0.016	0.050
-512.829	103.304	0.089	0.104
-511.814	239.056	-0.116	-0.193
-510.799	36.759	0.044	-0.039
-509.785	-85.590	-0.230	-0.072
-508.770	-200.000	-0.014	-0.096
-507.756	-111.690	0.268	-0.054
-506.741	-176.631	-0.211	-0.005
-505.726	-71.030	-0.153	-0.057
-504.712	89.591	0.165	-0.184
-503.697	-2.661	0.030	0.021
-502.683	-127.594	-0.088	0.013
-501.668	-135.335	-0.175	0.021
-500.653	800.000	-0.101	-0.298
-499.639	123.194	0.094	-0.117
-498.624	-99.554	0.192	0.048
-497.610	-200.000	-0.026	-0.154
-496.595	-200.000	-0.042	0.321
-495.581	800.000	0.012	0.051
-494.566	-200.000	-0.018	0.102
-493.551	321.642	0.072	0.136
-492.537	-133.575	-0.234	-0.029
-491.522	125.141	-0.228	-0.287
-490.508	237.577	-0.159	0.262
-489.493	-146.142	0.018	0.002
-488.478	69.786	-0.198	0.204
-487.464	-112.485	0.166	0.033
-486.449	-99.897	-0.283	0.071
-485.435	-195.769	-0.156	0.001
-484.420	-102.288	0.410	-0.098
-483.405	800.000	0.043	0.176
-482.391	739.261	-0.041	-0.110
-481.376	55.690	-0.024	-0.023
-480.362	-200.000	0.018	-0.175
-479.347	21.557	0.107	-0.087
-478.332	-89.757	-0.086	-0.025
-477.318	127.355	0.182	0.230
-476.303	37.764	0.063	0.055
-475.289	59.689	-0.150	0.148
-474.274	-22.268	-0.031	0.019
-473.259	-200.000	0.001	-0.071
-472.245	20.556	0.182	-0.147
-471.230	143.335	0.342	0.454
-470.216	-2.389	-0.050	-0.035
-469.201	31.615	0.220	-0.189
-468.186	800.000	-0.084	0.323
-467.172	-200.000	-0.023	0.207
-466.157	221.387	-0.123	0.197
-465.143	-53.642	-0.148	-0.068
-464.128	-99.450	-0.422	0.106
-463.113	-56.693	-0.129	-0.057
-462.099	800.000	-0.056	0.236
-461.084	-127.545	-0.283	0.041
-460.070	800.000	-0.050	-0.182
-459.055	-200.000	-0.000	-0.074
-458.040	196.097	-0.120	-0.182
-457.026	139.510	-0.056	0.074
-456.011	-200.000	-0.445	-0.000
-454.997	560.675	0.224	-0.540
-453.982	800.000	-0.035	-0.095
-452.968	800.000	-0.055	0.160
-451.953	125.977	-0.119	0.149
-450.938	410.230	-0.188	-0.397
-449.924	26.605	-0.486	-0.406
-448.909	-200.000	-0.021	-0.146
-447.895	632.301	-0.113	0.285
-446.880	-118.229	0.093	-0.017
-445.865	330.267	-0.078	-0.149
-444.851	-103.578	0.147	0.034
-443.836	-200.000	0.021	0.272
-442.822	-200.000	-0.025	-0.263
-441.807	0.315	0.147	-0.105
-440.792	-121.951	-0.135	-0.022
-439.778	495.150	-0.059	0.134
-438.763	28.329	0.019	0.016
-437.749	-57.161	0.396	-0.174
-436.734	79.712	0.140	-0.149
-435.719	-146.452	-0.435	0.038
-434.705	-2.238	-0.331	-0.232
-433.690	-123.641	0.437	0.069
-432.676	-200.000	0.012	-0.167
-431.661	-76.906	-0.162	-0.056
-430.646	-122.005	0.284	0.047
-429.632	-66.105	-0.203	-0.080
-428.617	514.648	-0.103	0.239
-427.603	-48.604	0.185	0.089
-426.588	-173.653	-0.062	-0.002
-425.573	-200.000	-0.049	0.238
-424.559	67.525	0.167	0.170
-423.544	67.782	-0.147	0.150
-422.530	-38.193	0.319	0.168
-421.515	-67.220	0.408	-0.160
-420.500	-105.256	-0.204	0.046
-419.486	-111.518	0.433	0.088
-418.471	367.732	-0.117	0.235
-417.457	-128.418	-0.206	-0.029
-416.442	61.690	-0.177	-0.175
-415.428	800.000	-0.126	-0.414
-414.413	224.504	-0.056	-0.091
-413.398	114.584	-0.182	-0.221
-412.384	34.018	-0.259	0.225
-411.369	70.002	0.145	0.149
-410.355	143.140	-0.083	-0.110
-409.340	-137.174	-0.138	-0.016
-408.325	50.695	0.147	-0.138
-407.311	-20.404	-0.205	0.125
-406.296	-200.000	0.027	-0.142
-405.282	-141.933	-0.040	0.004
-404.267	-200.000	-0.054	0.288
-403.252	27.726	0.151	-0.126
-402.238	-200.000	0.019	-0.127
-401.223	-2.126	0.169	-0.118
-400.209	49.629	-0.180	0.169
-399.194	-134.499	-0.085	-0.010
-398.179	-200.000	-0.017	0.126
-397.165	-200.000	-0.002	-0.112
-396.150	364.074	-0.039	-0.077
-395.136	-147.325	0.136	0.011
-394.121	-83.032	-0.074	-0.024
-393.106	7.122	-0.150	-0.111
-392.092	-61.702	-0.058	-0.024
-391.077	740.654	0.063	-0.169
-390.063	96.749	0.070	0.080
-389.048	793.547	0.085	0.234
-388.033	-200.000	0.018	-0.251
-387.019	-200.000	-0.011	0.232
-386.004	-15.105	-0.240	-0.153
-384.990	-81.240	0.236	0.077
-383.975	202.577	-0.204	-0.314
-382.960	800.000	0.016	-0.047
-381.946	273.846	0.105	-0.185
-380.931	149.194	-0.050	0.067
-379.917	295.015	-0.156	-0.283
-378.902	-103.815	-0.266	-0.062
-377.888	-17.810	-0.090	-0.056
-376.873	-200.000	-0.003	0.125
-375.858	-137.381	0.041	-0.005
-374.844	447.478	0.007	-0.016
-373.829	-40.731	0.212	0.109
-372.815	667.556	0.122	0.314
-371.800	1.346	0.197	0.141
-370.785	-200.000	-0.003	-0.106
-369.771	194.629	-0.132	-0.198
-368.756	-200.000	0.028	0.158
-367.742	-35.014	0.157	0.085
-366.727	-152.155	-0.499	0.036
-365.712	-200.000	-0.006	0.073
-364.698	402.464	-0.137	-0.286
-363.683	-106.991	-0.246	0.054
-362.669	8.924	0.079	0.059
-361.654	-28.271	0.086	0.049
-360.639	122.929	-0.147	0.182
-359.625	-200.000	0.006	0.031
-358.610	-200.000	-0.004	-0.291
-357.596	-200.000	0.008	0.192
-356.581	125.168	-0.087	-0.109
-355.566	800.000	-0.117	0.370
-354.552	-200.000	-0.023	-0.106
-353.537	-80.371	-0.149	-0.049
-352.523	800.000	0.080	0.265
-351.508	91.711	0.088	-0.099
-350.493	41.920	0.080	0.072
-349.479	-67.027	0.051	0.020
-348.464	800.000	-0.095	-0.297
-347.450	262.437	0.104	-0.179
-346.435	800.000	-0.011	-0.044
-345.420	-200.000	-0.014	-0.217
-344.406	-122.376	-0.122	0.020
-343.391	800.000	0.037	0.121
-342.377	-7.360	0.251	0.169
-341.362	-153.598	-0.118	0.008
-340.348	-46.864	-0.081	0.039
-339.333	800.000	0.094	0.292
-338.318	800.000	-0.080	0.224
-337.304	-89.510	0.216	0.063
-336.289	208.375	-0.081	0.125
-335.275	43.648	0.085	-0.077
-334.260	663.097	-0.050	-0.129
-333.245	-68.670	-0.137	0.053
-332.231	-200.000	0.039	-0.171
-331.216	107.861	0.050	0.059
-330.202	435.144	0.096	0.207
-329.187	34.600	0.045	-0.039
-328.172	26.189	0.181	0.150
-327.158	-200.000	-0.028	0.136
-326.143	-25.627	-0.090	0.053
-325.129	-140.864	0.191	0.020
-324.114	800.000	-0.010	-0.027
-323.099	-37.539	0.248	0.131
-322.085	-200.000	-0.023	-0.227
-321.070	282.888	0.184	0.328
-320.056	-7.620	0.031	0.021
-319.041	-111.553	-0.021	0.004
-318.026	287.755	0.114	-0.204
-317.012	800.000	-0.025	0.088
-315.997	-119.548	-0.037	-0.006
-314.983	36.029	-0.099	0.086
-313.968	-113.838	-0.356	-0.069
-312.953	-200.000	0.049	0.333
-311.939	-127.007	-0.340	0.049
-310.924	-96.664	0.195	-0.051
-309.910	800.000	-0.070	0.290
-308.895	-127.619	-0.244	-0.035
-307.880	-142.442	-0.234	0.023
-306.866	-200.000	0.042	0.318
-305.851	-200.000	0.024	-0.219
-304.837	-200.000	-0.036	-0.277
-303.822	410.445	0.130	-0.273
-302.807	-96.210	-0.321	0.084
-301.793	-96.006	0.154	0.041
-300.778	375.836	-0.051	0.103
-299.764	800.000	-0.042	-0.127
-298.749	-61.632	-0.100	0.041
-297.735	244.682	-0.042	0.071
-296.720	800.000	-0.067	-0.270
-295.705	385.084	0.061	-0.124
-294.691	-81.663	-0.096	0.031
-293.676	-66.166	0.161	-0.064
-292.662	-98.914	0.152	0.038
-291.647	-127.289	0.143	0.021
-290.632	27.205	0.212	-0.176
-289.618	-200.000	0.029	-0.390
-288.603	142.768	-0.131	-0.172
-287.589	87.193	0.232	0.254
-286.574	-200.000	0.017	-0.223
-285.559	-96.057	0.141	-0.037
-284.545	-78.086	-0.130	-0.044
-283.530	-138.604	0.151	0.016
-282.516	21.722	0.095	-0.077
-281.501	-84.637	0.175	0.055
-280.486	-53.405	-0.183	-0.083
-279.472	60.529	0.068	0.067
-278.457	84.061	-0.183	-0.197
-277.443	-200.000	-0.002	-0.068
-276.428	17.830	-0.110	-0.087
-275.413	-108.880	-0.247	-0.052
-274.399	206.643	0.103	-0.158
-273.384	800.000	-0.017	-0.065
-272.370	-30.286	0.075	0.042
-271.355	-71.383	0.163	0.060
-270.340	4.673	-0.117	0.085
-269.326	800.000	-0.051	0.161
-268.311	7.237	-0.113	0.083
-267.297	-64.807	0.060	-0.024
-266.282	201.691	-0.076	0.115
-265.267	3.586	0.193	0.139
-264.253	-87.283	0.346	-0.104
-263.238	89.810	-0.144	-0.159
-262.224	499.519	0.049	-0.112
-261.209	225.824	0.132	0.211
-260.195	-143.823	-0.314	0.029
-259.180	-59.671	-0.145	-0.061
-258.165	164.820	0.089	0.124
-257.151	121.929	-0.227	-0.280
-256.136	68.825	0.139	-0.141
-255.122	150.623	0.059	0.079
-254.107	800.000	0.023	-0.097
-253.092	800.000	0.073	-0.246
-252.078	-94.391	0.451	-0.122
-251.063	-135.244	-0.415	0.049
-250.049	56.120	0.337	0.324
-249.034	-175.362	-0.232	-0.006
-248.019	-76.054	-0.187	-0.065
-247.005	800.000	0.073	0.295
-245.990	800.000	-0.055	0.165
-244.976	-200.000	-0.029	0.310
-243.961	506.049	-0.192	-0.441
-242.946	-200.000	-0.007	0.032
-241.932	-200.000	-0.009	-0.166
-240.917	-38.179	0.041	-0.021
-239.903	-99.125	0.018	0.005
-238.888	262.735	-0.066	-0.114
-237.873	34.375	0.098	0.084
-236.859	68.508	-0.036	-0.036
-235.844	703.372	0.064	-0.166
-234.830	24.657	0.131	-0.107
-233.815	-125.823	-0.332	-0.049
-232.800	-183.774	0.331	-0.006
-231.786	-147.612	0.336	-0.028
-230.771	-125.066	0.226	-0.034
-229.757	-90.582	0.269	0.077
-228.742	331.123	-0.060	0.115
-227.727	-136.759	-0.227	0.026
-226.713	773.580	-0.061	0.164
-225.698	-82.787	-0.113	0.036
-224.684	201.389	-0.326	0.495
-223.669	182.333	0.111	0.162
-222.655	-66.894	-0.253	-0.099
-221.640	29.652	0.274	0.230
-220.625	304.203	-0.102	-0.188
-219.611	-91.022	0.119	-0.034
-218.596	-111.613	0.106	-0.021
-217.582	-200.000	0.003	0.103
-216.567	-200.000	0.027	-0.299
-215.552	40.998	0.110	0.098
-214.538	-91.024	0.300	0.085
-213.523	800.000	-0.085	-0.248
-212.509	237.936	0.211	0.345
-211.494	-200.000	0.121	0.549
-210.479	-1.084	-0.159	-0.111
-209.465	-69.862	0.164	-0.062
-208.450	-39.928	0.149	0.077
-207.436	98.671	-0.087	-0.100
-206.421	-62.900	0.209	-0.085
-205.406	-15.134	0.098	-0.062
-204.392	-48.598	0.115	-0.055
-203.377	800.000	0.088	-0.294
-202.363	-142.695	-0.309	0.030
-201.348	-52.589	-0.318	0.145
-200.333	-91.748	0.214	0.060
-199.319	-126.319	-0.223	-0.033
-198.304	-153.859	-0.300	0.020
-197.290	66.407	-0.160	-0.160
-196.275	-3.285	-0.079	0.054
-195.260	-200.000	-0.018	-0.213
-194.246	51.482	-0.061	0.057
-193.231	-200.000	-0.031	0.184
-192.217	89.882	0.101	0.111
-191.202	-200.000	-0.009	0.381
-190.187	193.312	0.087	0.130
-189.173	-200.000	-0.031	0.283
-188.158	34.462	-0.354	-0.305
-187.144	800.000	-0.067	0.267
-186.129	21.008	0.301	0.240
-185.114	39.666	0.161	-0.143
-184.100	-200.000	0.039	-0.333
-183.085	142.033	0.065	0.085
-182.071	406.107	0.046	-0.096
-181.056	-21.205	-0.064	-0.039
-180.042	180.104	0.141	0.204
-179.027	46.201	-0.129	-0.118
-178.012	308.878	0.090	-0.165
-176.998	100.596	-0.182	-0.208
-175.983	14.527	0.205	0.158
-174.969	223.623	0.124	-0.197
-173.954	-66.908	0.177	-0.069
-172.939	-76.474	0.478	0.166
-171.925	205.396	0.079	0.121
-170.910	-200.000	0.012	0.158
-169.896	800.000	0.027	0.101
-168.881	174.039	0.132	-0.189
-167.866	-118.399	0.074	0.013
-166.852	-99.232	-0.053	0.013
-165.837	-13.300	0.069	0.044
-164.823	16.693	0.085	-0.066
-163.808	658.923	-0.095	0.240
-162.793	-95.282	-0.157	0.042
-161.779	538.511	0.042	-0.099
-160.764	-200.000	-0.032	-0.304
-159.750	-200.000	0.034	0.234
-158.735	53.635	0.279	0.263
-157.720	-151.824	-0.081	0.006
-156.706	800.000	0.020	0.076
-155.691	95.030	0.225	-0.252
-154.677	29.739	0.169	0.141
-153.662	216.670	0.078	0.122
-152.647	106.490	-0.122	0.142
-151.633	-106.955	-0.051	-0.011
-150.618	-49.184	-0.259	0.122
-149.604	-200.000	-0.053	0.228
-148.589	-93.170	0.306	0.084
-147.574	-70.801	0.123	0.046
-146.560	-8.397	0.055	-0.036
-145.545	-200.000	-0.006	-0.077
-144.531	-55.709	-0.195	0.086
-143.516	-200.000	0.018	-0.104
-142.502	-200.000	0.023	-0.119
-141.487	-78.426	0.197	0.066
-140.472	85.851	0.035	0.038
-139.458	446.897	-0.055	0.119
-138.443	-157.200	-0.086	0.005
-137.429	127.625	-0.100	0.125
-136.414	17.530	0.476	0.373
-135.399	366.567	-0.191	0.379
-134.385	-25.703	0.182	0.105
-133.370	-200.000	0.099	0.436
-132.356	-72.349	-0.146	-0.053
-131.341	-200.000	-0.000	-0.182
-130.326	800.000	-0.022	0.084
-129.312	-200.000	0.005	-0.217
-128.297	342.404	0.178	0.343
-127.283	-50.000	-0.365	-0.170
-126.268	4.585	0.171	-0.124
-125.253	348.454	0.126	-0.244
-124.239	-83.409	0.210	0.066
-123.224	208.423	-0.030	0.045
-122.210	-17.421	-0.158	0.098
-121.195	-200.000	0.018	0.094
