DTS Sentinel unit serial number:	SN413079Multiplexer serial number:	ORYXHardware model number:	OX4-SRSoftware version number:	ORYX F/W v4.00 Oryx Data Collector v3.7.2.0data status	okinstallation	princeton_trtdifferential loss correction	single-endedforward channel	channel 3reverse channel	N/Adate	2019/09/13time	06:24:35forward acquisition time	60.00reverse acquisition time	0.00gamma	496.2192k internal	0.2339k external	0.2339temperature offset calibration	1.0134default loss term (dB/km)	0.3790temperature slope calibration	1.0000multiplexer offset coefficient	1.0000multiplexer slope coefficient	1.0000fibre end	0.00T internal ref (°C)	26.09T ext. ref 1 (°C)	4.09T ext. ref 2 (°C)	20.73length (m)	temperature (°C)	Stokes	anti-Stokes-747.200	-51.641	-0.173	0.081
-746.185	472.561	-0.120	-0.272
-745.171	187.037	-0.130	-0.194
-744.156	490.715	0.036	-0.083
-743.142	102.458	0.110	-0.129
-742.127	159.944	-0.165	0.231
-741.112	-149.419	0.456	0.036
-740.098	512.807	-0.097	0.228
-739.083	-200.000	0.015	0.092
-738.069	40.994	0.078	0.071
-737.054	590.029	-0.054	0.133
-736.039	-61.959	-0.200	0.084
-735.025	-200.000	-0.032	0.366
-734.010	21.238	-0.321	-0.261
-732.996	295.570	-0.103	-0.190
-731.981	667.172	-0.098	0.254
-730.966	-92.352	0.393	0.111
-729.952	195.640	-0.145	-0.221
-728.937	-200.000	0.015	0.205
-727.923	116.080	-0.112	-0.138
-726.908	627.407	0.087	-0.219
-725.894	171.466	-0.163	-0.234
-724.879	-85.577	0.428	-0.134
-723.864	235.186	0.126	-0.208
-722.850	-156.963	-0.192	-0.012
-721.835	70.293	0.029	-0.030
-720.821	-3.737	-0.232	-0.162
-719.806	-165.568	0.359	0.016
-718.791	-101.937	-0.260	-0.063
-717.777	115.691	0.186	0.227
-716.762	-61.500	0.054	0.023
-715.748	800.000	-0.089	0.257
-714.733	-200.000	0.032	-0.202
-713.718	-12.057	0.102	-0.067
-712.704	-200.000	0.021	0.164
-711.689	-104.415	0.301	0.070
-710.675	-200.000	-0.008	0.254
-709.660	-61.541	0.130	0.055
-708.645	800.000	0.034	-0.143
-707.631	-200.000	-0.024	-0.251
-706.616	-200.000	0.016	-0.212
-705.602	217.103	-0.150	0.239
-704.587	-200.000	-0.010	0.096
-703.572	245.397	-0.102	-0.172
-702.558	800.000	0.078	-0.298
-701.543	-200.000	0.008	-0.294
-700.529	-90.070	0.265	0.077
-699.514	-65.510	0.232	-0.093
-698.499	189.705	-0.194	-0.291
-697.485	-98.024	-0.219	-0.057
-696.470	-9.994	0.244	-0.163
-695.456	317.210	-0.044	0.083
-694.441	-116.668	-0.375	-0.069
-693.426	-48.607	0.298	0.143
-692.412	-175.573	0.135	0.004
-691.397	-200.000	0.011	-0.123
-690.383	131.851	-0.124	-0.160
-689.368	148.290	0.141	-0.191
-688.354	63.072	0.126	0.126
-687.339	244.313	-0.057	-0.097
-686.324	69.424	0.148	0.152
-685.310	-200.000	-0.003	0.183
-684.295	-190.721	0.186	-0.002
-683.281	-111.376	-0.438	0.089
-682.266	-89.507	0.013	-0.004
-681.251	177.056	-0.115	-0.167
-680.237	-20.444	-0.237	-0.146
-679.222	800.000	0.108	-0.321
-678.208	-108.115	0.095	0.021
-677.193	-57.702	-0.076	0.033
-676.178	-137.985	0.213	-0.024
-675.164	569.716	-0.067	-0.164
-674.149	-26.499	0.301	-0.177
-673.135	233.356	0.034	-0.057
-672.120	-23.382	-0.099	-0.059
-671.105	93.462	0.192	-0.217
-670.091	-144.739	0.346	-0.032
-669.076	556.846	-0.129	0.310
-668.062	52.905	0.185	-0.177
-667.047	-90.288	-0.189	0.055
-666.032	-157.289	-0.257	0.016
-665.018	-82.319	0.118	-0.038
-664.003	-200.000	0.024	-0.237
-662.989	-8.651	0.207	0.139
-661.974	-43.450	-0.092	-0.046
-660.959	7.301	-0.188	-0.140
-659.945	800.000	-0.088	-0.339
-658.930	259.575	-0.159	-0.275
-657.916	-154.761	-0.156	0.010
-656.901	-154.462	0.271	0.018
-655.886	-99.692	0.045	-0.011
-654.872	-61.262	0.026	-0.011
-653.857	-83.251	-0.287	-0.092
-652.843	-175.333	0.246	0.007
-651.828	-142.265	0.128	-0.013
-650.814	23.888	0.107	0.088
-649.799	39.718	0.067	0.060
-648.784	-22.050	0.136	0.082
-647.770	-62.626	-0.031	0.013
-646.755	-108.578	-0.197	-0.042
-645.741	-41.406	0.229	0.118
-644.726	318.096	0.170	-0.321
-643.711	281.624	-0.196	0.350
-642.697	-121.266	-0.144	-0.024
-641.682	22.639	-0.204	-0.166
-640.668	-121.520	0.378	0.063
-639.653	24.435	-0.112	0.093
-638.638	-168.221	-0.240	0.009
-637.624	-78.208	0.087	-0.030
-636.609	-200.000	0.026	0.125
-635.595	371.049	0.145	-0.293
-634.580	197.719	-0.131	-0.200
-633.565	131.389	0.072	0.092
-632.551	-89.854	-0.324	0.095
-631.536	800.000	-0.074	-0.258
-630.522	-47.487	0.158	0.077
-629.507	-133.931	-0.405	0.050
-628.492	-122.450	0.313	0.051
-627.478	-93.946	-0.340	-0.093
-626.463	581.338	-0.022	0.055
-625.449	-33.791	0.153	-0.084
-624.434	-38.376	-0.230	-0.122
-623.419	136.537	-0.132	-0.172
-622.405	-52.151	-0.241	0.111
-621.390	65.314	-0.076	-0.077
-620.376	800.000	0.063	0.187
-619.361	-43.936	-0.073	0.037
-618.346	-13.455	-0.194	-0.126
-617.332	97.917	0.211	-0.242
-616.317	84.636	0.087	0.095
-615.303	-29.030	-0.185	-0.106
-614.288	-200.000	-0.043	0.364
-613.273	-101.518	-0.122	-0.030
-612.259	-104.542	0.231	-0.053
-611.244	152.226	0.015	-0.021
-610.230	-30.563	0.218	-0.123
-609.215	302.662	-0.171	-0.315
-608.201	654.010	-0.050	-0.127
-607.186	-101.749	-0.063	-0.015
-606.171	141.045	-0.062	0.081
-605.157	247.167	-0.132	0.222
-604.142	246.910	0.195	-0.328
-603.128	-162.636	-0.126	0.006
-602.113	348.637	0.153	0.301
-601.098	-200.000	-0.027	-0.176
-600.084	205.941	-0.054	-0.083
-599.069	-83.904	0.274	0.087
-598.055	311.293	-0.065	0.122
-597.040	69.046	-0.178	-0.183
-596.025	231.741	-0.070	-0.115
-595.011	800.000	-0.047	0.129
-593.996	-79.297	0.262	-0.089
-592.982	42.022	0.264	-0.239
-591.967	195.043	0.298	-0.450
-590.952	-13.169	0.247	0.160
-589.938	-29.842	0.127	-0.072
-588.923	130.445	0.134	-0.171
-587.909	-200.000	0.018	-0.299
-586.894	-117.030	0.242	0.044
-585.879	-20.656	0.110	0.067
-584.865	-49.287	0.160	-0.076
-583.850	241.785	-0.237	0.395
-582.836	-200.000	-0.005	-0.185
-581.821	800.000	-0.015	0.057
-580.806	-200.000	0.017	0.312
-579.792	52.930	-0.210	0.200
-578.777	-48.210	0.277	0.133
-577.763	77.535	0.164	-0.174
-576.748	-200.000	0.038	-0.178
-575.733	800.000	-0.047	0.182
-574.719	-200.000	0.056	-0.257
-573.704	18.517	0.140	-0.111
-572.690	355.049	0.133	0.263
-571.675	-52.661	0.121	-0.056
-570.661	51.520	0.082	-0.077
-569.646	-114.937	0.232	-0.044
-568.631	-156.805	-0.245	-0.015
-567.617	-56.078	-0.287	0.127
-566.602	-142.091	-0.352	0.035
-565.588	800.000	0.037	-0.110
-564.573	-106.569	-0.435	-0.096
-563.558	-200.000	-0.030	0.136
-562.544	89.540	0.106	0.117
-561.529	22.030	-0.068	0.055
-560.515	-91.487	-0.439	-0.125
-559.500	-54.062	-0.192	-0.087
-558.485	166.261	0.029	0.040
-557.471	-59.351	0.147	0.063
-556.456	-64.829	-0.164	0.066
-555.442	-179.633	0.387	-0.008
-554.427	-27.828	0.212	0.122
-553.412	-200.000	-0.025	-0.116
-552.398	-28.535	0.223	0.128
-551.383	-101.560	0.043	0.010
-550.369	175.257	-0.158	-0.227
-549.354	-71.220	-0.189	-0.071
-548.339	-145.964	0.155	-0.014
-547.325	-21.654	0.112	-0.068
-546.310	-102.658	-0.384	-0.091
-545.296	-111.283	-0.197	0.040
-544.281	-200.000	0.584	-0.002
-543.266	-100.395	0.284	-0.070
-542.252	-150.332	0.166	0.013
-541.237	67.064	-0.167	-0.170
-540.223	-200.000	0.078	0.430
-539.208	-200.000	-0.014	-0.110
-538.193	90.613	0.030	0.033
-537.179	-200.000	-0.008	-0.056
-536.164	-200.000	-0.072	-0.325
-535.150	-16.092	-0.279	-0.176
-534.135	-150.621	0.120	-0.009
-533.121	-44.581	0.141	0.070
-532.106	444.183	-0.083	0.181
-531.091	-200.000	-0.009	0.189
-530.077	800.000	-0.089	-0.333
-529.062	-177.300	0.087	-0.002
-528.048	-36.433	0.203	0.109
-527.033	-200.000	-0.006	0.210
-526.018	94.884	-0.190	0.215
-525.004	-9.627	0.069	0.045
-523.989	-200.000	-0.039	-0.212
-522.975	-200.000	0.017	0.147
-521.960	156.163	0.053	-0.072
-520.945	-74.872	0.195	0.070
-519.931	98.980	0.109	0.125
-518.916	65.198	-0.055	-0.055
-517.902	800.000	0.121	0.506
-516.887	81.489	-0.146	-0.157
-515.872	-78.460	-0.327	-0.111
-514.858	-103.962	0.341	0.079
-513.843	-92.243	0.035	-0.010
-512.829	64.106	0.036	-0.036
-511.814	4.262	-0.027	-0.019
-510.799	64.150	0.089	0.089
-509.785	-30.805	-0.222	0.125
-508.770	-200.000	-0.001	0.149
-507.756	153.568	0.188	-0.255
-506.741	685.294	0.096	-0.250
-505.726	79.580	-0.161	-0.171
-504.712	-0.557	-0.209	-0.148
-503.697	17.974	0.225	0.178
-502.683	753.020	0.017	0.046
-501.668	165.347	0.067	0.094
-500.653	202.836	-0.024	-0.037
-499.639	8.076	0.069	0.051
-498.624	573.168	-0.088	0.213
-497.610	55.175	-0.131	-0.126
-496.595	-153.392	-0.310	-0.021
-495.581	93.435	0.040	-0.045
-494.566	-200.000	0.031	-0.278
-493.551	800.000	-0.013	0.044
-492.537	39.440	0.222	-0.197
-491.522	-120.930	-0.272	0.045
-490.508	800.000	-0.051	-0.213
-489.493	8.613	0.227	-0.169
-488.478	431.140	0.019	0.042
-487.464	42.922	0.166	-0.151
-486.449	-43.986	-0.368	0.184
-485.435	-200.000	-0.041	-0.208
-484.420	-178.464	0.274	0.006
-483.405	-200.000	-0.041	0.285
-482.391	-149.554	-0.228	0.018
-481.376	10.886	-0.286	-0.217
-480.362	196.518	0.197	-0.298
-479.347	-200.000	-0.021	0.143
-478.332	35.930	-0.143	0.125
-477.318	-185.391	-0.133	0.002
-476.303	37.455	0.119	0.104
-475.289	182.823	0.110	0.162
-474.274	-68.505	-0.184	-0.071
-473.259	-130.398	-0.471	-0.063
-472.245	555.604	0.076	-0.182
-471.230	-32.736	-0.144	0.079
-470.216	210.555	-0.031	0.048
-469.201	38.766	0.037	-0.033
-468.186	-200.000	0.063	-0.291
-467.172	-28.741	-0.260	-0.148
-466.157	800.000	0.102	-0.303
-465.143	38.682	-0.119	0.105
-464.128	645.379	-0.107	-0.270
-463.113	-143.540	0.106	-0.010
-462.099	-103.905	-0.057	0.013
-461.084	-9.987	-0.360	0.238
-460.070	92.279	0.087	-0.097
-459.055	800.000	0.004	0.013
-458.040	800.000	-0.079	-0.280
-457.026	-129.928	-0.721	0.098
-456.011	159.667	0.088	-0.122
-454.997	-154.393	-0.146	-0.010
-453.982	-69.346	-0.255	0.097
-452.968	800.000	0.041	0.165
-451.953	-45.424	-0.308	-0.151
-450.938	-200.000	-0.011	-0.088
-449.924	-45.251	-0.289	0.142
-448.909	800.000	0.072	-0.202
-447.895	12.359	0.200	0.153
-446.880	-20.229	-0.141	0.086
-445.865	170.070	-0.121	-0.171
-444.851	609.662	0.109	-0.271
-443.836	212.375	0.130	0.203
-442.822	-44.610	-0.112	0.056
-441.807	-165.891	0.479	-0.020
-440.792	800.000	0.132	0.565
-439.778	-133.440	-0.196	-0.024
-438.763	-84.801	0.445	-0.139
-437.749	-200.000	-0.002	0.037
-436.734	-200.000	-0.021	0.286
-435.719	800.000	0.101	-0.311
-434.705	-200.000	0.018	0.149
-433.690	800.000	-0.007	-0.030
-432.676	800.000	-0.058	-0.183
-431.661	-200.000	0.003	0.274
-430.646	-104.998	-0.380	-0.086
-429.632	719.183	0.118	-0.309
-428.617	-99.413	0.169	0.042
-427.603	-41.240	0.148	0.075
-426.588	-200.000	-0.014	-0.156
-425.573	86.146	-0.121	-0.132
-424.559	-200.000	0.031	0.196
-423.544	-40.339	0.141	0.073
-422.530	37.326	0.258	-0.226
-421.515	-83.442	-0.046	0.015
-420.500	-87.568	0.197	0.059
-419.486	800.000	-0.101	-0.285
-418.471	-103.076	-0.156	-0.037
-417.457	227.305	-0.124	0.199
-416.442	800.000	0.059	-0.169
-415.428	104.563	0.170	-0.199
-414.413	650.423	-0.194	0.492
-413.398	-149.362	0.426	-0.034
-412.384	-182.074	-0.291	0.005
-411.369	-87.999	0.119	0.036
-410.355	16.456	0.099	-0.078
-409.340	-97.551	0.181	-0.046
-408.325	-62.167	0.141	0.058
-407.311	252.193	0.164	-0.276
-406.296	5.370	0.091	-0.066
-405.282	204.130	0.136	-0.209
-404.267	-200.000	-0.002	0.340
-403.252	505.491	0.140	0.321
-402.238	-159.467	-0.112	0.006
-401.223	-5.322	0.159	0.108
-400.209	-200.000	-0.022	-0.225
-399.194	244.628	-0.258	0.429
-398.179	130.595	0.137	0.174
-397.165	34.541	0.069	0.059
-396.150	-52.238	0.012	-0.006
-395.136	233.950	0.176	0.287
-394.121	150.236	-0.190	-0.256
-393.106	35.244	-0.183	0.159
-392.092	52.414	-0.055	0.052
-391.077	-200.000	-0.042	0.193
-390.063	-85.913	-0.287	0.088
-389.048	338.535	-0.083	0.160
-388.033	317.939	0.026	-0.050
-387.019	-75.571	0.048	-0.017
-386.004	-200.000	-0.035	-0.163
-384.990	-200.000	-0.075	-0.332
-383.975	-85.297	0.317	-0.098
-382.960	-43.721	-0.242	0.121
-381.946	-68.058	0.352	0.136
-380.931	-175.912	-0.526	-0.014
-379.917	-171.858	0.126	-0.004
-378.902	115.969	-0.155	0.188
-377.888	-200.000	-0.027	-0.196
-376.873	-200.000	-0.011	-0.053
-375.858	13.935	0.152	-0.117
-374.844	-108.122	0.320	0.069
-373.829	324.805	-0.134	0.253
-372.815	141.648	-0.089	-0.117
-371.800	-200.000	0.010	-0.047
-370.785	588.989	0.208	0.507
-369.771	-73.309	-0.451	0.163
-368.756	-105.032	-0.132	0.030
-367.742	-26.096	0.251	-0.146
-366.727	800.000	0.040	0.143
-365.712	-200.000	0.048	-0.297
-364.698	676.947	0.058	0.150
-363.683	-200.000	0.005	-0.112
-362.669	38.989	0.196	-0.173
-361.654	267.604	-0.113	-0.196
-360.639	-44.906	0.187	0.092
-359.625	-131.336	-0.242	-0.032
-358.610	-200.000	-0.004	-0.260
-357.596	798.096	-0.069	-0.187
-356.581	-88.076	-0.205	-0.061
-355.566	-70.230	0.138	-0.052
-354.552	244.312	0.071	-0.117
-353.537	800.000	0.080	0.231
-352.523	-142.746	0.024	0.002
-351.508	-52.271	0.102	0.047
-350.493	147.574	0.188	-0.250
-349.479	190.116	-0.148	-0.220
-348.464	527.624	-0.175	0.407
-347.450	-3.646	0.205	0.141
-346.435	720.317	0.113	-0.297
-345.420	448.531	0.126	-0.274
-344.406	60.661	-0.291	-0.285
-343.391	-200.000	-0.385	0.000
-342.377	-200.000	-0.018	0.139
-341.362	-41.815	-0.325	-0.165
-340.348	-3.977	0.356	0.244
-339.333	30.592	0.115	0.097
-338.318	-200.000	-0.065	0.282
-337.304	-200.000	-0.002	0.236
-336.289	472.806	-0.072	-0.159
-335.275	-76.705	-0.143	0.050
-334.260	-79.887	0.133	-0.044
-333.245	580.363	0.095	0.229
-332.231	717.027	-0.055	0.144
-331.216	28.420	-0.098	0.082
-330.202	-29.130	0.429	0.243
-329.187	143.128	0.211	0.277
-328.172	800.000	-0.042	0.173
-327.158	-200.000	-0.042	0.277
-326.143	77.937	-0.254	0.267
-325.129	67.071	-0.140	0.141
-324.114	-200.000	0.009	-0.097
-323.099	481.071	0.071	-0.160
-322.085	-29.398	0.018	0.010
-321.070	108.573	0.137	-0.162
-320.056	71.901	-0.216	0.221
-319.041	-140.462	-0.269	-0.028
-318.026	572.002	-0.092	0.221
-317.012	-27.165	0.200	-0.115
-315.997	-79.316	0.123	-0.041
-314.983	-29.952	-0.295	0.166
-313.968	334.772	-0.009	-0.018
-312.953	214.710	0.118	0.184
-311.939	11.830	-0.389	-0.295
-310.924	-156.056	0.269	-0.017
-309.910	7.827	0.396	-0.293
-308.895	-200.000	-0.042	0.324
-307.880	165.505	-0.075	0.105
-306.866	28.352	0.225	0.187
-305.851	4.411	-0.101	0.073
-304.837	86.549	0.198	-0.216
-303.822	-39.251	-0.006	-0.003
-302.807	-75.123	-0.367	0.129
-301.793	-200.000	0.006	-0.190
-300.778	-23.535	-0.099	0.059
-299.764	-87.227	-0.293	0.088
-298.749	70.518	0.115	0.118
-297.735	484.557	-0.043	-0.096
-296.720	-200.000	-0.001	-0.083
-295.705	-27.378	-0.322	0.184
-294.691	-86.027	0.358	-0.109
-293.676	-73.566	-0.036	-0.013
-292.662	-191.857	-0.271	0.003
-291.647	800.000	0.146	0.406
-290.632	-140.464	-0.351	0.036
-289.618	391.471	0.085	-0.174
-288.603	192.370	0.144	0.215
-287.589	70.005	-0.098	0.099
-286.574	199.169	0.052	-0.079
-285.559	-200.000	-0.042	-0.359
-284.545	438.409	0.145	0.311
-283.530	-59.418	0.363	-0.154
-282.516	-58.139	-0.195	-0.084
-281.501	565.495	0.061	0.145
-280.486	-200.000	0.004	0.198
-279.472	-112.911	0.109	-0.021
-278.457	-47.583	0.284	0.136
-277.443	800.000	-0.119	0.351
-276.428	-200.000	-0.007	0.189
-275.413	-200.000	-0.011	0.175
-274.399	32.675	-0.149	-0.127
-273.384	299.824	-0.266	-0.482
-272.370	-109.470	-0.286	-0.060
-271.355	222.862	0.171	0.272
-270.340	-200.000	0.019	-0.296
-269.326	141.003	0.240	0.312
-268.311	-105.941	0.175	-0.039
-267.297	5.648	0.156	-0.114
-266.282	-41.059	-0.020	-0.010
-265.267	-51.370	0.342	-0.157
-264.253	-39.294	0.216	0.111
-263.238	-181.396	0.066	0.001
-262.224	162.943	-0.146	-0.202
-261.209	-200.000	-0.040	0.325
-260.195	800.000	0.052	-0.154
-259.180	483.249	0.215	-0.481
-258.165	-133.364	0.197	-0.024
-257.151	800.000	-0.060	0.218
-256.136	194.354	-0.035	0.052
-255.122	-34.877	-0.021	-0.011
-254.107	-200.000	-0.035	0.183
-253.092	-200.000	-0.020	0.274
-252.078	-200.000	0.018	-0.333
-251.063	747.579	-0.087	-0.231
-250.049	-200.000	0.017	-0.301
-249.034	79.746	0.223	0.236
-248.019	-106.845	-0.151	-0.033
-247.005	156.720	0.160	0.218
-245.990	-200.000	-0.039	-0.202
-244.976	-130.390	0.127	-0.017
-243.961	-200.000	0.018	0.112
-242.946	456.938	-0.038	0.083
-241.932	54.583	0.163	0.154
-240.917	-109.614	0.352	-0.073
-239.903	174.397	-0.081	-0.115
-238.888	-82.247	-0.438	0.140
-237.873	-200.000	0.040	-0.249
-236.859	-51.275	0.412	0.189
-235.844	350.169	-0.142	0.276
-234.830	155.159	-0.142	-0.192
-233.815	-200.000	-0.023	0.153
-232.800	-71.084	0.158	0.059
-231.786	50.963	-0.258	0.241
-230.771	379.992	-0.062	-0.125
-229.757	-200.000	0.014	0.158
-228.742	-40.264	-0.125	-0.064
-227.727	-136.108	-0.050	0.006
-226.713	-13.359	0.158	-0.101
-225.698	250.811	0.051	0.085
-224.684	-139.601	-0.559	-0.059
-223.669	-200.000	-0.019	-0.389
-222.655	-19.582	0.183	-0.111
-221.640	-118.644	0.114	-0.020
-220.625	800.000	-0.047	-0.135
-219.611	-200.000	0.052	0.235
-218.596	-200.000	-0.017	0.189
-217.582	15.073	0.090	-0.069
-216.567	99.535	-0.098	-0.112
-215.552	-200.000	0.004	-0.063
-214.538	94.474	-0.156	0.174
-213.523	-96.018	0.295	-0.077
-212.509	-200.000	-0.032	-0.239
-211.494	184.751	-0.102	0.148
-210.479	-50.250	-0.110	-0.051
-209.465	-200.000	-0.010	-0.110
-208.450	-63.289	0.310	-0.125
-207.436	411.793	-0.098	-0.205
-206.421	-39.382	-0.090	-0.046
-205.406	522.104	-0.039	-0.090
-204.392	458.955	0.158	-0.345
-203.377	-166.192	0.138	0.006
-202.363	1.188	-0.108	0.076
-201.348	800.000	0.064	-0.181
-200.333	71.419	-0.138	0.141
-199.319	-124.170	0.127	-0.019
-198.304	44.681	-0.156	0.141
-197.290	-101.945	0.342	-0.081
-196.275	-42.487	0.077	-0.039
-195.260	-137.363	0.429	0.048
-194.246	-200.000	-0.032	-0.182
-193.231	-98.673	0.255	0.064
-192.217	-67.609	-0.214	0.082
-191.202	-200.000	-0.027	-0.263
-190.187	-129.807	-0.461	-0.062
-189.173	425.187	-0.075	0.157
-188.158	-120.189	0.168	-0.028
-187.144	800.000	-0.034	0.123
-186.129	-62.187	-0.166	0.068
-185.114	90.024	0.133	-0.146
-184.100	134.838	-0.224	-0.285
-183.085	-200.000	0.033	-0.145
-182.071	242.826	0.054	0.089
-181.056	-77.142	0.406	-0.139
-180.042	-200.000	-0.013	0.233
-179.027	785.075	-0.042	-0.114
-178.012	800.000	0.064	0.198
-176.998	-69.616	0.201	0.076
-175.983	-47.523	-0.164	-0.078
-174.969	-200.000	0.012	-0.330
-173.954	-200.000	0.009	-0.143
-172.939	-200.000	0.033	0.169
-171.925	-200.000	0.011	-0.187
-170.910	-200.000	-0.006	0.085
-169.896	-200.000	0.023	0.189
-168.881	354.802	0.017	-0.034
-167.866	-28.539	-0.143	0.081
-166.852	74.966	0.135	0.140
-165.837	800.000	0.080	0.277
-164.823	-68.176	-0.372	-0.142
-163.808	800.000	0.035	-0.116
-162.793	298.920	0.071	0.128
-161.779	-31.236	-0.165	0.091
-160.764	1.959	0.343	0.242
-159.750	782.487	0.047	0.127
-158.735	800.000	-0.047	0.164
-157.720	-91.208	-0.369	0.104
-156.706	-49.707	0.298	0.139
-155.691	72.294	-0.083	-0.085
-154.677	58.418	0.154	0.148
-153.662	43.113	-0.131	0.117
-152.647	350.472	0.042	0.081
-151.633	-68.504	-0.224	-0.085
-150.618	301.945	-0.036	0.066
-149.604	63.624	0.100	0.099
-148.589	144.731	0.045	0.058
-147.574	54.010	0.225	0.212
-146.560	339.923	0.048	-0.092
-145.545	-177.009	-0.286	0.007
-144.531	114.825	0.103	-0.123
-143.516	79.160	-0.072	0.075
-142.502	-52.277	-0.282	0.128
-141.487	-136.266	-0.375	-0.043
-140.472	104.223	0.088	0.101
-139.458	16.041	-0.208	-0.161
-138.443	-200.000	0.031	-0.214
-137.429	-158.375	-0.356	-0.020
-136.414	-64.036	0.248	0.099
-135.399	-8.346	-0.106	-0.070
-134.385	94.385	-0.146	-0.163
-133.370	-39.586	0.195	-0.100
-132.356	800.000	0.076	-0.302
-131.341	146.799	-0.154	-0.203
-130.326	115.846	-0.028	-0.033
-129.312	341.926	0.086	-0.165
-128.297	800.000	-0.086	-0.305
-127.283	800.000	-0.123	0.390
-126.268	-200.000	-0.041	0.410
-125.253	800.000	0.060	0.163
-124.239	-200.000	0.011	-0.166
-123.224	605.576	0.053	0.130
-122.210	89.639	0.043	-0.047
