DTS Sentinel unit serial number:	SN413079Multiplexer serial number:	ORYXHardware model number:	OX4-SRSoftware version number:	ORYX F/W v4.00 Oryx Data Collector v3.7.2.0data status	okinstallation	princeton_trtdifferential loss correction	single-endedforward channel	channel 3reverse channel	N/Adate	2019/09/10time	22:38:11forward acquisition time	60.00reverse acquisition time	0.00gamma	496.2192k internal	0.2331k external	0.2331temperature offset calibration	0.9923default loss term (dB/km)	0.3790temperature slope calibration	1.0000multiplexer offset coefficient	1.0000multiplexer slope coefficient	1.0000fibre end	0.00T internal ref (°C)	30.25T ext. ref 1 (°C)	-0.28T ext. ref 2 (°C)	23.61length (m)	temperature (°C)	Stokes	anti-Stokes-747.200	5.325	-0.180	-0.134
-746.185	-4.562	-0.099	-0.069
-745.171	-6.508	0.058	-0.039
-744.156	-166.006	0.163	-0.007
-743.142	49.547	-0.253	0.239
-742.127	-53.248	-0.113	-0.052
-741.112	310.392	0.107	0.201
-740.098	391.718	-0.153	0.320
-739.083	-200.000	0.012	0.309
-738.069	147.615	-0.170	0.230
-737.054	-41.510	0.195	0.101
-736.039	90.553	-0.053	-0.060
-735.025	83.667	-0.062	-0.068
-734.010	-200.000	-0.030	-0.236
-732.996	-85.671	-0.162	-0.051
-731.981	-108.694	0.395	-0.085
-730.966	453.419	-0.224	-0.499
-729.952	148.369	-0.095	-0.130
-728.937	47.257	-0.099	-0.093
-727.923	193.425	0.128	0.195
-726.908	216.598	-0.233	-0.372
-725.894	193.805	0.200	0.304
-724.879	-98.361	-0.047	0.012
-723.864	13.061	-0.123	-0.096
-722.850	-129.526	-0.104	0.015
-721.835	-81.149	0.046	0.015
-720.821	-200.000	-0.028	-0.255
-719.806	-76.639	-0.365	-0.129
-718.791	-124.532	-0.129	0.020
-717.777	120.921	-0.023	0.029
-716.762	321.503	0.160	-0.307
-715.748	-24.079	-0.193	0.116
-714.733	50.384	0.196	-0.187
-713.718	-100.340	0.185	0.046
-712.704	135.085	-0.079	-0.103
-711.689	30.219	0.141	-0.121
-710.675	-33.268	0.368	-0.205
-709.660	-57.639	0.167	-0.074
-708.645	-154.693	-0.124	-0.008
-707.631	66.998	0.219	0.224
-706.616	-130.764	-0.203	-0.027
-705.602	-108.106	0.405	-0.088
-704.587	-85.488	-0.335	0.105
-703.572	-77.548	-0.141	-0.049
-702.558	190.196	0.230	-0.347
-701.543	-200.000	0.038	-0.252
-700.529	-2.643	-0.243	-0.171
-699.514	-103.740	-0.257	-0.061
-698.499	-39.583	-0.147	0.078
-697.485	-200.000	0.045	-0.248
-696.470	-200.000	0.019	-0.148
-695.456	-28.542	0.301	-0.174
-694.441	780.432	-0.091	-0.249
-693.426	-13.801	0.088	0.057
-692.412	634.860	0.095	-0.243
-691.397	-75.813	-0.272	0.097
-690.383	-71.529	0.113	-0.042
-689.368	334.137	-0.127	-0.247
-688.354	-84.137	0.441	0.141
-687.339	349.573	-0.021	0.042
-686.324	37.959	0.061	-0.054
-685.310	800.000	-0.065	-0.185
-684.295	336.371	0.072	-0.140
-683.281	233.447	-0.151	-0.250
-682.266	261.056	-0.112	0.194
-681.251	800.000	0.077	-0.239
-680.237	800.000	-0.095	-0.319
-679.222	-149.535	0.343	0.027
-678.208	-200.000	0.002	0.013
-677.193	800.000	0.017	0.056
-676.178	453.370	0.065	0.145
-675.164	-69.971	0.254	-0.097
-674.149	96.190	-0.204	-0.234
-673.135	711.225	0.083	0.221
-672.120	151.752	0.051	-0.070
-671.105	-200.000	0.006	0.058
-670.091	179.926	-0.274	0.403
-669.076	-200.000	-0.008	-0.387
-668.062	-3.295	0.083	-0.058
-667.047	-72.623	-0.305	-0.113
-666.032	-32.347	0.177	-0.099
-665.018	-57.566	0.031	-0.014
-664.003	537.735	-0.058	-0.139
-662.989	21.181	0.059	-0.048
-661.974	-119.850	0.094	-0.016
-660.959	-81.054	-0.428	-0.142
-659.945	-200.000	0.024	-0.266
-658.930	-123.617	-0.206	0.033
-657.916	800.000	-0.048	-0.137
-656.901	385.667	0.161	-0.332
-655.886	-200.000	-0.011	-0.365
-654.872	15.998	0.202	-0.160
-653.857	95.228	-0.100	0.114
-652.843	-200.000	0.040	-0.217
-651.828	213.692	-0.190	-0.302
-650.814	-200.000	-0.060	0.000
-649.799	-72.708	0.161	0.060
-648.784	72.312	0.250	0.261
-647.770	-145.547	-0.348	0.031
-646.755	-200.000	-0.031	0.163
-645.741	409.169	0.073	0.155
-644.726	-89.701	-0.366	0.108
-643.711	-41.269	0.107	0.055
-642.697	-30.643	0.189	-0.108
-641.682	-77.038	-0.170	0.060
-640.668	-109.340	0.136	0.029
-639.653	-58.330	-0.209	0.091
-638.638	-15.000	-0.036	-0.023
-637.624	513.760	-0.149	0.347
-636.609	-8.014	0.257	0.174
-635.595	219.955	-0.130	-0.209
-634.580	380.668	0.104	-0.214
-633.565	250.852	0.055	-0.094
-632.551	-186.368	0.235	0.003
-631.536	75.804	-0.155	-0.164
-630.522	-107.891	-0.159	0.035
-629.507	800.000	-0.035	-0.112
-628.492	321.921	0.094	0.179
-627.478	502.311	-0.029	0.067
-626.463	-61.326	-0.380	-0.160
-625.449	-159.050	0.055	0.003
-624.434	145.740	0.089	0.120
-623.419	800.000	0.020	0.062
-622.405	51.307	-0.104	-0.099
-621.390	-80.225	-0.277	-0.093
-620.376	75.821	0.143	-0.151
-619.361	643.625	-0.047	0.121
-618.346	62.456	0.140	0.140
-617.332	-200.000	-0.041	0.359
-616.317	-72.626	-0.074	0.027
-615.303	-6.101	0.166	0.114
-614.288	-32.359	0.038	0.021
-613.273	-200.000	0.039	-0.468
-612.259	800.000	-0.132	0.439
-611.244	-90.864	0.235	0.068
-610.230	500.539	-0.113	-0.261
-609.215	-154.771	-0.255	-0.017
-608.201	78.239	0.166	-0.177
-607.186	781.982	-0.266	-0.729
-606.171	110.082	-0.135	0.162
-605.157	129.379	0.151	0.193
-604.142	-71.370	0.254	0.095
-603.128	303.348	-0.144	0.268
-602.113	749.055	0.069	0.185
-601.098	36.261	0.255	-0.225
-600.084	-170.416	0.211	0.007
-599.069	-200.000	-0.017	-0.076
-598.055	315.730	0.103	-0.194
-597.040	156.841	0.020	-0.027
-596.025	28.158	0.110	-0.093
-595.011	123.563	0.222	-0.278
-593.996	120.713	0.136	0.170
-592.982	404.580	0.099	0.209
-591.967	48.811	0.079	0.074
-590.952	-150.117	0.013	-0.001
-589.938	800.000	-0.039	-0.164
-588.923	-83.847	-0.221	0.070
-587.909	-88.813	-0.129	0.038
-586.894	269.935	0.122	0.214
-585.879	800.000	0.039	-0.129
-584.865	-101.593	-0.356	-0.087
-583.850	66.305	0.146	-0.148
-582.836	-162.390	0.206	-0.010
-581.821	-88.255	0.061	-0.018
-580.806	-200.000	0.024	-0.112
-579.792	-105.156	-0.104	0.024
-578.777	188.144	-0.237	0.355
-577.763	-200.000	0.004	-0.043
-576.748	267.844	0.174	-0.304
-575.733	-107.457	-0.351	-0.077
-574.719	-15.084	-0.022	0.014
-573.704	-167.036	-0.123	0.005
-572.690	-146.647	0.296	0.026
-571.675	-73.378	-0.273	0.100
-570.661	-121.966	0.074	0.012
-569.646	236.994	-0.230	-0.381
-568.631	800.000	-0.072	0.301
-567.617	-118.913	0.396	-0.070
-566.602	800.000	-0.070	0.229
-565.588	-122.469	-0.224	0.036
-564.573	-8.720	0.233	-0.156
-563.558	800.000	0.031	-0.129
-562.544	44.259	0.155	0.142
-561.529	-200.000	0.007	0.271
-560.515	-83.871	-0.205	-0.065
-559.500	800.000	0.139	-0.487
-558.485	-200.000	-0.055	0.322
-557.471	-200.000	0.014	0.398
-556.456	-200.000	-0.023	-0.210
-555.442	-150.818	-0.137	0.010
-554.427	-200.000	0.014	0.160
-553.412	140.412	-0.057	-0.075
-552.398	-23.087	0.248	-0.149
-551.383	-49.394	-0.284	0.135
-550.369	-200.000	-0.023	-0.283
-549.354	-118.581	-0.218	0.039
-548.339	227.459	0.053	-0.087
-547.325	-200.000	0.031	0.217
-546.310	44.697	0.218	0.200
-545.296	800.000	0.063	-0.264
-544.281	32.109	-0.252	-0.217
-543.266	-40.396	0.161	0.084
-542.252	4.937	0.069	-0.050
-541.237	447.416	0.041	0.089
-540.223	-78.922	-0.354	-0.120
-539.208	-63.038	0.172	-0.071
-538.193	-76.504	-0.208	-0.073
-537.179	283.202	-0.065	0.116
-536.164	50.386	-0.146	0.137
-535.150	-138.550	0.264	-0.029
-534.135	-71.025	-0.174	0.065
-533.121	182.142	-0.107	0.157
-532.106	101.743	-0.189	-0.221
-531.091	-78.730	0.194	-0.066
-530.077	-40.697	-0.261	0.135
-529.062	350.804	0.052	0.103
-528.048	-45.720	-0.196	-0.097
-527.033	-141.481	-0.282	-0.028
-526.018	-120.609	0.275	0.046
-525.004	27.614	-0.154	-0.129
-523.989	283.134	-0.212	-0.380
-522.975	-200.000	-0.013	-0.162
-521.960	81.639	-0.318	0.343
-520.945	-200.000	-0.048	0.297
-519.931	-12.621	-0.283	0.184
-518.916	-3.258	0.228	0.158
-517.902	633.181	-0.054	0.137
-516.887	-30.334	-0.215	0.122
-515.872	6.215	0.137	0.101
-514.858	57.969	-0.348	0.340
-513.843	34.951	0.117	-0.102
-512.829	46.181	0.122	-0.112
-511.814	91.715	0.125	-0.140
-510.799	68.912	-0.062	0.064
-509.785	149.826	-0.130	0.175
-508.770	124.515	-0.201	-0.252
-507.756	180.187	0.186	0.272
-506.741	-72.498	-0.128	0.047
-505.726	-116.028	-0.453	0.084
-504.712	-81.208	0.136	-0.045
-503.697	369.718	0.206	0.415
-502.683	800.000	-0.039	0.144
-501.668	800.000	-0.007	-0.029
-500.653	-70.855	-0.364	0.137
-499.639	355.967	-0.034	0.068
-498.624	-200.000	-0.012	0.121
-497.610	419.366	0.068	0.146
-496.595	-200.000	-0.036	-0.309
-495.581	-13.351	-0.093	-0.060
-494.566	209.119	-0.106	0.165
-493.551	400.293	0.093	0.194
-492.537	-77.171	-0.153	0.053
-491.522	16.405	0.242	0.190
-490.508	800.000	0.007	-0.021
-489.493	55.793	-0.075	0.073
-488.478	233.015	-0.124	-0.203
-487.464	-0.029	0.193	-0.137
-486.449	-137.130	-0.101	-0.011
-485.435	29.476	-0.090	-0.077
-484.420	-78.115	0.110	0.038
-483.405	-128.080	-0.074	-0.011
-482.391	-63.912	-0.179	0.073
-481.376	-25.916	0.107	-0.063
-480.362	131.872	0.097	-0.124
-479.347	-134.134	-0.186	-0.023
-478.332	800.000	0.141	-0.393
-477.318	-45.165	-0.155	-0.077
-476.303	294.790	-0.188	-0.342
-475.289	800.000	0.059	-0.204
-474.274	-200.000	0.005	0.046
-473.259	-61.932	0.188	-0.078
-472.245	46.472	-0.116	0.107
-471.230	10.665	-0.185	0.141
-470.216	-39.209	-0.175	-0.092
-469.201	586.108	-0.123	-0.300
-468.186	685.059	0.140	-0.365
-467.172	-200.000	-0.027	-0.207
-466.157	-6.246	0.317	-0.215
-465.143	-84.558	-0.385	0.121
-464.128	-178.567	0.085	-0.002
-463.113	-200.000	0.012	0.286
-462.099	-0.986	0.188	0.132
-461.084	-200.000	0.012	-0.081
-460.070	506.455	0.084	-0.195
-459.055	-139.509	-0.167	-0.018
-458.040	-200.000	-0.041	-0.236
-457.026	-200.000	0.061	0.306
-456.011	134.941	-0.120	0.155
-454.997	-60.827	-0.257	0.108
-453.982	50.069	0.070	0.066
-452.968	35.384	-0.086	-0.075
-451.953	-87.002	-0.250	0.076
-450.938	800.000	0.037	-0.133
-449.924	-65.833	0.079	-0.031
-448.909	98.297	0.138	0.158
-447.895	-46.376	0.263	0.129
-446.880	-47.823	0.279	-0.134
-445.865	-200.000	0.023	-0.110
-444.851	73.964	-0.115	-0.120
-443.836	-200.000	-0.004	0.325
-442.822	-200.000	0.015	-0.084
-441.807	154.740	-0.073	-0.099
-440.792	-191.759	0.061	0.001
-439.778	-200.000	-0.002	0.289
-438.763	599.952	-0.098	-0.241
-437.749	-133.360	-0.195	0.024
-436.734	-135.607	0.382	-0.045
-435.719	163.084	0.022	-0.030
-434.705	-180.191	-0.092	0.002
-433.690	536.130	0.111	-0.261
-432.676	192.123	-0.190	-0.286
-431.661	-7.524	-0.254	-0.171
-430.646	508.449	0.076	0.175
-429.632	-129.613	-0.285	-0.039
-428.617	122.885	0.183	0.227
-427.603	-200.000	0.025	0.269
-426.588	195.780	-0.171	0.258
-425.573	117.141	0.089	0.109
-424.559	147.105	0.074	0.100
-423.544	0.320	0.108	0.077
-422.530	-200.000	-0.016	-0.070
-421.515	33.542	0.028	0.024
-420.500	800.000	0.095	-0.283
-419.486	-119.892	0.207	0.035
-418.471	-48.669	-0.129	-0.062
-417.457	-142.428	0.128	-0.012
-416.442	-66.888	0.316	0.124
-415.428	352.216	0.099	-0.196
-414.413	-200.000	-0.035	-0.254
-413.398	-200.000	0.018	-0.167
-412.384	-86.940	0.109	-0.033
-411.369	13.199	0.112	0.086
-410.355	2.909	-0.208	-0.150
-409.340	365.115	0.093	-0.187
-408.325	-58.172	-0.354	-0.153
-407.311	629.608	-0.137	-0.345
-406.296	-18.228	-0.026	0.016
-405.282	84.326	0.354	0.384
-404.267	215.559	-0.114	-0.180
-403.252	-200.000	0.020	0.361
-402.238	58.018	0.323	0.314
-401.223	231.151	-0.098	0.160
-400.209	-200.000	-0.031	0.250
-399.194	-175.587	-0.380	0.010
-398.179	-21.045	0.235	0.143
-397.165	-149.211	0.289	0.023
-396.150	-67.652	-0.196	0.076
-395.136	-142.711	-0.525	0.051
-394.121	477.852	-0.015	-0.034
-393.106	568.061	-0.119	0.288
-392.092	-121.102	-0.220	-0.037
-391.077	349.784	0.052	-0.102
-390.063	14.525	-0.112	0.086
-389.048	177.778	0.116	0.168
-388.033	52.575	0.148	-0.140
-387.019	-159.180	-0.039	0.002
-386.004	44.524	0.298	0.272
-384.990	-200.000	0.023	0.228
-383.975	191.769	-0.028	0.042
-382.960	10.497	-0.150	0.113
-381.946	800.000	-0.081	0.259
-380.931	-200.000	-0.021	0.169
-379.917	-41.678	0.148	0.076
-378.902	-193.391	0.088	-0.001
-377.888	165.686	-0.066	0.092
-376.873	-104.040	0.328	0.076
-375.858	800.000	0.039	0.135
-374.844	-54.109	0.091	0.041
-373.829	-200.000	-0.013	0.255
-372.815	74.623	-0.103	0.108
-371.800	-30.268	0.199	0.112
-370.785	216.337	-0.028	0.044
-369.771	-16.500	0.292	-0.184
-368.756	150.233	-0.220	-0.297
-367.742	-200.000	0.056	-0.358
-366.727	-37.544	0.105	-0.055
-365.712	-1.717	0.133	-0.093
-364.698	84.962	0.168	-0.183
-363.683	-65.087	-0.117	0.047
-362.669	707.620	-0.096	-0.252
-361.654	800.000	-0.011	-0.035
-360.639	-126.521	0.436	0.064
-359.625	800.000	0.080	0.244
-358.610	-78.237	0.198	0.067
-357.596	-111.912	-0.187	0.037
-356.581	-4.820	0.131	-0.089
-355.566	406.003	-0.148	0.309
-354.552	-62.224	0.367	-0.151
-353.537	-31.636	0.144	-0.080
-352.523	-161.164	-0.370	0.019
-351.508	-200.000	0.006	-0.065
-350.493	563.457	0.046	-0.112
-349.479	-73.573	0.127	-0.046
-348.464	-61.034	-0.232	-0.097
-347.450	-200.000	-0.017	-0.122
-346.435	800.000	-0.021	-0.061
-345.420	57.795	0.242	-0.234
-344.406	-108.036	-0.159	0.034
-343.391	-200.000	-0.019	-0.117
-342.377	-41.289	0.147	0.075
-341.362	-15.066	0.126	0.080
-340.348	-200.000	-0.023	-0.165
-339.333	-14.783	-0.130	-0.083
-338.318	800.000	0.110	0.309
-337.304	-200.000	0.102	0.517
-336.289	-200.000	-0.014	0.313
-335.275	-126.856	0.177	0.026
-334.260	-200.000	0.022	0.414
-333.245	-118.307	0.108	-0.019
-332.231	183.775	0.190	0.278
-331.216	800.000	0.082	0.327
-330.202	-200.000	-0.064	-0.440
-329.187	750.143	-0.075	-0.200
-328.172	-54.432	-0.162	0.073
-327.158	9.110	-0.125	-0.094
-326.143	-24.675	0.475	-0.280
-325.129	379.577	0.111	-0.226
-324.114	130.336	-0.204	-0.258
-323.099	-43.347	-0.206	0.103
-322.085	-76.408	-0.208	-0.072
-321.070	-102.178	0.389	0.093
-320.056	-121.021	0.138	-0.023
-319.041	90.224	0.067	0.074
-318.026	-200.000	0.035	0.193
-317.012	473.674	0.083	0.185
-315.997	175.784	-0.188	0.270
-314.983	74.472	-0.167	-0.174
-313.968	-128.649	-0.204	-0.028
-312.953	43.590	-0.041	-0.037
-311.939	310.757	0.153	0.284
-310.924	-98.174	-0.227	0.058
-309.910	18.894	0.105	0.083
-308.895	28.569	0.125	0.104
-307.880	297.066	-0.103	0.188
-306.866	201.747	-0.054	-0.083
-305.851	754.715	-0.045	-0.119
-304.837	-200.000	-0.018	-0.346
-303.822	-200.000	-0.012	-0.173
-302.807	-146.352	-0.500	0.043
-301.793	229.399	-0.052	-0.084
-300.778	232.190	0.122	-0.197
-299.764	778.557	-0.017	-0.046
-298.749	-103.895	-0.121	0.028
-297.735	-145.924	-0.210	-0.018
-296.720	-75.528	0.374	0.132
-295.705	-103.634	-0.155	-0.036
-294.691	-55.364	0.041	-0.018
-293.676	-52.622	-0.085	0.039
-292.662	354.693	-0.076	-0.150
-291.647	-200.000	0.067	-0.295
-290.632	-7.081	0.082	-0.055
-289.618	425.312	0.059	-0.125
-288.603	-200.000	-0.032	-0.139
-287.589	-25.268	0.156	-0.091
-286.574	-64.094	-0.113	-0.046
-285.559	-106.212	0.254	0.056
-284.545	403.193	0.079	-0.164
-283.530	-6.804	0.112	-0.075
-282.516	-14.520	0.320	-0.204
-281.501	90.107	-0.173	0.191
-280.486	800.000	0.053	0.190
-279.472	46.430	0.266	-0.244
-278.457	-200.000	-0.027	-0.151
-277.443	79.634	0.303	0.321
-276.428	800.000	-0.067	0.250
-275.413	307.910	-0.043	-0.079
-274.399	800.000	-0.151	0.443
-273.384	-200.000	-0.012	0.344
-272.370	-200.000	-0.025	-0.386
-271.355	46.985	0.147	0.135
-270.340	-3.203	-0.119	-0.082
-269.326	-200.000	-0.006	-0.148
-268.311	160.096	-0.071	-0.098
-267.297	64.359	0.228	0.226
-266.282	-27.684	-0.298	-0.171
-265.267	-200.000	0.061	-0.373
-264.253	-82.858	-0.174	-0.055
-263.238	-83.804	-0.458	0.144
-262.224	-200.000	-0.018	0.324
-261.209	-200.000	0.002	0.230
-260.195	-163.295	-0.132	0.006
-259.180	800.000	0.149	-0.499
-258.165	625.663	-0.098	-0.243
-257.151	800.000	-0.013	-0.052
-256.136	442.005	0.026	-0.056
-255.122	-94.714	0.102	-0.027
-254.107	397.738	0.072	0.148
-253.092	54.867	-0.110	0.105
-252.078	-150.061	0.181	-0.014
-251.063	-149.127	-0.360	-0.028
-250.049	254.314	-0.045	-0.075
-249.034	800.000	-0.076	-0.216
-248.019	-117.321	-0.192	-0.034
-247.005	-187.326	0.299	0.004
-245.990	564.988	0.117	0.281
-244.976	323.325	-0.116	0.219
-243.961	96.907	-0.146	-0.166
-242.946	-40.689	0.185	-0.095
-241.932	-31.541	-0.146	-0.081
-240.917	-200.000	0.051	0.235
-239.903	25.915	0.187	0.154
-238.888	264.122	-0.022	0.038
-237.873	-25.028	0.131	0.077
-236.859	92.954	0.227	-0.253
-235.844	-174.241	0.430	0.012
-234.830	402.107	-0.092	0.191
-233.815	800.000	-0.051	0.214
-232.800	135.415	-0.123	-0.158
-231.786	-96.150	0.286	0.075
-230.771	154.658	-0.204	-0.276
-229.757	-90.212	0.103	0.030
-228.742	-39.358	0.236	-0.122
-227.727	549.524	-0.067	-0.158
-226.713	600.105	-0.190	0.466
-225.698	800.000	-0.070	0.195
-224.684	-117.349	-0.354	-0.063
-223.669	-200.000	0.034	-0.204
-222.655	-199.233	-0.174	-0.001
-221.640	81.320	-0.155	-0.165
-220.625	545.424	0.092	0.218
-219.611	126.456	0.173	0.217
-218.596	99.794	0.087	-0.100
-217.582	800.000	0.082	-0.321
-216.567	-160.999	0.171	0.009
-215.552	-103.645	-0.135	-0.031
-214.538	80.499	-0.174	-0.185
-213.523	-200.000	-0.038	-0.183
-212.509	-79.923	0.256	0.085
-211.494	-150.091	0.211	-0.016
-210.479	-80.150	0.190	-0.063
-209.465	25.359	0.178	-0.146
-208.450	-200.000	-0.022	0.203
-207.436	-200.000	-0.002	-0.017
-206.421	202.933	0.112	0.170
-205.406	651.725	0.051	0.128
-204.392	56.037	0.089	-0.085
-203.377	43.166	-0.070	-0.063
-202.363	800.000	0.067	0.205
-201.348	-200.000	0.024	0.115
-200.333	71.463	-0.131	0.134
-199.319	42.803	0.020	-0.018
-198.304	371.949	0.103	-0.206
-197.290	289.397	-0.179	-0.320
-196.275	-96.962	0.127	-0.033
-195.260	-136.218	0.317	-0.036
-194.246	-24.562	-0.334	-0.196
-193.231	800.000	0.091	-0.251
-192.217	85.397	-0.155	0.168
-191.202	-200.000	-0.062	0.323
-190.187	155.246	-0.100	-0.135
-189.173	1.669	-0.127	-0.090
-188.158	2.329	0.160	0.114
-187.144	800.000	0.051	-0.201
-186.129	-200.000	0.077	-0.386
-185.114	256.661	0.044	-0.075
-184.100	137.837	0.139	-0.180
-183.085	-167.503	-0.241	-0.009
-182.071	-200.000	0.021	0.171
-181.056	-41.603	-0.120	0.061
-180.042	-200.000	-0.043	-0.284
-179.027	-0.770	0.270	-0.188
-178.012	-200.000	-0.016	-0.103
-176.998	100.201	0.126	0.144
-175.983	-72.444	0.506	-0.184
-174.969	151.055	0.158	0.211
-173.954	-23.828	0.018	-0.011
-172.939	119.802	0.145	0.177
-171.925	-143.691	-0.109	0.010
-170.910	-200.000	-0.004	-0.329
-169.896	-62.754	0.196	0.080
-168.881	-28.166	-0.240	0.136
-167.866	-127.607	-0.326	0.047
-166.852	-74.735	0.259	-0.091
-165.837	55.484	-0.186	-0.177
-164.823	800.000	-0.069	0.209
-163.808	-94.460	0.142	0.038
-162.793	-128.379	0.282	0.039
-161.779	233.369	-0.211	0.341
-160.764	-97.009	0.247	-0.064
-159.750	-200.000	0.003	-0.248
-158.735	198.785	0.140	-0.210
-157.720	800.000	-0.122	-0.348
-156.706	-140.746	0.102	-0.010
-155.691	800.000	-0.127	0.354
-154.677	516.458	-0.097	-0.224
-153.662	296.584	-0.176	-0.318
-152.647	800.000	0.016	0.064
-151.633	-83.973	-0.055	0.017
-150.618	200.587	0.175	-0.264
-149.604	800.000	-0.085	0.309
-148.589	223.158	-0.178	0.283
-147.574	-152.830	-0.323	0.023
-146.560	-36.409	0.118	-0.062
-145.545	-67.121	0.207	-0.080
-144.531	-156.835	0.270	-0.016
-143.516	245.639	-0.119	-0.197
-142.502	354.864	0.182	0.356
-141.487	200.179	-0.052	0.079
-140.472	20.772	0.048	-0.038
-139.458	539.041	-0.056	0.132
-138.443	-88.196	-0.249	0.073
-137.429	94.521	0.078	0.087
-136.414	103.219	0.167	0.192
-135.399	-107.459	0.177	0.038
-134.385	800.000	-0.034	0.109
-133.370	-46.789	0.125	-0.060
-132.356	381.498	-0.096	0.194
-131.341	800.000	0.099	0.287
-130.326	473.829	0.142	0.314
-129.312	0.471	0.303	-0.213
-128.297	132.478	0.071	-0.090
-127.283	-200.000	-0.019	-0.235
-126.268	-156.554	0.340	0.021
-125.253	-101.997	0.080	-0.019
-124.239	77.455	0.148	0.155
-123.224	61.610	0.174	-0.170
-122.210	244.299	-0.092	-0.151
-121.195	782.645	0.059	-0.160
