DTS Sentinel unit serial number:	SN413079Multiplexer serial number:	ORYXHardware model number:	OX4-SRSoftware version number:	ORYX F/W v4.00 Oryx Data Collector v3.7.2.0data status	okinstallation	princeton_trtdifferential loss correction	single-endedforward channel	channel 3reverse channel	N/Adate	2019/09/11time	20:22:11forward acquisition time	60.00reverse acquisition time	0.00gamma	496.2192k internal	0.2303k external	0.2303temperature offset calibration	1.0021default loss term (dB/km)	0.3790temperature slope calibration	1.0000multiplexer offset coefficient	1.0000multiplexer slope coefficient	1.0000fibre end	0.00T internal ref (°C)	37.94T ext. ref 1 (°C)	1.48T ext. ref 2 (°C)	31.60length (m)	temperature (°C)	Stokes	anti-Stokes-747.200	-110.492	0.291	-0.061
-746.185	-86.211	0.109	0.034
-745.171	26.784	0.321	0.274
-744.156	-69.993	0.216	0.084
-743.142	52.629	-0.246	0.240
-742.127	800.000	0.016	-0.068
-741.112	260.145	-0.053	0.092
-740.098	613.712	-0.143	0.366
-739.083	43.142	-0.104	-0.097
-738.069	586.749	-0.067	0.168
-737.054	597.002	0.121	0.305
-736.039	74.788	0.100	0.107
-735.025	50.204	0.249	0.239
-734.010	-69.870	-0.580	0.225
-732.996	10.110	-0.236	-0.183
-731.981	-72.515	-0.220	-0.083
-730.966	142.221	0.204	0.276
-729.952	-11.679	-0.278	0.186
-728.937	156.919	-0.147	0.206
-727.923	-200.000	-0.012	-0.135
-726.908	67.579	-0.061	0.063
-725.894	-39.891	-0.332	-0.176
-724.879	-62.067	-0.048	-0.021
-723.864	258.393	-0.082	0.144
-722.850	-63.017	-0.175	-0.074
-721.835	-21.961	-0.082	0.051
-720.821	248.686	0.025	-0.042
-719.806	414.253	-0.085	0.184
-718.791	-200.000	0.060	0.000
-717.777	-200.000	0.063	-0.341
-716.762	-79.979	0.042	-0.014
-715.748	-200.000	-0.037	-0.331
-714.733	-53.513	-0.268	0.125
-713.718	371.954	0.105	0.216
-712.704	13.017	-0.220	-0.173
-711.689	-15.132	0.178	-0.116
-710.675	141.639	-0.284	-0.383
-709.660	-29.551	0.101	0.059
-708.645	-153.351	-0.093	-0.007
-707.631	79.183	-0.161	-0.175
-706.616	-109.670	-0.403	0.086
-705.602	-1.311	0.300	0.215
-704.587	-30.103	-0.282	0.163
-703.572	-135.788	0.271	0.033
-702.558	722.355	-0.069	-0.188
-701.543	-51.219	-0.188	0.089
-700.529	-164.817	0.391	0.018
-699.514	261.190	-0.183	0.322
-698.499	-44.038	0.182	-0.093
-697.485	-115.039	0.278	-0.054
-696.470	-200.000	-0.050	0.364
-695.456	800.000	-0.042	0.122
-694.441	-179.946	-0.223	-0.005
-693.426	306.795	0.105	0.199
-692.412	-150.686	0.443	-0.034
-691.397	726.511	-0.059	-0.159
-690.383	53.072	-0.202	0.197
-689.368	519.209	-0.157	0.373
-688.354	706.622	0.144	-0.387
-687.339	-200.000	-0.198	0.001
-686.324	-123.182	0.297	0.048
-685.310	487.502	0.064	-0.148
-684.295	-124.330	-0.212	-0.034
-683.281	800.000	0.022	0.079
-682.266	-60.345	-0.292	-0.126
-681.251	-40.493	-0.322	-0.170
-680.237	79.252	0.273	0.297
-679.222	79.258	-0.164	-0.179
-678.208	-58.060	0.298	0.132
-677.193	-200.000	0.026	-0.213
-676.178	-200.000	0.026	0.144
-675.164	-113.691	-0.286	-0.057
-674.149	-115.287	0.214	-0.041
-673.135	108.443	-0.082	-0.099
-672.120	-200.000	0.013	0.171
-671.105	-106.205	-0.264	0.060
-670.091	105.081	0.071	0.086
-669.076	-80.358	-0.415	0.141
-668.062	80.530	0.203	-0.222
-667.047	-172.978	-0.379	-0.012
-666.032	-134.456	0.102	0.013
-665.018	113.921	-0.094	-0.116
-664.003	-200.000	0.009	-0.350
-662.989	130.782	0.132	-0.172
-661.974	69.898	-0.174	-0.182
-660.959	239.674	-0.171	-0.288
-659.945	-180.734	-0.183	-0.004
-658.930	25.138	-0.205	-0.173
-657.916	-200.000	0.036	-0.227
-656.901	-200.000	-0.045	-0.366
-655.886	11.601	0.084	-0.066
-654.872	86.046	-0.087	-0.097
-653.857	-90.465	0.107	0.031
-652.843	-154.599	-0.160	0.011
-651.828	-124.628	-0.257	0.040
-650.814	-200.000	0.011	-0.063
-649.799	-52.726	-0.261	0.122
-648.784	-37.085	0.272	-0.148
-647.770	-200.000	-0.018	0.180
-646.755	-148.180	-0.124	-0.010
-645.741	569.844	-0.080	-0.198
-644.726	-200.000	0.017	-0.282
-643.711	-200.000	-0.041	0.187
-642.697	-200.000	0.006	-0.033
-641.682	124.376	0.044	-0.056
-640.668	-12.582	-0.292	-0.193
-639.653	788.595	0.054	-0.151
-638.638	36.102	-0.267	0.238
-637.624	1.877	0.084	-0.061
-636.609	-121.153	0.115	-0.020
-635.595	-200.000	0.002	-0.129
-634.580	186.005	-0.060	0.090
-633.565	289.208	0.143	0.263
-632.551	-7.740	0.201	0.138
-631.536	-6.971	0.182	-0.125
-630.522	-200.000	0.250	-0.000
-629.507	-13.780	0.135	0.088
-628.492	-71.995	-0.300	-0.113
-627.478	277.700	-0.068	0.122
-626.463	35.841	0.032	0.029
-625.449	-110.320	0.217	0.046
-624.434	-175.385	0.375	-0.010
-623.419	-1.887	-0.133	-0.095
-622.405	-120.331	-0.099	-0.017
-621.390	122.860	-0.120	0.152
-620.376	-25.973	-0.219	-0.131
-619.361	12.281	0.268	0.209
-618.346	-92.319	0.285	0.082
-617.332	738.218	0.081	0.221
-616.317	-164.578	0.081	-0.004
-615.303	29.198	-0.186	-0.160
-614.288	-57.079	-0.379	-0.169
-613.273	-21.564	0.195	0.120
-612.259	-78.406	0.145	-0.050
-611.244	-111.140	-0.301	-0.063
-610.230	800.000	-0.112	-0.369
-609.215	-24.673	0.176	0.106
-608.201	5.415	0.212	0.158
-607.186	-123.735	-0.111	-0.018
-606.171	195.810	-0.149	-0.230
-605.157	54.844	-0.284	-0.278
-604.142	305.622	0.079	-0.149
-603.128	-200.000	0.041	-0.490
-602.113	-200.000	-0.040	-0.229
-601.098	-200.000	-0.002	-0.245
-600.084	800.000	-0.045	-0.148
-599.069	238.375	-0.098	-0.165
-598.055	-21.462	0.158	0.098
-597.040	76.380	0.057	-0.061
-596.025	-200.000	-0.020	-0.235
-595.011	-107.113	-0.396	-0.088
-593.996	-62.613	-0.025	-0.011
-592.982	-200.000	0.048	0.221
-591.967	-137.452	-0.100	-0.011
-590.952	72.843	-0.151	0.159
-589.938	-196.419	-0.047	-0.000
-588.923	-144.319	-0.234	-0.022
-587.909	40.498	-0.176	0.161
-586.894	-46.642	0.311	-0.154
-585.879	-162.362	-0.256	0.013
-584.865	-126.993	-0.102	0.015
-583.850	-51.079	0.134	0.064
-582.836	310.720	-0.068	0.130
-581.821	-110.202	-0.380	-0.080
-580.806	800.000	-0.008	0.031
-579.792	-70.489	0.268	0.103
-578.777	-71.785	0.230	0.087
-577.763	800.000	0.124	-0.393
-576.748	113.359	0.153	-0.188
-575.733	-57.640	-0.131	0.058
-574.719	-200.000	0.029	0.313
-573.704	-99.382	-0.301	0.077
-572.690	-200.000	0.008	0.061
-571.675	90.952	-0.076	0.086
-570.661	-200.000	0.026	0.233
-569.646	114.354	0.177	0.218
-568.631	-91.187	-0.231	0.067
-567.617	157.195	-0.212	-0.297
-566.602	-54.751	0.096	-0.044
-565.588	-121.476	-0.218	-0.037
-564.573	152.537	0.143	-0.197
-563.558	227.413	-0.212	0.349
-562.544	-12.536	-0.276	-0.182
-561.529	-53.105	0.251	0.117
-560.515	800.000	-0.054	-0.219
-559.500	-167.512	-0.092	-0.004
-558.485	336.004	0.105	-0.206
-557.471	-41.152	0.197	-0.103
-556.456	-153.889	-0.555	-0.038
-555.442	598.583	-0.112	0.281
-554.427	-200.000	-0.033	0.298
-553.412	111.695	-0.352	0.429
-552.398	-15.183	0.138	0.089
-551.383	239.937	0.163	-0.274
-550.369	413.495	0.086	0.184
-549.354	680.158	0.092	0.242
-548.339	38.762	-0.171	-0.154
-547.325	20.357	-0.109	0.089
-546.310	347.227	0.120	-0.238
-545.296	240.299	-0.161	0.271
-544.281	-79.685	0.178	0.061
-543.266	-148.655	-0.227	-0.019
-542.252	-109.492	0.218	0.046
-541.237	-104.152	0.153	0.036
-540.223	800.000	-0.035	-0.122
-539.208	-200.000	0.054	-0.260
-538.193	-11.884	-0.142	-0.094
-537.179	188.104	0.128	0.194
-536.164	11.561	0.056	0.043
-535.150	-200.000	-0.032	-0.176
-534.135	410.159	-0.077	0.164
-533.121	-200.000	0.006	0.188
-532.106	14.050	0.097	0.076
-531.091	5.541	-0.273	-0.204
-530.077	-200.000	-0.004	-0.279
-529.062	-27.052	0.350	-0.206
-528.048	800.000	0.027	0.077
-527.033	-148.152	-0.142	0.012
-526.018	479.551	0.129	0.296
-525.004	-43.164	-0.242	-0.124
-523.989	22.765	-0.236	-0.195
-522.975	625.822	0.103	-0.261
-521.960	307.829	-0.086	0.163
-520.945	477.408	0.030	-0.067
-519.931	61.151	0.196	0.197
-518.916	800.000	-0.069	-0.266
-517.902	187.192	0.143	0.216
-516.887	-200.000	0.008	0.257
-515.872	800.000	0.059	0.233
-514.858	-200.000	0.033	0.316
-513.843	-38.347	0.055	-0.029
-512.829	800.000	-0.059	-0.192
-511.814	114.386	-0.053	0.065
-510.799	-85.210	-0.064	0.020
-509.785	-44.496	0.237	-0.120
-508.770	-200.000	-0.030	-0.284
-507.756	-50.234	-0.231	0.110
-506.741	-200.000	0.005	0.240
-505.726	-167.712	0.254	0.010
-504.712	218.694	-0.121	0.195
-503.697	-200.000	0.031	0.147
-502.683	84.937	-0.257	-0.284
-501.668	314.808	-0.139	-0.264
-500.653	12.633	0.261	0.203
-499.639	423.627	-0.113	-0.244
-498.624	51.282	0.084	-0.081
-497.610	9.847	-0.210	0.161
-496.595	-158.323	0.217	0.013
-495.581	-56.288	-0.358	-0.160
-494.566	-133.268	-0.292	0.037
-493.551	35.391	0.227	-0.201
-492.537	127.765	0.175	-0.225
-491.522	303.019	-0.082	0.153
-490.508	26.899	0.128	-0.108
-489.493	127.783	0.125	0.160
-488.478	-86.626	0.296	-0.091
-487.464	-47.961	0.149	-0.073
-486.449	800.000	0.067	0.263
-485.435	-171.099	0.228	-0.008
-484.420	-122.160	-0.194	-0.032
-483.405	-200.000	-0.041	0.205
-482.391	-88.699	0.176	0.053
-481.376	92.055	-0.147	-0.167
-480.362	47.663	-0.035	0.033
-479.347	-200.000	0.051	0.374
-478.332	189.485	0.097	-0.146
-477.318	-69.750	-0.236	-0.091
-476.303	800.000	0.028	-0.083
-475.289	-99.556	0.233	-0.059
-474.274	-68.258	-0.227	-0.089
-473.259	167.500	-0.130	0.186
-472.245	86.989	-0.047	0.053
-471.230	-111.892	-0.495	0.101
-470.216	-94.146	-0.258	-0.071
-469.201	-80.117	-0.392	-0.132
-468.186	160.208	0.060	-0.084
-467.172	-134.728	-0.178	-0.022
-466.157	-74.263	0.157	-0.057
-465.143	-200.000	-0.021	0.138
-464.128	234.331	-0.175	-0.290
-463.113	-1.169	0.240	-0.171
-462.099	-43.748	-0.274	-0.139
-461.084	232.423	-0.095	-0.157
-460.070	-200.000	0.112	0.496
-459.055	17.589	0.129	0.103
-458.040	-78.623	-0.252	-0.087
-457.026	40.955	-0.101	-0.091
-456.011	-200.000	-0.016	0.344
-454.997	376.072	-0.074	-0.151
-453.982	464.820	-0.046	-0.103
-452.968	175.892	-0.153	0.224
-451.953	-67.891	0.234	-0.092
-450.938	-115.976	0.279	-0.052
-449.924	-144.683	-0.195	-0.018
-448.909	800.000	-0.144	0.458
-447.895	24.031	0.180	0.149
-446.880	477.717	0.059	-0.134
-445.865	-92.892	0.290	0.082
-444.851	111.662	-0.120	-0.145
-443.836	-58.799	0.078	0.034
-442.822	-120.802	0.240	0.041
-441.807	10.286	-0.147	0.113
-440.792	515.387	0.082	0.193
-439.778	-156.141	-0.206	-0.013
-438.763	800.000	-0.119	-0.415
-437.749	32.666	-0.181	-0.158
-436.734	-200.000	0.054	0.245
-435.719	154.109	0.118	-0.163
-434.705	292.298	0.129	-0.236
-433.690	430.538	0.159	0.347
-432.676	-170.005	-0.303	0.011
-431.661	-200.000	-0.025	-0.176
-430.646	-9.498	-0.282	-0.189
-429.632	800.000	0.077	0.230
-428.617	800.000	0.024	-0.098
-427.603	-200.000	-0.010	0.275
-426.588	-1.716	0.304	0.215
-425.573	297.026	-0.047	-0.086
-424.559	180.502	-0.107	-0.158
-423.544	-4.770	-0.227	0.157
-422.530	-74.354	0.384	-0.140
-421.515	-120.805	0.155	-0.026
-420.500	-200.000	-0.033	0.148
-419.486	437.627	-0.042	0.092
-418.471	800.000	0.114	-0.389
-417.457	-46.508	-0.151	-0.074
-416.442	-200.000	-0.003	0.115
-415.428	37.017	-0.219	-0.194
-414.413	556.453	-0.094	-0.229
-413.398	-3.468	0.061	-0.043
-412.384	373.431	-0.129	-0.264
-411.369	-143.964	0.363	0.034
-410.355	-47.264	-0.054	0.026
-409.340	-200.000	-0.017	0.296
-408.325	143.126	-0.275	-0.368
-407.311	-74.763	-0.057	0.020
-406.296	-154.954	-0.387	-0.026
-405.282	-200.000	-0.030	-0.338
-404.267	-200.000	0.004	-0.238
-403.252	-78.194	-0.263	0.091
-402.238	288.162	-0.085	-0.155
-401.223	-110.305	0.298	0.062
-400.209	-129.613	-0.526	-0.073
-399.194	54.387	0.366	0.355
-398.179	98.733	0.049	0.057
-397.165	-154.951	-0.251	-0.017
-396.150	-18.895	-0.212	-0.133
-395.136	-51.221	0.052	0.024
-394.121	-118.692	0.016	-0.003
-393.106	-24.996	0.197	0.117
-392.092	-7.009	-0.142	0.097
-391.077	-35.178	-0.200	0.109
-390.063	-94.602	-0.269	-0.074
-389.048	-200.000	-0.013	-0.175
-388.033	23.512	-0.126	0.104
-387.019	-165.097	-0.179	0.008
-386.004	-16.491	-0.129	0.082
-384.990	-92.130	-0.259	-0.073
-383.975	-89.076	-0.158	0.047
-382.960	78.277	0.074	-0.079
-381.946	-96.550	0.339	0.090
-380.931	-200.000	0.033	0.194
-379.917	800.000	-0.035	-0.137
-378.902	-200.000	0.016	-0.154
-377.888	441.466	-0.212	-0.467
-376.873	44.391	0.396	-0.365
-375.858	-24.348	0.282	0.169
-374.844	-190.604	0.149	0.002
-373.829	26.293	0.208	-0.174
-372.815	34.465	0.103	-0.091
-371.800	-50.744	0.376	0.178
-370.785	-129.976	-0.406	0.056
-369.771	-52.903	0.184	0.085
-368.756	5.298	0.289	-0.214
-367.742	141.148	0.078	0.103
-366.727	-126.310	-0.214	-0.032
-365.712	800.000	0.046	-0.189
-364.698	-60.681	-0.138	-0.059
-363.683	144.255	-0.160	0.215
-362.669	69.596	0.108	0.112
-361.654	-200.000	-0.005	-0.329
-360.639	-200.000	-0.078	-0.344
-359.625	446.265	0.064	0.141
-358.610	-6.538	0.158	-0.108
-357.596	503.819	0.107	0.247
-356.581	-161.068	-0.124	0.007
-355.566	-155.928	-0.210	0.013
-354.552	-200.000	-0.035	-0.195
-353.537	144.586	0.029	0.039
-352.523	41.350	0.138	0.125
-351.508	35.700	-0.428	0.377
-350.493	147.487	-0.171	-0.231
-349.479	-200.000	-0.004	-0.057
-348.464	800.000	0.029	0.117
-347.450	89.387	0.170	0.190
-346.435	-86.416	0.237	-0.073
-345.420	-112.211	-0.293	0.059
-344.406	-88.424	-0.232	0.069
-343.391	7.436	0.351	0.263
-342.377	-200.000	-0.014	0.181
-341.362	136.531	0.090	-0.118
-340.348	-200.000	0.004	-0.160
-339.333	142.741	0.055	-0.073
-338.318	385.546	0.064	0.132
-337.304	281.061	0.205	0.367
-336.289	-200.000	0.000	-0.029
-335.275	194.433	0.187	-0.284
-334.260	247.337	0.144	0.243
-333.245	-25.273	-0.178	-0.106
-332.231	22.244	0.212	0.174
-331.216	196.319	0.176	-0.269
-330.202	-137.449	0.199	0.023
-329.187	-81.786	-0.466	-0.153
-328.172	-62.157	0.182	-0.076
-327.158	51.997	-0.171	-0.163
-326.143	-35.062	0.148	0.081
-325.129	-200.000	0.016	-0.103
-324.114	-200.000	-0.023	0.201
-323.099	-146.353	-0.180	-0.016
-322.085	244.360	-0.067	0.113
-321.070	404.790	0.180	0.379
-320.056	-100.957	0.190	-0.047
-319.041	-200.000	0.057	-0.344
-318.026	-36.928	0.216	0.116
-317.012	-35.599	-0.151	0.082
-315.997	-87.878	0.155	-0.047
-314.983	-39.402	0.282	0.148
-313.968	-97.706	0.017	-0.004
-312.953	-135.485	0.197	0.023
-311.939	-75.035	0.277	-0.099
-310.924	239.271	-0.086	0.144
-309.910	51.416	-0.251	-0.239
-308.895	90.449	-0.031	0.035
-307.880	88.682	-0.121	-0.135
-306.866	800.000	-0.068	-0.274
-305.851	66.325	-0.157	0.160
-304.837	169.660	0.074	0.106
-303.822	-63.415	0.104	-0.043
-302.807	528.756	-0.084	0.198
-301.793	-200.000	-0.018	0.324
-300.778	-200.000	-0.003	0.101
-299.764	18.128	0.349	0.279
-298.749	-56.154	0.234	0.104
-297.735	146.883	-0.284	0.383
-296.720	-28.173	0.049	0.028
-295.705	352.590	0.016	0.032
-294.691	100.772	-0.052	0.060
-293.676	-176.886	0.099	0.002
-292.662	175.849	-0.019	-0.028
-291.647	484.592	-0.017	-0.040
-290.632	-65.290	-0.205	-0.083
-289.618	483.465	-0.057	-0.129
-288.603	-99.395	0.170	-0.043
-287.589	-31.931	0.083	0.046
-286.574	-200.000	0.008	-0.212
-285.559	67.966	0.031	-0.032
-284.545	-143.204	-0.275	0.026
-283.530	-43.348	-0.262	-0.132
-282.516	-51.373	0.165	-0.077
-281.501	279.711	-0.186	-0.333
-280.486	754.895	0.025	-0.069
-279.472	26.720	0.106	-0.089
-278.457	-8.143	-0.255	0.172
-277.443	28.665	0.324	-0.274
-276.428	451.862	0.050	0.110
-275.413	107.177	-0.193	0.229
-274.399	-200.000	-0.019	0.239
-273.384	-200.000	-0.043	-0.319
-272.370	84.142	0.150	-0.164
-271.355	-200.000	0.003	0.135
-270.340	-138.111	0.121	-0.013
-269.326	380.035	-0.151	0.310
-268.311	73.565	0.137	0.144
-267.297	-181.841	0.436	-0.008
-266.282	-26.169	0.305	0.179
-265.267	-21.863	0.197	-0.120
-264.253	89.436	0.212	-0.236
-263.238	80.753	-0.231	0.249
-262.224	-200.000	0.012	0.202
-261.209	-169.159	-0.389	-0.014
-260.195	-200.000	-0.016	0.228
-259.180	-61.780	-0.167	0.070
-258.165	-142.813	-0.068	0.007
-257.151	55.093	0.268	-0.259
-256.136	-25.340	0.131	-0.078
-255.122	-200.000	0.076	-0.374
-254.107	800.000	0.024	0.071
-253.092	29.173	0.133	0.113
-252.078	20.090	-0.208	-0.167
-251.063	800.000	-0.017	-0.058
-250.049	-28.080	-0.208	0.120
-249.034	-200.000	0.012	0.197
-248.019	-200.000	-0.027	-0.168
-247.005	-138.240	-0.172	-0.019
-245.990	257.554	-0.148	-0.255
-244.976	64.431	0.176	0.177
-243.961	377.204	0.145	0.296
-242.946	800.000	0.082	0.228
-241.932	4.871	0.214	0.157
-240.917	12.889	-0.135	0.104
-239.903	-200.000	-0.020	0.279
-238.888	116.260	-0.044	0.054
-237.873	-150.726	0.145	0.011
-236.859	800.000	-0.046	0.175
-235.844	14.017	-0.294	0.229
-234.830	-68.145	0.107	0.042
-233.815	-107.094	-0.221	-0.049
-232.800	-200.000	0.024	0.246
-231.786	-200.000	-0.031	0.162
-230.771	203.870	0.180	0.278
-229.757	-135.134	0.198	-0.024
-228.742	43.403	0.072	0.065
-227.727	583.800	0.001	-0.002
-226.713	24.877	-0.253	0.210
-225.698	800.000	-0.091	-0.352
-224.684	-85.962	-0.183	0.056
-223.669	-110.390	0.340	-0.071
-222.655	-200.000	0.025	0.176
-221.640	325.462	-0.159	0.304
-220.625	-119.399	0.179	0.031
-219.611	159.447	0.223	-0.309
-218.596	-138.525	0.087	-0.010
-217.582	221.923	0.191	-0.306
-216.567	7.732	-0.046	-0.034
-215.552	-94.775	0.148	0.040
-214.538	-200.000	0.006	0.137
-213.523	5.051	0.069	0.051
-212.509	-170.107	-0.058	0.002
-211.494	-79.855	0.186	-0.063
-210.479	6.024	0.129	0.095
-209.465	141.598	0.190	0.251
-208.450	80.885	-0.124	-0.133
-207.436	181.009	-0.098	-0.143
-206.421	-89.888	0.105	0.031
-205.406	30.575	0.123	-0.105
-204.392	197.309	-0.109	-0.166
-203.377	99.943	-0.134	-0.155
-202.363	50.897	0.082	0.077
-201.348	-154.286	0.330	0.022
-200.333	-121.151	-0.197	-0.033
-199.319	169.967	0.142	0.203
-198.304	-59.459	0.228	-0.098
-197.290	233.274	-0.138	0.226
-196.275	-91.975	0.265	0.075
-195.260	28.926	0.279	0.236
-194.246	-200.000	-0.012	0.082
-193.231	215.565	0.118	-0.186
-192.217	130.567	0.131	-0.168
-191.202	-3.941	0.209	-0.144
-190.187	-200.000	0.005	-0.038
-189.173	189.069	0.203	-0.302
-188.158	710.842	0.133	-0.350
-187.144	148.055	-0.180	0.242
-186.129	392.855	0.013	0.027
-185.114	-103.279	0.377	0.089
-184.100	211.538	0.086	-0.135
-183.085	-200.000	0.028	0.156
-182.071	415.748	0.035	0.074
-181.056	800.000	0.049	-0.167
-180.042	-200.000	-0.012	-0.074
-179.027	138.462	0.211	0.276
-178.012	148.308	0.195	-0.262
-176.998	-200.000	0.006	0.076
-175.983	-101.573	-0.056	-0.014
-174.969	-68.007	0.149	-0.058
-173.954	-74.082	-0.023	0.008
-172.939	43.546	-0.091	-0.083
-171.925	28.802	0.168	-0.142
-170.910	617.174	-0.221	-0.552
-169.896	800.000	0.119	0.342
-168.881	324.561	-0.082	-0.155
-167.866	-156.626	-0.190	-0.012
-166.852	800.000	0.110	0.422
-165.837	-2.734	0.085	0.059
-164.823	75.444	-0.202	-0.212
-163.808	-42.414	-0.140	0.071
-162.793	-200.000	-0.035	0.217
-161.779	-115.911	0.166	0.031
-160.764	53.217	-0.227	0.216
-159.750	716.944	-0.114	-0.300
-158.735	-134.404	-0.188	-0.023
-157.720	14.744	-0.201	0.157
-156.706	684.665	0.031	-0.081
-155.691	-187.187	-0.111	-0.002
-154.677	317.802	-0.055	0.103
-153.662	-46.843	-0.282	-0.137
-152.647	-17.454	0.309	-0.194
-151.633	118.124	0.030	0.037
-150.618	48.906	0.216	-0.202
-149.604	75.511	-0.071	0.074
-148.589	61.774	0.183	-0.182
-147.574	6.311	0.342	-0.253
-146.560	221.458	-0.126	-0.201
-145.545	159.665	-0.082	0.114
-144.531	176.898	-0.025	0.037
-143.516	159.549	-0.092	-0.127
-142.502	-40.276	0.255	-0.132
-141.487	-46.336	0.051	0.025
-140.472	-103.784	-0.137	0.032
-139.458	-35.418	-0.283	-0.153
-138.443	800.000	-0.068	-0.280
-137.429	92.722	-0.170	-0.190
-136.414	-54.072	0.215	0.097
-135.399	-200.000	-0.041	0.245
-134.385	252.112	0.160	0.271
-133.370	3.811	0.203	0.147
-132.356	-91.250	-0.023	-0.006
-131.341	252.729	-0.044	0.074
-130.326	-200.000	-0.034	-0.247
-129.312	69.927	0.178	-0.183
-128.297	192.307	-0.178	-0.267
-127.283	161.996	0.057	0.079
-126.268	800.000	-0.106	-0.325
-125.253	800.000	0.110	-0.419
-124.239	102.096	0.174	-0.202
-123.224	-200.000	-0.009	0.064
-122.210	706.300	-0.110	-0.288
-121.195	-200.000	-0.002	0.209
