DTS Sentinel unit serial number:	SN413079Multiplexer serial number:	ORYXHardware model number:	OX4-SRSoftware version number:	ORYX F/W v4.00 Oryx Data Collector v3.7.2.0data status	okinstallation	princeton_trtdifferential loss correction	single-endedforward channel	channel 3reverse channel	N/Adate	2019/09/17time	22:16:35forward acquisition time	60.00reverse acquisition time	0.00gamma	496.2192k internal	0.2344k external	0.2344temperature offset calibration	0.9955default loss term (dB/km)	0.3790temperature slope calibration	1.0000multiplexer offset coefficient	1.0000multiplexer slope coefficient	1.0000fibre end	0.00T internal ref (°C)	25.64T ext. ref 1 (°C)	0.18T ext. ref 2 (°C)	18.59length (m)	temperature (°C)	Stokes	anti-Stokes-747.200	121.667	0.079	0.099
-746.185	697.026	0.041	0.108
-745.171	-6.140	0.259	0.177
-744.156	362.502	-0.143	0.287
-743.142	125.982	-0.146	-0.184
-742.127	411.685	0.123	0.262
-741.112	-200.000	-0.034	-0.173
-740.098	-200.000	-0.056	0.399
-739.083	55.813	0.284	0.276
-738.069	800.000	0.069	0.224
-737.054	-93.360	0.195	0.054
-736.039	185.407	-0.092	-0.136
-735.025	293.835	0.201	-0.367
-734.010	314.732	-0.057	-0.108
-732.996	142.709	-0.262	-0.348
-731.981	-158.529	-0.240	-0.014
-730.966	463.652	0.165	0.369
-729.952	-95.557	-0.121	0.032
-728.937	-76.390	-0.322	0.113
-727.923	-54.760	0.089	-0.040
-726.908	71.683	0.136	-0.142
-725.894	-200.000	-0.005	-0.257
-724.879	127.499	-0.083	-0.105
-723.864	682.888	0.161	-0.420
-722.850	216.981	-0.151	-0.241
-721.835	-87.135	-0.129	-0.039
-720.821	-132.440	0.286	0.037
-719.806	-200.000	0.007	0.098
-718.791	-200.000	0.059	0.292
-717.777	141.661	-0.095	0.126
-716.762	-200.000	0.021	0.288
-715.748	-22.143	-0.243	0.148
-714.733	-51.181	0.265	-0.124
-713.718	4.442	-0.324	0.237
-712.704	-67.561	-0.171	0.067
-711.689	-118.083	-0.314	-0.056
-710.675	200.401	-0.042	-0.065
-709.660	-182.079	0.082	-0.002
-708.645	-59.669	-0.280	-0.120
-707.631	50.792	-0.257	0.244
-706.616	-7.827	-0.336	-0.227
-705.602	-106.070	0.213	-0.048
-704.587	-74.324	-0.334	0.120
-703.572	-111.857	0.299	-0.060
-702.558	-114.791	0.162	-0.031
-701.543	-109.983	0.137	-0.029
-700.529	124.406	0.062	-0.078
-699.514	800.000	-0.058	0.183
-698.499	275.062	0.160	-0.283
-697.485	509.223	-0.093	-0.217
-696.470	50.800	0.090	-0.086
-695.456	-200.000	0.041	-0.284
-694.441	-189.733	0.179	-0.002
-693.426	103.757	-0.242	-0.284
-692.412	-20.232	0.347	-0.213
-691.397	-200.000	0.051	0.360
-690.383	77.392	-0.167	-0.178
-689.368	-53.380	-0.073	-0.033
-688.354	175.901	0.120	-0.174
-687.339	-200.000	-0.001	0.006
-686.324	-8.428	-0.177	-0.119
-685.310	-200.000	0.039	0.216
-684.295	26.929	-0.142	-0.119
-683.281	24.981	-0.156	0.129
-682.266	225.980	0.138	0.223
-681.251	29.587	-0.134	-0.114
-680.237	-200.000	0.049	0.265
-679.222	-200.000	-0.046	-0.291
-678.208	-200.000	-0.043	-0.231
-677.193	-112.482	-0.116	-0.023
-676.178	208.846	0.173	-0.270
-675.164	-66.226	0.211	0.084
-674.149	543.696	0.106	-0.253
-673.135	-96.329	-0.154	0.041
-672.120	78.242	-0.144	-0.153
-671.105	152.984	0.160	-0.218
-670.091	-70.272	-0.106	-0.040
-669.076	74.568	0.177	-0.186
-668.062	-138.764	-0.092	-0.010
-667.047	678.986	-0.102	-0.264
-666.032	13.611	0.121	0.094
-665.018	-114.407	0.079	-0.015
-664.003	26.666	0.209	-0.174
-662.989	-41.174	0.200	0.103
-661.974	-51.517	-0.349	0.163
-660.959	-38.889	-0.225	0.118
-659.945	104.845	0.035	-0.041
-658.930	56.097	-0.168	0.162
-657.916	246.397	-0.095	-0.159
-656.901	101.585	0.127	-0.147
-655.886	-200.000	-0.004	0.073
-654.872	-160.765	-0.367	0.019
-653.857	-105.558	0.204	0.046
-652.843	-200.000	-0.033	-0.158
-651.828	354.652	0.138	-0.273
-650.814	-166.816	0.359	-0.015
-649.799	431.304	-0.046	0.099
-648.784	45.674	0.149	0.137
-647.770	-200.000	-0.062	0.373
-646.755	-41.597	0.076	0.039
-645.741	76.619	0.071	0.076
-644.726	691.398	-0.112	-0.292
-643.711	117.757	-0.035	-0.044
-642.697	122.141	-0.192	0.238
-641.682	319.205	0.084	-0.159
-640.668	-200.000	-0.016	0.113
-639.653	-15.171	-0.264	0.169
-638.638	-83.616	0.185	-0.059
-637.624	-74.235	0.026	0.009
-636.609	-116.258	-0.553	0.102
-635.595	-106.818	0.344	0.076
-634.580	235.518	-0.048	0.078
-633.565	-85.168	-0.226	-0.070
-632.551	800.000	-0.070	0.255
-631.536	-42.745	0.175	0.089
-630.522	31.840	0.202	0.174
-629.507	-67.409	-0.431	0.169
-628.492	619.283	-0.088	-0.219
-627.478	-80.658	-0.160	-0.053
-626.463	-27.019	0.200	0.117
-625.449	-6.981	-0.060	0.040
-624.434	-200.000	0.038	-0.212
-623.419	-62.803	0.275	-0.113
-622.405	-53.998	0.208	0.094
-621.390	137.944	0.142	0.186
-620.376	-88.103	-0.250	0.075
-619.361	800.000	-0.044	0.155
-618.346	-200.000	-0.043	0.381
-617.332	236.824	0.049	0.082
-616.317	800.000	-0.078	0.287
-615.303	-89.234	-0.107	0.031
-614.288	-136.654	-0.146	0.017
-613.273	-6.396	-0.348	0.236
-612.259	800.000	-0.046	-0.175
-611.244	-6.386	0.273	-0.185
-610.230	-200.000	0.019	0.378
-609.215	800.000	0.010	0.030
-608.201	97.772	0.116	-0.132
-607.186	-200.000	0.038	0.318
-606.171	47.669	-0.231	-0.215
-605.157	35.178	0.026	0.023
-604.142	734.128	0.022	0.059
-603.128	508.296	0.138	-0.319
-602.113	-26.869	-0.355	-0.206
-601.098	36.525	0.150	-0.132
-600.084	281.177	0.118	0.211
-599.069	-200.000	0.082	-0.358
-598.055	253.852	0.112	-0.191
-597.040	-200.000	-0.031	0.188
-596.025	-24.778	-0.183	-0.108
-595.011	281.854	-0.196	-0.350
-593.996	-5.425	0.141	0.096
-592.982	-200.000	-0.043	-0.365
-591.967	800.000	-0.028	0.113
-590.952	-200.000	0.013	0.234
-589.938	-67.454	0.075	0.029
-588.923	26.053	-0.239	-0.198
-587.909	444.940	0.051	0.112
-586.894	68.626	-0.294	-0.300
-585.879	-200.000	-0.036	-0.167
-584.865	800.000	0.114	-0.379
-583.850	-104.771	0.185	-0.042
-582.836	800.000	-0.099	0.331
-581.821	-52.314	0.128	-0.059
-580.806	-38.934	-0.188	-0.099
-579.792	-156.170	0.027	-0.002
-578.777	800.000	0.030	-0.091
-577.763	20.340	-0.088	-0.070
-576.748	-200.000	-0.058	0.313
-575.733	642.404	0.024	0.061
-574.719	-14.405	-0.198	-0.126
-573.704	800.000	0.113	0.472
-572.690	610.338	0.101	0.250
-571.675	-14.383	0.333	-0.213
-570.661	-200.000	-0.006	-0.043
-569.646	371.219	-0.066	-0.133
-568.631	-149.356	0.301	-0.024
-567.617	16.825	0.095	0.075
-566.602	-200.000	-0.026	0.151
-565.588	800.000	-0.095	0.363
-564.573	-200.000	0.018	0.180
-563.558	412.460	-0.052	-0.110
-562.544	-200.000	0.099	0.507
-561.529	99.947	0.175	0.202
-560.515	-136.203	0.363	-0.042
-559.500	16.511	-0.153	-0.120
-558.485	286.067	-0.111	0.199
-557.471	195.852	-0.111	0.167
-556.456	57.995	-0.126	0.123
-555.442	-200.000	-0.024	-0.125
-554.427	-74.890	0.258	-0.092
-553.412	348.555	-0.123	-0.241
-552.398	758.669	-0.073	-0.196
-551.383	800.000	-0.007	0.026
-550.369	-74.113	-0.360	-0.129
-549.354	205.509	0.224	0.346
-548.339	-139.860	-0.261	0.027
-547.325	280.581	0.295	-0.524
-546.310	-33.651	-0.133	-0.073
-545.296	-32.886	-0.107	-0.059
-544.281	-66.784	-0.175	-0.069
-543.266	210.016	-0.027	-0.042
-542.252	800.000	0.015	-0.050
-541.237	302.705	-0.090	-0.166
-540.223	9.604	0.314	0.236
-539.208	-200.000	-0.033	-0.153
-538.193	155.592	-0.283	-0.387
-537.179	683.448	0.087	-0.224
-536.164	-144.448	0.296	-0.027
-535.150	139.899	-0.240	-0.315
-534.135	-165.260	-0.397	0.017
-533.121	-7.568	0.118	-0.079
-532.106	-200.000	-0.026	-0.273
-531.091	-83.508	0.125	0.040
-530.077	-93.902	-0.022	0.006
-529.062	-105.197	-0.130	-0.029
-528.048	63.238	-0.099	-0.098
-527.033	-200.000	0.013	0.181
-526.018	82.908	0.119	0.129
-525.004	7.686	0.175	0.130
-523.989	220.457	-0.150	0.238
-522.975	-44.844	0.065	-0.032
-521.960	178.020	-0.113	-0.164
-520.945	-169.781	-0.101	-0.004
-519.931	-140.035	0.139	0.015
-518.916	-45.657	-0.106	0.052
-517.902	-131.767	-0.115	-0.015
-516.887	-83.729	-0.396	0.125
-515.872	-200.000	-0.045	0.257
-514.858	-200.000	-0.009	0.072
-513.843	24.619	0.142	0.117
-512.829	8.187	-0.351	0.261
-511.814	-200.000	-0.544	0.001
-510.799	-87.900	-0.340	0.101
-509.785	-90.341	-0.118	0.034
-508.770	-112.361	-0.220	0.044
-507.756	-23.448	-0.181	-0.108
-506.741	130.102	0.170	-0.216
-505.726	-128.413	-0.316	0.045
-504.712	26.064	-0.148	0.122
-503.697	-46.964	0.133	0.065
-502.683	23.284	0.143	-0.117
-501.668	-36.642	-0.183	0.097
-500.653	244.965	0.126	0.209
-499.639	451.706	-0.138	0.303
-498.624	800.000	-0.073	-0.290
-497.610	-200.000	0.024	-0.233
-496.595	-32.541	0.054	-0.030
-495.581	800.000	0.043	0.157
-494.566	-200.000	-0.016	0.162
-493.551	-68.539	0.292	0.112
-492.537	-83.681	-0.273	-0.087
-491.522	158.636	0.074	0.102
-490.508	-200.000	0.046	-0.253
-489.493	-128.380	0.368	-0.052
-488.478	-21.714	-0.211	0.127
-487.464	126.476	-0.039	-0.049
-486.449	202.369	-0.086	0.132
-485.435	-200.000	-0.030	-0.275
-484.420	-40.999	0.162	-0.083
-483.405	-128.564	-0.263	0.037
-482.391	81.309	-0.071	-0.076
-481.376	-39.472	0.158	-0.082
-480.362	157.122	-0.141	-0.193
-479.347	-52.253	-0.097	-0.045
-478.332	124.254	0.193	0.240
-477.318	800.000	0.057	0.190
-476.303	121.831	-0.064	-0.079
-475.289	-32.120	0.303	0.168
-474.274	-140.686	-0.150	0.015
-473.259	212.801	0.125	-0.195
-472.245	-113.039	0.252	0.049
-471.230	-200.000	0.059	-0.456
-470.216	-200.000	-0.050	0.277
-469.201	-200.000	0.016	0.087
-468.186	-99.717	-0.140	0.035
-467.172	17.752	-0.138	0.109
-466.157	-150.658	0.186	0.014
-465.143	-200.000	0.004	-0.195
-464.128	450.727	0.134	-0.293
-463.113	31.379	0.268	-0.228
-462.099	-61.301	0.110	0.046
-461.084	-139.971	0.272	-0.028
-460.070	-74.652	-0.197	0.070
-459.055	-31.508	0.129	0.072
-458.040	-200.000	0.030	-0.239
-457.026	-200.000	0.002	-0.055
-456.011	-200.000	0.013	0.079
-454.997	-77.169	-0.165	-0.057
-453.982	-116.761	0.212	-0.038
-452.968	800.000	-0.158	-0.568
-451.953	-200.000	0.049	-0.231
-450.938	52.568	-0.295	-0.278
-449.924	-200.000	0.037	0.352
-448.909	488.319	-0.137	-0.309
-447.895	564.004	0.092	-0.220
-446.880	6.609	-0.241	-0.177
-445.865	130.076	0.090	-0.114
-444.851	-3.931	0.100	0.069
-443.836	-68.702	0.348	0.133
-442.822	61.696	-0.063	-0.062
-441.807	-163.320	-0.256	0.012
-440.792	-159.277	0.431	0.024
-439.778	800.000	0.090	0.253
-438.763	-79.819	0.246	0.082
-437.749	-200.000	0.020	-0.180
-436.734	-48.165	0.191	0.091
-435.719	-116.572	-0.043	-0.008
-434.705	-49.741	-0.390	0.183
-433.690	104.499	-0.026	-0.030
-432.676	158.273	0.105	0.144
-431.661	498.080	0.104	0.238
-430.646	-85.611	-0.182	0.056
-429.632	-181.905	-0.279	-0.005
-428.617	39.644	-0.154	0.137
-427.603	63.115	-0.074	0.074
-426.588	528.139	-0.085	-0.199
-425.573	9.169	0.210	0.157
-424.559	60.000	-0.115	0.112
-423.544	-32.754	-0.292	0.161
-422.530	800.000	0.094	-0.337
-421.515	121.753	0.197	0.242
-420.500	-200.000	0.035	0.264
-419.486	-118.262	-0.246	0.043
-418.471	-200.000	0.038	0.183
-417.457	-34.652	-0.204	0.110
-416.442	-200.000	-0.026	0.144
-415.428	-44.296	-0.355	0.176
-414.413	-54.038	-0.069	-0.031
-413.398	69.238	-0.173	-0.176
-412.384	-200.000	-0.007	0.182
-411.369	-200.000	-0.028	0.165
-410.355	-200.000	-0.012	0.055
-409.340	-83.515	0.073	-0.023
-408.325	-66.504	0.290	0.114
-407.311	56.449	-0.244	-0.234
-406.296	800.000	-0.095	0.323
-405.282	-200.000	-0.048	-0.411
-404.267	-119.449	0.239	-0.041
-403.252	-43.977	-0.263	-0.131
-402.238	-46.109	-0.092	0.045
-401.223	-33.682	0.115	-0.062
-400.209	-46.779	-0.211	-0.102
-399.194	34.289	-0.150	-0.129
-398.179	-80.485	0.207	0.068
-397.165	-200.000	-0.011	-0.418
-396.150	-57.465	0.182	-0.079
-395.136	-105.068	-0.151	0.034
-394.121	42.981	0.073	-0.065
-393.106	95.648	0.093	-0.104
-392.092	22.821	0.025	0.020
-391.077	-200.000	-0.025	-0.124
-390.063	-200.000	0.008	-0.054
-389.048	-135.408	-0.168	-0.020
-388.033	-128.042	0.222	0.031
-387.019	-15.771	0.135	-0.085
-386.004	-71.025	-0.397	-0.148
-384.990	-100.871	0.388	0.094
-383.975	-43.091	-0.087	-0.043
-382.960	141.689	0.019	0.025
-381.946	640.946	0.122	0.306
-380.931	104.252	-0.160	-0.186
-379.917	-200.000	0.009	0.362
-378.902	5.522	0.302	0.220
-377.888	-102.912	-0.382	0.090
-376.873	-44.264	0.207	0.102
-375.858	-200.000	0.044	-0.202
-374.844	-56.506	0.252	-0.110
-373.829	800.000	0.026	-0.086
-372.815	642.524	0.048	0.121
-371.800	-83.281	-0.110	-0.035
-370.785	-52.684	0.128	0.058
-369.771	-97.420	-0.132	0.034
-368.756	24.286	-0.288	0.235
-367.742	-33.556	-0.469	-0.255
-366.727	50.658	-0.140	0.131
-365.712	-200.000	-0.052	0.265
-364.698	13.477	-0.222	0.170
-363.683	-43.286	0.137	-0.068
-362.669	157.759	0.075	0.102
-361.654	-161.766	-0.197	-0.010
-360.639	465.200	0.044	-0.096
-359.625	30.072	0.325	0.273
-358.610	-72.051	-0.205	-0.075
-357.596	-200.000	0.020	0.229
-356.581	-200.000	-0.015	0.091
-355.566	-188.179	0.080	-0.001
-354.552	-200.000	0.091	0.440
-353.537	138.627	-0.156	0.202
-352.523	-200.000	0.010	-0.245
-351.508	60.904	0.158	-0.155
-350.493	-158.821	-0.275	-0.015
-349.479	154.461	-0.140	-0.190
-348.464	1.903	0.359	0.255
-347.450	246.566	0.172	-0.286
-346.435	-147.095	0.135	0.011
-345.420	800.000	0.114	0.381
-344.406	-68.261	0.247	-0.095
-343.391	-200.000	-0.017	-0.264
-342.377	88.609	0.125	-0.136
-341.362	-124.975	0.471	-0.071
-340.348	-200.000	0.025	-0.129
-339.333	800.000	-0.056	-0.162
-338.318	-200.000	0.055	0.450
-337.304	-200.000	0.040	-0.280
-336.289	-118.596	-0.245	0.043
-335.275	197.434	0.162	0.244
-334.260	334.445	-0.095	0.181
-333.245	76.984	-0.148	0.155
-332.231	307.187	0.260	0.477
-331.216	109.497	0.050	-0.059
-330.202	132.656	0.276	-0.351
-329.187	800.000	-0.041	0.168
-328.172	-200.000	0.084	-0.557
-327.158	-90.353	0.164	-0.047
-326.143	126.621	0.139	-0.173
-325.129	104.893	0.068	-0.079
-324.114	800.000	0.029	-0.083
-323.099	-80.232	0.117	-0.039
-322.085	800.000	0.026	0.096
-321.070	-200.000	-0.010	0.231
-320.056	-200.000	-0.003	0.217
-319.041	-122.991	0.175	-0.028
-318.026	-31.690	0.347	-0.192
-317.012	-62.010	-0.358	-0.147
-315.997	-155.301	0.129	0.008
-314.983	640.733	-0.011	-0.027
-313.968	-200.000	0.027	-0.136
-312.953	-11.316	0.301	0.195
-311.939	-104.723	-0.152	0.034
-310.924	-37.728	0.186	0.097
-309.910	-85.402	-0.213	0.065
-308.895	-0.983	-0.066	-0.046
-307.880	-49.964	0.329	0.154
-306.866	-25.711	-0.228	-0.133
-305.851	-80.101	0.230	0.076
-304.837	114.313	-0.165	-0.198
-303.822	121.158	0.016	-0.019
-302.807	14.804	0.185	-0.142
-301.793	800.000	0.092	-0.257
-300.778	-57.491	-0.099	0.043
-299.764	-18.079	-0.239	0.147
-298.749	141.125	-0.320	0.417
-297.735	-200.000	-0.031	0.318
-296.720	-200.000	0.030	0.190
-295.705	182.770	-0.113	-0.165
-294.691	-83.410	0.153	-0.048
-293.676	185.536	-0.139	0.204
-292.662	-200.000	-0.025	-0.152
-291.647	67.949	0.203	-0.204
-290.632	-43.433	-0.201	-0.100
-289.618	-200.000	-0.015	0.085
-288.603	-200.000	0.021	0.108
-287.589	140.657	-0.257	-0.333
-286.574	-200.000	-0.028	-0.234
-285.559	-200.000	0.028	0.428
-284.545	-140.008	0.302	-0.031
-283.530	-200.000	0.008	-0.231
-282.516	-200.000	0.026	0.162
-281.501	-5.695	0.122	0.082
-280.486	2.359	-0.152	-0.108
-279.472	65.074	-0.103	0.102
-278.457	-124.412	0.289	-0.044
-277.443	-86.430	-0.186	-0.056
-276.428	-174.785	-0.301	0.008
-275.413	800.000	0.038	-0.136
-274.399	438.562	-0.044	-0.095
-273.384	-200.000	-0.012	-0.257
-272.370	57.774	0.114	-0.109
-271.355	-51.229	0.132	0.061
-270.340	-155.746	-0.342	-0.021
-269.326	-200.000	-0.007	-0.159
-268.311	-169.765	-0.254	-0.009
-267.297	-200.000	0.021	-0.205
-266.282	326.932	0.033	-0.063
-265.267	-105.813	0.500	0.111
-264.253	-3.148	0.112	0.077
-263.238	50.207	-0.022	0.021
-262.224	96.256	0.126	0.142
-261.209	-200.000	0.017	0.294
-260.195	235.814	0.103	0.167
-259.180	-200.000	0.003	-0.100
-258.165	141.786	0.094	0.122
-257.151	-170.172	0.177	-0.006
-256.136	800.000	-0.030	0.095
-255.122	-59.617	0.183	0.077
-254.107	-65.094	0.311	-0.123
-253.092	-148.758	0.053	0.004
-252.078	25.523	-0.230	0.188
-251.063	-104.001	0.110	-0.025
-250.049	-200.000	-0.027	-0.394
-249.034	20.902	0.356	-0.283
-248.019	-200.000	-0.053	0.250
-247.005	-59.844	-0.190	0.080
-245.990	-48.614	0.221	-0.104
-244.976	-6.324	-0.117	-0.079
-243.961	-200.000	0.022	-0.270
-242.946	58.260	0.211	-0.203
-241.932	800.000	-0.011	0.038
-240.917	-200.000	0.078	-0.348
-239.903	-115.520	0.184	0.034
-238.888	19.514	-0.416	-0.328
-237.873	-3.848	-0.075	-0.051
-236.859	-161.377	-0.150	-0.008
-235.844	800.000	-0.055	-0.175
-234.830	96.526	0.093	0.104
-233.815	-7.272	0.188	0.125
-232.800	119.932	0.100	-0.122
-231.786	800.000	0.079	-0.260
-230.771	-200.000	-0.001	-0.032
-229.757	363.959	0.118	0.234
-228.742	-136.967	-0.079	0.009
-227.727	-200.000	0.014	0.172
-226.713	60.145	-0.068	0.066
-225.698	-200.000	-0.025	0.214
-224.684	-58.131	-0.270	0.115
-223.669	23.974	-0.205	0.166
-222.655	154.186	0.240	-0.323
-221.640	89.244	-0.043	0.047
-220.625	-200.000	0.001	0.168
-219.611	390.954	0.042	0.086
-218.596	-200.000	0.030	-0.334
-217.582	40.747	-0.099	0.087
-216.567	159.895	-0.110	-0.150
-215.552	529.839	-0.108	-0.249
-214.538	245.427	-0.081	0.134
-213.523	-135.985	0.214	0.025
-212.509	-145.239	-0.110	0.010
-211.494	-200.000	0.006	0.120
-210.479	161.015	-0.016	0.022
-209.465	546.163	0.121	-0.283
-208.450	206.104	0.167	0.255
-207.436	-8.141	0.226	0.149
-206.421	34.201	0.143	0.123
-205.406	-140.720	-0.307	-0.031
-204.392	-200.000	0.001	0.133
-203.377	-128.435	0.116	0.016
-202.363	-85.431	-0.184	-0.056
-201.348	15.327	0.062	-0.048
-200.333	45.304	-0.068	-0.061
-199.319	800.000	-0.043	-0.147
-198.304	-139.814	-0.150	-0.016
-197.290	-61.336	0.386	-0.159
-196.275	800.000	0.096	0.277
-195.260	800.000	-0.115	0.414
-194.246	104.570	-0.229	0.264
-193.231	127.153	0.250	-0.310
-192.217	-167.528	-0.221	-0.009
-191.202	800.000	-0.042	-0.139
-190.187	-200.000	0.006	0.047
-189.173	-200.000	-0.034	-0.161
-188.158	-170.328	-0.053	-0.002
-187.144	800.000	0.098	-0.292
-186.129	-28.107	-0.250	-0.141
-185.114	11.922	0.106	-0.080
-184.100	363.453	0.122	-0.239
-183.085	141.826	0.153	0.199
-182.071	-200.000	0.000	-0.040
-181.056	-161.843	0.439	0.022
-180.042	61.529	0.158	0.154
-179.027	-39.982	-0.175	-0.090
-178.012	-200.000	0.006	0.217
-176.998	800.000	0.018	0.073
-175.983	215.261	0.219	0.340
-174.969	53.325	-0.092	-0.087
-173.954	45.210	0.089	0.081
-172.939	-46.343	-0.058	-0.028
-171.925	250.553	0.064	0.107
-170.910	-200.000	-0.057	0.351
-169.896	459.026	-0.187	-0.407
-168.881	111.818	-0.138	-0.163
-167.866	-50.644	-0.213	0.098
-166.852	181.775	0.081	-0.117
-165.837	800.000	0.118	-0.394
-164.823	-53.894	-0.209	-0.093
-163.808	356.087	0.044	0.085
-162.793	-200.000	-0.000	0.031
-161.779	-200.000	-0.008	-0.054
-160.764	800.000	0.030	0.104
-159.750	-90.918	0.228	0.064
-158.735	-78.598	0.089	0.030
-157.720	-59.723	0.109	-0.046
-156.706	-200.000	0.053	0.000
-155.691	223.191	0.052	-0.083
-154.677	-125.137	0.107	0.016
-153.662	-200.000	0.021	-0.214
-152.647	-11.608	0.127	-0.082
-151.633	308.862	0.091	-0.166
-150.618	174.796	-0.189	0.268
-149.604	752.352	-0.054	-0.142
-148.589	450.023	0.100	-0.215
-147.574	100.406	0.321	-0.364
-146.560	-32.729	0.194	0.106
-145.545	-111.398	0.097	0.019
-144.531	-6.241	0.230	0.153
-143.516	-200.000	0.227	-0.000
-142.502	-56.499	-0.066	0.029
-141.487	-114.172	0.395	0.075
-140.472	-192.594	0.168	0.002
-139.458	-88.424	0.169	-0.049
-138.443	800.000	-0.077	0.329
-137.429	581.656	0.120	0.287
-136.414	-200.000	0.010	-0.124
-135.399	-161.099	0.251	-0.013
-134.385	462.185	0.099	-0.216
-133.370	-22.473	0.036	0.021
-132.356	-173.873	0.314	0.009
-131.341	444.916	0.051	0.109
-130.326	-200.000	0.000	-0.177
-129.312	7.685	0.183	0.134
-128.297	-21.361	-0.163	-0.097
-127.283	231.182	0.159	0.254
-126.268	142.070	0.113	-0.146
-125.253	250.588	0.211	0.351
-124.239	-126.247	-0.154	-0.023
-123.224	-56.683	-0.193	0.084
-122.210	320.973	-0.095	0.175
-121.195	269.511	-0.174	0.298
