DTS Sentinel unit serial number:	SN413079Multiplexer serial number:	ORYXHardware model number:	OX4-SRSoftware version number:	ORYX F/W v4.00 Oryx Data Collector v3.7.2.0data status	okinstallation	princeton_trtdifferential loss correction	single-endedforward channel	channel 3reverse channel	N/Adate	2019/09/15time	06:16:35forward acquisition time	60.00reverse acquisition time	0.00gamma	496.2192k internal	0.2325k external	0.2325temperature offset calibration	0.9980default loss term (dB/km)	0.3790temperature slope calibration	1.0000multiplexer offset coefficient	1.0000multiplexer slope coefficient	1.0000fibre end	0.00T internal ref (°C)	30.56T ext. ref 1 (°C)	4.84T ext. ref 2 (°C)	25.10length (m)	temperature (°C)	Stokes	anti-Stokes-747.200	59.063	0.140	0.139
-746.185	223.799	-0.138	0.225
-745.171	-36.461	0.236	-0.128
-744.156	20.638	0.083	0.068
-743.142	-200.000	-0.028	-0.165
-742.127	16.070	-0.296	0.235
-741.112	800.000	-0.098	-0.291
-740.098	800.000	0.038	0.112
-739.083	-57.214	-0.158	0.070
-738.069	481.947	0.034	-0.079
-737.054	-61.318	0.397	0.169
-736.039	-175.095	-0.615	0.017
-735.025	-149.232	-0.065	0.005
-734.010	142.519	-0.147	0.197
-732.996	-79.680	-0.265	-0.090
-731.981	-78.024	0.440	-0.153
-730.966	199.878	-0.078	0.120
-729.952	-200.000	-0.014	-0.397
-728.937	80.925	-0.235	-0.256
-727.923	175.447	-0.277	0.405
-726.908	-136.991	0.075	0.009
-725.894	800.000	-0.069	0.221
-724.879	-23.023	-0.158	0.096
-723.864	800.000	0.055	0.172
-722.850	19.618	0.052	0.042
-721.835	-200.000	-0.007	-0.320
-720.821	-135.515	0.283	0.034
-719.806	13.395	0.097	0.076
-718.791	124.174	-0.257	-0.325
-717.777	-115.547	-0.106	-0.020
-716.762	351.459	0.159	-0.318
-715.748	-130.854	-0.130	-0.018
-714.733	436.921	-0.107	-0.236
-713.718	-164.558	-0.383	0.018
-712.704	-132.160	-0.461	-0.060
-711.689	-132.038	0.442	0.058
-710.675	-45.956	-0.306	0.152
-709.660	46.601	-0.117	0.110
-708.645	-200.000	0.017	-0.147
-707.631	-142.509	0.201	0.020
-706.616	-200.000	-0.023	-0.266
-705.602	-6.009	-0.233	0.160
-704.587	-38.784	-0.107	-0.057
-703.572	-163.331	0.363	-0.017
-702.558	19.898	-0.226	-0.184
-701.543	-92.611	-0.090	-0.025
-700.529	23.201	-0.154	-0.127
-699.514	-139.699	0.135	-0.015
-698.499	2.628	-0.338	0.246
-697.485	800.000	-0.045	0.139
-696.470	-177.479	0.327	0.008
-695.456	-145.682	0.132	0.012
-694.441	663.457	0.008	0.020
-693.426	-2.192	0.343	0.243
-692.412	314.523	-0.191	-0.362
-691.397	-200.000	-0.010	0.255
-690.383	-146.604	-0.325	-0.028
-689.368	-200.000	0.010	-0.107
-688.354	-200.000	0.036	0.165
-687.339	479.891	-0.066	-0.151
-686.324	-152.491	-0.089	0.006
-685.310	-200.000	-0.029	-0.313
-684.295	758.428	0.144	-0.392
-683.281	47.411	0.328	-0.308
-682.266	130.600	-0.166	0.215
-681.251	59.631	0.302	0.299
-680.237	464.732	0.090	-0.202
-679.222	-48.071	0.333	-0.162
-678.208	-1.513	-0.358	0.254
-677.193	-16.727	-0.039	-0.025
-676.178	-60.867	-0.399	-0.170
-675.164	-64.014	-0.138	0.057
-674.149	-42.188	0.092	0.047
-673.135	383.193	0.115	-0.238
-672.120	290.697	-0.096	-0.176
-671.105	177.554	0.034	-0.049
-670.091	30.066	0.090	0.077
-669.076	-173.303	0.282	0.009
-668.062	-192.577	-0.136	-0.001
-667.047	-65.782	-0.124	0.050
-666.032	71.018	-0.177	-0.184
-665.018	187.982	-0.039	0.058
-664.003	125.256	0.085	-0.108
-662.989	-106.689	0.251	0.056
-661.974	615.812	0.042	-0.106
-660.959	154.740	-0.203	-0.281
-659.945	62.422	-0.123	-0.123
-658.930	-17.542	-0.113	0.071
-657.916	-51.851	-0.132	-0.062
-656.901	800.000	0.057	-0.183
-655.886	118.684	-0.160	-0.199
-654.872	135.303	0.058	-0.076
-653.857	18.929	-0.213	-0.172
-652.843	-65.135	-0.191	0.077
-651.828	345.397	0.040	-0.079
-650.814	463.705	0.062	-0.140
-649.799	-29.625	0.260	-0.149
-648.784	698.798	0.017	-0.045
-647.770	183.581	-0.046	-0.068
-646.755	-200.000	-0.014	0.120
-645.741	-135.622	0.058	0.007
-644.726	-82.769	-0.172	-0.056
-643.711	411.821	-0.036	0.077
-642.697	-111.469	-0.512	-0.105
-641.682	-200.000	0.022	-0.101
-640.668	-200.000	-0.010	0.308
-639.653	24.252	0.101	0.084
-638.638	47.512	-0.090	0.084
-637.624	800.000	-0.062	-0.200
-636.609	85.649	0.196	-0.217
-635.595	800.000	-0.068	-0.197
-634.580	-200.000	-0.030	-0.141
-633.565	64.363	-0.304	0.308
-632.551	-99.904	0.231	-0.058
-631.536	153.611	-0.126	-0.173
-630.522	45.833	0.126	0.117
-629.507	-70.421	0.075	-0.028
-628.492	-12.205	0.329	0.216
-627.478	190.558	-0.182	0.274
-626.463	48.976	0.142	0.134
-625.449	-200.000	-0.009	0.146
-624.434	-61.417	0.149	-0.063
-623.419	339.649	0.119	-0.234
-622.405	283.704	0.105	-0.190
-621.390	-200.000	-0.025	-0.342
-620.376	-81.720	-0.246	0.081
-619.361	380.295	-0.090	-0.186
-618.346	-151.462	0.354	-0.026
-617.332	463.932	-0.134	-0.301
-616.317	111.159	0.065	0.079
-615.303	46.093	0.351	-0.326
-614.288	20.170	-0.324	-0.263
-613.273	186.401	-0.107	-0.160
-612.259	-200.000	-0.020	0.260
-611.244	-38.982	-0.094	-0.050
-610.230	-200.000	0.124	-0.570
-609.215	-3.429	-0.051	-0.036
-608.201	65.071	-0.051	0.052
-607.186	153.683	-0.173	0.237
-606.171	800.000	0.025	0.111
-605.157	425.984	0.154	0.334
-604.142	-161.406	-0.308	-0.016
-603.128	295.711	0.055	0.101
-602.113	72.284	-0.067	-0.070
-601.098	-200.000	-0.039	0.278
-600.084	325.733	-0.111	-0.213
-599.069	-12.254	0.190	0.124
-598.055	83.989	0.288	0.315
-597.040	-200.000	-0.030	0.154
-596.025	-57.491	-0.300	0.132
-595.011	800.000	-0.099	-0.410
-593.996	-140.920	0.192	-0.020
-592.982	-11.133	0.291	-0.193
-591.967	37.399	0.211	-0.188
-590.952	12.019	-0.325	0.251
-589.938	-38.080	0.298	-0.159
-588.923	-5.846	-0.069	-0.048
-587.909	800.000	-0.041	-0.129
-586.894	-200.000	0.025	-0.193
-585.879	459.868	0.037	-0.082
-584.865	42.819	0.168	0.153
-583.850	496.855	-0.153	0.352
-582.836	-200.000	0.040	0.311
-581.821	-120.649	-0.468	-0.079
-580.806	-101.752	0.248	0.060
-579.792	311.846	0.100	-0.189
-578.777	-200.000	-0.009	-0.357
-577.763	-49.138	-0.147	0.071
-576.748	-56.156	-0.205	-0.092
-575.733	-92.421	-0.265	-0.075
-574.719	800.000	-0.044	0.189
-573.704	-29.290	-0.098	-0.056
-572.690	167.151	-0.094	-0.134
-571.675	-111.467	0.243	-0.050
-570.661	-87.140	-0.237	0.072
-569.646	-200.000	-0.041	-0.273
-568.631	-141.620	0.347	0.035
-567.617	800.000	0.042	-0.126
-566.602	75.966	-0.230	-0.243
-565.588	-200.000	0.091	-0.516
-564.573	800.000	-0.050	0.165
-563.558	800.000	0.055	-0.180
-562.544	-200.000	-0.020	-0.145
-561.529	485.959	-0.061	-0.140
-560.515	182.718	0.086	-0.127
-559.500	-51.482	-0.456	-0.213
-558.485	-44.190	-0.118	0.059
-557.471	-162.879	0.055	0.003
-556.456	-200.000	-0.030	-0.145
-555.442	517.942	0.097	-0.227
-554.427	-147.001	-0.263	-0.023
-553.412	-19.293	0.073	-0.045
-552.398	-200.000	0.007	0.079
-551.383	800.000	0.090	0.256
-550.369	-19.075	0.294	0.183
-549.354	-200.000	-0.065	0.303
-548.339	-128.613	0.146	-0.021
-547.325	-96.226	0.234	0.062
-546.310	95.183	-0.240	-0.274
-545.296	-26.663	-0.220	-0.129
-544.281	-70.761	-0.063	-0.024
-543.266	-200.000	0.055	-0.414
-542.252	-200.000	-0.127	-0.000
-541.237	-200.000	0.002	0.259
-540.223	-138.833	-0.304	-0.033
-539.208	-200.000	0.056	0.249
-538.193	-6.818	-0.184	-0.125
-537.179	-88.979	0.252	0.075
-536.164	90.262	0.154	-0.173
-535.150	-62.203	-0.329	-0.137
-534.135	-130.079	0.248	-0.034
-533.121	-32.657	-0.070	0.039
-532.106	-200.000	0.012	-0.204
-531.091	277.812	0.050	-0.089
-530.077	316.099	0.138	-0.261
-529.062	-200.000	0.020	-0.283
-528.048	35.904	-0.051	-0.045
-527.033	-200.000	0.041	0.198
-526.018	-200.000	0.028	-0.175
-525.004	-14.887	0.148	0.095
-523.989	-200.000	-0.024	0.304
-522.975	185.639	0.147	-0.219
-521.960	-200.000	0.055	-0.347
-520.945	-197.942	-0.378	0.002
-519.931	29.559	0.052	0.045
-518.916	800.000	-0.036	0.135
-517.902	-73.672	0.308	-0.112
-516.887	-199.236	-0.105	-0.001
-515.872	27.734	0.230	0.194
-514.858	-73.064	0.219	0.080
-513.843	22.911	-0.123	-0.101
-512.829	-5.299	0.187	0.128
-511.814	53.052	-0.343	-0.329
-510.799	-78.702	0.140	0.048
-509.785	545.638	0.083	0.199
-508.770	-82.694	-0.263	0.085
-507.756	-55.346	0.298	0.134
-506.741	-111.811	-0.330	-0.067
-505.726	-72.716	0.123	0.045
-504.712	71.771	0.123	0.128
-503.697	-121.214	0.238	0.040
-502.683	-200.000	-0.001	0.301
-501.668	-96.730	0.125	0.033
-500.653	668.498	0.141	0.365
-499.639	514.009	-0.063	-0.148
-498.624	-83.999	0.349	-0.111
-497.610	-200.000	0.095	0.439
-496.595	800.000	-0.165	-0.584
-495.581	-198.519	0.143	0.001
-494.566	800.000	-0.135	0.410
-493.551	202.795	0.265	-0.410
-492.537	547.536	-0.088	0.212
-491.522	-83.859	0.179	-0.057
-490.508	72.690	0.145	0.151
-489.493	-53.385	-0.117	-0.054
-488.478	-150.947	0.308	-0.023
-487.464	-200.000	-0.018	-0.185
-486.449	-48.657	0.100	-0.048
-485.435	-200.000	-0.003	-0.063
-484.420	275.918	0.124	0.220
-483.405	-200.000	-0.005	0.071
-482.391	800.000	0.067	-0.222
-481.376	10.066	-0.531	0.403
-480.362	-200.000	-0.004	0.083
-479.347	800.000	-0.095	-0.351
-478.332	-17.103	0.317	0.200
-477.318	588.330	-0.076	0.187
-476.303	30.729	-0.180	0.154
-475.289	-56.789	-0.070	0.031
-474.274	85.274	0.193	0.211
-473.259	-200.000	0.008	0.097
-472.245	-105.989	0.108	-0.024
-471.230	182.919	-0.148	0.219
-470.216	170.182	-0.054	0.078
-469.201	43.181	0.118	-0.107
-468.186	-197.730	-0.166	-0.001
-467.172	68.773	-0.058	0.059
-466.157	144.374	-0.064	-0.086
-465.143	-200.000	-0.004	-0.057
-464.128	-65.730	0.194	-0.078
-463.113	79.138	-0.096	-0.102
-462.099	263.054	-0.052	0.090
-461.084	14.416	0.114	-0.088
-460.070	790.035	-0.067	0.184
-459.055	-45.263	-0.247	0.122
-458.040	-162.820	0.244	0.012
-457.026	-200.000	-0.014	0.080
-456.011	63.310	-0.181	-0.181
-454.997	-76.941	-0.408	-0.142
-453.982	800.000	-0.050	0.160
-452.968	-101.519	0.294	0.071
-451.953	13.517	-0.225	0.174
-450.938	-159.636	-0.189	0.010
-449.924	327.546	-0.042	0.080
-448.909	-200.000	-0.021	0.300
-447.895	-27.402	-0.234	-0.136
-446.880	-26.161	-0.149	-0.087
-445.865	33.691	-0.168	-0.146
-444.851	12.513	-0.101	0.077
-443.836	800.000	-0.085	-0.281
-442.822	-29.899	-0.376	0.214
-441.807	223.877	0.017	-0.027
-440.792	-172.539	0.097	-0.003
-439.778	10.728	-0.183	-0.139
-438.763	8.506	0.096	-0.072
-437.749	-200.000	0.013	-0.140
-436.734	-200.000	0.058	-0.431
-435.719	-0.301	0.099	-0.070
-434.705	-200.000	-0.000	0.128
-433.690	-63.362	0.170	0.070
-432.676	171.236	0.146	-0.209
-431.661	-123.517	0.080	0.013
-430.646	-58.099	0.075	-0.033
-429.632	-125.530	0.127	0.019
-428.617	-148.307	0.357	-0.029
-427.603	-130.734	0.110	0.015
-426.588	-200.000	0.031	-0.196
-425.573	800.000	0.043	-0.141
-424.559	-131.823	0.283	-0.037
-423.544	-200.000	-0.002	0.281
-422.530	149.218	0.111	-0.149
-421.515	-144.788	0.222	-0.020
-420.500	150.746	-0.135	0.183
-419.486	154.094	-0.085	-0.116
-418.471	800.000	-0.085	-0.296
-417.457	514.344	-0.044	0.101
-416.442	800.000	0.071	-0.281
-415.428	25.877	-0.168	-0.140
-414.413	-77.195	-0.167	-0.058
-413.398	-128.209	0.289	0.041
-412.384	-73.309	-0.157	0.057
-411.369	-135.992	0.291	-0.034
-410.355	33.242	-0.153	-0.132
-409.340	800.000	-0.053	0.150
-408.325	-72.270	-0.292	-0.108
-407.311	278.919	0.046	-0.082
-406.296	800.000	-0.098	0.393
-405.282	-131.002	0.178	-0.024
-404.267	99.152	-0.153	0.176
-403.252	-139.985	-0.224	-0.024
-402.238	-65.696	0.159	-0.064
-401.223	-200.000	0.037	0.502
-400.209	-33.220	0.139	0.077
-399.194	-200.000	-0.005	0.123
-398.179	108.938	0.219	0.261
-397.165	-200.000	-0.030	0.136
-396.150	54.811	-0.096	0.092
-395.136	800.000	-0.044	0.179
-394.121	45.669	0.132	0.122
-393.106	2.934	0.235	0.170
-392.092	800.000	0.026	-0.086
-391.077	3.881	0.155	0.112
-390.063	55.486	-0.164	0.158
-389.048	58.973	-0.050	0.049
-388.033	-1.148	-0.063	0.044
-387.019	-166.872	-0.231	-0.009
-386.004	-94.293	-0.123	0.033
-384.990	-21.771	-0.175	-0.106
-383.975	-102.980	0.081	0.019
-382.960	26.134	0.076	-0.063
-381.946	-200.000	0.037	-0.256
-380.931	74.995	0.184	0.193
-379.917	21.939	-0.190	0.154
-378.902	499.544	-0.090	-0.207
-377.888	120.645	0.300	0.371
-376.873	-200.000	0.021	-0.159
-375.858	-121.544	-0.629	0.104
-374.844	-72.138	0.061	0.022
-373.829	59.786	0.126	-0.124
-372.815	-200.000	0.009	0.440
-371.800	22.340	0.074	0.060
-370.785	561.888	0.115	-0.278
-369.771	119.779	0.178	-0.219
-368.756	62.791	0.108	-0.108
-367.742	-140.944	-0.390	0.040
-366.727	81.868	-0.115	-0.124
-365.712	800.000	-0.043	-0.138
-364.698	-71.741	-0.298	-0.111
-363.683	-29.287	0.341	0.194
-362.669	166.068	-0.091	0.128
-361.654	800.000	0.055	0.167
-360.639	-121.043	-0.056	-0.009
-359.625	-136.540	0.204	-0.024
-358.610	-200.000	0.003	-0.103
-357.596	800.000	0.050	-0.201
-356.581	-52.155	0.140	0.064
-355.566	69.407	-0.178	0.182
-354.552	258.888	0.200	0.342
-353.537	189.902	-0.096	-0.143
-352.523	-21.918	-0.368	-0.222
-351.508	-34.979	0.345	-0.187
-350.493	800.000	0.101	0.342
-349.479	131.720	-0.152	0.195
-348.464	326.633	-0.077	0.147
-347.450	228.406	0.137	0.222
-346.435	758.455	0.068	0.183
-345.420	800.000	0.071	0.251
-344.406	-151.819	-0.481	0.035
-343.391	-19.487	-0.245	0.151
-342.377	-200.000	-0.013	0.379
-341.362	-42.335	0.052	-0.026
-340.348	-200.000	-0.006	-0.128
-339.333	609.943	-0.143	0.355
-338.318	-129.109	0.212	0.029
-337.304	219.606	0.084	-0.134
-336.289	-185.210	0.277	-0.004
-335.275	800.000	0.046	0.171
-334.260	574.155	-0.032	0.077
-333.245	98.033	-0.101	-0.116
-332.231	67.409	-0.076	0.077
-331.216	294.903	0.039	-0.071
-330.202	90.860	0.213	-0.237
-329.187	-135.248	0.093	-0.011
-328.172	304.070	0.117	0.215
-327.158	-56.253	0.163	-0.072
-326.143	6.135	-0.142	-0.104
-325.129	155.571	0.056	-0.076
-324.114	-200.000	-0.006	-0.257
-323.099	68.305	-0.182	-0.185
-322.085	-109.437	0.157	0.033
-321.070	800.000	-0.061	-0.203
-320.056	-200.000	0.075	-0.417
-319.041	-200.000	-0.050	0.410
-318.026	-200.000	0.001	0.004
-317.012	58.860	-0.189	-0.185
-315.997	800.000	0.029	0.110
-314.983	-58.679	0.117	0.050
-313.968	-200.000	0.048	-0.247
-312.953	646.163	0.035	0.089
-311.939	-9.425	-0.117	-0.078
-310.924	87.977	0.122	0.134
-309.910	161.757	-0.187	0.260
-308.895	-61.603	-0.340	0.142
-307.880	-53.966	-0.235	-0.106
-306.866	-195.762	0.178	-0.001
-305.851	-138.151	0.352	0.039
-304.837	19.735	0.198	-0.158
-303.822	800.000	0.103	0.293
-302.807	106.989	-0.114	-0.134
-301.793	-200.000	-0.046	0.424
-300.778	85.753	-0.132	0.144
-299.764	97.770	-0.296	-0.338
-298.749	482.846	-0.071	-0.160
-297.735	-200.000	0.022	-0.187
-296.720	32.804	0.188	0.161
-295.705	-54.281	-0.116	-0.052
-294.691	-93.543	0.171	0.047
-293.676	37.721	-0.092	-0.081
-292.662	-200.000	0.014	0.111
-291.647	800.000	-0.064	-0.187
-290.632	-75.963	-0.238	-0.084
-289.618	257.069	-0.189	-0.322
-288.603	122.312	-0.188	0.232
-287.589	-51.265	-0.119	-0.055
-286.574	800.000	0.043	-0.123
-285.559	-58.750	0.163	-0.070
-284.545	164.918	-0.122	-0.171
-283.530	194.193	-0.065	-0.097
-282.516	-49.195	0.135	-0.064
-281.501	109.407	-0.166	0.197
-280.486	-24.570	-0.147	0.087
-279.472	210.652	-0.140	-0.219
-278.457	15.966	0.230	-0.179
-277.443	24.962	0.138	0.114
-276.428	-190.459	0.104	-0.001
-275.413	800.000	-0.013	0.036
-274.399	-137.743	-0.507	0.056
-273.384	97.058	-0.143	-0.163
-272.370	548.759	-0.187	0.445
-271.355	-17.548	0.353	0.220
-270.340	-200.000	0.027	-0.246
-269.326	-200.000	-0.014	0.112
-268.311	-9.990	0.155	-0.102
-267.297	435.636	0.099	0.212
-266.282	-99.010	-0.260	0.065
-265.267	800.000	-0.072	-0.221
-264.253	800.000	0.081	0.303
-263.238	625.614	0.112	0.279
-262.224	74.905	0.341	0.355
-261.209	-119.808	-0.346	0.059
-260.195	-18.006	0.269	-0.167
-259.180	81.503	0.218	-0.234
-258.165	127.595	-0.188	0.236
-257.151	-200.000	0.004	-0.368
-256.136	75.333	0.189	-0.197
-255.122	-42.961	0.242	0.121
-254.107	104.948	0.256	0.299
-253.092	499.521	-0.095	-0.217
-252.078	-92.692	0.339	-0.094
-251.063	-100.987	0.400	-0.097
-250.049	-142.538	0.202	-0.020
-249.034	800.000	0.103	-0.356
-248.019	-15.048	0.126	0.080
-247.005	64.700	0.075	-0.075
-245.990	-108.597	0.181	-0.038
-244.976	18.152	0.153	-0.121
-243.961	205.314	0.108	-0.166
-242.946	-22.872	-0.217	0.130
-241.932	-13.974	-0.237	0.151
-240.917	403.468	-0.140	0.292
-239.903	448.083	0.130	0.282
-238.888	-87.441	0.138	0.041
-237.873	-47.685	0.236	-0.113
-236.859	144.616	-0.066	0.087
-235.844	800.000	-0.018	0.069
-234.830	800.000	-0.038	-0.162
-233.815	-200.000	0.006	-0.081
-232.800	-118.806	-0.158	0.027
-231.786	-100.428	0.143	0.035
-230.771	513.906	0.084	0.194
-229.757	-200.000	-0.024	0.266
-228.742	-104.202	-0.286	-0.066
-227.727	-29.865	-0.131	0.074
-226.713	-78.517	-0.272	0.092
-225.698	181.135	0.124	-0.181
-224.684	186.575	0.217	-0.320
-223.669	-200.000	0.016	0.143
-222.655	525.170	-0.088	0.204
-221.640	-200.000	0.011	-0.153
-220.625	234.985	-0.136	-0.222
-219.611	-141.203	-0.202	0.020
-218.596	-111.820	0.178	0.036
-217.582	-17.973	0.345	-0.214
-216.567	192.195	-0.145	0.217
-215.552	-200.000	-0.023	0.134
-214.538	8.186	0.133	-0.099
-213.523	-200.000	-0.012	-0.140
-212.509	99.126	0.088	-0.100
-211.494	-175.308	-0.194	-0.005
-210.479	800.000	0.052	0.215
-209.465	397.459	0.041	-0.085
-208.450	-10.078	-0.293	0.193
-207.436	-106.676	-0.231	-0.051
-206.421	800.000	0.086	-0.242
-205.406	-55.269	-0.139	0.062
-204.392	186.889	-0.100	0.147
-203.377	-46.144	0.110	-0.053
-202.363	-146.683	0.336	-0.029
-201.348	-159.167	-0.502	0.028
-200.333	268.197	-0.059	0.101
-199.319	-65.013	0.070	-0.028
-198.304	-200.000	0.019	-0.199
-197.290	48.778	-0.069	-0.064
-196.275	-126.630	-0.406	-0.059
-195.260	-109.621	-0.158	0.033
-194.246	-187.547	-0.144	-0.002
-193.231	-69.216	-0.094	-0.036
-192.217	420.313	0.159	0.337
-191.202	-60.611	0.248	0.104
-190.187	-200.000	0.051	-0.317
-189.173	119.785	-0.127	-0.155
-188.158	-200.000	-0.002	-0.007
-187.144	-81.396	-0.083	0.027
-186.129	77.384	-0.049	-0.051
-185.114	-33.273	0.429	0.235
-184.100	-79.212	-0.131	-0.044
-183.085	-146.269	-0.134	0.012
-182.071	-0.214	0.094	0.066
-181.056	-200.000	-0.031	-0.224
-180.042	143.846	0.110	-0.145
-179.027	-73.553	0.149	0.054
-178.012	24.321	-0.087	0.071
-176.998	781.419	0.126	0.341
-175.983	154.099	-0.119	-0.161
-174.969	86.244	-0.117	0.127
-173.954	2.483	-0.076	0.055
-172.939	121.274	-0.147	-0.181
-171.925	25.934	-0.169	-0.139
-170.910	88.174	-0.053	-0.058
-169.896	800.000	0.056	-0.224
-168.881	-39.320	-0.142	0.073
-167.866	-6.750	-0.143	0.096
-166.852	800.000	-0.067	-0.212
-165.837	-200.000	0.016	0.230
-164.823	800.000	0.065	0.221
-163.808	-24.066	0.048	0.028
-162.793	800.000	0.097	0.308
-161.779	800.000	0.042	0.144
-160.764	62.932	0.088	-0.087
-159.750	-24.875	-0.194	-0.114
-158.735	-53.786	0.182	-0.082
-157.720	-200.000	0.011	0.083
-156.706	51.810	0.127	-0.119
-155.691	-200.000	0.068	0.512
-154.677	-134.122	-0.172	0.021
-153.662	-17.733	0.142	-0.088
-152.647	-31.875	0.121	0.067
-151.633	-68.239	0.231	-0.089
-150.618	-64.839	0.130	-0.052
-149.604	800.000	-0.069	0.207
-148.589	348.533	-0.110	-0.214
-147.574	-89.834	-0.105	-0.030
-146.560	575.719	0.061	-0.147
-145.545	-200.000	-0.011	0.055
-144.531	-89.138	0.169	0.049
-143.516	94.500	-0.190	0.213
-142.502	-108.131	-0.173	-0.037
-141.487	-21.843	0.458	0.275
-140.472	-11.078	-0.182	-0.119
-139.458	356.698	0.117	-0.231
-138.443	-37.083	0.195	-0.103
-137.429	25.779	0.196	0.161
-136.414	-105.706	0.264	-0.059
-135.399	-6.096	-0.049	-0.033
-134.385	-186.375	0.278	-0.004
-133.370	211.599	0.059	0.091
-132.356	-200.000	-0.019	0.181
-131.341	538.089	0.109	0.255
-130.326	-200.000	-0.041	0.358
-129.312	-170.967	-0.164	0.006
-128.297	-200.000	-0.011	-0.286
-127.283	350.628	-0.028	-0.055
-126.268	-200.000	-0.070	-0.477
-125.253	681.325	0.162	-0.416
-124.239	-200.000	-0.003	-0.027
-123.224	800.000	0.090	-0.331
-122.210	222.778	0.116	0.184
