DTS Sentinel unit serial number:	SN413079Multiplexer serial number:	ORYXHardware model number:	OX4-SRSoftware version number:	ORYX F/W v4.00 Oryx Data Collector v3.7.2.0data status	okinstallation	princeton_trtdifferential loss correction	single-endedforward channel	channel 3reverse channel	N/Adate	2019/09/13time	07:20:34forward acquisition time	60.00reverse acquisition time	0.00gamma	496.2192k internal	0.2338k external	0.2338temperature offset calibration	1.0138default loss term (dB/km)	0.3790temperature slope calibration	1.0000multiplexer offset coefficient	1.0000multiplexer slope coefficient	1.0000fibre end	0.00T internal ref (°C)	26.08T ext. ref 1 (°C)	4.17T ext. ref 2 (°C)	21.61length (m)	temperature (°C)	Stokes	anti-Stokes-747.200	-91.345	0.113	0.033
-746.185	49.042	-0.056	0.052
-745.171	-136.582	-0.056	0.007
-744.156	-110.609	-0.121	-0.025
-743.142	327.212	-0.055	0.105
-742.127	19.429	-0.189	0.152
-741.112	-24.081	0.328	0.197
-740.098	202.680	0.193	0.299
-739.083	193.136	0.026	0.040
-738.069	-143.653	-0.324	0.031
-737.054	-33.070	0.226	-0.126
-736.039	-110.908	0.074	0.015
-735.025	800.000	0.029	0.116
-734.010	79.188	-0.160	0.172
-732.996	20.672	-0.270	0.219
-731.981	-123.312	-0.253	0.040
-730.966	-200.000	0.018	0.224
-729.952	196.647	-0.117	0.179
-728.937	-33.102	-0.261	0.145
-727.923	-19.205	0.085	-0.053
-726.908	13.470	-0.098	-0.076
-725.894	-146.661	-0.232	0.020
-724.879	248.881	-0.241	-0.410
-723.864	-200.000	-0.015	-0.071
-722.850	96.709	0.197	0.227
-721.835	33.726	-0.200	0.174
-720.821	-42.779	0.332	-0.169
-719.806	-27.398	0.218	-0.127
-718.791	36.299	-0.175	-0.155
-717.777	-88.486	0.422	0.126
-716.762	-200.000	0.018	0.273
-715.748	364.052	-0.179	-0.360
-714.733	-152.196	-0.069	-0.005
-713.718	-101.858	0.042	-0.010
-712.704	800.000	0.110	0.308
-711.689	128.939	0.124	-0.159
-710.675	229.084	-0.173	-0.283
-709.660	-149.286	-0.419	0.034
-708.645	800.000	0.024	-0.093
-707.631	-155.615	0.217	0.014
-706.616	-200.000	0.006	0.419
-705.602	-123.681	0.361	0.057
-704.587	316.092	-0.105	-0.199
-703.572	-84.194	-0.053	-0.017
-702.558	-200.000	0.047	-0.366
-701.543	-200.000	-0.034	-0.148
-700.529	-144.274	0.027	0.003
-699.514	800.000	0.103	0.353
-698.499	-200.000	0.009	-0.363
-697.485	83.040	0.090	-0.098
-696.470	423.558	0.031	-0.067
-695.456	146.211	-0.086	-0.116
-694.441	-200.000	0.041	-0.422
-693.426	-70.496	0.253	-0.096
-692.412	800.000	0.022	-0.070
-691.397	800.000	0.050	0.200
-690.383	-160.154	-0.175	0.010
-689.368	-124.135	-0.070	0.011
-688.354	-200.000	0.029	-0.155
-687.339	-99.280	-0.280	0.071
-686.324	-88.272	-0.182	0.055
-685.310	-80.933	-0.246	0.082
-684.295	319.170	0.047	0.089
-683.281	800.000	-0.045	-0.150
-682.266	-200.000	0.005	-0.240
-681.251	-200.000	0.042	-0.343
-680.237	-34.619	-0.218	0.119
-679.222	188.124	-0.131	-0.195
-678.208	-93.945	-0.174	-0.048
-677.193	-200.000	-0.007	0.185
-676.178	587.257	-0.164	-0.404
-675.164	-200.000	0.004	-0.358
-674.149	375.178	-0.138	-0.281
-673.135	-200.000	0.014	0.074
-672.120	-85.462	-0.077	0.024
-671.105	-200.000	-0.043	-0.199
-670.091	-22.796	-0.297	-0.179
-669.076	5.431	-0.312	0.230
-668.062	-200.000	0.007	-0.261
-667.047	-109.335	0.416	-0.088
-666.032	-40.322	-0.134	-0.070
-665.018	-200.000	-0.005	-0.373
-664.003	-34.531	-0.131	-0.072
-662.989	-86.457	-0.198	-0.061
-661.974	800.000	-0.039	-0.150
-660.959	62.331	-0.142	0.141
-659.945	-200.000	0.472	-0.001
-658.930	-46.071	-0.160	-0.079
-657.916	-200.000	0.068	0.323
-656.901	218.955	0.057	-0.091
-655.886	800.000	-0.086	-0.372
-654.872	6.247	-0.039	0.029
-653.857	-200.000	0.025	0.185
-652.843	62.151	0.130	-0.130
-651.828	800.000	-0.085	-0.369
-650.814	305.709	0.193	0.358
-649.799	36.879	-0.158	0.140
-648.784	-44.451	0.272	0.136
-647.770	515.333	-0.026	-0.061
-646.755	-24.681	-0.322	0.191
-645.741	48.723	0.132	-0.124
-644.726	-149.674	0.120	-0.009
-643.711	1.279	0.203	0.146
-642.697	-200.000	-0.022	0.103
-641.682	-92.738	-0.248	-0.069
-640.668	-50.105	0.065	0.031
-639.653	294.181	-0.045	-0.082
-638.638	358.282	-0.099	0.197
-637.624	553.537	0.118	-0.285
-636.609	800.000	0.006	0.018
-635.595	-55.273	0.168	-0.076
-634.580	261.062	0.050	0.087
-633.565	-163.191	0.086	-0.004
-632.551	-185.449	-0.146	0.002
-631.536	95.489	-0.142	0.162
-630.522	-200.000	-0.021	-0.166
-629.507	17.125	-0.208	-0.165
-628.492	-30.238	-0.156	0.088
-627.478	-200.000	0.018	0.118
-626.463	142.159	-0.196	-0.260
-625.449	-45.119	0.263	-0.131
-624.434	-11.395	0.134	0.088
-623.419	203.913	0.178	-0.275
-622.405	787.936	-0.161	-0.441
-621.390	419.757	0.111	0.238
-620.376	0.480	-0.175	-0.125
-619.361	800.000	-0.031	0.115
-618.346	-3.833	-0.291	0.201
-617.332	79.823	-0.156	0.167
-616.317	12.114	-0.084	-0.064
-615.303	-200.000	0.009	-0.060
-614.288	-93.409	0.178	0.049
-613.273	28.766	0.092	0.078
-612.259	290.174	-0.043	-0.078
-611.244	-200.000	-0.054	-0.305
-610.230	-49.532	-0.231	0.110
-609.215	483.630	-0.112	0.254
-608.201	800.000	-0.069	-0.221
-607.186	-81.551	-0.326	0.107
-606.171	-200.000	0.064	-0.327
-605.157	-55.228	-0.197	-0.088
-604.142	-8.527	0.336	-0.225
-603.128	-200.000	-0.009	-0.351
-602.113	-200.000	0.002	0.445
-601.098	512.157	-0.045	0.105
-600.084	-200.000	0.023	0.202
-599.069	-71.528	-0.177	-0.066
-598.055	-51.652	-0.083	-0.038
-597.040	556.830	-0.093	-0.223
-596.025	-9.513	-0.181	-0.121
-595.011	169.921	-0.160	-0.229
-593.996	294.222	0.134	-0.245
-592.982	664.765	0.145	-0.374
-591.967	-200.000	-0.008	-0.305
-590.952	0.065	0.168	-0.120
-589.938	-113.778	-0.219	-0.043
-588.923	55.735	-0.249	-0.241
-587.909	359.709	-0.094	-0.187
-586.894	-200.000	-0.005	-0.027
-585.879	41.391	-0.071	0.064
-584.865	669.679	0.070	-0.181
-583.850	-78.506	-0.152	0.052
-582.836	183.779	0.178	-0.263
-581.821	-200.000	0.024	-0.216
-580.806	113.909	0.197	-0.239
-579.792	-141.903	0.223	-0.022
-578.777	-200.000	-0.002	0.049
-577.763	-112.962	-0.089	0.018
-576.748	-130.583	0.146	0.020
-575.733	-128.874	0.138	-0.019
-574.719	249.708	0.112	0.190
-573.704	-49.840	-0.133	-0.063
-572.690	-101.351	-0.260	0.063
-571.675	55.714	-0.081	-0.078
-570.661	800.000	0.050	0.151
-569.646	-200.000	-0.011	-0.118
-568.631	-200.000	-0.021	0.198
-567.617	-106.094	-0.218	0.049
-566.602	-19.608	0.107	0.066
-565.588	-92.891	0.115	-0.032
-564.573	-200.000	0.029	-0.172
-563.558	800.000	-0.115	-0.320
-562.544	-162.134	0.190	0.010
-561.529	-200.000	0.020	0.205
-560.515	-106.359	0.084	-0.019
-559.500	-160.966	-0.326	-0.017
-558.485	81.776	0.020	0.021
-557.471	-200.000	0.030	0.148
-556.456	4.001	-0.138	0.101
-555.442	264.607	-0.036	0.062
-554.427	-4.647	0.090	0.062
-553.412	132.561	-0.165	0.211
-552.398	-15.573	-0.354	0.225
-551.383	-48.885	-0.350	-0.167
-550.369	-200.000	-0.026	0.153
-549.354	-46.792	0.193	0.094
-548.339	800.000	-0.050	-0.153
-547.325	-123.276	-0.156	0.025
-546.310	-45.286	0.170	-0.084
-545.296	-74.862	-0.310	0.111
-544.281	-200.000	0.001	0.321
-543.266	-103.207	0.161	0.038
-542.252	-200.000	-0.013	-0.092
-541.237	-200.000	0.010	0.052
-540.223	-124.985	-0.253	-0.039
-539.208	-92.956	-0.195	-0.054
-538.193	-9.462	0.104	0.069
-537.179	-167.016	0.219	0.009
-536.164	800.000	0.076	-0.278
-535.150	800.000	-0.142	-0.435
-534.135	334.931	0.107	-0.206
-533.121	-105.879	-0.112	0.025
-532.106	-156.762	-0.312	0.019
-531.091	-38.942	-0.171	-0.090
-530.077	22.780	0.199	0.163
-529.062	-200.000	-0.013	0.061
-528.048	28.467	0.081	0.068
-527.033	23.076	-0.148	0.121
-526.018	233.746	-0.120	-0.196
-525.004	-200.000	0.023	-0.298
-523.989	238.091	-0.202	-0.334
-522.975	-115.843	0.108	0.020
-521.960	39.920	0.076	0.068
-520.945	-80.819	-0.265	-0.088
-519.931	253.203	0.016	0.028
-518.916	-200.000	0.050	0.283
-517.902	266.072	0.078	0.135
-516.887	226.669	0.112	-0.181
-515.872	-85.513	-0.248	0.077
-514.858	-10.841	-0.294	0.193
-513.843	139.361	-0.040	0.052
-512.829	123.396	0.222	-0.276
-511.814	-68.277	-0.334	-0.129
-510.799	800.000	-0.087	-0.271
-509.785	89.925	-0.090	0.100
-508.770	421.491	-0.030	0.064
-507.756	-27.474	-0.269	0.156
-506.741	-93.816	0.151	-0.041
-505.726	9.292	-0.155	-0.116
-504.712	533.867	0.106	-0.250
-503.697	-109.438	-0.111	-0.023
-502.683	-191.720	0.122	0.001
-501.668	438.276	0.083	0.181
-500.653	-66.524	0.367	-0.145
-499.639	-131.533	0.135	0.018
-498.624	275.223	0.163	-0.288
-497.610	-82.061	-0.342	0.111
-496.595	259.344	0.068	0.117
-495.581	-34.806	-0.174	-0.094
-494.566	-200.000	0.035	0.215
-493.551	-131.178	-0.046	-0.006
-492.537	-137.718	0.290	0.032
-491.522	-2.432	0.177	-0.123
-490.508	70.699	-0.203	-0.208
-489.493	233.797	-0.091	0.148
-488.478	54.405	0.122	-0.116
-487.464	-153.418	-0.346	-0.024
-486.449	-16.532	-0.256	0.161
-485.435	-200.000	-0.029	0.426
-484.420	160.115	0.173	-0.239
-483.405	-106.971	-0.396	-0.087
-482.391	-200.000	0.038	0.210
-481.376	-87.664	-0.429	-0.129
-480.362	57.187	0.116	-0.112
-479.347	354.956	0.050	0.098
-478.332	-93.141	-0.162	0.045
-477.318	-60.321	0.116	0.049
-476.303	-200.000	0.079	0.351
-475.289	-200.000	-0.046	0.339
-474.274	-16.646	0.124	0.078
-473.259	316.815	-0.092	0.173
-472.245	-200.000	0.021	0.234
-471.230	-165.376	0.163	-0.007
-470.216	14.963	-0.042	0.032
-469.201	-200.000	-0.022	0.229
-468.186	-63.959	0.201	0.081
-467.172	-192.478	0.093	-0.001
-466.157	524.836	0.106	0.247
-465.143	800.000	0.103	0.294
-464.128	800.000	0.073	-0.226
-463.113	-172.036	0.230	-0.007
-462.099	613.626	-0.064	-0.159
-461.084	-13.165	-0.162	0.104
-460.070	161.316	-0.056	-0.078
-459.055	-116.748	0.191	0.035
-458.040	2.563	0.249	0.179
-457.026	800.000	-0.106	-0.326
-456.011	89.095	0.161	0.178
-454.997	-200.000	0.000	0.025
-453.982	255.497	0.024	0.041
-452.968	-23.719	0.265	-0.158
-451.953	-200.000	0.004	-0.021
-450.938	124.829	0.035	-0.043
-449.924	-44.080	-0.097	0.048
-448.909	800.000	-0.088	0.303
-447.895	800.000	0.138	-0.426
-446.880	-113.568	-0.109	0.021
-445.865	800.000	-0.091	0.370
-444.851	-105.228	-0.155	0.035
-443.836	33.412	0.238	0.205
-442.822	-73.147	0.398	0.145
-441.807	33.667	0.379	0.327
-440.792	755.414	0.102	0.273
-439.778	437.112	-0.053	0.114
-438.763	200.522	0.044	-0.067
-437.749	7.224	0.066	0.049
-436.734	-40.875	-0.127	0.065
-435.719	-125.985	0.361	-0.054
-434.705	-200.000	0.011	0.295
-433.690	-126.530	0.225	-0.033
-432.676	-17.681	0.027	-0.017
-431.661	-18.718	-0.108	0.067
-430.646	-30.747	-0.141	0.079
-429.632	-200.000	0.001	0.075
-428.617	-200.000	-0.019	0.273
-427.603	207.342	-0.231	-0.357
-426.588	-200.000	0.004	0.128
-425.573	800.000	0.100	-0.283
-424.559	-200.000	0.093	-0.424
-423.544	-193.266	-0.154	0.001
-422.530	52.320	-0.249	-0.236
-421.515	-43.536	-0.265	-0.132
-420.500	565.766	0.053	0.128
-419.486	-113.136	0.156	-0.031
-418.471	71.167	-0.026	-0.026
-417.457	350.234	-0.107	0.209
-416.442	-164.589	-0.182	0.008
-415.428	-200.000	-0.021	0.117
-414.413	488.003	-0.059	-0.134
-413.398	45.592	-0.212	-0.194
-412.384	800.000	-0.034	0.111
-411.369	31.031	0.065	0.055
-410.355	800.000	-0.053	0.215
-409.340	-200.000	-0.005	-0.161
-408.325	800.000	-0.051	-0.201
-407.311	-159.758	0.267	0.015
-406.296	-60.252	0.101	0.043
-405.282	-9.860	-0.248	0.163
-404.267	-43.495	0.181	-0.091
-403.252	119.337	0.153	-0.187
-402.238	-200.000	0.030	-0.346
-401.223	639.027	0.114	-0.287
-400.209	95.583	0.117	0.133
-399.194	-200.000	-0.043	-0.463
-398.179	-200.000	0.027	-0.168
-397.165	-30.549	-0.221	0.124
-396.150	104.361	-0.144	-0.167
-395.136	800.000	0.068	-0.278
-394.121	629.590	0.069	-0.173
-393.106	89.091	0.143	-0.158
-392.092	-200.000	-0.009	0.222
-391.077	-161.445	0.299	-0.015
-390.063	-200.000	0.012	0.137
-389.048	630.770	-0.037	0.092
-388.033	800.000	0.075	0.269
-387.019	-200.000	-0.019	-0.296
-386.004	137.673	-0.236	-0.306
-384.990	391.595	0.077	0.157
-383.975	81.686	0.170	-0.182
-382.960	33.409	0.065	-0.055
-381.946	-56.267	0.420	0.185
-380.931	552.996	0.103	-0.245
-379.917	-35.067	-0.099	0.053
-378.902	800.000	0.132	0.412
-377.888	-26.032	-0.146	-0.085
-376.873	-200.000	-0.013	0.138
-375.858	48.042	0.231	-0.214
-374.844	355.186	0.035	0.068
-373.829	-16.299	0.241	0.151
-372.815	92.789	-0.307	0.343
-371.800	-160.075	0.278	-0.015
-370.785	51.762	0.201	-0.189
-369.771	-200.000	-0.047	-0.255
-368.756	-200.000	0.013	-0.186
-367.742	-141.768	-0.229	-0.023
-366.727	51.001	-0.108	0.101
-365.712	-83.546	-0.268	-0.085
-364.698	318.349	0.126	-0.236
-363.683	745.357	0.036	-0.095
-362.669	54.416	-0.045	-0.043
-361.654	-89.031	-0.422	0.123
-360.639	245.406	-0.078	-0.129
-359.625	-200.000	-0.003	-0.170
-358.610	-100.871	-0.328	-0.080
-357.596	111.794	0.102	-0.122
-356.581	-200.000	-0.006	0.359
-355.566	-60.296	-0.204	0.086
-354.552	113.997	0.303	-0.365
-353.537	800.000	-0.066	0.204
-352.523	-87.586	-0.056	0.017
-351.508	130.004	0.148	-0.187
-350.493	-66.134	0.233	-0.092
-349.479	306.816	-0.130	-0.239
-348.464	-200.000	0.019	-0.115
-347.450	-92.571	0.137	0.038
-346.435	-138.967	0.245	-0.026
-345.420	-112.012	0.122	0.024
-344.406	52.959	0.255	-0.241
-343.391	-163.920	0.142	0.007
-342.377	266.587	0.030	0.051
-341.362	-115.512	-0.302	-0.056
-340.348	800.000	-0.054	-0.158
-339.333	800.000	0.060	-0.220
-338.318	-116.550	0.225	-0.041
-337.304	-18.698	-0.070	-0.043
-336.289	-111.383	0.339	-0.068
-335.275	-111.030	-0.051	0.010
-334.260	-85.327	0.076	-0.023
-333.245	-7.869	0.208	0.139
-332.231	-75.506	-0.262	-0.092
-331.216	-200.000	-0.006	0.033
-330.202	258.349	-0.242	-0.412
-329.187	0.371	0.154	0.108
-328.172	800.000	0.068	0.253
-327.158	800.000	0.076	0.279
-326.143	-121.133	-0.146	-0.024
-325.129	-90.660	-0.376	-0.107
-324.114	-75.645	-0.221	-0.078
-323.099	289.356	0.135	-0.241
-322.085	-140.646	0.189	-0.019
-321.070	800.000	0.012	-0.044
-320.056	-104.338	-0.255	0.058
-319.041	741.157	-0.052	0.139
-318.026	451.748	-0.055	-0.120
-317.012	106.386	0.106	-0.124
-315.997	390.793	0.110	0.226
-314.983	15.795	-0.238	-0.185
-313.968	-200.000	0.073	0.401
-312.953	-176.987	-0.132	0.003
-311.939	74.900	-0.070	-0.073
-310.924	57.085	0.284	-0.273
-309.910	234.184	-0.033	-0.053
-308.895	-200.000	0.002	-0.173
-307.880	800.000	-0.101	0.348
-306.866	143.289	0.200	0.263
-305.851	-149.198	-0.186	0.015
-304.837	-32.055	0.042	0.023
-303.822	-200.000	0.054	0.238
-302.807	-200.000	0.011	-0.195
-301.793	-128.554	0.079	-0.011
-300.778	-200.000	-0.017	0.144
-299.764	756.734	-0.084	0.224
-298.749	800.000	0.031	-0.100
-297.735	-200.000	0.004	-0.232
-296.720	-99.448	0.025	0.006
-295.705	-42.820	0.209	0.105
-294.691	386.408	0.194	0.394
-293.676	-83.919	0.450	0.141
-292.662	-137.066	0.199	-0.022
-291.647	-96.064	0.064	0.017
-290.632	-200.000	-0.051	-0.293
-289.618	335.794	-0.066	0.126
-288.603	83.740	0.176	0.189
-287.589	-51.985	-0.183	0.084
-286.574	174.713	0.232	-0.331
-285.559	-200.000	0.015	-0.253
-284.545	-60.530	0.194	0.081
-283.530	-200.000	-0.011	0.241
-282.516	-200.000	-0.033	0.292
-281.501	15.758	0.118	0.091
-280.486	-200.000	0.039	-0.185
-279.472	-41.590	0.064	-0.032
-278.457	7.894	0.254	0.188
-277.443	-26.506	0.127	-0.073
-276.428	311.664	-0.056	0.103
-275.413	13.543	0.291	0.222
-274.399	-130.219	-0.406	-0.054
-273.384	-27.073	-0.252	0.145
-272.370	-93.232	-0.277	-0.076
-271.355	-168.114	-0.198	0.008
-270.340	-65.133	-0.154	0.061
-269.326	209.759	0.082	-0.126
-268.311	-197.545	0.247	0.002
-267.297	800.000	0.005	0.019
-266.282	-5.864	0.288	-0.194
-265.267	-101.377	-0.046	0.011
-264.253	-93.204	0.417	-0.114
-263.238	51.826	0.234	0.219
-262.224	51.770	0.274	0.256
-261.209	66.437	-0.080	-0.081
-260.195	156.084	-0.083	-0.113
-259.180	-53.876	-0.610	-0.274
-258.165	-37.099	0.114	0.060
-257.151	6.097	0.205	0.149
-256.136	-91.188	0.129	-0.036
-255.122	800.000	-0.059	-0.217
-254.107	-69.185	-0.074	-0.028
-253.092	800.000	-0.048	0.137
-252.078	-99.621	-0.275	-0.068
-251.063	175.204	0.270	0.384
-250.049	113.574	-0.194	-0.231
-249.034	-119.301	0.137	0.023
-248.019	20.185	0.342	-0.272
-247.005	134.146	-0.147	0.187
-245.990	138.313	0.097	-0.126
-244.976	-160.194	-0.028	-0.001
-243.961	-60.657	-0.109	0.046
-242.946	-133.243	-0.240	-0.030
-241.932	158.435	-0.132	0.180
-240.917	-150.297	0.023	-0.002
-239.903	46.815	0.305	0.279
-238.888	-200.000	0.008	0.132
-237.873	800.000	-0.054	0.174
-236.859	208.250	0.087	-0.133
-235.844	-64.132	0.301	-0.121
-234.830	-15.515	0.235	0.147
-233.815	-131.358	0.045	0.006
-232.800	3.778	-0.090	0.065
-231.786	227.235	-0.205	-0.328
-230.771	-200.000	0.026	-0.562
-229.757	800.000	0.051	0.190
-228.742	-200.000	0.038	-0.243
-227.727	-85.887	-0.184	-0.056
-226.713	-100.928	0.396	-0.096
-225.698	-150.509	-0.248	-0.019
-224.684	-64.364	0.192	-0.077
-223.669	-119.763	0.191	-0.032
-222.655	25.128	-0.241	-0.196
-221.640	-200.000	0.001	-0.278
-220.625	-45.270	-0.185	-0.090
-219.611	-120.000	-0.184	0.031
-218.596	56.661	-0.108	-0.104
-217.582	800.000	0.068	0.232
-216.567	-112.639	0.349	0.068
-215.552	-126.644	0.497	-0.072
-214.538	148.673	-0.196	0.260
-213.523	800.000	-0.067	0.262
-212.509	579.923	-0.032	-0.077
-211.494	-52.748	-0.231	0.105
-210.479	-141.425	0.027	0.003
-209.465	-77.304	0.105	0.036
-208.450	46.238	0.197	0.180
-207.436	170.326	-0.072	0.101
-206.421	-44.367	-0.276	-0.136
-205.406	-133.928	-0.405	0.049
-204.392	-196.484	-0.046	0.000
-203.377	800.000	-0.154	-0.488
-202.363	-200.000	0.019	0.192
-201.348	179.037	0.145	-0.209
-200.333	800.000	-0.082	0.324
-199.319	-113.724	0.305	0.058
-198.304	-128.465	0.275	-0.038
-197.290	99.097	0.102	0.115
-196.275	-193.294	-0.240	-0.002
-195.260	-36.387	0.075	0.040
-194.246	-7.600	-0.245	0.163
-193.231	44.695	0.267	0.241
-192.217	59.161	-0.145	-0.140
-191.202	182.858	0.099	-0.143
-190.187	-71.736	0.239	0.088
-189.173	102.198	-0.064	0.073
-188.158	-200.000	-0.012	0.298
-187.144	-200.000	-0.000	0.057
-186.129	-70.176	-0.043	-0.016
-185.114	-34.593	0.277	0.149
-184.100	-42.318	-0.280	-0.140
-183.085	364.691	-0.152	0.300
-182.071	224.997	0.263	0.418
-181.056	800.000	0.048	0.174
-180.042	-29.932	-0.116	-0.065
-179.027	-185.433	0.314	-0.005
-178.012	320.301	-0.062	-0.116
-176.998	53.426	-0.236	0.222
-175.983	223.829	-0.154	0.245
-174.969	47.715	-0.152	-0.139
-173.954	133.034	-0.082	0.104
-172.939	590.801	-0.108	-0.262
-171.925	-86.692	-0.173	-0.052
-170.910	-200.000	-0.025	0.253
-169.896	-200.000	-0.044	0.295
-168.881	31.840	0.180	0.152
-167.866	799.524	0.046	-0.125
-166.852	25.892	0.260	0.213
-165.837	470.663	-0.104	0.229
-164.823	125.700	-0.149	0.185
-163.808	179.986	-0.073	0.105
-162.793	-107.223	-0.118	0.026
-161.779	-18.805	-0.144	0.088
-160.764	-41.252	-0.133	0.067
-159.750	113.323	-0.110	0.131
-158.735	-200.000	-0.037	-0.250
-157.720	-41.291	0.367	0.185
-156.706	43.952	0.065	0.059
-155.691	406.515	0.113	0.233
-154.677	-29.199	-0.059	0.033
-153.662	0.528	0.073	0.051
-152.647	-200.000	0.007	0.162
-151.633	634.383	-0.028	-0.070
-150.618	-200.000	-0.067	0.327
-149.604	-67.622	-0.146	-0.056
-148.589	145.344	0.091	0.119
-147.574	197.416	0.175	-0.262
-146.560	235.068	-0.028	-0.046
-145.545	346.448	-0.027	-0.053
-144.531	-51.796	-0.350	0.160
-143.516	-15.011	-0.243	-0.152
-142.502	-200.000	0.003	-0.037
-141.487	418.377	0.111	0.233
-140.472	-200.000	0.023	0.251
-139.458	240.291	0.084	0.137
-138.443	97.791	0.161	0.181
-137.429	-200.000	-0.011	0.116
-136.414	-187.372	-0.189	-0.002
-135.399	325.008	0.061	-0.115
-134.385	30.597	0.175	0.147
-133.370	-86.639	-0.108	-0.032
-132.356	-71.083	0.157	-0.058
-131.341	116.973	-0.145	0.174
-130.326	659.510	-0.083	0.209
-129.312	-61.214	0.150	-0.062
-128.297	-46.476	0.235	-0.113
-127.283	800.000	0.006	-0.020
-126.268	-200.000	-0.035	0.218
-125.253	800.000	0.125	-0.390
-124.239	366.814	-0.139	-0.275
-123.224	-124.013	-0.110	0.017
-122.210	-53.905	-0.118	0.053
-121.195	529.683	0.050	0.117
