DTS Sentinel unit serial number:	SN413079Multiplexer serial number:	ORYXHardware model number:	OX4-SRSoftware version number:	ORYX F/W v4.00 Oryx Data Collector v3.7.2.0data status	okinstallation	princeton_trtdifferential loss correction	single-endedforward channel	channel 3reverse channel	N/Adate	2019/09/16time	14:08:35forward acquisition time	60.00reverse acquisition time	0.00gamma	496.2192k internal	0.2293k external	0.2293temperature offset calibration	0.9943default loss term (dB/km)	0.3790temperature slope calibration	1.0000multiplexer offset coefficient	1.0000multiplexer slope coefficient	1.0000fibre end	0.00T internal ref (°C)	42.31T ext. ref 1 (°C)	14.08T ext. ref 2 (°C)	36.56length (m)	temperature (°C)	Stokes	anti-Stokes-747.200	-86.806	0.193	0.060
-746.185	-200.000	0.001	-0.090
-745.171	-200.000	-0.044	0.292
-744.156	790.285	0.041	-0.115
-743.142	-128.258	0.277	-0.040
-742.127	-7.470	-0.429	0.297
-741.112	162.480	-0.081	-0.117
-740.098	800.000	-0.054	0.211
-739.083	250.304	-0.006	0.011
-738.069	800.000	0.004	-0.019
-737.054	-144.923	0.077	-0.007
-736.039	33.154	-0.221	0.196
-735.025	-67.411	0.164	0.066
-734.010	80.351	-0.338	-0.372
-732.996	548.247	0.067	0.164
-731.981	-49.487	-0.068	-0.033
-730.966	35.514	0.106	0.095
-729.952	67.744	0.034	-0.035
-728.937	-200.000	-0.028	-0.219
-727.923	153.106	-0.251	-0.351
-726.908	53.351	-0.230	0.225
-725.894	145.122	0.088	-0.120
-724.879	128.223	0.033	-0.043
-723.864	-162.363	-0.303	-0.015
-722.850	-66.330	-0.289	-0.117
-721.835	-127.714	-0.127	-0.019
-720.821	-61.752	-0.208	-0.089
-719.806	-106.332	0.322	0.074
-718.791	-9.527	-0.142	0.097
-717.777	-61.973	-0.103	-0.044
-716.762	102.826	-0.088	0.105
-715.748	-31.607	-0.262	-0.150
-714.733	-7.307	-0.154	0.106
-713.718	196.866	0.239	0.372
-712.704	158.302	-0.094	-0.133
-711.689	54.855	0.050	0.049
-710.675	-63.725	0.422	0.177
-709.660	44.834	-0.210	-0.197
-708.645	-200.000	-0.050	0.275
-707.631	773.162	-0.025	-0.070
-706.616	418.587	-0.123	-0.270
-705.602	-112.361	0.041	-0.008
-704.587	592.094	-0.054	0.135
-703.572	60.818	-0.223	0.226
-702.558	800.000	0.071	0.265
-701.543	-46.369	-0.223	0.112
-700.529	800.000	0.062	-0.236
-699.514	800.000	-0.095	0.351
-698.499	-8.797	-0.284	0.194
-697.485	-200.000	-0.015	0.070
-696.470	27.508	-0.258	0.221
-695.456	-200.000	-0.038	-0.175
-694.441	45.222	0.096	0.090
-693.426	-200.000	-0.002	0.086
-692.412	-44.581	-0.081	0.042
-691.397	-134.940	-0.095	0.012
-690.383	-200.000	0.012	-0.146
-689.368	616.083	0.149	-0.382
-688.354	59.868	0.286	-0.288
-687.339	314.025	0.259	0.498
-686.324	278.182	-0.180	0.327
-685.310	-58.220	0.263	0.117
-684.295	-200.000	0.005	0.032
-683.281	-196.715	0.240	-0.002
-682.266	-18.365	0.320	-0.204
-681.251	-200.000	-0.215	-0.000
-680.237	-28.160	-0.372	-0.219
-679.222	-90.199	0.253	-0.075
-678.208	-6.700	0.258	-0.179
-677.193	-66.416	0.131	-0.053
-676.178	-200.000	-0.034	0.169
-675.164	522.587	0.056	0.134
-674.149	10.090	-0.140	-0.109
-673.135	-200.000	0.009	-0.286
-672.120	10.027	-0.168	0.130
-671.105	606.094	-0.033	0.085
-670.091	-94.353	-0.330	-0.092
-669.076	-40.043	-0.062	-0.033
-668.062	647.839	0.017	-0.046
-667.047	800.000	0.128	-0.561
-666.032	-77.292	0.156	0.055
-665.018	-200.000	-0.005	0.038
-664.003	17.682	0.090	0.073
-662.989	-200.000	0.014	0.304
-661.974	402.152	0.210	0.450
-660.959	800.000	0.192	0.551
-659.945	64.463	-0.208	-0.214
-658.930	74.540	0.060	0.065
-657.916	-124.639	0.203	-0.032
-656.901	-24.130	0.032	-0.020
-655.886	-200.000	-0.014	-0.235
-654.872	800.000	0.027	0.076
-653.857	461.231	-0.110	0.251
-652.843	-34.807	0.384	-0.214
-651.828	800.000	0.038	0.118
-650.814	150.922	0.134	0.186
-649.799	225.114	-0.109	-0.179
-648.784	-68.266	0.439	0.174
-647.770	13.428	0.254	0.201
-646.755	-145.233	-0.185	0.017
-645.741	800.000	0.004	0.018
-644.726	76.620	0.310	-0.335
-643.711	800.000	-0.074	-0.284
-642.697	83.108	-0.275	-0.305
-641.682	-7.243	0.192	-0.133
-640.668	-66.680	-0.040	-0.016
-639.653	78.005	-0.061	-0.067
-638.638	800.000	-0.087	0.280
-637.624	7.635	0.109	-0.083
-636.609	718.661	-0.040	-0.109
-635.595	716.931	-0.050	-0.136
-634.580	452.458	0.103	-0.232
-633.565	583.923	0.083	0.207
-632.551	94.345	-0.204	0.236
-631.536	99.423	-0.089	-0.105
-630.522	-200.000	0.006	-0.068
-629.507	374.012	-0.095	-0.196
-628.492	103.916	-0.127	-0.152
-627.478	58.912	0.179	-0.180
-626.463	-25.822	-0.266	-0.160
-625.449	-200.000	-0.001	0.016
-624.434	26.650	-0.129	-0.110
-623.419	72.631	0.195	0.207
-622.405	-200.000	-0.055	0.324
-621.390	-78.408	-0.065	0.023
-620.376	-153.776	0.276	0.019
-619.361	-70.181	-0.059	0.023
-618.346	122.731	-0.150	0.191
-617.332	-200.000	-0.003	-0.407
-616.317	213.301	0.191	-0.307
-615.303	-200.000	0.020	0.224
-614.288	-92.318	-0.437	0.125
-613.273	-174.045	0.247	-0.007
-612.259	608.300	0.099	-0.251
-611.244	-79.333	0.215	0.074
-610.230	247.245	0.062	-0.107
-609.215	25.003	-0.191	-0.161
-608.201	-131.045	-0.248	0.034
-607.186	-69.699	0.323	-0.126
-606.171	-8.524	-0.235	0.161
-605.157	318.244	-0.187	-0.360
-604.142	-153.281	0.478	-0.034
-603.128	-200.000	-0.002	0.179
-602.113	23.086	-0.168	-0.140
-601.098	353.839	-0.143	-0.289
-600.084	-147.651	0.352	-0.030
-599.069	-200.000	-0.004	0.320
-598.055	-169.567	-0.248	0.009
-597.040	107.435	0.211	0.255
-596.025	221.427	-0.086	-0.140
-595.011	-170.674	0.123	0.004
-593.996	311.414	0.112	0.214
-592.982	-43.396	0.280	0.144
-591.967	-21.146	-0.168	-0.105
-590.952	-3.258	0.094	-0.067
-589.938	-119.600	-0.313	-0.055
-588.923	124.344	0.156	-0.199
-587.909	-20.117	0.289	0.181
-586.894	-128.379	-0.126	-0.018
-585.879	-200.000	0.002	-0.303
-584.865	133.202	-0.212	-0.279
-583.850	34.803	-0.115	-0.102
-582.836	800.000	-0.034	0.137
-581.821	800.000	-0.065	0.221
-580.806	118.238	0.173	0.217
-579.792	-5.769	-0.307	0.214
-578.777	33.791	-0.034	0.030
-577.763	-200.000	-0.003	-0.153
-576.748	-200.000	-0.004	-0.043
-575.733	-200.000	-0.097	0.433
-574.719	-126.610	-0.125	0.019
-573.704	-1.899	0.092	-0.066
-572.690	45.510	-0.186	-0.174
-571.675	1.977	-0.133	-0.098
-570.661	800.000	-0.011	0.043
-569.646	-89.579	0.313	-0.093
-568.631	-162.571	0.103	-0.005
-567.617	96.748	-0.157	-0.183
-566.602	-200.000	0.039	-0.595
-565.588	-75.895	-0.274	0.099
-564.573	65.568	-0.238	0.245
-563.558	-47.860	-0.237	-0.116
-562.544	644.554	-0.065	0.169
-561.529	800.000	-0.057	-0.162
-560.515	36.341	0.080	-0.072
-559.500	-158.827	-0.217	0.013
-558.485	514.913	0.147	0.349
-557.471	-200.000	-0.008	-0.195
-556.456	800.000	0.123	-0.462
-555.442	635.258	0.030	-0.079
-554.427	-149.583	0.398	0.032
-553.412	-200.000	-0.007	0.181
-552.398	-1.812	-0.142	-0.102
-551.383	264.048	-0.080	-0.141
-550.369	40.012	-0.133	0.122
-549.354	-200.000	0.008	-0.240
-548.339	-123.295	-0.178	0.029
-547.325	464.215	-0.134	0.303
-546.310	-36.127	0.338	0.185
-545.296	-134.316	-0.069	0.009
-544.281	92.885	0.150	-0.172
-543.266	800.000	-0.112	0.369
-542.252	633.442	0.047	0.121
-541.237	-70.117	0.282	0.109
-540.223	35.047	0.215	0.191
-539.208	-169.302	0.175	0.007
-538.193	131.181	0.082	0.107
-537.179	295.949	-0.098	0.182
-536.164	-200.000	-0.017	0.117
-535.150	10.042	0.142	0.109
-534.135	32.494	0.322	-0.282
-533.121	35.675	-0.174	-0.156
-532.106	54.888	-0.154	-0.151
-531.091	-111.949	-0.296	0.060
-530.077	736.607	-0.131	0.355
-529.062	-200.000	0.016	0.353
-528.048	-31.251	-0.068	0.039
-527.033	-6.944	0.255	-0.176
-526.018	-55.713	-0.129	0.059
-525.004	410.085	0.108	-0.233
-523.989	168.473	-0.015	-0.022
-522.975	-45.186	-0.227	-0.114
-521.960	800.000	0.033	0.139
-520.945	-75.725	0.281	0.101
-519.931	6.903	0.137	0.104
-518.916	800.000	-0.090	0.351
-517.902	-200.000	0.035	0.303
-516.887	321.160	-0.214	0.413
-515.872	-200.000	-0.005	0.043
-514.858	-200.000	0.026	-0.173
-513.843	558.490	0.100	0.244
-512.829	-200.000	-0.247	0.001
-511.814	-100.955	0.118	0.029
-510.799	-36.974	-0.229	-0.125
-509.785	-153.554	-0.297	0.021
-508.770	267.491	0.168	-0.297
-507.756	800.000	-0.074	-0.209
-506.741	800.000	0.061	-0.254
-505.726	-116.419	-0.290	-0.054
-504.712	-200.000	0.029	0.165
-503.697	28.304	-0.031	-0.027
-502.683	800.000	0.032	-0.099
-501.668	800.000	-0.071	0.281
-500.653	212.218	-0.060	0.096
-499.639	-49.903	0.228	-0.110
-498.624	-6.147	0.352	-0.243
-497.610	54.358	-0.042	0.041
-496.595	129.532	0.126	0.164
-495.581	-200.000	0.003	-0.293
-494.566	-200.000	0.058	-0.393
-493.551	-125.251	0.279	-0.043
-492.537	-81.864	-0.127	0.042
-491.522	-46.228	-0.162	-0.081
-490.508	-125.247	0.103	-0.016
-489.493	67.455	0.347	-0.358
-488.478	-161.724	0.264	0.014
-487.464	35.204	-0.053	0.047
-486.449	35.393	-0.068	0.061
-485.435	580.696	0.089	-0.221
-484.420	-88.038	0.212	0.065
-483.405	800.000	-0.026	0.110
-482.391	361.474	-0.064	-0.130
-481.376	-110.041	0.193	0.041
-480.362	147.349	0.185	-0.252
-479.347	-21.386	-0.217	0.134
-478.332	-110.923	0.376	-0.078
-477.318	-18.806	-0.018	0.012
-476.303	-200.000	0.000	-0.058
-475.289	-161.723	-0.146	-0.008
-474.274	-25.117	-0.098	0.059
-473.259	299.337	-0.073	0.136
-472.245	-85.804	0.075	0.023
-471.230	-134.475	0.204	-0.025
-470.216	-85.503	0.067	-0.021
-469.201	6.872	0.157	0.118
-468.186	272.452	0.065	0.117
-467.172	800.000	0.080	0.272
-466.157	-59.924	0.084	0.036
-465.143	-200.000	0.044	0.490
-464.128	323.565	0.056	0.108
-463.113	800.000	-0.092	-0.301
-462.099	800.000	0.028	0.089
-461.084	26.823	-0.129	0.109
-460.070	-200.000	0.022	-0.106
-459.055	-2.735	-0.279	-0.197
-458.040	-200.000	-0.017	-0.148
-457.026	38.000	0.204	0.183
-456.011	-200.000	0.039	-0.184
-454.997	-98.221	0.063	0.016
-453.982	-200.000	-0.028	0.303
-452.968	-200.000	-0.005	0.130
-451.953	-131.107	-0.318	0.043
-450.938	-35.963	0.182	-0.100
-449.924	234.805	-0.279	-0.465
-448.909	-86.752	0.223	0.069
-447.895	-92.362	0.293	-0.083
-446.880	-130.716	0.227	-0.031
-445.865	-62.478	0.220	0.093
-444.851	-1.126	-0.284	0.203
-443.836	-3.473	0.261	-0.184
-442.822	800.000	0.020	-0.068
-441.807	35.238	-0.249	-0.220
-440.792	800.000	0.050	0.152
-439.778	-170.300	0.159	0.006
-438.763	208.800	-0.083	0.132
-437.749	-67.679	-0.303	-0.120
-436.734	385.352	0.040	0.084
-435.719	-123.184	0.195	0.032
-434.705	-129.730	-0.305	-0.043
-433.690	-200.000	-0.056	0.382
-432.676	-124.109	-0.197	-0.031
-431.661	114.490	0.059	0.073
-430.646	-200.000	-0.006	-0.190
-429.632	237.109	-0.167	-0.279
-428.617	-35.345	-0.148	-0.081
-427.603	-75.178	0.113	0.041
-426.588	-111.387	-0.289	-0.060
-425.573	7.125	-0.361	-0.272
-424.559	-66.298	-0.028	0.011
-423.544	9.697	0.338	0.259
-422.530	241.447	0.068	-0.115
-421.515	141.768	0.039	-0.052
-420.500	800.000	0.064	-0.217
-419.486	-49.324	0.162	-0.078
-418.471	74.743	0.099	0.105
-417.457	-200.000	0.034	0.405
-416.442	126.222	0.121	-0.154
-415.428	800.000	0.113	-0.362
-414.413	-54.407	0.091	-0.041
-413.398	800.000	0.080	0.309
-412.384	-200.000	-0.023	0.298
-411.369	111.045	0.089	-0.109
-410.355	-101.470	0.092	0.023
-409.340	338.473	-0.099	0.195
-408.325	800.000	-0.069	0.293
-407.311	-200.000	-0.035	-0.184
-406.296	-144.111	0.408	0.039
-405.282	-38.355	0.363	0.194
-404.267	-52.165	-0.276	0.129
-403.252	-26.748	-0.113	-0.067
-402.238	-0.576	0.111	0.079
-401.223	-27.146	-0.161	-0.095
-400.209	-200.000	0.057	0.305
-399.194	-40.043	0.283	0.149
-398.179	-49.198	-0.286	0.138
-397.165	58.444	0.194	0.192
-396.150	-102.259	-0.284	-0.069
-395.136	-146.468	0.145	-0.013
-394.121	-133.509	-0.158	-0.020
-393.106	97.777	-0.090	0.105
-392.092	800.000	-0.045	0.196
-391.077	282.060	0.059	-0.107
-390.063	-131.748	0.293	-0.039
-389.048	-82.021	-0.168	-0.055
-388.033	-77.146	-0.288	0.101
-387.019	176.732	0.158	0.232
-386.004	47.743	0.166	-0.156
-384.990	-200.000	0.037	-0.275
-383.975	-81.397	0.184	-0.061
-382.960	800.000	-0.077	0.336
-381.946	-67.593	-0.343	-0.135
-380.931	-54.695	0.257	-0.117
-379.917	426.627	-0.066	0.144
-378.902	800.000	-0.061	-0.233
-377.888	-193.259	-0.471	0.004
-376.873	-200.000	0.014	-0.063
-375.858	800.000	0.137	-0.474
-374.844	317.284	-0.117	0.224
-373.829	182.515	0.207	0.308
-372.815	-57.368	-0.158	0.070
-371.800	-57.392	-0.114	-0.050
-370.785	249.982	0.153	-0.261
-369.771	60.288	0.134	-0.134
-368.756	-200.000	0.048	-0.311
-367.742	-1.925	0.110	-0.078
-366.727	252.072	-0.132	0.226
-365.712	169.414	0.105	-0.151
-364.698	87.984	0.189	-0.211
-363.683	-107.279	-0.172	-0.038
-362.669	800.000	-0.068	0.271
-361.654	722.368	-0.089	-0.239
-360.639	381.835	-0.209	0.432
-359.625	-155.228	-0.145	0.010
-358.610	319.453	-0.135	0.259
-357.596	-29.745	0.345	0.199
-356.581	-81.289	0.087	0.029
-355.566	800.000	-0.059	0.239
-354.552	14.080	0.110	-0.086
-353.537	32.018	-0.222	0.193
-352.523	800.000	0.079	0.251
-351.508	800.000	-0.130	-0.517
-350.493	298.078	-0.164	-0.304
-349.479	800.000	-0.053	0.188
-348.464	160.654	0.083	0.117
-347.450	-155.424	0.171	0.011
-346.435	277.274	0.128	-0.230
-345.420	-200.000	-0.022	0.153
-344.406	76.174	-0.232	0.247
-343.391	-77.830	0.297	-0.103
-342.377	113.806	0.236	-0.289
-341.362	22.554	-0.169	-0.139
-340.348	800.000	-0.082	0.314
-339.333	254.539	0.041	-0.071
-338.318	-97.960	0.410	-0.107
-337.304	-200.000	0.029	0.277
-336.289	29.960	-0.380	0.327
-335.275	-71.143	-0.272	0.103
-334.260	-66.909	-0.076	0.030
-333.245	-81.644	0.171	0.057
-332.231	-42.911	0.167	-0.085
-331.216	-9.700	-0.294	-0.197
-330.202	-200.000	-0.042	-0.292
-329.187	-58.089	0.150	0.066
-328.172	800.000	0.084	0.277
-327.158	-200.000	-0.005	-0.081
-326.143	-58.840	-0.207	0.090
-325.129	-200.000	0.060	-0.269
-324.114	-146.663	-0.209	-0.018
-323.099	2.426	-0.283	0.206
-322.085	574.864	-0.099	-0.243
-321.070	-73.977	-0.284	-0.104
-320.056	-100.331	0.099	-0.025
-319.041	-23.803	0.173	0.105
-318.026	-14.645	0.016	-0.010
-317.012	218.893	-0.150	-0.242
-315.997	-132.743	0.343	-0.044
-314.983	800.000	-0.072	-0.225
-313.968	-49.714	0.232	0.111
-312.953	-11.407	-0.320	0.212
-311.939	54.503	-0.147	0.143
-310.924	800.000	0.104	0.374
-309.910	-200.000	0.041	-0.226
-308.895	-44.057	0.089	0.045
-307.880	-200.000	-0.049	-0.272
-306.866	-103.879	0.339	0.080
-305.851	-33.722	0.193	0.107
-304.837	-39.493	-0.150	-0.079
-303.822	-112.934	0.174	0.035
-302.807	-200.000	-0.007	-0.119
-301.793	-200.000	0.009	0.053
-300.778	-93.975	-0.176	0.049
-299.764	-141.300	-0.246	-0.025
-298.749	-151.969	0.138	0.010
-297.735	31.482	0.078	-0.068
-296.720	-51.852	0.378	0.177
-295.705	800.000	0.065	0.280
-294.691	57.764	-0.234	-0.230
-293.676	259.186	-0.023	-0.040
-292.662	-123.852	0.126	0.020
-291.647	-15.452	-0.375	-0.241
-290.632	239.666	0.144	-0.240
-289.618	-129.019	0.292	-0.041
-288.603	-30.877	-0.237	-0.135
-287.589	-70.374	0.271	-0.103
-286.574	-100.710	0.164	-0.041
-285.559	-33.406	-0.173	-0.096
-284.545	-75.258	-0.246	-0.088
-283.530	-12.927	0.287	0.188
-282.516	-4.116	0.282	0.196
-281.501	-200.000	-0.015	0.197
-280.486	-67.535	-0.267	-0.105
-279.472	13.254	0.073	-0.057
-278.457	17.763	0.448	-0.358
-277.443	-130.321	0.175	0.024
-276.428	-200.000	0.012	-0.099
-275.413	-23.573	0.174	0.105
-274.399	-123.671	0.069	0.011
-273.384	-182.946	0.240	0.004
-272.370	-104.644	0.150	-0.035
-271.355	-119.055	-0.093	-0.016
-270.340	169.823	-0.178	-0.255
-269.326	46.663	0.127	-0.118
-268.311	-81.525	0.466	-0.154
-267.297	-200.000	-0.006	-0.071
-266.282	-72.651	-0.070	-0.026
-265.267	71.886	-0.099	0.103
-264.253	147.046	-0.123	0.167
-263.238	-200.000	-0.013	-0.073
-262.224	-147.143	0.294	0.025
-261.209	122.773	0.200	0.252
-260.195	-44.162	-0.066	0.033
-259.180	-157.188	-0.126	-0.008
-258.165	-0.936	-0.225	-0.160
-257.151	-177.857	-0.221	-0.005
-256.136	455.543	-0.109	-0.242
-255.122	266.737	0.205	-0.359
-254.107	-97.747	-0.192	0.050
-253.092	-104.302	-0.440	0.102
-252.078	79.967	-0.183	0.197
-251.063	-99.896	-0.037	0.009
-250.049	-146.176	0.083	0.007
-249.034	126.408	0.304	0.387
-248.019	-103.269	0.310	0.073
-247.005	800.000	-0.108	-0.413
-245.990	-137.384	0.175	0.020
-244.976	208.905	0.119	0.187
-243.961	477.803	-0.135	0.306
-242.946	-200.000	0.004	0.312
-241.932	-134.237	0.031	0.004
-240.917	-29.544	0.374	0.215
-239.903	-61.981	-0.037	-0.016
-238.888	800.000	-0.067	-0.264
-237.873	-11.409	0.415	-0.274
-236.859	-138.503	0.198	-0.022
-235.844	-138.725	-0.145	0.016
-234.830	395.120	0.066	0.138
-233.815	-184.596	-0.126	-0.002
-232.800	2.506	-0.036	0.026
-231.786	800.000	0.056	-0.222
-230.771	259.528	0.087	-0.151
-229.757	191.807	-0.070	-0.105
-228.742	-120.945	-0.079	-0.013
-227.727	82.326	-0.215	0.233
-226.713	29.654	0.314	0.268
-225.698	463.078	-0.052	0.116
-224.684	-0.346	0.083	0.059
-223.669	168.112	-0.205	0.293
-222.655	-200.000	0.065	-0.342
-221.640	44.708	-0.252	0.233
-220.625	615.317	-0.075	-0.189
-219.611	-200.000	0.049	-0.324
-218.596	77.084	-0.035	-0.038
-217.582	-200.000	0.007	0.162
-216.567	-200.000	0.008	0.292
-215.552	43.084	-0.059	0.054
-214.538	800.000	-0.061	0.188
-213.523	73.219	-0.145	0.152
-212.509	-164.573	-0.182	-0.008
-211.494	800.000	-0.027	-0.076
-210.479	-200.000	-0.058	0.540
-209.465	-111.762	0.363	-0.074
-208.450	-158.059	0.164	0.010
-207.436	41.793	-0.299	0.271
-206.421	105.013	-0.146	-0.172
-205.406	-46.531	-0.020	-0.010
-204.392	-87.149	0.221	0.067
-203.377	-200.000	0.047	-0.269
-202.363	352.206	-0.067	0.133
-201.348	-53.860	0.198	0.090
-200.333	139.777	-0.115	-0.152
-199.319	-78.929	0.016	-0.005
-198.304	370.170	-0.072	0.147
-197.290	509.929	0.050	-0.117
-196.275	-113.614	-0.468	-0.091
-195.260	-83.017	-0.333	-0.108
-194.246	39.193	0.059	-0.053
-193.231	28.786	-0.176	-0.149
-192.217	800.000	0.029	0.124
-191.202	-200.000	-0.002	-0.129
-190.187	800.000	0.084	0.238
-189.173	-200.000	-0.025	-0.167
-188.158	-162.445	0.104	-0.005
-187.144	-200.000	-0.025	-0.206
-186.129	39.032	-0.277	0.248
-185.114	379.094	-0.048	0.099
-184.100	-104.806	-0.346	-0.080
-183.085	497.306	-0.071	0.165
-182.071	800.000	0.039	-0.149
-181.056	-200.000	0.007	0.194
-180.042	-50.292	0.101	0.048
-179.027	126.690	-0.094	0.119
-178.012	-152.569	-0.166	0.012
-176.998	10.774	0.068	-0.052
-175.983	800.000	0.048	-0.151
-174.969	53.803	0.333	-0.320
-173.954	1.872	-0.220	0.158
-172.939	-37.833	0.155	0.082
-171.925	-71.134	-0.148	-0.056
-170.910	113.282	-0.119	0.145
-169.896	-138.626	-0.185	-0.020
-168.881	-182.661	-0.238	0.004
-167.866	148.629	-0.104	0.141
-166.852	-8.865	-0.136	-0.091
-165.837	800.000	-0.044	-0.126
-164.823	136.529	-0.207	0.271
-163.808	-63.767	-0.386	-0.158
-162.793	-123.540	-0.157	-0.025
-161.779	36.975	0.153	-0.135
-160.764	-166.354	-0.297	0.012
-159.750	-167.380	0.335	-0.013
-158.735	-61.073	0.320	-0.135
-157.720	-33.871	0.175	-0.097
-156.706	226.570	0.102	0.165
-155.691	-178.392	-0.535	0.012
-154.677	560.520	-0.112	0.270
-153.662	-116.406	-0.121	0.022
-152.647	-80.136	0.102	-0.034
-151.633	201.968	-0.139	-0.214
-150.618	57.586	-0.247	-0.241
-149.604	-102.705	-0.100	-0.024
-148.589	57.675	-0.244	-0.238
-147.574	565.002	0.145	0.352
-146.560	-59.506	0.226	-0.097
-145.545	-146.518	-0.114	-0.010
-144.531	800.000	0.090	0.248
-143.516	125.254	-0.084	0.105
-142.502	69.871	-0.255	-0.263
-141.487	147.580	0.082	0.111
-140.472	624.419	-0.064	0.161
-139.458	-36.379	-0.358	0.193
-138.443	-45.153	-0.121	-0.060
-137.429	-200.000	0.020	-0.108
-136.414	245.824	-0.143	0.241
-135.399	253.373	-0.082	0.140
-134.385	-200.000	0.064	0.318
-133.370	-200.000	0.030	0.229
-132.356	-99.208	0.070	0.018
-131.341	-200.000	-0.006	0.451
-130.326	-200.000	0.019	0.313
-129.312	63.429	0.031	0.031
-128.297	-24.086	0.105	-0.062
-127.283	205.922	0.155	-0.242
-126.268	-22.877	0.215	0.129
-125.253	-200.000	0.032	-0.243
-124.239	-200.000	-0.004	-0.433
-123.224	-200.000	0.027	-0.187
-122.210	766.290	-0.117	-0.318
-121.195	-200.000	0.000	0.009
