DTS Sentinel unit serial number:	SN413079Multiplexer serial number:	ORYXHardware model number:	OX4-SRSoftware version number:	ORYX F/W v4.00 Oryx Data Collector v3.7.2.0data status	okinstallation	princeton_trtdifferential loss correction	single-endedforward channel	channel 3reverse channel	N/Adate	2019/09/18time	18:12:35forward acquisition time	60.00reverse acquisition time	0.00gamma	496.2192k internal	0.2293k external	0.2293temperature offset calibration	0.9999default loss term (dB/km)	0.3790temperature slope calibration	1.0000multiplexer offset coefficient	1.0000multiplexer slope coefficient	1.0000fibre end	0.00T internal ref (°C)	39.03T ext. ref 1 (°C)	0.93T ext. ref 2 (°C)	32.19length (m)	temperature (°C)	Stokes	anti-Stokes-747.200	-200.000	-0.026	0.296
-746.185	138.605	-0.177	0.238
-745.171	229.086	0.122	-0.204
-744.156	20.207	-0.118	0.098
-743.142	87.286	0.089	-0.101
-742.127	70.597	-0.097	0.103
-741.112	-181.169	0.215	-0.004
-740.098	97.875	-0.305	0.359
-739.083	427.415	0.099	0.218
-738.069	-37.001	-0.117	-0.064
-737.054	466.674	0.099	0.227
-736.039	55.942	0.150	-0.149
-735.025	-143.517	0.220	0.021
-734.010	78.227	-0.056	-0.061
-732.996	-200.000	0.014	-0.077
-731.981	-79.910	-0.310	0.107
-730.966	-200.000	-0.008	0.090
-729.952	28.341	-0.063	0.055
-728.937	-200.000	-0.045	-0.430
-727.923	51.110	0.230	-0.223
-726.908	-127.368	0.130	0.019
-725.894	800.000	-0.099	0.386
-724.879	114.985	-0.163	-0.203
-723.864	-14.807	-0.080	0.053
-722.850	353.476	-0.104	-0.212
-721.835	597.973	-0.108	0.274
-720.821	-100.607	0.270	-0.068
-719.806	673.874	0.056	-0.148
-718.791	-200.000	0.038	-0.190
-717.777	-200.000	-0.012	-0.234
-716.762	-144.114	0.257	0.025
-715.748	187.326	0.085	0.129
-714.733	65.496	0.165	0.171
-713.718	60.006	0.115	0.117
-712.704	-7.809	-0.115	-0.080
-711.689	800.000	0.138	0.399
-710.675	-200.000	0.026	-0.264
-709.660	-117.108	0.246	-0.046
-708.645	-163.032	-0.074	-0.004
-707.631	-81.726	0.129	-0.043
-706.616	-1.532	0.167	0.120
-705.602	-21.417	0.227	-0.142
-704.587	800.000	0.028	0.120
-703.572	197.783	-0.106	-0.166
-702.558	-23.620	0.145	-0.089
-701.543	243.870	0.111	0.190
-700.529	315.170	0.084	0.161
-699.514	38.593	-0.086	0.079
-698.499	800.000	-0.050	0.174
-697.485	-120.253	-0.405	-0.071
-696.470	125.812	0.181	0.233
-695.456	-26.133	-0.153	0.092
-694.441	-154.355	-0.055	0.004
-693.426	-72.861	0.269	0.101
-692.412	263.369	-0.120	0.213
-691.397	334.773	-0.063	0.125
-690.383	199.891	-0.136	-0.212
-689.368	71.179	-0.264	0.279
-688.354	255.727	0.077	0.134
-687.339	143.707	0.160	-0.217
-686.324	-200.000	0.040	-0.316
-685.310	78.690	-0.137	-0.150
-684.295	-44.694	-0.057	-0.029
-683.281	239.435	-0.020	0.034
-682.266	-124.831	0.156	0.025
-681.251	408.572	-0.120	0.258
-680.237	800.000	-0.044	-0.127
-679.222	-111.039	-0.172	-0.036
-678.208	17.485	0.121	0.098
-677.193	679.243	-0.094	-0.249
-676.178	-7.538	-0.217	-0.149
-675.164	260.246	-0.056	-0.100
-674.149	-200.000	0.063	-0.384
-673.135	-64.663	0.323	-0.134
-672.120	433.498	-0.145	0.320
-671.105	-67.770	-0.300	-0.120
-670.091	545.446	-0.032	0.079
-669.076	395.782	0.088	-0.188
-668.062	-21.560	0.097	0.060
-667.047	259.563	-0.141	-0.248
-666.032	-200.000	-0.010	-0.081
-665.018	83.219	-0.155	-0.173
-664.003	-4.176	-0.183	-0.129
-662.989	-38.111	0.264	-0.143
-661.974	86.119	0.092	0.103
-660.959	-96.182	-0.062	0.017
-659.945	-200.000	0.003	-0.027
-658.930	800.000	0.104	-0.411
-657.916	627.855	0.102	-0.263
-656.901	-136.159	0.179	0.021
-655.886	370.931	-0.115	-0.238
-654.872	-200.000	-0.028	0.142
-653.857	-200.000	0.008	0.135
-652.843	-75.652	0.188	0.068
-651.828	73.544	0.302	-0.322
-650.814	307.817	-0.142	0.270
-649.799	-112.263	0.238	0.049
-648.784	-172.431	-0.356	0.012
-647.770	537.098	-0.144	0.348
-646.755	101.195	0.161	-0.191
-645.741	222.253	-0.077	0.126
-644.726	189.085	0.158	-0.241
-643.711	-21.352	0.205	0.128
-642.697	744.007	-0.139	0.381
-641.682	9.335	-0.371	0.286
-640.668	-55.825	-0.171	-0.078
-639.653	-54.366	-0.393	-0.181
-638.638	800.000	0.044	-0.162
-637.624	227.779	-0.162	0.268
-636.609	109.437	0.184	0.225
-635.595	-78.618	0.094	0.033
-634.580	20.676	-0.081	0.067
-633.565	-92.971	0.098	0.028
-632.551	116.031	-0.267	-0.333
-631.536	-200.000	-0.020	-0.109
-630.522	800.000	-0.014	-0.063
-629.507	-200.000	-0.017	0.156
-628.492	-81.343	-0.166	-0.056
-627.478	47.096	-0.173	0.164
-626.463	-200.000	-0.048	0.395
-625.449	-200.000	0.056	0.382
-624.434	-144.121	-0.175	0.017
-623.419	-198.057	-0.530	0.003
-622.405	59.161	0.133	-0.133
-621.390	800.000	0.136	0.555
-620.376	51.297	-0.086	-0.083
-619.361	800.000	0.036	-0.157
-618.346	191.955	-0.093	-0.142
-617.332	-120.082	0.234	0.041
-616.317	-109.511	0.118	0.025
-615.303	-200.000	0.040	-0.345
-614.288	18.145	-0.100	0.081
-613.273	-74.324	-0.166	-0.061
-612.259	61.782	-0.154	0.156
-611.244	-200.000	0.026	-0.162
-610.230	728.710	0.020	-0.054
-609.215	-81.424	0.114	-0.038
-608.201	52.367	-0.089	-0.086
-607.186	52.067	-0.156	0.151
-606.171	-200.000	-0.056	0.370
-605.157	-108.415	0.234	0.051
-604.142	-200.000	-0.013	0.176
-603.128	92.084	-0.183	-0.210
-602.113	-200.000	0.018	-0.149
-601.098	-122.572	0.120	0.020
-600.084	-200.000	-0.033	-0.254
-599.069	800.000	-0.081	-0.306
-598.055	-200.000	0.082	-0.365
-597.040	246.732	-0.042	0.071
-596.025	129.736	0.051	0.066
-595.011	-200.000	0.010	-0.087
-593.996	-15.651	-0.209	0.136
-592.982	800.000	0.062	-0.191
-591.967	39.150	-0.221	-0.201
-590.952	800.000	0.046	-0.181
-589.938	-90.747	-0.100	0.029
-588.923	-88.856	0.392	-0.118
-587.909	-200.000	-0.017	0.117
-586.894	-121.191	-0.140	-0.024
-585.879	-41.409	-0.271	0.142
-584.865	432.765	-0.111	0.244
-583.850	352.942	-0.121	0.244
-582.836	800.000	-0.054	-0.185
-581.821	193.792	-0.172	-0.265
-580.806	-155.880	0.116	0.007
-579.792	281.036	0.047	0.085
-578.777	5.275	0.290	0.217
-577.763	91.374	-0.083	0.095
-576.748	617.610	-0.036	0.092
-575.733	185.464	0.287	0.434
-574.719	-138.397	0.250	-0.028
-573.704	-186.004	0.220	-0.003
-572.690	-200.000	-0.010	-0.323
-571.675	-66.699	0.249	-0.100
-570.661	-32.295	-0.354	-0.201
-569.646	679.849	-0.052	-0.137
-568.631	-200.000	0.042	-0.228
-567.617	-148.022	-0.335	-0.028
-566.602	236.627	0.064	-0.108
-565.588	447.859	0.124	0.277
-564.573	-56.176	-0.300	0.136
-563.558	-99.117	0.295	0.076
-562.544	134.436	0.037	0.049
-561.529	-57.367	0.180	-0.080
-560.515	99.431	-0.214	-0.251
-559.500	-155.855	-0.209	-0.014
-558.485	207.109	0.181	0.287
-557.471	-184.270	0.117	-0.002
-556.456	-200.000	0.006	-0.180
-555.442	-129.104	0.169	0.024
-554.427	-81.017	-0.084	0.028
-553.412	193.332	0.178	-0.273
-552.398	-126.763	-0.115	-0.017
-551.383	185.431	0.122	0.184
-550.369	391.640	0.099	0.209
-549.354	-200.000	-0.002	0.046
-548.339	323.857	-0.179	0.347
-547.325	-122.665	0.234	0.039
-546.310	2.167	0.205	-0.150
-545.296	-43.539	-0.329	-0.169
-544.281	44.025	0.300	0.279
-543.266	-113.584	0.139	0.028
-542.252	-200.000	-0.004	-0.197
-541.237	-200.000	0.017	-0.202
-540.223	-175.807	0.319	-0.009
-539.208	24.429	-0.120	0.101
-538.193	-161.680	0.219	-0.011
-537.179	-16.328	0.406	0.262
-536.164	800.000	0.009	0.038
-535.150	-200.000	-0.009	0.049
-534.135	50.667	0.127	-0.122
-533.121	-109.561	-0.282	-0.060
-532.106	-200.000	-0.002	-0.128
-531.091	-34.002	-0.009	0.005
-530.077	130.833	-0.206	-0.268
-529.062	413.359	-0.130	-0.280
-528.048	128.517	-0.072	-0.093
-527.033	-200.000	-0.029	0.157
-526.018	477.753	-0.046	0.106
-525.004	-108.050	0.259	-0.057
-523.989	-123.010	-0.101	0.016
-522.975	-18.162	-0.266	-0.169
-521.960	-48.369	0.127	-0.062
-520.945	-123.034	-0.369	0.060
-519.931	-148.063	0.265	0.022
-518.916	419.005	0.236	0.512
-517.902	-200.000	0.062	-0.357
-516.887	283.836	-0.176	-0.321
-515.872	-162.045	-0.115	-0.006
-514.858	-20.537	0.193	0.120
-513.843	98.285	-0.155	-0.180
-512.829	-99.391	0.304	0.078
-511.814	-200.000	-0.036	0.262
-510.799	-200.000	0.058	0.266
-509.785	252.855	-0.063	-0.109
-508.770	-97.743	0.236	-0.062
-507.756	417.384	0.075	0.163
-506.741	-200.000	0.016	0.199
-505.726	-57.595	-0.131	-0.058
-504.712	-8.499	-0.146	-0.100
-503.697	-200.000	0.053	-0.347
-502.683	800.000	0.003	0.011
-501.668	-67.818	-0.220	0.087
-500.653	-64.674	0.213	-0.087
-499.639	189.802	-0.145	-0.220
-498.624	104.568	-0.105	0.125
-497.610	-200.000	-0.001	-0.379
-496.595	-9.824	0.222	0.150
-495.581	555.568	0.040	-0.098
-494.566	143.789	0.219	-0.295
-493.551	-172.628	-0.109	0.003
-492.537	-106.356	-0.112	0.025
-491.522	-98.775	0.027	0.007
-490.508	-84.529	0.208	-0.067
-489.493	271.636	-0.018	0.032
-488.478	-200.000	0.083	-0.441
-487.464	-200.000	-0.005	0.115
-486.449	-144.091	-0.199	-0.019
-485.435	137.725	-0.340	-0.451
-484.420	117.120	0.145	0.180
-483.405	-134.691	-0.181	0.022
-482.391	61.375	-0.080	-0.081
-481.376	282.914	0.112	-0.203
-480.362	-92.665	-0.359	-0.102
-479.347	11.088	-0.068	-0.052
-478.332	-104.243	0.142	0.033
-477.318	185.087	-0.186	-0.279
-476.303	800.000	0.070	0.220
-475.289	61.582	0.167	0.168
-474.274	-105.511	-0.312	-0.072
-473.259	-59.018	0.355	-0.155
-472.245	800.000	0.058	-0.216
-471.230	429.343	-0.114	0.251
-470.216	800.000	0.056	0.202
-469.201	-158.745	-0.114	-0.007
-468.186	70.466	-0.175	-0.183
-467.172	85.750	-0.092	0.102
-466.157	73.858	0.068	-0.072
-465.143	800.000	0.019	-0.074
-464.128	-33.889	0.301	-0.168
-463.113	216.356	0.145	0.233
-462.099	-161.037	-0.216	-0.011
-461.084	431.367	0.100	0.220
-460.070	-113.544	0.242	-0.048
-459.055	289.539	0.107	0.197
-458.040	788.834	0.115	0.320
-457.026	-3.206	0.187	-0.132
-456.011	-200.000	0.011	0.153
-454.997	96.920	-0.059	0.069
-453.982	-23.196	-0.028	-0.017
-452.968	-200.000	-0.019	0.497
-451.953	-200.000	-0.004	-0.053
-450.938	158.477	0.057	0.080
-449.924	327.709	-0.067	-0.131
-448.909	228.536	-0.052	-0.085
-447.895	800.000	0.141	-0.445
-446.880	542.109	0.008	-0.020
-445.865	-144.391	0.222	-0.021
-444.851	-43.003	-0.060	0.031
-443.836	-200.000	-0.096	-0.461
-442.822	153.032	-0.046	-0.064
-441.807	73.654	0.088	-0.093
-440.792	683.514	-0.070	0.186
-439.778	505.993	0.039	-0.092
-438.763	508.730	-0.031	-0.072
-437.749	800.000	-0.020	-0.058
-436.734	-89.106	-0.106	0.032
-435.719	-158.065	0.245	-0.015
-434.705	-87.939	0.341	-0.103
-433.690	-29.268	-0.130	0.075
-432.676	-99.937	0.213	0.054
-431.661	125.066	-0.065	-0.083
-430.646	-44.495	-0.019	0.010
-429.632	-130.686	0.184	-0.025
-428.617	-24.187	-0.177	0.107
-427.603	-200.000	-0.006	0.392
-426.588	-200.000	0.032	0.377
-425.573	-117.421	0.210	-0.038
-424.559	-32.795	-0.288	0.162
-423.544	380.070	-0.100	-0.208
-422.530	-95.428	0.299	-0.081
-421.515	244.775	-0.140	0.238
-420.500	800.000	0.093	0.269
-419.486	-80.004	-0.188	0.064
-418.471	-83.682	-0.403	0.130
-417.457	149.704	-0.102	-0.140
-416.442	-11.664	0.216	0.144
-415.428	-200.000	0.014	0.118
-414.413	800.000	-0.036	0.152
-413.398	350.302	-0.065	0.129
-412.384	212.689	-0.184	-0.293
-411.369	-81.646	-0.121	0.040
-410.355	-122.885	-0.125	0.020
-409.340	123.436	0.078	0.098
-408.325	-60.547	-0.287	0.123
-407.311	-117.301	-0.228	0.042
-406.296	-190.475	-0.224	0.002
-405.282	736.065	-0.127	0.342
-404.267	453.423	0.055	0.123
-403.252	546.056	0.090	0.217
-402.238	22.171	-0.155	-0.128
-401.223	-80.962	0.410	-0.137
-400.209	-118.739	0.329	-0.059
-399.194	-200.000	0.003	0.134
-398.179	167.518	0.041	-0.058
-397.165	-200.000	-0.005	-0.046
-396.150	-200.000	0.001	0.273
-395.136	800.000	-0.083	0.255
-394.121	175.968	0.113	0.166
-393.106	148.528	0.078	-0.106
-392.092	800.000	-0.025	-0.089
-391.077	-144.427	0.172	-0.016
-390.063	-108.869	0.253	-0.055
-389.048	-159.547	0.142	0.008
-388.033	800.000	0.020	0.060
-387.019	-16.947	-0.187	-0.119
-386.004	-76.074	0.331	-0.118
-384.990	-10.940	-0.009	0.006
-383.975	121.738	0.169	-0.213
-382.960	468.601	-0.048	0.109
-381.946	-93.418	0.340	0.095
-380.931	743.128	0.066	-0.178
-379.917	240.108	0.238	-0.400
-378.902	35.326	-0.133	0.118
-377.888	-59.501	-0.204	-0.088
-376.873	-200.000	0.011	0.232
-375.858	1.835	-0.307	-0.223
-374.844	-60.534	-0.190	-0.081
-373.829	-200.000	-0.010	0.460
-372.815	-3.788	0.081	0.057
-371.800	275.529	-0.101	-0.180
-370.785	800.000	-0.074	0.273
-369.771	78.771	-0.091	-0.098
-368.756	-142.099	0.291	-0.029
-367.742	-65.536	0.373	-0.151
-366.727	800.000	0.067	0.194
-365.712	88.368	-0.064	-0.072
-364.698	520.630	-0.033	-0.077
-363.683	-68.243	0.373	-0.146
-362.669	300.678	-0.149	-0.278
-361.654	-124.329	0.086	-0.014
-360.639	68.145	0.117	-0.120
-359.625	124.589	0.240	0.305
-358.610	-86.412	0.449	-0.139
-357.596	-18.453	-0.026	0.016
-356.581	-200.000	-0.018	0.351
-355.566	79.844	-0.191	0.206
-354.552	-99.875	-0.145	-0.037
-353.537	-163.282	-0.340	-0.016
-352.523	-59.800	-0.193	-0.083
-351.508	334.981	-0.049	-0.095
-350.493	-200.000	-0.013	0.128
-349.479	800.000	0.117	0.383
-348.464	-200.000	-0.039	-0.239
-347.450	88.454	0.029	-0.032
-346.435	-76.148	0.192	0.068
-345.420	630.495	-0.063	0.160
-344.406	-200.000	-0.054	-0.286
-343.391	-44.284	0.181	-0.091
-342.377	-62.825	-0.268	-0.112
-341.362	-106.329	0.110	0.025
-340.348	-50.513	0.160	0.076
-339.333	-200.000	-0.304	-0.001
-338.318	339.091	-0.103	0.202
-337.304	-62.836	0.212	-0.088
-336.289	-200.000	0.004	0.201
-335.275	106.383	-0.067	-0.080
-334.260	62.552	-0.138	-0.139
-333.245	-197.747	0.400	-0.002
-332.231	-118.373	-0.300	0.054
-331.216	461.426	0.137	0.308
-330.202	-200.000	0.077	0.454
-329.187	-200.000	-0.037	-0.194
-328.172	261.536	-0.122	-0.213
-327.158	-200.000	-0.010	0.147
-326.143	36.456	0.059	0.052
-325.129	315.981	0.025	-0.048
-324.114	66.053	-0.297	0.303
-323.099	-17.110	0.063	0.040
-322.085	-97.423	-0.149	-0.039
-321.070	775.777	-0.048	0.131
-320.056	88.823	-0.108	-0.121
-319.041	-120.778	0.115	-0.020
-318.026	-200.000	-0.014	0.164
-317.012	-200.000	0.027	-0.171
-315.997	-99.578	0.091	0.023
-314.983	-44.212	0.207	0.104
-313.968	-96.804	-0.182	-0.048
-312.953	129.460	-0.032	0.041
-311.939	800.000	0.108	-0.360
-310.924	-68.427	-0.314	-0.122
-309.910	378.691	-0.113	0.232
-308.895	24.890	0.069	0.057
-307.880	0.562	-0.071	0.051
-306.866	4.704	0.102	0.075
-305.851	550.283	-0.122	0.294
-304.837	-31.119	-0.155	0.088
-303.822	-33.988	0.128	0.071
-302.807	-84.536	0.070	0.022
-301.793	-57.811	0.139	0.061
-300.778	-171.325	-0.407	0.014
-299.764	205.654	0.073	0.114
-298.749	-200.000	0.019	0.241
-297.735	10.595	0.289	0.221
-296.720	70.400	0.244	0.253
-295.705	735.318	0.024	0.065
-294.691	224.943	-0.165	-0.268
-293.676	-200.000	-0.050	-0.263
-292.662	-29.314	0.100	0.057
-291.647	-68.767	0.446	0.173
-290.632	-170.494	-0.417	0.015
-289.618	-120.612	-0.026	-0.004
-288.603	-69.341	0.369	0.142
-287.589	-200.000	-0.022	-0.111
-286.574	800.000	0.041	-0.160
-285.559	-68.313	0.068	0.027
-284.545	-76.993	-0.116	-0.041
-283.530	-200.000	-0.034	0.207
-282.516	800.000	-0.136	-0.380
-281.501	240.598	-0.124	-0.207
-280.486	-54.457	-0.273	-0.124
-279.472	-35.910	0.142	-0.077
-278.457	398.304	-0.168	0.352
-277.443	800.000	-0.016	-0.069
-276.428	-200.000	0.012	-0.177
-275.413	-84.277	-0.144	0.046
-274.399	-154.146	0.542	-0.037
-273.384	1.082	0.080	0.058
-272.370	-23.336	0.131	0.079
-271.355	137.238	-0.070	0.092
-270.340	-13.304	0.071	-0.046
-269.326	-117.571	0.279	-0.050
-268.311	25.672	0.118	-0.099
-267.297	-84.025	0.297	-0.095
-266.282	81.969	-0.094	-0.103
-265.267	-200.000	-0.033	-0.213
-264.253	44.856	0.111	0.103
-263.238	1.441	-0.142	-0.102
-262.224	-1.988	0.197	0.139
-261.209	-6.036	0.272	-0.187
-260.195	-148.361	-0.267	0.022
-259.180	800.000	0.042	-0.161
-258.165	4.139	-0.137	0.101
-257.151	-200.000	0.003	-0.028
-256.136	-13.218	-0.049	0.032
-255.122	-109.663	0.142	0.030
-254.107	-200.000	-0.001	-0.054
-253.092	-67.995	-0.044	0.017
-252.078	792.663	-0.058	-0.161
-251.063	-200.000	0.011	0.331
-250.049	90.126	-0.105	0.117
-249.034	800.000	-0.070	-0.245
-248.019	108.290	0.087	-0.105
-247.005	-200.000	0.009	-0.347
-245.990	468.663	0.137	0.308
-244.976	-106.804	-0.155	0.035
-243.961	33.448	-0.148	0.129
-242.946	-118.785	0.290	-0.051
-241.932	31.191	-0.235	-0.202
-240.917	16.586	-0.093	-0.073
-239.903	-125.327	-0.255	-0.039
-238.888	-137.393	-0.060	0.007
-237.873	-152.828	-0.214	-0.015
-236.859	-80.363	-0.195	0.065
-235.844	67.713	0.198	0.203
-234.830	-117.310	-0.456	0.083
-233.815	20.776	0.190	-0.155
-232.800	58.262	-0.296	0.291
-231.786	-200.000	0.004	0.106
-230.771	-54.305	-0.108	0.049
-229.757	-5.927	0.212	0.145
-228.742	-200.000	-0.020	0.115
-227.727	-113.207	-0.297	0.059
-226.713	-200.000	-0.002	0.104
-225.698	800.000	-0.052	0.166
-224.684	-153.894	-0.163	-0.011
-223.669	-25.420	0.090	0.053
-222.655	-16.971	0.151	-0.096
-221.640	20.578	-0.017	0.013
-220.625	-125.679	0.387	-0.059
-219.611	-200.000	0.006	-0.142
-218.596	-200.000	0.045	0.325
-217.582	219.405	0.119	0.191
-216.567	59.076	0.043	-0.042
-215.552	-200.000	0.010	0.193
-214.538	-200.000	-0.001	-0.171
-213.523	776.803	0.031	-0.086
-212.509	362.293	0.134	-0.270
-211.494	193.697	-0.041	-0.062
-210.479	-34.976	0.185	-0.101
-209.465	171.274	0.169	-0.243
-208.450	103.188	-0.315	-0.369
-207.436	-48.992	-0.130	-0.063
-206.421	18.093	-0.157	-0.125
-205.406	800.000	-0.025	-0.099
-204.392	56.243	-0.079	-0.077
-203.377	-61.013	-0.110	0.046
-202.363	169.073	-0.071	-0.102
-201.348	-155.367	-0.175	-0.011
-200.333	-200.000	-0.045	-0.270
-199.319	25.727	0.107	0.089
-198.304	40.947	0.219	-0.198
-197.290	-8.158	-0.287	-0.193
-196.275	408.156	0.034	0.072
-195.260	-155.512	0.392	0.025
-194.246	610.023	-0.126	-0.316
-193.231	373.949	-0.084	-0.171
-192.217	192.235	-0.083	0.125
-191.202	364.450	-0.023	-0.047
-190.187	358.942	-0.100	0.199
-189.173	800.000	-0.004	0.012
-188.158	-52.878	-0.316	-0.146
-187.144	-55.950	-0.110	-0.049
-186.129	-131.189	-0.199	0.027
-185.114	-200.000	-0.055	-0.306
-184.100	-168.092	-0.056	0.002
-183.085	-200.000	-0.028	-0.251
-182.071	-50.303	0.330	-0.156
-181.056	-131.858	0.241	0.032
-180.042	-116.051	0.603	-0.112
-179.027	-116.810	-0.204	0.037
-178.012	388.825	-0.049	-0.102
-176.998	-200.000	-0.071	-0.369
-175.983	17.712	0.303	0.241
-174.969	-200.000	0.047	-0.230
-173.954	-93.309	-0.070	-0.019
-172.939	-129.555	0.169	0.023
-171.925	272.225	0.081	0.143
-170.910	17.576	-0.118	0.094
-169.896	46.650	0.117	-0.108
-168.881	-137.055	0.149	0.017
-167.866	-41.994	0.129	-0.066
-166.852	799.955	-0.016	-0.043
-165.837	-200.000	0.029	-0.180
-164.823	64.888	0.187	-0.189
-163.808	-89.375	0.092	0.027
-162.793	76.577	-0.081	0.086
-161.779	103.965	-0.323	0.379
-160.764	-105.954	-0.286	0.064
-159.750	-200.000	0.037	0.266
-158.735	800.000	0.060	0.217
-157.720	-41.507	-0.165	0.085
-156.706	1.895	0.170	-0.122
-155.691	-200.000	0.015	-0.348
-154.677	-82.213	0.025	-0.008
-153.662	206.317	-0.124	0.193
-152.647	-110.253	-0.216	-0.045
-151.633	210.737	-0.060	0.095
-150.618	281.261	0.025	0.044
-149.604	-41.687	0.376	0.193
-148.589	299.257	0.095	0.175
-147.574	153.319	0.204	-0.279
-146.560	216.381	0.222	0.354
-145.545	-200.000	-0.001	-0.050
-144.531	-27.896	0.377	0.218
-143.516	151.784	-0.052	-0.071
-142.502	504.423	-0.101	-0.233
-141.487	-166.956	0.398	0.016
-140.472	-200.000	-0.044	-0.233
-139.458	-28.969	-0.132	-0.076
-138.443	647.430	0.078	-0.199
-137.429	-200.000	0.064	-0.429
-136.414	-200.000	0.033	-0.206
-135.399	-151.763	0.337	0.025
-134.385	677.769	-0.168	0.438
-133.370	-46.553	-0.067	0.033
-132.356	380.826	0.129	0.264
-131.341	-75.111	-0.034	0.012
-130.326	198.700	-0.155	-0.237
-129.312	45.668	-0.100	0.092
-128.297	16.261	0.270	-0.213
-127.283	-200.000	-0.028	-0.185
-126.268	51.554	0.256	-0.243
-125.253	-200.000	-0.016	0.152
-124.239	800.000	0.059	0.243
-123.224	-146.975	-0.400	0.034
-122.210	391.539	0.129	-0.267
