DTS Sentinel unit serial number:	SN413079Multiplexer serial number:	ORYXHardware model number:	OX4-SRSoftware version number:	ORYX F/W v4.00 Oryx Data Collector v3.7.2.0data status	okinstallation	princeton_trtdifferential loss correction	single-endedforward channel	channel 3reverse channel	N/Adate	2019/09/19time	01:08:35forward acquisition time	60.00reverse acquisition time	0.00gamma	496.2192k internal	0.2347k external	0.2347temperature offset calibration	0.9993default loss term (dB/km)	0.3790temperature slope calibration	1.0000multiplexer offset coefficient	1.0000multiplexer slope coefficient	1.0000fibre end	0.00T internal ref (°C)	21.81T ext. ref 1 (°C)	0.72T ext. ref 2 (°C)	15.31length (m)	temperature (°C)	Stokes	anti-Stokes-747.200	-91.451	0.118	-0.034
-746.185	-54.456	-0.189	0.085
-745.171	-33.166	0.225	0.125
-744.156	-54.642	-0.174	0.079
-743.142	267.958	0.164	0.287
-742.127	-200.000	0.001	-0.007
-741.112	-84.079	0.159	0.050
-740.098	-200.000	-0.007	-0.181
-739.083	239.707	-0.113	0.188
-738.069	98.933	-0.071	0.082
-737.054	54.105	-0.169	0.162
-736.039	-75.502	-0.180	-0.064
-735.025	46.163	-0.058	0.054
-734.010	-200.000	0.057	-0.329
-732.996	-150.771	-0.233	0.018
-731.981	48.279	-0.088	-0.082
-730.966	39.969	-0.256	-0.230
-729.952	-117.545	0.027	0.005
-728.937	281.582	-0.191	-0.342
-727.923	-64.962	-0.367	-0.148
-726.908	-9.716	0.205	-0.136
-725.894	4.959	-0.216	0.159
-724.879	39.406	-0.342	-0.306
-723.864	-200.000	0.001	0.040
-722.850	41.047	-0.116	-0.104
-721.835	-200.000	-0.076	-0.396
-720.821	800.000	0.036	-0.114
-719.806	114.585	-0.111	0.135
-718.791	-12.746	-0.093	-0.061
-717.777	201.960	0.046	0.071
-716.762	-148.468	0.499	-0.041
-715.748	261.757	-0.091	0.158
-714.733	-74.854	-0.066	-0.024
-713.718	452.399	0.115	-0.253
-712.704	3.129	0.200	0.145
-711.689	21.200	-0.148	-0.120
-710.675	-16.617	0.058	-0.037
-709.660	98.633	0.139	0.160
-708.645	800.000	0.056	-0.196
-707.631	-20.431	-0.311	-0.191
-706.616	800.000	0.071	-0.289
-705.602	-97.296	-0.239	-0.062
-704.587	154.140	-0.366	-0.501
-703.572	-158.019	0.092	-0.005
-702.558	-167.572	-0.064	0.003
-701.543	143.879	-0.264	-0.351
-700.529	-200.000	0.045	-0.211
-699.514	-47.893	0.084	-0.041
-698.499	-89.240	0.266	-0.078
-697.485	-66.862	-0.323	-0.127
-696.470	-20.712	0.041	0.025
-695.456	54.260	0.199	0.191
-694.441	44.541	-0.202	-0.185
-693.426	289.404	0.011	0.020
-692.412	-200.000	0.012	0.205
-691.397	-200.000	0.128	0.001
-690.383	53.598	-0.353	0.338
-689.368	-40.980	0.214	-0.110
-688.354	213.583	-0.034	-0.053
-687.339	80.527	0.301	0.324
-686.324	113.724	-0.238	-0.288
-685.310	145.354	0.195	-0.260
-684.295	-152.945	0.095	-0.007
-683.281	-19.675	0.149	0.092
-682.266	-200.000	0.015	0.190
-681.251	29.817	-0.220	-0.187
-680.237	-125.966	-0.144	0.022
-679.222	-140.419	-0.218	0.023
-678.208	-182.223	-0.087	-0.002
-677.193	-112.895	-0.260	-0.051
-676.178	551.509	0.107	-0.255
-675.164	2.230	-0.366	-0.263
-674.149	-84.362	-0.410	-0.129
-673.135	-43.429	0.202	-0.102
-672.120	281.864	0.085	-0.151
-671.105	800.000	-0.069	-0.209
-670.091	-200.000	-0.053	0.251
-669.076	436.663	0.098	0.213
-668.062	-48.687	0.067	0.032
-667.047	-87.574	-0.158	0.048
-666.032	349.156	0.055	-0.108
-665.018	-161.838	0.435	-0.022
-664.003	158.572	-0.160	0.221
-662.989	629.450	0.081	-0.203
-661.974	-14.081	-0.219	-0.141
-660.959	319.130	0.149	-0.280
-659.945	60.618	0.164	0.162
-658.930	113.184	0.160	-0.193
-657.916	189.575	-0.106	-0.159
-656.901	-200.000	0.011	0.111
-655.886	-21.707	-0.249	0.151
-654.872	800.000	-0.074	-0.261
-653.857	731.387	-0.105	-0.279
-652.843	800.000	0.017	0.063
-651.828	273.139	0.073	0.128
-650.814	-200.000	0.006	-0.040
-649.799	170.782	0.038	0.054
-648.784	584.281	0.054	-0.131
-647.770	120.935	0.182	-0.226
-646.755	-200.000	-0.013	-0.433
-645.741	-200.000	0.018	-0.153
-644.726	74.277	0.141	-0.147
-643.711	207.670	0.164	0.254
-642.697	-89.915	-0.287	-0.083
-641.682	-130.545	0.416	0.056
-640.668	29.180	0.207	0.175
-639.653	-143.294	-0.074	-0.007
-638.638	164.206	-0.123	-0.173
-637.624	-142.191	-0.348	0.034
-636.609	22.030	0.302	-0.246
-635.595	-138.216	0.089	0.010
-634.580	52.346	0.033	0.032
-633.565	-49.758	-0.207	-0.098
-632.551	800.000	-0.013	-0.056
-631.536	-16.928	-0.138	0.087
-630.522	378.428	-0.190	0.386
-629.507	5.335	0.072	-0.053
-628.492	-9.165	-0.267	-0.178
-627.478	168.682	0.032	-0.045
-626.463	-163.556	-0.373	-0.018
-625.449	364.554	-0.188	0.377
-624.434	104.581	0.158	-0.185
-623.419	-200.000	-0.018	0.156
-622.405	800.000	0.092	0.324
-621.390	-33.165	0.140	0.077
-620.376	-116.198	-0.248	0.046
-619.361	256.048	0.058	-0.099
-618.346	-174.281	-0.348	0.010
-617.332	-153.667	0.281	-0.019
-616.317	-118.497	-0.024	-0.004
-615.303	493.047	0.037	0.084
-614.288	-200.000	-0.014	0.157
-613.273	383.451	0.080	0.164
-612.259	-200.000	0.019	-0.301
-611.244	800.000	0.045	0.190
-610.230	-120.908	-0.154	-0.026
-609.215	-150.658	0.094	-0.007
-608.201	-55.334	-0.139	-0.062
-607.186	800.000	-0.071	0.254
-606.171	-200.000	0.370	0.001
-605.157	-200.000	0.004	0.163
-604.142	-162.471	0.146	-0.007
-603.128	239.648	0.097	-0.161
-602.113	336.980	0.052	0.101
-601.098	-200.000	-0.042	-0.193
-600.084	800.000	-0.035	-0.121
-599.069	-20.284	-0.103	-0.063
-598.055	-19.021	0.173	0.107
-597.040	-45.047	-0.322	0.159
-596.025	339.777	0.166	-0.321
-595.011	-78.742	-0.334	0.113
-593.996	-200.000	-0.012	0.243
-592.982	-100.753	-0.198	0.049
-591.967	-200.000	0.016	0.078
-590.952	-200.000	-0.008	0.319
-589.938	81.114	-0.193	0.207
-588.923	-86.468	0.125	0.038
-587.909	-113.627	0.236	0.046
-586.894	75.166	-0.297	-0.311
-585.879	-70.553	0.117	0.044
-584.865	-200.000	0.008	-0.329
-583.850	-67.504	0.244	0.095
-582.836	-69.127	-0.196	-0.075
-581.821	-15.572	0.101	-0.064
-580.806	-190.530	-0.248	-0.003
-579.792	126.223	-0.188	-0.236
-578.777	-150.043	-0.267	-0.021
-577.763	275.225	-0.106	-0.187
-576.748	-200.000	-0.022	0.423
-575.733	172.115	0.058	-0.083
-574.719	-152.101	-0.386	-0.028
-573.704	-6.407	0.259	-0.176
-572.690	184.607	-0.082	0.121
-571.675	15.568	0.140	0.109
-570.661	124.254	0.130	0.162
-569.646	243.502	-0.189	-0.315
-568.631	-200.000	0.006	0.110
-567.617	-148.496	-0.271	-0.022
-566.602	-29.904	0.066	0.038
-565.588	-124.171	-0.111	0.017
-564.573	570.926	-0.074	-0.179
-563.558	242.730	0.101	0.168
-562.544	171.099	0.102	-0.145
-561.529	-177.849	0.048	0.001
-560.515	-200.000	-0.032	-0.346
-559.500	417.701	0.081	0.172
-558.485	800.000	-0.060	-0.194
-557.471	-119.323	0.214	-0.037
-556.456	-200.000	0.007	-0.323
-555.442	13.163	0.286	-0.220
-554.427	-148.131	-0.293	0.024
-553.412	13.372	-0.067	-0.051
-552.398	-69.176	-0.115	0.044
-551.383	-38.442	-0.359	-0.188
-550.369	575.435	-0.173	-0.418
-549.354	113.677	-0.193	0.233
-548.339	-32.571	-0.174	0.096
-547.325	552.096	0.201	0.479
-546.310	-64.670	0.159	-0.064
-545.296	-200.000	-0.004	-0.424
-544.281	800.000	-0.093	-0.313
-543.266	-200.000	0.108	-0.545
-542.252	-58.625	0.399	-0.171
-541.237	-46.593	-0.500	0.243
-540.223	-55.313	0.011	0.005
-539.208	776.786	-0.047	-0.126
-538.193	800.000	0.099	0.305
-537.179	-200.000	-0.009	0.106
-536.164	800.000	-0.091	-0.300
-535.150	-95.245	0.357	-0.095
-534.135	653.222	0.144	-0.366
-533.121	550.651	0.098	0.232
-532.106	-171.146	0.200	0.007
-531.091	-45.710	-0.286	-0.140
-530.077	155.090	0.242	-0.329
-529.062	3.177	-0.011	-0.008
-528.048	92.699	0.137	0.153
-527.033	-200.000	0.039	-0.286
-526.018	-200.000	-0.001	-0.215
-525.004	-74.008	-0.266	0.096
-523.989	44.836	-0.210	-0.191
-522.975	800.000	0.073	0.311
-521.960	-200.000	0.059	-0.298
-520.945	-200.000	0.052	0.248
-519.931	68.720	0.118	-0.120
-518.916	403.138	-0.089	-0.185
-517.902	-32.778	-0.242	0.133
-516.887	-200.000	0.037	0.360
-515.872	89.527	-0.060	-0.066
-514.858	-200.000	0.026	0.183
-513.843	-99.410	-0.445	0.111
-512.829	-200.000	-0.015	-0.077
-511.814	-200.000	-0.010	0.144
-510.799	82.385	0.092	-0.099
-509.785	-102.949	0.145	0.034
-508.770	-200.000	-0.005	0.030
-507.756	105.007	0.109	0.127
-506.741	112.607	-0.096	-0.115
-505.726	150.785	-0.288	0.388
-504.712	-69.131	-0.408	-0.156
-503.697	-31.891	0.039	0.022
-502.683	-200.000	-0.009	0.093
-501.668	-200.000	0.022	0.391
-500.653	749.223	-0.063	0.167
-499.639	-69.479	0.160	0.061
-498.624	800.000	0.026	0.108
-497.610	-71.202	-0.240	-0.089
-496.595	-40.243	0.227	0.117
-495.581	156.111	-0.030	-0.041
-494.566	800.000	-0.141	0.398
-493.551	95.001	-0.138	-0.155
-492.537	-49.721	0.231	0.109
-491.522	117.139	0.189	0.230
-490.508	800.000	-0.121	0.497
-489.493	100.468	-0.032	-0.037
-488.478	229.069	0.054	-0.088
-487.464	-200.000	0.009	0.170
-486.449	-1.966	0.111	0.077
-485.435	366.906	0.059	-0.117
-484.420	108.299	-0.313	-0.369
-483.405	-151.107	0.128	0.010
-482.391	-200.000	-0.043	-0.241
-481.376	21.721	-0.113	0.091
-480.362	-65.045	-0.102	-0.041
-479.347	339.211	0.147	0.284
-478.332	-79.937	-0.282	0.094
-477.318	77.426	0.100	-0.105
-476.303	800.000	-0.117	-0.406
-475.289	-13.749	-0.176	0.112
-474.274	800.000	0.076	0.268
-473.259	800.000	-0.068	0.272
-472.245	-190.337	0.310	0.003
-471.230	153.346	-0.255	0.345
-470.216	800.000	-0.093	-0.367
-469.201	-80.602	0.408	-0.134
-468.186	-102.382	0.129	0.031
-467.172	57.834	0.126	-0.122
-466.157	391.062	0.075	-0.154
-465.143	-14.451	0.241	-0.154
-464.128	55.710	0.156	0.150
-463.113	-200.000	-0.004	-0.095
-462.099	-82.034	-0.302	0.097
-461.084	800.000	-0.080	-0.249
-460.070	-200.000	-0.002	0.192
-459.055	-104.545	-0.201	-0.046
-458.040	610.155	-0.059	-0.145
-457.026	-80.348	-0.090	-0.030
-456.011	-27.640	-0.161	0.093
-454.997	55.905	0.052	0.050
-453.982	-151.768	0.205	-0.015
-452.968	779.245	-0.084	-0.226
-451.953	246.762	0.027	-0.045
-450.938	113.244	0.107	0.128
-449.924	-45.587	0.185	-0.091
-448.909	-100.660	-0.243	-0.059
-447.895	-22.681	0.163	0.097
-446.880	373.054	0.029	-0.059
-445.865	-49.118	0.149	-0.070
-444.851	-136.228	-0.470	0.054
-443.836	657.637	-0.042	0.106
-442.822	-25.617	-0.081	0.047
-441.807	377.778	-0.064	-0.130
-440.792	-200.000	-0.066	-0.427
-439.778	-180.287	-0.182	-0.004
-438.763	-71.039	0.104	-0.039
-437.749	-200.000	0.014	0.146
-436.734	-100.586	0.136	-0.033
-435.719	-123.108	0.208	0.033
-434.705	-1.688	0.248	0.172
-433.690	-200.000	0.017	0.227
-432.676	800.000	-0.064	-0.201
-431.661	44.301	0.014	-0.012
-430.646	-190.615	0.100	0.001
-429.632	-193.172	0.346	-0.003
-428.617	-168.142	-0.225	0.009
-427.603	-92.441	0.067	0.018
-426.588	-85.882	0.338	0.103
-425.573	15.859	-0.115	-0.090
-424.559	-110.814	-0.269	0.055
-423.544	-89.623	-0.236	0.068
-422.530	-43.262	-0.081	-0.041
-421.515	-200.000	0.018	-0.079
-420.500	-200.000	0.083	-0.407
-419.486	37.035	0.211	0.184
-418.471	-37.818	-0.198	-0.104
-417.457	161.392	0.023	0.032
-416.442	-61.318	-0.200	-0.083
-415.428	16.824	-0.182	0.142
-414.413	800.000	-0.075	0.228
-413.398	147.465	0.104	-0.138
-412.384	602.084	0.047	-0.115
-411.369	-200.000	0.035	-0.164
-410.355	21.811	0.345	-0.277
-409.340	-159.580	-0.193	-0.011
-408.325	-174.527	0.248	0.007
-407.311	-169.873	-0.200	0.007
-406.296	-147.892	-0.283	-0.023
-405.282	304.643	-0.220	0.402
-404.267	-38.373	-0.309	0.161
-403.252	360.067	0.052	0.103
-402.238	188.577	-0.016	-0.024
-401.223	629.877	-0.142	-0.355
-400.209	343.151	0.143	-0.277
-399.194	-70.131	0.255	-0.096
-398.179	591.140	-0.036	-0.087
-397.165	-0.950	0.114	0.080
-396.150	-29.128	-0.099	-0.056
-395.136	216.980	-0.118	0.185
-394.121	253.744	-0.033	-0.055
-393.106	-104.035	-0.182	-0.042
-392.092	39.640	0.393	0.347
-391.077	800.000	-0.113	0.426
-390.063	-117.857	0.273	-0.048
-389.048	-29.655	0.313	-0.176
-388.033	772.219	0.103	0.278
-387.019	-200.000	0.021	-0.208
-386.004	496.821	0.148	0.335
-384.990	-142.044	-0.281	0.028
-383.975	-108.386	-0.326	-0.069
-382.960	-200.000	-0.039	0.306
-381.946	-200.000	-0.019	-0.191
-380.931	-54.312	0.240	-0.107
-379.917	258.750	-0.077	0.131
-378.902	-101.657	-0.378	0.090
-377.888	483.981	-0.017	0.039
-376.873	96.000	-0.036	0.041
-375.858	-20.273	0.053	0.032
-374.844	800.000	0.023	-0.093
-373.829	-22.060	0.087	-0.052
-372.815	79.618	-0.245	0.259
-371.800	-14.961	0.165	-0.104
-370.785	-200.000	-0.010	0.112
-369.771	-87.135	-0.178	-0.053
-368.756	-141.203	-0.094	-0.009
-367.742	636.523	0.104	0.259
-366.727	-145.911	-0.276	0.024
-365.712	497.815	0.117	-0.264
-364.698	800.000	0.106	-0.293
-363.683	-125.345	-0.167	0.025
-362.669	800.000	0.064	0.211
-361.654	112.329	0.074	0.088
-360.639	-200.000	-0.009	0.319
-359.625	-64.052	-0.117	0.047
-358.610	-119.207	-0.093	-0.016
-357.596	748.333	0.066	-0.174
-356.581	30.093	-0.279	-0.234
-355.566	-111.339	0.301	0.060
-354.552	-37.626	-0.162	-0.085
-353.537	-200.000	-0.008	-0.210
-352.523	-104.185	0.168	-0.038
-351.508	244.938	0.068	-0.113
-350.493	-200.000	0.049	0.253
-349.479	168.633	0.076	-0.107
-348.464	173.058	-0.295	-0.419
-347.450	-194.408	0.115	0.001
-346.435	298.857	-0.054	-0.098
-345.420	269.424	0.153	0.264
-344.406	-142.195	0.221	-0.022
-343.391	401.791	0.064	-0.132
-342.377	710.172	-0.112	-0.291
-341.362	-46.571	-0.083	-0.040
-340.348	437.477	-0.116	-0.248
-339.333	-177.439	-0.165	-0.004
-338.318	-57.856	-0.325	0.140
-337.304	17.540	0.194	0.152
-336.289	83.589	0.013	-0.014
-335.275	800.000	0.063	0.181
-334.260	423.443	-0.035	0.073
-333.245	419.652	-0.120	-0.252
-332.231	141.334	0.222	0.289
-331.216	800.000	-0.023	-0.085
-330.202	199.734	0.223	0.336
-329.187	-11.883	0.208	-0.134
-328.172	686.786	-0.068	-0.175
-327.158	-53.140	-0.100	0.045
-326.143	39.395	0.058	0.051
-325.129	-62.632	-0.029	-0.012
-324.114	-121.979	-0.168	-0.027
-323.099	800.000	-0.084	0.262
-322.085	-159.963	-0.051	0.003
-321.070	3.477	-0.150	0.107
-320.056	21.890	0.105	0.084
-319.041	103.394	-0.335	0.386
-318.026	157.614	0.284	0.387
-317.012	364.679	-0.113	0.223
-315.997	55.548	0.060	-0.057
-314.983	-75.018	0.088	-0.031
-313.968	207.680	0.203	-0.312
-312.953	-52.617	-0.450	-0.204
-311.939	450.411	0.038	0.081
-310.924	800.000	-0.064	0.224
-309.910	-200.000	0.341	-0.001
-308.895	741.247	0.135	0.355
-307.880	19.108	-0.118	-0.093
-306.866	-200.000	0.051	0.221
-305.851	325.116	-0.149	0.280
-304.837	-200.000	0.086	0.375
-303.822	-200.000	-0.012	0.097
-302.807	-200.000	0.003	-0.456
-301.793	212.773	0.084	-0.130
-300.778	-200.000	0.014	-0.119
-299.764	195.557	-0.193	-0.288
-298.749	-156.753	-0.191	0.012
-297.735	-185.461	0.162	-0.002
-296.720	-200.000	0.024	-0.273
-295.705	-200.000	-0.024	-0.158
-294.691	210.686	0.093	-0.144
-293.676	-192.896	-0.211	0.002
-292.662	-92.411	-0.408	-0.113
-291.647	214.016	0.149	0.231
-290.632	451.084	0.067	-0.145
-289.618	57.305	0.091	-0.087
-288.603	-200.000	-0.010	0.060
-287.589	91.656	0.222	-0.245
-286.574	-80.281	-0.144	-0.047
-285.559	298.270	-0.083	-0.149
-284.545	-200.000	-0.007	0.250
-283.530	95.974	-0.047	-0.053
-282.516	-7.318	0.140	-0.093
-281.501	96.817	-0.109	0.123
-280.486	-140.501	0.174	-0.018
-279.472	5.632	-0.100	-0.072
-278.457	-200.000	-0.002	-0.134
-277.443	-105.298	-0.195	0.044
-276.428	-7.758	0.128	0.085
-275.413	-200.000	-0.055	0.269
-274.399	-123.328	0.223	-0.035
-273.384	-200.000	-0.008	0.177
-272.370	231.522	0.182	-0.293
-271.355	279.739	0.148	-0.259
-270.340	800.000	0.073	0.209
-269.326	-94.736	0.224	-0.060
-268.311	-200.000	0.008	-0.244
-267.297	382.733	-0.081	-0.164
-266.282	-182.500	-0.264	0.005
-265.267	-169.893	0.311	0.011
-264.253	62.781	0.232	0.227
-263.238	-12.394	0.151	0.097
-262.224	-200.000	0.017	0.138
-261.209	-34.696	0.214	-0.115
-260.195	-200.000	0.024	0.201
-259.180	119.958	0.212	0.258
-258.165	56.714	0.133	-0.127
-257.151	-11.892	-0.109	-0.070
-256.136	323.877	0.089	-0.167
-255.122	-70.473	-0.030	0.011
-254.107	98.300	-0.229	0.258
-253.092	218.292	0.054	0.085
-252.078	-136.013	0.106	0.012
-251.063	-138.464	0.265	-0.029
-250.049	39.252	0.063	-0.055
-249.034	28.408	0.140	0.116
-248.019	-93.456	0.147	-0.040
-247.005	-175.158	0.204	-0.006
-245.990	-200.000	0.018	-0.339
-244.976	-141.196	-0.342	-0.034
-243.961	199.414	0.096	0.144
-242.946	386.615	0.152	0.308
-241.932	634.639	-0.118	0.293
-240.917	-182.119	0.271	0.005
-239.903	-200.000	0.029	-0.362
-238.888	800.000	-0.075	-0.216
-237.873	570.624	0.119	0.284
-236.859	244.286	-0.077	-0.126
-235.844	-200.000	-0.021	0.197
-234.830	326.092	0.047	-0.088
-233.815	-200.000	-0.007	0.092
-232.800	800.000	-0.063	0.229
-231.786	-77.142	0.302	-0.103
-230.771	-143.270	0.111	-0.010
-229.757	160.175	-0.150	0.205
-228.742	800.000	0.031	-0.089
-227.727	-200.000	-0.006	-0.285
-226.713	-177.111	-0.155	0.004
-225.698	796.521	0.053	-0.142
-224.684	-200.000	-0.050	-0.232
-223.669	124.862	-0.117	-0.144
-222.655	-144.306	-0.043	-0.004
-221.640	-29.645	-0.200	-0.112
-220.625	212.869	0.029	-0.045
-219.611	-55.894	-0.113	-0.049
-218.596	271.019	0.216	0.373
-217.582	-123.667	0.133	0.021
-216.567	-58.854	-0.043	0.018
-215.552	54.794	0.069	-0.065
-214.538	164.573	0.192	0.265
-213.523	-56.525	0.101	0.044
-212.509	91.353	0.305	-0.336
-211.494	135.295	-0.194	0.247
-210.479	190.207	-0.156	0.229
-209.465	-117.090	-0.112	0.020
-208.450	-64.763	-0.076	-0.030
-207.436	-121.125	0.181	0.030
-206.421	599.246	-0.079	0.192
-205.406	-200.000	0.015	-0.486
-204.392	262.488	-0.098	0.167
-203.377	-200.000	0.101	0.502
-202.363	-200.000	-0.043	0.336
-201.348	432.676	0.120	0.254
-200.333	277.317	-0.068	0.118
-199.319	51.696	0.134	-0.125
-198.304	800.000	-0.046	0.139
-197.290	-142.070	0.091	-0.009
-196.275	123.319	0.163	0.200
-195.260	-200.000	0.031	0.454
-194.246	-193.964	0.231	0.002
-193.231	-200.000	0.016	0.193
-192.217	-49.891	0.167	0.078
-191.202	94.095	-0.086	0.096
-190.187	-7.189	-0.132	0.087
-189.173	-7.232	0.225	-0.149
-188.158	-123.482	-0.287	0.045
-187.144	253.541	0.094	-0.157
-186.129	7.024	-0.110	0.080
-185.114	50.152	0.009	0.008
-184.100	-104.242	0.297	0.067
-183.085	-7.411	0.124	-0.082
-182.071	-200.000	0.000	-0.126
-181.056	123.149	-0.072	0.089
-180.042	-40.362	0.251	-0.127
-179.027	766.520	-0.085	-0.225
-178.012	-26.901	0.251	-0.143
-176.998	-56.130	0.074	-0.032
-175.983	-34.133	-0.257	-0.138
-174.969	-200.000	0.019	0.232
-173.954	-144.991	-0.370	-0.033
-172.939	225.126	0.199	0.314
-171.925	286.136	0.074	-0.130
-170.910	-155.583	0.147	0.009
-169.896	-54.704	-0.224	-0.099
-168.881	-14.221	0.160	0.101
-167.866	-145.021	-0.117	-0.010
-166.852	-140.188	-0.281	-0.029
-165.837	-120.588	0.154	-0.026
-164.823	-134.221	0.276	0.033
-163.808	-107.951	0.194	-0.041
-162.793	-70.929	0.060	-0.022
-161.779	-200.000	0.054	-0.334
-160.764	-78.799	0.069	0.023
-159.750	-141.274	-0.299	-0.030
-158.735	-89.178	-0.300	-0.087
-157.720	247.642	0.143	-0.237
-156.706	-139.579	-0.128	-0.013
-155.691	-115.870	-0.185	-0.034
-154.677	-157.139	0.359	-0.021
-153.662	800.000	0.060	-0.174
-152.647	-24.257	-0.232	-0.135
-151.633	220.577	0.217	-0.340
-150.618	363.050	-0.191	0.374
-149.604	177.779	0.169	0.241
-148.589	6.126	0.116	-0.084
-147.574	181.606	0.209	-0.300
-146.560	-200.000	0.006	0.126
-145.545	435.677	0.125	-0.265
-144.531	-122.875	0.172	-0.027
-143.516	-49.288	-0.235	-0.110
-142.502	298.913	0.077	0.139
-141.487	-121.125	-0.229	0.037
-140.472	-25.838	0.056	-0.032
-139.458	-147.016	0.102	0.009
-138.443	-94.400	-0.105	-0.028
-137.429	-200.000	-0.038	-0.166
-136.414	-200.000	-0.030	0.465
-135.399	-71.952	0.258	0.094
-134.385	-56.295	0.218	-0.095
-133.370	-146.895	-0.112	0.009
-132.356	-59.774	0.365	-0.152
-131.341	-115.446	0.281	0.052
-130.326	800.000	0.029	0.125
-129.312	-0.186	0.306	0.213
-128.297	-111.565	0.494	0.098
-127.283	-200.000	-0.021	-0.417
-126.268	-159.331	0.193	0.011
-125.253	-200.000	0.047	-0.448
-124.239	-200.000	-0.232	0.001
-123.224	-200.000	-0.002	-0.089
