DTS Sentinel unit serial number:	SN413079Multiplexer serial number:	ORYXHardware model number:	OX4-SRSoftware version number:	ORYX F/W v4.00 Oryx Data Collector v3.7.2.0data status	okinstallation	princeton_trtdifferential loss correction	single-endedforward channel	channel 3reverse channel	N/Adate	2019/09/13time	02:36:34forward acquisition time	60.00reverse acquisition time	0.00gamma	496.2192k internal	0.2335k external	0.2335temperature offset calibration	1.0135default loss term (dB/km)	0.3790temperature slope calibration	1.0000multiplexer offset coefficient	1.0000multiplexer slope coefficient	1.0000fibre end	0.00T internal ref (°C)	27.47T ext. ref 1 (°C)	3.99T ext. ref 2 (°C)	22.23length (m)	temperature (°C)	Stokes	anti-Stokes-747.200	103.005	-0.099	-0.116
-746.185	-92.545	0.080	-0.023
-745.171	800.000	-0.063	-0.202
-744.156	800.000	-0.083	0.286
-743.142	604.110	-0.094	-0.236
-742.127	-46.286	-0.274	0.135
-741.112	-200.000	0.055	0.337
-740.098	800.000	0.021	-0.076
-739.083	141.313	-0.304	-0.404
-738.069	-41.598	-0.173	0.089
-737.054	-154.886	-0.082	0.005
-736.039	111.121	0.016	0.019
-735.025	-132.186	0.146	-0.019
-734.010	59.999	0.136	-0.135
-732.996	800.000	0.097	-0.287
-731.981	-68.263	-0.276	0.108
-730.966	-93.070	-0.145	-0.041
-729.952	-138.226	0.123	0.014
-728.937	-200.000	-0.010	0.130
-727.923	368.626	0.054	-0.109
-726.908	-119.141	-0.226	-0.040
-725.894	22.805	-0.070	0.058
-724.879	-34.308	-0.098	-0.054
-723.864	419.864	0.029	0.062
-722.850	-189.659	-0.312	-0.004
-721.835	220.884	0.134	-0.216
-720.821	-109.069	-0.380	0.081
-719.806	-68.851	0.200	0.078
-718.791	-200.000	0.045	0.259
-717.777	29.583	-0.180	0.154
-716.762	-55.362	0.198	-0.089
-715.748	800.000	0.088	-0.297
-714.733	-200.000	0.115	-0.540
-713.718	178.752	-0.125	0.184
-712.704	800.000	-0.021	-0.066
-711.689	-47.754	-0.106	-0.052
-710.675	-52.407	-0.304	-0.141
-709.660	225.075	0.091	0.147
-708.645	-200.000	-0.014	-0.242
-707.631	-18.461	0.253	0.159
-706.616	800.000	0.053	0.226
-705.602	-141.726	0.021	0.002
-704.587	222.276	-0.192	-0.310
-703.572	-200.000	-0.069	-0.408
-702.558	247.318	0.080	0.136
-701.543	234.170	0.081	-0.133
-700.529	43.119	0.272	-0.249
-699.514	-106.091	0.274	0.062
-698.499	-114.779	-0.280	-0.054
-697.485	23.597	-0.244	-0.202
-696.470	596.319	-0.082	0.203
-695.456	497.514	0.179	0.412
-694.441	-29.806	-0.187	0.107
-693.426	-155.656	-0.205	-0.013
-692.412	31.004	-0.210	-0.181
-691.397	-70.047	0.090	-0.034
-690.383	-3.936	-0.133	0.092
-689.368	-53.212	0.142	-0.065
-688.354	-19.188	-0.377	-0.235
-687.339	116.951	-0.014	-0.017
-686.324	800.000	-0.012	0.034
-685.310	15.718	0.155	-0.122
-684.295	-125.818	-0.234	0.035
-683.281	-153.466	0.186	0.013
-682.266	12.500	-0.258	-0.200
-681.251	-94.492	0.351	0.096
-680.237	1.949	-0.245	0.177
-679.222	-132.951	0.107	-0.014
-678.208	800.000	0.041	-0.133
-677.193	518.677	-0.050	0.116
-676.178	800.000	-0.077	0.271
-675.164	-200.000	-0.041	-0.368
-674.149	-200.000	-0.002	0.045
-673.135	23.426	0.120	0.099
-672.120	-153.766	-0.235	0.016
-671.105	-79.941	-0.312	-0.105
-670.091	54.126	-0.289	0.279
-669.076	-126.039	-0.480	-0.072
-668.062	-100.501	-0.057	-0.014
-667.047	-59.591	-0.264	-0.113
-666.032	-200.000	0.019	-0.303
-665.018	-25.381	-0.413	0.245
-664.003	800.000	0.122	-0.362
-662.989	-125.120	-0.267	-0.041
-661.974	-200.000	-0.010	-0.109
-660.959	-105.717	-0.161	0.036
-659.945	69.245	0.217	0.223
-658.930	-159.606	-0.125	-0.007
-657.916	-143.776	-0.396	-0.038
-656.901	-182.306	-0.319	0.006
-655.886	-143.680	0.235	-0.022
-654.872	471.261	-0.136	-0.307
-653.857	61.857	0.176	0.175
-652.843	-200.000	0.030	0.272
-651.828	800.000	-0.073	0.268
-650.814	-9.550	-0.368	0.246
-649.799	-47.817	0.149	0.072
-648.784	800.000	-0.098	0.405
-647.770	-73.639	0.027	-0.010
-646.755	44.954	-0.065	0.059
-645.741	-200.000	-0.006	0.042
-644.726	-200.000	0.006	-0.197
-643.711	40.921	0.064	-0.057
-642.697	-51.673	-0.139	-0.065
-641.682	-136.192	-0.186	0.022
-640.668	-171.931	-0.286	-0.009
-639.653	62.018	0.091	-0.091
-638.638	-200.000	0.004	-0.092
-637.624	800.000	-0.041	-0.172
-636.609	-38.672	0.226	-0.119
-635.595	-163.883	-0.317	0.015
-634.580	55.719	-0.225	-0.219
-633.565	-200.000	0.077	-0.385
-632.551	800.000	0.089	-0.266
-631.536	218.796	-0.073	-0.116
-630.522	80.557	0.141	-0.152
-629.507	-40.127	-0.053	0.028
-628.492	17.835	0.109	0.087
-627.478	-155.106	0.255	0.017
-626.463	-84.307	0.126	0.040
-625.449	-93.120	-0.207	0.058
-624.434	147.000	-0.113	-0.152
-623.419	-78.288	-0.121	-0.041
-622.405	-200.000	-0.004	-0.213
-621.390	534.229	-0.128	-0.303
-620.376	-24.775	0.233	-0.138
-619.361	-17.609	0.328	0.206
-618.346	-200.000	0.019	-0.162
-617.332	-51.810	0.110	0.051
-616.317	-141.376	0.241	-0.024
-615.303	-95.365	0.119	0.032
-614.288	273.161	-0.201	0.355
-613.273	800.000	-0.077	0.294
-612.259	133.459	0.118	0.153
-611.244	-200.000	0.026	-0.341
-610.230	240.180	-0.190	-0.317
-609.215	-140.078	-0.289	0.030
-608.201	-13.579	-0.141	0.092
-607.186	-135.280	0.384	-0.046
-606.171	-200.000	-0.033	-0.157
-605.157	-1.951	-0.360	-0.253
-604.142	-108.825	-0.199	0.043
-603.128	-193.004	0.161	0.001
-602.113	-200.000	0.017	0.247
-601.098	162.982	-0.196	0.275
-600.084	-25.720	0.058	0.034
-599.069	800.000	0.109	-0.301
-598.055	160.155	-0.052	-0.072
-597.040	59.410	-0.230	-0.227
-596.025	8.113	-0.020	0.015
-595.011	-37.605	0.198	-0.106
-593.996	-94.761	0.237	-0.064
-592.982	-92.429	0.160	-0.045
-591.967	-109.382	-0.247	-0.052
-590.952	-200.000	0.014	-0.374
-589.938	-25.382	-0.288	-0.170
-588.923	-121.351	0.327	-0.054
-587.909	72.519	-0.285	-0.297
-586.894	-90.466	-0.165	-0.048
-585.879	-7.942	-0.348	-0.234
-584.865	-77.084	-0.298	0.104
-583.850	-33.132	-0.192	-0.106
-582.836	-18.815	-0.273	0.170
-581.821	-100.000	0.102	0.025
-580.806	-200.000	-0.016	-0.189
-579.792	-99.455	-0.146	0.037
-578.777	-15.314	-0.043	-0.028
-577.763	78.175	-0.145	0.155
-576.748	-200.000	0.011	-0.067
-575.733	-36.073	-0.260	0.140
-574.719	661.071	-0.051	-0.131
-573.704	6.506	-0.439	0.325
-572.690	-115.200	-0.194	-0.037
-571.675	-200.000	0.004	-0.194
-570.661	-33.345	-0.125	-0.069
-569.646	-200.000	0.033	0.257
-568.631	-121.471	0.107	-0.018
-567.617	-70.204	-0.353	-0.134
-566.602	800.000	0.017	-0.060
-565.588	-6.638	0.267	0.182
-564.573	-7.617	-0.090	0.061
-563.558	361.882	-0.094	0.188
-562.544	12.423	-0.083	0.064
-561.529	-200.000	-0.004	0.021
-560.515	-200.000	0.010	0.379
-559.500	484.002	0.129	0.292
-558.485	-61.881	-0.044	-0.018
-557.471	471.840	-0.055	0.125
-556.456	17.409	-0.232	0.184
-555.442	-96.855	-0.172	0.045
-554.427	-200.000	0.007	0.217
-553.412	-18.133	-0.334	-0.208
-552.398	-78.036	-0.220	-0.076
-551.383	-110.048	0.138	-0.029
-550.369	507.133	-0.053	-0.123
-549.354	53.199	-0.196	-0.187
-548.339	-200.000	0.028	-0.430
-547.325	-80.169	0.230	-0.077
-546.310	-165.128	0.237	0.010
-545.296	-130.663	-0.272	0.036
-544.281	-125.385	-0.238	0.036
-543.266	-83.744	-0.123	0.039
-542.252	54.748	0.180	-0.173
-541.237	38.065	0.117	-0.103
-540.223	84.826	-0.229	0.250
-539.208	483.721	0.165	0.375
-538.193	-23.926	0.039	-0.023
-537.179	-200.000	0.011	-0.254
-536.164	-200.000	0.005	0.091
-535.150	-25.391	0.078	0.046
-534.135	-24.550	0.291	0.172
-533.121	269.831	-0.099	0.173
-532.106	-200.000	-0.117	0.538
-531.091	-44.517	0.030	0.015
-530.077	34.434	0.166	-0.144
-529.062	-200.000	0.001	0.110
-528.048	-70.451	0.201	0.076
-527.033	-153.981	0.186	0.013
-526.018	-200.000	0.005	0.185
-525.004	-36.115	0.324	0.174
-523.989	-200.000	-0.023	0.117
-522.975	144.115	0.013	0.018
-521.960	-11.463	0.263	-0.173
-520.945	60.128	0.085	0.084
-519.931	256.203	0.106	0.182
-518.916	-197.027	-0.389	-0.003
-517.902	753.898	0.079	-0.212
-516.887	265.078	-0.037	-0.065
-515.872	-62.148	0.239	0.099
-514.858	800.000	0.056	0.177
-513.843	-88.281	0.282	-0.084
-512.829	-7.165	0.144	0.097
-511.814	-164.753	0.252	-0.011
-510.799	241.404	0.087	0.145
-509.785	350.180	-0.213	0.419
-508.770	26.183	-0.114	0.095
-507.756	193.082	0.144	0.217
-506.741	-200.000	0.004	0.054
-505.726	-200.000	-0.068	0.352
-504.712	-200.000	0.011	0.139
-503.697	800.000	0.063	0.179
-502.683	800.000	-0.027	-0.080
-501.668	446.738	-0.046	0.100
-500.653	189.418	0.085	0.127
-499.639	-200.000	-0.014	-0.255
-498.624	800.000	-0.011	0.047
-497.610	116.917	0.132	0.161
-496.595	198.707	0.081	0.124
-495.581	249.382	-0.069	-0.116
-494.566	800.000	0.087	0.327
-493.551	317.151	0.124	0.234
-492.537	-135.470	-0.321	0.038
-491.522	-96.939	0.359	0.094
-490.508	25.966	-0.139	0.116
-489.493	39.695	-0.178	-0.159
-488.478	-35.261	-0.082	-0.044
-487.464	-187.023	-0.084	0.001
-486.449	-138.506	-0.423	0.046
-485.435	-200.000	0.000	-0.040
-484.420	-94.642	0.239	-0.065
-483.405	800.000	-0.070	0.207
-482.391	15.902	-0.051	0.040
-481.376	486.118	-0.116	0.263
-480.362	759.279	-0.025	0.067
-479.347	-116.570	0.145	0.027
-478.332	-174.289	0.083	0.002
-477.318	72.980	0.276	-0.287
-476.303	-101.942	0.051	0.012
-475.289	108.901	0.101	0.121
-474.274	-180.131	-0.220	0.005
-473.259	123.319	0.149	-0.185
-472.245	168.469	-0.096	-0.136
-471.230	800.000	0.084	-0.238
-470.216	-90.159	-0.143	0.041
-469.201	-36.004	-0.153	-0.082
-468.186	-200.000	-0.003	-0.240
-467.172	692.005	0.092	-0.240
-466.157	-200.000	-0.028	0.214
-465.143	25.946	-0.221	0.184
-464.128	-173.480	-0.183	-0.005
-463.113	78.313	0.184	0.196
-462.099	770.616	0.008	0.021
-461.084	-108.673	0.134	-0.029
-460.070	800.000	0.110	-0.330
-459.055	-200.000	-0.055	-0.279
-458.040	131.343	-0.078	-0.099
-457.026	18.243	-0.211	0.167
-456.011	32.265	0.152	0.130
-454.997	-10.067	-0.083	-0.055
-453.982	602.872	0.077	-0.190
-452.968	-147.651	0.342	0.029
-451.953	-184.363	-0.238	0.004
-450.938	-105.123	-0.178	-0.041
-449.924	-89.366	-0.409	-0.120
-448.909	-43.474	-0.539	0.270
-447.895	-50.807	-0.317	-0.148
-446.880	-22.134	0.205	-0.124
-445.865	-106.893	0.161	-0.035
-444.851	-68.769	-0.244	-0.094
-443.836	800.000	-0.070	0.203
-442.822	-200.000	0.030	0.220
-441.807	203.640	0.298	0.457
-440.792	-134.431	0.136	0.017
-439.778	109.463	0.242	-0.288
-438.763	-200.000	0.051	0.278
-437.749	18.657	0.331	0.263
-436.734	-85.338	-0.269	0.083
-435.719	-200.000	-0.039	0.217
-434.705	35.896	0.280	0.244
-433.690	-10.464	0.222	-0.146
-432.676	-200.000	0.010	0.068
-431.661	635.815	0.062	-0.157
-430.646	-34.344	0.138	0.075
-429.632	77.996	-0.050	-0.053
-428.617	250.022	-0.059	-0.099
-427.603	-123.791	0.343	0.054
-426.588	800.000	-0.068	-0.240
-425.573	-200.000	0.002	0.196
-424.559	156.611	0.176	-0.241
-423.544	-46.993	-0.115	0.056
-422.530	213.660	-0.096	-0.151
-421.515	-200.000	0.036	-0.162
-420.500	-200.000	0.021	0.095
-419.486	-147.543	-0.303	0.025
-418.471	-200.000	-0.008	0.122
-417.457	-171.605	-0.059	0.002
-416.442	176.833	-0.105	0.151
-415.428	21.755	-0.074	0.060
-414.413	28.425	-0.335	-0.281
-413.398	800.000	-0.014	-0.041
-412.384	-85.811	-0.039	-0.012
-411.369	-72.185	-0.033	0.012
-410.355	-200.000	-0.002	-0.037
-409.340	388.452	-0.202	-0.414
-408.325	16.731	-0.321	0.252
-407.311	-39.596	0.116	-0.060
-406.296	-11.046	-0.175	-0.115
-405.282	-200.000	0.011	-0.136
-404.267	-27.073	0.099	0.057
-403.252	369.459	-0.054	-0.109
-402.238	481.310	0.061	-0.137
-401.223	23.326	-0.205	-0.167
-400.209	358.568	-0.071	-0.140
-399.194	9.041	0.246	-0.184
-398.179	-6.009	-0.254	0.172
-397.165	800.000	-0.054	0.158
-396.150	668.057	-0.106	-0.272
-395.136	337.231	-0.089	0.171
-394.121	28.406	0.095	-0.079
-393.106	800.000	-0.082	-0.256
-392.092	79.339	0.127	-0.135
-391.077	800.000	0.013	-0.042
-390.063	50.363	0.156	-0.146
-389.048	-93.543	-0.077	0.021
-388.033	56.057	-0.185	0.177
-387.019	-148.483	0.170	0.014
-386.004	-200.000	0.006	0.311
-384.990	-64.961	-0.388	-0.155
-383.975	-200.000	0.074	0.000
-382.960	21.364	-0.046	0.037
-381.946	-108.422	0.109	-0.023
-380.931	141.062	-0.115	0.151
-379.917	127.208	0.128	0.161
-378.902	-200.000	0.028	-0.268
-377.888	-69.524	-0.291	-0.110
-376.873	-126.262	0.239	-0.035
-375.858	201.295	0.091	-0.138
-374.844	212.296	0.072	0.112
-373.829	151.300	-0.104	0.140
-372.815	800.000	0.047	-0.133
-371.800	-174.745	0.356	-0.010
-370.785	-93.769	0.109	0.030
-369.771	800.000	0.045	-0.190
-368.756	-151.115	0.323	-0.024
-367.742	800.000	-0.079	0.252
-366.727	739.837	0.048	-0.126
-365.712	-15.183	0.101	0.064
-364.698	-200.000	-0.027	-0.239
-363.683	800.000	0.035	-0.141
-362.669	37.217	-0.219	-0.192
-361.654	-34.195	-0.324	0.176
-360.639	800.000	0.013	-0.039
-359.625	94.156	0.164	0.184
-358.610	-200.000	0.029	-0.225
-357.596	-165.010	0.056	0.002
-356.581	-12.629	-0.328	0.212
-355.566	-125.450	0.328	-0.049
-354.552	-89.765	0.396	-0.115
-353.537	82.885	0.109	0.118
-352.523	50.031	0.152	0.142
-351.508	-200.000	0.038	0.190
-350.493	147.081	-0.141	0.188
-349.479	286.009	-0.235	-0.420
-348.464	-152.430	-0.250	0.018
-347.450	-50.758	-0.292	0.136
-346.435	150.481	0.189	-0.254
-345.420	-200.000	-0.020	-0.252
-344.406	800.000	0.067	-0.224
-343.391	-17.740	-0.341	-0.212
-342.377	-68.762	0.088	0.034
-341.362	88.298	0.057	0.063
-340.348	800.000	0.034	-0.127
-339.333	-200.000	0.048	-0.296
-338.318	144.998	-0.164	0.217
-337.304	-71.713	-0.184	0.068
-336.289	629.733	0.106	-0.265
-335.275	-200.000	0.024	-0.170
-334.260	709.734	-0.046	0.120
-333.245	-200.000	-0.001	0.077
-332.231	-176.776	0.189	0.005
-331.216	-116.880	0.188	-0.034
-330.202	-200.000	-0.022	-0.113
-329.187	181.938	0.048	-0.070
-328.172	-86.738	0.033	0.010
-327.158	-62.711	-0.061	0.025
-326.143	800.000	0.136	0.420
-325.129	18.914	0.112	0.089
-324.114	-200.000	-0.017	0.149
-323.099	-87.976	-0.306	0.091
-322.085	-200.000	-0.024	-0.103
-321.070	-28.089	0.206	0.118
-320.056	800.000	-0.117	0.337
-319.041	20.503	-0.127	0.102
-318.026	-200.000	0.049	-0.257
-317.012	-51.655	-0.130	0.060
-315.997	-51.757	0.200	-0.092
-314.983	-200.000	-0.016	-0.075
-313.968	303.209	0.171	-0.313
-312.953	-165.413	0.561	0.024
-311.939	-130.578	-0.274	0.036
-310.924	-65.476	0.125	-0.049
-309.910	77.571	0.204	-0.214
-308.895	-16.760	0.229	-0.143
-307.880	-91.562	0.195	-0.055
-306.866	181.447	-0.160	0.232
-305.851	-105.189	0.231	-0.052
-304.837	708.865	-0.078	-0.204
-303.822	-200.000	-0.031	-0.153
-302.807	42.268	0.178	0.160
-301.793	-200.000	-0.011	0.154
-300.778	164.613	0.167	0.233
-299.764	800.000	0.031	0.113
-298.749	512.354	-0.010	-0.022
-297.735	117.591	-0.062	0.075
-296.720	11.107	-0.167	0.126
-295.705	-200.000	0.003	-0.291
-294.691	165.778	0.120	0.167
-293.676	-81.328	-0.323	0.105
-292.662	146.572	0.118	-0.156
-291.647	-61.669	0.156	-0.065
-290.632	-200.000	-0.082	-0.357
-289.618	-132.761	0.164	-0.021
-288.603	-103.486	0.053	0.012
-287.589	-200.000	-0.020	-0.297
-286.574	-5.134	-0.322	0.219
-285.559	800.000	-0.068	-0.292
-284.545	-200.000	-0.035	-0.266
-283.530	-200.000	-0.016	0.254
-282.516	2.609	0.157	-0.113
-281.501	118.909	0.175	-0.213
-280.486	-170.846	-0.242	-0.008
-279.472	-200.000	0.011	-0.257
-278.457	79.788	-0.197	0.209
-277.443	-200.000	0.016	-0.126
-276.428	800.000	0.065	0.223
-275.413	-200.000	0.018	0.166
-274.399	12.377	-0.047	-0.036
-273.384	-117.973	0.206	-0.036
-272.370	-5.828	-0.252	0.171
-271.355	-45.553	0.032	-0.016
-270.340	800.000	-0.110	0.379
-269.326	-86.328	-0.215	0.065
-268.311	-164.049	-0.124	-0.006
-267.297	6.468	-0.219	0.160
-266.282	-2.528	-0.129	0.089
-265.267	-120.833	-0.159	-0.026
-264.253	-176.959	-0.187	-0.005
-263.238	-18.168	-0.382	0.236
-262.224	15.288	-0.124	-0.096
-261.209	-154.631	0.226	-0.015
-260.195	-71.316	0.239	0.088
-259.180	18.534	0.129	0.101
-258.165	-37.993	0.140	0.074
-257.151	-136.255	0.331	0.038
-256.136	40.945	0.337	0.300
-255.122	719.197	-0.034	-0.089
-254.107	-200.000	0.008	-0.190
-253.092	800.000	-0.063	0.187
-252.078	-116.727	0.140	-0.025
-251.063	-200.000	-0.076	0.327
-250.049	800.000	0.015	-0.057
-249.034	-181.021	0.136	0.003
-248.019	-38.235	-0.293	-0.153
-247.005	-75.541	0.067	0.024
-245.990	192.979	0.058	-0.087
-244.976	174.472	0.118	0.168
-243.961	150.649	-0.085	-0.114
-242.946	-137.147	-0.140	0.016
-241.932	688.486	0.060	-0.154
-240.917	75.898	0.167	-0.174
-239.903	18.521	-0.078	0.061
-238.888	-132.931	0.432	0.054
-237.873	72.467	-0.035	0.036
-236.859	71.820	0.093	0.095
-235.844	481.456	-0.062	0.138
-234.830	234.238	0.230	0.374
-233.815	-200.000	0.027	0.175
-232.800	-200.000	0.008	-0.171
-231.786	-28.394	0.117	0.067
-230.771	61.197	-0.034	0.034
-229.757	-200.000	-0.031	-0.399
-228.742	-200.000	-0.012	0.136
-227.727	-56.215	-0.170	0.074
-226.713	-64.514	0.150	-0.060
-225.698	-63.127	-0.343	-0.139
-224.684	27.213	-0.237	-0.196
-223.669	-200.000	-0.042	-0.234
-222.655	-64.768	-0.255	0.102
-221.640	24.762	0.085	-0.069
-220.625	-74.989	0.460	0.162
-219.611	-176.082	0.147	0.004
-218.596	-200.000	-0.031	0.239
-217.582	141.221	-0.087	-0.113
-216.567	-26.290	0.428	-0.247
-215.552	-10.339	-0.243	0.159
-214.538	7.352	0.264	-0.194
-213.523	75.842	0.244	-0.254
-212.509	-96.286	-0.212	-0.055
-211.494	-50.724	0.192	0.089
-210.479	195.071	0.163	-0.243
-209.465	79.914	0.288	-0.304
-208.450	800.000	0.040	0.137
-207.436	-43.222	0.126	-0.063
-206.421	320.460	-0.138	0.258
-205.406	-200.000	0.025	0.188
-204.392	-134.848	-0.046	0.006
-203.377	-200.000	-0.040	0.228
-202.363	-200.000	-0.001	0.045
-201.348	-200.000	0.005	-0.377
-200.333	92.577	0.299	0.332
-199.319	272.913	-0.047	0.081
-198.304	91.962	0.245	-0.271
-197.290	123.187	0.051	0.063
-196.275	-194.592	-0.322	-0.003
-195.260	-37.686	0.152	0.080
-194.246	206.242	0.084	0.128
-193.231	668.827	0.095	0.242
-192.217	-79.624	0.405	-0.134
-191.202	-200.000	-0.058	-0.263
-190.187	-78.192	-0.086	0.029
-189.173	-87.286	-0.229	-0.068
-188.158	800.000	0.101	0.310
-187.144	-51.306	-0.120	0.055
-186.129	124.255	0.125	-0.155
-185.114	-35.107	-0.011	0.006
-184.100	-200.000	0.056	-0.255
-183.085	39.807	0.151	0.133
-182.071	-200.000	-0.008	-0.094
-181.056	251.463	-0.060	-0.101
-180.042	186.872	0.274	0.402
-179.027	26.752	0.211	0.174
-178.012	27.325	0.069	-0.057
-176.998	46.628	0.082	-0.075
-175.983	-200.000	0.045	0.291
-174.969	-200.000	0.049	-0.386
-173.954	-176.078	-0.205	-0.005
-172.939	462.210	-0.035	0.078
-171.925	279.338	-0.175	0.307
-170.910	-200.000	-0.012	0.110
-169.896	-200.000	-0.004	-0.105
-168.881	1.919	0.137	-0.097
-167.866	68.061	0.110	-0.111
-166.852	800.000	0.026	0.078
-165.837	-62.523	-0.236	0.096
-164.823	-119.045	-0.187	0.032
-163.808	207.623	0.076	-0.117
-162.793	-200.000	-0.029	-0.325
-161.779	593.688	-0.117	0.283
-160.764	56.390	-0.134	-0.128
-159.750	-100.100	0.125	-0.031
-158.735	171.567	0.128	0.181
-157.720	-108.514	0.160	-0.034
-156.706	-118.714	-0.235	-0.041
-155.691	50.050	0.129	-0.120
-154.677	-49.901	0.103	0.048
-153.662	-95.216	-0.138	0.036
-152.647	-5.874	0.285	0.191
-151.633	185.065	-0.037	-0.054
-150.618	-176.525	0.365	-0.009
-149.604	-136.654	0.416	0.047
-148.589	520.711	0.065	-0.150
-147.574	-63.256	-0.208	-0.084
-146.560	218.056	0.181	0.283
-145.545	-164.742	-0.346	0.015
-144.531	-54.216	0.230	0.103
-143.516	41.703	0.144	0.128
-142.502	-131.535	-0.118	0.015
-141.487	388.419	-0.194	0.394
-140.472	-200.000	0.016	-0.151
-139.458	-149.189	0.328	-0.026
-138.443	28.008	-0.179	-0.148
-137.429	86.545	0.022	0.024
-136.414	-200.000	0.015	-0.132
-135.399	264.770	0.080	0.137
-134.385	-177.644	0.148	0.004
-133.370	-139.937	0.017	-0.002
-132.356	-189.167	-0.048	0.001
-131.341	300.944	-0.102	0.185
-130.326	-41.790	0.152	0.077
-129.312	523.663	0.044	-0.101
-128.297	-200.000	-0.016	-0.216
-127.283	-104.241	-0.113	0.026
-126.268	408.199	-0.040	0.083
-125.253	-111.103	-0.039	-0.008
-124.239	129.911	-0.201	0.252
-123.224	-50.656	-0.175	0.081
-122.210	-86.647	-0.372	0.112
