DTS Sentinel unit serial number:	SN413079Multiplexer serial number:	ORYXHardware model number:	OX4-SRSoftware version number:	ORYX F/W v4.00 Oryx Data Collector v3.7.2.0data status	okinstallation	princeton_trtdifferential loss correction	single-endedforward channel	channel 3reverse channel	N/Adate	2019/09/14time	12:24:35forward acquisition time	60.00reverse acquisition time	0.00gamma	496.2192k internal	0.2295k external	0.2295temperature offset calibration	1.0061default loss term (dB/km)	0.3790temperature slope calibration	1.0000multiplexer offset coefficient	1.0000multiplexer slope coefficient	1.0000fibre end	0.00T internal ref (°C)	37.81T ext. ref 1 (°C)	4.76T ext. ref 2 (°C)	34.99length (m)	temperature (°C)	Stokes	anti-Stokes-747.200	-128.478	0.085	0.012
-746.185	-167.058	-0.284	0.012
-745.171	-38.045	0.355	-0.193
-744.156	-170.288	0.195	-0.007
-743.142	122.187	-0.020	-0.025
-742.127	-200.000	0.004	0.182
-741.112	-124.801	0.116	-0.018
-740.098	-63.068	-0.324	0.137
-739.083	-200.000	0.017	0.502
-738.069	-200.000	-0.000	0.504
-737.054	273.706	0.070	-0.126
-736.039	-18.790	-0.108	-0.069
-735.025	-200.000	0.018	-0.096
-734.010	246.892	-0.129	-0.223
-732.996	358.506	-0.064	-0.131
-731.981	233.026	-0.087	-0.146
-730.966	-200.000	0.010	-0.270
-729.952	103.400	-0.040	-0.048
-728.937	-183.866	-0.070	-0.001
-727.923	733.917	-0.030	0.083
-726.908	230.525	-0.155	-0.260
-725.894	67.319	-0.253	0.264
-724.879	142.140	-0.209	0.283
-723.864	-200.000	0.024	-0.128
-722.850	360.338	-0.118	-0.241
-721.835	73.084	-0.163	-0.175
-720.821	-137.519	0.159	0.018
-719.806	620.859	-0.086	0.221
-718.791	107.215	0.028	-0.034
-717.777	-53.821	-0.144	0.067
-716.762	82.704	-0.064	-0.071
-715.748	-127.155	-0.366	0.055
-714.733	-22.008	0.340	-0.211
-713.718	511.540	0.018	-0.044
-712.704	-200.000	-0.010	-0.438
-711.689	-104.671	0.109	0.026
-710.675	-168.401	-0.129	-0.005
-709.660	800.000	0.040	0.128
-708.645	-200.000	0.045	-0.316
-707.631	125.028	-0.125	0.161
-706.616	-39.237	-0.147	-0.079
-705.602	224.091	0.126	0.208
-704.587	-200.000	-0.053	0.353
-703.572	-152.892	0.327	-0.024
-702.558	-17.882	0.178	-0.114
-701.543	-5.161	-0.102	0.072
-700.529	-61.278	0.197	0.085
-699.514	-200.000	-0.005	-0.040
-698.499	348.618	-0.212	-0.427
-697.485	582.458	-0.103	-0.259
-696.470	666.305	-0.112	-0.295
-695.456	-20.077	-0.128	0.081
-694.441	-173.361	-0.250	-0.008
-693.426	800.000	-0.038	0.119
-692.412	-123.392	0.241	-0.039
-691.397	685.966	-0.015	-0.041
-690.383	-107.817	0.413	-0.092
-689.368	209.583	-0.075	-0.120
-688.354	800.000	0.083	-0.329
-687.339	-200.000	0.014	0.269
-686.324	267.774	-0.142	-0.254
-685.310	-200.000	-0.006	0.108
-684.295	27.895	-0.103	-0.089
-683.281	-182.770	0.199	0.004
-682.266	191.363	-0.083	0.128
-681.251	274.717	-0.041	0.074
-680.237	800.000	0.057	-0.246
-679.222	-74.467	-0.386	-0.142
-678.208	36.226	-0.163	0.147
-677.193	666.948	-0.044	0.117
-676.178	53.972	0.249	-0.244
-675.164	-200.000	0.036	-0.338
-674.149	-200.000	0.079	0.376
-673.135	-173.656	0.130	0.004
-672.120	-12.288	-0.087	-0.058
-671.105	-34.442	-0.092	-0.051
-670.091	800.000	0.067	0.220
-669.076	-57.981	0.426	-0.190
-668.062	-200.000	0.006	-0.052
-667.047	-200.000	-0.007	0.080
-666.032	118.572	0.173	-0.218
-665.018	242.252	0.064	-0.109
-664.003	-36.103	0.165	0.091
-662.989	30.019	-0.058	-0.051
-661.974	23.370	0.004	0.003
-660.959	-22.105	0.111	0.069
-659.945	-130.117	-0.257	0.036
-658.930	299.962	-0.216	-0.406
-657.916	-97.845	0.332	0.088
-656.901	572.622	-0.090	0.224
-655.886	37.550	-0.106	0.096
-654.872	261.981	-0.096	0.169
-653.857	-67.568	0.166	0.066
-652.843	-108.296	0.139	-0.031
-651.828	44.968	-0.043	0.040
-650.814	-127.672	0.096	-0.014
-649.799	-200.000	0.006	-0.145
-648.784	-200.000	-0.048	0.229
-647.770	-200.000	-0.031	0.178
-646.755	-32.555	-0.027	0.016
-645.741	376.306	-0.029	0.061
-644.726	-200.000	-0.028	-0.303
-643.711	-76.833	0.377	-0.134
-642.697	-14.116	-0.218	-0.143
-641.682	-200.000	-0.041	-0.314
-640.668	-200.000	-0.074	-0.708
-639.653	247.442	-0.074	-0.128
-638.638	-126.341	-0.159	-0.024
-637.624	70.380	0.092	0.097
-636.609	-83.073	0.099	0.032
-635.595	-200.000	-0.052	0.309
-634.580	-200.000	-0.013	-0.125
-633.565	-200.000	0.063	0.379
-632.551	-139.301	0.124	0.014
-631.536	396.534	0.181	0.384
-630.522	9.815	-0.214	0.165
-629.507	116.367	-0.320	0.400
-628.492	-33.282	-0.083	0.047
-627.478	-102.468	0.133	-0.032
-626.463	-200.000	0.017	0.127
-625.449	-100.697	-0.155	0.039
-624.434	237.033	0.085	-0.144
-623.419	-106.120	-0.448	0.102
-622.405	-103.849	-0.228	-0.054
-621.390	-200.000	-0.029	-0.244
-620.376	-200.000	0.032	0.143
-619.361	26.018	0.242	0.205
-618.346	-71.702	-0.128	-0.049
-617.332	208.318	-0.036	0.057
-616.317	-98.611	0.345	-0.090
-615.303	-92.443	0.209	0.060
-614.288	-113.345	-0.096	0.019
-613.273	534.183	-0.053	-0.128
-612.259	-1.135	-0.281	0.202
-611.244	-19.949	-0.236	-0.148
-610.230	-15.105	0.255	-0.166
-609.215	29.007	0.122	-0.105
-608.201	-62.166	-0.165	0.070
-607.186	-80.253	0.490	-0.167
-606.171	-133.826	0.060	0.008
-605.157	-200.000	-0.017	-0.165
-604.142	-200.000	0.053	0.315
-603.128	-73.489	-0.134	-0.050
-602.113	21.472	0.125	-0.103
-601.098	149.988	0.144	-0.199
-600.084	117.711	0.126	-0.158
-599.069	460.652	-0.092	-0.208
-598.055	104.988	-0.126	-0.151
-597.040	73.343	-0.036	-0.038
-596.025	-200.000	0.007	-0.087
-595.011	-42.048	-0.446	-0.232
-593.996	-3.445	0.342	0.242
-592.982	7.474	0.050	-0.038
-591.967	165.326	0.060	-0.086
-590.952	-200.000	-0.005	-0.558
-589.938	-91.018	0.074	-0.022
-588.923	62.516	-0.197	0.200
-587.909	247.620	-0.254	-0.436
-586.894	-200.000	-0.021	0.225
-585.879	-36.441	-0.129	-0.070
-584.865	-123.036	-0.250	0.041
-583.850	83.871	0.193	0.214
-582.836	-3.909	-0.087	0.062
-581.821	156.389	-0.060	0.084
-580.806	-200.000	0.076	0.468
-579.792	-20.484	-0.115	0.072
-578.777	800.000	0.122	-0.414
-577.763	68.419	-0.087	0.091
-576.748	-62.994	0.221	-0.093
-575.733	577.811	-0.124	-0.308
-574.719	-133.793	0.266	0.034
-573.704	95.765	-0.074	0.085
-572.690	-200.000	0.046	0.384
-571.675	-73.456	-0.160	-0.059
-570.661	-85.226	0.269	-0.085
-569.646	351.022	0.025	-0.050
-568.631	-57.409	-0.106	-0.047
-567.617	62.865	-0.140	0.142
-566.602	-137.240	0.216	-0.025
-565.588	138.682	0.091	0.121
-564.573	43.525	-0.146	-0.135
-563.558	-78.546	-0.247	-0.086
-562.544	2.948	-0.048	-0.036
-561.529	419.168	-0.120	0.261
-560.515	-70.960	-0.240	-0.092
-559.500	-61.251	-0.268	0.115
-558.485	-64.019	0.291	0.120
-557.471	-200.000	-0.041	-0.437
-556.456	48.839	0.138	-0.131
-555.442	-6.499	0.081	-0.056
-554.427	-81.296	0.307	-0.103
-553.412	800.000	-0.099	-0.320
-552.398	-200.000	0.005	-0.126
-551.383	-130.435	0.112	0.015
-550.369	209.584	0.017	-0.026
-549.354	-125.461	-0.091	0.014
-548.339	-152.480	-0.131	-0.010
-547.325	-112.005	-0.389	0.079
-546.310	71.380	-0.096	0.101
-545.296	98.699	0.075	0.088
-544.281	205.251	0.080	-0.126
-543.266	206.844	0.111	0.175
-542.252	466.584	0.120	0.273
-541.237	-85.284	0.122	0.039
-540.223	171.244	0.086	0.125
-539.208	216.149	-0.152	-0.245
-538.193	37.366	0.182	-0.164
-537.179	-200.000	-0.034	0.240
-536.164	72.134	-0.299	-0.316
-535.150	-181.260	0.287	0.006
-534.135	800.000	-0.020	0.084
-533.121	-32.705	-0.151	-0.085
-532.106	-48.504	0.328	0.160
-531.091	800.000	-0.009	-0.033
-530.077	-200.000	-0.009	-0.132
-529.062	603.069	0.172	-0.434
-528.048	-33.311	0.037	0.021
-527.033	-72.974	-0.267	0.099
-526.018	138.619	0.184	0.244
-525.004	16.075	0.338	-0.270
-523.989	-33.486	0.094	-0.052
-522.975	92.943	-0.061	-0.070
-521.960	-117.467	0.370	0.068
-520.945	-39.190	0.235	-0.125
-519.931	331.188	-0.125	-0.245
-518.916	99.853	0.129	0.152
-517.902	89.569	-0.103	0.116
-516.887	10.232	-0.191	-0.147
-515.872	-52.311	-0.223	0.104
-514.858	-200.000	-0.017	0.137
-513.843	-28.798	0.110	-0.064
-512.829	-200.000	0.011	-0.267
-511.814	-12.295	0.438	-0.290
-510.799	113.242	0.054	-0.067
-509.785	-29.954	-0.243	-0.140
-508.770	-200.000	-0.020	0.234
-507.756	-200.000	-0.004	-0.112
-506.741	78.129	-0.217	0.235
-505.726	120.210	0.015	0.019
-504.712	-200.000	0.005	-0.118
-503.697	-124.647	0.210	-0.033
-502.683	24.616	-0.204	-0.171
-501.668	179.442	0.068	0.101
-500.653	253.385	0.221	0.382
-499.639	-200.000	0.021	0.167
-498.624	505.183	-0.087	-0.204
-497.610	640.233	0.078	-0.200
-496.595	104.962	0.058	0.069
-495.581	233.569	-0.168	0.280
-494.566	2.036	-0.085	0.062
-493.551	800.000	0.008	-0.033
-492.537	-187.857	-0.542	-0.007
-491.522	304.495	-0.139	0.261
-490.508	-27.339	0.090	-0.053
-489.493	-137.813	0.078	0.009
-488.478	52.230	-0.093	0.090
-487.464	38.279	-0.242	0.218
-486.449	-47.446	0.215	-0.106
-485.435	-108.446	-0.171	0.037
-484.420	2.678	-0.055	-0.040
-483.405	299.437	-0.059	-0.110
-482.391	800.000	0.060	-0.231
-481.376	23.116	-0.168	-0.139
-480.362	-80.354	0.073	0.025
-479.347	57.881	0.265	0.262
-478.332	245.308	0.055	0.093
-477.318	-91.777	-0.236	0.068
-476.303	-48.733	0.165	0.080
-475.289	-200.000	-0.080	-0.422
-474.274	-82.129	-0.295	-0.097
-473.259	22.436	0.204	-0.168
-472.245	-121.116	0.318	0.054
-471.230	-193.141	-0.246	0.002
-470.216	-200.000	0.016	-0.096
-469.201	270.077	-0.178	-0.316
-468.186	-147.929	0.026	0.002
-467.172	253.763	-0.194	-0.336
-466.157	345.034	0.072	0.142
-465.143	-43.250	-0.273	-0.140
-464.128	633.017	0.104	0.267
-463.113	74.226	-0.298	0.316
-462.099	-88.983	-0.070	-0.021
-461.084	-200.000	0.011	-0.156
-460.070	-200.000	0.011	-0.128
-459.055	499.613	0.076	0.177
-458.040	-79.046	-0.201	-0.069
-457.026	-200.000	0.010	0.075
-456.011	-95.260	0.143	0.039
-454.997	800.000	-0.074	-0.308
-453.982	-46.923	-0.335	-0.166
-452.968	412.254	-0.051	0.109
-451.953	18.590	0.326	0.263
-450.938	-1.908	-0.193	-0.137
-449.924	-98.586	-0.159	0.041
-448.909	-56.978	0.148	0.066
-447.895	800.000	0.140	0.445
-446.880	134.874	0.248	0.326
-445.865	207.981	0.159	0.251
-444.851	-90.188	0.130	0.038
-443.836	-87.479	-0.448	0.137
-442.822	89.762	-0.132	0.149
-441.807	-200.000	0.005	-0.482
-440.792	-200.000	-0.006	-0.165
-439.778	-82.460	-0.228	0.075
-438.763	800.000	-0.075	-0.221
-437.749	84.768	0.171	-0.190
-436.734	224.047	0.169	-0.276
-435.719	800.000	0.055	-0.199
-434.705	-86.461	0.198	0.061
-433.690	-200.000	-0.010	-0.206
-432.676	498.708	-0.078	-0.180
-431.661	-200.000	-0.008	-0.128
-430.646	117.245	-0.183	0.228
-429.632	478.792	-0.055	0.126
-428.617	4.788	0.131	-0.097
-427.603	216.076	-0.146	0.234
-426.588	-89.574	-0.382	0.113
-425.573	-62.398	0.046	0.019
-424.559	-34.303	-0.132	0.073
-423.544	-104.328	-0.420	-0.098
-422.530	-83.773	-0.193	-0.062
-421.515	-200.000	-0.023	-0.197
-420.500	191.551	0.188	-0.286
-419.486	-200.000	0.019	-0.217
-418.471	-33.419	0.072	0.040
-417.457	-77.822	0.210	0.073
-416.442	-62.629	0.320	0.134
-415.428	-117.524	0.174	0.032
-414.413	-200.000	0.014	0.339
-413.398	276.651	-0.098	0.176
-412.384	-68.110	-0.038	0.015
-411.369	-56.598	-0.316	0.141
-410.355	164.072	-0.072	-0.103
-409.340	800.000	-0.130	0.439
-408.325	17.405	-0.083	-0.066
-407.311	-163.915	0.179	0.008
-406.296	555.245	-0.102	0.249
-405.282	-30.815	-0.047	0.027
-404.267	-144.021	-0.205	-0.019
-403.252	-200.000	-0.047	-0.216
-402.238	282.474	0.132	0.238
-401.223	800.000	0.007	0.030
-400.209	-78.161	-0.378	-0.131
-399.194	-113.085	0.200	-0.040
-398.179	-200.000	-0.125	-0.669
-397.165	509.897	0.188	-0.441
-396.150	13.638	0.069	0.054
-395.136	-104.010	-0.327	0.077
-394.121	218.862	0.156	-0.252
-393.106	277.198	-0.017	-0.031
-392.092	96.507	0.085	0.098
-391.077	2.858	0.098	0.072
-390.063	70.127	0.089	0.093
-389.048	777.214	-0.039	-0.106
-388.033	120.346	-0.189	-0.237
-387.019	-12.016	-0.227	0.150
-386.004	115.969	-0.183	-0.226
-384.990	40.502	-0.143	-0.129
-383.975	193.296	-0.122	-0.186
-382.960	10.836	-0.148	0.114
-381.946	-21.685	0.398	0.245
-380.931	50.936	0.125	0.119
-379.917	103.195	-0.020	-0.024
-378.902	-23.650	0.135	0.082
-377.888	203.317	-0.195	-0.304
-376.873	-44.518	0.318	-0.160
-375.858	-68.321	0.280	0.110
-374.844	800.000	0.090	-0.262
-373.829	46.703	-0.145	0.136
-372.815	185.347	-0.282	0.421
-371.800	6.558	-0.092	-0.069
-370.785	24.932	-0.105	-0.088
-369.771	-117.244	0.122	-0.022
-368.756	238.902	-0.096	0.160
-367.742	-48.695	0.313	-0.152
-366.727	421.459	0.159	0.343
-365.712	-105.203	-0.143	0.033
-364.698	-24.406	-0.168	-0.101
-363.683	17.403	-0.100	0.080
-362.669	221.557	0.219	0.354
-361.654	58.292	0.172	0.169
-360.639	91.910	-0.205	0.232
-359.625	-142.430	0.490	-0.049
-358.610	52.792	0.138	0.133
-357.596	-200.000	0.059	-0.287
-356.581	800.000	0.086	0.242
-355.566	517.193	0.159	0.374
-354.552	-62.771	0.070	0.029
-353.537	485.138	-0.017	0.039
-352.523	800.000	-0.009	0.030
-351.508	-200.000	-0.046	-0.292
-350.493	20.980	0.099	-0.081
-349.479	105.529	0.025	-0.030
-348.464	156.721	0.181	0.252
-347.450	296.507	-0.115	0.212
-346.435	-44.039	0.054	-0.027
-345.420	-200.000	-0.027	0.143
-344.406	-200.000	0.075	-0.436
-343.391	201.834	0.111	-0.173
-342.377	385.438	0.142	-0.295
-341.362	262.888	0.194	-0.338
-340.348	800.000	0.021	0.094
-339.333	-27.862	-0.033	-0.019
-338.318	125.780	0.080	-0.102
-337.304	134.582	-0.068	-0.089
-336.289	129.701	-0.112	0.144
-335.275	458.719	-0.243	0.544
-334.260	-200.000	-0.001	0.161
-333.245	60.280	-0.174	-0.173
-332.231	172.610	0.071	-0.103
-331.216	265.200	0.137	0.240
-330.202	332.384	0.096	-0.187
-329.187	64.566	0.122	0.124
-328.172	-83.680	0.333	-0.107
-327.158	61.217	-0.136	0.135
-326.143	-200.000	0.039	0.209
-325.129	32.645	-0.065	0.056
-324.114	314.748	0.137	0.259
-323.099	-200.000	-0.048	-0.236
-322.085	-101.343	-0.195	0.048
-321.070	495.335	-0.084	-0.193
-320.056	-2.787	0.355	0.250
-319.041	170.489	-0.257	-0.369
-318.026	-65.970	-0.101	0.041
-317.012	635.759	-0.098	0.249
-315.997	-7.512	0.058	-0.040
-314.983	-200.000	-0.006	0.340
-313.968	-124.671	0.302	-0.047
-312.953	4.855	0.071	-0.052
-311.939	0.294	-0.289	0.208
-310.924	114.489	-0.074	0.090
-309.910	-200.000	-0.011	0.153
-308.895	83.536	-0.089	-0.098
-307.880	800.000	0.056	0.163
-306.866	-135.684	-0.122	0.015
-305.851	800.000	-0.062	-0.260
-304.837	-106.176	0.389	-0.088
-303.822	127.501	-0.054	-0.068
-302.807	-7.076	-0.230	0.157
-301.793	800.000	0.081	0.281
-300.778	-109.187	-0.167	-0.036
-299.764	-5.495	-0.150	-0.104
-298.749	-11.925	0.274	0.180
-297.735	-12.701	-0.049	-0.032
-296.720	800.000	-0.058	-0.213
-295.705	-200.000	-0.011	0.252
-294.691	495.279	0.072	0.167
-293.676	2.218	-0.189	-0.137
-292.662	476.270	-0.040	0.092
-291.647	437.152	-0.101	-0.222
-290.632	116.863	-0.289	-0.356
-289.618	115.264	0.259	0.318
-288.603	133.901	0.129	-0.168
-287.589	58.840	0.185	-0.183
-286.574	58.059	-0.332	0.327
-285.559	302.661	0.031	-0.057
-284.545	311.282	0.141	-0.265
-283.530	119.496	0.130	0.162
-282.516	200.649	-0.100	0.154
-281.501	-171.766	-0.276	-0.009
-280.486	-200.000	0.001	0.264
-279.472	263.845	0.159	0.277
-278.457	-45.861	-0.100	0.049
-277.443	-132.876	0.308	0.039
-276.428	-51.792	-0.311	-0.145
-275.413	-200.000	-0.013	0.259
-274.399	-84.308	0.205	0.065
-273.384	-200.000	0.029	0.212
-272.370	800.000	0.029	0.094
-271.355	-200.000	0.010	-0.103
-270.340	108.619	0.172	-0.206
-269.326	-200.000	0.055	-0.273
-268.311	-200.000	0.007	0.057
-267.297	39.606	-0.174	-0.156
-266.282	-129.057	0.403	-0.057
-265.267	23.594	-0.325	-0.268
-264.253	397.854	-0.121	0.255
-263.238	-200.000	-0.071	-0.394
-262.224	-50.965	-0.154	0.072
-261.209	-27.725	-0.079	0.046
-260.195	800.000	0.012	0.035
-259.180	-200.000	0.005	0.260
-258.165	24.486	-0.143	0.118
-257.151	-200.000	0.032	-0.145
-256.136	736.223	-0.050	0.133
-255.122	97.207	-0.160	0.185
-254.107	12.515	-0.136	0.105
-253.092	709.145	-0.035	-0.092
-252.078	-69.970	0.240	0.092
-251.063	-94.573	0.092	0.025
-250.049	40.265	0.213	-0.192
-249.034	-200.000	-0.018	-0.229
-248.019	-119.387	-0.334	-0.058
-247.005	254.914	0.110	-0.188
-245.990	795.526	-0.027	-0.074
-244.976	153.357	0.114	-0.157
-243.961	53.263	0.269	0.258
-242.946	-200.000	-0.009	-0.064
-241.932	-200.000	-0.027	-0.222
-240.917	173.067	-0.070	-0.102
-239.903	-200.000	0.010	0.259
-238.888	33.494	-0.237	-0.206
-237.873	614.415	0.068	0.172
-236.859	-61.141	0.219	0.093
-235.844	187.616	-0.219	0.328
-234.830	61.566	-0.074	-0.073
-233.815	800.000	-0.082	0.348
-232.800	-5.950	0.398	0.273
-231.786	198.576	-0.158	-0.242
-230.771	181.583	0.137	0.203
-229.757	-117.069	0.065	-0.012
-228.742	-95.936	0.183	-0.049
-227.727	-200.000	0.001	-0.009
-226.713	8.630	0.034	0.025
-225.698	-126.506	-0.274	-0.041
-224.684	-200.000	0.000	-0.142
-223.669	-96.937	-0.347	-0.091
-222.655	91.790	0.148	-0.167
-221.640	800.000	-0.070	-0.212
-220.625	-154.399	0.267	0.018
-219.611	15.011	0.240	-0.188
-218.596	-137.840	0.291	0.033
-217.582	-200.000	-0.011	-0.138
-216.567	-165.580	-0.323	0.014
-215.552	-26.410	-0.288	0.169
-214.538	739.824	0.094	0.254
-213.523	-57.285	0.249	0.109
-212.509	-76.713	0.190	-0.067
-211.494	-89.118	0.077	-0.023
-210.479	160.290	-0.189	-0.263
-209.465	-2.079	-0.222	0.156
-208.450	-200.000	0.039	-0.258
-207.436	-87.783	0.220	-0.066
-206.421	24.270	-0.181	-0.149
-205.406	-44.367	0.192	0.096
-204.392	17.884	0.156	0.125
-203.377	-68.357	0.130	0.051
-202.363	204.280	0.115	0.179
-201.348	-119.126	-0.269	0.047
-200.333	578.980	-0.017	0.042
-199.319	111.540	0.117	0.141
-198.304	-157.453	-0.330	0.020
-197.290	800.000	0.097	-0.366
-196.275	-4.773	-0.222	-0.153
-195.260	-43.764	0.183	-0.092
-194.246	74.138	0.129	-0.136
-193.231	134.777	0.260	0.338
-192.217	-200.000	0.002	0.130
-191.202	-118.427	0.042	-0.007
-190.187	-200.000	-0.043	0.254
-189.173	154.775	-0.187	0.257
-188.158	315.691	-0.168	0.317
-187.144	-44.446	0.104	-0.052
-186.129	-65.732	0.110	-0.044
-185.114	-97.253	0.156	-0.041
-184.100	-94.327	0.210	-0.057
-183.085	-200.000	0.072	0.483
-182.071	299.570	-0.062	-0.115
-181.056	-200.000	-0.033	0.153
-180.042	-98.165	0.093	0.024
-179.027	22.956	-0.188	-0.154
-178.012	-146.696	0.270	0.023
-176.998	-47.738	0.315	0.153
-175.983	-154.056	-0.186	-0.013
-174.969	234.421	0.168	0.277
-173.954	-100.831	0.115	-0.028
-172.939	-200.000	0.007	-0.277
-171.925	99.958	0.262	0.304
-170.910	-82.959	0.263	-0.085
-169.896	287.530	-0.055	-0.099
-168.881	709.597	0.089	-0.234
-167.866	-200.000	0.024	-0.182
-166.852	62.598	0.066	0.066
-165.837	-105.699	-0.162	-0.037
-164.823	647.274	-0.062	0.159
-163.808	53.545	0.294	0.282
-162.793	151.867	-0.111	0.151
-161.779	-88.905	-0.217	-0.064
-160.764	-42.953	-0.223	-0.113
-159.750	-30.962	0.008	-0.005
-158.735	800.000	-0.026	0.112
-157.720	391.184	0.145	-0.300
-156.706	193.907	0.137	-0.208
-155.691	80.269	-0.150	0.162
-154.677	320.049	-0.177	-0.335
-153.662	766.803	0.081	0.221
-152.647	74.741	0.146	0.154
-151.633	48.184	-0.061	0.057
-150.618	800.000	-0.073	0.287
-149.604	800.000	-0.051	0.217
-148.589	800.000	0.042	-0.168
-147.574	800.000	-0.015	-0.064
-146.560	-200.000	0.033	-0.162
-145.545	-15.744	0.068	0.043
-144.531	-96.003	0.390	-0.104
-143.516	60.397	-0.249	-0.246
-142.502	347.956	0.198	-0.390
-141.487	-57.175	-0.128	0.056
-140.472	800.000	0.047	0.130
-139.458	-64.399	0.280	-0.114
-138.443	141.488	-0.065	0.085
-137.429	50.985	0.280	-0.265
-136.414	113.032	-0.259	0.314
-135.399	175.100	-0.039	0.056
-134.385	-200.000	0.051	0.332
-133.370	800.000	0.049	0.177
-132.356	457.403	0.152	0.338
-131.341	697.229	0.113	0.296
-130.326	-200.000	-0.011	-0.259
-129.312	-119.374	-0.184	0.032
-128.297	-108.007	-0.201	-0.043
-127.283	800.000	0.060	-0.230
-126.268	150.151	0.151	0.205
-125.253	-140.629	0.180	0.019
-124.239	-76.198	0.122	-0.043
-123.224	-95.265	0.234	0.063
-122.210	-109.810	0.199	-0.042
-121.195	-19.415	-0.117	0.072
