DTS Sentinel unit serial number:	SN413079Multiplexer serial number:	ORYXHardware model number:	OX4-SRSoftware version number:	ORYX F/W v4.00 Oryx Data Collector v3.7.2.0data status	okinstallation	princeton_trtdifferential loss correction	single-endedforward channel	channel 3reverse channel	N/Adate	2019/09/12time	19:06:03forward acquisition time	15.00reverse acquisition time	0.00gamma	496.2192k internal	0.2320k external	0.2320temperature offset calibration	1.0091default loss term (dB/km)	0.3790temperature slope calibration	1.0000multiplexer offset coefficient	1.0000multiplexer slope coefficient	1.0000fibre end	0.00T internal ref (°C)	32.69T ext. ref 1 (°C)	3.02T ext. ref 2 (°C)	27.18length (m)	temperature (°C)	Stokes	anti-Stokes-747.200	-56.871	-0.334	0.149
-746.185	196.545	-0.316	-0.486
-745.171	74.161	0.786	-0.834
-744.156	-2.519	-0.560	-0.397
-743.142	266.103	0.454	0.801
-742.127	-87.951	0.647	-0.197
-741.112	486.729	0.202	0.465
-740.098	11.151	0.527	0.408
-739.083	60.630	0.286	-0.286
-738.069	-7.991	0.490	-0.334
-737.054	-93.550	-0.631	0.176
-736.039	800.000	0.094	-0.361
-735.025	-68.898	-1.220	-0.476
-734.010	-27.754	-0.811	-0.476
-732.996	-132.867	-0.466	-0.060
-731.981	62.892	0.557	-0.564
-730.966	-200.000	-0.040	-0.607
-729.952	-186.376	-1.214	0.018
-728.937	-200.000	-0.057	-0.374
-727.923	-200.000	0.031	0.333
-726.908	-174.753	-0.912	-0.026
-725.894	-29.970	-0.303	-0.174
-724.879	-168.707	-0.604	0.023
-723.864	55.303	-0.119	0.116
-722.850	-200.000	0.035	-0.506
-721.835	23.398	0.326	-0.271
-720.821	147.281	0.393	0.535
-719.806	800.000	-0.121	-0.522
-718.791	194.551	-0.453	-0.694
-717.777	-97.450	-0.510	-0.134
-716.762	-200.000	0.062	-0.588
-715.748	-107.634	-0.638	0.141
-714.733	-200.000	-0.093	0.548
-713.718	323.102	-0.299	-0.575
-712.704	-200.000	-0.023	0.157
-711.689	-9.984	0.365	-0.245
-710.675	-200.000	0.031	-0.328
-709.660	279.829	-0.119	-0.215
-708.645	-200.000	0.137	-0.869
-707.631	14.546	0.464	-0.366
-706.616	164.945	-0.433	-0.617
-705.602	-86.762	0.491	0.151
-704.587	-135.033	-0.586	0.071
-703.572	14.419	0.310	0.244
-702.558	117.622	-0.198	0.246
-701.543	-66.213	-0.501	-0.201
-700.529	199.691	0.247	0.382
-699.514	89.984	0.373	-0.421
-698.499	580.570	0.193	-0.478
-697.485	-118.099	1.039	-0.187
-696.470	-34.482	-1.141	-0.631
-695.456	47.808	0.613	-0.577
-694.441	76.593	-0.478	-0.512
-693.426	-8.721	-0.815	0.552
-692.412	800.000	-0.106	-0.399
-691.397	0.952	0.085	-0.062
-690.383	-49.793	-0.699	-0.335
-689.368	448.112	0.373	-0.829
-688.354	-42.784	-0.494	-0.253
-687.339	574.134	0.359	-0.884
-686.324	-188.551	-0.948	0.012
-685.310	-200.000	0.064	-0.400
-684.295	535.407	0.026	0.062
-683.281	-200.000	0.051	0.284
-682.266	173.247	-0.123	-0.178
-681.251	-200.000	0.172	-0.822
-680.237	34.151	-0.557	0.489
-679.222	-200.000	0.078	-0.472
-678.208	-200.000	0.079	-0.777
-677.193	-92.977	0.400	-0.113
-676.178	-100.175	0.450	-0.113
-675.164	438.021	-0.165	-0.362
-674.149	61.339	0.699	-0.700
-673.135	-94.445	0.632	0.174
-672.120	-132.354	1.052	0.137
-671.105	206.329	-0.119	-0.186
-670.091	-52.394	-0.406	-0.190
-669.076	104.066	0.777	-0.921
-668.062	364.115	-0.240	0.487
-667.047	128.545	-0.123	0.158
-666.032	-147.114	0.400	0.034
-665.018	-200.000	0.039	-1.040
-664.003	234.729	-0.266	-0.442
-662.989	-85.966	-0.703	0.219
-661.974	32.040	-0.420	-0.365
-660.959	287.650	-0.197	-0.359
-659.945	-29.401	0.170	0.098
-658.930	-200.000	0.063	-0.321
-657.916	800.000	0.145	-0.415
-656.901	206.225	0.204	0.320
-655.886	-200.000	0.028	0.315
-654.872	-200.000	0.052	-0.368
-653.857	-110.209	-0.740	0.155
-652.843	-116.278	-0.698	-0.130
-651.828	-200.000	-0.166	0.833
-650.814	-49.981	0.811	-0.388
-649.799	-68.059	0.235	-0.092
-648.784	272.597	-0.105	-0.187
-647.770	800.000	0.168	-0.558
-646.755	800.000	0.101	0.428
-645.741	266.927	0.155	-0.273
-644.726	-200.000	-0.010	0.202
-643.711	150.247	-0.288	0.394
-642.697	-129.300	-0.281	0.039
-641.682	50.794	0.146	-0.140
-640.668	-200.000	0.096	-0.857
-639.653	5.101	0.050	-0.037
-638.638	-200.000	-0.007	0.383
-637.624	-200.000	-0.022	-0.656
-636.609	-78.627	-0.172	-0.059
-635.595	-154.017	0.057	0.004
-634.580	-85.584	0.323	0.101
-633.565	-65.338	-0.292	-0.118
-632.551	800.000	0.187	0.621
-631.536	-200.000	0.209	0.994
-630.522	31.626	-0.523	0.453
-629.507	462.465	0.224	0.503
-628.492	32.438	0.532	0.462
-627.478	-200.000	-0.027	0.471
-626.463	18.781	-0.306	0.246
-625.449	-78.284	-0.196	-0.068
-624.434	201.258	0.166	0.257
-623.419	-94.918	0.683	0.186
-622.405	-77.161	-0.013	-0.005
-621.390	26.263	0.593	-0.498
-620.376	378.691	0.293	-0.603
-619.361	-42.737	0.676	-0.346
-618.346	-200.000	0.016	-1.234
-617.332	136.795	-0.349	-0.459
-616.317	-46.457	0.258	-0.127
-615.303	-200.000	0.082	-0.737
-614.288	-44.858	0.155	0.078
-613.273	78.491	-0.160	0.172
-612.259	150.277	0.691	0.944
-611.244	-85.050	-0.519	-0.164
-610.230	-44.470	0.627	-0.315
-609.215	-50.934	-0.312	-0.148
-608.201	-200.000	-0.000	-0.326
-607.186	-200.000	0.001	0.381
-606.171	276.617	0.384	-0.686
-605.157	-200.000	0.051	0.433
-604.142	-200.000	0.004	-0.445
-603.128	-82.024	0.256	0.084
-602.113	146.680	-0.163	-0.220
-601.098	-200.000	-0.174	0.808
-600.084	73.100	0.440	0.462
-599.069	-200.000	-0.116	0.682
-598.055	800.000	-0.086	-0.376
-597.040	751.829	0.397	-1.078
-596.025	-200.000	0.114	-0.947
-595.011	-28.688	0.621	0.359
-593.996	58.409	-0.437	-0.431
-592.982	-24.950	-0.147	-0.088
-591.967	-200.000	-0.010	-0.600
-590.952	-92.943	0.980	-0.275
-589.938	350.007	0.285	0.566
-588.923	800.000	-0.276	-0.996
-587.909	-53.689	-0.398	-0.183
-586.894	17.914	0.094	-0.075
-585.879	-200.000	0.092	1.104
-584.865	-46.594	0.161	0.080
-583.850	88.978	0.285	0.319
-582.836	-49.290	-0.758	0.364
-581.821	-93.760	-0.451	-0.125
-580.806	35.626	0.500	-0.441
-579.792	274.592	-0.339	0.604
-578.777	34.324	-0.184	0.161
-577.763	-200.000	-0.053	-0.710
-576.748	363.178	0.371	-0.749
-575.733	-105.857	0.381	0.086
-574.719	12.962	-0.643	-0.500
-573.704	800.000	0.103	0.416
-572.690	-5.771	0.304	0.209
-571.675	800.000	0.089	0.252
-570.661	553.570	0.356	-0.860
-569.646	-86.745	1.135	0.349
-568.631	-22.232	0.201	0.122
-567.617	-200.000	0.016	-0.179
-566.602	-200.000	0.081	-0.693
-565.588	800.000	0.325	-0.930
-564.573	-200.000	0.035	0.395
-563.558	-200.000	0.012	0.186
-562.544	-200.000	-0.080	-0.519
-561.529	-159.926	-0.463	0.025
-560.515	54.853	0.603	0.585
-559.500	325.107	-0.225	0.431
-558.485	-40.389	-0.744	-0.388
-557.471	800.000	0.287	0.984
-556.456	47.746	0.122	0.114
-555.442	-125.097	0.668	0.103
-554.427	-30.933	0.549	0.312
-553.412	-127.155	0.196	0.029
-552.398	-170.461	-0.749	0.026
-551.383	-128.177	0.649	-0.093
-550.369	-88.240	-0.326	0.098
-549.354	-50.624	0.420	-0.199
-548.339	-101.884	0.663	-0.161
-547.325	-4.966	0.541	-0.374
-546.310	800.000	-0.098	-0.290
-545.296	-130.255	-0.944	-0.129
-544.281	189.249	-0.592	0.889
-543.266	-157.863	0.329	-0.020
-542.252	477.896	-0.220	0.500
-541.237	-95.053	0.454	0.123
-540.223	-142.895	-0.435	-0.042
-539.208	1.789	-0.171	0.123
-538.193	-36.962	0.668	-0.359
-537.179	-86.874	-0.307	0.094
-536.164	549.508	-0.045	-0.109
-535.150	800.000	0.022	0.072
-534.135	3.544	-0.126	-0.092
-533.121	-17.532	-0.508	-0.320
-532.106	-5.112	0.252	0.174
-531.091	112.247	-0.636	-0.771
-530.077	362.347	-0.168	0.339
-529.062	-145.647	-0.440	0.039
-528.048	726.659	-0.148	-0.397
-527.033	-27.205	0.418	-0.244
-526.018	-145.912	-1.221	0.109
-525.004	23.752	0.533	0.440
-523.989	100.044	-0.389	-0.452
-522.975	-124.883	-0.432	0.067
-521.960	94.204	-0.300	0.342
-520.945	-200.000	0.093	0.556
-519.931	-200.000	-0.018	0.501
-518.916	88.729	-0.593	-0.661
-517.902	-200.000	0.107	0.843
-516.887	681.889	-0.239	-0.624
-515.872	316.683	0.509	-0.963
-514.858	118.063	0.494	0.610
-513.843	85.060	0.238	-0.261
-512.829	729.721	-0.327	0.874
-511.814	-188.803	-0.144	0.002
-510.799	9.168	0.606	-0.458
-509.785	-137.014	1.108	0.127
-508.770	-200.000	-0.030	0.643
-507.756	32.969	0.466	0.404
-506.741	800.000	-0.094	0.319
-505.726	372.675	-0.267	0.544
-504.712	20.591	0.253	0.205
-503.697	-200.000	0.108	-0.697
-502.683	-77.486	0.728	0.253
-501.668	-114.362	-0.961	-0.185
-500.653	110.069	0.459	-0.552
-499.639	-200.000	-0.015	1.387
-498.624	-141.370	-0.483	-0.049
-497.610	-137.767	0.760	0.085
-496.595	241.850	-0.251	-0.420
-495.581	-200.000	-0.081	-0.701
-494.566	96.814	-0.434	0.498
-493.551	49.970	-0.034	-0.032
-492.537	-200.000	0.141	-0.629
-491.522	430.042	0.408	0.883
-490.508	87.865	-0.461	0.512
-489.493	800.000	0.074	-0.256
-488.478	-200.000	0.029	-0.241
-487.464	-142.673	1.362	0.133
-486.449	716.643	0.027	-0.073
-485.435	203.747	-0.122	0.189
-484.420	315.477	-0.330	0.623
-483.405	-200.000	-0.142	-0.751
-482.391	25.235	0.221	-0.184
-481.376	171.797	0.529	0.761
-480.362	28.552	-0.206	0.174
-479.347	-117.136	-0.400	0.073
-478.332	-99.156	-0.731	0.185
-477.318	-42.881	-0.472	0.240
-476.303	225.350	0.098	0.159
-475.289	30.987	0.376	0.323
-474.274	33.548	-0.605	0.526
-473.259	-146.096	-0.358	0.032
-472.245	-200.000	0.071	-0.362
-471.230	-165.077	-1.082	0.048
-470.216	216.602	-0.342	-0.544
-469.201	76.676	-0.701	0.744
-468.186	-200.000	-0.009	-0.226
-467.172	-177.386	-0.722	0.018
-466.157	380.383	-0.152	0.312
-465.143	-110.422	0.400	-0.083
-464.128	-15.060	-0.311	0.199
-463.113	-35.000	0.616	-0.336
-462.099	800.000	-0.102	0.330
-461.084	-48.669	-0.411	-0.198
-460.070	-131.651	0.509	-0.067
-459.055	30.736	0.586	0.501
-458.040	63.731	-0.119	0.120
-457.026	-149.915	-0.525	0.041
-456.011	4.760	-0.390	0.286
-454.997	580.235	0.138	0.338
-453.982	-200.000	0.025	0.205
-452.968	-200.000	0.025	0.393
-451.953	-78.697	-0.380	-0.130
-450.938	-135.469	-0.231	0.028
-449.924	-24.941	-0.564	-0.335
-448.909	606.177	-0.151	0.377
-447.895	-30.045	-1.251	0.711
-446.880	74.711	0.287	-0.302
-445.865	-54.876	-0.510	0.230
-444.851	-105.408	0.455	0.103
-443.836	-140.796	-0.342	-0.035
-442.822	-200.000	0.062	0.485
-441.807	-65.289	-0.632	-0.254
-440.792	-200.000	0.166	-0.815
-439.778	70.300	0.236	0.244
-438.763	-13.302	0.254	-0.165
-437.749	-25.815	-0.192	-0.113
-436.734	47.633	0.771	0.719
-435.719	800.000	-0.118	0.445
-434.705	-26.399	-1.164	0.682
-433.690	3.226	0.110	0.080
-432.676	-200.000	0.107	0.670
-431.661	-32.654	-0.374	0.208
-430.646	-105.203	-0.660	-0.150
-429.632	-150.472	-0.352	-0.027
-428.617	237.045	0.426	0.704
-427.603	71.460	-0.095	-0.099
-426.588	800.000	-0.077	-0.317
-425.573	-79.637	0.896	-0.302
-424.559	-22.506	0.362	-0.219
-423.544	325.269	-0.320	-0.611
-422.530	75.531	-0.461	0.486
-421.515	-200.000	-0.000	-0.747
-420.500	-200.000	0.008	-0.602
-419.486	-200.000	-0.122	0.617
-418.471	-144.123	0.431	-0.040
-417.457	-124.957	0.321	0.049
-416.442	55.940	-0.618	-0.599
-415.428	6.215	-0.166	0.123
-414.413	140.995	-0.207	0.273
-413.398	38.593	0.225	0.200
-412.384	101.606	0.347	-0.403
-411.369	18.416	-0.774	-0.617
-410.355	-127.641	-0.788	-0.114
-409.340	118.096	-0.279	0.343
-408.325	-200.000	-0.005	0.428
-407.311	800.000	-0.175	0.565
-406.296	800.000	-0.265	0.864
-405.282	228.264	0.099	-0.160
-404.267	115.586	0.107	-0.130
-403.252	-117.442	-0.437	0.079
-402.238	-200.000	-0.003	-0.284
-401.223	-123.479	-0.346	0.055
-400.209	-10.691	-0.196	-0.129
-399.194	310.207	-0.348	0.649
-398.179	-24.240	0.527	-0.314
-397.165	-93.076	0.766	-0.213
-396.150	-200.000	-0.067	-0.679
-395.136	-48.118	-0.293	0.141
-394.121	-200.000	-0.029	0.426
-393.106	0.089	0.237	0.169
-392.092	-111.371	0.679	0.138
-391.077	81.382	0.470	-0.507
-390.063	-75.499	0.484	0.172
-389.048	123.097	-0.768	0.959
-388.033	-174.430	1.001	0.029
-387.019	-132.645	0.494	-0.063
-386.004	406.121	0.220	0.462
-384.990	-115.842	0.427	-0.080
-383.975	329.068	-0.089	-0.171
-382.960	293.265	-0.230	-0.418
-381.946	188.151	-0.545	-0.812
-380.931	-101.544	-0.763	-0.185
-379.917	-200.000	0.242	1.060
-378.902	-75.724	0.160	-0.057
-377.888	-200.000	0.095	-0.449
-376.873	-200.000	-0.035	-0.440
-375.858	273.696	-0.718	-1.266
-374.844	-200.000	-0.019	0.150
-373.829	88.647	0.218	0.242
-372.815	-200.000	-0.043	-0.432
-371.800	164.094	0.119	-0.167
-370.785	-44.737	-0.448	0.223
-369.771	800.000	0.074	-0.229
-368.756	-27.250	0.416	0.241
-367.742	800.000	-0.079	-0.299
-366.727	800.000	-0.184	-0.761
-365.712	90.492	-0.158	0.176
-364.698	102.003	0.269	0.313
-363.683	31.242	0.393	0.336
-362.669	-81.613	0.509	-0.166
-361.654	-88.082	-0.230	0.069
-360.639	-23.487	-0.275	0.164
-359.625	800.000	-0.081	-0.223
-358.610	514.726	0.140	-0.324
-357.596	-200.000	0.072	-0.918
-356.581	383.034	-0.208	0.426
-355.566	215.488	0.248	0.393
-354.552	-200.000	-0.104	0.551
-353.537	-172.473	0.695	-0.022
-352.523	-44.466	-0.255	-0.127
-351.508	-200.000	-0.172	1.086
-350.493	-97.942	-0.676	-0.174
-349.479	-120.288	0.475	-0.081
-348.464	-119.903	-0.520	0.089
-347.450	-167.726	0.539	0.021
-346.435	231.548	0.231	0.377
-345.420	226.893	0.454	-0.734
-344.406	-141.276	0.638	0.065
-343.391	53.661	-0.362	-0.346
-342.377	745.492	0.154	-0.413
-341.362	-54.739	-0.372	0.167
-340.348	-135.423	0.470	-0.056
-339.333	123.654	0.485	-0.606
-338.318	-82.608	0.107	0.035
-337.304	-121.675	-0.497	0.082
-336.289	-160.243	-0.347	0.019
-335.275	-23.539	0.771	-0.460
-334.260	-46.481	0.324	0.158
-333.245	-94.459	0.345	-0.094
-332.231	800.000	-0.248	-0.694
-331.216	245.444	-0.604	-1.012
-330.202	88.457	-0.246	0.272
-329.187	-200.000	0.003	0.795
-328.172	242.197	0.297	0.493
-327.158	140.643	0.549	0.721
-326.143	-129.410	-0.458	-0.063
-325.129	-55.617	-0.114	0.051
-324.114	-157.093	0.243	-0.015
-323.099	-62.830	0.545	0.224
-322.085	-23.663	-0.448	-0.267
-321.070	-152.728	0.579	0.041
-320.056	-101.781	0.857	-0.206
-319.041	800.000	-0.090	0.301
-318.026	-64.677	0.210	-0.085
-317.012	-200.000	0.137	-0.670
-315.997	-60.914	-0.967	0.407
-314.983	800.000	-0.177	0.662
-313.968	787.134	-0.339	-0.926
-312.953	245.967	0.337	-0.565
-311.939	-200.000	-0.133	-0.730
-310.924	-200.000	-0.065	-0.512
-309.910	-73.011	0.557	-0.203
-308.895	-200.000	-0.073	0.544
-307.880	51.665	0.982	0.928
-306.866	117.951	0.580	-0.710
-305.851	488.887	-0.439	0.996
-304.837	800.000	-0.058	-0.198
-303.822	-200.000	-0.039	-0.192
-302.807	36.002	-0.399	0.349
-301.793	67.825	-0.399	-0.405
-300.778	31.477	-0.497	-0.425
-299.764	1.123	-0.893	-0.637
-298.749	229.162	0.657	-1.066
-297.735	-200.000	-0.033	0.246
-296.720	140.239	-0.184	-0.241
-295.705	-200.000	0.073	-0.595
-294.691	20.172	-0.884	-0.709
-293.676	-77.803	-0.390	-0.134
-292.662	-124.017	-0.594	-0.093
-291.647	800.000	-0.052	-0.214
-290.632	-137.147	-0.301	0.034
-289.618	800.000	-0.240	-0.884
-288.603	-152.025	-0.509	-0.037
-287.589	83.145	0.540	-0.584
-286.574	-44.532	0.320	0.159
-285.559	-200.000	-0.033	0.487
-284.545	186.195	0.190	-0.281
-283.530	-143.404	-0.399	0.038
-282.516	800.000	0.109	0.301
-281.501	-58.964	0.300	-0.128
-280.486	-200.000	-0.079	0.739
-279.472	42.419	0.684	-0.618
-278.457	-33.600	-0.506	-0.278
-277.443	351.509	-0.245	0.481
-276.428	-102.507	-0.642	-0.153
-275.413	63.521	0.529	-0.527
-274.399	-61.643	-0.383	0.159
-273.384	-200.000	0.004	0.538
-272.370	-18.737	0.824	0.510
-271.355	-26.851	0.167	-0.097
-270.340	102.004	0.375	0.435
-269.326	-200.000	0.010	0.211
-268.311	133.044	0.207	-0.266
-267.297	-200.000	0.067	-0.757
-266.282	-136.691	-0.297	0.034
-265.267	278.005	-0.338	-0.597
-264.253	-81.789	-0.598	-0.195
-263.238	800.000	-0.148	0.446
-262.224	-33.628	-0.788	-0.432
-261.209	-48.770	0.248	0.118
-260.195	-85.961	-0.905	-0.278
-259.180	-127.450	0.607	0.088
-258.165	-61.320	-0.514	-0.214
-257.151	217.305	0.256	-0.404
-256.136	-100.483	0.267	-0.066
-255.122	220.086	0.805	1.279
-254.107	-113.543	-0.370	-0.072
-253.092	136.890	-0.260	0.337
-252.078	-75.619	-0.171	0.060
-251.063	221.350	0.297	-0.472
-250.049	800.000	0.157	-0.544
-249.034	-10.326	-0.447	0.294
-248.019	-67.603	-0.870	-0.338
-247.005	800.000	0.172	-0.562
-245.990	686.625	0.517	-1.340
-244.976	-21.076	-0.626	0.380
-243.961	-200.000	-0.105	0.509
-242.946	202.539	0.101	0.155
-241.932	229.846	0.453	-0.734
-240.917	67.423	0.256	-0.259
-239.903	30.310	-0.447	-0.379
-238.888	-86.406	-0.549	-0.167
-237.873	80.061	0.763	0.813
-236.859	800.000	-0.200	-0.711
-235.844	-200.000	-0.048	-0.319
-234.830	-186.667	0.910	-0.013
-233.815	800.000	0.063	-0.258
-232.800	-150.863	0.509	0.038
-231.786	184.928	0.322	0.474
-230.771	437.666	0.319	0.688
-229.757	368.171	-0.190	-0.380
-228.742	474.163	-0.215	0.480
-227.727	-58.386	0.332	-0.143
-226.713	-93.734	0.667	0.182
-225.698	151.646	-0.254	0.343
-224.684	-104.884	0.564	0.128
-223.669	800.000	0.139	0.486
-222.655	118.822	-0.513	-0.628
-221.640	-158.114	0.650	-0.038
-220.625	109.019	0.268	0.317
-219.611	-129.439	-0.330	0.045
-218.596	800.000	0.237	-0.685
-217.582	13.947	-0.375	-0.289
-216.567	-104.274	0.358	-0.082
-215.552	-200.000	-0.069	0.401
-214.538	-122.248	0.308	0.050
-213.523	-4.460	0.212	-0.145
-212.509	0.214	0.298	0.211
-211.494	356.004	0.277	0.546
-210.479	-162.508	-0.297	0.015
-209.465	207.611	-0.416	0.643
-208.450	-185.809	-0.471	0.007
-207.436	-2.718	0.483	0.334
-206.421	366.067	0.049	-0.098
-205.406	-85.903	0.525	-0.161
-204.392	-27.273	1.062	-0.613
-203.377	136.911	-0.171	0.221
-202.363	120.828	-0.372	0.458
-201.348	-83.181	-0.374	0.119
-200.333	-72.391	0.204	0.075
-199.319	433.494	0.432	0.928
-198.304	-145.174	-0.518	0.046
-197.290	-15.275	-0.210	-0.133
-196.275	-144.285	-0.259	-0.024
-195.260	119.384	-0.289	0.354
-194.246	-99.362	-0.624	-0.156
-193.231	-200.000	-0.104	-0.531
-192.217	800.000	-0.062	-0.212
-191.202	-200.000	0.037	-0.498
-190.187	-200.000	0.076	0.375
-189.173	111.735	-0.013	0.016
-188.158	191.820	-0.136	0.203
-187.144	7.032	-0.406	0.300
-186.129	-200.000	0.025	0.221
-185.114	-127.925	-0.632	-0.090
-184.100	175.541	-0.185	-0.265
-183.085	-93.187	-0.179	-0.049
-182.071	800.000	0.070	0.268
-181.056	-116.617	-0.890	0.162
-180.042	-200.000	0.041	0.288
-179.027	-51.629	-0.240	0.110
-178.012	-200.000	0.062	0.354
-176.998	53.846	-0.525	0.499
-175.983	-121.565	-0.293	-0.048
-174.969	21.407	0.421	-0.339
-173.954	346.929	0.143	-0.278
-172.939	-131.048	-0.769	0.101
-171.925	6.901	0.258	0.190
-170.910	-200.000	0.152	0.724
-169.896	-116.917	0.664	-0.120
-168.881	-93.416	-1.010	-0.277
-167.866	-132.198	0.634	0.081
-166.852	-120.560	0.997	-0.167
-165.837	-200.000	0.079	0.480
-164.823	800.000	-0.088	0.326
-163.808	12.169	0.256	-0.195
-162.793	57.057	0.537	0.517
-161.779	-200.000	0.041	-0.631
-160.764	18.316	-0.337	-0.266
-159.750	800.000	0.125	0.512
-158.735	60.116	-0.245	-0.240
-157.720	71.717	0.211	-0.217
-156.706	-200.000	0.071	0.974
-155.691	-136.010	-0.222	0.026
-154.677	352.724	0.150	-0.293
-153.662	-200.000	0.005	-0.364
-152.647	-57.306	0.532	0.231
-151.633	-74.621	-0.409	0.146
-150.618	-102.751	-0.783	0.184
-149.604	-4.716	-0.610	-0.416
-148.589	-0.457	0.801	0.562
-147.574	157.832	-0.066	0.091
-146.560	207.952	-0.125	-0.192
-145.545	-94.709	-0.538	0.144
-144.531	162.515	0.245	0.340
-143.516	-54.804	0.480	-0.214
-142.502	-155.466	-0.353	-0.023
-141.487	-200.000	0.140	-0.665
-140.472	-200.000	-0.005	-0.164
-139.458	-200.000	0.067	-0.621
-138.443	-200.000	-0.054	0.377
-137.429	-121.007	-0.521	0.086
-136.414	72.820	-0.287	0.296
-135.399	-134.162	-0.954	-0.116
-134.385	276.205	-0.130	-0.228
-133.370	120.873	-0.404	-0.496
-132.356	27.344	0.499	-0.414
-131.341	51.774	0.386	-0.363
-130.326	-8.792	0.334	0.221
-129.312	-24.510	0.350	0.206
-128.297	-200.000	-0.068	0.823
-127.283	-71.662	-0.357	-0.132
-126.268	598.668	-0.124	0.304
-125.253	-92.873	-0.466	-0.129
-124.239	-190.425	-0.489	-0.005
-123.224	-0.496	0.281	-0.197
-122.210	-68.328	0.261	-0.100
