DTS Sentinel unit serial number:	SN413079Multiplexer serial number:	ORYXHardware model number:	OX4-SRSoftware version number:	ORYX F/W v4.00 Oryx Data Collector v3.7.2.0data status	okinstallation	princeton_trtdifferential loss correction	single-endedforward channel	channel 3reverse channel	N/Adate	2019/09/17time	15:28:34forward acquisition time	60.00reverse acquisition time	0.00gamma	496.2192k internal	0.2294k external	0.2294temperature offset calibration	0.9951default loss term (dB/km)	0.3790temperature slope calibration	1.0000multiplexer offset coefficient	1.0000multiplexer slope coefficient	1.0000fibre end	0.00T internal ref (°C)	38.25T ext. ref 1 (°C)	0.38T ext. ref 2 (°C)	35.52length (m)	temperature (°C)	Stokes	anti-Stokes-747.200	439.920	0.162	0.363
-746.185	-200.000	-0.002	0.297
-745.171	-170.669	-0.146	-0.005
-744.156	703.867	0.048	0.130
-743.142	-139.100	0.099	-0.011
-742.127	-41.405	-0.254	0.134
-741.112	-109.414	0.042	0.009
-740.098	800.000	-0.106	0.356
-739.083	-32.513	0.369	0.210
-738.069	-44.083	-0.226	0.116
-737.054	800.000	-0.034	-0.141
-736.039	-152.332	-0.307	-0.023
-735.025	755.816	0.137	0.378
-734.010	153.478	-0.339	0.474
-732.996	-18.717	-0.322	0.205
-731.981	-85.020	0.173	-0.055
-730.966	84.307	0.456	-0.510
-729.952	-66.635	0.072	0.029
-728.937	37.594	0.019	-0.017
-727.923	-91.267	-0.184	-0.054
-726.908	299.315	-0.193	0.363
-725.894	-200.000	0.003	-0.089
-724.879	-200.000	0.012	0.211
-723.864	34.212	-0.077	-0.069
-722.850	262.669	-0.107	-0.190
-721.835	82.510	0.083	0.092
-720.821	800.000	-0.013	-0.050
-719.806	-141.534	-0.399	0.041
-718.791	-159.535	-0.603	-0.034
-717.777	-127.713	0.050	0.007
-716.762	149.729	-0.251	-0.348
-715.748	-93.593	0.199	-0.056
-714.733	733.163	-0.077	-0.211
-713.718	800.000	0.066	0.279
-712.704	-19.200	0.161	0.102
-711.689	374.446	-0.104	-0.216
-710.675	548.367	0.081	-0.198
-709.660	-200.000	0.004	0.165
-708.645	61.694	0.227	0.231
-707.631	270.009	0.037	0.066
-706.616	-171.998	-0.246	-0.008
-705.602	18.979	0.291	0.238
-704.587	800.000	-0.018	0.059
-703.572	381.198	0.064	-0.133
-702.558	-55.269	-0.113	-0.052
-701.543	-200.000	0.049	0.345
-700.529	-55.521	0.201	-0.092
-699.514	-139.995	-0.222	-0.024
-698.499	-64.047	0.266	-0.111
-697.485	-200.000	0.002	-0.292
-696.470	-104.661	-0.185	0.043
-695.456	78.954	-0.106	-0.116
-694.441	-77.048	0.165	0.059
-693.426	57.501	-0.087	0.087
-692.412	314.638	-0.032	-0.061
-691.397	167.931	0.068	0.098
-690.383	28.732	0.053	-0.046
-689.368	-172.150	-0.241	-0.008
-688.354	333.306	0.072	0.142
-687.339	55.625	-0.047	0.047
-686.324	-200.000	-0.063	0.444
-685.310	114.392	-0.133	0.165
-684.295	242.186	0.180	-0.308
-683.281	30.299	0.081	-0.071
-682.266	-100.354	-0.112	-0.028
-681.251	93.405	0.151	0.174
-680.237	-84.757	0.283	-0.091
-679.222	121.409	0.170	-0.216
-678.208	-159.012	-0.573	0.033
-677.193	152.187	-0.121	-0.168
-676.178	67.296	-0.014	0.015
-675.164	-125.228	-0.202	-0.032
-674.149	582.480	0.039	-0.096
-673.135	-6.697	-0.172	-0.119
-672.120	-85.125	0.102	-0.032
-671.105	-180.952	0.481	0.010
-670.091	-198.173	0.344	-0.002
-669.076	-200.000	-0.000	0.090
-668.062	-16.408	-0.223	0.144
-667.047	800.000	0.084	0.281
-666.032	303.719	-0.123	0.233
-665.018	800.000	-0.022	0.072
-664.003	-139.346	0.206	-0.023
-662.989	-30.692	-0.084	-0.049
-661.974	-90.033	-0.216	-0.064
-660.959	400.817	-0.064	-0.137
-659.945	-110.581	0.163	-0.034
-658.930	176.845	0.238	0.352
-657.916	501.605	0.018	-0.043
-656.901	-114.843	-0.191	0.037
-655.886	-80.161	-0.069	-0.024
-654.872	-17.031	-0.228	0.147
-653.857	-151.371	-0.178	0.014
-652.843	-32.674	-0.238	-0.135
-651.828	-200.000	-0.006	-0.057
-650.814	50.010	0.054	0.052
-649.799	800.000	0.014	0.046
-648.784	-162.135	-0.204	-0.010
-647.770	277.063	0.097	-0.176
-646.755	-200.000	0.023	0.136
-645.741	-22.400	-0.057	-0.035
-644.726	-95.675	-0.226	0.062
-643.711	-200.000	-0.032	-0.310
-642.697	7.741	0.286	-0.218
-641.682	-69.842	0.087	-0.034
-640.668	-170.099	-0.097	0.003
-639.653	-122.755	-0.153	0.025
-638.638	-200.000	-0.019	0.124
-637.624	-58.886	0.081	0.036
-636.609	-17.735	-0.283	-0.181
-635.595	67.532	-0.181	-0.188
-634.580	800.000	0.030	-0.105
-633.565	-48.474	-0.192	-0.094
-632.551	-200.000	0.013	0.087
-631.536	-200.000	0.002	-0.217
-630.522	-80.990	0.097	-0.033
-629.507	-110.446	-0.213	-0.045
-628.492	-32.561	0.179	-0.102
-627.478	-148.440	0.290	0.024
-626.463	-40.957	-0.056	0.029
-625.449	-174.913	-0.389	-0.011
-624.434	-107.288	0.265	0.059
-623.419	-42.863	-0.307	-0.159
-622.405	-17.088	-0.053	-0.034
-621.390	38.886	-0.215	-0.195
-620.376	800.000	0.078	0.274
-619.361	-54.214	-0.035	-0.016
-618.346	82.988	-0.120	-0.132
-617.332	-200.000	0.059	0.293
-616.317	-23.008	-0.153	-0.094
-615.303	189.465	0.137	-0.209
-614.288	-68.763	0.123	0.048
-613.273	402.411	0.059	-0.127
-612.259	-84.084	0.242	-0.078
-611.244	-200.000	-0.033	0.176
-610.230	34.602	0.209	-0.185
-609.215	-93.519	-0.235	-0.066
-608.201	-48.129	-0.095	0.047
-607.186	-200.000	-0.009	-0.123
-606.171	-184.718	0.315	0.005
-605.157	800.000	0.175	-0.492
-604.142	-200.000	0.019	0.248
-603.128	86.630	-0.161	-0.181
-602.113	800.000	-0.105	0.372
-601.098	-111.732	-0.146	0.030
-600.084	-72.127	0.253	-0.095
-599.069	79.940	0.193	0.210
-598.055	91.301	-0.208	0.237
-597.040	-35.594	0.191	-0.105
-596.025	25.088	-0.263	-0.222
-595.011	23.141	0.146	-0.122
-593.996	35.783	0.268	0.240
-592.982	-5.077	-0.147	-0.103
-591.967	-61.432	0.170	-0.072
-590.952	-121.466	-0.320	-0.054
-589.938	800.000	-0.035	0.105
-588.923	-99.992	-0.354	0.090
-587.909	800.000	-0.092	-0.268
-586.894	-91.605	0.173	0.050
-585.879	80.467	-0.248	0.272
-584.865	-104.357	-0.176	-0.041
-583.850	-146.169	0.197	0.018
-582.836	-78.594	-0.130	-0.045
-581.821	-97.303	0.085	-0.022
-580.806	-22.292	-0.581	-0.358
-579.792	-127.121	-0.246	0.037
-578.777	126.687	-0.146	-0.187
-577.763	-51.540	0.149	0.071
-576.748	-200.000	0.046	0.375
-575.733	75.851	0.166	0.178
-574.719	-60.448	0.222	0.096
-573.704	40.252	-0.166	0.152
-572.690	-200.000	-0.004	0.138
-571.675	581.926	0.106	-0.263
-570.661	58.899	-0.255	-0.255
-569.646	-200.000	0.009	0.157
-568.631	45.732	0.176	0.165
-567.617	-101.020	0.202	-0.050
-566.602	-103.813	-0.305	0.072
-565.588	-133.050	-0.155	0.020
-564.573	-33.283	0.079	0.045
-563.558	-117.637	-0.253	0.046
-562.544	-42.369	0.219	0.114
-561.529	-104.584	0.083	-0.019
-560.515	-200.000	0.059	-0.365
-559.500	-34.758	-0.136	0.076
-558.485	-69.933	-0.254	-0.098
-557.471	-178.940	0.074	-0.002
-556.456	-46.888	-0.157	0.078
-555.442	-200.000	-0.026	0.218
-554.427	272.767	0.161	0.288
-553.412	264.592	0.066	0.117
-552.398	405.556	-0.084	-0.179
-551.383	-97.450	0.285	-0.075
-550.369	-79.335	-0.173	0.060
-549.354	800.000	-0.014	-0.046
-548.339	800.000	-0.124	-0.466
-547.325	-200.000	0.023	-0.209
-546.310	-27.472	0.200	-0.118
-545.296	-200.000	0.000	-0.174
-544.281	10.756	-0.207	-0.161
-543.266	372.141	0.086	-0.177
-542.252	252.523	0.065	-0.113
-541.237	-54.092	0.069	-0.032
-540.223	800.000	0.064	0.223
-539.208	-67.117	-0.148	0.059
-538.193	-200.000	-0.014	0.091
-537.179	-162.716	-0.381	0.019
-536.164	-7.178	-0.211	-0.145
-535.150	512.430	0.194	0.459
-534.135	-77.589	0.051	-0.018
-533.121	-157.308	-0.234	0.014
-532.106	-150.701	0.267	-0.021
-531.091	-200.000	-0.059	-0.332
-530.077	-132.866	-0.239	0.031
-529.062	110.459	-0.052	0.064
-528.048	-200.000	0.040	0.226
-527.033	-129.729	0.196	-0.027
-526.018	34.933	-0.258	0.229
-525.004	449.758	-0.138	0.309
-523.989	417.694	0.053	-0.115
-522.975	-36.930	0.016	0.009
-521.960	800.000	0.052	-0.150
-520.945	64.963	0.393	0.402
-519.931	5.146	-0.081	0.061
-518.916	99.624	-0.141	-0.165
-517.902	180.484	-0.154	-0.230
-516.887	363.759	0.142	0.290
-515.872	-165.038	-0.293	0.013
-514.858	160.069	-0.166	-0.235
-513.843	103.946	-0.096	0.115
-512.829	-121.662	-0.130	0.022
-511.814	800.000	-0.056	0.216
-510.799	701.387	-0.157	0.418
-509.785	-200.000	-0.063	-0.395
-508.770	143.611	-0.131	0.177
-507.756	320.051	0.120	0.232
-506.741	-104.090	-0.105	0.025
-505.726	-200.000	0.056	-0.423
-504.712	800.000	-0.051	0.162
-503.697	247.574	-0.186	-0.319
-502.683	-190.294	0.019	-0.000
-501.668	24.548	-0.095	0.080
-500.653	307.795	0.140	0.265
-499.639	518.893	-0.103	0.245
-498.624	800.000	0.073	-0.278
-497.610	389.611	-0.223	0.468
-496.595	-45.758	0.202	0.101
-495.581	-73.547	0.189	-0.070
-494.566	195.630	0.120	-0.184
-493.551	800.000	0.041	-0.158
-492.537	24.807	0.147	-0.123
-491.522	-59.460	-0.414	-0.180
-490.508	256.867	0.083	-0.144
-489.493	300.976	-0.150	0.281
-488.478	-200.000	-0.005	-0.212
-487.464	538.033	0.059	0.141
-486.449	-61.613	-0.214	-0.091
-485.435	-73.378	0.263	0.097
-484.420	-105.726	-0.422	-0.097
-483.405	-200.000	0.004	0.097
-482.391	-93.840	0.214	-0.060
-481.376	-97.221	-0.275	-0.073
-480.362	-128.897	0.151	-0.021
-479.347	178.672	0.076	0.112
-478.332	-7.824	-0.221	0.151
-477.318	597.891	0.103	0.258
-476.303	-33.796	0.176	-0.098
-475.289	-200.000	-0.003	0.110
-474.274	800.000	-0.034	0.097
-473.259	375.570	0.126	0.260
-472.245	-200.000	0.007	-0.351
-471.230	-200.000	-0.007	-0.191
-470.216	-200.000	0.021	-0.113
-469.201	-34.973	0.357	-0.197
-468.186	117.793	-0.040	-0.050
-467.172	-106.206	0.199	-0.045
-466.157	-108.795	0.245	0.053
-465.143	192.071	0.034	-0.051
-464.128	85.440	-0.122	0.136
-463.113	175.642	0.143	0.210
-462.099	800.000	0.073	0.215
-461.084	800.000	-0.015	0.057
-460.070	390.304	0.122	-0.255
-459.055	-149.797	0.225	0.018
-458.040	257.626	-0.150	0.261
-457.026	-24.562	0.086	0.052
-456.011	71.442	0.220	-0.231
-454.997	185.508	-0.126	-0.190
-453.982	25.349	0.190	0.159
-452.968	-41.330	0.459	0.239
-451.953	563.669	0.179	-0.438
-450.938	493.244	0.078	-0.180
-449.924	-200.000	0.005	-0.183
-448.909	161.437	0.172	-0.243
-447.895	-200.000	-0.019	0.228
-446.880	-46.807	0.330	0.163
-445.865	-91.566	0.167	0.048
-444.851	133.918	0.093	-0.122
-443.836	-183.226	-0.188	0.003
-442.822	-117.670	-0.075	0.014
-441.807	101.887	0.151	0.178
-440.792	344.425	-0.208	0.413
-439.778	67.353	-0.173	-0.178
-438.763	-26.935	0.227	-0.134
-437.749	-106.969	0.386	0.086
-436.734	447.440	0.132	-0.294
-435.719	-86.042	-0.333	-0.104
-434.705	-200.000	-0.003	0.260
-433.690	-177.127	-0.208	-0.005
-432.676	290.157	0.218	0.400
-431.661	0.407	-0.433	-0.312
-430.646	355.854	0.032	-0.065
-429.632	-200.000	0.003	-0.128
-428.617	-91.641	-0.353	-0.101
-427.603	-82.586	0.276	0.090
-426.588	-200.000	0.003	-0.161
-425.573	-87.371	0.119	-0.036
-424.559	-113.413	-0.298	0.059
-423.544	10.057	-0.281	-0.216
-422.530	800.000	0.128	0.373
-421.515	-107.454	0.411	0.091
-420.500	-200.000	-0.041	0.349
-419.486	800.000	-0.060	-0.173
-418.471	209.776	-0.145	0.229
-417.457	-13.218	-0.109	-0.072
-416.442	-200.000	-0.009	-0.178
-415.428	98.979	0.073	-0.085
-414.413	-117.605	-0.269	0.049
-413.398	-188.770	0.354	-0.004
-412.384	-200.000	0.005	-0.585
-411.369	-140.508	-0.177	-0.019
-410.355	492.503	-0.195	0.451
-409.340	-71.939	0.234	-0.088
-408.325	-88.677	0.103	0.031
-407.311	-129.872	-0.173	0.024
-406.296	434.263	-0.254	-0.556
-405.282	30.162	-0.023	-0.020
-404.267	-21.898	-0.176	-0.108
-403.252	-120.250	0.261	0.045
-402.238	293.837	0.106	0.195
-401.223	-69.266	0.092	-0.036
-400.209	722.232	-0.104	0.279
-399.194	384.903	-0.143	0.298
-398.179	24.407	0.236	0.197
-397.165	583.084	-0.073	-0.180
-396.150	-200.000	-0.042	-0.211
-395.136	-200.000	0.087	0.394
-394.121	-200.000	-0.010	-0.109
-393.106	293.328	-0.062	0.115
-392.092	-65.335	-0.272	-0.111
-391.077	-44.563	0.128	-0.064
-390.063	-200.000	-0.008	-0.122
-389.048	-171.828	0.187	0.006
-388.033	-63.941	-0.105	-0.043
-387.019	-37.535	-0.241	0.130
-386.004	161.411	0.296	0.417
-384.990	-66.795	-0.289	-0.115
-383.975	800.000	0.086	0.264
-382.960	-173.593	-0.204	0.006
-381.946	57.518	0.237	-0.234
-380.931	316.206	0.084	0.160
-379.917	-200.000	0.020	0.168
-378.902	201.399	0.053	-0.083
-377.888	-200.000	0.032	0.204
-376.873	-4.766	-0.011	0.007
-375.858	-200.000	0.454	0.001
-374.844	800.000	-0.038	-0.138
-373.829	95.108	0.069	-0.080
-372.815	-74.335	-0.181	-0.066
-371.800	-200.000	0.013	-0.220
-370.785	49.004	0.111	-0.105
-369.771	-89.258	-0.401	0.119
-368.756	-61.387	-0.163	-0.069
-367.742	177.106	0.139	-0.204
-366.727	-184.262	-0.416	0.007
-365.712	800.000	0.149	0.418
-364.698	25.596	-0.115	-0.096
-363.683	4.327	-0.087	-0.064
-362.669	319.388	-0.038	0.073
-361.654	-60.101	0.181	0.078
-360.639	-101.081	0.485	0.120
-359.625	-200.000	-0.027	-0.224
-358.610	-200.000	0.015	-0.122
-357.596	37.516	0.096	0.085
-356.581	182.606	0.192	-0.286
-355.566	-88.196	0.285	0.086
-354.552	-30.767	0.252	0.143
-353.537	74.665	-0.201	-0.213
-352.523	-54.103	-0.104	0.048
-351.508	-200.000	-0.012	0.322
-350.493	-101.240	0.103	-0.025
-349.479	3.734	-0.313	0.230
-348.464	-36.537	-0.186	0.101
-347.450	-200.000	-0.066	-0.390
-346.435	41.602	-0.190	0.173
-345.420	-146.394	0.118	-0.010
-344.406	-200.000	0.033	0.182
-343.391	34.339	0.128	0.112
-342.377	-36.004	-0.094	0.051
-341.362	43.504	0.102	-0.094
-340.348	70.822	0.309	0.322
-339.333	-11.341	0.250	0.166
-338.318	-30.986	-0.281	0.160
-337.304	130.143	-0.067	0.086
-336.289	-32.967	-0.135	0.075
-335.275	-69.048	0.199	-0.077
-334.260	-63.807	-0.296	0.122
-333.245	-11.169	0.075	0.050
-332.231	-146.456	0.200	0.018
-331.216	-47.471	-0.038	-0.019
-330.202	800.000	-0.048	0.211
-329.187	800.000	0.077	0.287
-328.172	800.000	-0.064	0.244
-327.158	-100.386	0.263	-0.066
-326.143	-200.000	-0.004	0.139
-325.129	18.150	0.434	0.348
-324.114	-200.000	0.018	-0.110
-323.099	-200.000	0.023	-0.293
-322.085	-66.721	0.168	0.067
-321.070	-128.025	0.256	-0.037
-320.056	351.879	-0.156	-0.310
-319.041	-200.000	-0.001	-0.093
-318.026	-200.000	-0.020	0.099
-317.012	-136.282	0.176	0.021
-315.997	36.292	-0.215	0.191
-314.983	800.000	0.012	-0.037
-313.968	69.473	-0.219	-0.227
-312.953	-138.253	0.164	-0.018
-311.939	-7.722	0.109	-0.074
-310.924	133.633	-0.057	0.074
-309.910	-81.797	0.131	-0.043
-308.895	21.875	-0.098	-0.080
-307.880	521.131	-0.111	-0.263
-306.866	43.666	0.106	0.098
-305.851	-10.172	0.330	0.220
-304.837	-200.000	-0.014	0.063
-303.822	84.692	0.140	0.154
-302.807	372.308	0.108	-0.221
-301.793	126.315	-0.320	-0.407
-300.778	13.098	0.133	0.104
-299.764	40.472	0.092	0.084
-298.749	-200.000	-0.022	0.127
-297.735	-200.000	0.017	-0.242
-296.720	64.732	-0.297	-0.301
-295.705	461.316	-0.175	-0.393
-294.691	57.099	-0.106	-0.104
-293.676	-102.908	-0.269	0.064
-292.662	-68.583	-0.121	0.047
-291.647	784.074	-0.050	0.138
-290.632	327.966	0.088	-0.170
-289.618	-90.554	0.109	0.032
-288.603	-63.168	-0.241	0.100
-287.589	167.009	0.240	0.342
-286.574	-200.000	-0.022	0.253
-285.559	-42.223	0.225	-0.115
-284.545	189.303	-0.146	-0.220
-283.530	224.989	-0.097	-0.157
-282.516	-44.849	0.290	0.145
-281.501	5.823	0.023	-0.017
-280.486	-114.441	-0.215	0.041
-279.472	-168.107	0.298	-0.012
-278.457	78.529	0.031	-0.033
-277.443	119.881	0.174	0.216
-276.428	16.043	-0.311	-0.246
-275.413	491.941	-0.155	-0.356
-274.399	-32.477	0.188	-0.105
-273.384	41.288	0.124	0.113
-272.370	123.544	-0.089	-0.112
-271.355	216.485	-0.214	-0.342
-270.340	-149.104	-0.161	0.013
-269.326	-84.758	0.252	-0.079
-268.311	124.368	-0.137	0.173
-267.297	800.000	-0.089	-0.345
-266.282	-56.190	0.225	-0.101
-265.267	-140.175	0.244	0.026
-264.253	544.406	-0.109	0.261
-263.238	-39.094	0.311	0.164
-262.224	127.084	0.061	0.077
-261.209	56.919	0.101	0.099
-260.195	8.987	-0.105	0.080
-259.180	20.893	-0.199	0.162
-258.165	79.375	-0.297	0.319
-257.151	43.360	-0.229	-0.210
-256.136	-91.639	0.261	0.075
-255.122	-141.134	0.221	0.023
-254.107	-200.000	-0.025	-0.540
-253.092	-200.000	-0.011	0.116
-252.078	-1.906	0.136	-0.096
-251.063	800.000	-0.052	-0.165
-250.049	-151.143	0.309	-0.023
-249.034	353.407	0.126	-0.251
-248.019	71.247	0.186	0.193
-247.005	-200.000	0.039	-0.179
-245.990	-55.932	-0.209	0.093
-244.976	-200.000	-0.034	-0.154
-243.961	-15.866	-0.032	-0.020
-242.946	-46.497	-0.284	-0.140
-241.932	104.006	-0.137	-0.162
-240.917	-200.000	-0.021	0.151
-239.903	295.340	0.143	-0.262
-238.888	-41.468	0.235	0.121
-237.873	3.370	-0.405	0.296
-236.859	21.673	0.175	-0.143
-235.844	-6.676	0.313	0.214
-234.830	-115.033	-0.392	0.075
-233.815	-70.460	-0.236	-0.090
-232.800	-125.182	-0.142	-0.022
-231.786	28.594	0.177	-0.150
-230.771	-200.000	0.017	0.221
-229.757	290.162	-0.042	0.077
-228.742	-140.823	-0.291	0.030
-227.727	800.000	-0.040	-0.116
-226.713	-200.000	0.024	-0.228
-225.698	800.000	-0.019	-0.057
-224.684	365.449	0.128	0.259
-223.669	6.705	0.188	-0.140
-222.655	-200.000	-0.011	-0.299
-221.640	-75.215	0.377	-0.135
-220.625	-200.000	-0.056	0.273
-219.611	122.410	0.140	-0.175
-218.596	-77.585	-0.181	0.063
-217.582	-183.108	-0.425	-0.008
-216.567	62.537	0.135	0.135
-215.552	461.833	-0.185	0.412
-214.538	-69.729	-0.190	-0.073
-213.523	8.128	-0.074	0.056
-212.509	638.794	-0.091	0.233
-211.494	-89.887	0.056	-0.016
-210.479	800.000	0.020	0.087
-209.465	-200.000	0.017	0.178
-208.450	-36.049	-0.065	0.035
-207.436	-94.733	0.100	0.027
-206.421	-200.000	-0.010	0.075
-205.406	-200.000	0.007	0.266
-204.392	620.692	-0.122	0.306
-203.377	-92.019	-0.049	0.014
-202.363	0.549	0.181	-0.130
-201.348	-0.506	0.129	-0.092
-200.333	-71.284	0.181	0.068
-199.319	-117.932	0.246	-0.044
-198.304	48.877	-0.149	0.140
-197.290	196.441	0.082	0.125
-196.275	12.179	-0.097	0.075
-195.260	-7.164	0.303	0.206
-194.246	270.000	0.045	-0.079
-193.231	-103.810	0.403	0.094
-192.217	-126.352	0.170	0.025
-191.202	8.970	-0.125	-0.094
-190.187	-113.092	-0.147	0.029
-189.173	-200.000	-0.019	0.321
-188.158	-35.605	0.120	0.065
-187.144	181.548	0.060	-0.088
-186.129	-200.000	-0.007	-0.363
-185.114	473.404	-0.058	0.132
-184.100	341.865	0.075	-0.146
-183.085	-200.000	0.003	0.096
-182.071	-0.430	-0.156	0.111
-181.056	-102.686	-0.197	-0.047
-180.042	-59.507	0.079	0.034
-179.027	-102.622	0.404	-0.097
-178.012	-124.778	0.056	0.009
-176.998	-200.000	0.026	0.240
-175.983	800.000	-0.063	0.176
-174.969	-200.000	-0.027	0.141
-173.954	-172.504	0.139	0.004
-172.939	158.323	0.105	-0.146
-171.925	-103.386	-0.238	-0.056
-170.910	-97.650	-0.266	-0.069
-169.896	-50.198	0.300	0.142
-168.881	-95.648	-0.380	-0.102
-167.866	179.853	-0.040	0.058
-166.852	229.886	0.111	0.181
-165.837	58.424	-0.176	-0.173
-164.823	-75.129	0.235	0.084
-163.808	21.931	0.473	-0.386
-162.793	125.951	0.059	0.074
-161.779	111.012	-0.026	0.031
-160.764	-200.000	-0.040	0.225
-159.750	113.661	-0.154	-0.187
-158.735	-50.656	0.213	-0.100
-157.720	-200.000	0.008	-0.126
-156.706	289.993	-0.112	-0.204
-155.691	-151.296	-0.363	-0.027
-154.677	150.864	-0.175	-0.238
-153.662	-105.889	-0.302	-0.068
-152.647	9.037	0.229	-0.173
-151.633	-200.000	-0.015	-0.229
-150.618	-108.802	-0.088	-0.019
-149.604	500.138	-0.139	0.320
-148.589	-154.975	0.127	0.008
-147.574	-200.000	-0.012	0.129
-146.560	507.513	0.041	0.095
-145.545	-133.815	0.193	-0.024
-144.531	800.000	-0.038	0.153
-143.516	279.467	0.089	0.158
-142.502	80.705	-0.096	0.104
-141.487	496.000	-0.128	-0.295
-140.472	-39.957	-0.172	0.090
-139.458	-132.650	-0.193	-0.025
-138.443	16.843	-0.147	-0.116
-137.429	-12.085	0.112	0.073
-136.414	-7.944	-0.092	-0.062
-135.399	32.653	0.208	-0.180
-134.385	348.442	0.050	0.098
-133.370	-200.000	-0.209	-0.001
-132.356	-200.000	-0.024	0.227
-131.341	-50.262	0.260	-0.123
-130.326	-200.000	-0.033	-0.146
-129.312	-73.988	-0.221	0.080
-128.297	-58.903	0.272	0.118
-127.283	-79.667	0.307	0.103
-126.268	800.000	-0.017	-0.052
-125.253	-58.451	-0.170	-0.074
-124.239	-200.000	0.023	0.338
-123.224	252.078	0.135	0.229
-122.210	-46.971	0.068	0.033
-121.195	-115.029	0.264	-0.050
