DTS Sentinel unit serial number:	SN413079Multiplexer serial number:	ORYXHardware model number:	OX4-SRSoftware version number:	ORYX F/W v4.00 Oryx Data Collector v3.7.2.0data status	okinstallation	princeton_trtdifferential loss correction	single-endedforward channel	channel 3reverse channel	N/Adate	2019/09/18time	10:04:34forward acquisition time	60.00reverse acquisition time	0.00gamma	496.2192k internal	0.2333k external	0.2333temperature offset calibration	0.9953default loss term (dB/km)	0.3790temperature slope calibration	1.0000multiplexer offset coefficient	1.0000multiplexer slope coefficient	1.0000fibre end	0.00T internal ref (°C)	27.56T ext. ref 1 (°C)	0.33T ext. ref 2 (°C)	24.07length (m)	temperature (°C)	Stokes	anti-Stokes-747.200	-159.756	-0.242	0.013
-746.185	-136.402	0.226	-0.026
-745.171	225.441	0.061	0.100
-744.156	-49.889	0.086	-0.041
-743.142	-49.147	0.338	0.163
-742.127	-79.889	-0.397	0.134
-741.112	-172.030	-0.326	-0.011
-740.098	565.891	0.148	0.361
-739.083	800.000	-0.100	-0.356
-738.069	267.018	0.151	0.266
-737.054	190.005	-0.176	-0.265
-736.039	-200.000	-0.010	-0.059
-735.025	98.714	0.077	-0.090
-734.010	800.000	-0.081	0.280
-732.996	279.895	0.061	0.109
-731.981	107.372	0.076	0.091
-730.966	116.553	-0.276	0.340
-729.952	422.447	-0.049	0.106
-728.937	168.940	0.052	-0.075
-727.923	-200.000	-0.040	-0.361
-726.908	-53.164	-0.397	0.183
-725.894	-50.985	0.100	0.047
-724.879	-200.000	0.015	0.097
-723.864	-63.428	-0.241	0.099
-722.850	-82.743	-0.114	0.037
-721.835	105.620	0.120	0.143
-720.821	-200.000	0.027	0.129
-719.806	-49.382	-0.157	-0.075
-718.791	-61.132	-0.241	-0.102
-717.777	239.830	-0.126	-0.211
-716.762	-148.319	-0.236	-0.020
-715.748	-127.169	0.151	-0.022
-714.733	225.884	0.041	0.067
-713.718	29.920	0.165	-0.141
-712.704	-124.966	0.340	0.053
-711.689	-81.083	0.419	-0.139
-710.675	211.161	-0.036	-0.057
-709.660	-91.731	0.310	-0.089
-708.645	45.076	-0.143	0.132
-707.631	-118.774	0.257	0.045
-706.616	-200.000	-0.006	-0.038
-705.602	800.000	-0.107	-0.436
-704.587	-200.000	-0.050	0.290
-703.572	77.745	-0.122	0.131
-702.558	-146.525	0.244	-0.021
-701.543	504.903	0.064	-0.149
-700.529	67.305	0.185	0.189
-699.514	118.545	-0.229	0.284
-698.499	-57.986	0.165	-0.072
-697.485	-200.000	-0.027	0.468
-696.470	514.602	-0.042	0.098
-695.456	560.191	0.051	0.123
-694.441	-200.000	-0.142	0.001
-693.426	-48.631	-0.120	0.058
-692.412	113.857	-0.172	0.210
-691.397	264.981	-0.066	-0.116
-690.383	-121.190	-0.147	-0.025
-689.368	-200.000	-0.028	-0.163
-688.354	-200.000	0.003	-0.519
-687.339	-1.786	0.260	0.184
-686.324	93.324	-0.121	-0.137
-685.310	-93.077	-0.200	0.056
-684.295	150.576	0.088	0.120
-683.281	-200.000	0.008	0.047
-682.266	161.920	-0.100	0.140
-681.251	-16.999	-0.148	0.093
-680.237	555.431	-0.113	-0.273
-679.222	732.989	-0.101	0.271
-678.208	556.804	0.060	0.146
-677.193	230.478	-0.130	0.214
-676.178	47.518	-0.169	0.158
-675.164	-166.295	-0.298	-0.013
-674.149	-200.000	-0.022	0.336
-673.135	-46.482	-0.384	-0.189
-672.120	283.409	0.194	0.350
-671.105	-150.358	0.165	0.013
-670.091	172.199	-0.368	0.531
-669.076	46.525	-0.163	0.152
-668.062	-200.000	0.002	0.017
-667.047	727.311	0.092	-0.245
-666.032	508.888	-0.030	-0.071
-665.018	-138.799	-0.195	0.021
-664.003	-70.255	-0.211	-0.080
-662.989	-30.226	0.268	-0.153
-661.974	800.000	0.068	0.284
-660.959	27.076	-0.078	0.066
-659.945	-200.000	0.034	-0.163
-658.930	-129.910	0.331	0.046
-657.916	-116.882	0.164	-0.030
-656.901	51.197	0.124	-0.118
-655.886	-37.645	-0.285	0.152
-654.872	40.131	-0.200	0.180
-653.857	-9.219	-0.221	0.148
-652.843	286.416	-0.116	-0.210
-651.828	101.820	-0.094	-0.110
-650.814	25.921	0.177	0.148
-649.799	-161.952	0.171	0.009
-648.784	300.169	0.072	-0.133
-647.770	-200.000	0.008	0.145
-646.755	601.731	0.021	-0.052
-645.741	-16.355	-0.265	0.168
-644.726	-43.826	0.210	0.106
-643.711	-200.000	0.067	-0.431
-642.697	-10.522	0.186	-0.123
-641.682	-178.943	-0.214	-0.005
-640.668	-16.780	0.203	-0.128
-639.653	82.675	0.105	-0.114
-638.638	800.000	-0.069	0.236
-637.624	-174.731	0.353	0.010
-636.609	-37.716	-0.142	0.075
-635.595	-200.000	-0.041	0.247
-634.580	-162.869	-0.319	-0.016
-633.565	49.841	-0.106	-0.100
-632.551	-200.000	-0.039	0.178
-631.536	-167.494	-0.091	-0.004
-630.522	-106.102	-0.202	-0.046
-629.507	-116.543	-0.154	-0.028
-628.492	161.171	-0.156	0.218
-627.478	315.101	-0.252	0.476
-626.463	13.333	-0.173	0.134
-625.449	470.279	-0.159	-0.359
-624.434	-200.000	-0.066	0.409
-623.419	-200.000	-0.015	0.157
-622.405	-39.920	0.146	0.076
-621.390	35.324	0.083	0.072
-620.376	22.160	0.211	-0.172
-619.361	-140.341	-0.313	0.033
-618.346	-200.000	-0.036	0.345
-617.332	-5.325	-0.143	0.099
-616.317	-90.535	-0.119	0.035
-615.303	-63.383	-0.263	0.108
-614.288	-168.877	0.485	0.018
-613.273	-49.823	-0.084	-0.040
-612.259	-134.966	-0.096	0.012
-611.244	7.844	-0.286	-0.214
-610.230	-200.000	-0.001	0.022
-609.215	800.000	0.112	0.336
-608.201	800.000	0.037	0.106
-607.186	-200.000	0.054	0.282
-606.171	800.000	-0.051	0.150
-605.157	84.500	0.365	0.399
-604.142	27.925	0.106	-0.089
-603.128	-44.392	-0.184	-0.092
-602.113	86.996	0.090	-0.100
-601.098	-81.065	0.106	0.035
-600.084	9.997	-0.542	-0.412
-599.069	800.000	0.049	-0.142
-598.055	-148.975	-0.449	0.036
-597.040	-78.938	-0.281	0.096
-596.025	419.985	0.068	-0.145
-595.011	181.438	0.183	-0.269
-593.996	-46.630	0.463	0.227
-592.982	-56.277	-0.144	0.064
-591.967	-32.330	0.082	-0.046
-590.952	-57.017	0.460	0.203
-589.938	-121.109	0.182	0.030
-588.923	-200.000	0.027	-0.152
-587.909	-97.700	0.088	0.023
-586.894	154.021	-0.059	0.081
-585.879	61.165	0.024	-0.024
-584.865	-108.608	0.076	0.016
-583.850	61.407	-0.155	-0.154
-582.836	-71.265	0.064	-0.024
-581.821	76.388	-0.071	-0.075
-580.806	-112.928	-0.249	-0.049
-579.792	-200.000	-0.089	-0.400
-578.777	45.103	0.263	0.243
-577.763	-200.000	0.012	0.154
-576.748	-76.888	0.141	-0.049
-575.733	246.770	0.178	-0.300
-574.719	800.000	0.050	-0.165
-573.704	91.784	-0.238	-0.267
-572.690	-200.000	-0.007	0.204
-571.675	251.346	0.142	-0.241
-570.661	-19.317	0.148	-0.092
-569.646	242.551	-0.087	-0.145
-568.631	-50.863	-0.236	-0.111
-567.617	-67.512	0.193	-0.076
-566.602	82.542	0.241	-0.262
-565.588	23.628	-0.206	0.169
-564.573	289.036	-0.110	0.198
-563.558	-200.000	-0.032	0.259
-562.544	-200.000	0.014	-0.378
-561.529	374.428	0.164	-0.334
-560.515	706.188	0.193	-0.509
-559.500	263.802	-0.044	-0.077
-558.485	-200.000	-0.025	0.112
-557.471	336.716	-0.127	0.246
-556.456	-157.934	0.099	0.006
-555.442	1.016	-0.110	-0.079
-554.427	321.270	0.150	-0.285
-553.412	78.883	0.259	0.276
-552.398	-200.000	0.025	-0.127
-551.383	266.490	-0.117	-0.203
-550.369	-26.897	0.176	-0.103
-549.354	87.534	-0.044	-0.049
-548.339	450.068	0.033	0.074
-547.325	-130.141	0.084	0.011
-546.310	144.303	-0.027	0.036
-545.296	396.194	-0.013	-0.027
-544.281	133.062	-0.295	-0.380
-543.266	30.156	0.087	0.074
-542.252	-110.364	-0.211	-0.044
-541.237	800.000	-0.038	-0.110
-540.223	-54.141	0.291	0.132
-539.208	-34.951	0.212	-0.116
-538.193	495.485	0.098	-0.224
-537.179	42.497	-0.248	-0.225
-536.164	107.468	-0.111	-0.131
-535.150	553.676	-0.124	-0.296
-534.135	-122.043	-0.327	0.054
-533.121	-34.630	0.147	-0.080
-532.106	-12.596	0.156	0.102
-531.091	800.000	0.003	0.012
-530.077	800.000	-0.048	-0.183
-529.062	27.124	0.178	-0.149
-528.048	800.000	0.076	-0.296
-527.033	184.457	0.021	0.031
-526.018	-79.056	0.222	0.075
-525.004	579.053	-0.050	-0.121
-523.989	800.000	-0.096	-0.351
-522.975	-134.003	-0.133	-0.016
-521.960	-125.543	-0.177	-0.027
-520.945	800.000	-0.053	0.150
-519.931	198.637	-0.096	0.147
-518.916	-200.000	-0.015	-0.171
-517.902	800.000	-0.068	0.242
-516.887	-200.000	0.089	-0.542
-515.872	229.441	-0.169	-0.274
-514.858	-95.749	0.312	0.083
-513.843	90.780	-0.100	-0.112
-512.829	-200.000	-0.022	-0.104
-511.814	120.565	0.056	-0.069
-510.799	-75.724	0.432	0.153
-509.785	399.318	-0.140	-0.293
-508.770	-200.000	0.012	-0.111
-507.756	800.000	0.079	-0.236
-506.741	199.509	-0.282	-0.431
-505.726	-54.885	0.352	-0.158
-504.712	-104.946	0.034	0.008
-503.697	-108.553	-0.123	0.026
-502.683	-200.000	0.011	0.093
-501.668	264.230	0.153	-0.265
-500.653	-200.000	0.050	-0.352
-499.639	-200.000	0.014	-0.081
-498.624	-72.927	0.071	0.026
-497.610	33.283	-0.284	-0.245
-496.595	65.603	0.101	-0.102
-495.581	-200.000	-0.029	-0.284
-494.566	-65.006	-0.131	0.053
-493.551	-58.121	0.202	0.088
-492.537	-12.775	-0.184	-0.119
-491.522	747.605	-0.036	-0.095
-490.508	800.000	-0.008	0.029
-489.493	504.919	0.093	-0.213
-488.478	499.397	-0.019	-0.043
-487.464	-159.234	-0.211	-0.012
-486.449	59.206	0.076	-0.074
-485.435	107.478	-0.066	-0.078
-484.420	-200.000	0.030	0.206
-483.405	600.858	0.149	0.369
-482.391	-62.414	-0.020	0.008
-481.376	82.843	0.254	-0.274
-480.362	-109.756	0.111	-0.023
-479.347	-54.719	0.423	0.190
-478.332	-102.692	-0.177	-0.042
-477.318	-54.987	-0.268	0.120
-476.303	800.000	-0.020	-0.088
-475.289	29.218	0.093	-0.079
-474.274	85.648	-0.142	0.155
-473.259	88.663	-0.212	0.235
-472.245	-73.883	0.289	-0.104
-471.230	7.801	-0.206	-0.154
-470.216	188.453	-0.050	0.074
-469.201	-200.000	-0.010	0.247
-468.186	426.779	-0.075	-0.161
-467.172	-200.000	-0.016	0.256
-466.157	168.023	0.016	-0.023
-465.143	800.000	0.024	0.088
-464.128	535.357	-0.084	0.198
-463.113	-77.840	0.075	-0.026
-462.099	85.120	-0.291	0.318
-461.084	-71.753	-0.393	-0.146
-460.070	-121.138	-0.196	-0.033
-459.055	48.847	-0.111	0.104
-458.040	-70.868	-0.271	0.102
-457.026	-11.904	-0.084	0.054
-456.011	-15.215	0.109	0.070
-454.997	800.000	-0.133	0.437
-453.982	-107.008	0.368	-0.081
-452.968	-200.000	0.008	-0.139
-451.953	372.964	0.133	0.269
-450.938	-133.380	0.395	0.049
-449.924	235.726	-0.076	-0.125
-448.909	170.901	0.186	0.266
-447.895	-200.000	-0.004	0.060
-446.880	-92.782	-0.236	0.066
-445.865	-90.208	0.078	-0.023
-444.851	-55.090	0.110	-0.049
-443.836	23.615	-0.296	-0.242
-442.822	688.327	-0.064	-0.165
-441.807	-96.187	0.270	-0.071
-440.792	-66.388	0.041	-0.016
-439.778	-25.973	-0.180	-0.105
-438.763	783.936	0.045	0.124
-437.749	800.000	0.059	0.190
-436.734	800.000	0.059	-0.223
-435.719	218.396	0.149	0.237
-434.705	272.665	0.144	-0.253
-433.690	185.147	-0.255	0.376
-432.676	-7.170	-0.190	0.128
-431.661	800.000	0.025	0.093
-430.646	-156.189	0.207	0.013
-429.632	-200.000	0.024	-0.174
-428.617	-98.749	-0.141	0.036
-427.603	-80.061	0.016	0.005
-426.588	127.901	-0.073	-0.092
-425.573	13.130	-0.041	0.031
-424.559	-72.254	-0.176	0.065
-423.544	279.857	-0.034	0.060
-422.530	67.241	0.058	0.058
-421.515	188.952	0.076	-0.112
-420.500	119.542	0.235	-0.289
-419.486	-104.230	0.195	-0.045
-418.471	-200.000	-0.050	-0.292
-417.457	326.459	-0.124	0.236
-416.442	78.530	-0.144	-0.153
-415.428	-200.000	0.005	0.347
-414.413	47.449	0.192	0.178
-413.398	-200.000	-0.007	-0.170
-412.384	29.049	-0.069	-0.058
-411.369	800.000	-0.064	-0.231
-410.355	-5.107	-0.103	-0.070
-409.340	-141.117	-0.175	-0.018
-408.325	-200.000	-0.021	-0.209
-407.311	0.119	-0.119	0.085
-406.296	34.177	0.152	0.131
-405.282	277.111	-0.241	-0.425
-404.267	22.645	0.235	-0.191
-403.252	355.288	0.093	-0.184
-402.238	-56.719	-0.077	0.034
-401.223	-102.545	0.229	-0.054
-400.209	-134.601	0.154	0.019
-399.194	800.000	-0.050	0.191
-398.179	-200.000	-0.003	-0.168
-397.165	64.814	-0.159	-0.160
-396.150	113.951	0.155	0.187
-395.136	-132.445	-0.257	0.033
-394.121	-200.000	0.043	0.214
-393.106	662.179	-0.051	0.131
-392.092	-49.143	0.243	-0.115
-391.077	82.027	0.192	0.207
-390.063	-163.645	-0.116	-0.005
-389.048	-14.163	0.165	-0.106
-388.033	-112.993	-0.192	-0.038
-387.019	122.995	0.200	0.248
-386.004	800.000	-0.013	-0.037
-384.990	-200.000	0.067	-0.313
-383.975	-42.020	0.081	0.041
-382.960	109.604	0.092	0.109
-381.946	280.282	-0.099	0.176
-380.931	-200.000	-0.010	0.352
-379.917	3.330	0.108	-0.078
-378.902	-104.432	-0.233	0.053
-377.888	698.973	0.042	-0.110
-376.873	800.000	0.045	0.178
-375.858	78.154	-0.139	0.147
-374.844	-124.411	0.292	0.045
-373.829	546.371	-0.025	0.059
-372.815	128.655	-0.117	-0.148
-371.800	-7.870	0.064	-0.043
-370.785	-181.927	-0.095	0.002
-369.771	121.882	-0.122	0.150
-368.756	-91.388	0.186	-0.053
-367.742	226.379	-0.157	0.253
-366.727	-200.000	0.008	0.076
-365.712	800.000	-0.113	0.358
-364.698	800.000	-0.035	-0.125
-363.683	15.187	0.115	0.089
-362.669	94.315	0.138	0.155
-361.654	-200.000	-0.021	0.231
-360.639	-64.783	-0.141	-0.056
-359.625	566.100	-0.041	-0.100
-358.610	-27.344	-0.331	0.191
-357.596	64.157	-0.139	0.139
-356.581	52.011	-0.096	0.091
-355.566	-119.822	-0.134	-0.023
-354.552	199.212	0.111	-0.168
-353.537	343.263	-0.162	0.314
-352.523	-7.609	0.251	0.168
-351.508	-73.140	0.175	0.063
-350.493	800.000	-0.027	-0.109
-349.479	-152.439	-0.068	0.005
-348.464	-0.797	-0.157	0.110
-347.450	-54.387	-0.101	-0.045
-346.435	-200.000	-0.011	0.153
-345.420	-96.006	-0.108	0.028
-344.406	369.658	0.053	-0.106
-343.391	-200.000	-0.014	0.139
-342.377	357.856	0.075	-0.149
-341.362	98.368	0.244	-0.278
-340.348	-164.472	0.269	-0.012
-339.333	-200.000	-0.000	-0.238
-338.318	106.761	0.175	0.205
-337.304	-200.000	-0.012	-0.058
-336.289	180.393	-0.113	0.164
-335.275	-200.000	0.018	-0.235
-334.260	-200.000	-0.005	0.138
-333.245	170.625	-0.025	0.035
-332.231	38.779	-0.226	-0.200
-331.216	179.688	-0.059	0.086
-330.202	128.995	-0.052	-0.065
-329.187	-200.000	-0.057	0.281
-328.172	230.284	-0.201	-0.325
-327.158	-113.008	0.368	-0.072
-326.143	365.207	-0.069	-0.137
-325.129	-74.421	0.179	-0.064
-324.114	586.559	0.080	-0.195
-323.099	2.066	0.184	0.132
-322.085	-57.305	0.217	-0.094
-321.070	89.215	0.151	0.167
-320.056	-46.205	0.067	0.033
-319.041	-102.714	0.381	0.090
-318.026	-200.000	-0.046	0.349
-317.012	180.844	-0.197	0.287
-315.997	-139.547	0.152	-0.016
-314.983	800.000	0.011	-0.046
-313.968	21.906	-0.236	-0.190
-312.953	-200.000	-0.010	0.097
-311.939	-200.000	0.048	-0.252
-310.924	59.004	0.119	0.115
-309.910	-20.158	-0.088	-0.053
-308.895	24.323	0.074	0.060
-307.880	800.000	-0.107	0.367
-306.866	-33.782	-0.370	-0.201
-305.851	307.348	-0.094	0.172
-304.837	-32.761	-0.053	-0.029
-303.822	-64.037	0.342	0.138
-302.807	25.454	0.266	0.218
-301.793	-165.575	0.387	0.017
-300.778	800.000	0.069	0.262
-299.764	-143.883	-0.325	-0.030
-298.749	201.862	0.197	-0.300
-297.735	-200.000	0.055	0.520
-296.720	-200.000	0.009	-0.352
-295.705	-115.335	-0.170	-0.032
-294.691	788.404	0.053	0.144
-293.676	763.429	0.033	-0.088
-292.662	-200.000	0.029	0.234
-291.647	-117.643	-0.061	-0.011
-290.632	194.143	-0.165	-0.248
-289.618	517.678	0.071	0.165
-288.603	-200.000	-0.004	0.134
-287.589	-116.424	-0.180	0.033
-286.574	-117.645	0.414	0.074
-285.559	-79.298	0.231	0.077
-284.545	-200.000	-0.087	0.446
-283.530	259.678	-0.047	0.079
-282.516	800.000	-0.075	-0.218
-281.501	-162.355	-0.087	-0.004
-280.486	-200.000	0.025	-0.220
-279.472	-66.408	-0.152	-0.059
-278.457	-200.000	0.011	0.165
-277.443	-200.000	-0.002	-0.037
-276.428	518.810	-0.161	-0.371
-275.413	-56.243	-0.168	0.074
-274.399	-23.094	0.101	-0.060
-273.384	-125.970	0.356	0.053
-272.370	-106.605	-0.276	-0.061
-271.355	-116.430	0.129	0.024
-270.340	-184.830	-0.336	-0.005
-269.326	-200.000	-0.107	0.473
-268.311	-58.148	0.318	0.137
-267.297	-200.000	-0.007	-0.291
-266.282	144.610	-0.092	0.122
-265.267	103.400	0.107	0.124
-264.253	73.865	-0.145	-0.150
-263.238	-89.794	-0.215	0.062
-262.224	-45.940	-0.560	0.273
-261.209	-200.000	0.015	0.195
-260.195	-59.102	-0.197	0.084
-259.180	48.687	0.070	0.064
-258.165	800.000	0.039	0.117
-257.151	-51.478	0.229	0.106
-256.136	8.285	0.170	0.126
-255.122	800.000	0.067	-0.285
-254.107	322.332	0.146	0.274
-253.092	36.715	0.065	-0.056
-252.078	-20.437	-0.313	-0.190
-251.063	-200.000	0.037	-0.214
-250.049	-169.235	0.262	0.010
-249.034	-1.124	-0.269	-0.187
-248.019	-9.023	-0.285	-0.188
-247.005	-157.303	-0.261	-0.016
-245.990	800.000	-0.024	-0.103
-244.976	-151.183	-0.201	0.015
-243.961	-73.128	-0.262	-0.095
-242.946	-35.601	-0.321	-0.172
-241.932	800.000	0.080	-0.232
-240.917	-64.953	-0.274	0.109
-239.903	-141.964	-0.236	-0.023
-238.888	800.000	-0.060	0.214
-237.873	-200.000	-0.030	0.330
-236.859	560.895	-0.094	-0.224
-235.844	-83.053	-0.052	-0.017
-234.830	-171.601	-0.154	-0.005
-233.815	-3.649	-0.094	-0.064
-232.800	-200.000	-0.054	0.296
-231.786	18.965	0.114	0.090
-230.771	-87.698	-0.206	0.061
-229.757	-81.952	0.059	0.019
-228.742	-119.191	-0.134	-0.023
-227.727	-101.996	-0.242	-0.058
-226.713	-137.469	0.193	-0.021
-225.698	465.916	-0.065	0.143
-224.684	-18.094	0.108	0.066
-223.669	-22.851	0.204	-0.121
-222.655	-173.077	0.367	0.011
-221.640	-94.249	-0.270	-0.073
-220.625	241.826	0.053	-0.087
-219.611	154.692	0.091	-0.123
-218.596	-11.617	-0.164	0.106
-217.582	110.350	0.223	0.264
-216.567	-46.665	0.111	0.054
-215.552	210.688	-0.157	-0.243
-214.538	-197.283	-0.287	0.002
-213.523	800.000	0.041	0.130
-212.509	77.946	-0.289	0.303
-211.494	74.556	0.250	0.259
-210.479	-200.000	0.002	0.012
-209.465	13.926	0.125	-0.096
-208.450	346.826	0.030	-0.058
-207.436	-148.414	0.210	0.017
-206.421	-43.693	0.160	0.079
-205.406	20.540	0.353	0.281
-204.392	110.828	0.304	0.360
-203.377	323.297	-0.084	-0.157
-202.363	3.966	0.203	-0.146
-201.348	-200.000	-0.041	-0.213
-200.333	-200.000	0.008	-0.046
-199.319	-141.899	-0.313	0.031
-198.304	111.028	0.103	-0.122
-197.290	28.829	0.240	0.200
-196.275	-80.109	-0.127	-0.042
-195.260	-70.929	-0.213	-0.079
-194.246	106.760	-0.100	-0.117
-193.231	-61.794	0.228	0.094
-192.217	-63.188	-0.105	-0.042
-191.202	800.000	-0.163	-0.468
-190.187	10.822	-0.158	0.118
-189.173	-38.031	-0.355	0.185
-188.158	-152.563	0.280	-0.020
-187.144	48.487	-0.038	0.035
-186.129	-57.932	0.147	-0.063
-185.114	4.361	0.191	-0.138
-184.100	-200.000	-0.030	-0.133
-183.085	-200.000	0.188	0.000
-182.071	-200.000	-0.013	0.151
-181.056	-200.000	0.004	0.109
-180.042	-30.611	-0.139	-0.078
-179.027	-200.000	-0.043	0.238
-178.012	-56.852	-0.063	0.027
-176.998	-94.792	-0.106	0.028
-175.983	-117.818	0.212	0.037
-174.969	727.487	-0.075	0.198
-173.954	-80.556	0.260	0.085
-172.939	-200.000	0.016	0.438
-171.925	6.735	0.171	0.125
-170.910	207.400	0.252	0.386
-169.896	-200.000	-0.005	-0.082
-168.881	-138.273	0.280	-0.030
-167.866	-200.000	-0.010	-0.116
-166.852	376.258	0.088	-0.176
-165.837	381.560	-0.035	-0.071
-164.823	-11.646	0.186	0.120
-163.808	334.082	-0.197	-0.374
-162.793	392.241	0.046	0.095
-161.779	88.028	0.303	0.330
-160.764	291.316	-0.084	0.151
-159.750	-200.000	-0.060	0.312
-158.735	225.891	-0.197	-0.314
-157.720	774.685	0.130	-0.349
-156.706	-19.910	-0.046	-0.028
-155.691	235.960	-0.026	-0.042
-154.677	800.000	0.145	-0.425
-153.662	-88.006	0.176	-0.052
-152.647	-149.639	0.181	0.014
-151.633	-80.830	0.186	0.061
-150.618	-200.000	0.002	0.075
-149.604	-41.335	0.455	-0.230
-148.589	-134.650	-0.363	-0.043
-147.574	-200.000	0.077	0.438
-146.560	-36.837	0.304	0.160
-145.545	7.951	0.189	0.139
-144.531	55.922	-0.220	0.209
-143.516	-123.949	0.126	0.019
-142.502	-200.000	-0.072	0.339
-141.487	-99.025	0.287	0.071
-140.472	-104.275	0.134	0.030
-139.458	-200.000	-0.024	0.461
-138.443	800.000	-0.040	0.126
-137.429	800.000	0.022	0.061
-136.414	126.283	0.220	0.274
-135.399	381.074	-0.094	0.188
-134.385	-104.199	0.159	0.036
-133.370	5.675	0.286	-0.208
-132.356	-99.362	-0.298	-0.074
-131.341	-200.000	0.002	-0.085
-130.326	626.415	-0.097	-0.240
-129.312	52.216	0.239	0.223
-128.297	-78.287	0.118	0.040
-127.283	-200.000	0.019	-0.486
-126.268	-64.250	-0.211	0.084
-125.253	125.210	-0.106	0.131
-124.239	385.256	0.272	-0.550
-123.224	-10.459	-0.122	0.079
-122.210	-58.756	0.323	-0.137
-121.195	569.155	-0.086	-0.204
