DTS Sentinel unit serial number:	SN413079Multiplexer serial number:	ORYXHardware model number:	OX4-SRSoftware version number:	ORYX F/W v4.00 Oryx Data Collector v3.7.2.0data status	okinstallation	princeton_trtdifferential loss correction	single-endedforward channel	channel 3reverse channel	N/Adate	2019/09/13time	11:04:34forward acquisition time	60.00reverse acquisition time	0.00gamma	496.2192k internal	0.2317k external	0.2317temperature offset calibration	1.0147default loss term (dB/km)	0.3790temperature slope calibration	1.0000multiplexer offset coefficient	1.0000multiplexer slope coefficient	1.0000fibre end	0.00T internal ref (°C)	31.94T ext. ref 1 (°C)	4.66T ext. ref 2 (°C)	29.13length (m)	temperature (°C)	Stokes	anti-Stokes-747.200	143.991	0.244	0.330
-746.185	348.179	0.018	0.036
-745.171	800.000	0.036	-0.148
-744.156	18.065	0.133	-0.108
-743.142	334.043	0.041	0.080
-742.127	-67.444	-0.341	0.135
-741.112	663.455	-0.122	-0.318
-740.098	-24.661	0.096	-0.058
-739.083	-80.101	0.109	0.037
-738.069	-117.388	-0.140	0.026
-737.054	9.010	-0.182	0.139
-736.039	-200.000	0.039	-0.196
-735.025	-142.178	-0.128	0.013
-734.010	-200.000	0.021	-0.387
-732.996	-123.699	-0.419	-0.067
-731.981	-108.713	0.103	-0.022
-730.966	270.569	0.047	-0.084
-729.952	-73.142	-0.328	-0.122
-728.937	52.551	-0.239	0.230
-727.923	-141.023	0.175	-0.018
-726.908	157.143	-0.103	-0.144
-725.894	71.731	-0.309	0.325
-724.879	179.129	-0.033	-0.048
-723.864	346.941	0.107	0.214
-722.850	711.966	0.062	-0.165
-721.835	44.142	0.044	-0.041
-720.821	753.021	0.074	0.203
-719.806	248.382	0.044	0.076
-718.791	-85.565	-0.220	0.069
-717.777	-48.540	-0.109	-0.053
-716.762	-32.210	-0.288	0.163
-715.748	109.111	0.145	-0.175
-714.733	-118.733	-0.273	0.049
-713.718	120.341	-0.082	0.103
-712.704	-200.000	-0.061	-0.276
-711.689	800.000	-0.086	0.280
-710.675	77.686	0.319	0.344
-709.660	-147.084	-0.193	-0.017
-708.645	184.045	0.131	-0.196
-707.631	-25.653	0.214	-0.128
-706.616	-98.315	-0.124	-0.032
-705.602	-2.662	-0.205	0.145
-704.587	-41.476	-0.120	0.062
-703.572	350.110	-0.031	-0.062
-702.558	-123.665	-0.453	-0.073
-701.543	199.283	0.040	-0.063
-700.529	-200.000	-0.005	0.098
-699.514	-118.560	0.149	0.027
-698.499	-183.174	0.242	-0.004
-697.485	-200.000	0.020	0.310
-696.470	-200.000	-0.005	-0.081
-695.456	-79.784	0.278	-0.095
-694.441	-200.000	0.001	-0.348
-693.426	-200.000	0.045	0.286
-692.412	-200.000	0.040	-0.288
-691.397	120.736	-0.064	-0.081
-690.383	-108.512	-0.077	-0.017
-689.368	104.090	0.027	0.032
-688.354	357.758	0.131	-0.263
-687.339	-115.778	0.295	0.056
-686.324	104.061	-0.131	0.155
-685.310	22.983	-0.078	0.065
-684.295	-56.072	-0.236	-0.106
-683.281	-47.166	0.109	0.053
-682.266	-95.157	0.374	-0.102
-681.251	-67.169	0.185	-0.074
-680.237	800.000	0.102	0.291
-679.222	16.485	-0.088	0.070
-678.208	230.857	0.073	0.121
-677.193	61.815	0.134	0.134
-676.178	-101.691	0.043	0.011
-675.164	-29.168	-0.122	0.071
-674.149	-22.430	0.152	-0.093
-673.135	74.349	0.107	-0.113
-672.120	435.376	0.050	0.109
-671.105	86.631	0.090	-0.100
-670.091	58.564	0.090	-0.089
-669.076	-69.383	0.287	0.111
-668.062	-13.237	-0.183	-0.120
-667.047	800.000	-0.033	-0.097
-666.032	800.000	-0.046	0.175
-665.018	657.025	-0.132	-0.344
-664.003	-20.868	0.246	-0.152
-662.989	131.919	-0.338	0.438
-661.974	-164.124	-0.155	0.007
-660.959	38.669	0.147	0.133
-659.945	65.566	-0.115	-0.117
-658.930	-102.804	0.175	0.042
-657.916	-4.900	-0.076	0.053
-656.901	-161.269	-0.158	0.008
-655.886	-137.400	-0.174	-0.020
-654.872	26.389	0.180	-0.152
-653.857	-200.000	0.015	0.075
-652.843	-91.606	-0.202	-0.058
-651.828	55.190	-0.104	0.101
-650.814	-142.164	0.132	-0.013
-649.799	743.965	0.043	0.118
-648.784	800.000	0.038	0.140
-647.770	800.000	0.144	-0.424
-646.755	742.352	0.021	0.056
-645.741	539.430	0.078	-0.187
-644.726	3.590	0.083	-0.061
-643.711	259.073	-0.124	-0.216
-642.697	42.423	-0.143	-0.131
-641.682	31.013	-0.329	0.284
-640.668	-200.000	-0.024	-0.132
-639.653	237.486	0.095	0.160
-638.638	-136.806	-0.285	-0.033
-637.624	-30.514	-0.191	-0.109
-636.609	605.828	-0.099	-0.249
-635.595	800.000	-0.050	-0.163
-634.580	549.802	-0.139	-0.337
-633.565	-122.859	-0.140	-0.023
-632.551	-56.288	-0.174	-0.078
-631.536	109.622	0.055	-0.067
-630.522	-93.198	0.143	0.040
-629.507	-121.843	-0.280	0.047
-628.492	34.298	0.029	0.026
-627.478	283.062	-0.085	-0.154
-626.463	-7.905	-0.135	0.092
-625.449	-30.489	-0.170	0.097
-624.434	-52.214	-0.072	0.034
-623.419	-89.908	-0.225	0.066
-622.405	-11.579	-0.177	-0.117
-621.390	46.023	0.208	-0.194
-620.376	156.779	-0.235	-0.327
-619.361	-61.096	0.369	-0.157
-618.346	-104.265	-0.471	-0.110
-617.332	454.831	0.133	0.296
-616.317	123.455	-0.191	-0.241
-615.303	-54.442	0.189	0.086
-614.288	238.253	0.198	0.331
-613.273	-140.079	-0.264	0.028
-612.259	-200.000	0.005	0.192
-611.244	-40.627	0.217	0.113
-610.230	-200.000	-0.023	0.304
-609.215	-60.767	0.067	0.029
-608.201	163.951	-0.126	-0.179
-607.186	761.620	0.056	0.152
-606.171	517.802	0.041	-0.096
-605.157	-63.370	-0.234	0.097
-604.142	78.333	-0.159	0.171
-603.128	73.942	-0.054	0.057
-602.113	-122.191	0.110	0.018
-601.098	800.000	0.054	0.184
-600.084	-200.000	0.013	-0.165
-599.069	-200.000	-0.078	-0.445
-598.055	485.772	-0.045	-0.103
-597.040	800.000	-0.042	-0.126
-596.025	438.732	0.083	0.183
-595.011	459.460	-0.082	0.183
-593.996	108.037	-0.083	-0.100
-592.982	-200.000	-0.031	0.000
-591.967	169.619	0.100	0.144
-590.952	70.828	0.142	0.148
-589.938	-172.353	0.123	0.004
-588.923	253.430	-0.129	0.222
-587.909	-24.695	0.337	0.202
-586.894	185.919	0.271	-0.406
-585.879	410.931	-0.120	0.257
-584.865	-31.026	0.193	0.109
-583.850	594.296	-0.052	0.129
-582.836	213.879	-0.117	-0.186
-581.821	-71.732	0.044	-0.017
-580.806	191.088	-0.116	-0.175
-579.792	221.667	-0.162	-0.261
-578.777	28.097	0.262	-0.223
-577.763	72.631	-0.103	0.108
-576.748	-125.968	0.195	-0.030
-575.733	-4.476	0.143	0.099
-574.719	-200.000	0.087	0.433
-573.704	56.555	-0.055	-0.054
-572.690	-131.330	0.456	0.061
-571.675	680.998	-0.144	-0.377
-570.661	187.199	-0.301	-0.451
-569.646	-123.196	-0.219	0.035
-568.631	220.527	-0.016	0.025
-567.617	-200.000	0.024	-0.122
-566.602	-200.000	-0.010	0.089
-565.588	478.039	-0.121	-0.275
-564.573	567.926	0.046	-0.111
-563.558	114.089	0.152	0.186
-562.544	52.951	-0.102	0.098
-561.529	800.000	-0.066	-0.273
-560.515	800.000	0.085	-0.313
-559.500	800.000	-0.022	0.083
-558.485	-2.080	-0.077	-0.055
-557.471	-89.926	0.307	0.090
-556.456	55.067	-0.180	-0.175
-555.442	556.188	0.058	-0.141
-554.427	92.685	-0.135	-0.153
-553.412	218.450	-0.095	0.152
-552.398	281.024	0.047	0.085
-551.383	-55.967	-0.071	-0.032
-550.369	-34.858	0.200	0.110
-549.354	-200.000	-0.062	-0.338
-548.339	800.000	0.049	-0.158
-547.325	369.534	0.132	-0.269
-546.310	-75.425	0.275	0.098
-545.296	-102.982	-0.160	0.038
-544.281	323.633	0.092	-0.177
-543.266	-54.109	0.074	-0.034
-542.252	-111.632	0.246	-0.050
-541.237	-3.029	-0.127	0.089
-540.223	483.024	0.111	0.254
-539.208	-170.075	-0.234	-0.008
-538.193	-16.324	-0.219	0.140
-537.179	70.524	0.162	0.169
-536.164	-115.265	0.026	0.005
-535.150	5.987	0.103	-0.077
-534.135	-6.892	0.224	-0.153
-533.121	-200.000	0.033	-0.231
-532.106	-13.564	0.306	-0.199
-531.091	-94.228	0.191	0.052
-530.077	-89.253	0.178	0.053
-529.062	-60.569	-0.106	-0.045
-528.048	670.885	0.087	0.227
-527.033	-200.000	-0.117	0.604
-526.018	177.549	-0.066	0.096
-525.004	-131.620	-0.266	0.035
-523.989	-200.000	-0.054	-0.278
-522.975	113.700	-0.097	0.118
-521.960	636.331	0.043	-0.110
-520.945	-48.900	0.180	-0.086
-519.931	-85.269	-0.186	-0.058
-518.916	22.021	-0.170	0.139
-517.902	800.000	-0.077	-0.232
-516.887	-200.000	0.024	-0.186
-515.872	234.616	0.156	0.257
-514.858	75.205	-0.120	-0.127
-513.843	800.000	0.055	-0.160
-512.829	327.361	0.052	0.099
-511.814	13.092	0.173	-0.134
-510.799	-200.000	0.075	0.363
-509.785	-200.000	-0.021	0.149
-508.770	28.662	0.015	0.012
-507.756	144.986	-0.140	-0.187
-506.741	-200.000	0.020	-0.266
-505.726	-175.432	-0.266	-0.007
-504.712	28.552	-0.078	-0.066
-503.697	-200.000	-0.036	0.411
-502.683	-200.000	0.028	0.310
-501.668	433.943	0.066	0.145
-500.653	513.731	-0.086	-0.200
-499.639	497.157	0.083	-0.190
-498.624	-200.000	0.020	0.151
-497.610	254.394	-0.201	0.345
-496.595	-200.000	-0.063	-0.354
-495.581	363.680	-0.081	-0.163
-494.566	-42.973	0.126	0.064
-493.551	-30.590	-0.161	0.091
-492.537	145.889	0.150	-0.202
-491.522	50.321	-0.105	-0.099
-490.508	-200.000	-0.046	-0.366
-489.493	-200.000	0.067	-0.322
-488.478	-200.000	-0.004	0.057
-487.464	48.356	-0.349	-0.327
-486.449	-160.184	0.287	-0.016
-485.435	319.424	-0.147	0.280
-484.420	-156.688	-0.238	-0.015
-483.405	212.532	0.043	0.068
-482.391	107.961	0.252	0.301
-481.376	-200.000	-0.018	0.221
-480.362	36.416	0.145	0.128
-479.347	-140.361	-0.276	0.029
-478.332	-104.522	-0.069	0.016
-477.318	-72.863	0.126	-0.046
-476.303	180.137	0.117	-0.172
-475.289	-24.042	-0.337	0.202
-474.274	-200.000	-0.029	0.225
-473.259	-170.442	0.136	-0.005
-472.245	-200.000	0.005	-0.153
-471.230	330.831	-0.055	0.105
-470.216	800.000	0.051	-0.215
-469.201	32.666	0.249	-0.215
-468.186	-35.191	0.062	0.034
-467.172	-101.002	0.318	0.078
-466.157	8.032	0.059	0.044
-465.143	-200.000	0.045	0.206
-464.128	408.534	0.044	-0.093
-463.113	290.693	0.243	-0.443
-462.099	100.515	-0.183	-0.213
-461.084	-3.518	-0.119	0.083
-460.070	-126.807	0.426	-0.063
-459.055	-91.380	-0.252	0.072
-458.040	-48.307	-0.106	-0.051
-457.026	800.000	0.037	-0.159
-456.011	-63.310	-0.111	-0.046
-454.997	328.336	-0.127	0.244
-453.982	148.536	0.235	0.318
-452.968	-87.814	-0.162	0.049
-451.953	136.350	0.053	0.070
-450.938	320.849	0.044	0.084
-449.924	-33.728	0.187	0.103
-448.909	-14.928	0.324	0.208
-447.895	-164.476	-0.141	-0.006
-446.880	-200.000	-0.002	0.106
-445.865	225.375	-0.210	-0.341
-444.851	399.479	0.046	-0.096
-443.836	-200.000	-0.020	-0.115
-442.822	-104.362	-0.077	0.018
-441.807	-200.000	0.043	0.267
-440.792	-200.000	-0.013	0.317
-439.778	-138.754	-0.094	-0.010
-438.763	-97.840	-0.069	-0.018
-437.749	11.317	-0.116	0.089
-436.734	498.681	-0.117	0.270
-435.719	13.220	0.223	-0.173
-434.705	-101.412	0.170	0.042
-433.690	89.250	0.160	-0.179
-432.676	-200.000	-0.009	0.098
-431.661	-155.702	-0.399	-0.026
-430.646	426.273	-0.077	0.167
-429.632	800.000	-0.028	-0.088
-428.617	800.000	0.044	-0.130
-427.603	-200.000	-0.026	-0.247
-426.588	-121.830	-0.100	-0.016
-425.573	-101.686	-0.085	-0.021
-424.559	800.000	0.024	-0.105
-423.544	85.139	0.222	-0.244
-422.530	-200.000	0.036	-0.231
-421.515	351.003	0.134	-0.264
-420.500	-200.000	-0.007	0.192
-419.486	-200.000	0.023	-0.221
-418.471	273.142	-0.056	-0.098
-417.457	21.241	0.069	-0.056
-416.442	-22.904	-0.232	0.140
-415.428	266.268	0.073	0.127
-414.413	82.195	-0.155	0.168
-413.398	62.289	-0.155	0.154
-412.384	-179.344	0.308	0.007
-411.369	-200.000	-0.050	0.357
-410.355	-22.564	-0.119	0.072
-409.340	61.672	0.269	0.268
-408.325	-200.000	0.026	0.377
-407.311	-200.000	-0.009	-0.043
-406.296	-31.078	-0.211	-0.119
-405.282	800.000	0.115	-0.325
-404.267	644.132	-0.034	-0.087
-403.252	774.851	-0.085	-0.233
-402.238	-2.974	0.326	-0.228
-401.223	120.497	-0.047	-0.059
-400.209	-70.346	-0.113	-0.043
-399.194	2.553	0.188	-0.136
-398.179	14.659	0.314	-0.245
-397.165	207.022	-0.011	0.017
-396.150	-96.962	-0.268	-0.070
-395.136	7.536	0.142	0.106
-394.121	-200.000	0.017	-0.232
-393.106	-32.558	-0.133	-0.074
-392.092	135.363	0.028	0.036
-391.077	-54.419	-0.241	-0.109
-390.063	107.908	0.137	0.163
-389.048	235.358	0.072	-0.118
-388.033	176.045	0.107	0.155
-387.019	28.520	0.147	0.124
-386.004	556.241	0.026	-0.063
-384.990	117.378	-0.156	-0.192
-383.975	-141.890	0.227	0.023
-382.960	-32.434	0.162	0.090
-381.946	800.000	0.021	0.075
-380.931	-59.522	-0.172	-0.074
-379.917	135.589	0.200	0.259
-378.902	-75.222	-0.201	0.072
-377.888	800.000	0.114	-0.462
-376.873	-84.589	0.356	-0.112
-375.858	-200.000	0.016	-0.170
-374.844	126.378	-0.141	-0.178
-373.829	465.045	0.115	-0.256
-372.815	-182.989	-0.248	0.004
-371.800	800.000	0.024	0.092
-370.785	-109.324	-0.182	0.039
-369.771	14.460	0.258	-0.201
-368.756	-106.195	-0.382	0.086
-367.742	-40.963	-0.122	-0.063
-366.727	2.244	-0.211	-0.152
-365.712	17.340	-0.340	-0.269
-364.698	14.692	0.231	0.180
-363.683	-200.000	0.016	0.179
-362.669	104.935	-0.173	-0.204
-361.654	-48.646	0.142	0.068
-360.639	139.866	0.207	0.272
-359.625	115.052	-0.159	-0.194
-358.610	231.262	0.044	-0.071
-357.596	-95.306	-0.080	0.021
-356.581	42.132	0.117	-0.105
-355.566	329.958	-0.082	-0.157
-354.552	-200.000	-0.005	-0.044
-353.537	-108.794	-0.160	-0.034
-352.523	41.566	0.070	0.063
-351.508	-200.000	-0.011	-0.089
-350.493	-81.897	0.294	0.096
-349.479	-104.741	0.133	0.031
-348.464	-154.294	-0.179	-0.012
-347.450	382.815	-0.073	-0.149
-346.435	-182.068	-0.345	0.006
-345.420	1.092	-0.117	0.084
-344.406	131.476	0.083	0.107
-343.391	-85.810	-0.215	-0.066
-342.377	-12.254	0.231	-0.150
-341.362	-200.000	0.038	0.196
-340.348	-76.864	0.076	-0.026
-339.333	800.000	-0.123	0.366
-338.318	-54.109	0.177	-0.080
-337.304	800.000	-0.032	-0.092
-336.289	10.638	0.050	0.038
-335.275	-59.849	0.224	0.095
-334.260	800.000	-0.053	0.197
-333.245	800.000	0.041	0.125
-332.231	-200.000	-0.005	-0.056
-331.216	-109.403	0.239	-0.050
-330.202	129.429	0.096	0.122
-329.187	24.771	0.138	0.114
-328.172	789.797	-0.074	0.202
-327.158	-152.091	0.123	0.009
-326.143	-200.000	0.032	0.152
-325.129	800.000	-0.111	-0.425
-324.114	-161.197	0.124	-0.006
-323.099	8.250	-0.246	0.184
-322.085	153.200	0.013	0.018
-321.070	-140.738	0.323	-0.033
-320.056	-90.029	-0.477	0.139
-319.041	-13.559	-0.092	-0.060
-318.026	354.161	0.080	-0.157
-317.012	800.000	-0.040	0.124
-315.997	348.877	0.100	-0.196
-314.983	-57.902	0.061	0.027
-313.968	800.000	0.078	0.299
-312.953	800.000	0.120	0.424
-311.939	-26.082	-0.207	-0.121
-310.924	800.000	-0.141	-0.446
-309.910	-131.190	-0.123	0.016
-308.895	83.251	0.114	0.124
-307.880	-130.302	0.131	0.018
-306.866	-33.091	0.121	-0.067
-305.851	800.000	-0.089	0.313
-304.837	130.909	0.050	-0.064
-303.822	-200.000	-0.020	0.122
-302.807	-200.000	-0.028	0.198
-301.793	800.000	0.107	0.349
-300.778	214.660	-0.057	0.090
-299.764	-47.196	-0.097	-0.047
-298.749	-46.050	0.044	0.022
-297.735	-200.000	0.013	0.136
-296.720	-200.000	0.001	0.029
-295.705	433.064	0.143	0.310
-294.691	800.000	0.076	0.228
-293.676	-9.016	0.068	0.045
-292.662	-41.190	-0.394	-0.202
-291.647	89.826	-0.013	-0.015
-290.632	0.195	0.281	0.199
-289.618	34.554	-0.212	0.184
-288.603	-13.854	0.337	0.217
-287.589	-59.616	0.333	0.142
-286.574	-76.856	-0.191	-0.066
-285.559	43.836	0.166	-0.151
-284.545	-141.097	-0.395	-0.040
-283.530	-200.000	-0.030	-0.200
-282.516	124.091	-0.153	-0.192
-281.501	-108.572	0.061	0.013
-280.486	-120.864	0.028	-0.005
-279.472	221.223	0.053	-0.084
-278.457	-105.966	-0.149	-0.033
-277.443	-200.000	-0.020	-0.151
-276.428	65.775	0.108	0.108
-275.413	365.010	-0.111	0.223
-274.399	-10.674	0.092	-0.061
-273.384	17.056	-0.126	0.099
-272.370	-200.000	-0.005	0.258
-271.355	-85.409	-0.242	-0.075
-270.340	49.679	0.074	0.069
-269.326	416.559	0.063	0.134
-268.311	48.330	0.139	0.130
-267.297	-121.356	-0.383	0.063
-266.282	177.311	0.131	0.190
-265.267	99.619	-0.151	0.173
-264.253	-200.000	0.005	0.270
-263.238	-200.000	-0.025	-0.174
-262.224	107.787	-0.211	0.250
-261.209	-84.601	0.392	-0.123
-260.195	128.320	-0.249	0.314
-259.180	12.310	-0.117	-0.089
-258.165	-200.000	0.007	-0.176
-257.151	445.038	-0.111	-0.242
-256.136	-99.844	-0.118	-0.029
-255.122	-200.000	0.014	0.386
-254.107	-113.218	0.528	0.103
-253.092	-93.817	0.019	0.005
-252.078	16.312	0.208	-0.163
-251.063	78.835	-0.140	-0.148
-250.049	800.000	0.067	0.198
-249.034	800.000	-0.047	0.186
-248.019	-174.557	-0.189	-0.005
-247.005	-15.678	0.240	0.152
-245.990	-109.188	0.426	0.090
-244.976	104.049	-0.023	0.027
-243.961	449.327	-0.015	-0.033
-242.946	-43.402	-0.177	0.089
-241.932	-141.729	0.314	-0.031
-240.917	-1.912	-0.265	-0.185
-239.903	-116.560	-0.195	0.036
-238.888	-165.456	0.264	-0.011
-237.873	-121.210	-0.205	-0.034
-236.859	-161.651	-0.159	-0.008
-235.844	142.653	-0.112	0.147
-234.830	800.000	-0.062	-0.191
-233.815	800.000	0.074	-0.242
-232.800	-200.000	0.024	-0.106
-231.786	-31.816	0.251	-0.140
-230.771	-165.240	-0.204	-0.009
-229.757	381.231	0.016	-0.032
-228.742	403.311	0.070	-0.145
-227.727	-37.314	-0.108	-0.057
-226.713	-163.866	-0.154	-0.007
-225.698	-200.000	0.006	-0.059
-224.684	-81.595	0.092	-0.030
-223.669	56.806	-0.185	0.179
-222.655	-122.884	0.290	-0.046
-221.640	-62.343	-0.456	-0.188
-220.625	183.238	-0.116	-0.170
-219.611	95.917	-0.070	-0.079
-218.596	-87.567	0.241	0.072
-217.582	601.196	-0.101	0.250
-216.567	-46.308	0.054	0.027
-215.552	570.858	-0.085	-0.206
-214.538	-112.868	-0.391	0.077
-213.523	-28.651	0.629	0.359
-212.509	-108.345	0.357	0.076
-211.494	800.000	-0.048	0.136
-210.479	-200.000	-0.018	-0.126
-209.465	-131.048	-0.291	-0.038
-208.450	149.775	-0.135	-0.181
-207.436	348.013	0.136	0.266
-206.421	-200.000	-0.004	0.244
-205.406	189.140	-0.186	0.276
-204.392	800.000	-0.067	-0.202
-203.377	283.812	-0.057	-0.101
-202.363	-136.391	0.241	0.028
-201.348	218.992	0.181	-0.286
-200.333	626.879	-0.094	0.235
-199.319	640.293	-0.115	-0.289
-198.304	-72.031	0.279	-0.103
-197.290	800.000	0.065	0.215
-196.275	-141.107	-0.193	0.020
-195.260	-103.589	-0.433	0.101
-194.246	-50.076	0.320	0.150
-193.231	512.371	-0.046	-0.106
-192.217	298.878	-0.043	-0.079
-191.202	-200.000	0.053	0.260
-190.187	-124.764	0.319	-0.049
-189.173	-131.250	0.307	-0.040
-188.158	61.465	0.386	0.381
-187.144	199.080	0.188	-0.285
-186.129	59.923	0.204	0.199
-185.114	800.000	-0.044	-0.170
-184.100	553.222	-0.176	-0.420
-183.085	221.556	-0.135	-0.214
-182.071	-200.000	-0.051	0.316
-181.056	-200.000	0.050	-0.473
-180.042	-35.723	0.368	0.197
-179.027	512.236	-0.084	-0.193
-178.012	-28.034	0.076	-0.044
-176.998	800.000	-0.037	-0.112
-175.983	-130.850	0.356	-0.047
-174.969	677.989	0.137	-0.353
-173.954	119.754	-0.216	0.265
-172.939	28.421	-0.342	0.286
-171.925	85.489	0.093	-0.101
-170.910	800.000	-0.049	0.136
-169.896	-200.000	0.044	-0.194
-168.881	-166.787	0.385	0.016
-167.866	-71.112	-0.287	-0.107
-166.852	-70.980	-0.309	0.115
-165.837	-66.360	-0.176	-0.069
-164.823	-93.958	-0.275	-0.075
-163.808	106.148	-0.220	0.258
-162.793	-57.019	-0.031	-0.013
-161.779	800.000	0.059	0.247
-160.764	800.000	-0.057	0.193
-159.750	-161.322	0.076	-0.004
-158.735	800.000	0.080	-0.233
-157.720	25.070	-0.145	-0.119
-156.706	91.241	-0.103	-0.114
-155.691	225.047	0.293	0.470
-154.677	-27.412	-0.090	0.052
-153.662	-30.306	0.589	0.331
-152.647	119.700	-0.167	0.205
-151.633	-200.000	0.020	0.102
-150.618	42.710	0.279	0.251
-149.604	470.134	0.109	0.242
-148.589	-147.365	0.267	0.022
-147.574	-37.539	-0.203	0.107
-146.560	459.824	-0.085	0.188
-145.545	-110.279	0.499	0.103
-144.531	-200.000	-0.006	0.038
-143.516	-93.157	-0.061	0.017
-142.502	-200.000	0.007	-0.220
-141.487	800.000	0.059	0.231
-140.472	71.653	-0.134	-0.138
-139.458	-35.900	0.159	-0.085
-138.443	-110.286	-0.032	0.007
-137.429	112.249	-0.220	-0.263
-136.414	116.066	-0.182	-0.221
-135.399	-200.000	0.033	-0.285
-134.385	-83.057	-0.123	-0.039
-133.370	260.891	-0.102	-0.175
-132.356	-110.623	-0.081	0.017
-131.341	-200.000	0.005	0.202
-130.326	-200.000	-0.061	0.345
-129.312	186.528	0.117	0.172
-128.297	-113.107	-0.194	-0.038
-127.283	75.173	-0.157	0.164
-126.268	290.031	-0.098	-0.175
-125.253	-69.908	-0.109	0.041
-124.239	800.000	-0.039	0.113
-123.224	-200.000	-0.019	0.228
-122.210	-69.812	-0.035	0.013
-121.195	800.000	-0.011	-0.041
