DTS Sentinel unit serial number:	SN413079Multiplexer serial number:	ORYXHardware model number:	OX4-SRSoftware version number:	ORYX F/W v4.00 Oryx Data Collector v3.7.2.0data status	okinstallation	princeton_trtdifferential loss correction	single-endedforward channel	channel 3reverse channel	N/Adate	2019/09/17time	01:36:35forward acquisition time	60.00reverse acquisition time	0.00gamma	496.2192k internal	0.2324k external	0.2324temperature offset calibration	0.9944default loss term (dB/km)	0.3790temperature slope calibration	1.0000multiplexer offset coefficient	1.0000multiplexer slope coefficient	1.0000fibre end	0.00T internal ref (°C)	29.55T ext. ref 1 (°C)	0.11T ext. ref 2 (°C)	24.50length (m)	temperature (°C)	Stokes	anti-Stokes-747.200	-111.213	-0.190	0.039
-746.185	-57.960	0.067	0.030
-745.171	93.706	0.063	-0.072
-744.156	-200.000	-0.020	0.489
-743.142	-3.558	0.214	0.151
-742.127	-103.389	-0.386	-0.092
-741.112	-35.177	0.121	-0.066
-740.098	529.875	-0.076	0.180
-739.083	-125.117	-0.172	0.027
-738.069	-200.000	-0.098	0.445
-737.054	163.484	0.147	0.208
-736.039	-200.000	-0.037	-0.182
-735.025	212.536	-0.103	0.163
-734.010	-200.000	-0.051	0.256
-732.996	60.148	-0.222	0.221
-731.981	-104.294	-0.244	0.057
-730.966	-174.604	-0.165	-0.005
-729.952	-96.248	-0.291	-0.078
-728.937	21.251	0.109	-0.090
-727.923	-200.000	-0.013	0.122
-726.908	103.422	-0.204	-0.241
-725.894	-144.563	0.143	-0.013
-724.879	52.948	-0.029	-0.028
-723.864	-67.021	-0.285	-0.113
-722.850	800.000	0.024	-0.079
-721.835	-4.240	-0.115	-0.080
-720.821	748.935	0.028	-0.075
-719.806	54.511	0.059	-0.057
-718.791	-97.849	-0.277	-0.072
-717.777	-45.783	-0.096	-0.048
-716.762	-60.756	-0.176	0.075
-715.748	56.833	-0.062	-0.061
-714.733	120.225	-0.100	-0.126
-713.718	800.000	-0.095	-0.289
-712.704	16.869	-0.077	-0.062
-711.689	800.000	-0.083	-0.242
-710.675	262.877	-0.124	0.217
-709.660	-91.170	0.268	-0.078
-708.645	96.455	0.128	0.148
-707.631	-37.907	-0.221	-0.119
-706.616	59.796	0.292	0.291
-705.602	3.254	0.059	-0.043
-704.587	-108.526	-0.014	-0.003
-703.572	-200.000	-0.049	-0.265
-702.558	800.000	0.071	-0.250
-701.543	800.000	0.059	-0.198
-700.529	93.950	0.236	-0.269
-699.514	-47.366	-0.392	-0.192
-698.499	101.741	0.281	0.330
-697.485	-39.292	0.159	-0.084
-696.470	207.194	0.087	0.137
-695.456	-86.363	-0.265	-0.082
-694.441	-90.643	0.512	-0.149
-693.426	-78.703	0.168	0.058
-692.412	203.454	-0.112	-0.175
-691.397	-29.249	-0.111	-0.064
-690.383	90.403	-0.192	-0.217
-689.368	448.925	-0.142	-0.316
-688.354	51.471	-0.072	-0.069
-687.339	108.021	0.142	0.170
-686.324	-200.000	-0.036	-0.173
-685.310	-27.413	-0.325	-0.190
-684.295	800.000	0.142	-0.412
-683.281	-78.890	0.262	-0.090
-682.266	155.032	-0.026	0.036
-681.251	-131.930	-0.092	-0.012
-680.237	-200.000	0.028	0.234
-679.222	165.382	-0.076	0.108
-678.208	511.717	-0.189	0.443
-677.193	800.000	-0.063	-0.226
-676.178	800.000	-0.015	0.065
-675.164	-35.839	0.277	-0.151
-674.149	-200.000	0.048	-0.260
-673.135	-72.105	-0.090	0.034
-672.120	141.275	-0.120	-0.160
-671.105	-16.658	-0.150	0.096
-670.091	27.178	0.144	0.121
-669.076	-33.313	0.338	-0.188
-668.062	-200.000	0.004	-0.102
-667.047	174.039	-0.093	0.136
-666.032	206.723	-0.146	0.229
-665.018	71.222	0.054	-0.056
-664.003	-119.316	0.240	-0.042
-662.989	-144.355	0.492	-0.046
-661.974	-180.612	-0.144	0.003
-660.959	-106.956	0.245	0.055
-659.945	-130.268	-0.345	0.047
-658.930	46.715	-0.085	0.080
-657.916	58.965	0.098	0.097
-656.901	-64.060	0.283	-0.116
-655.886	800.000	0.058	0.195
-654.872	19.421	0.073	-0.059
-653.857	20.264	0.279	-0.227
-652.843	800.000	0.018	0.054
-651.828	556.703	0.034	-0.082
-650.814	-144.252	-0.386	0.036
-649.799	-80.951	-0.138	-0.046
-648.784	584.978	-0.084	0.208
-647.770	800.000	0.045	0.145
-646.755	-182.784	0.254	-0.005
-645.741	-200.000	0.001	-0.361
-644.726	-90.175	-0.206	0.060
-643.711	-200.000	0.040	-0.268
-642.697	800.000	-0.079	-0.243
-641.682	504.422	0.104	-0.241
-640.668	321.641	-0.048	-0.091
-639.653	-200.000	-0.002	-0.158
-638.638	71.891	-0.253	-0.264
-637.624	-75.640	-0.248	-0.088
-636.609	800.000	0.057	-0.203
-635.595	-12.581	-0.380	0.249
-634.580	403.183	-0.107	0.226
-633.565	-200.000	-0.012	-0.110
-632.551	-146.399	-0.211	0.019
-631.536	78.893	0.108	-0.116
-630.522	800.000	0.094	0.301
-629.507	-172.264	-0.249	0.008
-628.492	-200.000	0.002	0.100
-627.478	-36.454	-0.431	0.233
-626.463	800.000	0.015	-0.048
-625.449	-60.121	0.207	0.089
-624.434	-24.341	0.061	0.036
-623.419	-76.114	0.110	-0.039
-622.405	-0.790	-0.166	0.118
-621.390	163.741	-0.062	-0.088
-620.376	-8.581	0.318	0.214
-619.361	-200.000	0.026	0.128
-618.346	264.213	-0.119	-0.208
-617.332	-200.000	-0.009	-0.452
-616.317	87.504	0.089	-0.099
-615.303	-5.524	0.407	-0.281
-614.288	-53.656	-0.214	0.098
-613.273	-200.000	0.006	-0.268
-612.259	-200.000	0.019	0.086
-611.244	173.174	-0.114	-0.165
-610.230	33.492	0.084	0.073
-609.215	196.514	0.092	0.141
-608.201	72.651	0.105	-0.111
-607.186	-126.260	0.101	-0.015
-606.171	437.156	-0.051	-0.111
-605.157	-140.811	0.110	-0.011
-604.142	-200.000	0.022	0.262
-603.128	34.930	-0.171	0.150
-602.113	800.000	0.084	-0.337
-601.098	129.176	0.069	0.088
-600.084	180.058	-0.116	-0.170
-599.069	-18.131	-0.127	0.080
-598.055	-45.250	-0.342	-0.171
-597.040	243.244	-0.087	0.146
-596.025	554.773	0.033	-0.081
-595.011	156.759	-0.153	0.212
-593.996	800.000	0.019	-0.070
-592.982	-200.000	0.071	0.446
-591.967	-200.000	-0.049	-0.263
-590.952	-82.024	-0.266	-0.087
-589.938	-200.000	-0.024	0.130
-588.923	-20.821	0.022	-0.013
-587.909	800.000	0.066	0.243
-586.894	245.667	-0.109	0.183
-585.879	-109.390	0.267	0.057
-584.865	-139.265	0.284	-0.031
-583.850	-200.000	0.003	-0.133
-582.836	-80.038	0.462	-0.156
-581.821	-3.347	-0.269	-0.188
-580.806	800.000	0.026	-0.100
-579.792	-58.047	-0.217	0.095
-578.777	-23.120	-0.229	0.138
-577.763	800.000	-0.012	0.048
-576.748	252.679	0.184	0.315
-575.733	-200.000	0.013	0.096
-574.719	-84.147	0.198	0.063
-573.704	800.000	0.071	0.202
-572.690	-200.000	-0.006	-0.119
-571.675	129.732	0.155	0.199
-570.661	-101.013	0.259	-0.064
-569.646	-172.275	0.352	-0.011
-568.631	-200.000	0.005	-0.124
-567.617	27.980	0.301	-0.255
-566.602	486.460	-0.077	-0.175
-565.588	-127.084	-0.152	-0.022
-564.573	-10.013	0.194	-0.129
-563.558	-5.908	-0.406	-0.278
-562.544	162.901	0.169	-0.238
-561.529	128.411	0.093	-0.119
-560.515	800.000	-0.013	0.043
-559.500	-200.000	0.009	-0.216
-558.485	114.209	-0.118	0.144
-557.471	800.000	-0.077	0.283
-556.456	-48.901	-0.165	-0.079
-555.442	-14.462	0.048	0.031
-554.427	-87.166	-0.185	0.056
-553.412	-140.588	-0.090	0.009
-552.398	-200.000	0.012	-0.278
-551.383	-112.953	-0.165	-0.033
-550.369	69.090	0.259	-0.266
-549.354	800.000	0.055	-0.217
-548.339	-200.000	0.005	0.036
-547.325	-200.000	0.042	-0.260
-546.310	-36.344	-0.274	0.148
-545.296	53.760	-0.147	0.141
-544.281	58.902	-0.123	0.121
-543.266	39.018	0.086	0.077
-542.252	800.000	0.007	0.023
-541.237	-102.755	0.258	0.062
-540.223	294.334	-0.133	0.244
-539.208	566.187	-0.076	0.184
-538.193	-200.000	-0.050	0.422
-537.179	-137.656	-0.041	-0.005
-536.164	204.803	0.178	0.276
-535.150	-49.512	-0.268	-0.128
-534.135	800.000	0.121	-0.371
-533.121	-37.518	0.123	0.066
-532.106	-7.909	-0.237	-0.160
-531.091	97.919	-0.079	0.091
-530.077	-118.453	0.160	0.028
-529.062	-1.875	-0.175	0.123
-528.048	-192.600	-0.143	-0.001
-527.033	2.103	0.072	0.052
-526.018	-200.000	0.006	-0.226
-525.004	-200.000	0.006	-0.333
-523.989	-23.969	-0.163	0.097
-522.975	-200.000	-0.031	-0.187
-521.960	-130.984	-0.109	0.015
-520.945	-200.000	-0.033	0.229
-519.931	282.675	0.044	-0.079
-518.916	-178.725	-0.306	-0.007
-517.902	-200.000	0.018	-0.183
-516.887	-172.264	0.163	-0.005
-515.872	800.000	-0.084	0.235
-514.858	225.548	-0.168	0.272
-513.843	-200.000	-0.009	-0.074
-512.829	1.640	0.235	-0.169
-511.814	-200.000	-0.006	-0.374
-510.799	0.046	0.270	-0.192
-509.785	-171.297	-0.181	-0.006
-508.770	-119.561	-0.157	0.027
-507.756	800.000	-0.018	0.058
-506.741	50.699	0.148	-0.140
-505.726	-63.628	0.209	-0.086
-504.712	-200.000	-0.093	-0.427
-503.697	-31.749	-0.383	0.215
-502.683	111.605	-0.074	-0.090
-501.668	-12.256	0.315	0.206
-500.653	-200.000	0.041	0.271
-499.639	207.977	0.004	0.007
-498.624	-113.604	-0.437	-0.085
-497.610	800.000	-0.016	0.047
-496.595	-133.427	-0.208	0.026
-495.581	-65.082	-0.297	-0.120
-494.566	-148.950	0.173	-0.014
-493.551	424.180	-0.107	-0.230
-492.537	-14.621	0.392	-0.252
-491.522	-37.698	0.143	0.076
-490.508	-200.000	0.004	-0.091
-489.493	-45.481	0.170	0.084
-488.478	-79.674	0.156	0.052
-487.464	716.272	-0.066	-0.175
-486.449	-41.942	0.068	-0.035
-485.435	-140.409	0.184	0.019
-484.420	-200.000	0.051	-0.353
-483.405	-200.000	0.004	-0.274
-482.391	800.000	-0.048	-0.138
-481.376	-22.743	0.079	-0.048
-480.362	213.429	-0.017	0.026
-479.347	800.000	-0.047	0.166
-478.332	350.346	-0.095	-0.188
-477.318	-200.000	-0.054	-0.316
-476.303	-119.546	-0.075	0.013
-475.289	-88.455	-0.118	-0.035
-474.274	311.398	0.067	-0.125
-473.259	20.681	0.101	0.082
-472.245	-200.000	-0.007	0.195
-471.230	-66.849	0.390	-0.154
-470.216	210.357	0.058	-0.091
-469.201	-60.221	0.208	-0.089
-468.186	-29.388	0.156	0.089
-467.172	-138.670	0.062	-0.007
-466.157	-40.715	-0.154	0.080
-465.143	-167.950	0.220	-0.009
-464.128	-129.139	0.270	-0.038
-463.113	338.788	0.086	0.166
-462.099	-200.000	0.017	0.269
-461.084	-66.494	-0.066	-0.026
-460.070	-118.387	-0.055	0.010
-459.055	-8.081	0.167	-0.113
-458.040	241.610	-0.092	0.153
-457.026	-42.715	0.242	0.123
-456.011	95.642	0.236	-0.269
-454.997	27.635	0.099	-0.083
-453.982	800.000	-0.020	-0.074
-452.968	-200.000	0.031	-0.202
-451.953	5.111	-0.115	0.084
-450.938	-200.000	0.041	0.192
-449.924	138.048	-0.084	0.110
-448.909	800.000	0.052	0.213
-447.895	-19.818	0.190	-0.117
-446.880	-87.996	0.234	0.070
-445.865	-200.000	-0.058	0.410
-444.851	-26.658	0.096	0.056
-443.836	800.000	0.088	-0.262
-442.822	292.530	0.083	-0.150
-441.807	205.303	0.056	-0.087
-440.792	108.046	0.053	0.062
-439.778	193.804	0.068	-0.103
-438.763	800.000	0.128	0.376
-437.749	-100.724	-0.349	0.086
-436.734	-200.000	0.008	-0.085
-435.719	51.498	-0.109	-0.103
-434.705	-151.935	-0.197	-0.014
-433.690	66.734	-0.086	-0.087
-432.676	784.569	-0.128	-0.350
-431.661	69.190	-0.097	-0.099
-430.646	132.134	-0.108	0.138
-429.632	50.316	0.152	-0.143
-428.617	649.479	-0.125	-0.320
-427.603	-130.706	-0.161	0.022
-426.588	-117.980	0.120	-0.021
-425.573	-200.000	0.019	0.377
-424.559	-65.286	0.183	0.074
-423.544	69.042	0.167	0.171
-422.530	-200.000	-0.010	-0.286
-421.515	-58.346	-0.279	-0.121
-420.500	-145.338	-0.384	-0.035
-419.486	-26.801	0.073	0.043
-418.471	800.000	-0.012	0.040
-417.457	174.639	0.166	0.239
-416.442	-200.000	-0.022	-0.158
-415.428	244.526	-0.199	-0.333
-414.413	10.222	0.246	0.186
-413.398	608.153	-0.075	-0.186
-412.384	23.246	-0.160	0.131
-411.369	40.762	0.183	0.165
-410.355	-200.000	-0.006	0.136
-409.340	-59.085	-0.089	-0.038
-408.325	-129.378	-0.163	-0.023
-407.311	-31.033	0.104	0.059
-406.296	-183.191	-0.244	-0.004
-405.282	-200.000	-0.002	0.143
-404.267	18.984	0.168	0.134
-403.252	560.931	0.040	-0.095
-402.238	618.948	0.073	-0.183
-401.223	-87.274	-0.054	0.016
-400.209	-200.000	-0.062	-0.285
-399.194	154.771	-0.202	-0.276
-398.179	309.818	0.160	0.298
-397.165	149.106	0.197	0.266
-396.150	-200.000	-0.030	0.258
-395.136	30.290	0.160	-0.136
-394.121	33.766	0.274	0.237
-393.106	58.411	0.181	0.177
-392.092	302.776	0.074	-0.136
-391.077	475.548	-0.047	-0.105
-390.063	-59.884	0.506	-0.215
-389.048	-193.662	0.615	-0.005
-388.033	523.146	0.155	0.363
-387.019	-49.121	-0.201	0.096
-386.004	-137.324	-0.274	0.031
-384.990	639.743	-0.029	0.072
-383.975	800.000	-0.033	-0.119
-382.960	-200.000	0.045	-0.454
-381.946	800.000	0.050	0.150
-380.931	-200.000	0.033	0.148
-379.917	45.374	-0.096	-0.088
-378.902	303.770	-0.132	0.244
-377.888	800.000	0.040	-0.149
-376.873	-30.274	0.189	0.107
-375.858	231.932	-0.178	-0.291
-374.844	252.223	-0.079	0.133
-373.829	220.719	-0.245	0.392
-372.815	-200.000	-0.046	0.335
-371.800	530.604	0.092	-0.216
-370.785	10.174	0.125	0.095
-369.771	126.470	0.125	0.158
-368.756	141.296	-0.191	0.251
-367.742	51.267	0.149	0.140
-366.727	548.399	-0.059	0.140
-365.712	800.000	0.035	-0.119
-364.698	-35.280	-0.168	0.091
-363.683	-200.000	0.002	0.062
-362.669	-200.000	-0.033	0.385
-361.654	-80.320	0.094	0.031
-360.639	18.224	-0.008	-0.007
-359.625	-200.000	0.029	-0.127
-358.610	-200.000	-0.037	0.329
-357.596	367.857	-0.055	-0.110
-356.581	69.661	0.151	-0.155
-355.566	-32.390	-0.314	0.174
-354.552	-114.028	-0.279	0.054
-353.537	138.754	0.129	0.169
-352.523	-200.000	-0.007	0.148
-351.508	-46.831	-0.225	-0.110
-350.493	-200.000	-0.021	-0.370
-349.479	-41.249	0.242	-0.124
-348.464	-200.000	-0.015	0.122
-347.450	176.375	-0.093	0.134
-346.435	42.433	0.057	-0.052
-345.420	-109.549	0.178	-0.037
-344.406	-114.314	-0.269	0.052
-343.391	-200.000	-0.056	0.254
-342.377	-12.779	0.285	-0.185
-341.362	3.856	-0.074	0.054
-340.348	-63.439	0.403	0.165
-339.333	-49.194	0.293	-0.139
-338.318	-119.416	0.367	0.063
-337.304	70.380	-0.067	-0.069
-336.289	-200.000	0.004	-0.172
-335.275	609.118	-0.112	0.278
-334.260	-113.141	0.101	0.020
-333.245	-134.481	0.233	-0.028
-332.231	-50.835	0.246	0.115
-331.216	196.848	-0.098	0.149
-330.202	281.527	0.047	-0.083
-329.187	674.810	-0.195	-0.503
-328.172	188.440	-0.095	0.142
-327.158	-82.386	-0.134	0.043
-326.143	-70.421	-0.377	0.142
-325.129	217.768	-0.054	0.085
-324.114	-54.088	-0.388	0.175
-323.099	-43.694	-0.357	-0.179
-322.085	93.461	0.247	0.278
-321.070	-76.698	-0.191	0.066
-320.056	-89.712	-0.304	0.088
-319.041	-108.049	-0.245	0.053
-318.026	800.000	-0.096	0.373
-317.012	800.000	-0.024	0.082
-315.997	78.832	0.111	0.118
-314.983	-200.000	-0.013	-0.346
-313.968	-94.681	0.234	0.063
-312.953	57.425	0.156	-0.151
-311.939	800.000	0.050	-0.155
-310.924	-200.000	0.035	0.332
-309.910	-87.369	0.100	-0.030
-308.895	-200.000	-0.012	0.058
-307.880	-200.000	-0.006	0.182
-306.866	-200.000	0.039	-0.216
-305.851	119.375	0.215	-0.263
-304.837	-200.000	-0.027	0.127
-303.822	800.000	0.112	0.348
-302.807	-200.000	0.013	0.301
-301.793	-150.270	0.356	-0.027
-300.778	85.100	0.062	0.068
-299.764	-200.000	-0.048	0.445
-298.749	-40.165	-0.250	-0.129
-297.735	78.998	-0.154	-0.164
-296.720	189.550	-0.044	-0.066
-295.705	-200.000	0.034	-0.200
-294.691	-122.531	-0.118	0.019
-293.676	-200.000	-0.258	0.000
-292.662	800.000	-0.050	-0.160
-291.647	18.582	0.154	0.122
-290.632	-200.000	0.057	-0.261
-289.618	102.885	0.271	-0.315
-288.603	-53.726	-0.299	-0.136
-287.589	-68.637	0.374	0.144
-286.574	-200.000	0.018	-0.105
-285.559	-73.966	0.265	0.095
-284.545	9.658	-0.213	0.160
-283.530	312.776	0.060	-0.111
-282.516	-88.521	-0.052	0.015
-281.501	-158.912	0.152	0.009
-280.486	-124.032	-0.502	0.078
-279.472	297.744	0.079	0.145
-278.457	-200.000	0.021	0.395
-277.443	-139.809	0.300	0.032
-276.428	581.952	0.074	0.181
-275.413	56.722	-0.252	0.243
-274.399	30.980	0.271	0.230
-273.384	-5.837	-0.216	0.146
-272.370	21.793	0.106	-0.086
-271.355	-73.674	0.159	0.057
-270.340	178.243	0.106	0.154
-269.326	277.064	0.023	-0.040
-268.311	-178.305	-0.333	0.008
-267.297	-200.000	-0.007	-0.207
-266.282	209.582	-0.116	0.180
-265.267	800.000	0.082	-0.232
-264.253	-200.000	-0.027	-0.336
-263.238	30.125	-0.111	-0.093
-262.224	-168.430	-0.242	0.009
-261.209	9.550	0.125	-0.094
-260.195	800.000	0.082	-0.282
-259.180	314.675	0.106	0.197
-258.165	103.733	-0.196	0.228
-257.151	446.763	0.235	-0.511
-256.136	-200.000	-0.019	-0.209
-255.122	229.233	-0.082	-0.132
-254.107	-200.000	0.048	0.333
-253.092	-200.000	-0.211	0.000
-252.078	-200.000	-0.029	-0.140
-251.063	212.194	-0.018	-0.027
-250.049	-136.843	0.055	-0.006
-249.034	333.332	0.073	-0.140
-248.019	-50.073	-0.091	-0.043
-247.005	285.681	0.030	-0.054
-245.990	800.000	0.036	-0.133
-244.976	-127.232	0.338	0.049
-243.961	-142.638	0.164	0.016
-242.946	800.000	-0.087	-0.338
-241.932	23.432	0.140	-0.114
-240.917	-87.734	-0.166	0.050
-239.903	800.000	0.038	-0.117
-238.888	800.000	0.055	0.152
-237.873	-26.980	0.123	0.071
-236.859	187.172	0.052	0.077
-235.844	-200.000	0.013	-0.156
-234.830	69.571	0.221	0.225
-233.815	46.643	-0.134	0.123
-232.800	-200.000	0.003	-0.078
-231.786	157.451	-0.096	0.132
-230.771	88.204	0.295	-0.324
-229.757	240.188	-0.082	0.135
-228.742	-200.000	-0.020	-0.216
-227.727	713.032	-0.023	-0.059
-226.713	247.450	0.116	0.194
-225.698	469.151	0.206	0.457
-224.684	-126.367	-0.034	-0.005
-223.669	404.429	-0.079	-0.164
-222.655	-66.916	-0.245	-0.096
-221.640	184.753	0.102	-0.150
-220.625	-147.481	0.277	0.023
-219.611	-200.000	-0.036	0.278
-218.596	-119.756	-0.078	-0.013
-217.582	237.018	-0.090	0.147
-216.567	-113.390	-0.476	0.092
-215.552	-177.144	0.277	0.007
-214.538	124.998	-0.094	0.117
-213.523	-98.243	0.237	-0.060
-212.509	73.620	-0.165	-0.171
-211.494	53.176	0.086	0.082
-210.479	689.248	-0.032	-0.082
-209.465	-63.020	-0.209	0.085
-208.450	-157.843	0.320	-0.019
-207.436	579.137	0.067	0.162
-206.421	68.561	-0.332	-0.337
-205.406	800.000	0.029	0.117
-204.392	61.263	-0.154	0.152
-203.377	-149.875	0.272	-0.021
-202.363	-35.688	0.201	-0.108
-201.348	129.068	-0.127	0.160
-200.333	-200.000	0.003	0.032
-199.319	484.168	0.110	0.248
-198.304	243.648	0.033	-0.055
-197.290	-200.000	0.017	-0.185
-196.275	-69.152	-0.264	-0.100
-195.260	34.751	0.202	0.174
-194.246	-200.000	0.009	-0.179
-193.231	-69.174	0.219	0.083
-192.217	-23.243	-0.091	0.054
-191.202	773.398	-0.071	-0.191
-190.187	102.990	-0.157	0.182
-189.173	-200.000	0.042	-0.262
-188.158	-164.119	0.218	-0.010
-187.144	-3.581	0.270	-0.185
-186.129	101.228	0.188	0.216
-185.114	-36.021	0.222	0.118
-184.100	-88.144	-0.172	-0.051
-183.085	800.000	-0.131	0.435
-182.071	800.000	0.106	0.294
-181.056	800.000	-0.057	0.215
-180.042	800.000	-0.090	0.307
-179.027	-96.541	0.111	-0.029
-178.012	387.651	-0.041	0.084
-176.998	-116.007	-0.117	-0.021
-175.983	74.827	-0.178	0.185
-174.969	86.163	-0.108	0.117
-173.954	-48.037	-0.310	-0.148
-172.939	-35.328	-0.234	-0.125
-171.925	288.214	-0.183	0.326
-170.910	-126.328	-0.486	-0.072
-169.896	224.372	0.137	-0.218
-168.881	-32.974	-0.206	-0.113
-167.866	65.849	-0.186	-0.186
-166.852	-200.000	0.051	0.238
-165.837	-142.759	0.105	0.010
-164.823	-84.924	-0.209	-0.065
-163.808	123.810	-0.191	-0.236
-162.793	184.780	0.025	-0.037
-161.779	738.874	0.011	0.029
-160.764	-143.024	0.182	0.017
-159.750	84.906	0.215	-0.233
-158.735	-11.466	0.321	0.208
-157.720	-142.360	-0.115	-0.011
-156.706	-200.000	0.003	-0.132
-155.691	110.511	-0.097	0.115
-154.677	-200.000	-0.013	-0.108
-153.662	-2.342	-0.078	-0.054
-152.647	800.000	0.077	-0.275
-151.633	-55.130	-0.603	-0.268
-150.618	8.908	-0.165	-0.123
-149.604	31.755	0.225	-0.191
-148.589	148.543	-0.230	0.306
-147.574	19.434	0.124	-0.099
-146.560	55.085	-0.106	-0.101
-145.545	-115.832	-0.381	-0.070
-144.531	800.000	0.044	0.140
-143.516	2.567	-0.107	-0.077
-142.502	543.236	-0.054	-0.128
-141.487	659.813	0.135	-0.342
-140.472	-37.146	-0.152	0.080
-139.458	717.894	0.064	0.168
-138.443	-99.714	0.121	-0.030
-137.429	-15.885	0.142	0.089
-136.414	411.762	-0.125	0.263
-135.399	-56.044	-0.159	-0.070
-134.385	-59.951	0.126	0.053
-133.370	-35.111	-0.228	-0.122
-132.356	-157.219	-0.015	-0.001
-131.341	546.597	-0.104	0.245
-130.326	517.034	0.058	-0.134
-129.312	-200.000	0.054	-0.292
-128.297	-200.000	0.072	0.352
-127.283	680.096	0.097	0.248
-126.268	-200.000	-0.011	0.197
-125.253	-200.000	-0.029	-0.359
-124.239	-146.554	0.121	0.010
-123.224	-140.481	0.078	-0.008
-122.210	645.647	0.128	-0.321
