DTS Sentinel unit serial number:	SN413079Multiplexer serial number:	ORYXHardware model number:	OX4-SRSoftware version number:	ORYX F/W v4.00 Oryx Data Collector v3.7.2.0data status	okinstallation	princeton_trtdifferential loss correction	single-endedforward channel	channel 3reverse channel	N/Adate	2019/09/15time	06:44:35forward acquisition time	60.00reverse acquisition time	0.00gamma	496.2192k internal	0.2324k external	0.2324temperature offset calibration	0.9980default loss term (dB/km)	0.3790temperature slope calibration	1.0000multiplexer offset coefficient	1.0000multiplexer slope coefficient	1.0000fibre end	0.00T internal ref (°C)	30.48T ext. ref 1 (°C)	4.80T ext. ref 2 (°C)	25.47length (m)	temperature (°C)	Stokes	anti-Stokes-747.200	-47.360	0.132	0.065
-746.185	78.647	-0.249	0.269
-745.171	-200.000	0.010	-0.115
-744.156	286.970	0.099	-0.180
-743.142	800.000	-0.065	0.260
-742.127	42.611	0.108	0.099
-741.112	-85.175	0.275	0.087
-740.098	-145.269	-0.162	0.015
-739.083	800.000	0.005	0.019
-738.069	-14.280	0.047	-0.030
-737.054	800.000	-0.076	0.224
-736.039	-77.470	-0.221	0.077
-735.025	800.000	0.057	0.247
-734.010	-80.703	-0.180	0.060
-732.996	-68.825	-0.344	-0.134
-731.981	779.345	-0.018	-0.049
-730.966	-20.231	-0.429	0.267
-729.952	-85.099	-0.127	-0.040
-728.937	176.931	0.015	-0.021
-727.923	37.579	0.007	0.006
-726.908	18.937	-0.078	0.063
-725.894	-142.770	-0.336	0.033
-724.879	-200.000	-0.010	-0.253
-723.864	-200.000	0.032	-0.214
-722.850	63.120	0.055	-0.056
-721.835	-124.424	-0.187	-0.029
-720.821	-78.673	0.397	-0.137
-719.806	47.886	-0.082	0.077
-718.791	207.553	0.120	0.189
-717.777	-200.000	0.001	0.111
-716.762	303.547	0.048	0.090
-715.748	668.046	-0.054	-0.142
-714.733	487.139	0.114	-0.261
-713.718	800.000	0.048	0.186
-712.704	24.245	0.205	0.170
-711.689	122.203	-0.076	0.096
-710.675	-200.000	-0.035	-0.185
-709.660	333.838	0.031	-0.061
-708.645	-41.018	0.403	0.210
-707.631	650.465	0.078	-0.200
-706.616	-80.076	-0.058	-0.020
-705.602	420.473	0.174	-0.375
-704.587	632.432	-0.074	-0.188
-703.572	75.250	-0.104	-0.111
-702.558	-151.126	0.139	-0.011
-701.543	-106.971	0.286	0.064
-700.529	-200.000	-0.026	-0.208
-699.514	-32.051	-0.295	-0.166
-698.499	-200.000	0.008	0.186
-697.485	-91.130	0.135	0.039
-696.470	-31.800	0.210	0.118
-695.456	-200.000	0.011	-0.054
-694.441	531.589	-0.109	-0.259
-693.426	-181.285	-0.175	0.003
-692.412	800.000	-0.020	-0.074
-691.397	-200.000	0.018	-0.326
-690.383	8.840	0.118	-0.090
-689.368	-83.197	0.279	-0.090
-688.354	210.908	0.182	-0.287
-687.339	208.846	0.177	-0.278
-686.324	283.239	0.068	-0.124
-685.310	47.700	-0.135	-0.127
-684.295	-82.727	0.115	-0.038
-683.281	11.549	-0.281	0.217
-682.266	-11.605	0.244	0.161
-681.251	-120.839	0.030	-0.005
-680.237	-75.582	0.246	-0.088
-679.222	800.000	-0.034	0.139
-678.208	-85.834	0.202	0.063
-677.193	-200.000	0.043	-0.230
-676.178	-200.000	0.015	0.404
-675.164	213.580	-0.141	0.224
-674.149	-81.666	-0.313	-0.104
-673.135	-53.283	-0.117	0.054
-672.120	-200.000	-0.002	-0.050
-671.105	95.095	-0.174	0.199
-670.091	-77.568	-0.267	-0.093
-669.076	237.943	0.208	0.347
-668.062	95.931	-0.163	-0.187
-667.047	427.755	0.147	-0.319
-666.032	302.095	0.092	0.170
-665.018	-200.000	0.202	0.001
-664.003	-200.000	-0.019	-0.106
-662.989	65.244	-0.181	-0.184
-661.974	175.218	-0.162	-0.236
-660.959	-107.674	-0.039	0.009
-659.945	-200.000	0.062	-0.317
-658.930	27.111	-0.218	-0.184
-657.916	171.074	-0.167	0.241
-656.901	-37.078	0.227	-0.122
-655.886	-67.516	-0.078	0.031
-654.872	800.000	-0.067	0.191
-653.857	-64.909	-0.341	0.139
-652.843	40.480	-0.115	-0.104
-651.828	133.276	0.223	0.290
-650.814	-200.000	-0.004	0.536
-649.799	81.016	-0.214	0.232
-648.784	35.979	-0.125	-0.111
-647.770	-42.302	0.107	0.055
-646.755	56.508	-0.100	-0.098
-645.741	-200.000	-0.010	-0.234
-644.726	411.719	-0.168	-0.359
-643.711	71.598	0.071	0.074
-642.697	-200.000	0.028	0.127
-641.682	17.552	-0.338	-0.270
-640.668	27.200	0.069	0.058
-639.653	800.000	0.128	-0.481
-638.638	800.000	0.066	-0.246
-637.624	-95.253	-0.079	-0.021
-636.609	23.127	0.118	-0.097
-635.595	51.823	0.100	-0.095
-634.580	-148.477	0.315	-0.026
-633.565	-140.424	0.084	0.009
-632.551	-200.000	-0.064	0.286
-631.536	800.000	0.083	-0.330
-630.522	-51.184	0.157	0.074
-629.507	-41.776	-0.505	0.261
-628.492	30.464	-0.253	0.218
-627.478	356.413	-0.160	-0.320
-626.463	-110.228	-0.105	-0.022
-625.449	72.419	0.216	-0.226
-624.434	442.663	-0.204	-0.448
-623.419	-42.287	-0.049	-0.025
-622.405	108.179	-0.067	0.081
-621.390	302.839	0.064	-0.118
-620.376	33.448	-0.034	-0.029
-619.361	-124.818	-0.157	-0.024
-618.346	-200.000	-0.011	-0.050
-617.332	-25.335	0.341	0.203
-616.317	146.414	0.160	-0.216
-615.303	703.828	-0.113	-0.298
-614.288	-41.120	-0.139	0.072
-613.273	38.240	0.166	0.149
-612.259	-96.376	0.192	0.051
-611.244	60.917	0.303	0.301
-610.230	164.912	-0.037	-0.052
-609.215	-200.000	-0.003	-0.022
-608.201	-200.000	-0.046	0.220
-607.186	398.441	0.047	0.099
-606.171	686.235	0.097	-0.255
-605.157	-106.588	-0.162	0.036
-604.142	89.092	0.240	-0.269
-603.128	-200.000	-0.022	-0.183
-602.113	-115.699	0.153	-0.029
-601.098	85.739	0.274	0.302
-600.084	516.609	-0.047	0.110
-599.069	-112.950	-0.147	-0.029
-598.055	122.557	0.138	0.173
-597.040	-26.452	0.252	-0.148
-596.025	800.000	-0.025	0.075
-595.011	800.000	-0.069	-0.197
-593.996	648.391	-0.166	-0.425
-592.982	-161.848	-0.358	-0.018
-591.967	37.738	-0.034	0.030
-590.952	-63.257	-0.108	0.045
-589.938	-139.892	-0.319	0.034
-588.923	-67.461	-0.102	0.040
-587.909	79.183	0.198	-0.213
-586.894	-59.818	-0.380	0.163
-585.879	-46.542	-0.190	-0.093
-584.865	-114.501	-0.283	-0.055
-583.850	-151.625	-0.145	-0.011
-582.836	800.000	-0.037	0.135
-581.821	-193.111	0.290	0.003
-580.806	800.000	0.015	0.050
-579.792	-200.000	-0.085	0.389
-578.777	86.462	0.430	0.476
-577.763	195.791	-0.141	-0.215
-576.748	800.000	0.047	-0.171
-575.733	39.563	0.233	0.210
-574.719	84.566	-0.175	-0.192
-573.704	-14.038	-0.075	0.049
-572.690	463.852	-0.062	-0.139
-571.675	-16.186	-0.185	-0.118
-570.661	-200.000	-0.094	0.553
-569.646	119.948	0.176	0.219
-568.631	121.645	0.047	0.059
-567.617	-72.851	0.055	-0.020
-566.602	-86.700	0.293	-0.090
-565.588	72.004	0.231	0.241
-564.573	-200.000	0.015	-0.190
-563.558	800.000	0.024	0.075
-562.544	8.881	0.098	0.074
-561.529	-107.958	0.467	0.102
-560.515	-68.490	-0.212	0.083
-559.500	-80.170	-0.107	0.036
-558.485	-57.041	0.067	0.030
-557.471	-200.000	0.038	0.198
-556.456	-200.000	0.022	0.149
-555.442	800.000	-0.063	0.197
-554.427	-200.000	-0.024	-0.121
-553.412	599.115	0.039	-0.096
-552.398	-73.037	-0.324	-0.119
-551.383	-159.898	0.234	-0.013
-550.369	146.516	0.120	0.162
-549.354	-200.000	0.014	0.137
-548.339	347.013	-0.094	0.185
-547.325	-200.000	0.062	-0.366
-546.310	-78.955	0.312	-0.106
-545.296	-67.124	0.227	-0.090
-544.281	800.000	-0.022	0.069
-543.266	122.272	-0.020	0.025
-542.252	-148.147	-0.231	-0.019
-541.237	-200.000	0.011	-0.112
-540.223	800.000	0.072	-0.230
-539.208	-60.783	0.331	0.140
-538.193	-200.000	-0.079	-0.589
-537.179	-200.000	0.004	-0.085
-536.164	-200.000	-0.010	0.133
-535.150	-200.000	-0.035	0.248
-534.135	-108.518	0.320	-0.069
-533.121	66.434	0.094	-0.095
-532.106	-21.291	-0.265	-0.162
-531.091	29.838	-0.213	0.181
-530.077	184.887	0.260	0.386
-529.062	179.019	-0.101	0.148
-528.048	653.956	-0.160	-0.412
-527.033	800.000	0.016	-0.061
-526.018	505.611	0.161	0.373
-525.004	-25.182	-0.201	0.119
-523.989	-127.729	-0.116	0.017
-522.975	-96.718	0.136	-0.036
-521.960	800.000	-0.089	-0.253
-520.945	-200.000	-0.038	-0.273
-519.931	-44.067	0.247	0.124
-518.916	-165.014	-0.245	0.011
-517.902	78.274	-0.297	0.317
-516.887	250.184	0.098	0.166
-515.872	142.519	0.066	-0.088
-514.858	128.594	-0.180	0.230
-513.843	167.172	0.131	0.186
-512.829	-144.816	0.074	0.007
-511.814	-131.501	0.122	0.016
-510.799	800.000	-0.049	-0.136
-509.785	-70.349	0.206	0.078
-508.770	791.708	-0.175	-0.482
-507.756	294.421	0.143	-0.262
-506.741	166.421	-0.246	-0.349
-505.726	800.000	-0.099	0.280
-504.712	800.000	0.079	-0.265
-503.697	-178.318	-0.191	0.004
-502.683	552.126	-0.131	0.315
-501.668	-200.000	-0.006	-0.220
-500.653	379.476	0.069	0.141
-499.639	-96.000	0.333	-0.089
-498.624	130.798	-0.247	0.317
-497.610	-16.441	0.298	-0.189
-496.595	265.073	0.060	-0.104
-495.581	422.307	-0.052	0.112
-494.566	-10.316	0.145	0.096
-493.551	90.615	-0.131	-0.147
-492.537	65.228	0.269	-0.271
-491.522	206.247	0.096	-0.149
-490.508	-200.000	-0.004	0.211
-489.493	-200.000	-0.027	0.251
-488.478	194.368	-0.028	0.042
-487.464	20.437	-0.217	0.176
-486.449	245.798	-0.167	-0.280
-485.435	800.000	-0.040	-0.133
-484.420	-71.107	0.165	-0.062
-483.405	38.394	-0.174	0.155
-482.391	-200.000	0.025	-0.256
-481.376	-13.168	-0.052	0.034
-480.362	800.000	-0.029	-0.119
-479.347	800.000	-0.131	-0.410
-478.332	-81.975	-0.100	-0.033
-477.318	157.340	-0.209	0.289
-476.303	-41.287	0.456	0.235
-475.289	-172.197	-0.158	0.005
-474.274	800.000	-0.015	0.045
-473.259	-51.074	-0.241	0.113
-472.245	800.000	-0.093	0.279
-471.230	-200.000	-0.045	0.220
-470.216	-41.862	0.096	-0.049
-469.201	-145.904	-0.257	0.023
-468.186	-38.458	-0.283	0.150
-467.172	-23.377	-0.092	-0.055
-466.157	-33.275	0.213	-0.118
-465.143	-40.757	0.201	0.104
-464.128	23.774	-0.309	0.254
-463.113	264.322	0.122	-0.211
-462.099	146.854	-0.133	0.178
-461.084	-101.611	-0.207	0.050
-460.070	-147.620	0.116	0.010
-459.055	-200.000	0.004	-0.074
-458.040	485.620	-0.027	0.062
-457.026	131.426	0.051	-0.066
-456.011	-134.154	0.246	0.030
-454.997	-200.000	0.047	-0.286
-453.982	800.000	-0.066	-0.282
-452.968	-200.000	0.029	0.397
-451.953	-124.614	-0.162	0.025
-450.938	697.235	-0.039	-0.103
-449.924	251.327	-0.226	-0.383
-448.909	-62.034	-0.121	-0.050
-447.895	185.363	0.138	0.204
-446.880	0.877	0.110	-0.079
-445.865	-145.187	-0.166	0.015
-444.851	-200.000	0.097	0.575
-443.836	-66.897	-0.275	0.108
-442.822	399.503	0.016	-0.034
-441.807	479.075	-0.125	0.282
-440.792	-70.549	-0.096	-0.036
-439.778	-200.000	0.040	0.270
-438.763	-157.654	-0.127	-0.008
-437.749	-45.540	-0.322	-0.159
-436.734	-200.000	0.028	0.126
-435.719	-68.434	-0.378	-0.146
-434.705	-138.673	0.236	-0.026
-433.690	-200.000	0.028	0.319
-432.676	800.000	-0.074	0.205
-431.661	74.246	0.380	0.398
-430.646	800.000	-0.033	-0.121
-429.632	597.850	0.120	-0.298
-428.617	-200.000	0.008	-0.049
-427.603	-144.594	-0.210	0.019
-426.588	-81.496	0.392	0.129
-425.573	43.383	0.205	-0.186
-424.559	-42.526	-0.125	0.063
-423.544	-200.000	-0.003	-0.127
-422.530	267.319	-0.093	-0.163
-421.515	111.330	0.493	-0.592
-420.500	-150.050	-0.216	-0.017
-419.486	-200.000	0.012	0.112
-418.471	-73.459	0.334	-0.122
-417.457	-200.000	0.047	0.207
-416.442	-161.386	0.248	0.013
-415.428	-14.723	-0.081	0.052
-414.413	-200.000	0.007	-0.199
-413.398	-67.230	0.211	-0.083
-412.384	66.647	-0.101	0.102
-411.369	106.032	0.110	0.130
-410.355	2.772	0.095	-0.069
-409.340	43.029	-0.079	-0.072
-408.325	-200.000	0.031	-0.212
-407.311	35.613	0.161	0.141
-406.296	800.000	0.084	0.277
-405.282	8.076	-0.142	0.106
-404.267	-200.000	-0.003	0.353
-403.252	73.796	0.118	-0.123
-402.238	-200.000	-0.019	-0.255
-401.223	105.965	0.071	-0.083
-400.209	267.974	0.116	0.202
-399.194	-4.282	-0.248	0.171
-398.179	83.078	0.245	-0.265
-397.165	-200.000	0.019	-0.223
-396.150	-200.000	-0.052	-0.280
-395.136	-40.427	-0.435	0.225
-394.121	8.008	0.115	-0.086
-393.106	-63.515	0.268	0.110
-392.092	299.810	0.174	-0.320
-391.077	-200.000	-0.014	0.088
-390.063	618.764	0.046	0.114
-389.048	-60.185	-0.153	-0.065
-388.033	130.749	-0.130	0.166
-387.019	152.647	0.044	-0.059
-386.004	-94.724	-0.181	0.049
-384.990	-70.747	-0.236	-0.089
-383.975	348.404	0.071	0.139
-382.960	-85.238	-0.106	-0.033
-381.946	-74.326	-0.187	0.067
-380.931	-200.000	-0.007	0.322
-379.917	-96.640	-0.074	-0.019
-378.902	-200.000	0.038	-0.237
-377.888	-22.345	0.116	-0.070
-376.873	226.825	0.171	-0.276
-375.858	125.021	-0.063	-0.079
-374.844	107.896	0.206	-0.244
-373.829	-192.621	0.142	-0.001
-372.815	-54.134	-0.085	0.038
-371.800	800.000	0.054	0.193
-370.785	-41.631	0.431	-0.220
-369.771	-33.959	-0.377	0.207
-368.756	4.102	-0.086	0.063
-367.742	56.326	0.199	0.192
-366.727	-31.852	-0.113	-0.063
-365.712	333.834	0.118	-0.226
-364.698	-60.935	0.240	-0.101
-363.683	800.000	-0.054	-0.201
-362.669	123.719	-0.037	-0.046
-361.654	557.145	-0.092	-0.221
-360.639	426.503	-0.094	0.201
-359.625	-200.000	-0.019	-0.134
-358.610	-200.000	-0.010	-0.070
-357.596	800.000	-0.057	0.184
-356.581	33.963	0.056	0.049
-355.566	-200.000	0.034	0.243
-354.552	-35.946	0.300	0.161
-353.537	800.000	0.034	-0.137
-352.523	-29.284	0.182	-0.103
-351.508	21.218	0.239	-0.193
-350.493	-130.639	-0.259	0.035
-349.479	-149.517	0.164	0.013
-348.464	82.450	-0.060	-0.065
-347.450	129.778	0.114	-0.145
-346.435	235.466	-0.088	0.144
-345.420	800.000	-0.128	0.510
-344.406	725.446	-0.096	0.254
-343.391	39.330	-0.145	0.129
-342.377	-200.000	-0.070	-0.499
-341.362	-29.535	-0.111	0.063
-340.348	118.010	-0.095	-0.117
-339.333	237.482	0.083	0.136
-338.318	800.000	-0.037	0.119
-337.304	-89.411	0.265	-0.077
-336.289	-63.725	-0.345	-0.141
-335.275	-200.000	-0.014	0.082
-334.260	67.264	-0.261	0.264
-333.245	161.719	0.275	0.383
-332.231	-200.000	-0.014	-0.221
-331.216	209.408	-0.127	-0.198
-330.202	-140.055	0.262	-0.027
-329.187	-1.413	-0.376	-0.264
-328.172	-21.013	-0.156	0.095
-327.158	15.271	-0.106	-0.083
-326.143	-200.000	-0.005	-0.173
-325.129	740.757	0.087	-0.232
-324.114	-99.052	0.131	-0.033
-323.099	115.193	-0.092	0.111
-322.085	-88.340	-0.243	-0.072
-321.070	-42.160	-0.179	0.091
-320.056	70.187	-0.248	0.254
-319.041	-200.000	0.020	0.203
-318.026	31.218	-0.303	0.258
-317.012	205.712	-0.234	-0.360
-315.997	0.973	-0.072	0.051
-314.983	-16.932	-0.379	-0.238
-313.968	-78.233	-0.206	0.070
-312.953	55.081	-0.272	-0.260
-311.939	105.781	0.046	-0.054
-310.924	-200.000	0.015	-0.255
-309.910	267.207	0.089	0.154
-308.895	428.274	0.063	-0.135
-307.880	-200.000	0.026	-0.228
-306.866	800.000	-0.055	0.173
-305.851	-93.539	-0.198	0.054
-304.837	-200.000	0.022	0.308
-303.822	-154.700	0.247	-0.016
-302.807	70.700	-0.007	0.007
-301.793	-123.843	0.024	0.004
-300.778	-100.188	-0.154	-0.038
-299.764	-200.000	-0.011	-0.145
-298.749	800.000	-0.035	0.148
-297.735	400.157	-0.179	0.373
-296.720	-186.254	-0.132	-0.002
-295.705	6.727	-0.134	-0.099
-294.691	-55.249	0.166	0.074
-293.676	-36.535	0.156	-0.083
-292.662	18.978	-0.284	-0.225
-291.647	2.588	-0.058	-0.042
-290.632	-200.000	-0.034	0.191
-289.618	55.755	-0.205	-0.197
-288.603	175.457	0.110	0.158
-287.589	-200.000	0.039	0.345
-286.574	12.810	0.163	0.125
-285.559	-200.000	-0.051	-0.232
-284.545	-20.472	0.172	-0.105
-283.530	472.858	0.098	-0.219
-282.516	-156.431	0.072	-0.004
-281.501	-95.069	-0.265	0.071
-280.486	-76.473	-0.363	0.126
-279.472	-105.829	0.337	-0.075
-278.457	-200.000	-0.001	0.057
-277.443	-108.489	-0.138	0.029
-276.428	464.986	0.071	0.158
-275.413	-140.473	-0.086	0.009
-274.399	-200.000	-0.037	0.248
-273.384	109.772	0.069	-0.082
-272.370	-118.021	-0.275	0.049
-271.355	-144.464	0.196	-0.018
-270.340	-28.277	0.208	-0.119
-269.326	375.410	0.041	-0.082
-268.311	-103.124	0.118	0.028
-267.297	800.000	0.029	0.106
-266.282	272.899	-0.050	-0.087
-265.267	-102.112	0.187	0.045
-264.253	800.000	-0.047	0.170
-263.238	647.121	0.105	0.265
-262.224	-54.542	0.205	-0.092
-261.209	-81.834	0.106	0.034
-260.195	-200.000	0.003	0.098
-259.180	32.408	0.030	-0.025
-258.165	411.877	0.042	-0.087
-257.151	-37.493	0.216	0.114
-256.136	800.000	0.003	-0.007
-255.122	-200.000	0.000	-0.117
-254.107	-200.000	-0.028	0.133
-253.092	106.128	-0.047	-0.055
-252.078	-69.586	0.067	0.025
-251.063	-200.000	0.038	0.350
-250.049	-41.691	0.138	-0.070
-249.034	162.664	-0.148	-0.205
-248.019	365.509	0.111	-0.222
-247.005	-130.626	0.150	-0.020
-245.990	-20.274	0.137	-0.084
-244.976	148.268	-0.198	-0.264
-243.961	-66.036	0.276	-0.109
-242.946	-200.000	-0.023	0.183
-241.932	-200.000	-0.018	-0.116
-240.917	-41.516	0.241	0.122
-239.903	52.478	-0.217	0.205
-238.888	138.901	0.114	0.148
-237.873	502.928	0.127	-0.291
-236.859	236.218	-0.175	0.286
-235.844	-95.791	-0.135	0.036
-234.830	388.914	-0.093	-0.190
-233.815	97.021	-0.220	0.249
-232.800	-4.208	-0.258	0.176
-231.786	800.000	-0.042	-0.169
-230.771	-115.639	0.150	0.028
-229.757	-118.156	0.309	-0.055
-228.742	42.742	-0.219	-0.197
-227.727	-200.000	0.025	0.181
-226.713	-200.000	-0.039	-0.230
-225.698	-116.154	-0.232	0.043
-224.684	247.219	-0.065	-0.108
-223.669	800.000	-0.054	-0.168
-222.655	235.754	0.108	0.176
-221.640	-154.632	-0.063	0.004
-220.625	-130.911	0.561	0.074
-219.611	37.981	0.076	0.067
-218.596	-143.843	0.482	0.045
-217.582	173.398	-0.032	0.045
-216.567	-32.763	0.048	-0.027
-215.552	32.962	-0.127	-0.109
-214.538	-200.000	-0.001	0.170
-213.523	116.166	-0.068	-0.082
-212.509	59.241	-0.133	-0.130
-211.494	299.395	0.189	0.345
-210.479	-200.000	-0.037	-0.162
-209.465	686.867	0.099	-0.256
-208.450	-200.000	0.035	0.220
-207.436	469.350	0.064	0.143
-206.421	414.627	-0.062	-0.130
-205.406	116.518	0.264	-0.320
-204.392	-161.135	-0.332	-0.017
-203.377	800.000	0.079	0.287
-202.363	-103.017	-0.031	-0.007
-201.348	800.000	0.043	-0.155
-200.333	-47.512	0.102	-0.049
-199.319	-161.069	0.252	-0.013
-198.304	68.546	-0.102	-0.103
-197.290	-19.384	0.108	0.066
-196.275	-200.000	0.015	-0.347
-195.260	-143.815	0.089	-0.008
-194.246	-160.065	-0.090	0.005
-193.231	-47.792	-0.047	0.023
-192.217	-16.173	-0.259	0.163
-191.202	170.126	0.165	0.233
-190.187	34.497	0.222	-0.192
-189.173	6.356	0.191	0.140
-188.158	162.055	-0.014	-0.019
-187.144	800.000	-0.145	-0.412
-186.129	800.000	-0.051	0.155
-185.114	-18.366	0.203	0.125
-184.100	-95.220	-0.175	-0.047
-183.085	137.044	0.034	-0.044
-182.071	25.113	-0.334	0.274
-181.056	16.100	-0.455	-0.354
-180.042	80.388	0.226	0.240
-179.027	800.000	0.192	0.607
-178.012	-200.000	0.028	0.287
-176.998	800.000	-0.059	0.197
-175.983	-46.749	-0.042	0.020
-174.969	800.000	0.055	0.197
-173.954	316.497	-0.078	0.146
-172.939	-200.000	-0.013	0.229
-171.925	292.810	0.174	-0.313
-170.910	-94.874	0.103	-0.028
-169.896	431.526	-0.179	-0.382
-168.881	220.330	-0.222	-0.352
-167.866	-178.821	0.142	0.003
-166.852	783.892	-0.104	0.282
-165.837	45.760	-0.196	0.179
-164.823	-200.000	-0.026	-0.142
-163.808	-2.202	0.192	0.133
-162.793	-44.820	0.254	-0.125
-161.779	149.263	0.076	0.102
-160.764	-108.880	-0.215	-0.045
-159.750	-71.950	0.208	0.076
-158.735	800.000	-0.028	0.086
-157.720	-68.005	0.214	0.082
-156.706	-200.000	-0.021	-0.174
-155.691	-200.000	0.001	-0.078
-154.677	-200.000	-0.008	-0.066
-153.662	-60.538	0.267	0.112
-152.647	-72.922	0.338	-0.123
-151.633	314.574	0.091	-0.169
-150.618	-200.000	-0.020	0.123
-149.604	-51.977	-0.250	0.115
-148.589	146.626	-0.143	0.190
-147.574	164.393	-0.112	0.156
-146.560	-200.000	-0.033	0.339
-145.545	-113.164	0.155	-0.030
-144.531	436.620	0.161	-0.346
-143.516	49.601	0.073	0.068
-142.502	-3.907	0.230	0.157
-141.487	144.009	0.092	-0.121
-140.472	-200.000	0.038	-0.279
-139.458	428.495	-0.191	-0.407
-138.443	-200.000	0.005	-0.173
-137.429	800.000	-0.003	-0.007
-136.414	142.884	-0.136	-0.178
-135.399	-200.000	-0.002	-0.034
-134.385	-175.482	-0.399	0.011
-133.370	-115.356	-0.029	-0.005
-132.356	-12.974	0.249	0.160
-131.341	-61.533	-0.280	0.116
-130.326	-200.000	-0.076	0.393
-129.312	121.892	-0.210	0.258
-128.297	-59.026	-0.068	-0.029
-127.283	-200.000	-0.005	0.472
-126.268	-127.165	-0.170	-0.024
-125.253	-5.280	0.339	-0.230
-124.239	-32.374	0.125	-0.069
-123.224	691.322	0.095	0.246
-122.210	225.324	0.145	0.232
