DTS Sentinel unit serial number:	SN413079Multiplexer serial number:	ORYXHardware model number:	OX4-SRSoftware version number:	ORYX F/W v4.00 Oryx Data Collector v3.7.2.0data status	okinstallation	princeton_trtdifferential loss correction	single-endedforward channel	channel 3reverse channel	N/Adate	2019/09/18time	23:04:35forward acquisition time	60.00reverse acquisition time	0.00gamma	496.2192k internal	0.2345k external	0.2345temperature offset calibration	0.9990default loss term (dB/km)	0.3790temperature slope calibration	1.0000multiplexer offset coefficient	1.0000multiplexer slope coefficient	1.0000fibre end	0.00T internal ref (°C)	24.00T ext. ref 1 (°C)	0.79T ext. ref 2 (°C)	17.83length (m)	temperature (°C)	Stokes	anti-Stokes-747.200	368.597	-0.035	-0.072
-746.185	-200.000	0.020	-0.112
-745.171	-36.179	0.119	0.064
-744.156	237.519	-0.055	-0.091
-743.142	38.745	-0.179	0.160
-742.127	-63.778	-0.464	-0.190
-741.112	-200.000	-0.069	0.329
-740.098	-200.000	-0.011	-0.248
-739.083	-104.412	0.077	0.018
-738.069	350.980	-0.232	0.459
-737.054	98.436	-0.014	0.016
-736.039	210.118	-0.185	-0.290
-735.025	683.068	-0.146	0.381
-734.010	481.983	0.033	-0.075
-732.996	391.138	-0.075	-0.157
-731.981	176.593	0.039	-0.056
-730.966	429.341	0.142	-0.307
-729.952	-43.156	0.116	0.059
-728.937	-200.000	0.046	0.210
-727.923	800.000	-0.045	-0.132
-726.908	800.000	-0.029	0.101
-725.894	625.212	-0.109	-0.274
-724.879	-108.924	0.222	0.047
-723.864	-54.734	-0.206	-0.093
-722.850	9.488	-0.047	0.035
-721.835	39.026	-0.078	-0.070
-720.821	-106.176	-0.300	0.067
-719.806	800.000	0.073	-0.316
-718.791	-135.009	-0.148	-0.018
-717.777	40.208	-0.236	-0.212
-716.762	-53.324	0.222	-0.102
-715.748	88.137	0.208	0.230
-714.733	223.593	0.215	0.347
-713.718	-11.400	-0.286	-0.188
-712.704	800.000	0.073	-0.230
-711.689	-59.149	0.128	0.055
-710.675	28.809	-0.105	-0.089
-709.660	-72.629	0.021	-0.008
-708.645	-147.442	0.302	0.025
-707.631	-200.000	0.021	0.231
-706.616	800.000	-0.031	0.108
-705.602	800.000	-0.042	0.174
-704.587	-135.084	-0.320	-0.038
-703.572	43.024	-0.174	-0.158
-702.558	-49.909	0.320	-0.152
-701.543	-200.000	0.023	0.239
-700.529	-113.872	-0.328	0.064
-699.514	121.658	0.256	-0.319
-698.499	800.000	0.060	-0.198
-697.485	141.504	-0.077	0.101
-696.470	-200.000	-0.038	-0.205
-695.456	-63.039	0.141	-0.058
-694.441	140.179	0.260	0.343
-693.426	-90.124	0.130	0.038
-692.412	-200.000	0.016	0.325
-691.397	72.380	-0.160	-0.167
-690.383	-175.354	-0.341	0.009
-689.368	264.729	0.038	0.065
-688.354	585.014	-0.083	-0.203
-687.339	-200.000	-0.064	0.304
-686.324	-200.000	0.074	-0.424
-685.310	203.512	0.249	0.384
-684.295	42.252	-0.198	0.180
-683.281	260.473	0.080	-0.139
-682.266	-107.259	0.330	-0.072
-681.251	66.080	-0.091	-0.092
-680.237	-80.566	-0.259	0.086
-679.222	-148.937	-0.258	-0.021
-678.208	55.294	0.151	-0.146
-677.193	648.350	-0.040	-0.103
-676.178	79.987	-0.077	-0.083
-675.164	95.058	0.157	0.179
-674.149	-200.000	-0.004	-0.453
-673.135	149.619	0.142	-0.191
-672.120	-66.005	-0.497	0.198
-671.105	82.344	0.169	-0.183
-670.091	-14.576	-0.331	-0.212
-669.076	156.547	0.146	-0.201
-668.062	-86.474	-0.120	-0.037
-667.047	800.000	0.086	0.251
-666.032	188.709	0.111	0.165
-665.018	115.623	-0.118	-0.144
-664.003	-200.000	-0.012	-0.128
-662.989	-117.914	0.231	0.041
-661.974	-133.464	-0.082	-0.010
-660.959	159.041	0.087	-0.120
-659.945	-170.404	-0.230	-0.008
-658.930	583.073	-0.058	0.143
-657.916	-200.000	0.003	-0.235
-656.901	104.913	-0.156	0.183
-655.886	409.423	-0.052	0.110
-654.872	-200.000	-0.008	-0.050
-653.857	-79.328	0.288	0.097
-652.843	-200.000	0.017	0.162
-651.828	-185.042	-0.172	-0.003
-650.814	-200.000	-0.006	-0.241
-649.799	-78.123	-0.552	-0.189
-648.784	-200.000	-0.019	0.201
-647.770	63.192	-0.130	-0.130
-646.755	-132.292	-0.214	-0.028
-645.741	800.000	0.044	-0.164
-644.726	-98.247	-0.107	0.027
-643.711	-200.000	-0.012	-0.109
-642.697	-57.356	-0.214	0.094
-641.682	234.491	0.138	-0.227
-640.668	-200.000	-0.010	-0.244
-639.653	218.155	0.078	0.124
-638.638	295.083	-0.106	-0.193
-637.624	486.774	0.124	-0.281
-636.609	-123.418	0.167	0.027
-635.595	-145.562	-0.123	-0.011
-634.580	-146.779	-0.164	0.014
-633.565	-80.046	-0.326	0.109
-632.551	-200.000	-0.004	-0.065
-631.536	311.586	-0.068	-0.127
-630.522	419.405	-0.189	-0.402
-629.507	95.047	0.035	0.039
-628.492	183.353	0.107	-0.158
-627.478	-200.000	0.016	-0.329
-626.463	-200.000	0.038	0.292
-625.449	-36.511	0.152	-0.081
-624.434	699.789	-0.006	0.017
-623.419	29.139	0.190	-0.161
-622.405	143.845	-0.099	-0.131
-621.390	319.383	0.124	0.234
-620.376	-68.375	0.189	-0.073
-619.361	7.374	-0.170	0.127
-618.346	-103.142	-0.374	-0.088
-617.332	800.000	0.055	-0.221
-616.317	251.106	-0.033	0.056
-615.303	-65.564	-0.180	0.072
-614.288	225.650	0.069	-0.111
-613.273	-200.000	-0.015	-0.110
-612.259	797.330	-0.014	0.039
-611.244	54.692	-0.122	-0.118
-610.230	-123.332	0.154	-0.025
-609.215	-57.265	-0.074	-0.032
-608.201	-108.943	-0.242	0.051
-607.186	-16.215	-0.116	-0.073
-606.171	-40.222	0.038	0.020
-605.157	-111.530	-0.127	0.026
-604.142	-68.070	0.051	0.020
-603.128	800.000	-0.023	-0.076
-602.113	333.058	-0.051	-0.099
-601.098	-101.884	0.278	0.067
-600.084	277.684	0.111	0.196
-599.069	-20.767	0.422	-0.257
-598.055	129.893	0.076	-0.097
-597.040	-86.079	-0.183	-0.056
-596.025	-200.000	0.037	-0.220
-595.011	1.400	-0.101	-0.072
-593.996	-200.000	-0.002	0.093
-592.982	-200.000	-0.028	-0.205
-591.967	742.584	-0.089	-0.237
-590.952	800.000	0.093	-0.359
-589.938	58.444	0.351	0.342
-588.923	-86.779	-0.185	-0.056
-587.909	25.771	0.226	-0.187
-586.894	433.530	0.120	-0.260
-585.879	226.341	0.178	0.288
-584.865	-133.872	-0.272	0.034
-583.850	65.568	-0.190	0.191
-582.836	-172.302	0.150	-0.005
-581.821	796.020	-0.002	0.005
-580.806	800.000	-0.114	0.424
-579.792	-87.724	-0.371	-0.111
-578.777	97.152	0.064	0.073
-577.763	-111.410	-0.101	0.020
-576.748	-86.862	-0.092	0.028
-575.733	158.874	-0.153	-0.211
-574.719	-184.310	-0.174	-0.003
-573.704	-115.969	-0.179	-0.033
-572.690	800.000	0.054	-0.205
-571.675	-51.286	0.090	-0.042
-570.661	-200.000	0.028	-0.297
-569.646	30.748	0.072	0.061
-568.631	-25.647	-0.118	0.069
-567.617	-147.291	0.072	-0.006
-566.602	-109.721	-0.374	-0.078
-565.588	359.440	0.047	0.093
-564.573	-200.000	-0.050	-0.305
-563.558	229.038	-0.123	0.200
-562.544	211.904	0.093	-0.146
-561.529	210.106	0.206	-0.321
-560.515	800.000	-0.070	0.262
-559.500	-127.389	-0.252	-0.036
-558.485	-200.000	-0.051	-0.249
-557.471	800.000	0.105	-0.317
-556.456	800.000	-0.128	0.351
-555.442	370.019	0.074	0.148
-554.427	-143.942	-0.202	-0.019
-553.412	-149.573	0.308	-0.024
-552.398	-99.867	-0.416	-0.103
-551.383	-3.956	0.098	-0.067
-550.369	-82.844	-0.148	-0.047
-549.354	38.496	0.229	-0.203
-548.339	-200.000	0.006	-0.127
-547.325	124.189	-0.072	-0.089
-546.310	800.000	-0.083	-0.296
-545.296	800.000	0.088	-0.277
-544.281	-92.989	-0.068	-0.019
-543.266	-200.000	0.053	0.354
-542.252	-75.178	-0.024	0.008
-541.237	-9.608	0.203	0.134
-540.223	-39.581	-0.115	0.060
-539.208	90.756	0.125	-0.139
-538.193	131.485	-0.227	0.290
-537.179	-200.000	0.048	-0.226
-536.164	-97.343	-0.036	-0.009
-535.150	-136.741	-0.040	-0.005
-534.135	4.148	0.184	0.133
-533.121	-75.624	-0.116	0.041
-532.106	-65.813	0.269	0.107
-531.091	382.201	-0.184	0.375
-530.077	5.044	0.067	-0.049
-529.062	-200.000	-0.023	0.155
-528.048	-31.922	-0.066	0.037
-527.033	-172.200	-0.167	0.005
-526.018	278.645	-0.112	0.199
-525.004	216.990	0.186	0.293
-523.989	-135.228	0.129	0.015
-522.975	63.008	-0.268	0.266
-521.960	-2.611	0.110	-0.076
-520.945	-170.875	-0.235	0.008
-519.931	-200.000	0.286	0.001
-518.916	-200.000	0.021	-0.214
-517.902	63.850	-0.315	0.314
-516.887	5.055	-0.190	-0.139
-515.872	105.215	-0.064	-0.075
-514.858	73.455	-0.163	-0.170
-513.843	-75.523	0.298	0.105
-512.829	-42.749	-0.142	-0.072
-511.814	66.317	0.088	0.089
-510.799	800.000	-0.084	0.276
-509.785	-135.972	-0.088	0.010
-508.770	521.458	-0.137	0.320
-507.756	-159.867	0.199	0.011
-506.741	-9.233	0.126	0.084
-505.726	-103.054	-0.132	0.031
-504.712	269.655	0.017	-0.029
-503.697	-200.000	0.017	-0.185
-502.683	77.376	0.158	-0.166
-501.668	800.000	-0.038	0.126
-500.653	-200.000	0.309	-0.001
-499.639	-82.028	0.241	-0.078
-498.624	-74.108	-0.211	-0.076
-497.610	300.790	0.083	-0.152
-496.595	145.960	0.039	-0.051
-495.581	79.619	-0.146	0.156
-494.566	111.145	-0.110	0.131
-493.551	515.694	-0.231	0.534
-492.537	119.437	0.173	0.212
-491.522	57.613	-0.276	-0.267
-490.508	-38.677	-0.264	0.138
-489.493	-200.000	0.038	-0.249
-488.478	134.831	0.154	0.198
-487.464	352.914	-0.049	0.096
-486.449	-200.000	0.045	-0.464
-485.435	41.462	-0.158	0.141
-484.420	-200.000	0.024	-0.290
-483.405	-69.221	0.075	-0.029
-482.391	107.018	-0.072	-0.085
-481.376	-200.000	0.007	-0.251
-480.362	-73.234	0.296	-0.107
-479.347	-163.678	0.200	0.009
-478.332	674.880	-0.124	0.319
-477.318	-104.103	0.148	0.034
-476.303	44.526	0.181	-0.165
-475.289	280.264	-0.087	-0.154
-474.274	99.195	-0.077	0.088
-473.259	-112.475	-0.415	-0.082
-472.245	118.898	0.181	-0.222
-471.230	542.039	-0.217	0.513
-470.216	800.000	-0.048	-0.176
-469.201	326.941	0.027	0.051
-468.186	-156.853	0.239	0.015
-467.172	147.226	0.044	-0.059
-466.157	-160.810	-0.318	-0.017
-465.143	-200.000	-0.020	-0.150
-464.128	254.426	0.064	0.109
-463.113	800.000	-0.109	-0.321
-462.099	7.171	-0.237	-0.175
-461.084	236.714	-0.231	-0.379
-460.070	800.000	0.055	0.184
-459.055	-19.916	-0.329	0.201
-458.040	74.353	-0.009	0.009
-457.026	-75.344	0.198	0.070
-456.011	700.057	-0.151	-0.392
-454.997	107.988	0.130	-0.153
-453.982	-200.000	-0.021	0.133
-452.968	110.169	0.078	0.093
-451.953	396.451	0.079	0.163
-450.938	-63.821	0.157	0.064
-449.924	178.069	0.045	0.065
-448.909	-200.000	0.048	-0.246
-447.895	48.923	0.043	0.040
-446.880	526.351	0.065	-0.151
-445.865	-200.000	0.027	0.306
-444.851	-176.900	0.189	0.005
-443.836	37.871	-0.095	0.083
-442.822	-109.120	0.107	-0.022
-441.807	-6.345	0.085	-0.058
-440.792	-200.000	-0.042	-0.430
-439.778	-200.000	0.032	0.301
-438.763	14.757	-0.269	-0.208
-437.749	-11.369	-0.140	0.091
-436.734	800.000	-0.034	0.120
-435.719	800.000	0.039	0.129
-434.705	-47.845	0.168	-0.081
-433.690	-9.081	-0.208	0.138
-432.676	79.490	-0.027	-0.028
-431.661	800.000	-0.027	0.113
-430.646	-200.000	-0.022	0.373
-429.632	-89.987	0.220	-0.063
-428.617	800.000	0.048	0.168
-427.603	800.000	0.117	-0.331
-426.588	-72.882	0.146	-0.053
-425.573	239.134	0.119	-0.195
-424.559	-200.000	-0.053	0.242
-423.544	328.542	-0.095	-0.181
-422.530	800.000	0.179	-0.529
-421.515	-200.000	0.015	-0.237
-420.500	-90.348	-0.161	0.046
-419.486	75.260	-0.461	-0.481
-418.471	296.579	0.211	0.383
-417.457	-104.600	-0.335	0.076
-416.442	-68.827	-0.061	-0.023
-415.428	-200.000	-0.042	0.306
-414.413	128.321	-0.236	0.297
-413.398	2.395	0.325	0.232
-412.384	-46.080	0.459	-0.223
-411.369	-192.538	0.180	-0.002
-410.355	-166.206	-0.174	-0.007
-409.340	577.672	0.044	0.107
-408.325	-70.167	0.155	0.058
-407.311	800.000	0.034	-0.120
-406.296	-149.314	-0.298	-0.023
-405.282	-200.000	0.009	0.100
-404.267	-115.697	0.166	0.031
-403.252	18.820	0.066	0.052
-402.238	31.843	0.172	0.146
-401.223	-131.491	-0.306	0.040
-400.209	-53.355	0.296	0.134
-399.194	-128.883	-0.104	-0.014
-398.179	-147.333	-0.328	-0.027
-397.165	800.000	-0.125	-0.499
-396.150	80.080	-0.178	0.189
-395.136	362.261	0.122	0.241
-394.121	25.635	-0.116	-0.095
-393.106	800.000	0.076	-0.322
-392.092	67.753	-0.173	-0.174
-391.077	-122.161	0.243	0.039
-390.063	-200.000	0.011	-0.060
-389.048	192.586	0.035	0.052
-388.033	69.848	0.121	0.123
-387.019	198.989	-0.114	-0.172
-386.004	590.764	-0.146	-0.354
-384.990	56.048	-0.082	0.079
-383.975	126.522	0.234	-0.292
-382.960	529.866	0.058	0.136
-381.946	-95.963	-0.317	0.083
-380.931	-37.137	0.332	-0.175
-379.917	111.331	-0.094	0.112
-378.902	673.340	-0.168	0.430
-377.888	68.359	-0.153	-0.155
-376.873	299.521	0.140	-0.254
-375.858	296.712	-0.106	-0.191
-374.844	-28.688	0.098	-0.055
-373.829	-190.080	-0.241	0.003
-372.815	102.658	-0.108	-0.124
-371.800	76.468	0.113	0.118
-370.785	-200.000	0.009	0.228
-369.771	30.489	0.304	0.256
-368.756	-25.708	-0.137	-0.079
-367.742	92.793	0.275	0.306
-366.727	-175.016	0.112	0.003
-365.712	118.575	0.247	0.301
-364.698	59.857	-0.051	-0.050
-363.683	119.950	0.177	0.216
-362.669	-34.756	0.071	-0.038
-361.654	-200.000	-0.014	0.099
-360.639	-133.513	-0.259	0.032
-359.625	-200.000	-0.032	0.246
-358.610	19.595	-0.162	-0.128
-357.596	-200.000	-0.002	-0.232
-356.581	71.686	-0.089	0.091
-355.566	20.261	0.201	0.160
-354.552	132.573	-0.167	0.213
-353.537	-155.474	0.303	-0.019
-352.523	-146.336	0.273	0.024
-351.508	-200.000	-0.068	0.333
-350.493	-200.000	-0.002	0.026
-349.479	10.049	0.081	-0.060
-348.464	255.322	0.197	0.333
-347.450	-200.000	-0.067	-0.405
-346.435	275.117	0.082	0.144
-345.420	-117.636	-0.138	-0.024
-344.406	104.408	0.318	0.368
-343.391	456.505	0.047	0.104
-342.377	-54.640	-0.119	0.053
-341.362	89.845	-0.083	-0.091
-340.348	-61.377	-0.226	-0.094
-339.333	-127.200	-0.049	0.007
-338.318	197.064	0.245	-0.368
-337.304	-70.773	-0.084	-0.031
-336.289	-92.838	-0.301	0.083
-335.275	-128.019	0.152	-0.022
-334.260	-44.454	0.099	0.049
-333.245	74.359	-0.054	0.056
-332.231	99.549	0.009	0.010
-331.216	-0.690	-0.148	-0.104
-330.202	-55.977	-0.321	0.141
-329.187	-173.890	-0.241	-0.007
-328.172	6.246	-0.274	-0.200
-327.158	-32.483	-0.135	0.074
-326.143	-200.000	-0.040	0.189
-325.129	-107.568	0.118	-0.025
-324.114	-200.000	-0.070	0.349
-323.099	709.959	-0.100	0.262
-322.085	23.151	-0.091	-0.074
-321.070	-200.000	0.000	-0.556
-320.056	-72.830	-0.186	0.067
-319.041	-1.481	0.111	0.077
-318.026	663.828	-0.108	-0.275
-317.012	800.000	0.021	-0.058
-315.997	64.995	-0.107	0.106
-314.983	114.973	0.219	-0.263
-313.968	412.850	0.100	-0.208
-312.953	-166.657	0.102	-0.004
-311.939	484.714	-0.071	0.160
-310.924	-19.627	0.304	0.185
-309.910	-93.171	-0.304	-0.083
-308.895	2.695	0.222	-0.158
-307.880	173.377	0.159	-0.226
-306.866	306.044	0.165	-0.302
-305.851	-52.644	-0.081	-0.037
-304.837	800.000	-0.008	-0.032
-303.822	-90.320	0.184	-0.053
-302.807	-153.449	-0.057	-0.004
-301.793	-127.071	-0.167	-0.024
-300.778	41.192	0.253	0.225
-299.764	-130.734	0.212	-0.028
-298.749	158.079	0.058	-0.079
-297.735	-71.355	-0.254	-0.094
-296.720	20.593	0.026	-0.020
-295.705	120.098	0.200	0.243
-294.691	-136.736	-0.178	-0.020
-293.676	-127.852	-0.201	-0.029
-292.662	-35.960	0.322	0.171
-291.647	171.310	0.094	-0.133
-290.632	800.000	0.051	-0.192
-289.618	7.764	-0.136	0.100
-288.603	800.000	0.126	0.349
-287.589	-200.000	0.045	0.325
-286.574	-88.020	0.234	0.069
-285.559	-88.854	-0.297	-0.087
-284.545	155.417	-0.065	-0.088
-283.530	800.000	0.062	0.261
-282.516	28.443	-0.232	-0.193
-281.501	-76.470	0.256	0.088
-280.486	-200.000	-0.016	0.111
-279.472	-200.000	0.013	0.135
-278.457	800.000	0.031	0.102
-277.443	-81.902	-0.054	-0.017
-276.428	-109.529	0.091	0.019
-275.413	27.238	0.034	0.028
-274.399	-104.416	0.123	-0.028
-273.384	273.259	-0.081	0.140
-272.370	-38.584	0.201	0.104
-271.355	3.119	0.284	-0.203
-270.340	130.068	-0.055	-0.069
-269.326	-67.765	0.336	0.129
-268.311	-200.000	-0.030	0.203
-267.297	-200.000	-0.016	-0.080
-266.282	800.000	0.055	0.149
-265.267	800.000	0.064	0.176
-264.253	-4.159	-0.316	-0.215
-263.238	87.269	-0.176	0.191
-262.224	105.896	-0.142	0.165
-261.209	800.000	-0.034	0.095
-260.195	-200.000	0.041	-0.334
-259.180	345.608	-0.079	-0.151
-258.165	-120.152	-0.217	-0.036
-257.151	-13.011	0.297	-0.189
-256.136	-166.521	-0.264	0.011
-255.122	714.706	-0.055	-0.142
-254.107	800.000	-0.048	-0.177
-253.092	533.568	-0.054	-0.125
-252.078	800.000	0.043	0.136
-251.063	30.645	-0.099	0.083
-250.049	-200.000	-0.083	0.369
-249.034	41.063	-0.239	-0.212
-248.019	186.060	0.195	0.284
-247.005	134.923	0.175	0.224
-245.990	-200.000	0.059	0.412
-244.976	-68.555	0.264	-0.100
-243.961	800.000	0.116	0.334
-242.946	-108.130	0.286	-0.061
-241.932	203.192	-0.067	0.101
-240.917	464.336	0.134	0.295
-239.903	-166.985	-0.126	-0.005
-238.888	-200.000	-0.009	0.160
-237.873	-23.649	0.226	0.133
-236.859	60.455	0.007	-0.007
-235.844	-1.671	-0.192	-0.133
-234.830	240.759	-0.145	-0.237
-233.815	-25.351	-0.201	0.117
-232.800	1.943	-0.187	-0.132
-231.786	-29.420	0.250	0.140
-230.771	63.279	0.258	0.253
-229.757	-34.695	0.144	0.077
-228.742	93.832	0.141	-0.157
-227.727	43.819	-0.085	0.076
-226.713	-66.821	0.363	0.141
-225.698	-20.218	-0.151	-0.091
-224.684	423.389	0.047	0.099
-223.669	117.381	-0.248	-0.298
-222.655	800.000	0.134	-0.459
-221.640	-96.286	0.237	-0.062
-220.625	-7.037	0.140	0.093
-219.611	-200.000	-0.043	-0.364
-218.596	172.971	0.110	-0.155
-217.582	346.018	-0.021	-0.041
-216.567	-200.000	-0.003	-0.305
-215.552	-4.387	0.430	0.291
-214.538	-200.000	-0.027	0.191
-213.523	262.451	0.058	-0.099
-212.509	-200.000	-0.075	0.335
-211.494	800.000	0.129	0.398
-210.479	104.906	-0.090	-0.103
-209.465	-162.244	0.227	0.011
-208.450	-162.234	0.218	0.011
-207.436	-66.258	0.141	-0.055
-206.421	-200.000	-0.014	0.101
-205.406	-200.000	0.020	0.105
-204.392	-200.000	-0.045	-0.266
-203.377	334.915	0.060	0.114
-202.363	61.626	0.078	-0.076
-201.348	800.000	0.052	0.190
-200.333	315.362	-0.105	0.193
-199.319	536.660	0.216	0.501
-198.304	-200.000	0.021	-0.387
-197.290	-121.728	0.029	0.005
-196.275	545.974	-0.067	0.157
-195.260	171.607	0.150	0.211
-194.246	85.045	0.154	0.165
-193.231	-17.143	0.121	0.074
-192.217	-48.027	-0.108	0.051
-191.202	-15.438	0.229	0.143
-190.187	-39.649	0.053	-0.027
-189.173	-95.940	0.186	-0.048
-188.158	12.642	-0.102	-0.077
-187.144	-62.149	0.155	-0.063
-186.129	299.656	0.195	0.351
-185.114	800.000	-0.067	0.222
-184.100	255.753	0.029	0.049
-183.085	800.000	0.086	-0.299
-182.071	153.874	0.087	0.117
-181.056	-80.968	-0.189	-0.061
-180.042	-33.084	-0.070	0.038
-179.027	-32.393	-0.262	-0.143
-178.012	364.760	-0.073	0.144
-176.998	158.253	-0.259	0.351
-175.983	21.164	-0.122	-0.097
-174.969	77.851	-0.200	0.209
-173.954	-56.840	0.181	0.078
-172.939	-16.933	0.141	-0.087
-171.925	-116.506	-0.211	0.038
-170.910	-114.706	0.153	-0.029
-169.896	-200.000	-0.060	-0.368
-168.881	-200.000	0.011	-0.172
-167.866	-151.928	0.201	0.014
-166.852	800.000	0.036	0.119
-165.837	85.699	-0.082	0.088
-164.823	-8.696	0.222	0.146
-163.808	-90.250	-0.153	-0.043
-162.793	-200.000	0.051	-0.285
-161.779	800.000	0.047	-0.144
-160.764	-114.763	0.107	-0.020
-159.750	-10.156	0.192	0.125
-158.735	-200.000	-0.011	0.113
-157.720	-163.632	-0.081	-0.004
-156.706	-42.680	-0.134	0.066
-155.691	42.701	0.199	-0.177
-154.677	-47.237	-0.268	0.127
-153.662	14.373	0.199	-0.152
-152.647	348.285	-0.103	-0.199
-151.633	-200.000	-0.012	-0.114
-150.618	-200.000	-0.012	0.219
-149.604	59.464	-0.373	-0.360
-148.589	-182.351	0.067	-0.001
-147.574	463.174	0.114	0.249
-146.560	-114.767	-0.283	-0.053
-145.545	726.454	0.064	-0.166
-144.531	-126.448	-0.205	-0.030
-143.516	331.378	0.093	0.174
-142.502	-72.809	0.221	0.080
-141.487	346.676	-0.050	0.096
-140.472	204.733	-0.073	-0.111
-139.458	476.782	-0.134	-0.297
-138.443	-17.054	0.182	-0.112
-137.429	23.680	-0.314	0.252
-136.414	-93.610	-0.383	-0.103
-135.399	253.303	-0.115	-0.192
-134.385	38.361	0.171	0.149
-133.370	211.338	-0.087	-0.133
-132.356	-200.000	0.012	0.170
-131.341	-141.374	0.262	0.026
-130.326	-200.000	0.017	-0.210
-129.312	20.454	-0.022	0.017
-128.297	372.103	0.119	0.236
-127.283	26.615	-0.062	0.051
-126.268	-14.607	-0.098	0.061
-125.253	-81.077	0.342	0.110
-124.239	270.698	-0.149	-0.255
-123.224	83.807	0.262	-0.279
-122.210	641.973	-0.071	-0.178
-121.195	-0.946	-0.291	0.201
