DTS Sentinel unit serial number:	SN413079Multiplexer serial number:	ORYXHardware model number:	OX4-SRSoftware version number:	ORYX F/W v4.00 Oryx Data Collector v3.7.2.0data status	okinstallation	princeton_trtdifferential loss correction	single-endedforward channel	channel 3reverse channel	N/Adate	2019/09/12time	10:46:10forward acquisition time	60.00reverse acquisition time	0.00gamma	496.2192k internal	0.2295k external	0.2295temperature offset calibration	1.0028default loss term (dB/km)	0.3790temperature slope calibration	1.0000multiplexer offset coefficient	1.0000multiplexer slope coefficient	1.0000fibre end	0.00T internal ref (°C)	37.75T ext. ref 1 (°C)	1.90T ext. ref 2 (°C)	36.27length (m)	temperature (°C)	Stokes	anti-Stokes-747.200	39.822	0.183	-0.168
-746.185	-87.917	-0.105	0.032
-745.171	290.267	-0.079	0.147
-744.156	-45.960	-0.247	0.124
-743.142	438.880	0.115	-0.257
-742.127	92.125	0.051	0.059
-741.112	5.929	-0.226	0.171
-740.098	114.032	-0.377	0.469
-739.083	-50.072	-0.341	-0.165
-738.069	195.761	0.074	0.116
-737.054	-166.025	0.102	-0.004
-736.039	-148.661	-0.493	0.041
-735.025	-200.000	0.004	0.105
-734.010	-65.981	0.071	0.029
-732.996	-150.029	-0.522	0.042
-731.981	-200.000	0.016	0.131
-730.966	-91.543	-0.328	0.095
-729.952	-118.615	-0.135	-0.024
-728.937	21.132	-0.190	-0.158
-727.923	800.000	-0.061	-0.262
-726.908	95.237	0.150	0.175
-725.894	126.403	-0.176	-0.227
-724.879	800.000	-0.030	0.100
-723.864	-8.192	-0.101	0.070
-722.850	437.483	0.049	-0.109
-721.835	120.230	0.139	-0.176
-720.821	25.539	-0.095	0.081
-719.806	-16.068	-0.320	-0.208
-718.791	-125.922	0.153	0.023
-717.777	-1.886	0.221	-0.158
-716.762	-182.230	0.242	0.005
-715.748	200.254	-0.192	-0.302
-714.733	106.514	0.119	-0.144
-713.718	-41.343	0.235	-0.124
-712.704	513.246	0.199	0.474
-711.689	-200.000	-0.036	0.243
-710.675	529.208	0.049	0.119
-709.660	-200.000	0.002	-0.183
-708.645	307.891	-0.174	0.331
-707.631	209.175	0.125	0.200
-706.616	9.183	-0.108	-0.083
-705.602	331.216	-0.029	0.057
-704.587	-200.000	-0.008	0.070
-703.572	-200.000	0.014	-0.134
-702.558	311.325	-0.055	-0.105
-701.543	-80.417	-0.329	-0.112
-700.529	-152.098	-0.338	0.025
-699.514	-108.894	-0.352	-0.077
-698.499	-200.000	-0.002	-0.079
-697.485	-124.596	-0.136	-0.021
-696.470	-170.763	-0.165	0.006
-695.456	79.857	-0.152	0.167
-694.441	494.410	0.085	-0.199
-693.426	-97.494	0.193	-0.051
-692.412	-148.622	0.251	-0.021
-691.397	-22.239	0.111	-0.069
-690.383	-124.143	0.211	0.034
-689.368	-80.894	-0.211	0.071
-688.354	-137.458	-0.117	-0.013
-687.339	554.914	-0.059	-0.146
-686.324	95.736	-0.220	0.257
-685.310	800.000	-0.087	-0.260
-684.295	-74.952	0.290	0.106
-683.281	800.000	-0.066	0.255
-682.266	-153.434	0.113	-0.008
-681.251	-80.463	0.290	0.099
-680.237	800.000	-0.050	0.179
-679.222	168.114	0.194	0.282
-678.208	582.142	0.144	0.361
-677.193	-135.018	-0.295	-0.036
-676.178	12.936	0.093	-0.073
-675.164	-122.057	0.365	-0.061
-674.149	-200.000	-0.061	-0.280
-673.135	-58.057	-0.390	-0.173
-672.120	-0.542	0.164	-0.119
-671.105	381.039	-0.062	-0.129
-670.091	25.491	0.089	0.075
-669.076	-48.680	-0.300	-0.147
-668.062	-69.539	0.278	-0.108
-667.047	-200.000	-0.002	-0.181
-666.032	146.629	0.083	-0.113
-665.018	800.000	0.053	-0.157
-664.003	-31.395	-0.061	0.035
-662.989	-49.300	-0.089	0.043
-661.974	-92.212	-0.150	-0.043
-660.959	-101.872	-0.288	0.071
-659.945	461.479	0.038	0.087
-658.930	-200.000	-0.028	0.324
-657.916	-200.000	0.008	0.085
-656.901	-151.270	-0.170	0.013
-655.886	800.000	0.117	-0.329
-654.872	-43.046	-0.310	0.160
-653.857	-153.551	0.177	-0.012
-652.843	78.081	0.127	0.138
-651.828	-200.000	-0.023	-0.201
-650.814	68.449	0.205	-0.214
-649.799	28.837	0.083	-0.071
-648.784	-38.955	0.103	-0.055
-647.770	-140.159	-0.212	-0.023
-646.755	89.337	0.151	-0.172
-645.741	-51.792	0.283	-0.134
-644.726	-98.673	-0.067	0.017
-643.711	-2.396	-0.228	0.163
-642.697	-200.000	0.000	0.014
-641.682	169.098	0.109	-0.158
-640.668	-138.442	-0.334	0.037
-639.653	31.953	0.111	0.098
-638.638	-81.018	0.210	0.071
-637.624	99.309	0.263	-0.309
-636.609	800.000	0.021	-0.074
-635.595	32.673	0.054	-0.048
-634.580	-200.000	0.022	0.136
-633.565	1.849	-0.020	0.015
-632.551	-200.000	0.016	0.079
-631.536	124.215	0.208	0.266
-630.522	800.000	-0.054	-0.214
-629.507	-200.000	-0.014	0.147
-628.492	-56.075	-0.140	0.064
-627.478	250.474	0.163	0.283
-626.463	-200.000	0.059	0.378
-625.449	800.000	0.082	0.285
-624.434	9.019	-0.121	0.093
-623.419	-200.000	0.001	-0.250
-622.405	747.632	0.078	-0.215
-621.390	182.167	-0.068	0.102
-620.376	-87.880	0.170	-0.052
-619.361	-57.812	-0.226	0.101
-618.346	41.938	-0.192	-0.177
-617.332	59.164	-0.045	-0.045
-616.317	800.000	0.030	0.134
-615.303	-200.000	-0.056	-0.474
-614.288	151.848	0.122	0.169
-613.273	-101.762	-0.329	0.081
-612.259	134.434	0.177	-0.233
-611.244	678.148	0.063	-0.166
-610.230	-133.650	-0.134	-0.017
-609.215	275.126	0.071	-0.127
-608.201	-200.000	0.013	0.208
-607.186	450.866	-0.067	0.151
-606.171	-84.030	-0.027	-0.009
-605.157	-25.815	-0.201	0.121
-604.142	-200.000	-0.026	0.179
-603.128	182.006	0.078	0.117
-602.113	64.014	0.074	0.076
-601.098	398.783	-0.049	0.104
-600.084	320.416	0.093	-0.179
-599.069	-129.677	0.104	0.015
-598.055	-48.347	0.048	0.023
-597.040	269.744	-0.087	0.155
-596.025	-39.973	0.055	0.029
-595.011	-200.000	0.047	-0.235
-593.996	-163.296	0.190	0.009
-592.982	452.420	0.073	0.164
-591.967	531.744	-0.099	-0.237
-590.952	73.460	-0.233	0.247
-589.938	98.533	0.059	-0.070
-588.923	-200.000	0.009	0.108
-587.909	-200.000	0.018	0.094
-586.894	-200.000	0.009	0.122
-585.879	-20.129	0.231	0.145
-584.865	-10.517	-0.330	-0.222
-583.850	-135.800	-0.525	-0.063
-582.836	-120.315	-0.247	-0.043
-581.821	113.547	0.325	-0.401
-580.806	-96.261	-0.180	-0.048
-579.792	124.823	-0.204	0.261
-578.777	-165.390	-0.034	0.002
-577.763	211.691	0.116	-0.185
-576.748	800.000	-0.040	-0.121
-575.733	762.580	0.107	0.296
-574.719	-50.213	-0.226	-0.109
-573.704	-200.000	-0.020	0.259
-572.690	800.000	0.106	-0.300
-571.675	-67.358	-0.540	-0.215
-570.661	81.415	-0.121	-0.133
-569.646	-49.032	0.267	0.130
-568.631	157.050	0.067	-0.095
-567.617	135.595	-0.085	-0.112
-566.602	800.000	-0.010	0.044
-565.588	800.000	-0.066	0.199
-564.573	-12.920	-0.199	-0.132
-563.558	-200.000	-0.030	-0.213
-562.544	-116.600	-0.148	0.028
-561.529	502.983	0.055	-0.128
-560.515	800.000	-0.084	-0.247
-559.500	800.000	0.099	-0.379
-558.485	169.140	-0.088	-0.127
-557.471	-157.196	-0.185	-0.011
-556.456	-3.926	0.175	-0.123
-555.442	-56.062	0.194	-0.088
-554.427	-50.848	-0.261	0.124
-553.412	33.987	0.195	0.172
-552.398	-200.000	0.063	0.427
-551.383	-200.000	-0.025	-0.290
-550.369	639.271	-0.048	-0.125
-549.354	-43.396	-0.227	0.116
-548.339	81.039	-0.069	-0.076
-547.325	328.090	-0.258	0.502
-546.310	-75.840	-0.101	-0.036
-545.296	179.788	-0.047	-0.070
-544.281	208.303	-0.189	0.300
-543.266	-41.027	-0.296	-0.155
-542.252	-83.957	-0.138	0.044
-541.237	738.625	0.064	-0.174
-540.223	-34.752	-0.049	0.027
-539.208	570.642	-0.047	0.116
-538.193	-200.000	-0.003	-0.028
-537.179	9.431	-0.351	0.269
-536.164	136.335	0.161	0.213
-535.150	19.372	-0.289	-0.235
-534.135	-134.369	-0.317	-0.039
-533.121	162.237	0.254	0.361
-532.106	175.956	0.157	0.231
-531.091	86.762	0.167	-0.187
-530.077	-200.000	-0.014	-0.445
-529.062	93.719	-0.091	0.105
-528.048	148.777	0.119	0.162
-527.033	-165.726	-0.053	-0.002
-526.018	-84.042	0.161	0.052
-525.004	195.343	-0.235	0.361
-523.989	67.102	-0.125	0.129
-522.975	-111.139	-0.308	-0.064
-521.960	-200.000	0.009	0.524
-520.945	-50.417	-0.180	-0.086
-519.931	-14.986	-0.145	-0.094
-518.916	486.225	-0.017	0.038
-517.902	9.317	-0.204	0.157
-516.887	143.063	-0.133	0.179
-515.872	316.627	-0.108	-0.207
-514.858	-104.168	0.130	0.031
-513.843	800.000	-0.033	-0.112
-512.829	233.286	0.057	0.095
-511.814	-200.000	-0.020	-0.312
-510.799	800.000	-0.137	-0.452
-509.785	-120.324	-0.140	-0.024
-508.770	85.782	-0.144	0.161
-507.756	-200.000	-0.013	0.126
-506.741	-50.337	-0.174	-0.083
-505.726	-14.147	0.221	0.144
-504.712	535.062	-0.009	0.021
-503.697	431.090	-0.107	0.235
-502.683	-4.629	-0.238	0.166
-501.668	-70.888	0.336	0.128
-500.653	-69.035	0.302	0.118
-499.639	11.168	0.137	0.106
-498.624	729.504	-0.162	-0.439
-497.610	-0.985	-0.275	-0.197
-496.595	-51.579	0.230	-0.109
-495.581	-200.000	-0.027	0.216
-494.566	-163.163	0.150	0.007
-493.551	-4.211	-0.194	0.136
-492.537	188.672	0.006	0.009
-491.522	-97.046	-0.059	-0.016
-490.508	138.402	-0.159	0.210
-489.493	-108.639	0.276	-0.060
-488.478	394.137	0.069	0.145
-487.464	-200.000	-0.058	0.693
-486.449	45.267	-0.007	-0.006
-485.435	296.784	0.106	-0.197
-484.420	1.620	-0.040	0.029
-483.405	-200.000	0.017	0.266
-482.391	-155.010	-0.253	0.017
-481.376	800.000	-0.042	-0.132
-480.362	-121.437	0.061	-0.010
-479.347	-42.747	0.237	0.122
-478.332	-117.618	0.274	-0.050
-477.318	-138.012	0.053	0.006
-476.303	800.000	-0.046	0.151
-475.289	-200.000	-0.004	-0.053
-474.274	-34.212	-0.270	-0.150
-473.259	137.891	-0.092	0.122
-472.245	-72.692	-0.089	-0.033
-471.230	-63.648	0.095	-0.039
-470.216	773.824	-0.045	0.124
-469.201	-11.335	-0.083	-0.055
-468.186	59.248	0.150	-0.149
-467.172	255.219	-0.204	-0.353
-466.157	90.308	-0.151	0.171
-465.143	-14.115	-0.211	-0.138
-464.128	165.320	-0.201	-0.287
-463.113	800.000	0.093	-0.287
-462.099	-129.775	-0.256	0.036
-461.084	-200.000	0.001	-0.097
-460.070	-200.000	-0.002	-0.119
-459.055	800.000	-0.078	-0.294
-458.040	45.814	0.207	-0.194
-457.026	156.155	-0.100	-0.139
-456.011	-200.000	-0.003	-0.063
-454.997	6.310	0.182	-0.137
-453.982	-200.000	-0.015	0.216
-452.968	-200.000	-0.044	-0.285
-451.953	296.493	-0.068	0.126
-450.938	181.247	-0.026	0.039
-449.924	-125.914	0.466	-0.071
-448.909	24.999	-0.112	0.094
-447.895	130.685	-0.170	0.221
-446.880	-131.576	0.190	0.025
-445.865	26.696	-0.224	-0.190
-444.851	250.818	-0.047	-0.081
-443.836	-200.000	0.039	-0.174
-442.822	-119.596	-0.415	0.073
-441.807	-187.872	0.019	-0.000
-440.792	213.821	0.091	0.146
-439.778	-200.000	0.024	-0.171
-438.763	245.107	0.180	-0.305
-437.749	212.300	-0.136	-0.216
-436.734	-200.000	0.035	0.362
-435.719	-2.025	-0.141	-0.100
-434.705	276.969	0.235	-0.421
-433.690	800.000	0.054	-0.231
-432.676	409.134	0.139	-0.297
-431.661	-74.659	-0.169	0.061
-430.646	-27.766	-0.393	0.230
-429.632	-50.924	0.155	-0.073
-428.617	-200.000	0.002	0.045
-427.603	131.335	0.093	-0.121
-426.588	-200.000	-0.012	0.183
-425.573	-122.436	-0.285	-0.047
-424.559	259.557	-0.025	-0.044
-423.544	-114.221	-0.318	0.062
-422.530	-90.368	0.599	0.175
-421.515	-104.800	-0.039	0.009
-420.500	559.379	-0.057	-0.139
-419.486	-19.835	0.276	-0.172
-418.471	-200.000	-0.059	-0.304
-417.457	-64.895	-0.128	0.052
-416.442	56.777	0.351	0.345
-415.428	-88.937	-0.152	-0.045
-414.413	-33.948	-0.083	0.046
-413.398	396.424	0.091	-0.191
-412.384	-41.434	0.177	-0.092
-411.369	-141.417	-0.321	0.033
-410.355	28.088	0.033	-0.028
-409.340	-108.116	0.085	-0.019
-408.325	-96.042	0.163	0.044
-407.311	222.456	-0.087	-0.141
-406.296	-46.185	0.536	-0.266
-405.282	238.087	0.127	-0.212
-404.267	233.427	-0.060	0.100
-403.252	87.889	-0.187	0.209
-402.238	-200.000	-0.063	-0.343
-401.223	187.938	0.120	0.181
-400.209	164.516	0.104	0.147
-399.194	24.874	-0.064	0.053
-398.179	-200.000	0.012	-0.207
-397.165	201.555	0.019	-0.030
-396.150	178.699	-0.130	-0.191
-395.136	110.275	-0.134	-0.162
-394.121	-61.116	-0.377	-0.161
-393.106	51.793	0.300	-0.288
-392.092	-79.010	-0.276	-0.095
-391.077	-200.000	0.018	0.147
-390.063	-200.000	0.023	-0.157
-389.048	62.450	0.298	-0.300
-388.033	-200.000	0.052	0.324
-387.019	-125.994	-0.373	0.057
-386.004	745.941	0.133	0.362
-384.990	800.000	-0.071	0.252
-383.975	-200.000	0.059	0.294
-382.960	-73.137	0.113	0.042
-381.946	-72.598	0.160	0.060
-380.931	85.528	0.300	-0.333
-379.917	-200.000	0.077	0.447
-378.902	17.985	0.211	0.170
-377.888	-50.802	-0.199	0.094
-376.873	5.652	0.118	0.088
-375.858	-174.098	0.227	0.007
-374.844	72.414	-0.183	-0.193
-373.829	65.371	-0.184	0.187
-372.815	149.795	0.175	0.238
-371.800	-200.000	-0.034	-0.273
-370.785	-119.153	-0.364	-0.064
-369.771	133.092	-0.063	0.082
-368.756	-59.577	-0.149	0.064
-367.742	-200.000	0.000	0.218
-366.727	214.493	-0.084	-0.134
-365.712	-200.000	-0.043	0.237
-364.698	-35.382	-0.050	0.027
-363.683	-84.279	-0.031	0.010
-362.669	268.025	0.206	-0.364
-361.654	-47.281	0.438	0.215
-360.639	309.007	0.089	0.167
-359.625	-200.000	-0.038	0.301
-358.610	33.689	-0.241	0.211
-357.596	-183.006	-0.282	0.005
-356.581	-85.637	-0.113	0.035
-355.566	-42.574	0.200	-0.102
-354.552	-170.249	0.147	0.005
-353.537	-200.000	0.022	0.214
-352.523	-111.967	0.184	-0.037
-351.508	12.306	0.255	-0.197
-350.493	-200.000	-0.090	-0.406
-349.479	-144.551	-0.276	0.026
-348.464	766.711	-0.105	0.286
-347.450	-127.126	0.192	-0.028
-346.435	157.964	-0.185	-0.258
-345.420	800.000	-0.083	0.259
-344.406	19.651	-0.136	-0.110
-343.391	337.513	-0.200	-0.391
-342.377	74.320	0.222	0.234
-341.362	-40.294	-0.177	0.093
-340.348	-200.000	-0.013	0.118
-339.333	305.670	0.081	-0.152
-338.318	-200.000	-0.010	-0.219
-337.304	-200.000	-0.034	0.183
-336.289	-34.529	0.184	-0.101
-335.275	-71.564	-0.301	-0.113
-334.260	403.795	0.160	0.340
-333.245	27.474	0.130	0.110
-332.231	179.480	-0.128	0.189
-331.216	340.086	-0.191	-0.375
-330.202	800.000	0.052	-0.218
-329.187	-26.494	0.220	-0.130
-328.172	-28.739	0.352	-0.203
-327.158	-16.827	-0.280	-0.178
-326.143	9.217	0.114	0.087
-325.129	426.926	-0.115	0.248
-324.114	165.302	-0.189	-0.268
-323.099	270.827	0.095	0.168
-322.085	-200.000	-0.029	0.354
-321.070	361.514	0.085	-0.172
-320.056	602.420	-0.123	0.308
-319.041	-72.690	0.352	-0.130
-318.026	39.022	-0.176	0.158
-317.012	332.313	0.103	-0.199
-315.997	350.649	-0.036	-0.072
-314.983	-200.000	-0.010	0.078
-313.968	86.850	0.175	0.194
-312.953	-115.933	0.234	0.044
-311.939	-0.327	-0.166	-0.118
-310.924	-200.000	0.024	-0.243
-309.910	-200.000	0.012	-0.088
-308.895	-148.464	0.207	-0.017
-307.880	125.655	0.194	0.247
-306.866	-53.130	0.111	-0.051
-305.851	185.217	-0.108	0.160
-304.837	-96.129	0.095	0.025
-303.822	-200.000	0.028	0.301
-302.807	133.023	-0.127	-0.165
-301.793	-200.000	-0.066	0.307
-300.778	-123.813	-0.345	-0.055
-299.764	-111.106	-0.190	-0.039
-298.749	-200.000	-0.069	0.439
-297.735	-32.692	0.164	0.092
-296.720	800.000	-0.012	-0.033
-295.705	-200.000	0.000	-0.061
-294.691	-200.000	-0.017	0.237
-293.676	71.676	0.215	0.225
-292.662	-115.029	0.130	-0.025
-291.647	-105.635	0.361	-0.082
-290.632	-200.000	0.002	-0.086
-289.618	-158.341	0.463	0.027
-288.603	-77.730	-0.178	0.062
-287.589	131.787	0.166	0.214
-286.574	-116.067	0.253	0.047
-285.559	-101.910	-0.397	0.096
-284.545	13.726	0.061	0.047
-283.530	588.138	-0.021	-0.051
-282.516	-200.000	-0.002	0.054
-281.501	-46.148	0.632	0.312
-280.486	-27.940	0.133	-0.078
-279.472	800.000	-0.072	0.209
-278.457	800.000	0.132	-0.373
-277.443	-200.000	-0.017	-0.183
-276.428	-44.210	-0.197	0.099
-275.413	-74.528	0.124	0.045
-274.399	800.000	0.094	-0.346
-273.384	107.221	-0.182	0.217
-272.370	56.345	0.222	0.217
-271.355	137.782	0.172	0.226
-270.340	-73.103	-0.291	-0.107
-269.326	333.895	0.110	-0.213
-268.311	670.406	0.134	0.348
-267.297	-200.000	-0.046	0.212
-266.282	126.041	-0.064	0.081
-265.267	180.526	0.221	0.325
-264.253	135.306	-0.099	0.129
-263.238	194.308	0.213	0.323
-262.224	150.166	-0.038	0.052
-261.209	-2.568	-0.041	0.029
-260.195	-31.279	0.230	-0.130
-259.180	304.645	0.181	-0.336
-258.165	598.151	-0.031	-0.078
-257.151	-91.861	-0.293	0.083
-256.136	-37.272	0.447	-0.240
-255.122	-3.487	0.301	-0.210
-254.107	-200.000	-0.019	0.094
-253.092	109.431	-0.089	0.107
-252.078	-45.964	0.312	0.154
-251.063	-51.102	0.024	0.011
-250.049	-200.000	0.002	-0.087
-249.034	-200.000	-0.038	0.405
-248.019	-24.403	-0.453	0.270
-247.005	24.280	-0.247	-0.204
-245.990	114.492	0.247	-0.301
-244.976	599.796	0.132	-0.328
-243.961	127.715	-0.166	0.211
-242.946	-157.488	0.162	-0.010
-241.932	-64.208	0.326	-0.133
-240.917	-53.657	-0.094	0.043
-239.903	114.011	-0.095	-0.116
-238.888	22.426	0.220	-0.180
-237.873	-159.879	0.181	0.010
-236.859	-94.077	0.222	-0.061
-235.844	-145.728	0.187	-0.017
-234.830	-96.188	0.170	-0.045
-233.815	461.169	0.137	0.307
-232.800	59.574	-0.087	-0.086
-231.786	-17.060	-0.228	0.144
-230.771	-24.024	0.132	0.079
-229.757	-200.000	-0.019	-0.273
-228.742	412.145	0.144	0.307
-227.727	800.000	0.116	0.323
-226.713	-170.116	-0.206	0.007
-225.698	-200.000	0.022	0.211
-224.684	-127.747	0.011	0.002
-223.669	-200.000	0.053	-0.378
-222.655	-200.000	-0.003	0.124
-221.640	-200.000	-0.031	-0.373
-220.625	-111.378	0.320	0.065
-219.611	173.513	0.079	0.114
-218.596	58.394	-0.150	-0.148
-217.582	153.202	0.066	0.090
-216.567	-200.000	0.005	0.107
-215.552	-187.220	-0.390	-0.005
-214.538	67.536	0.074	0.076
-213.523	27.016	-0.222	0.187
-212.509	-200.000	-0.007	-0.195
-211.494	-9.850	0.144	-0.096
-210.479	-126.288	-0.227	-0.034
-209.465	-200.000	-0.058	-0.282
-208.450	-76.066	-0.142	-0.050
-207.436	-100.727	0.058	-0.014
-206.421	183.226	0.119	0.176
-205.406	236.794	-0.047	-0.078
-204.392	90.330	0.186	-0.208
-203.377	-79.766	0.441	-0.149
-202.363	-53.300	-0.056	0.026
-201.348	-51.045	-0.241	0.113
-200.333	209.731	0.111	0.174
-199.319	544.936	0.114	0.273
-198.304	11.353	-0.273	-0.209
-197.290	330.588	-0.073	0.140
-196.275	-18.430	0.104	-0.065
-195.260	800.000	0.035	0.136
-194.246	-200.000	0.057	-0.278
-193.231	703.785	-0.112	-0.295
-192.217	658.972	0.073	0.189
-191.202	-200.000	-0.052	0.229
-190.187	800.000	0.034	0.135
-189.173	-9.463	0.297	-0.198
-188.158	-65.860	-0.126	-0.050
-187.144	24.855	0.102	0.084
-186.129	-139.309	0.434	-0.047
-185.114	-57.999	-0.129	-0.056
-184.100	-200.000	0.000	-0.037
-183.085	266.882	0.194	-0.338
-182.071	13.815	-0.147	-0.114
-181.056	303.800	-0.130	-0.241
-180.042	-126.663	-0.201	-0.030
-179.027	-200.000	0.015	0.127
-178.012	-187.848	0.065	-0.001
-176.998	-157.702	0.166	-0.010
-175.983	436.443	-0.059	-0.128
-174.969	-200.000	-0.044	0.315
-173.954	-8.927	0.423	-0.283
-172.939	-120.873	-0.318	-0.054
-171.925	-200.000	0.025	-0.111
-170.910	194.430	0.103	-0.157
-169.896	-200.000	-0.011	-0.309
-168.881	-162.963	0.272	-0.013
-167.866	800.000	-0.109	-0.319
-166.852	174.632	-0.153	0.221
-165.837	-200.000	-0.030	0.363
-164.823	125.313	0.186	-0.234
-163.808	183.929	-0.151	-0.223
-162.793	280.042	-0.091	0.162
-161.779	-39.142	0.273	0.143
-160.764	800.000	-0.058	-0.185
-159.750	70.430	-0.240	-0.248
-158.735	-73.362	-0.098	-0.036
-157.720	-200.000	0.058	0.346
-156.706	22.287	-0.248	0.203
-155.691	-200.000	0.005	0.034
-154.677	800.000	0.123	-0.340
-153.662	-97.354	-0.056	0.015
-152.647	86.217	-0.100	-0.110
-151.633	421.760	0.074	-0.159
-150.618	-106.038	0.155	-0.035
-149.604	242.118	-0.065	0.109
-148.589	57.356	0.169	-0.165
-147.574	-8.882	0.058	-0.039
-146.560	-143.636	-0.136	-0.013
-145.545	-23.310	0.409	0.246
-144.531	277.843	0.204	0.363
-143.516	161.011	-0.078	0.108
-142.502	234.644	0.191	-0.314
-141.487	220.377	0.032	-0.052
-140.472	88.545	-0.454	0.504
-139.458	-200.000	-0.050	-0.257
-138.443	-162.894	0.415	-0.020
-137.429	-24.547	-0.143	-0.085
-136.414	-200.000	-0.037	0.209
-135.399	109.173	0.157	0.187
-134.385	-177.453	-0.225	0.006
-133.370	-26.347	-0.111	0.065
-132.356	296.463	-0.287	-0.526
-131.341	-200.000	-0.097	0.720
-130.326	-53.900	-0.241	0.110
-129.312	-23.951	-0.217	0.130
-128.297	800.000	-0.091	-0.338
-127.283	800.000	-0.056	-0.165
-126.268	26.901	-0.069	-0.058
-125.253	635.004	-0.070	0.178
-124.239	-135.764	-0.188	-0.022
-123.224	-26.085	0.094	-0.055
-122.210	27.035	0.054	0.045
