DTS Sentinel unit serial number:	SN413079Multiplexer serial number:	ORYXHardware model number:	OX4-SRSoftware version number:	ORYX F/W v4.00 Oryx Data Collector v3.7.2.0data status	okinstallation	princeton_trtdifferential loss correction	single-endedforward channel	channel 3reverse channel	N/Adate	2019/09/18time	20:44:34forward acquisition time	60.00reverse acquisition time	0.00gamma	496.2192k internal	0.2343k external	0.2343temperature offset calibration	1.0010default loss term (dB/km)	0.3790temperature slope calibration	1.0000multiplexer offset coefficient	1.0000multiplexer slope coefficient	1.0000fibre end	0.00T internal ref (°C)	27.41T ext. ref 1 (°C)	1.02T ext. ref 2 (°C)	18.65length (m)	temperature (°C)	Stokes	anti-Stokes-747.200	84.713	-0.136	0.149
-746.185	-117.356	-0.327	0.059
-745.171	90.961	-0.161	0.181
-744.156	247.568	0.237	0.402
-743.142	51.432	-0.087	0.082
-742.127	20.670	0.237	0.192
-741.112	77.308	-0.079	-0.084
-740.098	-31.324	-0.136	0.076
-739.083	-78.667	-0.293	0.100
-738.069	-22.320	0.096	-0.058
-737.054	-151.231	-0.194	-0.015
-736.039	-127.013	-0.349	-0.051
-735.025	675.399	0.088	0.230
-734.010	68.616	-0.117	0.120
-732.996	800.000	-0.106	-0.427
-731.981	-179.593	-0.443	0.010
-730.966	-200.000	0.014	-0.409
-729.952	-200.000	0.069	-0.454
-728.937	163.740	-0.184	0.260
-727.923	-200.000	-0.027	0.236
-726.908	0.842	-0.112	0.081
-725.894	289.884	-0.083	0.151
-724.879	-200.000	-0.012	-0.183
-723.864	-26.224	0.082	-0.048
-722.850	251.804	0.042	-0.072
-721.835	223.213	-0.037	0.060
-720.821	-169.816	-0.054	0.002
-719.806	-200.000	0.009	-0.054
-718.791	135.443	0.142	0.185
-717.777	-37.551	-0.229	0.122
-716.762	92.867	-0.163	0.184
-715.748	-96.702	0.140	-0.037
-714.733	36.564	0.219	0.193
-713.718	800.000	-0.063	-0.250
-712.704	-200.000	-0.024	0.278
-711.689	-84.878	-0.168	0.053
-710.675	-107.467	0.266	0.058
-709.660	404.126	0.125	-0.264
-708.645	179.915	0.078	0.115
-707.631	292.378	0.197	-0.359
-706.616	-32.935	0.162	-0.090
-705.602	800.000	0.036	0.135
-704.587	-62.026	0.194	-0.081
-703.572	-24.627	-0.061	-0.036
-702.558	-200.000	-0.008	-0.039
-701.543	197.725	-0.171	0.261
-700.529	237.999	0.048	0.080
-699.514	62.803	0.077	0.077
-698.499	214.622	-0.018	0.029
-697.485	-12.727	0.120	-0.078
-696.470	-141.717	0.394	0.040
-695.456	100.602	-0.343	-0.399
-694.441	-182.147	-0.127	0.002
-693.426	-58.606	0.172	-0.075
-692.412	101.112	-0.101	-0.118
-691.397	-40.981	-0.109	0.056
-690.383	-103.092	0.128	0.030
-689.368	175.189	0.236	-0.342
-688.354	800.000	0.055	-0.197
-687.339	-57.822	0.285	-0.125
-686.324	-116.364	-0.172	-0.032
-685.310	-79.362	0.226	0.076
-684.295	261.497	0.135	0.234
-683.281	627.891	0.065	0.163
-682.266	163.219	-0.075	-0.105
-681.251	66.208	0.132	-0.134
-680.237	800.000	0.074	-0.303
-679.222	-99.451	-0.340	-0.085
-678.208	-50.646	-0.029	-0.014
-677.193	40.917	0.006	0.005
-676.178	-28.640	0.293	-0.168
-675.164	108.243	0.213	0.254
-674.149	-68.210	-0.245	0.095
-673.135	-200.000	0.005	0.194
-672.120	800.000	0.037	0.108
-671.105	-87.783	-0.385	-0.116
-670.091	147.047	-0.115	0.155
-669.076	800.000	-0.071	-0.200
-668.062	97.225	-0.166	-0.190
-667.047	699.979	0.068	-0.179
-666.032	-102.350	0.066	-0.016
-665.018	-200.000	0.029	-0.205
-664.003	406.416	-0.139	0.293
-662.989	-200.000	-0.040	0.230
-661.974	148.604	-0.157	-0.212
-660.959	178.377	-0.165	-0.241
-659.945	800.000	-0.046	0.166
-658.930	-52.359	0.120	-0.056
-657.916	65.173	0.125	-0.126
-656.901	-31.438	0.145	0.082
-655.886	147.603	0.079	-0.106
-654.872	576.821	0.087	-0.213
-653.857	-66.566	-0.114	0.045
-652.843	-95.793	0.145	0.039
-651.828	112.345	0.204	0.246
-650.814	800.000	-0.038	-0.151
-649.799	37.110	0.397	-0.351
-648.784	-76.852	0.036	-0.013
-647.770	-117.639	-0.126	-0.023
-646.755	743.835	0.019	0.052
-645.741	207.078	0.129	0.201
-644.726	-82.967	-0.193	-0.062
-643.711	-200.000	0.006	-0.262
-642.697	-200.000	0.003	0.100
-641.682	-29.623	0.275	-0.157
-640.668	-9.341	0.188	-0.125
-639.653	800.000	0.058	-0.237
-638.638	-69.303	-0.300	0.115
-637.624	-72.003	-0.105	-0.039
-636.609	-200.000	-0.002	-0.277
-635.595	476.467	-0.029	-0.064
-634.580	119.321	0.132	0.163
-633.565	-153.701	0.236	-0.016
-632.551	196.268	0.092	-0.139
-631.536	67.217	-0.190	-0.193
-630.522	200.135	0.010	0.015
-629.507	-200.000	-0.002	-0.087
-628.492	258.273	-0.095	0.163
-627.478	-73.857	0.424	0.154
-626.463	-141.368	0.226	0.023
-625.449	9.092	0.244	0.184
-624.434	-91.180	-0.183	-0.052
-623.419	-72.618	0.038	0.014
-622.405	-200.000	0.060	-0.262
-621.390	800.000	-0.019	0.077
-620.376	-85.899	-0.021	0.006
-619.361	-200.000	0.029	0.286
-618.346	-20.476	0.219	-0.134
-617.332	-45.497	-0.182	0.090
-616.317	27.225	-0.257	-0.215
-615.303	-200.000	0.037	0.226
-614.288	58.315	-0.058	-0.057
-613.273	-111.576	-0.296	-0.060
-612.259	800.000	-0.044	0.188
-611.244	-200.000	0.012	0.092
-610.230	85.948	-0.186	0.203
-609.215	62.548	-0.016	0.015
-608.201	185.703	-0.128	0.190
-607.186	623.055	-0.052	-0.131
-606.171	-9.768	-0.033	-0.022
-605.157	-20.546	0.168	-0.103
-604.142	-22.964	-0.363	0.218
-603.128	188.151	0.150	-0.223
-602.113	-200.000	0.019	-0.225
-601.098	222.690	-0.106	-0.171
-600.084	-200.000	0.063	0.320
-599.069	209.606	-0.058	0.090
-598.055	-42.496	0.238	0.121
-597.040	-78.907	0.321	-0.109
-596.025	-123.783	-0.349	0.055
-595.011	471.528	0.106	0.236
-593.996	-200.000	-0.001	0.123
-592.982	12.492	-0.203	0.156
-591.967	-20.638	0.269	0.165
-590.952	-32.381	-0.117	0.065
-589.938	207.821	0.064	0.099
-588.923	300.726	-0.201	-0.370
-587.909	-200.000	-0.038	-0.340
-586.894	-49.165	-0.290	-0.138
-585.879	-31.680	0.178	-0.099
-584.865	228.373	0.168	-0.273
-583.850	-3.362	-0.015	-0.010
-582.836	-112.351	0.480	-0.096
-581.821	139.719	-0.294	-0.386
-580.806	8.430	-0.066	-0.050
-579.792	26.939	0.158	0.131
-578.777	-61.936	-0.361	0.150
-577.763	62.837	-0.166	-0.165
-576.748	-24.327	-0.315	0.187
-575.733	-50.111	0.109	-0.051
-574.719	800.000	-0.058	-0.193
-573.704	250.608	0.143	-0.242
-572.690	59.055	-0.226	0.221
-571.675	800.000	-0.103	-0.408
-570.661	-86.740	-0.135	-0.041
-569.646	800.000	-0.009	0.037
-568.631	-144.120	-0.037	0.003
-567.617	-200.000	0.005	-0.284
-566.602	-200.000	0.003	0.179
-565.588	-125.863	0.163	0.024
-564.573	333.652	0.166	0.320
-563.558	-200.000	0.007	0.135
-562.544	446.241	-0.043	0.094
-561.529	676.203	0.083	0.213
-560.515	0.442	-0.130	0.093
-559.500	355.037	-0.189	-0.374
-558.485	-200.000	0.045	-0.412
-557.471	-68.434	0.239	-0.092
-556.456	159.838	-0.171	-0.237
-555.442	-142.776	-0.285	-0.028
-554.427	-148.887	-0.290	0.023
-553.412	243.671	0.127	-0.211
-552.398	24.668	-0.223	0.184
-551.383	800.000	0.053	0.195
-550.369	275.847	0.148	0.261
-549.354	-59.161	-0.230	0.098
-548.339	-3.589	0.179	0.124
-547.325	10.859	0.115	0.087
-546.310	-112.681	-0.227	-0.045
-545.296	55.426	-0.236	-0.227
-544.281	-51.148	0.129	-0.060
-543.266	7.497	0.132	-0.098
-542.252	-49.239	0.198	-0.094
-541.237	86.198	-0.197	-0.215
-540.223	800.000	0.043	0.129
-539.208	-200.000	-0.039	-0.169
-538.193	89.312	0.181	-0.200
-537.179	324.663	0.067	-0.128
-536.164	-200.000	-0.024	-0.151
-535.150	-110.200	0.259	-0.054
-534.135	-81.710	0.288	-0.094
-533.121	32.662	0.037	-0.032
-532.106	-139.291	-0.054	0.006
-531.091	224.940	0.117	-0.189
-530.077	-16.483	-0.172	0.108
-529.062	50.841	0.135	0.127
-528.048	68.170	-0.048	-0.049
-527.033	-61.278	0.278	-0.116
-526.018	-101.205	0.197	0.048
-525.004	97.882	0.023	0.026
-523.989	271.998	-0.078	0.136
-522.975	800.000	-0.099	-0.301
-521.960	142.162	-0.236	0.311
-520.945	-124.247	-0.352	-0.055
-519.931	-186.645	0.137	-0.002
-518.916	-33.317	-0.214	0.117
-517.902	-200.000	-0.017	0.106
-516.887	-125.686	-0.310	-0.047
-515.872	-54.190	-0.114	0.051
-514.858	-125.497	-0.196	-0.030
-513.843	51.662	0.168	-0.158
-512.829	-119.283	-0.295	-0.051
-511.814	-59.334	-0.138	0.059
-510.799	602.558	-0.144	-0.356
-509.785	195.283	-0.163	-0.246
-508.770	195.054	-0.124	-0.187
-507.756	-200.000	0.002	0.030
-506.741	74.742	-0.064	-0.066
-505.726	-200.000	-0.025	-0.116
-504.712	-110.041	0.423	0.088
-503.697	90.609	0.154	0.171
-502.683	-183.357	0.044	0.001
-501.668	-200.000	-0.022	0.122
-500.653	800.000	-0.126	0.439
-499.639	-200.000	0.013	0.114
-498.624	800.000	0.018	-0.056
-497.610	75.365	0.219	0.229
-496.595	-200.000	-0.000	-0.001
-495.581	-109.020	0.113	-0.024
-494.566	-162.222	-0.258	0.013
-493.551	-138.876	-0.159	-0.017
-492.537	98.044	-0.142	0.162
-491.522	800.000	0.078	-0.255
-490.508	-174.267	0.154	-0.004
-489.493	-65.323	-0.542	0.216
-488.478	66.127	0.071	0.072
-487.464	4.996	-0.120	-0.087
-486.449	515.593	-0.055	-0.127
-485.435	-11.299	0.179	0.117
-484.420	592.197	-0.082	0.200
-483.405	41.958	-0.144	0.129
-482.391	309.280	0.098	0.181
-481.376	800.000	-0.094	0.371
-480.362	-58.039	0.118	0.051
-479.347	250.343	0.125	-0.210
-478.332	238.211	-0.173	0.285
-477.318	800.000	-0.123	0.529
-476.303	-158.752	-0.298	0.017
-475.289	-89.735	-0.320	0.093
-474.274	-200.000	0.003	0.190
-473.259	-172.225	0.495	0.016
-472.245	0.736	-0.124	0.088
-471.230	-146.230	0.073	-0.006
-470.216	800.000	0.012	-0.051
-469.201	37.159	0.160	-0.140
-468.186	102.358	0.161	0.186
-467.172	454.195	0.056	0.123
-466.157	-52.620	-0.076	0.035
-465.143	-166.764	0.116	0.005
-464.128	128.213	0.137	0.172
-463.113	-24.969	-0.334	0.196
-462.099	27.633	-0.107	0.089
-461.084	800.000	-0.053	0.188
-460.070	-34.578	0.071	-0.039
-459.055	125.496	0.097	-0.121
-458.040	-27.046	0.113	0.065
-457.026	-42.136	-0.156	0.079
-456.011	264.529	0.046	-0.080
-454.997	-200.000	-0.011	0.087
-453.982	100.013	0.096	-0.110
-452.968	358.668	0.081	-0.160
-451.953	728.054	0.179	-0.472
-450.938	-116.490	0.375	0.069
-449.924	166.608	0.240	-0.336
-448.909	-200.000	-0.003	-0.384
-447.895	7.899	0.214	0.159
-446.880	280.777	-0.163	0.289
-445.865	-117.303	0.297	-0.053
-444.851	-200.000	0.048	0.251
-443.836	15.351	-0.298	-0.231
-442.822	37.703	-0.092	-0.081
-441.807	-130.710	-0.102	0.014
-440.792	-200.000	-0.042	0.206
-439.778	-200.000	-0.012	0.139
-438.763	-71.159	0.437	0.162
-437.749	37.663	0.243	-0.214
-436.734	-35.041	0.313	-0.169
-435.719	93.794	0.196	0.219
-434.705	-50.837	-0.114	0.053
-433.690	-26.799	-0.160	-0.092
-432.676	248.926	0.189	-0.316
-431.661	677.344	-0.115	-0.296
-430.646	-187.852	-0.116	0.001
-429.632	440.390	0.159	-0.343
-428.617	-78.521	0.063	0.021
-427.603	-23.190	0.152	-0.091
-426.588	194.330	-0.049	0.074
-425.573	34.431	0.103	0.089
-424.559	-1.544	-0.196	0.136
-423.544	-68.866	0.270	0.103
-422.530	-97.917	-0.216	0.055
-421.515	800.000	0.084	0.263
-420.500	-200.000	0.033	0.339
-419.486	-200.000	0.036	0.203
-418.471	-200.000	-0.002	0.028
-417.457	800.000	0.016	-0.044
-416.442	-200.000	0.001	-0.044
-415.428	800.000	-0.089	0.316
-414.413	-200.000	-0.025	-0.235
-413.398	-200.000	0.025	0.146
-412.384	382.528	0.069	-0.141
-411.369	800.000	0.126	0.380
-410.355	-168.467	-0.137	-0.005
-409.340	5.356	0.168	0.123
-408.325	153.040	0.059	-0.079
-407.311	304.117	0.071	-0.131
-406.296	639.627	-0.095	0.239
-405.282	44.856	-0.080	0.073
-404.267	-135.556	0.184	-0.022
-403.252	-169.645	-0.228	0.008
-402.238	275.585	-0.147	-0.258
-401.223	800.000	0.033	-0.105
-400.209	530.482	-0.133	-0.310
-399.194	122.608	0.090	-0.112
-398.179	423.269	-0.077	-0.164
-397.165	-200.000	0.080	-0.362
-396.150	-13.663	0.151	0.096
-395.136	90.964	0.159	-0.176
-394.121	-86.583	-0.177	0.054
-393.106	800.000	0.032	0.136
-392.092	423.532	-0.100	0.212
-391.077	38.931	-0.067	0.059
-390.063	-25.808	-0.166	0.097
-389.048	-200.000	-0.010	0.134
-388.033	-122.763	-0.156	0.025
-387.019	-71.121	0.210	0.078
-386.004	-118.329	-0.182	0.032
-384.990	800.000	-0.134	0.421
-383.975	177.160	-0.031	0.045
-382.960	42.414	-0.219	0.197
-381.946	792.754	0.114	0.308
-380.931	34.037	0.160	0.138
-379.917	533.682	-0.050	0.117
-378.902	508.533	-0.169	0.388
-377.888	307.885	0.017	-0.031
-376.873	800.000	-0.038	0.151
-375.858	318.608	-0.064	-0.120
-374.844	-10.968	-0.149	0.097
-373.829	-169.750	0.183	0.007
-372.815	660.098	0.109	0.278
-371.800	-200.000	-0.035	-0.190
-370.785	-33.192	0.190	0.104
-369.771	-66.733	-0.158	-0.062
-368.756	106.118	0.203	0.237
-367.742	-136.012	-0.280	0.032
-366.727	191.698	0.186	0.276
-365.712	118.957	0.126	0.154
-364.698	197.611	0.190	-0.287
-363.683	-116.727	-0.034	-0.006
-362.669	205.592	-0.102	-0.157
-361.654	714.014	-0.125	-0.326
-360.639	-200.000	-0.008	0.258
-359.625	-14.857	0.218	0.138
-358.610	-10.792	-0.218	-0.142
-357.596	-200.000	0.060	-0.333
-356.581	360.688	0.172	-0.340
-355.566	-88.469	-0.397	-0.117
-354.552	800.000	-0.064	0.186
-353.537	-200.000	0.070	-0.329
-352.523	-45.731	-0.176	0.086
-351.508	-141.088	-0.240	0.024
-350.493	105.792	-0.313	0.365
-349.479	800.000	-0.017	0.068
-348.464	-200.000	0.037	-0.206
-347.450	800.000	-0.087	-0.361
-346.435	-32.143	0.042	0.023
-345.420	186.674	-0.184	0.270
-344.406	56.246	-0.076	0.073
-343.391	-46.055	-0.202	-0.098
-342.377	-41.674	-0.372	-0.188
-341.362	470.323	-0.087	-0.193
-340.348	-200.000	-0.061	-0.265
-339.333	-138.192	-0.136	0.015
-338.318	-200.000	-0.007	0.109
-337.304	-175.696	0.280	0.007
-336.289	-71.230	0.210	0.078
-335.275	-137.414	0.102	0.011
-334.260	-56.892	-0.294	-0.128
-333.245	-200.000	0.003	0.100
-332.231	-113.628	0.292	0.056
-331.216	-54.811	-0.169	0.075
-330.202	-200.000	0.004	-0.422
-329.187	-200.000	-0.033	-0.174
-328.172	-7.201	0.077	-0.051
-327.158	-17.065	0.254	0.158
-326.143	113.579	-0.171	-0.205
-325.129	-114.505	0.249	0.047
-324.114	-200.000	-0.025	0.108
-323.099	-37.408	0.084	-0.044
-322.085	1.344	-0.085	0.060
-321.070	57.615	-0.046	-0.044
-320.056	5.088	0.118	0.086
-319.041	6.572	-0.267	0.196
-318.026	205.621	0.108	0.166
-317.012	800.000	0.026	0.106
-315.997	246.724	-0.055	-0.092
-314.983	-89.776	0.197	0.057
-313.968	-110.777	-0.085	0.017
-312.953	-104.840	-0.273	0.062
-311.939	-200.000	0.016	0.298
-310.924	3.221	-0.101	-0.073
-309.910	800.000	-0.063	-0.185
-308.895	-127.788	-0.079	0.011
-307.880	54.494	0.150	0.142
-306.866	-87.363	-0.260	0.078
-305.851	92.513	-0.256	0.284
-304.837	-152.999	0.496	-0.034
-303.822	251.925	-0.143	0.240
-302.807	-2.178	-0.038	-0.026
-301.793	-185.760	-0.069	-0.001
-300.778	800.000	-0.018	0.056
-299.764	-136.687	-0.253	-0.029
-298.749	125.034	-0.113	-0.140
-297.735	88.474	0.313	-0.342
-296.720	800.000	0.115	-0.352
-295.705	-200.000	-0.003	-0.077
-294.691	-200.000	-0.026	-0.220
-293.676	-17.671	0.369	-0.228
-292.662	800.000	0.021	0.075
-291.647	140.343	-0.146	0.189
-290.632	241.253	0.051	-0.084
-289.618	-99.633	-0.172	0.042
-288.603	2.429	-0.057	-0.041
-287.589	361.477	-0.085	-0.167
-286.574	67.292	0.199	0.200
-285.559	-200.000	-0.000	0.060
-284.545	-114.968	0.152	0.028
-283.530	74.257	-0.363	-0.375
-282.516	-59.384	0.174	0.073
-281.501	-22.702	0.228	0.135
-280.486	800.000	-0.068	0.253
-279.472	-75.961	0.174	0.061
-278.457	-9.046	-0.081	0.054
-277.443	-89.294	0.156	-0.045
-276.428	800.000	0.112	-0.410
-275.413	-129.112	-0.074	0.010
-274.399	-103.331	0.081	-0.019
-273.384	-116.598	0.233	-0.042
-272.370	-4.326	-0.117	-0.079
-271.355	-110.416	0.069	0.014
-270.340	439.097	-0.166	0.357
-269.326	-86.902	-0.291	0.087
-268.311	761.372	0.077	-0.205
-267.297	-105.046	0.191	0.043
-266.282	426.555	0.131	-0.277
-265.267	-112.838	0.355	-0.069
-264.253	-96.676	0.138	0.036
-263.238	433.830	0.094	-0.202
-262.224	-168.289	0.161	0.006
-261.209	104.015	0.076	0.087
-260.195	717.849	-0.107	-0.279
-259.180	242.017	0.186	-0.306
-258.165	153.901	-0.216	-0.290
-257.151	-156.248	-0.125	0.008
-256.136	167.628	-0.124	0.174
-255.122	-124.615	-0.274	-0.042
-254.107	-115.811	-0.259	-0.048
-253.092	-120.415	0.224	0.037
-252.078	347.841	-0.109	-0.211
-251.063	268.440	-0.128	0.221
-250.049	323.465	-0.156	-0.292
-249.034	102.151	-0.155	-0.178
-248.019	-158.473	-0.358	0.020
-247.005	27.975	-0.094	-0.078
-245.990	-52.694	0.037	0.017
-244.976	-61.445	0.074	-0.030
-243.961	232.307	0.033	0.053
-242.946	-3.248	-0.248	-0.169
-241.932	-27.367	0.119	-0.068
-240.917	-176.240	0.236	-0.006
-239.903	-163.286	0.395	0.019
-238.888	-32.217	-0.050	0.027
-237.873	-9.942	-0.169	0.111
-236.859	-200.000	-0.015	-0.200
-235.844	-133.319	-0.118	0.015
-234.830	-53.578	-0.159	0.071
-233.815	12.991	0.191	-0.145
-232.800	-200.000	-0.075	-0.379
-231.786	-200.000	-0.058	-0.319
-230.771	-141.070	0.250	0.025
-229.757	612.552	0.095	-0.233
-228.742	-101.248	0.144	0.034
-227.727	-107.554	-0.322	-0.069
-226.713	800.000	0.017	0.049
-225.698	800.000	0.076	0.305
-224.684	800.000	0.033	-0.106
-223.669	-107.771	0.262	-0.056
-222.655	64.658	-0.238	0.236
-221.640	718.047	0.147	-0.382
-220.625	306.620	-0.137	-0.250
-219.611	128.059	0.133	0.166
-218.596	-200.000	-0.028	0.268
-217.582	378.343	-0.147	-0.295
-216.567	800.000	0.064	0.228
-215.552	-105.386	0.293	-0.065
-214.538	16.730	-0.053	0.041
-213.523	-105.426	-0.477	-0.106
-212.509	-79.783	0.072	-0.024
-211.494	800.000	-0.038	-0.137
-210.479	45.875	-0.142	0.129
-209.465	123.571	-0.266	0.328
-208.450	428.026	-0.123	0.260
-207.436	800.000	-0.052	0.142
-206.421	-160.616	0.147	-0.008
-205.406	-125.457	-0.036	0.005
-204.392	309.758	-0.049	-0.090
-203.377	468.582	0.078	-0.172
-202.363	-93.194	0.215	-0.059
-201.348	-4.493	0.266	0.180
-200.333	88.491	0.181	0.197
-199.319	16.494	-0.035	-0.027
-198.304	19.828	0.162	0.128
-197.290	-105.544	0.125	-0.028
-196.275	-200.000	0.029	-0.284
-195.260	-200.000	-0.001	0.072
-194.246	221.190	0.117	-0.184
-193.231	-200.000	-0.048	0.262
-192.217	327.798	-0.100	0.188
-191.202	-200.000	0.055	0.604
-190.187	-92.384	-0.311	0.086
-189.173	176.874	0.092	0.131
-188.158	3.676	-0.261	-0.187
-187.144	-176.508	-0.112	0.003
-186.129	-200.000	0.019	-0.111
-185.114	-200.000	0.002	-0.061
-184.100	-75.969	0.154	-0.054
-183.085	70.042	0.141	0.143
-182.071	7.971	-0.153	0.112
-181.056	-167.028	0.597	-0.024
-180.042	746.529	-0.073	0.192
-179.027	68.308	0.150	0.151
-178.012	30.541	0.328	0.275
-176.998	-97.698	0.203	-0.051
-175.983	-112.244	-0.396	0.078
-174.969	-66.870	0.096	0.037
-173.954	75.469	0.391	0.405
-172.939	151.128	0.159	-0.211
-171.925	269.701	-0.037	-0.064
-170.910	125.002	0.067	0.083
-169.896	-49.414	-0.106	-0.050
-168.881	204.053	-0.180	0.273
-167.866	565.277	-0.041	0.096
-166.852	-200.000	0.001	0.034
-165.837	-200.000	0.001	-0.126
-164.823	800.000	0.014	0.057
-163.808	8.091	0.425	0.312
-162.793	-184.072	0.300	0.005
-161.779	741.634	0.028	0.073
-160.764	-25.716	-0.084	0.049
-159.750	758.848	-0.111	-0.293
-158.735	403.067	0.098	-0.202
-157.720	67.623	-0.032	-0.032
-156.706	437.978	-0.069	-0.148
-155.691	-75.137	0.064	-0.022
-154.677	-91.004	0.202	0.057
-153.662	-200.000	0.029	-0.144
-152.647	800.000	0.033	0.132
-151.633	116.521	-0.062	-0.075
-150.618	-4.044	0.271	0.184
-149.604	568.546	-0.061	0.144
-148.589	350.498	0.086	0.166
-147.574	-200.000	0.034	-0.228
-146.560	15.313	0.167	-0.128
-145.545	-144.404	-0.106	-0.010
-144.531	83.273	0.047	0.050
-143.516	510.244	0.049	0.110
-142.502	-188.534	0.182	-0.002
-141.487	-200.000	-0.034	-0.188
-140.472	800.000	-0.135	0.506
-139.458	-61.122	-0.137	-0.056
-138.443	-200.000	-0.007	0.183
-137.429	-200.000	-0.039	0.238
-136.414	-31.079	0.110	0.061
-135.399	-200.000	0.014	0.099
-134.385	459.294	0.110	0.240
-133.370	-135.458	0.013	0.002
-132.356	-18.036	0.108	0.066
-131.341	-134.668	0.045	-0.005
-130.326	-79.724	0.216	0.071
-129.312	-200.000	-0.005	-0.264
-128.297	139.388	-0.128	-0.165
-127.283	106.340	0.081	0.094
-126.268	-11.201	0.064	0.041
-125.253	-200.000	-0.022	-0.168
-124.239	-62.100	0.063	-0.025
-123.224	346.736	-0.067	0.129
-122.210	473.849	-0.134	-0.295
-121.195	800.000	-0.027	0.085
-120.180	-80.523	-0.113	0.037
