DTS Sentinel unit serial number:	SN413079Multiplexer serial number:	ORYXHardware model number:	OX4-SRSoftware version number:	ORYX F/W v4.00 Oryx Data Collector v3.7.2.0data status	okinstallation	princeton_trtdifferential loss correction	single-endedforward channel	channel 3reverse channel	N/Adate	2019/09/15time	07:48:34forward acquisition time	60.00reverse acquisition time	0.00gamma	496.2192k internal	0.2324k external	0.2324temperature offset calibration	0.9986default loss term (dB/km)	0.3790temperature slope calibration	1.0000multiplexer offset coefficient	1.0000multiplexer slope coefficient	1.0000fibre end	0.00T internal ref (°C)	30.64T ext. ref 1 (°C)	4.98T ext. ref 2 (°C)	25.79length (m)	temperature (°C)	Stokes	anti-Stokes-747.200	-37.316	-0.085	-0.046
-746.185	-59.235	0.190	-0.082
-745.171	113.293	0.178	0.218
-744.156	-200.000	-0.007	0.322
-743.142	-86.094	0.172	0.054
-742.127	800.000	-0.080	-0.259
-741.112	-18.138	-0.082	-0.052
-740.098	-200.000	0.061	0.350
-739.083	-200.000	-0.064	0.440
-738.069	304.257	0.115	0.216
-737.054	201.767	-0.024	-0.037
-736.039	-143.865	-0.422	-0.040
-735.025	-13.620	0.286	-0.187
-734.010	766.984	-0.042	0.115
-732.996	800.000	-0.036	-0.113
-731.981	205.030	0.074	0.116
-730.966	-200.000	0.024	-0.137
-729.952	-200.000	0.002	-0.319
-728.937	-168.854	-0.105	0.004
-727.923	-27.442	-0.219	0.129
-726.908	4.658	-0.046	-0.034
-725.894	-200.000	0.003	-0.193
-724.879	-200.000	0.025	-0.214
-723.864	-200.000	-0.040	-0.335
-722.850	83.527	0.101	-0.111
-721.835	-5.612	0.098	0.068
-720.821	-200.000	-0.002	-0.299
-719.806	-119.329	-0.181	-0.032
-718.791	199.503	-0.052	-0.080
-717.777	29.387	-0.303	0.260
-716.762	87.577	0.332	-0.371
-715.748	-10.736	-0.550	-0.367
-714.733	-97.742	-0.111	0.029
-713.718	391.839	0.089	-0.186
-712.704	26.676	-0.053	0.045
-711.689	-135.204	-0.191	0.023
-710.675	-200.000	0.018	0.118
-709.660	-6.386	0.295	-0.203
-708.645	-200.000	-0.026	0.256
-707.631	-36.287	-0.261	-0.142
-706.616	36.363	0.063	0.056
-705.602	19.713	0.220	-0.178
-704.587	72.977	-0.196	0.206
-703.572	379.145	-0.167	-0.346
-702.558	-200.000	-0.011	-0.189
-701.543	-200.000	-0.003	-0.237
-700.529	75.886	0.120	-0.127
-699.514	36.878	-0.131	-0.117
-698.499	-35.941	-0.212	-0.116
-697.485	-28.299	-0.206	-0.120
-696.470	-73.447	0.309	0.114
-695.456	-70.760	0.028	0.011
-694.441	-40.170	0.297	-0.156
-693.426	-69.117	-0.307	-0.119
-692.412	135.651	0.111	-0.146
-691.397	385.875	-0.083	-0.172
-690.383	607.197	0.103	0.259
-689.368	-72.226	-0.413	-0.154
-688.354	800.000	-0.074	-0.228
-687.339	-31.043	-0.505	-0.287
-686.324	-200.000	-0.034	0.301
-685.310	180.031	0.164	0.241
-684.295	-118.590	-0.270	0.048
-683.281	-65.676	-0.331	0.134
-682.266	-45.715	-0.070	0.035
-681.251	110.778	0.107	0.130
-680.237	-77.942	0.193	0.067
-679.222	76.707	0.122	0.131
-678.208	-200.000	-0.007	-0.133
-677.193	369.709	-0.191	0.390
-676.178	-65.635	0.245	-0.099
-675.164	33.984	0.115	0.101
-674.149	-79.148	-0.324	-0.111
-673.135	405.410	-0.060	0.128
-672.120	-200.000	-0.009	-0.098
-671.105	-14.097	0.368	-0.239
-670.091	-94.251	-0.109	-0.030
-669.076	289.265	-0.150	-0.274
-668.062	-200.000	0.045	-0.239
-667.047	-122.875	0.101	0.016
-666.032	426.505	-0.101	0.218
-665.018	126.065	0.065	-0.083
-664.003	-200.000	-0.011	-0.104
-662.989	-100.764	0.171	0.042
-661.974	-11.546	-0.251	0.166
-660.959	-32.965	-0.191	-0.106
-659.945	-200.000	-0.026	-0.131
-658.930	-91.996	-0.184	0.052
-657.916	268.333	0.179	-0.316
-656.901	-28.916	0.195	0.113
-655.886	-59.021	0.271	0.118
-654.872	6.600	-0.113	-0.084
-653.857	-67.365	0.371	-0.147
-652.843	65.062	0.077	-0.078
-651.828	-200.000	0.033	-0.156
-650.814	445.566	0.034	0.076
-649.799	129.227	-0.167	-0.214
-648.784	31.443	0.199	-0.172
-647.770	-160.014	-0.354	-0.019
-646.755	98.232	-0.095	0.110
-645.741	-16.322	0.344	0.219
-644.726	-126.612	0.098	-0.015
-643.711	-200.000	0.018	0.088
-642.697	171.562	-0.176	-0.255
-641.682	54.444	-0.056	-0.054
-640.668	106.631	0.030	-0.036
-639.653	295.918	0.102	0.187
-638.638	-149.892	-0.315	-0.025
-637.624	340.440	0.232	-0.456
-636.609	-7.766	-0.060	0.041
-635.595	43.658	-0.151	0.139
-634.580	-88.114	0.242	0.073
-633.565	281.267	-0.141	0.254
-632.551	-145.142	0.296	0.027
-631.536	800.000	-0.096	-0.366
-630.522	-200.000	-0.019	0.154
-629.507	-131.499	0.199	-0.026
-628.492	-87.440	0.279	-0.085
-627.478	57.996	0.094	-0.092
-626.463	239.602	0.033	-0.055
-625.449	-200.000	-0.011	0.106
-624.434	-62.167	-0.166	0.070
-623.419	-96.214	0.121	-0.032
-622.405	184.223	-0.201	0.299
-621.390	-64.931	-0.317	-0.129
-620.376	-75.620	-0.407	-0.145
-619.361	-46.077	-0.147	0.073
-618.346	-200.000	0.074	0.000
-617.332	145.627	-0.160	0.215
-616.317	451.308	-0.072	-0.160
-615.303	-63.987	-0.283	-0.116
-614.288	-200.000	-0.030	-0.317
-613.273	-59.482	-0.301	0.130
-612.259	-69.152	0.040	0.016
-611.244	-200.000	-0.063	-0.306
-610.230	555.726	-0.070	0.169
-609.215	615.580	-0.059	-0.148
-608.201	-178.902	0.391	-0.009
-607.186	-200.000	-0.003	-0.064
-606.171	33.061	-0.114	0.099
-605.157	43.868	-0.075	0.069
-604.142	-100.660	0.254	-0.063
-603.128	-165.518	0.163	-0.007
-602.113	-99.244	0.181	-0.046
-601.098	-175.912	-0.145	-0.004
-600.084	151.312	0.201	-0.275
-599.069	-200.000	0.063	0.433
-598.055	191.463	-0.076	-0.114
-597.040	262.498	-0.062	0.108
-596.025	19.000	0.060	0.049
-595.011	-23.086	0.064	-0.039
-593.996	-200.000	-0.001	0.099
-592.982	213.600	0.107	0.170
-591.967	15.804	-0.081	-0.064
-590.952	-182.899	-0.378	0.007
-589.938	145.744	0.071	0.095
-588.923	96.327	0.069	-0.079
-587.909	800.000	0.035	-0.147
-586.894	2.389	-0.093	0.067
-585.879	-1.773	0.053	0.038
-584.865	351.576	-0.073	-0.145
-583.850	96.747	0.079	0.091
-582.836	-92.620	0.199	0.056
-581.821	354.176	-0.101	0.201
-580.806	800.000	0.037	0.141
-579.792	660.975	-0.067	0.173
-578.777	-200.000	-0.011	0.120
-577.763	-99.773	-0.174	0.044
-576.748	-150.613	0.225	-0.017
-575.733	666.893	-0.087	-0.225
-574.719	-162.089	0.103	0.005
-573.704	-200.000	0.049	0.234
-572.690	-120.135	-0.204	-0.035
-571.675	-34.104	0.232	0.128
-570.661	-117.324	-0.433	0.079
-569.646	10.222	0.083	-0.064
-568.631	-98.913	-0.383	0.097
-567.617	-123.501	-0.269	-0.043
-566.602	236.349	0.091	-0.152
-565.588	-107.363	-0.061	-0.014
-564.573	309.661	0.086	-0.160
-563.558	-200.000	-0.002	-0.182
-562.544	-200.000	0.049	-0.218
-561.529	-200.000	-0.027	0.219
-560.515	-200.000	0.016	0.203
-559.500	5.874	-0.390	0.289
-558.485	800.000	0.058	0.206
-557.471	-200.000	0.045	0.279
-556.456	-200.000	0.012	-0.333
-555.442	79.819	-0.191	-0.206
-554.427	800.000	0.040	0.150
-553.412	-73.831	-0.123	0.045
-552.398	134.915	-0.117	0.152
-551.383	105.875	-0.063	0.074
-550.369	108.651	-0.146	-0.175
-549.354	-114.899	0.047	-0.009
-548.339	232.249	-0.082	-0.136
-547.325	800.000	0.055	-0.197
-546.310	800.000	-0.036	-0.118
-545.296	302.467	-0.065	-0.120
-544.281	149.327	0.234	-0.317
-543.266	111.749	-0.450	-0.544
-542.252	800.000	-0.029	-0.122
-541.237	-109.957	-0.260	-0.055
-540.223	317.109	0.174	-0.329
-539.208	228.054	-0.114	0.185
-538.193	271.378	-0.263	-0.464
-537.179	-61.138	-0.258	0.109
-536.164	-64.926	0.154	-0.062
-535.150	-52.997	0.208	-0.096
-534.135	-200.000	-0.034	0.191
-533.121	-42.936	-0.158	0.080
-532.106	800.000	-0.059	0.208
-531.091	-200.000	0.081	-0.396
-530.077	-130.472	-0.078	0.011
-529.062	172.726	0.245	-0.353
-528.048	-71.954	-0.339	-0.126
-527.033	-7.987	0.288	-0.194
-526.018	-200.000	-0.028	-0.221
-525.004	800.000	0.083	0.236
-523.989	316.624	-0.112	0.212
-522.975	-172.890	-0.129	0.004
-521.960	-11.125	0.115	0.076
-520.945	-151.158	-0.318	0.024
-519.931	-149.576	0.248	-0.020
-518.916	89.497	-0.166	0.185
-517.902	1.403	-0.067	-0.048
-516.887	-55.964	-0.124	0.055
-515.872	360.520	0.109	0.218
-514.858	-75.597	-0.221	0.078
-513.843	182.454	0.053	0.078
-512.829	-52.657	0.125	-0.058
-511.814	-92.957	0.061	-0.017
-510.799	58.949	-0.232	0.228
-509.785	143.881	0.025	0.034
-508.770	-156.278	-0.099	0.006
-507.756	-28.956	-0.185	-0.106
-506.741	-173.602	0.104	-0.003
-505.726	196.354	0.102	-0.155
-504.712	552.673	0.041	-0.099
-503.697	-79.956	0.051	0.017
-502.683	-200.000	0.004	0.189
-501.668	-200.000	-0.003	0.198
-500.653	-200.000	-0.028	-0.340
-499.639	800.000	0.038	-0.164
-498.624	-200.000	-0.009	-0.277
-497.610	-200.000	0.020	-0.127
-496.595	-107.681	-0.139	-0.030
-495.581	-40.262	0.201	0.104
-494.566	-28.779	-0.255	-0.147
-493.551	-2.697	0.281	0.196
-492.537	-115.801	0.123	0.023
-491.522	-2.454	0.299	-0.209
-490.508	33.988	0.215	0.187
-489.493	-57.230	0.338	-0.149
-488.478	-47.073	-0.239	0.116
-487.464	-51.552	-0.062	0.029
-486.449	12.204	-0.259	-0.200
-485.435	-200.000	0.046	-0.430
-484.420	4.820	-0.145	-0.106
-483.405	-200.000	-0.009	0.141
-482.391	800.000	-0.085	0.272
-481.376	536.977	-0.092	0.219
-480.362	126.911	-0.130	0.165
-479.347	-200.000	-0.004	-0.043
-478.332	331.221	-0.108	-0.208
-477.318	-49.151	0.279	-0.133
-476.303	16.670	-0.032	0.025
-475.289	26.263	-0.088	-0.073
-474.274	256.328	0.105	0.180
-473.259	-200.000	0.041	-0.475
-472.245	-200.000	-0.003	-0.309
-471.230	367.914	-0.158	-0.319
-470.216	-195.081	0.274	-0.002
-469.201	-41.006	-0.236	-0.122
-468.186	800.000	0.119	-0.374
-467.172	744.476	0.033	0.087
-466.157	-45.573	0.073	-0.036
-465.143	-200.000	0.004	0.109
-464.128	209.468	-0.139	-0.218
-463.113	800.000	-0.087	0.348
-462.099	204.802	0.138	-0.214
-461.084	800.000	-0.038	0.109
-460.070	800.000	0.080	0.293
-459.055	-165.072	0.187	0.008
-458.040	21.515	0.111	-0.090
-457.026	-10.644	0.262	-0.173
-456.011	-50.143	-0.234	-0.110
-454.997	151.099	0.244	-0.331
-453.982	112.988	0.142	0.172
-452.968	136.166	-0.011	-0.014
-451.953	18.147	0.186	-0.148
-450.938	-97.297	-0.156	0.041
-449.924	-155.043	-0.240	-0.016
-448.909	495.523	-0.083	0.191
-447.895	536.060	-0.088	-0.209
-446.880	541.111	0.116	0.275
-445.865	-192.302	-0.251	0.002
-444.851	499.151	-0.083	0.192
-443.836	191.204	0.142	0.213
-442.822	-94.607	0.053	0.014
-441.807	-200.000	-0.099	-0.457
-440.792	288.444	-0.090	0.163
-439.778	-200.000	0.026	0.207
-438.763	-120.193	0.079	-0.014
-437.749	-10.370	0.291	-0.193
-436.734	-50.840	-0.317	-0.149
-435.719	-200.000	-0.051	-0.328
-434.705	-134.464	0.175	-0.021
-433.690	198.879	0.166	0.253
-432.676	516.383	0.149	0.347
-431.661	-94.215	0.354	0.097
-430.646	-41.544	-0.089	-0.045
-429.632	-18.503	-0.172	0.107
-428.617	200.539	0.151	0.231
-427.603	-47.717	-0.213	-0.103
-426.588	-200.000	-0.019	-0.124
-425.573	-46.944	0.188	0.092
-424.559	-19.850	0.171	-0.105
-423.544	141.821	0.236	0.311
-422.530	516.028	0.074	-0.172
-421.515	-107.787	0.199	0.043
-420.500	235.400	-0.192	0.317
-419.486	11.735	0.232	0.177
-418.471	-154.147	-0.345	-0.023
-417.457	-175.390	-0.310	0.008
-416.442	-21.620	-0.165	-0.100
-415.428	-200.000	0.003	0.037
-414.413	171.742	-0.174	0.249
-413.398	-105.580	0.184	-0.042
-412.384	162.638	-0.233	0.326
-411.369	-200.000	0.048	-0.246
-410.355	549.138	0.136	0.324
-409.340	-101.540	-0.501	0.121
-408.325	19.892	0.062	0.050
-407.311	15.859	-0.197	-0.154
-406.296	-200.000	0.035	-0.335
-405.282	-200.000	0.043	0.257
-404.267	800.000	0.081	-0.268
-403.252	-3.901	-0.081	-0.056
-402.238	-136.230	-0.210	0.024
-401.223	333.292	0.162	-0.312
-400.209	409.016	0.099	-0.209
-399.194	45.911	0.284	-0.262
-398.179	-117.911	0.203	-0.036
-397.165	-26.952	0.291	0.169
-396.150	-152.396	-0.211	0.015
-395.136	800.000	0.025	0.083
-394.121	106.564	-0.062	0.073
-393.106	-200.000	0.036	0.183
-392.092	-48.254	0.133	0.064
-391.077	-30.606	-0.221	0.125
-390.063	130.455	0.178	-0.228
-389.048	700.422	-0.065	0.169
-388.033	-200.000	0.027	-0.156
-387.019	-200.000	-0.024	-0.224
-386.004	-200.000	-0.047	-0.348
-384.990	26.588	-0.217	0.181
-383.975	-15.703	0.200	0.127
-382.960	800.000	0.020	0.060
-381.946	291.988	0.131	0.237
-380.931	-200.000	-0.035	0.298
-379.917	-176.612	0.372	-0.010
-378.902	-161.737	0.184	-0.009
-377.888	-50.471	0.259	-0.122
-376.873	-156.369	0.224	-0.014
-375.858	33.903	-0.043	0.037
-374.844	-24.979	0.023	-0.014
-373.829	11.555	0.217	0.166
-372.815	800.000	-0.007	0.032
-371.800	-69.610	-0.399	0.152
-370.785	-85.536	-0.163	0.051
-369.771	54.738	0.170	-0.163
-368.756	696.668	-0.091	0.238
-367.742	53.762	-0.139	0.133
-366.727	-101.788	0.234	0.056
-365.712	-52.157	0.603	-0.278
-364.698	-111.320	0.331	0.067
-363.683	-171.945	0.239	-0.008
-362.669	353.348	-0.005	0.009
-361.654	-143.378	0.175	-0.017
-360.639	-8.023	-0.129	0.087
-359.625	-147.100	0.293	0.025
-358.610	-200.000	-0.002	-0.023
-357.596	-104.362	0.290	0.067
-356.581	78.847	-0.152	-0.162
-355.566	-200.000	0.005	0.295
-354.552	246.994	0.120	0.202
-353.537	-30.746	-0.108	0.061
-352.523	-200.000	0.000	0.010
-351.508	800.000	-0.055	-0.225
-350.493	-1.066	-0.247	0.174
-349.479	800.000	-0.003	-0.011
-348.464	-160.392	-0.119	-0.006
-347.450	391.106	0.111	0.230
-346.435	-54.945	0.292	-0.131
-345.420	800.000	-0.081	0.227
-344.406	-85.078	0.049	0.015
-343.391	10.518	-0.415	0.314
-342.377	-200.000	-0.005	-0.128
-341.362	-49.306	0.305	0.145
-340.348	-200.000	-0.034	-0.357
-339.333	-168.572	0.290	-0.011
-338.318	-193.150	-0.538	0.005
-337.304	-97.683	0.063	0.016
-336.289	734.217	-0.101	0.270
-335.275	7.904	0.205	0.153
-334.260	-200.000	-0.022	0.204
-333.245	-71.383	-0.103	0.038
-332.231	-200.000	-0.003	-0.040
-331.216	106.518	-0.159	0.188
-330.202	646.726	0.087	-0.220
-329.187	177.964	0.112	-0.162
-328.172	-200.000	-0.006	-0.065
-327.158	52.076	0.197	-0.186
-326.143	-174.470	0.276	0.008
-325.129	800.000	-0.064	0.187
-324.114	143.960	-0.058	0.077
-323.099	-99.846	-0.321	0.080
-322.085	-24.776	0.176	-0.104
-321.070	97.393	-0.026	-0.029
-320.056	265.744	-0.033	-0.057
-319.041	-88.781	-0.201	0.059
-318.026	800.000	0.069	0.269
-317.012	-176.497	0.364	0.009
-315.997	451.412	0.191	-0.419
-314.983	271.796	0.153	0.268
-313.968	197.868	0.147	-0.223
-312.953	79.227	-0.042	0.045
-311.939	59.297	0.044	0.043
-310.924	85.460	-0.280	-0.306
-309.910	-200.000	-0.042	0.000
-308.895	-200.000	0.000	0.056
-307.880	800.000	0.091	0.277
-306.866	-57.672	-0.193	-0.084
-305.851	167.811	-0.201	-0.284
-304.837	110.400	-0.181	0.216
-303.822	373.353	0.031	0.062
-302.807	-200.000	0.053	-0.251
-301.793	-130.323	0.397	0.054
-300.778	-166.570	-0.316	-0.013
-299.764	-90.911	0.115	-0.033
-298.749	-90.320	0.010	-0.003
-297.735	-69.900	0.172	0.065
-296.720	74.244	-0.235	-0.244
-295.705	201.931	0.144	-0.221
-294.691	-120.397	-0.439	-0.074
-293.676	-200.000	0.024	0.392
-292.662	165.998	0.038	-0.054
-291.647	-118.584	-0.127	0.022
-290.632	630.762	0.025	-0.062
-289.618	-200.000	0.376	0.002
-288.603	-9.541	-0.052	-0.034
-287.589	-200.000	-0.012	-0.320
-286.574	-67.460	0.284	0.111
-285.559	-200.000	0.002	0.069
-284.545	-109.972	-0.276	0.057
-283.530	101.505	-0.069	-0.080
-282.516	-200.000	0.034	-0.282
-281.501	-167.578	-0.421	-0.017
-280.486	800.000	0.049	0.152
-279.472	31.813	-0.214	0.183
-278.457	-200.000	-0.023	0.123
-277.443	7.211	-0.225	0.166
-276.428	614.290	-0.083	-0.206
-275.413	-111.533	-0.322	-0.065
-274.399	-79.255	0.223	-0.075
-273.384	137.582	-0.028	-0.037
-272.370	-124.211	-0.065	0.010
-271.355	800.000	-0.063	0.210
-270.340	281.501	0.087	0.155
-269.326	-141.616	-0.162	0.016
-268.311	88.219	0.040	0.044
-267.297	-15.397	0.289	-0.183
-266.282	-32.900	0.216	-0.119
-265.267	96.406	0.075	-0.085
-264.253	55.267	-0.045	-0.043
-263.238	-120.386	-0.074	-0.012
-262.224	4.465	-0.040	-0.029
-261.209	-58.046	-0.111	-0.048
-260.195	-200.000	0.008	0.226
-259.180	463.184	-0.044	0.098
-258.165	800.000	-0.107	0.341
-257.151	30.237	0.122	-0.103
-256.136	-64.145	-0.035	-0.014
-255.122	-200.000	-0.015	-0.199
-254.107	520.815	0.084	-0.196
-253.092	-175.650	-0.250	-0.007
-252.078	-6.177	-0.364	-0.246
-251.063	800.000	-0.068	0.246
-250.049	139.938	-0.150	0.196
-249.034	800.000	-0.054	0.196
-248.019	291.719	-0.180	-0.325
-247.005	-26.264	0.127	0.074
-245.990	164.727	-0.098	-0.137
-244.976	-101.505	0.079	-0.019
-243.961	800.000	-0.039	-0.122
-242.946	155.716	0.129	-0.176
-241.932	-200.000	0.022	-0.111
-240.917	251.299	0.135	0.228
-239.903	-179.355	-0.339	0.007
-238.888	125.610	-0.144	-0.180
-237.873	800.000	-0.061	-0.240
-236.859	28.172	0.203	0.170
-235.844	-200.000	0.011	0.135
-234.830	-200.000	-0.008	0.111
-233.815	800.000	0.067	0.261
-232.800	642.830	-0.093	0.234
-231.786	-5.853	-0.127	-0.086
-230.771	137.536	0.130	0.168
-229.757	-24.283	0.207	0.122
-228.742	542.641	0.077	-0.182
-227.727	-76.419	0.206	-0.072
-226.713	775.151	0.117	0.315
-225.698	420.090	0.052	0.110
-224.684	-105.746	0.150	-0.034
-223.669	-9.596	-0.158	0.104
-222.655	-43.202	-0.058	-0.029
-221.640	-200.000	-0.019	-0.286
-220.625	140.488	-0.122	0.159
-219.611	-200.000	-0.010	0.316
-218.596	-30.353	0.282	-0.158
-217.582	90.084	0.197	-0.218
-216.567	-21.279	-0.301	0.182
-215.552	-200.000	-0.029	0.132
-214.538	-91.000	0.225	-0.064
-213.523	-168.833	-0.044	0.002
-212.509	-55.891	0.252	-0.111
-211.494	346.158	0.158	0.307
-210.479	800.000	0.110	-0.410
-209.465	-200.000	-0.023	0.284
-208.450	310.236	0.117	-0.217
-207.436	-38.372	0.216	0.113
-206.421	53.586	0.120	-0.114
-205.406	694.159	0.060	-0.155
-204.392	44.789	0.096	-0.087
-203.377	800.000	0.081	0.247
-202.363	121.356	-0.278	-0.343
-201.348	-122.922	-0.037	0.006
-200.333	98.282	0.314	0.358
-199.319	-200.000	-0.033	0.297
-198.304	-71.605	-0.078	0.029
-197.290	-200.000	-0.015	-0.333
-196.275	754.537	0.045	-0.119
-195.260	-49.333	-0.098	-0.046
-194.246	108.643	-0.117	-0.139
-193.231	-29.264	0.198	-0.112
-192.217	-114.969	0.230	0.043
-191.202	376.180	0.155	-0.313
-190.187	-200.000	0.009	-0.082
-189.173	800.000	-0.070	-0.211
-188.158	20.717	-0.061	-0.049
-187.144	528.403	0.092	0.215
-186.129	35.053	0.131	0.114
-185.114	-200.000	0.002	0.262
-184.100	-40.981	0.207	0.105
-183.085	-200.000	0.004	0.151
-182.071	-164.362	-0.128	-0.006
-181.056	-134.571	0.235	0.028
-180.042	473.920	0.083	0.184
-179.027	-48.058	-0.235	0.112
-178.012	-200.000	0.055	0.248
-176.998	146.610	-0.234	-0.311
-175.983	556.088	-0.042	0.100
-174.969	767.304	-0.148	0.397
-173.954	269.372	-0.143	-0.247
-172.939	196.786	0.087	-0.131
-171.925	-10.631	-0.043	-0.028
-170.910	17.341	-0.219	-0.171
-169.896	800.000	-0.114	0.317
-168.881	-49.208	0.131	-0.062
-167.866	200.289	-0.085	0.129
-166.852	-169.026	-0.229	0.008
-165.837	-200.000	0.015	0.163
-164.823	-60.722	-0.102	0.043
-163.808	42.215	-0.170	0.152
-162.793	-72.283	0.231	0.084
-161.779	-81.805	-0.165	0.053
-160.764	59.657	-0.172	-0.167
-159.750	-72.670	0.221	-0.081
-158.735	-149.407	-0.174	0.014
-157.720	-65.555	0.329	0.130
-156.706	-22.879	0.117	0.070
-155.691	415.083	-0.146	-0.306
-154.677	-42.698	0.195	-0.098
-153.662	-200.000	-0.038	0.466
-152.647	32.195	0.299	0.254
-151.633	333.906	0.072	-0.137
-150.618	-50.026	-0.240	0.112
-149.604	-129.560	0.413	0.056
-148.589	-52.960	-0.331	0.150
-147.574	-105.541	-0.162	-0.036
-146.560	-191.924	0.233	-0.002
-145.545	136.796	0.240	0.309
-144.531	-87.953	0.250	0.074
-143.516	82.264	-0.191	-0.204
-142.502	-111.421	0.293	-0.059
-141.487	-200.000	0.048	-0.421
-140.472	198.213	-0.071	0.108
-139.458	-121.692	0.189	0.031
-138.443	9.052	0.108	-0.080
-137.429	-200.000	0.074	-0.359
-136.414	-200.000	0.018	0.092
-135.399	-200.000	0.021	-0.240
-134.385	800.000	0.073	-0.283
-133.370	-30.170	0.030	0.017
-132.356	-72.417	0.203	-0.074
-131.341	-6.308	-0.120	-0.081
-130.326	162.519	0.088	0.121
-129.312	315.080	-0.089	-0.166
-128.297	-15.698	0.085	-0.054
-127.283	138.237	0.100	-0.129
-126.268	-141.150	-0.352	0.035
-125.253	-67.494	-0.058	0.022
-124.239	149.606	-0.148	-0.198
-123.224	-25.843	-0.142	-0.082
-122.210	-200.000	-0.015	0.091
