DTS Sentinel unit serial number:	SN413079Multiplexer serial number:	ORYXHardware model number:	OX4-SRSoftware version number:	ORYX F/W v4.00 Oryx Data Collector v3.7.2.0data status	okinstallation	princeton_trtdifferential loss correction	single-endedforward channel	channel 3reverse channel	N/Adate	2019/09/12time	06:18:11forward acquisition time	60.00reverse acquisition time	0.00gamma	496.2192k internal	0.2319k external	0.2319temperature offset calibration	1.0036default loss term (dB/km)	0.3790temperature slope calibration	1.0000multiplexer offset coefficient	1.0000multiplexer slope coefficient	1.0000fibre end	0.00T internal ref (°C)	32.12T ext. ref 1 (°C)	1.57T ext. ref 2 (°C)	27.42length (m)	temperature (°C)	Stokes	anti-Stokes-747.200	283.460	-0.013	-0.024
-746.185	-9.717	0.137	-0.093
-745.171	-200.000	0.003	0.173
-744.156	-160.513	-0.237	0.013
-743.142	-137.581	0.076	-0.009
-742.127	-124.577	0.384	0.060
-741.112	-200.000	-0.051	0.415
-740.098	800.000	-0.023	-0.068
-739.083	216.914	-0.109	0.176
-738.069	91.543	-0.051	-0.058
-737.054	118.127	-0.103	-0.129
-736.039	800.000	-0.117	-0.416
-735.025	416.846	0.028	-0.059
-734.010	-200.000	0.027	-0.229
-732.996	-200.000	-0.009	-0.070
-731.981	66.854	0.042	0.043
-730.966	-29.275	0.361	-0.209
-729.952	104.145	-0.230	-0.274
-728.937	-67.058	-0.181	-0.072
-727.923	-104.442	-0.129	-0.030
-726.908	-200.000	-0.020	-0.238
-725.894	-200.000	0.035	-0.197
-724.879	-200.000	-0.022	0.292
-723.864	-200.000	-0.014	0.070
-722.850	174.534	0.038	-0.056
-721.835	-200.000	-0.003	-0.543
-720.821	800.000	0.083	-0.295
-719.806	-200.000	-0.054	-0.555
-718.791	-0.114	0.027	0.019
-717.777	287.320	-0.158	-0.288
-716.762	-200.000	0.009	-0.149
-715.748	800.000	-0.117	-0.434
-714.733	615.337	-0.065	-0.165
-713.718	62.982	-0.074	-0.074
-712.704	9.447	0.197	-0.151
-711.689	-37.082	0.074	0.040
-710.675	-133.288	0.008	0.001
-709.660	-45.422	0.121	-0.061
-708.645	-113.742	0.138	0.027
-707.631	-48.183	0.301	0.147
-706.616	-118.367	-0.205	0.037
-705.602	-200.000	-0.031	0.174
-704.587	-200.000	0.058	-0.299
-703.572	-7.826	-0.039	0.027
-702.558	448.294	-0.111	0.247
-701.543	-106.986	-0.297	0.066
-700.529	16.373	0.219	0.174
-699.514	-200.000	-0.039	-0.330
-698.499	-91.438	-0.287	-0.083
-697.485	-145.471	-0.241	-0.022
-696.470	219.815	0.099	-0.161
-695.456	-200.000	-0.008	-0.052
-694.441	175.704	-0.071	0.104
-693.426	800.000	0.055	-0.225
-692.412	-126.377	-0.068	-0.010
-691.397	438.080	-0.139	0.305
-690.383	800.000	0.011	0.036
-689.368	-93.900	-0.057	0.016
-688.354	101.992	-0.153	0.181
-687.339	44.395	-0.298	-0.277
-686.324	-200.000	-0.045	0.217
-685.310	500.397	-0.085	-0.197
-684.295	-61.637	-0.010	0.004
-683.281	-200.000	-0.115	-0.527
-682.266	9.527	0.177	0.135
-681.251	14.026	-0.272	-0.214
-680.237	59.338	0.341	0.339
-679.222	147.877	-0.275	-0.374
-678.208	-20.226	-0.279	-0.173
-677.193	-139.908	-0.194	0.021
-676.178	186.531	-0.107	0.161
-675.164	125.498	0.148	-0.188
-674.149	-158.414	0.159	0.009
-673.135	800.000	0.100	-0.373
-672.120	-118.046	0.187	-0.034
-671.105	800.000	0.006	-0.020
-670.091	2.057	-0.180	-0.131
-669.076	-200.000	0.008	0.075
-668.062	-28.933	0.416	0.241
-667.047	-154.446	-0.274	-0.018
-666.032	-200.000	-0.017	-0.078
-665.018	-200.000	-0.029	-0.231
-664.003	-200.000	-0.021	0.217
-662.989	59.470	0.258	0.256
-661.974	160.984	-0.078	-0.110
-660.959	-200.000	0.052	0.455
-659.945	-200.000	0.039	-0.316
-658.930	97.750	-0.098	0.114
-657.916	-84.095	-0.342	0.109
-656.901	72.074	-0.138	-0.144
-655.886	-121.971	0.148	0.025
-654.872	-24.311	-0.159	0.095
-653.857	-86.587	0.279	-0.086
-652.843	-200.000	0.005	0.154
-651.828	-144.373	-0.232	-0.022
-650.814	-200.000	0.007	0.113
-649.799	-200.000	-0.008	-0.108
-648.784	-120.192	-0.147	0.025
-647.770	-58.367	-0.201	-0.088
-646.755	-65.428	0.352	0.142
-645.741	124.825	-0.170	0.216
-644.726	240.749	-0.014	0.023
-643.711	148.683	0.071	-0.096
-642.697	526.247	0.098	-0.234
-641.682	-21.178	0.093	0.057
-640.668	-200.000	0.045	0.583
-639.653	25.483	-0.034	-0.028
-638.638	-115.055	0.155	0.030
-637.624	112.430	-0.075	-0.092
-636.609	36.263	0.212	-0.188
-635.595	265.035	0.061	0.107
-634.580	800.000	0.038	0.139
-633.565	-200.000	-0.010	0.165
-632.551	-200.000	-0.021	0.145
-631.536	153.267	-0.136	-0.188
-630.522	21.599	-0.070	0.057
-629.507	-162.293	-0.070	0.003
-628.492	-120.792	0.198	0.034
-627.478	-71.744	-0.149	-0.056
-626.463	-88.336	0.012	-0.004
-625.449	133.243	-0.091	0.118
-624.434	240.805	0.041	-0.070
-623.419	-167.407	0.508	0.021
-622.405	800.000	0.087	-0.366
-621.390	-80.642	0.052	-0.018
-620.376	-72.619	-0.197	0.073
-619.361	800.000	-0.065	0.212
-618.346	386.156	0.039	0.080
-617.332	-200.000	-0.013	0.100
-616.317	37.268	0.167	0.148
-615.303	477.116	0.082	0.186
-614.288	194.909	0.106	-0.162
-613.273	-58.247	0.050	-0.022
-612.259	-200.000	0.040	-0.525
-611.244	800.000	0.042	-0.156
-610.230	-23.609	-0.112	-0.068
-609.215	583.288	0.149	0.368
-608.201	17.203	0.134	0.107
-607.186	-111.267	0.363	-0.075
-606.171	10.270	0.108	-0.082
-605.157	20.952	-0.270	-0.220
-604.142	96.974	0.128	-0.148
-603.128	-200.000	0.023	0.419
-602.113	8.333	-0.087	0.066
-601.098	-200.000	-0.013	-0.265
-600.084	-60.583	-0.269	-0.115
-599.069	259.713	-0.165	-0.287
-598.055	-200.000	0.024	-0.246
-597.040	-50.464	-0.133	-0.063
-596.025	-20.814	-0.277	-0.171
-595.011	292.841	-0.201	-0.369
-593.996	794.789	-0.132	0.367
-592.982	-200.000	-0.163	-0.001
-591.967	800.000	-0.008	0.023
-590.952	-139.400	0.274	-0.030
-589.938	-105.394	0.119	-0.027
-588.923	800.000	-0.053	-0.151
-587.909	800.000	-0.062	0.203
-586.894	-200.000	-0.001	-0.158
-585.879	161.911	-0.178	-0.251
-584.865	124.917	-0.082	0.104
-583.850	-107.515	-0.187	0.041
-582.836	-2.775	0.111	-0.078
-581.821	-79.280	-0.143	0.049
-580.806	-19.453	-0.332	0.207
-579.792	800.000	-0.078	-0.238
-578.777	62.082	-0.212	0.212
-577.763	-200.000	-0.073	-0.425
-576.748	-93.478	0.217	0.060
-575.733	-100.090	0.087	-0.022
-574.719	-87.023	-0.185	0.057
-573.704	-10.956	0.105	-0.070
-572.690	-85.345	-0.246	0.077
-571.675	-200.000	0.058	0.406
-570.661	93.194	-0.071	0.081
-569.646	-200.000	0.002	0.131
-568.631	417.106	0.042	-0.091
-567.617	-71.152	0.154	-0.058
-566.602	128.982	-0.123	-0.158
-565.588	-112.170	-0.208	-0.042
-564.573	85.523	-0.086	0.095
-563.558	81.606	0.042	-0.046
-562.544	156.475	0.061	0.085
-561.529	-200.000	-0.027	-0.243
-560.515	33.591	0.196	0.171
-559.500	-73.342	-0.089	0.033
-558.485	-50.936	-0.263	-0.124
-557.471	46.199	0.135	-0.125
-556.456	-13.052	0.070	0.045
-555.442	-30.681	-0.296	-0.168
-554.427	-7.066	-0.138	-0.094
-553.412	139.207	0.170	-0.224
-552.398	-108.741	-0.009	-0.002
-551.383	255.228	-0.114	0.195
-550.369	219.551	-0.045	0.072
-549.354	-200.000	-0.012	0.076
-548.339	-174.711	0.128	0.004
-547.325	-61.667	0.258	0.109
-546.310	-200.000	-0.009	0.058
-545.296	624.228	-0.081	-0.204
-544.281	-200.000	0.018	-0.146
-543.266	-28.457	0.287	-0.166
-542.252	-137.702	-0.177	0.020
-541.237	232.083	-0.210	-0.346
-540.223	-64.300	0.369	0.151
-539.208	28.160	0.287	-0.243
-538.193	-101.304	0.094	-0.023
-537.179	166.817	0.167	-0.237
-536.164	-53.280	0.163	-0.075
-535.150	-200.000	-0.027	0.171
-534.135	98.302	0.052	-0.060
-533.121	-200.000	-0.040	-0.194
-532.106	-67.911	-0.305	0.119
-531.091	6.486	-0.308	-0.230
-530.077	800.000	-0.020	-0.063
-529.062	-55.697	-0.040	-0.018
-528.048	-29.075	0.217	0.125
-527.033	1.800	0.314	-0.227
-526.018	-200.000	-0.003	0.194
-525.004	162.749	0.130	-0.183
-523.989	-62.663	0.216	0.090
-522.975	-200.000	-0.025	0.200
-521.960	26.499	-0.343	-0.288
-520.945	-200.000	-0.002	0.274
-519.931	376.260	-0.104	-0.213
-518.916	-129.343	0.215	-0.030
-517.902	-200.000	-0.054	-0.000
-516.887	380.555	0.036	-0.074
-515.872	-200.000	0.004	-0.227
-514.858	213.643	-0.121	-0.192
-513.843	-130.702	-0.128	0.017
-512.829	-47.451	0.127	-0.062
-511.814	800.000	-0.017	-0.058
-510.799	380.813	-0.122	0.251
-509.785	629.330	0.068	-0.172
-508.770	46.831	-0.182	-0.170
-507.756	19.802	0.270	-0.218
-506.741	534.958	0.094	-0.224
-505.726	-169.978	0.234	0.008
-504.712	-75.003	0.230	-0.083
-503.697	800.000	0.068	0.228
-502.683	317.926	0.105	-0.199
-501.668	-154.131	-0.307	0.021
-500.653	-159.579	0.095	-0.005
-499.639	399.587	0.075	-0.158
-498.624	-200.000	0.002	0.159
-497.610	-200.000	0.012	0.494
-496.595	-110.609	0.307	-0.064
-495.581	247.931	-0.191	-0.323
-494.566	588.731	-0.071	-0.174
-493.551	712.781	0.018	-0.048
-492.537	-3.838	-0.275	0.191
-491.522	-75.954	0.293	-0.104
-490.508	-85.403	-0.218	0.068
-489.493	-200.000	-0.006	0.153
-488.478	-83.172	0.149	0.048
-487.464	-47.339	-0.090	0.044
-486.449	-0.365	-0.226	-0.161
-485.435	-200.000	-0.022	-0.291
-484.420	-21.924	-0.221	-0.134
-483.405	-200.000	-0.021	-0.129
-482.391	650.539	-0.097	-0.249
-481.376	1.829	0.021	-0.015
-480.362	800.000	0.042	-0.154
-479.347	178.770	-0.051	0.074
-478.332	407.742	0.136	-0.288
-477.318	-79.067	-0.209	-0.071
-476.303	-4.187	0.222	-0.154
-475.289	-100.166	0.406	-0.101
-474.274	-137.017	0.212	-0.024
-473.259	154.518	-0.075	-0.103
-472.245	45.475	-0.195	-0.181
-471.230	85.090	-0.158	-0.174
-470.216	-97.984	-0.193	-0.050
-469.201	323.992	0.075	0.143
-468.186	-68.957	0.191	0.074
-467.172	44.804	0.148	0.136
-466.157	-200.000	0.014	-0.217
-465.143	40.823	-0.268	0.242
-464.128	-38.765	-0.146	0.077
-463.113	242.013	0.021	-0.035
-462.099	100.135	0.270	-0.313
-461.084	350.768	0.179	-0.353
-460.070	-146.619	0.242	-0.021
-459.055	13.317	-0.289	-0.224
-458.040	-4.806	-0.404	-0.279
-457.026	-200.000	0.015	0.158
-456.011	697.984	-0.017	0.045
-454.997	120.568	0.157	0.195
-453.982	-64.980	0.202	0.082
-452.968	54.175	-0.232	-0.223
-451.953	-200.000	0.082	0.462
-450.938	-36.340	0.142	0.076
-449.924	-200.000	0.012	0.399
-448.909	-144.871	-0.156	-0.014
-447.895	-38.288	-0.249	-0.132
-446.880	-200.000	-0.002	0.357
-445.865	275.071	0.210	-0.371
-444.851	-133.964	0.088	-0.011
-443.836	800.000	-0.100	-0.397
-442.822	-170.594	-0.353	0.012
-441.807	512.004	0.065	-0.152
-440.792	-200.000	-0.011	-0.048
-439.778	511.396	0.061	0.141
-438.763	-200.000	-0.054	-0.398
-437.749	-165.161	-0.542	-0.024
-436.734	-200.000	-0.002	0.080
-435.719	800.000	-0.115	0.346
-434.705	139.816	0.046	0.060
-433.690	190.786	-0.131	-0.196
-432.676	223.621	0.104	-0.168
-431.661	355.303	0.057	0.114
-430.646	-200.000	0.018	-0.237
-429.632	-200.000	-0.018	0.216
-428.617	-200.000	0.080	-0.437
-427.603	258.109	0.157	-0.270
-426.588	39.428	0.217	0.194
-425.573	-48.991	0.101	0.048
-424.559	-73.578	0.185	-0.068
-423.544	-200.000	0.012	0.124
-422.530	-92.715	-0.241	0.068
-421.515	18.717	-0.209	0.167
-420.500	88.028	-0.066	0.073
-419.486	-49.961	0.273	-0.129
-418.471	800.000	-0.068	0.266
-417.457	394.705	-0.099	0.206
-416.442	-15.621	-0.063	-0.040
-415.428	267.966	-0.105	-0.183
-414.413	617.744	0.072	0.180
-413.398	-2.762	0.080	0.056
-412.384	181.356	0.109	0.160
-411.369	800.000	-0.029	-0.122
-410.355	335.878	-0.071	0.138
-409.340	44.046	0.240	-0.220
-408.325	137.622	-0.165	0.216
-407.311	4.355	-0.249	-0.182
-406.296	800.000	0.096	-0.282
-405.282	64.564	-0.244	0.246
-404.267	-200.000	0.024	0.156
-403.252	-200.000	-0.028	0.141
-402.238	316.836	0.116	-0.220
-401.223	258.175	0.082	-0.141
-400.209	501.919	0.164	0.377
-399.194	-21.564	0.297	0.181
-398.179	83.959	-0.124	0.135
-397.165	155.344	0.150	-0.205
-396.150	-129.813	-0.146	-0.020
-395.136	-200.000	-0.005	0.070
-394.121	-200.000	-0.058	0.287
-393.106	-5.787	0.286	-0.195
-392.092	461.911	-0.176	0.392
-391.077	-37.469	0.054	0.029
-390.063	-200.000	-0.023	-0.260
-389.048	-19.495	0.136	-0.084
-388.033	61.729	0.086	0.085
-387.019	139.142	0.187	-0.246
-386.004	800.000	-0.045	-0.172
-384.990	-17.822	-0.143	-0.089
-383.975	98.630	0.303	-0.348
-382.960	-165.616	-0.265	0.011
-381.946	392.578	-0.116	0.241
-380.931	-92.896	-0.250	0.070
-379.917	231.840	0.209	-0.341
-378.902	33.853	-0.414	-0.360
-377.888	-18.092	0.065	-0.041
-376.873	197.469	-0.125	-0.191
-375.858	385.982	0.178	-0.367
-374.844	12.176	0.094	0.072
-373.829	-69.307	0.377	0.144
-372.815	800.000	0.058	0.237
-371.800	-136.749	0.063	-0.007
-370.785	16.916	-0.239	0.189
-369.771	497.545	-0.062	-0.142
-368.756	-97.315	0.058	0.015
-367.742	-200.000	0.030	-0.214
-366.727	109.297	-0.301	-0.360
-365.712	-200.000	0.015	0.069
-364.698	-69.987	-0.355	-0.135
-363.683	301.810	0.092	0.169
-362.669	-200.000	-0.019	-0.100
-361.654	800.000	-0.065	0.188
-360.639	-200.000	0.006	0.149
-359.625	-2.417	-0.266	-0.186
-358.610	23.827	-0.184	0.151
-357.596	800.000	0.105	-0.345
-356.581	661.073	0.055	0.142
-355.566	-200.000	0.144	0.000
-354.552	-199.887	-0.169	-0.001
-353.537	327.489	-0.118	0.226
-352.523	73.206	0.094	0.097
-351.508	800.000	-0.046	0.181
-350.493	-200.000	0.034	-0.202
-349.479	-12.462	0.127	-0.083
-348.464	-128.648	0.073	-0.010
-347.450	207.757	0.041	0.064
-346.435	-86.405	0.042	0.013
-345.420	-90.054	0.027	0.008
-344.406	-200.000	0.017	0.239
-343.391	21.993	0.362	-0.294
-342.377	-82.772	0.234	-0.075
-341.362	-78.084	0.235	-0.081
-340.348	-97.899	-0.172	-0.044
-339.333	-152.900	-0.355	-0.025
-338.318	-123.607	-0.268	0.042
-337.304	-98.752	-0.262	0.067
-336.289	800.000	-0.176	-0.538
-335.275	-17.181	-0.230	0.144
-334.260	-95.348	-0.297	0.079
-333.245	-200.000	-0.025	0.136
-332.231	-175.417	-0.331	-0.009
-331.216	110.370	-0.071	0.085
-330.202	-63.077	-0.348	0.143
-329.187	800.000	-0.086	0.277
-328.172	-200.000	-0.001	0.114
-327.158	603.113	-0.117	-0.290
-326.143	-200.000	-0.036	0.273
-325.129	567.661	0.082	0.198
-324.114	200.452	0.047	0.073
-323.099	-51.078	-0.174	0.081
-322.085	29.471	-0.189	0.160
-321.070	180.610	-0.085	-0.125
-320.056	-71.910	0.229	0.085
-319.041	-200.000	0.082	-0.360
-318.026	128.551	-0.100	-0.127
-317.012	-200.000	0.025	-0.200
-315.997	-200.000	-0.002	0.046
-314.983	87.239	0.108	0.119
-313.968	224.005	-0.273	0.439
-312.953	-78.485	-0.060	-0.021
-311.939	353.839	0.099	0.195
-310.924	197.850	0.214	-0.326
-309.910	-54.578	0.229	0.103
-308.895	129.066	0.102	0.129
-307.880	-200.000	0.039	0.246
-306.866	-76.241	-0.186	-0.065
-305.851	19.902	-0.129	-0.103
-304.837	596.957	0.054	-0.132
-303.822	-200.000	0.041	0.182
-302.807	-138.349	0.212	0.023
-301.793	61.107	0.284	0.280
-300.778	118.989	-0.223	0.274
-299.764	66.589	0.126	0.128
-298.749	-97.458	0.130	0.034
-297.735	549.753	-0.041	0.097
-296.720	503.329	0.029	-0.067
-295.705	-56.790	0.225	-0.099
-294.691	19.289	0.281	0.224
-293.676	-200.000	-0.007	0.309
-292.662	77.455	0.152	0.161
-291.647	-99.480	-0.211	0.053
-290.632	-166.564	-0.209	-0.009
-289.618	-200.000	0.035	0.260
-288.603	-200.000	-0.006	0.306
-287.589	-33.170	-0.306	0.168
-286.574	-3.330	-0.243	0.168
-285.559	113.776	0.139	0.168
-284.545	664.481	0.045	-0.116
-283.530	-91.464	0.380	0.108
-282.516	-200.000	0.000	-0.215
-281.501	-18.777	-0.094	-0.058
-280.486	-1.730	-0.142	0.099
-279.472	-152.150	0.279	-0.020
-278.457	114.783	0.220	-0.266
-277.443	-85.295	0.323	-0.100
-276.428	-200.000	0.051	-0.339
-275.413	800.000	0.056	-0.233
-274.399	663.316	0.061	0.156
-273.384	627.357	-0.064	0.160
-272.370	-86.404	0.025	-0.008
-271.355	86.717	-0.157	0.172
-270.340	387.207	-0.033	-0.067
-269.326	-50.498	-0.166	-0.078
-268.311	187.035	-0.057	-0.085
-267.297	33.343	0.050	-0.043
-266.282	60.509	-0.333	0.327
-265.267	-69.794	0.198	-0.075
-264.253	131.560	0.175	-0.223
-263.238	-60.534	-0.017	0.007
-262.224	-108.936	0.126	0.027
-261.209	222.346	0.105	0.167
-260.195	85.314	0.287	0.313
-259.180	-96.192	-0.083	-0.022
-258.165	205.363	-0.286	-0.441
-257.151	85.178	0.254	-0.276
-256.136	800.000	0.026	-0.087
-255.122	-152.958	-0.284	0.020
-254.107	-177.464	0.077	0.002
-253.092	-140.912	-0.157	0.016
-252.078	126.845	0.199	0.250
-251.063	115.424	-0.153	0.186
-250.049	140.203	-0.218	-0.285
-249.034	-88.487	0.152	0.045
-248.019	382.463	-0.165	0.336
-247.005	-134.689	-0.403	0.049
-245.990	-200.000	0.036	0.185
-244.976	225.056	-0.060	0.096
-243.961	-57.739	0.383	0.166
-242.946	-200.000	0.136	-0.000
-241.932	-24.712	0.090	-0.053
-240.917	800.000	-0.103	0.360
-239.903	274.639	-0.255	0.447
-238.888	-49.987	0.296	-0.139
-237.873	440.026	-0.253	-0.548
-236.859	250.935	0.099	-0.166
-235.844	371.732	0.146	0.293
-234.830	259.352	-0.075	0.128
-233.815	-31.726	-0.265	-0.148
-232.800	13.058	0.226	0.173
-231.786	800.000	0.107	0.409
-230.771	-200.000	0.013	0.430
-229.757	-87.279	-0.416	0.125
-228.742	800.000	0.067	0.216
-227.727	-21.799	-0.176	-0.106
-226.713	-2.119	0.108	-0.075
-225.698	-200.000	-0.018	-0.096
-224.684	71.356	0.071	-0.073
-223.669	-132.066	-0.304	0.039
-222.655	-200.000	0.003	0.118
-221.640	-200.000	0.045	0.237
-220.625	27.746	0.135	-0.113
-219.611	-67.977	0.305	0.118
-218.596	-200.000	-0.001	0.394
-217.582	-161.032	0.236	0.012
-216.567	90.864	-0.267	0.296
-215.552	-200.000	0.013	-0.190
-214.538	-138.154	-0.273	0.030
-213.523	126.310	-0.347	0.435
-212.509	-200.000	-0.025	-0.132
-211.494	-134.005	-0.103	0.013
-210.479	-7.017	-0.250	-0.168
-209.465	132.016	0.222	0.283
-208.450	-30.559	0.296	-0.166
-207.436	277.375	0.170	0.300
-206.421	123.134	0.098	0.122
-205.406	147.718	-0.120	-0.160
-204.392	-74.316	-0.129	0.046
-203.377	800.000	0.102	0.343
-202.363	-59.461	0.256	-0.109
-201.348	85.507	0.292	-0.318
-200.333	34.936	-0.155	-0.134
-199.319	800.000	0.109	-0.337
-198.304	-64.128	-0.261	0.105
-197.290	118.184	0.097	-0.119
-196.275	-200.000	-0.014	0.088
-195.260	96.417	-0.098	0.111
-194.246	394.885	0.085	-0.176
-193.231	-200.000	0.001	0.257
-192.217	1.168	0.177	0.126
-191.202	-94.635	0.244	-0.066
-190.187	-200.000	-0.051	0.246
-189.173	-200.000	-0.015	-0.374
-188.158	-137.462	-0.079	0.009
-187.144	-200.000	0.043	-0.327
-186.129	-200.000	-0.001	0.066
-185.114	690.459	-0.122	0.316
-184.100	280.246	-0.151	0.267
-183.085	800.000	-0.052	-0.209
-182.071	112.807	-0.073	0.087
-181.056	24.548	0.052	-0.043
-180.042	-29.577	0.188	0.106
-179.027	-109.070	0.185	-0.039
-178.012	-111.013	0.051	-0.010
-176.998	-111.936	0.182	-0.036
-175.983	284.026	-0.126	0.224
-174.969	800.000	-0.052	-0.198
-173.954	317.333	0.108	0.203
-172.939	179.151	-0.122	0.176
-171.925	-13.891	0.277	-0.177
-170.910	-122.245	-0.089	-0.014
-169.896	74.924	0.186	0.194
-168.881	397.797	0.036	-0.073
-167.866	-200.000	0.006	0.155
-166.852	-80.293	-0.223	-0.074
-165.837	-60.503	0.145	-0.061
-164.823	79.382	0.103	0.110
-163.808	-200.000	0.017	-0.104
-162.793	-41.174	0.112	-0.057
-161.779	-80.308	0.229	0.076
-160.764	-81.892	0.102	-0.033
-159.750	-91.992	0.124	0.035
-158.735	-83.037	-0.202	0.064
-157.720	-64.560	-0.213	-0.086
-156.706	578.457	0.106	0.257
-155.691	18.838	-0.172	0.136
-154.677	719.655	-0.037	0.096
-153.662	-67.597	-0.070	-0.027
-152.647	-23.019	0.241	-0.143
-151.633	-163.181	0.438	0.021
-150.618	30.653	0.189	0.160
-149.604	-200.000	0.056	0.305
-148.589	800.000	0.079	0.317
-147.574	-128.149	-0.219	0.031
-146.560	414.782	-0.046	-0.097
-145.545	-200.000	0.018	0.158
-144.531	140.724	-0.183	-0.238
-143.516	360.163	-0.176	0.347
-142.502	27.045	0.272	-0.226
-141.487	-58.092	0.163	0.070
-140.472	267.931	-0.233	-0.403
-139.458	46.421	0.175	0.160
-138.443	-200.000	-0.019	0.087
-137.429	-34.755	0.333	-0.180
-136.414	-20.633	-0.179	0.109
-135.399	209.863	-0.182	0.282
-134.385	800.000	0.032	0.131
-133.370	-74.635	-0.283	-0.101
-132.356	-28.403	0.027	0.016
-131.341	43.780	0.214	0.194
-130.326	43.047	-0.046	0.042
-129.312	96.107	-0.210	-0.236
-128.297	43.993	0.328	0.296
-127.283	800.000	0.073	0.310
-126.268	-200.000	-0.022	0.180
-125.253	-200.000	0.038	-0.362
-124.239	-200.000	-0.034	-0.178
-123.224	-93.039	0.211	-0.058
-122.210	-80.576	-0.118	0.039
-121.195	726.169	0.120	0.316
