DTS Sentinel unit serial number:	SN413079Multiplexer serial number:	ORYXHardware model number:	OX4-SRSoftware version number:	ORYX F/W v4.00 Oryx Data Collector v3.7.2.0data status	okinstallation	princeton_trtdifferential loss correction	single-endedforward channel	channel 3reverse channel	N/Adate	2019/09/19time	10:52:35forward acquisition time	60.00reverse acquisition time	0.00gamma	496.2192k internal	0.2342k external	0.2342temperature offset calibration	0.9984default loss term (dB/km)	0.3790temperature slope calibration	1.0000multiplexer offset coefficient	1.0000multiplexer slope coefficient	1.0000fibre end	0.00T internal ref (°C)	24.75T ext. ref 1 (°C)	0.74T ext. ref 2 (°C)	20.16length (m)	temperature (°C)	Stokes	anti-Stokes-747.200	139.642	0.252	-0.333
-746.185	92.947	0.076	0.086
-745.171	-200.000	0.018	0.095
-744.156	800.000	-0.145	0.555
-743.142	41.734	-0.039	0.036
-742.127	-200.000	-0.003	0.099
-741.112	-200.000	0.024	0.112
-740.098	-90.657	-0.477	-0.138
-739.083	-147.294	0.301	-0.026
-738.069	486.552	0.201	0.458
-737.054	142.805	0.169	0.225
-736.039	-130.568	-0.364	-0.049
-735.025	-70.734	0.272	-0.103
-734.010	-200.000	-0.035	-0.288
-732.996	-137.766	-0.187	0.021
-731.981	98.481	-0.044	0.051
-730.966	155.384	0.231	0.319
-729.952	-92.522	-0.160	-0.045
-728.937	-88.436	-0.261	-0.078
-727.923	-96.475	-0.186	0.049
-726.908	-165.028	0.136	-0.006
-725.894	-200.000	-0.017	0.104
-724.879	20.008	-0.180	0.145
-723.864	800.000	0.021	-0.075
-722.850	-154.657	-0.134	0.009
-721.835	505.170	0.102	-0.237
-720.821	2.609	-0.223	0.162
-719.806	-32.371	0.272	0.152
-718.791	111.165	-0.125	-0.151
-717.777	800.000	0.032	-0.126
-716.762	-44.425	-0.165	0.083
-715.748	280.149	-0.106	-0.190
-714.733	-200.000	0.179	-0.000
-713.718	-23.053	-0.037	-0.022
-712.704	26.345	0.100	-0.084
-711.689	-62.949	0.141	0.058
-710.675	150.842	0.065	-0.089
-709.660	-200.000	-0.028	-0.130
-708.645	101.798	0.162	-0.188
-707.631	158.895	-0.053	-0.074
-706.616	9.055	-0.344	0.260
-705.602	-7.117	0.081	0.055
-704.587	178.142	-0.181	-0.264
-703.572	-187.242	0.313	-0.004
-702.558	-81.308	-0.633	0.209
-701.543	-61.041	0.225	-0.095
-700.529	110.246	0.106	0.128
-699.514	-53.825	-0.372	0.170
-698.499	-83.935	0.576	-0.183
-697.485	436.550	-0.161	0.350
-696.470	-135.888	0.021	-0.002
-695.456	427.815	0.139	0.300
-694.441	-91.381	0.095	0.027
-693.426	12.174	0.224	-0.172
-692.412	-86.310	-0.091	-0.028
-691.397	-200.000	0.031	0.201
-690.383	507.999	-0.103	-0.239
-689.368	-93.903	-0.273	0.075
-688.354	800.000	-0.036	-0.119
-687.339	800.000	0.057	-0.202
-686.324	362.971	-0.156	-0.314
-685.310	-200.000	-0.016	0.130
-684.295	2.909	0.158	0.115
-683.281	-179.922	-0.141	0.003
-682.266	-200.000	-0.013	-0.310
-681.251	-95.591	0.239	-0.064
-680.237	-29.831	0.318	0.181
-679.222	-200.000	-0.027	-0.139
-678.208	208.053	0.072	0.113
-677.193	505.908	0.028	-0.065
-676.178	800.000	0.047	0.148
-675.164	-140.365	-0.203	0.021
-674.149	-107.301	-0.053	-0.012
-673.135	-60.465	-0.323	-0.137
-672.120	-200.000	-0.003	-0.314
-671.105	-200.000	0.081	0.000
-670.091	-200.000	-0.031	0.426
-669.076	800.000	-0.022	-0.076
-668.062	-200.000	-0.065	-0.307
-667.047	3.763	-0.282	-0.206
-666.032	241.909	-0.070	-0.117
-665.018	-140.281	-0.226	0.024
-664.003	-76.136	-0.483	-0.170
-662.989	248.375	-0.173	-0.293
-661.974	147.745	-0.077	0.103
-660.959	800.000	-0.062	-0.182
-659.945	800.000	0.048	-0.199
-658.930	22.894	0.119	-0.097
-657.916	489.361	0.143	-0.327
-656.901	-200.000	-0.013	0.323
-655.886	-200.000	0.012	0.207
-654.872	-115.926	0.078	0.014
-653.857	-16.074	-0.383	-0.243
-652.843	62.822	0.108	-0.108
-651.828	53.475	0.168	-0.161
-650.814	623.097	-0.123	0.309
-649.799	42.608	0.130	-0.118
-648.784	112.475	0.199	-0.240
-647.770	-200.000	0.019	0.094
-646.755	332.644	-0.141	0.272
-645.741	-178.225	-0.096	0.002
-644.726	305.611	0.080	0.148
-643.711	-56.726	0.227	-0.100
-642.697	121.817	0.155	0.193
-641.682	-136.577	-0.252	0.029
-640.668	-114.748	-0.184	0.035
-639.653	800.000	-0.020	-0.083
-638.638	-25.111	0.095	0.056
-637.624	-200.000	-0.039	0.244
-636.609	259.687	0.140	-0.242
-635.595	7.907	-0.142	-0.106
-634.580	800.000	0.040	-0.164
-633.565	57.127	0.272	0.264
-632.551	-200.000	-0.044	-0.399
-631.536	-1.992	0.073	-0.051
-630.522	-200.000	0.017	0.252
-629.507	46.362	-0.173	-0.160
-628.492	74.876	-0.049	-0.051
-627.478	-8.197	-0.178	-0.120
-626.463	800.000	0.009	-0.033
-625.449	-138.747	0.120	-0.013
-624.434	-97.295	-0.390	-0.101
-623.419	-200.000	-0.030	-0.221
-622.405	551.498	0.095	-0.228
-621.390	-46.275	-0.266	0.131
-620.376	-5.317	-0.140	0.096
-619.361	22.814	-0.112	-0.092
-618.346	494.622	0.114	-0.262
-617.332	-166.453	-0.223	-0.009
-616.317	-200.000	-0.013	-0.124
-615.303	-200.000	-0.014	0.221
-614.288	676.779	-0.010	0.027
-613.273	-60.779	0.177	-0.075
-612.259	377.228	0.078	0.159
-611.244	-40.008	0.242	0.126
-610.230	-200.000	-0.018	-0.156
-609.215	-200.000	0.082	-0.376
-608.201	-47.814	-0.342	-0.165
-607.186	-108.095	-0.051	-0.011
-606.171	-87.807	-0.270	-0.081
-605.157	0.586	0.472	0.336
-604.142	800.000	-0.066	-0.251
-603.128	800.000	-0.046	0.128
-602.113	800.000	0.052	0.225
-601.098	800.000	-0.057	0.161
-600.084	-68.989	-0.091	-0.035
-599.069	230.154	-0.147	-0.240
-598.055	-79.391	0.084	-0.028
-597.040	-147.470	-0.130	-0.011
-596.025	-200.000	0.013	0.088
-595.011	-200.000	-0.017	-0.333
-593.996	-200.000	-0.021	-0.103
-592.982	14.825	-0.303	0.236
-591.967	703.338	0.167	-0.437
-590.952	253.340	-0.190	-0.322
-589.938	800.000	0.104	0.352
-588.923	118.842	-0.259	-0.318
-587.909	136.719	0.022	-0.029
-586.894	-200.000	-0.045	0.535
-585.879	92.536	-0.340	0.381
-584.865	-200.000	-0.016	-0.139
-583.850	-43.671	-0.380	-0.191
-582.836	221.914	-0.132	-0.212
-581.821	-200.000	0.002	0.086
-580.806	-200.000	-0.010	-0.220
-579.792	800.000	-0.044	-0.137
-578.777	-20.192	0.106	-0.065
-577.763	-57.343	0.118	-0.052
-576.748	-107.623	-0.244	0.053
-575.733	481.822	0.077	0.174
-574.719	-170.677	-0.163	-0.006
-573.704	800.000	-0.144	-0.514
-572.690	800.000	0.067	-0.202
-571.675	-200.000	-0.004	0.182
-570.661	-150.309	-0.284	-0.022
-569.646	-26.142	0.304	-0.178
-568.631	240.717	0.131	0.217
-567.617	304.883	-0.121	0.223
-566.602	-31.442	0.208	0.116
-565.588	379.490	-0.064	-0.130
-564.573	-1.407	-0.221	-0.155
-563.558	371.526	0.245	-0.495
-562.544	2.238	-0.247	0.178
-561.529	26.040	-0.181	-0.150
-560.515	-200.000	0.012	0.304
-559.500	-200.000	-0.031	-0.181
-558.485	-200.000	0.064	-0.502
-557.471	-98.360	-0.033	-0.008
-556.456	-32.320	-0.454	0.252
-555.442	-101.044	-0.064	0.016
-554.427	-75.045	0.343	-0.122
-553.412	-146.647	-0.052	0.005
-552.398	-107.372	0.092	-0.020
-551.383	277.662	0.037	-0.066
-550.369	-138.167	-0.093	0.010
-549.354	-113.368	-0.227	0.044
-548.339	128.566	0.047	-0.059
-547.325	800.000	-0.036	-0.110
-546.310	800.000	0.062	-0.225
-545.296	-40.322	0.121	-0.063
-544.281	442.540	0.050	-0.108
-543.266	-200.000	-0.056	0.561
-542.252	-79.994	-0.141	-0.047
-541.237	-200.000	0.034	0.452
-540.223	-64.747	-0.175	0.070
-539.208	3.438	-0.025	-0.018
-538.193	14.167	0.041	0.032
-537.179	-200.000	0.004	-0.027
-536.164	-200.000	0.001	-0.071
-535.150	343.281	-0.246	0.478
-534.135	192.846	0.267	-0.401
-533.121	120.765	0.260	-0.321
-532.106	645.514	0.101	0.255
-531.091	-135.242	0.160	-0.019
-530.077	-200.000	-0.041	-0.218
-529.062	-155.992	-0.357	0.022
-528.048	185.678	0.120	-0.177
-527.033	-35.378	0.115	-0.062
-526.018	-103.956	-0.358	0.083
-525.004	-156.130	0.139	-0.009
-523.989	-200.000	0.015	0.131
-522.975	-191.128	0.038	-0.000
-521.960	31.862	-0.097	0.083
-520.945	24.313	-0.146	0.120
-519.931	-129.431	-0.058	0.008
-518.916	-200.000	-0.014	-0.107
-517.902	14.062	0.107	-0.083
-516.887	-200.000	-0.052	0.284
-515.872	28.708	-0.173	0.146
-514.858	341.883	0.076	0.147
-513.843	800.000	-0.051	0.193
-512.829	46.112	0.236	0.217
-511.814	-59.552	-0.255	0.109
-510.799	-4.003	-0.199	-0.137
-509.785	-100.509	0.101	-0.025
-508.770	353.454	-0.089	0.175
-507.756	160.446	0.183	-0.253
-506.741	-200.000	0.021	0.094
-505.726	800.000	-0.041	0.120
-504.712	800.000	-0.049	-0.180
-503.697	-144.861	0.281	0.026
-502.683	-66.928	0.362	-0.142
-501.668	14.858	-0.098	0.076
-500.653	-5.310	-0.351	0.239
-499.639	442.386	0.107	0.233
-498.624	60.323	-0.313	0.307
-497.610	-84.582	-0.154	0.048
-496.595	800.000	0.099	-0.319
-495.581	92.837	0.047	0.052
-494.566	80.078	-0.145	0.155
-493.551	129.061	-0.076	-0.096
-492.537	-101.353	0.051	-0.012
-491.522	215.183	0.173	-0.273
-490.508	86.931	-0.117	0.128
-489.493	110.198	0.113	-0.135
-488.478	149.288	-0.149	-0.200
-487.464	92.057	-0.196	0.218
-486.449	-82.832	-0.192	-0.061
-485.435	-122.800	0.217	0.035
-484.420	-200.000	-0.008	-0.085
-483.405	-33.330	-0.244	0.134
-482.391	-200.000	-0.004	0.065
-481.376	7.370	-0.175	-0.129
-480.362	-20.653	-0.279	0.170
-479.347	-200.000	0.064	-0.300
-478.332	20.961	-0.023	0.018
-477.318	-200.000	-0.092	0.407
-476.303	-14.312	-0.150	0.096
-475.289	-29.500	-0.189	-0.107
-474.274	-200.000	0.006	-0.139
-473.259	-61.752	0.158	-0.066
-472.245	-48.358	-0.066	-0.032
-471.230	-200.000	0.049	-0.348
-470.216	800.000	-0.064	-0.197
-469.201	-116.531	0.170	0.031
-468.186	-48.612	-0.233	0.111
-467.172	-200.000	-0.040	0.234
-466.157	-200.000	0.402	0.001
-465.143	-47.636	-0.167	0.080
-464.128	-148.398	-0.322	0.026
-463.113	650.403	0.104	0.263
-462.099	-200.000	-0.019	-0.237
-461.084	128.490	-0.148	0.186
-460.070	-100.212	0.397	0.098
-459.055	180.350	0.143	0.208
-458.040	214.131	0.068	0.106
-457.026	25.094	0.164	0.135
-456.011	-200.000	0.050	0.216
-454.997	-64.713	-0.415	-0.166
-453.982	-200.000	0.042	-0.255
-452.968	-98.234	-0.099	-0.025
-451.953	-119.127	-0.417	-0.072
-450.938	-141.163	0.265	0.027
-449.924	-144.878	0.132	-0.012
-448.909	-200.000	0.013	0.090
-447.895	-64.024	0.330	-0.134
-446.880	89.154	-0.060	0.066
-445.865	109.107	-0.151	0.179
-444.851	800.000	0.039	-0.143
-443.836	-200.000	-0.018	-0.184
-442.822	221.845	-0.160	0.255
-441.807	-5.479	-0.154	-0.105
-440.792	261.889	0.325	-0.557
-439.778	135.290	0.092	0.119
-438.763	51.352	-0.124	0.117
-437.749	800.000	-0.084	-0.230
-436.734	78.708	0.230	-0.244
-435.719	319.910	-0.085	0.160
-434.705	-1.019	-0.030	-0.021
-433.690	248.740	0.121	0.203
-432.676	-45.656	0.126	0.062
-431.661	-59.007	0.230	0.098
-430.646	39.289	-0.128	0.113
-429.632	197.911	-0.100	0.152
-428.617	-105.209	-0.155	0.035
-427.603	800.000	0.058	0.185
-426.588	158.123	-0.033	-0.046
-425.573	433.719	0.047	0.101
-424.559	210.360	0.051	0.079
-423.544	-108.053	0.139	-0.030
-422.530	-67.081	0.293	0.114
-421.515	220.462	0.086	0.136
-420.500	800.000	0.062	-0.228
-419.486	347.864	-0.043	-0.084
-418.471	4.136	-0.045	-0.033
-417.457	800.000	-0.023	-0.099
-416.442	-101.453	0.065	-0.016
-415.428	25.976	0.131	-0.108
-414.413	-103.415	-0.192	0.045
-413.398	-200.000	0.016	0.410
-412.384	-144.335	0.192	-0.018
-411.369	31.137	-0.185	-0.157
-410.355	-200.000	0.004	-0.354
-409.340	-56.286	0.205	-0.090
-408.325	300.538	0.117	0.214
-407.311	-154.432	0.156	-0.010
-406.296	-58.996	-0.338	0.144
-405.282	-57.832	0.351	0.152
-404.267	202.199	0.044	-0.067
-403.252	601.959	0.103	0.254
-402.238	-115.577	-0.180	0.033
-401.223	-123.005	0.181	0.029
-400.209	-47.263	-0.096	0.046
-399.194	132.503	0.240	0.305
-398.179	276.403	-0.288	-0.505
-397.165	-75.822	-0.205	0.072
-396.150	112.142	0.134	-0.160
-395.136	-103.369	0.187	-0.043
-394.121	-4.409	-0.199	-0.136
-393.106	174.911	0.120	-0.172
-392.092	-173.675	-0.225	-0.007
-391.077	-200.000	0.024	-0.109
-390.063	-20.383	-0.425	-0.258
-389.048	647.444	0.081	0.206
-388.033	166.223	0.253	0.354
-387.019	800.000	0.047	-0.145
-386.004	32.990	-0.092	-0.079
-384.990	72.458	-0.197	-0.203
-383.975	-86.072	0.173	-0.053
-382.960	-17.244	-0.180	0.112
-381.946	-64.074	-0.302	-0.122
-380.931	641.977	0.012	-0.031
-379.917	-133.729	-0.114	-0.014
-378.902	-200.000	-0.049	0.222
-377.888	529.280	-0.062	0.145
-376.873	-44.794	0.221	-0.109
-375.858	-173.092	-0.175	-0.005
-374.844	-163.559	0.202	-0.009
-373.829	81.272	0.105	0.112
-372.815	-143.885	0.225	0.021
-371.800	5.695	-0.134	0.098
-370.785	-46.489	0.057	0.028
-369.771	168.600	0.196	-0.276
-368.756	-173.370	-0.405	-0.012
-367.742	-61.236	0.257	0.107
-366.727	62.450	0.129	0.127
-365.712	-71.259	0.193	-0.072
-364.698	-47.135	-0.396	-0.191
-363.683	800.000	0.049	0.157
-362.669	445.651	0.074	0.161
-361.654	227.035	-0.081	-0.130
-360.639	45.282	-0.095	-0.086
-359.625	111.719	0.126	0.150
-358.610	-200.000	-0.011	-0.359
-357.596	-107.781	-0.351	-0.076
-356.581	-147.092	-0.277	0.023
-355.566	-182.862	0.124	-0.002
-354.552	4.282	-0.120	-0.086
-353.537	196.646	-0.137	-0.205
-352.523	-200.000	-0.003	0.106
-351.508	102.922	-0.058	-0.066
-350.493	800.000	-0.052	0.215
-349.479	800.000	-0.066	0.248
-348.464	177.255	-0.095	0.136
-347.450	-200.000	-0.142	0.623
-346.435	-93.015	-0.112	0.031
-345.420	-200.000	0.089	-0.399
-344.406	-1.918	0.260	0.180
-343.391	-200.000	0.018	0.098
-342.377	708.534	-0.088	-0.230
-341.362	-148.623	0.445	-0.036
-340.348	686.987	-0.127	-0.328
-339.333	-132.476	0.189	0.024
-338.318	-200.000	-0.020	-0.125
-337.304	-49.157	-0.151	0.071
-336.289	-79.891	-0.407	-0.135
-335.275	-113.139	0.128	-0.025
-334.260	168.488	-0.206	-0.290
-333.245	113.608	0.094	-0.112
-332.231	800.000	0.084	0.259
-331.216	64.429	-0.229	-0.227
-330.202	-67.628	-0.125	0.048
-329.187	-90.667	0.162	0.046
-328.172	77.390	0.172	-0.180
-327.158	-14.127	-0.105	0.067
-326.143	-65.343	0.247	0.098
-325.129	-38.725	0.157	0.082
-324.114	123.711	0.044	0.055
-323.099	-184.801	0.234	-0.004
-322.085	-200.000	-0.041	-0.366
-321.070	316.751	0.032	0.059
-320.056	-115.335	0.165	0.031
-319.041	-28.629	0.267	0.152
-318.026	800.000	-0.048	0.148
-317.012	190.813	-0.077	0.114
-315.997	361.315	-0.109	-0.214
-314.983	24.579	0.115	-0.094
-313.968	-97.192	-0.037	0.010
-312.953	-44.389	0.247	0.122
-311.939	274.697	0.160	-0.278
-310.924	-106.233	0.118	0.026
-309.910	124.919	0.241	0.299
-308.895	71.999	-0.154	0.158
-307.880	157.102	-0.193	-0.262
-306.866	0.486	-0.339	0.239
-305.851	-64.895	-0.205	0.082
-304.837	-107.239	0.574	-0.124
-303.822	26.256	-0.221	0.182
-302.807	-114.943	0.581	-0.109
-301.793	104.227	0.173	0.201
-300.778	-200.000	-0.024	-0.221
-299.764	-57.734	0.149	-0.064
-298.749	-172.474	-0.348	0.011
-297.735	55.419	0.076	0.072
-296.720	-200.000	0.044	0.219
-295.705	-188.276	0.219	0.003
-294.691	22.040	0.424	-0.340
-293.676	-100.860	0.154	-0.037
-292.662	-200.000	0.051	0.368
-291.647	42.517	0.132	-0.118
-290.632	632.697	0.055	0.138
-289.618	-90.450	-0.257	-0.073
-288.603	-200.000	0.032	0.266
-287.589	49.649	0.223	-0.207
-286.574	149.212	0.146	0.195
-285.559	-200.000	-0.042	0.206
-284.545	-118.881	-0.338	-0.058
-283.530	-87.976	-0.088	0.026
-282.516	41.458	-0.122	0.109
-281.501	88.399	-0.121	-0.132
-280.486	49.953	0.255	0.237
-279.472	19.691	0.113	-0.089
-278.457	51.746	-0.082	0.076
-277.443	363.281	-0.254	0.502
-276.428	7.056	0.120	0.088
-275.413	117.863	0.105	-0.128
-274.399	-42.429	0.206	-0.103
-273.384	162.484	-0.265	-0.366
-272.370	-95.310	0.219	-0.058
-271.355	-200.000	0.019	-0.147
-270.340	-57.182	0.377	0.163
-269.326	221.419	-0.107	-0.169
-268.311	800.000	-0.083	0.268
-267.297	-37.494	0.180	-0.095
-266.282	-128.578	0.264	-0.037
-265.267	-40.896	-0.296	-0.151
-264.253	800.000	-0.030	0.111
-263.238	520.922	-0.039	-0.090
-262.224	329.589	-0.046	0.087
-261.209	-200.000	-0.013	0.083
-260.195	-200.000	-0.012	-0.166
-259.180	370.231	-0.219	-0.435
-258.165	62.656	0.204	0.200
-257.151	30.184	-0.199	0.167
-256.136	282.274	-0.148	0.261
-255.122	68.629	0.196	0.198
-254.107	-200.000	0.017	0.214
-253.092	-19.621	-0.189	-0.115
-252.078	-124.479	0.264	0.040
-251.063	-200.000	0.030	0.240
-250.049	-20.002	0.072	0.044
-249.034	689.240	-0.097	0.248
-248.019	381.461	0.145	0.293
-247.005	800.000	-0.042	0.121
-245.990	-200.000	0.011	0.061
-244.976	800.000	0.099	-0.329
-243.961	-183.645	0.174	-0.003
-242.946	-200.000	0.039	-0.249
-241.932	40.148	0.182	-0.161
-240.917	-118.947	-0.417	-0.072
-239.903	-200.000	-0.039	-0.175
-238.888	800.000	0.118	-0.363
-237.873	364.782	-0.092	-0.182
-236.859	172.459	0.087	0.123
-235.844	-167.383	-0.309	0.012
-234.830	24.860	0.122	0.100
-233.815	-2.215	-0.153	-0.105
-232.800	-141.369	0.080	0.008
-231.786	253.888	-0.037	0.063
-230.771	-180.662	-0.167	-0.003
-229.757	-122.600	-0.229	0.036
-228.742	-5.818	0.160	0.108
-227.727	-200.000	0.030	0.213
-226.713	-82.074	-0.208	-0.067
-225.698	128.902	0.293	-0.366
-224.684	165.950	-0.068	0.094
-223.669	75.333	-0.040	0.042
-222.655	96.869	-0.085	-0.096
-221.640	800.000	-0.138	-0.376
-220.625	233.408	0.092	-0.148
-219.611	328.641	0.028	-0.053
-218.596	-200.000	0.031	-0.354
-217.582	-200.000	0.008	-0.331
-216.567	-47.338	0.342	-0.163
-215.552	365.009	0.213	0.422
-214.538	-200.000	-0.006	0.100
-213.523	236.858	-0.169	-0.275
-212.509	800.000	-0.103	0.285
-211.494	-6.342	-0.475	0.318
-210.479	-200.000	0.120	0.525
-209.465	95.311	-0.231	-0.258
-208.450	-28.220	0.307	0.174
-207.436	-58.755	0.229	0.097
-206.421	-114.504	0.164	0.031
-205.406	-53.638	0.083	0.037
-204.392	800.000	-0.105	0.393
-203.377	29.794	-0.195	-0.163
-202.363	-200.000	-0.013	-0.060
-201.348	189.064	0.147	-0.216
-200.333	-132.494	-0.329	0.041
-199.319	-152.030	0.338	-0.024
-198.304	314.805	0.092	-0.170
-197.290	150.235	0.142	-0.188
-196.275	-200.000	0.029	-0.212
-195.260	800.000	-0.075	0.261
-194.246	-118.311	0.069	-0.012
-193.231	416.822	-0.091	-0.190
-192.217	52.217	0.205	0.192
-191.202	-122.561	-0.093	0.015
-190.187	-87.797	0.324	-0.096
-189.173	-48.141	-0.500	-0.237
-188.158	303.703	-0.159	0.289
-187.144	800.000	0.082	-0.314
-186.129	75.378	0.253	-0.261
-185.114	-126.227	-0.354	0.052
-184.100	-2.175	0.237	0.163
-183.085	-200.000	-0.016	-0.197
-182.071	-29.248	0.229	-0.129
-181.056	173.848	0.127	0.180
-180.042	245.730	0.136	0.224
-179.027	386.897	0.075	-0.151
-178.012	124.015	0.227	-0.280
-176.998	-71.768	0.035	0.013
-175.983	-200.000	-0.004	0.502
-174.969	390.527	-0.124	0.253
-173.954	-200.000	0.011	0.218
-172.939	496.261	0.085	-0.191
-171.925	-44.241	0.033	0.016
-170.910	-200.000	0.007	-0.260
-169.896	-200.000	0.054	-0.449
-168.881	232.656	0.229	0.368
-167.866	-82.596	0.247	0.078
-166.852	198.682	0.039	0.058
-165.837	1.776	-0.205	0.144
-164.823	-200.000	0.015	-0.172
-163.808	198.765	0.110	0.165
-162.793	-130.651	0.262	-0.035
-161.779	800.000	-0.018	-0.048
-160.764	800.000	0.100	0.425
-159.750	-200.000	0.026	0.273
-158.735	800.000	-0.016	-0.063
-157.720	-72.199	0.219	-0.079
-156.706	-18.132	-0.135	-0.083
-155.691	569.031	-0.136	0.324
-154.677	223.865	-0.122	0.192
-153.662	452.032	0.047	0.102
-152.647	800.000	0.022	0.079
-151.633	-100.411	0.322	-0.078
-150.618	3.257	0.131	-0.093
-149.604	800.000	0.054	-0.159
-148.589	92.309	0.065	0.071
-147.574	800.000	-0.071	0.216
-146.560	800.000	0.060	0.180
-145.545	650.275	0.047	0.117
-144.531	800.000	0.038	0.159
-143.516	-77.662	0.151	-0.051
-142.502	92.221	-0.046	0.050
-141.487	-95.053	0.319	0.084
-140.472	36.569	-0.126	0.108
-139.458	-200.000	0.030	-0.138
-138.443	-200.000	-0.008	-0.088
-137.429	138.533	0.096	0.123
-136.414	-123.565	-0.135	-0.021
-135.399	658.956	-0.038	0.096
-134.385	316.180	-0.157	0.291
-133.370	-153.286	0.402	-0.027
-132.356	-170.438	0.164	-0.006
-131.341	-81.545	-0.281	-0.090
-130.326	-141.886	0.107	0.010
-129.312	800.000	-0.044	0.141
-128.297	800.000	0.066	0.235
-127.283	-105.930	-0.191	-0.042
-126.268	-109.478	0.291	0.060
-125.253	550.702	0.069	0.162
-124.239	158.007	0.206	0.279
-123.224	-200.000	0.015	0.366
-122.210	278.867	0.073	-0.127
-121.195	-200.000	-0.004	-0.064
