DTS Sentinel unit serial number:	SN413079Multiplexer serial number:	ORYXHardware model number:	OX4-SRSoftware version number:	ORYX F/W v4.00 Oryx Data Collector v3.7.2.0data status	okinstallation	princeton_trtdifferential loss correction	single-endedforward channel	channel 3reverse channel	N/Adate	2019/09/17time	01:40:35forward acquisition time	60.00reverse acquisition time	0.00gamma	496.2192k internal	0.2324k external	0.2324temperature offset calibration	0.9937default loss term (dB/km)	0.3790temperature slope calibration	1.0000multiplexer offset coefficient	1.0000multiplexer slope coefficient	1.0000fibre end	0.00T internal ref (°C)	29.56T ext. ref 1 (°C)	0.12T ext. ref 2 (°C)	24.52length (m)	temperature (°C)	Stokes	anti-Stokes-747.200	-69.925	-0.237	0.091
-746.185	302.337	-0.123	0.230
-745.171	439.180	0.088	0.194
-744.156	92.153	0.305	0.347
-743.142	-106.939	-0.426	-0.095
-742.127	330.232	0.109	0.211
-741.112	-111.192	-0.239	0.049
-740.098	-200.000	-0.093	0.470
-739.083	-56.785	0.229	0.102
-738.069	-165.015	-0.139	-0.006
-737.054	-26.206	0.107	0.064
-736.039	-136.715	-0.472	0.055
-735.025	-148.256	0.360	-0.030
-734.010	-61.513	-0.265	0.112
-732.996	800.000	-0.145	0.459
-731.981	-31.747	0.076	-0.043
-730.966	800.000	-0.024	-0.091
-729.952	-61.576	-0.131	-0.055
-728.937	148.869	-0.260	-0.355
-727.923	278.102	-0.167	0.299
-726.908	-112.603	-0.521	0.105
-725.894	94.630	-0.032	-0.036
-724.879	-107.065	0.299	0.067
-723.864	-107.311	0.143	-0.032
-722.850	-6.110	-0.236	-0.163
-721.835	800.000	0.077	-0.311
-720.821	800.000	-0.037	-0.127
-719.806	-138.584	-0.066	-0.007
-718.791	-97.719	-0.206	-0.054
-717.777	-140.982	-0.095	-0.010
-716.762	60.663	-0.057	0.057
-715.748	223.454	0.146	0.238
-714.733	670.382	0.120	-0.314
-713.718	179.336	-0.057	-0.084
-712.704	291.435	0.119	0.217
-711.689	-43.398	-0.026	-0.013
-710.675	30.114	-0.054	-0.047
-709.660	218.531	-0.056	-0.090
-708.645	-29.379	0.107	0.061
-707.631	-96.633	-0.320	-0.085
-706.616	-99.908	-0.423	-0.106
-705.602	-62.575	-0.367	0.154
-704.587	78.412	-0.168	-0.181
-703.572	129.585	0.186	-0.239
-702.558	-111.168	-0.065	-0.013
-701.543	108.272	-0.254	0.305
-700.529	25.207	0.188	-0.157
-699.514	800.000	-0.122	-0.435
-698.499	-65.759	0.134	0.054
-697.485	12.207	-0.156	-0.121
-696.470	800.000	-0.115	0.329
-695.456	-200.000	-0.154	-0.001
-694.441	84.366	-0.096	-0.106
-693.426	-163.083	-0.235	-0.011
-692.412	-200.000	0.010	-0.161
-691.397	-200.000	0.024	-0.278
-690.383	-5.989	-0.188	0.130
-689.368	800.000	0.019	-0.070
-688.354	-150.544	-0.293	0.023
-687.339	-200.000	-0.012	0.064
-686.324	-200.000	-0.004	0.130
-685.310	-175.737	-0.197	-0.005
-684.295	-200.000	0.077	-0.342
-683.281	-127.904	-0.150	-0.022
-682.266	800.000	-0.069	-0.194
-681.251	-174.629	-0.342	0.010
-680.237	460.595	-0.031	-0.070
-679.222	-86.617	0.196	-0.061
-678.208	800.000	-0.023	-0.087
-677.193	-200.000	0.030	0.230
-676.178	-133.624	0.233	0.029
-675.164	107.606	-0.033	-0.040
-674.149	-6.045	-0.178	0.123
-673.135	299.487	-0.106	0.197
-672.120	-200.000	0.018	0.102
-671.105	-47.942	-0.398	-0.194
-670.091	184.910	0.031	-0.046
-669.076	200.486	0.208	-0.321
-668.062	-105.348	-0.198	0.045
-667.047	-47.633	0.290	0.141
-666.032	20.911	-0.178	-0.145
-665.018	485.188	0.123	-0.282
-664.003	-97.112	0.275	0.072
-662.989	800.000	-0.079	-0.222
-661.974	507.511	-0.034	-0.079
-660.959	-141.669	-0.157	0.016
-659.945	-81.983	0.238	0.078
-658.930	-200.000	-0.017	-0.197
-657.916	-164.603	-0.163	0.007
-656.901	800.000	0.046	-0.161
-655.886	450.981	0.044	-0.098
-654.872	407.278	-0.200	-0.424
-653.857	-147.213	0.423	-0.036
-652.843	-3.215	-0.202	0.142
-651.828	-75.047	0.209	-0.075
-650.814	-200.000	-0.031	-0.443
-649.799	113.827	0.018	0.022
-648.784	-106.735	-0.314	-0.070
-647.770	-8.491	-0.258	0.175
-646.755	-94.600	-0.188	-0.051
-645.741	-85.403	0.263	-0.082
-644.726	-200.000	0.001	-0.017
-643.711	191.924	-0.067	-0.102
-642.697	-64.140	-0.476	0.195
-641.682	116.534	-0.194	0.239
-640.668	93.570	-0.126	0.143
-639.653	-0.361	-0.144	0.103
-638.638	-200.000	0.015	0.197
-637.624	84.867	0.113	-0.125
-636.609	-7.486	0.164	-0.112
-635.595	-200.000	0.008	-0.129
-634.580	-180.235	-0.253	-0.005
-633.565	172.827	-0.029	-0.043
-632.551	-14.172	0.039	0.025
-631.536	72.650	-0.039	-0.041
-630.522	409.298	0.087	0.186
-629.507	-156.959	0.051	-0.003
-628.492	-56.452	-0.215	0.096
-627.478	-150.525	-0.129	0.010
-626.463	14.140	0.167	-0.131
-625.449	800.000	0.020	-0.058
-624.434	800.000	0.023	-0.099
-623.419	211.347	-0.149	-0.236
-622.405	-200.000	0.017	0.499
-621.390	-103.492	-0.340	-0.080
-620.376	-143.348	0.157	0.015
-619.361	800.000	-0.027	0.104
-618.346	-1.437	-0.284	0.201
-617.332	-72.824	-0.216	-0.080
-616.317	800.000	-0.024	-0.075
-615.303	-200.000	0.201	0.000
-614.288	-87.726	-0.237	-0.072
-613.273	-200.000	-0.019	0.167
-612.259	-93.142	-0.429	-0.120
-611.244	202.609	-0.084	-0.130
-610.230	166.737	-0.104	-0.149
-609.215	800.000	-0.072	0.242
-608.201	-200.000	0.023	0.180
-607.186	-200.000	0.003	-0.043
-606.171	-200.000	0.044	0.287
-605.157	167.196	-0.153	0.218
-604.142	8.101	-0.109	0.082
-603.128	25.672	0.386	-0.322
-602.113	106.168	-0.260	0.310
-601.098	-200.000	-0.003	-0.064
-600.084	-58.426	-0.361	0.157
-599.069	-126.861	0.470	-0.069
-598.055	-67.365	-0.178	-0.070
-597.040	-79.386	-0.147	0.050
-596.025	303.300	0.031	-0.058
-595.011	-35.041	0.021	0.011
-593.996	-143.583	0.187	0.018
-592.982	-200.000	0.028	-0.180
-591.967	-200.000	0.013	-0.234
-590.952	128.918	-0.122	0.156
-589.938	-200.000	0.003	-0.235
-588.923	-200.000	-0.050	-0.229
-587.909	-168.252	0.405	-0.016
-586.894	-46.716	-0.307	0.151
-585.879	-117.776	-0.486	0.088
-584.865	518.396	0.101	-0.237
-583.850	203.695	0.068	0.105
-582.836	-200.000	0.015	0.114
-581.821	-175.835	-0.233	0.006
-580.806	42.541	0.152	-0.139
-579.792	-140.157	-0.162	-0.017
-578.777	266.860	-0.058	0.102
-577.763	-119.436	0.197	-0.034
-576.748	-146.105	-0.198	0.018
-575.733	-31.325	0.158	-0.089
-574.719	169.093	0.129	-0.185
-573.704	800.000	-0.042	0.135
-572.690	795.318	0.018	-0.050
-571.675	223.644	0.155	-0.251
-570.661	-200.000	0.009	0.147
-569.646	-19.734	-0.170	0.106
-568.631	217.088	0.062	0.098
-567.617	272.647	-0.233	-0.413
-566.602	64.899	0.065	0.066
-565.588	-65.043	-0.311	0.126
-564.573	162.047	0.183	-0.257
-563.558	323.594	-0.085	-0.162
-562.544	82.709	-0.123	0.134
-561.529	46.907	-0.160	0.149
-560.515	-35.855	-0.305	0.165
-559.500	-44.949	-0.141	-0.070
-558.485	7.118	0.328	0.245
-557.471	389.010	0.087	-0.181
-556.456	-7.020	0.187	-0.127
-555.442	477.522	0.062	0.140
-554.427	-200.000	-0.029	0.170
-553.412	162.990	0.283	0.398
-552.398	-9.524	-0.106	-0.071
-551.383	-200.000	0.016	-0.182
-550.369	-158.282	0.165	-0.010
-549.354	-200.000	0.040	-0.245
-548.339	41.054	0.110	0.100
-547.325	-8.924	-0.135	0.090
-546.310	-90.830	-0.383	0.111
-545.296	184.507	0.342	0.508
-544.281	404.756	0.060	-0.126
-543.266	800.000	0.152	0.484
-542.252	-144.735	0.218	-0.020
-541.237	-33.785	-0.183	0.101
-540.223	800.000	-0.035	-0.123
-539.208	190.398	-0.249	-0.374
-538.193	-200.000	-0.021	0.171
-537.179	-100.063	-0.139	-0.035
-536.164	107.451	-0.271	-0.323
-535.150	800.000	0.021	0.091
-534.135	-23.639	0.235	0.141
-533.121	800.000	-0.032	-0.124
-532.106	-34.988	0.084	0.046
-531.091	800.000	0.011	0.040
-530.077	-108.697	-0.187	-0.040
-529.062	-20.020	-0.087	0.054
-528.048	24.300	0.220	-0.182
-527.033	84.411	-0.121	-0.133
-526.018	-80.049	0.175	-0.059
-525.004	-68.991	0.347	-0.134
-523.989	556.364	0.076	0.183
-522.975	10.962	0.056	0.043
-521.960	103.313	-0.120	-0.141
-520.945	-132.487	0.059	0.008
-519.931	1.679	-0.268	-0.193
-518.916	34.420	0.238	0.208
-517.902	98.840	0.139	-0.161
-516.887	-137.869	0.237	-0.027
-515.872	800.000	-0.038	-0.108
-514.858	-23.845	0.216	0.129
-513.843	-200.000	-0.047	0.227
-512.829	-200.000	0.114	0.597
-511.814	-200.000	0.071	-0.338
-510.799	218.882	-0.317	-0.507
-509.785	-121.942	-0.198	0.033
-508.770	-124.162	-0.087	-0.014
-507.756	-106.435	-0.138	-0.031
-506.741	-200.000	-0.053	-0.302
-505.726	317.011	-0.110	0.208
-504.712	272.176	-0.231	-0.407
-503.697	-3.146	0.311	-0.217
-502.683	800.000	0.165	-0.466
-501.668	621.589	0.063	-0.158
-500.653	800.000	-0.006	-0.026
-499.639	459.920	-0.026	-0.058
-498.624	640.699	-0.109	0.276
-497.610	800.000	0.040	0.162
-496.595	-126.023	0.139	-0.021
-495.581	-64.291	-0.133	-0.054
-494.566	122.022	0.206	-0.258
-493.551	104.047	-0.122	0.143
-492.537	800.000	0.048	0.173
-491.522	-136.788	-0.177	0.020
-490.508	-200.000	0.057	-0.330
-489.493	800.000	0.029	-0.091
-488.478	800.000	0.038	-0.127
-487.464	800.000	0.055	0.201
-486.449	350.286	0.196	0.388
-485.435	73.285	-0.189	-0.198
-484.420	20.647	-0.310	-0.251
-483.405	-6.769	0.221	-0.150
-482.391	800.000	0.073	0.291
-481.376	800.000	0.081	-0.256
-480.362	800.000	-0.026	-0.108
-479.347	-58.268	-0.208	0.090
-478.332	-90.379	-0.313	0.091
-477.318	-200.000	0.058	0.335
-476.303	-59.340	-0.141	-0.061
-475.289	-200.000	0.017	-0.118
-474.274	-165.011	0.260	-0.012
-473.259	-89.596	-0.101	0.030
-472.245	-193.352	-0.290	0.003
-471.230	-78.988	0.319	0.108
-470.216	-145.573	0.219	0.020
-469.201	-200.000	-0.009	0.188
-468.186	-55.167	-0.106	-0.048
-467.172	-75.892	0.409	0.145
-466.157	113.021	0.085	-0.103
-465.143	-94.342	-0.194	0.053
-464.128	279.572	-0.127	-0.227
-463.113	150.099	0.092	-0.125
-462.099	-113.033	0.049	-0.010
-461.084	272.478	0.128	-0.226
-460.070	800.000	0.037	-0.108
-459.055	-132.431	-0.081	-0.010
-458.040	-72.693	-0.151	0.056
-457.026	-8.056	-0.060	-0.041
-456.011	-140.592	0.072	0.007
-454.997	-5.581	0.349	0.239
-453.982	-53.801	-0.318	0.145
-452.968	390.849	-0.061	-0.127
-451.953	480.324	0.053	-0.119
-450.938	86.767	-0.298	-0.328
-449.924	-62.082	-0.275	-0.115
-448.909	-200.000	-0.035	0.358
-447.895	-133.355	-0.229	0.029
-446.880	-4.208	0.044	-0.031
-445.865	550.386	0.102	0.243
-444.851	-125.220	-0.347	-0.053
-443.836	227.140	-0.125	0.203
-442.822	128.325	0.044	0.055
-441.807	318.845	0.210	0.398
-440.792	-86.530	-0.044	0.014
-439.778	336.735	-0.029	0.056
-438.763	-150.488	0.235	0.018
-437.749	-104.007	0.036	0.008
-436.734	59.886	0.173	-0.171
-435.719	-122.985	-0.127	-0.020
-434.705	190.478	-0.174	0.260
-433.690	-74.279	0.336	-0.121
-432.676	800.000	-0.085	0.241
-431.661	-123.123	0.125	0.020
-430.646	272.407	0.240	-0.422
-429.632	149.033	0.073	-0.098
-428.617	-87.381	0.135	0.041
-427.603	-39.783	-0.227	-0.118
-426.588	274.696	0.107	-0.188
-425.573	45.503	0.101	-0.093
-424.559	-107.696	-0.406	0.088
-423.544	-107.143	-0.101	-0.022
-422.530	-71.092	0.114	-0.043
-421.515	-71.719	-0.112	-0.042
-420.500	112.216	0.052	0.063
-419.486	339.107	-0.070	-0.135
-418.471	270.742	0.125	0.219
-417.457	31.495	0.083	-0.071
-416.442	-121.503	-0.164	-0.027
-415.428	-200.000	-0.005	0.120
-414.413	-152.618	0.238	-0.017
-413.398	-91.710	0.272	0.077
-412.384	-200.000	0.026	-0.215
-411.369	-8.642	-0.363	-0.243
-410.355	-200.000	0.051	-0.469
-409.340	-65.401	0.079	0.032
-408.325	62.229	-0.107	-0.106
-407.311	-93.364	-0.163	0.045
-406.296	261.900	-0.087	0.150
-405.282	424.811	-0.079	-0.170
-404.267	-91.566	0.486	0.138
-403.252	-200.000	0.012	-0.237
-402.238	184.003	-0.151	0.222
-401.223	251.080	-0.076	0.128
-400.209	800.000	-0.079	0.248
-399.194	-200.000	-0.033	-0.228
-398.179	40.269	-0.097	-0.087
-397.165	-200.000	-0.037	-0.178
-396.150	800.000	0.063	-0.201
-395.136	-200.000	0.001	-0.182
-394.121	800.000	0.023	-0.084
-393.106	11.089	-0.159	0.121
-392.092	113.445	0.162	0.196
-391.077	404.521	0.096	-0.202
-390.063	-138.687	-0.112	-0.012
-389.048	-127.983	0.281	0.040
-388.033	161.268	0.212	0.295
-387.019	-43.180	-0.168	-0.085
-386.004	-55.458	0.159	0.071
-384.990	114.270	-0.176	0.214
-383.975	-87.810	-0.486	0.146
-382.960	-85.132	0.217	0.068
-381.946	-200.000	-0.038	-0.254
-380.931	-146.331	0.186	0.016
-379.917	-30.710	0.097	0.054
-378.902	33.614	0.097	-0.084
-377.888	128.118	0.034	0.043
-376.873	-103.361	0.202	0.047
-375.858	-200.000	-0.007	0.172
-374.844	-200.000	0.105	-0.492
-373.829	670.715	-0.051	-0.131
-372.815	524.717	-0.031	-0.073
-371.800	63.564	-0.318	-0.317
-370.785	62.192	0.359	0.356
-369.771	22.055	-0.146	0.118
-368.756	-161.207	0.281	0.015
-367.742	-38.483	-0.162	-0.085
-366.727	-123.836	0.215	-0.034
-365.712	-200.000	-0.023	-0.120
-364.698	-200.000	0.002	0.084
-363.683	-200.000	0.010	0.166
-362.669	360.009	-0.210	0.417
-361.654	-147.603	-0.156	0.013
-360.639	-63.732	0.076	-0.031
-359.625	64.559	0.147	-0.148
-358.610	-4.963	0.156	0.107
-357.596	-20.870	0.168	-0.102
-356.581	-91.276	0.229	0.065
-355.566	-95.978	-0.386	0.102
-354.552	46.953	0.156	-0.144
-353.537	-200.000	-0.007	0.096
-352.523	-187.995	-0.428	0.005
-351.508	-192.763	0.066	-0.001
-350.493	-121.830	0.292	-0.048
-349.479	173.880	0.078	-0.112
-348.464	-41.292	0.209	-0.107
-347.450	-66.305	-0.107	-0.042
-346.435	220.183	0.170	0.271
-345.420	552.862	0.030	-0.072
-344.406	678.850	0.020	-0.052
-343.391	59.601	-0.225	-0.220
-342.377	-87.997	0.103	-0.031
-341.362	14.450	-0.110	-0.085
-340.348	-200.000	-0.007	0.130
-339.333	800.000	0.085	0.353
-338.318	-119.012	0.226	-0.039
-337.304	-25.102	-0.021	-0.012
-336.289	-27.536	0.168	0.097
-335.275	148.020	-0.218	0.292
-334.260	-104.089	-0.197	-0.046
-333.245	-58.028	0.064	0.028
-332.231	609.872	-0.095	-0.236
-331.216	-194.642	-0.095	-0.001
-330.202	-149.432	-0.267	0.021
-329.187	800.000	-0.047	-0.165
-328.172	-200.000	-0.008	-0.070
-327.158	-200.000	-0.052	0.379
-326.143	-87.138	-0.609	-0.184
-325.129	-105.358	0.165	0.037
-324.114	-52.579	0.267	-0.122
-323.099	310.483	-0.135	0.252
-322.085	63.603	-0.120	-0.120
-321.070	-200.000	0.031	-0.135
-320.056	-112.995	0.005	-0.001
-319.041	192.317	0.214	0.320
-318.026	86.814	0.095	0.105
-317.012	800.000	0.059	0.180
-315.997	-97.882	-0.114	0.029
-314.983	336.809	0.126	0.244
-313.968	800.000	0.113	-0.321
-312.953	266.671	-0.052	-0.091
-311.939	514.963	0.073	0.170
-310.924	-29.823	0.237	0.134
-309.910	-3.345	0.182	-0.126
-308.895	-19.056	0.144	0.089
-307.880	200.465	-0.030	-0.045
-306.866	387.073	-0.181	-0.371
-305.851	215.414	0.273	0.430
-304.837	-200.000	0.079	0.403
-303.822	-91.460	-0.025	0.007
-302.807	800.000	-0.063	-0.223
-301.793	800.000	-0.086	0.334
-300.778	1.540	-0.131	0.094
-299.764	-160.659	0.194	0.010
-298.749	-116.147	0.117	0.022
-297.735	-13.951	-0.269	0.172
-296.720	800.000	0.058	0.159
-295.705	527.014	0.077	-0.179
-294.691	800.000	0.066	-0.201
-293.676	725.477	0.045	-0.120
-292.662	800.000	-0.086	0.305
-291.647	288.679	-0.055	0.099
-290.632	-39.447	-0.295	0.153
-289.618	-200.000	0.018	-0.259
-288.603	-200.000	0.058	-0.370
-287.589	78.417	0.205	-0.217
-286.574	-70.823	0.085	-0.032
-285.559	-16.774	-0.310	-0.195
-284.545	800.000	-0.039	-0.160
-283.530	239.693	0.048	0.080
-282.516	-84.419	-0.250	-0.078
-281.501	-91.546	0.240	0.068
-280.486	-200.000	-0.022	-0.143
-279.472	-132.578	0.269	0.034
-278.457	-84.815	-0.085	0.026
-277.443	-24.862	0.208	-0.123
-276.428	-147.563	0.245	-0.020
-275.413	626.929	-0.143	0.358
-274.399	-130.713	-0.282	0.038
-273.384	367.188	0.072	-0.143
-272.370	-13.575	0.017	0.011
-271.355	-23.401	0.165	0.098
-270.340	-58.019	-0.333	-0.144
-269.326	-200.000	-0.055	-0.248
-268.311	460.737	-0.079	0.174
-267.297	-200.000	0.063	-0.284
-266.282	229.239	-0.037	-0.060
-265.267	-33.658	-0.360	-0.197
-264.253	8.146	0.290	-0.216
-263.238	-21.414	-0.299	-0.181
-262.224	64.316	0.157	-0.156
-261.209	290.169	-0.079	-0.142
-260.195	-200.000	-0.017	0.206
-259.180	-100.049	0.263	0.065
-258.165	147.196	0.060	-0.080
-257.151	39.607	-0.140	-0.124
-256.136	-200.000	0.004	-0.301
-255.122	-141.127	-0.292	-0.030
-254.107	800.000	-0.022	-0.093
-253.092	800.000	-0.031	-0.121
-252.078	125.913	-0.019	-0.024
-251.063	-200.000	0.018	0.213
-250.049	221.255	-0.158	-0.252
-249.034	-121.778	-0.389	0.064
-248.019	290.497	0.084	-0.150
-247.005	10.468	-0.073	-0.055
-245.990	45.033	0.146	0.133
-244.976	-95.424	-0.060	0.016
-243.961	-34.209	-0.318	0.173
-242.946	200.281	0.098	0.149
-241.932	54.085	0.095	-0.090
-240.917	-200.000	-0.006	0.027
-239.903	-89.095	0.249	0.073
-238.888	-36.497	-0.266	-0.142
-237.873	73.107	0.290	0.300
-236.859	-86.891	0.207	0.063
-235.844	-200.000	-0.032	0.252
-234.830	10.508	0.199	-0.150
-233.815	-137.335	0.159	0.018
-232.800	800.000	-0.123	0.496
-231.786	-91.383	-0.195	-0.055
-230.771	-200.000	0.007	0.092
-229.757	181.037	-0.150	0.219
-228.742	49.176	0.170	-0.158
-227.727	-44.191	-0.142	-0.071
-226.713	2.032	0.168	0.120
-225.698	-200.000	-0.018	0.116
-224.684	312.601	-0.049	0.091
-223.669	-200.000	-0.006	-0.191
-222.655	-200.000	0.023	0.333
-221.640	-67.358	0.274	-0.106
-220.625	-31.112	0.519	-0.289
-219.611	-200.000	0.002	0.139
-218.596	326.550	0.039	0.073
-217.582	800.000	0.013	-0.044
-216.567	26.257	-0.134	0.110
-215.552	-200.000	-0.001	-0.025
-214.538	-200.000	0.037	-0.326
-213.523	-200.000	-0.035	0.189
-212.509	164.743	-0.127	0.177
-211.494	-118.668	0.384	-0.067
-210.479	-200.000	0.006	0.072
-209.465	157.172	-0.050	-0.068
-208.450	29.902	0.410	0.345
-207.436	-116.530	0.318	0.058
-206.421	-200.000	-0.022	0.198
-205.406	-200.000	0.032	-0.200
-204.392	-200.000	-0.023	0.114
-203.377	-18.617	-0.093	-0.057
-202.363	737.059	0.115	-0.304
-201.348	-156.985	0.177	-0.011
-200.333	117.041	-0.231	0.281
-199.319	-200.000	-0.003	-0.243
-198.304	75.308	0.125	-0.130
-197.290	154.148	0.115	0.156
-196.275	249.252	-0.037	-0.061
-195.260	-49.940	0.120	-0.056
-194.246	624.558	-0.010	-0.025
-193.231	-6.549	0.202	-0.136
-192.217	-198.443	0.343	0.002
-191.202	78.643	0.033	-0.034
-190.187	-61.985	0.329	0.136
-189.173	-114.137	-0.301	0.057
-188.158	-78.846	-0.200	-0.067
-187.144	-200.000	-0.022	-0.122
-186.129	-35.755	-0.121	-0.065
-185.114	-200.000	-0.025	-0.387
-184.100	-74.037	0.150	-0.054
-183.085	-13.791	-0.223	-0.142
-182.071	329.943	-0.035	-0.066
-181.056	-200.000	-0.011	0.254
-180.042	-200.000	-0.022	0.251
-179.027	398.658	0.079	0.163
-178.012	-106.475	-0.157	0.035
-176.998	-101.719	0.381	0.091
-175.983	168.760	-0.122	0.172
-174.969	-53.766	0.079	0.036
-173.954	39.714	-0.133	-0.118
-172.939	-66.058	0.312	0.123
-171.925	367.488	-0.094	0.187
-170.910	271.322	-0.128	0.222
-169.896	-106.634	-0.025	0.005
-168.881	800.000	0.033	0.136
-167.866	-106.649	0.450	0.099
-166.852	30.189	0.138	-0.116
-165.837	203.575	-0.094	-0.143
-164.823	-50.370	-0.231	-0.107
-163.808	-30.763	0.312	0.174
-162.793	-111.305	0.283	0.057
-161.779	800.000	0.051	-0.153
-160.764	-200.000	-0.031	0.270
-159.750	10.184	0.188	-0.141
-158.735	29.398	-0.189	0.158
-157.720	-29.161	0.126	0.072
-156.706	-108.703	-0.287	-0.061
-155.691	19.335	0.224	0.177
-154.677	-118.161	0.154	0.027
-153.662	113.118	-0.082	-0.098
-152.647	-127.417	-0.215	0.031
-151.633	19.469	0.159	-0.126
-150.618	36.052	-0.126	0.110
-149.604	-102.521	-0.196	-0.046
-148.589	-59.895	-0.349	0.147
-147.574	156.729	0.155	-0.211
-146.560	-118.695	-0.163	0.028
-145.545	-21.806	0.125	-0.075
-144.531	635.192	0.150	-0.376
-143.516	-38.784	0.266	-0.138
-142.502	-14.057	-0.239	0.152
-141.487	-200.000	-0.009	0.066
-140.472	-200.000	0.018	-0.164
-139.458	-49.558	-0.021	-0.010
-138.443	414.765	-0.095	-0.199
-137.429	160.211	-0.019	0.026
-136.414	35.089	-0.197	0.170
-135.399	-139.079	0.195	-0.021
-134.385	525.362	0.069	-0.159
-133.370	-200.000	-0.036	-0.324
-132.356	-129.578	0.271	0.037
-131.341	203.127	0.054	0.082
-130.326	-3.671	0.217	0.149
-129.312	179.648	-0.048	0.069
-128.297	-111.102	-0.355	-0.072
-127.283	-23.339	-0.037	0.022
-126.268	200.118	-0.081	-0.122
-125.253	99.785	-0.115	0.131
-124.239	-67.251	0.016	0.006
-123.224	79.772	0.058	-0.061
