DTS Sentinel unit serial number:	SN413079Multiplexer serial number:	ORYXHardware model number:	OX4-SRSoftware version number:	ORYX F/W v4.00 Oryx Data Collector v3.7.2.0data status	okinstallation	princeton_trtdifferential loss correction	single-endedforward channel	channel 3reverse channel	N/Adate	2019/09/17time	18:00:35forward acquisition time	60.00reverse acquisition time	0.00gamma	496.2192k internal	0.2289k external	0.2289temperature offset calibration	0.9947default loss term (dB/km)	0.3790temperature slope calibration	1.0000multiplexer offset coefficient	1.0000multiplexer slope coefficient	1.0000fibre end	0.00T internal ref (°C)	43.50T ext. ref 1 (°C)	0.33T ext. ref 2 (°C)	38.13length (m)	temperature (°C)	Stokes	anti-Stokes-747.200	-67.989	0.092	0.037
-746.185	142.210	0.202	0.274
-745.171	-200.000	-0.034	0.156
-744.156	-106.649	0.259	0.059
-743.142	-93.066	0.121	0.035
-742.127	574.031	0.146	0.364
-741.112	-200.000	-0.050	0.372
-740.098	-200.000	0.001	0.258
-739.083	318.929	0.091	0.176
-738.069	-116.546	0.363	0.069
-737.054	74.732	0.161	0.173
-736.039	-15.423	0.136	0.089
-735.025	192.008	-0.202	0.312
-734.010	-200.000	0.024	0.145
-732.996	94.324	-0.054	-0.063
-731.981	800.000	0.032	0.121
-730.966	-14.665	0.096	0.063
-729.952	800.000	-0.032	0.099
-728.937	555.734	-0.092	0.226
-727.923	-17.888	-0.132	-0.085
-726.908	84.765	-0.059	0.066
-725.894	28.068	-0.275	0.238
-724.879	-177.514	-0.326	-0.008
-723.864	-200.000	-0.001	-0.006
-722.850	218.107	-0.135	-0.220
-721.835	-81.872	0.356	0.119
-720.821	427.143	0.072	-0.159
-719.806	42.706	-0.099	-0.093
-718.791	400.890	-0.079	-0.170
-717.777	12.740	-0.282	-0.223
-716.762	-98.580	-0.166	-0.043
-715.748	67.692	0.126	-0.132
-714.733	-71.101	0.084	0.032
-713.718	139.181	-0.128	-0.172
-712.704	-108.033	-0.568	-0.126
-711.689	-14.014	-0.102	0.067
-710.675	-106.624	-0.064	0.015
-709.660	-148.263	0.254	0.021
-708.645	-107.486	0.338	-0.076
-707.631	-115.834	0.098	0.019
-706.616	800.000	0.097	-0.303
-705.602	474.101	-0.058	0.133
-704.587	-139.349	-0.167	0.018
-703.572	184.067	-0.142	0.215
-702.558	7.081	0.237	-0.181
-701.543	419.643	0.213	-0.467
-700.529	800.000	0.048	-0.204
-699.514	509.465	0.012	0.028
-698.499	800.000	-0.028	0.126
-697.485	112.162	0.114	0.141
-696.470	479.462	0.063	-0.145
-695.456	114.646	0.049	0.061
-694.441	114.941	-0.192	-0.239
-693.426	81.714	0.236	0.261
-692.412	-51.420	0.005	-0.002
-691.397	213.035	-0.140	-0.226
-690.383	376.266	0.130	-0.271
-689.368	18.767	0.031	0.025
-688.354	461.698	0.047	-0.108
-687.339	79.937	-0.187	-0.205
-686.324	-15.124	0.177	0.116
-685.310	678.417	0.049	-0.131
-684.295	136.535	0.179	-0.239
-683.281	-152.092	-0.204	-0.015
-682.266	800.000	0.057	0.176
-681.251	-22.602	-0.246	0.152
-680.237	-113.137	0.216	-0.044
-679.222	-79.987	-0.425	0.146
-678.208	-200.000	-0.051	0.299
-677.193	10.372	0.356	0.277
-676.178	328.896	-0.102	-0.200
-675.164	-200.000	-0.051	0.367
-674.149	67.002	0.186	-0.193
-673.135	-200.000	-0.002	0.280
-672.120	2.835	-0.027	0.020
-671.105	-85.698	-0.241	-0.076
-670.091	235.948	-0.063	-0.107
-669.076	800.000	0.050	-0.224
-668.062	-4.254	0.346	-0.245
-667.047	-15.465	0.135	-0.088
-666.032	800.000	-0.026	0.102
-665.018	-48.778	-0.312	0.153
-664.003	-112.658	0.112	-0.023
-662.989	29.522	0.052	-0.045
-661.974	256.734	0.057	0.099
-660.959	800.000	-0.017	-0.075
-659.945	-178.443	-0.175	0.004
-658.930	-104.345	0.263	-0.062
-657.916	108.668	-0.111	-0.135
-656.901	-200.000	0.033	-0.622
-655.886	773.537	0.064	-0.179
-654.872	800.000	-0.083	-0.235
-653.857	800.000	-0.022	-0.091
-652.843	295.631	-0.054	-0.100
-651.828	-170.548	0.439	0.016
-650.814	-49.301	-0.034	0.016
-649.799	-79.903	0.013	-0.004
-648.784	19.714	0.105	0.086
-647.770	-134.741	-0.062	-0.008
-646.755	-31.749	-0.064	0.036
-645.741	-109.025	-0.269	-0.058
-644.726	-200.000	0.020	-0.207
-643.711	-43.015	0.282	0.146
-642.697	120.479	0.245	0.310
-641.682	72.774	-0.139	0.148
-640.668	-103.865	-0.092	0.022
-639.653	-186.571	-0.204	-0.003
-638.638	160.869	-0.173	0.247
-637.624	-17.897	0.278	-0.178
-636.609	12.346	0.067	-0.053
-635.595	800.000	-0.030	-0.089
-634.580	25.327	0.247	-0.209
-633.565	800.000	0.138	0.446
-632.551	55.875	0.097	-0.096
-631.536	-54.734	-0.062	0.029
-630.522	-103.299	-0.180	-0.043
-629.507	-200.000	0.009	0.150
-628.492	113.997	-0.147	0.183
-627.478	-200.000	0.002	0.187
-626.463	800.000	0.039	0.154
-625.449	64.197	0.093	0.095
-624.434	-119.668	0.425	0.075
-623.419	-200.000	-0.000	-0.118
-622.405	671.239	0.008	0.020
-621.390	-39.869	0.342	-0.182
-620.376	800.000	-0.123	-0.439
-619.361	188.078	0.019	-0.029
-618.346	580.762	0.134	0.334
-617.332	274.359	-0.235	-0.424
-616.317	800.000	-0.062	0.201
-615.303	149.202	-0.217	-0.300
-614.288	-5.637	0.156	0.109
-613.273	-200.000	-0.039	0.321
-612.259	-116.011	-0.258	-0.049
-611.244	64.676	0.161	0.166
-610.230	-96.529	0.237	0.064
-609.215	-97.423	0.118	-0.031
-608.201	800.000	-0.050	0.185
-607.186	-82.528	0.046	-0.015
-606.171	252.159	0.086	0.150
-605.157	-200.000	0.035	0.162
-604.142	-200.000	0.048	0.219
-603.128	800.000	0.068	0.227
-602.113	91.287	-0.091	-0.104
-601.098	-200.000	-0.027	-0.137
-600.084	-14.513	0.156	0.102
-599.069	78.276	-0.204	-0.222
-598.055	151.345	0.033	0.046
-597.040	-86.972	0.109	0.034
-596.025	8.880	-0.191	-0.147
-595.011	-104.457	-0.054	-0.013
-593.996	-122.175	0.067	-0.011
-592.982	-200.000	0.068	-0.395
-591.967	48.462	0.191	-0.182
-590.952	48.602	-0.196	-0.187
-589.938	-200.000	0.016	0.125
-588.923	3.476	-0.029	0.022
-587.909	47.409	-0.194	-0.184
-586.894	510.432	0.051	-0.120
-585.879	-15.123	0.130	0.085
-584.865	98.967	-0.216	0.254
-583.850	103.719	-0.030	-0.036
-582.836	757.983	0.140	-0.385
-581.821	-123.586	-0.266	0.043
-580.806	-166.370	0.069	-0.003
-579.792	14.076	0.312	0.247
-578.777	52.331	-0.149	0.144
-577.763	-200.000	0.015	0.229
-576.748	800.000	0.009	0.031
-575.733	-0.851	0.095	-0.069
-574.719	-200.000	0.026	0.257
-573.704	146.217	0.074	0.101
-572.690	394.065	-0.056	0.119
-571.675	107.670	0.263	0.318
-570.661	-71.818	-0.161	0.061
-569.646	309.946	-0.119	0.227
-568.631	-200.000	-0.002	-0.104
-567.617	-200.000	-0.035	-0.189
-566.602	800.000	-0.045	-0.190
-565.588	-102.933	-0.520	-0.126
-564.573	32.794	-0.066	-0.058
-563.558	-70.898	0.122	-0.047
-562.544	-34.953	0.216	-0.120
-561.529	-32.434	0.251	-0.143
-560.515	-137.905	-0.279	-0.032
-559.500	-100.329	0.340	-0.086
-558.485	-200.000	-0.025	-0.281
-557.471	144.125	0.114	-0.154
-556.456	-29.677	-0.055	0.032
-555.442	-158.589	-0.032	-0.002
-554.427	37.600	-0.195	-0.176
-553.412	-176.218	-0.509	0.014
-552.398	-183.081	-0.148	-0.003
-551.383	72.480	-0.279	0.296
-550.369	10.619	0.120	0.093
-549.354	-158.035	-0.254	0.015
-548.339	-115.272	-0.310	0.060
-547.325	20.262	0.175	0.144
-546.310	8.474	0.334	0.256
-545.296	-64.227	-0.197	-0.082
-544.281	-200.000	-0.012	0.078
-543.266	-200.000	-0.035	0.323
-542.252	-73.150	0.082	-0.031
-541.237	73.654	-0.104	0.111
-540.223	-74.976	-0.212	0.077
-539.208	-120.858	0.077	-0.013
-538.193	-18.986	0.204	-0.129
-537.179	-61.574	-0.299	-0.127
-536.164	742.304	-0.120	0.329
-535.150	-200.000	0.007	0.147
-534.135	121.400	-0.046	-0.058
-533.121	-200.000	0.046	-0.271
-532.106	-133.045	-0.464	-0.060
-531.091	-63.669	-0.067	0.028
-530.077	395.972	-0.049	-0.105
-529.062	74.739	-0.294	-0.314
-528.048	-93.489	-0.321	0.090
-527.033	68.435	-0.170	-0.177
-526.018	-82.942	0.093	-0.031
-525.004	-67.948	-0.077	0.031
-523.989	-34.590	-0.128	-0.071
-522.975	181.290	0.157	0.235
-521.960	-200.000	0.000	-0.080
-520.945	310.219	-0.124	-0.235
-519.931	-43.411	0.253	0.130
-518.916	-12.234	0.046	0.031
-517.902	-62.527	-0.404	-0.170
-516.887	-74.759	-0.319	-0.116
-515.872	317.907	0.112	0.215
-514.858	3.507	0.084	0.062
-513.843	-137.454	0.115	-0.013
-512.829	295.600	0.078	0.146
-511.814	-135.002	0.275	0.034
-510.799	15.993	-0.140	-0.112
-509.785	-126.505	-0.038	0.006
-508.770	26.304	0.067	-0.057
-507.756	106.450	0.070	-0.084
-506.741	-32.257	0.110	0.063
-505.726	-200.000	-0.002	0.131
-504.712	-93.085	0.136	0.038
-503.697	22.962	-0.138	-0.115
-502.683	-75.215	-0.278	0.101
-501.668	126.816	0.171	0.220
-500.653	52.178	0.082	0.079
-499.639	-84.487	0.149	-0.048
-498.624	226.083	0.019	0.031
-497.610	-79.940	-0.311	-0.106
-496.595	235.878	-0.168	-0.281
-495.581	-92.367	0.363	-0.104
-494.566	-148.827	0.052	0.004
-493.551	109.545	-0.049	-0.059
-492.537	-5.628	0.319	-0.222
-491.522	-192.422	0.235	0.002
-490.508	-200.000	-0.077	-0.375
-489.493	-73.900	0.165	-0.061
-488.478	204.160	0.134	-0.210
-487.464	-69.851	0.120	-0.046
-486.449	800.000	-0.078	0.309
-485.435	439.130	0.029	-0.065
-484.420	-110.898	0.184	0.038
-483.405	-200.000	0.010	0.064
-482.391	352.943	0.024	0.048
-481.376	172.492	0.143	-0.209
-480.362	13.137	0.113	-0.089
-479.347	-36.093	-0.223	0.122
-478.332	800.000	-0.058	0.223
-477.318	-186.693	0.332	-0.005
-476.303	283.984	0.056	0.103
-475.289	-104.475	-0.238	0.056
-474.274	-87.348	-0.050	-0.015
-473.259	88.375	-0.183	0.206
-472.245	76.632	-0.092	-0.099
-471.230	166.639	-0.075	-0.108
-470.216	756.357	-0.024	-0.065
-469.201	24.286	0.193	-0.162
-468.186	-165.546	0.247	-0.011
-467.172	-200.000	-0.024	-0.519
-466.157	-167.274	-0.263	0.011
-465.143	800.000	-0.050	0.191
-464.128	-51.843	0.175	-0.082
-463.113	20.980	0.353	0.290
-462.099	-50.986	-0.137	0.065
-461.084	76.459	0.183	-0.197
-460.070	193.035	0.191	0.293
-459.055	-70.041	-0.079	-0.031
-458.040	36.426	0.061	-0.055
-457.026	800.000	0.049	-0.213
-456.011	800.000	0.052	0.157
-454.997	-41.876	0.266	0.138
-453.982	196.506	0.128	-0.197
-452.968	257.156	-0.085	0.148
-451.953	-32.044	-0.215	-0.122
-450.938	5.268	-0.188	-0.140
-449.924	-200.000	-0.009	0.261
-448.909	46.866	0.333	0.314
-447.895	-18.759	0.199	-0.126
-446.880	800.000	-0.096	-0.342
-445.865	65.201	0.088	0.090
-444.851	-173.457	0.097	-0.003
-443.836	104.376	-0.091	0.108
-442.822	-32.892	-0.225	0.127
-441.807	151.686	-0.165	0.227
-440.792	-40.974	0.028	0.015
-439.778	-200.000	0.009	0.270
-438.763	-86.704	0.150	0.047
-437.749	800.000	-0.041	-0.115
-436.734	800.000	0.013	0.040
-435.719	-200.000	-0.012	-0.147
-434.705	-200.000	0.001	-0.153
-433.690	-49.614	0.161	0.077
-432.676	783.058	-0.174	0.483
-431.661	88.065	0.012	0.014
-430.646	-37.222	-0.147	0.080
-429.632	-14.710	-0.268	0.174
-428.617	-81.641	-0.348	0.116
-427.603	-80.129	-0.200	-0.068
-426.588	5.629	0.294	-0.220
-425.573	83.435	-0.083	0.092
-424.559	-78.225	-0.144	-0.050
-423.544	125.341	0.066	-0.084
-422.530	196.471	0.268	-0.413
-421.515	1.707	-0.121	0.088
-420.500	-146.257	0.154	-0.014
-419.486	-1.886	-0.237	0.169
-418.471	340.529	0.159	-0.314
-417.457	-143.172	-0.302	-0.029
-416.442	451.414	0.027	-0.060
-415.428	300.510	-0.096	-0.178
-414.413	15.274	0.293	-0.232
-413.398	-3.269	-0.210	-0.148
-412.384	172.596	-0.141	0.205
-411.369	800.000	-0.120	-0.381
-410.355	-31.061	0.110	-0.063
-409.340	52.582	-0.141	0.136
-408.325	207.637	-0.047	-0.074
-407.311	-164.602	0.060	0.003
-406.296	58.073	0.099	0.098
-405.282	-7.608	-0.163	-0.112
-404.267	573.086	-0.070	0.172
-403.252	1.597	0.105	-0.076
-402.238	62.841	-0.042	0.042
-401.223	-157.398	0.145	-0.009
-400.209	800.000	0.056	0.198
-399.194	800.000	0.055	0.171
-398.179	235.712	0.092	0.154
-397.165	-139.963	0.265	-0.028
-396.150	361.022	0.014	0.029
-395.136	800.000	0.100	0.386
-394.121	800.000	-0.051	0.222
-393.106	74.333	-0.200	-0.212
-392.092	-200.000	0.008	0.047
-391.077	545.425	0.025	0.060
-390.063	88.189	-0.115	0.129
-389.048	-158.548	0.212	0.012
-388.033	792.212	0.095	0.265
-387.019	88.914	0.206	0.232
-386.004	58.055	-0.273	0.270
-384.990	125.384	-0.188	-0.240
-383.975	-87.588	-0.224	-0.069
-382.960	3.027	-0.229	0.168
-381.946	160.562	-0.126	0.177
-380.931	800.000	0.073	0.271
-379.917	-200.000	0.022	0.267
-378.902	31.586	0.034	-0.029
-377.888	128.034	0.284	-0.365
-376.873	314.486	-0.119	0.226
-375.858	800.000	-0.097	0.342
-374.844	-1.624	0.023	0.016
-373.829	305.099	0.032	-0.060
-372.815	368.950	-0.116	-0.237
-371.800	-200.000	0.043	0.241
-370.785	-147.471	-0.090	0.008
-369.771	-200.000	0.004	0.218
-368.756	9.774	-0.138	-0.106
-367.742	698.136	-0.063	-0.167
-366.727	68.460	0.325	-0.336
-365.712	214.766	0.056	-0.089
-364.698	281.393	-0.144	-0.260
-363.683	201.001	0.028	-0.043
-362.669	-200.000	0.033	-0.165
-361.654	-200.000	-0.040	-0.263
-360.639	15.580	0.034	-0.027
-359.625	-90.884	-0.146	-0.042
-358.610	148.548	0.093	0.127
-357.596	355.617	-0.138	-0.277
-356.581	599.326	0.155	-0.389
-355.566	-116.818	-0.321	-0.059
-354.552	592.586	-0.072	0.179
-353.537	-93.807	-0.121	0.034
-352.523	585.664	-0.119	0.295
-351.508	-50.902	0.168	-0.080
-350.493	-200.000	-0.005	-0.244
-349.479	28.816	-0.122	-0.105
-348.464	80.787	0.328	0.357
-347.450	111.834	-0.115	-0.140
-346.435	113.812	-0.169	-0.208
-345.420	56.543	-0.126	-0.124
-344.406	-60.131	0.145	-0.063
-343.391	-84.212	0.125	0.040
-342.377	-167.324	0.086	-0.003
-341.362	-142.165	0.373	-0.037
-340.348	-63.434	0.220	0.091
-339.333	-76.553	0.217	-0.077
-338.318	-173.197	0.098	-0.003
-337.304	180.909	0.032	-0.048
-336.289	109.930	0.090	-0.109
-335.275	-45.646	-0.123	0.061
-334.260	800.000	0.041	-0.131
-333.245	7.558	-0.159	0.120
-332.231	-138.898	0.195	-0.021
-331.216	52.222	0.379	-0.365
-330.202	176.308	-0.144	0.211
-329.187	260.166	0.189	-0.330
-328.172	313.219	0.070	0.132
-327.158	-111.233	-0.362	0.075
-326.143	800.000	0.086	-0.307
-325.129	-200.000	0.023	-0.117
-324.114	-117.003	-0.377	-0.069
-323.099	-200.000	0.060	0.268
-322.085	193.957	0.089	-0.135
-321.070	-151.546	0.119	-0.009
-320.056	45.371	0.165	-0.154
-319.041	67.519	0.207	0.213
-318.026	316.069	0.193	0.368
-317.012	-147.098	0.153	0.013
-315.997	-4.787	-0.128	0.089
-314.983	-69.446	0.205	-0.079
-313.968	464.162	0.087	0.196
-312.953	-95.843	-0.111	0.030
-311.939	-111.979	0.238	0.048
-310.924	188.654	0.078	-0.118
-309.910	-115.025	0.138	0.026
-308.895	51.005	0.044	0.042
-307.880	15.537	-0.094	0.074
-306.866	778.683	0.037	0.101
-305.851	-47.973	-0.016	-0.008
-304.837	-200.000	-0.002	-0.237
-303.822	-200.000	-0.036	-0.207
-302.807	800.000	-0.047	-0.171
-301.793	-200.000	-0.023	-0.204
-300.778	800.000	0.086	0.261
-299.764	118.009	-0.191	0.236
-298.749	-106.789	-0.251	0.056
-297.735	-48.632	0.239	-0.115
-296.720	31.181	-0.067	-0.058
-295.705	-73.045	0.138	-0.051
-294.691	192.655	0.026	0.040
-293.676	10.646	-0.205	-0.157
-292.662	55.260	-0.275	-0.268
-291.647	-200.000	-0.055	-0.255
-290.632	-107.100	0.271	0.060
-289.618	-200.000	-0.017	-0.360
-288.603	258.434	0.137	-0.237
-287.589	-117.927	0.060	-0.011
-286.574	-200.000	0.007	0.342
-285.559	73.873	0.219	0.231
-284.545	5.775	-0.199	-0.148
-283.530	800.000	-0.099	-0.346
-282.516	-145.109	0.097	-0.009
-281.501	-200.000	-0.013	0.244
-280.486	-200.000	-0.019	0.206
-279.472	-70.608	-0.224	0.085
-278.457	96.121	0.169	0.194
-277.443	-13.459	0.087	-0.057
-276.428	102.186	-0.089	-0.105
-275.413	800.000	0.048	0.192
-274.399	-2.514	0.316	0.223
-273.384	-59.511	0.167	0.072
-272.370	800.000	-0.053	0.177
-271.355	798.030	-0.121	0.336
-270.340	-70.609	0.094	0.036
-269.326	129.137	-0.195	-0.250
-268.311	4.935	-0.121	-0.089
-267.297	783.149	-0.068	-0.187
-266.282	-200.000	-0.013	0.115
-265.267	-102.303	0.048	0.012
-264.253	800.000	-0.031	0.090
-263.238	84.494	0.049	-0.054
-262.224	-24.844	0.146	-0.087
-261.209	625.545	0.063	-0.160
-260.195	-200.000	-0.007	0.166
-259.180	800.000	-0.086	-0.315
-258.165	0.296	-0.216	-0.155
-257.151	-78.266	-0.333	-0.115
-256.136	-135.199	-0.222	-0.027
-255.122	240.239	0.044	0.074
-254.107	70.843	-0.199	0.208
-253.092	-99.436	-0.298	0.075
-252.078	-65.043	-0.077	-0.031
-251.063	-200.000	-0.014	-0.109
-250.049	8.292	-0.147	-0.111
-249.034	-200.000	0.202	0.000
-248.019	276.677	0.073	-0.130
-247.005	-56.439	0.304	0.136
-245.990	-47.541	0.103	-0.050
-244.976	-90.779	0.245	-0.071
-243.961	-200.000	0.058	0.413
-242.946	68.385	-0.158	0.162
-241.932	-200.000	0.044	-0.205
-240.917	-200.000	-0.014	-0.210
-239.903	189.024	0.083	0.124
-238.888	-0.340	0.255	0.182
-237.873	-149.743	-0.190	0.015
-236.859	-200.000	-0.045	-0.243
-235.844	40.846	-0.163	0.148
-234.830	5.125	-0.279	-0.207
-233.815	-81.175	0.230	-0.076
-232.800	180.934	-0.163	-0.241
-231.786	800.000	0.066	-0.211
-230.771	-92.859	0.154	-0.043
-229.757	-200.000	0.004	0.223
-228.742	279.723	0.119	0.213
-227.727	-200.000	-0.056	0.345
-226.713	-66.550	-0.272	0.108
-225.698	-200.000	-0.023	-0.189
-224.684	-200.000	0.046	-0.216
-223.669	-72.035	-0.118	-0.044
-222.655	-34.708	-0.150	0.082
-221.640	-13.315	-0.190	-0.124
-220.625	-86.252	-0.043	0.013
-219.611	-164.439	0.068	-0.003
-218.596	-10.534	0.256	0.170
-217.582	-50.019	0.075	-0.036
-216.567	194.434	-0.244	0.371
-215.552	-70.939	-0.123	-0.046
-214.538	-3.122	-0.223	0.156
-213.523	-17.299	0.253	0.160
-212.509	74.066	0.117	0.123
-211.494	-173.535	-0.054	-0.002
-210.479	-25.783	0.247	-0.146
-209.465	-173.534	-0.044	0.001
-208.450	53.695	-0.066	0.063
-207.436	-164.905	0.102	-0.005
-206.421	85.072	-0.147	-0.162
-205.406	71.915	0.283	-0.296
-204.392	476.455	0.066	-0.150
-203.377	-190.591	-0.289	0.003
-202.363	149.519	-0.049	-0.067
-201.348	56.652	-0.067	0.066
-200.333	296.588	0.135	-0.249
-199.319	51.532	-0.079	-0.075
-198.304	149.623	-0.080	0.108
-197.290	-64.275	0.085	0.035
-196.275	-200.000	-0.036	0.214
-195.260	-26.746	0.233	0.136
-194.246	-200.000	-0.026	0.185
-193.231	-101.759	-0.357	0.087
-192.217	-23.400	0.107	-0.064
-191.202	800.000	0.024	-0.106
-190.187	487.562	0.231	-0.528
-189.173	130.149	-0.178	0.228
-188.158	-118.490	0.254	-0.045
-187.144	-200.000	-0.021	0.174
-186.129	31.680	0.034	0.030
-185.114	64.160	-0.134	-0.136
-184.100	147.604	-0.183	0.247
-183.085	24.336	-0.181	0.150
-182.071	55.281	-0.357	0.346
-181.056	127.841	0.085	0.108
-180.042	-112.913	-0.182	0.036
-179.027	217.025	-0.077	-0.123
-178.012	-117.515	0.387	-0.070
-176.998	275.757	0.250	0.444
-175.983	586.569	0.038	0.093
-174.969	461.871	0.095	0.213
-173.954	800.000	-0.053	0.171
-172.939	-200.000	0.018	-0.110
-171.925	800.000	0.030	-0.131
-170.910	-200.000	-0.001	-0.331
-169.896	-49.414	0.135	-0.065
-168.881	-200.000	0.026	0.179
-167.866	-56.447	0.073	-0.032
-166.852	25.440	0.154	-0.128
-165.837	-128.884	-0.271	0.038
-164.823	-176.195	-0.208	-0.005
-163.808	800.000	-0.085	0.368
-162.793	446.275	-0.091	0.201
-161.779	220.434	0.272	-0.436
-160.764	88.687	0.418	-0.465
-159.750	-77.173	0.317	-0.111
-158.735	351.147	-0.113	-0.225
-157.720	244.791	-0.049	-0.082
-156.706	-162.112	-0.133	0.007
-155.691	-8.519	-0.332	-0.224
-154.677	-200.000	0.051	-0.324
-153.662	-200.000	0.016	-0.104
-152.647	-200.000	-0.004	0.171
-151.633	-134.460	0.160	0.020
-150.618	-93.913	0.364	-0.100
-149.604	-56.721	0.483	-0.214
-148.589	150.316	0.038	0.052
-147.574	-65.379	-0.169	0.068
-146.560	-111.607	-0.149	0.030
-145.545	-200.000	0.036	-0.180
-144.531	30.435	0.176	-0.151
-143.516	390.504	-0.164	0.341
-142.502	367.110	-0.105	0.211
-141.487	-101.951	0.105	-0.025
-140.472	218.057	0.015	-0.023
-139.458	420.355	-0.065	-0.139
-138.443	628.358	0.030	0.075
-137.429	-47.444	0.317	0.154
-136.414	25.836	0.332	0.277
-135.399	-200.000	-0.231	-0.001
-134.385	-50.563	0.090	0.042
-133.370	84.002	0.019	-0.021
-132.356	81.348	0.098	0.106
-131.341	427.426	-0.081	-0.175
-130.326	-131.635	-0.158	0.021
-129.312	-5.258	-0.104	0.071
-128.297	53.760	-0.131	0.126
-127.283	-200.000	0.040	-0.314
-126.268	24.643	-0.316	0.261
-125.253	647.012	0.081	0.208
-124.239	70.282	0.163	0.169
-123.224	52.094	-0.013	-0.013
-122.210	-200.000	0.008	0.198
-121.195	26.305	0.250	-0.209
-120.180	308.575	-0.053	0.099
-119.166	-200.000	0.022	0.138
