DTS Sentinel unit serial number:	SN413079Multiplexer serial number:	ORYXHardware model number:	OX4-SRSoftware version number:	ORYX F/W v4.00 Oryx Data Collector v3.7.2.0data status	okinstallation	princeton_trtdifferential loss correction	single-endedforward channel	channel 3reverse channel	N/Adate	2019/09/18time	08:56:35forward acquisition time	60.00reverse acquisition time	0.00gamma	496.2192k internal	0.2339k external	0.2339temperature offset calibration	0.9951default loss term (dB/km)	0.3790temperature slope calibration	1.0000multiplexer offset coefficient	1.0000multiplexer slope coefficient	1.0000fibre end	0.00T internal ref (°C)	24.94T ext. ref 1 (°C)	0.23T ext. ref 2 (°C)	21.28length (m)	temperature (°C)	Stokes	anti-Stokes-747.200	800.000	-0.059	0.219
-746.185	-155.036	0.228	0.015
-745.171	109.741	0.232	0.279
-744.156	800.000	-0.056	0.228
-743.142	-81.781	-0.287	0.094
-742.127	-60.947	-0.409	0.173
-741.112	-41.777	-0.201	0.103
-740.098	800.000	-0.047	0.174
-739.083	131.300	-0.051	-0.065
-738.069	800.000	0.026	0.113
-737.054	800.000	-0.083	0.347
-736.039	51.745	-0.300	-0.287
-735.025	-200.000	-0.020	-0.223
-734.010	-200.000	-0.009	-0.056
-732.996	323.845	-0.053	-0.102
-731.981	-0.612	-0.213	0.151
-730.966	-91.062	-0.271	-0.078
-729.952	-200.000	-0.032	0.178
-728.937	163.193	-0.112	0.158
-727.923	15.335	0.149	0.118
-726.908	-114.383	-0.364	-0.070
-725.894	75.806	-0.044	0.047
-724.879	-200.000	0.004	0.056
-723.864	-200.000	-0.080	-0.499
-722.850	800.000	0.082	-0.256
-721.835	-28.664	0.064	0.037
-720.821	-87.663	-0.181	0.055
-719.806	-57.037	-0.072	-0.032
-718.791	-157.352	0.288	0.017
-717.777	-94.937	-0.263	0.071
-716.762	-133.391	0.198	0.025
-715.748	800.000	-0.017	0.047
-714.733	146.571	-0.064	-0.086
-713.718	30.246	-0.046	-0.039
-712.704	268.199	-0.242	-0.424
-711.689	382.813	-0.070	0.143
-710.675	73.743	-0.185	-0.195
-709.660	1.889	0.107	0.077
-708.645	-74.524	-0.367	-0.133
-707.631	538.323	0.138	0.330
-706.616	800.000	-0.044	0.156
-705.602	586.309	0.042	0.104
-704.587	112.485	0.176	0.213
-703.572	-10.584	-0.098	-0.065
-702.558	732.884	0.059	-0.157
-701.543	-200.000	0.033	-0.168
-700.529	351.840	-0.038	-0.076
-699.514	141.091	0.127	-0.169
-698.499	-122.841	-0.248	-0.040
-697.485	-41.707	-0.176	-0.090
-696.470	-41.800	0.278	-0.143
-695.456	214.455	-0.271	-0.429
-694.441	542.631	-0.045	-0.109
-693.426	97.663	-0.162	-0.186
-692.412	-200.000	-0.043	-0.262
-691.397	-64.810	-0.302	-0.123
-690.383	-200.000	-0.041	0.287
-689.368	-49.019	0.116	-0.056
-688.354	-200.000	-0.017	0.217
-687.339	800.000	-0.055	0.180
-686.324	64.327	0.214	-0.215
-685.310	142.806	-0.249	0.331
-684.295	-200.000	0.059	-0.292
-683.281	-139.107	-0.165	0.018
-682.266	101.479	-0.243	0.283
-681.251	77.756	-0.111	-0.119
-680.237	800.000	-0.104	0.387
-679.222	-166.516	-0.149	-0.006
-678.208	95.091	-0.247	-0.281
-677.193	69.164	0.122	-0.126
-676.178	800.000	0.103	-0.303
-675.164	566.084	-0.145	0.352
-674.149	230.557	0.087	0.142
-673.135	19.888	0.079	-0.064
-672.120	-120.066	0.354	0.061
-671.105	204.884	0.004	0.007
-670.091	21.104	0.150	-0.122
-669.076	-117.818	0.254	0.046
-668.062	-13.318	0.118	-0.076
-667.047	-97.882	-0.230	-0.059
-666.032	769.987	0.203	0.553
-665.018	-21.252	0.163	-0.099
-664.003	-200.000	-0.067	0.430
-662.989	-18.257	-0.467	0.292
-661.974	-98.486	-0.314	-0.080
-660.959	-200.000	0.020	0.103
-659.945	53.376	0.078	0.075
-658.930	-200.000	-0.016	-0.359
-657.916	-200.000	-0.022	0.437
-656.901	800.000	0.116	-0.361
-655.886	360.472	0.073	-0.147
-654.872	-200.000	-0.007	-0.117
-653.857	800.000	0.066	-0.254
-652.843	800.000	0.070	-0.252
-651.828	191.085	0.227	-0.341
-650.814	-200.000	0.007	-0.085
-649.799	-200.000	-0.026	0.134
-648.784	151.440	-0.081	-0.110
-647.770	800.000	-0.087	-0.305
-646.755	-39.042	-0.058	-0.031
-645.741	-200.000	0.018	0.364
-644.726	-111.847	-0.416	-0.084
-643.711	-64.058	-0.292	0.119
-642.697	-3.322	0.242	0.168
-641.682	56.247	-0.140	0.136
-640.668	-200.000	0.059	-0.368
-639.653	-101.980	-0.256	0.062
-638.638	-200.000	0.007	-0.224
-637.624	12.894	0.101	0.078
-636.609	486.527	-0.180	-0.411
-635.595	-140.028	0.052	-0.005
-634.580	-111.585	-0.398	0.081
-633.565	-121.256	0.186	0.031
-632.551	-200.000	-0.030	-0.179
-631.536	800.000	0.033	-0.143
-630.522	28.813	0.206	-0.175
-629.507	118.447	0.067	-0.082
-628.492	-20.679	0.280	-0.172
-627.478	-110.127	0.164	0.034
-626.463	24.679	0.253	-0.209
-625.449	-67.196	-0.090	-0.036
-624.434	-200.000	-0.016	-0.377
-623.419	76.516	0.166	-0.176
-622.405	-105.798	0.347	0.078
-621.390	-200.000	0.012	-0.119
-620.376	-200.000	-0.059	-0.308
-619.361	-200.000	-0.016	-0.087
-618.346	-61.596	-0.422	-0.177
-617.332	800.000	0.057	-0.229
-616.317	-184.867	0.142	0.002
-615.303	-67.214	-0.128	0.050
-614.288	-37.005	-0.124	0.066
-613.273	-69.542	-0.055	0.021
-612.259	225.568	0.121	0.195
-611.244	-127.326	0.215	-0.031
-610.230	800.000	0.042	-0.163
-609.215	-200.000	0.022	0.104
-608.201	800.000	-0.113	0.375
-607.186	-101.425	-0.174	0.042
-606.171	-142.468	0.115	0.011
-605.157	231.684	0.233	-0.380
-604.142	-200.000	0.029	0.255
-603.128	-200.000	0.006	-0.275
-602.113	-15.166	-0.250	0.160
-601.098	419.196	-0.190	0.405
-600.084	-102.446	0.079	0.019
-599.069	-132.764	0.075	0.010
-598.055	-100.503	0.190	-0.047
-597.040	-68.643	-0.116	0.045
-596.025	18.898	0.280	0.223
-595.011	-200.000	0.032	-0.166
-593.996	87.511	0.191	-0.211
-592.982	-144.744	-0.092	-0.008
-591.967	-197.716	0.290	-0.002
-590.952	-200.000	0.018	0.445
-589.938	-180.150	-0.154	-0.003
-588.923	435.851	0.159	0.345
-587.909	279.084	-0.114	-0.202
-586.894	-200.000	-0.228	0.000
-585.879	385.617	0.077	-0.158
-584.865	119.322	0.122	0.150
-583.850	49.254	-0.162	-0.151
-582.836	246.422	-0.100	-0.168
-581.821	-98.114	-0.185	-0.047
-580.806	-18.269	-0.139	0.087
-579.792	-116.186	0.126	0.023
-578.777	-35.718	-0.162	0.087
-577.763	367.138	0.069	0.139
-576.748	-200.000	-0.033	-0.343
-575.733	183.085	0.228	-0.335
-574.719	45.665	0.192	-0.177
-573.704	26.352	0.081	0.067
-572.690	83.915	0.153	-0.166
-571.675	-85.451	0.357	0.111
-570.661	800.000	-0.122	0.336
-569.646	800.000	-0.121	-0.503
-568.631	-138.287	-0.344	-0.038
-567.617	306.175	-0.053	0.099
-566.602	-81.588	-0.380	-0.124
-565.588	54.534	-0.094	0.090
-564.573	-31.924	0.064	-0.036
-563.558	-66.892	0.186	-0.073
-562.544	23.264	0.002	0.001
-561.529	-80.479	-0.397	-0.132
-560.515	-62.069	-0.409	-0.170
-559.500	-74.394	0.191	-0.069
-558.485	800.000	-0.071	-0.237
-557.471	-117.248	-0.211	0.038
-556.456	120.124	-0.162	-0.200
-555.442	-200.000	0.093	0.000
-554.427	767.203	0.047	-0.128
-553.412	-33.405	-0.312	-0.172
-552.398	-64.361	0.440	0.178
-551.383	46.547	-0.218	0.202
-550.369	-200.000	-0.015	-0.174
-549.354	-140.662	0.166	0.017
-548.339	-129.305	0.191	0.026
-547.325	-146.706	0.132	-0.011
-546.310	704.468	-0.032	0.085
-545.296	244.469	0.189	0.316
-544.281	-200.000	-0.091	0.435
-543.266	200.631	-0.151	0.232
-542.252	-145.817	0.286	0.025
-541.237	-102.497	0.164	-0.039
-540.223	800.000	0.054	0.149
-539.208	-148.605	0.139	-0.011
-538.193	800.000	-0.035	-0.118
-537.179	-200.000	0.062	0.340
-536.164	-200.000	0.020	0.154
-535.150	296.710	0.023	0.041
-534.135	117.697	-0.178	0.218
-533.121	74.152	-0.197	0.205
-532.106	271.306	-0.065	-0.114
-531.091	-109.990	-0.349	0.073
-530.077	800.000	0.085	0.308
-529.062	-58.321	-0.160	-0.069
-528.048	82.979	0.100	-0.108
-527.033	46.839	0.046	-0.043
-526.018	150.821	-0.294	-0.397
-525.004	-123.158	-0.180	-0.029
-523.989	-129.290	0.401	0.056
-522.975	-25.857	0.070	-0.041
-521.960	-200.000	0.003	0.110
-520.945	99.039	0.223	0.256
-519.931	224.281	0.111	-0.179
-518.916	3.833	0.080	-0.058
-517.902	-199.083	-0.237	-0.001
-516.887	584.506	0.039	-0.095
-515.872	-200.000	-0.032	-0.328
-514.858	-200.000	-0.005	-0.078
-513.843	105.697	-0.064	0.076
-512.829	350.060	0.110	0.217
-511.814	185.417	0.139	0.205
-510.799	583.435	0.017	-0.040
-509.785	45.549	0.112	-0.102
-508.770	-37.563	0.072	0.038
-507.756	-140.548	-0.340	-0.035
-506.741	-132.548	0.225	-0.029
-505.726	-95.231	0.324	0.087
-504.712	-143.028	-0.211	-0.020
-503.697	-29.795	-0.307	-0.174
-502.683	-71.044	0.309	-0.116
-501.668	405.115	-0.168	-0.352
-500.653	141.583	-0.088	-0.116
-499.639	800.000	-0.060	-0.181
-498.624	-162.340	-0.472	0.023
-497.610	800.000	0.021	0.083
-496.595	-199.211	0.144	0.001
-495.581	429.886	0.214	-0.461
-494.566	-128.367	-0.364	0.051
-493.551	800.000	0.053	-0.173
-492.537	328.030	0.118	0.225
-491.522	800.000	-0.093	0.351
-490.508	-200.000	-0.012	0.066
-489.493	-200.000	-0.038	-0.199
-488.478	-106.743	0.164	0.036
-487.464	786.830	0.033	0.090
-486.449	-175.033	0.283	-0.008
-485.435	-2.364	-0.230	-0.160
-484.420	63.532	0.092	0.091
-483.405	0.494	0.269	0.191
-482.391	255.612	0.118	0.200
-481.376	48.285	0.173	0.161
-480.362	-85.449	-0.250	0.077
-479.347	-126.140	0.095	0.014
-478.332	-112.005	0.435	-0.087
-477.318	-200.000	0.003	0.267
-476.303	65.257	0.158	0.159
-475.289	-54.095	0.065	-0.029
-474.274	-200.000	0.007	0.122
-473.259	31.214	0.225	0.192
-472.245	-9.755	-0.173	-0.114
-471.230	124.048	0.202	-0.251
-470.216	-200.000	0.013	0.122
-469.201	227.460	-0.212	-0.342
-468.186	-101.937	-0.054	-0.013
-467.172	-13.483	0.188	0.121
-466.157	-183.289	0.155	0.003
-465.143	-200.000	-0.005	0.027
-464.128	-200.000	0.141	-0.000
-463.113	-111.669	-0.119	0.024
-462.099	-68.510	-0.167	-0.064
-461.084	-157.629	0.186	0.011
-460.070	-200.000	-0.023	-0.143
-459.055	-100.968	-0.301	-0.073
-458.040	-200.000	0.032	0.481
-457.026	-102.234	-0.237	0.056
-456.011	65.788	-0.106	0.107
-454.997	-54.718	-0.208	0.093
-453.982	-200.000	0.005	0.246
-452.968	800.000	0.138	-0.394
-451.953	-49.673	-0.126	0.060
-450.938	-200.000	0.000	0.025
-449.924	-200.000	0.026	0.115
-448.909	-35.711	0.162	-0.087
-447.895	-75.309	-0.068	-0.024
-446.880	-70.079	-0.102	-0.038
-445.865	124.738	0.101	-0.127
-444.851	-200.000	-0.014	-0.147
-443.836	-117.918	0.239	-0.042
-442.822	103.517	0.182	-0.212
-441.807	800.000	0.122	-0.378
-440.792	-102.804	-0.117	0.028
-439.778	93.150	0.133	0.149
-438.763	-200.000	-0.021	-0.092
-437.749	-200.000	0.008	-0.046
-436.734	-26.025	0.279	0.162
-435.719	229.406	0.184	0.298
-434.705	-200.000	-0.027	0.289
-433.690	93.004	-0.258	0.288
-432.676	94.766	0.114	-0.128
-431.661	-200.000	-0.026	-0.249
-430.646	-78.097	-0.206	0.070
-429.632	80.078	0.060	-0.064
-428.617	24.513	0.265	0.218
-427.603	-110.002	-0.142	-0.029
-426.588	800.000	0.079	0.304
-425.573	-101.763	0.184	-0.044
-424.559	-200.000	-0.019	-0.122
-423.544	-44.291	-0.340	-0.169
-422.530	-135.790	-0.384	0.045
-421.515	-200.000	0.024	0.197
-420.500	29.965	0.254	0.215
-419.486	800.000	-0.097	0.297
-418.471	-61.841	-0.320	0.133
-417.457	64.947	-0.337	0.337
-416.442	45.561	0.134	0.122
-415.428	-4.031	0.176	-0.121
-414.413	-19.277	0.322	-0.198
-413.398	800.000	-0.072	0.222
-412.384	-61.033	0.369	-0.154
-411.369	800.000	0.030	0.107
-410.355	-168.073	0.225	-0.009
-409.340	-200.000	0.052	0.237
-408.325	-200.000	-0.017	0.228
-407.311	2.814	-0.219	-0.158
-406.296	800.000	0.053	0.216
-405.282	-62.844	-0.299	-0.123
-404.267	41.661	0.080	-0.072
-403.252	-75.792	-0.220	-0.077
-402.238	188.901	0.177	-0.262
-401.223	244.308	0.097	-0.162
-400.209	-152.989	-0.016	0.001
-399.194	9.677	-0.194	0.146
-398.179	164.967	0.149	0.208
-397.165	-77.665	0.126	-0.043
-396.150	125.783	-0.177	-0.221
-395.136	515.262	-0.050	0.115
-394.121	-64.625	-0.552	-0.221
-393.106	339.588	-0.160	0.308
-392.092	-161.397	0.167	-0.009
-391.077	-97.387	-0.079	0.020
-390.063	-104.489	0.075	-0.017
-389.048	-147.444	0.199	0.017
-388.033	-200.000	-0.047	0.279
-387.019	-200.000	0.024	-0.198
-386.004	10.521	0.033	0.025
-384.990	78.201	-0.157	0.166
-383.975	108.382	0.156	0.185
-382.960	316.153	-0.161	0.301
-381.946	184.135	0.146	-0.214
-380.931	-200.000	-0.011	0.172
-379.917	-45.370	-0.142	-0.070
-378.902	800.000	0.077	0.245
-377.888	329.210	0.230	-0.438
-376.873	22.447	0.113	-0.091
-375.858	306.876	-0.065	0.119
-374.844	-200.000	-0.037	0.261
-373.829	-200.000	0.046	0.291
-372.815	-46.016	-0.249	-0.121
-371.800	-134.784	0.306	0.037
-370.785	-54.374	-0.156	-0.070
-369.771	800.000	0.087	0.249
-368.756	566.319	0.136	-0.326
-367.742	-17.158	-0.280	0.174
-366.727	392.882	0.046	0.095
-365.712	-51.447	-0.430	0.198
-364.698	133.953	0.148	0.190
-363.683	34.158	-0.247	-0.213
-362.669	-200.000	0.003	0.159
-361.654	-52.926	0.211	-0.096
-360.639	57.866	0.020	-0.020
-359.625	107.289	0.200	-0.235
-358.610	800.000	0.060	0.167
-357.596	243.631	-0.187	0.311
-356.581	-57.214	0.295	-0.128
-355.566	102.004	0.046	-0.053
-354.552	377.013	0.085	-0.172
-353.537	-113.840	-0.115	-0.022
-352.523	439.976	0.098	0.211
-351.508	94.927	-0.047	0.052
-350.493	-130.629	-0.384	-0.051
-349.479	800.000	-0.084	-0.260
-348.464	203.838	0.100	0.153
-347.450	-87.539	-0.459	-0.137
-346.435	780.632	-0.044	-0.119
-345.420	204.999	0.053	0.082
-344.406	586.432	0.079	0.192
-343.391	-41.150	0.301	-0.153
-342.377	-63.231	-0.292	0.119
-341.362	185.059	0.236	0.346
-340.348	115.613	0.107	0.130
-339.333	-200.000	0.012	-0.117
-338.318	97.802	0.088	-0.100
-337.304	-200.000	0.000	0.148
-336.289	-31.976	-0.146	0.081
-335.275	-200.000	0.025	-0.137
-334.260	-200.000	0.041	0.228
-333.245	-0.242	0.025	-0.017
-332.231	-121.338	0.272	-0.045
-331.216	-2.806	-0.125	0.086
-330.202	111.492	0.111	-0.132
-329.187	143.564	-0.128	0.169
-328.172	-149.716	0.205	0.016
-327.158	-34.792	-0.417	-0.225
-326.143	585.773	0.091	0.221
-325.129	800.000	0.028	0.092
-324.114	143.270	0.148	-0.194
-323.099	-73.290	0.029	-0.010
-322.085	115.069	-0.106	-0.128
-321.070	308.362	-0.127	0.235
-320.056	-29.254	-0.114	0.064
-319.041	-142.481	0.139	-0.013
-318.026	133.081	0.247	-0.315
-317.012	-73.978	0.460	-0.164
-315.997	-50.072	0.325	-0.152
-314.983	25.035	-0.024	-0.020
-313.968	152.465	-0.155	-0.208
-312.953	104.605	-0.048	0.055
-311.939	23.750	0.225	0.183
-310.924	-64.918	0.289	-0.115
-309.910	-146.186	0.106	0.009
-308.895	506.813	-0.036	0.082
-307.880	-32.394	0.119	-0.066
-306.866	-144.658	-0.401	-0.036
-305.851	68.606	0.191	-0.193
-304.837	-124.911	0.288	0.044
-303.822	-90.145	0.069	0.020
-302.807	371.680	0.121	-0.242
-301.793	610.012	-0.115	0.284
-300.778	764.694	0.010	0.026
-299.764	-97.401	0.279	0.072
-298.749	800.000	0.047	-0.130
-297.735	277.600	0.100	0.176
-296.720	318.664	-0.086	-0.161
-295.705	-88.160	0.051	0.015
-294.691	-35.184	0.007	-0.004
-293.676	217.148	0.207	-0.325
-292.662	31.822	-0.175	0.149
-291.647	-101.440	-0.082	-0.020
-290.632	-200.000	0.001	-0.177
-289.618	800.000	0.070	-0.258
-288.603	51.695	-0.092	0.086
-287.589	21.653	-0.224	-0.180
-286.574	-200.000	0.031	0.243
-285.559	-178.409	0.104	0.002
-284.545	-151.942	0.069	0.005
-283.530	-51.380	-0.353	-0.163
-282.516	-17.037	-0.061	-0.038
-281.501	-157.834	0.320	-0.019
-280.486	-91.993	0.115	0.032
-279.472	-92.373	-0.148	0.041
-278.457	-200.000	0.029	0.293
-277.443	292.536	-0.091	0.163
-276.428	-35.879	-0.123	-0.066
-275.413	20.389	-0.178	-0.142
-274.399	-134.652	0.135	0.016
-273.384	-87.945	-0.266	-0.079
-272.370	-115.518	0.329	-0.061
-271.355	15.376	-0.161	-0.124
-270.340	-97.047	-0.173	-0.045
-269.326	-81.727	-0.311	-0.100
-268.311	800.000	0.087	0.315
-267.297	-122.334	0.214	-0.034
-266.282	29.430	0.248	0.207
-265.267	-61.866	0.144	-0.059
-264.253	-57.798	-0.179	0.077
-263.238	164.330	-0.157	0.217
-262.224	193.536	-0.072	0.107
-261.209	800.000	0.045	-0.156
-260.195	800.000	0.030	-0.082
-259.180	-70.232	0.170	0.064
-258.165	-7.992	-0.138	0.091
-257.151	111.490	-0.179	0.213
-256.136	-200.000	0.020	0.125
-255.122	62.743	-0.170	0.168
-254.107	-79.978	-0.167	0.055
-253.092	-200.000	0.026	-0.222
-252.078	12.395	-0.139	-0.106
-251.063	-76.027	0.172	0.060
-250.049	-199.521	0.075	-0.000
-249.034	-159.931	-0.364	0.020
-248.019	324.129	-0.145	0.272
-247.005	-88.884	-0.263	0.077
-245.990	-58.475	-0.253	-0.108
-244.976	-136.786	0.173	-0.020
-243.961	-200.000	0.046	0.217
-242.946	249.063	-0.108	0.180
-241.932	-200.000	0.059	-0.352
-240.917	800.000	0.059	0.161
-239.903	-113.706	-0.354	-0.068
-238.888	167.561	-0.051	-0.071
-237.873	-86.997	0.134	0.040
-236.859	-10.628	-0.171	-0.112
-235.844	-6.651	-0.141	0.094
-234.830	101.879	-0.134	-0.154
-233.815	235.282	-0.112	-0.182
-232.800	71.025	0.125	0.127
-231.786	800.000	-0.030	0.095
-230.771	26.216	-0.293	-0.240
-229.757	166.827	-0.232	-0.324
-228.742	224.933	-0.081	0.129
-227.727	800.000	0.097	0.273
-226.713	98.259	-0.395	0.447
-225.698	800.000	0.045	0.134
-224.684	-200.000	-0.012	0.120
-223.669	-105.649	0.353	-0.079
-222.655	-200.000	0.039	-0.280
-221.640	-200.000	-0.038	-0.232
-220.625	-79.204	-0.172	0.057
-219.611	62.957	0.215	-0.212
-218.596	-3.555	-0.079	-0.054
-217.582	59.171	-0.162	0.157
-216.567	800.000	0.097	-0.310
-215.552	26.083	0.277	0.227
-214.538	-149.541	0.189	-0.015
-213.523	-200.000	-0.028	-0.278
-212.509	34.146	0.226	0.194
-211.494	-20.600	0.242	0.146
-210.479	-200.000	-0.090	-0.431
-209.465	-140.167	0.188	-0.019
-208.450	-200.000	0.033	-0.167
-207.436	-200.000	0.029	0.152
-206.421	32.709	-0.252	-0.214
-205.406	-171.871	-0.017	-0.001
-204.392	-88.011	-0.343	-0.101
-203.377	300.727	-0.037	0.067
-202.363	800.000	0.097	0.296
-201.348	-72.020	-0.147	0.054
-200.333	55.447	0.057	0.055
-199.319	-123.343	0.462	-0.072
-198.304	800.000	0.059	-0.177
-197.290	345.282	0.022	-0.042
-196.275	-72.697	0.045	-0.016
-195.260	-200.000	0.036	-0.355
-194.246	-200.000	0.011	-0.295
-193.231	-40.440	-0.171	-0.087
-192.217	-50.100	-0.038	-0.017
-191.202	188.506	-0.123	-0.180
-190.187	-200.000	-0.024	0.120
-189.173	5.722	-0.176	-0.128
-188.158	-88.240	-0.116	-0.034
-187.144	800.000	0.122	-0.373
-186.129	288.976	0.198	-0.352
-185.114	-200.000	-0.044	0.336
-184.100	298.619	0.163	0.293
-183.085	153.669	0.042	0.057
-182.071	34.206	-0.054	0.046
-181.056	361.989	-0.090	-0.176
-180.042	-113.423	-0.284	-0.055
-179.027	-119.897	-0.210	0.035
-178.012	114.126	0.279	0.333
-176.998	-137.271	0.406	0.045
-175.983	-80.204	-0.150	0.049
-174.969	55.667	-0.018	-0.017
-173.954	-108.092	-0.197	-0.042
-172.939	-34.409	-0.151	-0.081
-171.925	38.662	-0.121	-0.106
-170.910	-200.000	0.025	0.139
-169.896	-200.000	-0.026	0.389
-168.881	-154.658	0.369	0.024
-167.866	-200.000	-0.034	-0.404
-166.852	207.650	-0.203	0.310
-165.837	-41.572	0.310	0.156
-164.823	450.646	-0.143	0.310
-163.808	800.000	-0.090	0.250
-162.793	-53.576	-0.199	0.089
-161.779	-116.039	0.168	-0.031
-160.764	-200.000	-0.035	0.196
-159.750	626.114	0.033	0.082
-158.735	139.567	-0.118	-0.152
-157.720	-15.412	0.330	-0.206
-156.706	47.485	0.134	-0.122
-155.691	232.672	0.178	-0.286
-154.677	-36.554	0.110	0.058
-153.662	115.115	0.211	-0.253
-152.647	-42.239	-0.189	-0.095
-151.633	-49.134	-0.375	-0.176
-150.618	-122.998	0.044	-0.007
-149.604	-105.535	-0.366	0.081
-148.589	-115.863	0.154	-0.028
-147.574	-76.352	-0.183	0.063
-146.560	322.047	0.116	0.216
-145.545	800.000	-0.065	0.274
-144.531	69.904	0.343	-0.347
-143.516	-167.387	-0.132	0.005
-142.502	-54.730	-0.231	0.102
-141.487	335.918	0.158	-0.299
-140.472	-37.096	0.205	0.107
-139.458	125.938	0.077	0.096
-138.443	800.000	0.085	-0.278
-137.429	115.653	0.039	-0.047
-136.414	-200.000	-0.008	-0.241
-135.399	46.385	-0.065	0.059
-134.385	-100.023	0.129	-0.032
-133.370	152.205	-0.074	0.098
-132.356	-119.575	0.242	-0.041
-131.341	-200.000	-0.013	0.204
-130.326	-80.093	0.191	-0.063
-129.312	-101.322	0.200	-0.048
-128.297	-200.000	0.014	-0.250
-127.283	-70.908	-0.071	-0.026
-126.268	445.167	0.057	0.122
-125.253	150.570	-0.120	0.160
-124.239	-68.818	0.088	-0.033
-123.224	193.471	0.060	-0.089
-122.210	451.609	0.062	-0.133
