DTS Sentinel unit serial number:	SN413079Multiplexer serial number:	ORYXHardware model number:	OX4-SRSoftware version number:	ORYX F/W v4.00 Oryx Data Collector v3.7.2.0data status	okinstallation	princeton_trtdifferential loss correction	single-endedforward channel	channel 3reverse channel	N/Adate	2019/09/11time	00:06:10forward acquisition time	60.00reverse acquisition time	0.00gamma	496.2192k internal	0.2332k external	0.2332temperature offset calibration	0.9916default loss term (dB/km)	0.3790temperature slope calibration	1.0000multiplexer offset coefficient	1.0000multiplexer slope coefficient	1.0000fibre end	0.00T internal ref (°C)	29.37T ext. ref 1 (°C)	-0.31T ext. ref 2 (°C)	22.84length (m)	temperature (°C)	Stokes	anti-Stokes-747.200	-104.444	0.268	-0.062
-746.185	-42.039	-0.088	-0.045
-745.171	-139.224	0.233	0.025
-744.156	-200.000	0.023	0.384
-743.142	800.000	0.044	0.149
-742.127	574.694	-0.182	0.447
-741.112	135.399	0.154	0.201
-740.098	-31.814	-0.178	-0.101
-739.083	-3.087	-0.133	-0.094
-738.069	-78.832	-0.397	0.136
-737.054	426.473	-0.056	0.121
-736.039	68.660	-0.381	0.393
-735.025	-104.685	-0.014	-0.003
-734.010	139.635	0.309	-0.409
-732.996	345.916	-0.124	-0.246
-731.981	-200.000	0.004	-0.343
-730.966	41.716	-0.338	0.308
-729.952	-19.518	-0.508	0.316
-728.937	83.822	-0.273	-0.299
-727.923	800.000	0.076	-0.322
-726.908	18.212	-0.106	0.085
-725.894	185.914	0.131	-0.197
-724.879	112.853	-0.236	-0.287
-723.864	132.252	0.065	0.084
-722.850	68.626	-0.085	0.088
-721.835	-28.231	-0.191	-0.111
-720.821	-4.804	-0.207	-0.143
-719.806	43.763	0.057	0.053
-718.791	218.893	0.134	-0.216
-717.777	-200.000	-0.010	-0.320
-716.762	169.188	-0.167	-0.240
-715.748	335.808	-0.065	0.127
-714.733	-200.000	-0.064	0.303
-713.718	-144.499	0.210	0.020
-712.704	162.911	-0.080	0.114
-711.689	302.161	0.060	-0.111
-710.675	60.658	0.282	-0.281
-709.660	207.924	0.118	0.186
-708.645	-77.611	-0.245	0.085
-707.631	199.313	0.081	0.125
-706.616	-83.999	-0.336	-0.107
-705.602	165.786	-0.061	0.087
-704.587	169.553	-0.124	-0.179
-703.572	563.809	0.122	-0.298
-702.558	-113.907	-0.247	-0.048
-701.543	-44.724	0.325	0.163
-700.529	76.517	0.224	0.238
-699.514	-200.000	-0.022	-0.169
-698.499	-110.163	-0.012	0.002
-697.485	-200.000	-0.016	0.110
-696.470	64.166	-0.071	-0.072
-695.456	-200.000	0.015	0.559
-694.441	346.148	0.133	0.263
-693.426	228.213	-0.186	0.305
-692.412	-106.042	0.216	0.049
-691.397	-147.457	-0.270	0.023
-690.383	-19.578	0.096	-0.060
-689.368	26.557	0.009	-0.007
-688.354	-199.638	0.329	0.002
-687.339	-126.049	0.430	-0.065
-686.324	800.000	-0.052	0.211
-685.310	25.258	0.200	0.167
-684.295	-200.000	-0.017	-0.178
-683.281	-160.346	-0.324	-0.018
-682.266	197.777	-0.038	-0.058
-681.251	-200.000	0.058	0.340
-680.237	-200.000	-0.002	-0.032
-679.222	55.593	0.076	-0.074
-678.208	-200.000	-0.012	0.162
-677.193	300.889	0.050	-0.093
-676.178	529.295	0.083	-0.197
-675.164	99.143	-0.219	-0.254
-674.149	109.267	0.091	0.109
-673.135	-158.579	-0.156	0.009
-672.120	330.231	-0.068	0.132
-671.105	-200.000	-0.001	-0.075
-670.091	14.013	0.403	-0.315
-669.076	-200.000	0.002	0.085
-668.062	-137.972	0.158	-0.018
-667.047	273.675	0.130	-0.231
-666.032	-200.000	0.026	0.126
-665.018	108.934	-0.176	-0.211
-664.003	-157.297	0.114	0.007
-662.989	-54.431	-0.190	-0.086
-661.974	103.278	0.077	0.091
-660.959	-33.007	-0.247	0.137
-659.945	-174.770	0.154	0.004
-658.930	-64.850	-0.221	-0.090
-657.916	226.083	0.277	-0.450
-656.901	-177.919	-0.385	-0.009
-655.886	-200.000	-0.035	0.185
-654.872	-79.412	-0.042	0.014
-653.857	-200.000	-0.000	-0.032
-652.843	239.349	0.174	-0.291
-651.828	-170.275	-0.112	-0.004
-650.814	800.000	-0.068	0.243
-649.799	23.656	0.057	0.047
-648.784	612.620	0.067	-0.167
-647.770	291.567	0.144	-0.263
-646.755	800.000	0.057	0.231
-645.741	110.164	-0.023	0.028
-644.726	374.332	0.062	-0.127
-643.711	800.000	0.030	0.100
-642.697	-73.263	0.261	-0.096
-641.682	55.825	-0.104	-0.101
-640.668	-144.963	-0.039	-0.004
-639.653	-131.709	-0.157	-0.021
-638.638	-159.274	0.203	0.011
-637.624	-117.988	0.463	-0.083
-636.609	29.706	-0.323	0.276
-635.595	-200.000	0.049	0.231
-634.580	-104.741	-0.344	0.079
-633.565	299.972	0.051	-0.094
-632.551	-148.804	-0.078	0.006
-631.536	629.848	-0.081	0.205
-630.522	800.000	-0.120	0.380
-629.507	482.062	-0.072	-0.163
-628.492	-182.990	-0.101	-0.002
-627.478	85.961	-0.244	-0.269
-626.463	-40.308	-0.127	-0.066
-625.449	800.000	0.105	-0.347
-624.434	800.000	-0.095	0.346
-623.419	-153.385	-0.299	-0.021
-622.405	-200.000	-0.011	-0.167
-621.390	-40.604	0.231	-0.120
-620.376	-72.394	-0.376	-0.139
-619.361	604.225	0.077	0.192
-618.346	791.292	0.112	-0.309
-617.332	592.057	-0.088	-0.217
-616.317	36.418	-0.184	-0.163
-615.303	139.557	0.157	0.206
-614.288	-177.161	-0.088	0.002
-613.273	-13.541	-0.074	-0.048
-612.259	-158.593	0.074	0.004
-611.244	800.000	-0.047	0.139
-610.230	106.612	0.088	-0.104
-609.215	-113.618	-0.088	0.017
-608.201	-200.000	-0.013	0.149
-607.186	199.731	0.259	-0.398
-606.171	-169.638	-0.293	0.011
-605.157	-89.140	-0.137	0.040
-604.142	47.767	0.026	-0.024
-603.128	800.000	-0.048	0.183
-602.113	800.000	-0.063	-0.186
-601.098	-200.000	-0.019	0.109
-600.084	-55.720	0.052	-0.023
-599.069	-200.000	0.009	-0.111
-598.055	-180.692	-0.277	-0.006
-597.040	-200.000	0.022	0.219
-596.025	-56.808	0.222	-0.098
-595.011	800.000	-0.030	0.094
-593.996	-200.000	-0.020	-0.147
-592.982	-125.587	0.122	0.018
-591.967	104.739	0.083	0.098
-590.952	-74.166	-0.142	-0.051
-589.938	-200.000	0.053	-0.249
-588.923	800.000	-0.074	-0.218
-587.909	22.051	0.225	-0.184
-586.894	-131.698	0.432	-0.057
-585.879	-76.573	-0.422	-0.148
-584.865	169.917	-0.059	0.085
-583.850	800.000	0.059	-0.193
-582.836	-200.000	0.045	0.396
-581.821	-2.093	-0.051	-0.036
-580.806	39.570	0.207	-0.186
-579.792	-106.485	-0.328	0.073
-578.777	-56.860	-0.100	-0.044
-577.763	293.373	0.138	0.251
-576.748	105.013	-0.145	0.171
-575.733	-55.724	-0.311	-0.139
-574.719	-46.323	-0.216	-0.106
-573.704	-15.389	0.178	-0.114
-572.690	305.520	-0.089	-0.165
-571.675	-84.442	0.186	0.059
-570.661	-41.378	0.183	0.094
-569.646	38.531	0.099	-0.088
-568.631	234.733	0.014	-0.023
-567.617	48.090	-0.240	-0.224
-566.602	103.593	-0.108	-0.127
-565.588	28.173	0.250	0.211
-564.573	800.000	0.082	-0.276
-563.558	452.501	0.047	-0.103
-562.544	284.361	-0.043	0.077
-561.529	686.617	-0.111	0.289
-560.515	497.281	0.144	0.331
-559.500	-200.000	-0.040	0.280
-558.485	-200.000	-0.048	0.215
-557.471	-141.051	0.322	-0.033
-556.456	-96.437	0.029	0.008
-555.442	231.609	0.034	0.056
-554.427	260.578	0.118	-0.204
-553.412	245.914	0.161	-0.270
-552.398	-112.906	-0.075	-0.015
-551.383	-200.000	-0.056	0.274
-550.369	80.578	0.070	-0.076
-549.354	24.869	-0.036	-0.029
-548.339	-200.000	0.004	0.225
-547.325	-144.909	0.178	0.016
-546.310	800.000	0.035	0.129
-545.296	331.404	-0.072	0.138
-544.281	-95.185	0.264	0.071
-543.266	-50.710	-0.252	-0.119
-542.252	481.276	0.023	-0.052
-541.237	800.000	0.061	0.179
-540.223	707.620	-0.072	0.189
-539.208	121.550	0.160	0.199
-538.193	799.196	0.041	-0.113
-537.179	-79.604	-0.357	0.120
-536.164	781.148	-0.113	0.309
-535.150	-200.000	-0.018	-0.123
-534.135	85.589	-0.192	-0.211
-533.121	233.139	0.041	0.067
-532.106	-200.000	-0.029	0.405
-531.091	-64.437	-0.325	-0.132
-530.077	-200.000	-0.037	0.241
-529.062	85.278	0.158	0.173
-528.048	-200.000	0.062	0.470
-527.033	-75.022	-0.077	-0.027
-526.018	-94.619	-0.194	-0.053
-525.004	128.590	0.030	-0.038
-523.989	-146.499	-0.306	-0.027
-522.975	-79.909	-0.159	-0.053
-521.960	-95.160	-0.214	-0.058
-520.945	-200.000	-0.055	0.246
-519.931	363.150	-0.105	0.211
-518.916	-120.846	0.272	-0.046
-517.902	-95.998	-0.123	0.033
-516.887	800.000	-0.007	-0.026
-515.872	129.686	-0.125	0.159
-514.858	800.000	-0.055	0.164
-513.843	108.083	-0.127	-0.150
-512.829	119.370	-0.197	-0.244
-511.814	210.087	-0.154	0.242
-510.799	-35.327	-0.058	0.032
-509.785	562.789	0.096	0.232
-508.770	-155.214	-0.422	-0.027
-507.756	-111.494	0.421	0.085
-506.741	-168.705	0.086	0.003
-505.726	-86.738	0.306	-0.093
-504.712	-49.590	-0.123	-0.058
-503.697	-0.763	0.226	0.160
-502.683	-200.000	0.030	-0.206
-501.668	-200.000	0.025	-0.148
-500.653	-113.578	0.233	0.045
-499.639	-200.000	-0.002	-0.177
-498.624	-138.516	0.076	0.008
-497.610	255.195	0.074	0.126
-496.595	209.260	-0.151	-0.236
-495.581	-200.000	-0.033	-0.165
-494.566	-35.104	-0.052	-0.028
-493.551	85.197	0.091	-0.099
-492.537	32.929	0.404	-0.349
-491.522	-200.000	-0.072	-0.386
-490.508	-139.781	-0.253	-0.027
-489.493	-47.720	0.328	0.158
-488.478	800.000	-0.039	0.147
-487.464	267.429	-0.099	-0.172
-486.449	-18.097	-0.041	0.025
-485.435	9.436	-0.191	-0.144
-484.420	226.502	0.064	0.103
-483.405	-182.471	-0.335	0.006
-482.391	-137.872	0.162	0.018
-481.376	-133.263	0.322	-0.040
-480.362	-84.663	-0.176	0.055
-479.347	20.199	0.098	0.079
-478.332	-119.666	0.304	-0.052
-477.318	-200.000	0.009	-0.131
-476.303	182.708	0.180	0.264
-475.289	-200.000	-0.038	-0.188
-474.274	-133.848	0.187	0.023
-473.259	191.595	0.188	-0.282
-472.245	270.791	0.307	-0.538
-471.230	-99.053	0.110	-0.028
-470.216	-50.011	-0.066	0.031
-469.201	138.936	-0.239	0.313
-468.186	68.579	-0.130	0.133
-467.172	-69.370	-0.252	0.096
-466.157	-158.370	-0.171	0.010
-465.143	-36.747	0.145	-0.077
-464.128	148.939	0.127	0.171
-463.113	-25.926	-0.195	-0.114
-462.099	-153.954	0.397	0.027
-461.084	-53.031	0.318	0.145
-460.070	-200.000	-0.016	0.235
-459.055	218.011	-0.169	-0.269
-458.040	800.000	0.048	-0.207
-457.026	247.059	0.040	0.067
-456.011	-200.000	-0.016	-0.141
-454.997	-66.954	-0.304	-0.119
-453.982	1.048	-0.383	0.273
-452.968	450.032	0.060	-0.133
-451.953	-133.233	-0.232	0.029
-450.938	-200.000	-0.009	0.048
-449.924	-200.000	0.023	-0.174
-448.909	-91.818	-0.139	0.039
-447.895	487.250	0.077	-0.174
-446.880	181.662	0.167	-0.244
-445.865	180.730	-0.112	-0.164
-444.851	166.742	-0.147	0.207
-443.836	-133.118	0.228	0.029
-442.822	45.931	-0.057	0.053
-441.807	-159.072	-0.192	0.011
-440.792	661.404	0.165	-0.423
-439.778	-133.225	0.123	-0.015
-438.763	-44.182	0.233	0.116
-437.749	800.000	-0.067	0.198
-436.734	239.885	0.160	0.265
-435.719	-200.000	-0.022	0.188
-434.705	15.919	-0.379	-0.296
-433.690	-118.579	-0.305	-0.054
-432.676	800.000	-0.045	0.140
-431.661	387.384	0.143	0.293
-430.646	163.010	0.121	0.168
-429.632	136.275	0.061	0.079
-428.617	-141.470	-0.278	-0.028
-427.603	-28.174	-0.222	-0.128
-426.588	800.000	-0.026	-0.078
-425.573	681.697	-0.081	-0.211
-424.559	-200.000	0.003	-0.042
-423.544	-19.915	-0.196	0.120
-422.530	-200.000	-0.010	-0.221
-421.515	-200.000	-0.029	-0.233
-420.500	85.568	0.247	0.270
-419.486	800.000	0.015	0.050
-418.471	55.495	0.085	-0.082
-417.457	800.000	-0.035	0.128
-416.442	-200.000	0.003	-0.044
-415.428	-16.736	0.330	0.207
-414.413	-81.764	0.136	0.044
-413.398	280.718	0.140	-0.249
-412.384	40.760	0.189	-0.169
-411.369	76.211	-0.106	-0.111
-410.355	-67.988	-0.302	0.117
-409.340	11.367	0.290	0.221
-408.325	128.698	-0.239	-0.302
-407.311	-162.075	-0.160	0.008
-406.296	46.385	0.255	0.235
-405.282	-200.000	-0.065	0.383
-404.267	-200.000	0.006	-0.070
-403.252	255.205	-0.139	0.237
-402.238	-50.645	0.107	0.050
-401.223	99.259	-0.215	-0.246
-400.209	62.867	-0.221	-0.220
-399.194	-19.237	-0.082	0.050
-398.179	-200.000	-0.019	-0.176
-397.165	-93.793	0.096	0.026
-396.150	-22.537	0.310	-0.186
-395.136	-74.998	-0.328	-0.117
-394.121	686.793	0.094	0.243
-393.106	-169.249	-0.157	0.006
-392.092	-60.567	-0.213	0.090
-391.077	-122.412	0.151	-0.024
-390.063	800.000	0.064	-0.233
-389.048	354.946	0.094	-0.185
-388.033	206.024	-0.105	-0.163
-387.019	-34.150	-0.153	0.083
-386.004	41.305	-0.037	-0.033
-384.990	-44.376	-0.166	-0.082
-383.975	97.629	-0.313	-0.357
-382.960	317.208	0.091	0.171
-381.946	-95.422	-0.277	-0.074
-380.931	-200.000	-0.002	0.166
-379.917	276.755	0.046	-0.081
-378.902	-200.000	0.078	0.402
-377.888	-8.257	0.228	-0.152
-376.873	489.459	0.088	-0.199
-375.858	357.611	0.110	0.219
-374.844	-49.744	-0.091	-0.043
-373.829	-90.283	-0.294	0.085
-372.815	224.358	0.128	-0.205
-371.800	158.954	0.212	0.292
-370.785	547.305	0.029	-0.070
-369.771	288.623	-0.104	0.187
-368.756	189.700	-0.016	0.023
-367.742	39.146	0.228	0.202
-366.727	-36.947	0.052	0.028
-365.712	-91.605	-0.202	0.057
-364.698	-55.260	0.208	0.093
-363.683	-170.001	0.115	0.004
-362.669	-200.000	0.004	-0.042
-361.654	54.152	0.215	0.205
-360.639	26.602	-0.146	-0.121
-359.625	-2.826	-0.126	0.087
-358.610	-200.000	0.005	-0.327
-357.596	-41.427	0.295	-0.150
-356.581	-107.757	-0.076	-0.016
-355.566	-149.482	0.380	0.030
-354.552	800.000	0.008	0.029
-353.537	107.238	-0.161	0.189
-352.523	43.025	0.180	0.163
-351.508	-35.466	-0.502	-0.270
-350.493	-93.971	-0.082	-0.022
-349.479	417.231	0.045	-0.096
-348.464	55.156	-0.242	-0.232
-347.450	152.167	0.138	-0.186
-346.435	200.873	0.028	0.042
-345.420	-200.000	-0.042	-0.211
-344.406	-149.330	-0.151	-0.012
-343.391	50.757	0.203	-0.191
-342.377	-111.112	-0.222	0.045
-341.362	87.058	0.126	-0.137
-340.348	-41.430	-0.301	-0.153
-339.333	-200.000	0.002	0.284
-338.318	-72.730	-0.205	0.075
-337.304	85.212	-0.130	0.142
-336.289	-141.099	-0.137	0.014
-335.275	-200.000	-0.057	-0.279
-334.260	-35.846	0.274	0.147
-333.245	-93.471	-0.270	-0.074
-332.231	-92.317	-0.253	0.071
-331.216	36.659	0.052	0.046
-330.202	-122.622	0.234	0.037
-329.187	-81.216	0.056	0.018
-328.172	-24.976	-0.256	-0.151
-327.158	-42.014	0.231	0.117
-326.143	800.000	0.080	0.235
-325.129	-27.917	0.292	0.168
-324.114	-129.836	0.277	0.038
-323.099	111.610	-0.073	0.087
-322.085	256.017	-0.197	-0.335
-321.070	-100.830	0.096	0.023
-320.056	-96.222	-0.108	-0.028
-319.041	66.264	0.414	-0.416
-318.026	-64.563	-0.141	0.057
-317.012	-62.462	0.072	-0.030
-315.997	89.788	-0.047	0.052
-314.983	-13.540	-0.124	-0.079
-313.968	-121.989	-0.089	-0.014
-312.953	-48.588	-0.257	-0.122
-311.939	-122.509	-0.109	0.017
-310.924	-72.715	-0.198	-0.072
-309.910	-200.000	-0.002	0.140
-308.895	-97.662	0.372	0.095
-307.880	-200.000	0.015	-0.229
-306.866	86.829	0.085	-0.093
-305.851	-200.000	-0.006	0.058
-304.837	-138.511	-0.413	-0.045
-303.822	800.000	-0.057	0.162
-302.807	181.933	0.152	-0.222
-301.793	-71.587	0.318	-0.118
-300.778	-105.326	-0.376	-0.085
-299.764	-3.332	-0.326	-0.225
-298.749	54.097	-0.060	-0.057
-297.735	-141.853	0.049	0.005
-296.720	-115.591	-0.044	0.008
-295.705	160.487	0.345	-0.476
-294.691	85.355	0.099	-0.107
-293.676	416.800	0.149	0.314
-292.662	-160.430	-0.250	0.013
-291.647	-93.744	-0.433	-0.118
-290.632	490.602	-0.126	0.285
-289.618	251.752	0.085	-0.143
-288.603	417.109	-0.063	-0.133
-287.589	-200.000	-0.015	0.202
-286.574	800.000	0.032	0.131
-285.559	-200.000	0.010	-0.093
-284.545	-130.339	0.319	-0.043
-283.530	-99.953	-0.257	-0.063
-282.516	-61.321	0.120	-0.050
-281.501	800.000	-0.053	-0.193
-280.486	800.000	-0.099	-0.272
-279.472	150.989	-0.107	0.144
-278.457	-200.000	-0.013	-0.280
-277.443	56.270	0.191	0.183
-276.428	2.615	0.038	-0.027
-275.413	14.477	-0.129	-0.100
-274.399	23.352	0.176	0.143
-273.384	-37.028	0.170	-0.090
-272.370	133.559	-0.123	-0.158
-271.355	110.259	-0.045	0.053
-270.340	372.585	-0.080	-0.161
-269.326	-60.757	0.082	-0.034
-268.311	115.468	0.181	0.219
-267.297	-137.179	-0.143	-0.016
-266.282	800.000	0.092	0.300
-265.267	250.036	-0.044	-0.074
-264.253	-55.297	0.139	0.062
-263.238	800.000	0.064	0.239
-262.224	-167.619	-0.180	-0.007
-261.209	-144.600	0.272	-0.025
-260.195	-200.000	0.100	0.590
-259.180	46.122	-0.326	0.298
-258.165	-13.698	-0.152	0.097
-257.151	-1.754	0.222	0.154
-256.136	-200.000	0.040	-0.228
-255.122	-23.572	-0.097	0.058
-254.107	101.441	-0.220	0.252
-253.092	-95.008	0.109	0.029
-252.078	203.186	-0.083	-0.126
-251.063	89.522	0.155	0.170
-250.049	-30.706	-0.160	0.089
-249.034	25.835	0.211	-0.173
-248.019	198.766	-0.168	0.254
-247.005	100.160	-0.118	-0.135
-245.990	-144.958	-0.262	0.024
-244.976	-67.955	0.176	-0.068
-243.961	-56.161	-0.398	0.175
-242.946	-94.837	0.124	-0.033
-241.932	636.677	0.051	0.127
-240.917	238.939	-0.095	-0.156
-239.903	-3.882	0.031	0.021
-238.888	-107.330	0.151	-0.033
-237.873	-66.305	0.131	0.051
-236.859	79.464	0.269	0.284
-235.844	800.000	-0.060	-0.212
-234.830	-20.714	0.198	-0.120
-233.815	-167.646	-0.134	0.005
-232.800	-43.688	0.230	0.114
-231.786	173.815	-0.193	0.275
-230.771	-92.932	0.601	-0.166
-229.757	-2.811	0.293	0.202
-228.742	800.000	-0.096	-0.296
-227.727	-158.475	-0.128	0.007
-226.713	800.000	0.042	0.166
-225.698	-62.272	0.196	0.080
-224.684	8.287	0.308	0.228
-223.669	800.000	0.045	0.159
-222.655	-60.721	-0.077	-0.032
-221.640	295.356	0.018	0.033
-220.625	99.760	0.158	-0.180
-219.611	52.431	0.211	-0.198
-218.596	41.092	0.180	0.160
-217.582	-200.000	0.018	-0.095
-216.567	-72.069	0.226	0.083
-215.552	388.319	-0.093	-0.189
-214.538	383.347	0.053	-0.108
-213.523	-160.581	-0.275	-0.014
-212.509	-14.062	-0.198	0.126
-211.494	-47.974	-0.363	-0.173
-210.479	-7.375	0.085	0.057
-209.465	11.795	-0.251	0.190
-208.450	-200.000	-0.026	-0.358
-207.436	-200.000	0.027	-0.373
-206.421	220.360	0.183	-0.288
-205.406	228.316	-0.018	0.029
-204.392	-73.212	0.246	0.089
-203.377	54.658	-0.133	0.127
-202.363	378.994	0.045	-0.090
-201.348	-200.000	-0.002	-0.022
-200.333	1.311	-0.090	0.063
-199.319	-6.567	0.141	0.094
-198.304	428.523	-0.060	0.128
-197.290	-200.000	-0.012	0.142
-196.275	800.000	-0.035	0.104
-195.260	228.762	0.272	-0.437
-194.246	-81.576	0.382	-0.124
-193.231	-200.000	0.022	-0.284
-192.217	-90.238	-0.019	-0.005
-191.202	-5.482	0.038	0.026
-190.187	-129.324	0.268	0.037
-189.173	107.873	0.150	0.176
-188.158	-133.271	0.075	0.009
-187.144	800.000	-0.067	0.224
-186.129	-81.960	0.116	-0.037
-185.114	83.188	0.105	0.113
-184.100	-50.390	0.078	0.036
-183.085	108.301	-0.151	-0.178
-182.071	800.000	-0.072	-0.249
-181.056	-200.000	-0.009	0.159
-180.042	180.306	0.210	0.303
-179.027	-200.000	-0.045	0.314
-178.012	-30.364	0.099	-0.055
-176.998	-64.141	0.367	-0.147
-175.983	-5.532	-0.097	-0.066
-174.969	-154.584	0.162	-0.011
-173.954	14.433	0.328	0.251
-172.939	496.793	0.142	0.320
-171.925	-55.025	-0.314	0.139
-170.910	-200.000	0.064	0.355
-169.896	139.690	0.212	0.275
-168.881	-90.737	-0.494	-0.140
-167.866	-150.644	-0.183	0.014
-166.852	68.255	-0.335	-0.338
-165.837	-166.263	0.169	-0.007
-164.823	74.087	0.114	-0.118
-163.808	-173.880	-0.037	-0.001
-162.793	85.261	0.179	0.193
-161.779	-80.734	-0.177	0.058
-160.764	-114.989	0.346	-0.065
-159.750	-200.000	-0.036	-0.181
-158.735	-33.610	0.070	-0.038
-157.720	-163.315	-0.277	0.013
-156.706	-10.727	0.432	0.281
-155.691	78.094	0.050	-0.053
-154.677	34.797	0.114	-0.098
-153.662	-58.534	-0.077	0.033
-152.647	-41.242	-0.249	0.126
-151.633	800.000	0.076	0.235
-150.618	-178.579	-0.206	0.005
-149.604	502.951	0.062	0.142
-148.589	77.293	0.121	0.126
-147.574	-7.903	0.467	0.310
-146.560	-21.592	-0.228	0.136
-145.545	37.864	0.113	0.099
-144.531	530.057	-0.185	-0.430
-143.516	-101.513	-0.280	-0.067
-142.502	-200.000	-0.010	-0.132
-141.487	-200.000	-0.013	0.294
-140.472	255.164	0.182	0.307
-139.458	17.866	0.240	-0.188
-138.443	-179.374	0.120	-0.003
-137.429	-160.629	-0.056	0.003
-136.414	-200.000	-0.043	-0.302
-135.399	-169.911	-0.256	0.009
-134.385	-150.604	0.092	0.007
-133.370	-200.000	0.001	-0.174
-132.356	664.153	-0.044	0.111
-131.341	-184.995	-0.142	0.002
-130.326	72.916	-0.058	-0.059
-129.312	139.717	-0.228	-0.296
-128.297	66.044	-0.172	0.172
-127.283	800.000	-0.056	0.224
-126.268	-119.624	0.116	0.020
-125.253	800.000	0.046	0.158
-124.239	-200.000	-0.001	0.110
-123.224	-200.000	0.004	0.038
-122.210	579.904	-0.152	-0.366
