DTS Sentinel unit serial number:	SN413079Multiplexer serial number:	ORYXHardware model number:	OX4-SRSoftware version number:	ORYX F/W v4.00 Oryx Data Collector v3.7.2.0data status	okinstallation	princeton_trtdifferential loss correction	single-endedforward channel	channel 3reverse channel	N/Adate	2019/09/11time	22:42:11forward acquisition time	60.00reverse acquisition time	0.00gamma	496.2192k internal	0.2315k external	0.2315temperature offset calibration	1.0043default loss term (dB/km)	0.3790temperature slope calibration	1.0000multiplexer offset coefficient	1.0000multiplexer slope coefficient	1.0000fibre end	0.00T internal ref (°C)	34.87T ext. ref 1 (°C)	1.79T ext. ref 2 (°C)	28.93length (m)	temperature (°C)	Stokes	anti-Stokes-747.200	12.913	0.221	-0.173
-746.185	54.987	-0.028	-0.027
-745.171	800.000	0.069	-0.270
-744.156	-52.597	-0.108	0.050
-743.142	-200.000	-0.019	-0.270
-742.127	-200.000	-0.026	0.226
-741.112	800.000	-0.126	0.378
-740.098	150.931	0.084	0.115
-739.083	37.580	-0.239	0.215
-738.069	-109.844	0.243	0.052
-737.054	-200.000	-0.009	0.117
-736.039	-142.222	0.231	-0.023
-735.025	106.052	0.325	0.389
-734.010	-0.177	-0.243	0.175
-732.996	-132.513	-0.142	-0.018
-731.981	132.014	-0.110	-0.143
-730.966	-200.000	0.020	0.243
-729.952	800.000	-0.074	-0.315
-728.937	-117.477	-0.080	-0.015
-727.923	-110.899	-0.265	0.055
-726.908	-40.985	-0.216	-0.113
-725.894	-115.617	-0.352	0.067
-724.879	413.095	0.076	-0.163
-723.864	138.289	-0.096	0.127
-722.850	-84.624	-0.241	0.077
-721.835	800.000	0.149	-0.487
-720.821	-200.000	-0.015	-0.151
-719.806	189.495	0.175	-0.266
-718.791	-200.000	-0.009	-0.173
-717.777	-9.821	0.253	-0.170
-716.762	-200.000	-0.013	-0.068
-715.748	707.764	0.107	0.286
-714.733	586.548	-0.069	0.172
-713.718	-95.064	-0.047	-0.013
-712.704	-59.971	0.252	-0.109
-711.689	126.123	-0.064	0.081
-710.675	-30.409	-0.132	-0.076
-709.660	-68.073	0.327	0.129
-708.645	20.965	-0.157	0.129
-707.631	-142.721	-0.395	0.039
-706.616	-110.982	0.225	-0.047
-705.602	-109.191	0.036	0.008
-704.587	800.000	-0.011	-0.036
-703.572	-41.854	0.081	-0.042
-702.558	-79.824	-0.272	0.093
-701.543	-200.000	-0.012	0.071
-700.529	-159.724	-0.081	-0.004
-699.514	800.000	0.051	-0.148
-698.499	149.594	-0.092	-0.126
-697.485	800.000	-0.014	0.043
-696.470	-66.187	-0.128	-0.052
-695.456	-169.378	-0.690	0.026
-694.441	-200.000	0.064	-0.504
-693.426	568.483	0.094	-0.231
-692.412	-200.000	0.025	-0.150
-691.397	46.024	0.178	-0.167
-690.383	258.436	-0.230	-0.401
-689.368	14.490	0.288	-0.227
-688.354	350.857	0.171	0.341
-687.339	152.167	-0.052	-0.072
-686.324	328.810	0.091	-0.176
-685.310	-19.939	-0.218	0.136
-684.295	-107.678	0.238	-0.053
-683.281	-200.000	0.014	-0.127
-682.266	349.781	0.203	-0.406
-681.251	518.520	0.093	-0.220
-680.237	-81.565	-0.283	0.094
-679.222	-28.336	0.265	-0.155
-678.208	-200.000	-0.003	0.035
-677.193	585.266	-0.035	-0.086
-676.178	184.423	-0.119	0.178
-675.164	47.362	-0.247	0.232
-674.149	24.899	0.278	-0.233
-673.135	-34.136	0.215	-0.119
-672.120	-185.680	0.149	-0.002
-671.105	105.852	-0.239	0.286
-670.091	-25.884	-0.269	0.160
-669.076	-149.924	0.302	0.024
-668.062	800.000	0.129	0.435
-667.047	-200.000	0.021	-0.370
-666.032	237.902	-0.211	0.353
-665.018	102.203	-0.063	0.075
-664.003	49.818	-0.142	0.135
-662.989	800.000	0.145	0.457
-661.974	-141.788	-0.116	-0.012
-660.959	800.000	0.090	0.293
-659.945	47.568	0.077	0.072
-658.930	66.169	0.254	-0.261
-657.916	-87.855	-0.149	-0.045
-656.901	-200.000	-0.011	-0.196
-655.886	-143.589	0.188	0.018
-654.872	395.364	-0.054	-0.114
-653.857	20.405	0.236	-0.192
-652.843	-94.561	0.131	0.036
-651.828	382.406	0.091	0.189
-650.814	104.355	0.244	0.290
-649.799	-100.897	0.119	0.029
-648.784	-142.700	-0.391	-0.039
-647.770	-80.662	-0.227	-0.076
-646.755	-16.617	-0.326	-0.208
-645.741	-116.362	0.256	0.048
-644.726	210.213	-0.160	-0.253
-643.711	535.705	0.117	0.280
-642.697	1.251	-0.148	0.107
-641.682	-120.875	-0.213	-0.036
-640.668	-200.000	-0.044	0.222
-639.653	-200.000	-0.036	0.410
-638.638	-17.502	0.149	-0.095
-637.624	306.056	0.153	-0.288
-636.609	-200.000	-0.002	0.329
-635.595	-81.255	-0.234	-0.078
-634.580	25.952	0.261	-0.219
-633.565	-147.281	-0.220	-0.019
-632.551	-200.000	-0.042	-0.281
-631.536	151.888	0.118	-0.162
-630.522	-27.577	0.361	0.212
-629.507	-81.206	-0.121	-0.040
-628.492	-21.830	0.086	0.053
-627.478	331.911	0.111	-0.216
-626.463	-175.116	0.176	-0.005
-625.449	-53.611	-0.095	0.044
-624.434	305.592	0.129	0.242
-623.419	164.876	0.104	0.149
-622.405	-200.000	0.045	-0.312
-621.390	43.111	0.113	0.104
-620.376	272.387	0.216	-0.383
-619.361	-182.472	0.338	-0.006
-618.346	-171.921	-0.185	0.006
-617.332	-75.580	-0.159	0.057
-616.317	-64.188	0.182	-0.075
-615.303	-79.178	0.289	0.099
-614.288	179.114	-0.180	0.266
-613.273	-200.000	-0.061	-0.298
-612.259	312.845	0.073	0.138
-611.244	-135.647	-0.162	0.019
-610.230	-200.000	-0.023	0.242
-609.215	-200.000	0.019	-0.137
-608.201	41.524	0.209	0.190
-607.186	146.292	0.205	-0.277
-606.171	468.825	-0.039	0.089
-605.157	178.646	-0.117	0.173
-604.142	439.592	0.066	0.146
-603.128	-94.842	-0.214	0.058
-602.113	-69.123	0.398	0.155
-601.098	174.890	-0.141	0.206
-600.084	-51.603	-0.104	-0.049
-599.069	800.000	0.064	0.269
-598.055	-38.859	-0.234	0.124
-597.040	-67.137	0.297	-0.118
-596.025	-41.534	0.282	0.146
-595.011	-200.000	0.011	0.267
-593.996	-3.794	-0.094	-0.066
-592.982	-15.147	0.147	-0.095
-591.967	161.975	0.195	-0.276
-590.952	346.359	0.100	0.198
-589.938	131.899	-0.155	-0.201
-588.923	-200.000	-0.026	-0.452
-587.909	800.000	0.052	-0.186
-586.894	-41.973	-0.455	0.234
-585.879	-84.272	-0.274	-0.087
-584.865	4.505	-0.211	-0.156
-583.850	49.605	0.172	0.163
-582.836	-115.722	0.102	-0.019
-581.821	-200.000	-0.032	0.216
-580.806	272.519	-0.145	-0.257
-579.792	-148.823	-0.216	0.018
-578.777	361.044	0.114	0.230
-577.763	-24.040	0.239	0.144
-576.748	-139.712	-0.046	-0.005
-575.733	559.397	-0.069	-0.167
-574.719	0.857	0.149	0.108
-573.704	418.470	-0.061	0.131
-572.690	202.783	0.081	-0.125
-571.675	-200.000	0.045	0.340
-570.661	276.774	-0.044	0.078
-569.646	67.206	0.102	0.104
-568.631	634.211	-0.117	-0.298
-567.617	-18.991	-0.034	-0.021
-566.602	800.000	-0.028	-0.123
-565.588	800.000	0.111	0.316
-564.573	53.906	0.091	-0.088
-563.558	241.368	0.007	-0.012
-562.544	-100.831	0.015	0.004
-561.529	-6.643	0.156	0.107
-560.515	-37.678	-0.234	-0.126
-559.500	-46.226	-0.168	0.083
-558.485	173.198	-0.060	-0.087
-557.471	181.726	0.053	0.079
-556.456	-98.611	0.099	0.025
-555.442	800.000	0.027	0.083
-554.427	800.000	-0.057	-0.196
-553.412	-200.000	0.025	-0.200
-552.398	-164.855	-0.177	0.008
-551.383	221.034	0.108	-0.174
-550.369	-200.000	0.000	0.175
-549.354	76.835	0.037	0.040
-548.339	489.436	-0.165	0.380
-547.325	412.590	-0.123	-0.264
-546.310	52.103	-0.084	0.080
-545.296	-22.088	-0.256	0.156
-544.281	-26.072	-0.094	0.055
-543.266	-161.933	-0.017	0.001
-542.252	-44.571	-0.451	-0.227
-541.237	-135.277	0.237	0.029
-540.223	-126.705	0.194	-0.029
-539.208	-56.219	-0.240	-0.107
-538.193	128.201	-0.196	0.250
-537.179	-74.155	-0.211	-0.077
-536.164	-151.344	-0.098	-0.007
-535.150	-153.080	-0.107	-0.008
-534.135	-200.000	0.014	-0.109
-533.121	-105.902	-0.160	0.036
-532.106	-145.402	0.223	-0.020
-531.091	44.812	0.229	0.211
-530.077	114.009	0.090	0.110
-529.062	-115.817	0.065	0.012
-528.048	-200.000	0.031	0.288
-527.033	141.205	-0.096	0.127
-526.018	121.789	0.149	-0.187
-525.004	20.829	-0.140	0.114
-523.989	-200.000	0.035	-0.298
-522.975	-200.000	-0.031	-0.156
-521.960	-153.756	0.289	-0.020
-520.945	51.191	-0.218	-0.208
-519.931	-81.465	-0.241	0.080
-518.916	206.637	-0.128	0.200
-517.902	-184.755	0.308	-0.005
-516.887	-200.000	-0.073	0.387
-515.872	-200.000	0.012	0.402
-514.858	-186.457	0.184	0.003
-513.843	-148.666	-0.247	-0.020
-512.829	688.285	0.063	-0.165
-511.814	26.892	0.096	0.081
-510.799	800.000	0.077	-0.294
-509.785	-39.693	0.177	-0.093
-508.770	-200.000	0.031	-0.280
-507.756	800.000	-0.021	0.070
-506.741	-34.891	-0.305	0.167
-505.726	14.977	0.234	-0.184
-504.712	229.433	-0.023	0.038
-503.697	302.006	0.079	-0.148
-502.683	-200.000	-0.000	0.057
-501.668	-200.000	0.012	0.134
-500.653	-200.000	-0.002	-0.209
-499.639	800.000	-0.116	-0.381
-498.624	125.046	0.249	-0.315
-497.610	-140.875	0.138	-0.014
-496.595	-170.278	-0.399	-0.014
-495.581	309.872	-0.120	-0.225
-494.566	800.000	0.039	0.155
-493.551	111.746	0.268	-0.325
-492.537	360.848	0.179	0.360
-491.522	-119.493	0.422	0.073
-490.508	288.882	0.036	-0.065
-489.493	-100.384	0.114	0.028
-488.478	-128.036	-0.207	-0.030
-487.464	-200.000	-0.067	0.410
-486.449	800.000	-0.022	0.074
-485.435	136.213	0.345	-0.451
-484.420	-200.000	0.032	0.170
-483.405	-13.725	-0.080	-0.052
-482.391	62.947	0.257	0.258
-481.376	26.970	-0.081	0.068
-480.362	187.753	0.095	-0.143
-479.347	4.117	0.193	-0.142
-478.332	117.272	0.066	-0.082
-477.318	242.141	-0.089	-0.150
-476.303	-132.237	0.184	-0.024
-475.289	299.862	0.031	0.057
-474.274	-119.044	0.349	0.061
-473.259	800.000	-0.027	-0.097
-472.245	73.793	-0.284	0.299
-471.230	129.155	0.015	0.020
-470.216	-138.580	0.264	0.029
-469.201	800.000	0.032	-0.113
-468.186	-49.796	-0.490	-0.233
-467.172	-141.637	0.050	0.005
-466.157	87.424	-0.131	0.146
-465.143	122.633	-0.288	-0.362
-464.128	37.740	0.071	-0.063
-463.113	81.662	-0.210	0.227
-462.099	537.007	0.089	-0.212
-461.084	-25.121	0.231	-0.137
-460.070	296.531	0.064	-0.117
-459.055	800.000	0.062	-0.189
-458.040	-117.157	0.090	-0.016
-457.026	-68.554	-0.079	-0.031
-456.011	342.809	0.045	-0.088
-454.997	210.418	0.152	-0.240
-453.982	-54.778	0.226	-0.102
-452.968	30.286	0.193	-0.165
-451.953	-110.693	-0.365	-0.076
-450.938	-95.289	0.229	0.062
-449.924	-123.281	-0.314	-0.050
-448.909	-41.139	0.414	-0.214
-447.895	147.926	0.139	-0.188
-446.880	-22.419	-0.400	-0.243
-445.865	-140.865	0.157	0.016
-444.851	800.000	-0.065	-0.186
-443.836	800.000	0.076	0.229
-442.822	122.710	-0.197	-0.246
-441.807	-83.433	-0.153	0.049
-440.792	-200.000	-0.019	-0.088
-439.778	-200.000	0.041	-0.342
-438.763	-128.516	0.190	0.027
-437.749	195.550	0.142	0.217
-436.734	22.764	-0.230	-0.189
-435.719	-200.000	0.019	0.120
-434.705	-130.133	0.252	0.034
-433.690	800.000	-0.109	-0.441
-432.676	-200.000	0.020	0.145
-431.661	-129.469	0.328	-0.046
-430.646	78.601	0.205	-0.219
-429.632	-200.000	-0.014	-0.231
-428.617	-18.863	-0.088	0.055
-427.603	-158.967	-0.363	-0.021
-426.588	-200.000	-0.115	-0.529
-425.573	254.454	0.052	-0.090
-424.559	10.240	-0.074	-0.056
-423.544	224.119	-0.194	-0.314
-422.530	-71.101	-0.358	-0.135
-421.515	-14.275	0.270	0.174
-420.500	-47.498	0.239	0.116
-419.486	-32.857	0.419	-0.233
-418.471	-139.789	-0.445	0.047
-417.457	-127.729	-0.217	-0.031
-416.442	-108.357	0.286	0.062
-415.428	29.319	-0.118	-0.100
-414.413	213.344	-0.081	-0.128
-413.398	-12.158	0.117	-0.077
-412.384	-200.000	0.042	0.589
-411.369	51.287	0.038	0.036
-410.355	371.109	-0.150	0.305
-409.340	-200.000	-0.046	0.211
-408.325	-150.822	-0.247	-0.019
-407.311	461.408	-0.138	0.307
-406.296	-135.662	0.373	0.044
-405.282	-110.760	-0.160	0.033
-404.267	-200.000	-0.011	0.052
-403.252	-200.000	-0.015	0.075
-402.238	-200.000	-0.009	-0.218
-401.223	-93.454	-0.238	-0.066
-400.209	-132.043	-0.070	-0.009
-399.194	241.688	0.037	0.062
-398.179	800.000	-0.080	-0.278
-397.165	-200.000	-0.023	0.145
-396.150	-29.862	0.056	-0.032
-395.136	161.231	0.069	0.096
-394.121	-200.000	0.045	-0.264
-393.106	-200.000	0.001	-0.144
-392.092	-46.858	-0.448	0.219
-391.077	800.000	-0.138	0.437
-390.063	37.797	-0.051	0.045
-389.048	114.212	-0.271	0.330
-388.033	479.507	0.092	0.209
-387.019	-200.000	-0.021	-0.162
-386.004	800.000	-0.024	0.089
-384.990	-42.087	-0.070	0.036
-383.975	-200.000	0.036	-0.160
-382.960	800.000	0.006	0.019
-381.946	92.271	0.238	0.268
-380.931	-200.000	-0.015	0.128
-379.917	-200.000	0.007	-0.241
-378.902	-51.014	0.329	0.154
-377.888	-200.000	-0.003	0.113
-376.873	30.484	0.054	-0.046
-375.858	23.776	-0.137	-0.112
-374.844	9.887	-0.088	-0.067
-373.829	362.215	0.157	0.314
-372.815	-200.000	0.011	-0.113
-371.800	99.149	-0.096	-0.111
-370.785	-38.353	-0.288	0.152
-369.771	800.000	-0.108	0.318
-368.756	-147.821	0.417	0.035
-367.742	-123.972	-0.292	0.046
-366.727	-107.691	-0.367	0.080
-365.712	65.108	0.083	0.084
-364.698	221.328	0.183	-0.293
-363.683	73.576	-0.104	-0.109
-362.669	-200.000	0.024	-0.494
-361.654	-200.000	-0.047	-0.252
-360.639	35.344	-0.124	0.109
-359.625	101.148	0.059	-0.069
-358.610	-104.532	0.357	-0.082
-357.596	-148.014	0.225	0.019
-356.581	-94.736	-0.130	0.035
-355.566	55.300	0.181	-0.175
-354.552	-200.000	0.032	0.242
-353.537	-42.615	0.070	0.036
-352.523	-170.830	0.151	0.005
-351.508	-45.431	-0.420	0.208
-350.493	-200.000	0.045	-0.284
-349.479	53.912	0.126	0.121
-348.464	-200.000	0.006	0.133
-347.450	-129.505	-0.165	0.023
-346.435	-100.141	0.208	0.052
-345.420	5.518	0.218	0.161
-344.406	63.258	0.169	0.169
-343.391	44.759	0.293	-0.269
-342.377	-92.212	0.141	0.040
-341.362	623.453	0.125	0.315
-340.348	380.975	-0.062	0.127
-339.333	278.762	-0.076	0.136
-338.318	800.000	-0.095	0.316
-337.304	800.000	0.054	0.168
-336.289	-141.009	0.197	0.020
-335.275	-200.000	0.043	-0.196
-334.260	-61.411	0.101	-0.042
-333.245	-123.837	0.256	0.040
-332.231	800.000	0.030	0.100
-331.216	-200.000	-0.029	0.276
-330.202	-200.000	-0.003	0.113
-329.187	212.387	-0.054	-0.085
-328.172	-180.369	0.106	0.002
-327.158	31.679	0.082	-0.070
-326.143	53.965	0.216	-0.207
-325.129	-75.293	-0.161	0.057
-324.114	12.409	0.036	0.028
-323.099	-14.344	-0.268	-0.172
-322.085	-141.589	-0.072	0.007
-321.070	30.148	0.281	0.239
-320.056	-200.000	0.025	0.138
-319.041	-178.615	0.248	-0.006
-318.026	800.000	0.024	0.082
-317.012	99.006	-0.150	0.172
-315.997	-68.853	0.373	-0.144
-314.983	-200.000	-0.024	0.312
-313.968	-135.892	0.185	-0.022
-312.953	100.880	0.145	-0.168
-311.939	141.900	-0.189	-0.249
-310.924	-21.838	0.129	0.078
-309.910	800.000	-0.088	-0.317
-308.895	-80.110	-0.150	0.050
-307.880	19.429	-0.295	0.236
-306.866	360.760	-0.072	-0.144
-305.851	529.464	0.043	-0.101
-304.837	186.914	0.138	-0.205
-303.822	800.000	0.035	0.152
-302.807	800.000	0.035	-0.133
-301.793	-136.972	-0.160	-0.018
-300.778	-200.000	0.046	0.279
-299.764	-200.000	0.044	0.245
-298.749	-123.242	-0.182	0.029
-297.735	-53.272	0.178	-0.081
-296.720	-200.000	-0.016	0.243
-295.705	-200.000	0.020	-0.386
-294.691	-200.000	0.010	-0.240
-293.676	-18.024	0.314	0.196
-292.662	785.715	0.110	0.301
-291.647	800.000	-0.078	0.249
-290.632	-93.393	0.182	-0.050
-289.618	-28.433	0.151	0.087
-288.603	94.065	0.211	0.238
-287.589	26.888	-0.006	-0.005
-286.574	31.872	0.179	0.153
-285.559	-200.000	-0.012	-0.116
-284.545	70.042	0.178	-0.183
-283.530	-124.156	0.334	0.052
-282.516	-135.126	-0.214	0.026
-281.501	-94.346	-0.339	0.092
-280.486	-200.000	-0.030	0.180
-279.472	88.220	0.147	-0.162
-278.457	175.502	-0.052	0.076
-277.443	592.136	-0.118	-0.289
-276.428	-200.000	0.032	0.196
-275.413	17.677	-0.075	-0.060
-274.399	-190.826	0.117	-0.001
-273.384	177.154	-0.115	-0.166
-272.370	-200.000	0.001	-0.264
-271.355	-200.000	0.049	-0.284
-270.340	800.000	-0.088	-0.296
-269.326	-126.894	-0.342	0.050
-268.311	-5.858	-0.172	0.117
-267.297	-117.812	-0.304	0.054
-266.282	33.498	0.190	-0.164
-265.267	-200.000	0.047	0.238
-264.253	-200.000	-0.056	0.282
-263.238	800.000	-0.055	0.157
-262.224	315.231	-0.070	-0.132
-261.209	219.951	-0.031	0.050
-260.195	-200.000	0.024	-0.525
-259.180	-200.000	-0.027	0.154
-258.165	135.442	-0.015	-0.020
-257.151	-200.000	-0.029	0.143
-256.136	-2.778	-0.051	-0.036
-255.122	56.528	0.241	-0.233
-254.107	-200.000	0.025	0.185
-253.092	-200.000	0.053	-0.312
-252.078	123.932	-0.018	0.023
-251.063	-47.483	-0.428	0.207
-250.049	-131.712	0.202	-0.026
-249.034	-200.000	-0.017	-0.403
-248.019	-30.905	0.288	0.162
-247.005	-200.000	-0.018	-0.144
-245.990	800.000	-0.053	0.154
-244.976	-7.868	-0.344	-0.231
-243.961	-166.693	-0.075	0.003
-242.946	-29.689	0.181	0.103
-241.932	110.119	0.213	-0.254
-240.917	-200.000	-0.083	-0.371
-239.903	71.955	-0.230	-0.237
-238.888	-62.619	0.285	-0.118
-237.873	-200.000	-0.009	0.335
-236.859	257.545	-0.237	0.405
-235.844	-104.590	0.186	0.043
-234.830	12.747	-0.136	-0.104
-233.815	-200.000	0.026	-0.127
-232.800	800.000	-0.066	0.212
-231.786	-41.753	-0.031	0.016
-230.771	147.154	-0.163	0.218
-229.757	-17.515	-0.417	0.261
-228.742	187.435	-0.245	0.363
-227.727	112.854	0.088	0.105
-226.713	-153.279	0.075	0.005
-225.698	-157.474	-0.109	0.006
-224.684	-105.416	0.119	0.027
-223.669	43.760	0.027	-0.024
-222.655	-37.404	-0.186	0.099
-221.640	-200.000	0.000	-0.186
-220.625	-74.207	-0.254	-0.091
-219.611	153.071	0.065	-0.088
-218.596	-96.698	0.051	0.013
-217.582	65.291	-0.090	0.091
-216.567	-93.761	-0.378	0.103
-215.552	26.579	-0.206	0.171
-214.538	-200.000	-0.056	-0.290
-213.523	394.500	0.109	0.226
-212.509	207.112	0.149	-0.231
-211.494	414.026	-0.046	-0.097
-210.479	-69.358	0.307	0.117
-209.465	-54.361	0.158	-0.071
-208.450	-86.790	0.241	0.073
-207.436	-8.848	-0.305	0.203
-206.421	-20.350	-0.103	0.063
-205.406	182.058	0.117	-0.170
-204.392	-156.771	0.085	0.005
-203.377	520.998	0.022	0.052
-202.363	-31.885	0.111	-0.062
-201.348	168.896	-0.297	-0.420
-200.333	-200.000	0.008	-0.435
-199.319	-63.582	0.100	-0.041
-198.304	-200.000	-0.040	0.239
-197.290	-200.000	-0.028	-0.148
-196.275	-200.000	-0.010	0.179
-195.260	-51.180	-0.061	0.028
-194.246	800.000	-0.074	0.250
-193.231	754.979	0.061	0.163
-192.217	800.000	-0.038	-0.107
-191.202	-200.000	0.003	-0.091
-190.187	-18.722	0.023	0.014
-189.173	-57.176	-0.307	0.134
-188.158	169.610	-0.120	0.169
-187.144	190.082	-0.027	-0.041
-186.129	-200.000	0.057	-0.288
-185.114	737.611	-0.028	0.074
-184.100	513.344	-0.138	-0.319
-183.085	292.251	-0.288	0.520
-182.071	-122.535	-0.172	0.028
-181.056	9.702	0.006	-0.004
-180.042	-118.540	-0.244	-0.043
-179.027	-30.949	-0.112	0.063
-178.012	-74.864	0.272	-0.097
-176.998	-99.446	-0.278	0.069
-175.983	-200.000	-0.002	0.282
-174.969	-200.000	-0.025	0.183
-173.954	-200.000	-0.012	0.104
-172.939	-200.000	0.039	-0.280
-171.925	7.493	0.237	-0.176
-170.910	-200.000	-0.001	0.317
-169.896	-112.883	-0.302	-0.059
-168.881	-102.539	-0.141	-0.033
-167.866	13.238	0.126	0.097
-166.852	-21.621	-0.214	0.129
-165.837	-23.750	0.311	0.184
-164.823	124.213	-0.105	0.131
-163.808	-96.463	0.125	0.033
-162.793	714.018	0.041	0.109
-161.779	630.000	0.108	-0.272
-160.764	-49.881	-0.307	-0.145
-159.750	265.175	0.120	-0.207
-158.735	-200.000	0.055	0.308
-157.720	800.000	0.106	0.290
-156.706	72.884	0.312	0.323
-155.691	200.378	-0.162	-0.246
-154.677	-26.175	0.096	0.056
-153.662	800.000	-0.148	-0.505
-152.647	-200.000	0.032	-0.185
-151.633	800.000	0.027	0.083
-150.618	800.000	0.104	0.416
-149.604	800.000	0.041	0.173
-148.589	-30.283	0.188	-0.106
-147.574	-113.589	0.124	-0.024
-146.560	800.000	-0.111	0.346
-145.545	172.183	-0.134	-0.190
-144.531	395.160	0.172	0.355
-143.516	-200.000	0.028	-0.185
-142.502	53.911	0.222	0.211
-141.487	-200.000	-0.016	-0.820
-140.472	130.505	-0.185	-0.235
-139.458	86.209	0.119	0.129
-138.443	800.000	-0.071	0.213
-137.429	-17.103	0.117	-0.073
-136.414	-39.348	0.180	0.094
-135.399	135.083	0.277	-0.357
-134.385	-143.484	-0.528	-0.050
-133.370	-119.536	-0.062	0.011
-132.356	-153.595	-0.257	-0.018
-131.341	552.615	-0.009	-0.020
-130.326	-200.000	0.031	0.370
-129.312	208.465	-0.192	0.297
-128.297	226.753	-0.122	0.195
-127.283	-200.000	0.007	-0.216
-126.268	200.094	0.072	0.109
-125.253	-200.000	-0.016	-0.278
-124.239	143.086	-0.187	-0.246
-123.224	800.000	0.075	0.230
-122.210	-8.153	-0.364	-0.243
