DTS Sentinel unit serial number:	SN413079Multiplexer serial number:	ORYXHardware model number:	OX4-SRSoftware version number:	ORYX F/W v4.00 Oryx Data Collector v3.7.2.0data status	okinstallation	princeton_trtdifferential loss correction	single-endedforward channel	channel 3reverse channel	N/Adate	2019/09/12time	19:29:04forward acquisition time	15.00reverse acquisition time	0.00gamma	496.2192k internal	0.2321k external	0.2321temperature offset calibration	1.0110default loss term (dB/km)	0.3790temperature slope calibration	1.0000multiplexer offset coefficient	1.0000multiplexer slope coefficient	1.0000fibre end	0.00T internal ref (°C)	32.31T ext. ref 1 (°C)	3.26T ext. ref 2 (°C)	26.83length (m)	temperature (°C)	Stokes	anti-Stokes-747.200	-195.257	-0.521	-0.004
-746.185	316.107	-0.110	-0.209
-745.171	-200.000	0.101	-0.944
-744.156	-171.380	0.368	-0.012
-743.142	-13.872	-0.915	0.598
-742.127	53.451	-0.152	0.147
-741.112	-12.806	0.306	-0.202
-740.098	-200.000	0.009	-0.515
-739.083	58.509	0.217	0.215
-738.069	118.584	0.242	-0.302
-737.054	146.147	0.342	-0.463
-736.039	188.349	-0.440	-0.664
-735.025	-200.000	-0.022	0.205
-734.010	110.955	0.385	0.468
-732.996	182.742	0.320	0.477
-731.981	41.747	0.527	-0.482
-730.966	140.123	0.268	-0.358
-729.952	153.023	0.464	-0.641
-728.937	-101.334	-0.595	-0.147
-727.923	-67.523	-0.313	-0.124
-726.908	-143.928	0.908	-0.086
-725.894	800.000	0.051	0.191
-724.879	-74.885	0.361	-0.131
-723.864	-160.051	-0.455	-0.025
-722.850	472.700	0.154	0.351
-721.835	-166.853	0.707	0.029
-720.821	-66.150	-0.258	-0.104
-719.806	494.340	-0.133	-0.308
-718.791	-200.000	-0.156	-0.820
-717.777	402.170	-0.064	0.135
-716.762	-200.000	0.043	-0.802
-715.748	-86.129	0.837	-0.261
-714.733	268.700	-0.259	0.458
-713.718	-200.000	0.009	-0.389
-712.704	1.636	0.223	-0.162
-711.689	-72.881	0.851	0.316
-710.675	-56.546	0.375	0.168
-709.660	-200.000	-0.013	0.137
-708.645	-200.000	-0.065	1.196
-707.631	800.000	0.286	-0.822
-706.616	-200.000	-0.158	-0.718
-705.602	-66.153	0.777	-0.313
-704.587	800.000	0.042	-0.154
-703.572	-200.000	-0.030	-0.134
-702.558	-160.440	0.677	0.037
-701.543	193.279	0.482	-0.736
-700.529	349.810	0.229	-0.457
-699.514	-23.455	0.409	-0.248
-698.499	-200.000	-0.027	-0.665
-697.485	-181.473	0.607	0.012
-696.470	330.922	-0.539	1.047
-695.456	-94.790	0.969	-0.265
-694.441	43.946	-0.421	0.389
-693.426	-21.576	0.588	-0.361
-692.412	-200.000	-0.043	-0.252
-691.397	-155.967	0.183	-0.012
-690.383	177.795	0.095	0.140
-689.368	-128.851	-0.413	0.059
-688.354	50.364	0.268	-0.256
-687.339	800.000	-0.289	0.928
-686.324	-8.593	0.537	0.364
-685.310	586.133	-0.230	0.570
-684.295	-200.000	0.010	0.891
-683.281	-200.000	0.117	0.538
-682.266	177.112	-0.684	1.003
-681.251	800.000	-0.310	-0.865
-680.237	-200.000	0.107	0.625
-679.222	360.141	0.185	0.374
-678.208	-74.827	0.223	0.081
-677.193	290.784	0.062	-0.114
-676.178	33.362	-1.028	-0.900
-675.164	-200.000	-0.027	-0.523
-674.149	-200.000	0.137	-0.751
-673.135	-17.138	-0.380	-0.241
-672.120	253.116	-0.163	0.280
-671.105	-14.238	-0.053	-0.034
-670.091	17.821	-0.231	-0.185
-669.076	-183.803	0.332	-0.006
-668.062	-200.000	-0.064	-0.817
-667.047	71.310	0.546	-0.571
-666.032	-145.350	-0.393	-0.036
-665.018	-47.299	-0.573	0.281
-664.003	800.000	0.047	0.144
-662.989	800.000	0.206	0.641
-661.974	330.480	-0.351	-0.680
-660.959	535.824	-0.320	0.766
-659.945	-177.589	-0.688	-0.017
-658.930	66.225	-0.500	0.511
-657.916	-80.207	-0.585	0.197
-656.901	-44.741	-0.337	0.169
-655.886	-200.000	0.041	-0.240
-654.872	200.358	-0.483	-0.748
-653.857	-200.000	-0.025	-0.166
-652.843	800.000	0.378	1.402
-651.828	-138.152	-0.996	-0.111
-650.814	-49.002	-0.332	-0.160
-649.799	-200.000	0.038	0.222
-648.784	288.469	-0.279	0.509
-647.770	38.027	-0.213	0.191
-646.755	-96.717	0.838	-0.222
-645.741	800.000	0.085	-0.303
-644.726	800.000	0.282	-1.065
-643.711	800.000	-0.085	-0.292
-642.697	-95.146	0.469	-0.127
-641.682	-200.000	0.052	0.729
-640.668	87.993	-0.386	-0.431
-639.653	73.167	-0.394	0.415
-638.638	-29.163	0.610	-0.352
-637.624	-97.538	-0.268	-0.070
-636.609	-200.000	0.031	0.500
-635.595	5.166	0.702	0.521
-634.580	-22.111	0.380	0.232
-633.565	-86.559	0.128	-0.040
-632.551	800.000	0.213	0.758
-631.536	800.000	0.208	-0.899
-630.522	-200.000	0.023	0.202
-629.507	-200.000	0.043	0.565
-628.492	-55.630	-0.314	-0.141
-627.478	800.000	-0.043	0.137
-626.463	-200.000	-0.121	0.556
-625.449	27.673	0.455	0.385
-624.434	-138.337	1.027	0.114
-623.419	-56.282	-0.170	0.076
-622.405	152.412	-0.127	-0.175
-621.390	-200.000	-0.134	-0.875
-620.376	-65.960	-0.618	-0.248
-619.361	-97.256	-0.308	-0.081
-618.346	71.692	-0.768	0.803
-617.332	24.458	0.343	0.285
-616.317	-79.458	0.496	-0.169
-615.303	26.017	0.694	-0.582
-614.288	54.567	0.333	-0.323
-613.273	-128.895	0.791	0.112
-612.259	21.253	-0.196	-0.160
-611.244	-200.000	-0.086	-0.570
-610.230	800.000	0.206	-0.767
-609.215	-200.000	0.041	0.528
-608.201	-153.250	0.786	0.055
-607.186	277.285	0.040	-0.072
-606.171	-200.000	-0.030	0.608
-605.157	-133.663	0.541	-0.068
-604.142	557.844	0.403	-0.977
-603.128	-56.602	0.910	0.405
-602.113	95.948	0.460	-0.528
-601.098	-16.462	0.352	0.224
-600.084	497.075	0.263	0.608
-599.069	66.984	0.151	0.155
-598.055	-75.593	0.293	-0.105
-597.040	-200.000	0.074	-0.342
-596.025	800.000	0.110	-0.353
-595.011	-91.406	-0.691	-0.198
-593.996	561.313	-0.344	-0.836
-592.982	263.805	-0.448	0.782
-591.967	-200.000	0.063	0.509
-590.952	359.308	0.212	-0.426
-589.938	214.478	-0.470	0.747
-588.923	249.125	0.341	0.580
-587.909	-200.000	-0.012	0.254
-586.894	186.441	-0.161	0.241
-585.879	-156.613	1.118	0.070
-584.865	17.396	0.808	-0.644
-583.850	-43.373	-0.639	0.325
-582.836	-200.000	0.022	-0.206
-581.821	800.000	-0.117	-0.356
-580.806	-200.000	-0.075	0.567
-579.792	-88.940	-0.288	0.086
-578.777	35.295	0.691	0.609
-577.763	-200.000	-0.113	0.723
-576.748	396.616	-0.328	0.689
-575.733	-200.000	-0.002	0.153
-574.719	-40.924	-0.205	-0.107
-573.704	-200.000	-0.018	-0.616
-572.690	-33.540	-0.662	-0.367
-571.675	126.733	-0.518	0.659
-570.661	204.813	0.199	0.309
-569.646	8.486	0.692	0.523
-568.631	-78.566	0.521	-0.179
-567.617	-200.000	-0.056	-0.291
-566.602	38.947	-0.386	0.346
-565.588	-168.158	0.772	-0.030
-564.573	-174.745	0.514	0.015
-563.558	42.553	-0.749	-0.684
-562.544	-130.541	0.256	-0.035
-561.529	698.341	-0.429	1.131
-560.515	-104.675	0.369	0.085
-559.500	163.344	-0.293	-0.413
-558.485	70.780	-0.215	-0.224
-557.471	-73.385	0.461	0.169
-556.456	12.728	0.502	0.389
-555.442	-46.440	0.224	-0.110
-554.427	539.510	-0.231	-0.552
-553.412	-150.653	0.566	-0.043
-552.398	-101.572	0.772	-0.188
-551.383	-94.596	0.900	-0.246
-550.369	0.512	-0.943	-0.676
-549.354	-140.804	-1.311	-0.136
-548.339	-3.368	0.393	-0.274
-547.325	-200.000	-0.046	-0.340
-546.310	-51.025	-0.585	-0.275
-545.296	-151.012	-0.786	0.059
-544.281	785.334	-0.392	-1.079
-543.266	-182.450	0.891	-0.016
-542.252	800.000	0.038	0.154
-541.237	108.356	0.368	-0.441
-540.223	331.738	0.200	0.386
-539.208	-189.850	0.351	-0.004
-538.193	-4.562	0.225	0.156
-537.179	-123.309	-0.832	-0.133
-536.164	119.354	-0.209	-0.259
-535.150	457.967	0.166	-0.369
-534.135	800.000	0.147	0.548
-533.121	-84.571	-0.385	0.122
-532.106	-200.000	-0.044	0.522
-531.091	-200.000	-0.038	-0.294
-530.077	-200.000	0.028	-0.438
-529.062	113.765	-0.557	0.678
-528.048	26.115	-0.524	0.439
-527.033	137.306	-0.711	-0.931
-526.018	76.692	0.241	0.256
-525.004	87.302	-0.181	-0.201
-523.989	-200.000	-0.162	-1.081
-522.975	-200.000	0.020	0.277
-521.960	241.714	-0.647	-1.083
-520.945	-48.161	-0.625	-0.302
-519.931	-200.000	-0.050	-0.396
-518.916	-37.799	0.440	0.234
-517.902	44.661	-0.118	0.109
-516.887	-200.000	-0.012	0.398
-515.872	-108.420	0.418	-0.090
-514.858	1.328	-0.380	-0.273
-513.843	-45.929	-0.383	-0.189
-512.829	800.000	0.121	0.473
-511.814	129.239	-0.315	0.403
-510.799	388.170	-0.167	-0.346
-509.785	-2.463	-0.602	0.422
-508.770	800.000	0.100	0.336
-507.756	623.040	-0.273	0.688
-506.741	-30.641	0.209	-0.119
-505.726	562.029	0.220	0.533
-504.712	800.000	-0.108	0.325
-503.697	23.964	-0.347	0.286
-502.683	-106.234	0.538	0.121
-501.668	20.812	0.106	-0.086
-500.653	-200.000	-0.171	-0.773
-499.639	368.250	-0.211	0.426
-498.624	-69.017	-0.133	0.051
-497.610	-200.000	-0.206	1.377
-496.595	-150.978	0.404	0.031
-495.581	800.000	-0.209	0.793
-494.566	800.000	0.162	0.454
-493.551	-101.998	0.678	0.164
-492.537	800.000	-0.116	-0.322
-491.522	-51.205	0.317	0.149
-490.508	23.277	0.239	-0.196
-489.493	154.050	0.248	-0.340
-488.478	212.130	-0.181	0.286
-487.464	800.000	-0.166	-0.519
-486.449	800.000	-0.022	-0.085
-485.435	26.412	0.337	-0.282
-484.420	27.875	-0.293	0.247
-483.405	-137.280	0.224	-0.025
-482.391	-200.000	-0.050	0.394
-481.376	-153.259	-0.259	-0.018
-480.362	800.000	0.060	0.201
-479.347	-93.328	-0.945	-0.262
-478.332	507.020	0.251	-0.583
-477.318	51.942	0.106	0.101
-476.303	22.648	-0.868	-0.710
-475.289	274.730	0.154	-0.273
-474.274	-26.427	0.798	0.468
-473.259	617.351	0.312	0.784
-472.245	-56.376	0.366	0.162
-471.230	24.866	-0.404	-0.335
-470.216	-73.574	-0.209	-0.076
-469.201	69.935	-0.204	0.210
-468.186	800.000	0.193	0.662
-467.172	44.606	0.366	0.337
-466.157	-200.000	-0.038	-0.558
-465.143	290.827	0.060	-0.109
-464.128	-0.411	0.373	0.265
-463.113	139.308	-0.456	-0.599
-462.099	53.884	-0.167	-0.160
-461.084	470.315	0.080	0.180
-460.070	-190.738	0.428	-0.005
-459.055	3.464	-0.364	-0.265
-458.040	-141.710	0.580	-0.058
-457.026	-169.034	-0.151	-0.006
-456.011	800.000	0.234	-0.676
-454.997	18.960	-0.532	-0.426
-453.982	-97.074	0.583	-0.152
-452.968	-114.811	-0.867	0.165
-451.953	-24.377	-0.849	0.506
-450.938	800.000	-0.377	-1.330
-449.924	448.086	0.261	-0.575
-448.909	-106.087	0.730	0.164
-447.895	-200.000	0.025	-0.427
-446.880	22.836	0.530	0.434
-445.865	-200.000	-0.088	-0.627
-444.851	-200.000	0.047	-0.297
-443.836	115.891	-0.379	-0.463
-442.822	-200.000	0.052	0.347
-441.807	45.535	0.323	-0.298
-440.792	800.000	0.097	0.383
-439.778	-200.000	-0.113	-0.912
-438.763	-89.507	-0.337	0.099
-437.749	-200.000	-0.070	0.571
-436.734	-32.687	-0.848	-0.471
-435.719	-40.238	-0.551	-0.286
-434.705	53.894	0.214	0.205
-433.690	-200.000	-0.064	-0.286
-432.676	9.820	0.454	-0.344
-431.661	659.936	-0.186	-0.477
-430.646	-113.204	0.364	-0.072
-429.632	-141.964	-0.301	0.030
-428.617	-200.000	0.032	-0.381
-427.603	57.007	0.592	-0.576
-426.588	199.382	-0.739	-1.131
-425.573	-96.991	0.555	0.145
-424.559	-200.000	0.004	-0.085
-423.544	136.774	-0.781	1.018
-422.530	78.507	-0.514	0.548
-421.515	-17.383	-0.601	-0.378
-420.500	61.275	-0.135	0.134
-419.486	-200.000	-0.006	0.638
-418.471	800.000	0.035	-0.097
-417.457	556.385	0.207	0.498
-416.442	-88.685	-0.294	-0.087
-415.428	800.000	-0.237	0.910
-414.413	-116.990	0.719	-0.131
-413.398	-200.000	-0.009	0.397
-412.384	-200.000	-0.084	0.525
-411.369	-87.675	0.368	-0.111
-410.355	19.566	-0.329	-0.264
-409.340	36.682	0.574	0.505
-408.325	-200.000	0.004	-0.333
-407.311	24.180	-0.104	0.086
-406.296	-141.990	0.342	0.034
-405.282	800.000	0.078	-0.318
-404.267	-181.732	-0.188	-0.004
-403.252	-16.977	0.151	-0.095
-402.238	-200.000	0.119	-0.618
-401.223	-33.885	-1.071	0.588
-400.209	-113.991	-0.655	-0.127
-399.194	232.364	0.325	-0.532
-398.179	82.274	-0.166	-0.179
-397.165	-200.000	-0.010	0.606
-396.150	-200.000	0.066	-0.431
-395.136	-142.247	-0.266	0.026
-394.121	-200.000	-0.058	-0.647
-393.106	-50.610	0.938	0.441
-392.092	137.784	0.084	0.110
-391.077	562.851	-0.213	0.514
-390.063	-27.050	0.263	0.153
-389.048	324.422	0.212	0.404
-388.033	348.214	-0.503	-0.988
-387.019	76.047	0.020	0.021
-386.004	-200.000	0.028	0.347
-384.990	-120.429	-0.301	0.051
-383.975	177.683	-0.424	0.616
-382.960	169.289	0.397	0.565
-381.946	280.661	-0.372	0.663
-380.931	-5.263	-0.334	0.229
-379.917	146.228	0.251	-0.336
-378.902	145.225	0.291	-0.387
-377.888	75.285	0.126	-0.133
-376.873	-72.082	-0.243	-0.090
-375.858	739.389	-0.179	-0.479
-374.844	-200.000	0.124	-1.197
-373.829	202.965	0.098	-0.150
-372.815	-1.359	0.415	-0.291
-371.800	335.375	0.346	-0.668
-370.785	-121.718	-0.535	0.088
-369.771	-175.121	-0.358	-0.010
-368.756	57.348	-0.643	-0.625
-367.742	800.000	-0.155	0.547
-366.727	-200.000	-0.140	0.796
-365.712	212.533	-0.701	1.101
-364.698	-37.288	-0.511	-0.272
-363.683	349.501	-0.191	0.375
-362.669	-53.811	0.151	0.068
-361.654	800.000	0.204	0.747
-360.639	-86.964	0.229	0.070
-359.625	-31.998	0.571	0.318
-358.610	751.350	0.265	0.713
-357.596	20.655	-0.140	-0.113
-356.581	19.593	-0.392	-0.314
-355.566	187.863	-0.134	0.199
-354.552	-68.860	-0.307	0.118
-353.537	-43.530	-0.531	0.267
-352.523	23.526	-0.419	0.343
-351.508	-98.055	0.466	0.119
-350.493	30.981	0.444	-0.379
-349.479	-200.000	-0.058	-0.583
-348.464	-63.634	0.518	0.211
-347.450	-158.224	0.302	-0.018
-346.435	-17.512	0.159	-0.099
-345.420	-34.040	-0.558	-0.305
-344.406	104.038	-0.337	0.394
-343.391	-200.000	-0.096	0.561
-342.377	-168.487	-0.134	0.005
-341.362	-134.574	0.497	-0.060
-340.348	314.092	-0.178	-0.333
-339.333	-107.066	-0.603	0.132
-338.318	11.794	0.435	0.332
-337.304	-155.219	0.014	-0.001
-336.289	328.625	0.226	0.433
-335.275	-200.000	-0.078	-0.791
-334.260	800.000	-0.272	-0.842
-333.245	20.823	0.109	0.088
-332.231	-200.000	-0.001	-0.335
-331.216	-173.535	0.447	0.013
-330.202	235.494	-0.525	0.863
-329.187	85.544	0.398	0.434
-328.172	346.130	0.248	-0.484
-327.158	-47.848	0.201	0.097
-326.143	417.196	0.198	0.421
-325.129	-200.000	-0.113	0.922
-324.114	800.000	-0.081	-0.309
-323.099	-162.454	-0.733	0.036
-322.085	117.869	0.445	0.545
-321.070	38.151	0.211	-0.187
-320.056	100.534	-0.505	-0.583
-319.041	-32.297	0.467	-0.259
-318.026	-92.413	-0.280	-0.078
-317.012	-57.915	-0.924	0.401
-315.997	62.847	-0.216	0.215
-314.983	532.181	-0.400	0.941
-313.968	333.813	0.478	-0.920
-312.953	-200.000	-0.088	-0.780
-311.939	-200.000	-0.125	0.666
-310.924	-200.000	-0.008	-0.141
-309.910	-99.082	0.122	0.031
-308.895	91.164	-0.336	0.375
-307.880	75.873	-0.576	0.605
-306.866	-192.136	-0.450	-0.004
-305.851	-104.778	0.334	-0.076
-304.837	21.050	-0.214	-0.172
-303.822	-102.449	0.778	-0.185
-302.807	-200.000	-0.007	-0.396
-301.793	-50.190	0.591	0.278
-300.778	-52.903	-0.424	-0.194
-299.764	-162.080	-0.917	0.046
-298.749	193.150	-0.150	0.225
-297.735	-169.726	0.158	-0.006
-296.720	800.000	-0.341	1.041
-295.705	93.482	-0.448	0.504
-294.691	-96.815	-0.667	0.174
-293.676	218.025	-0.283	0.448
-292.662	800.000	0.171	-0.481
-291.647	-116.120	0.194	-0.036
-290.632	-200.000	0.100	-0.464
-289.618	5.965	-0.335	-0.246
-288.603	800.000	-0.206	0.784
-287.589	-200.000	0.208	1.109
-286.574	56.535	0.624	0.602
-285.559	49.690	0.611	-0.571
-284.545	112.747	0.213	0.257
-283.530	-115.047	-0.418	0.079
-282.516	6.784	0.544	-0.402
-281.501	-69.608	-0.301	-0.114
-280.486	800.000	-0.175	-0.619
-279.472	541.256	0.073	-0.172
-278.457	43.027	0.098	0.089
-277.443	51.692	0.273	0.257
-276.428	-36.536	0.318	-0.170
-275.413	-200.000	0.019	-0.378
-274.399	-200.000	-0.043	-0.910
-273.384	-200.000	-0.005	-0.485
-272.370	-200.000	-0.063	-0.553
-271.355	138.069	0.530	0.689
-270.340	-15.083	0.677	-0.430
-269.326	800.000	0.023	-0.097
-268.311	730.657	0.208	-0.552
-267.297	-113.115	0.302	0.059
-266.282	102.451	0.374	-0.434
-265.267	263.816	0.467	0.806
-264.253	345.628	0.324	0.631
-263.238	174.057	-0.421	0.603
-262.224	-145.377	0.526	-0.047
-261.209	239.046	-0.242	0.399
-260.195	-18.618	0.345	0.213
-259.180	-47.223	-0.592	-0.286
-258.165	-200.000	0.059	-0.357
-257.151	16.960	-0.203	0.160
-256.136	54.784	-0.122	0.117
-255.122	555.576	0.059	0.140
-254.107	384.303	-0.361	0.738
-253.092	88.174	-0.347	-0.382
-252.078	102.530	-0.354	0.410
-251.063	-118.336	0.878	0.155
-250.049	-60.482	0.638	0.269
-249.034	-200.000	-0.057	0.292
-248.019	-159.023	0.164	0.009
-247.005	76.684	0.476	-0.501
-245.990	-102.957	-1.264	-0.297
-244.976	-40.832	0.477	-0.245
-243.961	-71.285	0.273	0.102
-242.946	271.034	-0.212	0.370
-241.932	-26.930	0.529	-0.306
-240.917	121.803	-0.443	0.547
-239.903	578.780	-0.165	-0.399
-238.888	-171.436	0.743	-0.025
-237.873	97.827	-0.123	0.140
-236.859	-158.680	0.653	-0.037
-235.844	546.154	-0.142	0.335
-234.830	-200.000	-0.020	0.183
-233.815	-96.136	-0.272	0.071
-232.800	-200.000	-0.047	-0.470
-231.786	97.557	0.339	-0.385
-230.771	-200.000	-0.075	-0.518
-229.757	-113.323	-0.426	-0.083
-228.742	74.200	-0.405	-0.421
-227.727	76.444	0.428	0.450
-226.713	87.943	-0.216	-0.237
-225.698	120.892	0.079	-0.097
-224.684	-94.006	0.726	0.197
-223.669	-97.904	-0.967	0.247
-222.655	33.406	-0.324	0.279
-221.640	-126.457	0.993	-0.146
-220.625	800.000	0.152	-0.460
-219.611	-114.179	-0.615	-0.118
-218.596	151.462	-0.041	0.056
-217.582	-192.202	0.618	0.006
-216.567	67.599	0.279	0.283
-215.552	-200.000	0.081	0.515
-214.538	-120.766	-0.333	-0.056
-213.523	40.959	-0.379	0.339
-212.509	125.521	0.311	0.389
-211.494	258.282	0.293	-0.499
-210.479	-55.727	0.947	-0.419
-209.465	800.000	0.045	0.187
-208.450	19.381	0.319	-0.254
-207.436	154.566	0.509	-0.692
-206.421	405.075	0.247	-0.515
-205.406	3.008	0.799	0.574
-204.392	-200.000	-0.035	1.048
-203.377	752.022	-0.168	0.450
-202.363	-91.229	-0.453	0.128
-201.348	-5.523	0.845	-0.574
-200.333	1.234	-0.831	-0.591
-199.319	-165.171	-1.032	-0.045
-198.304	-78.823	0.560	0.189
-197.290	-51.557	-0.338	-0.156
-196.275	49.561	-0.204	-0.190
-195.260	570.216	0.441	1.061
-194.246	-200.000	0.037	-0.392
-193.231	-10.998	-0.218	0.142
-192.217	-77.275	-1.311	-0.451
-191.202	40.194	-0.353	0.314
-190.187	-100.928	0.619	-0.150
-189.173	727.400	-0.137	-0.361
-188.158	299.839	-0.495	-0.901
-187.144	-34.494	0.665	-0.360
-186.129	601.586	0.031	0.076
-185.114	-117.268	-0.204	-0.037
-184.100	800.000	-0.034	-0.141
-183.085	-200.000	0.016	0.397
-182.071	-61.807	-0.734	0.304
-181.056	-38.007	0.445	-0.234
-180.042	-200.000	0.033	0.388
-179.027	-200.000	-0.089	0.689
-178.012	30.075	-0.369	-0.311
-176.998	-87.717	-0.387	0.115
-175.983	-200.000	0.162	-0.827
-174.969	-200.000	-0.019	0.329
-173.954	182.586	-0.167	0.243
-172.939	800.000	0.081	-0.320
-171.925	100.018	-0.312	-0.358
-170.910	265.302	0.194	-0.335
-169.896	168.024	0.031	-0.044
-168.881	-200.000	0.150	-0.881
-167.866	-46.837	-0.451	0.218
-166.852	800.000	-0.201	-0.601
-165.837	-66.699	-0.770	-0.301
-164.823	62.470	0.505	-0.498
-163.808	31.978	0.369	0.314
-162.793	393.715	0.192	-0.395
-161.779	-169.521	-0.488	0.018
-160.764	15.790	0.318	0.247
-159.750	-200.000	-0.084	0.799
-158.735	-200.000	0.029	0.700
-157.720	-200.000	-0.196	1.098
-156.706	13.810	0.619	-0.476
-155.691	-200.000	-0.017	-0.464
-154.677	-91.449	-0.642	0.181
-153.662	636.567	-0.257	-0.644
-152.647	323.953	0.278	-0.524
-151.633	439.282	-0.216	-0.466
-150.618	-144.543	0.586	-0.054
-149.604	-200.000	-0.046	0.436
-148.589	800.000	0.231	-0.698
-147.574	-200.000	-0.068	0.396
-146.560	626.022	0.214	-0.534
-145.545	800.000	0.132	0.554
-144.531	479.673	0.042	-0.093
-143.516	-200.000	-0.011	-0.148
-142.502	800.000	0.037	0.128
-141.487	-117.522	-1.074	-0.191
-140.472	-185.825	-0.329	-0.005
-139.458	-4.438	0.238	-0.162
-138.443	175.595	-0.417	-0.597
-137.429	-33.229	0.469	-0.257
-136.414	297.384	0.182	0.329
-135.399	-32.212	0.376	-0.207
-134.385	13.472	-0.467	0.357
-133.370	-200.000	-0.557	0.001
-132.356	287.224	0.369	-0.659
-131.341	800.000	-0.140	0.503
-130.326	800.000	0.153	-0.630
-129.312	800.000	0.318	-1.071
-128.297	-66.894	-0.421	0.164
-127.283	-200.000	-0.010	0.214
-126.268	-106.884	-0.706	0.154
-125.253	-93.478	-0.136	0.037
-124.239	-1.014	-0.566	0.395
-123.224	800.000	0.164	-0.562
-122.210	-40.473	0.272	-0.139
