DTS Sentinel unit serial number:	SN413079Multiplexer serial number:	ORYXHardware model number:	OX4-SRSoftware version number:	ORYX F/W v4.00 Oryx Data Collector v3.7.2.0data status	okinstallation	princeton_trtdifferential loss correction	single-endedforward channel	channel 3reverse channel	N/Adate	2019/09/13time	05:20:34forward acquisition time	60.00reverse acquisition time	0.00gamma	496.2192k internal	0.2338k external	0.2338temperature offset calibration	1.0137default loss term (dB/km)	0.3790temperature slope calibration	1.0000multiplexer offset coefficient	1.0000multiplexer slope coefficient	1.0000fibre end	0.00T internal ref (°C)	26.31T ext. ref 1 (°C)	4.05T ext. ref 2 (°C)	20.85length (m)	temperature (°C)	Stokes	anti-Stokes-747.200	-185.522	-0.370	0.006
-746.185	532.700	0.067	0.159
-745.171	-196.354	0.196	0.001
-744.156	-6.691	-0.092	0.063
-743.142	-102.850	-0.302	-0.072
-742.127	-24.413	-0.189	0.113
-741.112	800.000	0.073	-0.313
-740.098	74.983	0.078	-0.083
-739.083	-126.643	0.088	0.013
-738.069	-15.055	0.274	0.176
-737.054	-58.507	-0.341	-0.149
-736.039	24.442	-0.128	-0.107
-735.025	184.704	0.135	-0.201
-734.010	-200.000	0.007	-0.035
-732.996	-5.286	-0.099	0.068
-731.981	-41.847	-0.186	-0.096
-730.966	-122.812	0.101	0.016
-729.952	99.829	-0.082	-0.095
-728.937	-200.000	-0.008	-0.097
-727.923	-50.138	-0.124	-0.059
-726.908	-62.249	-0.210	0.088
-725.894	-73.857	-0.103	-0.038
-724.879	-154.361	-0.521	-0.035
-723.864	-60.544	-0.175	-0.074
-722.850	-200.000	0.013	0.191
-721.835	-200.000	0.116	-0.001
-720.821	-41.489	-0.124	-0.064
-719.806	57.698	-0.061	0.060
-718.791	-133.221	-0.235	-0.030
-717.777	85.573	0.124	-0.137
-716.762	-200.000	0.027	-0.237
-715.748	-200.000	-0.025	-0.166
-714.733	21.845	0.365	-0.298
-713.718	-200.000	0.012	-0.297
-712.704	-105.137	-0.158	0.036
-711.689	756.699	-0.194	-0.526
-710.675	50.142	-0.236	0.223
-709.660	800.000	-0.039	0.148
-708.645	186.576	0.109	-0.162
-707.631	-56.271	-0.045	-0.020
-706.616	-139.461	-0.328	-0.035
-705.602	258.798	0.083	-0.143
-704.587	-200.000	-0.025	-0.334
-703.572	161.499	0.157	-0.220
-702.558	-46.292	0.036	-0.018
-701.543	800.000	0.113	-0.452
-700.529	-170.431	0.203	-0.007
-699.514	800.000	0.059	0.196
-698.499	-119.513	0.113	0.020
-697.485	200.787	0.153	0.236
-696.470	-134.907	-0.335	0.041
-695.456	-122.806	0.123	-0.020
-694.441	-52.778	-0.165	0.076
-693.426	30.552	-0.158	-0.135
-692.412	-98.180	-0.137	-0.035
-691.397	800.000	-0.032	-0.125
-690.383	112.209	0.091	-0.110
-689.368	-51.474	-0.175	-0.082
-688.354	-200.000	0.031	-0.185
-687.339	-200.000	-0.010	-0.103
-686.324	417.510	-0.187	-0.400
-685.310	-68.652	-0.105	0.041
-684.295	-49.062	-0.205	-0.098
-683.281	76.173	-0.358	-0.380
-682.266	-64.976	-0.360	0.146
-681.251	455.778	0.099	-0.220
-680.237	-104.192	-0.267	0.062
-679.222	123.703	-0.167	0.210
-678.208	-200.000	-0.012	-0.307
-677.193	473.262	-0.068	-0.154
-676.178	-3.970	0.231	-0.160
-675.164	-167.875	0.255	-0.010
-674.149	-200.000	-0.010	-0.192
-673.135	-32.792	-0.329	0.183
-672.120	-71.012	-0.278	-0.105
-671.105	-117.239	0.332	-0.060
-670.091	-67.847	-0.137	-0.053
-669.076	-98.701	0.115	0.029
-668.062	464.793	0.172	0.384
-667.047	-26.286	0.195	0.115
-666.032	-110.362	0.135	-0.028
-665.018	800.000	0.016	0.066
-664.003	-0.347	-0.126	-0.090
-662.989	60.511	0.062	-0.062
-661.974	15.577	-0.278	-0.219
-660.959	-80.948	-0.121	0.040
-659.945	-200.000	-0.022	-0.176
-658.930	702.049	-0.066	-0.174
-657.916	-115.483	0.202	-0.038
-656.901	160.493	0.072	0.100
-655.886	-5.194	0.110	-0.076
-654.872	-91.276	0.107	-0.031
-653.857	800.000	-0.024	0.076
-652.843	-200.000	-0.008	-0.067
-651.828	74.359	0.081	0.085
-650.814	197.851	0.109	-0.166
-649.799	-200.000	0.013	-0.090
-648.784	-177.072	-0.087	-0.002
-647.770	-123.488	0.175	-0.028
-646.755	-200.000	0.004	0.031
-645.741	49.957	-0.275	-0.259
-644.726	-200.000	-0.022	0.200
-643.711	192.713	0.196	-0.296
-642.697	-200.000	-0.016	-0.098
-641.682	20.818	-0.008	-0.007
-640.668	183.141	-0.221	0.326
-639.653	800.000	-0.006	0.022
-638.638	-92.916	0.223	0.062
-637.624	160.252	-0.090	-0.126
-636.609	-20.314	0.111	0.068
-635.595	-200.000	0.006	0.139
-634.580	21.472	-0.159	0.129
-633.565	173.463	-0.119	-0.172
-632.551	41.604	-0.082	-0.074
-631.536	206.477	0.043	-0.067
-630.522	102.717	0.201	0.235
-629.507	220.501	-0.156	0.250
-628.492	151.431	-0.181	-0.247
-627.478	-125.037	-0.239	-0.037
-626.463	279.777	-0.113	-0.201
-625.449	134.165	-0.007	0.010
-624.434	31.797	0.064	0.055
-623.419	-37.759	-0.114	-0.060
-622.405	242.085	0.048	0.080
-621.390	85.039	-0.124	0.136
-620.376	-200.000	-0.015	-0.198
-619.361	604.625	0.020	-0.048
-618.346	8.466	0.116	-0.087
-617.332	92.625	-0.340	-0.383
-616.317	-120.109	-0.329	-0.056
-615.303	-127.047	-0.069	0.010
-614.288	167.544	-0.021	0.029
-613.273	23.892	-0.125	0.103
-612.259	-108.251	-0.387	-0.084
-611.244	800.000	0.103	-0.414
-610.230	800.000	0.081	0.233
-609.215	87.148	-0.279	-0.308
-608.201	76.608	0.127	-0.134
-607.186	-111.438	-0.028	-0.006
-606.171	147.393	-0.143	0.192
-605.157	-120.015	-0.246	-0.042
-604.142	-48.102	-0.086	0.042
-603.128	-102.820	-0.139	0.033
-602.113	-187.161	0.312	-0.004
-601.098	-4.788	-0.319	-0.220
-600.084	32.366	-0.206	-0.178
-599.069	64.742	0.076	-0.077
-598.055	800.000	-0.088	0.255
-597.040	-74.956	-0.204	0.073
-596.025	-18.493	-0.330	0.206
-595.011	-150.879	0.324	0.024
-593.996	-189.516	-0.265	-0.003
-592.982	-58.439	-0.259	0.112
-591.967	-200.000	0.013	0.298
-590.952	-46.733	0.227	-0.111
-589.938	-10.844	0.232	0.153
-588.923	341.593	-0.085	0.166
-587.909	247.521	0.064	-0.108
-586.894	-200.000	-0.029	0.326
-585.879	477.936	0.138	0.313
-584.865	71.549	-0.180	-0.187
-583.850	-75.966	-0.118	0.042
-582.836	673.500	0.086	0.222
-581.821	-200.000	0.009	-0.148
-580.806	-49.848	-0.248	-0.117
-579.792	-72.758	0.113	-0.041
-578.777	-66.105	-0.129	-0.051
-577.763	467.629	-0.037	-0.083
-576.748	-73.062	0.268	-0.098
-575.733	-200.000	-0.015	0.087
-574.719	433.575	0.123	0.266
-573.704	-47.680	-0.365	-0.177
-572.690	80.868	0.094	-0.101
-571.675	-200.000	0.040	-0.179
-570.661	20.704	0.217	-0.175
-569.646	-200.000	0.017	0.094
-568.631	-119.284	0.306	0.053
-567.617	35.524	-0.039	0.034
-566.602	75.732	0.287	0.302
-565.588	159.190	0.099	0.138
-564.573	166.294	-0.077	0.108
-563.558	800.000	0.102	0.285
-562.544	-200.000	-0.022	0.143
-561.529	-200.000	-0.031	0.258
-560.515	34.093	0.125	0.109
-559.500	-124.040	0.240	0.038
-558.485	-200.000	-0.005	0.400
-557.471	-77.931	0.156	-0.054
-556.456	-200.000	-0.010	0.098
-555.442	4.779	-0.362	-0.265
-554.427	1.452	-0.122	0.087
-553.412	12.888	-0.297	0.228
-552.398	116.164	-0.225	0.274
-551.383	752.817	0.049	0.132
-550.369	-47.527	-0.250	0.121
-549.354	-104.708	-0.088	0.020
-548.339	388.441	-0.124	0.256
-547.325	-15.985	0.111	-0.070
-546.310	21.919	-0.172	0.140
-545.296	-77.206	0.131	-0.045
-544.281	-88.623	0.273	-0.081
-543.266	800.000	0.071	0.259
-542.252	-153.952	0.297	-0.020
-541.237	214.728	0.227	-0.358
-540.223	182.104	-0.172	-0.253
-539.208	82.942	0.068	0.073
-538.193	153.042	0.116	0.158
-537.179	-52.576	0.142	0.065
-536.164	668.240	-0.045	-0.116
-535.150	-88.161	-0.218	0.065
-534.135	105.855	0.152	-0.179
-533.121	546.653	-0.098	0.232
-532.106	-68.299	-0.249	-0.096
-531.091	658.825	-0.138	-0.354
-530.077	-27.129	0.091	-0.053
-529.062	28.092	0.096	0.080
-528.048	124.828	0.045	0.056
-527.033	334.522	-0.199	0.384
-526.018	-200.000	0.030	0.456
-525.004	-35.277	0.192	0.104
-523.989	-92.770	-0.048	0.013
-522.975	-200.000	0.033	-0.156
-521.960	800.000	0.055	-0.202
-520.945	800.000	-0.039	0.124
-519.931	29.018	-0.084	0.071
-518.916	76.373	0.257	-0.270
-517.902	-9.699	0.307	0.204
-516.887	-131.207	-0.076	-0.010
-515.872	7.298	0.196	0.145
-514.858	-79.976	0.352	0.117
-513.843	412.506	-0.009	0.020
-512.829	-7.487	-0.081	-0.055
-511.814	-83.812	-0.242	0.077
-510.799	-200.000	0.001	-0.136
-509.785	-200.000	0.055	-0.299
-508.770	-146.008	0.056	0.005
-507.756	57.387	-0.155	-0.151
-506.741	-3.906	0.134	-0.093
-505.726	122.315	0.187	-0.232
-504.712	-200.000	0.000	-0.222
-503.697	-102.144	-0.042	0.010
-502.683	-9.308	0.316	-0.210
-501.668	98.947	-0.148	-0.170
-500.653	-36.545	0.285	-0.152
-499.639	-95.361	0.342	0.091
-498.624	-200.000	0.008	0.040
-497.610	140.950	0.147	0.193
-496.595	-133.795	-0.113	-0.014
-495.581	395.330	-0.076	0.157
-494.566	-91.750	-0.068	0.019
-493.551	-200.000	-0.022	-0.121
-492.537	800.000	-0.048	0.136
-491.522	-200.000	0.001	-0.206
-490.508	-41.207	0.236	0.121
-489.493	408.212	0.086	0.181
-488.478	204.439	0.219	-0.337
-487.464	147.633	0.096	0.129
-486.449	27.959	-0.088	-0.074
-485.435	-80.765	0.086	-0.028
-484.420	-80.769	-0.272	-0.090
-483.405	-200.000	0.002	0.034
-482.391	-150.069	-0.067	-0.005
-481.376	-15.074	-0.178	-0.113
-480.362	-86.020	0.096	-0.030
-479.347	-60.011	0.309	-0.131
-478.332	67.425	-0.283	0.287
-477.318	1.528	0.216	0.154
-476.303	-150.993	-0.372	-0.028
-475.289	800.000	0.081	-0.286
-474.274	-200.000	0.027	0.144
-473.259	-15.319	-0.211	0.134
-472.245	45.328	-0.222	0.204
-471.230	-24.716	0.056	0.033
-470.216	-105.182	0.106	-0.024
-469.201	-179.710	-0.387	0.008
-468.186	-93.765	-0.050	0.014
-467.172	-200.000	0.053	-0.435
-466.157	250.962	0.080	0.135
-465.143	338.149	-0.028	0.054
-464.128	-135.112	0.211	0.025
-463.113	258.715	-0.117	-0.200
-462.099	3.433	0.230	-0.166
-461.084	695.419	0.050	0.130
-460.070	66.696	0.117	0.118
-459.055	-68.829	-0.216	-0.083
-458.040	-152.676	0.041	-0.003
-457.026	-97.646	-0.352	0.090
-456.011	800.000	0.028	-0.098
-454.997	437.204	-0.075	0.162
-453.982	315.082	0.076	-0.142
-452.968	474.830	-0.052	0.117
-451.953	359.229	0.050	-0.099
-450.938	-36.671	0.185	0.098
-449.924	-108.307	-0.270	-0.058
-448.909	-62.593	0.428	-0.176
-447.895	-69.255	0.068	-0.026
-446.880	179.891	0.056	0.082
-445.865	-132.532	0.118	-0.015
-444.851	77.593	0.110	-0.116
-443.836	50.577	0.175	-0.165
-442.822	-200.000	-0.061	-0.555
-441.807	230.034	0.234	-0.379
-440.792	-67.431	-0.148	0.058
-439.778	800.000	-0.033	0.131
-438.763	-105.665	0.377	0.085
-437.749	-85.879	0.163	-0.050
-436.734	104.865	-0.126	-0.147
-435.719	-170.206	0.202	-0.007
-434.705	82.844	0.115	0.124
-433.690	281.889	0.106	-0.188
-432.676	-103.320	-0.054	-0.013
-431.661	-200.000	0.015	-0.341
-430.646	-200.000	-0.017	-0.092
-429.632	-11.747	-0.182	-0.118
-428.617	14.363	0.209	-0.161
-427.603	60.160	0.114	0.111
-426.588	3.568	-0.073	-0.053
-425.573	-171.497	0.120	-0.004
-424.559	-17.407	-0.126	-0.079
-423.544	-185.456	-0.512	0.008
-422.530	202.281	0.149	-0.228
-421.515	-50.189	-0.283	0.133
-420.500	42.295	0.065	0.058
-419.486	33.456	-0.106	0.092
-418.471	-101.235	0.348	-0.084
-417.457	248.065	0.161	0.270
-416.442	-112.485	0.274	0.054
-415.428	-0.944	-0.399	0.280
-414.413	577.590	0.003	-0.008
-413.398	800.000	0.048	0.183
-412.384	-178.737	-0.537	-0.012
-411.369	-200.000	-0.247	0.001
-410.355	-53.831	-0.090	0.040
-409.340	-76.069	-0.258	0.090
-408.325	800.000	-0.066	0.206
-407.311	603.439	-0.101	-0.248
-406.296	-143.324	0.325	0.031
-405.282	-35.472	-0.065	-0.035
-404.267	800.000	-0.059	-0.190
-403.252	800.000	-0.021	0.071
-402.238	-200.000	0.027	0.160
-401.223	62.598	-0.337	-0.334
-400.209	800.000	-0.097	-0.273
-399.194	-76.706	0.193	0.067
-398.179	-200.000	-0.003	-0.217
-397.165	-200.000	-0.017	-0.409
-396.150	-19.232	-0.272	0.167
-395.136	-35.101	0.186	-0.100
-394.121	-29.041	-0.210	0.119
-393.106	679.890	0.113	-0.292
-392.092	-164.456	-0.312	-0.014
-391.077	70.851	0.165	0.169
-390.063	-200.000	-0.006	-0.300
-389.048	359.314	-0.077	-0.152
-388.033	-200.000	0.009	0.096
-387.019	-61.455	0.123	0.051
-386.004	-200.000	-0.061	0.380
-384.990	-61.649	-0.094	0.039
-383.975	455.313	-0.042	-0.092
-382.960	-67.948	-0.239	0.092
-381.946	-200.000	-0.046	-0.217
-380.931	-200.000	0.041	0.225
-379.917	-76.136	-0.403	0.141
-378.902	800.000	0.088	0.339
-377.888	-79.089	0.175	0.059
-376.873	49.784	0.186	-0.174
-375.858	113.877	-0.413	0.496
-374.844	-113.307	-0.200	-0.039
-373.829	66.308	0.237	-0.239
-372.815	40.307	0.141	0.125
-371.800	800.000	-0.098	0.394
-370.785	-91.425	-0.185	0.052
-369.771	-30.612	0.193	0.108
-368.756	563.550	0.109	-0.261
-367.742	50.079	0.026	-0.024
-366.727	800.000	0.056	0.226
-365.712	-200.000	-0.014	-0.189
-364.698	67.913	0.379	0.383
-363.683	-100.693	-0.473	-0.115
-362.669	-200.000	0.059	0.284
-361.654	-24.502	0.145	-0.085
-360.639	-115.901	0.181	0.033
-359.625	-104.299	-0.198	-0.045
-358.610	782.754	0.043	-0.115
-357.596	-65.284	0.126	0.050
-356.581	-73.000	-0.260	0.094
-355.566	-113.595	-0.380	-0.073
-354.552	800.000	0.038	-0.153
-353.537	-18.934	0.088	-0.054
-352.523	-200.000	-0.071	0.559
-351.508	-200.000	0.008	0.375
-350.493	800.000	-0.033	0.128
-349.479	-200.000	-0.024	-0.154
-348.464	-95.125	0.032	0.009
-347.450	800.000	-0.080	-0.280
-346.435	-105.326	-0.274	0.062
-345.420	-39.626	0.262	-0.136
-344.406	-108.863	-0.152	0.032
-343.391	481.427	0.139	-0.311
-342.377	-80.802	-0.182	0.060
-341.362	282.400	-0.094	0.166
-340.348	-31.916	-0.170	-0.094
-339.333	-164.200	0.293	-0.013
-338.318	454.878	-0.028	0.061
-337.304	0.904	-0.178	0.126
-336.289	18.933	0.301	-0.238
-335.275	-106.388	0.287	-0.063
-334.260	146.049	-0.184	-0.243
-333.245	-18.140	0.211	0.130
-332.231	-53.142	0.034	-0.015
-331.216	-135.971	0.215	0.025
-330.202	55.828	-0.202	0.193
-329.187	-169.404	0.262	-0.009
-328.172	-200.000	0.028	-0.191
-327.158	-200.000	-0.045	-0.413
-326.143	-200.000	0.025	-0.178
-325.129	-200.000	0.007	0.087
-324.114	237.362	0.209	-0.342
-323.099	632.360	0.069	-0.172
-322.085	-178.308	-0.220	0.005
-321.070	800.000	0.011	0.031
-320.056	159.610	-0.162	-0.222
-319.041	264.029	0.019	0.033
-318.026	-15.147	-0.091	0.057
-317.012	169.117	-0.130	-0.182
-315.997	-154.562	0.308	-0.020
-314.983	22.056	-0.086	-0.069
-313.968	-126.810	0.309	-0.045
-312.953	-172.516	0.209	-0.007
-311.939	-80.905	-0.117	0.038
-310.924	-109.305	0.171	0.036
-309.910	59.596	-0.149	0.145
-308.895	-157.910	-0.397	-0.023
-307.880	-58.127	-0.131	0.056
-306.866	446.022	-0.108	0.234
-305.851	-169.304	-0.058	0.002
-304.837	-173.895	0.091	-0.003
-303.822	800.000	0.124	0.354
-302.807	86.810	-0.326	0.355
-301.793	-19.833	-0.229	0.139
-300.778	-153.226	-0.110	0.008
-299.764	-200.000	-0.001	-0.088
-298.749	-113.705	0.234	-0.045
-297.735	800.000	-0.037	-0.156
-296.720	268.205	0.102	0.176
-295.705	131.427	-0.214	0.271
-294.691	-200.000	0.054	0.343
-293.676	-7.673	-0.291	-0.194
-292.662	-200.000	-0.025	0.112
-291.647	127.829	0.158	-0.197
-290.632	800.000	0.024	0.101
-289.618	-10.712	0.156	-0.102
-288.603	443.785	-0.142	-0.307
-287.589	107.178	-0.098	0.114
-286.574	409.790	0.092	0.193
-285.559	-153.066	0.138	-0.010
-284.545	-49.565	-0.195	-0.091
-283.530	-81.425	0.106	0.034
-282.516	706.919	-0.069	-0.179
-281.501	5.973	-0.172	0.126
-280.486	-86.287	0.074	-0.022
-279.472	-121.193	0.228	0.038
-278.457	-94.171	0.117	0.032
-277.443	529.291	-0.074	0.172
-276.428	66.462	-0.044	-0.044
-275.413	30.374	-0.134	-0.113
-274.399	218.541	0.140	0.220
-273.384	-200.000	-0.074	-0.352
-272.370	-112.117	0.049	0.010
-271.355	-36.351	0.275	0.146
-270.340	-12.659	-0.167	-0.108
-269.326	-116.634	0.035	-0.006
-268.311	-126.764	0.263	0.038
-267.297	-200.000	0.008	0.220
-266.282	17.144	0.177	-0.138
-265.267	-63.299	-0.111	0.045
-264.253	-129.823	-0.262	0.035
-263.238	167.960	0.152	-0.212
-262.224	-115.757	0.342	-0.063
-261.209	213.195	0.070	-0.109
-260.195	-170.549	0.117	0.004
-259.180	800.000	-0.049	-0.157
-258.165	362.990	-0.085	0.169
-257.151	195.383	0.135	0.202
-256.136	-41.200	0.126	-0.064
-255.122	48.562	0.140	0.130
-254.107	275.345	-0.184	0.320
-253.092	23.114	0.093	-0.075
-252.078	-13.161	0.121	-0.077
-251.063	-52.166	-0.058	-0.027
-250.049	112.207	-0.204	-0.243
-249.034	-160.195	-0.194	-0.010
-248.019	63.857	0.076	-0.075
-247.005	209.198	-0.078	-0.120
-245.990	-36.073	0.104	-0.055
-244.976	-181.864	0.013	-0.000
-243.961	-130.558	-0.158	-0.021
-242.946	115.440	0.081	-0.098
-241.932	-132.883	0.097	-0.012
-240.917	119.742	-0.186	-0.226
-239.903	85.384	0.301	0.325
-238.888	-156.813	0.354	-0.021
-237.873	-127.243	-0.145	0.021
-236.859	-107.796	0.169	-0.036
-235.844	-125.075	-0.114	-0.017
-234.830	-137.978	0.140	0.015
-233.815	309.332	0.083	0.152
-232.800	-111.033	0.107	-0.022
-231.786	534.856	0.141	-0.329
-230.771	-112.208	0.094	-0.018
-229.757	464.175	-0.096	-0.212
-228.742	-105.605	0.357	-0.080
-227.727	-194.034	-0.092	0.001
-226.713	67.819	-0.314	-0.316
-225.698	-200.000	-0.014	0.232
-224.684	-68.391	0.577	-0.220
-223.669	552.935	0.064	-0.152
-222.655	800.000	0.039	0.118
-221.640	-37.700	-0.118	-0.062
-220.625	-33.569	-0.202	0.110
-219.611	152.632	0.209	0.281
-218.596	800.000	0.092	-0.305
-217.582	108.130	0.104	-0.122
-216.567	161.059	0.156	-0.215
-215.552	246.376	-0.066	-0.109
-214.538	-95.161	0.200	-0.053
-213.523	800.000	-0.090	0.385
-212.509	516.864	0.077	-0.178
-211.494	41.911	-0.404	-0.360
-210.479	-191.738	-0.280	0.003
-209.465	800.000	0.066	-0.281
-208.450	34.010	0.191	0.163
-207.436	800.000	0.040	0.161
-206.421	-28.303	-0.324	0.184
-205.406	199.273	0.193	0.290
-204.392	-200.000	-0.006	0.135
-203.377	1.007	0.085	-0.060
-202.363	107.133	0.142	-0.165
-201.348	93.359	0.304	-0.338
-200.333	321.979	0.183	0.343
-199.319	198.526	0.056	-0.083
-198.304	800.000	-0.106	-0.347
-197.290	56.726	0.270	-0.258
-196.275	800.000	0.076	-0.220
-195.260	11.396	0.126	-0.095
-194.246	-200.000	0.061	0.437
-193.231	-200.000	0.001	-0.222
-192.217	499.297	0.074	-0.167
-191.202	235.827	-0.225	0.365
-190.187	-200.000	0.012	0.189
-189.173	78.413	-0.132	-0.138
-188.158	-139.436	0.369	-0.039
-187.144	-15.458	0.186	0.117
-186.129	11.635	-0.282	-0.213
-185.114	-200.000	0.016	0.189
-184.100	-112.408	0.266	-0.052
-183.085	-200.000	-0.002	0.092
-182.071	107.463	-0.150	0.175
-181.056	-81.045	0.266	0.086
-180.042	800.000	-0.040	0.157
-179.027	-200.000	0.026	0.234
-178.012	-82.471	-0.224	0.071
-176.998	411.586	-0.123	0.256
-175.983	-200.000	0.002	0.236
-174.969	23.614	0.044	-0.036
-173.954	-200.000	-0.013	-0.080
-172.939	348.262	-0.043	-0.084
-171.925	-200.000	-0.063	-0.301
-170.910	1.104	-0.214	-0.151
-169.896	-76.194	-0.363	-0.126
-168.881	458.823	0.050	0.108
-167.866	-33.024	0.132	0.072
-166.852	-19.407	0.159	0.097
-165.837	131.943	0.043	0.055
-164.823	-200.000	-0.005	0.370
-163.808	800.000	0.101	0.307
-162.793	650.808	0.096	0.241
-161.779	202.151	-0.104	-0.158
-160.764	581.368	0.073	0.175
-159.750	800.000	-0.041	-0.143
-158.735	553.141	0.104	-0.246
-157.720	-200.000	0.046	-0.247
-156.706	-174.699	-0.277	-0.008
-155.691	-99.922	-0.156	0.038
-154.677	622.651	-0.037	0.091
-153.662	758.937	0.089	0.237
-152.647	-85.008	0.113	0.035
-151.633	-9.974	-0.183	-0.120
-150.618	-102.521	-0.011	-0.003
-149.604	299.638	0.115	-0.207
-148.589	-200.000	-0.006	0.093
-147.574	41.539	-0.191	-0.169
-146.560	800.000	-0.062	0.240
-145.545	-147.397	0.216	-0.018
-144.531	175.847	-0.086	0.123
-143.516	-200.000	0.047	0.313
-142.502	195.208	0.120	0.179
-141.487	420.311	-0.056	0.117
-140.472	-11.561	0.357	0.230
-139.458	-200.000	-0.037	-0.199
-138.443	145.936	-0.038	0.050
-137.429	-149.465	0.297	-0.023
-136.414	800.000	-0.065	-0.226
-135.399	-148.044	0.099	0.008
-134.385	800.000	0.091	0.377
-133.370	31.511	0.084	-0.070
-132.356	-135.591	-0.195	0.023
-131.341	-200.000	-0.013	-0.157
-130.326	7.809	0.189	-0.139
-129.312	-63.189	-0.263	-0.106
-128.297	-39.960	0.391	0.200
-127.283	-200.000	-0.016	0.095
-126.268	501.929	-0.051	-0.115
-125.253	-162.138	0.236	0.012
-124.239	-55.538	-0.080	0.035
-123.224	-92.446	-0.088	-0.024
-122.210	587.838	-0.099	0.239
