DTS Sentinel unit serial number:	SN413079Multiplexer serial number:	ORYXHardware model number:	OX4-SRSoftware version number:	ORYX F/W v4.00 Oryx Data Collector v3.7.2.0data status	okinstallation	princeton_trtdifferential loss correction	single-endedforward channel	channel 3reverse channel	N/Adate	2019/09/12time	10:38:11forward acquisition time	60.00reverse acquisition time	0.00gamma	496.2192k internal	0.2296k external	0.2296temperature offset calibration	1.0033default loss term (dB/km)	0.3790temperature slope calibration	1.0000multiplexer offset coefficient	1.0000multiplexer slope coefficient	1.0000fibre end	0.00T internal ref (°C)	37.37T ext. ref 1 (°C)	1.89T ext. ref 2 (°C)	35.73length (m)	temperature (°C)	Stokes	anti-Stokes-747.200	668.572	0.176	0.465
-746.185	-8.191	0.328	0.226
-745.171	-24.251	0.242	0.147
-744.156	14.225	-0.057	0.046
-743.142	231.833	-0.072	-0.121
-742.127	52.634	-0.060	0.059
-741.112	-161.306	-0.027	0.001
-740.098	230.196	-0.175	0.293
-739.083	800.000	-0.087	0.326
-738.069	35.877	0.201	-0.180
-737.054	-63.291	-0.175	0.074
-736.039	-0.301	-0.459	-0.333
-735.025	-124.468	0.188	0.030
-734.010	-34.018	-0.207	0.117
-732.996	46.266	-0.215	0.204
-731.981	36.170	-0.174	0.157
-730.966	60.318	0.217	-0.219
-729.952	20.314	0.266	-0.219
-728.937	15.372	0.218	-0.174
-727.923	-42.769	-0.604	-0.313
-726.908	9.158	-0.185	0.143
-725.894	-200.000	0.008	-0.214
-724.879	-200.000	0.052	-0.266
-723.864	-104.668	-0.087	-0.020
-722.850	-127.763	-0.232	0.034
-721.835	19.694	0.077	0.063
-720.821	-38.540	0.277	0.149
-719.806	-112.925	-0.175	-0.035
-718.791	-86.837	-0.144	0.045
-717.777	-0.767	0.050	-0.036
-716.762	77.898	0.066	-0.072
-715.748	11.368	0.058	0.045
-714.733	-200.000	0.027	0.163
-713.718	221.893	-0.151	-0.248
-712.704	-31.929	0.054	-0.031
-711.689	-2.345	0.202	0.145
-710.675	87.970	0.136	0.154
-709.660	-200.000	-0.021	-0.121
-708.645	-85.915	0.338	0.107
-707.631	-200.000	0.015	0.090
-706.616	-17.275	-0.234	-0.151
-705.602	-116.602	-0.117	0.022
-704.587	-1.214	-0.193	0.139
-703.572	703.570	-0.074	-0.199
-702.558	-98.394	-0.157	-0.041
-701.543	84.994	-0.306	-0.342
-700.529	-200.000	0.010	-0.309
-699.514	-160.742	-0.238	0.013
-698.499	509.407	0.081	0.192
-697.485	301.847	0.077	-0.146
-696.470	236.281	0.125	0.211
-695.456	800.000	0.112	-0.359
-694.441	60.190	-0.268	0.271
-693.426	800.000	-0.138	-0.409
-692.412	-200.000	0.027	0.210
-691.397	-41.294	-0.418	-0.220
-690.383	152.642	-0.098	0.136
-689.368	-200.000	0.069	0.507
-688.354	-200.000	0.026	0.349
-687.339	-50.333	-0.035	-0.017
-686.324	-200.000	0.065	0.302
-685.310	-44.077	0.122	-0.062
-684.295	93.762	-0.167	-0.193
-683.281	-84.894	-0.171	0.055
-682.266	169.332	-0.101	-0.147
-681.251	3.900	-0.072	-0.054
-680.237	187.906	0.198	0.301
-679.222	131.550	0.029	-0.037
-678.208	132.559	0.120	0.157
-677.193	268.442	-0.182	-0.326
-676.178	11.246	-0.192	-0.150
-675.164	-200.000	0.009	0.072
-674.149	-78.370	0.313	-0.110
-673.135	32.697	0.302	-0.266
-672.120	800.000	-0.095	0.308
-671.105	-200.000	-0.018	0.083
-670.091	21.209	0.067	0.055
-669.076	-27.733	0.107	0.063
-668.062	-200.000	0.020	0.192
-667.047	-131.857	0.151	-0.020
-666.032	240.006	-0.114	-0.193
-665.018	-53.827	-0.060	0.028
-664.003	152.149	0.066	-0.092
-662.989	181.202	-0.087	-0.130
-661.974	-109.962	-0.119	-0.025
-660.959	800.000	-0.053	-0.179
-659.945	-3.132	-0.265	0.188
-658.930	-15.865	0.301	0.195
-657.916	-200.000	0.014	-0.215
-656.901	69.713	0.110	-0.115
-655.886	-129.270	-0.155	0.022
-654.872	-63.365	-0.166	-0.070
-653.857	-115.328	-0.229	-0.044
-652.843	6.770	0.088	0.067
-651.828	-99.665	-0.259	0.066
-650.814	-84.323	0.457	0.147
-649.799	-85.047	0.205	0.065
-648.784	-200.000	0.052	0.303
-647.770	-19.441	0.228	-0.144
-646.755	-125.534	-0.268	0.042
-645.741	156.495	-0.125	-0.176
-644.726	-32.121	-0.284	0.162
-643.711	-200.000	0.012	-0.333
-642.697	25.484	-0.026	-0.022
-641.682	231.890	-0.060	0.101
-640.668	-44.802	-0.032	0.016
-639.653	29.489	-0.229	0.198
-638.638	-89.346	-0.167	-0.050
-637.624	-31.497	0.352	-0.201
-636.609	-144.957	-0.220	0.020
-635.595	-200.000	0.045	0.203
-634.580	142.045	-0.044	-0.060
-633.565	454.135	-0.203	-0.458
-632.551	-95.144	-0.181	-0.050
-631.536	-195.297	-0.205	-0.002
-630.522	-98.501	-0.165	0.043
-629.507	-108.010	-0.129	0.028
-628.492	-19.744	-0.075	0.047
-627.478	-138.493	-0.302	-0.034
-626.463	-150.842	0.077	-0.006
-625.449	-200.000	0.031	-0.227
-624.434	-200.000	0.064	-0.502
-623.419	-200.000	-0.018	0.219
-622.405	-173.820	-0.187	0.006
-621.390	800.000	-0.065	0.216
-620.376	800.000	0.047	0.163
-619.361	-200.000	0.100	0.452
-618.346	-28.000	0.145	-0.086
-617.332	-200.000	0.009	-0.153
-616.317	-80.460	-0.119	0.040
-615.303	84.782	0.072	-0.081
-614.288	82.456	0.110	-0.121
-613.273	58.228	-0.150	0.150
-612.259	-97.904	-0.342	0.090
-611.244	417.989	-0.079	0.173
-610.230	-200.000	0.004	0.156
-609.215	562.318	-0.065	-0.161
-608.201	-134.536	0.179	-0.022
-607.186	-200.000	-0.006	-0.030
-606.171	256.043	-0.145	-0.253
-605.157	-200.000	0.004	-0.623
-604.142	-121.649	-0.170	-0.029
-603.128	243.128	-0.063	0.108
-602.113	-54.834	0.149	-0.069
-601.098	-200.000	-0.035	-0.388
-600.084	-12.847	0.189	0.125
-599.069	-32.843	0.146	-0.082
-598.055	151.385	-0.053	-0.073
-597.040	-166.003	-0.179	0.008
-596.025	800.000	-0.030	-0.105
-595.011	-200.000	0.024	-0.185
-593.996	128.890	-0.140	-0.181
-592.982	-20.856	0.157	0.098
-591.967	-113.034	0.509	-0.102
-590.952	56.619	-0.096	0.095
-589.938	-109.818	-0.352	0.075
-588.923	75.054	-0.208	0.222
-587.909	157.002	-0.039	-0.055
-586.894	-87.603	-0.197	0.060
-585.879	56.324	-0.075	-0.074
-584.865	-26.731	0.409	0.243
-583.850	253.268	0.039	0.068
-582.836	-200.000	0.010	0.133
-581.821	-200.000	-0.045	-0.456
-580.806	-200.000	-0.005	-0.472
-579.792	751.002	0.105	0.287
-578.777	800.000	0.050	-0.151
-577.763	-200.000	-0.036	-0.163
-576.748	-116.098	0.179	-0.034
-575.733	109.049	0.302	0.367
-574.719	-200.000	0.018	-0.168
-573.704	136.764	0.104	-0.137
-572.690	-96.350	-0.330	-0.089
-571.675	88.302	0.227	0.256
-570.661	-46.967	0.318	-0.158
-569.646	283.630	-0.170	-0.311
-568.631	-156.055	-0.301	0.019
-567.617	-15.885	0.157	0.101
-566.602	35.449	-0.215	-0.191
-565.588	-200.000	-0.015	-0.116
-564.573	44.744	-0.235	0.219
-563.558	-14.234	-0.099	-0.065
-562.544	2.726	-0.152	-0.112
-561.529	-24.213	0.057	0.034
-560.515	-122.837	0.238	-0.039
-559.500	92.219	-0.162	-0.185
-558.485	85.392	0.049	0.054
-557.471	9.774	-0.093	0.072
-556.456	-200.000	0.028	0.236
-555.442	38.162	0.141	0.127
-554.427	-200.000	-0.028	-0.217
-553.412	-200.000	-0.014	0.269
-552.398	800.000	-0.140	-0.402
-551.383	-99.185	-0.089	-0.023
-550.369	-3.129	0.097	-0.068
-549.354	-50.695	0.331	0.158
-548.339	-0.927	-0.185	-0.133
-547.325	109.333	0.066	-0.080
-546.310	-73.594	-0.080	0.029
-545.296	800.000	0.043	0.166
-544.281	-0.352	0.197	0.142
-543.266	277.382	0.015	0.027
-542.252	-101.541	0.149	0.037
-541.237	800.000	-0.092	-0.260
-540.223	181.481	0.153	-0.229
-539.208	116.331	0.164	0.204
-538.193	800.000	0.082	0.260
-537.179	13.118	0.055	0.043
-536.164	204.162	-0.090	-0.141
-535.150	-190.368	-0.308	0.003
-534.135	-154.674	-0.283	0.019
-533.121	-154.774	0.387	-0.026
-532.106	118.124	0.161	-0.202
-531.091	2.594	-0.300	-0.220
-530.077	-29.778	0.125	-0.072
-529.062	-121.512	0.197	0.033
-528.048	800.000	0.045	0.150
-527.033	-200.000	0.001	0.009
-526.018	99.010	0.124	-0.145
-525.004	800.000	0.041	0.166
-523.989	800.000	-0.029	0.095
-522.975	800.000	-0.082	-0.263
-521.960	-59.003	0.275	0.120
-520.945	27.089	-0.291	0.247
-519.931	44.314	0.147	0.137
-518.916	-151.758	0.120	-0.009
-517.902	-200.000	-0.022	0.138
-516.887	-71.245	-0.159	-0.061
-515.872	-163.367	0.152	0.007
-514.858	-35.875	-0.057	0.031
-513.843	-78.194	0.022	0.007
-512.829	491.229	-0.016	0.037
-511.814	-143.316	-0.073	0.007
-510.799	-105.632	-0.131	0.030
-509.785	1.403	-0.246	0.179
-508.770	176.018	-0.071	-0.105
-507.756	162.287	0.071	-0.101
-506.741	317.080	-0.130	0.248
-505.726	800.000	0.052	0.208
-504.712	-200.000	0.002	0.154
-503.697	188.504	-0.184	0.279
-502.683	293.358	-0.042	-0.078
-501.668	-49.196	-0.160	-0.077
-500.653	-200.000	-0.003	0.188
-499.639	151.045	0.070	0.096
-498.624	136.699	-0.182	-0.240
-497.610	800.000	-0.010	0.044
-496.595	-200.000	-0.021	-0.098
-495.581	-176.326	-0.340	-0.009
-494.566	79.350	0.067	0.073
-493.551	800.000	-0.052	-0.162
-492.537	108.032	0.131	-0.158
-491.522	-98.298	0.069	0.018
-490.508	-115.143	0.197	0.038
-489.493	155.981	-0.066	0.092
-488.478	-97.484	-0.178	0.047
-487.464	-200.000	0.043	-0.228
-486.449	170.569	0.062	-0.090
-485.435	-105.148	0.376	-0.087
-484.420	45.075	0.241	-0.224
-483.405	800.000	-0.097	-0.285
-482.391	-168.408	0.214	0.008
-481.376	800.000	0.024	0.080
-480.362	-107.411	0.151	-0.034
-479.347	158.054	0.205	-0.288
-478.332	-16.212	0.254	0.163
-477.318	800.000	-0.025	-0.071
-476.303	-103.576	-0.191	-0.045
-475.289	-147.490	0.359	-0.031
-474.274	347.855	0.073	-0.145
-473.259	-66.937	0.309	-0.123
-472.245	161.077	0.187	-0.265
-471.230	-200.000	-0.019	-0.182
-470.216	-101.341	-0.337	-0.083
-469.201	309.944	0.087	-0.164
-468.186	-110.052	0.027	0.006
-467.172	134.113	-0.315	-0.413
-466.157	-32.509	-0.286	0.161
-465.143	-123.147	-0.102	0.017
-464.128	-5.897	0.196	-0.136
-463.113	-200.000	0.039	-0.362
-462.099	5.007	0.301	-0.224
-461.084	662.556	-0.113	-0.294
-460.070	31.829	-0.253	0.220
-459.055	-200.000	-0.026	-0.292
-458.040	-200.000	0.011	0.217
-457.026	-189.486	-0.233	0.003
-456.011	74.157	0.084	0.090
-454.997	149.881	-0.110	0.151
-453.982	311.837	0.117	0.222
-452.968	800.000	0.034	0.131
-451.953	-56.489	-0.120	0.054
-450.938	-132.961	-0.223	0.029
-449.924	-81.492	-0.349	0.116
-448.909	-47.378	0.053	0.026
-447.895	219.537	-0.132	-0.213
-446.880	-90.706	-0.139	-0.041
-445.865	83.905	-0.024	0.026
-444.851	303.657	-0.201	-0.377
-443.836	134.747	0.096	-0.125
-442.822	97.302	0.121	0.141
-441.807	-18.159	-0.359	-0.227
-440.792	800.000	0.048	0.190
-439.778	-16.381	0.179	-0.115
-438.763	50.653	0.159	-0.152
-437.749	-200.000	0.006	-0.405
-436.734	-200.000	-0.089	-0.463
-435.719	-29.294	-0.243	-0.141
-434.705	193.351	0.135	-0.206
-433.690	88.988	-0.083	0.093
-432.676	-200.000	-0.039	0.217
-431.661	444.143	0.080	0.176
-430.646	15.395	0.144	0.114
-429.632	-29.264	-0.272	0.157
-428.617	262.330	0.131	0.229
-427.603	-200.000	-0.018	0.166
-426.588	800.000	0.143	0.456
-425.573	173.124	0.147	0.214
-424.559	-200.000	0.032	-0.330
-423.544	-200.000	0.072	0.374
-422.530	-110.989	-0.258	-0.053
-421.515	-28.386	-0.082	0.048
-420.500	-200.000	0.029	0.171
-419.486	375.202	0.177	-0.363
-418.471	252.865	0.103	-0.177
-417.457	800.000	-0.130	0.429
-416.442	-42.910	-0.103	-0.053
-415.428	386.063	0.044	0.091
-414.413	138.901	0.171	-0.227
-413.398	176.741	0.083	0.122
-412.384	-105.216	0.131	-0.030
-411.369	-200.000	0.083	0.000
-410.355	361.288	-0.141	0.285
-409.340	170.653	0.082	-0.118
-408.325	-127.961	-0.340	-0.049
-407.311	-150.384	0.386	-0.030
-406.296	800.000	0.070	-0.235
-405.282	-21.137	0.159	-0.098
-404.267	15.054	-0.071	-0.056
-403.252	4.181	-0.526	-0.388
-402.238	-200.000	0.028	-0.275
-401.223	-59.160	-0.192	-0.084
-400.209	308.569	-0.084	0.158
-399.194	-77.072	0.328	0.115
-398.179	238.726	-0.031	-0.052
-397.165	14.133	0.361	0.283
-396.150	355.585	-0.060	0.120
-395.136	197.506	-0.192	-0.296
-394.121	-142.836	0.300	-0.029
-393.106	-33.641	-0.161	0.090
-392.092	203.281	0.087	0.136
-391.077	113.190	-0.127	-0.155
-390.063	5.769	-0.435	0.325
-389.048	-90.041	0.611	0.180
-388.033	-199.595	-0.128	0.001
-387.019	-200.000	0.018	-0.135
-386.004	-98.587	-0.264	0.068
-384.990	-91.881	-0.078	0.022
-383.975	-200.000	-0.186	0.000
-382.960	-200.000	-0.002	0.049
-381.946	-126.392	-0.022	-0.003
-380.931	5.511	0.340	-0.253
-379.917	232.935	0.044	-0.072
-378.902	268.886	0.095	-0.168
-377.888	-40.540	-0.250	0.131
-376.873	274.031	-0.081	0.144
-375.858	-110.377	0.208	0.044
-374.844	-200.000	0.046	0.370
-373.829	-48.611	-0.300	0.145
-372.815	-117.076	0.459	-0.084
-371.800	-200.000	-0.054	-0.398
-370.785	-200.000	-0.009	0.091
-369.771	543.590	-0.005	0.013
-368.756	-200.000	-0.025	-0.155
-367.742	-109.061	-0.260	0.056
-366.727	-137.332	-0.291	-0.033
-365.712	321.020	-0.066	0.127
-364.698	-39.439	-0.374	-0.197
-363.683	-75.788	-0.078	0.028
-362.669	35.666	-0.151	0.134
-361.654	-3.630	-0.253	-0.177
-360.639	-200.000	0.021	-0.095
-359.625	-200.000	0.007	0.091
-358.610	-101.193	-0.251	0.062
-357.596	-58.504	0.172	0.075
-356.581	-200.000	-0.015	0.122
-355.566	-165.537	0.235	0.010
-354.552	-30.369	0.137	0.078
-353.537	800.000	-0.066	0.200
-352.523	-101.933	-0.127	0.031
-351.508	726.628	0.054	0.146
-350.493	800.000	0.026	-0.086
-349.479	342.779	-0.052	0.102
-348.464	800.000	-0.046	-0.130
-347.450	-62.484	0.272	0.114
-346.435	-43.757	-0.232	0.117
-345.420	-77.784	0.139	0.048
-344.406	-128.711	0.341	-0.048
-343.391	-45.360	-0.082	0.041
-342.377	-200.000	-0.001	-0.020
-341.362	-200.000	0.009	-0.143
-340.348	161.558	0.071	-0.100
-339.333	343.380	0.109	0.215
-338.318	75.565	0.286	0.304
-337.304	800.000	-0.017	0.061
-336.289	345.680	-0.146	-0.289
-335.275	-6.019	-0.093	-0.064
-334.260	66.802	-0.046	0.047
-333.245	-2.278	-0.114	0.080
-332.231	124.526	-0.112	-0.142
-331.216	-200.000	-0.066	0.436
-330.202	-85.532	0.190	0.059
-329.187	101.536	0.159	0.187
-328.172	800.000	-0.079	0.226
-327.158	165.955	0.074	0.106
-326.143	-65.413	0.165	0.067
-325.129	25.019	0.252	0.211
-324.114	-3.567	0.104	0.073
-323.099	-54.494	-0.466	0.212
-322.085	-84.252	-0.195	0.062
-321.070	-47.824	-0.119	-0.058
-320.056	-136.040	-0.451	0.053
-319.041	-159.002	0.207	-0.012
-318.026	-73.436	-0.330	0.121
-317.012	-166.531	-0.150	-0.006
-315.997	-34.404	0.187	-0.103
-314.983	800.000	0.053	0.207
-313.968	-176.686	-0.335	-0.009
-312.953	-56.003	0.155	-0.070
-311.939	342.736	-0.047	0.092
-310.924	800.000	0.071	0.243
-309.910	-141.071	0.376	0.039
-308.895	-126.534	-0.208	0.031
-307.880	-200.000	0.010	0.115
-306.866	155.801	0.226	0.312
-305.851	-200.000	-0.027	-0.375
-304.837	16.676	0.109	0.086
-303.822	-13.750	-0.115	-0.075
-302.807	-62.210	-0.336	-0.141
-301.793	487.714	-0.087	-0.198
-300.778	-200.000	0.013	-0.233
-299.764	-81.634	0.062	0.020
-298.749	2.968	0.372	0.271
-297.735	591.051	0.072	-0.179
-296.720	-200.000	0.027	0.185
-295.705	61.481	0.031	-0.031
-294.691	-0.393	0.338	0.241
-293.676	-200.000	0.017	0.223
-292.662	-200.000	0.055	0.263
-291.647	-200.000	0.001	-0.262
-290.632	48.860	-0.296	-0.279
-289.618	-200.000	-0.002	-0.376
-288.603	-0.367	0.186	-0.133
-287.589	251.499	-0.178	0.304
-286.574	523.504	0.173	0.408
-285.559	243.984	0.100	-0.168
-284.545	-139.563	0.174	0.019
-283.530	-42.062	0.113	-0.058
-282.516	-6.376	0.151	0.103
-281.501	-86.738	0.078	0.024
-280.486	602.465	0.102	-0.255
-279.472	204.987	-0.150	-0.233
-278.457	-160.062	-0.159	-0.009
-277.443	-185.953	0.130	-0.002
-276.428	329.336	0.066	-0.128
-275.413	110.817	0.094	-0.114
-274.399	-25.956	0.451	0.266
-273.384	-200.000	0.029	-0.315
-272.370	16.600	0.112	-0.089
-271.355	372.026	0.074	-0.150
-270.340	285.746	0.149	-0.269
-269.326	416.021	-0.021	0.045
-268.311	29.131	-0.065	-0.056
-267.297	63.059	-0.209	-0.210
-266.282	286.296	-0.142	0.257
-265.267	-29.218	-0.220	0.126
-264.253	-193.498	-0.249	-0.002
-263.238	-123.897	-0.233	-0.037
-262.224	-23.780	-0.314	0.189
-261.209	-77.291	-0.238	0.083
-260.195	-200.000	-0.027	0.459
-259.180	-0.109	-0.177	0.126
-258.165	-84.487	0.170	-0.054
-257.151	262.973	-0.078	0.136
-256.136	-129.201	-0.307	0.043
-255.122	800.000	-0.059	0.193
-254.107	24.664	-0.270	0.224
-253.092	800.000	-0.047	-0.194
-252.078	-152.414	-0.260	0.019
-251.063	-200.000	0.032	-0.162
-250.049	-131.719	-0.385	0.051
-249.034	-161.860	-0.146	0.007
-248.019	-68.051	0.184	-0.072
-247.005	177.689	0.072	0.105
-245.990	183.176	0.071	0.106
-244.976	800.000	0.042	0.133
-243.961	-140.376	0.158	0.017
-242.946	800.000	0.097	0.318
-241.932	800.000	0.141	0.416
-240.917	-200.000	-0.028	0.158
-239.903	-116.974	0.047	0.009
-238.888	-200.000	0.023	0.253
-237.873	10.827	0.325	-0.249
-236.859	88.078	-0.148	0.165
-235.844	-200.000	-0.006	0.178
-234.830	175.200	0.140	0.203
-233.815	-200.000	-0.006	-0.051
-232.800	800.000	0.038	0.141
-231.786	-200.000	0.054	0.343
-230.771	-26.820	0.293	0.172
-229.757	-132.096	-0.238	-0.031
-228.742	-73.103	0.292	0.107
-227.727	-135.455	0.161	0.019
-226.713	-109.187	0.387	0.082
-225.698	-0.694	0.137	0.098
-224.684	257.990	0.018	0.030
-223.669	-200.000	0.000	-0.278
-222.655	-153.899	0.223	0.015
-221.640	2.144	0.211	-0.153
-220.625	271.983	0.126	-0.222
-219.611	89.221	-0.044	0.049
-218.596	-25.684	0.125	-0.074
-217.582	504.500	0.137	-0.318
-216.567	-45.838	-0.167	0.083
-215.552	-32.710	0.106	-0.059
-214.538	-50.555	0.077	-0.036
-213.523	37.173	0.276	-0.244
-212.509	-120.958	0.207	0.035
-211.494	90.114	0.072	-0.080
-210.479	-200.000	-0.006	-0.126
-209.465	116.970	-0.085	-0.104
-208.450	-200.000	-0.068	-0.381
-207.436	-83.467	0.137	0.044
-206.421	-62.094	-0.261	0.109
-205.406	800.000	0.067	-0.213
-204.392	-118.732	0.091	0.016
-203.377	30.459	-0.080	0.069
-202.363	45.589	-0.103	0.095
-201.348	26.044	0.157	0.131
-200.333	-174.200	0.275	0.008
-199.319	-200.000	-0.042	-0.419
-198.304	-63.726	0.471	0.193
-197.290	-145.816	0.381	-0.034
-196.275	0.861	-0.235	0.169
-195.260	149.109	0.083	-0.113
-194.246	-200.000	0.003	-0.169
-193.231	-120.150	-0.310	-0.053
-192.217	171.036	0.223	0.320
-191.202	112.726	-0.117	-0.142
-190.187	17.696	0.124	0.098
-189.173	185.994	-0.197	0.292
-188.158	144.365	-0.102	0.136
-187.144	-32.455	0.166	-0.093
-186.129	50.009	-0.156	-0.147
-185.114	-128.479	-0.334	-0.047
-184.100	800.000	0.068	0.187
-183.085	95.174	-0.146	0.166
-182.071	-146.975	0.401	0.034
-181.056	91.098	0.121	0.136
-180.042	264.923	0.081	0.142
-179.027	346.813	-0.192	0.377
-178.012	95.824	-0.124	0.142
-176.998	-200.000	0.026	-0.181
-175.983	-158.047	0.146	0.009
-174.969	740.971	0.053	0.143
-173.954	800.000	0.049	-0.197
-172.939	262.132	-0.120	-0.208
-171.925	80.260	-0.028	-0.030
-170.910	191.803	0.086	0.130
-169.896	-5.468	0.259	-0.178
-168.881	168.083	0.226	-0.321
-167.866	-18.855	-0.124	-0.077
-166.852	800.000	-0.049	0.208
-165.837	-88.575	-0.220	0.065
-164.823	28.901	0.094	-0.080
-163.808	-114.541	-0.198	0.038
-162.793	800.000	0.056	0.241
-161.779	128.009	-0.181	-0.230
-160.764	273.644	0.062	0.109
-159.750	15.667	0.150	-0.118
-158.735	800.000	0.081	-0.252
-157.720	-82.059	0.267	-0.087
-156.706	-45.280	-0.178	0.088
-155.691	-24.563	0.081	0.048
-154.677	800.000	-0.073	0.278
-153.662	-45.771	-0.165	-0.081
-152.647	-59.054	0.220	-0.095
-151.633	-16.405	-0.137	0.087
-150.618	-83.061	0.140	-0.045
-149.604	3.546	-0.306	-0.222
-148.589	40.901	-0.080	-0.072
-147.574	-200.000	-0.073	-0.381
-146.560	-200.000	0.037	0.188
-145.545	83.755	-0.152	0.165
-144.531	340.114	0.080	-0.157
-143.516	121.720	-0.124	0.154
-142.502	-47.307	0.206	-0.100
-141.487	210.388	0.066	-0.104
-140.472	-175.226	-0.256	-0.007
-139.458	226.240	0.085	-0.138
-138.443	97.829	0.253	-0.291
-137.429	-45.866	0.358	0.177
-136.414	-171.335	0.557	0.019
-135.399	299.627	-0.040	0.073
-134.385	55.650	0.344	-0.333
-133.370	178.413	-0.170	-0.248
-132.356	-200.000	0.046	0.356
-131.341	-83.389	0.159	0.051
-130.326	-200.000	-0.004	0.076
-129.312	-200.000	0.007	0.059
-128.297	-50.396	0.285	0.134
-127.283	-164.505	0.157	-0.007
-126.268	6.444	0.241	0.179
-125.253	214.994	0.226	-0.357
-124.239	-152.620	0.426	-0.030
-123.224	313.973	-0.040	-0.075
-122.210	-97.453	-0.115	0.030
-121.195	627.994	-0.131	0.331
-120.180	83.754	-0.070	-0.076
