DTS Sentinel unit serial number:	SN413079Multiplexer serial number:	ORYXHardware model number:	OX4-SRSoftware version number:	ORYX F/W v4.00 Oryx Data Collector v3.7.2.0data status	okinstallation	princeton_trtdifferential loss correction	single-endedforward channel	channel 3reverse channel	N/Adate	2019/09/16time	02:32:34forward acquisition time	60.00reverse acquisition time	0.00gamma	496.2192k internal	0.2334k external	0.2334temperature offset calibration	0.9949default loss term (dB/km)	0.3790temperature slope calibration	1.0000multiplexer offset coefficient	1.0000multiplexer slope coefficient	1.0000fibre end	0.00T internal ref (°C)	27.69T ext. ref 1 (°C)	10.28T ext. ref 2 (°C)	22.59length (m)	temperature (°C)	Stokes	anti-Stokes-747.200	-168.987	0.062	-0.002
-746.185	-111.101	0.290	0.060
-745.171	-155.308	0.151	0.010
-744.156	-200.000	0.071	0.424
-743.142	75.529	-0.187	-0.199
-742.127	531.146	0.097	0.230
-741.112	-114.561	0.285	-0.055
-740.098	295.737	0.144	0.264
-739.083	617.461	-0.118	0.297
-738.069	-24.152	-0.137	0.082
-737.054	-200.000	0.013	0.223
-736.039	-29.627	-0.216	-0.124
-735.025	-100.247	-0.107	-0.027
-734.010	611.546	-0.075	-0.187
-732.996	-97.661	-0.096	-0.025
-731.981	236.207	-0.133	0.222
-730.966	347.449	0.168	0.332
-729.952	183.150	-0.154	-0.229
-728.937	279.226	0.079	0.141
-727.923	800.000	-0.130	0.570
-726.908	-65.862	-0.372	0.149
-725.894	-94.548	0.100	0.027
-724.879	-120.800	0.288	0.049
-723.864	98.796	-0.150	-0.174
-722.850	129.229	-0.051	-0.065
-721.835	-147.995	0.236	-0.020
-720.821	800.000	-0.085	0.274
-719.806	-108.318	0.034	-0.007
-718.791	-82.227	0.080	0.026
-717.777	64.040	-0.316	-0.319
-716.762	712.819	0.080	0.213
-715.748	-22.768	0.138	-0.083
-714.733	-85.887	-0.113	0.035
-713.718	-61.890	-0.111	-0.047
-712.704	-61.947	-0.135	0.057
-711.689	71.173	0.088	-0.092
-710.675	-105.540	-0.203	0.046
-709.660	-16.105	0.058	0.037
-708.645	-99.090	-0.133	-0.034
-707.631	-85.276	-0.139	-0.044
-706.616	-200.000	0.013	0.185
-705.602	-10.594	-0.253	-0.168
-704.587	-56.521	-0.135	-0.060
-703.572	-109.120	0.086	0.018
-702.558	-200.000	0.004	0.029
-701.543	-71.424	-0.301	0.113
-700.529	261.526	-0.066	-0.115
-699.514	-21.616	0.256	-0.156
-698.499	176.780	0.135	-0.198
-697.485	246.518	-0.123	0.208
-696.470	-118.482	-0.215	0.038
-695.456	-200.000	0.009	-0.300
-694.441	-135.927	0.575	0.068
-693.426	291.521	-0.010	0.018
-692.412	17.781	-0.093	-0.075
-691.397	-200.000	-0.026	-0.278
-690.383	443.750	0.057	0.125
-689.368	488.393	0.081	-0.185
-688.354	-200.000	0.012	-0.080
-687.339	112.657	-0.174	0.212
-686.324	0.407	0.120	0.086
-685.310	-90.970	-0.300	-0.086
-684.295	21.307	-0.328	0.267
-683.281	13.712	0.178	-0.138
-682.266	-20.030	-0.209	-0.129
-681.251	800.000	0.169	-0.494
-680.237	146.773	0.152	-0.204
-679.222	-158.450	-0.245	0.014
-678.208	-200.000	-0.005	-0.118
-677.193	10.859	-0.357	-0.273
-676.178	-152.021	0.212	0.015
-675.164	39.338	0.153	-0.137
-674.149	141.703	-0.047	0.062
-673.135	-19.184	-0.116	-0.072
-672.120	204.977	0.115	-0.179
-671.105	52.167	-0.037	-0.035
-670.091	-51.247	-0.218	-0.102
-669.076	-200.000	-0.031	-0.139
-668.062	626.123	0.063	-0.160
-667.047	-104.458	0.178	-0.041
-666.032	65.088	0.204	0.207
-665.018	91.888	0.134	0.151
-664.003	386.874	-0.088	0.181
-662.989	-200.000	-0.026	-0.238
-661.974	800.000	-0.054	-0.189
-660.959	214.270	-0.226	-0.358
-659.945	-14.534	-0.221	0.142
-658.930	72.236	-0.137	-0.143
-657.916	116.076	0.094	-0.115
-656.901	-11.408	0.181	0.120
-655.886	-200.000	-0.016	0.116
-654.872	-131.720	-0.135	0.018
-653.857	134.633	0.129	0.168
-652.843	359.697	-0.079	-0.157
-651.828	578.703	0.038	0.092
-650.814	-87.048	-0.146	-0.045
-649.799	-99.541	-0.417	0.105
-648.784	317.409	-0.074	0.141
-647.770	-119.009	0.144	0.025
-646.755	800.000	-0.059	-0.215
-645.741	101.741	-0.297	-0.347
-644.726	-90.795	0.216	-0.062
-643.711	-200.000	-0.008	0.117
-642.697	800.000	0.081	-0.261
-641.682	800.000	-0.049	0.160
-640.668	471.175	0.130	-0.292
-639.653	-21.425	-0.124	-0.076
-638.638	-46.390	0.467	-0.230
-637.624	-43.796	-0.068	-0.034
-636.609	171.912	-0.104	0.149
-635.595	-19.591	0.222	-0.138
-634.580	-46.243	-0.145	-0.071
-633.565	4.286	0.225	-0.165
-632.551	50.639	-0.179	-0.170
-631.536	-86.076	-0.257	-0.079
-630.522	107.135	0.083	0.099
-629.507	-177.145	0.299	0.007
-628.492	-200.000	0.012	0.120
-627.478	-200.000	0.013	0.103
-626.463	91.722	-0.095	0.106
-625.449	-105.535	-0.173	-0.039
-624.434	152.189	0.122	-0.167
-623.419	245.554	0.101	-0.170
-622.405	-68.837	-0.099	0.038
-621.390	64.540	0.004	-0.004
-620.376	27.767	0.212	0.178
-619.361	104.397	-0.075	0.088
-618.346	88.548	0.169	-0.188
-617.332	178.224	-0.161	0.235
-616.317	0.715	-0.218	-0.156
-615.303	398.302	-0.224	-0.468
-614.288	95.512	0.219	-0.250
-613.273	-149.937	0.096	0.007
-612.259	158.854	0.094	0.130
-611.244	279.867	0.125	-0.223
-610.230	176.713	-0.270	0.392
-609.215	800.000	0.086	-0.268
-608.201	-160.949	0.186	0.010
-607.186	-81.744	0.466	-0.153
-606.171	675.846	-0.005	0.012
-605.157	63.200	0.270	0.270
-604.142	-200.000	-0.043	-0.296
-603.128	363.252	0.126	-0.253
-602.113	-200.000	-0.055	-0.295
-601.098	8.164	0.205	-0.154
-600.084	12.805	0.098	-0.076
-599.069	389.279	-0.056	-0.116
-598.055	-98.366	-0.384	0.098
-597.040	176.572	0.081	-0.118
-596.025	-200.000	-0.077	0.373
-595.011	488.955	-0.091	-0.209
-593.996	-3.931	0.376	-0.260
-592.982	-200.000	-0.005	0.052
-591.967	68.502	0.087	-0.089
-590.952	212.993	0.219	-0.345
-589.938	-200.000	0.035	0.172
-588.923	-34.021	0.429	0.236
-587.909	-51.163	-0.395	-0.185
-586.894	-33.302	-0.357	0.197
-585.879	-68.284	0.143	-0.056
-584.865	375.591	-0.127	0.258
-583.850	35.815	0.128	-0.112
-582.836	405.203	0.098	0.206
-581.821	800.000	0.047	0.141
-580.806	-86.581	0.231	0.071
-579.792	185.256	0.147	0.218
-578.777	2.896	0.206	0.150
-577.763	-122.960	0.078	-0.012
-576.748	-41.649	-0.305	0.157
-575.733	-200.000	-0.017	0.159
-574.719	195.713	-0.066	0.100
-573.704	-200.000	-0.045	-0.423
-572.690	462.303	0.110	-0.245
-571.675	71.896	-0.221	-0.229
-570.661	357.310	-0.141	0.282
-569.646	227.564	-0.248	-0.402
-568.631	-200.000	0.029	-0.331
-567.617	492.144	-0.183	0.420
-566.602	-135.788	-0.103	-0.012
-565.588	-25.722	-0.276	0.163
-564.573	-166.223	-0.209	-0.009
-563.558	-93.984	0.269	0.074
-562.544	-84.075	-0.198	-0.063
-561.529	88.091	-0.087	0.096
-560.515	-200.000	0.016	0.245
-559.500	36.623	-0.180	-0.158
-558.485	-94.639	-0.075	-0.020
-557.471	153.217	0.212	0.290
-556.456	800.000	0.015	-0.042
-555.442	163.712	0.089	0.125
-554.427	232.056	-0.198	0.325
-553.412	128.414	0.141	-0.179
-552.398	-108.996	-0.120	0.026
-551.383	286.850	-0.216	-0.390
-550.369	800.000	-0.086	-0.239
-549.354	226.986	0.127	-0.205
-548.339	119.295	-0.263	0.325
-547.325	573.866	0.065	-0.157
-546.310	-58.543	0.076	-0.033
-545.296	-111.683	0.313	0.063
-544.281	611.842	0.137	0.342
-543.266	800.000	0.030	-0.115
-542.252	-125.727	-0.405	-0.061
-541.237	20.303	0.232	0.187
-540.223	-33.573	0.196	-0.108
-539.208	-100.039	-0.135	0.034
-538.193	-17.261	-0.213	-0.134
-537.179	50.990	-0.375	-0.354
-536.164	428.100	0.094	0.202
-535.150	800.000	-0.038	-0.139
-534.135	800.000	-0.094	0.353
-533.121	-175.398	-0.114	0.003
-532.106	-53.713	-0.237	-0.108
-531.091	-73.346	-0.237	-0.086
-530.077	-55.145	0.071	0.032
-529.062	-164.011	0.141	0.007
-528.048	77.049	-0.230	-0.244
-527.033	73.289	0.176	-0.183
-526.018	-84.730	0.123	0.039
-525.004	-200.000	0.008	0.239
-523.989	-200.000	0.026	0.330
-522.975	-122.068	0.266	-0.043
-521.960	-65.937	-0.331	-0.132
-520.945	800.000	0.035	0.108
-519.931	35.688	0.272	0.239
-518.916	800.000	-0.077	-0.296
-517.902	37.296	0.149	-0.131
-516.887	-14.188	0.204	0.131
-515.872	230.672	-0.057	-0.092
-514.858	107.980	0.151	0.179
-513.843	358.968	-0.106	0.210
-512.829	-98.833	-0.201	0.051
-511.814	-200.000	-0.042	-0.344
-510.799	243.351	0.210	-0.351
-509.785	-145.887	-0.232	0.021
-508.770	122.112	0.066	-0.082
-507.756	800.000	-0.037	-0.142
-506.741	1.641	-0.333	-0.239
-505.726	-36.903	-0.166	0.089
-504.712	800.000	0.059	-0.190
-503.697	800.000	0.067	0.206
-502.683	800.000	-0.112	-0.482
-501.668	-200.000	0.007	0.181
-500.653	31.643	-0.055	0.047
-499.639	-40.179	0.317	0.164
-498.624	-102.997	-0.392	-0.093
-497.610	392.329	0.014	0.029
-496.595	53.293	-0.209	0.199
-495.581	-200.000	-0.014	-0.225
-494.566	-121.160	0.216	-0.036
-493.551	625.889	-0.142	0.356
-492.537	-200.000	-0.012	-0.100
-491.522	215.937	-0.135	-0.214
-490.508	-69.341	-0.204	0.078
-489.493	-200.000	-0.060	0.355
-488.478	53.024	0.164	-0.156
-487.464	175.968	0.252	-0.364
-486.449	-200.000	0.010	0.308
-485.435	-152.782	-0.255	0.018
-484.420	166.205	0.239	-0.336
-483.405	-88.872	0.552	-0.163
-482.391	-65.587	-0.410	0.164
-481.376	145.890	-0.224	-0.299
-480.362	665.465	-0.063	-0.161
-479.347	84.475	-0.125	-0.135
-478.332	-200.000	-0.029	0.504
-477.318	-19.425	0.290	0.179
-476.303	-73.272	-0.273	-0.099
-475.289	278.121	-0.171	0.303
-474.274	800.000	-0.071	0.218
-473.259	273.176	-0.046	0.080
-472.245	800.000	0.101	-0.295
-471.230	45.281	-0.247	0.227
-470.216	-150.308	0.178	-0.014
-469.201	-107.334	-0.331	0.072
-468.186	-200.000	-0.031	0.413
-467.172	91.137	0.042	0.047
-466.157	42.458	0.266	0.240
-465.143	800.000	-0.032	-0.109
-464.128	13.760	0.078	0.060
-463.113	-139.187	-0.136	-0.015
-462.099	30.572	-0.154	0.130
-461.084	337.222	-0.047	0.091
-460.070	-139.078	0.250	0.027
-459.055	-122.860	-0.258	0.041
-458.040	-150.808	-0.195	-0.015
-457.026	-31.608	-0.179	0.100
-456.011	-200.000	0.057	-0.255
-454.997	-200.000	0.089	-0.449
-453.982	-18.305	0.175	-0.108
-452.968	-88.098	0.281	-0.084
-451.953	153.876	-0.084	-0.114
-450.938	-77.933	0.142	0.049
-449.924	-200.000	-0.025	0.205
-448.909	-162.923	-0.122	-0.006
-447.895	-36.671	0.486	0.260
-446.880	-7.421	0.042	-0.028
-445.865	-152.846	-0.076	0.005
-444.851	125.634	0.115	-0.144
-443.836	-200.000	-0.024	-0.153
-442.822	-91.506	0.471	-0.133
-441.807	-120.787	-0.161	-0.027
-440.792	628.553	-0.104	0.262
-439.778	-105.150	0.180	0.041
-438.763	800.000	0.053	-0.178
-437.749	134.983	0.175	0.225
-436.734	240.361	-0.144	0.238
-435.719	430.742	0.073	0.156
-434.705	-119.061	-0.229	0.040
-433.690	-84.246	0.331	-0.104
-432.676	-125.862	0.344	-0.052
-431.661	-7.338	-0.140	-0.094
-430.646	63.662	0.094	0.094
-429.632	-200.000	-0.034	0.520
-428.617	-200.000	0.006	-0.078
-427.603	98.388	-0.162	-0.185
-426.588	-200.000	-0.046	-0.297
-425.573	-103.997	-0.331	0.077
-424.559	-43.612	-0.077	-0.038
-423.544	-38.015	0.171	0.090
-422.530	88.426	-0.117	0.129
-421.515	-73.101	-0.381	0.139
-420.500	-134.609	0.177	0.021
-419.486	-148.981	-0.054	-0.004
-418.471	-60.325	0.160	-0.067
-417.457	-200.000	0.077	0.429
-416.442	298.220	-0.078	0.143
-415.428	-146.888	-0.201	0.017
-414.413	800.000	0.043	0.139
-413.398	-171.364	-0.201	0.007
-412.384	730.708	0.071	0.189
-411.369	313.136	0.064	0.120
-410.355	-37.203	-0.178	-0.095
-409.340	-200.000	0.009	-0.049
-408.325	-90.466	0.096	-0.028
-407.311	-76.007	-0.185	-0.065
-406.296	-117.414	0.341	0.061
-405.282	-75.641	-0.213	-0.075
-404.267	70.446	0.076	0.078
-403.252	-93.832	0.224	-0.061
-402.238	-200.000	-0.040	0.196
-401.223	166.027	-0.151	0.211
-400.209	-172.022	0.163	0.005
-399.194	6.461	0.150	-0.110
-398.179	536.255	-0.116	-0.273
-397.165	-200.000	-0.036	0.340
-396.150	356.045	-0.068	0.133
-395.136	0.027	-0.050	-0.035
-394.121	-15.305	-0.114	-0.072
-393.106	-68.689	-0.024	0.009
-392.092	-0.621	-0.215	0.151
-391.077	-46.113	0.244	0.119
-390.063	-118.662	0.171	0.030
-389.048	35.253	0.128	0.111
-388.033	102.699	0.139	-0.162
-387.019	-200.000	-0.048	-0.246
-386.004	-108.569	-0.264	-0.056
-384.990	-200.000	0.051	0.322
-383.975	37.164	0.240	-0.211
-382.960	390.731	-0.026	-0.053
-381.946	121.619	0.229	0.283
-380.931	-46.009	0.172	-0.084
-379.917	489.850	-0.077	0.175
-378.902	-192.259	-0.315	0.003
-377.888	-200.000	0.016	-0.238
-376.873	164.741	0.160	-0.223
-375.858	-12.828	0.321	0.207
-374.844	-62.495	-0.278	-0.114
-373.829	-20.577	0.181	-0.110
-372.815	-54.505	0.145	0.065
-371.800	-78.678	-0.321	-0.108
-370.785	722.123	-0.068	0.180
-369.771	-57.366	0.057	-0.025
-368.756	30.328	-0.324	-0.274
-367.742	28.871	-0.205	0.172
-366.727	-200.000	-0.018	-0.146
-365.712	145.280	0.058	0.077
-364.698	-90.347	0.283	0.081
-363.683	22.163	0.069	-0.056
-362.669	88.805	0.116	-0.128
-361.654	-200.000	-0.077	0.411
-360.639	-200.000	0.022	0.152
-359.625	749.061	-0.088	-0.234
-358.610	303.179	0.160	0.294
-357.596	82.943	-0.096	0.104
-356.581	800.000	0.005	-0.017
-355.566	800.000	-0.128	-0.355
-354.552	66.192	-0.085	0.086
-353.537	-137.094	-0.351	0.040
-352.523	316.619	0.076	0.142
-351.508	-58.861	0.165	0.071
-350.493	84.783	0.170	-0.184
-349.479	103.376	-0.191	0.221
-348.464	-200.000	0.001	-0.248
-347.450	-85.503	-0.503	0.155
-346.435	269.646	0.102	-0.178
-345.420	281.560	0.106	-0.188
-344.406	100.762	-0.141	-0.163
-343.391	-200.000	0.035	-0.229
-342.377	-66.538	-0.508	-0.199
-341.362	51.008	0.060	0.056
-340.348	200.121	-0.021	-0.032
-339.333	800.000	0.066	-0.212
-338.318	585.322	0.111	0.271
-337.304	641.486	-0.117	-0.295
-336.289	481.927	-0.076	0.171
-335.275	164.167	0.061	-0.085
-334.260	-52.072	0.343	-0.158
-333.245	-200.000	-0.036	-0.189
-332.231	800.000	0.147	-0.415
-331.216	131.582	-0.227	0.289
-330.202	-187.831	-0.196	-0.003
-329.187	215.902	0.073	0.115
-328.172	-200.000	-0.026	-0.135
-327.158	-10.240	-0.108	0.071
-326.143	-200.000	-0.005	-0.042
-325.129	-81.066	0.140	-0.046
-324.114	-40.326	0.338	-0.174
-323.099	-72.922	-0.226	-0.082
-322.085	-200.000	-0.016	0.258
-321.070	-51.127	0.169	0.079
-320.056	406.909	0.048	0.100
-319.041	-200.000	0.043	-0.359
-318.026	-200.000	-0.004	0.038
-317.012	19.738	0.032	0.025
-315.997	-149.302	-0.154	-0.012
-314.983	-61.472	-0.241	-0.100
-313.968	267.402	-0.224	0.386
-312.953	102.725	0.145	-0.168
-311.939	-151.100	0.126	-0.009
-310.924	800.000	0.147	-0.422
-309.910	293.968	-0.045	0.081
-308.895	108.852	-0.106	0.125
-307.880	-200.000	-0.008	-0.150
-306.866	-73.861	-0.464	-0.167
-305.851	-200.000	-0.013	0.104
-304.837	-200.000	-0.014	0.177
-303.822	-42.034	-0.285	0.144
-302.807	-60.483	0.271	0.114
-301.793	200.261	-0.126	0.192
-300.778	204.005	0.145	-0.221
-299.764	-93.972	-0.224	-0.061
-298.749	102.985	-0.198	0.229
-297.735	-200.000	-0.033	-0.176
-296.720	15.872	-0.201	0.156
-295.705	-200.000	-0.000	-0.150
-294.691	-77.008	-0.049	-0.017
-293.676	208.910	-0.211	0.326
-292.662	354.541	-0.215	-0.422
-291.647	243.893	0.178	0.295
-290.632	113.843	-0.129	0.155
-289.618	-200.000	-0.010	-0.308
-288.603	-134.621	0.554	-0.067
-287.589	-114.026	-0.464	-0.089
-286.574	23.425	-0.060	0.049
-285.559	769.631	-0.137	0.368
-284.545	-98.455	0.087	-0.022
-283.530	800.000	-0.021	0.066
-282.516	-48.054	0.218	0.104
-281.501	211.675	-0.034	-0.052
-280.486	47.214	-0.126	-0.116
-279.472	-200.000	-0.002	0.060
-278.457	-200.000	-0.002	-0.053
-277.443	-10.256	-0.160	0.105
-276.428	-73.302	0.310	-0.112
-275.413	162.272	0.181	-0.251
-274.399	73.045	0.029	0.029
-273.384	-200.000	0.024	0.158
-272.370	-154.240	-0.200	-0.013
-271.355	315.059	0.104	0.194
-270.340	151.254	0.131	0.175
-269.326	427.803	0.055	-0.118
-268.311	798.656	0.062	0.170
-267.297	-57.684	-0.088	0.038
-266.282	-161.338	0.297	0.015
-265.267	-130.895	0.393	-0.052
-264.253	-142.153	-0.306	-0.030
-263.238	-47.748	-0.058	-0.028
-262.224	8.264	0.057	-0.042
-261.209	32.858	-0.046	0.039
-260.195	77.524	-0.176	0.185
-259.180	-21.158	0.232	-0.140
-258.165	1.746	0.041	0.029
-257.151	-136.602	0.185	-0.021
-256.136	96.783	0.192	-0.217
-255.122	800.000	0.083	-0.227
-254.107	-39.637	-0.059	-0.030
-253.092	-0.825	0.132	-0.092
-252.078	-85.428	0.296	-0.091
-251.063	-200.000	0.002	-0.070
-250.049	-200.000	0.011	0.382
-249.034	-134.986	-0.014	0.002
-248.019	-85.957	0.176	-0.054
-247.005	-113.071	-0.051	0.010
-245.990	-56.428	0.130	0.057
-244.976	193.717	0.131	0.195
-243.961	-101.155	0.180	0.043
-242.946	82.687	-0.153	-0.164
-241.932	10.603	0.279	-0.209
-240.917	623.981	-0.080	0.198
-239.903	9.610	0.138	-0.103
-238.888	54.778	-0.277	-0.263
-237.873	505.451	-0.093	-0.211
-236.859	-200.000	0.033	0.179
-235.844	66.261	-0.240	0.240
-234.830	-40.691	0.050	0.026
-233.815	82.707	0.268	0.287
-232.800	-126.174	0.325	-0.048
-231.786	99.882	0.232	-0.265
-230.771	-99.364	-0.112	-0.028
-229.757	-101.754	-0.476	-0.114
-228.742	800.000	-0.047	0.172
-227.727	-200.000	0.018	-0.289
-226.713	17.485	0.151	-0.118
-225.698	800.000	0.027	0.100
-224.684	212.019	0.198	0.307
-223.669	427.200	0.172	0.366
-222.655	-188.554	-0.327	0.004
-221.640	-65.317	-0.185	0.073
-220.625	-36.695	0.090	0.047
-219.611	800.000	-0.073	-0.203
-218.596	800.000	0.071	-0.224
-217.582	-200.000	0.061	0.371
-216.567	84.524	0.315	0.340
-215.552	106.092	0.105	0.122
-214.538	72.560	-0.188	-0.193
-213.523	800.000	-0.108	0.306
-212.509	283.769	-0.092	0.162
-211.494	263.012	0.188	0.322
-210.479	800.000	0.021	-0.069
-209.465	-75.687	0.276	0.096
-208.450	265.606	-0.104	0.178
-207.436	125.096	0.174	0.216
-206.421	-200.000	-0.041	0.205
-205.406	800.000	0.080	-0.344
-204.392	-200.000	0.006	0.103
-203.377	800.000	-0.055	0.176
-202.363	-200.000	-0.070	-0.389
-201.348	140.359	-0.162	-0.210
-200.333	100.795	-0.168	0.192
-199.319	-52.382	-0.103	0.047
-198.304	-164.327	0.427	0.019
-197.290	113.543	-0.181	-0.217
-196.275	-13.838	0.283	0.180
-195.260	800.000	0.070	-0.249
-194.246	350.586	-0.025	0.049
-193.231	-200.000	-0.028	-0.226
-192.217	-45.977	0.247	0.120
-191.202	800.000	0.073	0.218
-190.187	57.099	-0.142	-0.136
-189.173	-176.258	0.043	0.001
-188.158	137.619	0.083	0.107
-187.144	-200.000	-0.036	-0.312
-186.129	800.000	-0.072	-0.287
-185.114	-200.000	-0.002	-0.030
-184.100	58.557	0.131	-0.126
-183.085	33.193	0.131	0.112
-182.071	-182.943	-0.548	-0.010
-181.056	121.430	-0.064	-0.078
-180.042	68.908	0.309	0.312
-179.027	-115.901	-0.048	0.009
-178.012	-8.018	0.097	0.064
-176.998	-40.270	-0.183	0.094
-175.983	-21.079	-0.068	0.041
-174.969	491.686	-0.088	-0.199
-173.954	-90.350	0.295	0.084
-172.939	-84.118	0.234	0.073
-171.925	-115.630	0.150	-0.028
-170.910	19.280	-0.079	-0.063
-169.896	-87.612	-0.381	-0.113
-168.881	16.302	-0.240	0.186
-167.866	-122.394	0.233	-0.037
-166.852	-130.939	0.361	-0.047
-165.837	-200.000	0.002	0.011
-164.823	-70.666	-0.112	-0.042
-163.808	91.842	0.065	-0.072
-162.793	-34.377	-0.087	0.047
-161.779	-0.789	-0.154	-0.107
-160.764	91.240	0.223	-0.246
-159.750	-114.321	-0.346	0.065
-158.735	-143.948	0.360	0.033
-157.720	268.796	0.108	0.186
-156.706	132.331	0.055	-0.070
-155.691	37.687	0.175	0.152
-154.677	-200.000	-0.000	0.101
-153.662	-83.200	-0.216	-0.068
-152.647	800.000	-0.095	0.374
-151.633	7.530	-0.013	-0.009
-150.618	111.664	0.173	-0.205
-149.604	225.199	-0.147	-0.234
-148.589	-24.785	-0.364	-0.212
-147.574	400.622	-0.111	0.228
-146.560	800.000	0.019	0.054
-145.545	197.205	-0.017	-0.025
-144.531	-200.000	0.009	0.131
-143.516	-145.573	0.177	-0.016
-142.502	-9.385	0.091	0.060
-141.487	-32.864	-0.108	-0.059
-140.472	800.000	0.057	-0.220
-139.458	800.000	-0.058	-0.244
-138.443	-166.019	0.190	-0.008
-137.429	-165.712	0.032	-0.001
-136.414	126.500	0.085	-0.105
-135.399	128.490	-0.021	0.026
-134.385	10.693	-0.275	0.206
-133.370	243.799	0.234	0.386
-132.356	216.321	-0.173	0.270
-131.341	-175.516	-0.195	-0.005
-130.326	52.039	-0.116	0.109
-129.312	515.880	0.190	-0.435
-128.297	-126.565	0.270	-0.039
-127.283	-59.885	-0.378	0.159
-126.268	800.000	0.056	-0.208
-125.253	331.543	0.274	0.518
-124.239	482.530	-0.054	0.120
-123.224	111.857	-0.211	0.250
-122.210	-200.000	0.034	0.366
-121.195	-200.000	0.040	0.375
