DTS Sentinel unit serial number:	SN413079Multiplexer serial number:	ORYXHardware model number:	OX4-SRSoftware version number:	ORYX F/W v4.00 Oryx Data Collector v3.7.2.0data status	okinstallation	princeton_trtdifferential loss correction	single-endedforward channel	channel 3reverse channel	N/Adate	2019/09/11time	07:26:11forward acquisition time	60.00reverse acquisition time	0.00gamma	496.2192k internal	0.2326k external	0.2326temperature offset calibration	0.9901default loss term (dB/km)	0.3790temperature slope calibration	1.0000multiplexer offset coefficient	1.0000multiplexer slope coefficient	1.0000fibre end	0.00T internal ref (°C)	30.92T ext. ref 1 (°C)	-0.04T ext. ref 2 (°C)	27.52length (m)	temperature (°C)	Stokes	anti-Stokes-747.200	-64.535	-0.191	0.078
-746.185	402.995	-0.025	-0.054
-745.171	-57.586	0.157	0.069
-744.156	-73.238	-0.104	0.038
-743.142	-31.865	-0.165	0.093
-742.127	314.747	-0.127	0.241
-741.112	-122.560	0.312	-0.051
-740.098	-200.000	0.057	-0.274
-739.083	58.225	0.178	0.176
-738.069	-200.000	0.005	0.080
-737.054	6.652	0.364	-0.273
-736.039	-23.228	-0.331	0.201
-735.025	102.197	0.105	0.124
-734.010	-40.452	-0.222	-0.117
-732.996	126.500	0.125	-0.159
-731.981	248.289	0.103	-0.175
-730.966	-117.809	0.106	0.019
-729.952	161.688	-0.121	-0.171
-728.937	-200.000	0.008	0.097
-727.923	766.104	-0.056	0.154
-726.908	299.832	-0.168	-0.311
-725.894	-93.686	-0.219	-0.061
-724.879	-50.892	-0.254	0.120
-723.864	49.155	0.269	0.255
-722.850	-83.322	-0.434	0.141
-721.835	-200.000	-0.006	0.241
-720.821	-0.149	-0.368	0.264
-719.806	395.278	-0.058	0.122
-718.791	38.353	0.145	-0.130
-717.777	800.000	0.019	-0.055
-716.762	-200.000	-0.079	-0.392
-715.748	800.000	0.048	0.160
-714.733	-156.986	0.190	-0.012
-713.718	73.524	-0.166	0.175
-712.704	-81.251	-0.312	0.104
-711.689	-200.000	0.040	0.392
-710.675	-158.319	0.142	-0.008
-709.660	-200.000	-0.002	-0.108
-708.645	800.000	0.042	-0.135
-707.631	-200.000	0.026	-0.127
-706.616	-11.392	-0.174	0.115
-705.602	-128.237	0.198	0.028
-704.587	726.490	0.067	0.181
-703.572	-121.838	0.101	0.017
-702.558	-48.617	0.101	0.049
-701.543	-3.195	-0.097	0.068
-700.529	-98.746	-0.669	0.172
-699.514	-111.127	-0.101	0.021
-698.499	-36.381	0.093	0.051
-697.485	46.082	-0.266	-0.248
-696.470	123.513	0.069	-0.087
-695.456	-119.145	0.279	-0.049
-694.441	547.420	-0.111	-0.267
-693.426	370.244	-0.044	-0.089
-692.412	39.291	-0.143	-0.129
-691.397	-163.792	-0.011	0.001
-690.383	-200.000	-0.035	-0.272
-689.368	25.725	-0.056	0.047
-688.354	-61.147	0.317	0.134
-687.339	-200.000	0.037	0.206
-686.324	-121.574	0.138	-0.023
-685.310	-10.577	-0.428	0.285
-684.295	-67.702	-0.234	-0.092
-683.281	-109.480	-0.081	-0.017
-682.266	25.235	-0.176	-0.147
-681.251	-154.298	-0.323	0.022
-680.237	-1.955	0.045	-0.032
-679.222	57.337	-0.112	-0.110
-678.208	-111.606	0.212	0.043
-677.193	4.459	0.230	0.170
-676.178	29.718	-0.259	0.222
-675.164	-112.956	0.238	0.047
-674.149	-200.000	0.011	-0.092
-673.135	800.000	-0.023	0.085
-672.120	-200.000	0.005	0.258
-671.105	330.301	0.079	-0.153
-670.091	-25.529	-0.316	-0.187
-669.076	4.621	-0.303	-0.224
-668.062	423.919	-0.152	0.330
-667.047	257.718	0.037	0.065
-666.032	95.746	0.395	-0.453
-665.018	-54.961	0.245	0.111
-664.003	80.269	-0.403	-0.436
-662.989	-85.417	-0.455	-0.143
-661.974	15.673	0.210	-0.166
-660.959	-118.233	-0.229	0.041
-659.945	-6.774	-0.158	0.108
-658.930	122.425	-0.146	-0.183
-657.916	-141.398	0.220	-0.022
-656.901	-200.000	-0.046	0.331
-655.886	-155.858	0.211	0.014
-654.872	293.748	0.095	-0.175
-653.857	88.483	0.159	-0.178
-652.843	-144.962	-0.216	-0.020
-651.828	311.584	-0.075	0.142
-650.814	150.916	0.277	0.379
-649.799	-61.758	-0.153	-0.064
-648.784	69.339	-0.347	-0.359
-647.770	-55.844	0.326	-0.146
-646.755	-200.000	0.015	-0.389
-645.741	-200.000	0.072	-0.342
-644.726	800.000	-0.014	0.058
-643.711	52.505	0.277	-0.265
-642.697	345.248	-0.157	-0.310
-641.682	-98.056	-0.193	-0.050
-640.668	800.000	-0.024	-0.105
-639.653	85.498	-0.116	0.128
-638.638	-200.000	0.030	0.146
-637.624	234.188	0.055	0.091
-636.609	185.702	0.349	-0.521
-635.595	-138.924	0.088	-0.010
-634.580	10.119	-0.172	0.132
-633.565	-158.896	0.145	-0.008
-632.551	-162.650	0.185	0.009
-631.536	-200.000	-0.023	-0.170
-630.522	79.246	-0.108	-0.117
-629.507	45.139	0.137	0.127
-628.492	50.881	0.090	0.086
-627.478	-120.922	-0.232	-0.039
-626.463	800.000	-0.053	-0.187
-625.449	-118.007	-0.160	-0.029
-624.434	24.526	-0.224	-0.186
-623.419	-21.185	-0.165	0.101
-622.405	800.000	-0.039	0.161
-621.390	-193.803	0.157	-0.001
-620.376	800.000	0.050	-0.138
-619.361	-200.000	0.047	-0.433
-618.346	-128.805	0.245	-0.035
-617.332	139.268	0.059	-0.078
-616.317	-200.000	0.001	-0.297
-615.303	-31.470	0.017	-0.010
-614.288	-200.000	-0.010	0.182
-613.273	241.328	0.058	0.098
-612.259	800.000	-0.020	0.078
-611.244	-162.849	0.015	0.001
-610.230	178.728	0.120	0.175
-609.215	-127.974	-0.261	-0.038
-608.201	800.000	-0.082	0.236
-607.186	-125.834	-0.115	0.017
-606.171	-78.069	-0.441	-0.152
-605.157	-123.845	-0.250	0.040
-604.142	-144.633	0.096	0.009
-603.128	-26.632	0.286	0.168
-602.113	-57.265	-0.058	-0.026
-601.098	242.314	0.094	0.157
-600.084	-41.231	0.193	-0.100
-599.069	800.000	-0.005	-0.017
-598.055	89.272	0.319	-0.356
-597.040	-100.938	-0.055	-0.014
-596.025	-200.000	-0.043	0.270
-595.011	-200.000	0.031	0.150
-593.996	111.410	0.216	0.261
-592.982	401.087	-0.120	-0.252
-591.967	-47.628	-0.105	-0.051
-590.952	800.000	-0.082	0.350
-589.938	-200.000	-0.044	-0.199
-588.923	-9.239	0.178	0.119
-587.909	112.664	-0.041	0.049
-586.894	-200.000	0.017	-0.333
-585.879	37.233	-0.206	-0.183
-584.865	57.704	0.179	0.175
-583.850	126.595	0.107	0.135
-582.836	-130.813	0.109	0.015
-581.821	-200.000	-0.000	-0.117
-580.806	-56.474	0.232	-0.103
-579.792	7.641	-0.095	0.071
-578.777	-200.000	0.008	-0.268
-577.763	800.000	-0.027	0.086
-576.748	-163.307	0.149	-0.007
-575.733	-200.000	0.041	0.259
-574.719	224.119	-0.192	-0.310
-573.704	719.478	-0.053	-0.140
-572.690	681.633	0.027	-0.071
-571.675	56.536	0.254	0.248
-570.661	-200.000	-0.011	-0.210
-569.646	59.342	-0.050	0.050
-568.631	-2.656	-0.053	0.037
-567.617	196.088	-0.116	-0.177
-566.602	-200.000	0.008	0.106
-565.588	-62.949	-0.252	0.104
-564.573	-86.656	-0.337	0.103
-563.558	800.000	0.037	0.104
-562.544	-138.963	-0.231	0.025
-561.529	169.948	0.221	0.316
-560.515	-143.386	-0.394	0.038
-559.500	99.692	0.208	-0.241
-558.485	-200.000	0.038	-0.203
-557.471	580.259	-0.118	0.289
-556.456	-86.220	-0.318	0.098
-555.442	-176.779	-0.020	-0.001
-554.427	-50.077	0.342	-0.162
-553.412	800.000	-0.032	-0.088
-552.398	55.872	-0.291	0.283
-551.383	-200.000	0.067	0.439
-550.369	0.768	0.012	0.009
-549.354	-94.319	-0.450	-0.123
-548.339	648.171	-0.125	-0.319
-547.325	-129.310	0.044	-0.006
-546.310	-200.000	-0.013	-0.128
-545.296	-200.000	-0.005	-0.067
-544.281	-150.815	0.090	-0.007
-543.266	-200.000	0.007	0.030
-542.252	-46.262	0.235	0.116
-541.237	32.434	0.064	-0.055
-540.223	-64.782	0.113	0.046
-539.208	-35.830	-0.165	-0.090
-538.193	-93.073	-0.200	-0.056
-537.179	-47.823	-0.232	-0.113
-536.164	-19.343	-0.251	0.156
-535.150	-29.348	-0.084	-0.048
-534.135	725.839	-0.019	-0.052
-533.121	800.000	0.030	-0.130
-532.106	-127.640	-0.101	-0.015
-531.091	107.171	-0.037	0.044
-530.077	25.367	0.101	0.084
-529.062	-82.774	0.127	-0.041
-528.048	-62.402	-0.224	0.093
-527.033	-200.000	0.047	-0.281
-526.018	-200.000	0.002	0.084
-525.004	-106.259	0.261	0.058
-523.989	-35.654	-0.056	-0.030
-522.975	122.263	-0.164	0.205
-521.960	-51.137	-0.141	-0.066
-520.945	113.501	0.135	0.164
-519.931	381.575	-0.086	0.176
-518.916	736.175	-0.070	0.188
-517.902	6.820	-0.045	-0.034
-516.887	684.046	-0.142	-0.370
-515.872	800.000	0.046	-0.161
-514.858	-200.000	-0.142	0.000
-513.843	77.111	-0.178	-0.190
-512.829	800.000	0.018	0.062
-511.814	-70.608	-0.170	0.064
-510.799	800.000	0.012	0.048
-509.785	289.104	0.091	-0.164
-508.770	-55.995	-0.082	-0.036
-507.756	-73.538	-0.046	0.017
-506.741	-200.000	0.029	-0.141
-505.726	-79.439	0.262	0.089
-504.712	-47.072	0.127	0.062
-503.697	-200.000	0.057	0.417
-502.683	-30.046	-0.168	0.095
-501.668	685.689	0.005	0.014
-500.653	-60.995	-0.308	-0.130
-499.639	154.239	-0.056	0.077
-498.624	235.963	0.079	-0.131
-497.610	-75.581	-0.364	-0.129
-496.595	96.386	0.229	0.262
-495.581	55.286	0.152	0.147
-494.566	-44.157	-0.182	0.091
-493.551	101.444	-0.090	0.104
-492.537	-89.246	-0.237	-0.070
-491.522	22.789	-0.081	-0.066
-490.508	-59.124	-0.226	0.097
-489.493	-200.000	-0.008	0.147
-488.478	324.278	-0.091	0.174
-487.464	23.374	0.285	0.234
-486.449	-200.000	0.019	0.138
-485.435	800.000	-0.140	0.486
-484.420	90.459	0.080	-0.089
-483.405	800.000	0.077	-0.271
-482.391	115.469	-0.090	-0.110
-481.376	258.659	-0.147	0.253
-480.362	-200.000	-0.009	-0.117
-479.347	43.713	-0.069	-0.063
-478.332	393.712	-0.159	0.330
-477.318	5.463	-0.133	0.098
-476.303	-200.000	-0.009	0.069
-475.289	-137.684	-0.175	0.020
-474.274	-35.673	-0.114	0.062
-473.259	547.123	0.084	0.201
-472.245	800.000	0.080	0.239
-471.230	-130.333	0.314	-0.042
-470.216	24.978	0.073	0.060
-469.201	-120.403	-0.194	-0.033
-468.186	119.698	0.023	-0.028
-467.172	314.864	0.048	0.090
-466.157	101.903	-0.174	0.203
-465.143	-43.064	-0.338	-0.171
-464.128	800.000	-0.054	0.171
-463.113	534.549	0.052	-0.123
-462.099	259.150	-0.134	-0.231
-461.084	318.917	0.042	-0.079
-460.070	-98.908	-0.188	0.048
-459.055	800.000	-0.041	0.146
-458.040	-112.529	0.108	0.021
-457.026	800.000	0.094	0.359
-456.011	23.530	-0.137	0.112
-454.997	-200.000	-0.015	-0.099
-453.982	-92.072	0.288	-0.081
-452.968	-15.717	-0.297	0.189
-451.953	626.424	0.081	-0.205
-450.938	706.207	-0.089	0.233
-449.924	131.108	0.104	0.133
-448.909	118.751	-0.184	-0.227
-447.895	445.600	-0.098	0.215
-446.880	-200.000	-0.002	0.193
-445.865	-150.354	0.249	0.019
-444.851	786.733	0.071	-0.194
-443.836	-200.000	-0.024	0.213
-442.822	253.306	0.168	-0.286
-441.807	166.819	0.229	0.324
-440.792	-83.506	0.137	0.044
-439.778	-120.433	0.265	-0.045
-438.763	-124.168	0.157	-0.024
-437.749	371.985	-0.149	-0.301
-436.734	90.179	-0.058	-0.065
-435.719	90.336	-0.117	-0.130
-434.705	5.079	0.270	-0.198
-433.690	-200.000	0.008	-0.223
-432.676	23.505	-0.233	0.191
-431.661	88.851	-0.155	0.172
-430.646	-200.000	-0.005	-0.051
-429.632	-27.815	-0.432	-0.249
-428.617	-25.011	0.171	0.101
-427.603	-103.843	-0.030	0.007
-426.588	-200.000	0.032	-0.171
-425.573	185.160	0.176	-0.260
-424.559	667.935	0.030	-0.077
-423.544	245.242	-0.189	-0.317
-422.530	-82.910	-0.369	-0.119
-421.515	-192.953	0.108	-0.001
-420.500	-200.000	-0.015	-0.155
-419.486	529.231	0.094	-0.220
-418.471	-200.000	0.000	0.160
-417.457	-134.966	-0.213	-0.026
-416.442	66.024	0.235	0.237
-415.428	800.000	-0.061	-0.175
-414.413	-127.162	0.453	0.066
-413.398	438.172	-0.074	-0.161
-412.384	-117.562	-0.114	0.021
-411.369	74.608	0.108	0.113
-410.355	-200.000	-0.030	-0.206
-409.340	-200.000	-0.040	0.243
-408.325	-179.764	0.263	0.006
-407.311	252.086	-0.129	0.219
-406.296	78.988	0.070	-0.075
-405.282	800.000	0.055	-0.219
-404.267	-66.579	-0.217	0.086
-403.252	130.326	-0.139	0.177
-402.238	-200.000	0.058	0.261
-401.223	-15.502	0.098	-0.062
-400.209	800.000	-0.047	-0.133
-399.194	-100.421	0.120	0.029
-398.179	-115.577	-0.082	0.015
-397.165	-168.610	-0.183	-0.007
-396.150	-135.830	0.234	0.027
-395.136	-165.130	0.278	-0.012
-394.121	-6.166	-0.221	0.150
-393.106	449.871	0.053	-0.116
-392.092	800.000	0.043	-0.120
-391.077	51.811	-0.154	-0.146
-390.063	-112.863	0.298	-0.059
-389.048	214.757	-0.100	-0.158
-388.033	-72.267	-0.099	-0.037
-387.019	-159.135	0.290	-0.016
-386.004	158.549	-0.183	0.253
-384.990	800.000	-0.062	-0.209
-383.975	349.928	0.114	-0.224
-382.960	-9.561	0.140	-0.093
-381.946	-200.000	-0.022	-0.151
-380.931	-11.753	0.085	-0.055
-379.917	88.580	-0.213	0.235
-378.902	-41.626	0.067	0.034
-377.888	96.969	-0.277	0.315
-376.873	-171.555	0.137	0.005
-375.858	-51.142	0.031	-0.014
-374.844	-45.385	0.228	0.112
-373.829	180.774	-0.142	0.207
-372.815	-126.256	-0.153	0.023
-371.800	-200.000	0.019	0.156
-370.785	-17.232	0.076	0.048
-369.771	-6.134	-0.196	-0.133
-368.756	66.428	0.123	-0.124
-367.742	-200.000	0.004	-0.021
-366.727	106.567	-0.319	-0.377
-365.712	299.699	-0.043	-0.078
-364.698	18.600	0.346	0.275
-363.683	-200.000	-0.012	0.076
-362.669	247.715	0.019	0.032
-361.654	-77.513	0.125	0.043
-360.639	-85.068	-0.039	-0.012
-359.625	-66.796	-0.370	-0.145
-358.610	-91.893	0.218	-0.062
-357.596	-200.000	-0.013	0.246
-356.581	454.180	0.150	0.330
-355.566	333.083	0.074	-0.142
-354.552	-66.451	0.191	-0.075
-353.537	-54.368	0.261	0.117
-352.523	800.000	-0.089	0.380
-351.508	-200.000	0.007	0.267
-350.493	16.295	-0.155	0.122
-349.479	89.758	-0.160	0.177
-348.464	800.000	-0.088	0.274
-347.450	-200.000	0.006	0.281
-346.435	-78.839	0.119	-0.040
-345.420	-200.000	0.039	-0.256
-344.406	-89.754	0.111	-0.032
-343.391	-175.465	0.099	0.003
-342.377	-115.239	0.227	-0.043
-341.362	-3.300	0.311	0.215
-340.348	-141.398	-0.563	0.057
-339.333	800.000	0.073	0.238
-338.318	800.000	0.088	-0.366
-337.304	-200.000	-0.035	-0.176
-336.289	-31.801	-0.060	0.034
-335.275	17.946	0.480	0.380
-334.260	800.000	-0.048	-0.175
-333.245	-7.870	0.189	0.127
-332.231	-46.177	0.195	-0.095
-331.216	-49.029	-0.171	-0.081
-330.202	800.000	-0.118	0.356
-329.187	-144.259	-0.239	-0.022
-328.172	114.163	0.211	-0.255
-327.158	37.208	0.243	0.213
-326.143	132.623	0.185	-0.237
-325.129	104.425	-0.085	-0.100
-324.114	385.160	0.072	0.147
-323.099	1.679	0.194	0.138
-322.085	-200.000	0.063	-0.329
-321.070	-137.743	0.132	0.015
-320.056	26.776	-0.184	-0.153
-319.041	800.000	-0.044	0.146
-318.026	19.490	-0.098	0.078
-317.012	107.474	-0.260	0.307
-315.997	-132.309	0.361	0.046
-314.983	-200.000	0.016	-0.179
-313.968	-19.116	-0.323	-0.199
-312.953	-35.240	0.289	-0.156
-311.939	-25.203	0.263	0.154
-310.924	800.000	0.038	-0.106
-309.910	-82.345	0.072	0.023
-308.895	-78.749	0.267	0.090
-307.880	-17.636	-0.262	0.163
-306.866	-179.499	-0.240	0.005
-305.851	136.637	-0.229	0.296
-304.837	-26.844	-0.146	-0.084
-303.822	206.257	-0.199	-0.307
-302.807	228.614	0.138	0.223
-301.793	100.436	-0.226	-0.260
-300.778	57.080	-0.313	-0.303
-299.764	85.848	-0.215	0.234
-298.749	9.270	0.156	0.117
-297.735	9.174	0.233	-0.174
-296.720	800.000	0.083	0.298
-295.705	575.792	0.091	0.221
-294.691	116.412	-0.108	-0.132
-293.676	407.612	0.077	0.162
-292.662	-140.049	-0.166	-0.017
-291.647	-40.633	0.139	-0.071
-290.632	-128.393	-0.083	0.012
-289.618	-200.000	0.020	-0.119
-288.603	-80.956	-0.209	0.069
-287.589	33.727	0.353	0.304
-286.574	-200.000	0.030	-0.195
-285.559	50.287	0.190	-0.177
-284.545	-4.048	-0.225	0.154
-283.530	24.396	-0.169	-0.138
-282.516	-32.094	0.360	-0.199
-281.501	81.390	0.183	0.196
-280.486	121.938	0.271	-0.335
-279.472	-15.301	0.330	-0.209
-278.457	19.859	0.187	-0.149
-277.443	800.000	-0.080	0.252
-276.428	-134.909	-0.088	0.011
-275.413	27.799	0.137	-0.114
-274.399	-71.432	-0.109	0.040
-273.384	-115.505	-0.408	0.076
-272.370	-58.962	-0.163	0.070
-271.355	800.000	-0.077	-0.282
-270.340	346.323	-0.236	-0.459
-269.326	-115.402	-0.173	-0.032
-268.311	91.388	-0.127	-0.141
-267.297	-44.544	0.150	0.074
-266.282	-48.292	0.180	0.086
-265.267	800.000	-0.098	-0.299
-264.253	-151.260	-0.090	0.007
-263.238	-138.268	0.121	0.013
-262.224	-200.000	0.061	-0.310
-261.209	-66.485	0.020	0.008
-260.195	-73.594	-0.306	-0.110
-259.180	-200.000	0.036	0.271
-258.165	-200.000	0.007	-0.172
-257.151	-97.396	-0.035	-0.009
-256.136	-93.724	0.340	-0.093
-255.122	-81.206	0.257	0.084
-254.107	19.206	0.147	-0.117
-253.092	-122.256	0.076	-0.012
-252.078	-145.653	0.254	0.022
-251.063	800.000	0.030	0.085
-250.049	-115.498	-0.064	-0.012
-249.034	-90.024	-0.202	0.058
-248.019	-93.541	0.307	-0.084
-247.005	382.439	-0.052	-0.106
-245.990	-200.000	-0.064	-0.316
-244.976	155.547	0.105	-0.143
-243.961	132.037	0.161	0.205
-242.946	602.847	0.104	-0.255
-241.932	21.042	0.235	0.188
-240.917	-38.374	0.391	-0.205
-239.903	800.000	0.083	0.291
-238.888	240.332	-0.135	0.222
-237.873	-40.645	0.375	0.192
-236.859	17.232	0.058	0.045
-235.844	-92.898	-0.275	0.076
-234.830	-38.703	0.268	0.140
-233.815	414.740	0.068	-0.143
-232.800	147.452	0.024	0.032
-231.786	-40.173	0.067	0.034
-230.771	-200.000	0.016	0.303
-229.757	-165.268	0.198	-0.009
-228.742	-102.466	0.092	0.022
-227.727	800.000	-0.032	-0.136
-226.713	800.000	0.013	0.042
-225.698	-21.923	0.100	0.060
-224.684	800.000	0.154	0.468
-223.669	-7.000	0.155	-0.104
-222.655	-66.676	0.112	0.044
-221.640	800.000	0.058	-0.236
-220.625	-37.415	-0.067	0.036
-219.611	20.599	-0.405	-0.324
-218.596	118.887	-0.096	-0.117
-217.582	138.476	0.114	0.148
-216.567	-13.582	-0.153	-0.098
-215.552	-200.000	0.035	-0.202
-214.538	-200.000	0.025	0.136
-213.523	-156.849	0.325	-0.020
-212.509	-97.410	0.235	0.060
-211.494	-53.566	0.206	0.093
-210.479	-200.000	-0.007	-0.335
-209.465	-143.727	0.219	-0.020
-208.450	800.000	-0.100	0.277
-207.436	106.997	-0.247	-0.289
-206.421	-92.239	-0.190	-0.053
-205.406	-48.709	-0.087	0.041
-204.392	-200.000	-0.016	-0.372
-203.377	45.679	0.234	-0.214
-202.363	-60.484	-0.292	0.122
-201.348	-115.581	-0.222	0.041
-200.333	-200.000	-0.020	-0.233
-199.319	800.000	0.087	0.279
-198.304	-8.062	-0.275	0.183
-197.290	-200.000	-0.034	0.200
-196.275	-121.965	0.176	0.029
-195.260	-63.358	0.208	-0.084
-194.246	476.406	0.049	-0.109
-193.231	-123.690	0.460	0.072
-192.217	2.795	0.054	0.039
-191.202	-200.000	-0.028	-0.414
-190.187	42.247	0.172	0.154
-189.173	380.868	-0.157	-0.318
-188.158	-9.049	0.178	0.118
-187.144	-200.000	0.013	0.153
-186.129	655.929	-0.056	0.143
-185.114	-200.000	0.016	0.361
-184.100	-200.000	0.019	-0.215
-183.085	-140.682	-0.047	0.005
-182.071	-200.000	0.002	0.085
-181.056	-11.326	-0.106	0.069
-180.042	800.000	0.077	-0.283
-179.027	-200.000	-0.005	-0.145
-178.012	-200.000	0.001	0.168
-176.998	379.889	0.090	-0.182
-175.983	-16.160	0.084	0.053
-174.969	236.347	-0.220	0.359
-173.954	728.354	0.048	0.127
-172.939	368.987	-0.117	-0.234
-171.925	-200.000	-0.015	0.304
-170.910	800.000	0.028	-0.077
-169.896	530.078	0.090	0.209
-168.881	-50.530	-0.184	-0.086
-167.866	438.708	0.126	-0.272
-166.852	-200.000	0.016	0.155
-165.837	90.198	-0.186	0.205
-164.823	8.817	0.114	0.085
-163.808	-36.343	-0.262	0.139
-162.793	245.768	0.082	-0.136
-161.779	-200.000	-0.006	-0.164
-160.764	262.423	-0.092	-0.157
-159.750	-200.000	-0.023	0.157
-158.735	257.813	0.131	0.222
-157.720	137.012	-0.143	-0.184
-156.706	-102.731	-0.051	0.012
-155.691	423.902	-0.126	0.268
-154.677	-108.936	-0.255	0.054
-153.662	147.536	-0.124	0.165
-152.647	-165.468	-0.321	-0.014
-151.633	-68.539	0.206	-0.079
-150.618	-24.460	0.303	-0.178
-149.604	800.000	-0.049	0.187
-148.589	59.876	-0.039	0.038
-147.574	247.366	-0.127	-0.211
-146.560	5.079	-0.050	-0.036
-145.545	216.156	0.096	0.151
-144.531	800.000	-0.120	0.372
-143.516	-112.363	0.271	0.053
-142.502	8.109	-0.317	0.234
-141.487	160.585	-0.070	0.096
-140.472	186.595	-0.061	0.090
-139.458	800.000	-0.129	-0.437
-138.443	-39.599	-0.160	-0.082
-137.429	-87.604	0.340	-0.101
-136.414	-200.000	-0.005	-0.148
-135.399	58.707	0.172	-0.166
-134.385	10.612	-0.240	0.180
-133.370	-200.000	-0.065	0.340
-132.356	-200.000	0.019	0.236
-131.341	800.000	0.026	0.079
-130.326	-42.911	-0.140	0.070
-129.312	665.532	0.077	0.195
-128.297	340.265	-0.097	-0.187
-127.283	-200.000	0.036	0.224
-126.268	128.092	-0.049	0.062
-125.253	147.410	0.129	-0.171
-124.239	-175.508	-0.311	0.008
-123.224	-33.267	0.380	0.207
-122.210	-26.526	0.092	-0.053
-121.195	-95.765	0.157	-0.041
