DTS Sentinel unit serial number:	SN413079Multiplexer serial number:	ORYXHardware model number:	OX4-SRSoftware version number:	ORYX F/W v4.00 Oryx Data Collector v3.7.2.0data status	okinstallation	princeton_trtdifferential loss correction	single-endedforward channel	channel 3reverse channel	N/Adate	2019/09/12time	09:50:11forward acquisition time	60.00reverse acquisition time	0.00gamma	496.2192k internal	0.2300k external	0.2300temperature offset calibration	1.0035default loss term (dB/km)	0.3790temperature slope calibration	1.0000multiplexer offset coefficient	1.0000multiplexer slope coefficient	1.0000fibre end	0.00T internal ref (°C)	36.02T ext. ref 1 (°C)	1.85T ext. ref 2 (°C)	32.44length (m)	temperature (°C)	Stokes	anti-Stokes-747.200	6.704	0.251	-0.191
-746.185	318.984	-0.170	0.328
-745.171	230.434	0.149	0.248
-744.156	-200.000	0.033	0.267
-743.142	613.923	-0.152	0.389
-742.127	-200.000	0.022	0.195
-741.112	26.414	0.153	0.130
-740.098	-200.000	-0.079	0.402
-739.083	248.890	-0.079	0.136
-738.069	-12.023	0.078	-0.052
-737.054	-200.000	0.025	-0.247
-736.039	-200.000	0.018	-0.103
-735.025	94.470	0.233	0.270
-734.010	-113.329	-0.313	0.063
-732.996	14.651	-0.110	0.087
-731.981	44.193	0.127	-0.119
-730.966	506.402	0.066	-0.157
-729.952	345.271	-0.010	0.019
-728.937	-28.285	0.310	-0.182
-727.923	-134.972	-0.309	0.038
-726.908	-187.624	-0.223	-0.003
-725.894	199.705	-0.131	-0.204
-724.879	-70.699	-0.113	-0.044
-723.864	-107.052	-0.285	-0.064
-722.850	-47.137	0.044	-0.022
-721.835	44.442	0.274	0.256
-720.821	-139.795	0.344	0.037
-719.806	-200.000	-0.017	-0.249
-718.791	-68.948	0.306	-0.120
-717.777	-200.000	-0.011	0.064
-716.762	-200.000	-0.057	-0.281
-715.748	-112.180	0.110	0.023
-714.733	-34.378	0.206	-0.115
-713.718	218.193	-0.121	0.198
-712.704	8.765	0.158	-0.121
-711.689	-142.854	0.267	-0.026
-710.675	-98.267	-0.373	-0.098
-709.660	-62.157	-0.121	-0.051
-708.645	97.409	-0.132	-0.154
-707.631	-129.439	-0.179	0.025
-706.616	583.642	0.010	-0.025
-705.602	-200.000	0.002	0.109
-704.587	-200.000	0.039	0.424
-703.572	290.379	0.117	0.217
-702.558	111.527	0.150	0.185
-701.543	-87.581	0.341	0.105
-700.529	-200.000	-0.031	-0.192
-699.514	-139.980	0.035	0.004
-698.499	14.021	-0.282	0.224
-697.485	-39.384	-0.173	-0.092
-696.470	167.816	-0.128	0.185
-695.456	-200.000	0.014	-0.333
-694.441	-55.815	0.074	-0.033
-693.426	-166.448	0.347	-0.015
-692.412	52.615	0.143	0.139
-691.397	-114.628	-0.351	0.068
-690.383	497.177	-0.119	0.280
-689.368	207.389	0.070	-0.111
-688.354	-134.865	-0.345	0.043
-687.339	-40.960	0.154	0.081
-686.324	709.434	0.051	-0.138
-685.310	800.000	-0.063	-0.179
-684.295	70.830	0.138	-0.145
-683.281	200.639	0.064	0.100
-682.266	9.253	0.077	-0.059
-681.251	33.870	-0.189	-0.167
-680.237	359.766	-0.179	-0.364
-679.222	-83.454	-0.219	-0.071
-678.208	-48.063	0.025	0.012
-677.193	-68.302	0.214	0.085
-676.178	386.796	0.108	0.228
-675.164	-69.345	-0.050	0.019
-674.149	42.054	-0.175	-0.162
-673.135	-200.000	0.044	-0.356
-672.120	42.465	0.129	-0.119
-671.105	386.781	0.135	0.285
-670.091	-200.000	0.032	-0.276
-669.076	800.000	-0.050	-0.175
-668.062	-200.000	-0.036	0.253
-667.047	-200.000	0.027	-0.263
-666.032	781.363	-0.039	-0.109
-665.018	-80.347	0.187	-0.064
-664.003	247.036	0.064	-0.110
-662.989	-110.722	-0.271	-0.057
-661.974	667.640	0.166	0.437
-660.959	0.901	-0.186	0.135
-659.945	70.289	-0.117	-0.122
-658.930	736.910	-0.059	-0.160
-657.916	86.238	-0.063	-0.070
-656.901	-200.000	-0.040	0.330
-655.886	-45.156	-0.249	-0.126
-654.872	-113.471	0.212	-0.042
-653.857	-200.000	-0.023	0.155
-652.843	-104.355	0.184	0.043
-651.828	-9.949	-0.098	-0.066
-650.814	5.802	0.143	-0.107
-649.799	218.011	-0.176	0.285
-648.784	304.304	0.038	-0.071
-647.770	-105.649	0.160	-0.037
-646.755	-200.000	-0.028	0.179
-645.741	-200.000	0.025	-0.222
-644.726	-128.895	0.476	-0.068
-643.711	-27.524	0.472	-0.279
-642.697	-178.772	-0.216	-0.005
-641.682	22.262	-0.196	0.163
-640.668	-134.809	-0.169	0.021
-639.653	-32.561	0.220	0.124
-638.638	-104.493	-0.115	-0.027
-637.624	305.721	-0.094	0.178
-636.609	601.969	-0.031	-0.078
-635.595	800.000	0.033	0.097
-634.580	300.158	0.029	-0.055
-633.565	-200.000	-0.019	0.093
-632.551	-115.323	-0.165	-0.032
-631.536	36.911	0.126	0.113
-630.522	-200.000	-0.026	-0.240
-629.507	-70.018	-0.258	-0.100
-628.492	139.033	-0.108	0.144
-627.478	-75.157	-0.310	0.113
-626.463	-129.564	0.231	-0.032
-625.449	-100.754	0.441	-0.110
-624.434	95.202	-0.132	-0.153
-623.419	-16.429	-0.107	0.069
-622.405	60.385	0.117	-0.118
-621.390	-161.046	-0.286	-0.015
-620.376	-200.000	-0.061	-0.326
-619.361	800.000	0.093	-0.303
-618.346	800.000	0.072	0.233
-617.332	-106.121	-0.387	0.088
-616.317	-73.754	-0.413	0.153
-615.303	93.140	-0.065	-0.075
-614.288	11.622	0.125	-0.097
-613.273	-56.370	-0.198	-0.089
-612.259	18.025	-0.191	-0.155
-611.244	-11.089	-0.269	0.180
-610.230	296.725	-0.103	-0.192
-609.215	110.358	-0.210	0.256
-608.201	82.717	-0.142	-0.156
-607.186	800.000	0.087	-0.263
-606.171	12.763	-0.109	-0.085
-605.157	-13.665	0.097	0.064
-604.142	-65.490	-0.248	-0.101
-603.128	124.421	0.153	0.195
-602.113	78.327	-0.067	-0.073
-601.098	-107.079	-0.114	-0.025
-600.084	-200.000	0.036	0.330
-599.069	-200.000	0.007	-0.032
-598.055	-152.251	0.388	-0.028
-597.040	-200.000	0.002	-0.077
-596.025	133.899	0.149	-0.195
-595.011	462.072	-0.098	-0.222
-593.996	-200.000	-0.006	-0.289
-592.982	103.420	0.176	-0.210
-591.967	11.300	-0.305	0.237
-590.952	-68.073	0.173	0.068
-589.938	-3.372	0.125	-0.088
-588.923	275.013	0.029	-0.053
-587.909	-31.324	-0.306	0.175
-586.894	-200.000	0.021	0.328
-585.879	33.906	0.062	-0.055
-584.865	755.020	0.022	-0.059
-583.850	-9.221	-0.118	-0.080
-582.836	683.029	0.085	0.225
-581.821	800.000	-0.174	-0.731
-580.806	-50.257	0.060	-0.029
-579.792	450.898	-0.090	-0.202
-578.777	-34.196	-0.133	0.074
-577.763	-200.000	-0.021	-0.225
-576.748	69.411	-0.160	-0.167
-575.733	303.882	0.058	-0.109
-574.719	-147.404	0.237	0.020
-573.704	-149.156	-0.234	-0.019
-572.690	577.578	-0.020	-0.050
-571.675	-200.000	0.035	0.222
-570.661	-30.023	-0.187	0.108
-569.646	-75.700	-0.142	-0.051
-568.631	800.000	-0.142	-0.446
-567.617	-67.180	0.140	0.056
-566.602	800.000	0.077	0.225
-565.588	117.845	0.135	0.169
-564.573	10.502	-0.179	0.138
-563.558	800.000	-0.065	0.206
-562.544	800.000	-0.052	0.158
-561.529	-137.221	0.395	-0.046
-560.515	146.673	-0.034	-0.046
-559.500	316.289	0.121	0.232
-558.485	-12.357	0.386	0.255
-557.471	-39.009	-0.055	-0.029
-556.456	-131.116	-0.221	0.030
-555.442	-10.625	-0.187	-0.125
-554.427	88.532	-0.299	0.336
-553.412	-67.951	0.276	0.109
-552.398	-169.635	-0.231	-0.009
-551.383	-119.231	0.249	0.044
-550.369	800.000	-0.049	-0.149
-549.354	-137.777	-0.008	0.001
-548.339	800.000	0.095	0.365
-547.325	-115.568	0.303	-0.058
-546.310	0.839	0.171	0.124
-545.296	39.915	0.065	0.059
-544.281	-150.261	0.074	0.006
-543.266	800.000	-0.014	-0.053
-542.252	-146.367	-0.224	0.020
-541.237	-134.295	0.245	0.030
-540.223	-79.756	0.345	0.118
-539.208	-46.166	-0.142	-0.071
-538.193	60.567	-0.193	0.194
-537.179	25.355	-0.261	0.220
-536.164	-145.380	-0.054	-0.005
-535.150	-143.225	-0.238	-0.023
-534.135	800.000	0.088	0.358
-533.121	-62.236	-0.212	0.089
-532.106	800.000	-0.113	-0.481
-531.091	-79.762	0.263	0.090
-530.077	-88.687	0.113	0.034
-529.062	-200.000	-0.022	0.162
-528.048	-200.000	0.025	0.198
-527.033	-139.090	0.487	-0.053
-526.018	-25.163	-0.340	0.204
-525.004	-58.589	-0.319	-0.140
-523.989	69.045	0.183	0.190
-522.975	222.445	0.076	0.123
-521.960	-200.000	0.010	-0.081
-520.945	-200.000	0.016	-0.230
-519.931	-200.000	0.025	0.200
-518.916	477.357	-0.115	0.264
-517.902	105.914	-0.110	-0.132
-516.887	133.203	-0.093	0.121
-515.872	-147.990	-0.043	-0.004
-514.858	-183.063	-0.163	-0.003
-513.843	-99.568	0.026	-0.007
-512.829	117.463	0.016	-0.020
-511.814	69.652	0.148	0.154
-510.799	272.165	-0.117	-0.209
-509.785	31.288	-0.350	-0.304
-508.770	800.000	-0.024	-0.084
-507.756	234.024	-0.087	0.145
-506.741	800.000	-0.060	0.220
-505.726	-19.937	0.185	0.115
-504.712	460.953	-0.118	-0.266
-503.697	800.000	-0.046	-0.133
-502.683	-66.950	-0.250	0.100
-501.668	219.409	0.048	-0.078
-500.653	151.239	-0.086	0.118
-499.639	203.940	-0.141	-0.220
-498.624	17.600	0.182	0.146
-497.610	221.407	0.138	-0.224
-496.595	-67.048	-0.037	0.015
-495.581	35.490	-0.073	-0.064
-494.566	-193.883	-0.145	0.001
-493.551	226.697	-0.011	-0.018
-492.537	-200.000	0.005	0.030
-491.522	-49.482	0.258	-0.124
-490.508	51.222	-0.153	0.147
-489.493	800.000	-0.145	0.429
-488.478	197.629	-0.181	-0.280
-487.464	3.157	0.229	-0.168
-486.449	-39.698	0.178	0.094
-485.435	21.241	0.169	-0.139
-484.420	133.907	0.083	-0.109
-483.405	104.255	-0.071	0.084
-482.391	800.000	-0.067	0.291
-481.376	-200.000	-0.032	-0.323
-480.362	266.652	-0.109	-0.192
-479.347	46.298	0.132	-0.123
-478.332	148.641	0.177	0.242
-477.318	800.000	0.069	0.224
-476.303	15.390	0.168	-0.133
-475.289	471.137	0.107	0.242
-474.274	308.028	0.175	0.329
-473.259	-200.000	0.036	-0.273
-472.245	-85.134	-0.091	0.029
-471.230	-55.352	0.213	0.097
-470.216	-5.459	-0.075	0.052
-469.201	232.927	-0.135	-0.225
-468.186	-99.468	0.234	0.059
-467.172	-200.000	-0.024	0.170
-466.157	581.391	-0.118	0.292
-465.143	-10.282	0.279	0.187
-464.128	-156.166	0.224	-0.014
-463.113	-200.000	0.211	-0.001
-462.099	242.099	-0.026	-0.044
-461.084	172.447	-0.128	0.186
-460.070	-147.496	0.227	0.019
-459.055	-200.000	0.002	-0.091
-458.040	-37.607	0.198	0.107
-457.026	800.000	-0.074	-0.228
-456.011	224.723	0.111	-0.181
-454.997	32.535	0.299	0.261
-453.982	66.569	-0.222	0.227
-452.968	-77.358	-0.345	0.121
-451.953	-113.869	0.188	-0.037
-450.938	-200.000	-0.025	-0.224
-449.924	14.599	-0.131	-0.103
-448.909	86.732	-0.326	0.363
-447.895	127.076	-0.081	0.104
-446.880	-38.768	-0.044	-0.023
-445.865	-128.783	0.269	0.038
-444.851	-80.186	-0.479	-0.162
-443.836	-35.209	-0.121	0.066
-442.822	72.686	-0.162	-0.170
-441.807	-87.537	0.338	-0.103
-440.792	37.668	0.165	-0.148
-439.778	146.518	0.219	0.296
-438.763	64.948	0.203	0.207
-437.749	-65.403	0.290	0.118
-436.734	-70.616	0.187	0.071
-435.719	-100.453	-0.166	-0.042
-434.705	-146.599	0.244	0.021
-433.690	122.426	-0.182	0.229
-432.676	-70.869	-0.175	0.066
-431.661	-15.273	0.233	0.150
-430.646	-165.677	0.127	-0.006
-429.632	108.515	-0.170	-0.205
-428.617	800.000	-0.065	-0.229
-427.603	338.674	0.055	-0.108
-426.588	-200.000	0.077	0.354
-425.573	800.000	0.064	-0.187
-424.559	-111.995	0.069	-0.014
-423.544	40.247	-0.012	0.011
-422.530	-167.619	0.246	-0.010
-421.515	-200.000	-0.047	0.320
-420.500	800.000	0.012	0.041
-419.486	29.098	0.363	0.310
-418.471	-132.013	-0.262	0.034
-417.457	-200.000	0.017	0.141
-416.442	-81.052	0.229	0.076
-415.428	38.779	0.200	-0.180
-414.413	-200.000	-0.027	-0.197
-413.398	-0.810	0.257	-0.183
-412.384	-69.730	-0.057	-0.022
-411.369	-30.867	-0.368	0.210
-410.355	399.072	-0.180	-0.380
-409.340	-200.000	-0.003	-0.166
-408.325	213.156	-0.166	-0.264
-407.311	-200.000	-0.026	-0.213
-406.296	800.000	-0.064	-0.251
-405.282	-200.000	-0.092	-0.455
-404.267	206.842	0.078	-0.122
-403.252	106.202	-0.023	0.028
-402.238	232.940	-0.144	-0.239
-401.223	431.647	-0.015	-0.033
-400.209	-200.000	-0.051	0.239
-399.194	199.452	0.237	-0.365
-398.179	-200.000	-0.051	-0.407
-397.165	-146.104	0.101	0.009
-396.150	109.413	0.200	-0.241
-395.136	-200.000	0.088	-0.404
-394.121	-114.300	0.215	-0.042
-393.106	111.603	-0.192	0.233
-392.092	-42.810	0.224	0.115
-391.077	97.660	-0.151	0.175
-390.063	181.655	-0.087	0.128
-389.048	57.659	0.079	0.077
-388.033	21.585	-0.248	0.203
-387.019	800.000	0.065	0.216
-386.004	247.730	-0.050	0.085
-384.990	174.037	-0.206	0.300
-383.975	80.928	-0.085	-0.092
-382.960	328.711	-0.038	-0.073
-381.946	800.000	-0.022	-0.086
-380.931	100.147	-0.175	-0.204
-379.917	-200.000	0.034	0.244
-378.902	-100.284	-0.368	0.092
-377.888	42.382	-0.151	-0.138
-376.873	313.575	0.112	-0.212
-375.858	291.354	0.080	-0.147
-374.844	-200.000	0.000	-0.091
-373.829	800.000	0.109	0.335
-372.815	140.193	0.121	-0.160
-371.800	750.862	0.137	-0.370
-370.785	-95.074	0.273	0.074
-369.771	-71.136	-0.145	-0.055
-368.756	329.866	0.059	-0.114
-367.742	-200.000	-0.012	-0.165
-366.727	-44.488	0.041	0.021
-365.712	-144.453	-0.168	-0.016
-364.698	-166.846	-0.322	-0.013
-363.683	626.442	-0.172	0.437
-362.669	165.847	-0.047	0.067
-361.654	399.968	0.125	-0.263
-360.639	192.070	0.008	0.012
-359.625	13.342	0.228	-0.178
-358.610	679.837	-0.064	0.167
-357.596	800.000	-0.080	-0.276
-356.581	-200.000	0.021	-0.195
-355.566	-200.000	-0.023	0.128
-354.552	237.048	0.154	0.256
-353.537	-24.973	0.049	-0.029
-352.523	18.754	-0.022	0.018
-351.508	-41.223	-0.159	0.082
-350.493	-27.434	-0.159	0.093
-349.479	-64.979	-0.204	-0.083
-348.464	252.523	0.139	0.237
-347.450	-187.666	0.389	0.005
-346.435	99.976	0.131	-0.153
-345.420	96.902	-0.090	0.104
-344.406	-78.229	-0.041	0.014
-343.391	352.294	0.096	-0.190
-342.377	-6.772	0.148	0.101
-341.362	118.334	0.142	0.176
-340.348	-69.404	-0.107	-0.041
-339.333	23.505	-0.161	0.133
-338.318	-104.314	-0.317	0.074
-337.304	-34.376	-0.271	0.149
-336.289	-12.348	0.286	-0.188
-335.275	-10.560	0.161	0.107
-334.260	241.614	0.137	0.230
-333.245	612.773	-0.079	-0.199
-332.231	-200.000	0.051	0.317
-331.216	369.287	0.098	-0.199
-330.202	248.578	0.011	0.018
-329.187	-14.575	-0.078	-0.050
-328.172	103.058	-0.193	0.228
-327.158	-154.659	0.206	0.014
-326.143	197.994	0.217	0.333
-325.129	64.739	0.197	0.199
-324.114	800.000	0.061	0.172
-323.099	38.118	-0.149	-0.133
-322.085	-200.000	0.005	-0.276
-321.070	-200.000	-0.002	-0.036
-320.056	-200.000	-0.018	0.107
-319.041	-55.104	-0.475	-0.215
-318.026	-49.718	-0.189	-0.090
-317.012	-100.617	0.133	-0.033
-315.997	9.071	0.085	-0.064
-314.983	-95.112	-0.278	-0.075
-313.968	87.854	0.190	-0.211
-312.953	800.000	-0.024	0.069
-311.939	224.772	0.009	-0.015
-310.924	21.194	0.218	0.177
-309.910	-20.539	-0.056	-0.034
-308.895	-3.238	-0.062	-0.043
-307.880	-75.944	-0.134	-0.047
-306.866	286.443	0.040	-0.073
-305.851	131.876	-0.271	-0.350
-304.837	-121.333	0.271	0.045
-303.822	-200.000	-0.038	-0.207
-302.807	-10.138	-0.104	-0.069
-301.793	425.139	-0.144	0.312
-300.778	-67.090	0.297	-0.117
-299.764	-200.000	0.113	0.000
-298.749	-110.813	-0.276	-0.057
-297.735	687.014	0.056	0.146
-296.720	800.000	0.032	0.127
-295.705	-102.333	-0.168	0.040
-294.691	118.764	0.269	-0.334
-293.676	-200.000	0.025	-0.111
-292.662	-65.125	-0.310	0.125
-291.647	83.703	0.375	0.410
-290.632	-112.261	-0.050	-0.010
-289.618	-200.000	0.013	0.290
-288.603	108.921	0.404	0.484
-287.589	-103.497	0.137	0.032
-286.574	195.980	0.138	0.211
-285.559	58.991	-0.136	-0.134
-284.545	-200.000	0.034	-0.321
-283.530	-200.000	-0.026	0.191
-282.516	40.914	-0.156	0.141
-281.501	-68.064	-0.171	0.067
-280.486	-17.746	-0.040	-0.025
-279.472	-153.224	0.196	0.014
-278.457	-178.379	0.180	-0.004
-277.443	-55.184	-0.062	-0.028
-276.428	-49.799	-0.213	0.101
-275.413	110.380	-0.122	0.147
-274.399	-200.000	0.009	-0.257
-273.384	6.823	-0.129	-0.096
-272.370	-98.946	-0.180	-0.046
-271.355	187.945	-0.116	-0.174
-270.340	-177.427	0.346	-0.009
-269.326	-14.149	-0.349	-0.226
-268.311	800.000	0.147	-0.424
-267.297	-75.202	-0.107	0.038
-266.282	160.758	0.212	-0.296
-265.267	85.626	0.155	-0.171
-264.253	-19.381	0.172	0.107
-263.238	102.882	-0.198	-0.232
-262.224	555.145	-0.070	0.168
-261.209	800.000	0.055	-0.185
-260.195	-30.687	-0.051	0.029
-259.180	-40.734	-0.426	-0.221
-258.165	355.289	-0.062	0.123
-257.151	-96.647	0.348	0.092
-256.136	-200.000	0.007	-0.056
-255.122	85.685	-0.124	-0.137
-254.107	-120.364	0.222	-0.038
-253.092	99.486	-0.323	0.374
-252.078	-200.000	0.004	0.252
-251.063	-200.000	0.051	0.234
-250.049	-200.000	0.014	-0.102
-249.034	244.658	0.193	-0.325
-248.019	-80.027	-0.303	0.102
-247.005	91.141	-0.075	-0.084
-245.990	621.261	-0.074	0.187
-244.976	800.000	0.046	0.130
-243.961	-41.983	-0.277	-0.142
-242.946	30.278	-0.067	0.057
-241.932	-106.472	0.209	0.047
-240.917	-27.005	0.270	-0.158
-239.903	-195.945	0.068	-0.000
-238.888	-200.000	-0.046	-0.367
-237.873	800.000	0.064	-0.266
-236.859	-87.868	0.177	-0.053
-235.844	162.673	-0.101	-0.142
-234.830	-53.238	-0.277	-0.127
-233.815	31.194	0.172	-0.147
-232.800	112.421	0.109	0.132
-231.786	-200.000	0.002	-0.341
-230.771	800.000	0.019	0.075
-229.757	800.000	0.118	0.326
-228.742	377.057	0.149	0.305
-227.727	-161.239	0.602	0.031
-226.713	-56.055	-0.099	0.044
-225.698	-68.729	-0.261	0.101
-224.684	541.216	0.079	-0.188
-223.669	800.000	-0.066	-0.215
-222.655	654.309	-0.094	-0.242
-221.640	-142.238	-0.100	0.010
-220.625	171.089	0.102	-0.147
-219.611	74.718	-0.081	0.085
-218.596	728.385	-0.036	-0.097
-217.582	-14.617	0.206	0.132
-216.567	800.000	-0.136	0.585
-215.552	763.065	-0.066	0.178
-214.538	2.423	0.224	0.162
-213.523	235.186	0.033	-0.055
-212.509	43.591	-0.141	0.129
-211.494	-89.060	0.402	0.119
-210.479	-75.951	-0.344	-0.122
-209.465	-30.187	0.154	-0.087
-208.450	-28.872	-0.331	-0.190
-207.436	-200.000	-0.054	-0.302
-206.421	800.000	0.064	0.225
-205.406	141.388	-0.075	-0.099
-204.392	-117.540	0.382	-0.069
-203.377	-134.609	-0.114	0.014
-202.363	30.905	-0.263	0.225
-201.348	171.846	-0.166	0.238
-200.333	-98.889	0.430	0.109
-199.319	102.742	-0.164	0.191
-198.304	-200.000	-0.001	0.159
-197.290	-17.222	0.202	-0.127
-196.275	-116.981	-0.331	-0.060
-195.260	-200.000	0.041	0.286
-194.246	4.788	0.224	-0.164
-193.231	800.000	0.092	0.261
-192.217	-15.310	-0.140	-0.089
-191.202	-142.508	-0.113	-0.011
-190.187	9.555	0.056	0.042
-189.173	-153.354	-0.082	-0.006
-188.158	245.257	-0.146	-0.244
-187.144	800.000	0.044	0.129
-186.129	194.340	0.130	0.197
-185.114	-200.000	0.019	0.199
-184.100	-200.000	-0.053	-0.242
-183.085	-135.076	-0.184	-0.022
-182.071	-51.384	0.072	-0.034
-181.056	-200.000	-0.021	-0.255
-180.042	-121.677	0.457	0.075
-179.027	17.281	0.133	0.105
-178.012	429.265	0.038	0.082
-176.998	72.111	0.200	-0.208
-175.983	404.518	-0.052	-0.109
-174.969	800.000	-0.039	0.130
-173.954	7.913	0.103	-0.077
-172.939	-185.032	0.149	0.002
-171.925	516.659	-0.067	-0.155
-170.910	-64.249	-0.209	-0.085
-169.896	398.692	-0.156	-0.326
-168.881	-130.557	0.262	-0.035
-167.866	196.277	0.107	0.163
-166.852	-200.000	-0.030	-0.210
-165.837	800.000	-0.026	0.077
-164.823	-200.000	-0.034	-0.193
-163.808	-25.171	0.217	-0.128
-162.793	-130.486	0.167	0.023
-161.779	-160.978	0.334	-0.017
-160.764	31.558	-0.161	0.138
-159.750	121.063	-0.129	-0.160
-158.735	65.835	-0.154	0.156
-157.720	800.000	-0.022	-0.085
-156.706	-139.040	0.105	-0.011
-155.691	-34.463	0.219	0.120
-154.677	-141.843	-0.466	-0.047
-153.662	-200.000	0.018	0.250
-152.647	122.336	-0.078	0.097
-151.633	800.000	-0.076	0.224
-150.618	800.000	0.096	0.288
-149.604	-37.546	-0.195	0.103
-148.589	342.976	-0.184	-0.360
-147.574	491.424	0.073	0.166
-146.560	23.468	0.153	0.125
-145.545	-142.262	-0.189	0.019
-144.531	5.687	0.079	-0.059
-143.516	386.232	-0.095	-0.196
-142.502	-195.825	-0.089	-0.001
-141.487	-183.054	0.275	-0.005
-140.472	692.553	0.045	0.117
-139.458	800.000	-0.010	0.034
-138.443	65.525	0.271	0.273
-137.429	-40.859	-0.237	-0.122
-136.414	800.000	-0.054	-0.180
-135.399	213.287	-0.298	-0.469
-134.385	-200.000	-0.037	-0.168
-133.370	273.800	0.088	0.155
-132.356	800.000	0.039	-0.155
-131.341	-200.000	0.025	-0.113
-130.326	153.579	0.232	0.317
-129.312	416.553	-0.177	0.376
-128.297	-79.878	-0.084	0.028
-127.283	-200.000	0.038	-0.224
-126.268	81.589	0.085	-0.091
-125.253	-60.169	0.533	-0.226
-124.239	-146.784	-0.141	0.012
-123.224	-174.153	0.347	-0.010
-122.210	-200.000	0.010	-0.187
