DTS Sentinel unit serial number:	SN413079Multiplexer serial number:	ORYXHardware model number:	OX4-SRSoftware version number:	ORYX F/W v4.00 Oryx Data Collector v3.7.2.0data status	okinstallation	princeton_trtdifferential loss correction	single-endedforward channel	channel 3reverse channel	N/Adate	2019/09/14time	09:04:35forward acquisition time	60.00reverse acquisition time	0.00gamma	496.2192k internal	0.2324k external	0.2324temperature offset calibration	1.0053default loss term (dB/km)	0.3790temperature slope calibration	1.0000multiplexer offset coefficient	1.0000multiplexer slope coefficient	1.0000fibre end	0.00T internal ref (°C)	30.14T ext. ref 1 (°C)	3.76T ext. ref 2 (°C)	28.58length (m)	temperature (°C)	Stokes	anti-Stokes-747.200	-54.161	0.082	-0.037
-746.185	428.686	0.053	0.116
-745.171	50.102	0.122	-0.116
-744.156	80.185	-0.144	0.156
-743.142	-1.905	0.298	-0.212
-742.127	90.642	-0.231	0.261
-741.112	-57.587	0.242	-0.107
-740.098	-200.000	-0.092	0.633
-739.083	69.508	0.096	-0.099
-738.069	-7.926	-0.128	-0.087
-737.054	800.000	-0.028	0.119
-736.039	-129.461	-0.134	0.019
-735.025	-200.000	-0.082	0.408
-734.010	800.000	0.037	0.105
-732.996	-145.667	0.113	0.010
-731.981	42.825	0.075	0.069
-730.966	800.000	0.018	0.052
-729.952	689.324	0.029	-0.077
-728.937	800.000	-0.105	-0.423
-727.923	-23.084	0.124	0.076
-726.908	182.564	-0.293	0.436
-725.894	-140.779	-0.394	-0.041
-724.879	-1.637	0.257	0.183
-723.864	115.710	0.139	-0.171
-722.850	-51.307	0.197	-0.093
-721.835	-87.275	0.388	0.119
-720.821	-172.007	0.179	0.006
-719.806	125.128	0.096	-0.122
-718.791	-200.000	0.000	-0.268
-717.777	-1.987	0.302	-0.214
-716.762	800.000	0.058	0.255
-715.748	285.713	0.074	0.135
-714.733	-47.804	-0.176	-0.086
-713.718	-64.020	0.216	0.089
-712.704	-200.000	-0.087	-0.484
-711.689	573.303	-0.118	-0.289
-710.675	-134.908	0.312	0.038
-709.660	-200.000	-0.043	0.316
-708.645	800.000	-0.053	0.175
-707.631	-169.792	0.193	0.007
-706.616	-200.000	0.032	-0.280
-705.602	-77.966	-0.157	-0.055
-704.587	-136.771	-0.155	-0.018
-703.572	-200.000	0.010	-0.057
-702.558	-195.969	-0.488	-0.003
-701.543	-124.702	0.318	0.050
-700.529	23.184	0.069	0.057
-699.514	-200.000	0.000	-0.053
-698.499	-17.924	0.248	-0.157
-697.485	16.937	0.139	0.111
-696.470	-32.778	0.287	0.161
-695.456	40.373	0.141	-0.128
-694.441	141.348	0.058	0.077
-693.426	-31.843	0.179	-0.101
-692.412	329.558	-0.218	-0.423
-691.397	-154.653	0.057	-0.004
-690.383	399.002	0.111	-0.234
-689.368	340.730	0.047	-0.092
-688.354	-122.381	0.095	-0.016
-687.339	140.659	-0.065	-0.086
-686.324	116.313	-0.222	0.274
-685.310	-36.054	0.188	-0.102
-684.295	-200.000	0.005	-0.145
-683.281	-86.903	-0.188	0.058
-682.266	75.386	0.029	-0.031
-681.251	-7.448	0.153	-0.105
-680.237	-169.186	-0.530	-0.020
-679.222	800.000	-0.064	-0.196
-678.208	-200.000	0.014	-0.325
-677.193	-167.592	0.376	-0.015
-676.178	116.249	-0.231	-0.285
-675.164	-44.946	0.315	-0.158
-674.149	101.236	-0.113	0.133
-673.135	108.948	0.117	0.141
-672.120	-200.000	0.027	0.252
-671.105	398.833	-0.043	0.091
-670.091	-200.000	-0.036	-0.174
-669.076	-98.253	0.113	-0.029
-668.062	-48.182	-0.199	0.097
-667.047	-81.941	-0.235	-0.078
-666.032	-48.659	-0.112	0.054
-665.018	-25.361	0.148	0.088
-664.003	-194.851	-0.370	-0.003
-662.989	9.602	0.281	-0.214
-661.974	203.305	-0.132	-0.206
-660.959	-200.000	0.002	-0.336
-659.945	-75.224	0.278	0.100
-658.930	-30.133	-0.196	-0.112
-657.916	800.000	0.062	-0.198
-656.901	-38.013	0.372	-0.199
-655.886	244.085	0.107	0.180
-654.872	251.785	0.108	-0.184
-653.857	26.453	-0.096	0.080
-652.843	-4.513	-0.202	-0.141
-651.828	675.067	0.146	-0.382
-650.814	302.488	-0.254	-0.472
-649.799	-142.165	-0.262	0.026
-648.784	27.751	-0.019	-0.016
-647.770	-161.367	0.033	-0.002
-646.755	-107.368	0.414	0.091
-645.741	104.627	-0.262	-0.310
-644.726	234.858	0.264	0.438
-643.711	229.905	0.090	0.148
-642.697	-200.000	-0.012	0.069
-641.682	-192.719	-0.121	0.001
-640.668	-21.422	0.307	-0.188
-639.653	76.372	-0.295	-0.314
-638.638	-82.604	0.297	0.097
-637.624	210.779	-0.072	0.113
-636.609	-12.222	-0.153	-0.101
-635.595	150.975	0.110	-0.150
-634.580	800.000	-0.117	-0.330
-633.565	-106.618	0.431	0.096
-632.551	-151.454	-0.432	-0.032
-631.536	800.000	-0.076	-0.274
-630.522	-200.000	-0.009	-0.291
-629.507	-200.000	0.010	0.119
-628.492	47.415	-0.471	0.442
-627.478	148.673	-0.038	-0.051
-626.463	-42.108	-0.118	-0.061
-625.449	237.652	0.141	0.236
-624.434	-98.294	0.187	0.048
-623.419	-62.634	0.374	-0.156
-622.405	258.209	-0.166	0.288
-621.390	-200.000	-0.040	0.402
-620.376	589.648	0.041	0.101
-619.361	-100.611	0.319	-0.079
-618.346	800.000	0.060	0.244
-617.332	-42.128	0.042	-0.022
-616.317	-200.000	0.017	0.152
-615.303	-62.095	-0.368	-0.154
-614.288	-200.000	0.032	0.152
-613.273	500.324	0.171	-0.396
-612.259	185.855	-0.064	0.095
-611.244	-200.000	-0.047	-0.429
-610.230	-25.457	0.133	-0.079
-609.215	-120.830	-0.139	-0.023
-608.201	304.300	0.050	0.093
-607.186	41.615	0.140	0.127
-606.171	-191.801	-0.175	-0.002
-605.157	-12.631	-0.331	-0.217
-604.142	598.737	-0.153	-0.380
-603.128	800.000	-0.058	-0.223
-602.113	-200.000	-0.000	0.039
-601.098	-200.000	0.005	-0.126
-600.084	-200.000	0.021	-0.296
-599.069	800.000	-0.066	0.266
-598.055	-200.000	-0.030	-0.205
-597.040	259.395	0.033	-0.057
-596.025	-200.000	0.008	-0.063
-595.011	-65.508	-0.232	0.093
-593.996	-96.642	0.055	0.014
-592.982	70.115	0.166	-0.172
-591.967	-200.000	-0.009	-0.209
-590.952	-158.855	-0.294	0.017
-589.938	-81.889	-0.140	0.046
-588.923	-57.007	-0.081	0.036
-587.909	341.924	-0.061	0.120
-586.894	800.000	-0.031	0.122
-585.879	800.000	0.063	-0.200
-584.865	-68.487	0.185	-0.072
-583.850	223.833	-0.190	-0.308
-582.836	586.805	0.036	0.089
-581.821	-200.000	-0.020	-0.213
-580.806	-152.949	-0.200	-0.014
-579.792	175.420	-0.052	0.075
-578.777	-8.900	-0.396	-0.266
-577.763	80.212	0.083	0.089
-576.748	800.000	0.044	0.187
-575.733	-101.280	-0.462	-0.113
-574.719	-164.870	0.147	-0.007
-573.704	-200.000	0.091	0.494
-572.690	800.000	0.045	0.151
-571.675	49.042	0.084	0.079
-570.661	-200.000	0.024	0.280
-569.646	-77.939	0.123	-0.042
-568.631	165.419	0.026	0.037
-567.617	3.677	0.080	-0.058
-566.602	498.146	0.123	-0.283
-565.588	188.741	0.299	-0.449
-564.573	22.911	-0.257	-0.211
-563.558	-175.700	-0.353	0.010
-562.544	-200.000	0.025	0.182
-561.529	-47.696	0.310	-0.151
-560.515	-77.792	-0.153	-0.053
-559.500	126.004	0.124	-0.157
-558.485	-98.704	0.450	-0.115
-557.471	693.946	0.062	0.164
-556.456	-122.178	-0.103	0.017
-555.442	800.000	0.026	-0.087
-554.427	63.041	-0.149	-0.149
-553.412	-140.575	0.285	-0.030
-552.398	-200.000	0.032	0.209
-551.383	800.000	-0.016	0.053
-550.369	343.808	-0.076	0.149
-549.354	-65.537	-0.360	0.145
-548.339	-132.724	-0.248	0.032
-547.325	-165.769	0.272	0.012
-546.310	-175.322	0.175	0.005
-545.296	-36.903	0.267	-0.144
-544.281	4.603	-0.298	-0.219
-543.266	286.574	-0.145	-0.262
-542.252	-114.447	-0.572	-0.110
-541.237	800.000	0.034	-0.113
-540.223	53.024	-0.313	-0.300
-539.208	-200.000	-0.009	-0.045
-538.193	800.000	-0.075	0.280
-537.179	-154.430	-0.251	-0.017
-536.164	-12.370	0.120	-0.079
-535.150	343.431	0.062	0.121
-534.135	800.000	0.055	0.227
-533.121	655.063	0.072	0.185
-532.106	420.729	0.082	0.175
-531.091	-80.547	0.164	-0.055
-530.077	275.639	-0.079	-0.140
-529.062	-73.648	0.159	0.058
-528.048	-69.917	-0.221	0.084
-527.033	436.648	0.120	-0.261
-526.018	-200.000	-0.039	-0.289
-525.004	-97.521	-0.220	0.057
-523.989	800.000	0.043	0.137
-522.975	-150.340	0.476	-0.037
-521.960	-62.919	-0.090	-0.037
-520.945	800.000	0.051	0.167
-519.931	-200.000	0.029	-0.223
-518.916	144.740	-0.151	-0.202
-517.902	-62.891	0.239	0.099
-516.887	240.560	0.152	0.253
-515.872	91.873	-0.225	0.253
-514.858	-14.144	0.182	-0.117
-513.843	37.548	0.063	-0.056
-512.829	-56.267	0.329	-0.146
-511.814	-200.000	-0.052	-0.265
-510.799	-200.000	-0.033	0.335
-509.785	-200.000	-0.019	0.213
-508.770	358.422	-0.035	0.071
-507.756	587.983	-0.055	0.136
-506.741	-200.000	-0.043	0.270
-505.726	657.908	-0.021	0.055
-504.712	-200.000	0.038	-0.217
-503.697	800.000	0.022	0.071
-502.683	800.000	0.028	0.119
-501.668	8.353	-0.113	0.085
-500.653	12.827	-0.120	-0.093
-499.639	-67.404	-0.180	-0.071
-498.624	782.634	-0.038	0.103
-497.610	-40.284	-0.390	0.203
-496.595	800.000	0.016	0.059
-495.581	-77.836	0.135	0.046
-494.566	-158.637	-0.180	-0.010
-493.551	-182.853	0.326	0.006
-492.537	-111.876	-0.087	0.018
-491.522	19.964	-0.198	0.160
-490.508	34.689	-0.075	0.065
-489.493	-200.000	0.034	0.346
-488.478	-88.262	-0.050	-0.015
-487.464	800.000	0.071	-0.250
-486.449	-200.000	0.063	0.480
-485.435	-129.153	0.405	-0.057
-484.420	85.435	0.113	0.124
-483.405	-90.092	-0.293	0.085
-482.391	800.000	0.031	0.131
-481.376	-200.000	0.028	0.135
-480.362	-10.028	-0.153	-0.102
-479.347	-164.725	-0.196	0.009
-478.332	800.000	-0.037	0.154
-477.318	-121.654	0.132	-0.022
-476.303	-5.716	-0.161	-0.110
-475.289	528.908	0.136	-0.322
-474.274	195.559	0.109	-0.165
-473.259	0.284	0.086	0.061
-472.245	567.804	0.075	0.182
-471.230	-131.196	0.216	0.029
-470.216	295.579	-0.124	-0.227
-469.201	50.093	-0.159	-0.150
-468.186	30.723	0.248	-0.212
-467.172	-108.938	0.166	0.035
-466.157	12.637	-0.137	-0.105
-465.143	-200.000	0.025	0.207
-464.128	-200.000	-0.013	0.076
-463.113	-183.402	-0.278	0.005
-462.099	72.646	-0.112	0.116
-461.084	-133.130	-0.097	0.012
-460.070	-200.000	0.042	0.347
-459.055	-200.000	0.085	0.377
-458.040	-113.408	-0.137	0.027
-457.026	-200.000	0.042	-0.367
-456.011	195.311	-0.065	-0.099
-454.997	-200.000	-0.017	-0.097
-453.982	151.884	-0.099	-0.135
-452.968	-130.789	0.269	-0.036
-451.953	33.513	0.186	-0.161
-450.938	-97.787	0.012	-0.003
-449.924	-68.024	0.139	0.054
-448.909	-130.662	-0.456	-0.061
-447.895	-11.416	-0.054	-0.035
-446.880	130.491	0.221	-0.283
-445.865	-108.076	0.113	-0.024
-444.851	-200.000	0.033	-0.285
-443.836	-23.632	0.256	-0.153
-442.822	-71.617	0.101	-0.038
-441.807	84.762	-0.106	0.116
-440.792	21.442	-0.080	0.065
-439.778	-138.883	0.281	-0.031
-438.763	-75.479	-0.317	0.113
-437.749	-53.680	0.051	0.023
-436.734	800.000	0.082	-0.262
-435.719	-200.000	0.072	0.416
-434.705	-51.295	-0.170	-0.079
-433.690	41.236	-0.100	0.091
-432.676	61.950	0.262	-0.260
-431.661	95.898	-0.020	-0.023
-430.646	800.000	0.025	-0.080
-429.632	237.320	-0.020	-0.033
-428.617	33.638	-0.093	-0.081
-427.603	800.000	-0.023	-0.068
-426.588	768.753	0.058	0.157
-425.573	-28.291	-0.203	0.117
-424.559	614.933	0.069	0.171
-423.544	-112.630	0.193	-0.038
-422.530	-62.050	0.070	0.029
-421.515	42.719	-0.132	-0.120
-420.500	128.536	-0.157	-0.199
-419.486	45.896	-0.565	0.521
-418.471	244.878	-0.103	0.173
-417.457	-127.958	0.074	0.011
-416.442	-88.536	-0.088	0.026
-415.428	-104.855	0.209	0.048
-414.413	-3.571	-0.249	0.173
-413.398	-108.916	-0.194	0.041
-412.384	299.155	0.194	0.355
-411.369	149.391	-0.147	-0.198
-410.355	21.142	-0.129	0.104
-409.340	105.849	0.108	-0.128
-408.325	284.119	0.122	-0.218
-407.311	-200.000	0.057	0.384
-406.296	-200.000	-0.007	-0.090
-405.282	-200.000	0.027	-0.399
-404.267	665.945	0.002	0.004
-403.252	-145.750	-0.202	-0.018
-402.238	165.700	0.204	-0.287
-401.223	72.549	0.203	0.211
-400.209	-82.588	0.098	-0.032
-399.194	800.000	-0.077	0.224
-398.179	0.618	0.263	0.188
-397.165	231.438	-0.076	0.123
-396.150	-110.017	0.263	-0.055
-395.136	-0.619	-0.276	-0.195
-394.121	58.200	0.133	0.130
-393.106	-200.000	-0.026	-0.498
-392.092	-95.604	-0.082	-0.022
-391.077	-112.546	0.093	0.018
-390.063	108.740	0.158	0.188
-389.048	54.692	-0.315	-0.302
-388.033	100.472	0.054	0.062
-387.019	0.771	0.365	-0.260
-386.004	218.974	-0.231	-0.368
-384.990	184.667	-0.080	-0.118
-383.975	545.200	-0.085	-0.203
-382.960	-200.000	0.024	0.160
-381.946	572.679	-0.048	0.117
-380.931	3.718	-0.260	-0.189
-379.917	108.412	-0.131	-0.155
-378.902	-47.610	-0.063	0.030
-377.888	-200.000	-0.049	-0.411
-376.873	63.034	0.233	-0.232
-375.858	-18.408	-0.233	0.145
-374.844	-54.146	-0.111	0.050
-373.829	-96.323	0.193	0.051
-372.815	774.444	-0.026	0.071
-371.800	35.651	0.174	0.152
-370.785	146.591	-0.170	0.227
-369.771	24.869	0.071	-0.058
-368.756	-46.934	-0.217	-0.105
-367.742	363.608	-0.093	0.186
-366.727	800.000	-0.105	0.343
-365.712	44.394	-0.102	-0.093
-364.698	-119.985	-0.323	0.055
-363.683	800.000	0.037	0.118
-362.669	178.267	0.178	0.258
-361.654	-10.482	0.258	0.170
-360.639	244.893	-0.122	-0.204
-359.625	-57.828	0.199	0.087
-358.610	55.483	0.190	0.182
-357.596	-125.648	-0.055	-0.008
-356.581	194.242	0.047	0.071
-355.566	51.318	0.015	0.014
-354.552	800.000	-0.046	-0.148
-353.537	182.811	0.073	0.107
-352.523	81.570	0.014	0.015
-351.508	56.331	0.055	-0.053
-350.493	800.000	0.018	0.060
-349.479	80.351	-0.223	-0.239
-348.464	147.042	0.138	0.185
-347.450	-11.938	-0.234	0.153
-346.435	-200.000	-0.036	-0.170
-345.420	367.638	-0.051	-0.103
-344.406	487.487	0.246	-0.558
-343.391	15.306	0.095	-0.074
-342.377	162.076	-0.332	-0.462
-341.362	388.157	-0.036	-0.074
-340.348	-136.057	0.264	0.031
-339.333	-200.000	-0.065	0.317
-338.318	-170.748	0.253	0.009
-337.304	159.788	0.082	0.114
-336.289	800.000	0.063	0.204
-335.275	15.091	0.067	0.052
-334.260	-153.765	0.188	0.013
-333.245	-74.682	0.102	-0.036
-332.231	-200.000	-0.052	-0.356
-331.216	68.401	0.257	0.262
-330.202	-33.823	0.100	0.054
-329.187	283.211	0.101	-0.180
-328.172	-158.091	-0.159	0.009
-327.158	-200.000	-0.017	-0.108
-326.143	-200.000	-0.009	-0.259
-325.129	-180.166	0.074	-0.002
-324.114	39.067	0.224	-0.199
-323.099	-98.329	-0.312	-0.079
-322.085	7.883	0.331	-0.246
-321.070	133.217	-0.008	-0.010
-320.056	-90.730	0.293	-0.084
-319.041	325.325	0.096	0.182
-318.026	-200.000	0.030	-0.331
-317.012	33.641	0.062	-0.054
-315.997	-181.253	0.033	0.001
-314.983	-8.461	-0.151	0.101
-313.968	382.146	0.043	-0.087
-312.953	800.000	-0.060	0.227
-311.939	147.007	0.074	0.099
-310.924	-79.042	-0.416	-0.140
-309.910	-200.000	0.055	-0.326
-308.895	200.968	0.112	-0.170
-307.880	-143.261	0.053	0.005
-306.866	163.876	0.096	-0.134
-305.851	-103.748	0.068	-0.016
-304.837	448.270	0.059	0.128
-303.822	-158.863	0.259	-0.015
-302.807	-48.564	0.198	0.095
-301.793	-96.044	0.319	-0.084
-300.778	-63.763	0.221	-0.090
-299.764	800.000	0.055	-0.214
-298.749	168.226	-0.195	0.276
-297.735	800.000	0.149	-0.472
-296.720	800.000	0.063	0.172
-295.705	-57.631	0.269	0.117
-294.691	800.000	-0.035	-0.119
-293.676	-6.347	-0.095	-0.064
-292.662	800.000	0.062	0.213
-291.647	294.829	0.254	0.461
-290.632	800.000	0.058	-0.230
-289.618	-35.177	0.334	0.180
-288.603	800.000	0.052	-0.192
-287.589	-90.198	0.213	-0.061
-286.574	-130.288	-0.178	0.024
-285.559	-167.127	-0.082	0.003
-284.545	-200.000	-0.004	0.211
-283.530	118.037	0.101	-0.124
-282.516	-48.076	-0.281	-0.134
-281.501	136.141	-0.083	0.107
-280.486	-200.000	0.036	-0.442
-279.472	237.480	-0.176	-0.290
-278.457	154.916	-0.289	0.394
-277.443	-200.000	0.027	0.190
-276.428	307.910	0.157	-0.290
-275.413	173.558	-0.128	-0.183
-274.399	176.086	0.221	-0.318
-273.384	26.145	0.043	-0.036
-272.370	204.681	-0.212	0.325
-271.355	83.601	-0.049	-0.053
-270.340	264.365	-0.061	0.105
-269.326	44.633	-0.199	0.182
-268.311	-200.000	0.014	0.119
-267.297	-38.911	-0.123	-0.064
-266.282	123.254	-0.221	-0.275
-265.267	-103.502	0.082	0.019
-264.253	-200.000	0.005	0.166
-263.238	-41.409	0.188	0.096
-262.224	800.000	-0.076	0.243
-261.209	-33.003	-0.053	0.029
-260.195	-100.096	-0.274	-0.068
-259.180	-200.000	0.026	0.280
-258.165	266.728	-0.103	0.178
-257.151	-45.100	0.145	0.071
-256.136	177.178	0.226	-0.326
-255.122	-18.368	-0.186	-0.115
-254.107	-200.000	-0.043	-0.341
-253.092	242.084	0.137	0.226
-252.078	-200.000	0.019	-0.127
-251.063	80.656	-0.124	0.133
-250.049	800.000	0.045	-0.138
-249.034	-200.000	0.050	-0.381
-248.019	-200.000	0.092	0.404
-247.005	136.606	-0.160	-0.207
-245.990	-131.596	-0.174	0.023
-244.976	424.174	-0.093	0.199
-243.961	42.946	0.327	0.295
-242.946	633.004	0.077	-0.193
-241.932	-111.886	0.161	0.032
-240.917	-170.439	-0.156	0.005
-239.903	8.253	0.217	0.162
-238.888	-138.116	0.101	-0.011
-237.873	-4.495	-0.251	-0.171
-236.859	76.983	-0.040	-0.042
-235.844	-58.596	0.112	0.048
-234.830	-200.000	0.059	0.304
-233.815	189.990	0.141	0.210
-232.800	263.446	-0.099	-0.170
-231.786	601.560	0.127	-0.311
-230.771	439.198	-0.039	0.085
-229.757	800.000	0.085	0.339
-228.742	146.479	-0.225	0.299
-227.727	-200.000	0.054	0.246
-226.713	115.490	-0.039	0.048
-225.698	195.755	-0.137	-0.206
-224.684	-104.579	-0.179	0.041
-223.669	118.277	0.120	-0.146
-222.655	-200.000	-0.038	-0.171
-221.640	-54.996	0.417	-0.186
-220.625	-200.000	-0.024	0.329
-219.611	498.562	0.067	0.153
-218.596	-47.750	-0.067	-0.032
-217.582	91.845	0.253	0.282
-216.567	125.667	-0.065	0.081
-215.552	270.820	-0.017	-0.030
-214.538	-38.860	-0.510	-0.266
-213.523	2.633	0.457	-0.327
-212.509	254.995	0.087	0.147
-211.494	-112.004	-0.400	0.080
-210.479	-200.000	-0.013	-0.168
-209.465	254.275	0.105	0.177
-208.450	-157.882	-0.323	0.019
-207.436	135.481	-0.095	0.122
-206.421	331.272	-0.137	-0.262
-205.406	88.926	0.078	0.086
-204.392	-67.550	-0.265	-0.103
-203.377	658.506	0.045	0.114
-202.363	323.168	-0.132	0.248
-201.348	-85.590	0.131	-0.040
-200.333	-170.422	0.144	-0.005
-199.319	-43.664	-0.245	0.122
-198.304	-26.556	-0.173	0.100
-197.290	-142.975	0.272	-0.026
-196.275	151.158	0.074	-0.099
-195.260	800.000	-0.090	-0.260
-194.246	76.311	0.113	-0.119
-193.231	313.619	0.095	0.176
-192.217	-200.000	0.038	0.399
-191.202	-200.000	-0.047	0.236
-190.187	-84.556	-0.212	0.066
-189.173	-200.000	-0.027	0.142
-188.158	57.888	0.369	0.357
-187.144	-140.648	-0.249	0.025
-186.129	53.704	-0.320	0.304
-185.114	-200.000	-0.006	0.388
-184.100	158.689	-0.095	0.130
-183.085	177.430	0.177	-0.255
-182.071	-33.960	-0.447	0.243
-181.056	-200.000	-0.034	0.196
-180.042	-33.730	0.283	-0.154
-179.027	800.000	-0.053	0.156
-178.012	76.766	0.162	0.170
-176.998	-99.962	0.295	0.073
-175.983	-38.870	-0.120	0.062
-174.969	134.637	0.107	-0.137
-173.954	800.000	-0.108	0.384
-172.939	800.000	0.112	-0.306
-171.925	-54.743	0.334	0.149
-170.910	-116.261	-0.326	0.060
-169.896	45.276	-0.024	0.022
-168.881	67.537	0.232	0.234
-167.866	-159.128	-0.049	0.003
-166.852	-92.612	-0.268	-0.074
-165.837	-186.724	-0.338	-0.005
-164.823	222.691	0.197	-0.312
-163.808	138.468	0.151	-0.196
-162.793	125.573	-0.092	-0.115
-161.779	699.737	-0.069	0.178
-160.764	-200.000	-0.010	-0.069
-159.750	4.310	-0.098	-0.071
-158.735	-45.613	0.292	0.143
-157.720	800.000	-0.152	-0.449
-156.706	58.744	-0.036	0.034
-155.691	-13.541	-0.160	0.102
-154.677	183.740	0.046	-0.067
-153.662	-120.194	0.077	-0.013
-152.647	-118.549	0.357	0.062
-151.633	-200.000	0.052	0.352
-150.618	-58.215	0.315	-0.135
-149.604	119.897	-0.097	0.119
-148.589	-51.648	0.150	-0.069
-147.574	483.450	0.026	-0.058
-146.560	800.000	-0.032	0.123
-145.545	-115.270	-0.086	0.016
-144.531	-54.714	-0.086	0.038
-143.516	-61.940	0.046	-0.019
-142.502	182.948	-0.192	0.279
-141.487	99.955	-0.091	-0.104
-140.472	-36.338	0.534	-0.284
-139.458	-57.174	-0.225	0.097
-138.443	85.607	0.095	0.103
-137.429	-170.664	0.073	-0.002
-136.414	86.261	-0.127	-0.138
-135.399	-200.000	0.017	0.080
-134.385	738.954	-0.064	0.169
-133.370	-60.829	0.269	-0.112
-132.356	491.418	0.134	-0.303
-131.341	-25.733	-0.277	-0.161
-130.326	-200.000	-0.032	0.319
-129.312	113.466	0.170	-0.204
-128.297	17.590	0.038	-0.030
-127.283	-200.000	0.065	-0.294
-126.268	-200.000	-0.004	-0.024
-125.253	-200.000	-0.009	0.229
-124.239	-106.462	0.185	0.041
-123.224	75.598	0.180	0.187
-122.210	-31.901	0.320	0.176
-121.195	-65.613	0.189	-0.075
-120.180	-200.000	-0.023	0.159
