DTS Sentinel unit serial number:	SN413079Multiplexer serial number:	ORYXHardware model number:	OX4-SRSoftware version number:	ORYX F/W v4.00 Oryx Data Collector v3.7.2.0data status	okinstallation	princeton_trtdifferential loss correction	single-endedforward channel	channel 3reverse channel	N/Adate	2019/09/16time	06:28:35forward acquisition time	60.00reverse acquisition time	0.00gamma	496.2192k internal	0.2334k external	0.2334temperature offset calibration	0.9957default loss term (dB/km)	0.3790temperature slope calibration	1.0000multiplexer offset coefficient	1.0000multiplexer slope coefficient	1.0000fibre end	0.00T internal ref (°C)	27.37T ext. ref 1 (°C)	11.37T ext. ref 2 (°C)	21.73length (m)	temperature (°C)	Stokes	anti-Stokes-747.200	-111.739	0.246	-0.050
-746.185	373.347	-0.231	0.472
-745.171	-200.000	0.027	0.325
-744.156	-200.000	0.002	0.204
-743.142	-135.799	0.286	0.034
-742.127	800.000	-0.023	0.073
-741.112	52.916	-0.231	0.222
-740.098	211.724	-0.411	0.650
-739.083	94.987	0.198	0.226
-738.069	32.886	-0.319	0.277
-737.054	-13.405	0.102	-0.067
-736.039	-200.000	0.019	0.419
-735.025	476.355	0.095	0.215
-734.010	129.613	-0.028	-0.035
-732.996	112.148	-0.269	-0.326
-731.981	800.000	-0.053	-0.224
-730.966	-200.000	0.032	-0.171
-729.952	-59.993	-0.271	0.116
-728.937	-32.495	0.183	-0.102
-727.923	232.662	-0.085	-0.140
-726.908	-28.785	-0.259	-0.150
-725.894	-200.000	-0.007	0.097
-724.879	-4.656	0.315	-0.219
-723.864	69.486	0.059	-0.061
-722.850	35.839	-0.175	-0.155
-721.835	490.498	-0.087	-0.199
-720.821	-103.160	-0.335	-0.080
-719.806	-156.853	-0.421	-0.026
-718.791	-200.000	-0.028	0.171
-717.777	30.061	-0.079	0.067
-716.762	311.170	0.064	-0.121
-715.748	315.867	-0.065	-0.123
-714.733	143.858	-0.297	-0.397
-713.718	-200.000	-0.001	-0.054
-712.704	55.007	0.095	-0.092
-711.689	-39.519	-0.059	0.031
-710.675	42.794	-0.376	-0.344
-709.660	800.000	-0.012	-0.042
-708.645	35.567	0.188	-0.166
-707.631	-200.000	0.008	-0.135
-706.616	94.363	-0.078	0.089
-705.602	-65.914	0.383	0.154
-704.587	-200.000	0.035	-0.163
-703.572	335.872	-0.121	0.235
-702.558	-75.114	0.098	0.035
-701.543	7.132	-0.319	-0.239
-700.529	-124.621	0.130	0.020
-699.514	-200.000	-0.017	0.115
-698.499	-44.074	0.280	0.141
-697.485	299.952	0.026	-0.048
-696.470	-108.836	-0.067	-0.014
-695.456	42.352	-0.110	0.100
-694.441	-174.097	-0.278	-0.008
-693.426	-200.000	0.006	0.039
-692.412	-200.000	0.040	0.281
-691.397	5.736	-0.137	-0.102
-690.383	800.000	-0.156	0.649
-689.368	576.398	-0.118	0.289
-688.354	131.130	-0.148	-0.191
-687.339	131.275	-0.088	0.113
-686.324	800.000	-0.110	-0.334
-685.310	23.393	0.309	0.255
-684.295	-94.443	-0.120	-0.033
-683.281	-30.981	-0.240	0.136
-682.266	355.639	0.135	0.270
-681.251	-47.712	-0.265	0.129
-680.237	-55.581	0.170	0.076
-679.222	-59.353	-0.212	0.091
-678.208	11.472	-0.148	0.114
-677.193	-200.000	0.004	0.327
-676.178	-90.736	0.306	0.088
-675.164	414.522	-0.133	-0.285
-674.149	-16.609	-0.102	0.065
-673.135	711.031	0.042	0.112
-672.120	94.276	0.128	-0.145
-671.105	-62.000	-0.165	0.069
-670.091	288.199	-0.134	0.243
-669.076	-166.868	-0.119	-0.005
-668.062	-200.000	0.041	-0.289
-667.047	-140.625	-0.114	0.012
-666.032	-160.194	-0.025	-0.001
-665.018	88.393	0.152	0.169
-664.003	-168.382	-0.300	0.012
-662.989	-151.042	0.377	0.028
-661.974	-164.972	-0.511	-0.023
-660.959	714.123	0.066	0.175
-659.945	70.944	-0.160	-0.166
-658.930	-117.439	0.219	0.040
-657.916	-82.223	-0.094	0.031
-656.901	-173.516	-0.437	0.013
-655.886	-93.733	0.125	0.035
-654.872	-32.128	0.306	0.171
-653.857	-11.591	-0.178	-0.117
-652.843	800.000	-0.127	-0.452
-651.828	-200.000	0.046	-0.517
-650.814	-200.000	-0.020	-0.247
-649.799	-120.435	0.140	0.024
-648.784	-200.000	0.008	-0.311
-647.770	217.421	0.108	-0.173
-646.755	-64.896	-0.044	-0.018
-645.741	-57.788	-0.238	0.104
-644.726	47.682	-0.127	0.119
-643.711	210.689	-0.210	-0.330
-642.697	-200.000	0.016	0.155
-641.682	-200.000	0.008	-0.350
-640.668	-200.000	-0.041	-0.225
-639.653	754.850	-0.102	-0.275
-638.638	170.464	-0.017	-0.024
-637.624	800.000	-0.097	-0.399
-636.609	177.643	0.074	0.108
-635.595	-200.000	0.002	0.283
-634.580	-133.849	-0.231	0.029
-633.565	19.572	0.158	-0.127
-632.551	32.032	-0.265	-0.229
-631.536	-200.000	-0.502	-0.002
-630.522	11.830	-0.080	0.061
-629.507	-200.000	-0.026	0.350
-628.492	367.671	-0.112	-0.226
-627.478	103.502	0.098	-0.115
-626.463	-104.179	0.094	0.022
-625.449	-105.001	0.202	-0.046
-624.434	149.791	-0.161	-0.219
-623.419	-57.204	0.193	-0.085
-622.405	402.456	0.069	-0.145
-621.390	-80.631	0.303	0.101
-620.376	116.575	-0.387	0.474
-619.361	-87.032	-0.207	0.063
-618.346	204.087	-0.098	-0.151
-617.332	800.000	0.025	-0.082
-616.317	-125.937	-0.197	-0.030
-615.303	124.107	0.056	0.071
-614.288	768.098	-0.023	0.062
-613.273	-200.000	-0.052	-0.358
-612.259	649.815	-0.110	0.282
-611.244	-156.785	0.063	0.004
-610.230	-200.000	0.023	-0.289
-609.215	-200.000	-0.015	0.102
-608.201	-114.381	-0.119	-0.023
-607.186	4.108	0.437	-0.320
-606.171	244.344	-0.172	-0.289
-605.157	12.493	0.262	-0.202
-604.142	-114.197	0.244	0.047
-603.128	146.570	-0.164	0.220
-602.113	800.000	-0.011	-0.044
-601.098	-200.000	-0.015	0.193
-600.084	-84.877	-0.104	-0.033
-599.069	-45.511	-0.108	-0.054
-598.055	665.318	0.075	-0.194
-597.040	119.405	0.138	-0.171
-596.025	565.052	0.152	-0.369
-595.011	-35.510	0.062	-0.034
-593.996	800.000	0.120	0.439
-592.982	800.000	0.090	0.292
-591.967	-18.290	0.275	-0.172
-590.952	-86.513	0.120	0.037
-589.938	-100.376	-0.201	0.050
-588.923	-94.455	0.208	-0.057
-587.909	30.752	-0.159	-0.136
-586.894	464.545	0.147	-0.329
-585.879	228.893	-0.221	0.360
-584.865	-82.945	0.294	-0.095
-583.850	-65.228	-0.142	-0.057
-582.836	-54.403	-0.101	-0.046
-581.821	329.039	0.080	-0.153
-580.806	154.426	-0.137	-0.187
-579.792	545.274	-0.145	0.347
-578.777	99.795	-0.222	0.256
-577.763	-5.900	-0.295	-0.202
-576.748	148.868	-0.091	0.123
-575.733	177.000	-0.179	0.260
-574.719	12.485	0.385	-0.296
-573.704	55.503	0.110	0.106
-572.690	691.310	-0.058	-0.151
-571.675	138.587	0.092	-0.121
-570.661	800.000	0.133	-0.401
-569.646	-200.000	0.031	0.223
-568.631	421.212	-0.062	-0.132
-567.617	-175.161	0.278	0.008
-566.602	0.471	0.091	-0.065
-565.588	26.333	0.308	-0.257
-564.573	5.115	0.057	0.042
-563.558	337.038	-0.095	-0.185
-562.544	800.000	0.077	0.300
-561.529	76.084	-0.259	0.274
-560.515	244.542	-0.189	0.316
-559.500	-152.364	-0.396	0.028
-558.485	-4.580	0.234	0.161
-557.471	-96.004	0.212	0.056
-556.456	-200.000	-0.018	-0.286
-555.442	118.932	0.055	0.068
-554.427	-200.000	0.019	-0.208
-553.412	800.000	0.045	0.193
-552.398	-34.455	0.251	-0.137
-551.383	705.463	-0.037	-0.096
-550.369	-140.899	-0.168	-0.017
-549.354	147.945	0.134	-0.180
-548.339	-200.000	0.008	-0.089
-547.325	-200.000	-0.034	-0.171
-546.310	799.232	-0.048	0.133
-545.296	-107.814	0.127	-0.028
-544.281	586.165	-0.014	-0.033
-543.266	445.364	-0.104	-0.227
-542.252	69.771	-0.201	-0.207
-541.237	-85.863	0.059	-0.018
-540.223	-70.891	0.116	-0.044
-539.208	342.586	0.081	0.158
-538.193	-200.000	0.026	-0.215
-537.179	49.185	0.096	0.090
-536.164	82.179	-0.089	-0.097
-535.150	800.000	-0.084	0.232
-534.135	800.000	-0.091	0.302
-533.121	800.000	-0.058	0.230
-532.106	-145.578	-0.410	0.037
-531.091	-200.000	-0.021	-0.216
-530.077	-200.000	0.017	-0.388
-529.062	207.855	-0.126	-0.196
-528.048	479.971	-0.076	-0.172
-527.033	248.697	-0.015	0.026
-526.018	97.082	-0.255	0.291
-525.004	11.519	0.215	-0.164
-523.989	-35.894	0.345	0.186
-522.975	-110.434	-0.157	0.032
-521.960	800.000	0.101	0.291
-520.945	-77.361	-0.202	0.070
-519.931	242.369	0.099	0.166
-518.916	36.725	-0.078	0.069
-517.902	-12.446	0.226	0.147
-516.887	144.696	-0.133	0.177
-515.872	237.825	-0.111	0.184
-514.858	137.097	0.199	-0.259
-513.843	800.000	0.046	-0.174
-512.829	800.000	0.104	0.405
-511.814	174.531	-0.055	0.079
-510.799	-104.941	0.138	0.031
-509.785	800.000	-0.048	-0.141
-508.770	45.873	0.123	-0.114
-507.756	-159.957	-0.308	-0.017
-506.741	-140.658	0.211	0.022
-505.726	-30.670	-0.188	0.106
-504.712	262.681	0.129	-0.223
-503.697	-68.833	-0.303	0.116
-502.683	-183.692	-0.130	0.002
-501.668	47.861	-0.241	-0.224
-500.653	11.082	-0.216	0.165
-499.639	80.296	0.024	-0.025
-498.624	-200.000	0.013	-0.168
-497.610	-200.000	0.045	0.370
-496.595	-130.065	0.366	-0.050
-495.581	800.000	-0.060	-0.220
-494.566	588.855	-0.105	-0.258
-493.551	-1.057	-0.168	-0.118
-492.537	251.511	-0.217	-0.367
-491.522	128.376	-0.149	-0.189
-490.508	-200.000	-0.013	0.314
-489.493	-128.679	0.163	0.023
-488.478	-11.808	-0.226	-0.148
-487.464	522.181	0.142	0.331
-486.449	800.000	-0.054	-0.160
-485.435	800.000	-0.003	-0.013
-484.420	89.437	0.023	0.026
-483.405	-31.741	-0.264	-0.147
-482.391	800.000	-0.119	-0.409
-481.376	-116.626	0.274	0.050
-480.362	458.365	0.106	-0.235
-479.347	-87.321	-0.385	-0.116
-478.332	367.828	-0.197	0.396
-477.318	150.603	-0.157	0.213
-476.303	117.822	0.066	-0.081
-475.289	496.622	-0.098	-0.225
-474.274	-10.860	0.108	-0.071
-473.259	-146.718	-0.093	0.008
-472.245	-195.027	-0.193	0.001
-471.230	-200.000	0.017	-0.173
-470.216	97.879	-0.158	-0.181
-469.201	-113.209	-0.232	-0.045
-468.186	-93.003	0.211	-0.058
-467.172	8.874	0.179	0.135
-466.157	245.713	0.218	-0.365
-465.143	-130.847	-0.342	-0.046
-464.128	109.008	-0.111	-0.132
-463.113	354.223	0.148	-0.293
-462.099	278.943	-0.120	-0.213
-461.084	11.024	0.162	-0.123
-460.070	-200.000	-0.003	0.401
-459.055	552.732	-0.161	0.385
-458.040	-200.000	-0.006	-0.154
-457.026	56.012	-0.226	0.218
-456.011	4.236	-0.192	-0.140
-454.997	-121.853	0.043	0.007
-453.982	21.080	0.182	-0.147
-452.968	-200.000	0.020	-0.135
-451.953	-37.878	-0.134	-0.071
-450.938	-123.713	-0.428	0.067
-449.924	-186.614	-0.304	0.004
-448.909	-7.233	-0.262	0.176
-447.895	-200.000	0.022	0.342
-446.880	-200.000	0.064	0.317
-445.865	-158.349	0.247	-0.014
-444.851	3.432	-0.128	-0.093
-443.836	-60.968	0.314	-0.132
-442.822	91.828	0.251	0.280
-441.807	-200.000	-0.002	0.118
-440.792	24.117	-0.171	0.140
-439.778	-140.481	0.149	-0.015
-438.763	-155.344	0.094	0.006
-437.749	74.165	0.148	-0.154
-436.734	-101.822	-0.135	0.032
-435.719	197.052	0.127	0.192
-434.705	-20.350	0.135	-0.083
-433.690	-29.449	-0.276	-0.157
-432.676	-54.873	0.196	0.088
-431.661	-64.753	-0.142	-0.057
-430.646	141.471	-0.048	0.063
-429.632	800.000	0.082	-0.245
-428.617	-200.000	-0.046	0.356
-427.603	-61.293	0.052	0.022
-426.588	776.270	-0.137	-0.372
-425.573	513.417	0.035	0.081
-424.559	-58.803	0.323	0.139
-423.544	-127.561	-0.238	0.034
-422.530	-200.000	0.002	0.117
-421.515	-55.455	0.293	0.130
-420.500	52.587	0.124	-0.117
-419.486	578.967	0.084	-0.203
-418.471	-200.000	0.024	0.165
-417.457	348.598	0.154	0.302
-416.442	283.222	0.076	-0.136
-415.428	-200.000	0.010	0.190
-414.413	49.368	0.217	-0.202
-413.398	-200.000	0.011	0.210
-412.384	-95.794	0.133	0.035
-411.369	53.662	-0.147	0.140
-410.355	148.042	-0.154	0.206
-409.340	87.633	-0.069	-0.076
-408.325	94.455	0.094	0.106
-407.311	-24.703	0.210	-0.124
-406.296	-187.553	-0.247	0.003
-405.282	-27.301	0.368	-0.212
-404.267	93.058	0.258	-0.290
-403.252	420.939	-0.101	0.214
-402.238	398.392	0.080	-0.167
-401.223	111.492	0.158	0.189
-400.209	-52.983	0.306	0.139
-399.194	104.418	-0.207	0.242
-398.179	-45.054	0.205	-0.101
-397.165	259.734	0.306	0.524
-396.150	113.648	0.058	-0.069
-395.136	553.876	-0.140	-0.333
-394.121	-190.093	-0.094	-0.001
-393.106	-92.200	0.296	-0.083
-392.092	10.545	0.165	0.125
-391.077	-103.041	0.133	-0.031
-390.063	188.804	0.165	0.245
-389.048	247.331	-0.112	-0.188
-388.033	-200.000	0.057	-0.329
-387.019	51.496	-0.268	0.252
-386.004	74.362	-0.240	-0.250
-384.990	-91.231	-0.164	-0.046
-383.975	-163.229	0.293	-0.014
-382.960	26.227	-0.270	0.223
-381.946	-133.861	0.089	0.011
-380.931	443.301	-0.175	0.380
-379.917	219.825	0.205	0.325
-378.902	118.962	-0.051	0.062
-377.888	-84.216	-0.298	0.093
-376.873	465.375	0.131	-0.291
-375.858	-18.115	-0.211	0.131
-374.844	-73.997	0.410	0.147
-373.829	800.000	0.039	-0.163
-372.815	300.328	0.175	-0.320
-371.800	193.484	0.087	-0.130
-370.785	800.000	-0.080	-0.300
-369.771	-97.006	0.273	0.071
-368.756	55.972	-0.050	-0.048
-367.742	61.148	-0.093	0.091
-366.727	-200.000	0.005	-0.042
-365.712	771.913	-0.033	-0.089
-364.698	-200.000	-0.025	0.197
-363.683	262.685	-0.087	-0.150
-362.669	800.000	0.050	0.137
-361.654	797.194	-0.043	0.118
-360.639	-200.000	0.004	-0.336
-359.625	-200.000	-0.049	-0.307
-358.610	72.465	-0.058	0.060
-357.596	-59.123	-0.316	0.135
-356.581	-23.048	-0.208	0.124
-355.566	-200.000	0.017	0.144
-354.552	-11.769	0.334	0.217
-353.537	-200.000	0.006	0.288
-352.523	-151.213	-0.282	0.021
-351.508	124.855	-0.243	0.303
-350.493	-48.341	-0.304	0.145
-349.479	171.524	-0.176	-0.250
-348.464	-200.000	0.047	-0.232
-347.450	-200.000	0.042	0.247
-346.435	-57.483	-0.135	0.059
-345.420	-132.931	-0.119	-0.015
-344.406	-69.927	0.049	-0.019
-343.391	-37.719	0.126	0.066
-342.377	211.879	-0.118	0.185
-341.362	280.663	-0.047	-0.084
-340.348	-100.751	0.243	0.059
-339.333	357.795	0.070	0.139
-338.318	-183.767	-0.272	0.005
-337.304	72.467	0.073	0.075
-336.289	800.000	-0.053	0.188
-335.275	-200.000	-0.013	0.255
-334.260	10.596	-0.102	0.077
-333.245	-120.179	-0.348	0.059
-332.231	-120.448	0.447	0.075
-331.216	-41.661	0.051	-0.026
-330.202	428.166	-0.091	0.195
-329.187	234.649	-0.118	0.192
-328.172	-63.388	0.158	0.064
-327.158	-28.364	-0.312	0.178
-326.143	-200.000	-0.350	0.001
-325.129	734.674	-0.017	-0.046
-324.114	-38.990	0.473	0.246
-323.099	208.110	0.056	0.087
-322.085	-200.000	0.025	-0.237
-321.070	-30.665	-0.584	0.327
-320.056	-93.633	0.126	-0.034
-319.041	-200.000	0.023	-0.217
-318.026	9.542	0.270	-0.202
-317.012	-5.252	0.143	0.097
-315.997	-166.327	0.449	0.019
-314.983	225.640	0.076	-0.122
-313.968	42.529	-0.330	0.297
-312.953	-82.147	0.132	-0.042
-311.939	105.026	0.151	0.177
-310.924	65.808	-0.069	-0.070
-309.910	0.259	-0.247	0.174
-308.895	55.944	0.045	0.043
-307.880	391.259	-0.187	0.383
-306.866	127.132	-0.139	-0.174
-305.851	-22.967	-0.251	0.150
-304.837	-200.000	-0.002	-0.359
-303.822	-1.736	0.153	0.106
-302.807	86.150	-0.280	-0.305
-301.793	-153.371	0.160	-0.011
-300.778	-57.830	-0.109	-0.047
-299.764	70.585	0.241	0.247
-298.749	-168.742	-0.191	-0.007
-297.735	-200.000	0.005	-0.128
-296.720	469.538	0.073	-0.162
-295.705	402.046	0.082	0.170
-294.691	-144.392	-0.016	-0.001
-293.676	-99.202	-0.157	0.039
-292.662	-8.978	0.139	0.092
-291.647	166.227	0.123	0.172
-290.632	-46.801	0.130	0.063
-289.618	222.620	-0.071	-0.114
-288.603	103.590	0.070	-0.082
-287.589	-93.424	0.074	-0.020
-286.574	-76.142	0.123	-0.043
-285.559	-172.054	0.354	-0.011
-284.545	-200.000	0.011	-0.124
-283.530	800.000	0.077	-0.211
-282.516	121.277	0.124	-0.152
-281.501	315.469	0.116	0.216
-280.486	500.963	0.138	0.313
-279.472	-98.273	0.282	0.071
-278.457	9.022	-0.214	0.160
-277.443	-200.000	0.008	0.287
-276.428	800.000	-0.024	0.092
-275.413	800.000	-0.129	-0.405
-274.399	-37.359	0.308	0.162
-273.384	-200.000	-0.095	0.440
-272.370	-20.758	-0.090	0.054
-271.355	-200.000	0.033	-0.364
-270.340	-200.000	-0.019	-0.138
-269.326	800.000	0.070	0.251
-268.311	-189.987	-0.215	-0.002
-267.297	342.380	0.131	0.252
-266.282	-9.606	-0.280	-0.184
-265.267	23.840	-0.257	0.209
-264.253	18.696	0.360	0.284
-263.238	-49.664	0.206	-0.096
-262.224	44.784	-0.047	-0.043
-261.209	56.199	0.051	-0.049
-260.195	-23.262	0.219	-0.130
-259.180	2.359	-0.099	0.070
-258.165	-116.220	0.135	-0.025
-257.151	-50.249	-0.108	-0.050
-256.136	308.753	0.119	0.219
-255.122	-200.000	-0.011	-0.089
-254.107	-200.000	-0.030	0.233
-253.092	-117.470	0.318	0.057
-252.078	-8.958	-0.097	-0.064
-251.063	-98.279	0.261	-0.066
-250.049	-200.000	-0.021	0.237
-249.034	-200.000	-0.015	-0.142
-248.019	195.559	-0.086	0.128
-247.005	113.122	-0.099	0.118
-245.990	-100.686	-0.442	0.107
-244.976	-200.000	0.002	-0.022
-243.961	-200.000	0.002	-0.039
-242.946	-14.484	-0.293	-0.186
-241.932	-200.000	-0.028	0.244
-240.917	-200.000	0.005	0.053
-239.903	-67.572	-0.187	-0.072
-238.888	37.055	-0.239	0.208
-237.873	-13.464	0.257	-0.164
-236.859	37.223	-0.036	-0.032
-235.844	-200.000	0.024	0.108
-234.830	-7.591	-0.203	0.135
-233.815	-48.284	-0.019	0.009
-232.800	131.504	0.054	0.069
-231.786	-137.366	-0.158	0.018
-230.771	-146.715	0.259	0.022
-229.757	-200.000	-0.009	0.115
-228.742	-105.318	-0.136	-0.030
-227.727	341.151	0.176	-0.339
-226.713	21.794	0.240	0.193
-225.698	-164.052	0.179	0.008
-224.684	-200.000	-0.023	-0.392
-223.669	201.645	-0.025	0.039
-222.655	-200.000	0.012	0.073
-221.640	800.000	-0.029	0.098
-220.625	-63.309	0.175	0.071
-219.611	17.913	0.027	-0.021
-218.596	99.332	0.170	0.193
-217.582	-80.510	-0.274	0.090
-216.567	36.262	0.046	0.040
-215.552	578.993	0.004	-0.010
-214.538	-193.369	0.054	-0.000
-213.523	546.458	-0.125	0.294
-212.509	-132.817	-0.261	-0.033
-211.494	-63.934	0.315	0.127
-210.479	-200.000	0.032	-0.153
-209.465	61.291	0.079	0.077
-208.450	-27.714	0.044	0.025
-207.436	42.125	-0.197	-0.176
-206.421	-63.983	0.195	0.079
-205.406	-72.494	0.095	-0.035
-204.392	-28.306	0.255	0.145
-203.377	13.582	0.238	0.182
-202.363	-100.862	-0.215	-0.052
-201.348	-200.000	0.064	-0.313
-200.333	-13.450	-0.189	-0.120
-199.319	-141.800	0.567	0.056
-198.304	25.662	-0.084	-0.069
-197.290	-22.693	0.099	-0.059
-196.275	213.199	-0.178	-0.276
-195.260	226.824	0.119	0.190
-194.246	-107.706	-0.128	-0.027
-193.231	-103.231	-0.053	-0.012
-192.217	279.839	0.046	-0.081
-191.202	199.067	0.046	-0.069
-190.187	-200.000	-0.035	0.273
-189.173	564.911	-0.040	0.095
-188.158	-40.344	-0.198	-0.101
-187.144	-145.074	-0.085	-0.008
-186.129	365.984	0.121	0.240
-185.114	757.186	0.060	0.159
-184.100	800.000	0.095	-0.339
-183.085	-0.380	-0.243	-0.170
-182.071	113.366	0.119	-0.142
-181.056	-200.000	0.035	-0.172
-180.042	-109.629	0.166	-0.034
-179.027	102.352	-0.113	0.130
-178.012	-200.000	-0.020	-0.258
-176.998	15.818	0.342	-0.265
-175.983	71.493	0.306	-0.313
-174.969	177.226	-0.149	0.214
-173.954	166.155	-0.228	-0.317
-172.939	-69.622	0.113	-0.042
-171.925	-200.000	-0.019	0.104
-170.910	-56.823	0.194	0.084
-169.896	-128.712	-0.432	-0.060
-168.881	-20.996	0.380	-0.229
-167.866	166.886	0.125	-0.174
-166.852	75.377	-0.168	0.175
-165.837	-55.048	-0.213	-0.094
-164.823	800.000	0.051	-0.211
-163.808	-200.000	-0.109	-0.501
-162.793	162.461	0.147	-0.203
-161.779	56.687	0.267	0.255
-160.764	-51.439	-0.039	0.018
-159.750	-55.802	-0.104	0.046
-158.735	800.000	0.027	0.100
-157.720	767.842	0.064	0.172
-156.706	-123.456	-0.013	0.002
-155.691	-86.984	-0.352	-0.105
-154.677	-98.035	0.303	-0.077
-153.662	800.000	0.066	0.187
-152.647	-144.972	-0.242	-0.022
-151.633	-146.310	0.493	0.042
-150.618	800.000	0.030	0.101
-149.604	43.890	-0.068	-0.061
-148.589	609.288	-0.055	-0.134
-147.574	499.301	0.066	0.149
-146.560	-43.669	-0.385	0.190
-145.545	357.508	-0.084	0.165
-144.531	-107.934	0.271	-0.058
-143.516	-70.155	0.353	0.132
-142.502	75.019	0.084	0.087
-141.487	-152.079	-0.085	-0.006
-140.472	800.000	0.072	0.216
-139.458	-200.000	-0.022	0.161
-138.443	15.662	0.315	0.243
-137.429	-126.737	0.241	-0.035
-136.414	-45.819	-0.046	0.022
-135.399	-127.569	-0.331	0.047
-134.385	-41.029	-0.061	-0.031
-133.370	-88.990	0.073	0.021
-132.356	-200.000	-0.048	-0.258
-131.341	437.398	0.016	-0.034
-130.326	35.834	-0.220	-0.190
-129.312	800.000	0.062	0.236
-128.297	-200.000	0.059	-0.453
-127.283	800.000	0.118	0.488
-126.268	-82.496	0.147	-0.047
-125.253	-200.000	-0.010	0.081
-124.239	76.685	-0.120	0.124
-123.224	-166.054	0.295	-0.012
-122.210	800.000	-0.123	0.492
-121.195	484.972	0.091	0.204
