DTS Sentinel unit serial number:	SN413079Multiplexer serial number:	ORYXHardware model number:	OX4-SRSoftware version number:	ORYX F/W v4.00 Oryx Data Collector v3.7.2.0data status	okinstallation	princeton_trtdifferential loss correction	single-endedforward channel	channel 3reverse channel	N/Adate	2019/09/15time	14:48:35forward acquisition time	60.00reverse acquisition time	0.00gamma	496.2192k internal	0.2292k external	0.2292temperature offset calibration	0.9951default loss term (dB/km)	0.3790temperature slope calibration	1.0000multiplexer offset coefficient	1.0000multiplexer slope coefficient	1.0000fibre end	0.00T internal ref (°C)	39.81T ext. ref 1 (°C)	4.84T ext. ref 2 (°C)	36.56length (m)	temperature (°C)	Stokes	anti-Stokes-747.200	-60.807	0.287	-0.124
-746.185	-108.892	0.118	0.026
-745.171	800.000	-0.086	0.341
-744.156	-74.189	0.272	0.101
-743.142	-120.126	0.188	-0.033
-742.127	-11.816	-0.257	0.173
-741.112	-89.798	-0.385	0.115
-740.098	46.636	-0.412	0.391
-739.083	-134.486	-0.330	0.041
-738.069	316.751	0.094	0.181
-737.054	-200.000	-0.031	-0.248
-736.039	-141.955	-0.180	0.018
-735.025	160.706	0.162	-0.232
-734.010	146.418	-0.063	-0.086
-732.996	-50.968	-0.364	0.175
-731.981	-48.747	-0.385	-0.189
-730.966	391.003	-0.066	-0.140
-729.952	-200.000	-0.007	0.103
-728.937	-36.710	-0.292	-0.160
-727.923	243.271	-0.101	-0.173
-726.908	-18.044	0.139	0.089
-725.894	-82.360	-0.275	-0.091
-724.879	18.112	-0.394	0.321
-723.864	-63.582	-0.058	0.025
-722.850	-200.000	-0.028	-0.236
-721.835	342.189	-0.192	-0.385
-720.821	-20.474	0.169	0.106
-719.806	219.467	-0.140	-0.230
-718.791	-200.000	0.031	-0.306
-717.777	-30.975	0.086	0.050
-716.762	544.202	0.107	0.262
-715.748	800.000	0.083	-0.296
-714.733	800.000	-0.078	-0.272
-713.718	-113.748	0.246	0.049
-712.704	-102.668	0.031	0.007
-711.689	-34.492	-0.234	-0.131
-710.675	166.701	0.202	0.293
-709.660	547.968	-0.119	0.291
-708.645	-25.605	-0.129	-0.078
-707.631	-105.338	-0.108	-0.025
-706.616	393.821	0.044	0.094
-705.602	5.723	-0.094	0.071
-704.587	546.856	-0.103	-0.252
-703.572	514.842	0.094	0.225
-702.558	449.121	0.120	-0.271
-701.543	-136.255	0.270	-0.032
-700.529	54.918	-0.270	0.266
-699.514	-200.000	-0.039	-0.353
-698.499	58.025	0.089	0.089
-697.485	-111.991	-0.217	0.045
-696.470	163.484	-0.117	-0.168
-695.456	144.205	0.296	0.403
-694.441	-95.593	-0.289	0.079
-693.426	800.000	0.057	0.214
-692.412	25.478	0.237	-0.201
-691.397	-84.244	-0.239	0.077
-690.383	81.933	-0.094	-0.104
-689.368	-141.206	0.149	-0.016
-688.354	800.000	0.036	0.105
-687.339	-1.908	0.153	-0.110
-686.324	-70.885	0.123	0.047
-685.310	48.907	-0.205	0.197
-684.295	-41.079	-0.190	-0.100
-683.281	-78.425	0.190	-0.066
-682.266	-133.918	0.061	-0.008
-681.251	529.011	-0.118	-0.284
-680.237	-0.167	0.084	-0.061
-679.222	-160.942	-0.268	0.014
-678.208	800.000	-0.026	-0.105
-677.193	-84.258	-0.279	-0.090
-676.178	-200.000	0.002	0.035
-675.164	-80.477	-0.139	0.047
-674.149	-13.945	-0.077	0.051
-673.135	-78.612	0.029	0.010
-672.120	-200.000	0.024	0.184
-671.105	140.922	0.181	-0.244
-670.091	-100.663	-0.284	-0.072
-669.076	306.327	0.104	-0.197
-668.062	329.078	-0.137	0.268
-667.047	5.532	-0.171	-0.129
-666.032	105.989	-0.008	-0.010
-665.018	74.412	0.126	0.135
-664.003	-148.783	-0.221	-0.018
-662.989	800.000	-0.043	-0.154
-661.974	-60.636	-0.084	-0.036
-660.959	483.606	0.056	-0.130
-659.945	-200.000	-0.016	0.305
-658.930	50.356	-0.146	0.141
-657.916	-200.000	0.054	-0.261
-656.901	33.693	0.052	0.046
-655.886	132.662	0.131	0.172
-654.872	-69.578	-0.259	-0.101
-653.857	-68.681	0.178	0.070
-652.843	800.000	0.073	0.248
-651.828	340.666	-0.038	-0.076
-650.814	-160.939	0.244	0.013
-649.799	-200.000	0.016	-0.100
-648.784	34.382	-0.183	-0.163
-647.770	-21.431	-0.197	-0.122
-646.755	-200.000	0.004	0.252
-645.741	378.677	0.129	-0.268
-644.726	-80.531	0.242	-0.082
-643.711	133.100	-0.240	-0.316
-642.697	800.000	0.071	0.210
-641.682	51.621	-0.128	0.124
-640.668	325.043	-0.138	0.269
-639.653	-200.000	0.032	-0.172
-638.638	800.000	0.064	-0.183
-637.624	323.101	0.167	0.324
-636.609	26.622	-0.153	0.130
-635.595	-200.000	0.026	0.176
-634.580	122.161	-0.124	0.158
-633.565	-200.000	0.052	0.352
-632.551	3.534	0.175	0.130
-631.536	-80.488	0.162	0.055
-630.522	-53.073	-0.136	-0.064
-629.507	164.243	-0.230	-0.330
-628.492	132.975	-0.178	0.234
-627.478	-50.504	-0.015	-0.007
-626.463	-100.976	-0.125	0.031
-625.449	800.000	-0.168	-0.573
-624.434	87.639	-0.165	0.186
-623.419	800.000	0.011	-0.041
-622.405	-200.000	0.020	0.375
-621.390	357.935	-0.186	-0.378
-620.376	-119.498	-0.566	0.100
-619.361	302.361	-0.020	0.037
-618.346	-200.000	-0.037	-0.176
-617.332	432.477	-0.101	-0.222
-616.317	-200.000	0.001	-0.093
-615.303	-4.806	-0.151	0.106
-614.288	76.901	-0.205	-0.222
-613.273	-101.827	-0.412	0.102
-612.259	-183.244	-0.056	-0.001
-611.244	-200.000	0.039	-0.477
-610.230	-169.768	-0.452	-0.017
-609.215	161.397	-0.145	-0.207
-608.201	-200.000	0.018	0.171
-607.186	-200.000	0.002	0.286
-606.171	800.000	-0.123	-0.368
-605.157	-93.114	-0.240	0.068
-604.142	63.791	0.173	0.177
-603.128	320.001	0.113	-0.219
-602.113	631.047	-0.044	-0.113
-601.098	29.499	0.100	-0.087
-600.084	-200.000	-0.058	0.341
-599.069	-56.460	0.089	-0.040
-598.055	-112.744	-0.034	0.007
-597.040	-200.000	-0.019	0.259
-596.025	642.493	-0.074	0.191
-595.011	33.527	0.162	0.143
-593.996	351.928	-0.167	-0.337
-592.982	-131.996	-0.250	0.033
-591.967	-200.000	0.005	-0.126
-590.952	-200.000	-0.020	0.312
-589.938	-200.000	0.006	0.156
-588.923	-149.328	-0.257	0.021
-587.909	800.000	-0.084	-0.239
-586.894	-34.316	-0.070	0.039
-585.879	-0.175	-0.419	-0.304
-584.865	96.133	-0.127	0.148
-583.850	800.000	0.052	-0.193
-582.836	85.866	0.103	0.115
-581.821	-200.000	-0.019	-0.303
-580.806	-200.000	0.007	-0.343
-579.792	8.920	0.209	-0.160
-578.777	-9.636	0.063	0.043
-577.763	-37.016	-0.433	-0.236
-576.748	-200.000	-0.006	0.145
-575.733	-156.197	-0.378	0.024
-574.719	109.989	0.056	0.068
-573.704	296.435	-0.063	0.118
-572.690	-21.101	0.188	0.117
-571.675	-200.000	-0.002	0.253
-570.661	-58.265	0.198	0.087
-569.646	77.360	-0.205	-0.221
-568.631	-200.000	0.023	0.241
-567.617	-140.577	0.109	-0.012
-566.602	-96.821	0.030	0.008
-565.588	-109.114	0.390	-0.084
-564.573	-98.005	-0.198	0.052
-563.558	800.000	0.034	-0.147
-562.544	-200.000	0.004	-0.170
-561.529	173.708	-0.080	-0.118
-560.515	4.243	-0.442	0.329
-559.500	121.765	-0.065	0.082
-558.485	-165.115	-0.150	0.007
-557.471	-50.092	0.418	-0.201
-556.456	-156.001	-0.529	0.034
-555.442	-66.001	0.512	0.208
-554.427	47.332	0.063	-0.059
-553.412	-128.261	0.052	-0.008
-552.398	-77.615	-0.319	-0.112
-551.383	800.000	0.092	-0.318
-550.369	777.429	0.128	-0.356
-549.354	-79.526	0.313	0.107
-548.339	-127.177	-0.219	0.033
-547.325	800.000	0.086	-0.288
-546.310	-200.000	-0.072	0.501
-545.296	-139.932	0.195	0.021
-544.281	800.000	0.006	-0.024
-543.266	-200.000	-0.016	0.084
-542.252	-134.835	-0.146	-0.018
-541.237	13.333	0.058	-0.046
-540.223	800.000	-0.034	-0.099
-539.208	16.009	-0.179	0.143
-538.193	-70.351	0.515	0.198
-537.179	-200.000	-0.047	0.277
-536.164	-8.140	-0.057	0.039
-535.150	35.357	0.128	0.114
-534.135	-154.116	0.335	-0.023
-533.121	640.878	-0.047	0.120
-532.106	519.194	-0.105	-0.249
-531.091	383.723	0.172	0.360
-530.077	-200.000	0.000	-0.024
-529.062	-200.000	0.179	0.000
-528.048	45.659	0.083	0.078
-527.033	-30.823	-0.147	0.084
-526.018	-117.260	0.124	0.023
-525.004	-128.752	-0.173	0.025
-523.989	72.968	-0.093	0.098
-522.975	462.458	-0.153	0.347
-521.960	-200.000	-0.048	0.230
-520.945	-90.133	-0.154	-0.046
-519.931	126.382	0.085	-0.110
-518.916	-36.699	0.056	0.030
-517.902	687.293	-0.142	0.376
-516.887	-44.814	-0.224	0.113
-515.872	-9.263	0.397	0.270
-514.858	151.427	-0.308	0.425
-513.843	101.901	0.046	-0.055
-512.829	44.231	-0.166	-0.155
-511.814	-120.806	0.011	0.002
-510.799	-200.000	-0.011	-0.070
-509.785	800.000	0.015	-0.061
-508.770	-128.693	0.233	0.033
-507.756	434.315	0.082	0.180
-506.741	138.559	0.041	0.055
-505.726	-51.779	0.113	-0.053
-504.712	-59.431	0.244	-0.106
-503.697	-65.471	-0.123	-0.050
-502.683	-109.764	-0.225	-0.048
-501.668	-200.000	0.057	0.482
-500.653	-114.404	0.206	-0.040
-499.639	299.114	0.090	0.168
-498.624	-200.000	0.025	-0.190
-497.610	800.000	0.082	0.285
-496.595	-44.767	0.101	0.051
-495.581	61.537	0.112	-0.113
-494.566	-122.797	0.270	-0.044
-493.551	-138.532	-0.109	-0.012
-492.537	-171.790	-0.238	0.008
-491.522	-104.910	-0.087	-0.020
-490.508	300.769	0.212	0.396
-489.493	-155.605	0.135	0.009
-488.478	-89.815	-0.324	0.096
-487.464	125.284	0.195	-0.249
-486.449	-96.036	0.129	0.035
-485.435	-43.815	-0.074	0.038
-484.420	58.904	0.147	-0.147
-483.405	513.977	0.104	0.246
-482.391	-36.525	-0.240	-0.131
-481.376	-154.412	-0.117	-0.008
-480.362	-110.069	-0.095	0.020
-479.347	180.273	-0.240	0.357
-478.332	800.000	-0.028	0.096
-477.318	-62.702	0.300	-0.126
-476.303	650.600	-0.143	-0.370
-475.289	-200.000	0.026	-0.364
-474.274	800.000	0.077	0.303
-473.259	-124.573	0.093	-0.015
-472.245	76.649	-0.299	-0.321
-471.230	-148.544	0.128	-0.011
-470.216	-95.500	0.401	0.109
-469.201	-58.529	-0.410	-0.180
-468.186	3.652	-0.148	0.109
-467.172	-192.900	-0.186	-0.002
-466.157	-101.627	0.279	-0.069
-465.143	800.000	0.085	0.287
-464.128	-200.000	-0.043	0.310
-463.113	-158.268	-0.263	-0.016
-462.099	22.620	0.226	-0.187
-461.084	-117.317	0.119	0.022
-460.070	800.000	0.138	0.426
-459.055	-104.964	-0.087	-0.020
-458.040	-96.897	-0.209	-0.055
-457.026	-138.229	-0.178	0.020
-456.011	-174.542	0.312	-0.009
-454.997	-57.252	0.220	-0.098
-453.982	270.692	0.037	-0.065
-452.968	-65.248	-0.341	-0.139
-451.953	-77.897	0.158	-0.055
-450.938	-3.632	-0.484	0.341
-449.924	800.000	-0.015	-0.064
-448.909	-185.422	0.206	0.003
-447.895	54.224	0.134	-0.131
-446.880	-42.404	0.206	-0.106
-445.865	800.000	0.058	0.180
-444.851	-39.418	-0.141	-0.075
-443.836	-200.000	0.060	0.380
-442.822	-48.167	-0.063	-0.031
-441.807	43.426	-0.065	0.060
-440.792	-8.201	-0.098	0.067
-439.778	7.449	0.198	-0.149
-438.763	-146.580	0.111	-0.010
-437.749	-87.888	-0.157	0.048
-436.734	-169.928	0.211	-0.008
-435.719	800.000	-0.091	0.285
-434.705	1.866	0.044	0.032
-433.690	128.992	-0.149	-0.192
-432.676	-63.849	-0.064	-0.026
-431.661	13.379	0.101	-0.079
-430.646	-32.136	0.233	-0.132
-429.632	-68.564	0.007	-0.003
-428.617	-82.851	-0.215	-0.070
-427.603	-14.615	0.264	-0.172
-426.588	-200.000	0.042	-0.312
-425.573	26.974	0.139	0.118
-424.559	-200.000	0.030	-0.331
-423.544	7.315	0.142	0.107
-422.530	-101.747	-0.130	0.032
-421.515	-127.230	-0.274	0.041
-420.500	-47.063	-0.175	-0.086
-419.486	217.531	0.130	-0.209
-418.471	266.792	0.180	-0.317
-417.457	-200.000	0.016	-0.237
-416.442	-162.222	0.251	-0.013
-415.428	-200.000	0.328	0.000
-414.413	337.661	-0.014	-0.027
-413.398	104.571	0.143	0.171
-412.384	800.000	-0.074	0.230
-411.369	-88.183	0.210	0.064
-410.355	23.526	0.264	-0.220
-409.340	-56.022	-0.181	0.081
-408.325	563.442	-0.134	0.328
-407.311	-200.000	-0.010	-0.078
-406.296	82.406	0.210	0.230
-405.282	800.000	-0.068	-0.295
-404.267	-200.000	-0.204	-0.001
-403.252	138.735	0.206	0.273
-402.238	39.413	0.136	0.123
-401.223	110.781	-0.114	-0.139
-400.209	-26.426	-0.057	0.034
-399.194	-120.963	-0.117	0.020
-398.179	32.496	0.054	-0.047
-397.165	-46.891	0.501	-0.247
-396.150	69.519	0.128	0.133
-395.136	-160.099	0.202	-0.011
-394.121	800.000	-0.042	0.161
-393.106	-72.021	-0.285	-0.107
-392.092	-123.765	-0.229	-0.037
-391.077	54.300	0.161	0.156
-390.063	760.126	0.084	-0.229
-389.048	800.000	0.094	-0.265
-388.033	67.893	-0.053	0.055
-387.019	129.985	-0.051	0.066
-386.004	664.356	-0.082	-0.214
-384.990	-139.718	-0.178	-0.019
-383.975	-27.093	0.234	-0.138
-382.960	22.310	0.232	-0.192
-381.946	185.058	0.175	-0.262
-380.931	-200.000	-0.029	0.128
-379.917	-126.054	0.089	-0.013
-378.902	800.000	0.045	0.175
-377.888	-200.000	-0.036	-0.185
-376.873	238.483	-0.085	0.142
-375.858	173.682	0.172	-0.250
-374.844	-166.761	-0.179	0.007
-373.829	800.000	-0.061	0.209
-372.815	699.505	-0.056	-0.147
-371.800	20.008	-0.212	0.172
-370.785	-17.074	-0.056	0.036
-369.771	-200.000	0.031	-0.414
-368.756	-196.175	0.322	0.002
-367.742	-70.703	0.166	-0.063
-366.727	-76.684	0.086	0.030
-365.712	-200.000	-0.017	0.249
-364.698	-49.727	0.108	-0.052
-363.683	-52.212	-0.064	-0.030
-362.669	159.101	0.063	0.088
-361.654	93.264	-0.127	-0.145
-360.639	-200.000	0.024	-0.150
-359.625	18.102	-0.288	-0.232
-358.610	-48.155	-0.215	0.105
-357.596	-166.328	-0.135	-0.006
-356.581	573.229	-0.070	-0.172
-355.566	-62.161	0.068	-0.029
-354.552	-157.517	-0.106	0.006
-353.537	174.692	0.148	-0.215
-352.523	322.630	0.023	-0.044
-351.508	-200.000	-0.017	-0.321
-350.493	-200.000	-0.041	-0.210
-349.479	-200.000	-0.016	0.101
-348.464	-200.000	-0.061	-0.000
-347.450	-126.803	0.105	-0.016
-346.435	-200.000	-0.039	0.280
-345.420	-94.463	0.234	0.064
-344.406	-200.000	0.007	0.111
-343.391	-200.000	0.026	0.138
-342.377	-38.527	-0.095	0.051
-341.362	-200.000	-0.021	-0.142
-340.348	81.938	-0.299	-0.326
-339.333	631.595	0.024	-0.061
-338.318	74.002	-0.223	0.236
-337.304	41.762	0.396	0.361
-336.289	176.335	-0.166	-0.243
-335.275	-200.000	0.059	-0.264
-334.260	-200.000	0.087	-0.389
-333.245	-200.000	-0.012	-0.170
-332.231	-35.122	0.263	0.144
-331.216	-12.787	-0.110	-0.072
-330.202	-68.811	-0.245	-0.096
-329.187	-69.512	0.144	0.056
-328.172	212.260	-0.167	0.265
-327.158	-200.000	-0.014	0.288
-326.143	-200.000	-0.022	0.251
-325.129	-81.508	0.156	0.052
-324.114	800.000	0.064	-0.238
-323.099	-110.792	-0.166	0.034
-322.085	22.947	-0.271	-0.224
-321.070	-53.562	-0.240	-0.110
-320.056	800.000	-0.040	0.122
-319.041	-58.329	-0.227	-0.099
-318.026	52.330	-0.143	0.137
-317.012	-200.000	-0.027	-0.180
-315.997	-200.000	0.043	-0.409
-314.983	-133.265	-0.266	-0.034
-313.968	-156.808	-0.148	-0.009
-312.953	-147.250	0.223	-0.019
-311.939	-200.000	-0.002	-0.288
-310.924	81.332	0.148	-0.161
-309.910	800.000	-0.080	0.329
-308.895	-200.000	0.048	-0.326
-307.880	-17.492	0.101	-0.064
-306.866	215.804	-0.068	0.109
-305.851	-129.100	0.274	-0.039
-304.837	453.569	0.030	0.066
-303.822	1.788	-0.153	0.111
-302.807	-56.079	-0.044	0.020
-301.793	-95.350	0.351	0.095
-300.778	-24.676	-0.195	0.117
-299.764	-68.353	-0.119	-0.046
-298.749	359.652	-0.107	-0.216
-297.735	52.329	0.139	-0.133
-296.720	-59.137	-0.301	0.130
-295.705	-71.792	-0.149	-0.056
-294.691	-10.908	0.307	0.204
-293.676	488.040	0.068	-0.157
-292.662	621.208	0.067	-0.170
-291.647	-126.623	0.092	0.014
-290.632	-0.368	0.291	0.208
-289.618	298.807	-0.061	-0.112
-288.603	-108.562	-0.462	0.100
-287.589	-66.530	0.221	0.088
-286.574	-72.165	-0.120	-0.045
-285.559	-153.691	-0.227	-0.016
-284.545	141.141	0.182	0.243
-283.530	384.314	-0.106	-0.220
-282.516	676.587	0.118	0.308
-281.501	33.479	-0.169	-0.148
-280.486	371.276	0.144	-0.294
-279.472	-200.000	0.022	-0.317
-278.457	-67.876	-0.146	0.057
-277.443	-27.748	-0.324	-0.189
-276.428	212.522	0.060	-0.095
-275.413	8.296	-0.375	0.284
-274.399	-200.000	-0.012	0.287
-273.384	611.800	-0.078	0.197
-272.370	206.645	0.273	0.428
-271.355	-145.420	-0.239	-0.022
-270.340	351.962	0.059	0.118
-269.326	-12.687	-0.285	-0.186
-268.311	-71.935	0.131	0.049
-267.297	-200.000	0.001	-0.211
-266.282	-200.000	-0.043	0.224
-265.267	-129.129	0.051	-0.007
-264.253	193.499	0.159	0.242
-263.238	-137.566	0.287	-0.032
-262.224	-15.125	-0.216	-0.139
-261.209	432.527	-0.085	-0.184
-260.195	121.744	-0.149	-0.187
-259.180	-17.872	0.080	-0.051
-258.165	-20.989	0.302	-0.186
-257.151	319.117	-0.017	-0.033
-256.136	-55.709	0.056	-0.025
-255.122	218.867	-0.080	0.128
-254.107	-1.529	0.098	0.070
-253.092	-64.532	0.145	-0.059
-252.078	-200.000	-0.061	0.301
-251.063	800.000	-0.117	0.325
-250.049	-190.975	0.389	0.004
-249.034	423.190	0.083	0.179
-248.019	30.556	-0.200	-0.171
-247.005	-200.000	0.009	0.503
-245.990	229.661	-0.102	-0.167
-244.976	112.741	-0.159	-0.193
-243.961	281.668	0.115	-0.207
-242.946	-118.150	-0.285	-0.051
-241.932	82.282	-0.150	-0.163
-240.917	13.344	0.202	-0.157
-239.903	-24.742	0.085	0.051
-238.888	-20.739	0.438	-0.270
-237.873	608.235	-0.046	-0.116
-236.859	274.377	0.083	-0.148
-235.844	-152.094	0.082	-0.006
-234.830	-54.964	0.045	0.021
-233.815	-6.655	-0.123	0.084
-232.800	-87.553	-0.043	-0.013
-231.786	-200.000	-0.026	-0.161
-230.771	800.000	-0.048	0.157
-229.757	-200.000	-0.013	-0.113
-228.742	-42.691	0.214	-0.109
-227.727	-69.803	0.059	-0.023
-226.713	-80.969	0.109	-0.036
-225.698	-63.575	-0.435	-0.179
-224.684	-72.780	0.239	0.088
-223.669	73.532	0.063	0.066
-222.655	163.121	0.082	0.115
-221.640	132.324	0.146	0.189
-220.625	6.978	0.186	0.139
-219.611	-102.827	0.286	-0.068
-218.596	800.000	-0.093	-0.259
-217.582	-38.581	0.049	-0.026
-216.567	800.000	-0.020	0.067
-215.552	-200.000	-0.024	0.259
-214.538	227.428	0.051	0.082
-213.523	-194.584	0.196	0.002
-212.509	-5.389	-0.176	-0.121
-211.494	800.000	-0.049	-0.135
-210.479	168.485	-0.035	-0.050
-209.465	-17.120	-0.150	0.095
-208.450	-156.695	0.249	0.015
-207.436	-91.096	0.163	-0.047
-206.421	83.823	-0.081	-0.089
-205.406	376.206	0.109	-0.223
-204.392	800.000	-0.061	0.185
-203.377	25.755	-0.290	0.242
-202.363	604.067	0.151	-0.377
-201.348	48.089	0.138	0.129
-200.333	-71.282	0.111	0.042
-199.319	800.000	-0.044	-0.133
-198.304	800.000	0.020	-0.076
-197.290	-40.818	0.250	0.129
-196.275	-12.226	-0.033	-0.022
-195.260	-21.329	-0.067	-0.041
-194.246	514.797	0.065	0.152
-193.231	120.205	-0.024	0.029
-192.217	229.663	0.123	0.201
-191.202	-136.919	-0.334	-0.038
-190.187	721.864	0.034	0.092
-189.173	157.483	0.119	0.165
-188.158	-88.249	0.041	-0.012
-187.144	-200.000	-0.039	-0.327
-186.129	82.382	-0.071	-0.077
-185.114	157.468	-0.128	-0.178
-184.100	-200.000	0.027	0.351
-183.085	48.240	-0.116	-0.109
-182.071	476.670	-0.028	-0.062
-181.056	-115.095	0.307	-0.058
-180.042	800.000	0.043	-0.180
-179.027	-72.765	0.058	-0.021
-178.012	-65.310	0.219	-0.088
-176.998	312.035	0.237	0.445
-175.983	-44.546	-0.306	-0.153
-174.969	-90.203	0.323	-0.094
-173.954	418.247	0.121	0.259
-172.939	232.242	0.101	0.166
-171.925	-125.390	0.254	0.039
-170.910	-47.120	-0.150	-0.073
-169.896	242.407	0.070	0.118
-168.881	-138.129	0.109	-0.012
-167.866	-0.223	0.193	0.138
-166.852	11.941	-0.057	0.044
-165.837	800.000	-0.083	0.289
-164.823	-200.000	-0.005	0.203
-163.808	77.832	-0.044	0.047
-162.793	-15.379	-0.048	-0.031
-161.779	504.196	-0.004	0.010
-160.764	-200.000	0.000	0.001
-159.750	32.136	-0.173	0.150
-158.735	43.120	0.050	0.046
-157.720	17.091	0.258	0.204
-156.706	169.865	0.252	0.360
-155.691	261.734	0.106	-0.184
-154.677	265.045	0.125	-0.217
-153.662	-39.897	0.084	-0.044
-152.647	-200.000	-0.036	0.228
-151.633	800.000	0.029	-0.116
-150.618	-200.000	-0.034	0.248
-149.604	799.986	0.085	-0.235
-148.589	320.046	0.144	-0.274
-147.574	15.900	-0.229	0.180
-146.560	-7.323	0.097	0.066
-145.545	-200.000	-0.051	0.252
-144.531	-80.191	0.150	-0.050
-143.516	-200.000	0.041	-0.354
-142.502	410.633	0.090	0.192
-141.487	800.000	-0.108	0.376
-140.472	-64.548	0.303	0.123
-139.458	-161.271	0.324	0.017
-138.443	-183.254	0.055	0.001
-137.429	-167.540	-0.086	0.003
-136.414	-110.907	-0.176	0.036
-135.399	-200.000	-0.011	0.253
-134.385	60.549	-0.123	0.122
-133.370	-31.585	-0.206	-0.115
-132.356	-15.138	0.627	-0.401
-131.341	176.005	-0.146	0.211
-130.326	-84.718	-0.380	-0.120
-129.312	209.858	-0.182	-0.285
-128.297	-15.946	0.146	0.093
-127.283	-170.089	0.400	-0.014
-126.268	-67.996	-0.250	0.098
-125.253	800.000	0.096	-0.266
-124.239	269.155	-0.144	-0.253
-123.224	-132.948	0.203	-0.026
-122.210	-200.000	0.005	-0.047
