DTS Sentinel unit serial number:	SN413079Multiplexer serial number:	ORYXHardware model number:	OX4-SRSoftware version number:	ORYX F/W v4.00 Oryx Data Collector v3.7.2.0data status	okinstallation	princeton_trtdifferential loss correction	single-endedforward channel	channel 3reverse channel	N/Adate	2019/09/16time	02:20:35forward acquisition time	60.00reverse acquisition time	0.00gamma	496.2192k internal	0.2335k external	0.2335temperature offset calibration	0.9950default loss term (dB/km)	0.3790temperature slope calibration	1.0000multiplexer offset coefficient	1.0000multiplexer slope coefficient	1.0000fibre end	0.00T internal ref (°C)	27.56T ext. ref 1 (°C)	10.21T ext. ref 2 (°C)	22.59length (m)	temperature (°C)	Stokes	anti-Stokes-747.200	-97.981	-0.141	0.036
-746.185	724.856	-0.066	0.176
-745.171	-61.724	0.119	-0.050
-744.156	-200.000	-0.038	0.313
-743.142	-4.029	-0.106	-0.074
-742.127	-82.843	-0.146	0.047
-741.112	-156.350	0.057	0.004
-740.098	-102.221	-0.098	0.024
-739.083	800.000	-0.082	-0.229
-738.069	-119.622	-0.419	0.073
-737.054	384.689	-0.116	-0.239
-736.039	-5.167	-0.202	0.140
-735.025	2.277	0.295	-0.214
-734.010	-200.000	0.045	-0.236
-732.996	70.483	-0.107	0.111
-731.981	-200.000	-0.047	0.241
-730.966	-200.000	0.036	0.161
-729.952	516.439	-0.067	-0.158
-728.937	800.000	-0.034	-0.103
-727.923	-82.747	0.104	0.034
-726.908	800.000	0.071	0.264
-725.894	203.681	-0.208	0.323
-724.879	-146.798	-0.205	-0.018
-723.864	-72.224	-0.462	0.172
-722.850	-200.000	0.029	0.252
-721.835	-38.943	0.248	-0.131
-720.821	452.097	0.156	-0.347
-719.806	-63.668	-0.238	-0.098
-718.791	-200.000	0.055	-0.385
-717.777	-11.698	0.187	0.123
-716.762	-200.000	0.014	-0.105
-715.748	-200.000	-0.040	0.298
-714.733	-200.000	-0.028	0.127
-713.718	368.210	-0.030	-0.060
-712.704	-92.786	-0.084	0.024
-711.689	112.672	-0.080	0.098
-710.675	-200.000	-0.014	-0.068
-709.660	-33.097	0.095	-0.053
-708.645	-200.000	-0.022	0.097
-707.631	-65.185	0.164	0.066
-706.616	-11.920	-0.057	-0.037
-705.602	-200.000	0.034	-0.310
-704.587	-138.694	0.218	0.024
-703.572	-31.665	-0.241	-0.136
-702.558	-200.000	-0.040	-0.199
-701.543	-189.866	-0.204	-0.002
-700.529	-65.956	0.111	0.044
-699.514	-200.000	-0.007	0.107
-698.499	-35.119	0.271	0.148
-697.485	-200.000	-0.033	-0.391
-696.470	282.872	0.103	0.185
-695.456	-113.105	0.045	0.009
-694.441	424.278	-0.100	0.215
-693.426	325.928	0.049	-0.094
-692.412	168.051	-0.171	0.244
-691.397	-200.000	-0.014	0.161
-690.383	-120.538	-0.356	0.061
-689.368	-87.241	-0.137	0.042
-688.354	-22.813	-0.196	-0.119
-687.339	-200.000	0.042	-0.262
-686.324	54.270	0.230	0.222
-685.310	800.000	0.044	-0.191
-684.295	-39.835	-0.360	-0.188
-683.281	-43.834	0.300	0.151
-682.266	52.374	-0.168	0.160
-681.251	-149.747	-0.310	-0.024
-680.237	-200.000	-0.011	-0.097
-679.222	-116.976	-0.112	-0.021
-678.208	-11.469	0.174	-0.115
-677.193	-20.731	0.162	-0.100
-676.178	-158.557	-0.167	-0.010
-675.164	-148.975	-0.188	0.015
-674.149	-200.000	0.025	0.229
-673.135	-128.702	0.117	-0.017
-672.120	-103.366	-0.175	0.041
-671.105	166.281	-0.105	-0.148
-670.091	800.000	-0.022	0.074
-669.076	-200.000	-0.271	-0.000
-668.062	-200.000	0.012	-0.229
-667.047	360.577	-0.017	-0.035
-666.032	105.241	-0.208	0.247
-665.018	487.567	0.153	-0.350
-664.003	-195.997	0.314	0.002
-662.989	-160.348	-0.067	0.004
-661.974	-168.109	0.248	-0.010
-660.959	-32.628	-0.177	0.099
-659.945	-56.781	-0.120	-0.053
-658.930	-115.926	-0.154	0.029
-657.916	800.000	-0.052	0.221
-656.901	-200.000	-0.044	-0.406
-655.886	-78.569	-0.386	-0.132
-654.872	-146.936	0.197	0.017
-653.857	49.693	0.189	-0.178
-652.843	-200.000	0.060	-0.348
-651.828	-5.567	-0.123	-0.084
-650.814	44.897	0.115	-0.106
-649.799	-51.890	0.425	0.198
-648.784	327.424	0.044	0.085
-647.770	-142.081	-0.115	-0.011
-646.755	-85.567	-0.193	0.060
-645.741	151.120	-0.070	-0.096
-644.726	-200.000	-0.009	0.311
-643.711	111.807	0.085	0.102
-642.697	800.000	-0.026	-0.109
-641.682	-174.382	0.041	0.001
-640.668	-41.809	0.084	-0.043
-639.653	-200.000	-0.028	-0.353
-638.638	191.615	-0.121	-0.182
-637.624	13.790	0.033	0.026
-636.609	101.279	0.035	0.041
-635.595	26.699	0.076	0.064
-634.580	-200.000	-0.002	0.085
-633.565	800.000	0.061	0.249
-632.551	208.018	-0.148	-0.232
-631.536	145.431	-0.136	0.182
-630.522	-97.996	-0.134	-0.035
-629.507	18.993	-0.142	0.114
-628.492	-16.121	0.230	-0.146
-627.478	-148.498	-0.054	-0.004
-626.463	-200.000	0.041	-0.301
-625.449	-31.128	0.289	-0.163
-624.434	136.410	0.080	0.104
-623.419	-66.594	0.327	0.130
-622.405	-69.215	-0.148	-0.057
-621.390	-145.176	-0.191	-0.017
-620.376	232.988	-0.132	0.217
-619.361	51.788	-0.282	-0.268
-618.346	129.961	-0.122	0.156
-617.332	-200.000	-0.016	-0.128
-616.317	-18.096	0.307	-0.192
-615.303	-51.040	-0.079	-0.037
-614.288	144.389	-0.076	0.102
-613.273	146.479	0.229	-0.307
-612.259	-63.808	-0.426	-0.174
-611.244	365.491	-0.230	0.463
-610.230	-17.333	0.143	-0.090
-609.215	21.952	0.152	0.124
-608.201	-200.000	0.024	0.141
-607.186	800.000	-0.052	0.192
-606.171	137.761	0.025	-0.033
-605.157	-200.000	-0.014	0.367
-604.142	696.118	0.096	-0.252
-603.128	59.101	-0.315	0.310
-602.113	-24.661	-0.089	-0.053
-601.098	-65.324	-0.077	0.031
-600.084	-20.692	-0.303	-0.186
-599.069	800.000	-0.029	-0.105
-598.055	445.827	0.078	-0.171
-597.040	160.770	-0.134	0.187
-596.025	-200.000	-0.053	0.355
-595.011	-200.000	-0.001	-0.270
-593.996	800.000	0.053	-0.213
-592.982	800.000	0.071	-0.304
-591.967	20.961	-0.237	-0.192
-590.952	236.828	-0.097	-0.160
-589.938	-76.049	0.294	0.104
-588.923	-200.000	-0.003	0.343
-587.909	-20.613	0.154	0.095
-586.894	15.178	0.157	0.123
-585.879	-200.000	-0.078	-0.366
-584.865	-37.251	0.190	-0.102
-583.850	-121.139	0.114	-0.019
-582.836	-173.084	0.145	-0.004
-581.821	-200.000	-0.004	-0.224
-580.806	67.109	-0.192	-0.195
-579.792	-36.507	-0.157	-0.085
-578.777	-200.000	-0.019	0.258
-577.763	-119.339	-0.264	0.046
-576.748	794.071	0.033	-0.092
-575.733	-176.907	-0.020	0.001
-574.719	255.868	0.132	-0.227
-573.704	-3.574	-0.071	0.049
-572.690	-86.067	-0.277	0.085
-571.675	-72.927	0.112	0.041
-570.661	-113.339	0.379	-0.074
-569.646	-162.869	-0.396	-0.019
-568.631	230.337	0.090	0.147
-567.617	-200.000	0.003	-0.072
-566.602	-200.000	0.041	-0.349
-565.588	-51.814	-0.069	-0.032
-564.573	-127.250	-0.114	0.017
-563.558	25.513	0.250	-0.208
-562.544	-200.000	-0.037	-0.167
-561.529	44.225	-0.166	-0.152
-560.515	337.255	0.139	0.269
-559.500	-132.618	0.348	0.045
-558.485	2.018	0.215	-0.155
-557.471	-54.455	-0.286	-0.129
-556.456	134.328	-0.280	-0.362
-555.442	-200.000	0.047	0.206
-554.427	-54.643	-0.043	0.019
-553.412	409.386	0.067	-0.141
-552.398	-200.000	0.001	-0.037
-551.383	800.000	0.053	0.222
-550.369	-143.138	0.086	-0.008
-549.354	19.120	-0.220	-0.176
-548.339	424.210	-0.136	0.292
-547.325	-67.663	0.195	0.076
-546.310	-200.000	-0.019	-0.404
-545.296	-160.701	0.099	0.005
-544.281	186.019	-0.227	-0.337
-543.266	-200.000	-0.006	0.238
-542.252	164.220	0.166	-0.233
-541.237	-200.000	0.073	-0.493
-540.223	-75.276	0.300	-0.107
-539.208	-200.000	-0.025	-0.439
-538.193	-94.785	0.394	0.107
-537.179	-2.612	-0.168	0.117
-536.164	152.190	-0.110	-0.150
-535.150	-114.575	0.220	0.042
-534.135	-77.642	-0.159	0.055
-533.121	72.004	-0.151	-0.156
-532.106	-194.679	-0.340	0.003
-531.091	800.000	0.026	-0.076
-530.077	-8.752	0.141	0.094
-529.062	-0.827	-0.020	0.014
-528.048	-82.416	0.154	-0.050
-527.033	-200.000	0.050	0.327
-526.018	-6.531	0.195	0.132
-525.004	10.705	0.182	-0.138
-523.989	146.067	0.164	-0.219
-522.975	-47.624	0.033	0.016
-521.960	-62.668	0.308	0.127
-520.945	-200.000	0.010	-0.066
-519.931	24.974	0.178	-0.147
-518.916	78.064	-0.215	0.228
-517.902	417.646	0.036	-0.077
-516.887	800.000	-0.068	-0.274
-515.872	36.449	-0.171	-0.150
-514.858	198.026	-0.226	0.344
-513.843	800.000	-0.111	0.325
-512.829	101.158	-0.180	0.208
-511.814	800.000	-0.085	0.280
-510.799	-161.194	0.319	-0.017
-509.785	-6.289	0.300	-0.204
-508.770	-59.064	-0.379	0.163
-507.756	249.472	0.059	-0.099
-506.741	-59.537	-0.305	0.130
-505.726	-7.325	0.127	-0.086
-504.712	-193.880	0.309	0.003
-503.697	-97.765	-0.176	-0.045
-502.683	334.490	-0.034	0.065
-501.668	72.945	-0.323	0.336
-500.653	146.739	0.043	0.058
-499.639	-49.441	-0.160	-0.076
-498.624	641.903	-0.038	0.095
-497.610	214.184	0.055	-0.087
-496.595	258.727	0.187	-0.321
-495.581	-146.902	0.177	0.015
-494.566	-105.526	-0.070	0.016
-493.551	101.955	0.043	-0.050
-492.537	-200.000	0.057	0.254
-491.522	-162.155	0.250	-0.012
-490.508	-200.000	-0.009	-0.178
-489.493	800.000	0.089	0.352
-488.478	-139.418	-0.390	0.042
-487.464	155.067	-0.160	-0.219
-486.449	253.263	-0.210	0.357
-485.435	-141.418	-0.062	-0.006
-484.420	7.481	-0.079	0.059
-483.405	497.642	-0.040	0.092
-482.391	309.057	-0.122	-0.227
-481.376	-156.868	-0.148	-0.009
-480.362	-200.000	-0.058	-0.395
-479.347	293.143	0.126	-0.229
-478.332	20.913	0.208	-0.167
-477.318	-29.859	-0.265	0.150
-476.303	342.681	-0.084	-0.164
-475.289	-54.910	0.400	-0.179
-474.274	41.561	-0.234	-0.211
-473.259	-169.035	-0.296	-0.011
-472.245	-101.950	0.152	0.036
-471.230	-43.746	0.171	0.086
-470.216	-98.483	-0.369	-0.094
-469.201	-90.827	-0.195	-0.056
-468.186	-124.734	0.026	-0.004
-467.172	-177.173	-0.372	-0.009
-466.157	-50.271	-0.018	0.008
-465.143	-200.000	0.022	-0.386
-464.128	469.322	-0.179	-0.399
-463.113	800.000	0.086	-0.294
-462.099	-94.409	-0.088	-0.024
-461.084	-52.616	0.150	0.069
-460.070	43.230	0.216	0.196
-459.055	-18.489	-0.278	0.173
-458.040	19.835	0.336	0.269
-457.026	108.695	0.087	0.104
-456.011	-200.000	-0.007	-0.364
-454.997	81.049	0.503	0.539
-453.982	443.896	-0.126	0.275
-452.968	-127.510	-0.216	-0.031
-451.953	800.000	-0.094	0.389
-450.938	572.758	0.093	-0.224
-449.924	-200.000	-0.030	0.184
-448.909	-34.824	-0.196	0.107
-447.895	90.345	0.104	0.116
-446.880	-200.000	-0.290	-0.001
-445.865	-200.000	0.033	-0.183
-444.851	-3.578	0.252	0.174
-443.836	-5.404	0.402	-0.274
-442.822	800.000	-0.014	0.057
-441.807	420.780	0.048	0.101
-440.792	-119.304	0.146	0.025
-439.778	800.000	0.047	-0.169
-438.763	-80.410	0.135	0.045
-437.749	-73.891	0.107	0.039
-436.734	14.080	-0.104	-0.080
-435.719	69.226	-0.305	0.311
-434.705	679.531	0.052	-0.133
-433.690	-200.000	-0.010	0.156
-432.676	-106.704	-0.313	0.069
-431.661	-127.319	-0.019	0.003
-430.646	400.582	-0.110	-0.228
-429.632	525.871	0.096	0.224
-428.617	-34.884	-0.237	0.128
-427.603	32.350	-0.184	-0.158
-426.588	800.000	-0.081	-0.319
-425.573	-93.091	-0.115	-0.032
-424.559	298.077	0.157	-0.286
-423.544	-89.743	-0.145	-0.042
-422.530	-200.000	-0.006	-0.119
-421.515	800.000	0.054	0.237
-420.500	63.694	-0.220	0.219
-419.486	-63.873	-0.169	0.069
-418.471	177.850	-0.258	0.374
-417.457	-28.866	-0.111	-0.063
-416.442	-34.605	-0.131	0.071
-415.428	-64.545	0.282	0.114
-414.413	-21.490	-0.064	-0.038
-413.398	-200.000	-0.027	0.184
-412.384	-7.071	-0.440	-0.296
-411.369	-87.456	-0.232	0.070
-410.355	17.219	0.155	-0.122
-409.340	-129.253	-0.189	-0.026
-408.325	800.000	0.059	-0.230
-407.311	-200.000	0.024	0.152
-406.296	-86.650	0.079	0.024
-405.282	-200.000	-0.030	-0.152
-404.267	57.715	-0.142	-0.138
-403.252	26.681	0.170	0.141
-402.238	-200.000	-0.004	0.207
-401.223	-11.909	-0.014	0.009
-400.209	-112.286	0.143	0.028
-399.194	60.512	-0.141	-0.139
-398.179	215.253	-0.227	0.357
-397.165	-116.094	0.179	0.033
-396.150	31.518	0.149	-0.127
-395.136	-200.000	0.008	0.256
-394.121	800.000	0.095	0.265
-393.106	-109.376	0.253	-0.053
-392.092	-200.000	0.015	0.102
-391.077	127.661	-0.035	-0.044
-390.063	417.849	-0.039	-0.082
-389.048	-116.863	0.211	-0.038
-388.033	237.656	-0.080	-0.132
-387.019	-171.873	0.283	-0.009
-386.004	-10.961	-0.151	-0.099
-384.990	-200.000	-0.000	0.043
-383.975	-105.578	0.285	0.064
-382.960	-26.586	-0.124	-0.072
-381.946	-126.844	0.101	-0.015
-380.931	43.281	0.168	0.152
-379.917	800.000	-0.097	-0.265
-378.902	145.532	-0.198	0.262
-377.888	-122.005	-0.144	0.023
-376.873	800.000	0.193	-0.531
-375.858	-112.829	-0.134	-0.026
-374.844	60.383	-0.063	-0.062
-373.829	327.776	0.129	-0.246
-372.815	8.697	0.201	0.150
-371.800	310.648	-0.053	-0.099
-370.785	-131.767	-0.218	-0.028
-369.771	-200.000	-0.030	-0.318
-368.756	-200.000	-0.034	0.148
-367.742	-200.000	0.068	-0.341
-366.727	-50.026	-0.228	0.107
-365.712	94.409	0.206	0.232
-364.698	-200.000	-0.024	-0.194
-363.683	-86.502	0.075	-0.023
-362.669	506.205	-0.205	0.472
-361.654	800.000	0.006	-0.020
-360.639	800.000	-0.066	-0.228
-359.625	-20.196	-0.149	-0.091
-358.610	-6.954	-0.163	-0.109
-357.596	434.191	-0.023	0.050
-356.581	-199.907	-0.198	-0.001
-355.566	11.939	0.239	-0.182
-354.552	57.163	0.169	-0.163
-353.537	-200.000	0.006	-0.035
-352.523	800.000	0.108	-0.319
-351.508	-1.983	0.094	0.065
-350.493	-6.426	-0.291	0.196
-349.479	87.529	0.098	0.107
-348.464	224.162	-0.048	-0.076
-347.450	179.756	0.173	-0.250
-346.435	-80.951	0.166	-0.054
-345.420	105.701	0.169	0.198
-344.406	-200.000	0.077	0.395
-343.391	-113.231	0.258	0.050
-342.377	-200.000	-0.035	-0.170
-341.362	-6.141	-0.074	0.050
-340.348	-120.205	0.166	-0.028
-339.333	-200.000	-0.000	-0.088
-338.318	492.785	0.056	0.126
-337.304	11.572	0.297	0.225
-336.289	-24.683	0.131	-0.077
-335.275	-55.909	0.098	-0.043
-334.260	-137.495	0.120	-0.013
-333.245	-90.076	-0.359	0.104
-332.231	-44.202	0.192	0.095
-331.216	800.000	0.043	0.124
-330.202	-86.268	-0.224	0.068
-329.187	-116.152	-0.125	-0.023
-328.172	-86.399	-0.304	0.092
-327.158	22.230	-0.079	-0.064
-326.143	-200.000	-0.051	-0.278
-325.129	66.079	-0.275	0.276
-324.114	183.345	-0.104	0.152
-323.099	530.973	0.050	0.116
-322.085	-118.790	0.261	0.045
-321.070	29.899	0.179	-0.150
-320.056	-144.858	-0.285	-0.026
-319.041	215.754	0.030	-0.047
-318.026	-200.000	-0.026	0.139
-317.012	800.000	0.106	0.310
-315.997	361.275	-0.079	-0.156
-314.983	16.060	0.116	-0.090
-313.968	29.209	0.113	-0.095
-312.953	166.415	0.075	0.105
-311.939	800.000	0.088	-0.375
-310.924	126.277	-0.098	-0.122
-309.910	-14.962	0.285	-0.180
-308.895	-58.172	0.186	-0.080
-307.880	-88.018	-0.108	0.032
-306.866	293.727	-0.055	0.100
-305.851	-196.922	0.360	-0.002
-304.837	24.501	0.176	-0.144
-303.822	800.000	0.035	-0.153
-302.807	-128.601	-0.095	-0.013
-301.793	47.695	-0.028	0.025
-300.778	555.004	0.041	0.098
-299.764	324.754	0.096	0.180
-298.749	-104.874	-0.439	0.100
-297.735	-10.390	0.239	0.157
-296.720	39.557	0.152	0.135
-295.705	252.080	-0.062	0.105
-294.691	-73.386	0.088	-0.032
-293.676	103.816	0.105	-0.122
-292.662	166.631	-0.065	-0.091
-291.647	800.000	-0.104	0.300
-290.632	800.000	-0.015	0.063
-289.618	-116.553	0.281	0.051
-288.603	117.092	0.043	-0.053
-287.589	800.000	0.041	0.145
-286.574	800.000	0.075	0.307
-285.559	-200.000	0.022	0.344
-284.545	291.008	0.077	-0.138
-283.530	-51.826	0.296	-0.136
-282.516	-200.000	-0.017	-0.208
-281.501	-99.007	-0.219	-0.055
-280.486	143.543	0.085	0.112
-279.472	800.000	0.045	-0.177
-278.457	-80.050	0.123	-0.041
-277.443	-200.000	-0.012	-0.210
-276.428	-115.516	-0.170	0.032
-275.413	-120.403	0.399	0.067
-274.399	-20.162	0.193	-0.117
-273.384	800.000	0.069	0.216
-272.370	800.000	0.063	-0.197
-271.355	17.262	-0.302	0.237
-270.340	53.036	-0.324	-0.306
-269.326	-172.591	0.180	-0.006
-268.311	-103.329	-0.253	0.059
-267.297	-153.653	-0.197	0.013
-266.282	-94.171	0.245	0.066
-265.267	76.165	-0.113	0.118
-264.253	552.172	0.069	0.164
-263.238	-93.533	-0.105	0.029
-262.224	-35.265	0.389	0.209
-261.209	-168.262	0.114	0.004
-260.195	-200.000	0.036	-0.276
-259.180	800.000	-0.058	0.177
-258.165	-17.918	0.184	0.114
-257.151	80.618	-0.142	-0.151
-256.136	-175.508	0.121	0.003
-255.122	-189.105	-0.194	0.002
-254.107	455.955	-0.103	-0.225
-253.092	76.906	-0.374	0.391
-252.078	-200.000	-0.018	0.262
-251.063	-107.455	0.320	-0.069
-250.049	-143.426	-0.140	-0.013
-249.034	-200.000	0.009	0.060
-248.019	-91.574	0.371	0.104
-247.005	164.812	-0.198	-0.275
-245.990	-12.268	0.293	0.189
-244.976	800.000	0.138	0.439
-243.961	65.238	-0.046	0.046
-242.946	800.000	-0.013	-0.053
-241.932	800.000	-0.062	-0.267
-240.917	258.322	-0.052	-0.088
-239.903	-52.038	-0.246	0.112
-238.888	190.230	0.150	0.222
-237.873	22.450	-0.214	0.172
-236.859	139.064	0.080	-0.103
-235.844	-127.437	0.346	0.050
-234.830	-200.000	0.007	0.060
-233.815	33.085	0.306	0.262
-232.800	25.963	0.113	0.093
-231.786	4.184	-0.242	-0.174
-230.771	-47.998	0.084	-0.040
-229.757	359.698	-0.110	0.217
-228.742	-200.000	-0.002	0.456
-227.727	-174.741	0.442	0.012
-226.713	210.953	-0.075	0.117
-225.698	-200.000	-0.011	0.281
-224.684	-175.782	0.251	-0.007
-223.669	44.807	0.158	-0.143
-222.655	-89.603	0.166	-0.048
-221.640	-156.238	-0.343	0.021
-220.625	-81.281	0.169	0.055
-219.611	140.527	-0.217	0.282
-218.596	126.995	0.097	-0.121
-217.582	119.559	-0.137	-0.168
-216.567	147.800	-0.100	-0.133
-215.552	-200.000	0.021	-0.109
-214.538	329.198	-0.036	-0.068
-213.523	-72.259	0.431	0.157
-212.509	183.806	-0.141	0.206
-211.494	800.000	-0.054	0.202
-210.479	157.571	0.113	0.154
-209.465	-21.087	-0.294	0.177
-208.450	51.007	0.128	0.119
-207.436	-51.999	0.153	0.070
-206.421	30.041	0.146	-0.123
-205.406	376.334	-0.195	0.392
-204.392	-0.377	0.120	-0.084
-203.377	-49.210	0.206	0.097
-202.363	-31.699	0.257	-0.142
-201.348	357.374	-0.213	-0.418
-200.333	-13.973	-0.243	-0.155
-199.319	631.472	-0.020	0.049
-198.304	-200.000	0.019	-0.220
-197.290	-200.000	-0.031	-0.214
-196.275	-187.252	-0.138	0.002
-195.260	175.227	0.147	-0.209
-194.246	-83.628	0.180	-0.056
-193.231	-94.103	-0.213	0.057
-192.217	367.639	0.041	0.081
-191.202	-200.000	-0.021	-0.264
-190.187	411.469	-0.022	-0.045
-189.173	-144.591	-0.070	-0.006
-188.158	-93.386	0.600	-0.164
-187.144	-200.000	-0.003	-0.540
-186.129	21.300	-0.062	-0.050
-185.114	112.636	-0.168	0.199
-184.100	667.664	-0.091	-0.231
-183.085	-82.457	-0.396	-0.127
-182.071	-200.000	0.011	0.134
-181.056	-99.809	-0.328	0.081
-180.042	800.000	0.090	0.339
-179.027	-121.641	-0.364	0.059
-178.012	63.738	-0.065	0.064
-176.998	60.501	0.061	0.059
-175.983	-61.602	-0.048	-0.020
-174.969	451.928	0.135	0.294
-173.954	446.263	0.008	-0.017
-172.939	-200.000	-0.010	-0.129
-171.925	800.000	0.051	-0.184
-170.910	750.073	0.119	0.314
-169.896	156.973	-0.131	-0.178
-168.881	-24.090	-0.160	0.094
-167.866	-27.165	0.037	-0.021
-166.852	-57.856	-0.113	-0.048
-165.837	309.758	-0.111	0.204
-164.823	800.000	-0.073	0.203
-163.808	246.468	0.074	-0.123
-162.793	29.691	0.296	-0.247
-161.779	-179.167	0.077	0.002
-160.764	-43.291	-0.170	-0.084
-159.750	-4.711	-0.122	0.083
-158.735	800.000	-0.061	-0.201
-157.720	16.969	0.014	-0.011
-156.706	-200.000	-0.002	0.455
-155.691	51.463	-0.027	-0.025
-154.677	-142.867	-0.106	-0.010
-153.662	-56.100	0.186	-0.081
-152.647	318.139	-0.128	0.239
-151.633	-67.629	0.084	0.032
-150.618	-140.928	-0.093	0.009
-149.604	-106.414	-0.279	-0.061
-148.589	-31.420	-0.085	-0.047
-147.574	-144.266	0.373	0.034
-146.560	-183.048	-0.068	0.001
-145.545	-82.842	-0.164	0.052
-144.531	-114.008	0.256	-0.049
-143.516	-67.521	0.344	0.133
-142.502	-74.563	0.069	-0.024
-141.487	515.142	0.024	0.055
-140.472	8.448	0.239	-0.177
-139.458	800.000	0.069	-0.229
-138.443	-25.910	-0.363	0.210
-137.429	520.749	0.064	0.148
-136.414	-200.000	-0.020	0.157
-135.399	-80.948	-0.257	-0.083
-134.385	800.000	0.058	-0.241
-133.370	127.868	0.082	-0.102
-132.356	-94.529	-0.142	0.038
-131.341	-95.152	-0.080	-0.021
-130.326	46.041	-0.188	-0.170
-129.312	-200.000	0.006	0.032
-128.297	-158.953	0.258	-0.014
-127.283	144.742	0.153	0.200
-126.268	322.785	-0.092	-0.172
-125.253	185.491	-0.100	0.145
-124.239	209.468	0.192	0.296
-123.224	-99.921	0.286	-0.070
