DTS Sentinel unit serial number:	SN413079Multiplexer serial number:	ORYXHardware model number:	OX4-SRSoftware version number:	ORYX F/W v4.00 Oryx Data Collector v3.7.2.0data status	okinstallation	princeton_trtdifferential loss correction	single-endedforward channel	channel 3reverse channel	N/Adate	2019/09/15time	01:20:35forward acquisition time	60.00reverse acquisition time	0.00gamma	496.2192k internal	0.2321k external	0.2321temperature offset calibration	0.9965default loss term (dB/km)	0.3790temperature slope calibration	1.0000multiplexer offset coefficient	1.0000multiplexer slope coefficient	1.0000fibre end	0.00T internal ref (°C)	31.91T ext. ref 1 (°C)	4.49T ext. ref 2 (°C)	26.81length (m)	temperature (°C)	Stokes	anti-Stokes-747.200	-148.433	0.327	-0.027
-746.185	130.401	0.143	-0.185
-745.171	-16.890	-0.114	0.073
-744.156	800.000	0.030	0.087
-743.142	70.121	-0.175	0.182
-742.127	-48.410	-0.071	-0.035
-741.112	610.098	0.070	0.177
-740.098	148.484	0.123	0.168
-739.083	-50.792	0.076	0.036
-738.069	175.225	-0.153	-0.223
-737.054	109.159	0.036	0.043
-736.039	186.975	0.108	-0.162
-735.025	18.882	0.137	0.111
-734.010	-13.424	-0.303	-0.198
-732.996	125.063	-0.174	-0.221
-731.981	-51.498	0.330	-0.156
-730.966	-38.669	-0.437	0.233
-729.952	800.000	0.074	-0.218
-728.937	-200.000	-0.026	0.000
-727.923	87.988	0.091	-0.102
-726.908	62.350	0.128	0.129
-725.894	131.880	0.135	0.176
-724.879	64.188	-0.387	-0.393
-723.864	-130.271	-0.436	-0.060
-722.850	376.778	-0.088	0.182
-721.835	411.774	-0.261	-0.560
-720.821	262.842	-0.181	-0.318
-719.806	38.655	0.175	0.157
-718.791	-28.044	0.061	0.035
-717.777	800.000	0.073	-0.203
-716.762	-200.000	-0.004	-0.052
-715.748	602.679	0.069	0.174
-714.733	800.000	-0.031	-0.104
-713.718	134.729	-0.155	-0.204
-712.704	40.360	-0.186	0.169
-711.689	330.262	-0.190	0.370
-710.675	-177.714	0.168	-0.004
-709.660	-58.083	0.166	0.073
-708.645	315.896	-0.118	0.225
-707.631	334.288	0.076	0.148
-706.616	88.747	0.165	-0.186
-705.602	-54.714	0.364	-0.166
-704.587	800.000	-0.124	0.417
-703.572	-119.372	-0.299	-0.053
-702.558	-200.000	0.023	-0.123
-701.543	-91.798	0.180	-0.052
-700.529	198.425	-0.155	0.239
-699.514	-200.000	-0.018	0.310
-698.499	70.615	0.093	0.097
-697.485	-157.576	-0.249	-0.015
-696.470	578.827	0.061	0.150
-695.456	103.590	-0.184	-0.218
-694.441	-200.000	-0.011	-0.154
-693.426	60.967	0.130	-0.130
-692.412	117.105	-0.202	-0.251
-691.397	800.000	-0.098	-0.344
-690.383	-4.150	0.150	0.105
-689.368	-174.396	-0.117	0.003
-688.354	109.074	-0.119	0.143
-687.339	800.000	-0.059	-0.233
-686.324	132.722	0.058	0.076
-685.310	183.000	0.113	0.168
-684.295	12.284	-0.089	-0.069
-683.281	-20.735	-0.172	-0.106
-682.266	26.578	-0.238	0.201
-681.251	159.195	-0.078	0.110
-680.237	314.676	-0.233	-0.442
-679.222	110.843	0.081	-0.099
-678.208	79.549	-0.395	-0.428
-677.193	-200.000	-0.002	-0.174
-676.178	161.315	0.108	-0.153
-675.164	22.633	0.208	-0.172
-674.149	11.549	-0.221	-0.171
-673.135	143.005	0.095	-0.127
-672.120	111.314	-0.238	0.289
-671.105	234.782	0.064	0.106
-670.091	246.055	-0.080	0.135
-669.076	-137.604	-0.293	-0.033
-668.062	-200.000	-0.038	-0.352
-667.047	4.768	-0.196	-0.145
-666.032	60.135	0.262	-0.262
-665.018	-200.000	-0.059	-0.305
-664.003	-59.185	0.044	0.019
-662.989	-107.256	-0.171	-0.038
-661.974	-96.905	-0.200	-0.053
-660.959	-56.160	-0.146	0.065
-659.945	242.133	0.213	-0.360
-658.930	-29.496	-0.204	-0.118
-657.916	-200.000	0.008	0.087
-656.901	-200.000	0.037	-0.447
-655.886	-73.005	-0.269	-0.099
-654.872	800.000	0.051	-0.224
-653.857	-200.000	-0.078	-0.343
-652.843	-200.000	0.017	0.130
-651.828	-67.406	0.316	0.125
-650.814	-109.628	-0.162	-0.034
-649.799	126.445	0.083	-0.106
-648.784	-20.368	0.390	-0.242
-647.770	-200.000	-0.010	-0.053
-646.755	-105.241	-0.072	0.017
-645.741	228.542	0.015	0.024
-644.726	25.543	-0.214	-0.179
-643.711	800.000	-0.116	-0.370
-642.697	-99.694	-0.265	-0.067
-641.682	171.376	-0.085	0.123
-640.668	-166.792	-0.211	-0.009
-639.653	363.181	-0.075	-0.152
-638.638	-200.000	-0.041	-0.254
-637.624	-101.457	-0.074	-0.018
-636.609	-155.309	0.415	-0.027
-635.595	-19.447	0.197	-0.123
-634.580	160.469	-0.054	0.075
-633.565	421.156	0.038	-0.082
-632.551	5.842	-0.164	-0.122
-631.536	-200.000	-0.001	0.238
-630.522	-200.000	0.003	0.085
-629.507	183.069	0.091	0.135
-628.492	-38.914	0.058	0.031
-627.478	-200.000	0.054	-0.276
-626.463	-200.000	-0.017	-0.304
-625.449	91.120	-0.022	0.025
-624.434	174.706	-0.109	0.159
-623.419	3.438	0.199	-0.146
-622.405	-150.166	0.191	-0.015
-621.390	-200.000	0.015	0.091
-620.376	-71.412	-0.112	-0.042
-619.361	-55.122	0.157	-0.071
-618.346	52.676	-0.167	-0.161
-617.332	-200.000	0.009	-0.227
-616.317	-190.055	-0.539	0.006
-615.303	800.000	-0.007	0.022
-614.288	116.557	0.075	0.092
-613.273	107.579	-0.264	-0.316
-612.259	-101.322	0.135	0.033
-611.244	-56.587	0.285	0.127
-610.230	-27.106	-0.329	0.193
-609.215	800.000	-0.138	-0.410
-608.201	-30.175	0.374	-0.214
-607.186	769.320	-0.055	0.149
-606.171	529.403	0.061	-0.146
-605.157	95.198	-0.190	0.218
-604.142	0.451	-0.165	0.119
-603.128	-148.416	-0.255	-0.021
-602.113	-200.000	0.048	-0.314
-601.098	791.716	0.081	0.225
-600.084	-200.000	-0.006	-0.103
-599.069	-94.339	-0.256	0.070
-598.055	-30.651	0.178	0.101
-597.040	-80.887	-0.121	0.040
-596.025	94.415	-0.092	0.105
-595.011	-54.389	0.120	-0.055
-593.996	-64.330	-0.431	-0.176
-592.982	91.458	0.111	0.125
-591.967	-200.000	0.001	-0.022
-590.952	-8.204	-0.253	0.171
-589.938	141.803	-0.064	-0.085
-588.923	78.207	0.204	-0.219
-587.909	126.535	-0.153	-0.194
-586.894	-181.325	-0.160	0.003
-585.879	103.947	0.069	0.081
-584.865	-200.000	-0.014	0.114
-583.850	-200.000	0.015	0.206
-582.836	-68.767	0.092	-0.036
-581.821	22.117	-0.036	-0.030
-580.806	51.354	-0.137	-0.130
-579.792	50.463	0.199	0.189
-578.777	-121.450	0.262	0.044
-577.763	-200.000	-0.041	-0.257
-576.748	800.000	-0.051	-0.195
-575.733	800.000	-0.118	0.328
-574.719	-83.539	-0.308	0.099
-573.704	2.592	-0.261	-0.190
-572.690	-158.568	0.132	0.008
-571.675	-14.579	0.091	-0.059
-570.661	-200.000	-0.011	0.349
-569.646	-101.612	0.232	-0.057
-568.631	120.941	0.122	-0.152
-567.617	38.304	-0.055	0.049
-566.602	-144.168	0.225	-0.021
-565.588	-200.000	-0.044	-0.248
-564.573	80.156	0.280	0.302
-563.558	72.744	0.280	-0.293
-562.544	64.778	-0.177	0.179
-561.529	-100.364	-0.352	0.088
-560.515	175.618	-0.026	0.037
-559.500	59.152	-0.070	-0.070
-558.485	256.912	-0.053	0.092
-557.471	88.876	0.189	0.211
-556.456	30.371	-0.165	0.141
-555.442	50.146	-0.039	-0.037
-554.427	800.000	-0.055	0.239
-553.412	439.540	0.026	-0.058
-552.398	400.639	0.057	-0.121
-551.383	347.449	0.158	0.313
-550.369	-42.873	-0.331	0.169
-549.354	-200.000	-0.024	-0.146
-548.339	95.242	0.194	-0.221
-547.325	-200.000	0.013	0.204
-546.310	-23.126	-0.183	0.111
-545.296	147.714	0.080	0.109
-544.281	-124.705	0.184	-0.029
-543.266	-200.000	0.045	0.364
-542.252	97.279	0.114	0.132
-541.237	286.120	0.055	-0.099
-540.223	-120.361	-0.219	0.037
-539.208	9.232	0.185	-0.140
-538.193	-200.000	0.009	0.487
-537.179	556.041	-0.181	0.437
-536.164	-200.000	-0.055	-0.264
-535.150	-154.027	0.351	-0.024
-534.135	6.765	-0.224	0.167
-533.121	86.235	0.135	-0.149
-532.106	-186.052	-0.197	-0.003
-531.091	-137.914	0.180	0.020
-530.077	112.130	-0.068	0.083
-529.062	403.162	0.117	0.246
-528.048	800.000	-0.064	0.233
-527.033	-90.188	-0.191	0.056
-526.018	-200.000	-0.004	0.091
-525.004	-50.922	0.206	-0.097
-523.989	493.910	0.058	0.134
-522.975	-96.300	0.154	0.041
-521.960	-181.835	-0.305	0.006
-520.945	359.315	-0.043	0.086
-519.931	-87.343	0.301	-0.091
-518.916	-56.075	0.068	0.031
-517.902	-17.352	0.094	0.059
-516.887	-84.249	-0.250	0.079
-515.872	38.884	-0.159	0.143
-514.858	49.360	-0.110	-0.104
-513.843	11.946	-0.213	-0.164
-512.829	-113.476	-0.076	0.015
-511.814	183.807	0.107	0.158
-510.799	-200.000	-0.009	-0.097
-509.785	-200.000	0.002	0.143
-508.770	-200.000	-0.009	-0.045
-507.756	-63.815	-0.588	0.241
-506.741	129.371	0.160	-0.205
-505.726	81.668	-0.150	-0.162
-504.712	96.337	-0.129	0.148
-503.697	-164.706	0.100	0.005
-502.683	88.868	0.196	-0.219
-501.668	46.449	-0.235	0.218
-500.653	-116.347	-0.247	0.046
-499.639	143.027	-0.100	-0.133
-498.624	-120.420	-0.061	-0.010
-497.610	297.731	0.203	-0.373
-496.595	-200.000	-0.005	0.053
-495.581	-152.643	-0.375	0.027
-494.566	-200.000	-0.030	-0.147
-493.551	-145.079	0.286	0.026
-492.537	-63.520	0.038	-0.016
-491.522	-200.000	-0.027	-0.140
-490.508	-3.154	-0.059	-0.041
-489.493	-65.288	-0.200	0.080
-488.478	7.468	-0.133	0.100
-487.464	-200.000	0.021	-0.215
-486.449	636.302	-0.057	-0.146
-485.435	523.873	-0.145	0.341
-484.420	-109.101	-0.093	-0.020
-483.405	-71.588	0.298	0.111
-482.391	5.986	0.170	0.126
-481.376	-200.000	-0.025	0.371
-480.362	-200.000	0.046	-0.281
-479.347	-14.009	-0.385	0.249
-478.332	33.979	0.024	0.021
-477.318	12.984	0.179	-0.139
-476.303	29.219	0.095	-0.080
-475.289	340.138	0.127	0.249
-474.274	88.406	0.211	-0.235
-473.259	31.054	-0.034	-0.029
-472.245	273.901	-0.089	0.157
-471.230	-200.000	-0.087	0.426
-470.216	-155.356	-0.133	-0.009
-469.201	-111.168	0.274	0.056
-468.186	-49.874	0.089	0.042
-467.172	-65.360	-0.363	-0.146
-466.157	185.892	0.237	-0.353
-465.143	24.565	-0.147	-0.121
-464.128	800.000	-0.044	-0.141
-463.113	800.000	-0.019	-0.059
-462.099	-200.000	0.010	-0.130
-461.084	-170.848	-0.570	-0.020
-460.070	-79.918	-0.123	-0.041
-459.055	-101.164	-0.273	-0.067
-458.040	63.024	0.146	-0.146
-457.026	-20.822	-0.073	-0.045
-456.011	-200.000	0.015	0.220
-454.997	-105.679	0.282	-0.064
-453.982	57.392	0.272	-0.266
-452.968	-200.000	0.056	-0.262
-451.953	-45.776	0.239	-0.118
-450.938	2.025	0.136	0.098
-449.924	-163.826	-0.305	-0.014
-448.909	-102.550	0.241	0.057
-447.895	-200.000	0.005	0.043
-446.880	-200.000	0.071	-0.320
-445.865	-200.000	-0.000	0.088
-444.851	-27.254	0.368	-0.214
-443.836	21.158	-0.138	-0.112
-442.822	67.670	-0.253	0.258
-441.807	-105.337	0.011	0.003
-440.792	-200.000	-0.007	0.270
-439.778	-196.640	-0.041	0.000
-438.763	605.448	0.080	-0.199
-437.749	-109.825	-0.197	-0.041
-436.734	-144.030	-0.153	0.014
-435.719	-200.000	-0.030	-0.141
-434.705	7.366	-0.213	-0.159
-433.690	-200.000	-0.012	-0.054
-432.676	-200.000	0.047	-0.278
-431.661	-23.407	0.260	0.156
-430.646	-200.000	-0.011	-0.192
-429.632	186.599	0.049	0.072
-428.617	-84.475	0.119	-0.037
-427.603	67.884	-0.023	-0.023
-426.588	628.133	0.067	-0.168
-425.573	-66.252	-0.065	0.026
-424.559	22.014	0.110	0.090
-423.544	699.581	-0.030	-0.080
-422.530	298.763	0.165	0.303
-421.515	38.147	-0.243	0.216
-420.500	-77.959	0.070	0.024
-419.486	-200.000	-0.003	0.116
-418.471	-89.835	0.109	0.032
-417.457	-37.833	0.239	0.127
-416.442	-0.810	-0.110	0.078
-415.428	135.759	-0.164	-0.213
-414.413	-18.592	-0.174	0.108
-413.398	-200.000	0.024	0.178
-412.384	30.520	-0.077	0.066
-411.369	-60.642	0.105	-0.045
-410.355	-200.000	-0.031	-0.198
-409.340	13.029	-0.156	0.121
-408.325	-116.793	-0.099	0.018
-407.311	-54.769	0.093	-0.042
-406.296	-200.000	0.023	0.133
-405.282	-200.000	0.077	0.460
-404.267	-179.076	0.183	-0.004
-403.252	-44.305	-0.376	-0.188
-402.238	265.022	-0.082	-0.142
-401.223	68.210	-0.207	0.212
-400.209	-200.000	0.019	0.514
-399.194	-180.131	-0.084	0.002
-398.179	-200.000	-0.074	-0.367
-397.165	-120.823	-0.597	-0.100
-396.150	800.000	0.033	-0.112
-395.136	800.000	0.105	-0.400
-394.121	-44.108	-0.092	0.046
-393.106	24.436	0.153	0.126
-392.092	316.950	-0.116	-0.219
-391.077	-35.046	-0.064	0.035
-390.063	-12.213	-0.175	0.114
-389.048	63.758	0.098	-0.098
-388.033	800.000	-0.011	0.037
-387.019	-45.175	0.381	0.189
-386.004	72.213	-0.150	-0.155
-384.990	-156.640	0.318	-0.020
-383.975	752.892	-0.023	0.061
-382.960	-200.000	-0.002	0.165
-381.946	-32.510	0.102	-0.057
-380.931	132.741	-0.131	-0.168
-379.917	506.507	-0.049	-0.114
-378.902	800.000	-0.076	-0.211
-377.888	-2.396	0.254	-0.178
-376.873	133.769	-0.197	-0.254
-375.858	94.250	0.021	-0.024
-374.844	-45.757	-0.385	0.190
-373.829	-161.708	-0.150	0.008
-372.815	800.000	-0.075	-0.308
-371.800	306.698	0.124	0.231
-370.785	325.924	-0.145	0.276
-369.771	210.190	0.214	0.335
-368.756	-200.000	0.009	0.247
-367.742	-123.569	-0.312	0.049
-366.727	-90.496	-0.325	-0.094
-365.712	-146.501	-0.122	0.011
-364.698	-61.043	-0.247	-0.104
-363.683	334.171	0.057	0.109
-362.669	-27.330	0.271	0.157
-361.654	-200.000	-0.002	-0.296
-360.639	-200.000	0.030	0.151
-359.625	69.304	-0.117	0.120
-358.610	562.089	0.132	0.317
-357.596	118.830	0.116	-0.142
-356.581	-200.000	-0.009	0.126
-355.566	-37.848	0.160	0.085
-354.552	-56.526	-0.191	-0.084
-353.537	141.924	0.116	0.153
-352.523	-93.793	0.185	0.051
-351.508	392.377	0.133	0.276
-350.493	-7.358	-0.070	0.047
-349.479	-3.626	0.133	-0.092
-348.464	345.119	0.187	-0.365
-347.450	800.000	-0.022	-0.083
-346.435	-22.956	0.074	-0.045
-345.420	-200.000	0.026	-0.143
-344.406	-68.742	0.082	0.032
-343.391	284.263	-0.164	0.294
-342.377	-41.085	0.115	0.059
-341.362	800.000	0.072	-0.278
-340.348	-113.121	-0.033	-0.007
-339.333	-200.000	-0.039	-0.191
-338.318	-50.004	-0.184	0.087
-337.304	606.084	0.104	0.259
-336.289	621.292	-0.065	-0.163
-335.275	800.000	-0.013	-0.043
-334.260	800.000	-0.128	0.369
-333.245	800.000	-0.074	0.284
-332.231	-200.000	-0.005	-0.062
-331.216	-200.000	0.011	-0.146
-330.202	16.884	-0.177	-0.139
-329.187	-68.981	-0.099	-0.038
-328.172	246.507	0.122	0.205
-327.158	122.876	0.233	-0.290
-326.143	-106.350	0.305	0.068
-325.129	380.534	0.099	0.202
-324.114	-200.000	-0.003	-0.046
-323.099	800.000	-0.141	0.484
-322.085	-24.770	0.262	0.155
-321.070	-29.675	-0.172	-0.098
-320.056	342.192	-0.132	0.257
-319.041	-200.000	0.015	-0.187
-318.026	194.862	0.154	0.232
-317.012	320.581	-0.075	-0.142
-315.997	-200.000	-0.003	-0.122
-314.983	-75.309	-0.173	-0.062
-313.968	-108.092	0.323	-0.070
-312.953	800.000	-0.097	-0.274
-311.939	-81.860	-0.476	0.155
-310.924	-135.368	0.142	-0.017
-309.910	-78.869	-0.145	-0.049
-308.895	-192.292	0.369	0.003
-307.880	363.748	0.026	0.052
-306.866	-200.000	0.005	-0.099
-305.851	-88.141	0.255	-0.076
-304.837	-200.000	0.017	-0.080
-303.822	236.103	0.256	0.420
-302.807	800.000	0.061	-0.239
-301.793	-48.383	0.149	-0.071
-300.778	143.523	0.220	-0.291
-299.764	-138.442	0.365	-0.040
-298.749	140.813	0.234	-0.307
-297.735	-91.400	0.340	-0.097
-296.720	-61.935	-0.281	-0.117
-295.705	-63.129	-0.035	0.014
-294.691	-48.367	0.017	-0.008
-293.676	91.854	-0.071	0.079
-292.662	-200.000	0.012	0.170
-291.647	462.575	0.100	-0.223
-290.632	-200.000	0.056	0.259
-289.618	464.778	0.077	0.171
-288.603	505.752	0.038	0.087
-287.589	71.549	0.118	-0.122
-286.574	-200.000	-0.046	-0.231
-285.559	511.184	-0.053	0.121
-284.545	-200.000	0.019	0.183
-283.530	-190.474	0.291	-0.003
-282.516	-200.000	0.019	-0.223
-281.501	0.740	-0.120	0.085
-280.486	-200.000	0.020	0.120
-279.472	195.644	-0.152	0.230
-278.457	-200.000	-0.003	-0.075
-277.443	-106.966	0.479	-0.105
-276.428	-200.000	0.009	0.214
-275.413	-200.000	-0.045	-0.257
-274.399	-124.994	-0.401	0.061
-273.384	800.000	-0.074	0.208
-272.370	-5.113	0.112	-0.077
-271.355	-17.269	-0.393	0.246
-270.340	800.000	-0.060	-0.201
-269.326	83.081	0.178	0.192
-268.311	148.372	0.061	-0.082
-267.297	509.164	0.045	0.104
-266.282	-153.695	0.216	-0.015
-265.267	-200.000	0.010	-0.075
-264.253	-200.000	-0.023	-0.295
-263.238	654.132	-0.058	-0.148
-262.224	40.265	-0.042	-0.037
-261.209	-7.121	-0.091	0.061
-260.195	74.369	0.090	-0.094
-259.180	-32.514	0.097	-0.054
-258.165	-19.069	0.160	0.099
-257.151	-53.895	-0.336	0.152
-256.136	595.907	-0.123	-0.301
-255.122	800.000	-0.103	-0.315
-254.107	165.773	0.132	0.186
-253.092	-72.527	0.182	0.067
-252.078	-33.735	0.103	-0.056
-251.063	-84.375	0.245	0.077
-250.049	-200.000	0.029	0.254
-249.034	-94.025	-0.127	-0.034
-248.019	-200.000	-0.008	-0.045
-247.005	60.825	-0.201	-0.198
-245.990	487.831	0.116	0.262
-244.976	-4.939	-0.294	0.201
-243.961	-129.897	0.231	-0.031
-242.946	154.685	0.116	-0.158
-241.932	16.894	-0.360	-0.283
-240.917	-24.315	0.117	-0.069
-239.903	155.978	0.076	-0.104
-238.888	724.516	-0.092	-0.243
-237.873	-200.000	-0.005	-0.037
-236.859	178.464	0.196	-0.283
-235.844	-154.698	0.138	0.009
-234.830	-85.704	-0.058	0.018
-233.815	325.930	0.058	-0.110
-232.800	210.778	0.145	-0.226
-231.786	-55.894	0.173	-0.077
-230.771	-3.118	-0.214	0.148
-229.757	111.849	-0.133	-0.160
-228.742	469.552	0.125	0.279
-227.727	17.151	0.200	0.157
-226.713	-88.034	-0.141	-0.042
-225.698	698.109	0.095	-0.247
-224.684	800.000	-0.048	-0.132
-223.669	-200.000	-0.044	0.279
-222.655	-200.000	-0.034	0.160
-221.640	374.585	-0.022	-0.043
-220.625	92.863	-0.177	-0.198
-219.611	285.587	0.142	0.254
-218.596	-24.391	-0.032	0.019
-217.582	129.144	0.071	-0.089
-216.567	-89.315	0.228	0.067
-215.552	492.668	0.016	-0.037
-214.538	-97.366	0.449	0.116
-213.523	61.921	0.084	0.083
-212.509	-117.559	-0.362	-0.065
-211.494	-28.789	-0.155	-0.088
-210.479	-67.484	-0.143	-0.056
-209.465	4.749	0.139	-0.101
-208.450	-38.385	-0.244	0.128
-207.436	178.650	0.055	0.080
-206.421	-57.283	-0.122	0.053
-205.406	615.035	0.131	0.324
-204.392	-200.000	0.038	0.219
-203.377	0.845	0.295	-0.209
-202.363	800.000	0.029	0.111
-201.348	-88.837	-0.045	-0.013
-200.333	-200.000	0.012	-0.162
-199.319	29.506	-0.255	-0.215
-198.304	-163.719	-0.200	0.009
-197.290	-58.516	-0.147	0.063
-196.275	-106.237	0.452	-0.100
-195.260	559.084	-0.059	0.142
-194.246	90.520	0.060	0.067
-193.231	29.116	0.222	-0.187
-192.217	-100.487	0.177	0.043
-191.202	266.422	0.134	0.232
-190.187	-200.000	0.018	-0.163
-189.173	-200.000	0.095	-0.477
-188.158	-92.209	-0.340	-0.095
-187.144	800.000	0.076	-0.212
-186.129	6.023	-0.194	0.142
-185.114	-42.114	0.028	-0.014
-184.100	-71.069	0.031	-0.012
-183.085	-133.822	0.212	-0.026
-182.071	-95.258	0.174	-0.046
-181.056	33.094	-0.184	0.157
-180.042	136.677	-0.231	0.299
-179.027	145.755	-0.058	-0.077
-178.012	62.257	0.191	-0.188
-176.998	292.577	-0.147	0.266
-175.983	-16.685	-0.321	0.201
-174.969	-189.189	0.412	-0.005
-173.954	-1.331	-0.123	0.086
-172.939	-200.000	-0.016	-0.158
-171.925	-69.847	-0.136	-0.051
-170.910	-200.000	0.002	-0.330
-169.896	-34.481	0.324	0.176
-168.881	-200.000	0.036	0.347
-167.866	-77.474	0.156	-0.053
-166.852	-74.132	0.414	0.148
-165.837	-43.071	0.365	-0.183
-164.823	-131.785	0.235	0.030
-163.808	-125.882	0.165	-0.025
-162.793	392.644	-0.112	0.229
-161.779	-118.538	-0.416	0.073
-160.764	189.700	-0.037	-0.055
-159.750	1.046	-0.242	0.172
-158.735	-32.844	-0.255	0.140
-157.720	213.903	0.103	-0.160
-156.706	21.066	-0.253	0.203
-155.691	679.619	0.073	0.187
-154.677	35.895	0.192	-0.167
-153.662	-45.604	0.277	0.136
-152.647	104.369	0.070	-0.081
-151.633	7.154	0.151	-0.111
-150.618	-39.350	-0.188	-0.097
-149.604	-117.632	0.157	0.028
-148.589	800.000	0.088	0.380
-147.574	297.179	-0.074	0.135
-146.560	181.410	0.249	-0.362
-145.545	19.249	-0.235	-0.186
-144.531	-200.000	0.033	0.195
-143.516	-103.801	0.372	-0.086
-142.502	-200.000	0.252	0.000
-141.487	123.120	0.337	-0.416
-140.472	-30.724	-0.077	0.043
-139.458	-200.000	-0.031	-0.202
-138.443	-52.494	-0.058	0.027
-137.429	-119.136	-0.205	0.035
-136.414	800.000	0.058	0.217
-135.399	-148.925	0.220	-0.018
-134.385	-79.692	0.323	-0.108
-133.370	372.172	0.116	0.234
-132.356	84.637	0.157	0.170
-131.341	-178.496	-0.273	-0.006
-130.326	64.678	0.149	0.148
-129.312	583.479	0.022	0.053
-128.297	-200.000	-0.038	-0.302
-127.283	800.000	-0.063	0.201
-126.268	-113.404	-0.023	-0.005
-125.253	-200.000	0.097	0.498
-124.239	-155.463	0.150	0.010
-123.224	21.037	-0.012	-0.009
-122.210	-200.000	-0.048	0.393
-121.195	-72.526	0.292	0.106
