DTS Sentinel unit serial number:	SN413079Multiplexer serial number:	ORYXHardware model number:	OX4-SRSoftware version number:	ORYX F/W v4.00 Oryx Data Collector v3.7.2.0data status	okinstallation	princeton_trtdifferential loss correction	single-endedforward channel	channel 3reverse channel	N/Adate	2019/09/19time	13:16:35forward acquisition time	60.00reverse acquisition time	0.00gamma	496.2192k internal	0.2327k external	0.2327temperature offset calibration	0.9993default loss term (dB/km)	0.3790temperature slope calibration	1.0000multiplexer offset coefficient	1.0000multiplexer slope coefficient	1.0000fibre end	0.00T internal ref (°C)	29.44T ext. ref 1 (°C)	0.95T ext. ref 2 (°C)	27.07length (m)	temperature (°C)	Stokes	anti-Stokes-747.200	-162.465	-0.121	0.006
-746.185	-33.805	0.173	0.096
-745.171	-153.011	-0.132	-0.009
-744.156	20.019	0.231	0.188
-743.142	87.271	-0.348	0.389
-742.127	187.146	0.180	0.271
-741.112	-200.000	-0.094	0.440
-740.098	-143.151	-0.075	-0.007
-739.083	105.895	-0.157	-0.187
-738.069	-65.396	-0.199	0.081
-737.054	-98.467	0.246	-0.063
-736.039	-157.976	-0.178	-0.011
-735.025	-151.929	0.137	0.010
-734.010	-78.377	-0.232	-0.080
-732.996	193.904	0.153	0.233
-731.981	124.842	-0.100	-0.126
-730.966	-200.000	-0.064	0.535
-729.952	43.340	-0.234	0.215
-728.937	295.231	0.090	0.165
-727.923	-23.289	-0.293	-0.178
-726.908	13.599	0.255	0.200
-725.894	100.588	0.104	0.121
-724.879	-140.978	0.275	0.028
-723.864	9.203	-0.255	-0.194
-722.850	-28.036	0.175	0.102
-721.835	73.466	0.136	-0.143
-720.821	-172.816	0.076	-0.002
-719.806	-136.413	-0.183	-0.021
-718.791	20.476	-0.155	-0.127
-717.777	330.404	0.058	-0.112
-716.762	9.135	0.142	0.108
-715.748	61.557	-0.274	-0.274
-714.733	-40.712	0.176	-0.092
-713.718	-200.000	-0.002	-0.193
-712.704	288.884	-0.122	-0.223
-711.689	-134.769	-0.173	-0.021
-710.675	194.884	-0.078	0.120
-709.660	73.919	0.174	-0.184
-708.645	800.000	-0.054	-0.187
-707.631	-141.684	0.065	0.007
-706.616	800.000	-0.037	-0.119
-705.602	536.970	0.182	-0.435
-704.587	-60.780	-0.208	-0.089
-703.572	-141.673	-0.439	0.044
-702.558	-200.000	-0.017	0.307
-701.543	-113.781	0.182	0.036
-700.529	745.952	-0.144	-0.389
-699.514	-168.841	0.276	-0.010
-698.499	64.001	0.029	0.029
-697.485	800.000	0.077	-0.214
-696.470	-114.441	-0.170	-0.033
-695.456	-64.947	-0.166	-0.068
-694.441	-200.000	-0.017	0.116
-693.426	-92.596	0.171	-0.048
-692.412	266.872	-0.057	-0.100
-691.397	-166.776	-0.276	-0.011
-690.383	-62.923	-0.160	0.067
-689.368	-111.230	-0.264	0.054
-688.354	-146.701	0.126	0.011
-687.339	-136.810	-0.272	-0.032
-686.324	-200.000	-0.018	0.250
-685.310	-112.585	0.159	-0.032
-684.295	-55.231	-0.095	-0.043
-683.281	752.327	0.015	0.041
-682.266	-200.000	0.015	0.102
-681.251	-200.000	-0.028	-0.305
-680.237	-49.899	-0.296	-0.141
-679.222	62.965	0.107	-0.108
-678.208	-154.959	0.034	-0.002
-677.193	238.407	-0.221	0.369
-676.178	210.625	-0.209	-0.330
-675.164	290.725	0.236	-0.432
-674.149	189.277	0.202	0.304
-673.135	-200.000	0.024	-0.227
-672.120	296.786	0.026	-0.049
-671.105	-200.000	-0.039	0.204
-670.091	-200.000	0.002	-0.119
-669.076	-200.000	0.021	0.170
-668.062	-200.000	-0.055	-0.395
-667.047	218.325	0.094	-0.150
-666.032	19.262	-0.024	-0.019
-665.018	-154.062	-0.366	-0.025
-664.003	-99.449	0.222	-0.056
-662.989	-120.089	-0.329	-0.057
-661.974	-33.130	0.167	-0.093
-660.959	-200.000	-0.025	-0.145
-659.945	-83.327	0.045	-0.015
-658.930	800.000	-0.087	0.282
-657.916	-63.892	0.209	0.086
-656.901	24.346	0.123	-0.102
-655.886	-156.019	-0.083	0.005
-654.872	-21.889	-0.179	0.109
-653.857	-12.662	0.206	0.135
-652.843	-11.040	-0.160	-0.106
-651.828	800.000	-0.118	0.385
-650.814	-200.000	-0.035	0.225
-649.799	239.445	0.105	-0.176
-648.784	-18.370	0.193	0.121
-647.770	37.343	-0.070	0.062
-646.755	-200.000	0.007	-0.082
-645.741	-73.367	-0.197	0.072
-644.726	793.809	-0.048	-0.133
-643.711	146.617	0.183	0.247
-642.697	-73.481	-0.431	0.158
-641.682	-74.452	-0.204	-0.074
-640.668	196.536	0.084	0.129
-639.653	-67.616	0.086	0.034
-638.638	747.087	-0.113	0.305
-637.624	800.000	-0.024	-0.083
-636.609	-61.181	-0.096	0.041
-635.595	154.478	0.104	0.144
-634.580	800.000	0.037	-0.125
-633.565	40.519	-0.148	0.134
-632.551	-26.610	-0.379	-0.223
-631.536	346.939	0.118	0.234
-630.522	205.529	0.143	0.224
-629.507	280.497	0.095	-0.171
-628.492	-35.957	-0.268	-0.146
-627.478	-98.385	-0.134	0.034
-626.463	571.847	-0.091	0.221
-625.449	-41.114	-0.167	-0.086
-624.434	-47.873	-0.030	-0.015
-623.419	-200.000	-0.016	0.118
-622.405	30.868	-0.150	0.129
-621.390	800.000	-0.082	-0.236
-620.376	-1.320	-0.091	0.064
-619.361	-200.000	-0.003	0.171
-618.346	-118.179	0.211	-0.038
-617.332	-117.071	0.107	0.020
-616.317	51.779	0.209	0.199
-615.303	201.661	-0.174	-0.269
-614.288	349.455	0.065	0.129
-613.273	624.225	0.078	-0.198
-612.259	82.975	0.152	0.166
-611.244	75.619	0.067	-0.071
-610.230	319.827	-0.108	0.206
-609.215	99.208	0.162	0.188
-608.201	171.383	-0.076	-0.109
-607.186	-104.087	0.322	-0.075
-606.171	-200.000	-0.054	-0.322
-605.157	-71.678	-0.327	0.122
-604.142	800.000	-0.078	0.255
-603.128	-115.836	-0.639	0.120
-602.113	-44.502	-0.221	0.111
-601.098	-7.299	0.283	0.192
-600.084	437.395	-0.188	-0.410
-599.069	347.531	0.120	0.236
-598.055	-33.313	0.318	-0.176
-597.040	696.244	0.021	-0.054
-596.025	105.770	0.239	0.283
-595.011	-168.285	0.164	0.006
-593.996	-200.000	0.032	0.299
-592.982	769.680	-0.092	0.251
-591.967	-14.315	0.266	-0.172
-590.952	-80.707	-0.092	0.031
-589.938	-20.454	-0.157	-0.097
-588.923	88.179	-0.103	0.115
-587.909	-200.000	0.015	0.346
-586.894	255.957	0.197	-0.338
-585.879	-82.744	0.184	-0.060
-584.865	-147.958	0.159	-0.013
-583.850	301.927	-0.189	-0.350
-582.836	-74.947	0.305	-0.110
-581.821	-89.606	-0.229	-0.067
-580.806	-180.036	-0.113	-0.002
-579.792	-126.737	-0.144	0.021
-578.777	23.148	-0.022	0.018
-577.763	134.469	0.107	-0.139
-576.748	-96.016	-0.202	-0.054
-575.733	-135.953	0.250	-0.029
-574.719	108.626	-0.119	-0.142
-573.704	160.271	0.020	0.027
-572.690	4.689	0.354	-0.260
-571.675	333.596	-0.077	0.148
-570.661	44.146	0.376	0.346
-569.646	-77.008	-0.288	-0.101
-568.631	70.134	-0.256	-0.265
-567.617	-108.523	0.155	0.033
-566.602	-97.179	-0.201	0.053
-565.588	-200.000	-0.029	0.187
-564.573	81.074	0.150	-0.162
-563.558	121.630	-0.108	-0.135
-562.544	-35.270	0.094	-0.051
-561.529	41.645	-0.179	-0.162
-560.515	-62.656	-0.461	-0.191
-559.500	314.814	-0.121	-0.228
-558.485	-106.519	0.431	-0.096
-557.471	-105.977	0.339	0.076
-556.456	-128.081	0.113	-0.016
-555.442	11.718	0.149	-0.114
-554.427	202.504	-0.046	0.071
-553.412	-117.208	0.124	-0.023
-552.398	-200.000	-0.017	0.164
-551.383	-13.112	0.144	0.094
-550.369	111.652	0.283	0.342
-549.354	-106.783	0.185	-0.041
-548.339	-200.000	0.008	-0.050
-547.325	-200.000	0.063	0.535
-546.310	-133.927	-0.133	-0.016
-545.296	-56.738	0.031	0.014
-544.281	209.271	-0.251	-0.394
-543.266	-200.000	0.004	-0.103
-542.252	122.126	0.177	0.221
-541.237	4.971	-0.281	0.207
-540.223	16.284	-0.254	0.200
-539.208	120.628	0.088	-0.110
-538.193	-200.000	-0.017	-0.080
-537.179	483.180	-0.056	-0.128
-536.164	475.450	-0.049	0.111
-535.150	-38.293	-0.021	-0.011
-534.135	800.000	-0.047	-0.171
-533.121	16.245	-0.205	-0.162
-532.106	-200.000	-0.051	-0.330
-531.091	-35.765	-0.305	0.165
-530.077	-48.687	0.332	-0.159
-529.062	198.061	-0.060	-0.092
-528.048	-200.000	0.001	-0.237
-527.033	-109.836	-0.268	0.056
-526.018	-95.518	0.268	0.072
-525.004	-111.639	-0.057	-0.011
-523.989	-200.000	0.010	-0.214
-522.975	-166.732	0.271	0.011
-521.960	210.505	0.055	-0.087
-520.945	-73.180	-0.224	0.082
-519.931	800.000	-0.031	0.095
-518.916	-200.000	0.016	-0.205
-517.902	93.704	0.092	0.105
-516.887	311.125	0.163	-0.305
-515.872	-200.000	0.002	0.124
-514.858	-200.000	-0.025	0.175
-513.843	-129.018	0.113	-0.016
-512.829	800.000	0.043	-0.125
-511.814	195.664	0.152	0.230
-510.799	-101.722	-0.096	0.023
-509.785	60.133	-0.101	-0.100
-508.770	-139.737	0.219	-0.023
-507.756	-78.743	-0.208	-0.071
-506.741	-74.402	0.182	-0.065
-505.726	-42.927	0.197	-0.100
-504.712	96.281	0.225	0.257
-503.697	5.225	0.100	0.074
-502.683	-4.997	0.217	0.149
-501.668	-200.000	0.006	-0.123
-500.653	25.234	-0.115	-0.095
-499.639	16.845	0.025	0.019
-498.624	-14.142	0.313	0.202
-497.610	-181.335	-0.265	-0.005
-496.595	323.528	-0.065	0.123
-495.581	-26.209	-0.017	-0.010
-494.566	-52.274	-0.230	-0.107
-493.551	-200.000	-0.041	0.354
-492.537	800.000	-0.068	-0.261
-491.522	-90.445	-0.257	-0.075
-490.508	-96.829	-0.175	0.046
-489.493	-200.000	-0.059	0.417
-488.478	172.560	0.139	0.199
-487.464	-123.788	-0.347	0.055
-486.449	-98.121	0.458	-0.118
-485.435	-34.982	0.153	-0.083
-484.420	-70.920	0.350	-0.132
-483.405	-65.283	-0.032	0.013
-482.391	800.000	-0.008	0.030
-481.376	-18.827	-0.137	-0.085
-480.362	59.844	-0.182	0.179
-479.347	800.000	-0.017	-0.058
-478.332	39.838	0.175	0.157
-477.318	-159.924	-0.090	-0.005
-476.303	634.082	0.113	0.286
-475.289	-1.583	0.159	0.112
-474.274	278.088	-0.065	0.115
-473.259	-112.026	0.411	-0.083
-472.245	-72.998	0.127	-0.046
-471.230	-104.653	-0.127	-0.029
-470.216	147.435	0.086	-0.115
-469.201	800.000	0.104	-0.442
-468.186	43.987	-0.149	0.136
-467.172	-143.428	0.145	-0.014
-466.157	-200.000	0.045	-0.344
-465.143	-200.000	0.029	-0.239
-464.128	-1.030	-0.107	-0.075
-463.113	21.841	-0.247	-0.201
-462.099	-93.518	-0.365	0.101
-461.084	254.993	-0.155	0.265
-460.070	-200.000	-0.042	0.276
-459.055	696.334	-0.033	-0.086
-458.040	-101.166	-0.204	0.050
-457.026	1.119	0.222	-0.159
-456.011	53.797	0.126	0.120
-454.997	-3.974	-0.153	0.106
-453.982	-76.857	-0.165	0.058
-452.968	-99.811	0.195	-0.049
-451.953	285.761	0.175	-0.314
-450.938	69.147	0.153	-0.157
-449.924	115.711	0.131	0.159
-448.909	-131.081	-0.286	-0.038
-447.895	361.403	0.095	0.191
-446.880	71.366	-0.174	0.180
-445.865	174.998	-0.209	0.302
-444.851	1.002	-0.160	-0.115
-443.836	111.093	0.040	-0.048
-442.822	165.424	-0.095	-0.134
-441.807	-91.318	0.118	0.034
-440.792	-104.169	0.108	-0.025
-439.778	375.791	-0.122	0.247
-438.763	-76.319	0.017	0.006
-437.749	-200.000	-0.026	0.217
-436.734	370.567	-0.077	-0.155
-435.719	-135.812	-0.117	0.014
-434.705	-17.781	0.316	0.198
-433.690	800.000	0.051	0.171
-432.676	-200.000	0.012	0.381
-431.661	-40.554	0.304	-0.157
-430.646	-18.196	-0.086	-0.054
-429.632	800.000	0.053	-0.187
-428.617	-200.000	0.051	0.249
-427.603	-200.000	-0.030	0.364
-426.588	17.718	0.257	0.204
-425.573	-13.105	-0.342	-0.221
-424.559	-200.000	0.061	0.506
-423.544	800.000	-0.098	0.368
-422.530	607.165	0.073	0.181
-421.515	323.967	-0.180	-0.342
-420.500	800.000	0.067	-0.254
-419.486	45.626	-0.252	-0.232
-418.471	270.269	-0.087	-0.152
-417.457	651.308	0.139	0.354
-416.442	-65.172	-0.225	0.090
-415.428	-61.059	-0.242	0.102
-414.413	276.271	0.060	-0.106
-413.398	-188.246	0.171	0.002
-412.384	-200.000	0.230	0.001
-411.369	217.322	-0.173	0.274
-410.355	-119.315	0.050	0.009
-409.340	-200.000	-0.028	-0.167
-408.325	160.423	-0.208	0.289
-407.311	-140.043	0.165	-0.017
-406.296	800.000	0.081	-0.333
-405.282	-63.634	0.055	-0.022
-404.267	359.268	0.080	-0.159
-403.252	273.178	0.086	0.151
-402.238	-113.409	-0.065	-0.013
-401.223	-52.588	0.133	0.061
-400.209	-1.473	-0.200	-0.140
-399.194	648.001	0.033	-0.085
-398.179	-53.977	-0.164	0.074
-397.165	71.658	0.106	-0.109
-396.150	-37.867	0.167	0.088
-395.136	638.076	-0.024	-0.060
-394.121	460.610	0.097	0.216
-393.106	30.748	0.309	0.263
-392.092	796.745	0.031	0.084
-391.077	76.802	-0.214	0.226
-390.063	-130.163	0.495	0.067
-389.048	-200.000	0.059	-0.600
-388.033	20.498	-0.260	0.209
-387.019	9.941	0.257	-0.194
-386.004	212.822	-0.227	-0.356
-384.990	34.142	-0.165	0.143
-383.975	231.488	-0.111	0.181
-382.960	-46.795	-0.133	0.065
-381.946	-158.474	0.319	0.018
-380.931	-78.645	-0.300	-0.102
-379.917	800.000	-0.080	-0.303
-378.902	-107.470	-0.067	-0.015
-377.888	23.389	0.090	-0.074
-376.873	800.000	0.052	0.145
-375.858	-39.464	-0.071	0.037
-374.844	206.516	-0.018	0.028
-373.829	-200.000	-0.011	0.213
-372.815	615.740	-0.053	-0.133
-371.800	-151.892	0.089	0.007
-370.785	-5.764	-0.184	-0.125
-369.771	-200.000	-0.044	-0.201
-368.756	800.000	-0.110	0.343
-367.742	70.531	0.190	0.196
-366.727	-96.537	0.198	-0.052
-365.712	-50.869	0.144	-0.067
-364.698	-125.855	-0.089	-0.013
-363.683	583.490	0.087	0.213
-362.669	-96.784	-0.177	-0.046
-361.654	116.390	0.224	-0.273
-360.639	246.707	0.028	-0.046
-359.625	800.000	0.076	-0.227
-358.610	-53.867	-0.206	-0.093
-357.596	152.072	0.105	0.142
-356.581	-12.966	0.174	0.113
-355.566	-95.082	-0.064	-0.017
-354.552	14.176	-0.050	-0.039
-353.537	68.175	-0.147	-0.150
-352.523	-127.091	0.508	-0.074
-351.508	32.604	0.086	-0.074
-350.493	-103.483	0.180	-0.042
-349.479	368.795	-0.102	0.205
-348.464	-13.025	-0.061	-0.040
-347.450	-78.961	0.351	-0.119
-346.435	472.994	0.166	-0.372
-345.420	138.773	0.121	0.157
-344.406	-200.000	-0.036	-0.217
-343.391	-200.000	-0.081	-0.360
-342.377	572.519	-0.034	-0.082
-341.362	-83.295	-0.327	0.104
-340.348	-200.000	0.008	-0.075
-339.333	-91.590	-0.127	-0.036
-338.318	-110.133	-0.406	-0.084
-337.304	-114.451	-0.145	0.028
-336.289	800.000	-0.106	0.397
-335.275	136.473	0.184	0.238
-334.260	-200.000	0.005	-0.028
-333.245	77.592	-0.115	-0.121
-332.231	146.986	-0.111	0.149
-331.216	447.225	-0.147	0.321
-330.202	800.000	0.037	0.147
-329.187	-200.000	-0.009	0.048
-328.172	-200.000	-0.023	-0.153
-327.158	111.178	0.091	-0.109
-326.143	800.000	0.022	0.085
-325.129	-27.133	-0.220	-0.127
-324.114	-200.000	-0.029	-0.260
-323.099	113.411	0.176	0.212
-322.085	800.000	-0.085	-0.277
-321.070	-57.634	-0.469	-0.204
-320.056	-118.741	0.282	-0.049
-319.041	-103.425	-0.279	0.065
-318.026	-140.742	-0.198	0.020
-317.012	-137.908	-0.044	-0.005
-315.997	-116.848	-0.337	-0.061
-314.983	-26.124	0.063	0.037
-313.968	-153.865	0.421	-0.029
-312.953	208.714	-0.143	0.222
-311.939	-9.416	0.192	-0.127
-310.924	-6.121	0.118	-0.080
-309.910	-138.939	-0.314	0.034
-308.895	-8.728	-0.293	0.195
-307.880	-43.516	-0.372	-0.186
-306.866	158.873	0.115	-0.158
-305.851	112.539	0.209	0.251
-304.837	438.646	-0.110	0.238
-303.822	-15.329	0.115	-0.073
-302.807	206.791	0.044	0.068
-301.793	22.629	0.215	0.175
-300.778	-54.577	0.332	0.149
-299.764	290.556	0.001	0.002
-298.749	-58.963	0.089	-0.038
-297.735	36.635	-0.224	0.196
-296.720	423.794	-0.040	-0.085
-295.705	-200.000	-0.004	0.221
-294.691	-145.670	-0.025	-0.002
-293.676	12.110	0.281	0.214
-292.662	-200.000	0.001	-0.084
-291.647	15.872	-0.220	0.171
-290.632	-85.650	-0.070	-0.021
-289.618	-200.000	-0.030	-0.356
-288.603	-132.398	-0.107	-0.014
-287.589	26.843	-0.245	0.204
-286.574	-200.000	0.010	0.091
-285.559	-80.067	-0.264	-0.088
-284.545	800.000	0.078	-0.279
-283.530	86.750	0.084	-0.092
-282.516	800.000	-0.049	0.159
-281.501	-24.618	0.174	-0.103
-280.486	-200.000	-0.058	-0.289
-279.472	195.748	0.110	-0.165
-278.457	19.217	-0.255	-0.203
-277.443	-200.000	-0.040	-0.223
-276.428	-200.000	0.002	0.251
-275.413	-6.231	0.253	-0.171
-274.399	119.806	-0.134	-0.164
-273.384	-60.516	-0.111	0.047
-272.370	-84.478	-0.189	0.059
-271.355	4.259	0.091	0.066
-270.340	-9.908	0.172	0.113
-269.326	-177.733	-0.221	0.005
-268.311	-144.209	-0.216	0.020
-267.297	-6.036	-0.142	0.096
-266.282	-200.000	0.016	0.148
-265.267	347.612	0.075	-0.146
-264.253	-51.928	-0.115	0.053
-263.238	29.587	-0.308	-0.259
-262.224	268.563	-0.131	-0.228
-261.209	229.293	0.161	-0.260
-260.195	377.449	0.036	-0.072
-259.180	-32.759	0.459	0.253
-258.165	-32.383	0.156	0.086
-257.151	36.278	0.106	0.093
-256.136	800.000	0.078	0.242
-255.122	115.408	-0.119	-0.143
-254.107	-200.000	-0.041	-0.232
-253.092	-200.000	0.003	-0.078
-252.078	-24.121	0.236	-0.139
-251.063	-200.000	-0.002	0.173
-250.049	-200.000	-0.009	0.074
-249.034	-200.000	0.021	-0.147
-248.019	-105.650	-0.184	-0.041
-247.005	76.692	0.203	0.213
-245.990	-200.000	0.066	0.349
-244.976	741.505	-0.054	0.144
-243.961	118.719	0.063	0.077
-242.946	-99.615	0.440	-0.109
-241.932	-95.317	-0.206	0.055
-240.917	-9.160	0.161	-0.106
-239.903	800.000	0.052	-0.162
-238.888	-158.975	0.215	-0.012
-237.873	-159.079	0.189	-0.011
-236.859	-200.000	0.001	-0.230
-235.844	-169.794	0.209	-0.007
-234.830	359.844	-0.076	0.151
-233.815	-200.000	0.272	-0.000
-232.800	416.890	0.190	-0.401
-231.786	-200.000	0.025	0.171
-230.771	-200.000	0.001	-0.177
-229.757	193.166	-0.190	-0.283
-228.742	-46.070	0.092	0.045
-227.727	582.844	0.038	-0.093
-226.713	-40.359	-0.204	0.105
-225.698	-200.000	0.049	0.255
-224.684	800.000	0.044	0.127
-223.669	-144.564	-0.018	-0.002
-222.655	4.906	-0.202	0.147
-221.640	800.000	0.010	-0.038
-220.625	-122.941	-0.170	-0.027
-219.611	-133.585	0.330	-0.041
-218.596	800.000	-0.093	0.329
-217.582	-46.327	-0.035	0.017
-216.567	-129.044	-0.147	-0.020
-215.552	-200.000	0.045	-0.235
-214.538	124.930	-0.167	-0.208
-213.523	-7.202	0.269	-0.180
-212.509	501.794	0.102	0.233
-211.494	-83.031	0.140	-0.045
-210.479	800.000	0.072	0.230
-209.465	1.205	-0.448	0.317
-208.450	-200.000	-0.013	0.084
-207.436	230.552	-0.096	0.155
-206.421	288.163	-0.202	-0.361
-205.406	-200.000	-0.001	-0.123
-204.392	732.926	0.076	0.202
-203.377	-200.000	-0.041	-0.313
-202.363	800.000	0.038	-0.144
-201.348	335.381	-0.191	-0.365
-200.333	-200.000	-0.036	0.180
-199.319	263.290	0.025	-0.043
-198.304	800.000	0.028	0.076
-197.290	-102.778	0.057	0.013
-196.275	-200.000	-0.033	-0.347
-195.260	230.683	-0.135	-0.218
-194.246	-200.000	-0.037	0.193
-193.231	-200.000	-0.056	0.374
-192.217	63.758	0.032	0.031
-191.202	-51.248	0.248	0.115
-190.187	-16.072	0.132	-0.083
-189.173	800.000	0.151	0.444
-188.158	800.000	-0.084	-0.252
-187.144	5.846	0.109	-0.080
-186.129	26.735	0.214	-0.176
-185.114	483.740	0.043	0.095
-184.100	391.091	0.132	-0.270
-183.085	112.819	0.129	-0.154
-182.071	800.000	0.038	-0.135
-181.056	35.600	-0.242	-0.210
-180.042	-79.869	0.124	-0.041
-179.027	-1.626	0.148	-0.103
-178.012	12.352	0.093	0.071
-176.998	-107.597	-0.377	0.081
-175.983	-149.505	0.018	-0.001
-174.969	-16.615	0.133	0.083
-173.954	137.121	-0.080	-0.104
-172.939	118.783	0.079	0.096
-171.925	622.145	0.062	0.154
-170.910	-118.146	-0.252	-0.044
-169.896	-49.806	0.297	-0.139
-168.881	-200.000	0.067	0.549
-167.866	-200.000	-0.036	-0.178
-166.852	800.000	-0.001	0.004
-165.837	-11.388	-0.191	-0.124
-164.823	-149.028	-0.097	0.008
-163.808	29.417	0.235	-0.197
-162.793	-200.000	0.034	-0.340
-161.779	-121.501	-0.377	0.062
-160.764	-53.156	0.108	0.049
-159.750	125.871	-0.140	-0.174
-158.735	800.000	-0.068	-0.260
-157.720	5.319	0.129	0.094
-156.706	800.000	-0.115	-0.396
-155.691	-97.397	0.194	0.050
-154.677	374.146	-0.145	0.292
-153.662	-200.000	0.013	0.111
-152.647	-200.000	0.015	0.177
-151.633	-10.869	-0.097	-0.063
-150.618	253.026	0.203	-0.342
-149.604	20.702	0.131	0.105
-148.589	-169.701	0.399	0.014
-147.574	-76.857	-0.665	-0.229
-146.560	-101.695	-0.258	0.062
-145.545	577.246	-0.023	-0.056
-144.531	479.448	-0.226	-0.504
-143.516	-200.000	0.039	-0.433
-142.502	12.150	0.204	0.155
-141.487	-200.000	-0.008	-0.122
-140.472	-60.870	-0.101	0.042
-139.458	-200.000	0.012	0.065
-138.443	-37.033	0.083	-0.044
-137.429	308.239	-0.025	0.046
-136.414	-30.411	0.167	0.093
-135.399	-200.000	-0.022	-0.119
-134.385	-20.933	-0.201	0.121
-133.370	357.402	-0.162	0.318
-132.356	278.277	0.125	-0.219
-131.341	-200.000	0.002	-0.227
-130.326	-109.715	0.315	-0.065
-129.312	-200.000	-0.058	-0.267
-128.297	-10.192	-0.366	0.239
-127.283	800.000	0.152	0.416
-126.268	-200.000	0.017	0.204
-125.253	-200.000	0.041	-0.288
-124.239	631.988	0.058	-0.144
-123.224	257.031	-0.052	0.088
-122.210	-4.757	0.113	-0.077
