DTS Sentinel unit serial number:	SN413079Multiplexer serial number:	ORYXHardware model number:	OX4-SRSoftware version number:	ORYX F/W v4.00 Oryx Data Collector v3.7.2.0data status	okinstallation	princeton_trtdifferential loss correction	single-endedforward channel	channel 3reverse channel	N/Adate	2019/09/16time	07:16:34forward acquisition time	60.00reverse acquisition time	0.00gamma	496.2192k internal	0.2334k external	0.2334temperature offset calibration	0.9959default loss term (dB/km)	0.3790temperature slope calibration	1.0000multiplexer offset coefficient	1.0000multiplexer slope coefficient	1.0000fibre end	0.00T internal ref (°C)	27.39T ext. ref 1 (°C)	11.56T ext. ref 2 (°C)	22.34length (m)	temperature (°C)	Stokes	anti-Stokes-747.200	-117.074	0.217	-0.040
-746.185	-145.619	-0.119	-0.011
-745.171	464.192	0.064	0.144
-744.156	458.750	-0.090	0.201
-743.142	-92.353	0.203	0.058
-742.127	-200.000	-0.041	0.203
-741.112	-72.336	0.413	0.154
-740.098	95.228	-0.236	-0.270
-739.083	53.900	-0.196	-0.189
-738.069	359.699	0.156	0.314
-737.054	-200.000	-0.034	0.156
-736.039	-102.261	0.116	-0.028
-735.025	-141.086	0.065	0.007
-734.010	-141.564	-0.463	0.047
-732.996	-200.000	-0.008	-0.145
-731.981	800.000	0.046	-0.154
-730.966	-35.870	-0.240	0.131
-729.952	-19.966	0.042	0.026
-728.937	-141.183	-0.212	0.022
-727.923	-116.509	-0.187	0.035
-726.908	-27.401	-0.224	-0.131
-725.894	407.338	0.101	-0.213
-724.879	237.970	0.072	0.120
-723.864	350.833	-0.106	-0.211
-722.850	-61.442	-0.205	-0.086
-721.835	-85.140	-0.206	0.065
-720.821	250.135	-0.049	-0.084
-719.806	-55.873	0.041	-0.018
-718.791	117.420	-0.163	-0.202
-717.777	800.000	-0.060	0.177
-716.762	800.000	0.074	0.305
-715.748	800.000	-0.058	-0.192
-714.733	-89.992	-0.270	-0.079
-713.718	23.437	0.249	-0.205
-712.704	-29.101	-0.115	-0.066
-711.689	800.000	-0.094	-0.298
-710.675	800.000	-0.063	-0.220
-709.660	-7.205	-0.122	0.083
-708.645	-80.501	0.225	0.075
-707.631	-200.000	-0.001	-0.087
-706.616	90.718	0.039	-0.044
-705.602	-182.799	0.064	0.001
-704.587	-96.840	-0.179	0.047
-703.572	-60.980	0.341	-0.145
-702.558	89.206	-0.104	-0.116
-701.543	-200.000	0.001	0.030
-700.529	-190.729	-0.074	0.001
-699.514	-45.219	-0.161	-0.080
-698.499	216.908	-0.027	0.043
-697.485	250.033	-0.177	-0.302
-696.470	-51.453	0.158	-0.074
-695.456	-32.735	0.268	0.149
-694.441	240.502	0.075	-0.125
-693.426	-130.264	-0.145	0.020
-692.412	27.912	0.103	0.087
-691.397	96.805	0.213	0.245
-690.383	-200.000	-0.041	-0.285
-689.368	-200.000	-0.016	0.216
-688.354	-21.614	0.071	0.043
-687.339	560.251	0.182	-0.441
-686.324	135.951	0.293	0.383
-685.310	800.000	-0.073	-0.235
-684.295	-7.939	-0.333	0.225
-683.281	285.048	-0.074	-0.133
-682.266	-200.000	0.006	-0.106
-681.251	-113.258	-0.275	-0.054
-680.237	49.177	-0.097	0.091
-679.222	266.847	0.081	0.142
-678.208	-148.612	-0.169	0.014
-677.193	95.310	-0.313	0.358
-676.178	800.000	-0.057	-0.165
-675.164	-200.000	0.021	-0.107
-674.149	800.000	0.058	0.202
-673.135	143.974	-0.273	0.364
-672.120	-74.694	0.148	0.053
-671.105	800.000	0.024	0.068
-670.091	-61.109	-0.412	-0.174
-669.076	72.033	-0.212	-0.221
-668.062	800.000	0.061	0.244
-667.047	261.824	-0.067	-0.117
-666.032	-200.000	-0.022	0.147
-665.018	225.340	0.092	-0.148
-664.003	210.443	0.286	0.449
-662.989	577.126	-0.086	0.210
-661.974	-114.327	-0.116	0.022
-660.959	48.239	0.055	0.052
-659.945	-15.698	0.297	0.190
-658.930	-82.841	-0.028	0.009
-657.916	-200.000	-0.002	0.136
-656.901	-169.837	-0.193	0.007
-655.886	-93.518	-0.047	-0.013
-654.872	159.149	-0.028	-0.040
-653.857	-147.527	-0.243	0.021
-652.843	800.000	-0.045	0.177
-651.828	-200.000	0.013	-0.154
-650.814	-123.314	-0.101	-0.016
-649.799	796.502	-0.030	-0.082
-648.784	-136.524	0.240	-0.028
-647.770	800.000	0.077	-0.241
-646.755	-103.569	-0.164	0.039
-645.741	250.048	-0.113	0.193
-644.726	-21.548	-0.046	0.028
-643.711	327.555	0.054	-0.105
-642.697	-200.000	0.055	0.264
-641.682	-94.444	-0.258	0.070
-640.668	-200.000	0.083	-0.456
-639.653	105.561	0.258	-0.305
-638.638	-119.873	-0.274	-0.047
-637.624	-28.396	0.093	0.053
-636.609	-200.000	-0.011	0.123
-635.595	-200.000	-0.067	0.377
-634.580	-7.322	0.260	0.177
-633.565	-28.604	0.175	-0.101
-632.551	-62.324	0.223	-0.093
-631.536	-85.639	-0.205	-0.064
-630.522	38.263	0.095	-0.085
-629.507	77.021	-0.065	-0.069
-628.492	-200.000	-0.011	-0.206
-627.478	336.132	-0.139	0.270
-626.463	224.587	-0.115	-0.185
-625.449	-200.000	-0.035	0.226
-624.434	-143.125	0.115	0.011
-623.419	108.575	-0.064	0.077
-622.405	11.387	-0.238	0.182
-621.390	-157.264	0.118	0.007
-620.376	-135.133	-0.154	-0.019
-619.361	107.124	0.254	0.301
-618.346	129.684	-0.106	0.135
-617.332	-161.780	0.256	-0.013
-616.317	-200.000	-0.013	0.085
-615.303	130.016	0.185	0.237
-614.288	314.827	0.162	0.305
-613.273	-19.927	-0.168	-0.103
-612.259	-5.840	-0.311	0.213
-611.244	-192.874	-0.159	-0.001
-610.230	510.550	0.125	-0.291
-609.215	-24.272	-0.270	0.161
-608.201	-200.000	-0.117	0.000
-607.186	784.186	-0.042	-0.115
-606.171	-137.811	0.282	-0.032
-605.157	278.252	0.025	-0.045
-604.142	447.305	-0.049	-0.107
-603.128	-188.503	-0.123	0.002
-602.113	-9.267	0.461	0.308
-601.098	348.755	0.008	0.017
-600.084	800.000	-0.085	-0.263
-599.069	800.000	0.018	0.070
-598.055	-164.672	0.502	0.023
-597.040	-117.678	0.368	0.066
-596.025	6.179	-0.118	-0.088
-595.011	-35.057	-0.270	0.147
-593.996	320.067	0.118	0.224
-592.982	87.217	0.030	0.033
-591.967	12.182	0.157	-0.120
-590.952	-60.179	0.286	0.122
-589.938	76.244	0.130	0.137
-588.923	-200.000	0.003	-0.183
-587.909	800.000	0.048	-0.178
-586.894	392.630	-0.034	-0.070
-585.879	-73.099	-0.218	-0.080
-584.865	-200.000	-0.036	-0.197
-583.850	454.477	-0.145	-0.320
-582.836	-178.064	-0.104	-0.002
-581.821	-200.000	-0.002	0.156
-580.806	-129.637	0.132	-0.018
-579.792	-105.719	0.322	-0.073
-578.777	-94.159	0.341	-0.093
-577.763	-200.000	-0.047	0.247
-576.748	128.290	-0.048	-0.062
-575.733	-200.000	0.010	0.085
-574.719	339.261	-0.034	-0.066
-573.704	-200.000	0.018	-0.126
-572.690	-200.000	0.004	-0.043
-571.675	136.948	0.027	-0.035
-570.661	-200.000	0.024	0.146
-569.646	169.336	-0.034	0.048
-568.631	800.000	0.054	-0.161
-567.617	-48.599	0.293	-0.141
-566.602	-66.652	-0.103	0.041
-565.588	-200.000	0.046	0.332
-564.573	52.412	0.147	-0.140
-563.558	300.045	-0.039	-0.073
-562.544	7.148	-0.242	-0.180
-561.529	-65.447	0.259	-0.104
-560.515	-200.000	0.002	0.114
-559.500	310.518	-0.161	0.301
-558.485	158.176	-0.023	-0.032
-557.471	-200.000	0.001	-0.272
-556.456	21.117	0.383	-0.310
-555.442	-50.795	0.071	0.033
-554.427	61.965	0.269	-0.268
-553.412	800.000	0.064	-0.269
-552.398	800.000	0.049	0.194
-551.383	632.646	-0.063	-0.158
-550.369	-34.131	-0.304	-0.166
-549.354	174.263	0.225	-0.324
-548.339	344.659	-0.134	-0.262
-547.325	-200.000	0.006	-0.284
-546.310	-116.187	-0.351	-0.065
-545.296	800.000	0.100	0.316
-544.281	-58.842	-0.444	-0.191
-543.266	-50.817	-0.312	-0.146
-542.252	800.000	0.022	0.068
-541.237	-84.501	0.174	-0.055
-540.223	581.261	0.020	0.049
-539.208	280.651	0.140	-0.249
-538.193	-26.905	0.400	-0.233
-537.179	36.663	0.092	-0.081
-536.164	15.397	-0.148	0.116
-535.150	-200.000	-0.015	-0.083
-534.135	-32.761	0.323	-0.179
-533.121	-43.409	0.009	0.004
-532.106	494.004	-0.111	-0.253
-531.091	-146.817	-0.135	-0.012
-530.077	-134.140	0.032	0.004
-529.062	352.756	-0.107	0.211
-528.048	-158.698	0.240	-0.014
-527.033	-106.202	-0.208	-0.047
-526.018	95.234	-0.244	-0.277
-525.004	-27.255	-0.173	-0.100
-523.989	800.000	0.060	-0.258
-522.975	-200.000	-0.002	0.146
-521.960	800.000	-0.057	0.245
-520.945	-145.968	-0.142	0.013
-519.931	-183.494	-0.175	0.003
-518.916	-84.068	-0.123	-0.039
-517.902	-1.906	-0.371	-0.260
-516.887	-84.916	-0.269	-0.084
-515.872	-129.554	0.067	-0.009
-514.858	790.025	0.073	0.200
-513.843	160.494	-0.148	0.205
-512.829	-120.961	-0.182	0.031
-511.814	63.705	0.177	0.177
-510.799	11.540	0.337	0.257
-509.785	800.000	0.122	0.392
-508.770	97.120	-0.117	-0.134
-507.756	102.559	-0.106	0.124
-506.741	58.870	-0.173	-0.170
-505.726	-200.000	-0.051	-0.244
-504.712	92.121	-0.062	0.070
-503.697	592.285	0.126	0.311
-502.683	-32.834	0.041	0.023
-501.668	634.232	0.108	0.271
-500.653	-159.671	-0.281	-0.015
-499.639	79.020	0.143	-0.153
-498.624	-143.603	-0.157	-0.015
-497.610	99.941	-0.061	-0.070
-496.595	-129.841	-0.268	0.037
-495.581	-200.000	-0.025	-0.407
-494.566	192.413	-0.062	-0.093
-493.551	596.888	-0.085	-0.210
-492.537	-120.570	0.380	0.064
-491.522	-185.583	-0.066	-0.001
-490.508	97.860	0.081	-0.093
-489.493	-200.000	-0.006	0.144
-488.478	-102.747	-0.208	0.049
-487.464	704.016	0.056	0.147
-486.449	-128.966	-0.299	-0.042
-485.435	-188.361	-0.044	-0.001
-484.420	-66.891	-0.126	0.049
-483.405	580.644	0.082	-0.199
-482.391	800.000	0.099	-0.390
-481.376	-200.000	-0.059	-0.366
-480.362	374.177	0.110	0.223
-479.347	-134.441	0.125	0.015
-478.332	132.464	-0.218	-0.280
-477.318	173.835	-0.101	0.146
-476.303	-116.405	-0.253	0.047
-475.289	-103.714	0.154	0.036
-474.274	800.000	0.109	0.312
-473.259	-200.000	-0.037	0.338
-472.245	-91.400	-0.267	-0.076
-471.230	69.873	-0.062	-0.063
-470.216	-50.646	0.276	0.129
-469.201	299.556	-0.116	-0.212
-468.186	-140.499	-0.274	0.028
-467.172	800.000	0.104	0.372
-466.157	372.479	-0.130	-0.263
-465.143	-200.000	0.019	-0.099
-464.128	-24.829	-0.130	-0.077
-463.113	295.020	-0.146	0.266
-462.099	197.478	-0.304	-0.461
-461.084	-200.000	0.022	0.221
-460.070	-61.177	-0.263	-0.110
-459.055	-200.000	0.014	-0.137
-458.040	46.731	0.315	0.291
-457.026	-129.991	0.233	-0.032
-456.011	153.131	-0.260	0.353
-454.997	100.855	0.104	0.121
-453.982	-55.538	0.262	0.117
-452.968	-135.992	0.347	-0.041
-451.953	-32.608	-0.062	0.034
-450.938	-121.361	0.487	-0.081
-449.924	211.220	0.083	-0.129
-448.909	151.432	-0.119	-0.161
-447.895	517.713	0.135	0.313
-446.880	-200.000	-0.009	-0.103
-445.865	-102.932	-0.257	0.061
-444.851	-28.319	-0.237	0.136
-443.836	299.709	-0.029	-0.054
-442.822	186.419	0.203	0.300
-441.807	-200.000	-0.049	0.218
-440.792	-45.551	-0.133	-0.066
-439.778	800.000	-0.045	-0.188
-438.763	448.864	-0.073	0.159
-437.749	-102.588	0.090	0.021
-436.734	340.806	0.106	0.206
-435.719	-130.779	-0.237	0.032
-434.705	800.000	0.043	-0.129
-433.690	-90.605	-0.087	0.025
-432.676	-59.611	0.273	-0.116
-431.661	175.013	-0.155	-0.223
-430.646	800.000	0.052	-0.213
-429.632	-200.000	0.042	-0.221
-428.617	440.022	-0.094	-0.205
-427.603	247.367	-0.046	-0.077
-426.588	42.540	0.330	0.298
-425.573	116.322	0.103	0.126
-424.559	71.580	-0.199	-0.205
-423.544	175.975	0.291	-0.419
-422.530	-71.854	0.213	-0.079
-421.515	-142.862	0.091	-0.009
-420.500	-1.713	0.217	0.151
-419.486	-83.694	0.332	0.105
-418.471	-93.233	-0.226	-0.062
-417.457	-87.442	-0.183	0.055
-416.442	800.000	-0.035	-0.128
-415.428	-40.033	-0.088	-0.045
-414.413	507.509	-0.114	0.262
-413.398	-53.938	0.200	-0.090
-412.384	-67.423	-0.070	0.027
-411.369	-79.363	-0.247	0.083
-410.355	596.536	-0.063	0.154
-409.340	800.000	0.062	-0.201
-408.325	-106.814	0.264	-0.058
-407.311	175.667	-0.212	0.304
-406.296	-200.000	0.058	0.331
-405.282	222.260	0.115	0.184
-404.267	-200.000	-0.020	0.106
-403.252	-99.179	0.094	0.024
-402.238	132.253	-0.046	0.058
-401.223	-12.846	-0.190	-0.123
-400.209	-48.372	0.179	-0.086
-399.194	98.219	0.213	0.243
-398.179	800.000	0.050	0.174
-397.165	-200.000	-0.008	0.143
-396.150	-20.322	-0.140	0.085
-395.136	-50.646	0.229	-0.107
-394.121	800.000	-0.086	-0.329
-393.106	800.000	0.039	-0.134
-392.092	9.185	-0.186	-0.140
-391.077	-115.572	0.401	-0.075
-390.063	-108.480	0.163	-0.035
-389.048	-200.000	0.002	0.103
-388.033	800.000	-0.047	0.130
-387.019	53.657	-0.432	-0.411
-386.004	449.175	-0.035	0.076
-384.990	25.444	-0.148	-0.122
-383.975	47.864	-0.062	-0.058
-382.960	-200.000	-0.030	-0.629
-381.946	800.000	0.011	-0.034
-380.931	424.674	-0.203	-0.434
-379.917	-60.045	-0.105	-0.044
-378.902	-200.000	0.072	-0.477
-377.888	517.978	0.043	0.099
-376.873	51.449	-0.191	-0.180
-375.858	-104.167	0.307	-0.071
-374.844	-200.000	0.338	-0.001
-373.829	139.272	-0.050	0.065
-372.815	480.383	-0.231	0.519
-371.800	15.643	0.183	-0.142
-370.785	-26.525	-0.212	-0.123
-369.771	782.515	-0.063	-0.170
-368.756	164.509	0.125	-0.174
-367.742	-71.407	-0.254	-0.094
-366.727	75.463	0.321	-0.336
-365.712	-1.088	0.367	0.257
-364.698	800.000	0.065	-0.220
-363.683	123.253	0.022	0.028
-362.669	-53.672	0.298	-0.135
-361.654	-200.000	0.097	-0.510
-360.639	139.018	0.148	0.192
-359.625	-72.461	0.118	-0.043
-358.610	-29.699	0.072	-0.041
-357.596	239.591	-0.128	0.211
-356.581	27.835	0.175	-0.146
-355.566	-97.544	0.130	-0.033
-354.552	-200.000	0.007	-0.086
-353.537	99.688	-0.273	-0.313
-352.523	316.656	0.119	0.222
-351.508	105.579	0.203	-0.238
-350.493	-74.686	0.360	0.128
-349.479	-32.124	-0.070	0.039
-348.464	41.479	0.073	0.065
-347.450	-200.000	0.007	0.071
-346.435	-61.970	0.133	-0.055
-345.420	-111.395	0.045	0.009
-344.406	800.000	0.039	0.113
-343.391	800.000	-0.106	-0.445
-342.377	8.673	-0.085	-0.063
-341.362	-200.000	0.006	-0.306
-340.348	-111.758	-0.319	-0.064
-339.333	27.205	0.311	0.258
-338.318	-123.090	0.372	0.059
-337.304	800.000	-0.089	-0.256
-336.289	-200.000	-0.020	0.206
-335.275	-200.000	0.004	0.415
-334.260	-140.409	-0.097	-0.010
-333.245	486.133	-0.037	-0.084
-332.231	54.796	0.129	-0.124
-331.216	25.283	0.108	0.089
-330.202	182.597	0.136	0.198
-329.187	138.253	0.082	0.106
-328.172	-146.431	0.152	-0.013
-327.158	-161.583	0.142	-0.007
-326.143	389.798	-0.088	-0.181
-325.129	-78.241	0.273	0.093
-324.114	16.085	-0.131	-0.102
-323.099	800.000	0.066	-0.205
-322.085	16.047	-0.306	0.238
-321.070	139.067	-0.124	0.161
-320.056	-123.482	0.290	-0.046
-319.041	-153.581	0.146	0.010
-318.026	-200.000	0.035	0.465
-317.012	27.619	-0.363	0.302
-315.997	190.534	-0.126	0.187
-314.983	-200.000	-0.017	-0.097
-313.968	429.568	0.166	0.355
-312.953	-78.469	0.212	-0.072
-311.939	-115.427	0.286	0.053
-310.924	-200.000	-0.017	0.000
-309.910	-170.448	-0.197	0.007
-308.895	800.000	0.069	-0.215
-307.880	-112.510	-0.314	-0.062
-306.866	468.405	0.040	0.088
-305.851	-200.000	-0.026	-0.153
-304.837	-200.000	-0.055	-0.269
-303.822	109.400	-0.030	-0.036
-302.807	-200.000	-0.034	0.301
-301.793	233.555	-0.100	-0.162
-300.778	-50.663	0.444	0.207
-299.764	227.434	0.104	-0.166
-298.749	75.867	0.112	0.117
-297.735	659.755	0.121	-0.307
-296.720	487.259	-0.021	0.048
-295.705	-136.820	-0.093	-0.011
-294.691	-185.555	0.072	0.001
-293.676	304.861	0.031	0.056
-292.662	-200.000	-0.018	-0.309
-291.647	318.105	-0.114	-0.213
-290.632	-45.257	-0.248	0.122
-289.618	742.541	0.113	0.300
-288.603	566.745	-0.129	0.309
-287.589	-200.000	-0.026	-0.128
-286.574	-200.000	0.008	0.242
-285.559	-200.000	0.008	0.099
-284.545	-200.000	0.018	0.109
-283.530	-169.891	0.225	0.008
-282.516	800.000	-0.106	0.445
-281.501	-25.729	0.014	0.008
-280.486	-90.265	0.210	-0.060
-279.472	460.891	-0.082	0.181
-278.457	-139.251	-0.221	-0.024
-277.443	-200.000	0.006	-0.083
-276.428	800.000	0.041	-0.166
-275.413	800.000	-0.108	-0.442
-274.399	69.600	-0.033	-0.033
-273.384	-200.000	-0.027	0.244
-272.370	800.000	0.063	0.213
-271.355	22.840	-0.085	-0.069
-270.340	-24.894	0.319	0.187
-269.326	112.009	0.072	0.086
-268.311	-200.000	-0.096	0.430
-267.297	-95.650	-0.402	-0.106
-266.282	97.887	0.190	-0.216
-265.267	-200.000	-0.002	0.064
-264.253	-200.000	0.002	-0.047
-263.238	151.053	0.101	0.135
-262.224	-200.000	0.005	0.074
-261.209	800.000	-0.076	0.301
-260.195	800.000	-0.087	0.266
-259.180	-200.000	0.045	0.227
-258.165	73.146	0.109	-0.112
-257.151	800.000	0.105	0.372
-256.136	-138.052	-0.155	-0.017
-255.122	85.069	-0.067	0.073
-254.107	-144.571	0.270	-0.025
-253.092	-200.000	0.010	-0.202
-252.078	16.761	0.088	0.069
-251.063	5.003	-0.180	0.131
-250.049	800.000	0.076	0.232
-249.034	592.019	0.026	0.063
-248.019	-200.000	-0.017	0.145
-247.005	-75.443	-0.079	0.028
-245.990	-71.045	-0.303	-0.112
-244.976	-50.867	-0.090	0.041
-243.961	72.456	-0.115	0.118
-242.946	-200.000	-0.011	-0.107
-241.932	-23.464	-0.260	-0.154
-240.917	-200.000	-0.001	0.196
-239.903	188.230	0.100	-0.147
-238.888	93.716	0.177	-0.198
-237.873	-38.606	-0.229	-0.119
-236.859	-31.987	-0.238	0.131
-235.844	401.280	-0.144	-0.298
-234.830	800.000	-0.086	-0.273
-233.815	47.800	-0.194	0.178
-232.800	-4.234	-0.024	0.017
-231.786	-168.855	0.163	-0.006
-230.771	-85.355	0.068	0.021
-229.757	-200.000	-0.062	-0.312
-228.742	35.712	0.162	-0.140
-227.727	-200.000	0.030	0.147
-226.713	397.615	-0.022	0.046
-225.698	800.000	-0.058	0.184
-224.684	-109.496	0.199	-0.041
-223.669	449.432	-0.075	0.162
-222.655	-200.000	0.067	0.288
-221.640	-92.860	-0.145	0.040
-220.625	-200.000	0.018	0.089
-219.611	800.000	-0.057	-0.239
-218.596	-27.346	-0.147	-0.084
-217.582	-200.000	0.000	-0.388
-216.567	-69.858	0.335	0.126
-215.552	-200.000	-0.008	0.209
-214.538	-105.954	-0.172	-0.038
-213.523	-124.822	-0.319	0.049
-212.509	-145.080	-0.342	0.031
-211.494	-71.129	-0.074	-0.028
-210.479	-6.324	0.162	0.109
-209.465	-99.674	0.269	0.066
-208.450	124.483	0.064	-0.080
-207.436	-115.883	0.098	-0.018
-206.421	-151.897	0.093	-0.007
-205.406	-99.997	-0.400	-0.098
-204.392	18.220	-0.078	0.061
-203.377	-200.000	0.008	-0.067
-202.363	774.921	0.070	0.188
-201.348	800.000	0.101	-0.434
-200.333	800.000	-0.057	0.195
-199.319	34.213	-0.169	0.145
-198.304	247.030	0.121	-0.201
-197.290	-200.000	-0.025	0.213
-196.275	800.000	-0.136	0.405
-195.260	-200.000	-0.025	0.237
-194.246	-101.286	0.204	0.049
-193.231	-38.641	-0.235	0.122
-192.217	485.984	-0.071	0.160
-191.202	234.615	0.112	0.182
-190.187	-6.491	0.111	0.075
-189.173	-45.246	-0.197	-0.096
-188.158	146.703	0.243	-0.321
-187.144	-2.138	0.106	0.073
-186.129	90.323	0.129	-0.142
-185.114	-116.584	-0.231	0.042
-184.100	578.963	-0.067	0.162
-183.085	-22.282	-0.123	0.073
-182.071	-177.929	0.109	-0.003
-181.056	-200.000	0.002	0.549
-180.042	-83.563	-0.168	-0.053
-179.027	-39.265	-0.180	-0.093
-178.012	800.000	0.161	0.526
-176.998	-108.335	0.467	-0.099
-175.983	118.028	-0.106	0.128
-174.969	-99.678	-0.227	-0.056
-173.954	-107.327	-0.037	0.008
-172.939	-106.367	0.309	-0.068
-171.925	-119.701	-0.193	0.033
-170.910	312.648	0.143	-0.263
-169.896	-84.184	0.214	0.067
-168.881	800.000	-0.037	0.146
-167.866	-42.030	-0.357	0.180
-166.852	-200.000	0.012	-0.077
-165.837	237.942	0.036	0.059
-164.823	126.714	-0.252	-0.314
-163.808	-200.000	0.012	0.125
-162.793	42.648	-0.234	0.209
-161.779	-68.784	-0.274	0.104
-160.764	34.894	-0.181	-0.156
-159.750	402.935	-0.075	-0.155
-158.735	61.458	-0.227	-0.221
-157.720	800.000	0.086	0.357
-156.706	-29.634	-0.330	-0.185
-155.691	-200.000	0.025	-0.136
-154.677	-74.805	0.110	-0.039
-153.662	341.849	0.040	0.077
-152.647	-31.861	-0.292	0.161
-151.633	225.706	0.007	0.011
-150.618	137.939	0.060	-0.078
-149.604	-200.000	-0.000	0.303
-148.589	-200.000	-0.006	0.217
-147.574	-200.000	-0.019	0.211
-146.560	-178.945	-0.243	0.005
-145.545	525.803	-0.055	0.126
-144.531	-120.936	-0.067	0.011
-143.516	800.000	0.075	0.228
-142.502	787.285	0.051	-0.139
-141.487	800.000	0.131	-0.357
-140.472	-14.327	0.057	-0.036
-139.458	800.000	0.083	0.267
-138.443	-112.372	-0.078	0.015
-137.429	-42.402	-0.270	-0.135
-136.414	-137.645	-0.169	-0.019
-135.399	-200.000	0.020	0.120
-134.385	-161.239	-0.200	-0.010
-133.370	-43.085	-0.331	-0.165
-132.356	-200.000	-0.002	0.107
-131.341	-200.000	0.024	-0.271
-130.326	-89.790	-0.159	-0.046
-129.312	-200.000	-0.002	0.102
-128.297	-93.295	-0.023	-0.006
-127.283	-130.831	-0.368	0.048
-126.268	333.060	0.133	0.253
-125.253	800.000	-0.102	0.408
-124.239	231.899	0.068	0.109
-123.224	24.718	0.238	-0.193
