DTS Sentinel unit serial number:	SN413079Multiplexer serial number:	ORYXHardware model number:	OX4-SRSoftware version number:	ORYX F/W v4.00 Oryx Data Collector v3.7.2.0data status	okinstallation	princeton_trtdifferential loss correction	single-endedforward channel	channel 3reverse channel	N/Adate	2019/09/11time	15:34:11forward acquisition time	60.00reverse acquisition time	0.00gamma	496.2192k internal	0.2290k external	0.2290temperature offset calibration	0.9987default loss term (dB/km)	0.3790temperature slope calibration	1.0000multiplexer offset coefficient	1.0000multiplexer slope coefficient	1.0000fibre end	0.00T internal ref (°C)	42.81T ext. ref 1 (°C)	1.00T ext. ref 2 (°C)	36.81length (m)	temperature (°C)	Stokes	anti-Stokes-747.200	-192.819	-0.220	0.002
-746.185	-200.000	-0.034	-0.165
-745.171	399.354	-0.067	-0.144
-744.156	159.561	-0.060	0.085
-743.142	-30.537	0.174	-0.101
-742.127	34.707	-0.225	0.201
-741.112	-154.333	-0.119	-0.008
-740.098	289.550	0.074	0.138
-739.083	214.307	-0.155	-0.252
-738.069	353.376	-0.218	0.443
-737.054	-100.025	0.382	-0.098
-736.039	386.309	0.062	0.132
-735.025	-48.573	0.222	-0.109
-734.010	-85.729	-0.195	0.062
-732.996	234.742	0.117	-0.197
-731.981	-134.780	-0.186	-0.023
-730.966	-42.417	0.086	0.045
-729.952	-56.438	-0.359	-0.163
-728.937	-107.351	-0.261	-0.059
-727.923	-200.000	0.043	-0.289
-726.908	-57.707	-0.105	-0.047
-725.894	261.658	-0.124	0.221
-724.879	224.851	-0.136	-0.226
-723.864	31.986	-0.141	-0.124
-722.850	490.022	-0.146	-0.341
-721.835	106.404	-0.209	-0.253
-720.821	-29.346	-0.136	0.080
-719.806	-200.000	-0.008	0.084
-718.791	800.000	0.093	0.274
-717.777	-46.346	0.203	0.102
-716.762	-139.628	-0.170	0.019
-715.748	301.111	-0.096	-0.182
-714.733	155.285	0.030	-0.043
-713.718	-51.823	0.179	0.085
-712.704	87.392	-0.086	-0.098
-711.689	443.280	-0.030	0.066
-710.675	587.776	-0.062	-0.156
-709.660	327.812	0.079	-0.156
-708.645	-70.824	-0.052	0.020
-707.631	-65.560	0.131	0.054
-706.616	1.972	-0.165	0.122
-705.602	459.613	0.028	-0.063
-704.587	800.000	-0.064	-0.211
-703.572	-200.000	0.012	0.316
-702.558	-51.042	0.261	-0.125
-701.543	-42.759	0.156	0.081
-700.529	63.720	-0.226	-0.232
-699.514	501.966	-0.140	-0.331
-698.499	117.323	0.145	-0.182
-697.485	-200.000	0.004	-0.228
-696.470	128.945	0.129	0.168
-695.456	-141.675	-0.553	0.057
-694.441	-135.899	-0.300	0.036
-693.426	-23.951	0.243	-0.149
-692.412	114.586	-0.288	0.359
-691.397	800.000	0.067	-0.229
-690.383	-200.000	-0.003	0.281
-689.368	-130.924	-0.201	0.028
-688.354	-77.024	0.158	-0.056
-687.339	15.681	0.116	-0.094
-686.324	-94.100	-0.261	-0.073
-685.310	-200.000	-0.224	0.000
-684.295	-182.717	-0.159	0.003
-683.281	-157.774	0.168	-0.010
-682.266	-56.942	0.450	0.203
-681.251	5.023	0.094	0.071
-680.237	-126.214	-0.407	0.062
-679.222	800.000	0.059	0.243
-678.208	-7.049	0.338	0.234
-677.193	800.000	0.115	-0.428
-676.178	363.240	0.117	-0.240
-675.164	-102.129	-0.214	-0.053
-674.149	-20.429	0.071	-0.045
-673.135	-200.000	0.015	-0.160
-672.120	-172.228	0.363	-0.012
-671.105	-48.009	-0.378	-0.187
-670.091	-34.253	-0.166	-0.093
-669.076	-71.758	0.153	-0.058
-668.062	-85.991	-0.418	-0.132
-667.047	800.000	-0.109	-0.337
-666.032	37.750	0.212	0.193
-665.018	64.643	-0.301	-0.310
-664.003	-200.000	0.024	0.113
-662.989	-69.965	-0.176	0.068
-661.974	-89.435	0.209	0.063
-660.959	800.000	-0.031	0.117
-659.945	-44.948	-0.139	0.071
-658.930	-112.602	0.416	-0.085
-657.916	564.884	0.029	-0.072
-656.901	-32.598	0.077	-0.044
-655.886	-54.934	-0.318	0.146
-654.872	800.000	-0.049	-0.200
-653.857	703.958	0.078	0.210
-652.843	-200.000	0.025	-0.114
-651.828	-1.200	-0.202	-0.146
-650.814	800.000	-0.049	0.146
-649.799	-56.164	0.113	-0.051
-648.784	-117.932	0.282	0.052
-647.770	-112.553	-0.282	0.057
-646.755	-200.000	0.098	0.465
-645.741	197.330	0.075	-0.117
-644.726	54.709	-0.066	-0.065
-643.711	-200.000	0.005	0.184
-642.697	64.838	-0.207	0.213
-641.682	-200.000	0.003	-0.185
-640.668	-85.357	-0.283	-0.090
-639.653	-13.009	-0.314	0.208
-638.638	320.481	0.023	0.045
-637.624	-87.207	0.387	-0.120
-636.609	655.853	-0.138	-0.361
-635.595	101.255	-0.113	0.135
-634.580	162.203	0.210	0.300
-633.565	-12.793	0.043	-0.028
-632.551	-30.896	-0.167	-0.096
-631.536	-46.263	0.131	0.066
-630.522	573.851	-0.009	0.022
-629.507	-122.048	-0.106	-0.018
-628.492	365.306	-0.059	-0.121
-627.478	-200.000	-0.019	-0.112
-626.463	137.089	-0.030	-0.040
-625.449	-200.000	0.015	0.117
-624.434	125.129	0.115	-0.148
-623.419	-69.039	-0.189	-0.074
-622.405	119.270	0.141	-0.177
-621.390	301.605	-0.178	-0.335
-620.376	-18.868	-0.182	0.116
-619.361	-200.000	0.006	0.241
-618.346	83.228	0.095	0.106
-617.332	117.461	-0.141	-0.176
-616.317	38.623	0.123	0.112
-615.303	398.229	0.140	0.298
-614.288	-126.016	-0.024	-0.004
-613.273	-105.531	-0.191	-0.044
-612.259	-77.008	-0.395	0.141
-611.244	-61.162	-0.234	0.100
-610.230	-108.903	-0.108	-0.024
-609.215	-71.275	-0.112	-0.043
-608.201	-79.738	0.321	0.110
-607.186	-200.000	0.010	0.059
-606.171	-73.892	0.438	0.162
-605.157	32.429	0.236	0.208
-604.142	-59.140	0.179	-0.079
-603.128	459.089	0.101	-0.229
-602.113	19.744	0.197	-0.162
-601.098	-200.000	-0.031	0.225
-600.084	424.910	0.009	-0.019
-599.069	64.253	-0.152	0.156
-598.055	26.529	-0.171	-0.146
-597.040	-136.697	-0.267	0.031
-596.025	-30.172	0.220	0.127
-595.011	262.811	0.167	0.295
-593.996	26.088	0.025	-0.021
-592.982	-111.316	0.068	-0.014
-591.967	-15.826	-0.131	-0.085
-590.952	-29.723	-0.056	-0.032
-589.938	-132.142	-0.381	-0.050
-588.923	-149.503	0.184	0.015
-587.909	81.683	0.013	-0.014
-586.894	800.000	0.050	0.165
-585.879	-39.735	-0.124	0.066
-584.865	-82.200	-0.358	-0.119
-583.850	-200.000	-0.003	-0.161
-582.836	508.963	0.097	-0.229
-581.821	-77.211	0.162	-0.057
-580.806	-66.458	0.146	-0.059
-579.792	800.000	0.064	-0.223
-578.777	-27.338	0.016	-0.009
-577.763	589.234	-0.016	-0.039
-576.748	29.048	-0.129	0.111
-575.733	-56.313	-0.116	0.053
-574.719	671.503	0.077	-0.204
-573.704	-200.000	0.003	0.139
-572.690	-36.801	0.134	-0.073
-571.675	-75.626	-0.209	0.076
-570.661	19.909	-0.147	0.120
-569.646	160.311	0.120	-0.170
-568.631	-29.049	-0.300	0.175
-567.617	-62.797	-0.292	0.123
-566.602	360.583	-0.193	0.393
-565.588	-200.000	-0.001	0.090
-564.573	-29.994	0.083	-0.048
-563.558	63.502	-0.093	-0.095
-562.544	-17.293	-0.164	-0.105
-561.529	-53.564	-0.247	0.115
-560.515	-67.082	-0.268	0.108
-559.500	36.443	-0.234	0.210
-558.485	36.363	0.115	0.103
-557.471	-96.533	-0.116	-0.031
-556.456	103.482	0.048	0.058
-555.442	-200.000	0.016	-0.210
-554.427	-200.000	0.016	-0.080
-553.412	771.969	-0.021	0.059
-552.398	66.797	0.191	0.197
-551.383	98.373	0.150	0.176
-550.369	-118.570	-0.252	0.045
-549.354	-54.761	0.113	0.052
-548.339	-114.739	0.268	0.052
-547.325	-179.520	0.170	0.004
-546.310	35.245	-0.089	-0.079
-545.296	-127.920	-0.149	0.022
-544.281	229.159	-0.065	-0.109
-543.266	-200.000	0.040	-0.276
-542.252	-98.433	0.077	-0.020
-541.237	-16.113	0.266	-0.172
-540.223	-200.000	0.031	0.147
-539.208	77.737	-0.199	0.215
-538.193	-8.840	-0.080	0.054
-537.179	-200.000	-0.012	-0.185
-536.164	800.000	0.110	-0.368
-535.150	-14.035	0.147	-0.096
-534.135	-115.785	0.026	0.005
-533.121	-106.964	-0.233	0.052
-532.106	-88.462	-0.113	-0.034
-531.091	-200.000	0.073	0.346
-530.077	477.139	-0.053	-0.123
-529.062	-84.673	0.170	-0.054
-528.048	-200.000	0.019	0.169
-527.033	800.000	0.039	-0.127
-526.018	-200.000	0.053	-0.245
-525.004	17.728	0.328	-0.265
-523.989	-200.000	0.036	0.353
-522.975	-24.408	0.159	-0.097
-521.960	-151.437	0.149	0.011
-520.945	479.028	0.024	0.055
-519.931	39.100	0.057	-0.052
-518.916	22.121	-0.197	0.163
-517.902	-195.300	-0.270	0.002
-516.887	-200.000	0.029	-0.275
-515.872	24.641	0.277	-0.233
-514.858	-17.923	0.060	-0.038
-513.843	-145.146	-0.256	-0.024
-512.829	25.976	-0.370	-0.313
-511.814	178.214	-0.039	0.058
-510.799	278.051	-0.224	0.405
-509.785	800.000	0.067	0.230
-508.770	-34.232	-0.268	-0.150
-507.756	-157.348	0.112	-0.007
-506.741	-87.552	0.448	0.138
-505.726	-200.000	-0.011	0.157
-504.712	84.509	-0.378	0.420
-503.697	800.000	0.042	0.145
-502.683	-161.096	-0.113	0.006
-501.668	584.148	-0.102	-0.253
-500.653	189.690	-0.082	0.125
-499.639	800.000	0.049	0.178
-498.624	800.000	0.036	-0.139
-497.610	415.596	0.105	-0.228
-496.595	-200.000	-0.020	-0.107
-495.581	-200.000	0.034	-0.186
-494.566	-200.000	0.017	-0.142
-493.551	142.004	-0.192	-0.258
-492.537	350.485	-0.064	-0.128
-491.522	-54.261	0.293	-0.135
-490.508	800.000	-0.023	-0.066
-489.493	13.609	-0.180	-0.142
-488.478	-113.242	-0.117	-0.023
-487.464	46.526	0.170	-0.160
-486.449	800.000	-0.080	-0.225
-485.435	-200.000	0.001	0.209
-484.420	-96.309	-0.158	0.042
-483.405	800.000	0.081	-0.247
-482.391	284.862	-0.075	-0.138
-481.376	-154.668	-0.183	-0.012
-480.362	-71.854	-0.171	0.065
-479.347	75.880	-0.090	-0.096
-478.332	-44.929	-0.284	-0.144
-477.318	-60.517	-0.235	0.101
-476.303	-148.014	0.061	0.005
-475.289	-147.531	0.110	-0.009
-474.274	782.279	-0.099	0.274
-473.259	-22.036	-0.228	0.140
-472.245	41.387	-0.050	-0.046
-471.230	-12.455	0.311	0.206
-470.216	800.000	-0.063	0.182
-469.201	-153.003	0.403	0.029
-468.186	800.000	-0.064	-0.251
-467.172	800.000	-0.070	-0.204
-466.157	-56.151	-0.197	0.089
-465.143	-166.972	-0.401	-0.017
-464.128	51.438	-0.179	-0.172
-463.113	2.126	0.114	-0.084
-462.099	55.110	-0.243	-0.238
-461.084	216.117	-0.136	-0.219
-460.070	-69.860	-0.215	0.083
-459.055	-200.000	-0.043	0.282
-458.040	402.447	0.058	-0.123
-457.026	41.367	-0.026	0.024
-456.011	-104.071	-0.158	-0.037
-454.997	79.771	0.099	-0.107
-453.982	154.622	-0.201	0.279
-452.968	-99.406	0.133	0.034
-451.953	18.680	0.196	-0.159
-450.938	86.635	-0.148	0.166
-449.924	-127.012	-0.299	0.044
-448.909	800.000	0.019	0.054
-447.895	93.982	0.021	-0.024
-446.880	172.029	-0.122	-0.178
-445.865	-93.751	0.251	0.070
-444.851	99.478	0.098	0.115
-443.836	155.590	-0.140	-0.196
-442.822	-23.128	0.181	0.110
-441.807	800.000	0.080	-0.313
-440.792	113.032	-0.185	-0.227
-439.778	800.000	-0.093	-0.302
-438.763	104.377	-0.048	0.057
-437.749	47.688	-0.212	-0.200
-436.734	448.829	0.066	-0.148
-435.719	-100.998	-0.211	-0.052
-434.705	-6.526	0.395	0.272
-433.690	44.200	0.208	-0.193
-432.676	87.429	-0.076	-0.085
-431.661	-114.137	0.517	-0.101
-430.646	-164.939	0.127	0.006
-429.632	-79.540	0.077	-0.026
-428.617	-72.134	0.216	-0.081
-427.603	-153.529	0.187	0.013
-426.588	-99.753	0.213	-0.054
-425.573	193.968	-0.072	-0.111
-424.559	-47.002	-0.288	0.142
-423.544	-200.000	-0.029	0.239
-422.530	-57.776	0.212	-0.094
-421.515	44.944	0.232	-0.216
-420.500	-92.155	-0.120	-0.034
-419.486	-81.304	-0.169	-0.056
-418.471	7.604	-0.378	0.286
-417.457	-187.122	0.411	0.006
-416.442	94.292	0.171	0.196
-415.428	-174.008	0.412	-0.012
-414.413	-154.542	0.298	0.020
-413.398	-74.076	0.371	0.136
-412.384	-3.169	0.104	0.073
-411.369	497.190	-0.142	0.330
-410.355	-14.749	0.310	-0.201
-409.340	800.000	0.025	0.099
-408.325	-74.937	0.064	-0.023
-407.311	-200.000	-0.011	-0.148
-406.296	246.994	-0.166	-0.284
-405.282	168.188	0.259	0.373
-404.267	-200.000	0.019	-0.089
-403.252	-104.854	0.163	0.038
-402.238	142.980	-0.192	-0.258
-401.223	800.000	0.035	-0.132
-400.209	-115.616	0.253	-0.048
-399.194	-200.000	0.073	-0.364
-398.179	800.000	0.103	0.407
-397.165	-1.082	-0.171	0.122
-396.150	-40.553	-0.107	0.056
-395.136	-20.513	-0.109	0.067
-394.121	800.000	-0.080	-0.296
-393.106	31.739	0.393	-0.342
-392.092	-200.000	0.025	-0.153
-391.077	177.397	-0.067	-0.098
-390.063	308.556	0.063	0.120
-389.048	-200.000	0.031	-0.322
-388.033	10.416	-0.018	-0.014
-387.019	65.545	-0.227	-0.232
-386.004	343.371	0.088	-0.174
-384.990	221.151	-0.087	0.141
-383.975	800.000	-0.044	0.176
-382.960	157.214	0.009	0.012
-381.946	68.397	-0.221	-0.229
-380.931	74.892	0.111	0.118
-379.917	-70.859	-0.170	-0.065
-378.902	-200.000	-0.052	-0.238
-377.888	-200.000	-0.051	-0.224
-376.873	-7.537	0.300	0.205
-375.858	-119.576	0.472	-0.083
-374.844	-200.000	0.006	0.047
-373.829	-6.005	0.096	-0.066
-372.815	175.109	0.101	0.148
-371.800	800.000	-0.055	0.238
-370.785	331.116	-0.187	0.364
-369.771	-200.000	0.004	-0.019
-368.756	-34.546	0.298	0.165
-367.742	-200.000	0.008	0.195
-366.727	-147.296	0.309	-0.026
-365.712	-200.000	0.012	0.323
-364.698	182.224	0.178	-0.265
-363.683	-90.387	-0.349	0.102
-362.669	231.697	0.058	0.097
-361.654	-5.381	-0.087	0.060
-360.639	-200.000	0.015	0.075
-359.625	513.128	-0.088	-0.207
-358.610	-200.000	-0.029	0.192
-357.596	-200.000	-0.063	-0.444
-356.581	178.650	-0.188	0.277
-355.566	-106.516	0.210	-0.047
-354.552	-153.445	0.225	0.016
-353.537	-25.452	0.273	-0.163
-352.523	-102.938	0.213	0.051
-351.508	171.751	0.097	0.140
-350.493	623.179	-0.087	-0.222
-349.479	-40.172	0.117	0.061
-348.464	-200.000	-0.025	0.347
-347.450	-88.318	-0.367	0.111
-346.435	283.737	0.043	0.077
-345.420	528.570	0.162	-0.386
-344.406	112.145	-0.205	-0.250
-343.391	622.808	-0.121	0.308
-342.377	126.425	-0.126	-0.160
-341.362	114.118	-0.091	-0.112
-340.348	-17.496	-0.096	0.061
-339.333	-165.283	0.502	-0.022
-338.318	-56.743	0.159	0.071
-337.304	-200.000	0.014	-0.116
-336.289	800.000	0.064	-0.213
-335.275	-200.000	-0.013	-0.118
-334.260	-61.484	-0.212	-0.090
-333.245	-78.163	0.048	-0.016
-332.231	46.670	-0.163	0.153
-331.216	-5.089	0.132	-0.091
-330.202	71.507	-0.317	-0.332
-329.187	-39.251	-0.371	0.197
-328.172	-200.000	0.040	0.496
-327.158	-93.656	0.190	0.053
-326.143	-38.382	0.237	0.127
-325.129	607.250	-0.074	0.187
-324.114	-75.245	-0.173	0.062
-323.099	800.000	0.035	0.104
-322.085	401.820	0.071	0.151
-321.070	-80.186	0.275	0.093
-320.056	213.226	0.090	-0.143
-319.041	77.800	-0.056	-0.060
-318.026	-69.584	-0.189	0.073
-317.012	461.119	-0.088	-0.197
-315.997	-147.146	-0.177	-0.015
-314.983	182.835	-0.043	0.064
-313.968	800.000	-0.063	-0.254
-312.953	48.515	0.216	0.204
-311.939	-60.171	-0.168	-0.072
-310.924	-129.568	-0.418	-0.058
-309.910	-102.015	0.154	-0.037
-308.895	-123.170	0.210	-0.034
-307.880	39.022	0.128	-0.115
-306.866	-200.000	-0.018	-0.220
-305.851	40.406	-0.103	-0.094
-304.837	22.163	-0.152	0.125
-303.822	-33.496	-0.340	0.189
-302.807	4.624	-0.171	0.127
-301.793	699.301	-0.077	0.204
-300.778	800.000	-0.122	-0.466
-299.764	-21.571	-0.259	-0.159
-298.749	800.000	0.104	-0.338
-297.735	195.678	0.095	-0.145
-296.720	-94.852	0.236	0.065
-295.705	69.066	0.397	-0.410
-294.691	15.294	0.117	-0.092
-293.676	629.083	0.145	-0.370
-292.662	584.799	-0.057	0.142
-291.647	-93.643	0.211	0.059
-290.632	-86.658	0.192	-0.059
-289.618	-139.526	0.256	0.028
-288.603	-200.000	0.023	-0.278
-287.589	-62.683	-0.101	-0.042
-286.574	-200.000	0.028	-0.194
-285.559	70.243	-0.315	0.327
-284.545	-200.000	0.021	-0.299
-283.530	-57.181	-0.221	-0.098
-282.516	-200.000	0.001	0.197
-281.501	-42.851	0.300	0.153
-280.486	-89.145	0.252	0.075
-279.472	5.305	0.166	0.123
-278.457	-35.165	0.060	-0.033
-277.443	-67.127	-0.315	-0.125
-276.428	-113.731	-0.123	0.024
-275.413	-33.075	-0.103	-0.058
-274.399	30.648	0.013	0.011
-273.384	-40.416	-0.312	0.163
-272.370	596.695	0.116	0.289
-271.355	-103.424	0.282	0.067
-270.340	-200.000	-0.061	0.272
-269.326	800.000	-0.030	-0.086
-268.311	-162.227	-0.222	-0.011
-267.297	-200.000	0.017	0.204
-266.282	-171.236	-0.091	0.003
-265.267	428.470	0.141	0.307
-264.253	-59.387	-0.295	0.128
-263.238	-10.170	0.251	0.168
-262.224	-60.042	-0.160	0.069
-261.209	33.146	0.102	0.089
-260.195	-200.000	0.031	0.163
-259.180	3.225	-0.232	0.170
-258.165	298.655	-0.172	0.317
-257.151	-200.000	0.007	0.074
-256.136	-200.000	-0.007	-0.053
-255.122	53.894	-0.201	0.194
-254.107	-84.489	0.236	-0.075
-253.092	-200.000	-0.001	-0.189
-252.078	-77.173	-0.177	-0.062
-251.063	-200.000	-0.027	0.218
-250.049	-108.669	-0.135	0.029
-249.034	334.625	0.101	-0.197
-248.019	-200.000	-0.049	0.400
-247.005	-200.000	-0.007	0.030
-245.990	-92.659	0.086	0.024
-244.976	23.278	-0.116	-0.096
-243.961	116.286	0.197	0.243
-242.946	-2.879	-0.154	-0.108
-241.932	-77.635	0.017	0.006
-240.917	520.616	-0.092	0.217
-239.903	143.635	0.137	-0.184
-238.888	52.253	0.117	0.112
-237.873	-97.846	-0.243	0.063
-236.859	-48.579	0.181	-0.087
-235.844	372.281	0.180	-0.368
-234.830	113.372	-0.177	0.216
-233.815	-200.000	0.001	0.035
-232.800	-144.157	-0.254	-0.024
-231.786	-79.044	0.147	-0.050
-230.771	-31.992	0.126	-0.071
-229.757	297.416	-0.168	-0.310
-228.742	18.683	-0.051	-0.041
-227.727	-3.431	-0.239	-0.167
-226.713	-115.942	0.121	-0.023
-225.698	23.717	-0.042	-0.035
-224.684	-7.769	0.128	-0.087
-223.669	-165.269	0.389	0.017
-222.655	23.227	0.198	0.163
-221.640	-200.000	0.032	0.155
-220.625	-200.000	0.043	-0.436
-219.611	800.000	0.112	-0.377
-218.596	-20.500	-0.102	0.063
-217.582	-53.761	0.271	-0.124
-216.567	-200.000	-0.009	-0.048
-215.552	-26.854	-0.084	-0.049
-214.538	-200.000	-0.005	0.155
-213.523	-134.671	0.262	0.032
-212.509	24.122	0.031	0.026
-211.494	-92.749	-0.056	-0.016
-210.479	433.428	0.127	0.276
-209.465	-200.000	0.036	0.409
-208.450	236.851	0.070	-0.116
-207.436	528.054	0.183	-0.434
-206.421	20.876	-0.075	0.061
-205.406	473.720	-0.102	-0.230
-204.392	251.160	0.072	0.123
-203.377	210.389	0.184	0.290
-202.363	-107.435	0.217	0.048
-201.348	-129.246	-0.176	0.025
-200.333	-23.766	0.141	0.085
-199.319	-200.000	-0.029	0.247
-198.304	110.630	-0.098	0.118
-197.290	800.000	0.039	0.122
-196.275	-115.967	0.357	0.067
-195.260	-75.813	0.163	0.058
-194.246	30.517	0.289	-0.248
-193.231	198.404	0.139	0.213
-192.217	617.249	0.220	0.554
-191.202	800.000	-0.023	0.078
-190.187	65.933	0.353	-0.359
-189.173	29.570	0.152	-0.129
-188.158	-65.489	-0.317	-0.128
-187.144	138.329	0.208	0.274
-186.129	800.000	-0.064	-0.182
-185.114	-63.356	0.314	0.130
-184.100	-116.502	-0.103	0.019
-183.085	-200.000	-0.432	0.001
-182.071	105.989	-0.045	0.054
-181.056	-200.000	-0.044	-0.235
-180.042	9.025	0.199	-0.150
-179.027	-60.927	-0.195	-0.083
-178.012	-200.000	0.042	0.215
-176.998	367.543	-0.070	-0.142
-175.983	248.263	-0.142	-0.241
-174.969	-94.212	-0.139	0.038
-173.954	478.605	0.019	0.043
-172.939	470.073	-0.075	0.169
-171.925	712.051	-0.020	0.052
-170.910	-197.197	-0.112	0.001
-169.896	-114.906	0.095	0.018
-168.881	71.079	0.028	0.029
-167.866	97.136	-0.054	0.062
-166.852	-200.000	0.023	0.122
-165.837	134.235	0.081	0.105
-164.823	-90.303	-0.112	-0.033
-163.808	-12.600	0.080	-0.052
-162.793	800.000	-0.033	0.144
-161.779	-76.480	-0.250	-0.088
-160.764	127.922	-0.164	0.208
-159.750	800.000	0.090	0.323
-158.735	171.109	-0.145	-0.208
-157.720	33.567	-0.072	-0.063
-156.706	-87.309	-0.363	-0.110
-155.691	800.000	0.117	0.357
-154.677	258.166	0.082	0.141
-153.662	7.776	-0.218	-0.163
-152.647	229.287	0.024	-0.038
-151.633	29.179	0.085	0.072
-150.618	427.196	-0.087	-0.187
-149.604	-60.070	0.142	-0.061
-148.589	452.158	0.083	0.184
-147.574	-15.094	0.229	-0.147
-146.560	591.498	0.083	-0.205
-145.545	-66.517	0.439	-0.175
-144.531	70.387	0.324	0.335
-143.516	800.000	-0.034	0.107
-142.502	445.510	-0.197	0.432
-141.487	-44.120	-0.304	-0.153
-140.472	42.957	-0.285	-0.260
-139.458	166.067	0.188	-0.267
-138.443	800.000	-0.010	0.040
-137.429	-163.379	-0.160	0.008
-136.414	-165.031	-0.096	0.004
-135.399	-12.809	-0.225	0.146
-134.385	800.000	-0.065	-0.234
-133.370	384.911	0.063	0.129
-132.356	-160.254	-0.263	0.014
-131.341	800.000	-0.029	-0.111
-130.326	-27.905	-0.235	0.136
-129.312	46.641	-0.160	0.149
-128.297	-170.235	0.366	-0.013
-127.283	202.739	0.241	-0.372
-126.268	144.150	0.093	0.124
-125.253	0.796	-0.143	-0.102
-124.239	-162.309	0.416	0.021
-123.224	800.000	-0.042	-0.174
-122.210	208.896	-0.199	-0.312
-121.195	-98.792	-0.223	-0.057
