DTS Sentinel unit serial number:	SN413079Multiplexer serial number:	ORYXHardware model number:	OX4-SRSoftware version number:	ORYX F/W v4.00 Oryx Data Collector v3.7.2.0data status	okinstallation	princeton_trtdifferential loss correction	single-endedforward channel	channel 3reverse channel	N/Adate	2019/09/11time	18:02:10forward acquisition time	60.00reverse acquisition time	0.00gamma	496.2192k internal	0.2286k external	0.2286temperature offset calibration	0.9995default loss term (dB/km)	0.3790temperature slope calibration	1.0000multiplexer offset coefficient	1.0000multiplexer slope coefficient	1.0000fibre end	0.00T internal ref (°C)	44.02T ext. ref 1 (°C)	1.15T ext. ref 2 (°C)	38.88length (m)	temperature (°C)	Stokes	anti-Stokes-747.200	75.758	-0.131	-0.142
-746.185	-5.021	-0.099	0.070
-745.171	-200.000	-0.079	0.401
-744.156	-200.000	0.014	0.130
-743.142	543.527	-0.137	-0.336
-742.127	-200.000	-0.014	0.225
-741.112	800.000	-0.073	-0.214
-740.098	334.599	-0.167	0.332
-739.083	-134.009	0.434	0.055
-738.069	-200.000	0.064	0.298
-737.054	62.589	-0.254	0.260
-736.039	-200.000	-0.151	-0.000
-735.025	407.873	-0.106	-0.231
-734.010	-37.987	-0.120	-0.066
-732.996	376.279	-0.064	-0.134
-731.981	75.007	0.115	-0.124
-730.966	-127.648	0.282	0.042
-729.952	281.294	0.123	0.226
-728.937	-65.014	-0.440	-0.182
-727.923	-200.000	0.026	-0.197
-726.908	10.229	-0.090	-0.070
-725.894	73.548	-0.204	0.219
-724.879	-115.172	-0.238	-0.046
-723.864	64.164	-0.293	-0.302
-722.850	800.000	-0.096	-0.313
-721.835	-95.741	-0.233	-0.064
-720.821	59.751	-0.194	-0.196
-719.806	-78.681	0.193	-0.068
-718.791	6.068	-0.161	-0.123
-717.777	-125.307	-0.142	-0.022
-716.762	176.304	-0.211	-0.314
-715.748	106.878	0.246	-0.299
-714.733	-3.924	0.173	-0.123
-713.718	800.000	-0.064	-0.195
-712.704	91.961	-0.222	-0.257
-711.689	27.626	-0.154	-0.132
-710.675	9.366	-0.107	-0.083
-709.660	39.835	0.256	0.236
-708.645	72.235	0.218	-0.233
-707.631	-142.854	-0.176	-0.018
-706.616	800.000	-0.039	0.163
-705.602	-20.709	0.092	-0.058
-704.587	-126.756	-0.053	0.008
-703.572	62.830	-0.224	-0.229
-702.558	-61.373	0.204	0.088
-701.543	-60.912	-0.509	-0.220
-700.529	44.969	0.181	-0.170
-699.514	87.128	0.254	-0.288
-698.499	236.757	0.091	0.154
-697.485	-143.205	0.072	0.007
-696.470	-160.810	-0.373	0.020
-695.456	23.855	0.091	-0.077
-694.441	-200.000	0.032	-0.342
-693.426	152.220	0.019	-0.027
-692.412	457.830	0.103	0.234
-691.397	800.000	-0.037	-0.148
-690.383	-39.125	0.073	-0.039
-689.368	-95.849	0.149	0.041
-688.354	-6.565	-0.174	-0.122
-687.339	634.636	0.114	-0.295
-686.324	251.063	0.090	-0.156
-685.310	448.460	-0.039	-0.088
-684.295	800.000	-0.035	-0.108
-683.281	18.252	0.235	-0.192
-682.266	-77.140	-0.232	-0.083
-681.251	4.771	-0.145	0.109
-680.237	148.429	-0.104	0.144
-679.222	394.325	0.164	0.349
-678.208	800.000	0.049	-0.142
-677.193	-200.000	-0.068	0.450
-676.178	474.201	-0.138	0.318
-675.164	-194.835	0.449	-0.004
-674.149	-9.929	0.228	-0.156
-673.135	-155.555	-0.126	-0.008
-672.120	302.008	0.162	0.306
-671.105	-18.818	0.183	0.117
-670.091	223.985	0.104	0.171
-669.076	-1.513	0.252	-0.182
-668.062	49.412	0.124	0.119
-667.047	-200.000	0.027	0.198
-666.032	121.466	0.163	0.208
-665.018	176.058	0.116	-0.173
-664.003	-200.000	-0.067	0.472
-662.989	-109.568	0.142	-0.031
-661.974	-180.922	-0.256	-0.005
-660.959	800.000	-0.050	0.161
-659.945	9.401	-0.301	-0.233
-658.930	-200.000	-0.007	-0.327
-657.916	510.004	-0.045	0.106
-656.901	405.176	0.013	0.028
-655.886	-200.000	0.140	0.001
-654.872	-24.749	-0.126	-0.077
-653.857	-114.013	0.127	0.025
-652.843	120.512	-0.058	0.074
-651.828	530.668	-0.101	0.245
-650.814	-56.785	0.187	0.084
-649.799	-200.000	0.004	0.176
-648.784	-200.000	0.009	0.054
-647.770	49.640	0.295	-0.284
-646.755	800.000	-0.053	0.164
-645.741	-154.855	-0.170	0.011
-644.726	302.931	0.091	0.173
-643.711	-117.671	-0.150	-0.028
-642.697	-134.310	0.158	-0.020
-641.682	-200.000	0.010	-0.059
-640.668	354.610	-0.095	0.194
-639.653	-126.434	-0.320	-0.049
-638.638	488.580	-0.088	-0.205
-637.624	-109.332	0.268	0.058
-636.609	800.000	-0.107	-0.324
-635.595	800.000	0.043	-0.129
-634.580	-166.411	0.214	0.009
-633.565	-200.000	-0.033	0.294
-632.551	-200.000	-0.004	-0.217
-631.536	430.671	-0.115	0.254
-630.522	161.296	-0.062	0.089
-629.507	-96.849	0.175	-0.047
-628.492	-200.000	-0.030	-0.417
-627.478	-124.883	0.238	-0.037
-626.463	-87.160	-0.118	0.037
-625.449	-200.000	-0.010	-0.168
-624.434	800.000	-0.138	0.400
-623.419	6.684	-0.225	0.171
-622.405	-9.994	-0.054	-0.036
-621.390	-120.144	0.120	-0.021
-620.376	-200.000	-0.033	-0.184
-619.361	616.232	0.060	0.154
-618.346	152.686	-0.110	0.153
-617.332	-200.000	-0.072	-0.373
-616.317	800.000	-0.029	0.099
-615.303	274.562	-0.024	0.044
-614.288	-200.000	0.070	0.338
-613.273	-200.000	0.051	-0.327
-612.259	-83.391	-0.100	-0.033
-611.244	-24.890	-0.104	0.063
-610.230	32.710	0.164	-0.145
-609.215	800.000	-0.060	0.211
-608.201	-71.466	-0.274	0.105
-607.186	50.749	0.080	-0.077
-606.171	-200.000	0.018	-0.311
-605.157	383.545	0.102	0.214
-604.142	-39.870	-0.290	-0.155
-603.128	-111.654	-0.003	-0.001
-602.113	229.408	0.189	0.315
-601.098	-45.274	0.113	0.057
-600.084	-151.055	0.325	-0.025
-599.069	800.000	-0.092	0.286
-598.055	-200.000	-0.017	-0.365
-597.040	800.000	0.093	0.318
-596.025	-22.756	-0.149	0.091
-595.011	800.000	-0.052	0.207
-593.996	245.214	-0.090	-0.155
-592.982	-103.974	0.341	-0.081
-591.967	-87.454	0.015	-0.005
-590.952	800.000	0.034	-0.141
-589.938	373.363	-0.062	-0.129
-588.923	-200.000	-0.028	0.174
-587.909	-104.837	-0.094	0.022
-586.894	23.125	-0.022	-0.018
-585.879	-103.710	0.120	0.029
-584.865	157.121	0.224	-0.316
-583.850	-8.886	0.283	-0.193
-582.836	-73.957	-0.173	0.064
-581.821	-154.005	-0.180	-0.012
-580.806	-156.684	0.246	0.015
-579.792	-200.000	-0.029	-0.204
-578.777	468.351	-0.048	0.111
-577.763	-99.293	-0.149	0.038
-576.748	120.249	-0.129	-0.164
-575.733	18.015	-0.088	0.072
-574.719	137.733	0.162	-0.217
-573.704	-200.000	0.030	-0.155
-572.690	-33.795	0.112	0.063
-571.675	800.000	-0.026	0.076
-570.661	-108.553	-0.183	0.040
-569.646	124.807	0.041	-0.052
-568.631	123.601	-0.064	-0.082
-567.617	-200.000	-0.262	0.000
-566.602	-200.000	0.066	0.345
-565.588	-80.170	0.052	0.018
-564.573	-68.580	0.205	-0.081
-563.558	-145.153	0.172	-0.016
-562.544	-119.585	-0.092	0.016
-561.529	1.794	0.059	0.043
-560.515	800.000	0.044	-0.131
-559.500	142.404	0.028	0.037
-558.485	-81.044	0.057	0.019
-557.471	787.317	-0.036	-0.100
-556.456	548.093	-0.096	0.233
-555.442	-48.860	-0.079	-0.038
-554.427	800.000	0.047	0.131
-553.412	593.746	-0.037	0.093
-552.398	-108.284	0.235	-0.052
-551.383	185.022	0.175	0.264
-550.369	-2.733	0.072	-0.051
-549.354	-200.000	-0.002	-0.193
-548.339	800.000	0.007	-0.020
-547.325	146.501	-0.221	-0.302
-546.310	-130.567	-0.224	0.031
-545.296	800.000	0.067	-0.265
-544.281	164.865	0.099	0.142
-543.266	-200.000	-0.028	0.204
-542.252	-46.458	0.125	-0.063
-541.237	-113.418	0.406	-0.081
-540.223	279.125	-0.104	0.189
-539.208	-200.000	0.016	0.094
-538.193	149.253	0.160	0.221
-537.179	263.370	0.064	0.112
-536.164	-102.842	-0.362	-0.088
-535.150	800.000	0.041	0.141
-534.135	-34.314	-0.358	0.200
-533.121	371.444	0.107	0.221
-532.106	29.341	-0.226	-0.196
-531.091	-200.000	0.039	0.178
-530.077	-60.281	0.104	-0.045
-529.062	141.866	0.118	0.160
-528.048	-41.476	0.111	0.058
-527.033	-72.369	0.157	0.059
-526.018	-31.093	-0.084	0.048
-525.004	23.690	-0.143	-0.120
-523.989	299.084	0.157	-0.294
-522.975	55.025	-0.115	0.113
-521.960	-200.000	-0.011	0.226
-520.945	175.866	-0.056	-0.083
-519.931	288.371	0.157	-0.289
-518.916	492.114	0.179	-0.417
-517.902	-200.000	-0.053	-0.341
-516.887	11.003	0.155	-0.120
-515.872	-68.199	0.122	0.048
-514.858	-200.000	-0.045	-0.232
-513.843	-5.685	-0.253	0.176
-512.829	187.895	-0.111	-0.168
-511.814	-68.599	0.137	0.054
-510.799	14.711	-0.240	0.191
-509.785	44.668	0.157	-0.147
-508.770	274.949	-0.038	0.069
-507.756	-84.031	0.060	0.019
-506.741	76.915	-0.207	-0.223
-505.726	800.000	-0.070	-0.239
-504.712	-123.549	-0.207	-0.033
-503.697	-200.000	-0.013	-0.105
-502.683	303.562	-0.089	0.168
-501.668	-200.000	-0.030	0.319
-500.653	49.214	0.102	0.097
-499.639	-28.254	0.085	-0.050
-498.624	-200.000	0.010	-0.095
-497.610	-81.189	0.107	-0.036
-496.595	124.751	0.072	-0.093
-495.581	-142.764	-0.094	-0.009
-494.566	16.804	0.111	0.089
-493.551	26.663	-0.274	0.233
-492.537	-200.000	0.010	-0.139
-491.522	294.464	-0.102	0.189
-490.508	-200.000	0.032	0.160
-489.493	-200.000	0.003	0.306
-488.478	454.110	-0.099	-0.222
-487.464	-129.541	0.141	-0.020
-486.449	-87.445	-0.045	0.014
-485.435	-64.786	0.136	-0.056
-484.420	-56.601	-0.065	0.029
-483.405	235.587	-0.050	-0.084
-482.391	-33.810	-0.365	0.204
-481.376	-109.935	-0.138	0.029
-480.362	-140.922	-0.188	-0.020
-479.347	184.313	0.135	-0.203
-478.332	-117.644	-0.054	-0.010
-477.318	-9.506	0.094	-0.064
-476.303	800.000	-0.091	0.373
-475.289	74.195	-0.113	-0.120
-474.274	103.891	-0.248	-0.296
-473.259	44.375	-0.199	0.185
-472.245	-34.787	-0.272	-0.151
-471.230	194.203	0.102	0.157
-470.216	-117.094	0.237	0.044
-469.201	800.000	0.006	0.019
-468.186	-200.000	0.056	0.560
-467.172	-99.641	-0.301	0.077
-466.157	-200.000	-0.008	-0.108
-465.143	185.563	-0.088	0.133
-464.128	73.020	0.067	0.071
-463.113	-83.449	0.129	0.042
-462.099	-200.000	-0.008	0.308
-461.084	-28.797	0.389	0.227
-460.070	-23.362	0.119	-0.073
-459.055	-200.000	-0.043	-0.301
-458.040	-200.000	-0.033	0.228
-457.026	-111.809	0.053	-0.011
-456.011	800.000	0.057	0.235
-454.997	800.000	-0.016	-0.064
-453.982	60.441	0.048	0.048
-452.968	800.000	0.041	0.176
-451.953	-189.398	0.113	-0.001
-450.938	800.000	0.081	-0.242
-449.924	-54.065	-0.145	-0.067
-448.909	199.268	0.210	0.327
-447.895	-200.000	-0.028	-0.247
-446.880	-22.579	-0.230	-0.141
-445.865	-200.000	0.023	-0.345
-444.851	518.904	-0.066	-0.158
-443.836	-200.000	0.028	-0.133
-442.822	800.000	0.028	0.122
-441.807	-200.000	-0.003	0.517
-440.792	42.170	0.298	-0.275
-439.778	-17.637	0.284	-0.181
-438.763	279.159	0.112	-0.202
-437.749	-11.324	0.250	0.167
-436.734	336.691	0.152	0.300
-435.719	-113.255	-0.110	-0.022
-434.705	-194.134	-0.260	-0.002
-433.690	524.533	-0.042	0.101
-432.676	-20.004	-0.146	0.091
-431.661	-66.631	-0.241	-0.097
-430.646	610.838	-0.105	0.267
-429.632	800.000	0.054	0.157
-428.617	152.201	0.132	-0.182
-427.603	9.561	-0.367	0.282
-426.588	800.000	-0.079	-0.272
-425.573	-200.000	-0.006	-0.095
-424.559	-90.662	0.149	0.044
-423.544	627.578	-0.057	0.147
-422.530	-29.376	-0.037	0.021
-421.515	30.926	0.104	0.090
-420.500	-80.410	-0.363	0.123
-419.486	-200.000	0.012	0.456
-418.471	-200.000	0.009	0.054
-417.457	118.841	-0.249	-0.312
-416.442	-189.571	-0.147	-0.002
-415.428	-3.292	0.256	-0.180
-414.413	-200.000	-0.011	-0.104
-413.398	-200.000	-0.038	0.242
-412.384	142.135	0.109	0.146
-411.369	387.122	-0.176	-0.368
-410.355	252.544	-0.083	0.143
-409.340	800.000	-0.042	-0.182
-408.325	5.505	-0.087	-0.065
-407.311	-84.432	0.102	-0.032
-406.296	700.828	-0.103	0.274
-405.282	-200.000	0.006	0.179
-404.267	-12.866	0.265	-0.174
-403.252	129.400	0.239	-0.309
-402.238	-200.000	-0.024	-0.206
-401.223	-200.000	-0.014	-0.188
-400.209	47.328	0.217	0.204
-399.194	-98.328	-0.157	0.041
-398.179	2.413	0.212	-0.156
-397.165	-167.099	0.094	-0.004
-396.150	265.365	0.134	-0.236
-395.136	-200.000	-0.058	-0.321
-394.121	-51.913	0.458	0.216
-393.106	500.044	-0.183	0.428
-392.092	147.751	-0.167	-0.228
-391.077	-71.906	0.368	-0.139
-390.063	226.157	-0.167	-0.273
-389.048	158.633	0.124	0.174
-388.033	283.257	0.136	-0.248
-387.019	-113.976	-0.168	-0.033
-386.004	-49.983	-0.387	0.186
-384.990	-79.949	-0.059	-0.020
-383.975	694.073	0.095	0.251
-382.960	-12.519	-0.111	0.073
-381.946	118.802	0.150	0.188
-380.931	10.865	-0.131	-0.101
-379.917	-200.000	-0.038	0.191
-378.902	-116.963	0.344	0.064
-377.888	21.196	0.124	-0.102
-376.873	-31.695	0.198	-0.112
-375.858	731.599	-0.021	0.056
-374.844	573.357	0.073	0.181
-373.829	516.249	0.099	-0.234
-372.815	-34.035	-0.340	0.189
-371.800	-12.652	0.119	0.078
-370.785	-64.741	-0.169	0.069
-369.771	-200.000	0.028	0.140
-368.756	-35.389	0.125	-0.069
-367.742	-185.615	-0.355	-0.005
-366.727	61.931	0.146	0.147
-365.712	63.589	-0.141	0.143
-364.698	121.521	-0.260	-0.328
-363.683	175.035	0.061	-0.090
-362.669	-163.266	-0.352	0.017
-361.654	-92.053	-0.233	-0.067
-360.639	435.015	-0.104	0.229
-359.625	-200.000	-0.017	0.082
-358.610	-176.770	-0.329	-0.008
-357.596	-112.148	0.050	0.010
-356.581	-72.017	0.054	0.020
-355.566	1.625	0.081	-0.059
-354.552	511.168	0.056	0.131
-353.537	800.000	0.068	0.196
-352.523	-100.982	0.291	0.072
-351.508	-108.911	-0.184	-0.040
-350.493	361.082	0.162	0.328
-349.479	-200.000	-0.038	0.216
-348.464	-137.282	-0.242	0.028
-347.450	46.678	-0.371	0.348
-346.435	316.699	0.080	0.152
-345.420	-162.243	0.342	0.017
-344.406	287.510	0.093	0.171
-343.391	-85.622	-0.176	0.055
-342.377	-130.833	-0.094	-0.013
-341.362	232.000	0.048	0.080
-340.348	-200.000	-0.044	-0.210
-339.333	47.416	-0.433	-0.407
-338.318	2.091	0.013	-0.010
-337.304	-86.420	-0.231	-0.072
-336.289	16.147	-0.214	-0.170
-335.275	144.127	-0.114	-0.153
-334.260	116.138	-0.044	-0.055
-333.245	13.895	-0.152	-0.119
-332.231	800.000	0.060	-0.238
-331.216	598.379	-0.107	-0.269
-330.202	163.592	0.166	0.236
-329.187	-10.520	0.061	-0.041
-328.172	-29.936	-0.112	0.065
-327.158	630.112	0.038	-0.098
-326.143	163.310	-0.131	-0.186
-325.129	-87.361	0.101	0.031
-324.114	36.960	0.098	0.087
-323.099	800.000	0.055	-0.207
-322.085	-74.597	0.141	-0.051
-321.070	-107.605	0.261	0.058
-320.056	56.892	0.102	-0.100
-319.041	125.234	0.076	0.097
-318.026	-22.176	-0.147	0.090
-317.012	-200.000	0.038	0.354
-315.997	-3.200	-0.128	-0.090
-314.983	-200.000	-0.026	-0.180
-313.968	93.371	0.156	-0.178
-312.953	-100.752	-0.279	-0.069
-311.939	-118.659	-0.076	-0.014
-310.924	-107.116	0.049	0.011
-309.910	-200.000	-0.012	-0.114
-308.895	125.139	0.184	-0.234
-307.880	-78.609	-0.089	-0.031
-306.866	-96.869	-0.234	-0.062
-305.851	303.594	-0.076	-0.142
-304.837	48.357	0.144	0.136
-303.822	47.442	-0.115	-0.108
-302.807	-17.956	-0.110	-0.069
-301.793	-96.183	0.165	0.044
-300.778	53.742	-0.154	0.149
-299.764	188.079	0.094	-0.141
-298.749	99.790	-0.240	0.280
-297.735	-200.000	0.071	0.417
-296.720	606.015	0.082	-0.207
-295.705	392.100	-0.095	-0.200
-294.691	38.994	0.254	0.229
-293.676	136.139	0.131	-0.172
-292.662	-54.724	0.463	-0.211
-291.647	-145.127	0.178	0.016
-290.632	124.592	-0.085	0.107
-289.618	547.479	-0.039	0.095
-288.603	-124.027	-0.187	0.030
-287.589	-1.118	-0.144	0.103
-286.574	10.021	-0.059	0.045
-285.559	-16.256	0.185	-0.118
-284.545	-200.000	-0.015	-0.142
-283.530	90.249	0.173	-0.195
-282.516	800.000	0.108	-0.350
-281.501	-56.064	0.393	0.177
-280.486	589.068	-0.103	0.257
-279.472	800.000	-0.068	0.202
-278.457	-200.000	-0.040	0.216
-277.443	-36.722	-0.217	0.117
-276.428	-200.000	0.262	0.000
-275.413	-11.756	-0.212	0.140
-274.399	-200.000	0.039	-0.269
-273.384	-17.131	-0.093	0.059
-272.370	-158.789	0.171	0.010
-271.355	182.112	0.104	-0.154
-270.340	-82.719	-0.214	0.070
-269.326	32.374	0.180	-0.157
-268.311	172.554	-0.161	-0.233
-267.297	-98.385	0.131	0.034
-266.282	-200.000	0.019	-0.164
-265.267	-75.764	0.160	0.057
-264.253	-200.000	0.011	-0.144
-263.238	-99.378	0.100	0.025
-262.224	13.400	0.128	-0.100
-261.209	173.361	-0.116	-0.168
-260.195	800.000	-0.062	0.261
-259.180	-64.652	-0.042	0.017
-258.165	129.124	-0.201	0.258
-257.151	-78.584	0.084	-0.029
-256.136	246.811	-0.148	-0.252
-255.122	7.302	0.256	0.192
-254.107	-200.000	-0.031	0.181
-253.092	-200.000	0.023	-0.120
-252.078	-200.000	-0.011	-0.428
-251.063	800.000	0.089	0.353
-250.049	349.382	-0.207	-0.412
-249.034	248.989	-0.079	-0.135
-248.019	-159.224	-0.070	-0.004
-247.005	-71.159	0.086	-0.032
-245.990	176.420	0.191	0.279
-244.976	5.434	0.340	0.252
-243.961	-200.000	0.014	0.282
-242.946	-15.212	0.113	-0.073
-241.932	-66.514	-0.165	0.066
-240.917	255.109	-0.046	-0.080
-239.903	-200.000	0.013	0.336
-238.888	205.287	-0.122	-0.191
-237.873	708.227	0.074	0.197
-236.859	0.441	-0.218	0.157
-235.844	800.000	-0.056	0.214
-234.830	696.163	-0.077	-0.202
-233.815	-200.000	-0.025	-0.289
-232.800	586.304	0.071	0.175
-231.786	206.082	0.072	0.112
-230.771	-70.103	0.376	-0.144
-229.757	-144.445	0.164	0.015
-228.742	-200.000	-0.040	0.178
-227.727	800.000	-0.018	-0.052
-226.713	-157.421	0.110	-0.007
-225.698	89.082	-0.194	-0.217
-224.684	320.321	-0.080	-0.152
-223.669	-200.000	-0.001	0.112
-222.655	547.387	-0.094	-0.226
-221.640	-200.000	0.016	-0.435
-220.625	800.000	0.068	-0.268
-219.611	-200.000	-0.020	0.290
-218.596	278.358	0.086	-0.154
-217.582	-70.603	0.175	0.066
-216.567	376.933	-0.155	0.318
-215.552	-27.270	0.143	-0.084
-214.538	214.370	-0.091	0.145
-213.523	-109.768	-0.168	0.036
-212.509	-45.640	-0.327	-0.162
-211.494	-200.000	-0.021	-0.117
-210.479	582.349	-0.149	-0.366
-209.465	55.468	-0.301	-0.293
-208.450	-11.738	0.394	-0.260
-207.436	-125.275	0.233	0.036
-206.421	2.551	0.081	-0.059
-205.406	-200.000	0.024	-0.197
-204.392	-67.068	-0.398	0.158
-203.377	-89.770	-0.144	-0.042
-202.363	-33.209	-0.115	0.064
-201.348	-44.497	-0.181	-0.091
-200.333	-84.609	0.192	0.061
-199.319	9.917	0.269	-0.205
-198.304	89.042	-0.121	0.135
-197.290	-10.382	0.258	0.172
-196.275	328.190	-0.150	0.290
-195.260	-200.000	-0.002	0.126
-194.246	208.372	0.165	-0.258
-193.231	-200.000	0.006	-0.035
-192.217	5.835	-0.248	-0.184
-191.202	-122.825	-0.260	0.042
-190.187	-53.832	-0.073	0.034
-189.173	-200.000	-0.003	0.101
-188.158	4.085	-0.167	0.122
-187.144	-200.000	-0.028	-0.303
-186.129	114.283	0.150	0.183
-185.114	-132.054	-0.354	0.046
-184.100	118.705	-0.191	-0.237
-183.085	76.706	0.182	0.194
-182.071	-200.000	0.018	-0.172
-181.056	-141.122	0.472	-0.048
-180.042	422.314	-0.057	0.122
-179.027	145.727	-0.166	0.223
-178.012	157.383	-0.113	-0.157
-176.998	173.995	-0.305	-0.442
-175.983	780.489	0.037	0.100
-174.969	-74.245	-0.217	-0.079
-173.954	-74.090	0.184	0.067
-172.939	139.951	0.064	-0.085
-171.925	-150.987	0.182	-0.014
-170.910	-114.294	-0.086	-0.017
-169.896	153.738	-0.087	-0.119
-168.881	109.506	0.059	0.071
-167.866	-98.812	-0.220	-0.056
-166.852	48.955	-0.193	0.182
-165.837	29.710	0.221	0.189
-164.823	-122.172	0.169	0.028
-163.808	10.008	0.099	-0.075
-162.793	-133.738	0.124	0.015
-161.779	-75.735	0.170	0.060
-160.764	-200.000	-0.030	-0.220
-159.750	-42.464	0.160	0.082
-158.735	-3.715	0.023	0.016
-157.720	-126.807	0.239	0.035
-156.706	23.711	0.098	-0.081
-155.691	27.847	0.142	0.120
-154.677	800.000	0.080	-0.245
-153.662	-43.768	0.273	0.138
-152.647	-52.169	0.369	0.172
-151.633	-80.087	0.395	0.133
-150.618	-200.000	-0.024	-0.180
-149.604	3.061	0.165	-0.120
-148.589	-145.808	0.208	0.019
-147.574	333.526	0.034	-0.066
-146.560	221.459	0.092	0.148
-145.545	-200.000	-0.034	-0.174
-144.531	-180.293	-0.407	-0.009
-143.516	78.374	-0.258	-0.277
-142.502	-200.000	-0.028	0.252
-141.487	88.455	-0.163	0.182
-140.472	229.513	-0.025	-0.041
-139.458	-178.430	0.159	0.004
-138.443	-70.839	-0.118	-0.045
-137.429	331.100	0.184	0.355
-136.414	-20.581	0.249	0.153
-135.399	-200.000	0.019	-0.166
-134.385	11.949	-0.186	-0.143
-133.370	-135.584	0.248	0.030
-132.356	253.188	-0.066	0.113
-131.341	34.452	0.357	0.312
-130.326	-5.462	0.371	0.255
-129.312	84.196	0.110	-0.121
-128.297	275.921	0.111	-0.197
-127.283	-173.937	-0.025	0.001
-126.268	-41.200	-0.213	-0.110
-125.253	-200.000	-0.022	0.229
-124.239	-47.853	-0.136	0.066
-123.224	315.405	0.104	-0.196
-122.210	-102.231	0.167	-0.040
-121.195	-9.405	-0.088	-0.059
