DTS Sentinel unit serial number:	SN413079Multiplexer serial number:	ORYXHardware model number:	OX4-SRSoftware version number:	ORYX F/W v4.00 Oryx Data Collector v3.7.2.0data status	okinstallation	princeton_trtdifferential loss correction	single-endedforward channel	channel 3reverse channel	N/Adate	2019/09/18time	06:04:34forward acquisition time	60.00reverse acquisition time	0.00gamma	496.2192k internal	0.2343k external	0.2343temperature offset calibration	0.9947default loss term (dB/km)	0.3790temperature slope calibration	1.0000multiplexer offset coefficient	1.0000multiplexer slope coefficient	1.0000fibre end	0.00T internal ref (°C)	23.19T ext. ref 1 (°C)	0.20T ext. ref 2 (°C)	17.65length (m)	temperature (°C)	Stokes	anti-Stokes-747.200	595.694	-0.152	0.376
-746.185	800.000	-0.137	0.593
-745.171	-61.415	-0.112	0.047
-744.156	-84.161	-0.248	-0.079
-743.142	64.769	0.183	0.185
-742.127	-84.470	-0.228	0.072
-741.112	-42.592	0.272	0.139
-740.098	-136.552	-0.256	-0.030
-739.083	-144.840	-0.135	-0.012
-738.069	200.876	-0.165	0.254
-737.054	5.187	0.185	-0.136
-736.039	-143.310	-0.535	-0.051
-735.025	317.711	-0.015	-0.028
-734.010	338.900	-0.087	0.169
-732.996	-54.024	-0.386	0.176
-731.981	57.084	-0.105	-0.102
-730.966	125.367	-0.058	-0.074
-729.952	57.504	0.132	0.129
-728.937	-66.909	-0.391	0.155
-727.923	-200.000	-0.007	0.189
-726.908	230.788	-0.125	-0.204
-725.894	-61.478	-0.205	-0.086
-724.879	-9.183	-0.315	0.211
-723.864	18.217	-0.157	-0.125
-722.850	-112.190	0.314	0.063
-721.835	-38.962	-0.057	-0.030
-720.821	-36.888	-0.245	-0.132
-719.806	-200.000	-0.016	-0.305
-718.791	-73.357	0.192	-0.070
-717.777	147.928	0.089	-0.120
-716.762	57.347	-0.174	-0.169
-715.748	28.284	-0.149	-0.126
-714.733	-63.039	-0.170	0.070
-713.718	22.107	-0.458	0.374
-712.704	-127.360	0.196	-0.029
-711.689	101.711	-0.368	-0.429
-710.675	-37.552	0.089	0.048
-709.660	-200.000	0.010	-0.081
-708.645	-155.153	-0.160	-0.010
-707.631	15.297	0.381	0.299
-706.616	-64.715	-0.199	-0.081
-705.602	-23.475	0.124	-0.074
-704.587	-43.082	0.202	-0.102
-703.572	13.328	0.082	0.063
-702.558	-67.332	0.533	-0.209
-701.543	-200.000	-0.063	0.384
-700.529	-48.155	0.051	0.025
-699.514	-52.663	-0.258	-0.119
-698.499	83.280	-0.103	0.112
-697.485	-200.000	-0.026	0.238
-696.470	800.000	0.020	-0.085
-695.456	800.000	0.053	-0.214
-694.441	-34.573	-0.147	-0.080
-693.426	800.000	-0.059	0.192
-692.412	153.447	0.082	0.113
-691.397	736.338	-0.026	0.069
-690.383	78.003	-0.021	0.022
-689.368	32.973	-0.041	-0.035
-688.354	-200.000	-0.020	-0.133
-687.339	-200.000	0.013	-0.322
-686.324	82.567	-0.191	-0.208
-685.310	-200.000	-0.004	-0.182
-684.295	50.381	-0.217	-0.205
-683.281	-42.971	0.104	-0.053
-682.266	-119.328	0.272	0.047
-681.251	314.628	0.073	-0.137
-680.237	-200.000	0.017	0.313
-679.222	-200.000	-0.001	-0.284
-678.208	-200.000	0.062	0.326
-677.193	-92.939	-0.375	-0.104
-676.178	192.600	-0.209	-0.316
-675.164	-111.091	-0.150	0.031
-674.149	4.530	-0.192	0.141
-673.135	-160.563	-0.318	0.017
-672.120	124.743	-0.127	0.159
-671.105	67.807	0.288	-0.294
-670.091	-200.000	-0.042	0.190
-669.076	-125.016	0.078	0.012
-668.062	68.024	0.039	0.040
-667.047	-122.091	0.268	-0.044
-666.032	800.000	-0.016	0.056
-665.018	91.090	-0.250	0.280
-664.003	32.070	0.128	-0.110
-662.989	583.052	-0.073	0.180
-661.974	-152.287	0.168	0.012
-660.959	37.648	-0.309	-0.274
-659.945	236.376	0.081	-0.133
-658.930	154.164	0.193	0.264
-657.916	-150.790	-0.312	0.024
-656.901	-200.000	-0.003	-0.186
-655.886	131.354	-0.032	-0.041
-654.872	-15.479	-0.213	-0.135
-653.857	-200.000	-0.049	0.218
-652.843	800.000	-0.082	-0.320
-651.828	800.000	0.097	-0.269
-650.814	18.689	-0.132	-0.106
-649.799	-8.775	-0.222	-0.149
-648.784	174.578	0.072	0.103
-647.770	349.737	-0.209	-0.412
-646.755	800.000	0.070	-0.233
-645.741	490.284	-0.068	-0.155
-644.726	800.000	0.105	-0.454
-643.711	-46.409	0.196	0.096
-642.697	30.022	-0.184	0.157
-641.682	40.280	-0.157	0.141
-640.668	-200.000	-0.070	0.355
-639.653	-200.000	-0.023	0.138
-638.638	81.492	-0.119	-0.129
-637.624	-134.645	0.126	-0.015
-636.609	800.000	-0.017	0.059
-635.595	800.000	-0.114	-0.364
-634.580	99.973	0.134	-0.154
-633.565	-128.101	0.321	-0.046
-632.551	137.087	-0.067	-0.087
-631.536	-200.000	-0.047	-0.239
-630.522	-17.261	0.194	0.122
-629.507	-65.252	-0.426	0.171
-628.492	800.000	-0.047	-0.155
-627.478	-3.453	0.272	-0.188
-626.463	-49.677	-0.310	-0.147
-625.449	-122.993	-0.422	0.068
-624.434	-200.000	-0.036	0.267
-623.419	63.358	0.087	0.087
-622.405	-60.059	-0.134	-0.057
-621.390	304.594	-0.082	-0.151
-620.376	-200.000	0.025	0.363
-619.361	-200.000	-0.010	-0.181
-618.346	536.784	0.077	-0.183
-617.332	18.942	-0.088	-0.070
-616.317	383.936	0.045	-0.093
-615.303	-169.476	-0.287	-0.010
-614.288	95.326	0.134	-0.152
-613.273	119.018	-0.377	-0.464
-612.259	113.554	0.201	-0.243
-611.244	-68.530	0.193	0.075
-610.230	-200.000	0.009	-0.169
-609.215	261.682	-0.118	-0.204
-608.201	80.486	0.206	-0.221
-607.186	800.000	0.093	-0.301
-606.171	-105.615	0.127	-0.029
-605.157	-100.043	0.067	0.017
-604.142	9.735	-0.119	0.090
-603.128	188.853	-0.181	-0.270
-602.113	659.528	0.034	0.088
-601.098	90.357	0.160	-0.178
-600.084	23.496	-0.151	-0.123
-599.069	294.777	0.021	-0.038
-598.055	-200.000	0.022	-0.289
-597.040	-29.652	0.238	0.135
-596.025	118.180	-0.104	0.128
-595.011	205.975	-0.156	-0.242
-593.996	34.416	0.361	0.313
-592.982	122.097	0.227	-0.282
-591.967	-200.000	-0.010	-0.158
-590.952	-200.000	-0.045	-0.203
-589.938	-99.851	0.181	0.045
-588.923	-155.612	0.281	0.018
-587.909	800.000	-0.120	0.512
-586.894	-200.000	-0.012	0.089
-585.879	800.000	0.047	0.149
-584.865	791.703	0.028	-0.077
-583.850	-30.885	0.214	-0.120
-582.836	-32.579	-0.280	0.155
-581.821	84.926	-0.130	-0.141
-580.806	479.542	0.162	0.365
-579.792	106.522	0.044	-0.052
-578.777	-130.735	-0.186	0.025
-577.763	120.596	-0.066	0.081
-576.748	-200.000	-0.080	0.684
-575.733	589.916	-0.092	-0.225
-574.719	-200.000	0.002	0.104
-573.704	-139.171	-0.249	-0.027
-572.690	800.000	-0.036	0.155
-571.675	10.755	-0.231	0.176
-570.661	-40.665	0.097	-0.050
-569.646	473.133	0.138	0.310
-568.631	-103.872	0.198	0.046
-567.617	16.037	0.070	-0.055
-566.602	54.139	-0.217	0.208
-565.588	-200.000	0.046	0.247
-564.573	-132.912	0.173	-0.022
-563.558	-130.364	-0.325	-0.044
-562.544	-200.000	-0.037	0.222
-561.529	-200.000	0.043	-0.294
-560.515	-200.000	-0.034	-0.217
-559.500	-159.103	-0.157	-0.009
-558.485	2.453	0.224	0.161
-557.471	-102.043	0.030	-0.007
-556.456	171.992	-0.221	0.316
-555.442	-131.452	-0.349	-0.046
-554.427	-200.000	-0.001	0.205
-553.412	-3.785	-0.174	-0.120
-552.398	28.094	-0.155	0.130
-551.383	-12.532	-0.147	-0.095
-550.369	-8.349	-0.054	0.036
-549.354	-107.886	-0.428	0.093
-548.339	100.668	0.071	-0.082
-547.325	82.461	-0.077	-0.083
-546.310	-70.752	-0.271	-0.102
-545.296	-200.000	-0.045	-0.264
-544.281	49.046	-0.201	-0.187
-543.266	262.701	-0.171	-0.294
-542.252	-12.000	0.055	0.036
-541.237	-200.000	0.027	0.201
-540.223	-200.000	0.058	0.300
-539.208	399.243	-0.179	-0.373
-538.193	-53.981	0.220	0.100
-537.179	288.478	-0.247	0.445
-536.164	28.796	0.054	-0.046
-535.150	493.923	0.215	0.491
-534.135	-200.000	0.043	0.286
-533.121	57.410	0.068	-0.066
-532.106	-142.224	-0.061	0.006
-531.091	-200.000	-0.009	0.185
-530.077	-77.722	0.059	-0.020
-529.062	100.207	0.071	0.081
-528.048	-200.000	-0.035	0.184
-527.033	-23.579	-0.341	0.203
-526.018	-86.421	0.158	0.048
-525.004	8.743	0.141	0.105
-523.989	-105.745	0.376	-0.084
-522.975	-151.765	-0.170	0.012
-521.960	-200.000	0.024	-0.250
-520.945	800.000	-0.046	-0.178
-519.931	14.319	-0.121	0.094
-518.916	-84.391	-0.316	0.099
-517.902	800.000	0.054	-0.153
-516.887	-200.000	0.051	-0.249
-515.872	45.477	-0.185	0.170
-514.858	-48.724	0.168	0.080
-513.843	-143.247	0.148	0.014
-512.829	523.292	0.097	-0.226
-511.814	800.000	0.040	0.113
-510.799	21.502	-0.199	0.161
-509.785	-58.188	0.332	0.144
-508.770	-41.010	0.162	0.083
-507.756	-2.161	0.308	0.215
-506.741	-200.000	0.014	-0.197
-505.726	692.985	0.144	0.376
-504.712	-68.120	0.340	0.131
-503.697	51.688	0.048	-0.045
-502.683	-71.376	0.269	-0.100
-501.668	-46.703	0.159	-0.077
-500.653	23.444	-0.180	0.147
-499.639	-200.000	0.039	-0.230
-498.624	-59.931	0.230	-0.098
-497.610	-190.612	0.257	0.003
-496.595	-200.000	-0.045	0.580
-495.581	478.412	-0.111	-0.249
-494.566	-70.062	-0.384	-0.145
-493.551	-200.000	0.002	-0.108
-492.537	-10.450	-0.166	0.109
-491.522	1.353	0.242	0.173
-490.508	-200.000	0.005	-0.052
-489.493	-85.711	-0.145	-0.045
-488.478	800.000	-0.133	-0.551
-487.464	800.000	-0.048	-0.208
-486.449	226.888	-0.012	-0.019
-485.435	-98.320	-0.307	0.078
-484.420	-66.168	-0.057	-0.022
-483.405	478.112	-0.040	-0.089
-482.391	648.167	0.050	0.126
-481.376	800.000	0.060	0.228
-480.362	-45.882	-0.154	-0.075
-479.347	21.051	-0.258	-0.208
-478.332	-5.064	0.021	0.015
-477.318	-130.769	0.266	0.035
-476.303	-23.975	0.246	-0.146
-475.289	3.652	0.064	0.046
-474.274	68.396	-0.241	-0.245
-473.259	-68.018	-0.351	-0.136
-472.245	-200.000	-0.076	0.332
-471.230	-136.385	-0.345	0.040
-470.216	36.071	0.206	0.180
-469.201	82.863	0.212	-0.228
-468.186	800.000	0.032	0.129
-467.172	46.567	0.181	0.166
-466.157	-200.000	0.013	0.180
-465.143	-200.000	0.020	0.000
-464.128	251.657	0.022	-0.037
-463.113	-93.821	-0.588	0.160
-462.099	356.186	-0.062	0.122
-461.084	-11.132	-0.200	-0.131
-460.070	800.000	0.052	0.206
-459.055	85.221	-0.129	-0.141
-458.040	-140.497	0.267	0.028
-457.026	-199.614	-0.075	-0.000
-456.011	135.864	0.149	0.192
-454.997	786.873	-0.043	-0.118
-453.982	-77.093	-0.112	0.039
-452.968	800.000	-0.028	-0.102
-451.953	800.000	-0.118	-0.338
-450.938	302.524	0.065	-0.119
-449.924	-4.394	-0.085	0.058
-448.909	-41.475	-0.357	0.182
-447.895	-109.774	-0.326	-0.068
-446.880	-200.000	0.009	0.092
-445.865	800.000	-0.068	-0.209
-444.851	-110.925	0.194	-0.039
-443.836	117.655	-0.218	0.266
-442.822	30.996	0.352	0.299
-441.807	-55.102	0.256	-0.114
-440.792	-72.119	0.122	-0.045
-439.778	-51.882	-0.386	0.178
-438.763	-88.070	0.122	-0.036
-437.749	80.017	-0.091	0.097
-436.734	224.485	0.057	-0.092
-435.719	365.694	0.097	-0.193
-434.705	-39.835	-0.269	0.139
-433.690	242.991	-0.054	0.089
-432.676	-71.154	-0.128	-0.047
-431.661	-200.000	0.018	-0.178
-430.646	233.138	-0.172	-0.281
-429.632	800.000	0.011	-0.032
-428.617	-200.000	-0.030	-0.397
-427.603	-113.328	-0.042	-0.008
-426.588	800.000	0.051	-0.153
-425.573	58.956	-0.038	0.037
-424.559	-200.000	-0.027	-0.206
-423.544	67.744	-0.027	0.027
-422.530	-80.223	-0.220	0.073
-421.515	625.456	-0.130	0.325
-420.500	-2.700	0.120	0.083
-419.486	-200.000	-0.008	0.186
-418.471	-190.978	0.209	-0.002
-417.457	-129.629	0.222	0.030
-416.442	3.582	0.110	-0.079
-415.428	-200.000	-0.025	0.154
-414.413	88.086	-0.340	0.373
-413.398	-66.201	-0.131	0.052
-412.384	739.362	0.141	-0.374
-411.369	-2.482	0.417	-0.289
-410.355	-163.224	-0.420	0.020
-409.340	-139.191	0.204	-0.022
-408.325	-32.544	-0.192	-0.106
-407.311	-84.425	0.084	-0.026
-406.296	313.528	-0.056	-0.104
-405.282	-200.000	0.017	-0.272
-404.267	-3.160	0.408	-0.281
-403.252	4.570	-0.099	-0.072
-402.238	114.361	0.133	-0.160
-401.223	-8.219	-0.084	-0.056
-400.209	-200.000	-0.007	0.196
-399.194	162.140	-0.123	-0.171
-398.179	-6.738	0.135	0.091
-397.165	646.502	-0.151	0.381
-396.150	26.429	-0.067	0.055
-395.136	752.769	-0.193	-0.515
-394.121	584.219	-0.008	0.019
-393.106	-200.000	0.005	-0.061
-392.092	-116.597	0.084	0.015
-391.077	-200.000	0.028	0.239
-390.063	240.646	0.035	0.058
-389.048	-91.461	0.227	0.064
-388.033	800.000	0.093	0.259
-387.019	-102.063	-0.248	-0.059
-386.004	32.993	0.199	-0.170
-384.990	-106.046	-0.495	0.110
-383.975	296.691	0.120	-0.217
-382.960	561.793	-0.118	0.283
-381.946	-200.000	0.003	-0.169
-380.931	-7.084	0.162	0.108
-379.917	-82.992	0.118	-0.037
-378.902	284.818	-0.045	-0.080
-377.888	-71.078	-0.420	-0.156
-376.873	435.518	0.120	-0.257
-375.858	-200.000	0.007	-0.365
-374.844	485.405	-0.131	-0.294
-373.829	89.428	0.040	-0.044
-372.815	-123.482	0.160	0.025
-371.800	-162.454	-0.241	0.012
-370.785	178.666	0.098	-0.141
-369.771	17.808	-0.246	-0.194
-368.756	-185.493	0.320	0.005
-367.742	-53.214	-0.118	0.054
-366.727	-200.000	0.002	0.043
-365.712	228.392	-0.131	-0.211
-364.698	-200.000	0.038	-0.348
-363.683	5.658	-0.231	0.169
-362.669	-124.121	-0.385	0.060
-361.654	53.482	0.158	0.149
-360.639	-200.000	0.006	-0.030
-359.625	54.135	0.105	0.100
-358.610	-200.000	0.036	0.254
-357.596	-200.000	0.036	0.236
-356.581	-35.527	0.194	0.104
-355.566	222.672	-0.120	-0.190
-354.552	-109.291	0.274	-0.057
-353.537	86.196	0.124	-0.134
-352.523	-200.000	0.004	-0.125
-351.508	-8.206	0.185	0.123
-350.493	-69.091	0.541	-0.205
-349.479	-174.987	0.121	0.003
-348.464	-77.487	0.103	0.035
-347.450	-87.467	0.193	-0.057
-346.435	346.633	-0.156	0.303
-345.420	67.872	-0.153	0.155
-344.406	-131.818	0.374	0.048
-343.391	-161.927	-0.308	0.015
-342.377	122.198	-0.161	-0.198
-341.362	-22.016	-0.215	-0.129
-340.348	76.054	-0.038	0.040
-339.333	-114.534	-0.125	0.024
-338.318	99.846	0.243	-0.278
-337.304	108.298	0.145	0.170
-336.289	377.752	-0.034	-0.069
-335.275	-98.782	-0.356	0.089
-334.260	800.000	0.062	0.256
-333.245	36.220	-0.229	0.199
-332.231	-9.308	-0.238	0.157
-331.216	40.459	0.182	0.161
-330.202	747.447	0.133	-0.353
-329.187	800.000	0.079	0.313
-328.172	-200.000	0.079	0.370
-327.158	-200.000	0.042	0.186
-326.143	-200.000	-0.002	0.278
-325.129	-173.639	-0.043	-0.001
-324.114	-119.645	0.018	-0.003
-323.099	-138.595	0.201	0.022
-322.085	800.000	0.018	-0.071
-321.070	637.884	-0.079	0.197
-320.056	92.956	-0.043	-0.048
-319.041	195.301	0.138	0.206
-318.026	-134.925	0.120	-0.014
-317.012	-200.000	0.023	0.132
-315.997	-81.105	-0.039	-0.013
-314.983	-0.392	0.027	-0.019
-313.968	68.083	0.040	-0.041
-312.953	-39.931	0.168	-0.087
-311.939	38.690	-0.175	-0.153
-310.924	-75.328	0.198	-0.069
-309.910	-119.287	0.127	0.022
-308.895	-200.000	0.035	-0.278
-307.880	56.996	0.248	0.238
-306.866	-55.956	-0.177	0.078
-305.851	-104.252	0.243	-0.056
-304.837	-17.122	-0.245	-0.152
-303.822	800.000	-0.051	-0.205
-302.807	800.000	-0.009	-0.024
-301.793	158.510	0.216	-0.295
-300.778	84.649	-0.206	-0.222
-299.764	800.000	0.141	-0.433
-298.749	800.000	0.104	0.349
-297.735	-86.214	-0.112	0.034
-296.720	-62.633	0.107	0.044
-295.705	-85.488	-0.123	-0.038
-294.691	44.700	-0.099	0.090
-293.676	6.946	0.068	0.050
-292.662	761.730	0.105	0.279
-291.647	114.453	-0.321	0.385
-290.632	35.947	0.115	-0.099
-289.618	-150.662	0.124	-0.009
-288.603	800.000	-0.058	0.218
-287.589	-200.000	0.035	0.302
-286.574	576.663	-0.183	0.440
-285.559	35.545	0.174	-0.150
-284.545	800.000	-0.065	-0.213
-283.530	-200.000	0.042	0.206
-282.516	54.315	0.082	0.077
-281.501	-10.321	-0.169	0.110
-280.486	380.830	0.067	0.135
-279.472	800.000	-0.075	-0.229
-278.457	20.651	-0.135	0.107
-277.443	-19.425	-0.339	-0.206
-276.428	6.793	0.145	-0.106
-275.413	-200.000	0.032	0.167
-274.399	223.862	0.095	-0.151
-273.384	-85.894	0.196	-0.060
-272.370	-53.979	-0.163	0.073
-271.355	-149.934	-0.285	0.022
-270.340	-76.604	0.501	-0.173
-269.326	800.000	-0.112	0.305
-268.311	119.820	0.115	-0.140
-267.297	-200.000	-0.029	-0.244
-266.282	199.461	0.051	-0.077
-265.267	-200.000	-0.012	-0.364
-264.253	68.966	0.056	0.057
-263.238	-56.966	-0.245	0.106
-262.224	-200.000	0.021	0.253
-261.209	354.880	-0.133	-0.259
-260.195	456.912	-0.024	0.052
-259.180	13.374	0.116	0.089
-258.165	-190.118	-0.209	0.002
-257.151	-200.000	-0.028	-0.166
-256.136	-194.976	0.185	0.001
-255.122	-200.000	0.000	0.014
-254.107	-200.000	0.011	-0.066
-253.092	-156.020	0.178	-0.011
-252.078	377.262	-0.095	-0.190
-251.063	-76.642	-0.253	0.087
-250.049	13.239	0.145	0.110
-249.034	-200.000	-0.017	0.126
-248.019	-200.000	-0.035	0.256
-247.005	-1.338	-0.105	-0.073
-245.990	340.233	-0.090	0.172
-244.976	-146.154	-0.085	0.007
-243.961	-179.594	0.363	0.008
-242.946	-200.000	0.031	-0.169
-241.932	359.740	-0.073	-0.143
-240.917	-97.299	0.248	-0.063
-239.903	-166.326	0.142	-0.006
-238.888	-54.088	-0.356	0.159
-237.873	-200.000	0.004	0.034
-236.859	-130.266	-0.117	0.016
-235.844	-169.839	0.258	0.009
-234.830	-157.825	0.299	-0.017
-233.815	-91.347	-0.272	0.076
-232.800	499.604	0.072	0.162
-231.786	156.950	-0.200	0.272
-230.771	256.115	0.225	0.378
-229.757	105.657	0.320	-0.371
-228.742	-129.967	0.187	0.025
-227.727	27.467	-0.296	-0.244
-226.713	-200.000	0.000	-0.041
-225.698	122.363	0.080	-0.098
-224.684	-32.878	0.218	-0.119
-223.669	-200.000	0.036	0.275
-222.655	-76.341	-0.143	0.049
-221.640	37.608	0.051	-0.044
-220.625	53.217	0.304	0.286
-219.611	187.058	-0.089	-0.130
-218.596	-200.000	-0.023	0.293
-217.582	256.180	0.309	0.520
-216.567	9.611	-0.079	-0.059
-215.552	-77.923	-0.045	-0.015
-214.538	2.663	0.167	-0.119
-213.523	623.342	-0.164	-0.406
-212.509	418.591	0.024	0.050
-211.494	-145.379	0.098	0.009
-210.479	286.032	0.073	-0.129
-209.465	42.444	0.015	-0.014
-208.450	-200.000	-0.032	-0.161
-207.436	-48.975	-0.037	0.018
-206.421	-123.660	-0.188	-0.029
-205.406	338.839	0.149	-0.284
-204.392	-154.217	-0.469	0.031
-203.377	97.032	-0.047	0.053
-202.363	-14.033	0.149	0.095
-201.348	-119.969	0.177	0.030
-200.333	11.228	0.326	0.245
-199.319	-200.000	-0.008	0.041
-198.304	10.440	-0.059	0.044
-197.290	-62.192	0.187	0.077
-196.275	42.307	0.039	-0.035
-195.260	-47.751	-0.141	0.067
-194.246	134.719	0.056	0.071
-193.231	464.605	0.048	-0.105
-192.217	-200.000	0.010	0.116
-191.202	201.379	-0.053	0.081
-190.187	-200.000	0.025	0.273
-189.173	100.036	-0.111	0.126
-188.158	676.735	0.176	-0.448
-187.144	-111.804	-0.211	0.042
-186.129	800.000	0.064	-0.196
-185.114	26.301	-0.398	0.325
-184.100	-142.362	-0.159	0.015
-183.085	-75.370	-0.161	-0.056
-182.071	3.233	0.124	-0.089
-181.056	2.134	0.255	0.180
-180.042	418.562	-0.034	-0.070
-179.027	15.912	0.168	-0.129
-178.012	-200.000	0.003	-0.163
-176.998	43.649	0.053	-0.048
-175.983	24.489	-0.126	0.102
-174.969	-9.411	-0.143	-0.094
-173.954	-100.208	-0.094	0.023
-172.939	-115.022	0.248	-0.046
-171.925	-28.330	0.407	0.230
-170.910	437.394	0.026	0.056
-169.896	23.278	0.326	0.262
-168.881	77.881	-0.093	0.097
-167.866	-200.000	0.000	0.019
-166.852	22.286	0.018	0.014
-165.837	-200.000	-0.006	-0.439
-164.823	-92.379	0.303	0.084
-163.808	-200.000	0.000	0.283
-162.793	47.856	0.144	-0.131
-161.779	155.977	0.087	0.117
-160.764	121.648	0.106	-0.130
-159.750	-200.000	-0.018	-0.317
-158.735	51.762	0.119	0.111
-157.720	-3.110	0.328	-0.224
-156.706	-80.707	0.109	0.035
-155.691	-200.000	0.016	0.256
-154.677	77.811	-0.259	-0.270
-153.662	316.330	0.082	-0.151
-152.647	-110.575	0.166	0.034
-151.633	548.926	0.077	0.181
-150.618	-200.000	-0.014	0.527
-149.604	120.200	-0.053	0.065
-148.589	43.418	-0.241	0.216
-147.574	800.000	0.094	0.328
-146.560	160.050	-0.183	0.250
-145.545	-123.487	-0.182	0.028
-144.531	-174.441	0.029	0.001
-143.516	-117.595	0.138	-0.024
-142.502	-109.310	-0.035	-0.007
-141.487	-158.588	-0.204	0.011
-140.472	-53.980	-0.350	-0.156
-139.458	158.109	0.053	-0.071
-138.443	48.277	0.095	0.087
-137.429	-200.000	0.037	-0.171
-136.414	-16.779	-0.158	0.097
-135.399	-8.593	0.215	-0.141
-134.385	27.914	0.187	0.154
-133.370	-200.000	-0.056	0.279
-132.356	-78.083	0.054	0.018
-131.341	13.172	0.121	0.091
-130.326	800.000	-0.078	0.281
-129.312	-29.324	0.050	0.028
-128.297	-17.282	-0.162	0.100
-127.283	-200.000	0.063	0.314
-126.268	-200.000	-0.023	0.312
-125.253	314.163	0.077	-0.142
-124.239	259.583	0.093	0.157
-123.224	-40.906	-0.196	0.099
-122.210	-19.225	-0.258	-0.157
-121.195	-129.265	0.394	-0.054
-120.180	112.591	0.058	0.069
