DTS Sentinel unit serial number:	SN413079Multiplexer serial number:	ORYXHardware model number:	OX4-SRSoftware version number:	ORYX F/W v4.00 Oryx Data Collector v3.7.2.0data status	okinstallation	princeton_trtdifferential loss correction	single-endedforward channel	channel 3reverse channel	N/Adate	2019/09/19time	13:32:35forward acquisition time	60.00reverse acquisition time	0.00gamma	496.2192k internal	0.2326k external	0.2326temperature offset calibration	0.9996default loss term (dB/km)	0.3790temperature slope calibration	1.0000multiplexer offset coefficient	1.0000multiplexer slope coefficient	1.0000fibre end	0.00T internal ref (°C)	30.08T ext. ref 1 (°C)	0.98T ext. ref 2 (°C)	27.00length (m)	temperature (°C)	Stokes	anti-Stokes-747.200	-200.000	0.076	0.367
-746.185	-200.000	-0.005	0.070
-745.171	-200.000	-0.006	0.046
-744.156	-200.000	-0.003	0.339
-743.142	-200.000	0.006	0.173
-742.127	99.376	-0.100	0.117
-741.112	-138.046	-0.203	-0.023
-740.098	28.409	0.202	0.172
-739.083	-16.555	0.049	0.032
-738.069	-200.000	-0.014	0.452
-737.054	473.985	0.095	-0.216
-736.039	378.536	-0.098	0.203
-735.025	14.370	-0.106	0.084
-734.010	54.357	-0.348	-0.338
-732.996	-90.030	-0.197	0.058
-731.981	-13.044	0.231	-0.152
-730.966	15.307	-0.153	-0.121
-729.952	95.839	0.096	-0.110
-728.937	630.215	0.078	0.199
-727.923	86.189	-0.196	0.217
-726.908	-95.636	-0.291	0.079
-725.894	213.229	0.156	0.249
-724.879	-120.034	0.112	-0.019
-723.864	-50.416	-0.297	0.141
-722.850	362.622	-0.203	0.411
-721.835	408.322	-0.121	-0.259
-720.821	800.000	0.021	-0.088
-719.806	-200.000	-0.007	0.070
-718.791	800.000	0.084	0.355
-717.777	-189.648	-0.288	-0.003
-716.762	-200.000	-0.061	-0.293
-715.748	-76.122	-0.217	0.077
-714.733	-200.000	0.002	0.363
-713.718	-111.261	0.263	-0.054
-712.704	518.768	-0.243	-0.574
-711.689	-119.607	-0.223	0.039
-710.675	-36.109	-0.292	-0.159
-709.660	-200.000	-0.042	-0.222
-708.645	-6.076	0.048	-0.033
-707.631	800.000	-0.020	-0.074
-706.616	-28.710	0.170	0.098
-705.602	-103.946	-0.177	0.041
-704.587	-200.000	0.011	-0.218
-703.572	33.383	-0.169	0.148
-702.558	99.595	0.110	0.129
-701.543	26.489	-0.268	0.226
-700.529	-200.000	0.004	-0.034
-699.514	647.006	-0.023	0.060
-698.499	-48.297	-0.310	-0.151
-697.485	93.906	-0.196	0.224
-696.470	-200.000	-0.000	-0.036
-695.456	-200.000	0.036	-0.177
-694.441	-111.105	0.092	0.019
-693.426	-140.004	-0.083	-0.009
-692.412	-11.786	-0.062	-0.041
-691.397	800.000	0.072	-0.206
-690.383	442.410	-0.015	0.034
-689.368	-176.904	0.149	-0.004
-688.354	-128.661	0.114	-0.016
-687.339	-61.966	-0.220	-0.093
-686.324	-38.113	-0.143	0.076
-685.310	-36.096	-0.045	-0.025
-684.295	-200.000	0.000	-0.109
-683.281	800.000	0.105	-0.330
-682.266	800.000	0.107	0.308
-681.251	373.792	-0.103	-0.211
-680.237	414.946	-0.059	-0.126
-679.222	-200.000	-0.066	-0.355
-678.208	34.267	-0.231	0.203
-677.193	257.323	0.029	-0.051
-676.178	-200.000	0.028	0.457
-675.164	790.097	-0.064	0.178
-674.149	-115.466	-0.403	-0.076
-673.135	35.979	0.103	-0.091
-672.120	-200.000	-0.022	-0.170
-671.105	-123.417	0.035	-0.006
-670.091	-63.700	-0.221	-0.091
-669.076	2.560	-0.393	0.286
-668.062	-23.074	-0.167	-0.101
-667.047	-52.458	-0.367	-0.171
-666.032	24.498	0.093	0.077
-665.018	-200.000	0.002	0.060
-664.003	371.343	-0.033	-0.067
-662.989	800.000	0.153	0.438
-661.974	-134.593	-0.336	-0.041
-660.959	-200.000	0.068	-0.463
-659.945	39.115	-0.108	-0.097
-658.930	270.814	0.083	0.147
-657.916	800.000	0.124	0.523
-656.901	410.996	0.135	0.288
-655.886	800.000	0.136	0.393
-654.872	-122.291	-0.274	0.045
-653.857	-41.453	-0.460	-0.238
-652.843	-57.682	-0.295	-0.130
-651.828	-166.717	-0.217	-0.009
-650.814	800.000	-0.039	-0.128
-649.799	-61.314	-0.073	0.031
-648.784	800.000	0.071	-0.202
-647.770	800.000	-0.025	-0.101
-646.755	14.927	-0.183	0.144
-645.741	-19.073	-0.057	0.036
-644.726	-113.885	0.222	-0.043
-643.711	-111.695	-0.144	0.029
-642.697	-31.058	-0.413	0.234
-641.682	343.424	-0.165	0.325
-640.668	362.194	0.110	0.222
-639.653	-125.214	0.102	-0.016
-638.638	-200.000	-0.365	0.001
-637.624	11.430	0.085	-0.065
-636.609	96.766	0.058	-0.066
-635.595	60.643	0.156	0.155
-634.580	3.332	0.146	0.107
-633.565	-25.412	-0.082	0.049
-632.551	383.344	0.040	-0.082
-631.536	-200.000	0.081	0.404
-630.522	-82.977	0.080	-0.026
-629.507	-97.427	-0.205	-0.054
-628.492	453.061	-0.041	-0.091
-627.478	-200.000	0.042	-0.254
-626.463	427.671	0.078	-0.169
-625.449	181.065	0.356	0.525
-624.434	-200.000	-0.017	-0.171
-623.419	-118.855	-0.055	-0.010
-622.405	138.023	0.142	-0.187
-621.390	-200.000	0.065	-0.307
-620.376	-200.000	0.045	-0.283
-619.361	59.535	-0.425	-0.421
-618.346	-7.481	-0.167	-0.113
-617.332	32.152	-0.127	-0.110
-616.317	-90.007	-0.278	-0.081
-615.303	-94.201	0.032	-0.009
-614.288	67.000	-0.219	0.224
-613.273	101.470	-0.273	-0.320
-612.259	7.773	0.327	-0.246
-611.244	-87.637	0.083	-0.025
-610.230	37.430	0.382	0.340
-609.215	-98.748	-0.179	0.046
-608.201	-200.000	-0.044	-0.216
-607.186	229.586	0.142	0.233
-606.171	-87.510	-0.335	-0.102
-605.157	-143.317	-0.140	-0.013
-604.142	-1.408	0.214	-0.152
-603.128	-200.000	0.059	-0.380
-602.113	557.806	-0.009	-0.022
-601.098	521.728	-0.154	-0.362
-600.084	800.000	-0.071	0.248
-599.069	209.846	0.077	0.121
-598.055	-93.396	-0.422	-0.117
-597.040	-31.233	0.448	-0.253
-596.025	-200.000	-0.027	-0.334
-595.011	800.000	0.056	0.194
-593.996	-108.440	0.355	-0.077
-592.982	74.026	-0.185	0.195
-591.967	157.574	0.090	0.125
-590.952	-200.000	-0.025	-0.141
-589.938	276.080	-0.108	0.192
-588.923	-90.376	-0.208	-0.061
-587.909	82.523	0.137	0.149
-586.894	-39.817	0.151	0.079
-585.879	38.791	-0.083	-0.074
-584.865	119.048	0.133	0.165
-583.850	800.000	0.087	0.283
-582.836	280.292	-0.068	-0.122
-581.821	798.301	0.074	0.205
-580.806	-200.000	-0.021	-0.226
-579.792	-171.573	-0.128	0.004
-578.777	27.733	0.197	0.166
-577.763	-200.000	-0.010	-0.383
-576.748	-1.830	-0.148	0.105
-575.733	64.696	-0.059	0.059
-574.719	-200.000	-0.018	-0.279
-573.704	386.166	0.075	-0.156
-572.690	-200.000	0.015	-0.202
-571.675	-149.375	0.435	-0.035
-570.661	-32.143	-0.253	-0.141
-569.646	-200.000	0.006	0.096
-568.631	-200.000	-0.007	0.224
-567.617	570.859	-0.187	0.456
-566.602	-108.703	-0.193	-0.042
-565.588	-126.573	-0.231	-0.034
-564.573	80.505	-0.283	-0.306
-563.558	-36.468	0.474	0.256
-562.544	79.293	-0.129	-0.138
-561.529	-177.715	-0.162	-0.004
-560.515	-200.000	-0.025	0.221
-559.500	119.036	0.240	0.298
-558.485	0.364	0.163	-0.116
-557.471	-200.000	-0.006	-0.208
-556.456	-200.000	-0.084	-0.427
-555.442	14.805	0.067	-0.052
-554.427	-21.016	-0.202	0.124
-553.412	478.685	0.092	-0.209
-552.398	-64.614	0.357	-0.145
-551.383	-88.634	-0.438	-0.131
-550.369	-200.000	-0.005	0.175
-549.354	578.260	-0.124	-0.304
-548.339	-200.000	0.008	0.259
-547.325	310.335	-0.058	-0.108
-546.310	448.249	0.083	0.184
-545.296	155.032	-0.083	-0.115
-544.281	104.686	-0.152	0.179
-543.266	355.190	0.133	-0.266
-542.252	-69.381	0.019	0.007
-541.237	-200.000	0.001	0.094
-540.223	290.713	0.124	0.225
-539.208	-9.192	-0.139	-0.093
-538.193	-171.384	-0.208	-0.007
-537.179	169.608	0.136	-0.195
-536.164	71.122	-0.130	-0.135
-535.150	-37.784	0.149	-0.079
-534.135	800.000	0.038	-0.126
-533.121	-100.464	-0.211	0.052
-532.106	-200.000	-0.014	-0.255
-531.091	800.000	0.072	0.299
-530.077	-33.168	0.192	0.106
-529.062	-173.894	0.214	0.006
-528.048	800.000	0.052	-0.190
-527.033	53.171	0.344	-0.329
-526.018	-200.000	0.041	-0.308
-525.004	129.326	-0.083	0.106
-523.989	-200.000	-0.025	-0.194
-522.975	61.476	-0.130	0.129
-521.960	-109.528	0.218	0.046
-520.945	-200.000	0.006	-0.107
-519.931	63.297	0.124	0.124
-518.916	-11.599	-0.047	-0.031
-517.902	150.422	-0.111	0.151
-516.887	-200.000	-0.010	0.297
-515.872	-44.894	-0.277	0.138
-514.858	-126.333	0.206	-0.031
-513.843	369.937	0.099	-0.201
-512.829	182.104	-0.193	-0.284
-511.814	-200.000	-0.001	0.095
-510.799	89.456	-0.198	-0.221
-509.785	29.547	-0.172	0.146
-508.770	115.003	0.036	-0.043
-507.756	526.529	0.067	0.159
-506.741	190.093	-0.067	-0.100
-505.726	800.000	-0.053	-0.225
-504.712	-156.606	0.205	0.013
-503.697	228.287	-0.082	0.133
-502.683	-49.847	-0.076	-0.036
-501.668	25.687	0.085	0.071
-500.653	-200.000	0.057	0.265
-499.639	242.487	0.071	0.118
-498.624	248.434	-0.150	-0.254
-497.610	-54.353	0.226	0.103
-496.595	-200.000	0.028	0.267
-495.581	-21.581	-0.114	-0.069
-494.566	45.261	-0.030	0.027
-493.551	-89.128	-0.068	0.020
-492.537	-35.665	-0.265	0.144
-491.522	433.299	0.117	0.255
-490.508	-124.681	0.192	0.030
-489.493	-46.296	0.122	0.060
-488.478	-4.832	0.093	0.064
-487.464	-200.000	-0.004	-0.176
-486.449	550.904	0.131	0.314
-485.435	-149.306	-0.168	0.013
-484.420	-6.444	0.108	0.074
-483.405	781.836	-0.069	-0.187
-482.391	-17.481	-0.132	-0.083
-481.376	110.180	0.234	0.280
-480.362	800.000	-0.029	-0.095
-479.347	-200.000	0.247	-0.001
-478.332	-152.658	0.222	-0.016
-477.318	-67.746	0.197	0.077
-476.303	-200.000	-0.036	0.285
-475.289	-200.000	-0.021	-0.283
-474.274	-200.000	0.001	0.031
-473.259	639.866	0.013	0.034
-472.245	-13.451	0.229	-0.148
-471.230	800.000	-0.086	-0.271
-470.216	1.675	0.054	0.039
-469.201	539.651	0.080	0.190
-468.186	-132.550	0.295	0.038
-467.172	-84.009	0.121	0.038
-466.157	265.524	-0.103	-0.179
-465.143	-200.000	0.044	0.383
-464.128	-28.079	-0.509	0.294
-463.113	-200.000	-0.010	-0.148
-462.099	-200.000	-0.022	-0.233
-461.084	800.000	0.079	-0.345
-460.070	800.000	-0.103	0.313
-459.055	22.680	-0.115	-0.094
-458.040	800.000	0.076	-0.258
-457.026	800.000	0.007	-0.021
-456.011	124.878	-0.076	0.096
-454.997	-135.882	-0.175	-0.021
-453.982	61.626	0.148	-0.147
-452.968	182.303	-0.093	0.137
-451.953	-55.341	-0.108	0.048
-450.938	-148.283	0.076	-0.006
-449.924	-128.332	-0.198	-0.028
-448.909	-95.342	0.259	0.069
-447.895	-147.151	-0.132	0.011
-446.880	-85.864	0.302	0.093
-445.865	-45.070	0.127	0.063
-444.851	-200.000	-0.046	0.270
-443.836	-38.078	0.324	0.171
-442.822	519.407	0.106	-0.247
-441.807	800.000	0.018	0.062
-440.792	-92.160	-0.218	0.061
-439.778	-200.000	0.000	0.031
-438.763	800.000	0.091	0.338
-437.749	89.828	0.114	0.127
-436.734	-96.552	0.285	0.075
-435.719	-184.543	0.133	-0.002
-434.705	97.602	0.128	0.146
-433.690	800.000	-0.033	0.126
-432.676	-200.000	-0.012	0.123
-431.661	448.083	-0.155	0.340
-430.646	-200.000	-0.000	-0.113
-429.632	315.891	0.185	-0.348
-428.617	11.776	-0.156	-0.119
-427.603	-54.903	0.344	0.155
-426.588	-47.597	-0.508	-0.246
-425.573	-29.886	-0.083	-0.047
-424.559	800.000	-0.002	-0.007
-423.544	-200.000	0.051	0.224
-422.530	428.296	-0.061	0.131
-421.515	-200.000	-0.004	0.197
-420.500	150.441	0.241	-0.326
-419.486	115.645	-0.113	-0.137
-418.471	-200.000	-0.032	-0.294
-417.457	20.193	0.130	0.104
-416.442	-200.000	-0.004	0.078
-415.428	324.861	-0.080	0.152
-414.413	-143.847	0.278	0.026
-413.398	800.000	-0.020	-0.057
-412.384	261.280	-0.056	0.096
-411.369	762.300	0.059	0.160
-410.355	-15.886	-0.245	0.155
-409.340	-109.720	0.209	0.044
-408.325	-104.991	-0.175	0.040
-407.311	162.389	-0.121	0.169
-406.296	470.557	0.258	0.579
-405.282	77.054	0.097	0.103
-404.267	208.914	-0.101	0.158
-403.252	-18.021	-0.271	-0.169
-402.238	-46.784	0.152	-0.074
-401.223	-91.577	0.142	0.040
-400.209	-200.000	-0.004	0.301
-399.194	428.074	0.109	-0.235
-398.179	-88.574	0.312	-0.093
-397.165	-150.732	-0.174	0.013
-396.150	800.000	0.081	0.309
-395.136	-138.339	-0.268	-0.029
-394.121	184.910	-0.151	-0.223
-393.106	-116.068	-0.286	-0.053
-392.092	93.636	-0.177	0.199
-391.077	-63.879	0.345	0.140
-390.063	547.078	0.090	0.215
-389.048	-200.000	-0.011	0.176
-388.033	3.574	0.191	0.139
-387.019	45.407	-0.119	-0.109
-386.004	351.118	0.086	-0.170
-384.990	-167.189	0.282	-0.011
-383.975	800.000	0.061	0.241
-382.960	35.526	0.264	0.230
-381.946	373.633	0.112	-0.227
-380.931	76.925	-0.078	0.082
-379.917	332.213	-0.118	0.227
-378.902	800.000	0.010	-0.040
-377.888	800.000	0.050	0.166
-376.873	-175.537	0.102	0.003
-375.858	-145.680	-0.253	0.022
-374.844	-133.089	-0.154	-0.019
-373.829	14.376	0.091	-0.071
-372.815	632.673	-0.094	-0.236
-371.800	-200.000	0.014	0.382
-370.785	199.091	0.258	0.393
-369.771	-108.594	-0.303	-0.065
-368.756	9.866	-0.164	0.123
-367.742	800.000	-0.096	0.266
-366.727	-78.252	-0.265	0.090
-365.712	-121.336	-0.247	-0.041
-364.698	-29.272	-0.284	-0.161
-363.683	-5.068	0.251	0.172
-362.669	-42.698	0.253	-0.128
-361.654	102.874	0.187	-0.217
-360.639	-85.304	-0.182	-0.056
-359.625	-88.931	0.197	-0.058
-358.610	-70.136	0.107	0.041
-357.596	-200.000	-0.000	-0.017
-356.581	446.912	-0.113	0.247
-355.566	-43.104	-0.202	-0.102
-354.552	-17.433	0.139	0.087
-353.537	-200.000	0.036	0.187
-352.523	-151.212	-0.424	0.032
-351.508	211.783	0.151	0.236
-350.493	675.780	-0.081	-0.210
-349.479	0.630	-0.386	-0.274
-348.464	-200.000	0.023	-0.127
-347.450	-22.162	0.208	0.126
-346.435	85.535	-0.212	0.232
-345.420	-52.004	-0.126	0.058
-344.406	25.935	0.024	-0.020
-343.391	215.877	-0.137	0.215
-342.377	217.780	-0.173	-0.273
-341.362	82.307	0.212	0.228
-340.348	-72.243	0.299	-0.110
-339.333	-127.335	0.432	-0.062
-338.318	800.000	0.092	-0.285
-337.304	-14.813	0.213	-0.136
-336.289	426.181	-0.118	0.253
-335.275	-90.707	0.171	0.049
-334.260	194.788	0.042	0.063
-333.245	64.741	-0.179	-0.179
-332.231	63.285	-0.268	-0.267
-331.216	-118.559	0.192	-0.034
-330.202	-200.000	-0.002	0.203
-329.187	-72.610	-0.058	0.021
-328.172	-129.635	0.302	0.041
-327.158	-72.059	-0.131	0.048
-326.143	27.087	0.208	-0.173
-325.129	38.541	0.412	-0.365
-324.114	346.202	-0.070	-0.137
-323.099	179.994	-0.066	0.096
-322.085	-128.631	0.262	-0.037
-321.070	-90.892	-0.227	0.065
-320.056	-123.353	-0.096	-0.015
-319.041	704.190	-0.154	-0.403
-318.026	-87.963	-0.176	0.052
-317.012	-200.000	0.001	0.017
-315.997	89.410	0.347	0.384
-314.983	138.909	0.156	-0.204
-313.968	800.000	0.075	-0.281
-312.953	-54.439	-0.064	0.029
-311.939	-115.666	-0.112	0.021
-310.924	-47.269	0.186	-0.090
-309.910	-152.416	-0.163	0.012
-308.895	12.711	-0.099	-0.076
-307.880	122.252	-0.077	-0.095
-306.866	-39.879	0.330	0.171
-305.851	-74.066	-0.025	0.009
-304.837	-115.795	-0.127	0.024
-303.822	-200.000	0.036	0.237
-302.807	-136.782	0.212	0.024
-301.793	281.686	0.209	-0.372
-300.778	800.000	0.050	-0.214
-299.764	-186.048	0.107	-0.002
-298.749	104.820	-0.027	-0.032
-297.735	198.440	-0.149	-0.225
-296.720	800.000	-0.081	0.334
-295.705	800.000	0.008	0.028
-294.691	800.000	-0.012	-0.051
-293.676	-102.139	-0.283	0.067
-292.662	20.908	-0.257	0.207
-291.647	-0.848	-0.233	-0.163
-290.632	-200.000	-0.008	-0.230
-289.618	-48.302	-0.245	-0.117
-288.603	418.792	-0.012	-0.026
-287.589	-200.000	-0.013	0.089
-286.574	-79.358	-0.271	0.091
-285.559	137.666	-0.226	0.294
-284.545	72.730	0.048	0.050
-283.530	59.544	-0.037	0.036
-282.516	-26.511	0.180	-0.105
-281.501	-200.000	0.019	-0.096
-280.486	18.897	0.038	-0.030
-279.472	-200.000	-0.095	0.472
-278.457	373.365	-0.074	0.149
-277.443	129.434	0.159	-0.202
-276.428	471.045	-0.112	-0.249
-275.413	-100.249	0.113	-0.028
-274.399	22.304	-0.136	-0.110
-273.384	667.925	-0.063	-0.161
-272.370	112.294	-0.372	-0.445
-271.355	138.129	0.025	-0.033
-270.340	219.407	-0.192	0.304
-269.326	-80.824	-0.429	-0.141
-268.311	-39.857	0.111	-0.057
-267.297	-10.471	0.327	-0.214
-266.282	37.514	-0.338	0.297
-265.267	-11.173	-0.039	-0.025
-264.253	800.000	-0.048	0.162
-263.238	88.554	-0.334	-0.367
-262.224	259.796	0.095	-0.162
-261.209	-200.000	0.008	0.099
-260.195	-200.000	0.068	0.312
-259.180	-135.456	-0.262	0.031
-258.165	-200.000	0.022	0.216
-257.151	88.928	-0.158	0.175
-256.136	-49.812	-0.322	0.151
-255.122	67.048	0.257	-0.259
-254.107	-56.836	-0.292	0.128
-253.092	666.827	-0.030	-0.076
-252.078	-200.000	-0.021	0.226
-251.063	32.617	-0.062	0.053
-250.049	359.931	-0.094	0.186
-249.034	83.755	-0.004	0.005
-248.019	67.421	-0.179	-0.181
-247.005	132.739	0.134	0.171
-245.990	-200.000	0.009	-0.085
-244.976	-200.000	-0.045	-0.216
-243.961	800.000	0.090	0.298
-242.946	800.000	0.029	0.102
-241.932	33.177	0.288	-0.247
-240.917	285.343	0.225	-0.402
-239.903	-142.573	-0.296	0.029
-238.888	-200.000	-0.059	-0.336
-237.873	2.053	0.322	-0.230
-236.859	-200.000	-0.031	0.328
-235.844	-87.567	-0.084	0.025
-234.830	-28.650	0.172	-0.098
-233.815	-16.288	-0.208	-0.130
-232.800	-97.662	0.101	-0.026
-231.786	800.000	-0.084	-0.250
-230.771	93.197	-0.246	0.275
-229.757	800.000	0.117	0.378
-228.742	-77.087	-0.278	-0.096
-227.727	693.263	-0.139	-0.361
-226.713	12.461	-0.092	-0.070
-225.698	38.611	-0.086	0.076
-224.684	427.602	-0.096	0.204
-223.669	-0.489	0.096	-0.068
-222.655	-200.000	-0.029	0.131
-221.640	-200.000	0.045	0.210
-220.625	-101.532	0.038	-0.009
-219.611	-138.899	-0.133	0.014
-218.596	198.818	0.182	-0.276
-217.582	-99.276	0.098	0.024
-216.567	305.296	0.206	-0.378
-215.552	800.000	0.112	-0.418
-214.538	-91.690	-0.344	-0.097
-213.523	-119.472	0.093	-0.016
-212.509	74.441	0.161	0.167
-211.494	246.190	-0.072	-0.120
-210.479	198.026	-0.062	0.094
-209.465	593.171	0.110	0.268
-208.450	-60.576	-0.089	0.037
-207.436	-45.017	0.069	0.034
-206.421	-200.000	0.015	0.074
-205.406	553.605	0.162	0.386
-204.392	-46.401	0.264	-0.128
-203.377	265.991	0.166	-0.286
-202.363	4.100	0.161	0.116
-201.348	-81.559	0.191	0.062
-200.333	800.000	0.083	0.278
-199.319	-78.597	-0.429	0.145
-198.304	-136.718	0.109	-0.012
-197.290	-122.340	0.175	-0.028
-196.275	-157.278	0.212	-0.013
-195.260	-200.000	0.065	-0.379
-194.246	155.171	0.021	0.028
-193.231	-43.675	-0.042	-0.021
-192.217	689.925	0.007	0.018
-191.202	-200.000	-0.077	-0.338
-190.187	-200.000	-0.025	0.142
-189.173	-106.286	0.068	-0.015
-188.158	69.772	0.124	0.127
-187.144	8.856	-0.305	0.227
-186.129	314.254	0.181	-0.337
-185.114	-24.494	-0.197	-0.116
-184.100	800.000	0.017	0.074
-183.085	-200.000	-0.014	-0.131
-182.071	309.155	0.014	0.027
-181.056	-200.000	-0.027	-0.258
-180.042	275.485	0.125	-0.218
-179.027	118.346	-0.080	-0.097
-178.012	136.275	0.054	0.069
-176.998	800.000	0.050	-0.181
-175.983	-200.000	0.003	0.590
-174.969	751.941	-0.098	-0.261
-173.954	-93.271	0.274	0.075
-172.939	83.643	0.096	0.104
-171.925	-200.000	0.022	0.128
-170.910	-111.540	-0.332	-0.066
-169.896	800.000	0.067	-0.260
-168.881	-200.000	0.045	-0.255
-167.866	-200.000	0.043	-0.322
-166.852	-165.445	0.244	-0.011
-165.837	262.460	-0.229	0.392
-164.823	134.402	-0.004	0.005
-163.808	-157.973	-0.091	-0.005
-162.793	160.474	0.144	-0.199
-161.779	182.360	0.145	0.210
-160.764	625.783	0.082	-0.205
-159.750	-6.352	-0.201	0.135
-158.735	675.575	0.066	0.170
-157.720	-25.899	-0.080	-0.046
-156.706	-25.491	0.301	0.175
-155.691	111.016	-0.202	-0.240
-154.677	-63.239	0.228	-0.093
-153.662	-23.143	-0.169	0.100
-152.647	133.949	0.118	0.151
-151.633	-102.372	0.292	-0.069
-150.618	198.178	-0.121	0.182
-149.604	423.340	0.070	0.149
-148.589	97.430	-0.087	-0.098
-147.574	-114.345	0.239	0.045
-146.560	-124.622	-0.228	-0.035
-145.545	-27.102	-0.069	-0.040
-144.531	333.840	-0.035	-0.067
-143.516	-51.738	0.149	-0.068
-142.502	566.450	-0.059	-0.142
-141.487	800.000	-0.122	0.372
-140.472	616.169	0.158	-0.389
-139.458	-116.263	0.205	0.037
-138.443	361.582	-0.257	0.507
-137.429	-31.033	0.342	0.190
-136.414	800.000	0.036	-0.138
-135.399	800.000	-0.093	-0.348
-134.385	-29.030	-0.362	-0.205
-133.370	355.339	-0.162	-0.317
-132.356	-138.565	0.112	0.012
-131.341	110.849	0.184	0.218
-130.326	-200.000	0.033	-0.182
-129.312	221.153	0.102	-0.161
-128.297	191.079	0.095	-0.141
-127.283	711.971	-0.084	0.220
-126.268	-200.000	-0.017	-0.089
-125.253	-200.000	-0.010	-0.148
-124.239	-200.000	0.031	0.460
-123.224	-200.000	0.010	0.218
-122.210	577.740	-0.071	0.171
