DTS Sentinel unit serial number:	SN413079Multiplexer serial number:	ORYXHardware model number:	OX4-SRSoftware version number:	ORYX F/W v4.00 Oryx Data Collector v3.7.2.0data status	okinstallation	princeton_trtdifferential loss correction	single-endedforward channel	channel 3reverse channel	N/Adate	2019/09/17time	05:32:34forward acquisition time	60.00reverse acquisition time	0.00gamma	496.2192k internal	0.2325k external	0.2325temperature offset calibration	0.9939default loss term (dB/km)	0.3790temperature slope calibration	1.0000multiplexer offset coefficient	1.0000multiplexer slope coefficient	1.0000fibre end	0.00T internal ref (°C)	29.20T ext. ref 1 (°C)	0.14T ext. ref 2 (°C)	23.17length (m)	temperature (°C)	Stokes	anti-Stokes-747.200	111.153	-0.199	-0.242
-746.185	-200.000	0.050	0.284
-745.171	-130.398	-0.383	0.052
-744.156	28.958	0.170	0.145
-743.142	375.172	-0.110	-0.226
-742.127	-143.219	-0.303	0.029
-741.112	125.730	0.193	0.246
-740.098	800.000	0.047	0.144
-739.083	-200.000	0.035	-0.191
-738.069	78.412	-0.284	0.306
-737.054	800.000	-0.051	-0.182
-736.039	-92.891	-0.374	0.105
-735.025	-5.967	0.082	0.056
-734.010	-200.000	0.071	-0.384
-732.996	-200.000	-0.293	0.001
-731.981	-150.158	0.286	-0.022
-730.966	-200.000	-0.310	-0.001
-729.952	-96.490	-0.326	-0.087
-728.937	-80.389	-0.101	0.034
-727.923	-191.628	0.073	0.001
-726.908	39.405	-0.155	0.140
-725.894	-90.073	-0.504	0.148
-724.879	103.840	-0.148	-0.175
-723.864	800.000	-0.052	0.169
-722.850	-200.000	-0.005	-0.154
-721.835	359.958	0.042	-0.085
-720.821	-97.215	-0.148	0.039
-719.806	24.476	-0.115	-0.096
-718.791	13.908	-0.148	0.116
-717.777	-107.231	0.077	0.017
-716.762	334.820	0.037	-0.073
-715.748	176.355	-0.075	-0.110
-714.733	-61.144	-0.317	0.135
-713.718	-149.757	0.202	-0.016
-712.704	281.831	-0.109	0.197
-711.689	-42.715	0.203	0.104
-710.675	800.000	-0.027	-0.105
-709.660	-200.000	-0.051	-0.243
-708.645	185.993	-0.188	-0.282
-707.631	-107.708	0.361	-0.079
-706.616	-170.219	-0.136	0.005
-705.602	-46.551	0.298	0.147
-704.587	5.698	0.143	0.107
-703.572	-15.854	-0.087	0.056
-702.558	-200.000	-0.031	-0.257
-701.543	-62.366	0.277	-0.116
-700.529	-8.271	-0.099	-0.067
-699.514	-147.132	0.241	-0.021
-698.499	130.785	-0.268	-0.346
-697.485	-200.000	-0.038	-0.180
-696.470	-130.501	-0.129	-0.018
-695.456	-3.108	-0.077	-0.054
-694.441	227.869	0.138	-0.227
-693.426	35.407	0.057	-0.050
-692.412	-160.541	-0.200	0.011
-691.397	-15.481	-0.291	-0.187
-690.383	800.000	0.044	-0.127
-689.368	-200.000	-0.003	-0.104
-688.354	133.350	0.077	-0.100
-687.339	-200.000	0.022	0.195
-686.324	-9.419	0.200	-0.135
-685.310	318.088	-0.100	-0.191
-684.295	-109.242	-0.274	0.059
-683.281	-182.580	-0.121	0.002
-682.266	572.471	-0.045	0.111
-681.251	267.228	0.137	-0.241
-680.237	-200.000	-0.003	0.094
-679.222	-200.000	0.011	0.181
-678.208	687.700	-0.066	-0.172
-677.193	-200.000	-0.017	-0.370
-676.178	29.990	0.175	-0.150
-675.164	800.000	-0.101	0.309
-674.149	800.000	-0.048	0.186
-673.135	-173.471	-0.210	0.006
-672.120	96.289	-0.227	-0.261
-671.105	-162.853	0.396	0.019
-670.091	139.843	-0.098	-0.130
-669.076	281.253	-0.298	-0.537
-668.062	-26.326	0.159	0.094
-667.047	225.553	-0.112	0.183
-666.032	-200.000	-0.006	-0.069
-665.018	-200.000	-0.006	0.067
-664.003	-200.000	-0.002	0.179
-662.989	-87.114	0.168	0.051
-661.974	-42.589	0.156	-0.080
-660.959	33.891	0.245	-0.214
-659.945	-184.611	-0.298	0.005
-658.930	154.660	0.162	0.224
-657.916	18.365	0.170	0.137
-656.901	345.677	-0.092	0.182
-655.886	-54.720	0.283	-0.129
-654.872	345.884	-0.125	-0.247
-653.857	-125.638	-0.282	0.043
-652.843	-120.120	0.245	-0.042
-651.828	-200.000	0.037	-0.212
-650.814	-4.848	0.077	0.053
-649.799	-144.263	0.327	-0.031
-648.784	-177.807	-0.313	0.008
-647.770	-81.488	0.056	-0.019
-646.755	-49.013	0.149	-0.071
-645.741	41.240	-0.078	0.071
-644.726	-67.468	-0.145	-0.057
-643.711	800.000	0.098	-0.300
-642.697	-200.000	0.007	0.143
-641.682	68.465	0.252	0.259
-640.668	350.661	0.025	-0.050
-639.653	-122.771	-0.410	0.067
-638.638	800.000	-0.047	0.141
-637.624	800.000	-0.063	0.195
-636.609	281.666	0.039	-0.071
-635.595	-200.000	-0.046	-0.310
-634.580	367.166	0.068	0.137
-633.565	-117.625	-0.258	0.047
-632.551	337.459	0.165	0.321
-631.536	-118.919	-0.460	-0.081
-630.522	-59.540	-0.102	-0.044
-629.507	246.761	0.187	0.317
-628.492	-43.765	0.445	-0.225
-627.478	800.000	-0.046	-0.194
-626.463	-140.127	0.386	-0.041
-625.449	82.395	0.292	-0.319
-624.434	0.568	0.147	-0.106
-623.419	-70.795	-0.081	-0.031
-622.405	174.182	-0.097	-0.141
-621.390	186.461	-0.144	0.215
-620.376	69.186	-0.107	-0.111
-619.361	-67.495	-0.390	0.154
-618.346	659.061	-0.044	-0.114
-617.332	800.000	0.072	0.206
-616.317	-200.000	0.011	0.276
-615.303	800.000	-0.045	-0.172
-614.288	800.000	0.024	-0.085
-613.273	-200.000	-0.032	-0.174
-612.259	-90.754	-0.011	0.003
-611.244	-200.000	0.041	-0.340
-610.230	800.000	0.061	-0.247
-609.215	-117.067	-0.288	-0.053
-608.201	38.831	-0.119	-0.107
-607.186	647.336	-0.034	0.088
-606.171	519.280	-0.050	0.118
-605.157	-200.000	-0.048	0.389
-604.142	-145.005	-0.258	0.024
-603.128	14.306	-0.068	-0.053
-602.113	9.714	-0.034	-0.026
-601.098	158.207	-0.065	-0.091
-600.084	-200.000	0.010	-0.137
-599.069	-7.167	0.094	0.064
-598.055	240.974	0.021	-0.034
-597.040	353.192	0.078	-0.154
-596.025	330.203	0.041	0.080
-595.011	29.366	-0.220	0.188
-593.996	76.818	-0.267	0.285
-592.982	-200.000	0.016	0.128
-591.967	800.000	0.063	0.273
-590.952	-37.336	0.201	0.107
-589.938	-200.000	-0.045	-0.462
-588.923	448.667	0.040	-0.088
-587.909	315.781	0.090	-0.169
-586.894	-137.191	-0.448	-0.051
-585.879	4.677	-0.141	0.104
-584.865	-48.981	-0.154	-0.074
-583.850	34.025	0.128	-0.112
-582.836	800.000	0.073	0.217
-581.821	35.733	-0.147	-0.129
-580.806	90.877	-0.179	-0.201
-579.792	-55.137	-0.108	-0.049
-578.777	13.611	0.077	0.060
-577.763	342.606	0.141	-0.277
-576.748	169.930	0.101	0.145
-575.733	-200.000	0.036	0.207
-574.719	800.000	0.104	0.312
-573.704	4.230	0.310	0.228
-572.690	-69.985	-0.318	0.121
-571.675	-117.768	0.316	-0.057
-570.661	-200.000	0.040	-0.185
-569.646	41.516	0.180	-0.163
-568.631	800.000	-0.030	0.112
-567.617	-200.000	-0.042	-0.253
-566.602	-200.000	0.007	0.306
-565.588	-200.000	-0.008	0.147
-564.573	-103.738	0.050	-0.012
-563.558	157.155	0.092	-0.128
-562.544	520.909	0.094	0.220
-561.529	301.411	-0.053	0.097
-560.515	-103.936	-0.189	0.044
-559.500	-61.993	0.195	-0.081
-558.485	446.563	-0.056	0.124
-557.471	800.000	-0.086	-0.296
-556.456	165.043	0.074	-0.105
-555.442	170.866	-0.085	0.122
-554.427	-10.402	-0.276	-0.183
-553.412	-111.918	0.173	-0.035
-552.398	-76.361	0.143	0.051
-551.383	-80.058	-0.323	-0.109
-550.369	41.241	-0.315	0.285
-549.354	-163.036	-0.297	0.014
-548.339	-0.551	0.324	0.230
-547.325	-72.655	-0.118	0.043
-546.310	-145.615	-0.181	0.016
-545.296	-31.661	-0.222	-0.125
-544.281	-101.836	0.240	-0.058
-543.266	-24.279	-0.353	-0.211
-542.252	-23.180	-0.090	-0.054
-541.237	-61.349	-0.252	0.106
-540.223	190.487	0.208	-0.313
-539.208	-121.675	-0.033	-0.005
-538.193	414.924	0.105	-0.225
-537.179	-119.294	0.166	0.029
-536.164	28.325	-0.088	0.074
-535.150	-66.097	-0.393	0.157
-534.135	499.148	0.119	-0.275
-533.121	-137.154	-0.272	0.031
-532.106	-200.000	-0.029	0.247
-531.091	-200.000	0.033	-0.242
-530.077	800.000	-0.060	-0.228
-529.062	-38.264	0.402	0.213
-528.048	-87.096	-0.134	0.041
-527.033	-91.677	-0.213	-0.061
-526.018	-200.000	-0.014	-0.340
-525.004	-117.527	-0.316	-0.057
-523.989	44.402	-0.132	-0.121
-522.975	182.769	0.119	-0.176
-521.960	-85.926	-0.096	0.030
-520.945	-173.759	-0.484	-0.014
-519.931	330.704	0.201	-0.386
-518.916	-200.000	-0.035	0.179
-517.902	151.356	0.174	-0.237
-516.887	-57.990	-0.248	-0.108
-515.872	-200.000	-0.014	-0.113
-514.858	800.000	-0.067	-0.196
-513.843	-155.337	-0.358	0.023
-512.829	-126.957	-0.057	0.008
-511.814	-6.806	0.220	-0.149
-510.799	-200.000	0.022	-0.162
-509.785	-68.565	-0.140	-0.054
-508.770	800.000	-0.070	0.260
-507.756	-185.406	-0.306	0.005
-506.741	15.303	-0.189	0.148
-505.726	144.894	0.070	-0.093
-504.712	-62.674	0.216	0.089
-503.697	-15.259	0.333	0.213
-502.683	800.000	-0.075	-0.268
-501.668	-169.682	0.158	0.006
-500.653	-8.813	0.274	-0.184
-499.639	-27.461	0.198	0.115
-498.624	-162.696	0.188	-0.009
-497.610	-139.407	-0.092	-0.010
-496.595	-200.000	0.082	0.373
-495.581	-43.065	0.187	-0.095
-494.566	-80.262	0.307	-0.102
-493.551	-84.582	0.290	-0.091
-492.537	800.000	0.077	0.292
-491.522	118.766	-0.158	0.195
-490.508	-113.376	0.132	-0.026
-489.493	-200.000	0.042	-0.329
-488.478	33.711	0.062	-0.054
-487.464	-26.795	0.166	-0.097
-486.449	4.065	-0.309	0.226
-485.435	-121.653	0.395	0.065
-484.420	-200.000	0.013	-0.250
-483.405	26.922	0.101	-0.085
-482.391	33.909	0.051	0.044
-481.376	120.888	0.095	-0.118
-480.362	428.301	-0.055	0.118
-479.347	248.613	0.089	0.150
-478.332	524.668	-0.103	0.243
-477.318	1.687	-0.235	0.169
-476.303	-200.000	0.010	0.203
-475.289	20.042	-0.157	-0.127
-474.274	-171.956	0.279	0.009
-473.259	-55.570	-0.130	-0.058
-472.245	-56.356	-0.150	0.067
-471.230	29.033	0.093	0.079
-470.216	10.824	0.213	-0.163
-469.201	-165.612	0.121	-0.005
-468.186	456.750	-0.054	0.119
-467.172	64.235	0.074	0.075
-466.157	800.000	0.060	0.225
-465.143	-71.888	0.473	0.176
-464.128	800.000	-0.208	0.605
-463.113	-108.936	-0.119	0.025
-462.099	800.000	0.056	0.218
-461.084	319.130	0.147	-0.277
-460.070	176.807	0.188	0.273
-459.055	423.213	0.024	0.051
-458.040	163.483	-0.092	0.129
-457.026	-106.489	-0.108	0.024
-456.011	544.945	-0.153	-0.364
-454.997	-129.144	-0.229	-0.032
-453.982	480.458	0.073	-0.165
-452.968	-69.613	-0.034	0.013
-451.953	-3.849	-0.202	0.140
-450.938	-111.005	0.407	0.083
-449.924	800.000	0.057	0.249
-448.909	-116.405	0.224	0.041
-447.895	-9.348	0.117	0.078
-446.880	13.873	-0.133	0.103
-445.865	800.000	-0.091	0.258
-444.851	-103.980	-0.266	-0.062
-443.836	156.984	0.190	-0.262
-442.822	-29.174	-0.184	-0.105
-441.807	5.498	-0.105	-0.078
-440.792	800.000	0.068	-0.242
-439.778	221.987	-0.102	-0.164
-438.763	13.475	-0.301	-0.233
-437.749	70.386	0.124	0.128
-436.734	-101.679	0.144	0.035
-435.719	-200.000	0.016	-0.187
-434.705	504.428	0.014	-0.031
-433.690	335.286	0.160	0.309
-432.676	-109.680	0.321	0.067
-431.661	151.677	0.209	-0.284
-430.646	263.154	-0.151	0.262
-429.632	-46.430	0.242	0.118
-428.617	-88.436	0.347	0.103
-427.603	413.715	-0.048	-0.102
-426.588	82.204	0.085	-0.092
-425.573	-157.752	-0.045	0.003
-424.559	-106.899	0.456	-0.101
-423.544	-200.000	0.031	-0.342
-422.530	-93.892	0.190	0.052
-421.515	49.791	0.057	0.054
-420.500	-200.000	0.048	0.284
-419.486	537.327	-0.025	0.059
-418.471	150.206	-0.049	0.067
-417.457	-24.219	-0.267	-0.159
-416.442	194.356	-0.224	-0.338
-415.428	800.000	-0.042	-0.152
-414.413	76.395	-0.077	-0.081
-413.398	71.716	-0.171	0.177
-412.384	419.733	0.066	0.141
-411.369	-200.000	-0.005	0.131
-410.355	29.127	-0.158	0.134
-409.340	-1.589	0.251	0.176
-408.325	-57.709	0.121	0.053
-407.311	126.247	-0.177	-0.223
-406.296	-83.562	-0.301	-0.096
-405.282	-9.383	-0.244	-0.162
-404.267	-38.050	0.142	-0.075
-403.252	309.244	0.057	-0.105
-402.238	-129.150	-0.265	0.037
-401.223	-107.169	0.174	0.038
-400.209	25.615	0.176	-0.146
-399.194	104.405	-0.042	0.049
-398.179	-200.000	-0.025	0.199
-397.165	308.476	0.163	-0.304
-396.150	307.784	0.093	-0.172
-395.136	800.000	-0.058	-0.235
-394.121	-28.851	-0.222	-0.127
-393.106	370.633	0.168	-0.340
-392.092	-200.000	0.026	-0.305
-391.077	-87.759	-0.494	0.148
-390.063	-200.000	-0.002	0.198
-389.048	15.847	0.119	-0.093
-388.033	464.616	-0.173	-0.385
-387.019	-15.372	0.261	0.166
-386.004	74.800	0.217	-0.227
-384.990	-125.730	-0.218	-0.033
-383.975	800.000	0.013	0.049
-382.960	-37.380	-0.196	-0.104
-381.946	-72.679	-0.299	0.110
-380.931	-34.479	0.447	-0.244
-379.917	-0.200	0.375	-0.266
-378.902	-200.000	-0.002	0.186
-377.888	94.792	-0.163	-0.185
-376.873	-75.222	-0.399	-0.142
-375.858	-61.734	-0.177	-0.074
-374.844	118.801	0.085	-0.104
-373.829	-200.000	-0.007	-0.100
-372.815	109.608	-0.092	-0.109
-371.800	88.982	-0.319	0.353
-370.785	-95.968	0.329	0.087
-369.771	353.033	0.086	-0.170
-368.756	800.000	-0.060	-0.191
-367.742	169.642	0.209	0.297
-366.727	-156.988	0.339	-0.021
-365.712	-200.000	-0.043	-0.242
-364.698	314.845	-0.104	-0.195
-363.683	93.187	-0.192	0.216
-362.669	35.616	-0.143	0.125
-361.654	206.024	-0.076	0.118
-360.639	-125.439	0.188	-0.028
-359.625	-83.872	-0.086	0.027
-358.610	-47.126	0.192	-0.093
-357.596	-28.104	-0.055	-0.031
-356.581	800.000	-0.035	-0.143
-355.566	-37.430	-0.222	0.118
-354.552	800.000	0.038	0.123
-353.537	176.515	0.133	-0.192
-352.523	800.000	-0.021	-0.084
-351.508	-98.256	0.199	0.051
-350.493	-200.000	0.048	-0.313
-349.479	-56.320	0.600	-0.265
-348.464	24.533	-0.139	-0.115
-347.450	-200.000	0.053	-0.333
-346.435	800.000	0.086	-0.294
-345.420	224.288	-0.078	-0.125
-344.406	800.000	0.123	0.526
-343.391	-16.123	0.279	-0.176
-342.377	94.620	0.196	-0.221
-341.362	-178.629	-0.308	-0.007
-340.348	-200.000	-0.024	0.132
-339.333	356.188	-0.074	0.147
-338.318	50.584	-0.119	0.112
-337.304	-125.349	0.397	-0.060
-336.289	-21.795	-0.171	0.103
-335.275	-200.000	-0.123	0.000
-334.260	-16.085	0.091	0.058
-333.245	-76.314	-0.234	-0.082
-332.231	287.496	0.071	0.128
-331.216	800.000	0.064	0.243
-330.202	36.207	0.120	-0.105
-329.187	393.761	-0.111	0.229
-328.172	-81.936	-0.105	-0.034
-327.158	-3.242	0.129	-0.089
-326.143	-200.000	0.011	-0.081
-325.129	-114.651	0.036	0.007
-324.114	-75.451	0.021	0.007
-323.099	-104.034	-0.334	-0.077
-322.085	-200.000	-0.000	0.143
-321.070	-200.000	-0.029	-0.189
-320.056	-125.961	-0.178	0.027
-319.041	-200.000	-0.012	-0.123
-318.026	146.419	-0.151	-0.201
-317.012	2.115	-0.232	0.166
-315.997	-28.461	-0.145	0.083
-314.983	-71.364	-0.200	-0.074
-313.968	151.911	-0.029	-0.039
-312.953	-136.081	-0.215	-0.025
-311.939	438.055	0.068	0.147
-310.924	-49.825	-0.201	-0.095
-309.910	800.000	-0.067	-0.244
-308.895	-137.228	0.131	0.015
-307.880	299.949	0.169	0.308
-306.866	25.530	0.181	0.150
-305.851	38.803	-0.260	-0.230
-304.837	108.223	-0.057	-0.068
-303.822	81.122	0.120	-0.129
-302.807	26.932	-0.103	-0.086
-301.793	-148.506	0.243	0.020
-300.778	-107.324	0.171	0.037
-299.764	800.000	0.152	0.528
-298.749	-61.978	-0.386	-0.160
-297.735	-190.923	-0.285	0.003
-296.720	-200.000	0.401	-0.002
-295.705	-187.181	-0.066	-0.001
-294.691	800.000	-0.075	-0.298
-293.676	800.000	0.085	-0.277
-292.662	-200.000	-0.001	0.256
-291.647	-136.820	0.183	-0.021
-290.632	-24.282	-0.432	-0.256
-289.618	52.726	-0.207	0.196
-288.603	6.196	0.109	-0.080
-287.589	398.922	0.179	-0.371
-286.574	800.000	-0.094	0.298
-285.559	147.947	0.151	0.202
-284.545	-34.212	-0.249	0.135
-283.530	-1.066	-0.095	0.067
-282.516	-61.210	0.348	0.145
-281.501	-44.979	0.174	-0.086
-280.486	659.746	0.024	0.061
-279.472	695.437	0.112	-0.293
-278.457	-200.000	0.016	-0.230
-277.443	-200.000	-0.029	-0.342
-276.428	35.938	-0.163	-0.142
-275.413	78.281	-0.048	-0.051
-274.399	122.295	0.265	0.328
-273.384	-140.034	-0.250	-0.026
-272.370	-135.396	0.340	0.040
-271.355	94.716	-0.068	0.076
-270.340	74.046	-0.120	0.124
-269.326	-110.251	0.303	-0.063
-268.311	-142.884	0.354	-0.034
-267.297	622.985	0.102	0.254
-266.282	115.274	0.140	0.170
-265.267	376.197	0.149	0.301
-264.253	120.197	0.336	0.413
-263.238	800.000	-0.077	0.276
-262.224	-116.466	0.197	0.036
-261.209	4.390	0.224	0.162
-260.195	96.039	-0.166	0.188
-259.180	749.890	-0.031	-0.083
-258.165	206.163	0.127	-0.195
-257.151	76.514	-0.104	0.109
-256.136	78.773	0.185	0.196
-255.122	-200.000	-0.005	0.200
-254.107	179.121	0.043	0.063
-253.092	224.639	0.135	0.216
-252.078	-117.801	-0.115	0.020
-251.063	-59.503	0.311	-0.132
-250.049	-94.268	-0.142	-0.038
-249.034	338.122	-0.153	0.295
-248.019	560.802	-0.070	0.167
-247.005	-79.602	0.115	0.039
-245.990	-10.920	-0.259	0.169
-244.976	800.000	-0.038	0.157
-243.961	-35.729	0.176	0.094
-242.946	183.664	0.096	-0.140
-241.932	122.128	-0.113	0.140
-240.917	-200.000	0.187	-0.000
-239.903	-5.629	-0.305	-0.207
-238.888	44.163	-0.087	-0.079
-237.873	-200.000	0.060	-0.312
-236.859	22.772	-0.222	0.180
-235.844	53.815	-0.272	-0.258
-234.830	-151.349	-0.171	-0.013
-233.815	26.006	-0.124	0.102
-232.800	-41.360	0.231	-0.118
-231.786	691.289	0.141	0.366
-230.771	-139.360	0.302	-0.032
-229.757	69.950	0.163	-0.167
-228.742	-200.000	-0.004	0.146
-227.727	800.000	-0.023	-0.092
-226.713	144.662	-0.202	0.266
-225.698	51.700	-0.207	0.195
-224.684	-74.155	0.128	0.046
-223.669	33.768	0.109	0.094
-222.655	-200.000	0.002	0.018
-221.640	-22.356	0.099	0.059
-220.625	381.649	0.058	0.118
-219.611	409.337	0.027	0.057
-218.596	-113.559	-0.094	-0.018
-217.582	-82.934	-0.091	-0.029
-216.567	-158.589	-0.161	0.009
-215.552	-59.936	-0.025	0.011
-214.538	-7.683	0.148	0.099
-213.523	-200.000	-0.005	-0.091
-212.509	231.156	-0.166	-0.269
-211.494	388.366	-0.109	0.222
-210.479	-32.644	0.152	-0.083
-209.465	-73.484	0.147	-0.053
-208.450	48.988	-0.097	-0.090
-207.436	-10.270	0.081	-0.053
-206.421	27.243	-0.108	0.089
-205.406	-200.000	-0.010	-0.210
-204.392	-67.854	-0.138	-0.053
-203.377	453.501	0.082	-0.179
-202.363	653.874	0.020	-0.051
-201.348	800.000	0.039	0.129
-200.333	-200.000	0.030	0.268
-199.319	109.503	-0.167	0.197
-198.304	-200.000	-0.027	0.143
-197.290	354.930	-0.193	0.379
-196.275	-102.255	-0.178	-0.042
-195.260	-63.349	-0.264	-0.107
-194.246	205.358	0.178	-0.272
-193.231	602.863	0.131	-0.321
-192.217	-190.654	0.210	0.002
-191.202	-158.062	0.154	-0.009
-190.187	-25.863	-0.373	-0.217
-189.173	191.238	-0.055	0.081
-188.158	-76.896	-0.216	0.074
-187.144	-45.864	-0.029	-0.014
-186.129	238.108	-0.140	-0.230
-185.114	-112.714	0.387	-0.076
-184.100	-70.212	0.190	-0.071
-183.085	-200.000	-0.057	-0.255
-182.071	-111.913	-0.171	-0.034
-181.056	222.546	0.210	0.333
-180.042	-90.741	0.346	0.098
-179.027	800.000	0.099	0.355
-178.012	-148.551	0.212	0.017
-176.998	-86.934	-0.227	-0.068
-175.983	-103.803	0.162	0.037
-174.969	-200.000	-0.066	0.333
-173.954	95.591	-0.206	-0.232
-172.939	-112.777	-0.072	0.014
-171.925	51.775	0.110	0.104
-170.910	125.601	0.117	-0.146
-169.896	-161.046	-0.141	-0.007
-168.881	-200.000	-0.048	0.448
-167.866	379.376	-0.239	0.482
-166.852	-200.000	0.023	-0.179
-165.837	535.740	0.056	0.131
-164.823	507.235	0.063	0.145
-163.808	164.321	0.177	-0.245
-162.793	-89.950	0.130	0.037
-161.779	-200.000	-0.055	0.573
-160.764	-14.465	0.243	0.154
-159.750	97.272	0.156	-0.176
-158.735	800.000	-0.056	-0.207
-157.720	292.102	-0.082	0.147
-156.706	-2.275	-0.077	0.053
-155.691	-63.896	-0.395	-0.159
-154.677	800.000	0.082	0.232
-153.662	-28.157	0.045	-0.026
-152.647	-200.000	-0.021	-0.135
-151.633	800.000	0.056	0.159
-150.618	-143.448	0.179	0.017
-149.604	413.973	0.091	-0.190
-148.589	563.293	-0.129	0.309
-147.574	-200.000	0.057	0.341
-146.560	-200.000	0.009	0.047
-145.545	-9.858	0.332	-0.218
-144.531	800.000	0.049	-0.157
-143.516	1.282	0.240	0.170
-142.502	468.234	-0.119	0.264
-141.487	-81.380	0.182	0.059
-140.472	-40.168	-0.148	0.076
-139.458	192.930	0.239	-0.356
-138.443	-200.000	0.030	-0.258
-137.429	403.485	-0.103	0.214
-136.414	66.855	-0.122	-0.123
-135.399	-26.195	-0.290	0.168
-134.385	481.019	-0.048	-0.108
-133.370	800.000	-0.018	-0.068
-132.356	274.048	-0.090	-0.157
-131.341	402.013	0.123	-0.255
-130.326	-70.468	0.149	-0.056
-129.312	68.046	-0.029	-0.030
-128.297	348.142	0.068	0.133
-127.283	16.609	0.128	-0.099
-126.268	228.028	0.118	0.189
-125.253	-200.000	0.026	-0.126
-124.239	412.681	-0.186	-0.390
-123.224	-200.000	-0.028	0.158
-122.210	-106.839	-0.117	0.025
-121.195	245.854	-0.055	-0.091
