DTS Sentinel unit serial number:	SN413079Multiplexer serial number:	ORYXHardware model number:	OX4-SRSoftware version number:	ORYX F/W v4.00 Oryx Data Collector v3.7.2.0data status	okinstallation	princeton_trtdifferential loss correction	single-endedforward channel	channel 3reverse channel	N/Adate	2019/09/17time	04:28:35forward acquisition time	60.00reverse acquisition time	0.00gamma	496.2192k internal	0.2324k external	0.2324temperature offset calibration	0.9946default loss term (dB/km)	0.3790temperature slope calibration	1.0000multiplexer offset coefficient	1.0000multiplexer slope coefficient	1.0000fibre end	0.00T internal ref (°C)	29.72T ext. ref 1 (°C)	0.14T ext. ref 2 (°C)	24.17length (m)	temperature (°C)	Stokes	anti-Stokes-747.200	-17.737	-0.112	0.071
-746.185	-128.568	-0.178	0.025
-745.171	120.303	-0.126	0.158
-744.156	-74.817	0.175	-0.064
-743.142	16.614	-0.171	0.137
-742.127	-24.646	-0.323	0.194
-741.112	-105.505	0.232	0.053
-740.098	-74.025	-0.177	0.065
-739.083	-48.664	0.415	-0.201
-738.069	19.244	-0.218	0.177
-737.054	161.707	0.096	-0.136
-736.039	-11.802	0.325	-0.215
-735.025	-0.129	0.089	-0.064
-734.010	-77.888	-0.287	0.100
-732.996	-200.000	0.021	-0.174
-731.981	-200.000	0.022	0.124
-730.966	-52.297	-0.349	0.163
-729.952	-77.390	-0.446	-0.156
-728.937	-24.686	0.077	-0.046
-727.923	629.592	-0.047	0.120
-726.908	-200.000	-0.032	-0.444
-725.894	51.844	0.161	-0.154
-724.879	787.737	-0.070	0.194
-723.864	398.733	-0.093	0.196
-722.850	300.866	0.065	-0.122
-721.835	-55.922	0.329	-0.148
-720.821	-121.446	-0.198	0.033
-719.806	-15.111	0.228	0.148
-718.791	-200.000	0.040	-0.206
-717.777	369.819	0.220	-0.449
-716.762	-200.000	-0.001	0.118
-715.748	-95.636	-0.346	0.093
-714.733	-25.248	-0.370	-0.221
-713.718	-44.167	-0.151	-0.076
-712.704	66.266	0.403	-0.412
-711.689	800.000	-0.045	0.147
-710.675	-200.000	0.016	-0.449
-709.660	-133.509	-0.258	-0.033
-708.645	-133.379	0.216	-0.027
-707.631	730.420	0.107	0.288
-706.616	-163.701	0.242	0.011
-705.602	-147.456	0.469	0.040
-704.587	800.000	-0.099	0.383
-703.572	438.185	0.031	-0.069
-702.558	-200.000	0.008	0.109
-701.543	-126.367	0.488	-0.073
-700.529	-145.107	-0.282	0.026
-699.514	12.401	-0.150	0.117
-698.499	191.817	0.128	-0.195
-697.485	-183.342	-0.121	0.002
-696.470	-200.000	0.027	0.275
-695.456	-143.636	0.193	0.018
-694.441	-9.597	-0.044	-0.030
-693.426	-61.859	0.071	0.030
-692.412	-14.099	-0.282	0.183
-691.397	-200.000	0.006	0.187
-690.383	-158.637	0.316	0.018
-689.368	800.000	-0.026	0.095
-688.354	184.038	-0.196	-0.292
-687.339	550.629	-0.075	0.181
-686.324	-200.000	0.000	0.134
-685.310	552.548	0.049	-0.118
-684.295	176.084	-0.092	-0.135
-683.281	-200.000	0.007	-0.460
-682.266	-200.000	-0.004	-0.227
-681.251	13.379	0.175	0.137
-680.237	229.811	-0.144	-0.236
-679.222	-94.173	0.084	0.023
-678.208	3.610	0.236	-0.173
-677.193	96.590	-0.076	-0.088
-676.178	-60.921	-0.492	-0.209
-675.164	57.147	-0.195	-0.192
-674.149	-200.000	0.025	-0.135
-673.135	791.197	-0.078	0.216
-672.120	-200.000	0.048	-0.249
-671.105	28.816	-0.151	-0.129
-670.091	-19.207	0.240	-0.150
-669.076	-6.761	-0.193	-0.132
-668.062	800.000	-0.060	-0.250
-667.047	-45.305	-0.306	0.153
-666.032	18.714	0.246	-0.198
-665.018	800.000	-0.017	-0.048
-664.003	-20.499	0.297	-0.184
-662.989	463.861	-0.086	-0.193
-661.974	-200.000	-0.023	0.293
-660.959	199.316	0.063	-0.096
-659.945	800.000	0.033	0.105
-658.930	-107.117	-0.342	-0.076
-657.916	13.241	0.267	-0.208
-656.901	457.811	0.077	0.172
-655.886	-200.000	-0.007	-0.207
-654.872	444.364	0.111	-0.244
-653.857	800.000	0.037	-0.139
-652.843	-200.000	0.002	0.099
-651.828	-67.033	-0.107	0.042
-650.814	-136.922	0.403	-0.047
-649.799	-131.629	-0.100	0.013
-648.784	23.698	0.099	0.082
-647.770	800.000	-0.043	-0.173
-646.755	134.027	-0.030	0.040
-645.741	-108.219	0.133	-0.029
-644.726	-156.723	0.233	-0.014
-643.711	80.237	-0.144	0.156
-642.697	32.280	-0.113	-0.098
-641.682	-122.122	-0.083	-0.014
-640.668	73.995	-0.211	0.222
-639.653	-200.000	-0.027	-0.206
-638.638	-103.724	-0.219	-0.052
-637.624	299.820	-0.180	-0.333
-636.609	27.413	0.025	-0.021
-635.595	220.834	-0.032	-0.051
-634.580	374.117	-0.083	0.170
-633.565	78.226	0.149	0.160
-632.551	-18.925	0.103	0.064
-631.536	-148.627	-0.464	-0.038
-630.522	-200.000	0.067	-0.294
-629.507	99.784	-0.120	-0.139
-628.492	-178.333	-0.141	0.003
-627.478	51.980	0.123	0.118
-626.463	800.000	0.047	0.143
-625.449	-16.985	-0.188	0.120
-624.434	-133.867	-0.257	0.032
-623.419	-102.222	-0.240	-0.058
-622.405	800.000	-0.027	-0.110
-621.390	-92.401	0.314	-0.089
-620.376	-200.000	-0.021	0.178
-619.361	103.048	0.138	-0.162
-618.346	-0.536	0.200	-0.142
-617.332	-100.420	0.305	-0.076
-616.317	-58.846	0.115	-0.050
-615.303	-56.047	-0.283	-0.127
-614.288	-115.916	0.271	0.051
-613.273	15.834	-0.201	-0.159
-612.259	-132.779	0.372	-0.048
-611.244	-3.838	0.106	0.074
-610.230	-200.000	-0.008	-0.298
-609.215	800.000	-0.153	0.487
-608.201	-200.000	-0.027	0.403
-607.186	-34.222	-0.280	0.154
-606.171	800.000	-0.061	0.173
-605.157	-200.000	0.022	-0.423
-604.142	12.151	-0.360	-0.278
-603.128	800.000	-0.175	0.577
-602.113	-94.804	0.332	0.090
-601.098	44.819	-0.133	-0.123
-600.084	383.907	0.136	0.282
-599.069	-200.000	-0.005	-0.216
-598.055	117.622	-0.245	-0.303
-597.040	800.000	0.071	-0.212
-596.025	324.069	0.110	0.211
-595.011	-23.802	-0.125	0.075
-593.996	149.141	-0.102	0.139
-592.982	-20.030	0.228	0.141
-591.967	-112.623	-0.380	-0.076
-590.952	800.000	0.098	-0.287
-589.938	-200.000	0.005	-0.146
-588.923	-52.598	-0.101	0.047
-587.909	662.167	-0.049	0.126
-586.894	113.636	-0.023	-0.029
-585.879	750.248	-0.061	0.166
-584.865	-200.000	0.069	-0.402
-583.850	800.000	0.049	0.155
-582.836	272.472	-0.083	0.147
-581.821	800.000	0.042	0.146
-580.806	-143.630	0.178	-0.017
-579.792	-88.099	-0.191	0.057
-578.777	-200.000	0.072	0.499
-577.763	-200.000	-0.047	0.362
-576.748	-65.615	-0.201	-0.081
-575.733	-200.000	0.027	-0.252
-574.719	1.758	-0.269	-0.195
-573.704	180.297	0.182	-0.268
-572.690	-184.234	-0.157	0.003
-571.675	297.765	-0.073	-0.135
-570.661	-200.000	-0.021	0.142
-569.646	-190.111	0.102	-0.001
-568.631	595.071	0.083	-0.206
-567.617	38.288	-0.177	-0.158
-566.602	662.341	-0.183	-0.474
-565.588	-105.925	0.103	0.023
-564.573	186.831	0.038	-0.057
-563.558	44.218	-0.099	-0.091
-562.544	355.071	-0.103	-0.205
-561.529	603.320	0.107	0.267
-560.515	-4.368	0.049	0.034
-559.500	110.871	0.092	0.111
-558.485	-81.932	0.121	0.040
-557.471	800.000	0.093	-0.277
-556.456	-200.000	0.021	0.100
-555.442	-133.712	-0.171	0.021
-554.427	25.460	0.096	-0.080
-553.412	-200.000	-0.027	0.139
-552.398	-136.091	-0.074	0.009
-551.383	-162.919	-0.385	0.019
-550.369	109.960	-0.095	0.114
-549.354	-94.129	0.224	-0.062
-548.339	305.053	0.072	-0.134
-547.325	-200.000	-0.050	-0.295
-546.310	800.000	0.024	-0.070
-545.296	50.203	-0.216	-0.204
-544.281	-87.432	0.166	0.050
-543.266	800.000	-0.078	-0.336
-542.252	-72.789	-0.077	-0.029
-541.237	-164.643	0.143	-0.006
-540.223	-45.563	0.237	0.118
-539.208	-200.000	-0.056	-0.282
-538.193	473.657	-0.105	-0.237
-537.179	-200.000	0.040	0.193
-536.164	399.755	-0.131	-0.276
-535.150	52.811	0.120	0.115
-534.135	-104.833	-0.207	-0.048
-533.121	159.684	0.164	-0.229
-532.106	-200.000	-0.040	0.447
-531.091	-55.799	-0.204	0.091
-530.077	800.000	0.191	-0.604
-529.062	472.258	0.215	-0.485
-528.048	-200.000	-0.012	0.147
-527.033	-52.837	0.118	-0.054
-526.018	243.857	0.181	0.305
-525.004	489.094	-0.102	0.232
-523.989	362.351	0.006	0.012
-522.975	-136.435	0.234	-0.027
-521.960	-135.823	-0.613	0.072
-520.945	63.764	0.205	0.206
-519.931	255.875	0.156	0.268
-518.916	-35.333	0.060	-0.032
-517.902	34.799	-0.237	-0.208
-516.887	-119.547	-0.291	-0.051
-515.872	-18.182	-0.242	-0.152
-514.858	-92.722	-0.237	-0.067
-513.843	31.661	-0.048	0.042
-512.829	-22.703	0.299	0.181
-511.814	-138.873	-0.156	0.017
-510.799	-112.550	-0.169	-0.034
-509.785	436.741	0.172	0.375
-508.770	-136.601	0.107	0.012
-507.756	156.771	-0.077	0.107
-506.741	233.205	0.130	-0.214
-505.726	-200.000	-0.044	-0.235
-504.712	-200.000	-0.139	0.000
-503.697	30.550	0.260	0.222
-502.683	366.001	0.099	0.199
-501.668	364.381	-0.181	0.363
-500.653	-76.492	0.230	-0.081
-499.639	156.205	-0.187	0.259
-498.624	-200.000	0.007	0.355
-497.610	-177.171	-0.265	-0.007
-496.595	47.754	0.105	-0.098
-495.581	-200.000	-0.010	0.247
-494.566	-200.000	-0.028	-0.350
-493.551	-93.072	0.292	0.081
-492.537	589.141	-0.072	0.178
-491.522	43.251	-0.093	0.084
-490.508	-5.201	-0.085	0.058
-489.493	-200.000	0.001	-0.231
-488.478	-21.750	-0.249	0.152
-487.464	-130.276	-0.229	-0.031
-486.449	11.887	0.168	-0.129
-485.435	-47.272	0.202	-0.099
-484.420	393.253	-0.148	-0.307
-483.405	-90.754	-0.302	0.087
-482.391	92.923	0.331	0.373
-481.376	-104.695	0.194	0.045
-480.362	-23.659	0.105	-0.063
-479.347	168.218	0.050	-0.071
-478.332	-135.725	0.176	-0.021
-477.318	-121.757	0.035	-0.006
-476.303	-200.000	-0.007	-0.044
-475.289	138.453	0.187	0.245
-474.274	-192.856	0.453	-0.004
-473.259	800.000	0.012	0.043
-472.245	-200.000	-0.019	0.110
-471.230	-200.000	-0.022	-0.240
-470.216	-48.711	-0.171	-0.082
-469.201	-28.001	-0.148	0.086
-468.186	231.386	-0.077	-0.127
-467.172	477.500	0.060	-0.135
-466.157	-200.000	-0.031	0.163
-465.143	-200.000	-0.005	0.051
-464.128	329.248	0.085	-0.163
-463.113	-126.238	-0.123	-0.018
-462.099	49.272	-0.101	-0.095
-461.084	800.000	0.033	0.109
-460.070	800.000	0.086	-0.274
-459.055	-200.000	-0.011	0.066
-458.040	-200.000	-0.105	-0.583
-457.026	-183.328	-0.021	-0.000
-456.011	-200.000	-0.068	-0.417
-454.997	800.000	0.041	0.148
-453.982	25.390	0.100	0.083
-452.968	151.812	0.082	0.112
-451.953	-16.619	0.091	0.057
-450.938	-114.059	-0.254	-0.049
-449.924	232.647	0.089	0.147
-448.909	18.827	-0.281	0.225
-447.895	-200.000	-0.011	0.332
-446.880	800.000	-0.035	0.100
-445.865	-44.719	-0.188	-0.094
-444.851	-140.310	-0.200	0.021
-443.836	425.581	0.140	-0.301
-442.822	147.803	0.162	0.218
-441.807	-105.960	0.271	0.061
-440.792	-173.945	-0.234	-0.007
-439.778	338.553	0.123	-0.239
-438.763	-81.637	-0.098	0.032
-437.749	383.636	0.030	0.061
-436.734	28.404	0.288	0.243
-435.719	76.251	-0.132	0.140
-434.705	-4.272	0.147	0.102
-433.690	800.000	-0.047	-0.141
-432.676	800.000	-0.109	0.303
-431.661	800.000	0.078	-0.230
-430.646	4.678	0.195	0.143
-429.632	800.000	-0.040	-0.161
-428.617	-54.870	0.345	-0.155
-427.603	-200.000	-0.005	0.163
-426.588	30.964	0.140	0.120
-425.573	313.536	-0.039	-0.073
-424.559	-69.717	0.018	0.007
-423.544	59.479	0.245	0.241
-422.530	800.000	-0.066	0.210
-421.515	800.000	-0.108	0.462
-420.500	-200.000	-0.010	0.070
-419.486	44.726	0.329	-0.301
-418.471	-116.873	-0.177	0.032
-417.457	138.500	-0.085	0.111
-416.442	800.000	0.025	0.095
-415.428	-104.336	-0.106	-0.025
-414.413	800.000	0.083	-0.240
-413.398	-58.639	0.233	-0.101
-412.384	70.758	-0.134	0.138
-411.369	-21.619	-0.134	-0.082
-410.355	65.993	-0.036	0.036
-409.340	-161.127	0.264	-0.014
-408.325	238.888	0.083	-0.138
-407.311	800.000	-0.054	0.166
-406.296	720.240	-0.082	-0.216
-405.282	330.952	-0.098	0.189
-404.267	137.702	0.106	0.139
-403.252	-103.152	-0.317	-0.075
-402.238	-126.395	0.154	0.023
-401.223	800.000	-0.116	0.370
-400.209	-200.000	0.022	0.135
-399.194	127.265	0.055	-0.070
-398.179	-172.975	-0.257	-0.008
-397.165	79.173	0.086	-0.092
-396.150	-200.000	-0.025	0.318
-395.136	-64.609	0.224	-0.090
-394.121	112.915	0.165	-0.199
-393.106	-30.075	0.379	0.214
-392.092	-200.000	-0.062	0.298
-391.077	136.888	0.113	-0.147
-390.063	-200.000	0.053	-0.299
-389.048	-189.848	-0.083	0.001
-388.033	-200.000	-0.035	0.161
-387.019	-92.701	0.138	0.038
-386.004	54.090	-0.120	-0.115
-384.990	62.006	0.081	-0.080
-383.975	-114.854	0.106	0.020
-382.960	84.058	-0.253	0.275
-381.946	-87.495	0.253	-0.076
-380.931	800.000	0.009	-0.027
-379.917	696.993	0.074	-0.193
-378.902	34.048	-0.239	0.207
-377.888	-62.359	-0.099	-0.041
-376.873	4.693	0.106	0.077
-375.858	-120.201	0.140	0.024
-374.844	39.682	0.106	-0.095
-373.829	-108.977	0.212	0.045
-372.815	501.966	-0.130	-0.298
-371.800	-200.000	-0.008	-0.148
-370.785	159.168	-0.100	0.138
-369.771	125.574	0.123	-0.155
-368.756	9.894	-0.120	0.091
-367.742	338.003	-0.164	-0.317
-366.727	-200.000	0.051	0.403
-365.712	-54.599	-0.270	-0.122
-364.698	348.448	-0.109	0.214
-363.683	112.921	-0.199	0.240
-362.669	59.048	0.250	-0.244
-361.654	-200.000	-0.027	0.257
-360.639	-14.495	-0.196	0.126
-359.625	-120.891	0.056	-0.009
-358.610	-20.106	0.219	0.134
-357.596	160.518	-0.185	-0.257
-356.581	-33.837	0.015	0.008
-355.566	-87.431	0.114	0.034
-354.552	-146.788	-0.196	-0.017
-353.537	800.000	0.058	-0.229
-352.523	-125.078	-0.030	0.005
-351.508	160.306	0.126	-0.175
-350.493	-133.321	-0.273	-0.034
-349.479	216.273	0.079	-0.125
-348.464	800.000	-0.049	0.154
-347.450	-10.587	0.061	0.040
-346.435	-100.470	0.221	0.054
-345.420	-200.000	0.018	-0.140
-344.406	-200.000	-0.032	0.161
-343.391	-95.878	-0.126	0.033
-342.377	800.000	-0.044	-0.166
-341.362	-99.291	0.343	-0.086
-340.348	558.168	-0.091	0.218
-339.333	-156.612	-0.194	0.012
-338.318	-2.363	-0.291	-0.203
-337.304	161.190	0.141	-0.196
-336.289	385.821	0.262	-0.538
-335.275	208.289	0.103	-0.160
-334.260	-141.122	0.116	-0.012
-333.245	-48.784	-0.035	-0.017
-332.231	125.115	-0.105	0.132
-331.216	-157.001	0.096	-0.006
-330.202	-200.000	0.049	0.241
-329.187	84.419	-0.107	-0.116
-328.172	-142.856	-0.139	-0.013
-327.158	107.969	0.096	0.114
-326.143	800.000	-0.037	0.139
-325.129	65.947	-0.155	0.156
-324.114	-83.629	-0.078	-0.025
-323.099	200.922	-0.078	0.120
-322.085	-200.000	-0.044	-0.217
-321.070	-35.386	0.186	-0.100
-320.056	-200.000	0.006	0.074
-319.041	241.890	0.015	-0.025
-318.026	0.800	0.142	0.101
-317.012	800.000	0.028	-0.115
-315.997	583.905	-0.075	0.182
-314.983	-138.523	0.339	-0.037
-313.968	800.000	0.009	0.038
-312.953	-200.000	0.044	-0.444
-311.939	153.692	0.109	-0.148
-310.924	373.694	0.033	0.067
-309.910	-200.000	0.019	0.401
-308.895	-187.994	-0.249	-0.003
-307.880	-87.600	-0.154	0.046
-306.866	-76.047	0.157	-0.055
-305.851	272.104	0.145	-0.254
-304.837	-10.824	-0.088	0.058
-303.822	-200.000	-0.011	0.188
-302.807	-200.000	-0.019	0.170
-301.793	108.835	-0.095	-0.113
-300.778	280.598	-0.093	-0.165
-299.764	-134.574	-0.358	0.043
-298.749	-80.097	0.044	-0.015
-297.735	-200.000	-0.019	0.229
-296.720	130.586	-0.171	0.218
-295.705	-17.919	0.034	0.021
-294.691	-25.613	-0.179	0.105
-293.676	118.982	0.149	0.183
-292.662	105.963	-0.087	0.102
-291.647	-49.216	0.280	0.132
-290.632	-146.711	-0.091	0.008
-289.618	54.126	0.128	0.122
-288.603	800.000	0.083	-0.246
-287.589	-51.525	-0.358	0.166
-286.574	255.566	-0.089	-0.151
-285.559	-109.455	0.116	0.024
-284.545	105.610	0.118	0.139
-283.530	77.386	-0.155	0.163
-282.516	135.430	0.167	-0.215
-281.501	358.598	-0.177	0.350
-280.486	170.383	-0.024	0.033
-279.472	-26.659	-0.192	-0.112
-278.457	-200.000	0.008	0.193
-277.443	-200.000	-0.001	-0.008
-276.428	-4.513	-0.091	0.063
-275.413	663.711	0.040	0.101
-274.399	16.287	0.291	-0.228
-273.384	-36.175	0.096	-0.052
-272.370	236.168	-0.045	-0.074
-271.355	100.594	0.100	-0.115
-270.340	800.000	-0.028	0.115
-269.326	-46.725	-0.324	0.157
-268.311	384.633	-0.105	0.213
-267.297	800.000	0.120	-0.466
-266.282	-62.623	-0.037	0.015
-265.267	800.000	-0.016	-0.046
-264.253	-97.507	0.204	0.053
-263.238	39.247	-0.214	-0.190
-262.224	-153.714	0.060	0.004
-261.209	225.138	-0.083	0.133
-260.195	-17.943	-0.046	-0.029
-259.180	295.547	-0.164	-0.297
-258.165	165.975	0.196	-0.275
-257.151	9.177	0.142	-0.106
-256.136	800.000	0.067	0.257
-255.122	-112.470	0.179	0.035
-254.107	-0.342	0.155	0.109
-253.092	-47.877	-0.217	-0.104
-252.078	391.656	0.063	0.130
-251.063	-200.000	-0.011	0.111
-250.049	-131.730	0.198	0.026
-249.034	103.864	-0.127	-0.148
-248.019	289.497	0.118	-0.213
-247.005	-200.000	-0.023	-0.331
-245.990	-200.000	0.037	-0.250
-244.976	359.740	0.109	0.216
-243.961	-40.174	0.119	0.061
-242.946	-97.242	-0.243	-0.063
-241.932	-195.914	0.159	0.001
-240.917	-74.872	0.180	-0.064
-239.903	96.316	0.086	0.097
-238.888	-61.071	0.398	-0.166
-237.873	-78.159	0.296	-0.101
-236.859	340.092	0.165	-0.319
-235.844	274.460	-0.091	0.159
-234.830	-90.034	-0.355	0.102
-233.815	150.269	0.160	-0.215
-232.800	686.978	-0.066	0.171
-231.786	436.429	0.196	-0.422
-230.771	122.794	0.150	0.185
-229.757	776.521	-0.047	0.128
-228.742	-165.503	0.290	0.013
-227.727	-80.990	-0.155	-0.051
-226.713	-57.469	0.134	-0.058
-225.698	-40.950	-0.026	-0.013
-224.684	25.906	0.298	-0.246
-223.669	18.366	0.350	0.277
-222.655	24.104	0.337	0.275
-221.640	160.438	0.056	0.078
-220.625	-200.000	0.023	0.180
-219.611	-200.000	0.006	-0.182
-218.596	-65.455	-0.159	0.063
-217.582	-134.494	-0.296	0.036
-216.567	90.627	-0.057	-0.063
-215.552	-75.314	0.238	0.084
-214.538	-77.693	-0.094	-0.032
-213.523	30.256	0.135	0.114
-212.509	149.935	0.234	-0.314
-211.494	110.288	-0.058	-0.069
-210.479	-145.156	-0.215	0.019
-209.465	-49.488	0.502	-0.236
-208.450	-63.412	0.250	-0.102
-207.436	383.548	-0.122	-0.249
-206.421	18.206	-0.171	0.135
-205.406	51.717	-0.217	-0.204
-204.392	800.000	-0.062	0.240
-203.377	-180.475	-0.127	0.003
-202.363	10.551	-0.069	-0.052
-201.348	-200.000	-0.013	-0.075
-200.333	797.030	-0.013	-0.036
-199.319	-200.000	0.026	-0.237
-198.304	-6.641	0.076	-0.051
-197.290	29.731	-0.153	0.129
-196.275	-200.000	-0.011	-0.201
-195.260	800.000	0.100	0.413
-194.246	-97.814	-0.306	0.078
-193.231	-103.016	0.314	-0.074
-192.217	213.562	-0.037	0.058
-191.202	19.060	0.027	-0.021
-190.187	341.558	0.063	0.122
-189.173	-79.220	-0.249	0.084
-188.158	-163.555	-0.075	-0.004
-187.144	-127.911	0.401	-0.057
-186.129	99.511	-0.196	0.224
-185.114	-200.000	0.035	0.212
-184.100	-70.755	0.100	0.037
-183.085	26.276	-0.180	-0.149
-182.071	-135.191	0.071	-0.008
-181.056	-123.145	-0.131	-0.021
-180.042	149.597	0.052	-0.069
-179.027	-141.299	0.100	-0.010
-178.012	30.973	-0.302	-0.255
-176.998	-53.845	-0.221	0.099
-175.983	585.207	-0.095	0.230
-174.969	-126.889	0.161	0.023
-173.954	-200.000	0.023	0.124
-172.939	-81.164	-0.268	0.088
-171.925	-200.000	0.003	-0.224
-170.910	-200.000	-0.003	0.068
-169.896	-29.284	0.390	-0.220
-168.881	180.848	-0.187	0.272
-167.866	80.609	-0.203	0.216
-166.852	71.551	0.215	0.220
-165.837	619.078	-0.054	-0.134
-164.823	77.384	0.117	0.123
-163.808	-200.000	0.015	0.196
-162.793	-200.000	0.003	-0.153
-161.779	-147.919	-0.194	0.016
-160.764	13.392	0.067	-0.052
-159.750	-188.687	-0.126	0.002
-158.735	-131.612	-0.278	-0.036
-157.720	629.553	-0.051	0.126
-156.706	-163.074	0.238	0.011
-155.691	-200.000	0.006	-0.284
-154.677	-105.350	0.270	0.061
-153.662	170.053	-0.109	0.154
-152.647	-7.182	-0.241	0.161
-151.633	-200.000	-0.038	-0.315
-150.618	-200.000	0.024	0.162
-149.604	48.161	-0.107	0.099
-148.589	713.573	0.197	0.516
-147.574	282.243	0.187	0.330
-146.560	10.025	0.158	-0.118
-145.545	44.413	-0.311	-0.281
-144.531	317.537	-0.059	0.110
-143.516	-85.107	-0.163	0.050
-142.502	-126.710	0.068	0.010
-141.487	-84.708	-0.222	-0.069
-140.472	-200.000	0.023	0.201
-139.458	-13.005	-0.272	0.175
-138.443	-200.000	0.011	-0.091
-137.429	8.184	0.151	0.112
-136.414	800.000	-0.080	0.251
-135.399	-85.803	-0.460	0.141
-134.385	-89.505	0.088	0.025
-133.370	-200.000	0.013	0.065
-132.356	-39.035	0.115	0.060
-131.341	-2.984	-0.091	-0.063
-130.326	359.845	-0.071	-0.139
-129.312	-122.304	-0.183	0.029
-128.297	-200.000	0.006	0.122
-127.283	-7.118	-0.331	-0.221
-126.268	210.743	0.053	0.082
-125.253	800.000	-0.010	0.034
-124.239	800.000	0.027	0.087
-123.224	800.000	-0.137	-0.491
-122.210	113.290	0.059	0.070
-121.195	312.568	-0.092	0.171
