DTS Sentinel unit serial number:	SN413079Multiplexer serial number:	ORYXHardware model number:	OX4-SRSoftware version number:	ORYX F/W v4.00 Oryx Data Collector v3.7.2.0data status	okinstallation	princeton_trtdifferential loss correction	single-endedforward channel	channel 3reverse channel	N/Adate	2019/09/15time	20:28:34forward acquisition time	60.00reverse acquisition time	0.00gamma	496.2192k internal	0.2323k external	0.2323temperature offset calibration	0.9938default loss term (dB/km)	0.3790temperature slope calibration	1.0000multiplexer offset coefficient	1.0000multiplexer slope coefficient	1.0000fibre end	0.00T internal ref (°C)	33.55T ext. ref 1 (°C)	7.80T ext. ref 2 (°C)	25.27length (m)	temperature (°C)	Stokes	anti-Stokes-747.200	-32.159	0.157	0.089
-746.185	-200.000	-0.072	0.590
-745.171	-104.662	0.324	-0.075
-744.156	101.743	-0.336	0.396
-743.142	36.790	0.245	-0.218
-742.127	800.000	0.051	0.153
-741.112	329.406	-0.051	0.099
-740.098	-111.506	-0.091	-0.019
-739.083	-81.658	0.272	-0.090
-738.069	-200.000	0.021	0.137
-737.054	305.581	0.160	-0.301
-736.039	-64.633	-0.228	-0.093
-735.025	-200.000	0.015	0.104
-734.010	800.000	-0.060	0.216
-732.996	51.196	-0.052	-0.049
-731.981	-200.000	0.032	0.301
-730.966	96.484	0.082	0.095
-729.952	-136.183	-0.149	0.018
-728.937	-26.221	-0.070	-0.042
-727.923	-200.000	0.037	0.182
-726.908	-200.000	0.065	-0.383
-725.894	110.864	-0.164	0.199
-724.879	6.411	0.096	0.072
-723.864	149.514	0.301	0.411
-722.850	-102.653	-0.109	0.026
-721.835	-200.000	-0.008	-0.257
-720.821	30.390	-0.062	-0.053
-719.806	-4.065	-0.283	-0.198
-718.791	60.166	0.079	-0.079
-717.777	-45.302	-0.280	-0.140
-716.762	-0.355	-0.020	0.014
-715.748	21.378	-0.230	-0.189
-714.733	-119.795	0.297	-0.052
-713.718	800.000	0.010	-0.037
-712.704	-200.000	0.059	-0.373
-711.689	-95.214	-0.076	0.021
-710.675	-21.775	-0.255	-0.157
-709.660	800.000	-0.047	-0.179
-708.645	-55.030	0.308	-0.140
-707.631	179.459	-0.116	-0.171
-706.616	800.000	0.080	-0.319
-705.602	41.966	0.155	-0.142
-704.587	407.415	0.086	0.183
-703.572	-200.000	-0.032	-0.334
-702.558	425.981	-0.045	-0.097
-701.543	157.484	-0.081	0.113
-700.529	133.389	0.058	0.075
-699.514	226.725	0.153	0.251
-698.499	102.515	-0.126	0.149
-697.485	-56.292	-0.172	-0.077
-696.470	170.197	0.058	-0.084
-695.456	-60.747	0.178	-0.076
-694.441	-124.820	0.163	-0.025
-693.426	-86.883	-0.184	0.056
-692.412	-200.000	0.000	0.141
-691.397	-126.915	0.119	0.018
-690.383	-200.000	0.054	0.246
-689.368	-200.000	0.115	0.528
-688.354	35.386	-0.293	0.259
-687.339	246.631	-0.072	-0.122
-686.324	-67.463	-0.199	-0.079
-685.310	-200.000	-0.020	-0.236
-684.295	354.836	0.040	-0.081
-683.281	208.468	0.096	-0.152
-682.266	-63.491	0.239	-0.099
-681.251	-99.975	0.350	-0.088
-680.237	-43.844	0.140	-0.071
-679.222	-53.408	0.286	0.132
-678.208	800.000	0.010	0.037
-677.193	101.784	-0.089	0.105
-676.178	-152.961	0.091	0.006
-675.164	68.226	-0.163	-0.169
-674.149	-143.527	0.202	-0.019
-673.135	252.429	-0.135	-0.233
-672.120	-200.000	0.047	-0.348
-671.105	-111.783	0.065	0.013
-670.091	800.000	-0.124	-0.414
-669.076	-200.000	0.041	-0.301
-668.062	-170.426	-0.103	-0.004
-667.047	-99.459	-0.178	0.045
-666.032	800.000	0.044	0.174
-665.018	-98.099	-0.230	0.060
-664.003	800.000	0.053	-0.156
-662.989	-85.660	-0.116	0.036
-661.974	23.148	-0.204	0.169
-660.959	79.611	-0.247	0.267
-659.945	-10.462	0.150	-0.100
-658.930	-200.000	-0.016	-0.333
-657.916	-78.885	0.284	-0.097
-656.901	-111.548	-0.118	0.024
-655.886	63.871	0.099	0.100
-654.872	319.300	0.057	0.109
-653.857	-79.405	-0.057	0.019
-652.843	-20.909	-0.296	-0.182
-651.828	533.879	-0.095	0.226
-650.814	-56.870	0.214	-0.095
-649.799	9.967	0.202	-0.154
-648.784	-39.117	0.312	-0.165
-647.770	-22.196	-0.195	0.119
-646.755	-95.102	-0.085	0.023
-645.741	-31.554	-0.125	0.071
-644.726	666.000	0.089	-0.231
-643.711	-5.342	0.119	0.082
-642.697	345.193	-0.105	0.207
-641.682	800.000	-0.094	0.385
-640.668	187.779	-0.117	0.176
-639.653	-200.000	0.083	-0.372
-638.638	121.585	-0.023	-0.028
-637.624	300.878	0.224	0.416
-636.609	124.243	-0.294	0.372
-635.595	-31.414	0.324	-0.183
-634.580	79.724	-0.116	0.125
-633.565	-46.358	-0.341	-0.169
-632.551	-200.000	-0.031	0.277
-631.536	-200.000	-0.021	0.118
-630.522	800.000	-0.022	0.091
-629.507	-102.569	-0.285	-0.068
-628.492	169.603	0.110	0.158
-627.478	-99.978	-0.329	-0.083
-626.463	-65.437	-0.049	0.020
-625.449	800.000	-0.019	0.073
-624.434	-56.523	0.206	0.092
-623.419	-138.241	0.231	0.026
-622.405	-200.000	0.006	-0.326
-621.390	-194.282	-0.119	-0.001
-620.376	397.110	0.083	0.173
-619.361	-5.387	0.122	-0.084
-618.346	800.000	0.089	-0.297
-617.332	461.157	0.017	0.037
-616.317	-45.585	-0.117	0.058
-615.303	-200.000	-0.024	0.138
-614.288	-200.000	0.002	0.053
-613.273	-69.964	0.180	-0.069
-612.259	134.338	0.072	0.093
-611.244	719.371	0.114	-0.305
-610.230	-65.430	0.197	-0.080
-609.215	-110.090	-0.106	0.022
-608.201	-200.000	-0.180	-0.000
-607.186	800.000	-0.050	0.205
-606.171	-98.761	-0.210	0.054
-605.157	-53.111	0.152	0.070
-604.142	68.533	-0.130	0.134
-603.128	137.931	-0.107	-0.140
-602.113	-200.000	0.038	0.355
-601.098	-200.000	-0.022	0.125
-600.084	545.359	-0.069	-0.166
-599.069	-164.296	-0.088	0.004
-598.055	-111.841	0.157	-0.032
-597.040	-104.281	-0.177	0.041
-596.025	-113.218	0.237	0.047
-595.011	96.268	0.067	0.077
-593.996	247.145	-0.017	-0.030
-592.982	597.609	0.044	-0.109
-591.967	76.799	0.094	0.100
-590.952	276.341	-0.111	-0.198
-589.938	-137.151	-0.286	0.033
-588.923	-46.182	0.073	0.036
-587.909	-15.762	0.113	0.072
-586.894	30.067	0.070	0.060
-585.879	-200.000	0.005	0.388
-584.865	-71.157	0.266	0.100
-583.850	242.066	-0.082	0.137
-582.836	140.851	0.145	-0.193
-581.821	800.000	-0.044	0.132
-580.806	-159.123	-0.415	-0.024
-579.792	120.486	-0.275	-0.343
-578.777	76.300	0.063	-0.067
-577.763	53.225	-0.112	-0.108
-576.748	-200.000	-0.029	0.162
-575.733	800.000	-0.047	0.151
-574.719	-200.000	0.015	0.215
-573.704	-113.301	-0.329	-0.065
-572.690	46.476	-0.134	-0.125
-571.675	25.503	-0.148	-0.124
-570.661	722.020	0.087	0.233
-569.646	-200.000	0.016	0.309
-568.631	-62.912	0.040	-0.017
-567.617	-200.000	0.064	-0.412
-566.602	319.908	-0.213	-0.406
-565.588	-77.883	-0.217	-0.075
-564.573	-150.112	-0.062	0.005
-563.558	-200.000	-0.026	-0.227
-562.544	35.898	-0.158	0.139
-561.529	-1.025	-0.108	-0.077
-560.515	143.141	-0.157	-0.209
-559.500	800.000	-0.033	-0.103
-558.485	-154.107	-0.165	0.011
-557.471	-22.701	0.147	0.089
-556.456	217.028	0.110	0.175
-555.442	85.966	-0.213	0.235
-554.427	-74.537	-0.123	-0.045
-553.412	800.000	-0.043	0.184
-552.398	-170.800	0.364	-0.013
-551.383	172.243	0.119	-0.171
-550.369	-200.000	-0.018	0.324
-549.354	22.425	-0.135	0.111
-548.339	43.803	-0.151	0.138
-547.325	40.937	-0.164	-0.148
-546.310	-4.871	-0.052	0.036
-545.296	-101.576	0.185	-0.045
-544.281	-53.098	0.133	0.061
-543.266	-2.884	-0.249	0.174
-542.252	-133.319	0.354	-0.045
-541.237	-84.612	-0.272	0.086
-540.223	-200.000	-0.020	0.131
-539.208	-200.000	0.042	-0.199
-538.193	-74.037	-0.350	0.127
-537.179	-125.393	-0.202	-0.031
-536.164	703.538	-0.040	-0.106
-535.150	-83.082	0.065	0.021
-534.135	91.776	-0.057	0.064
-533.121	-113.201	-0.116	0.023
-532.106	451.102	0.086	0.190
-531.091	90.516	0.090	0.101
-530.077	-140.710	0.206	0.021
-529.062	-16.396	-0.064	0.041
-528.048	-62.079	-0.220	0.092
-527.033	190.296	0.078	-0.117
-526.018	-200.000	-0.018	0.359
-525.004	-43.476	0.131	0.066
-523.989	244.072	-0.131	0.220
-522.975	122.822	0.201	0.251
-521.960	-17.567	0.199	0.126
-520.945	-39.238	0.153	0.080
-519.931	-121.555	0.279	-0.046
-518.916	427.337	-0.186	-0.403
-517.902	-141.217	-0.236	-0.024
-516.887	82.932	-0.190	0.206
-515.872	230.350	0.121	-0.197
-514.858	379.329	0.050	0.103
-513.843	800.000	-0.049	0.177
-512.829	-61.806	0.202	-0.085
-511.814	132.946	-0.232	-0.299
-510.799	-112.967	0.178	-0.035
-509.785	-3.939	-0.177	-0.123
-508.770	31.232	0.099	-0.085
-507.756	-104.967	-0.141	0.032
-506.741	168.117	-0.103	0.146
-505.726	-200.000	0.030	0.226
-504.712	-92.839	-0.277	0.077
-503.697	-137.232	-0.140	0.016
-502.683	800.000	0.083	0.254
-501.668	-200.000	-0.001	0.207
-500.653	7.276	-0.093	-0.070
-499.639	-200.000	-0.048	0.303
-498.624	142.175	-0.085	0.113
-497.610	-200.000	0.012	-0.144
-496.595	-68.325	0.128	0.050
-495.581	-120.809	-0.315	0.053
-494.566	-145.198	0.546	0.049
-493.551	180.312	-0.120	-0.176
-492.537	29.465	-0.219	0.186
-491.522	101.953	0.197	-0.230
-490.508	268.004	0.184	0.323
-489.493	-99.779	-0.180	0.045
-488.478	-200.000	-0.011	-0.486
-487.464	32.078	0.207	0.178
-486.449	604.265	-0.085	-0.212
-485.435	399.048	0.014	-0.029
-484.420	-14.051	-0.089	-0.057
-483.405	41.027	0.228	-0.205
-482.391	580.028	-0.051	-0.124
-481.376	-74.229	-0.213	-0.077
-480.362	494.769	0.064	-0.147
-479.347	116.649	0.209	0.256
-478.332	-200.000	0.256	0.000
-477.318	569.865	-0.144	0.349
-476.303	-14.942	0.188	-0.120
-475.289	-58.438	0.253	0.110
-474.274	800.000	0.078	0.301
-473.259	486.643	-0.092	0.210
-472.245	-23.861	0.090	0.054
-471.230	2.025	0.249	-0.179
-470.216	165.580	0.018	0.025
-469.201	-85.871	0.280	0.087
-468.186	-117.533	-0.435	0.079
-467.172	26.503	-0.214	-0.178
-466.157	20.968	-0.326	-0.264
-465.143	56.620	0.108	0.105
-464.128	-141.457	0.242	-0.025
-463.113	-125.807	-0.054	0.008
-462.099	800.000	0.027	-0.085
-461.084	-200.000	-0.023	0.105
-460.070	275.928	-0.151	-0.268
-459.055	-69.246	-0.095	-0.037
-458.040	-163.776	-0.088	0.004
-457.026	-83.356	0.403	-0.129
-456.011	245.689	0.202	0.339
-454.997	522.979	0.081	0.191
-453.982	-200.000	0.015	-0.202
-452.968	-200.000	-0.002	0.317
-451.953	-118.098	-0.260	-0.046
-450.938	-134.373	0.212	0.026
-449.924	83.623	-0.084	0.091
-448.909	29.513	-0.087	0.074
-447.895	129.147	-0.168	-0.214
-446.880	800.000	-0.082	0.226
-445.865	800.000	0.078	-0.247
-444.851	-57.061	-0.138	0.061
-443.836	800.000	-0.105	0.317
-442.822	13.912	-0.259	0.201
-441.807	-200.000	-0.012	0.055
-440.792	-102.913	0.206	-0.049
-439.778	55.666	0.117	-0.113
-438.763	79.010	0.296	0.316
-437.749	800.000	0.069	0.250
-436.734	282.759	0.038	-0.067
-435.719	-200.000	0.034	-0.199
-434.705	-58.346	0.171	-0.074
-433.690	-133.434	0.434	0.054
-432.676	12.614	0.083	-0.064
-431.661	-117.725	-0.241	-0.043
-430.646	49.755	-0.190	-0.179
-429.632	511.604	-0.083	-0.192
-428.617	50.786	0.384	-0.363
-427.603	-66.837	0.337	0.133
-426.588	-200.000	0.024	-0.153
-425.573	-136.769	0.019	0.002
-424.559	-13.621	0.140	0.091
-423.544	-11.297	0.122	-0.080
-422.530	39.538	-0.321	-0.287
-421.515	-65.781	0.327	-0.131
-420.500	-200.000	0.004	0.109
-419.486	592.266	-0.030	-0.074
-418.471	-200.000	-0.013	0.231
-417.457	-6.590	0.518	-0.352
-416.442	543.465	-0.087	0.208
-415.428	800.000	-0.010	0.037
-414.413	-59.255	-0.107	0.046
-413.398	574.658	-0.112	-0.272
-412.384	-200.000	-0.018	-0.136
-411.369	-200.000	0.008	-0.134
-410.355	-200.000	-0.003	-0.036
-409.340	116.796	0.080	0.098
-408.325	800.000	-0.044	-0.141
-407.311	-16.383	-0.159	0.101
-406.296	138.534	-0.103	-0.135
-405.282	495.355	0.175	-0.401
-404.267	318.737	0.100	-0.188
-403.252	337.044	0.125	-0.242
-402.238	-52.889	0.187	0.086
-401.223	-200.000	0.019	-0.251
-400.209	-29.230	0.240	0.137
-399.194	4.670	-0.290	0.212
-398.179	-200.000	-0.042	0.188
-397.165	-78.240	-0.270	0.092
-396.150	-200.000	-0.026	0.171
-395.136	-14.970	-0.003	0.002
-394.121	-200.000	-0.041	0.229
-393.106	-71.707	-0.136	0.051
-392.092	-200.000	0.055	-0.542
-391.077	28.132	0.136	0.114
-390.063	73.178	-0.073	-0.076
-389.048	44.030	0.140	-0.128
-388.033	-145.729	-0.435	0.039
-387.019	-196.284	-0.276	0.002
-386.004	182.277	-0.096	0.140
-384.990	-87.204	-0.056	-0.017
-383.975	800.000	0.071	0.201
-382.960	-200.000	-0.060	-0.566
-381.946	318.136	0.080	-0.151
-380.931	93.353	0.060	0.068
-379.917	-104.107	-0.128	-0.030
-378.902	-85.096	0.339	0.106
-377.888	-200.000	0.012	-0.064
-376.873	216.080	0.076	-0.120
-375.858	-79.004	0.119	0.040
-374.844	150.861	0.160	0.216
-373.829	505.923	-0.076	-0.175
-372.815	45.568	0.284	0.261
-371.800	-15.503	0.124	0.079
-370.785	-65.900	-0.277	-0.110
-369.771	-3.665	-0.371	0.256
-368.756	-46.839	0.229	0.111
-367.742	-128.164	0.301	-0.043
-366.727	75.832	-0.103	0.109
-365.712	-200.000	0.029	-0.176
-364.698	-129.100	-0.246	0.034
-363.683	8.180	-0.101	0.075
-362.669	800.000	-0.055	0.195
-361.654	-129.681	0.181	0.025
-360.639	32.671	-0.135	0.116
-359.625	-200.000	0.101	-0.533
-358.610	-24.997	0.216	-0.128
-357.596	52.975	0.262	-0.250
-356.581	-200.000	0.001	-0.070
-355.566	-138.858	-0.209	0.023
-354.552	-200.000	-0.025	-0.180
-353.537	-119.999	0.099	0.017
-352.523	-70.089	0.203	-0.077
-351.508	-200.000	-0.054	-0.375
-350.493	-200.000	-0.001	0.040
-349.479	-135.001	-0.132	0.016
-348.464	190.262	-0.035	0.052
-347.450	24.432	-0.213	-0.175
-346.435	370.471	-0.143	0.287
-345.420	-151.965	-0.267	-0.019
-344.406	436.133	0.184	-0.397
-343.391	-200.000	-0.024	-0.212
-342.377	-43.297	-0.075	0.038
-341.362	800.000	0.101	0.436
-340.348	-10.571	0.440	0.289
-339.333	389.104	-0.111	0.229
-338.318	-67.655	0.367	0.143
-337.304	82.356	0.032	-0.034
-336.289	-61.683	-0.142	-0.059
-335.275	800.000	-0.028	0.094
-334.260	476.263	0.028	0.062
-333.245	-14.143	0.068	0.044
-332.231	199.139	0.154	-0.234
-331.216	-1.253	-0.202	0.142
-330.202	-200.000	-0.023	-0.352
-329.187	-200.000	0.051	0.255
-328.172	-5.525	-0.058	-0.039
-327.158	-200.000	-0.045	0.273
-326.143	17.536	-0.125	0.098
-325.129	132.038	-0.250	-0.320
-324.114	-152.207	0.188	-0.014
-323.099	75.650	0.095	0.100
-322.085	-200.000	0.090	-0.000
-321.070	-26.821	0.204	-0.119
-320.056	800.000	-0.151	-0.472
-319.041	-120.688	0.327	0.055
-318.026	-51.419	-0.141	0.066
-317.012	592.313	0.050	0.124
-315.997	-56.768	-0.086	-0.038
-314.983	-159.593	0.219	0.012
-313.968	124.377	-0.086	-0.108
-312.953	-89.268	-0.218	-0.064
-311.939	-65.902	-0.125	-0.050
-310.924	-22.777	-0.205	0.123
-309.910	-21.048	-0.227	0.138
-308.895	-200.000	0.030	-0.225
-307.880	-0.799	-0.188	0.133
-306.866	-67.704	0.230	-0.089
-305.851	118.058	-0.170	-0.208
-304.837	-12.080	0.141	0.092
-303.822	34.029	-0.211	-0.182
-302.807	-77.643	0.233	-0.080
-301.793	766.456	-0.170	0.458
-300.778	800.000	0.108	0.332
-299.764	-200.000	-0.003	0.076
-298.749	10.116	-0.133	-0.100
-297.735	258.856	-0.077	-0.132
-296.720	-200.000	0.019	-0.212
-295.705	800.000	-0.090	-0.389
-294.691	800.000	0.097	-0.348
-293.676	458.749	-0.164	-0.362
-292.662	184.874	-0.136	-0.201
-291.647	506.753	0.064	0.147
-290.632	-86.285	-0.301	-0.092
-289.618	-200.000	-0.034	0.492
-288.603	252.585	-0.053	0.089
-287.589	5.538	0.188	0.138
-286.574	-66.379	-0.162	-0.064
-285.559	86.158	0.229	0.250
-284.545	-77.060	0.073	0.025
-283.530	132.562	0.141	0.180
-282.516	323.624	-0.073	-0.138
-281.501	-26.502	0.133	0.078
-280.486	-200.000	0.007	0.375
-279.472	420.898	0.145	-0.309
-278.457	232.309	-0.071	0.115
-277.443	301.383	-0.193	0.353
-276.428	-200.000	-0.021	-0.336
-275.413	83.608	-0.104	-0.112
-274.399	-102.882	0.464	-0.109
-273.384	340.194	-0.025	-0.047
-272.370	-200.000	0.006	0.067
-271.355	186.366	-0.052	0.076
-270.340	-90.347	0.124	0.036
-269.326	-200.000	-0.004	0.114
-268.311	278.765	0.117	0.207
-267.297	343.918	-0.141	-0.275
-266.282	-179.881	0.052	-0.001
-265.267	-60.592	-0.094	0.040
-264.253	-4.308	-0.231	-0.158
-263.238	23.616	-0.255	0.208
-262.224	-122.891	-0.259	-0.041
-261.209	-96.934	0.156	-0.041
-260.195	-200.000	0.007	-0.317
-259.180	800.000	-0.145	0.440
-258.165	800.000	-0.019	0.081
-257.151	-156.754	0.310	0.019
-256.136	-38.501	0.137	-0.072
-255.122	-200.000	-0.015	-0.104
-254.107	800.000	-0.069	-0.212
-253.092	-28.833	0.079	-0.045
-252.078	-130.470	-0.115	0.015
-251.063	-104.354	0.187	0.043
-250.049	800.000	0.177	0.533
-249.034	42.454	0.240	0.217
-248.019	261.594	0.132	-0.227
-247.005	-116.623	0.084	-0.015
-245.990	800.000	0.086	0.249
-244.976	14.893	0.107	0.083
-243.961	-82.177	-0.323	-0.104
-242.946	-19.167	-0.115	0.071
-241.932	-106.976	0.445	-0.098
-240.917	-200.000	0.068	-0.408
-239.903	-90.117	-0.114	-0.033
-238.888	-200.000	0.007	-0.173
-237.873	145.836	0.031	0.041
-236.859	11.931	-0.316	0.241
-235.844	55.746	0.126	-0.120
-234.830	36.824	-0.111	0.097
-233.815	306.377	-0.043	0.080
-232.800	800.000	-0.092	0.382
-231.786	-46.097	-0.109	0.053
-230.771	800.000	0.144	0.421
-229.757	-126.567	-0.139	-0.020
-228.742	-114.980	0.109	-0.021
-227.727	418.528	-0.038	-0.081
-226.713	-120.179	0.177	-0.030
-225.698	-20.593	0.241	-0.147
-224.684	-200.000	0.004	0.171
-223.669	157.147	-0.085	-0.117
-222.655	800.000	-0.063	0.231
-221.640	-200.000	0.065	-0.433
-220.625	217.648	0.065	0.103
-219.611	317.112	-0.082	0.154
-218.596	-33.034	-0.249	-0.136
-217.582	-44.160	-0.336	-0.167
-216.567	-65.553	0.132	0.053
-215.552	63.869	0.136	-0.136
-214.538	-41.270	-0.238	-0.121
-213.523	-39.301	0.186	-0.097
-212.509	-57.683	0.269	0.116
-211.494	138.689	-0.046	-0.060
-210.479	-15.240	0.135	-0.085
-209.465	-104.400	-0.050	-0.011
-208.450	576.829	-0.088	0.212
-207.436	800.000	-0.053	-0.210
-206.421	118.249	-0.295	-0.360
-205.406	65.156	0.077	-0.077
-204.392	591.968	-0.099	0.242
-203.377	800.000	-0.080	0.276
-202.363	-200.000	0.012	-0.109
-201.348	553.868	-0.100	0.237
-200.333	-132.043	-0.008	0.001
-199.319	357.867	0.111	0.219
-198.304	169.174	-0.067	0.094
-197.290	26.145	0.187	0.154
-196.275	-118.986	-0.266	-0.046
-195.260	143.714	0.070	0.092
-194.246	548.035	0.064	0.151
-193.231	360.732	0.161	-0.318
-192.217	285.952	0.035	0.062
-191.202	104.030	-0.234	-0.272
-190.187	-200.000	0.047	-0.262
-189.173	305.992	-0.098	-0.180
-188.158	-30.659	0.079	0.044
-187.144	-69.264	0.113	-0.043
-186.129	800.000	0.020	0.062
-185.114	-45.205	0.169	-0.083
-184.100	319.095	0.053	-0.100
-183.085	-99.550	-0.159	0.040
-182.071	-18.237	-0.189	-0.117
-181.056	476.015	0.025	0.057
-180.042	-77.008	0.244	0.084
-179.027	167.495	-0.174	-0.245
-178.012	-32.984	-0.247	-0.136
-176.998	-200.000	0.029	-0.195
-175.983	18.612	-0.194	0.153
-174.969	62.422	0.145	0.143
-173.954	265.124	0.042	0.072
-172.939	-69.728	-0.333	0.126
-171.925	-123.973	0.028	0.004
-170.910	351.117	-0.126	-0.246
-169.896	517.985	0.016	-0.038
-168.881	786.192	0.057	-0.154
-167.866	522.727	-0.037	0.086
-166.852	228.322	-0.097	-0.156
-165.837	92.609	0.098	0.109
-164.823	-24.198	0.376	0.221
-163.808	800.000	0.065	-0.189
-162.793	-169.742	0.185	-0.007
-161.779	278.327	0.323	-0.569
-160.764	-97.699	0.217	-0.055
-159.750	76.698	0.125	-0.131
-158.735	-69.019	-0.204	-0.078
-157.720	800.000	0.137	-0.387
-156.706	-132.992	-0.265	-0.033
-155.691	168.779	0.103	-0.144
-154.677	-200.000	-0.037	0.191
-153.662	-200.000	0.040	-0.291
-152.647	-125.448	0.146	-0.022
-151.633	-129.165	0.329	0.045
-150.618	547.402	0.114	-0.268
-149.604	-103.805	0.186	0.043
-148.589	31.242	0.022	0.018
-147.574	-99.702	0.259	-0.064
-146.560	-16.270	-0.300	-0.188
-145.545	800.000	0.123	0.357
-144.531	-104.445	0.190	-0.043
-143.516	-7.675	0.373	0.249
-142.502	456.570	0.110	0.241
-141.487	-109.643	0.305	0.063
-140.472	26.755	-0.079	-0.065
-139.458	-200.000	-0.011	-0.108
-138.443	-88.649	0.196	-0.058
-137.429	299.938	-0.151	-0.275
-136.414	133.228	-0.101	-0.128
-135.399	800.000	-0.053	-0.161
-134.385	296.865	0.114	-0.205
-133.370	-22.956	0.289	-0.172
-132.356	-200.000	0.008	0.040
-131.341	-200.000	-0.051	0.258
-130.326	-168.205	0.239	0.009
-129.312	800.000	-0.035	0.127
-128.297	56.300	0.188	-0.180
-127.283	-28.401	0.096	-0.055
-126.268	-200.000	-0.003	-0.206
-125.253	-94.075	-0.092	-0.025
-124.239	-115.523	-0.087	-0.016
-123.224	-44.149	0.333	-0.164
-122.210	-200.000	0.008	-0.258
-121.195	-200.000	0.054	0.327
