DTS Sentinel unit serial number:	SN413079Multiplexer serial number:	ORYXHardware model number:	OX4-SRSoftware version number:	ORYX F/W v4.00 Oryx Data Collector v3.7.2.0data status	okinstallation	princeton_trtdifferential loss correction	single-endedforward channel	channel 3reverse channel	N/Adate	2019/09/13time	08:28:35forward acquisition time	60.00reverse acquisition time	0.00gamma	496.2192k internal	0.2332k external	0.2332temperature offset calibration	1.0140default loss term (dB/km)	0.3790temperature slope calibration	1.0000multiplexer offset coefficient	1.0000multiplexer slope coefficient	1.0000fibre end	0.00T internal ref (°C)	27.44T ext. ref 1 (°C)	4.26T ext. ref 2 (°C)	24.14length (m)	temperature (°C)	Stokes	anti-Stokes-747.200	132.582	0.148	0.192
-746.185	-21.921	0.176	-0.107
-745.171	330.647	-0.094	-0.181
-744.156	800.000	-0.049	0.145
-743.142	-37.582	-0.255	-0.137
-742.127	99.953	-0.153	0.178
-741.112	-85.780	0.222	0.069
-740.098	40.885	-0.235	0.214
-739.083	-152.912	0.134	-0.009
-738.069	-150.774	0.250	0.019
-737.054	-29.100	0.011	0.007
-736.039	46.838	-0.170	-0.159
-735.025	-200.000	-0.010	0.411
-734.010	-9.013	-0.139	-0.094
-732.996	-36.869	-0.106	-0.057
-731.981	-128.253	-0.352	-0.051
-730.966	-84.091	0.240	-0.077
-729.952	124.033	0.095	0.121
-728.937	58.942	0.097	-0.096
-727.923	-123.619	0.322	0.051
-726.908	0.023	-0.166	-0.119
-725.894	-17.070	0.301	-0.191
-724.879	113.890	-0.208	-0.254
-723.864	570.875	0.020	-0.048
-722.850	-200.000	-0.020	0.319
-721.835	-102.622	-0.022	-0.005
-720.821	-163.237	-0.302	-0.015
-719.806	-21.319	-0.081	-0.050
-718.791	15.956	-0.082	0.065
-717.777	-200.000	0.056	0.317
-716.762	-76.654	0.321	-0.113
-715.748	-17.890	-0.140	-0.089
-714.733	-92.528	-0.222	0.063
-713.718	-96.333	-0.108	0.029
-712.704	-86.445	0.095	-0.029
-711.689	-31.810	0.060	0.034
-710.675	-73.867	-0.456	-0.166
-709.660	180.682	0.105	-0.155
-708.645	27.738	-0.095	-0.080
-707.631	112.567	-0.168	0.204
-706.616	-76.604	-0.311	-0.110
-705.602	125.054	0.269	0.341
-704.587	90.092	0.164	0.184
-703.572	25.012	0.129	-0.108
-702.558	-200.000	0.018	-0.116
-701.543	545.603	-0.047	-0.112
-700.529	-46.487	-0.204	-0.100
-699.514	-75.006	0.101	0.036
-698.499	-200.000	-0.033	0.188
-697.485	79.193	0.062	-0.066
-696.470	68.208	0.161	-0.166
-695.456	-130.926	0.171	-0.023
-694.441	-31.238	-0.491	0.278
-693.426	226.875	0.182	-0.297
-692.412	-124.253	0.174	-0.027
-691.397	-137.018	-0.566	0.065
-690.383	-200.000	0.030	0.159
-689.368	-20.716	0.187	0.115
-688.354	-123.773	-0.127	-0.020
-687.339	-200.000	0.035	0.318
-686.324	37.320	-0.020	-0.018
-685.310	63.469	-0.117	0.118
-684.295	423.680	0.076	0.163
-683.281	-200.000	-0.005	0.123
-682.266	-200.000	-0.001	-0.186
-681.251	-155.585	-0.045	0.003
-680.237	800.000	-0.059	0.246
-679.222	-27.296	0.035	0.020
-678.208	-200.000	-0.063	0.371
-677.193	631.592	-0.047	0.118
-676.178	-123.624	0.167	-0.027
-675.164	-200.000	-0.017	-0.168
-674.149	-117.569	-0.153	0.028
-673.135	68.074	0.181	-0.186
-672.120	-200.000	0.001	-0.107
-671.105	-166.943	-0.146	-0.006
-670.091	-124.830	0.023	0.004
-669.076	-5.282	-0.077	-0.053
-668.062	-65.644	0.041	-0.016
-667.047	-55.590	0.024	-0.011
-666.032	-15.257	0.190	0.122
-665.018	166.421	0.132	-0.188
-664.003	47.241	0.189	0.176
-662.989	38.570	0.220	-0.196
-661.974	3.568	0.155	0.114
-660.959	123.438	0.167	0.211
-659.945	119.254	0.218	-0.270
-658.930	14.726	-0.306	0.240
-657.916	-200.000	0.011	-0.371
-656.901	168.235	0.167	0.238
-655.886	233.258	0.082	0.135
-654.872	-200.000	0.000	-0.103
-653.857	238.190	-0.024	-0.041
-652.843	86.400	-0.210	-0.232
-651.828	-112.751	0.199	0.040
-650.814	765.385	-0.010	0.026
-649.799	-124.234	-0.096	-0.015
-648.784	-25.140	0.075	0.045
-647.770	-3.659	0.052	-0.036
-646.755	800.000	0.013	0.037
-645.741	-101.528	0.139	-0.034
-644.726	113.792	-0.208	0.253
-643.711	-85.586	-0.319	0.099
-642.697	800.000	0.084	-0.280
-641.682	-2.874	0.256	0.179
-640.668	-76.700	-0.108	-0.038
-639.653	-191.795	-0.180	-0.002
-638.638	23.545	0.072	0.059
-637.624	490.019	-0.172	0.395
-636.609	-200.000	0.049	0.229
-635.595	708.587	0.068	-0.180
-634.580	-15.830	0.218	0.139
-633.565	27.129	-0.237	0.199
-632.551	-22.515	0.181	0.109
-631.536	-200.000	-0.014	-0.328
-630.522	-200.000	0.032	-0.221
-629.507	-200.000	0.006	0.148
-628.492	-200.000	-0.041	0.270
-627.478	-172.257	-0.070	0.002
-626.463	-200.000	-0.023	0.138
-625.449	800.000	-0.088	-0.340
-624.434	-123.445	-0.225	-0.036
-623.419	800.000	0.041	0.152
-622.405	415.259	0.133	0.283
-621.390	-200.000	0.008	0.186
-620.376	-133.885	0.229	0.028
-619.361	-58.574	-0.103	0.045
-618.346	482.110	0.166	-0.377
-617.332	-200.000	0.018	-0.094
-616.317	-126.925	-0.414	-0.061
-615.303	-47.013	-0.154	0.075
-614.288	-58.372	-0.342	-0.149
-613.273	-125.430	-0.157	0.024
-612.259	-41.951	-0.066	-0.034
-611.244	559.095	0.108	-0.261
-610.230	-153.960	0.062	-0.004
-609.215	800.000	-0.053	0.188
-608.201	425.438	-0.027	0.058
-607.186	-200.000	0.003	-0.338
-606.171	9.749	-0.249	-0.189
-605.157	-200.000	-0.018	-0.098
-604.142	192.379	-0.091	-0.137
-603.128	-17.582	0.195	-0.123
-602.113	-200.000	-0.003	0.045
-601.098	-109.603	0.441	0.093
-600.084	800.000	0.052	0.222
-599.069	-3.390	-0.168	-0.117
-598.055	-142.314	-0.085	0.008
-597.040	56.802	-0.163	0.159
-596.025	-0.647	-0.048	-0.034
-595.011	-200.000	0.037	-0.361
-593.996	-6.064	-0.160	0.110
-592.982	-48.762	-0.425	-0.204
-591.967	104.144	-0.059	0.070
-590.952	30.795	0.061	-0.053
-589.938	-41.136	0.322	0.166
-588.923	640.968	0.086	-0.219
-587.909	209.827	0.160	0.250
-586.894	800.000	-0.032	-0.092
-585.879	-200.000	-0.028	-0.166
-584.865	-93.793	0.224	-0.062
-583.850	702.721	-0.055	-0.145
-582.836	85.061	-0.177	0.194
-581.821	105.039	0.150	0.177
-580.806	185.743	0.042	-0.062
-579.792	94.540	-0.201	0.228
-578.777	-92.584	0.151	0.042
-577.763	721.455	-0.044	0.116
-576.748	360.530	0.039	0.078
-575.733	437.021	-0.097	0.212
-574.719	-200.000	-0.029	0.271
-573.704	-200.000	-0.018	0.000
-572.690	137.931	-0.083	0.108
-571.675	800.000	0.072	-0.215
-570.661	-200.000	0.008	0.101
-569.646	325.240	-0.150	0.287
-568.631	304.344	0.107	-0.199
-567.617	75.783	-0.174	0.184
-566.602	441.087	-0.158	-0.345
-565.588	-92.107	0.256	0.072
-564.573	-104.595	-0.317	-0.073
-563.558	800.000	-0.098	-0.428
-562.544	-172.137	-0.304	-0.010
-561.529	-200.000	-0.018	-0.207
-560.515	-43.385	0.027	0.014
-559.500	-77.866	-0.141	-0.049
-558.485	-113.880	-0.465	-0.090
-557.471	53.038	0.164	0.157
-556.456	-200.000	-0.014	0.087
-555.442	215.565	0.040	-0.064
-554.427	10.678	-0.167	-0.127
-553.412	62.230	-0.101	0.101
-552.398	-85.584	-0.306	0.095
-551.383	79.606	0.124	-0.132
-550.369	737.260	-0.119	0.319
-549.354	800.000	-0.061	-0.203
-548.339	-50.734	0.217	0.102
-547.325	310.585	-0.156	-0.291
-546.310	252.033	0.072	-0.123
-545.296	-2.584	-0.116	-0.081
-544.281	800.000	-0.102	-0.391
-543.266	424.546	-0.020	-0.043
-542.252	-200.000	0.044	-0.197
-541.237	102.887	-0.211	-0.246
-540.223	-72.317	-0.049	0.018
-539.208	-142.353	-0.330	0.032
-538.193	-46.512	0.094	0.046
-537.179	-200.000	0.062	-0.291
-536.164	-9.493	0.411	-0.274
-535.150	-140.603	0.208	0.021
-534.135	-35.401	-0.129	0.070
-533.121	-192.398	0.122	0.001
-532.106	132.468	0.206	-0.265
-531.091	104.284	-0.140	0.165
-530.077	-200.000	0.020	0.307
-529.062	-3.231	-0.102	0.071
-528.048	-183.753	0.315	0.005
-527.033	-17.598	-0.043	0.027
-526.018	233.722	0.118	-0.193
-525.004	319.057	-0.118	0.222
-523.989	-28.168	-0.182	-0.105
-522.975	-99.367	0.163	0.041
-521.960	-38.676	0.184	-0.097
-520.945	-153.353	0.236	-0.016
-519.931	186.265	0.149	0.221
-518.916	299.744	-0.129	-0.237
-517.902	800.000	0.056	-0.240
-516.887	766.367	-0.036	0.099
-515.872	-14.686	0.268	0.172
-514.858	-200.000	0.011	0.049
-513.843	84.060	0.046	0.050
-512.829	-200.000	-0.005	0.213
-511.814	141.522	0.189	0.250
-510.799	-109.177	-0.149	0.032
-509.785	-82.657	0.099	0.032
-508.770	-170.861	-0.166	-0.006
-507.756	-27.434	0.169	0.098
-506.741	630.405	0.031	-0.077
-505.726	-200.000	-0.009	-0.153
-504.712	-48.247	-0.188	-0.090
-503.697	800.000	0.042	-0.138
-502.683	-200.000	-0.038	-0.272
-501.668	275.468	-0.048	0.085
-500.653	87.999	-0.064	0.071
-499.639	-200.000	-0.049	-0.309
-498.624	-93.633	0.149	0.041
-497.610	-200.000	-0.007	-0.231
-496.595	634.302	-0.026	-0.066
-495.581	-5.387	0.237	0.162
-494.566	-9.561	0.259	0.172
-493.551	728.077	-0.086	0.229
-492.537	198.529	-0.261	-0.398
-491.522	-200.000	0.061	0.308
-490.508	-200.000	0.045	-0.224
-489.493	162.140	0.221	0.309
-488.478	-85.203	0.303	0.094
-487.464	315.915	-0.164	0.308
-486.449	-24.830	0.125	0.074
-485.435	-93.905	-0.091	-0.025
-484.420	-118.565	0.438	0.077
-483.405	-12.474	0.180	-0.117
-482.391	800.000	0.040	-0.124
-481.376	-16.757	-0.172	-0.109
-480.362	800.000	0.020	-0.088
-479.347	800.000	-0.141	-0.464
-478.332	-200.000	0.005	-0.188
-477.318	-111.736	-0.178	0.036
-476.303	323.737	0.082	0.156
-475.289	-69.951	0.146	0.055
-474.274	-126.461	-0.129	0.019
-473.259	350.467	-0.075	0.147
-472.245	455.277	0.019	-0.043
-471.230	417.275	-0.082	0.173
-470.216	-32.790	-0.229	-0.127
-469.201	-24.315	0.243	0.144
-468.186	464.733	-0.131	-0.291
-467.172	50.519	0.158	-0.148
-466.157	86.469	-0.117	0.128
-465.143	14.704	0.045	-0.035
-464.128	51.893	-0.118	-0.112
-463.113	48.806	-0.193	-0.180
-462.099	-138.168	0.141	0.016
-461.084	-200.000	0.027	-0.256
-460.070	-150.808	0.338	0.025
-459.055	-8.381	-0.507	-0.339
-458.040	-125.056	-0.074	-0.011
-457.026	-137.187	0.322	-0.037
-456.011	-116.875	0.186	-0.034
-454.997	63.658	0.150	0.150
-453.982	-200.000	0.022	-0.230
-452.968	306.395	-0.059	-0.109
-451.953	800.000	0.088	0.248
-450.938	73.037	0.123	-0.128
-449.924	456.452	-0.070	0.155
-448.909	-148.283	0.330	-0.027
-447.895	107.234	0.102	0.121
-446.880	-186.806	0.213	-0.003
-445.865	-72.559	0.156	0.057
-444.851	1.887	-0.057	0.041
-443.836	87.899	-0.075	0.083
-442.822	223.035	-0.097	0.155
-441.807	145.985	-0.046	-0.062
-440.792	98.221	-0.104	0.119
-439.778	800.000	0.095	0.308
-438.763	86.462	0.085	-0.093
-437.749	800.000	0.082	-0.302
-436.734	103.485	-0.143	-0.167
-435.719	670.539	-0.153	-0.394
-434.705	800.000	-0.112	-0.471
-433.690	483.820	0.065	-0.147
-432.676	-120.160	-0.446	0.076
-431.661	800.000	0.038	-0.143
-430.646	259.076	0.130	0.222
-429.632	-200.000	0.005	0.099
-428.617	88.719	-0.193	-0.213
-427.603	-89.356	0.205	0.060
-426.588	-200.000	0.038	0.188
-425.573	800.000	-0.065	-0.187
-424.559	255.339	-0.167	0.283
-423.544	119.568	0.067	-0.082
-422.530	-200.000	0.005	-0.117
-421.515	222.800	0.073	-0.117
-420.500	202.556	-0.104	-0.160
-419.486	449.291	-0.164	0.359
-418.471	-178.955	0.397	-0.009
-417.457	142.906	0.049	0.064
-416.442	-200.000	-0.083	-0.364
-415.428	-200.000	-0.037	0.386
-414.413	185.837	-0.080	-0.118
-413.398	-145.715	0.129	0.011
-412.384	61.656	-0.072	-0.071
-411.369	-4.057	0.061	0.042
-410.355	800.000	0.034	0.143
-409.340	-122.892	0.142	-0.023
-408.325	-123.916	-0.178	0.028
-407.311	237.221	0.004	-0.007
-406.296	126.629	-0.128	-0.161
-405.282	-109.193	0.191	0.040
-404.267	154.931	-0.098	0.134
-403.252	-33.132	-0.274	0.151
-402.238	-86.454	-0.202	0.062
-401.223	-46.078	-0.146	-0.071
-400.209	-52.986	-0.392	0.179
-399.194	104.149	0.049	0.057
-398.179	-121.780	0.108	0.018
-397.165	79.200	0.131	0.140
-396.150	-13.625	-0.146	0.094
-395.136	61.433	0.100	0.099
-394.121	-200.000	-0.006	0.035
-393.106	-170.812	-0.282	0.010
-392.092	-200.000	-0.048	0.229
-391.077	800.000	-0.025	0.098
-390.063	-44.600	-0.182	0.090
-389.048	-200.000	0.020	-0.182
-388.033	61.443	-0.082	0.081
-387.019	-200.000	0.015	-0.089
-386.004	-46.356	-0.380	0.185
-384.990	-32.512	0.049	0.027
-383.975	-122.552	0.217	-0.035
-382.960	184.045	-0.130	-0.191
-381.946	800.000	-0.106	0.458
-380.931	10.012	-0.129	-0.097
-379.917	-49.113	0.392	-0.186
-378.902	800.000	-0.069	-0.218
-377.888	-34.088	-0.224	-0.122
-376.873	57.942	0.066	0.064
-375.858	-200.000	0.030	0.188
-374.844	-31.470	-0.217	0.121
-373.829	18.962	0.038	-0.030
-372.815	443.962	0.060	-0.131
-371.800	-75.403	0.138	-0.049
-370.785	262.077	-0.028	0.049
-369.771	-200.000	0.042	0.229
-368.756	-14.175	0.172	0.110
-367.742	800.000	0.059	0.207
-366.727	65.407	-0.128	0.129
-365.712	527.451	0.206	0.482
-364.698	-200.000	0.015	-0.180
-363.683	-200.000	-0.035	0.205
-362.669	-19.380	-0.102	-0.063
-361.654	-49.142	-0.153	-0.072
-360.639	31.789	0.233	0.199
-359.625	301.021	-0.065	0.120
-358.610	-8.012	0.257	-0.172
-357.596	-200.000	0.003	-0.101
-356.581	-113.412	0.294	-0.057
-355.566	-13.558	-0.188	-0.121
-354.552	800.000	0.065	-0.221
-353.537	598.376	0.071	0.174
-352.523	104.657	0.056	0.065
-351.508	-29.876	-0.146	-0.083
-350.493	145.457	0.070	0.093
-349.479	-200.000	0.017	-0.250
-348.464	-18.744	0.123	-0.076
-347.450	65.826	-0.165	-0.165
-346.435	17.446	0.205	0.161
-345.420	-1.452	0.068	-0.048
-344.406	-74.622	-0.070	-0.025
-343.391	-200.000	-0.025	0.185
-342.377	53.082	0.115	-0.109
-341.362	-69.421	-0.328	-0.125
-340.348	-16.960	-0.225	0.140
-339.333	-200.000	-0.003	-0.053
-338.318	13.977	0.179	0.138
-337.304	98.254	-0.212	-0.242
-336.289	-44.528	0.271	-0.134
-335.275	72.167	0.066	0.068
-334.260	-60.400	-0.072	-0.030
-333.245	566.852	0.093	0.223
-332.231	-40.760	0.273	0.140
-331.216	168.007	0.144	-0.203
-330.202	124.763	-0.158	0.197
-329.187	-71.570	0.252	-0.093
-328.172	-200.000	-0.023	-0.328
-327.158	-200.000	0.038	-0.290
-326.143	-1.533	0.168	0.118
-325.129	-200.000	-0.002	0.261
-324.114	-200.000	-0.022	-0.229
-323.099	-200.000	-0.052	0.260
-322.085	577.447	-0.147	-0.355
-321.070	77.470	0.235	-0.247
-320.056	115.633	-0.208	-0.252
-319.041	-119.334	0.055	-0.009
-318.026	-177.767	-0.145	-0.003
-317.012	800.000	0.032	0.098
-315.997	-139.005	0.228	0.024
-314.983	57.598	0.118	0.114
-313.968	498.451	0.075	0.172
-312.953	-137.146	-0.076	-0.009
-311.939	-180.551	-0.100	0.002
-310.924	-16.991	0.092	-0.057
-309.910	217.487	0.073	-0.114
-308.895	-200.000	-0.048	-0.357
-307.880	122.713	-0.104	0.129
-306.866	495.296	-0.126	0.286
-305.851	4.976	-0.157	0.114
-304.837	-67.705	0.310	0.120
-303.822	376.026	0.253	0.511
-302.807	142.587	0.066	-0.086
-301.793	9.753	-0.127	0.095
-300.778	-60.997	0.155	0.065
-299.764	-200.000	0.070	-0.307
-298.749	42.672	-0.118	0.106
-297.735	110.615	-0.235	0.279
-296.720	-12.025	0.030	0.019
-295.705	58.799	0.173	-0.168
-294.691	-80.153	0.092	0.030
-293.676	-95.722	-0.070	0.018
-292.662	291.004	0.126	0.226
-291.647	7.449	-0.062	0.046
-290.632	341.109	-0.133	0.256
-289.618	-93.795	-0.172	-0.047
-288.603	349.839	-0.085	-0.165
-287.589	-137.889	-0.142	-0.016
-286.574	-7.986	0.289	-0.193
-285.559	74.104	-0.198	0.206
-284.545	17.226	0.221	0.173
-283.530	5.630	0.178	-0.130
-282.516	-165.132	-0.234	0.010
-281.501	-73.189	-0.100	-0.036
-280.486	23.274	0.038	0.031
-279.472	800.000	-0.035	0.147
-278.457	44.087	0.056	0.050
-277.443	78.684	-0.151	-0.159
-276.428	-118.321	-0.220	0.039
-275.413	-158.466	0.093	0.005
-274.399	800.000	-0.014	0.047
-273.384	-37.155	0.234	0.124
-272.370	22.152	0.203	0.164
-271.355	-200.000	0.009	-0.184
-270.340	151.324	-0.075	-0.101
-269.326	-68.082	0.234	0.090
-268.311	13.686	0.080	-0.061
-267.297	-33.763	0.160	0.087
-266.282	99.819	0.131	0.150
-265.267	291.438	0.117	0.210
-264.253	800.000	-0.148	-0.434
-263.238	-167.777	-0.146	-0.006
-262.224	-200.000	0.023	-0.181
-261.209	-75.981	-0.260	0.091
-260.195	559.101	-0.182	0.435
-259.180	224.952	0.083	-0.132
-258.165	800.000	-0.103	-0.329
-257.151	85.044	-0.229	0.247
-256.136	350.299	0.226	-0.441
-255.122	-58.778	-0.296	-0.127
-254.107	-200.000	-0.026	-0.155
-253.092	266.213	0.180	-0.311
-252.078	-9.686	0.166	-0.109
-251.063	-56.347	0.228	0.100
-250.049	-20.892	-0.063	-0.038
-249.034	771.316	-0.090	-0.241
-248.019	800.000	-0.016	-0.068
-247.005	-56.003	-0.023	-0.010
-245.990	87.090	-0.119	0.130
-244.976	-6.377	0.302	-0.203
-243.961	-182.843	0.209	-0.004
-242.946	-16.498	-0.164	0.102
-241.932	-14.279	0.146	-0.093
-240.917	-200.000	-0.033	-0.230
-239.903	267.347	-0.039	-0.067
-238.888	800.000	-0.104	0.417
-237.873	111.661	0.179	0.213
-236.859	-200.000	0.071	0.347
-235.844	-143.151	-0.059	0.006
-234.830	-53.214	-0.164	-0.074
-233.815	-95.979	-0.118	0.031
-232.800	-94.161	-0.066	0.018
-231.786	93.360	0.102	-0.114
-230.771	800.000	0.056	-0.236
-229.757	6.850	0.166	0.122
-228.742	-200.000	-0.023	-0.171
-227.727	-17.317	0.080	0.049
-226.713	-168.586	-0.195	-0.007
-225.698	-37.928	-0.164	0.086
-224.684	156.256	0.082	-0.111
-223.669	162.376	-0.142	-0.196
-222.655	129.623	-0.038	-0.048
-221.640	49.755	0.145	0.134
-220.625	-200.000	-0.006	0.465
-219.611	134.444	-0.058	-0.074
-218.596	-118.061	-0.037	0.006
-217.582	-53.878	-0.115	-0.052
-216.567	-200.000	-0.005	-0.213
-215.552	104.128	-0.140	-0.162
-214.538	79.290	-0.090	-0.095
-213.523	800.000	-0.073	0.274
-212.509	-189.435	0.500	0.006
-211.494	-156.679	-0.151	0.009
-210.479	800.000	-0.045	0.128
-209.465	219.028	0.056	0.089
-208.450	-84.243	-0.089	0.028
-207.436	87.937	-0.213	-0.233
-206.421	-19.422	0.252	0.154
-205.406	800.000	0.109	0.334
-204.392	501.337	-0.066	0.151
-203.377	-28.843	0.128	0.072
-202.363	-54.167	0.162	-0.072
-201.348	-200.000	0.013	0.298
-200.333	-57.177	0.423	0.183
-199.319	-200.000	-0.042	0.308
-198.304	-200.000	-0.026	0.208
-197.290	-159.271	-0.473	0.026
-196.275	-51.247	0.069	0.032
-195.260	-161.695	-0.085	-0.004
-194.246	135.807	-0.098	0.126
-193.231	-112.872	0.079	0.015
-192.217	-81.907	-0.098	-0.032
-191.202	-76.869	0.392	-0.135
-190.187	-60.773	0.139	-0.058
-189.173	-53.525	0.233	0.105
-188.158	176.704	0.236	0.338
-187.144	233.667	0.132	-0.213
-186.129	-19.432	-0.160	0.098
-185.114	-126.710	0.056	-0.008
-184.100	-200.000	-0.028	-0.180
-183.085	-63.377	-0.195	0.079
-182.071	-200.000	-0.005	-0.179
-181.056	-96.077	-0.185	0.048
-180.042	-35.225	-0.159	-0.085
-179.027	368.438	0.120	0.240
-178.012	-101.385	-0.304	-0.073
-176.998	-140.057	-0.178	0.018
-175.983	0.570	-0.209	-0.147
-174.969	-59.084	0.192	-0.082
-173.954	-93.281	-0.169	0.046
-172.939	-150.488	0.327	0.025
-171.925	-200.000	0.062	0.300
-170.910	-161.360	-0.175	-0.009
-169.896	-71.900	0.197	0.072
-168.881	-41.964	0.068	-0.034
-167.866	-88.141	-0.157	-0.046
-166.852	-156.715	0.303	0.018
-165.837	-200.000	0.000	0.142
-164.823	-71.279	0.050	0.018
-163.808	-200.000	-0.044	0.208
-162.793	-65.215	0.344	-0.136
-161.779	149.729	-0.132	-0.176
-160.764	21.137	-0.074	0.059
-159.750	-200.000	-0.005	0.032
-158.735	-88.292	-0.166	0.049
-157.720	21.175	-0.234	-0.187
-156.706	-44.767	0.134	0.066
-155.691	323.610	0.011	-0.021
-154.677	-167.680	0.244	0.010
-153.662	743.317	-0.070	-0.185
-152.647	264.289	0.047	-0.081
-151.633	149.047	0.219	-0.292
-150.618	-95.021	-0.376	-0.100
-149.604	151.873	0.223	0.299
-148.589	47.722	-0.168	-0.154
-147.574	-200.000	0.029	-0.242
-146.560	-15.559	-0.021	-0.013
-145.545	109.396	0.081	0.096
-144.531	497.864	0.170	0.384
-143.516	348.169	0.122	0.236
-142.502	4.271	0.242	-0.174
-141.487	800.000	-0.095	0.277
-140.472	-181.339	-0.145	-0.003
-139.458	214.124	-0.038	-0.059
-138.443	546.936	0.092	0.216
-137.429	800.000	0.071	0.195
-136.414	729.468	0.083	-0.219
-135.399	255.328	0.049	-0.083
-134.385	-200.000	0.019	0.234
-133.370	-94.427	0.264	-0.071
-132.356	-70.989	-0.070	0.026
-131.341	54.021	0.094	-0.089
-130.326	-102.175	-0.149	0.035
-129.312	-50.330	-0.119	-0.055
-128.297	-81.066	0.292	-0.095
-127.283	56.175	0.045	0.043
-126.268	12.930	0.299	-0.227
-125.253	-200.000	0.014	0.137
-124.239	704.532	-0.056	0.144
-123.224	800.000	-0.045	0.177
-122.210	-200.000	-0.041	-0.237
-121.195	143.758	0.118	0.154
-120.180	-117.209	-0.255	-0.046
