DTS Sentinel unit serial number:	SN413079Multiplexer serial number:	ORYXHardware model number:	OX4-SRSoftware version number:	ORYX F/W v4.00 Oryx Data Collector v3.7.2.0data status	okinstallation	princeton_trtdifferential loss correction	single-endedforward channel	channel 3reverse channel	N/Adate	2019/09/13time	12:04:35forward acquisition time	60.00reverse acquisition time	0.00gamma	496.2192k internal	0.2310k external	0.2310temperature offset calibration	1.0149default loss term (dB/km)	0.3790temperature slope calibration	1.0000multiplexer offset coefficient	1.0000multiplexer slope coefficient	1.0000fibre end	0.00T internal ref (°C)	33.70T ext. ref 1 (°C)	4.61T ext. ref 2 (°C)	31.26length (m)	temperature (°C)	Stokes	anti-Stokes-747.200	577.398	0.076	0.188
-746.185	-66.892	-0.298	0.120
-745.171	-198.882	0.095	-0.001
-744.156	82.345	-0.140	0.154
-743.142	800.000	-0.080	0.261
-742.127	7.073	-0.339	0.257
-741.112	-200.000	-0.016	0.201
-740.098	-156.225	0.267	0.017
-739.083	-100.542	0.095	-0.024
-738.069	-128.715	-0.230	0.033
-737.054	-200.000	0.009	-0.204
-736.039	162.676	-0.119	-0.170
-735.025	384.106	-0.178	0.372
-734.010	-36.675	-0.256	-0.140
-732.996	-182.917	-0.240	0.004
-731.981	-51.637	-0.199	0.094
-730.966	-44.161	-0.356	0.181
-729.952	-112.369	-0.041	0.008
-728.937	-200.000	0.043	-0.209
-727.923	166.979	-0.213	-0.306
-726.908	113.040	0.139	0.171
-725.894	208.041	0.194	-0.307
-724.879	-5.674	0.105	-0.073
-723.864	-200.000	-0.000	-0.155
-722.850	56.790	-0.204	-0.201
-721.835	24.724	-0.150	-0.126
-720.821	-75.973	-0.173	0.062
-719.806	161.467	-0.099	-0.141
-718.791	-151.355	-0.191	0.014
-717.777	800.000	-0.043	-0.131
-716.762	-71.263	0.154	0.059
-715.748	-95.698	-0.435	-0.118
-714.733	31.210	0.064	0.056
-713.718	-32.012	0.195	0.111
-712.704	-200.000	-0.056	-0.274
-711.689	-64.122	0.150	-0.062
-710.675	-69.323	-0.359	-0.140
-709.660	-120.439	-0.268	-0.046
-708.645	-57.963	0.241	-0.107
-707.631	-200.000	0.079	-0.362
-706.616	-200.000	-0.073	-0.563
-705.602	369.170	-0.017	-0.035
-704.587	20.423	0.195	-0.160
-703.572	102.922	0.090	-0.107
-702.558	-21.169	-0.257	0.159
-701.543	-84.100	0.199	-0.064
-700.529	-144.522	-0.353	0.033
-699.514	-200.000	0.026	-0.126
-698.499	-72.092	0.110	-0.041
-697.485	-95.289	-0.428	-0.117
-696.470	800.000	-0.040	-0.167
-695.456	-150.120	-0.488	-0.038
-694.441	-85.102	0.244	-0.077
-693.426	-200.000	-0.004	0.147
-692.412	448.630	-0.050	0.111
-691.397	17.963	0.094	0.076
-690.383	503.690	-0.118	0.277
-689.368	-200.000	-0.034	-0.364
-688.354	92.293	-0.130	-0.149
-687.339	-186.361	-0.140	0.002
-686.324	800.000	-0.051	-0.157
-685.310	674.926	-0.035	-0.093
-684.295	73.264	-0.190	0.201
-683.281	70.526	-0.118	0.124
-682.266	-76.286	-0.065	-0.023
-681.251	16.517	-0.283	0.227
-680.237	-200.000	-0.013	-0.060
-679.222	99.941	-0.319	0.374
-678.208	-178.441	-0.155	-0.004
-677.193	52.005	0.227	0.219
-676.178	384.976	-0.192	-0.401
-675.164	-200.000	0.018	-0.126
-674.149	-192.951	-0.302	-0.003
-673.135	-112.153	-0.120	-0.024
-672.120	-94.179	0.191	-0.053
-671.105	16.527	-0.252	-0.202
-670.091	606.474	-0.124	0.314
-669.076	74.394	-0.034	-0.036
-668.062	-89.132	-0.086	0.026
-667.047	800.000	-0.043	-0.126
-666.032	-150.970	-0.232	0.018
-665.018	-30.392	-0.335	0.192
-664.003	-181.697	0.269	0.005
-662.989	-200.000	-0.025	-0.266
-661.974	-12.485	-0.070	0.046
-660.959	800.000	0.088	-0.264
-659.945	624.074	-0.098	-0.251
-658.930	771.820	-0.122	-0.337
-657.916	800.000	0.058	0.241
-656.901	-30.294	-0.202	-0.116
-655.886	-155.396	0.275	0.018
-654.872	-47.174	0.020	0.010
-653.857	-7.040	0.155	0.107
-652.843	249.081	-0.254	-0.435
-651.828	-30.502	-0.062	-0.036
-650.814	-43.606	-0.105	0.054
-649.799	-15.088	0.178	-0.115
-648.784	-9.417	-0.222	0.150
-647.770	79.686	0.105	-0.114
-646.755	67.646	-0.086	-0.089
-645.741	-19.751	0.245	-0.153
-644.726	85.796	-0.153	-0.171
-643.711	-200.000	0.015	-0.166
-642.697	97.055	0.141	0.164
-641.682	-49.295	0.220	-0.106
-640.668	800.000	-0.103	-0.448
-639.653	236.988	0.251	-0.420
-638.638	800.000	0.073	-0.236
-637.624	800.000	0.111	-0.318
-636.609	-200.000	0.012	-0.111
-635.595	-200.000	-0.003	-0.163
-634.580	-200.000	-0.061	-0.470
-633.565	8.974	-0.158	-0.121
-632.551	-200.000	0.001	-0.140
-631.536	60.412	0.136	0.136
-630.522	236.094	-0.055	0.091
-629.507	31.962	-0.198	0.173
-628.492	681.295	0.033	-0.086
-627.478	-200.000	-0.024	-0.329
-626.463	-137.255	-0.388	-0.045
-625.449	738.277	-0.093	-0.253
-624.434	-51.890	-0.270	0.127
-623.419	-200.000	0.030	0.161
-622.405	128.529	0.210	0.270
-621.390	79.519	-0.152	0.165
-620.376	43.154	0.094	-0.087
-619.361	-200.000	0.048	-0.361
-618.346	800.000	0.079	-0.306
-617.332	242.692	-0.143	0.242
-616.317	235.221	-0.089	-0.148
-615.303	-67.165	0.108	0.043
-614.288	456.733	-0.127	0.286
-613.273	-4.473	0.213	-0.149
-612.259	-200.000	-0.026	-0.235
-611.244	301.650	-0.041	-0.076
-610.230	-200.000	0.089	0.403
-609.215	-95.761	-0.091	0.025
-608.201	-107.329	-0.158	-0.035
-607.186	-108.346	-0.266	-0.058
-606.171	800.000	0.069	0.222
-605.157	149.854	0.284	-0.389
-604.142	-101.531	-0.603	0.148
-603.128	-19.602	0.008	0.005
-602.113	-37.469	-0.159	-0.086
-601.098	412.817	-0.180	0.386
-600.084	-200.000	0.031	0.433
-599.069	-2.006	0.102	0.073
-598.055	-200.000	-0.003	-0.215
-597.040	-81.823	-0.259	0.086
-596.025	-87.017	-0.361	-0.111
-595.011	459.321	0.072	-0.161
-593.996	146.981	0.211	0.286
-592.982	603.163	-0.122	0.307
-591.967	-112.846	0.216	0.043
-590.952	94.790	-0.138	0.158
-589.938	800.000	-0.011	-0.047
-588.923	-200.000	-0.053	-0.325
-587.909	-120.456	-0.091	0.016
-586.894	-87.421	-0.332	-0.102
-585.879	-200.000	0.057	0.294
-584.865	748.167	-0.154	0.418
-583.850	132.343	-0.079	-0.103
-582.836	39.667	-0.064	-0.058
-581.821	72.638	0.025	-0.026
-580.806	761.030	-0.044	0.119
-579.792	83.931	0.228	0.251
-578.777	800.000	0.074	0.294
-577.763	-109.120	-0.267	-0.057
-576.748	30.889	-0.194	-0.168
-575.733	-22.737	-0.075	0.046
-574.719	800.000	0.065	-0.185
-573.704	-122.595	-0.277	0.045
-572.690	34.759	-0.154	-0.136
-571.675	262.829	0.050	-0.088
-570.661	337.100	-0.074	0.144
-569.646	800.000	-0.075	0.303
-568.631	232.950	0.071	0.117
-567.617	-200.000	0.016	-0.146
-566.602	-44.587	0.079	0.040
-565.588	-137.649	-0.168	-0.019
-564.573	61.965	0.166	0.166
-563.558	75.122	0.157	-0.167
-562.544	-85.123	0.176	-0.055
-561.529	246.082	0.083	-0.140
-560.515	41.543	-0.089	0.081
-559.500	-200.000	-0.005	0.197
-558.485	174.572	-0.030	0.044
-557.471	48.506	-0.059	0.055
-556.456	-79.085	-0.260	0.089
-555.442	-135.741	0.323	0.039
-554.427	162.460	-0.034	0.049
-553.412	-144.475	-0.254	0.024
-552.398	-27.094	-0.284	0.167
-551.383	-90.446	-0.056	-0.016
-550.369	-134.807	-0.021	0.003
-549.354	-0.917	-0.307	0.219
-548.339	-126.043	0.180	0.027
-547.325	-200.000	0.030	0.447
-546.310	237.328	-0.031	0.052
-545.296	-200.000	0.039	0.173
-544.281	-197.763	-0.353	-0.002
-543.266	-58.366	0.173	0.076
-542.252	-133.596	-0.215	0.027
-541.237	-146.532	0.204	0.018
-540.223	331.618	-0.081	0.157
-539.208	800.000	-0.065	-0.208
-538.193	-92.701	0.190	-0.054
-537.179	-91.729	-0.152	0.044
-536.164	-103.356	0.188	-0.045
-535.150	214.458	0.149	0.238
-534.135	-44.933	-0.264	-0.133
-533.121	-91.394	0.166	0.048
-532.106	-200.000	-0.003	0.160
-531.091	-102.999	-0.199	0.048
-530.077	800.000	0.091	0.342
-529.062	284.062	0.102	0.185
-528.048	204.779	0.106	-0.166
-527.033	-200.000	0.009	-0.287
-526.018	800.000	-0.118	0.330
-525.004	-157.674	0.272	-0.016
-523.989	-118.803	-0.343	0.061
-522.975	-83.540	-0.133	-0.043
-521.960	751.274	0.132	-0.359
-520.945	-89.235	0.281	-0.083
-519.931	13.703	-0.169	0.132
-518.916	-69.700	0.414	-0.159
-517.902	56.212	-0.175	0.171
-516.887	239.665	-0.053	0.089
-515.872	-34.386	-0.187	0.103
-514.858	-200.000	-0.005	0.058
-513.843	-200.000	-0.017	-0.208
-512.829	800.000	-0.028	-0.115
-511.814	-40.451	-0.407	-0.213
-510.799	800.000	0.060	-0.211
-509.785	-200.000	0.021	-0.221
-508.770	73.396	0.112	0.118
-507.756	-56.074	0.147	-0.066
-506.741	-145.249	-0.231	0.021
-505.726	48.994	0.145	-0.137
-504.712	-95.312	0.217	-0.059
-503.697	29.371	0.140	-0.120
-502.683	-136.794	-0.241	-0.028
-501.668	-42.090	-0.133	-0.069
-500.653	-73.824	-0.096	-0.035
-499.639	81.487	0.131	0.143
-498.624	429.659	0.053	0.116
-497.610	102.306	0.020	0.024
-496.595	-109.997	-0.181	0.038
-495.581	-90.413	0.224	-0.065
-494.566	800.000	0.083	-0.351
-493.551	44.470	-0.254	0.235
-492.537	-142.421	0.529	-0.052
-491.522	-6.545	0.166	0.114
-490.508	-131.194	0.212	0.028
-489.493	-200.000	-0.009	0.199
-488.478	-6.484	-0.045	0.031
-487.464	-100.980	-0.341	-0.084
-486.449	33.473	-0.269	-0.235
-485.435	-93.181	-0.244	0.068
-484.420	800.000	-0.127	0.450
-483.405	-200.000	-0.000	-0.080
-482.391	303.160	-0.067	0.125
-481.376	36.887	0.255	0.227
-480.362	-29.279	-0.198	-0.114
-479.347	-200.000	0.000	0.079
-478.332	-2.865	-0.071	0.050
-477.318	800.000	-0.022	-0.073
-476.303	677.937	-0.167	-0.438
-475.289	60.615	-0.285	-0.284
-474.274	-200.000	-0.017	0.246
-473.259	373.702	-0.127	0.259
-472.245	276.548	-0.053	-0.094
-471.230	-200.000	0.070	-0.379
-470.216	251.698	0.084	0.143
-469.201	127.638	-0.116	-0.149
-468.186	-17.849	-0.165	0.104
-467.172	277.880	-0.101	-0.181
-466.157	64.003	0.196	-0.198
-465.143	-67.946	0.360	0.141
-464.128	90.735	0.118	0.133
-463.113	-61.929	0.131	0.055
-462.099	800.000	0.008	-0.029
-461.084	-81.245	-0.442	0.147
-460.070	-74.032	0.054	0.020
-459.055	-116.956	0.127	0.023
-458.040	-200.000	-0.014	-0.065
-457.026	-200.000	0.011	-0.213
-456.011	-200.000	-0.011	0.093
-454.997	-78.463	-0.186	-0.064
-453.982	116.782	0.308	-0.379
-452.968	18.699	0.202	-0.162
-451.953	-104.559	-0.079	0.018
-450.938	-67.432	0.230	0.091
-449.924	-200.000	0.038	-0.172
-448.909	27.758	0.161	-0.137
-447.895	-22.720	0.235	0.142
-446.880	576.104	0.016	-0.039
-445.865	-79.427	0.166	0.056
-444.851	125.378	-0.101	0.128
-443.836	-136.559	-0.252	0.029
-442.822	117.871	0.026	0.033
-441.807	-83.990	-0.157	-0.050
-440.792	-200.000	0.038	0.245
-439.778	800.000	-0.076	-0.314
-438.763	800.000	-0.058	-0.236
-437.749	249.014	0.138	-0.234
-436.734	-200.000	0.017	0.209
-435.719	-83.549	-0.230	0.074
-434.705	-34.916	0.406	-0.223
-433.690	-70.852	-0.352	0.133
-432.676	800.000	0.026	0.098
-431.661	289.007	0.039	-0.071
-430.646	2.299	0.310	0.225
-429.632	523.471	-0.119	0.282
-428.617	-200.000	0.042	0.251
-427.603	-133.150	-0.035	0.004
-426.588	87.844	0.170	0.189
-425.573	235.779	-0.071	-0.118
-424.559	800.000	0.092	-0.368
-423.544	304.356	-0.148	0.276
-422.530	373.962	0.134	0.274
-421.515	35.137	-0.134	0.118
-420.500	512.490	-0.194	-0.453
-419.486	-200.000	0.069	-0.360
-418.471	22.792	-0.096	0.079
-417.457	170.989	0.088	0.126
-416.442	-67.016	0.481	-0.190
-415.428	480.169	0.107	-0.244
-414.413	-81.389	0.080	-0.026
-413.398	-9.834	0.190	-0.127
-412.384	301.390	-0.153	0.284
-411.369	79.612	-0.030	-0.033
-410.355	51.006	-0.258	0.245
-409.340	601.518	-0.103	0.256
-408.325	50.881	0.186	-0.177
-407.311	-26.193	-0.260	0.153
-406.296	-15.692	0.047	-0.030
-405.282	134.101	0.137	-0.178
-404.267	7.015	-0.273	-0.204
-403.252	-127.533	0.181	0.026
-402.238	-26.012	0.159	0.094
-401.223	-73.838	0.109	-0.040
-400.209	-200.000	0.066	0.420
-399.194	-157.944	0.082	0.005
-398.179	71.779	-0.341	-0.355
-397.165	-200.000	0.040	-0.197
-396.150	-112.452	0.200	-0.040
-395.136	691.469	0.032	-0.085
-394.121	-7.402	-0.107	-0.073
-393.106	19.973	0.075	0.060
-392.092	-127.808	0.207	0.030
-391.077	-150.549	0.050	0.004
-390.063	800.000	-0.026	0.080
-389.048	-141.863	0.038	0.004
-388.033	199.228	-0.068	0.104
-387.019	81.311	0.100	0.108
-386.004	-200.000	0.006	-0.030
-384.990	-87.214	0.364	0.111
-383.975	-200.000	-0.006	-0.057
-382.960	-200.000	-0.020	-0.187
-381.946	426.508	-0.018	-0.039
-380.931	322.172	0.153	-0.292
-379.917	-11.140	-0.037	0.025
-378.902	-132.535	-0.243	0.031
-377.888	800.000	-0.075	-0.227
-376.873	800.000	0.091	0.348
-375.858	297.690	-0.196	0.361
-374.844	-200.000	0.052	-0.449
-373.829	-3.610	-0.307	0.214
-372.815	-200.000	0.015	-0.118
-371.800	-132.680	-0.156	-0.020
-370.785	-4.087	0.229	-0.159
-369.771	-74.578	-0.134	-0.048
-368.756	-84.764	-0.089	0.028
-367.742	77.804	0.105	0.112
-366.727	-26.454	-0.123	0.072
-365.712	-158.827	0.258	-0.015
-364.698	30.607	0.222	-0.190
-363.683	80.401	0.258	-0.278
-362.669	338.869	0.098	-0.191
-361.654	-115.363	-0.281	0.053
-360.639	-200.000	0.013	-0.247
-359.625	359.946	-0.167	-0.335
-358.610	19.558	-0.160	0.129
-357.596	-200.000	0.022	0.653
-356.581	772.426	-0.008	0.021
-355.566	-51.366	0.098	0.046
-354.552	7.556	0.133	0.099
-353.537	-77.647	0.085	-0.029
-352.523	-200.000	-0.004	-0.158
-351.508	301.727	0.197	-0.363
-350.493	-115.490	0.176	-0.033
-349.479	47.534	-0.101	-0.094
-348.464	-131.361	0.289	0.038
-347.450	-200.000	0.001	0.028
-346.435	533.308	0.056	0.133
-345.420	-200.000	-0.008	0.038
-344.406	56.606	-0.118	-0.115
-343.391	800.000	0.147	-0.460
-342.377	-200.000	-0.050	-0.282
-341.362	59.410	-0.121	-0.119
-340.348	309.219	0.036	0.067
-339.333	610.202	-0.021	-0.052
-338.318	4.126	0.120	-0.088
-337.304	261.268	0.088	0.153
-336.289	10.316	0.065	0.050
-335.275	-128.595	0.206	0.029
-334.260	-200.000	0.029	0.202
-333.245	143.590	0.096	0.127
-332.231	-200.000	0.008	0.097
-331.216	-146.534	-0.297	0.026
-330.202	-200.000	-0.006	0.173
-329.187	440.123	0.102	0.223
-328.172	-47.487	-0.104	0.051
-327.158	-200.000	0.002	-0.421
-326.143	-54.465	0.237	0.107
-325.129	-50.220	0.241	0.114
-324.114	44.226	-0.215	0.197
-323.099	103.605	0.091	-0.107
-322.085	-182.844	0.188	0.003
-321.070	-152.377	0.267	-0.019
-320.056	-10.129	-0.378	-0.251
-319.041	342.028	0.143	-0.279
-318.026	-200.000	0.006	-0.106
-317.012	-191.753	-0.187	0.002
-315.997	329.859	0.135	0.260
-314.983	494.651	0.237	0.544
-313.968	477.163	0.068	-0.153
-312.953	489.813	-0.039	0.090
-311.939	800.000	-0.048	0.203
-310.924	800.000	0.122	0.457
-309.910	91.767	0.240	-0.270
-308.895	-200.000	0.007	0.153
-307.880	494.007	0.057	0.131
-306.866	17.358	-0.158	0.125
-305.851	540.904	-0.144	0.343
-304.837	439.691	-0.053	0.115
-303.822	-112.607	-0.204	0.041
-302.807	25.196	-0.130	-0.108
-301.793	737.665	-0.075	0.201
-300.778	61.674	0.309	0.307
-299.764	-145.042	-0.089	0.008
-298.749	-91.527	0.159	-0.045
-297.735	-62.173	-0.216	-0.090
-296.720	338.909	-0.068	0.132
-295.705	-200.000	-0.017	0.090
-294.691	90.312	0.089	-0.100
-293.676	-22.813	0.492	0.297
-292.662	-61.271	0.172	0.072
-291.647	800.000	0.082	0.289
-290.632	-200.000	0.040	0.196
-289.618	63.285	0.164	0.164
-288.603	85.701	-0.063	-0.069
-287.589	181.988	-0.018	0.026
-286.574	-10.747	0.281	-0.185
-285.559	800.000	-0.081	-0.305
-284.545	9.922	-0.056	0.042
-283.530	-0.519	0.411	0.291
-282.516	49.706	0.232	-0.218
-281.501	21.539	0.079	-0.064
-280.486	-97.534	-0.309	-0.080
-279.472	290.645	-0.102	-0.185
-278.457	-147.698	-0.113	-0.009
-277.443	800.000	0.102	-0.292
-276.428	-200.000	-0.031	0.161
-275.413	-200.000	0.010	-0.089
-274.399	-200.000	0.008	0.056
-273.384	-200.000	-0.022	-0.171
-272.370	-118.981	0.330	-0.058
-271.355	-104.643	-0.353	0.081
-270.340	255.004	-0.170	-0.290
-269.326	-200.000	0.006	0.103
-268.311	589.879	0.045	-0.110
-267.297	-200.000	-0.015	0.274
-266.282	309.636	0.076	-0.141
-265.267	260.639	0.026	-0.044
-264.253	-62.731	0.209	-0.087
-263.238	-200.000	-0.004	0.160
-262.224	-200.000	-0.006	0.291
-261.209	26.343	-0.160	-0.133
-260.195	-200.000	-0.020	0.186
-259.180	-89.714	-0.031	0.009
-258.165	10.271	-0.363	-0.275
-257.151	-69.619	0.302	-0.115
-256.136	-59.833	0.287	-0.122
-255.122	-103.810	-0.111	0.026
-254.107	-118.724	-0.207	-0.036
-253.092	123.726	-0.144	0.180
-252.078	-200.000	0.006	-0.161
-251.063	-117.154	-0.152	-0.028
-250.049	-34.158	0.312	-0.171
-249.034	-23.043	0.181	-0.109
-248.019	307.766	0.180	-0.334
-247.005	-23.939	0.120	0.071
-245.990	-200.000	-0.036	0.451
-244.976	800.000	-0.070	0.212
-243.961	-152.860	0.100	0.007
-242.946	-200.000	-0.006	0.113
-241.932	-161.579	-0.257	-0.013
-240.917	-65.206	0.247	-0.099
-239.903	800.000	0.029	-0.086
-238.888	-200.000	-0.034	0.212
-237.873	254.483	0.206	-0.351
-236.859	-63.719	0.299	-0.122
-235.844	-12.407	0.174	0.113
-234.830	-78.179	0.165	0.056
-233.815	-67.947	-0.053	-0.021
-232.800	2.575	-0.124	0.089
-231.786	-200.000	-0.000	-0.156
-230.771	19.038	-0.199	-0.159
-229.757	429.187	0.041	0.089
-228.742	50.740	-0.258	0.243
-227.727	-169.009	-0.186	-0.007
-226.713	393.872	0.092	0.190
-225.698	-26.217	-0.032	0.019
-224.684	53.200	-0.141	-0.135
-223.669	66.003	0.170	-0.172
-222.655	-104.170	-0.236	-0.055
-221.640	-30.251	-0.193	0.109
-220.625	-9.115	-0.265	-0.176
-219.611	257.556	-0.124	-0.212
-218.596	-30.654	0.216	-0.122
-217.582	-27.831	-0.197	-0.113
-216.567	15.934	0.278	0.218
-215.552	-200.000	0.017	-0.162
-214.538	-95.944	-0.306	-0.081
-213.523	-118.880	0.186	0.033
-212.509	-73.156	-0.310	-0.113
-211.494	385.911	0.086	-0.176
-210.479	-36.440	0.106	0.057
-209.465	431.038	0.116	-0.250
-208.450	-69.776	0.345	-0.131
-207.436	800.000	0.062	0.254
-206.421	800.000	-0.049	0.137
-205.406	0.735	0.111	-0.079
-204.392	800.000	-0.023	0.078
-203.377	-111.795	-0.375	-0.075
-202.363	-44.844	-0.021	-0.011
-201.348	50.169	-0.346	0.325
-200.333	-88.491	0.105	-0.031
-199.319	-21.553	-0.179	0.108
-198.304	101.926	0.228	0.264
-197.290	250.232	0.085	0.144
-196.275	13.353	-0.178	-0.137
-195.260	-4.493	0.167	-0.115
-194.246	140.228	-0.200	0.262
-193.231	-72.508	0.120	-0.044
-192.217	-200.000	0.047	-0.216
-191.202	115.215	0.166	0.202
-190.187	311.182	0.056	-0.104
-189.173	800.000	-0.056	0.229
-188.158	477.130	-0.075	0.169
-187.144	800.000	-0.011	0.033
-186.129	-200.000	0.040	-0.214
-185.114	-16.743	0.190	0.119
-184.100	-99.008	0.194	-0.049
-183.085	-21.259	-0.277	0.168
-182.071	-38.659	0.073	0.038
-181.056	-42.069	-0.110	-0.056
-180.042	33.625	-0.064	-0.055
-179.027	246.077	0.128	-0.215
-178.012	180.847	-0.224	0.328
-176.998	15.322	0.079	0.061
-175.983	-200.000	-0.048	-0.488
-174.969	-158.459	-0.239	-0.014
-173.954	157.860	0.107	0.147
-172.939	800.000	-0.127	0.358
-171.925	120.009	0.156	-0.192
-170.910	-6.531	-0.144	0.097
-169.896	-69.910	0.224	0.085
-168.881	-6.819	0.116	0.079
-167.866	-200.000	0.004	-0.410
-166.852	-56.041	-0.135	-0.060
-165.837	30.226	-0.057	-0.048
-164.823	524.646	0.027	-0.064
-163.808	-200.000	-0.052	0.247
-162.793	-200.000	-0.484	-0.001
-161.779	800.000	0.072	-0.228
-160.764	409.723	0.024	0.050
-159.750	126.506	-0.074	-0.093
-158.735	136.063	0.152	0.197
-157.720	104.865	0.097	0.113
-156.706	42.478	0.050	0.046
-155.691	-2.732	-0.181	0.126
-154.677	598.042	0.110	0.271
-153.662	-76.704	-0.262	-0.091
-152.647	-43.657	0.292	-0.146
-151.633	151.087	-0.003	0.004
-150.618	-34.626	-0.190	0.103
-149.604	408.854	-0.047	-0.099
-148.589	800.000	0.069	0.245
-147.574	800.000	-0.075	-0.279
-146.560	-102.312	-0.223	-0.053
-145.545	225.938	-0.168	-0.269
-144.531	-88.958	-0.376	-0.111
-143.516	-103.877	0.095	-0.022
-142.502	-78.994	0.141	0.048
-141.487	-40.645	0.253	0.130
-140.472	450.321	0.087	-0.190
-139.458	-115.134	0.257	-0.048
-138.443	-200.000	0.003	-0.176
-137.429	-80.179	-0.350	0.116
-136.414	48.882	-0.303	-0.282
-135.399	219.507	-0.145	0.230
-134.385	-12.295	-0.234	0.152
-133.370	-3.517	0.244	-0.168
-132.356	-200.000	0.096	-0.555
-131.341	800.000	0.054	-0.212
-130.326	-12.744	0.159	0.103
-129.312	-112.097	-0.208	0.041
-128.297	800.000	-0.074	-0.249
-127.283	444.790	0.127	-0.277
-126.268	25.048	-0.138	-0.114
-125.253	359.598	0.070	0.138
-124.239	111.332	0.215	0.257
-123.224	39.615	-0.125	0.111
-122.210	-200.000	0.055	0.282
-121.195	-36.835	0.155	-0.083
