DTS Sentinel unit serial number:	SN413079Multiplexer serial number:	ORYXHardware model number:	OX4-SRSoftware version number:	ORYX F/W v4.00 Oryx Data Collector v3.7.2.0data status	okinstallation	princeton_trtdifferential loss correction	single-endedforward channel	channel 3reverse channel	N/Adate	2019/09/12time	20:12:03forward acquisition time	15.00reverse acquisition time	0.00gamma	496.2192k internal	0.2323k external	0.2323temperature offset calibration	1.0106default loss term (dB/km)	0.3790temperature slope calibration	1.0000multiplexer offset coefficient	1.0000multiplexer slope coefficient	1.0000fibre end	0.00T internal ref (°C)	31.56T ext. ref 1 (°C)	3.41T ext. ref 2 (°C)	26.19length (m)	temperature (°C)	Stokes	anti-Stokes-747.200	-169.495	1.150	-0.042
-746.185	-134.908	0.454	0.055
-745.171	-43.337	-0.950	0.485
-744.156	-45.087	0.269	-0.135
-743.142	306.566	-0.232	-0.436
-742.127	7.938	-0.553	-0.418
-741.112	800.000	0.087	-0.326
-740.098	-91.341	-0.255	-0.073
-739.083	-52.369	0.468	-0.219
-738.069	162.013	-0.132	0.186
-737.054	-157.002	0.359	0.022
-736.039	-120.765	-0.199	-0.034
-735.025	-72.803	-0.673	0.250
-734.010	-200.000	0.006	0.311
-732.996	-200.000	-0.095	0.507
-731.981	176.016	-0.553	0.810
-730.966	-83.814	0.466	0.150
-729.952	281.249	-0.066	0.119
-728.937	-159.111	0.113	-0.006
-727.923	115.561	0.337	0.416
-726.908	19.443	0.187	-0.152
-725.894	720.288	-0.340	0.913
-724.879	560.032	-0.307	-0.747
-723.864	-67.663	-0.395	0.156
-722.850	104.476	0.563	0.669
-721.835	16.765	0.451	0.360
-720.821	-200.000	-0.065	-0.309
-719.806	-96.071	-0.699	-0.188
-718.791	36.618	-0.372	0.331
-717.777	152.698	-0.244	-0.336
-716.762	-174.619	0.132	-0.004
-715.748	316.941	-0.272	0.518
-714.733	244.181	-0.111	-0.187
-713.718	-58.440	-0.116	0.051
-712.704	800.000	-0.370	1.145
-711.689	96.748	0.601	-0.694
-710.675	-34.563	0.817	0.451
-709.660	-200.000	0.103	-0.836
-708.645	71.989	-0.498	-0.522
-707.631	-31.438	-0.313	0.178
-706.616	-102.786	1.328	0.319
-705.602	-21.103	0.212	-0.131
-704.587	-66.487	0.624	-0.250
-703.572	16.238	-0.297	0.236
-702.558	-200.000	0.077	-0.418
-701.543	5.631	-0.814	0.606
-700.529	-56.481	0.667	0.298
-699.514	316.932	0.099	0.189
-698.499	-11.447	0.566	0.375
-697.485	-3.209	0.856	-0.601
-696.470	-65.847	-0.484	-0.195
-695.456	800.000	-0.091	0.286
-694.441	440.976	-0.208	0.459
-693.426	-106.337	-0.335	-0.075
-692.412	-200.000	0.023	0.256
-691.397	-106.449	0.572	0.129
-690.383	-200.000	-0.009	0.399
-689.368	-121.630	-0.504	-0.084
-688.354	-200.000	0.125	-0.621
-687.339	337.371	-0.085	-0.167
-686.324	70.721	-0.745	-0.777
-685.310	432.467	0.184	0.403
-684.295	392.289	-0.153	-0.320
-683.281	-200.000	0.003	-0.234
-682.266	-79.014	-0.563	-0.193
-681.251	-111.273	-0.490	0.101
-680.237	800.000	0.140	-0.568
-679.222	-200.000	-0.024	0.121
-678.208	145.253	-0.299	-0.404
-677.193	614.047	0.171	0.432
-676.178	80.137	0.583	-0.632
-675.164	800.000	0.212	-0.634
-674.149	470.777	-0.451	-1.022
-673.135	-27.263	-0.259	-0.152
-672.120	314.738	0.639	1.212
-671.105	193.708	0.150	-0.229
-670.091	-106.627	0.545	0.122
-669.076	228.275	0.264	0.433
-668.062	17.721	0.287	-0.230
-667.047	-2.107	-0.284	-0.201
-666.032	365.865	-0.012	-0.024
-665.018	297.448	-0.244	-0.451
-664.003	-25.282	-0.631	0.376
-662.989	-77.157	0.445	-0.156
-661.974	-82.651	0.200	0.065
-660.959	599.504	0.124	-0.310
-659.945	-168.331	-0.781	0.030
-658.930	1.440	0.237	-0.172
-657.916	-95.724	-0.274	-0.074
-656.901	33.369	0.265	0.231
-655.886	-78.466	0.831	-0.287
-654.872	94.461	0.066	-0.075
-653.857	800.000	0.154	-0.486
-652.843	-179.483	0.939	-0.021
-651.828	49.165	0.511	-0.483
-650.814	-82.042	0.594	0.195
-649.799	-107.394	-0.500	-0.110
-648.784	-200.000	-0.098	-1.254
-647.770	-81.829	-0.099	-0.033
-646.755	44.779	0.356	0.329
-645.741	-85.830	0.801	0.250
-644.726	10.557	0.407	0.312
-643.711	-200.000	-0.087	0.506
-642.697	240.897	0.049	0.082
-641.682	-200.000	0.021	0.122
-640.668	-113.941	0.616	-0.120
-639.653	-82.716	-0.652	0.212
-638.638	-200.000	0.133	-0.653
-637.624	-51.429	-0.512	0.241
-636.609	-5.934	-0.414	0.285
-635.595	800.000	-0.143	0.610
-634.580	-14.280	0.417	0.270
-633.565	82.500	0.355	0.387
-632.551	-8.765	-0.370	0.250
-631.536	167.564	0.247	0.353
-630.522	233.333	0.222	0.367
-629.507	61.521	0.592	0.592
-628.492	-200.000	0.041	0.231
-627.478	-5.763	-1.110	-0.764
-626.463	-126.231	0.150	-0.022
-625.449	658.894	0.228	0.589
-624.434	361.142	-0.382	0.770
-623.419	23.031	-0.192	-0.159
-622.405	139.327	-0.536	-0.709
-621.390	71.252	-0.601	-0.626
-620.376	-68.346	-0.265	0.103
-619.361	15.932	0.310	-0.245
-618.346	395.571	-0.106	0.223
-617.332	68.152	0.433	0.446
-616.317	-200.000	-0.115	-0.629
-615.303	40.286	-0.466	0.421
-614.288	-32.048	0.495	0.278
-613.273	-13.965	-0.140	0.091
-612.259	56.738	0.254	-0.249
-611.244	185.249	-0.204	-0.304
-610.230	-5.802	0.122	-0.084
-609.215	-28.202	-0.706	0.410
-608.201	-200.000	-0.103	0.583
-607.186	43.978	-0.525	-0.483
-606.171	264.349	-0.429	-0.750
-605.157	638.225	0.091	0.232
-604.142	10.558	-0.452	0.346
-603.128	-200.000	0.040	0.209
-602.113	35.168	0.303	-0.267
-601.098	-78.068	0.202	0.070
-600.084	-200.000	0.006	-0.415
-599.069	251.447	0.269	-0.459
-598.055	-22.259	-0.487	-0.296
-597.040	-25.529	0.300	0.178
-596.025	-64.199	-0.504	0.206
-595.011	-62.358	-0.488	0.204
-593.996	-200.000	0.013	0.190
-592.982	227.381	0.283	0.462
-591.967	236.870	-0.305	0.506
-590.952	-149.362	0.397	-0.032
-589.938	800.000	-0.186	0.606
-588.923	-153.993	-0.619	0.042
-587.909	-82.266	-0.451	-0.147
-586.894	-200.000	-0.128	0.801
-585.879	-200.000	-0.076	-0.671
-584.865	93.464	0.287	0.326
-583.850	2.260	-0.665	-0.483
-582.836	-152.911	1.050	-0.074
-581.821	-108.955	0.489	0.105
-580.806	-89.950	0.419	-0.123
-579.792	-46.232	0.512	-0.252
-578.777	8.260	-0.234	0.176
-577.763	-91.422	-0.765	0.219
-576.748	-200.000	-0.015	0.253
-575.733	46.461	-0.060	-0.056
-574.719	196.057	0.337	-0.514
-573.704	62.596	-0.115	-0.116
-572.690	-200.000	-0.030	-0.207
-571.675	-200.000	-0.053	-0.243
-570.661	-56.513	0.060	0.027
-569.646	194.591	0.296	-0.451
-568.631	135.317	-0.165	0.216
-567.617	-168.914	-0.677	0.025
-566.602	101.152	-0.202	0.236
-565.588	679.592	-0.065	-0.169
-564.573	231.746	0.093	-0.153
-563.558	314.033	-0.131	0.247
-562.544	8.769	0.508	0.384
-561.529	-6.070	0.385	-0.263
-560.515	61.934	0.623	-0.623
-559.500	800.000	-0.231	-0.724
-558.485	38.155	-0.095	0.085
-557.471	-200.000	-0.051	-0.481
-556.456	-78.219	-0.685	-0.236
-555.442	764.535	-0.209	-0.569
-554.427	-200.000	-0.019	0.899
-553.412	-111.674	0.455	0.092
-552.398	-43.070	0.473	-0.240
-551.383	-142.190	0.378	-0.038
-550.369	185.343	-0.061	0.091
-549.354	-160.236	0.318	0.017
-548.339	143.177	0.222	0.296
-547.325	-50.132	-0.746	0.354
-546.310	-25.611	-0.187	-0.110
-545.296	-75.280	-0.379	0.135
-544.281	-144.851	0.666	-0.061
-543.266	163.111	-0.208	0.293
-542.252	107.513	-0.367	0.437
-541.237	-200.000	-0.007	-0.053
-540.223	-200.000	0.077	0.736
-539.208	-200.000	0.085	0.605
-538.193	132.526	0.379	0.490
-537.179	7.429	-0.276	0.207
-536.164	60.930	0.640	0.636
-535.150	-43.115	-0.605	-0.307
-534.135	-30.953	-0.431	0.244
-533.121	56.487	0.262	0.255
-532.106	-200.000	0.027	0.409
-531.091	173.237	-0.153	0.220
-530.077	94.884	-0.326	0.372
-529.062	-200.000	0.001	0.142
-528.048	85.395	-0.301	0.331
-527.033	-200.000	-0.098	0.518
-526.018	-21.188	-0.502	-0.307
-525.004	310.990	-0.387	-0.726
-523.989	-121.967	-0.483	0.079
-522.975	-38.131	-0.121	0.064
-521.960	-72.711	-0.632	0.233
-520.945	-200.000	0.093	1.130
-519.931	-30.132	0.361	0.205
-518.916	-200.000	0.137	-0.806
-517.902	-35.502	-0.396	0.215
-516.887	568.668	0.348	-0.847
-515.872	56.254	-0.062	-0.060
-514.858	-31.558	0.171	-0.096
-513.843	800.000	-0.177	-0.673
-512.829	427.568	-0.095	0.205
-511.814	164.582	-0.286	-0.404
-510.799	800.000	-0.091	-0.351
-509.785	-200.000	0.083	-0.672
-508.770	-95.015	0.410	0.111
-507.756	-48.071	0.294	-0.142
-506.741	-48.108	-0.427	-0.206
-505.726	-200.000	-0.075	-0.869
-504.712	-107.878	0.863	0.188
-503.697	-49.690	-0.519	0.247
-502.683	-200.000	-0.034	0.610
-501.668	800.000	-0.240	-0.674
-500.653	63.826	-0.991	-0.996
-499.639	5.225	-0.243	0.179
-498.624	123.242	-0.383	0.480
-497.610	-4.547	-0.462	0.319
-496.595	-88.777	0.411	-0.122
-495.581	-188.694	-0.905	-0.011
-494.566	-200.000	-0.016	-0.697
-493.551	-117.877	0.316	-0.057
-492.537	-13.537	-0.383	0.248
-491.522	-16.254	0.351	-0.223
-490.508	-200.000	-0.057	-0.286
-489.493	717.688	0.090	-0.238
-488.478	-123.009	0.573	0.092
-487.464	676.907	0.211	0.548
-486.449	97.667	0.563	0.647
-485.435	-38.572	-0.553	0.292
-484.420	149.151	0.440	0.594
-483.405	-97.394	-0.743	0.193
-482.391	-12.087	0.148	-0.097
-481.376	-200.000	0.034	0.405
-480.362	123.151	0.363	0.455
-479.347	-16.622	-0.639	0.405
-478.332	-48.416	-0.494	-0.238
-477.318	51.499	0.715	-0.679
-476.303	562.873	0.138	-0.333
-475.289	-116.479	0.316	0.058
-474.274	147.078	0.097	0.130
-473.259	-121.237	-0.365	-0.061
-472.245	149.983	-0.078	-0.105
-471.230	143.668	-0.299	0.398
-470.216	-38.828	0.546	-0.287
-469.201	-200.000	0.012	0.077
-468.186	-23.025	0.587	0.353
-467.172	144.116	0.182	0.242
-466.157	-200.000	-0.047	1.247
-465.143	-189.643	0.581	0.007
-464.128	-200.000	-0.620	0.002
-463.113	381.521	0.469	0.961
-462.099	-124.726	-0.601	0.093
-461.084	195.439	-0.365	-0.554
-460.070	46.008	0.186	-0.172
-459.055	-143.450	-0.120	0.011
-458.040	214.884	0.180	0.285
-457.026	800.000	0.204	0.838
-456.011	-0.298	0.909	-0.645
-454.997	-86.360	0.319	-0.098
-453.982	-14.527	-0.351	0.226
-452.968	50.667	0.579	0.547
-451.953	-30.649	-0.658	-0.372
-450.938	80.673	0.226	0.244
-449.924	-88.410	-0.124	-0.037
-448.909	213.568	0.326	0.514
-447.895	15.749	0.060	-0.047
-446.880	-200.000	-0.021	-0.537
-445.865	-134.969	0.454	0.055
-444.851	-89.878	-0.163	0.047
-443.836	800.000	0.096	-0.284
-442.822	510.452	-0.226	0.524
-441.807	-160.231	0.171	-0.009
-440.792	598.600	0.128	0.316
-439.778	800.000	0.268	0.931
-438.763	-57.282	0.269	0.118
-437.749	-15.219	0.372	0.238
-436.734	800.000	0.116	-0.364
-435.719	-7.115	-0.792	0.536
-434.705	-5.903	0.640	-0.437
-433.690	-200.000	-0.064	0.451
-432.676	-11.271	-0.216	-0.142
-431.661	800.000	-0.085	0.249
-430.646	-46.124	-0.584	-0.287
-429.632	-176.340	-0.378	-0.010
-428.617	-49.490	0.514	-0.244
-427.603	800.000	-0.088	0.366
-426.588	-200.000	-0.153	0.953
-425.573	-0.570	0.468	0.331
-424.559	-121.676	0.655	-0.108
-423.544	32.767	-0.557	-0.481
-422.530	220.080	-0.205	0.327
-421.515	-108.318	0.586	0.126
-420.500	-113.696	0.930	0.181
-419.486	-131.008	0.752	0.100
-418.471	162.373	-0.495	0.692
-417.457	-126.862	-0.791	0.116
-416.442	-37.930	0.555	-0.294
-415.428	-55.912	-0.862	0.383
-414.413	271.123	0.070	-0.122
-413.398	-200.000	0.051	-1.128
-412.384	618.483	0.022	0.055
-411.369	582.784	0.052	0.126
-410.355	52.051	0.596	0.566
-409.340	89.429	-0.206	0.229
-408.325	7.134	-0.582	-0.432
-407.311	800.000	-0.147	-0.549
-406.296	124.190	0.038	0.047
-405.282	5.695	-0.042	-0.031
-404.267	-200.000	0.059	0.643
-403.252	-200.000	0.109	0.542
-402.238	708.020	0.440	1.159
-401.223	-66.589	0.428	0.169
-400.209	553.533	-0.325	-0.778
-399.194	-7.003	0.562	-0.380
-398.179	-19.751	0.525	0.323
-397.165	557.091	-0.102	-0.246
-396.150	-82.236	0.572	-0.186
-395.136	800.000	-0.225	-0.680
-394.121	800.000	-0.212	-0.600
-393.106	498.302	-0.244	-0.560
-392.092	-13.400	-0.285	0.184
-391.077	-116.763	0.870	-0.159
-390.063	-10.780	-0.377	-0.248
-389.048	-80.377	-0.762	0.253
-388.033	171.481	0.133	0.191
-387.019	-78.571	-0.416	0.142
-386.004	-59.804	-0.391	-0.167
-384.990	-104.446	-0.735	-0.169
-383.975	19.043	0.254	0.202
-382.960	151.885	-0.127	-0.173
-381.946	-113.751	-1.031	-0.200
-380.931	-200.000	-0.088	0.437
-379.917	176.494	0.155	-0.224
-378.902	631.439	0.226	-0.569
-377.888	106.667	0.358	-0.423
-376.873	-200.000	0.089	0.507
-375.858	599.896	-0.180	-0.444
-374.844	-200.000	0.166	-0.773
-373.829	8.013	-0.712	-0.531
-372.815	-62.272	-0.516	-0.214
-371.800	160.344	0.330	0.458
-370.785	-66.612	0.396	0.156
-369.771	-130.954	-0.574	-0.076
-368.756	11.896	0.310	0.237
-367.742	-200.000	-0.017	-0.350
-366.727	787.874	0.218	-0.596
-365.712	-20.063	-0.084	0.052
-364.698	-81.863	0.340	-0.111
-363.683	102.634	-0.390	-0.454
-362.669	-79.412	0.552	0.186
-361.654	79.031	0.090	0.095
-360.639	-200.000	-0.129	0.776
-359.625	-35.872	-0.570	0.307
-358.610	-142.122	0.753	0.074
-357.596	338.481	0.258	-0.499
-356.581	218.938	-0.357	-0.568
-355.566	800.000	-0.170	-0.725
-354.552	-120.644	0.237	0.040
-353.537	-200.000	0.015	-0.141
-352.523	94.482	-0.274	0.310
-351.508	-122.198	-0.512	-0.083
-350.493	155.953	0.623	0.854
-349.479	45.574	0.551	-0.506
-348.464	329.662	0.349	0.667
-347.450	-200.000	-0.033	-0.148
-346.435	800.000	0.064	-0.264
-345.420	-144.112	-0.290	0.027
-344.406	-200.000	0.008	-0.164
-343.391	800.000	-0.169	0.685
-342.377	265.926	-0.143	-0.248
-341.362	800.000	-0.080	-0.290
-340.348	3.809	0.982	0.713
-339.333	-107.483	-0.691	0.150
-338.318	800.000	-0.164	0.524
-337.304	-11.843	-0.231	-0.151
-336.289	-140.926	0.388	-0.040
-335.275	-67.798	-0.816	-0.317
-334.260	-34.293	-0.525	-0.287
-333.245	800.000	-0.184	-0.506
-332.231	-133.932	0.686	0.085
-331.216	-107.114	0.783	0.172
-330.202	-200.000	0.032	0.461
-329.187	-39.903	0.262	-0.136
-328.172	110.057	0.409	0.488
-327.158	800.000	-0.226	0.954
-326.143	-12.491	0.444	-0.288
-325.129	51.593	-0.378	-0.357
-324.114	55.249	0.530	-0.509
-323.099	-200.000	0.178	-0.849
-322.085	-200.000	0.067	0.483
-321.070	71.672	0.179	0.185
-320.056	23.873	-0.435	-0.356
-319.041	395.779	-0.151	0.313
-318.026	227.722	0.330	-0.533
-317.012	146.560	-0.371	-0.495
-315.997	-114.282	0.263	-0.050
-314.983	-83.008	0.054	-0.017
-313.968	-150.872	-0.591	-0.044
-312.953	40.922	0.159	-0.142
-311.939	-177.014	-0.660	0.016
-310.924	800.000	-0.146	-0.545
-309.910	-6.377	0.794	-0.537
-308.895	-117.659	-0.385	-0.069
-307.880	172.706	0.142	0.203
-306.866	-87.467	0.718	-0.216
-305.851	-200.000	0.090	0.883
-304.837	-200.000	0.085	-0.809
-303.822	-200.000	0.012	1.061
-302.807	-47.007	0.591	0.286
-301.793	-70.112	-0.185	-0.070
-300.778	-139.994	0.262	-0.027
-299.764	-200.000	0.025	-0.522
-298.749	-200.000	0.039	0.196
-297.735	800.000	0.378	1.294
-296.720	-141.158	0.218	-0.022
-295.705	740.428	-0.274	-0.730
-294.691	-87.641	0.365	-0.109
-293.676	800.000	0.158	0.461
-292.662	-123.267	0.714	-0.113
-291.647	30.487	0.319	0.270
-290.632	-144.622	-0.380	0.035
-289.618	543.137	-0.257	-0.608
-288.603	130.552	-0.310	-0.394
-287.589	-200.000	-0.078	0.499
-286.574	-200.000	-0.060	0.428
-285.559	800.000	-0.031	-0.127
-284.545	-66.033	-0.533	-0.211
-283.530	-119.015	-1.042	0.181
-282.516	-53.242	-0.429	0.195
-281.501	-102.482	0.312	0.074
-280.486	800.000	-0.026	0.114
-279.472	800.000	-0.116	-0.360
-278.457	16.217	0.886	-0.693
-277.443	-129.477	0.782	0.107
-276.428	-26.242	-0.227	0.132
-275.413	800.000	0.052	-0.167
-274.399	-88.547	0.879	0.260
-273.384	91.359	0.285	-0.317
-272.370	33.721	0.156	0.135
-271.355	800.000	0.053	-0.229
-270.340	718.606	0.165	-0.435
-269.326	-4.499	0.810	0.555
-268.311	-12.219	0.238	0.154
-267.297	57.821	0.492	-0.477
-266.282	-67.080	0.677	-0.265
-265.267	695.714	-0.159	-0.415
-264.253	-200.000	0.006	0.156
-263.238	211.207	-0.247	-0.384
-262.224	663.885	0.313	-0.801
-261.209	800.000	0.185	-0.506
-260.195	-200.000	-0.089	-1.097
-259.180	238.543	0.093	-0.154
-258.165	-65.492	0.674	0.268
-257.151	-58.123	-0.306	-0.132
-256.136	106.839	0.172	-0.203
-255.122	367.625	0.167	-0.335
-254.107	-200.000	0.158	-1.167
-253.092	458.245	0.291	-0.642
-252.078	161.240	-0.103	-0.143
-251.063	631.215	0.023	-0.058
-250.049	597.280	-0.166	0.407
-249.034	-200.000	-0.018	-0.413
-248.019	-138.395	0.507	0.055
-247.005	310.949	0.271	-0.502
-245.990	86.471	0.531	0.580
-244.976	45.051	-0.752	-0.686
-243.961	-200.000	-0.113	-1.257
-242.946	113.079	0.243	0.292
-241.932	581.380	-0.108	0.262
-240.917	-184.973	0.129	-0.002
-239.903	114.358	0.792	-0.955
-238.888	-149.456	-0.285	0.022
-237.873	800.000	-0.180	-0.554
-236.859	-88.586	-0.828	0.244
-235.844	670.383	-0.004	-0.011
-234.830	-80.734	-0.438	-0.144
-233.815	255.440	-0.145	0.247
-232.800	-116.615	0.656	-0.119
-231.786	60.339	0.664	0.650
-230.771	-80.841	0.413	-0.136
-229.757	103.103	-0.573	-0.664
-228.742	-200.000	0.131	0.630
-227.727	-30.760	-0.615	0.345
-226.713	-35.871	0.084	0.045
-225.698	800.000	0.141	0.393
-224.684	-100.351	0.711	0.175
-223.669	800.000	-0.114	-0.320
-222.655	763.234	0.152	0.407
-221.640	-80.306	0.405	0.134
-220.625	-34.972	0.160	0.087
-219.611	-106.214	0.578	0.128
-218.596	-129.402	-0.970	0.133
-217.582	-41.859	-0.161	-0.081
-216.567	-125.353	0.880	-0.133
-215.552	672.476	0.195	0.501
-214.538	-88.551	-0.444	0.131
-213.523	-127.527	0.711	-0.102
-212.509	152.338	-0.232	0.313
-211.494	60.546	-0.316	0.310
-210.479	-32.713	-0.379	-0.209
-209.465	-200.000	-0.030	-0.201
-208.450	-6.048	-0.395	0.267
-207.436	43.869	-0.542	0.491
-206.421	-69.479	0.506	0.192
-205.406	2.920	0.180	-0.129
-204.392	-79.216	0.583	-0.195
-203.377	57.302	-0.227	-0.219
-202.363	120.023	0.054	-0.067
-201.348	-124.072	-0.761	0.118
-200.333	-74.918	-0.455	0.161
-199.319	-92.402	0.308	0.086
-198.304	-73.104	-0.305	-0.111
-197.290	144.621	-0.352	0.464
-196.275	253.880	-0.202	0.340
-195.260	20.065	-0.393	-0.313
-194.246	709.989	-0.078	0.203
-193.231	-14.495	-0.131	0.083
-192.217	48.551	-0.340	-0.315
-191.202	-54.978	0.280	0.125
-190.187	-63.046	0.378	-0.154
-189.173	309.202	-0.291	-0.538
-188.158	-200.000	-0.021	1.041
-187.144	407.147	0.136	0.285
-186.129	-53.081	-1.054	0.479
-185.114	-16.881	0.366	-0.229
-184.100	-173.339	0.557	-0.017
-183.085	242.588	-0.445	0.737
-182.071	800.000	-0.174	-0.688
-181.056	-76.515	-0.839	0.291
-180.042	59.943	-0.617	-0.602
-179.027	-123.913	0.843	-0.131
-178.012	171.936	0.145	-0.205
-176.998	-200.000	-0.104	-0.582
-175.983	105.274	-0.143	-0.167
-174.969	-200.000	0.008	-0.468
-173.954	54.888	0.249	0.237
-172.939	2.529	-0.318	0.227
-171.925	-200.000	-0.087	-0.613
-170.910	-130.174	0.506	0.068
-169.896	192.267	-0.124	-0.185
-168.881	-46.773	-0.057	-0.028
-167.866	7.945	-0.383	-0.283
-166.852	162.071	-0.426	-0.589
-165.837	800.000	0.149	-0.608
-164.823	16.904	-0.116	-0.091
-163.808	312.211	-0.262	0.485
-162.793	95.129	-0.273	-0.307
-161.779	309.159	-0.312	0.575
-160.764	33.357	0.491	0.421
-159.750	-200.000	-0.009	0.354
-158.735	-162.256	0.549	-0.027
-157.720	-200.000	-0.070	-0.572
-156.706	108.274	0.551	-0.649
-155.691	800.000	-0.197	0.577
-154.677	195.318	-0.502	-0.752
-153.662	78.067	0.347	0.365
-152.647	-89.748	-0.602	-0.174
-151.633	-121.054	-0.439	0.073
-150.618	152.165	-0.097	-0.131
-149.604	-190.349	0.166	-0.002
-148.589	-95.198	0.436	-0.116
-147.574	800.000	0.104	-0.437
-146.560	30.833	0.305	0.258
-145.545	37.594	0.333	-0.292
-144.531	-200.000	0.026	0.132
-143.516	16.494	0.827	-0.644
-142.502	575.510	-0.239	-0.575
-141.487	442.392	-0.120	0.260
-140.472	800.000	0.089	0.289
-139.458	613.738	-0.134	0.330
-138.443	209.701	-0.394	0.608
-137.429	-200.000	-0.015	0.196
-136.414	436.780	-0.039	0.084
-135.399	76.012	0.175	-0.183
-134.385	66.001	-0.652	-0.652
-133.370	706.368	-0.131	-0.340
-132.356	430.621	-0.219	0.468
-131.341	521.120	-0.187	-0.432
-130.326	-140.978	-0.529	-0.054
-129.312	-84.521	0.882	0.274
-128.297	255.977	-0.208	-0.351
-127.283	36.975	0.570	-0.497
-126.268	320.695	-0.212	0.397
-125.253	-88.973	-0.779	0.227
-124.239	5.644	-0.196	-0.143
-123.224	-15.343	0.766	0.483
-122.210	800.000	-0.119	-0.450
-121.195	-42.512	-0.400	-0.201
-120.180	149.305	0.355	0.474
