DTS Sentinel unit serial number:	SN413079Multiplexer serial number:	ORYXHardware model number:	OX4-SRSoftware version number:	ORYX F/W v4.00 Oryx Data Collector v3.7.2.0data status	okinstallation	princeton_trtdifferential loss correction	single-endedforward channel	channel 3reverse channel	N/Adate	2019/09/15time	13:44:35forward acquisition time	60.00reverse acquisition time	0.00gamma	496.2192k internal	0.2292k external	0.2292temperature offset calibration	0.9957default loss term (dB/km)	0.3790temperature slope calibration	1.0000multiplexer offset coefficient	1.0000multiplexer slope coefficient	1.0000fibre end	0.00T internal ref (°C)	37.95T ext. ref 1 (°C)	4.89T ext. ref 2 (°C)	35.22length (m)	temperature (°C)	Stokes	anti-Stokes-747.200	800.000	-0.116	0.363
-746.185	-6.969	0.022	0.016
-745.171	-145.615	0.202	0.019
-744.156	-67.534	-0.168	0.068
-743.142	-101.229	0.132	0.033
-742.127	800.000	-0.110	0.432
-741.112	-91.214	0.273	0.080
-740.098	-108.233	0.194	0.043
-739.083	-38.276	0.176	0.096
-738.069	-105.615	-0.373	0.087
-737.054	-200.000	0.002	-0.141
-736.039	141.313	-0.131	0.178
-735.025	800.000	-0.046	0.191
-734.010	-86.165	-0.077	0.024
-732.996	-106.263	0.078	0.018
-731.981	-59.117	-0.282	0.124
-730.966	-7.290	-0.158	0.109
-729.952	-43.913	-0.183	0.094
-728.937	237.417	-0.065	-0.111
-727.923	193.687	0.156	-0.241
-726.908	-200.000	0.050	-0.259
-725.894	503.880	-0.104	-0.247
-724.879	-126.993	-0.089	-0.013
-723.864	-200.000	0.008	-0.076
-722.850	15.144	-0.127	0.102
-721.835	130.763	-0.148	-0.194
-720.821	72.246	0.212	-0.226
-719.806	-120.092	0.198	-0.035
-718.791	93.947	-0.165	-0.191
-717.777	-200.000	0.010	-0.054
-716.762	-51.887	-0.290	-0.138
-715.748	-91.912	-0.208	0.060
-714.733	-138.907	0.085	0.009
-713.718	-85.672	0.227	0.072
-712.704	-64.704	0.140	-0.058
-711.689	-63.406	-0.230	0.097
-710.675	78.021	0.152	0.166
-709.660	-28.084	-0.249	0.147
-708.645	-200.000	0.016	0.076
-707.631	-88.695	-0.291	0.088
-706.616	800.000	-0.041	-0.177
-705.602	622.338	-0.081	-0.208
-704.587	354.571	-0.054	0.111
-703.572	-159.361	-0.219	-0.013
-702.558	-200.000	-0.002	0.273
-701.543	800.000	0.084	-0.285
-700.529	-76.950	0.162	-0.058
-699.514	36.923	0.145	0.131
-698.499	456.193	0.056	-0.127
-697.485	-200.000	-0.023	0.144
-696.470	800.000	0.051	-0.179
-695.456	31.866	-0.079	-0.070
-694.441	800.000	0.089	-0.310
-693.426	800.000	0.144	-0.573
-692.412	-95.024	0.259	0.071
-691.397	-24.283	-0.214	0.131
-690.383	29.041	0.076	-0.066
-689.368	-200.000	-0.039	-0.219
-688.354	-200.000	-0.000	0.027
-687.339	-88.318	-0.125	-0.038
-686.324	107.081	0.172	-0.209
-685.310	-128.970	-0.167	-0.024
-684.295	239.185	-0.108	-0.183
-683.281	-77.700	-0.222	0.079
-682.266	800.000	-0.026	-0.074
-681.251	-200.000	-0.010	0.161
-680.237	-110.683	-0.401	0.085
-679.222	-200.000	0.010	-0.169
-678.208	-111.573	0.212	-0.044
-677.193	800.000	0.005	-0.019
-676.178	-173.336	-0.123	0.004
-675.164	371.078	-0.134	-0.277
-674.149	43.946	-0.109	-0.102
-673.135	314.195	0.050	-0.097
-672.120	-20.701	-0.052	-0.033
-671.105	-112.014	-0.529	-0.109
-670.091	800.000	0.183	-0.550
-669.076	63.575	0.121	-0.124
-668.062	49.924	-0.172	-0.165
-667.047	-39.747	0.184	0.098
-666.032	-200.000	0.023	-0.305
-665.018	-93.208	0.026	-0.007
-664.003	-108.677	0.191	-0.042
-662.989	-8.893	-0.169	-0.116
-661.974	-200.000	-0.039	-0.276
-660.959	-147.495	-0.362	0.031
-659.945	109.875	-0.174	-0.213
-658.930	76.256	-0.120	-0.130
-657.916	-95.905	0.412	-0.112
-656.901	-164.558	0.245	-0.011
-655.886	-173.199	0.184	0.006
-654.872	-200.000	-0.063	-0.337
-653.857	78.793	0.228	-0.249
-652.843	-23.560	0.293	-0.179
-651.828	328.833	0.116	-0.227
-650.814	654.239	0.133	0.349
-649.799	95.671	-0.084	0.097
-648.784	-200.000	-0.044	0.266
-647.770	213.592	-0.073	0.118
-646.755	-112.787	0.058	0.012
-645.741	-10.897	-0.055	-0.037
-644.726	39.095	0.153	0.139
-643.711	-200.000	0.036	-0.192
-642.697	-200.000	-0.030	0.242
-641.682	-163.422	-0.308	0.015
-640.668	-200.000	-0.014	-0.179
-639.653	-151.551	-0.204	0.015
-638.638	11.088	0.137	-0.107
-637.624	-81.396	-0.124	-0.042
-636.609	-155.726	-0.188	0.012
-635.595	-150.560	-0.183	-0.014
-634.580	-62.658	0.062	0.026
-633.565	1.855	0.179	-0.132
-632.551	-62.296	-0.183	0.078
-631.536	800.000	-0.036	0.137
-630.522	-200.000	0.062	-0.279
-629.507	184.117	-0.067	0.101
-628.492	-10.230	-0.124	0.084
-627.478	31.708	0.232	0.203
-626.463	-200.000	0.026	0.260
-625.449	398.484	-0.104	-0.223
-624.434	-200.000	0.000	-0.062
-623.419	189.312	0.217	-0.332
-622.405	-73.877	-0.252	-0.093
-621.390	-200.000	-0.015	-0.139
-620.376	-200.000	-0.026	-0.312
-619.361	-63.850	-0.108	0.045
-618.346	297.061	0.121	0.226
-617.332	-56.295	-0.434	-0.196
-616.317	-152.465	0.155	-0.011
-615.303	-81.511	0.115	0.039
-614.288	-82.427	0.090	0.030
-613.273	-7.063	-0.253	-0.175
-612.259	-200.000	-0.094	-0.516
-611.244	491.461	-0.035	0.082
-610.230	-18.557	-0.098	-0.062
-609.215	-168.728	0.462	0.018
-608.201	-58.541	0.088	-0.039
-607.186	-134.768	-0.119	0.015
-606.171	-200.000	0.018	-0.416
-605.157	109.705	-0.227	-0.277
-604.142	238.823	-0.126	-0.213
-603.128	8.108	0.084	0.064
-602.113	368.030	0.088	0.180
-601.098	57.209	-0.062	0.062
-600.084	-57.795	-0.247	0.110
-599.069	794.018	0.114	-0.320
-598.055	800.000	-0.065	-0.255
-597.040	-17.384	0.154	-0.099
-596.025	-132.916	-0.172	-0.022
-595.011	460.333	0.195	0.442
-593.996	-200.000	0.042	-0.253
-592.982	423.175	0.063	-0.139
-591.967	167.161	0.049	0.070
-590.952	260.660	-0.125	-0.221
-589.938	740.793	-0.138	0.378
-588.923	639.860	0.022	-0.056
-587.909	-128.275	-0.222	0.032
-586.894	125.913	-0.116	0.149
-585.879	-200.000	-0.062	-0.314
-584.865	-55.283	-0.313	-0.143
-583.850	800.000	-0.074	0.276
-582.836	125.795	-0.144	0.185
-581.821	16.253	-0.303	0.243
-580.806	800.000	-0.081	-0.261
-579.792	94.905	-0.143	-0.165
-578.777	800.000	0.034	-0.152
-577.763	22.020	-0.336	-0.279
-576.748	-200.000	0.015	-0.200
-575.733	141.497	-0.149	-0.201
-574.719	-9.958	0.300	0.203
-573.704	-103.373	0.172	-0.041
-572.690	142.296	0.161	0.217
-571.675	800.000	-0.046	-0.156
-570.661	-37.973	-0.172	-0.093
-569.646	-63.099	0.427	0.179
-568.631	800.000	-0.074	-0.260
-567.617	-200.000	0.065	-0.327
-566.602	341.959	0.103	-0.204
-565.588	-11.528	0.302	-0.202
-564.573	61.047	0.099	-0.100
-563.558	-43.235	-0.128	0.066
-562.544	-90.840	0.328	0.096
-561.529	-80.855	0.273	-0.092
-560.515	35.769	-0.083	0.075
-559.500	-91.138	0.460	0.134
-558.485	800.000	-0.066	-0.214
-557.471	208.324	0.124	-0.198
-556.456	123.038	-0.105	-0.133
-555.442	326.052	-0.149	0.290
-554.427	392.277	-0.100	-0.210
-553.412	72.423	0.169	0.179
-552.398	-200.000	0.004	-0.054
-551.383	249.433	-0.147	-0.253
-550.369	-200.000	0.296	0.001
-549.354	-90.854	-0.122	0.036
-548.339	114.802	-0.160	0.198
-547.325	-200.000	-0.012	-0.093
-546.310	394.537	0.107	-0.226
-545.296	79.285	-0.053	-0.058
-544.281	-114.462	0.071	0.014
-543.266	360.632	-0.170	0.346
-542.252	-200.000	0.024	0.261
-541.237	112.608	0.013	-0.016
-540.223	218.516	0.060	0.097
-539.208	-164.001	-0.266	-0.013
-538.193	-73.545	0.151	-0.056
-537.179	-129.598	-0.214	-0.030
-536.164	-121.519	0.126	0.021
-535.150	578.083	-0.116	0.288
-534.135	45.689	-0.161	0.151
-533.121	-85.705	0.246	-0.077
-532.106	-23.066	-0.533	-0.326
-531.091	120.720	-0.140	0.176
-530.077	214.321	0.097	0.155
-529.062	800.000	0.036	0.147
-528.048	78.029	0.103	-0.111
-527.033	-200.000	0.020	-0.109
-526.018	-104.009	0.064	-0.015
-525.004	17.438	0.130	-0.104
-523.989	-79.858	-0.297	0.101
-522.975	-200.000	-0.020	-0.107
-521.960	81.786	0.154	0.170
-520.945	-136.037	-0.183	0.022
-519.931	-81.314	0.032	0.011
-518.916	14.850	0.243	0.192
-517.902	45.600	0.125	-0.118
-516.887	800.000	-0.085	-0.315
-515.872	-9.412	0.267	-0.181
-514.858	-56.940	0.108	-0.048
-513.843	-34.738	-0.043	-0.024
-512.829	-55.744	-0.309	-0.140
-511.814	-200.000	-0.016	-0.192
-510.799	-136.107	-0.234	-0.028
-509.785	-200.000	0.044	-0.295
-508.770	-200.000	0.044	-0.269
-507.756	-146.897	0.304	0.027
-506.741	378.833	0.032	-0.066
-505.726	702.289	0.054	0.145
-504.712	664.586	-0.042	-0.110
-503.697	-59.671	0.076	-0.033
-502.683	-107.309	0.073	-0.016
-501.668	-148.138	-0.300	-0.025
-500.653	189.031	0.203	0.309
-499.639	-200.000	-0.001	-0.202
-498.624	-200.000	0.129	-0.639
-497.610	336.091	-0.122	-0.240
-496.595	-160.786	-0.383	-0.021
-495.581	585.841	-0.145	-0.362
-494.566	-159.734	0.237	-0.013
-493.551	-200.000	0.018	-0.140
-492.537	-200.000	0.024	0.132
-491.522	-38.042	-0.140	0.075
-490.508	157.531	-0.114	-0.160
-489.493	-4.117	-0.099	0.070
-488.478	136.259	-0.277	0.365
-487.464	-2.806	-0.125	-0.089
-486.449	-55.816	0.369	0.167
-485.435	61.482	-0.271	0.273
-484.420	127.689	-0.186	0.240
-483.405	645.202	-0.056	-0.144
-482.391	-54.922	0.272	-0.124
-481.376	-158.002	-0.298	0.018
-480.362	-200.000	-0.050	0.252
-479.347	800.000	-0.099	-0.388
-478.332	-143.721	0.203	-0.020
-477.318	179.206	-0.026	-0.039
-476.303	-38.327	0.223	-0.120
-475.289	-200.000	-0.054	-0.315
-474.274	255.765	-0.047	-0.082
-473.259	-200.000	0.039	0.182
-472.245	-81.935	-0.149	-0.049
-471.230	82.771	-0.044	-0.048
-470.216	130.268	0.217	-0.282
-469.201	-22.769	-0.347	0.212
-468.186	-24.979	0.131	-0.079
-467.172	272.336	0.056	0.099
-466.157	-45.306	-0.094	-0.047
-465.143	338.326	0.126	0.247
-464.128	87.666	-0.132	-0.148
-463.113	339.300	0.005	0.011
-462.099	221.880	-0.036	-0.059
-461.084	-200.000	0.003	0.111
-460.070	67.667	0.121	-0.125
-459.055	-27.419	-0.166	0.098
-458.040	19.124	-0.189	0.154
-457.026	-200.000	0.004	0.110
-456.011	-99.689	0.166	-0.042
-454.997	-4.194	-0.184	-0.129
-453.982	-89.159	0.109	0.032
-452.968	-181.773	-0.140	-0.003
-451.953	-20.945	-0.152	0.094
-450.938	15.141	-0.214	0.169
-449.924	800.000	0.027	0.090
-448.909	-121.472	-0.079	-0.013
-447.895	-55.742	-0.063	0.028
-446.880	97.359	0.082	-0.095
-445.865	800.000	0.126	0.385
-444.851	-200.000	-0.013	-0.252
-443.836	-55.024	-0.137	-0.062
-442.822	-131.133	0.102	-0.014
-441.807	800.000	0.066	0.194
-440.792	286.800	0.106	0.194
-439.778	800.000	-0.082	0.265
-438.763	126.965	0.062	-0.079
-437.749	-90.246	-0.253	-0.074
-436.734	-83.565	0.033	-0.011
-435.719	-12.962	0.235	0.155
-434.705	372.750	0.093	-0.192
-433.690	800.000	0.104	0.376
-432.676	-158.679	0.633	-0.037
-431.661	-167.553	0.222	-0.009
-430.646	-200.000	-0.005	0.230
-429.632	-200.000	0.002	-0.573
-428.617	202.961	-0.046	0.072
-427.603	69.007	0.188	0.196
-426.588	9.770	-0.158	0.121
-425.573	302.473	-0.175	0.327
-424.559	-159.599	-0.198	0.011
-423.544	228.943	0.091	0.151
-422.530	101.810	0.218	0.257
-421.515	-38.733	0.165	0.088
-420.500	-200.000	-0.047	0.208
-419.486	135.607	-0.052	0.068
-418.471	156.580	0.145	-0.202
-417.457	-200.000	0.033	0.407
-416.442	356.459	0.051	-0.103
-415.428	-200.000	0.012	-0.268
-414.413	81.060	-0.143	-0.156
-413.398	-82.391	0.216	0.071
-412.384	800.000	-0.079	-0.240
-411.369	188.178	0.151	-0.229
-410.355	-57.477	-0.200	0.089
-409.340	-100.500	0.070	-0.018
-408.325	46.895	0.252	0.237
-407.311	-200.000	-0.006	0.157
-406.296	543.691	0.058	-0.139
-405.282	211.308	0.043	0.069
-404.267	626.754	-0.128	-0.325
-403.252	800.000	-0.039	0.126
-402.238	-1.687	0.078	-0.055
-401.223	-200.000	-0.032	0.145
-400.209	-121.597	-0.280	-0.047
-399.194	1.754	0.055	-0.040
-398.179	-200.000	0.008	-0.125
-397.165	-103.400	-0.257	-0.061
-396.150	-124.071	-0.083	-0.013
-395.136	800.000	-0.012	0.046
-394.121	134.244	-0.122	-0.159
-393.106	40.756	0.222	0.202
-392.092	-90.245	-0.098	-0.029
-391.077	227.900	-0.241	-0.396
-390.063	653.020	-0.048	0.124
-389.048	-114.387	-0.634	0.123
-388.033	470.941	0.069	0.157
-387.019	175.557	-0.131	0.191
-386.004	214.985	-0.087	0.139
-384.990	269.352	0.109	-0.193
-383.975	160.219	0.084	0.118
-382.960	-110.879	-0.168	0.035
-381.946	800.000	-0.121	-0.392
-380.931	-92.753	-0.198	0.056
-379.917	-71.771	-0.405	0.152
-378.902	-200.000	0.038	-0.312
-377.888	-35.007	0.207	-0.114
-376.873	-48.714	-0.145	0.070
-375.858	-19.004	0.181	0.113
-374.844	-200.000	-0.007	0.201
-373.829	346.356	0.023	-0.045
-372.815	0.096	-0.206	-0.148
-371.800	728.157	-0.088	0.236
-370.785	-117.593	0.182	0.033
-369.771	800.000	-0.048	-0.146
-368.756	-29.179	0.361	-0.209
-367.742	11.707	0.068	-0.052
-366.727	197.214	0.190	-0.293
-365.712	136.179	0.105	-0.138
-364.698	181.935	-0.349	0.518
-363.683	497.526	-0.065	0.150
-362.669	-200.000	-0.024	0.107
-361.654	-134.965	-0.220	0.027
-360.639	594.278	-0.186	-0.464
-359.625	-150.634	-0.398	-0.031
-358.610	-96.321	0.363	-0.097
-357.596	-200.000	-0.007	-0.447
-356.581	-10.168	0.091	-0.061
-355.566	99.977	0.017	-0.020
-354.552	-200.000	-0.010	-0.066
-353.537	-200.000	0.007	-0.119
-352.523	-200.000	-0.056	0.284
-351.508	343.807	0.037	0.073
-350.493	-158.076	-0.151	-0.009
-349.479	-86.241	0.136	-0.042
-348.464	128.785	0.194	0.249
-347.450	134.715	-0.052	-0.069
-346.435	25.368	0.278	-0.233
-345.420	-110.182	-0.098	-0.021
-344.406	-20.645	0.167	-0.103
-343.391	800.000	-0.065	0.192
-342.377	800.000	0.027	0.087
-341.362	-76.773	-0.277	0.098
-340.348	-0.022	0.207	-0.149
-339.333	-184.929	0.357	-0.006
-338.318	-48.489	-0.082	-0.040
-337.304	248.113	0.121	0.206
-336.289	569.962	0.103	-0.252
-335.275	70.847	-0.275	-0.286
-334.260	-200.000	0.016	0.176
-333.245	-200.000	0.000	0.089
-332.231	-200.000	-0.006	0.182
-331.216	-200.000	0.011	0.124
-330.202	-19.145	0.040	-0.025
-329.187	-139.369	0.147	0.016
-328.172	-200.000	0.012	-0.310
-327.158	-35.011	-0.146	-0.080
-326.143	-145.530	0.140	-0.013
-325.129	800.000	-0.084	0.285
-324.114	17.114	0.075	-0.059
-323.099	145.860	-0.064	-0.086
-322.085	-159.438	0.342	-0.019
-321.070	-200.000	0.025	0.252
-320.056	246.134	0.051	0.086
-319.041	-121.180	-0.056	-0.009
-318.026	2.698	-0.027	0.020
-317.012	-97.428	-0.232	0.061
-315.997	800.000	-0.140	0.520
-314.983	-173.791	-0.028	0.001
-313.968	444.317	0.149	0.329
-312.953	-200.000	0.022	0.102
-311.939	252.917	-0.325	0.558
-310.924	-200.000	-0.010	0.272
-309.910	72.725	-0.278	-0.292
-308.895	-17.245	-0.015	0.010
-307.880	800.000	0.053	0.150
-306.866	35.433	0.121	-0.107
-305.851	-200.000	0.004	-0.067
-304.837	800.000	0.086	-0.279
-303.822	-140.880	0.135	-0.014
-302.807	115.108	0.261	0.320
-301.793	86.463	0.243	0.269
-300.778	56.936	0.053	-0.052
-299.764	-99.624	-0.162	-0.041
-298.749	800.000	0.121	0.371
-297.735	-38.631	0.141	-0.075
-296.720	60.876	-0.057	0.057
-295.705	15.008	0.371	-0.292
-294.691	-200.000	0.027	-0.166
-293.676	-69.675	-0.180	0.069
-292.662	-200.000	0.306	0.001
-291.647	-145.437	0.186	-0.017
-290.632	800.000	-0.067	-0.215
-289.618	-78.540	0.293	0.101
-288.603	153.280	-0.075	-0.103
-287.589	800.000	0.086	-0.278
-286.574	204.347	0.095	0.148
-285.559	-200.000	0.018	-0.264
-284.545	800.000	-0.050	-0.143
-283.530	-19.205	0.094	0.059
-282.516	-91.334	-0.179	0.051
-281.501	-85.363	0.409	-0.128
-280.486	355.683	-0.117	0.233
-279.472	74.621	0.089	0.094
-278.457	298.104	0.070	-0.129
-277.443	87.514	0.082	0.091
-276.428	231.754	-0.093	0.153
-275.413	-78.983	-0.379	0.130
-274.399	-51.192	0.109	0.051
-273.384	-149.529	-0.194	0.015
-272.370	127.831	0.084	-0.107
-271.355	-200.000	0.008	0.159
-270.340	694.576	-0.124	0.326
-269.326	-143.454	-0.341	-0.033
-268.311	-200.000	-0.036	0.161
-267.297	-85.166	-0.131	-0.041
-266.282	41.730	0.100	0.091
-265.267	-200.000	-0.044	0.400
-264.253	-148.358	-0.099	-0.008
-263.238	743.500	0.048	0.130
-262.224	-200.000	-0.024	0.169
-261.209	163.423	-0.315	-0.444
-260.195	15.258	-0.172	0.135
-259.180	800.000	0.039	0.126
-258.165	-135.967	0.540	-0.064
-257.151	-5.747	-0.154	0.106
-256.136	-23.132	-0.285	-0.173
-255.122	-69.060	0.380	0.147
-254.107	361.606	0.045	0.090
-253.092	800.000	-0.068	-0.268
-252.078	164.207	0.169	0.239
-251.063	-200.000	-0.029	-0.195
-250.049	-36.603	-0.065	-0.035
-249.034	14.549	-0.312	-0.245
-248.019	78.252	0.171	0.183
-247.005	-24.394	0.141	-0.084
-245.990	-91.766	0.109	0.031
-244.976	117.201	-0.104	-0.129
-243.961	-58.980	-0.326	-0.141
-242.946	2.372	-0.150	-0.109
-241.932	-97.377	0.110	0.029
-240.917	89.072	-0.101	0.113
-239.903	-19.636	-0.332	0.206
-238.888	-78.273	-0.147	0.051
-237.873	396.528	-0.037	-0.078
-236.859	-200.000	0.054	0.263
-235.844	-125.489	0.078	0.012
-234.830	-185.472	-0.511	0.008
-233.815	-70.921	0.327	0.124
-232.800	202.615	0.075	0.117
-231.786	-65.491	0.161	0.065
-230.771	-72.754	0.296	-0.110
-229.757	169.883	0.169	0.242
-228.742	-200.000	-0.011	0.149
-227.727	-200.000	-0.013	0.452
-226.713	-200.000	0.043	0.426
-225.698	-101.471	-0.175	-0.043
-224.684	136.288	0.167	0.219
-223.669	-49.334	-0.150	-0.072
-222.655	-21.825	0.142	-0.087
-221.640	800.000	-0.080	-0.264
-220.625	-200.000	0.032	0.218
-219.611	413.734	-0.033	0.070
-218.596	424.351	-0.092	-0.199
-217.582	-200.000	0.009	0.231
-216.567	-200.000	0.025	-0.187
-215.552	54.406	-0.058	-0.056
-214.538	22.198	-0.090	0.074
-213.523	-200.000	-0.002	0.064
-212.509	354.960	-0.037	-0.073
-211.494	326.230	0.050	0.095
-210.479	28.687	0.004	-0.003
-209.465	-17.276	0.094	-0.060
-208.450	-200.000	-0.026	-0.120
-207.436	-160.907	0.226	-0.012
-206.421	-200.000	0.040	-0.221
-205.406	-138.686	0.086	0.009
-204.392	218.263	-0.219	0.350
-203.377	221.934	0.127	-0.204
-202.363	116.950	0.139	0.171
-201.348	405.853	0.076	0.160
-200.333	-200.000	0.036	-0.175
-199.319	669.213	-0.058	0.150
-198.304	-102.792	-0.245	0.058
-197.290	386.553	-0.078	0.162
-196.275	-86.860	0.125	-0.038
-195.260	-147.434	0.260	-0.022
-194.246	592.298	-0.068	-0.167
-193.231	-96.768	-0.185	-0.049
-192.217	-200.000	-0.025	-0.294
-191.202	-200.000	0.020	-0.189
-190.187	-200.000	-0.036	0.282
-189.173	-155.466	0.379	-0.025
-188.158	-137.110	-0.274	0.031
-187.144	138.777	0.104	0.136
-186.129	166.293	0.046	0.065
-185.114	114.536	0.264	0.322
-184.100	800.000	0.062	-0.189
-183.085	-41.950	0.556	0.285
-182.071	-178.182	0.065	-0.002
-181.056	134.127	0.196	-0.254
-180.042	-200.000	-0.051	0.277
-179.027	-13.114	0.040	-0.026
-178.012	172.911	-0.098	-0.142
-176.998	-200.000	0.009	0.289
-175.983	34.884	-0.157	0.137
-174.969	800.000	-0.024	-0.087
-173.954	-200.000	0.020	-0.222
-172.939	-74.554	0.293	0.106
-171.925	356.941	-0.050	-0.100
-170.910	188.842	-0.053	-0.079
-169.896	-200.000	0.002	-0.429
-168.881	800.000	-0.092	0.379
-167.866	168.278	-0.057	0.082
-166.852	338.497	0.121	-0.236
-165.837	64.240	0.226	0.228
-164.823	19.157	0.176	-0.142
-163.808	-109.689	-0.218	0.046
-162.793	-200.000	0.034	-0.403
-161.779	130.227	0.273	-0.350
-160.764	26.225	-0.161	-0.135
-159.750	-0.805	0.081	0.057
-158.735	149.590	0.058	0.079
-157.720	-200.000	-0.005	0.228
-156.706	184.805	0.157	0.232
-155.691	-49.729	0.237	0.113
-154.677	15.216	0.101	-0.079
-153.662	-155.025	0.293	0.019
-152.647	512.920	0.172	0.401
-151.633	133.201	-0.076	-0.098
-150.618	-200.000	-0.021	0.292
-149.604	214.453	0.145	0.230
-148.589	66.890	-0.087	-0.088
-147.574	-108.945	-0.078	-0.017
-146.560	-75.032	0.383	-0.137
-145.545	-86.737	0.399	-0.122
-144.531	-70.126	0.148	0.056
-143.516	-200.000	0.003	-0.062
-142.502	-27.822	0.137	-0.080
-141.487	52.405	0.352	-0.336
-140.472	-200.000	-0.019	-0.395
-139.458	800.000	0.136	0.400
-138.443	-200.000	-0.012	-0.295
-137.429	104.446	0.128	-0.151
-136.414	800.000	0.054	-0.234
-135.399	800.000	-0.038	-0.110
-134.385	-93.639	-0.092	0.025
-133.370	782.658	-0.110	-0.300
-132.356	114.715	0.006	0.007
-131.341	-200.000	-0.060	0.352
-130.326	95.958	-0.168	-0.191
-129.312	-137.264	-0.257	-0.029
-128.297	-47.405	-0.250	-0.121
-127.283	-200.000	0.004	0.187
-126.268	-200.000	-0.014	0.064
-125.253	-170.110	0.258	0.009
-124.239	-200.000	0.048	0.244
-123.224	800.000	-0.034	0.124
