DTS Sentinel unit serial number:	SN413079Multiplexer serial number:	ORYXHardware model number:	OX4-SRSoftware version number:	ORYX F/W v4.00 Oryx Data Collector v3.7.2.0data status	okinstallation	princeton_trtdifferential loss correction	single-endedforward channel	channel 3reverse channel	N/Adate	2019/09/17time	00:48:35forward acquisition time	60.00reverse acquisition time	0.00gamma	496.2192k internal	0.2324k external	0.2324temperature offset calibration	0.9944default loss term (dB/km)	0.3790temperature slope calibration	1.0000multiplexer offset coefficient	1.0000multiplexer slope coefficient	1.0000fibre end	0.00T internal ref (°C)	29.44T ext. ref 1 (°C)	0.10T ext. ref 2 (°C)	24.05length (m)	temperature (°C)	Stokes	anti-Stokes-747.200	134.072	0.346	0.452
-746.185	-47.519	-0.114	0.056
-745.171	179.717	-0.061	-0.091
-744.156	98.881	-0.100	0.116
-743.142	217.363	-0.240	0.385
-742.127	-86.224	-0.225	0.070
-741.112	-200.000	-0.036	-0.197
-740.098	-55.347	-0.236	0.107
-739.083	393.374	0.118	0.248
-738.069	-84.175	-0.288	0.092
-737.054	-159.273	-0.534	-0.030
-736.039	-48.072	0.151	-0.073
-735.025	83.228	0.109	0.120
-734.010	-96.096	0.147	-0.039
-732.996	162.322	-0.109	-0.154
-731.981	-147.509	0.467	-0.040
-730.966	79.652	0.183	0.198
-729.952	218.309	0.004	0.007
-728.937	185.507	-0.084	0.125
-727.923	38.505	-0.311	0.279
-726.908	-116.451	0.257	0.048
-725.894	-135.099	-0.139	-0.017
-724.879	127.095	0.087	-0.112
-723.864	-139.443	0.161	-0.017
-722.850	-123.092	-0.222	-0.036
-721.835	207.180	0.088	0.139
-720.821	-10.607	-0.140	-0.093
-719.806	-200.000	0.012	-0.385
-718.791	-92.630	0.125	0.035
-717.777	-200.000	0.032	-0.309
-716.762	800.000	-0.051	-0.159
-715.748	-6.267	-0.094	-0.065
-714.733	369.061	0.065	0.133
-713.718	-46.382	0.198	0.098
-712.704	-81.933	-0.469	0.155
-711.689	97.824	0.073	-0.084
-710.675	124.636	-0.221	-0.280
-709.660	446.081	-0.155	0.344
-708.645	-200.000	-0.004	-0.069
-707.631	-33.027	0.045	0.025
-706.616	-200.000	-0.015	-0.359
-705.602	61.009	-0.123	0.123
-704.587	-200.000	0.078	-0.438
-703.572	202.797	-0.172	-0.267
-702.558	82.083	-0.408	-0.446
-701.543	-66.278	-0.332	0.133
-700.529	-200.000	0.034	-0.280
-699.514	-103.658	-0.252	-0.060
-698.499	-123.364	-0.164	0.026
-697.485	211.612	-0.098	0.155
-696.470	12.513	0.111	-0.086
-695.456	-113.500	-0.220	-0.043
-694.441	313.474	0.054	-0.103
-693.426	-182.634	-0.443	-0.008
-692.412	-5.020	0.223	0.155
-691.397	544.786	0.153	-0.368
-690.383	-200.000	0.029	-0.141
-689.368	-200.000	-0.015	0.269
-688.354	4.201	0.129	0.095
-687.339	17.167	0.259	-0.207
-686.324	-38.086	-0.439	-0.235
-685.310	-113.016	-0.165	-0.033
-684.295	100.772	0.125	-0.147
-683.281	-147.110	-0.384	-0.033
-682.266	800.000	0.066	0.255
-681.251	250.476	0.047	0.080
-680.237	-7.880	-0.225	-0.153
-679.222	-76.082	-0.078	0.028
-678.208	-61.167	-0.201	0.085
-677.193	386.869	-0.084	-0.174
-676.178	-43.773	0.084	-0.043
-675.164	-200.000	-0.001	-0.224
-674.149	800.000	0.083	-0.264
-673.135	496.351	0.122	-0.282
-672.120	81.116	0.146	-0.158
-671.105	-8.578	0.159	-0.108
-670.091	-34.099	0.129	-0.072
-669.076	-200.000	-0.024	0.238
-668.062	-9.584	-0.025	-0.017
-667.047	359.297	-0.150	-0.302
-666.032	-105.790	0.484	0.110
-665.018	-178.971	-0.373	0.008
-664.003	800.000	0.080	0.286
-662.989	-22.990	-0.224	0.136
-661.974	-200.000	0.014	-0.099
-660.959	-74.661	-0.150	-0.054
-659.945	9.477	0.314	-0.239
-658.930	-5.215	-0.073	-0.050
-657.916	-3.251	0.178	0.125
-656.901	213.388	-0.113	-0.179
-655.886	-93.128	-0.016	-0.005
-654.872	-200.000	-0.035	-0.248
-653.857	-83.504	0.088	-0.028
-652.843	242.011	0.123	-0.207
-651.828	138.878	0.190	-0.251
-650.814	-200.000	-0.037	0.165
-649.799	31.383	-0.080	-0.069
-648.784	99.689	0.224	-0.261
-647.770	-66.443	0.229	-0.092
-646.755	-62.842	0.261	-0.109
-645.741	-120.491	-0.310	0.053
-644.726	-92.544	0.247	-0.070
-643.711	45.903	-0.264	-0.245
-642.697	718.260	-0.035	0.092
-641.682	-14.432	0.245	-0.158
-640.668	-200.000	-0.006	-0.144
-639.653	660.781	-0.019	-0.049
-638.638	35.282	-0.218	-0.192
-637.624	-1.315	-0.234	-0.166
-636.609	303.973	-0.169	0.314
-635.595	800.000	-0.006	-0.024
-634.580	-183.879	0.298	0.005
-633.565	70.156	-0.221	0.229
-632.551	-6.032	-0.324	0.223
-631.536	800.000	-0.040	-0.162
-630.522	523.397	-0.005	-0.012
-629.507	-131.461	-0.160	0.021
-628.492	69.541	0.149	-0.154
-627.478	677.545	0.105	-0.274
-626.463	81.699	0.095	0.104
-625.449	520.428	-0.079	-0.186
-624.434	-102.065	0.251	-0.061
-623.419	-190.430	0.084	0.001
-622.405	242.340	0.177	-0.298
-621.390	-34.805	0.234	-0.128
-620.376	-16.127	0.263	0.168
-619.361	800.000	0.082	-0.306
-618.346	-136.350	-0.092	-0.011
-617.332	130.943	0.114	-0.147
-616.317	-144.269	-0.293	-0.027
-615.303	438.780	-0.109	0.239
-614.288	69.972	0.061	-0.063
-613.273	-200.000	-0.020	-0.233
-612.259	-200.000	-0.016	-0.080
-611.244	-3.145	-0.165	0.116
-610.230	-92.263	-0.133	0.038
-609.215	-200.000	0.013	0.245
-608.201	-170.684	-0.236	0.008
-607.186	31.336	0.061	0.053
-606.171	518.195	-0.021	-0.049
-605.157	154.861	-0.263	0.363
-604.142	-137.111	0.142	-0.016
-603.128	247.889	0.194	-0.329
-602.113	-194.521	0.076	0.001
-601.098	-129.398	-0.206	-0.029
-600.084	456.485	0.061	-0.135
-599.069	-96.039	0.341	0.091
-598.055	62.648	0.190	0.191
-597.040	-10.884	0.094	0.062
-596.025	-22.311	-0.258	0.157
-595.011	-200.000	0.032	0.184
-593.996	-200.000	0.031	-0.217
-592.982	-177.693	-0.135	0.003
-591.967	800.000	-0.057	0.168
-590.952	222.695	-0.181	-0.292
-589.938	800.000	-0.048	-0.154
-588.923	800.000	0.007	-0.023
-587.909	285.221	0.115	0.209
-586.894	16.217	0.183	-0.145
-585.879	-200.000	-0.009	-0.087
-584.865	-200.000	-0.037	0.238
-583.850	-200.000	-0.000	-0.093
-582.836	-114.968	0.193	0.037
-581.821	-37.770	0.165	0.088
-580.806	15.869	-0.137	-0.108
-579.792	-52.616	0.137	-0.063
-578.777	348.125	0.082	-0.162
-577.763	800.000	0.035	-0.119
-576.748	-54.165	-0.294	-0.134
-575.733	139.323	-0.053	-0.070
-574.719	-21.384	0.273	-0.167
-573.704	689.590	0.017	-0.044
-572.690	-200.000	-0.040	0.189
-571.675	-132.961	0.231	0.029
-570.661	800.000	-0.013	0.045
-569.646	-37.591	-0.412	-0.220
-568.631	-200.000	0.012	-0.387
-567.617	597.754	-0.146	-0.364
-566.602	73.736	0.079	-0.084
-565.588	-123.763	-0.185	0.029
-564.573	-20.605	0.255	-0.157
-563.558	-109.490	-0.123	-0.026
-562.544	-200.000	0.010	-0.454
-561.529	-142.139	-0.345	0.034
-560.515	-114.040	0.351	-0.068
-559.500	129.500	-0.311	-0.398
-558.485	-11.739	-0.267	-0.175
-557.471	47.883	-0.107	-0.100
-556.456	-200.000	0.002	-0.174
-555.442	-136.861	0.340	0.039
-554.427	800.000	0.028	-0.077
-553.412	-200.000	0.044	-0.267
-552.398	-52.771	0.190	0.088
-551.383	-109.466	-0.234	-0.050
-550.369	67.803	0.074	-0.076
-549.354	800.000	0.107	-0.436
-548.339	800.000	0.014	0.056
-547.325	-200.000	-0.043	-0.220
-546.310	507.473	-0.192	-0.446
-545.296	-54.064	-0.186	-0.085
-544.281	-118.073	-0.076	0.014
-543.266	-200.000	-0.028	0.265
-542.252	1.844	-0.314	0.227
-541.237	-110.918	0.082	0.017
-540.223	272.432	-0.175	-0.310
-539.208	69.782	-0.116	0.120
-538.193	477.151	-0.062	-0.140
-537.179	157.221	-0.057	-0.080
-536.164	-46.968	-0.208	0.102
-535.150	-200.000	0.039	-0.217
-534.135	2.662	-0.295	0.214
-533.121	-165.608	-0.280	-0.012
-532.106	281.511	-0.080	0.144
-531.091	-192.106	-0.187	0.002
-530.077	351.132	0.151	-0.300
-529.062	800.000	0.106	-0.300
-528.048	181.418	-0.127	0.187
-527.033	266.223	0.111	0.194
-526.018	171.356	0.098	0.141
-525.004	620.266	-0.057	0.144
-523.989	189.193	0.010	0.015
-522.975	-92.792	-0.303	0.085
-521.960	-40.597	-0.139	-0.072
-520.945	300.856	0.137	0.254
-519.931	-151.918	0.160	-0.012
-518.916	-58.700	-0.203	-0.088
-517.902	67.806	-0.057	-0.058
-516.887	-81.399	-0.177	0.058
-515.872	-200.000	0.003	-0.266
-514.858	800.000	-0.045	0.157
-513.843	-87.356	-0.059	-0.018
-512.829	2.160	0.238	-0.172
-511.814	155.070	0.055	0.076
-510.799	-200.000	-0.011	-0.195
-509.785	100.812	0.099	0.115
-508.770	800.000	-0.051	0.157
-507.756	-119.793	0.162	0.028
-506.741	-200.000	0.054	-0.254
-505.726	107.397	-0.099	-0.118
-504.712	-200.000	-0.008	0.238
-503.697	191.919	0.105	-0.159
-502.683	56.710	-0.060	0.059
-501.668	411.141	0.094	-0.200
-500.653	-200.000	-0.038	0.211
-499.639	-91.276	0.215	-0.062
-498.624	105.326	-0.317	-0.374
-497.610	-200.000	0.011	-0.206
-496.595	-77.025	0.168	-0.059
-495.581	-32.230	0.203	-0.113
-494.566	-200.000	0.018	0.191
-493.551	-108.843	-0.218	0.047
-492.537	-200.000	-0.068	0.431
-491.522	-157.818	0.368	-0.022
-490.508	50.346	-0.128	-0.121
-489.493	-58.584	-0.084	-0.036
-488.478	-34.799	-0.190	-0.104
-487.464	114.093	-0.117	-0.142
-486.449	235.527	-0.120	-0.198
-485.435	310.245	0.158	-0.296
-484.420	82.722	0.102	-0.111
-483.405	-45.784	-0.195	0.096
-482.391	240.237	-0.108	0.179
-481.376	129.613	-0.075	0.095
-480.362	-87.115	-0.122	0.037
-479.347	65.583	-0.065	0.065
-478.332	800.000	0.091	0.385
-477.318	483.292	0.091	0.206
-476.303	149.814	0.119	-0.162
-475.289	800.000	0.060	0.188
-474.274	-97.556	-0.074	0.019
-473.259	-128.219	-0.261	-0.037
-472.245	-122.127	0.336	0.055
-471.230	78.617	-0.105	-0.112
-470.216	55.076	0.138	0.134
-469.201	-38.273	-0.080	0.042
-468.186	-135.822	0.027	0.003
-467.172	-36.713	-0.274	0.147
-466.157	510.978	0.075	-0.175
-465.143	-87.394	-0.365	-0.111
-464.128	-200.000	-0.033	-0.277
-463.113	-160.209	-0.491	-0.027
-462.099	102.024	0.265	-0.308
-461.084	800.000	0.086	0.357
-460.070	92.298	-0.129	-0.146
-459.055	-1.189	-0.288	-0.203
-458.040	-57.403	0.291	-0.127
-457.026	-82.599	0.187	0.060
-456.011	-200.000	0.029	0.398
-454.997	756.414	-0.031	-0.084
-453.982	-28.150	0.053	0.031
-452.968	34.926	-0.182	-0.159
-451.953	-34.650	-0.158	-0.086
-450.938	20.051	-0.151	0.122
-449.924	224.712	-0.161	-0.260
-448.909	-200.000	0.003	-0.086
-447.895	724.354	-0.083	0.221
-446.880	-134.309	0.395	0.048
-445.865	-200.000	0.014	0.211
-444.851	-1.074	0.200	-0.141
-443.836	48.307	0.116	0.108
-442.822	203.747	0.166	-0.256
-441.807	-72.266	-0.308	-0.114
-440.792	-144.323	0.278	-0.026
-439.778	63.732	-0.265	0.265
-438.763	-96.464	-0.299	0.079
-437.749	-171.185	0.102	0.003
-436.734	800.000	0.082	-0.315
-435.719	-200.000	-0.009	0.065
-434.705	-25.046	-0.103	-0.061
-433.690	-15.915	-0.212	0.134
-432.676	44.619	0.116	-0.106
-431.661	54.556	0.236	-0.227
-430.646	399.584	-0.118	0.246
-429.632	162.776	-0.109	0.152
-428.617	91.246	-0.067	0.075
-427.603	-12.398	0.310	-0.202
-426.588	-200.000	-0.032	-0.218
-425.573	-138.486	-0.344	-0.038
-424.559	316.049	0.021	0.039
-423.544	-200.000	-0.005	-0.110
-422.530	317.175	-0.022	-0.042
-421.515	-138.773	0.132	0.014
-420.500	211.043	-0.089	0.140
-419.486	734.725	0.078	0.208
-418.471	-11.331	-0.286	0.188
-417.457	188.998	0.096	-0.143
-416.442	-8.692	-0.434	0.290
-415.428	-200.000	0.001	0.246
-414.413	800.000	0.064	0.268
-413.398	-91.268	-0.198	-0.056
-412.384	-200.000	0.007	0.269
-411.369	-163.911	0.103	0.005
-410.355	5.613	-0.091	-0.067
-409.340	-79.513	-0.320	-0.108
-408.325	-49.986	0.210	0.099
-407.311	-140.732	0.326	-0.034
-406.296	-114.916	-0.423	0.080
-405.282	-147.635	0.111	-0.009
-404.267	-200.000	0.060	0.353
-403.252	800.000	0.030	0.104
-402.238	52.167	-0.065	-0.062
-401.223	-200.000	0.057	0.492
-400.209	-83.552	-0.062	0.020
-399.194	311.296	-0.081	0.151
-398.179	-126.214	0.163	-0.024
-397.165	41.539	-0.382	0.344
-396.150	79.092	-0.194	0.207
-395.136	-131.406	0.117	0.015
-394.121	-188.774	0.197	0.002
-393.106	-200.000	0.010	0.128
-392.092	-78.377	0.140	0.048
-391.077	-110.963	-0.216	-0.044
-390.063	-122.933	-0.207	-0.033
-389.048	-28.070	-0.316	-0.182
-388.033	-200.000	-0.004	-0.364
-387.019	48.245	-0.201	-0.187
-386.004	559.846	-0.069	-0.165
-384.990	-48.315	-0.380	0.183
-383.975	-90.820	-0.326	-0.093
-382.960	-97.350	0.228	-0.059
-381.946	-135.229	-0.160	-0.019
-380.931	-200.000	0.003	0.250
-379.917	234.413	-0.144	0.236
-378.902	249.943	-0.200	0.337
-377.888	-148.022	0.402	0.033
-376.873	191.285	0.055	0.083
-375.858	122.102	0.194	0.241
-374.844	-200.000	-0.021	0.161
-373.829	277.149	-0.213	0.377
-372.815	37.390	0.139	-0.123
-371.800	152.311	-0.111	-0.151
-370.785	401.029	0.039	-0.081
-369.771	421.656	-0.180	0.383
-368.756	-59.906	-0.212	0.090
-367.742	-92.401	0.347	-0.097
-366.727	800.000	-0.062	0.240
-365.712	-8.895	0.171	0.114
-364.698	-171.260	0.125	0.004
-363.683	314.619	0.122	-0.229
-362.669	-47.012	-0.106	0.051
-361.654	581.136	0.109	-0.266
-360.639	-52.116	0.236	0.109
-359.625	14.845	0.264	0.205
-358.610	-200.000	0.036	0.201
-357.596	138.279	0.129	-0.169
-356.581	-44.442	0.230	0.114
-355.566	-10.147	-0.112	-0.074
-354.552	-111.191	0.039	0.008
-353.537	62.046	-0.149	0.147
-352.523	24.914	0.205	-0.169
-351.508	-75.212	0.285	0.101
-350.493	14.411	0.195	-0.151
-349.479	38.366	0.119	0.105
-348.464	174.379	-0.147	-0.211
-347.450	396.963	0.022	0.046
-346.435	15.710	-0.145	0.113
-345.420	-43.854	-0.233	0.116
-344.406	156.255	-0.145	-0.198
-343.391	-95.803	0.089	-0.024
-342.377	-150.869	-0.227	-0.017
-341.362	800.000	-0.131	-0.432
-340.348	-49.158	0.085	0.041
-339.333	-125.823	0.349	-0.052
-338.318	-200.000	-0.037	-0.273
-337.304	208.972	0.062	0.096
-336.289	39.215	0.171	-0.152
-335.275	-143.746	-0.295	0.028
-334.260	-123.222	0.204	-0.032
-333.245	575.737	-0.055	-0.133
-332.231	103.825	0.082	-0.095
-331.216	800.000	0.084	0.241
-330.202	-200.000	-0.016	-0.070
-329.187	-73.739	0.429	-0.155
-328.172	-137.494	-0.154	0.017
-327.158	-74.556	-0.217	0.077
-326.143	-72.040	-0.049	0.018
-325.129	64.890	0.214	0.214
-324.114	-88.760	0.459	-0.135
-323.099	194.743	0.193	-0.290
-322.085	-111.588	0.279	-0.056
-321.070	-101.964	0.309	-0.074
-320.056	800.000	0.052	0.221
-319.041	-200.000	0.041	-0.285
-318.026	-83.081	0.143	0.046
-317.012	110.211	-0.286	0.341
-315.997	-110.337	0.456	-0.094
-314.983	234.381	0.145	0.238
-313.968	-119.763	-0.057	-0.010
-312.953	-1.570	0.393	-0.275
-311.939	-200.000	-0.038	-0.439
-310.924	800.000	0.040	-0.163
-309.910	-100.950	-0.091	0.022
-308.895	631.008	0.133	0.334
-307.880	-50.228	0.240	-0.113
-306.866	-200.000	0.036	-0.175
-305.851	21.152	0.127	0.102
-304.837	49.949	0.222	-0.208
-303.822	-68.089	-0.220	0.085
-302.807	469.829	0.154	0.343
-301.793	-100.623	-0.375	-0.092
-300.778	261.362	-0.024	-0.041
-299.764	-187.235	-0.087	-0.001
-298.749	-87.985	0.125	0.037
-297.735	398.542	0.069	0.142
-296.720	46.197	-0.006	0.005
-295.705	31.517	0.426	0.363
-294.691	507.687	-0.045	0.103
-293.676	-136.714	0.245	0.028
-292.662	800.000	0.055	-0.174
-291.647	-69.129	0.056	-0.021
-290.632	273.601	-0.042	0.074
-289.618	-17.207	-0.531	-0.332
-288.603	-200.000	0.012	-0.089
-287.589	9.062	0.146	-0.109
-286.574	-200.000	0.070	-0.389
-285.559	58.993	-0.018	-0.018
-284.545	800.000	-0.052	-0.152
-283.530	-124.619	0.269	0.041
-282.516	-200.000	0.003	-0.132
-281.501	-22.139	-0.328	-0.197
-280.486	587.393	0.036	-0.088
-279.472	-133.179	0.221	-0.028
-278.457	423.322	0.130	0.277
-277.443	117.457	0.127	-0.155
-276.428	691.936	0.106	-0.275
-275.413	-132.603	-0.259	-0.033
-274.399	103.948	0.056	-0.065
-273.384	800.000	0.050	0.153
-272.370	547.222	-0.070	0.166
-271.355	-87.555	-0.026	0.008
-270.340	800.000	-0.100	-0.363
-269.326	-56.074	0.306	0.135
-268.311	-20.512	-0.099	-0.060
-267.297	30.711	0.226	0.192
-266.282	-25.227	0.246	0.144
-265.267	-200.000	-0.005	0.093
-264.253	146.087	0.095	0.126
-263.238	133.592	0.092	0.118
-262.224	175.090	-0.059	-0.084
-261.209	84.143	-0.206	0.223
-260.195	800.000	-0.069	0.245
-259.180	-20.013	-0.082	-0.050
-258.165	-175.354	0.165	0.004
-257.151	42.278	-0.130	0.117
-256.136	770.435	0.098	0.266
-255.122	-95.820	0.386	0.102
-254.107	-180.841	0.317	-0.006
-253.092	347.749	-0.118	-0.230
-252.078	-126.578	0.111	-0.016
-251.063	-139.966	-0.032	-0.003
-250.049	-139.644	-0.069	-0.007
-249.034	-137.477	-0.211	-0.024
-248.019	-158.055	0.170	-0.010
-247.005	-200.000	-0.045	-0.198
-245.990	-33.490	-0.310	0.169
-244.976	-10.266	0.226	-0.148
-243.961	103.463	0.131	0.152
-242.946	-200.000	-0.071	-0.320
-241.932	627.603	0.063	-0.158
-240.917	-19.402	0.327	-0.200
-239.903	-115.286	0.039	0.007
-238.888	6.724	-0.069	-0.051
-237.873	-54.054	0.163	0.073
-236.859	-42.591	-0.158	0.080
-235.844	110.489	0.119	0.141
-234.830	67.974	-0.097	-0.098
-233.815	106.247	-0.077	0.090
-232.800	800.000	0.090	-0.294
-231.786	800.000	-0.165	0.576
-230.771	16.037	0.031	-0.024
-229.757	800.000	-0.072	0.203
-228.742	-16.395	-0.211	-0.132
-227.727	-87.863	0.179	0.053
-226.713	-200.000	0.101	0.468
-225.698	-200.000	-0.028	0.435
-224.684	212.187	0.066	0.103
-223.669	-33.098	0.179	-0.098
-222.655	325.512	0.158	0.300
-221.640	131.393	0.042	-0.053
-220.625	-200.000	0.003	-0.050
-219.611	-32.162	0.170	0.094
-218.596	103.880	0.199	0.231
-217.582	-183.629	-0.139	-0.002
-216.567	-39.896	0.240	0.124
-215.552	-122.486	0.383	0.062
-214.538	92.191	0.076	0.084
-213.523	-56.794	-0.276	0.120
-212.509	425.519	-0.111	0.236
-211.494	-57.415	-0.430	-0.187
-210.479	-200.000	-0.006	0.230
-209.465	318.519	0.076	0.142
-208.450	-200.000	0.040	-0.173
-207.436	58.384	0.056	0.055
-206.421	800.000	-0.080	0.235
-205.406	-135.309	-0.161	0.019
-204.392	-10.166	0.138	-0.091
-203.377	-102.688	-0.098	-0.023
-202.363	-135.982	-0.135	-0.016
-201.348	686.216	0.034	0.088
-200.333	-200.000	-0.011	-0.105
-199.319	800.000	-0.035	-0.131
-198.304	-200.000	-0.028	-0.178
-197.290	-200.000	0.028	-0.142
-196.275	-12.072	-0.182	0.118
-195.260	-112.854	-0.320	-0.063
-194.246	800.000	0.055	0.223
-193.231	-39.883	0.179	-0.092
-192.217	800.000	0.047	0.194
-191.202	800.000	-0.081	0.264
-190.187	78.128	-0.240	-0.253
-189.173	29.585	0.265	-0.223
-188.158	-200.000	-0.018	0.222
-187.144	333.985	-0.102	0.195
-186.129	34.169	0.335	-0.288
-185.114	139.050	-0.102	0.132
-184.100	-113.359	0.364	0.070
-183.085	226.299	-0.135	0.217
-182.071	-200.000	-0.012	0.143
-181.056	691.842	-0.012	0.032
-180.042	-77.281	-0.267	0.092
-179.027	-200.000	-0.047	-0.269
-178.012	-112.304	0.343	-0.068
-176.998	-69.573	-0.341	0.129
-175.983	221.349	0.131	-0.207
-174.969	60.834	0.131	0.128
-173.954	-200.000	0.012	0.153
-172.939	-200.000	0.007	0.439
-171.925	800.000	-0.052	-0.161
-170.910	301.398	0.056	0.102
-169.896	410.607	-0.024	-0.050
-168.881	-70.485	0.342	0.128
-167.866	5.762	-0.203	0.148
-166.852	-23.468	-0.134	0.079
-165.837	48.279	-0.414	0.382
-164.823	13.820	-0.124	0.095
-163.808	88.457	0.019	0.020
-162.793	-200.000	-0.030	-0.250
-161.779	117.280	-0.153	0.185
-160.764	8.685	0.206	-0.153
-159.750	-200.000	-0.041	-0.180
-158.735	73.007	-0.145	0.149
-157.720	800.000	0.058	0.202
-156.706	800.000	0.116	0.355
-155.691	-32.493	0.425	-0.234
-154.677	-79.511	-0.249	0.083
-153.662	65.163	-0.235	-0.235
-152.647	10.185	-0.250	0.187
-151.633	-200.000	-0.046	0.453
-150.618	-97.897	-0.189	0.048
-149.604	-150.284	0.094	0.007
-148.589	8.719	0.104	0.077
-147.574	60.085	0.157	0.153
-146.560	537.090	-0.236	0.552
-145.545	-122.320	-0.392	-0.063
-144.531	-17.984	-0.123	0.076
-143.516	-140.731	0.303	-0.031
-142.502	119.424	-0.183	0.223
-141.487	-74.105	-0.137	-0.049
-140.472	-200.000	-0.052	0.282
-139.458	-70.874	-0.414	0.154
-138.443	-200.000	-0.019	0.131
-137.429	-66.101	-0.556	-0.219
-136.414	272.387	0.102	-0.177
-135.399	641.504	0.079	-0.198
-134.385	-170.303	-0.180	0.006
-133.370	-200.000	0.011	0.621
-132.356	-129.003	0.272	-0.038
-131.341	-139.245	0.046	0.005
-130.326	513.648	0.089	-0.205
-129.312	-18.115	0.134	-0.083
-128.297	53.699	0.254	0.240
-127.283	-145.551	-0.265	-0.023
-126.268	-200.000	-0.015	0.113
-125.253	-75.037	0.062	0.022
-124.239	-148.217	-0.307	0.025
-123.224	67.005	0.213	0.214
-122.210	57.930	0.207	-0.200
