DTS Sentinel unit serial number:	SN413079Multiplexer serial number:	ORYXHardware model number:	OX4-SRSoftware version number:	ORYX F/W v4.00 Oryx Data Collector v3.7.2.0data status	okinstallation	princeton_trtdifferential loss correction	single-endedforward channel	channel 3reverse channel	N/Adate	2019/09/13time	09:44:34forward acquisition time	60.00reverse acquisition time	0.00gamma	496.2192k internal	0.2325k external	0.2325temperature offset calibration	1.0138default loss term (dB/km)	0.3790temperature slope calibration	1.0000multiplexer offset coefficient	1.0000multiplexer slope coefficient	1.0000fibre end	0.00T internal ref (°C)	29.80T ext. ref 1 (°C)	4.44T ext. ref 2 (°C)	26.39length (m)	temperature (°C)	Stokes	anti-Stokes-747.200	800.000	-0.053	-0.193
-746.185	800.000	0.070	0.261
-745.171	9.353	0.066	0.050
-744.156	800.000	-0.028	0.078
-743.142	31.149	-0.319	-0.276
-742.127	195.916	0.225	0.345
-741.112	215.994	-0.193	-0.309
-740.098	-65.191	-0.133	-0.054
-739.083	-35.046	0.116	-0.064
-738.069	8.664	-0.233	0.177
-737.054	800.000	0.086	0.354
-736.039	-50.770	-0.311	0.148
-735.025	59.403	0.344	0.342
-734.010	800.000	-0.057	-0.171
-732.996	-44.056	-0.087	-0.044
-731.981	104.678	0.060	-0.071
-730.966	-32.461	-0.123	-0.069
-729.952	294.877	-0.222	0.410
-728.937	66.448	-0.136	0.140
-727.923	-147.152	-0.366	0.032
-726.908	-200.000	-0.057	0.279
-725.894	-62.220	-0.076	0.032
-724.879	-37.436	-0.172	0.092
-723.864	714.177	-0.077	-0.206
-722.850	800.000	0.087	-0.311
-721.835	322.429	0.061	-0.117
-720.821	441.106	-0.034	0.075
-719.806	-148.609	0.062	-0.005
-718.791	-200.000	-0.032	0.371
-717.777	135.012	-0.212	-0.277
-716.762	-22.564	0.163	0.099
-715.748	-77.199	-0.245	-0.086
-714.733	800.000	0.124	0.399
-713.718	265.083	0.067	-0.117
-712.704	54.560	-0.229	0.223
-711.689	-122.586	0.322	-0.053
-710.675	-111.662	-0.227	0.046
-709.660	227.499	-0.040	-0.066
-708.645	645.866	0.038	-0.098
-707.631	197.103	-0.105	0.161
-706.616	71.463	0.043	0.045
-705.602	695.564	0.195	-0.517
-704.587	81.717	-0.269	-0.294
-703.572	107.230	-0.124	-0.148
-702.558	800.000	-0.085	0.332
-701.543	155.576	-0.151	0.210
-700.529	65.334	-0.067	-0.068
-699.514	-144.125	0.210	0.020
-698.499	-200.000	0.223	-0.001
-697.485	-200.000	0.036	-0.199
-696.470	68.476	0.045	-0.046
-695.456	191.894	-0.172	0.261
-694.441	-59.496	0.146	0.063
-693.426	-30.863	-0.285	-0.162
-692.412	123.588	-0.093	-0.118
-691.397	747.710	-0.151	-0.410
-690.383	800.000	-0.105	0.335
-689.368	-23.251	-0.161	0.098
-688.354	-34.705	0.277	-0.152
-687.339	-53.110	-0.189	0.088
-686.324	163.580	-0.148	-0.209
-685.310	31.784	0.169	-0.147
-684.295	-151.767	0.085	-0.006
-683.281	-18.760	-0.182	0.114
-682.266	-109.076	0.199	0.043
-681.251	20.313	-0.072	-0.058
-680.237	81.391	-0.073	-0.080
-679.222	-114.948	-0.167	0.032
-678.208	5.596	-0.182	0.136
-677.193	161.243	0.182	0.256
-676.178	102.977	0.179	-0.211
-675.164	29.979	-0.371	0.318
-674.149	-139.713	-0.201	-0.022
-673.135	137.348	0.026	-0.034
-672.120	-200.000	0.004	0.120
-671.105	-102.269	-0.406	0.098
-670.091	800.000	-0.090	-0.284
-669.076	800.000	0.037	-0.110
-668.062	-174.992	0.220	0.006
-667.047	-110.281	-0.205	-0.043
-666.032	255.577	-0.143	-0.246
-665.018	-116.521	-0.034	-0.006
-664.003	443.065	-0.130	-0.287
-662.989	800.000	0.078	0.269
-661.974	-62.899	0.048	0.020
-660.959	172.186	0.143	-0.208
-659.945	-82.162	-0.118	-0.039
-658.930	-30.056	0.098	0.056
-657.916	-83.831	-0.192	-0.062
-656.901	155.414	0.140	-0.194
-655.886	-200.000	-0.047	-0.265
-654.872	213.859	-0.196	-0.312
-653.857	-200.000	0.013	-0.168
-652.843	-86.302	0.163	-0.050
-651.828	-71.879	0.180	-0.067
-650.814	222.446	0.019	0.031
-649.799	51.938	-0.233	0.223
-648.784	-88.705	-0.050	0.015
-647.770	-66.896	0.067	0.027
-646.755	-165.728	-0.221	0.010
-645.741	800.000	0.010	-0.032
-644.726	-200.000	0.041	-0.189
-643.711	-138.619	-0.280	0.031
-642.697	-117.819	-0.396	0.072
-641.682	-156.231	-0.224	-0.014
-640.668	800.000	0.058	0.247
-639.653	77.123	-0.100	0.107
-638.638	47.897	-0.131	-0.123
-637.624	800.000	-0.029	0.102
-636.609	95.161	0.086	0.099
-635.595	-89.837	-0.095	-0.028
-634.580	292.735	-0.060	0.109
-633.565	-193.165	0.305	-0.003
-632.551	-125.956	0.275	0.042
-631.536	-23.334	0.115	0.069
-630.522	-134.962	-0.048	-0.006
-629.507	-63.025	-0.087	0.036
-628.492	-105.322	-0.088	0.020
-627.478	242.715	0.023	-0.038
-626.463	-200.000	-0.087	0.412
-625.449	137.032	0.132	-0.173
-624.434	490.277	0.073	0.168
-623.419	258.966	-0.060	0.103
-622.405	-112.653	-0.169	-0.034
-621.390	-200.000	0.015	0.138
-620.376	100.303	0.071	0.083
-619.361	395.951	0.100	0.210
-618.346	291.847	0.283	-0.517
-617.332	33.219	0.187	0.163
-616.317	800.000	0.059	0.171
-615.303	-200.000	0.006	0.304
-614.288	-53.962	-0.081	-0.037
-613.273	252.486	0.130	-0.222
-612.259	209.948	0.231	-0.363
-611.244	-200.000	-0.061	-0.275
-610.230	155.401	0.050	0.069
-609.215	101.994	0.263	-0.308
-608.201	46.125	0.088	0.082
-607.186	-200.000	0.015	-0.331
-606.171	-31.738	-0.312	-0.175
-605.157	102.268	0.137	0.160
-604.142	-28.556	-0.294	-0.170
-603.128	-62.656	-0.284	-0.118
-602.113	-67.271	-0.348	-0.137
-601.098	72.922	-0.248	-0.260
-600.084	775.699	0.101	0.276
-599.069	95.483	-0.011	0.013
-598.055	433.772	0.040	0.088
-597.040	-200.000	-0.054	-0.267
-596.025	-200.000	-0.054	-0.237
-595.011	-50.926	-0.251	-0.118
-593.996	-31.738	0.278	0.157
-592.982	149.071	-0.220	0.299
-591.967	126.808	0.260	0.331
-590.952	295.121	0.080	0.147
-589.938	-82.814	-0.120	-0.039
-588.923	-200.000	-0.031	-0.340
-587.909	329.529	0.114	-0.221
-586.894	-124.395	0.067	-0.010
-585.879	464.731	-0.143	-0.322
-584.865	-156.479	-0.063	0.004
-583.850	-139.339	0.288	-0.031
-582.836	-164.161	-0.313	0.014
-581.821	800.000	-0.044	0.151
-580.806	53.244	-0.087	0.083
-579.792	-145.701	0.176	-0.016
-578.777	-24.289	0.159	-0.095
-577.763	-160.523	-0.275	0.015
-576.748	-112.328	-0.184	0.037
-575.733	-55.753	-0.270	-0.121
-574.719	97.019	0.244	-0.280
-573.704	-200.000	-0.018	-0.121
-572.690	-84.243	0.222	-0.070
-571.675	-13.983	0.080	0.052
-570.661	800.000	0.028	0.077
-569.646	-200.000	0.024	-0.130
-568.631	55.749	-0.277	-0.269
-567.617	-82.299	-0.051	-0.017
-566.602	-200.000	0.010	0.199
-565.588	218.637	0.065	-0.104
-564.573	-92.741	0.143	0.040
-563.558	-58.651	-0.291	0.126
-562.544	-130.625	0.180	0.024
-561.529	213.356	0.099	-0.157
-560.515	110.600	0.069	-0.084
-559.500	575.738	0.059	0.144
-558.485	-200.000	0.060	-0.310
-557.471	22.363	-0.206	0.169
-556.456	-200.000	0.025	0.264
-555.442	-113.377	0.144	-0.028
-554.427	800.000	-0.113	0.426
-553.412	-1.474	0.065	-0.046
-552.398	-90.877	0.159	0.046
-551.383	-200.000	0.001	-0.031
-550.369	-74.595	0.312	0.113
-549.354	-97.836	-0.154	0.040
-548.339	96.272	-0.124	-0.142
-547.325	-7.618	0.254	0.172
-546.310	-200.000	-0.004	0.509
-545.296	154.830	0.109	0.150
-544.281	682.313	0.076	0.198
-543.266	-61.690	-0.158	0.067
-542.252	-200.000	0.044	-0.363
-541.237	-184.168	0.280	-0.005
-540.223	70.386	0.153	-0.159
-539.208	186.135	0.161	-0.240
-538.193	-134.317	-0.262	-0.032
-537.179	-153.677	0.244	0.017
-536.164	-20.869	0.259	-0.159
-535.150	-133.750	-0.112	-0.014
-534.135	-131.818	0.374	-0.049
-533.121	800.000	0.014	-0.057
-532.106	-65.508	-0.446	-0.179
-531.091	721.565	0.088	-0.233
-530.077	-200.000	-0.070	0.408
-529.062	212.845	-0.147	0.232
-528.048	-158.633	0.303	0.017
-527.033	20.457	-0.109	0.088
-526.018	-170.414	0.160	0.006
-525.004	197.382	-0.047	-0.072
-523.989	800.000	0.045	-0.130
-522.975	-115.135	-0.030	0.006
-521.960	782.994	-0.109	0.298
-520.945	-200.000	0.022	-0.401
-519.931	800.000	-0.072	0.207
-518.916	223.508	0.017	0.028
-517.902	-65.832	0.098	-0.039
-516.887	800.000	-0.061	0.259
-515.872	3.349	-0.183	0.134
-514.858	271.420	0.069	-0.121
-513.843	-200.000	-0.072	-0.418
-512.829	8.547	-0.065	0.049
-511.814	2.657	0.179	-0.130
-510.799	798.503	0.043	0.120
-509.785	-37.751	0.053	-0.028
-508.770	-109.177	-0.492	-0.105
-507.756	-68.322	0.304	0.118
-506.741	-200.000	0.011	0.184
-505.726	713.661	-0.096	0.255
-504.712	49.299	-0.072	0.067
-503.697	-22.060	-0.120	0.073
-502.683	-126.007	0.324	0.049
-501.668	-153.559	0.160	0.011
-500.653	-44.172	-0.250	-0.125
-499.639	-79.359	0.155	0.052
-498.624	-74.472	0.180	-0.065
-497.610	21.235	0.123	0.099
-496.595	245.998	-0.116	0.195
-495.581	70.424	-0.227	-0.234
-494.566	-101.256	0.267	0.065
-493.551	-117.413	0.216	0.039
-492.537	60.039	0.070	0.069
-491.522	-37.127	0.153	0.082
-490.508	-200.000	-0.058	-0.330
-489.493	-114.161	0.151	-0.029
-488.478	-137.797	0.210	0.024
-487.464	435.645	0.145	0.315
-486.449	-78.298	-0.381	0.131
-485.435	233.150	-0.220	-0.362
-484.420	-67.975	-0.499	-0.194
-483.405	201.405	0.067	-0.103
-482.391	87.961	-0.041	0.046
-481.376	-200.000	-0.039	0.346
-480.362	12.564	0.158	0.122
-479.347	479.635	-0.094	0.212
-478.332	158.670	0.212	-0.293
-477.318	22.774	0.166	-0.136
-476.303	107.673	-0.178	0.212
-475.289	-8.257	-0.240	0.161
-474.274	800.000	-0.049	0.137
-473.259	222.245	0.123	0.198
-472.245	800.000	0.144	-0.532
-471.230	-2.390	-0.096	0.067
-470.216	-23.688	0.131	-0.079
-469.201	-18.397	-0.330	-0.206
-468.186	-62.814	0.323	-0.134
-467.172	47.444	-0.168	0.157
-466.157	-87.433	-0.344	0.104
-465.143	188.395	0.055	-0.083
-464.128	-200.000	0.006	-0.288
-463.113	121.911	0.071	-0.089
-462.099	-50.373	-0.175	0.083
-461.084	152.231	0.173	-0.235
-460.070	-93.123	0.332	-0.092
-459.055	0.979	-0.198	0.142
-458.040	-113.844	-0.158	0.031
-457.026	610.367	-0.056	0.140
-456.011	-129.200	-0.178	-0.025
-454.997	150.199	-0.207	-0.280
-453.982	118.078	-0.205	0.252
-452.968	-46.172	0.258	-0.127
-451.953	-143.175	0.104	-0.010
-450.938	-200.000	0.030	-0.183
-449.924	27.793	-0.273	-0.229
-448.909	140.665	0.246	-0.324
-447.895	5.652	-0.190	0.140
-446.880	800.000	0.040	-0.137
-445.865	290.385	0.134	0.242
-444.851	-187.128	0.101	-0.001
-443.836	-44.001	-0.134	-0.067
-442.822	-200.000	0.009	-0.206
-441.807	-84.996	0.529	0.165
-440.792	800.000	0.025	-0.084
-439.778	101.904	0.076	-0.088
-438.763	-12.563	-0.198	-0.129
-437.749	7.534	-0.081	0.060
-436.734	-200.000	0.029	0.259
-435.719	-200.000	0.018	-0.285
-434.705	490.422	0.088	0.201
-433.690	-105.280	0.096	-0.022
-432.676	-200.000	-0.027	0.231
-431.661	-200.000	0.008	-0.087
-430.646	-5.017	-0.049	-0.034
-429.632	-72.788	-0.164	-0.060
-428.617	-164.490	0.027	-0.001
-427.603	55.327	-0.153	0.147
-426.588	760.796	-0.115	-0.310
-425.573	-200.000	-0.008	0.041
-424.559	-141.512	0.071	-0.007
-423.544	-54.618	0.128	-0.058
-422.530	-115.476	-0.202	0.038
-421.515	-17.978	-0.215	0.134
-420.500	-1.855	0.203	0.142
-419.486	452.675	-0.100	-0.220
-418.471	-200.000	0.008	-0.087
-417.457	-30.273	0.211	0.119
-416.442	10.017	0.059	0.045
-415.428	800.000	-0.040	0.119
-414.413	216.386	-0.206	-0.326
-413.398	-165.956	0.228	-0.010
-412.384	232.270	0.104	-0.170
-411.369	-200.000	-0.009	0.094
-410.355	20.200	0.180	-0.145
-409.340	-85.055	0.278	0.087
-408.325	-200.000	-0.008	0.198
-407.311	-200.000	-0.023	-0.114
-406.296	153.839	-0.073	-0.100
-405.282	652.910	-0.141	0.359
-404.267	-114.646	0.199	0.038
-403.252	15.655	0.208	0.163
-402.238	800.000	0.054	0.173
-401.223	800.000	0.043	-0.122
-400.209	800.000	0.075	-0.271
-399.194	-9.124	-0.248	-0.165
-398.179	-81.509	0.047	-0.015
-397.165	-48.196	0.439	0.211
-396.150	171.730	0.107	0.154
-395.136	800.000	-0.090	0.252
-394.121	800.000	0.108	0.315
-393.106	6.805	-0.096	-0.071
-392.092	-32.715	-0.173	0.096
-391.077	800.000	-0.012	0.052
-390.063	-166.604	-0.121	0.005
-389.048	-50.908	-0.056	0.026
-388.033	800.000	0.019	-0.054
-387.019	-47.787	-0.211	0.102
-386.004	-137.228	0.286	0.032
-384.990	64.236	-0.322	-0.323
-383.975	-200.000	-0.005	0.042
-382.960	340.101	-0.113	-0.219
-381.946	-87.546	0.253	-0.076
-380.931	-43.352	-0.318	-0.160
-379.917	-11.642	0.150	0.098
-378.902	800.000	-0.096	-0.329
-377.888	26.256	-0.183	0.152
-376.873	1.257	-0.129	0.092
-375.858	52.006	-0.309	-0.293
-374.844	86.465	-0.084	-0.092
-373.829	800.000	-0.024	-0.073
-372.815	-148.063	0.197	0.016
-371.800	-92.597	-0.126	-0.035
-370.785	800.000	-0.049	-0.215
-369.771	185.404	0.075	0.111
-368.756	-105.007	0.037	0.008
-367.742	-147.959	-0.115	-0.010
-366.727	-132.187	0.262	-0.034
-365.712	-135.470	-0.411	0.049
-364.698	-109.506	0.315	0.066
-363.683	34.079	0.364	-0.315
-362.669	43.814	-0.225	-0.205
-361.654	800.000	-0.053	0.155
-360.639	-200.000	-0.005	-0.338
-359.625	-19.677	-0.232	-0.143
-358.610	13.386	-0.119	-0.092
-357.596	-200.000	-0.035	0.208
-356.581	-189.002	-0.352	-0.004
-355.566	-108.623	-0.199	0.043
-354.552	-15.516	-0.149	0.094
-353.537	800.000	0.027	0.084
-352.523	241.085	0.109	0.181
-351.508	67.265	-0.196	0.199
-350.493	39.810	-0.235	-0.209
-349.479	-100.935	-0.210	-0.051
-348.464	310.696	0.152	0.283
-347.450	21.878	0.046	0.037
-346.435	4.699	0.098	0.071
-345.420	800.000	-0.031	-0.111
-344.406	-187.423	-0.104	-0.001
-343.391	122.622	-0.125	-0.155
-342.377	-129.518	-0.299	0.041
-341.362	-120.452	0.148	0.025
-340.348	-128.263	0.214	-0.030
-339.333	-25.633	0.161	-0.094
-338.318	184.576	-0.127	-0.186
-337.304	-144.117	-0.342	-0.032
-336.289	-200.000	0.025	0.218
-335.275	-200.000	0.010	0.219
-334.260	-162.778	0.017	0.001
-333.245	800.000	0.008	0.028
-332.231	800.000	-0.043	0.164
-331.216	-200.000	-0.041	0.179
-330.202	46.725	0.131	0.121
-329.187	348.949	-0.043	0.083
-328.172	-74.494	-0.185	-0.066
-327.158	9.130	0.052	-0.039
-326.143	-80.796	0.174	0.057
-325.129	334.709	0.107	-0.205
-324.114	800.000	-0.056	-0.185
-323.099	-200.000	0.042	0.318
-322.085	-200.000	-0.033	-0.154
-321.070	253.164	-0.183	0.309
-320.056	-118.425	-0.164	0.029
-319.041	-143.697	0.150	-0.014
-318.026	605.905	-0.071	-0.175
-317.012	522.405	0.097	0.226
-315.997	41.467	-0.056	-0.050
-314.983	-200.000	-0.013	0.084
-313.968	-200.000	0.036	0.159
-312.953	715.866	-0.041	0.108
-311.939	278.485	-0.014	-0.025
-310.924	-182.305	0.504	0.009
-309.910	-57.969	0.244	0.106
-308.895	-200.000	-0.011	-0.071
-307.880	-200.000	0.010	0.200
-306.866	-104.662	0.110	0.025
-305.851	-27.818	-0.280	-0.161
-304.837	89.138	-0.114	-0.126
-303.822	32.482	-0.165	-0.142
-302.807	800.000	0.109	0.350
-301.793	-59.438	-0.152	0.065
-300.778	455.133	-0.045	-0.100
-299.764	-200.000	-0.015	0.107
-298.749	245.322	-0.044	0.073
-297.735	-153.179	0.274	-0.019
-296.720	549.220	-0.163	-0.388
-295.705	74.644	0.034	-0.036
-294.691	-95.689	-0.215	-0.057
-293.676	-200.000	-0.015	0.216
-292.662	800.000	0.049	0.148
-291.647	413.171	0.116	0.244
-290.632	46.717	-0.140	0.129
-289.618	-92.969	0.192	0.053
-288.603	58.966	-0.186	-0.181
-287.589	406.278	-0.076	-0.159
-286.574	-99.232	-0.199	-0.050
-285.559	-100.330	0.202	0.050
-284.545	-19.569	-0.189	-0.116
-283.530	-11.898	0.210	-0.136
-282.516	-200.000	-0.054	0.325
-281.501	-200.000	0.008	-0.070
-280.486	149.832	-0.148	0.198
-279.472	42.105	-0.256	-0.231
-278.457	-183.676	0.107	-0.002
-277.443	-200.000	0.050	0.299
-276.428	116.898	-0.115	-0.140
-275.413	-83.573	0.277	-0.088
-274.399	339.085	-0.070	-0.136
-273.384	-110.338	0.154	-0.032
-272.370	-98.734	-0.082	0.021
-271.355	-183.408	-0.296	-0.005
-270.340	-97.355	-0.158	0.041
-269.326	208.513	-0.131	-0.203
-268.311	800.000	0.145	0.423
-267.297	37.926	0.147	-0.129
-266.282	-62.754	0.082	-0.034
-265.267	-85.389	0.142	-0.044
-264.253	-106.218	0.129	0.029
-263.238	105.910	-0.162	0.190
-262.224	800.000	0.025	0.102
-261.209	-174.271	0.235	-0.007
-260.195	725.100	-0.086	-0.228
-259.180	-200.000	-0.012	-0.165
-258.165	-200.000	-0.053	-0.314
-257.151	261.518	0.092	0.158
-256.136	-32.824	0.205	-0.113
-255.122	-3.927	-0.205	0.141
-254.107	165.778	-0.183	-0.256
-253.092	-153.559	-0.226	-0.015
-252.078	44.863	0.075	-0.069
-251.063	-5.824	-0.115	0.078
-250.049	-142.537	-0.051	-0.005
-249.034	-91.936	-0.330	0.093
-248.019	800.000	-0.161	-0.470
-247.005	-138.179	-0.061	-0.007
-245.990	-7.801	-0.084	0.056
-244.976	-96.985	0.099	0.026
-243.961	-40.628	0.275	0.141
-242.946	800.000	0.057	0.245
-241.932	-173.329	-0.171	0.005
-240.917	98.775	-0.032	-0.037
-239.903	138.669	-0.205	-0.267
-238.888	276.373	0.100	0.177
-237.873	-200.000	-0.012	-0.102
-236.859	-164.180	-0.174	0.008
-235.844	-92.042	-0.236	0.066
-234.830	-89.791	-0.174	0.051
-233.815	757.642	-0.128	-0.343
-232.800	41.614	-0.134	0.120
-231.786	179.518	-0.100	0.144
-230.771	-200.000	0.018	0.079
-229.757	-200.000	0.057	-0.308
-228.742	-0.710	0.266	0.187
-227.727	487.762	-0.118	0.267
-226.713	-15.669	0.247	0.156
-225.698	-126.230	0.271	0.040
-224.684	133.126	0.169	-0.216
-223.669	-80.230	-0.030	0.010
-222.655	-4.903	-0.201	0.137
-221.640	603.630	-0.197	0.484
-220.625	178.345	0.081	-0.117
-219.611	-104.615	-0.119	0.027
-218.596	-1.295	0.052	0.036
-217.582	282.821	0.034	0.061
-216.567	-173.689	-0.314	-0.009
-215.552	12.878	0.165	-0.126
-214.538	800.000	0.065	-0.183
-213.523	168.815	0.282	0.397
-212.509	-128.439	0.278	0.039
-211.494	111.440	0.060	0.071
-210.479	-117.928	0.201	-0.036
-209.465	402.756	-0.168	0.348
-208.450	125.363	0.220	-0.274
-207.436	-200.000	-0.002	0.304
-206.421	687.096	0.028	0.071
-205.406	800.000	-0.114	-0.342
-204.392	-45.201	0.133	0.065
-203.377	120.512	-0.055	-0.067
-202.363	-101.236	0.313	0.076
-201.348	-147.528	0.295	0.025
-200.333	14.656	0.172	-0.133
-199.319	-200.000	0.009	0.115
-198.304	15.564	-0.080	-0.062
-197.290	391.584	-0.196	0.402
-196.275	201.232	0.364	-0.554
-195.260	169.856	0.200	-0.283
-194.246	-31.771	0.133	0.074
-193.231	-200.000	0.013	0.069
-192.217	-200.000	-0.050	0.269
-191.202	71.704	0.174	-0.178
-190.187	-200.000	-0.052	0.468
-189.173	-200.000	0.056	0.390
-188.158	-200.000	-0.010	0.062
-187.144	209.209	-0.112	0.173
-186.129	800.000	0.124	0.394
-185.114	-84.104	0.450	0.141
-184.100	-122.983	0.487	0.077
-183.085	-200.000	-0.002	-0.203
-182.071	-31.561	0.280	0.156
-181.056	-200.000	-0.042	-0.243
-180.042	-200.000	0.033	-0.158
-179.027	-109.907	0.278	-0.057
-178.012	-200.000	0.016	-0.130
-176.998	800.000	-0.108	-0.381
-175.983	-41.846	-0.189	0.096
-174.969	223.949	-0.113	0.180
-173.954	409.537	-0.141	-0.296
-172.939	62.449	0.323	-0.319
-171.925	-8.019	-0.357	0.237
-170.910	247.300	-0.039	0.065
-169.896	154.045	0.015	-0.021
-168.881	3.656	0.169	-0.122
-167.866	800.000	0.027	0.104
-166.852	-200.000	-0.104	0.000
-165.837	-72.578	0.129	-0.047
-164.823	311.979	-0.212	-0.393
-163.808	-81.178	0.092	0.030
-162.793	516.054	0.163	0.375
-161.779	-34.916	0.109	-0.058
-160.764	674.222	-0.042	-0.108
-159.750	-200.000	0.008	-0.161
-158.735	800.000	0.172	-0.497
-157.720	151.068	-0.081	0.109
-156.706	38.878	-0.073	-0.064
-155.691	86.196	0.026	0.028
-154.677	800.000	0.102	0.294
-153.662	44.794	0.207	-0.188
-152.647	-45.667	-0.140	-0.068
-151.633	-125.630	-0.069	0.010
-150.618	-200.000	0.001	-0.129
-149.604	-14.071	-0.090	0.057
-148.589	82.170	-0.039	0.041
-147.574	169.698	0.373	0.525
-146.560	285.110	-0.065	0.115
-145.545	-200.000	-0.010	0.234
-144.531	90.375	0.189	0.208
-143.516	-146.498	-0.096	0.008
-142.502	67.148	0.180	-0.181
-141.487	-200.000	0.004	-0.279
-140.472	-200.000	-0.030	-0.211
-139.458	-200.000	-0.041	-0.213
-138.443	800.000	0.053	0.192
-137.429	750.254	0.066	0.174
-136.414	-200.000	-0.003	0.075
-135.399	-171.091	0.184	-0.006
-134.385	70.320	0.065	-0.066
-133.370	-43.159	0.110	0.055
-132.356	15.107	0.393	0.303
-131.341	15.782	0.328	0.254
-130.326	-91.577	0.212	0.059
-129.312	-200.000	0.012	0.419
-128.297	17.351	0.328	-0.257
-127.283	-42.986	0.125	0.062
-126.268	737.417	-0.115	0.303
-125.253	220.611	-0.181	-0.286
-124.239	-153.692	0.222	-0.015
-123.224	800.000	-0.110	0.309
-122.210	-200.000	-0.014	-0.245
-121.195	-187.596	-0.095	-0.001
