DTS Sentinel unit serial number:	SN413079Multiplexer serial number:	ORYXHardware model number:	OX4-SRSoftware version number:	ORYX F/W v4.00 Oryx Data Collector v3.7.2.0data status	okinstallation	princeton_trtdifferential loss correction	single-endedforward channel	channel 3reverse channel	N/Adate	2019/09/13time	09:36:35forward acquisition time	60.00reverse acquisition time	0.00gamma	496.2192k internal	0.2324k external	0.2324temperature offset calibration	1.0140default loss term (dB/km)	0.3790temperature slope calibration	1.0000multiplexer offset coefficient	1.0000multiplexer slope coefficient	1.0000fibre end	0.00T internal ref (°C)	29.62T ext. ref 1 (°C)	4.43T ext. ref 2 (°C)	25.96length (m)	temperature (°C)	Stokes	anti-Stokes-747.200	90.904	0.065	0.073
-746.185	-200.000	0.012	-0.234
-745.171	32.794	-0.140	0.122
-744.156	49.712	-0.124	0.118
-743.142	-48.679	0.335	0.163
-742.127	102.023	0.151	-0.178
-741.112	-200.000	0.042	-0.189
-740.098	-105.579	-0.157	0.036
-739.083	499.289	0.067	0.155
-738.069	-160.520	-0.264	-0.014
-737.054	318.384	-0.088	0.168
-736.039	-77.812	-0.146	0.051
-735.025	-124.634	0.146	-0.023
-734.010	-179.130	-0.033	-0.001
-732.996	53.537	0.069	-0.067
-731.981	-199.626	0.085	-0.000
-730.966	-53.178	-0.216	0.100
-729.952	800.000	-0.055	0.187
-728.937	2.470	-0.224	0.164
-727.923	-92.242	-0.258	-0.074
-726.908	18.608	-0.053	0.043
-725.894	307.009	-0.083	0.156
-724.879	110.281	0.079	-0.096
-723.864	12.567	-0.208	-0.162
-722.850	800.000	-0.069	-0.296
-721.835	-4.469	-0.173	0.121
-720.821	117.997	-0.142	0.177
-719.806	-200.000	0.010	0.087
-718.791	114.173	-0.282	-0.347
-717.777	800.000	-0.036	-0.118
-716.762	-169.976	-0.264	-0.010
-715.748	-200.000	0.085	0.412
-714.733	106.895	0.045	-0.054
-713.718	-182.986	-0.182	0.003
-712.704	130.445	0.124	-0.160
-711.689	-116.081	0.147	0.028
-710.675	342.387	0.066	-0.130
-709.660	-55.731	-0.173	-0.078
-708.645	7.513	-0.029	0.022
-707.631	-200.000	-0.012	-0.228
-706.616	18.936	-0.097	0.078
-705.602	199.347	0.104	0.161
-704.587	800.000	0.069	-0.290
-703.572	-46.435	-0.269	0.133
-702.558	62.034	0.221	-0.222
-701.543	49.109	0.187	-0.177
-700.529	-200.000	0.009	0.217
-699.514	117.843	0.070	-0.087
-698.499	-200.000	0.015	0.142
-697.485	-85.052	0.111	0.035
-696.470	385.383	0.050	0.105
-695.456	-200.000	0.009	0.126
-694.441	189.394	0.127	-0.191
-693.426	10.021	-0.266	-0.203
-692.412	-140.996	0.160	-0.016
-691.397	79.416	-0.006	0.006
-690.383	4.440	-0.315	-0.232
-689.368	-200.000	0.002	-0.492
-688.354	-177.180	-0.149	-0.004
-687.339	-200.000	-0.011	0.120
-686.324	-101.098	-0.079	-0.020
-685.310	-72.027	0.388	0.145
-684.295	13.960	0.206	0.162
-683.281	30.703	0.161	0.139
-682.266	-200.000	0.021	-0.426
-681.251	-92.374	-0.059	-0.017
-680.237	133.099	-0.164	-0.213
-679.222	800.000	0.044	-0.150
-678.208	143.786	0.162	-0.218
-677.193	117.575	0.158	0.195
-676.178	-114.839	0.404	-0.078
-675.164	-106.340	-0.048	-0.011
-674.149	46.291	-0.232	0.216
-673.135	86.763	-0.122	-0.135
-672.120	-30.912	0.073	-0.041
-671.105	206.889	-0.041	0.065
-670.091	80.719	0.070	-0.076
-669.076	-97.019	-0.200	0.053
-668.062	150.391	0.074	0.102
-667.047	-118.725	-0.143	-0.025
-666.032	294.590	0.018	-0.033
-665.018	25.508	0.181	0.152
-664.003	-200.000	0.348	0.001
-662.989	-200.000	-0.009	0.294
-661.974	61.883	0.121	-0.121
-660.959	24.883	0.155	0.129
-659.945	-200.000	-0.054	0.344
-658.930	-116.809	-0.392	0.072
-657.916	194.088	0.216	-0.329
-656.901	86.821	0.145	-0.161
-655.886	-200.000	0.044	-0.197
-654.872	115.307	-0.306	-0.375
-653.857	554.958	0.155	-0.376
-652.843	109.989	-0.196	0.237
-651.828	179.752	0.322	-0.475
-650.814	84.108	0.072	-0.079
-649.799	-200.000	-0.033	0.199
-648.784	-107.177	-0.210	0.047
-647.770	-125.329	-0.268	0.041
-646.755	-13.076	-0.115	-0.075
-645.741	-14.778	0.154	0.099
-644.726	-135.800	-0.076	-0.009
-643.711	225.849	-0.109	-0.177
-642.697	-122.479	0.216	-0.035
-641.682	109.046	-0.090	0.108
-640.668	-200.000	0.013	0.192
-639.653	-91.527	-0.218	-0.063
-638.638	-126.989	-0.167	0.025
-637.624	-137.585	-0.051	0.006
-636.609	800.000	0.068	0.212
-635.595	-25.638	-0.294	0.174
-634.580	-142.862	-0.225	-0.022
-633.565	-157.761	-0.168	0.010
-632.551	-130.052	-0.120	-0.016
-631.536	-43.999	-0.176	0.089
-630.522	64.066	0.096	0.097
-629.507	800.000	-0.063	0.248
-628.492	-43.470	0.258	0.131
-627.478	154.662	0.046	-0.063
-626.463	-1.282	0.096	-0.068
-625.449	-42.585	-0.169	-0.086
-624.434	-172.023	-0.538	0.018
-623.419	-157.212	0.292	-0.018
-622.405	667.701	-0.129	-0.334
-621.390	-84.075	0.023	0.007
-620.376	-1.651	0.276	0.196
-619.361	-200.000	0.007	0.074
-618.346	-200.000	0.002	0.111
-617.332	-150.299	-0.218	0.017
-616.317	31.513	-0.053	0.046
-615.303	115.581	-0.203	-0.250
-614.288	-61.929	0.281	0.118
-613.273	193.181	-0.102	-0.155
-612.259	-77.399	-0.090	0.031
-611.244	679.873	-0.006	0.017
-610.230	-193.277	-0.201	-0.002
-609.215	431.179	0.074	0.161
-608.201	156.627	0.188	-0.260
-607.186	-40.606	0.165	-0.086
-606.171	-200.000	-0.042	-0.192
-605.157	-200.000	-0.005	-0.210
-604.142	-39.733	0.343	-0.180
-603.128	-46.177	0.450	-0.222
-602.113	800.000	-0.042	-0.171
-601.098	53.413	0.104	0.100
-600.084	-84.907	-0.136	-0.043
-599.069	-123.639	0.283	-0.045
-598.055	336.475	-0.060	0.117
-597.040	44.814	0.275	-0.254
-596.025	800.000	-0.034	-0.103
-595.011	-200.000	0.006	-0.046
-593.996	800.000	0.104	-0.302
-592.982	40.433	-0.139	-0.126
-591.967	800.000	0.057	-0.191
-590.952	-200.000	-0.005	-0.127
-589.938	-78.192	-0.120	-0.041
-588.923	-146.985	-0.032	0.003
-587.909	-46.844	0.159	-0.078
-586.894	52.211	0.141	0.135
-585.879	-200.000	0.027	0.251
-584.865	-44.682	0.216	0.108
-583.850	-46.677	-0.136	0.067
-582.836	0.618	0.090	-0.064
-581.821	-2.487	0.134	0.094
-580.806	-99.027	0.089	0.023
-579.792	-103.244	-0.136	-0.032
-578.777	-180.506	-0.087	-0.002
-577.763	-158.695	-0.057	0.003
-576.748	5.208	-0.084	0.062
-575.733	-46.615	-0.112	0.055
-574.719	-62.766	0.097	-0.040
-573.704	64.466	0.157	-0.159
-572.690	480.184	0.088	0.199
-571.675	71.607	-0.057	0.060
-570.661	10.010	-0.433	0.330
-569.646	-83.726	0.320	0.102
-568.631	-64.189	-0.170	0.069
-567.617	-8.124	0.187	-0.126
-566.602	-68.023	0.158	-0.062
-565.588	-92.466	-0.217	-0.061
-564.573	53.119	0.081	-0.078
-563.558	-35.360	-0.086	0.047
-562.544	-6.192	0.312	-0.214
-561.529	-98.538	-0.280	-0.072
-560.515	-200.000	0.032	-0.165
-559.500	-31.465	-0.181	-0.102
-558.485	67.061	-0.064	0.065
-557.471	-200.000	0.061	-0.319
-556.456	42.918	0.260	-0.238
-555.442	800.000	-0.031	0.123
-554.427	-56.824	-0.242	-0.107
-553.412	353.291	0.049	0.098
-552.398	191.666	-0.162	0.244
-551.383	-25.514	0.100	0.059
-550.369	-200.000	0.023	-0.222
-549.354	-70.176	0.157	-0.060
-548.339	583.442	0.068	0.166
-547.325	-76.603	0.161	0.057
-546.310	137.651	-0.096	0.126
-545.296	-93.311	0.391	-0.109
-544.281	-85.453	-0.204	0.064
-543.266	800.000	-0.031	0.135
-542.252	-155.587	0.158	0.010
-541.237	25.885	0.083	-0.069
-540.223	-23.097	-0.188	-0.113
-539.208	38.183	-0.031	0.028
-538.193	-4.478	-0.205	-0.142
-537.179	-54.762	-0.316	0.143
-536.164	-176.583	-0.114	0.003
-535.150	491.690	0.026	-0.059
-534.135	-124.048	-0.179	0.028
-533.121	-67.458	0.288	-0.113
-532.106	-200.000	-0.020	-0.096
-531.091	62.638	-0.242	-0.243
-530.077	790.771	0.081	0.222
-529.062	800.000	-0.077	0.302
-528.048	249.146	-0.086	0.145
-527.033	-200.000	0.008	-0.246
-526.018	800.000	-0.096	0.359
-525.004	-71.409	0.297	-0.111
-523.989	-62.446	-0.058	0.024
-522.975	-9.245	-0.118	0.079
-521.960	700.638	0.059	0.156
-520.945	-95.323	-0.348	-0.094
-519.931	219.780	-0.101	0.162
-518.916	6.538	-0.224	0.166
-517.902	6.685	-0.199	0.148
-516.887	-40.406	-0.075	0.039
-515.872	-75.964	0.349	-0.124
-514.858	800.000	-0.053	-0.214
-513.843	121.727	0.049	-0.061
-512.829	152.557	-0.078	-0.107
-511.814	153.414	-0.072	0.098
-510.799	132.027	-0.114	-0.147
-509.785	-71.059	-0.100	-0.038
-508.770	51.556	-0.240	0.228
-507.756	-200.000	-0.061	0.453
-506.741	289.997	-0.049	0.089
-505.726	-200.000	-0.040	-0.207
-504.712	-37.809	-0.061	0.032
-503.697	800.000	0.025	-0.107
-502.683	542.706	0.140	-0.333
-501.668	-44.770	0.240	-0.120
-500.653	24.812	-0.279	-0.231
-499.639	-200.000	0.025	-0.319
-498.624	607.535	-0.079	-0.197
-497.610	638.213	0.104	0.264
-496.595	560.772	0.112	0.270
-495.581	-29.889	0.103	0.059
-494.566	800.000	0.020	-0.059
-493.551	54.076	-0.194	-0.186
-492.537	-0.530	0.206	-0.146
-491.522	-115.172	0.120	0.023
-490.508	-81.580	0.220	0.072
-489.493	-200.000	0.038	0.193
-488.478	56.000	0.122	-0.118
-487.464	63.996	-0.124	0.124
-486.449	-125.431	0.080	0.012
-485.435	-11.761	-0.074	-0.048
-484.420	8.094	0.062	-0.046
-483.405	-200.000	0.028	0.443
-482.391	529.277	0.110	0.258
-481.376	-200.000	-0.014	-0.067
-480.362	238.486	-0.083	-0.138
-479.347	-128.414	0.145	-0.021
-478.332	649.467	0.045	-0.114
-477.318	-141.642	0.039	-0.004
-476.303	-120.088	-0.072	-0.012
-475.289	-45.746	-0.259	0.128
-474.274	-200.000	-0.021	-0.182
-473.259	-200.000	-0.001	0.066
-472.245	-82.743	-0.096	-0.031
-471.230	-83.450	0.153	0.049
-470.216	-58.555	-0.098	-0.042
-469.201	-119.667	0.432	0.075
-468.186	-200.000	0.002	0.300
-467.172	18.608	0.063	-0.051
-466.157	-14.881	-0.177	0.114
-465.143	16.601	0.111	0.088
-464.128	-13.836	-0.298	-0.192
-463.113	-47.397	-0.183	-0.089
-462.099	800.000	-0.039	0.121
-461.084	-200.000	-0.057	0.318
-460.070	-52.583	-0.166	0.076
-459.055	-122.490	0.338	-0.055
-458.040	139.318	0.241	-0.316
-457.026	358.947	0.089	-0.178
-456.011	-114.506	-0.187	-0.036
-454.997	383.346	0.032	0.065
-453.982	-64.678	-0.196	0.079
-452.968	232.794	0.084	-0.137
-451.953	-63.999	-0.063	0.026
-450.938	800.000	-0.101	-0.289
-449.924	33.262	-0.300	-0.260
-448.909	119.002	-0.126	0.156
-447.895	-200.000	0.137	-0.000
-446.880	-84.528	0.218	0.069
-445.865	-200.000	0.018	0.280
-444.851	800.000	-0.062	-0.226
-443.836	70.346	0.163	-0.168
-442.822	-200.000	0.001	0.073
-441.807	-200.000	-0.006	0.048
-440.792	-37.835	-0.048	0.026
-439.778	-200.000	0.010	0.203
-438.763	800.000	-0.039	0.134
-437.749	-200.000	-0.007	-0.079
-436.734	172.538	-0.046	-0.066
-435.719	-200.000	-0.044	0.275
-434.705	-76.128	0.069	0.024
-433.690	490.947	0.160	-0.365
-432.676	-8.546	-0.062	0.042
-431.661	84.798	0.088	-0.097
-430.646	4.518	0.188	-0.138
-429.632	-149.369	0.232	0.018
-428.617	12.571	0.114	-0.088
-427.603	-30.072	-0.136	-0.077
-426.588	-89.906	0.117	0.034
-425.573	-200.000	0.051	0.314
-424.559	-200.000	-0.001	0.279
-423.544	-146.064	-0.335	-0.030
-422.530	-22.918	-0.193	-0.116
-421.515	453.846	-0.083	-0.184
-420.500	-65.393	0.332	-0.133
-419.486	-132.562	0.152	-0.019
-418.471	-137.652	0.070	-0.008
-417.457	-112.567	0.526	0.104
-416.442	-149.740	-0.389	-0.030
-415.428	31.589	0.240	-0.206
-414.413	12.393	-0.333	-0.256
-413.398	-200.000	0.003	-0.067
-412.384	-200.000	-0.035	0.174
-411.369	329.869	-0.088	-0.168
-410.355	307.898	-0.132	-0.246
-409.340	-200.000	-0.006	-0.194
-408.325	-200.000	0.009	0.065
-407.311	800.000	-0.045	-0.146
-406.296	800.000	0.081	0.301
-405.282	-57.971	0.302	0.131
-404.267	-51.763	0.221	0.103
-403.252	-76.260	-0.079	0.028
-402.238	-42.316	0.118	0.060
-401.223	-200.000	-0.052	-0.298
-400.209	-100.651	-0.080	-0.020
-399.194	-64.445	0.191	-0.077
-398.179	154.046	0.130	0.177
-397.165	-131.477	0.219	-0.029
-396.150	800.000	0.028	0.113
-395.136	-172.498	-0.268	-0.008
-394.121	-200.000	-0.021	-0.209
-393.106	262.175	-0.066	0.113
-392.092	9.141	0.331	0.249
-391.077	262.248	-0.072	0.124
-390.063	257.833	0.161	0.276
-389.048	800.000	0.034	0.145
-388.033	106.147	-0.158	0.186
-387.019	-129.541	0.299	0.041
-386.004	264.883	-0.127	-0.220
-384.990	220.873	0.024	-0.038
-383.975	26.114	0.084	0.070
-382.960	-115.280	0.168	-0.032
-381.946	101.219	-0.103	-0.120
-380.931	29.456	0.131	-0.111
-379.917	261.988	0.059	-0.102
-378.902	199.495	0.124	0.188
-377.888	87.264	-0.139	0.153
-376.873	1.273	0.265	0.189
-375.858	61.444	-0.147	-0.146
-374.844	-106.267	0.171	-0.038
-373.829	293.753	-0.142	-0.257
-372.815	392.545	0.145	-0.300
-371.800	800.000	-0.076	0.223
-370.785	150.369	0.104	0.141
-369.771	501.866	0.078	0.180
-368.756	-33.095	0.076	0.042
-367.742	-200.000	0.020	0.259
-366.727	-39.597	0.054	0.028
-365.712	27.518	0.030	0.025
-364.698	0.462	0.075	-0.054
-363.683	-200.000	-0.064	-0.385
-362.669	-120.267	-0.332	0.056
-361.654	68.076	0.249	0.253
-360.639	215.258	0.069	0.109
-359.625	-200.000	-0.044	-0.299
-358.610	-200.000	-0.023	-0.204
-357.596	132.368	0.083	0.106
-356.581	-40.888	-0.145	-0.074
-355.566	-200.000	-0.014	-0.188
-354.552	0.035	-0.139	0.099
-353.537	-84.583	-0.192	-0.060
-352.523	49.341	-0.410	0.383
-351.508	800.000	0.016	-0.050
-350.493	-200.000	0.043	0.221
-349.479	-117.413	0.104	0.019
-348.464	-2.991	0.251	0.174
-347.450	-130.934	-0.025	0.003
-346.435	254.216	0.012	-0.020
-345.420	800.000	-0.037	-0.145
-344.406	386.052	0.102	0.209
-343.391	-75.382	0.072	0.025
-342.377	-154.279	-0.146	0.010
-341.362	-52.313	-0.224	0.103
-340.348	104.761	-0.282	0.330
-339.333	-200.000	0.040	0.228
-338.318	800.000	-0.069	0.259
-337.304	87.139	-0.062	0.068
-336.289	348.281	0.029	0.056
-335.275	61.399	0.215	-0.212
-334.260	21.117	0.156	-0.126
-333.245	216.858	0.258	0.407
-332.231	46.401	0.092	-0.085
-331.216	-106.696	-0.218	-0.048
-330.202	499.462	0.104	-0.237
-329.187	332.568	-0.107	-0.206
-328.172	318.018	0.106	0.199
-327.158	491.308	-0.104	-0.236
-326.143	-200.000	0.025	0.357
-325.129	-33.171	-0.162	-0.089
-324.114	-70.007	-0.213	0.081
-323.099	129.946	-0.184	0.234
-322.085	-200.000	0.018	0.105
-321.070	42.486	0.089	0.081
-320.056	-12.580	-0.122	0.079
-319.041	-99.129	-0.138	0.035
-318.026	560.171	-0.110	-0.263
-317.012	163.577	0.131	-0.183
-315.997	145.084	-0.071	-0.095
-314.983	-1.493	0.076	0.053
-313.968	-175.959	-0.129	-0.003
-312.953	800.000	0.094	-0.275
-311.939	800.000	0.068	0.284
-310.924	-200.000	0.037	-0.273
-309.910	-200.000	-0.006	0.194
-308.895	-169.841	0.419	0.015
-307.880	-106.338	-0.196	0.043
-306.866	546.486	0.014	0.032
-305.851	58.388	0.188	0.183
-304.837	246.576	0.101	-0.170
-303.822	-92.981	0.082	0.023
-302.807	-200.000	0.020	-0.157
-301.793	4.918	-0.153	0.112
-300.778	-181.417	-0.296	0.006
-299.764	-78.617	-0.171	-0.058
-298.749	-80.363	-0.106	0.035
-297.735	-200.000	-0.018	0.096
-296.720	-200.000	-0.007	0.305
-295.705	-9.318	0.335	0.222
-294.691	-119.217	0.272	0.047
-293.676	800.000	0.036	0.139
-292.662	-51.109	0.252	-0.117
-291.647	800.000	0.051	0.216
-290.632	-99.851	-0.498	-0.123
-289.618	143.531	0.163	-0.215
-288.603	800.000	-0.029	0.111
-287.589	115.872	-0.003	0.003
-286.574	800.000	-0.075	-0.210
-285.559	81.133	0.215	0.230
-284.545	800.000	0.035	-0.144
-283.530	298.677	0.073	-0.134
-282.516	-65.764	0.279	0.111
-281.501	28.732	0.083	0.070
-280.486	-127.439	-0.089	-0.013
-279.472	-200.000	-0.017	-0.140
-278.457	-200.000	0.027	-0.151
-277.443	-200.000	-0.001	-0.040
-276.428	-127.816	0.239	-0.034
-275.413	-104.503	0.205	0.047
-274.399	156.242	-0.214	-0.293
-273.384	210.929	-0.122	-0.190
-272.370	-43.924	0.171	-0.085
-271.355	800.000	0.079	0.270
-270.340	561.473	-0.111	-0.266
-269.326	314.177	-0.042	0.078
-268.311	-200.000	0.037	0.178
-267.297	108.621	0.049	0.058
-266.282	-114.578	-0.226	-0.043
-265.267	25.180	-0.187	0.154
-264.253	-129.958	-0.017	-0.002
-263.238	-119.979	0.200	0.034
-262.224	-200.000	0.003	0.210
-261.209	320.344	-0.156	-0.293
-260.195	800.000	-0.034	0.145
-259.180	800.000	0.083	-0.262
-258.165	14.209	0.182	0.141
-257.151	-200.000	-0.004	0.066
-256.136	-56.196	-0.226	0.100
-255.122	170.273	-0.164	-0.233
-254.107	130.610	-0.137	0.173
-253.092	800.000	0.041	-0.116
-252.078	-50.970	-0.133	0.062
-251.063	-119.413	-0.171	-0.029
-250.049	-200.000	0.044	0.242
-249.034	800.000	0.052	0.170
-248.019	-200.000	0.016	-0.333
-247.005	77.339	-0.067	-0.071
-245.990	36.735	0.235	-0.206
-244.976	236.549	0.247	-0.405
-243.961	156.847	0.058	-0.080
-242.946	-200.000	-0.008	0.136
-241.932	-140.903	-0.097	0.010
-240.917	-68.984	-0.118	-0.045
-239.903	-161.818	-0.103	0.005
-238.888	-200.000	-0.023	0.104
-237.873	260.881	-0.111	0.189
-236.859	37.634	-0.152	-0.134
-235.844	-131.184	-0.291	-0.038
-234.830	-23.066	-0.479	0.285
-233.815	-200.000	-0.010	0.159
-232.800	-61.730	-0.155	0.064
-231.786	152.026	0.042	0.057
-230.771	-4.984	0.078	0.053
-229.757	-21.074	0.018	-0.011
-228.742	-32.026	-0.331	-0.183
-227.727	-86.696	0.171	0.052
-226.713	121.111	0.186	-0.229
-225.698	-200.000	0.070	-0.363
-224.684	26.131	-0.332	-0.274
-223.669	-57.598	-0.131	-0.057
-222.655	384.295	-0.052	-0.106
-221.640	-150.612	-0.381	-0.029
-220.625	220.856	0.085	0.136
-219.611	-200.000	0.002	-0.108
-218.596	-167.413	0.280	-0.011
-217.582	-159.261	-0.211	0.012
-216.567	-200.000	-0.003	-0.018
-215.552	-200.000	-0.033	-0.152
-214.538	652.535	-0.069	-0.175
-213.523	10.743	-0.250	0.188
-212.509	-43.143	0.186	0.093
-211.494	-121.966	0.245	-0.040
-210.479	-200.000	-0.017	-0.226
-209.465	-115.849	0.168	-0.031
-208.450	-200.000	-0.020	0.181
-207.436	123.951	0.065	-0.081
-206.421	-161.075	-0.083	-0.004
-205.406	-200.000	0.077	0.450
-204.392	-107.938	-0.307	0.066
-203.377	23.961	-0.184	0.150
-202.363	324.015	0.042	0.079
-201.348	159.523	-0.097	0.134
-200.333	-121.450	0.121	-0.020
-199.319	-93.685	0.279	-0.076
-198.304	-59.126	-0.107	0.046
-197.290	-71.721	0.020	0.007
-196.275	-200.000	-0.098	-0.459
-195.260	-200.000	0.074	-0.335
-194.246	-11.062	-0.209	-0.136
-193.231	-200.000	0.004	-0.194
-192.217	345.776	0.185	-0.358
-191.202	800.000	0.101	0.290
-190.187	-76.621	-0.236	-0.082
-189.173	79.547	-0.098	-0.104
-188.158	-18.506	-0.131	-0.081
-187.144	800.000	0.054	-0.232
-186.129	-200.000	-0.018	0.083
-185.114	100.930	0.078	0.089
-184.100	-38.680	0.311	0.162
-183.085	13.858	0.166	0.127
-182.071	800.000	0.065	0.262
-181.056	-190.626	-0.325	-0.003
-180.042	338.996	-0.197	0.379
-179.027	56.372	0.111	0.107
-178.012	543.742	0.155	0.365
-176.998	-53.679	0.317	-0.143
-175.983	800.000	-0.034	-0.122
-174.969	-111.097	-0.088	-0.018
-173.954	-102.223	0.313	0.074
-172.939	-51.508	0.143	0.066
-171.925	-88.973	0.171	0.050
-170.910	800.000	-0.071	-0.206
-169.896	-21.804	-0.113	-0.068
-168.881	-35.882	0.298	-0.159
-167.866	-175.167	0.174	-0.005
-166.852	-89.636	-0.180	-0.052
-165.837	800.000	0.067	0.183
-164.823	-183.575	-0.269	0.005
-163.808	111.991	0.163	-0.194
-162.793	-69.037	-0.025	-0.010
-161.779	209.496	0.095	0.147
-160.764	58.634	0.181	-0.175
-159.750	220.515	0.151	0.239
-158.735	28.208	0.308	-0.257
-157.720	-92.043	0.227	0.063
-156.706	-160.791	-0.235	0.012
-155.691	66.813	-0.182	-0.182
-154.677	33.237	0.075	0.064
-153.662	47.479	-0.261	0.240
-152.647	500.041	0.043	0.098
-151.633	-83.289	0.116	-0.037
-150.618	130.027	-0.143	0.181
-149.604	-200.000	-0.007	0.112
-148.589	-2.012	0.197	0.137
-147.574	-116.094	0.288	-0.053
-146.560	-37.436	0.105	-0.055
-145.545	58.964	0.469	0.454
-144.531	250.912	0.146	0.245
-143.516	-111.827	0.280	-0.056
-142.502	305.969	-0.259	0.475
-141.487	32.839	0.442	0.377
-140.472	-200.000	-0.031	0.231
-139.458	800.000	0.080	0.331
-138.443	41.329	-0.246	0.219
-137.429	-200.000	-0.004	-0.099
-136.414	-113.689	0.308	-0.059
-135.399	-200.000	-0.015	0.273
-134.385	369.805	0.128	0.256
-133.370	-38.756	-0.191	0.099
-132.356	274.326	-0.065	-0.113
-131.341	-107.821	0.265	0.057
-130.326	800.000	-0.133	0.378
-129.312	-162.818	0.241	0.012
-128.297	-88.771	0.413	-0.121
-127.283	-24.249	-0.319	-0.187
-126.268	-200.000	0.002	0.116
-125.253	-11.611	-0.074	0.048
-124.239	-200.000	-0.066	-0.357
-123.224	-97.027	-0.281	0.073
-122.210	-134.082	0.123	0.015
-121.195	-176.062	-0.045	-0.001
