DTS Sentinel unit serial number:	SN413079Multiplexer serial number:	ORYXHardware model number:	OX4-SRSoftware version number:	ORYX F/W v4.00 Oryx Data Collector v3.7.2.0data status	okinstallation	princeton_trtdifferential loss correction	single-endedforward channel	channel 3reverse channel	N/Adate	2019/09/17time	09:56:34forward acquisition time	60.00reverse acquisition time	0.00gamma	496.2192k internal	0.2323k external	0.2323temperature offset calibration	0.9941default loss term (dB/km)	0.3790temperature slope calibration	1.0000multiplexer offset coefficient	1.0000multiplexer slope coefficient	1.0000fibre end	0.00T internal ref (°C)	29.56T ext. ref 1 (°C)	0.16T ext. ref 2 (°C)	25.30length (m)	temperature (°C)	Stokes	anti-Stokes-747.200	-180.752	-0.274	0.006
-746.185	-200.000	0.035	0.263
-745.171	-102.849	0.364	0.088
-744.156	-200.000	0.011	0.114
-743.142	51.948	0.012	0.011
-742.127	-47.792	0.163	0.080
-741.112	-5.047	0.478	-0.332
-740.098	601.437	-0.237	0.595
-739.083	20.703	-0.106	-0.087
-738.069	-157.238	-0.338	0.021
-737.054	266.576	-0.063	-0.112
-736.039	-21.891	-0.171	0.105
-735.025	530.808	0.109	0.260
-734.010	-158.551	-0.289	-0.017
-732.996	-52.042	-0.421	-0.198
-731.981	718.339	0.061	-0.162
-730.966	399.252	-0.111	-0.234
-729.952	-200.000	0.030	0.212
-728.937	247.730	0.042	0.072
-727.923	-109.012	0.147	-0.032
-726.908	633.673	-0.042	0.107
-725.894	210.269	-0.022	0.036
-724.879	234.793	-0.171	-0.285
-723.864	-200.000	0.016	-0.157
-722.850	18.552	0.286	-0.231
-721.835	800.000	0.037	0.155
-720.821	0.930	0.271	-0.196
-719.806	-53.495	-0.299	-0.138
-718.791	-200.000	0.004	0.278
-717.777	800.000	0.045	0.147
-716.762	-12.121	-0.210	0.139
-715.748	375.906	0.105	0.216
-714.733	-200.000	-0.001	0.048
-713.718	-180.373	-0.273	-0.006
-712.704	374.409	-0.064	-0.132
-711.689	-200.000	-0.010	-0.380
-710.675	55.751	0.133	-0.130
-709.660	-80.677	-0.263	-0.088
-708.645	26.993	0.176	-0.149
-707.631	-67.541	-0.132	-0.052
-706.616	-168.668	-0.418	-0.016
-705.602	-200.000	-0.026	0.119
-704.587	341.226	-0.176	0.346
-703.572	-82.112	-0.087	0.029
-702.558	256.019	-0.068	0.118
-701.543	-156.528	-0.124	0.008
-700.529	-158.784	0.105	-0.006
-699.514	-108.956	0.138	-0.030
-698.499	-200.000	-0.009	-0.175
-697.485	340.928	-0.038	0.075
-696.470	16.214	-0.208	-0.165
-695.456	246.836	-0.102	-0.174
-694.441	-156.966	0.240	-0.015
-693.426	8.896	0.112	-0.085
-692.412	-200.000	0.030	0.136
-691.397	-65.941	-0.099	-0.040
-690.383	-65.222	0.222	0.090
-689.368	-0.573	-0.218	0.156
-688.354	-34.728	-0.087	-0.048
-687.339	800.000	0.052	-0.168
-686.324	-200.000	-0.003	-0.024
-685.310	-3.825	-0.202	-0.141
-684.295	51.334	-0.184	0.176
-683.281	800.000	0.014	-0.059
-682.266	231.078	0.158	-0.261
-681.251	-200.000	-0.005	0.029
-680.237	20.185	0.200	-0.163
-679.222	800.000	-0.110	-0.381
-678.208	98.203	0.071	-0.083
-677.193	800.000	-0.165	0.617
-676.178	-128.203	-0.163	-0.023
-675.164	800.000	-0.059	0.247
-674.149	-77.285	0.410	-0.144
-673.135	-37.322	-0.171	0.092
-672.120	-105.157	0.171	0.039
-671.105	-101.275	0.178	-0.044
-670.091	299.512	0.095	0.177
-669.076	-65.441	0.077	0.031
-668.062	-200.000	0.031	-0.289
-667.047	372.262	-0.119	0.243
-666.032	-200.000	0.023	-0.124
-665.018	410.916	0.014	0.030
-664.003	-101.044	-0.379	0.093
-662.989	402.719	-0.162	-0.342
-661.974	800.000	0.028	-0.119
-660.959	289.315	-0.113	0.206
-659.945	-36.609	-0.238	0.129
-658.930	-200.000	0.014	-0.496
-657.916	800.000	-0.064	-0.201
-656.901	143.151	0.142	0.190
-655.886	-152.833	0.202	-0.014
-654.872	422.029	-0.252	0.544
-653.857	-52.729	-0.126	0.058
-652.843	693.693	-0.069	-0.183
-651.828	208.153	0.154	-0.242
-650.814	38.366	0.304	-0.273
-649.799	-115.943	-0.167	-0.031
-648.784	454.318	-0.064	0.143
-647.770	-122.331	0.075	-0.012
-646.755	-76.972	-0.138	0.049
-645.741	636.084	-0.069	0.175
-644.726	59.646	-0.155	-0.154
-643.711	219.468	0.128	0.206
-642.697	800.000	0.100	-0.318
-641.682	-70.177	-0.239	0.091
-640.668	800.000	0.031	-0.134
-639.653	155.121	0.049	0.068
-638.638	-41.120	0.230	0.119
-637.624	-103.476	-0.333	0.079
-636.609	85.139	0.225	0.248
-635.595	215.036	0.190	0.303
-634.580	-114.934	-0.108	-0.021
-633.565	18.213	0.103	-0.083
-632.551	662.895	0.091	-0.236
-631.536	-118.851	-0.222	0.039
-630.522	100.444	-0.167	-0.195
-629.507	800.000	0.053	-0.175
-628.492	800.000	0.061	0.181
-627.478	96.353	-0.053	0.061
-626.463	800.000	-0.137	0.410
-625.449	800.000	-0.067	-0.231
-624.434	-200.000	0.060	-0.397
-623.419	-188.084	0.242	0.003
-622.405	-89.440	-0.409	-0.121
-621.390	57.380	0.104	0.102
-620.376	-126.458	0.039	-0.006
-619.361	105.683	-0.190	-0.226
-618.346	3.619	-0.226	0.166
-617.332	238.742	-0.154	-0.257
-616.317	61.814	0.011	0.011
-615.303	-120.005	-0.093	0.016
-614.288	15.524	-0.113	-0.089
-613.273	771.110	0.080	-0.218
-612.259	-138.457	-0.269	0.030
-611.244	382.335	0.112	0.231
-610.230	-122.294	0.146	0.024
-609.215	53.106	-0.158	0.152
-608.201	-200.000	-0.024	0.140
-607.186	-182.703	0.423	0.008
-606.171	45.994	-0.186	0.173
-605.157	137.600	0.061	-0.080
-604.142	-178.408	-0.188	-0.004
-603.128	-115.064	0.119	-0.023
-602.113	-173.266	0.139	-0.004
-601.098	-72.305	-0.049	-0.018
-600.084	90.557	0.036	-0.041
-599.069	800.000	0.106	0.402
-598.055	268.432	-0.149	-0.262
-597.040	-56.671	0.242	0.108
-596.025	-59.508	0.243	-0.105
-595.011	-25.439	-0.017	-0.010
-593.996	452.231	0.051	-0.113
-592.982	-200.000	-0.025	-0.112
-591.967	-200.000	-0.002	-0.326
-590.952	-98.566	0.128	0.033
-589.938	-130.389	-0.056	-0.008
-588.923	-200.000	0.014	0.314
-587.909	-16.677	-0.171	-0.109
-586.894	102.978	0.126	0.148
-585.879	-200.000	-0.005	-0.331
-584.865	-122.364	-0.466	0.076
-583.850	-99.765	-0.195	-0.049
-582.836	268.951	-0.140	0.247
-581.821	-53.314	-0.139	0.064
-580.806	9.441	0.285	0.217
-579.792	-5.956	0.190	0.130
-578.777	-200.000	-0.016	-0.231
-577.763	-118.773	0.200	0.035
-576.748	175.726	-0.075	0.110
-575.733	169.523	0.087	0.125
-574.719	-196.079	-0.297	0.002
-573.704	800.000	0.037	0.138
-572.690	-95.697	0.246	0.066
-571.675	-129.219	0.096	-0.013
-570.661	-72.068	-0.099	-0.037
-569.646	-106.317	-0.121	0.027
-568.631	108.850	0.154	-0.184
-567.617	-121.706	-0.090	-0.015
-566.602	222.576	-0.107	-0.173
-565.588	136.118	-0.148	-0.194
-564.573	-82.880	0.211	0.068
-563.558	-200.000	-0.007	0.095
-562.544	482.180	0.099	0.226
-561.529	-200.000	0.018	0.219
-560.515	-199.666	0.378	0.002
-559.500	-200.000	0.043	-0.292
-558.485	-84.813	-0.151	0.048
-557.471	558.583	-0.115	0.278
-556.456	-172.571	0.244	0.008
-555.442	44.129	0.123	0.113
-554.427	-60.131	0.083	0.035
-553.412	-200.000	-0.015	-0.160
-552.398	-69.142	-0.223	0.086
-551.383	-200.000	-0.023	-0.301
-550.369	-67.702	0.218	-0.086
-549.354	88.258	-0.035	0.039
-548.339	103.006	-0.206	-0.242
-547.325	-200.000	-0.024	-0.277
-546.310	-47.827	0.229	0.111
-545.296	148.025	-0.231	-0.312
-544.281	255.426	-0.256	0.440
-543.266	384.073	0.185	-0.382
-542.252	-131.506	-0.095	-0.013
-541.237	800.000	-0.044	0.136
-540.223	-115.537	-0.167	-0.031
-539.208	-77.052	0.198	-0.069
-538.193	-37.093	-0.231	-0.124
-537.179	-19.304	-0.116	-0.072
-536.164	-148.021	-0.710	0.059
-535.150	33.883	-0.160	0.140
-534.135	-200.000	0.060	-0.277
-533.121	-30.328	-0.195	-0.111
-532.106	-88.826	-0.351	-0.104
-531.091	79.216	0.116	-0.125
-530.077	-8.127	0.191	0.129
-529.062	-200.000	0.039	-0.352
-528.048	-58.645	0.105	-0.046
-527.033	-112.638	0.088	-0.017
-526.018	44.275	0.252	0.232
-525.004	-197.923	0.033	0.000
-523.989	-187.614	0.101	0.001
-522.975	-200.000	0.003	0.329
-521.960	-55.015	-0.177	0.080
-520.945	141.152	0.328	0.434
-519.931	800.000	-0.056	-0.216
-518.916	91.752	-0.064	-0.072
-517.902	266.653	-0.130	-0.227
-516.887	-71.049	-0.200	0.075
-515.872	800.000	-0.050	0.151
-514.858	-27.939	0.126	-0.073
-513.843	-36.682	0.288	-0.155
-512.829	99.925	0.227	-0.263
-511.814	-136.674	-0.416	-0.048
-510.799	-35.986	0.116	0.063
-509.785	-161.599	0.093	0.005
-508.770	-110.198	-0.153	-0.032
-507.756	360.983	-0.072	-0.144
-506.741	29.531	0.163	0.139
-505.726	768.734	0.103	0.281
-504.712	-200.000	0.040	-0.315
-503.697	587.286	0.097	0.240
-502.683	-200.000	-0.054	-0.282
-501.668	139.059	-0.093	0.122
-500.653	637.108	0.136	-0.345
-499.639	1.572	-0.065	-0.047
-498.624	-200.000	-0.039	-0.278
-497.610	800.000	-0.055	-0.203
-496.595	196.936	0.085	-0.129
-495.581	-110.538	-0.086	-0.018
-494.566	-90.286	-0.190	0.055
-493.551	-90.958	-0.315	-0.090
-492.537	-200.000	0.019	0.194
-491.522	-72.506	-0.077	-0.028
-490.508	-138.852	0.325	0.035
-489.493	11.399	0.058	0.044
-488.478	-83.851	0.357	0.114
-487.464	-20.859	-0.264	-0.162
-486.449	282.692	-0.190	-0.340
-485.435	456.299	-0.060	-0.133
-484.420	800.000	-0.056	0.200
-483.405	186.321	0.155	0.230
-482.391	382.616	0.130	-0.267
-481.376	493.421	0.084	-0.191
-480.362	792.190	0.144	-0.396
-479.347	800.000	-0.062	0.227
-478.332	473.934	0.127	0.287
-477.318	-200.000	-0.008	-0.047
-476.303	800.000	-0.134	0.509
-475.289	-200.000	-0.012	-0.234
-474.274	-41.412	0.134	-0.069
-473.259	119.109	0.055	0.068
-472.245	437.188	0.103	0.224
-471.230	3.521	0.291	0.212
-470.216	-200.000	0.020	0.298
-469.201	-63.470	-0.083	0.034
-468.186	-200.000	-0.056	0.326
-467.172	-117.532	0.078	-0.014
-466.157	1.025	-0.371	0.266
-465.143	184.101	-0.078	-0.116
-464.128	800.000	0.120	-0.372
-463.113	572.856	-0.022	0.053
-462.099	-11.943	0.151	0.099
-461.084	-125.917	0.342	-0.051
-460.070	462.414	0.203	0.453
-459.055	83.537	-0.072	0.079
-458.040	-17.631	-0.094	-0.059
-457.026	23.018	-0.169	0.138
-456.011	264.779	0.026	0.046
-454.997	27.397	-0.481	-0.404
-453.982	-200.000	-0.022	0.221
-452.968	800.000	0.088	0.339
-451.953	-200.000	0.067	-0.331
-450.938	190.623	0.075	-0.112
-449.924	-107.353	0.196	0.043
-448.909	193.449	0.136	-0.205
-447.895	127.971	-0.136	-0.173
-446.880	248.343	-0.238	-0.401
-445.865	-170.719	-0.088	0.003
-444.851	-117.567	0.413	-0.074
-443.836	-200.000	0.002	-0.071
-442.822	-93.389	-0.379	0.105
-441.807	-200.000	-0.030	0.301
-440.792	-200.000	0.005	-0.074
-439.778	-102.919	0.080	0.019
-438.763	800.000	0.028	0.098
-437.749	146.335	0.240	0.322
-436.734	139.466	0.194	-0.255
-435.719	-200.000	-0.006	-0.153
-434.705	-173.699	0.159	-0.005
-433.690	-26.891	0.151	-0.088
-432.676	67.715	-0.024	0.025
-431.661	-98.196	0.071	0.018
-430.646	-57.494	0.336	0.147
-429.632	-36.480	-0.174	-0.093
-428.617	286.702	0.237	-0.427
-427.603	-125.349	0.064	0.010
-426.588	446.539	-0.220	-0.482
-425.573	-5.990	-0.111	-0.076
-424.559	198.724	-0.132	0.202
-423.544	-200.000	0.045	0.286
-422.530	64.694	0.172	-0.173
-421.515	-200.000	-0.001	0.268
-420.500	-125.319	-0.220	-0.034
-419.486	-33.158	-0.070	-0.039
-418.471	85.543	0.039	-0.042
-417.457	-72.679	0.215	0.079
-416.442	-200.000	-0.060	-0.375
-415.428	800.000	-0.095	-0.277
-414.413	360.356	-0.196	0.391
-413.398	-1.650	-0.113	0.080
-412.384	453.700	0.062	-0.137
-411.369	-57.779	-0.130	-0.057
-410.355	162.255	0.088	-0.122
-409.340	-88.497	0.255	0.076
-408.325	352.770	0.046	-0.091
-407.311	188.600	0.042	0.063
-406.296	800.000	-0.173	-0.539
-405.282	-112.140	-0.060	-0.012
-404.267	633.791	0.046	-0.115
-403.252	-135.453	-0.356	0.042
-402.238	-21.299	0.117	-0.071
-401.223	800.000	0.084	0.365
-400.209	-68.383	-0.153	0.059
-399.194	-149.520	-0.229	-0.018
-398.179	-22.011	0.133	-0.081
-397.165	800.000	-0.033	0.133
-396.150	-200.000	0.006	-0.072
-395.136	678.271	0.061	0.159
-394.121	-51.985	-0.212	-0.098
-393.106	15.613	0.276	-0.216
-392.092	-200.000	-0.001	-0.026
-391.077	218.231	0.079	0.126
-390.063	-200.000	0.019	0.172
-389.048	242.849	0.058	-0.097
-388.033	-200.000	0.028	0.255
-387.019	-58.884	0.019	-0.008
-386.004	-133.402	-0.630	-0.079
-384.990	305.829	0.004	-0.007
-383.975	-84.872	-0.288	-0.090
-382.960	-43.156	0.103	-0.052
-381.946	510.615	-0.143	0.332
-380.931	20.320	0.275	-0.222
-379.917	119.772	0.056	0.069
-378.902	800.000	-0.049	0.190
-377.888	47.290	-0.262	0.243
-376.873	65.861	0.309	0.312
-375.858	172.574	0.184	-0.264
-374.844	-168.587	0.253	-0.010
-373.829	146.783	-0.052	0.070
-372.815	25.711	-0.130	0.108
-371.800	397.247	-0.074	-0.155
-370.785	45.844	-0.181	-0.166
-369.771	-200.000	-0.037	0.204
-368.756	-168.320	0.276	0.011
-367.742	83.295	-0.200	-0.217
-366.727	-130.838	-0.391	0.052
-365.712	294.224	0.101	-0.183
-364.698	-200.000	-0.051	-0.281
-363.683	295.277	-0.129	-0.235
-362.669	-147.419	0.318	-0.027
-361.654	62.087	-0.204	-0.202
-360.639	260.962	0.028	-0.048
-359.625	-200.000	0.003	-0.047
-358.610	800.000	0.069	0.266
-357.596	-200.000	0.079	0.408
-356.581	253.535	0.013	-0.022
-355.566	58.431	-0.213	0.208
-354.552	166.863	-0.099	-0.139
-353.537	-74.056	0.156	-0.056
-352.523	-69.341	-0.101	-0.039
-351.508	9.520	-0.124	-0.094
-350.493	372.345	0.038	-0.077
-349.479	623.799	-0.104	0.260
-348.464	550.237	-0.074	-0.177
-347.450	227.418	0.145	-0.235
-346.435	-2.013	-0.181	0.127
-345.420	-47.822	-0.214	-0.103
-344.406	-119.739	-0.368	0.063
-343.391	-31.449	0.197	0.110
-342.377	22.554	-0.235	0.192
-341.362	-105.585	0.209	0.047
-340.348	784.802	0.088	0.239
-339.333	-49.711	0.081	0.038
-338.318	96.499	-0.074	0.084
-337.304	-141.444	-0.084	-0.008
-336.289	-127.608	-0.166	0.024
-335.275	426.150	-0.119	0.254
-334.260	24.975	0.085	0.070
-333.245	521.300	-0.167	-0.388
-332.231	-200.000	0.025	0.268
-331.216	800.000	-0.066	0.262
-330.202	-146.443	0.274	0.024
-329.187	-94.436	0.273	-0.074
-328.172	-103.763	-0.167	0.039
-327.158	-39.109	-0.133	-0.069
-326.143	800.000	-0.082	0.295
-325.129	-200.000	0.007	0.080
-324.114	-200.000	0.015	-0.077
-323.099	-200.000	0.005	-0.323
-322.085	-175.239	-0.085	-0.002
-321.070	-122.635	-0.081	0.013
-320.056	80.547	0.070	0.075
-319.041	37.073	0.068	-0.059
-318.026	542.596	0.051	-0.120
-317.012	-79.500	0.290	0.097
-315.997	-24.223	0.158	-0.093
-314.983	-135.216	0.072	-0.009
-313.968	-156.282	0.180	-0.011
-312.953	-200.000	0.014	-0.084
-311.939	-95.498	-0.125	-0.033
-310.924	81.176	-0.212	0.227
-309.910	-200.000	0.110	-0.530
-308.895	-29.010	0.244	-0.139
-307.880	800.000	0.017	-0.056
-306.866	-200.000	-0.014	0.069
-305.851	-200.000	0.044	0.220
-304.837	-200.000	0.016	0.339
-303.822	-200.000	-0.018	0.359
-302.807	241.685	-0.120	0.199
-301.793	48.250	0.113	-0.105
-300.778	-134.255	-0.266	0.032
-299.764	98.928	0.064	0.073
-298.749	351.725	0.142	0.279
-297.735	376.353	-0.060	-0.121
-296.720	-200.000	0.037	0.210
-295.705	92.887	-0.075	-0.084
-294.691	-138.048	0.185	0.020
-293.676	-200.000	-0.037	0.195
-292.662	-200.000	0.078	0.460
-291.647	351.242	-0.142	-0.278
-290.632	-200.000	-0.051	-0.281
-289.618	-200.000	-0.024	-0.162
-288.603	100.208	0.107	0.123
-287.589	-95.112	-0.387	-0.104
-286.574	-200.000	0.034	-0.193
-285.559	-94.312	-0.297	-0.081
-284.545	253.891	0.133	0.226
-283.530	-200.000	0.026	-0.187
-282.516	-84.992	0.387	-0.120
-281.501	-162.265	0.226	0.011
-280.486	80.935	-0.129	-0.139
-279.472	531.937	-0.043	0.101
-278.457	37.338	0.086	0.075
-277.443	224.559	-0.073	-0.117
-276.428	26.646	0.217	-0.180
-275.413	357.926	-0.099	0.196
-274.399	-73.426	0.252	0.091
-273.384	-25.040	0.201	0.118
-272.370	61.180	-0.019	-0.018
-271.355	134.252	-0.153	-0.197
-270.340	-108.772	0.305	-0.065
-269.326	-200.000	0.063	0.278
-268.311	800.000	0.076	0.265
-267.297	19.127	0.412	0.327
-266.282	-20.986	-0.129	-0.078
-265.267	-200.000	0.019	0.138
-264.253	99.444	0.121	0.139
-263.238	-57.556	-0.228	0.099
-262.224	74.874	-0.144	-0.150
-261.209	27.576	0.031	-0.026
-260.195	-43.095	-0.075	0.038
-259.180	96.198	-0.180	0.204
-258.165	51.114	0.113	0.107
-257.151	241.885	0.128	-0.212
-256.136	-69.122	0.434	0.166
-255.122	120.265	-0.053	0.066
-254.107	-94.741	-0.213	-0.057
-253.092	698.502	-0.099	0.257
-252.078	-46.263	0.162	0.079
-251.063	-88.193	0.141	-0.042
-250.049	-53.550	-0.229	0.104
-249.034	-154.299	0.365	0.024
-248.019	-46.186	-0.195	-0.095
-247.005	-200.000	0.076	0.374
-245.990	800.000	0.139	-0.399
-244.976	-200.000	-0.073	-0.359
-243.961	800.000	-0.040	-0.110
-242.946	-200.000	-0.020	0.302
-241.932	-88.348	0.332	0.098
-240.917	-98.123	-0.335	0.085
-239.903	800.000	0.078	0.287
-238.888	111.895	0.136	0.163
-237.873	-109.586	-0.217	0.045
-236.859	-36.327	0.196	-0.105
-235.844	-70.759	0.460	0.172
-234.830	88.821	0.245	-0.270
-233.815	37.355	0.163	-0.143
-232.800	-63.822	0.137	0.056
-231.786	-65.008	-0.125	-0.050
-230.771	-133.074	-0.036	0.004
-229.757	20.370	0.088	-0.071
-228.742	-127.133	-0.131	-0.019
-227.727	5.492	-0.497	-0.363
-226.713	98.777	0.232	-0.265
-225.698	800.000	-0.042	-0.167
-224.684	723.093	0.081	-0.213
-223.669	407.492	-0.161	-0.337
-222.655	-62.148	-0.279	-0.115
-221.640	-200.000	0.023	0.516
-220.625	-200.000	-0.124	-0.000
-219.611	-99.372	-0.124	-0.031
-218.596	128.841	0.050	-0.063
-217.582	-32.656	-0.239	-0.132
-216.567	791.173	-0.060	0.162
-215.552	730.771	-0.066	0.176
-214.538	-200.000	0.020	0.288
-213.523	-91.222	-0.101	0.028
-212.509	156.682	-0.047	-0.064
-211.494	-166.706	0.177	-0.007
-210.479	9.868	0.109	0.082
-209.465	-21.931	0.141	-0.085
-208.450	-29.806	-0.189	0.107
-207.436	330.212	0.158	-0.300
-206.421	226.839	0.030	-0.049
-205.406	-200.000	0.001	0.074
-204.392	-77.229	-0.033	0.011
-203.377	421.791	0.068	0.145
-202.363	138.074	-0.022	0.029
-201.348	-120.917	0.119	-0.020
-200.333	-18.382	-0.369	0.228
-199.319	-118.580	0.265	-0.046
-198.304	122.282	0.154	-0.190
-197.290	-200.000	-0.036	0.195
-196.275	-117.389	0.249	0.045
-195.260	-43.301	0.105	0.053
-194.246	78.950	-0.127	0.134
-193.231	25.073	0.265	0.217
-192.217	-200.000	0.046	0.200
-191.202	-200.000	-0.008	0.117
-190.187	733.113	-0.092	0.243
-189.173	-200.000	0.044	0.197
-188.158	800.000	0.010	-0.034
-187.144	-157.313	0.435	0.026
-186.129	-150.764	-0.287	0.022
-185.114	118.249	-0.042	0.051
-184.100	-200.000	-0.027	-0.129
-183.085	800.000	-0.088	0.304
-182.071	112.925	0.133	0.159
-181.056	529.091	-0.026	0.060
-180.042	114.814	0.197	0.237
-179.027	-17.601	-0.066	-0.041
-178.012	-37.190	0.045	-0.024
-176.998	800.000	-0.086	-0.235
-175.983	800.000	-0.059	0.227
-174.969	-46.182	-0.132	0.064
-173.954	93.366	0.142	-0.159
-172.939	486.320	0.045	-0.102
-171.925	469.158	-0.141	-0.312
-170.910	-63.847	0.202	0.082
-169.896	75.198	-0.320	0.333
-168.881	60.184	-0.093	-0.091
-167.866	-61.644	-0.063	-0.026
-166.852	315.367	-0.197	-0.367
-165.837	563.719	0.209	-0.500
-164.823	-147.225	-0.215	0.018
-163.808	296.680	0.087	0.158
-162.793	-66.387	0.362	0.142
-161.779	800.000	0.025	-0.069
-160.764	-200.000	0.031	-0.227
-159.750	800.000	0.037	-0.119
-158.735	-200.000	-0.040	0.244
-157.720	-83.661	-0.272	-0.086
-156.706	-110.096	0.137	-0.028
-155.691	230.430	-0.363	-0.585
-154.677	-200.000	0.043	-0.509
-153.662	-12.940	0.265	-0.170
-152.647	176.820	-0.145	0.207
-151.633	-200.000	-0.032	-0.204
-150.618	371.363	0.063	0.127
-149.604	-25.677	-0.115	0.067
-148.589	-200.000	-0.014	-0.138
-147.574	800.000	-0.056	-0.194
-146.560	231.121	0.097	0.156
-145.545	-200.000	-0.009	0.175
-144.531	-113.631	-0.059	0.011
-143.516	-119.412	0.357	0.061
-142.502	375.702	-0.145	-0.291
-141.487	-200.000	-0.063	-0.385
-140.472	271.512	0.153	-0.266
-139.458	46.851	0.113	-0.104
-138.443	502.334	-0.007	-0.015
-137.429	-115.744	-0.416	-0.077
-136.414	-200.000	-0.011	0.259
-135.399	230.402	0.136	0.219
-134.385	-141.864	-0.135	-0.013
-133.370	-200.000	-0.008	0.130
-132.356	-111.805	0.359	0.072
-131.341	-17.544	0.239	-0.148
-130.326	65.636	-0.175	0.175
-129.312	-127.310	0.166	-0.024
-128.297	349.462	0.065	0.126
-127.283	-26.086	-0.103	-0.060
-126.268	40.776	-0.113	0.101
-125.253	-200.000	-0.031	0.176
-124.239	196.891	0.096	-0.144
-123.224	135.540	0.135	0.173
-122.210	-200.000	-0.022	0.121
