DTS Sentinel unit serial number:	SN413079Multiplexer serial number:	ORYXHardware model number:	OX4-SRSoftware version number:	ORYX F/W v4.00 Oryx Data Collector v3.7.2.0data status	okinstallation	princeton_trtdifferential loss correction	single-endedforward channel	channel 3reverse channel	N/Adate	2019/09/13time	05:56:35forward acquisition time	60.00reverse acquisition time	0.00gamma	496.2192k internal	0.2338k external	0.2338temperature offset calibration	1.0137default loss term (dB/km)	0.3790temperature slope calibration	1.0000multiplexer offset coefficient	1.0000multiplexer slope coefficient	1.0000fibre end	0.00T internal ref (°C)	26.16T ext. ref 1 (°C)	4.07T ext. ref 2 (°C)	20.97length (m)	temperature (°C)	Stokes	anti-Stokes-747.200	-161.957	-0.167	0.008
-746.185	800.000	0.037	-0.149
-745.171	6.297	-0.142	-0.106
-744.156	243.431	0.105	0.177
-743.142	98.076	0.069	0.079
-742.127	127.657	-0.151	0.192
-741.112	-200.000	-0.041	-0.418
-740.098	-64.929	-0.349	-0.142
-739.083	-34.901	0.162	-0.089
-738.069	25.089	-0.090	0.075
-737.054	771.604	-0.055	0.150
-736.039	-163.001	-0.212	-0.010
-735.025	-14.449	0.199	0.129
-734.010	103.955	-0.101	-0.119
-732.996	194.941	0.084	-0.128
-731.981	438.551	0.088	0.192
-730.966	-200.000	-0.053	-0.250
-729.952	-81.498	-0.255	0.084
-728.937	79.338	-0.089	-0.096
-727.923	-139.499	-0.125	0.013
-726.908	-142.862	-0.074	-0.007
-725.894	-200.000	0.058	-0.257
-724.879	473.723	-0.066	-0.149
-723.864	162.559	-0.123	-0.173
-722.850	800.000	-0.047	0.189
-721.835	-200.000	-0.021	0.155
-720.821	-175.745	-0.489	-0.013
-719.806	49.669	-0.272	-0.257
-718.791	129.499	-0.190	-0.243
-717.777	125.641	-0.192	-0.243
-716.762	-100.259	-0.162	-0.040
-715.748	-80.963	0.161	0.054
-714.733	24.500	-0.146	-0.121
-713.718	44.964	-0.164	0.152
-712.704	497.596	0.114	-0.262
-711.689	454.651	0.109	-0.242
-710.675	-36.239	0.329	0.178
-709.660	800.000	-0.072	0.314
-708.645	61.216	-0.217	-0.216
-707.631	-110.119	0.115	0.024
-706.616	-0.463	0.148	-0.106
-705.602	-200.000	0.007	-0.334
-704.587	-57.307	-0.162	-0.071
-703.572	-116.862	0.058	0.011
-702.558	-118.153	-0.220	0.039
-701.543	68.153	-0.132	-0.135
-700.529	-200.000	0.009	-0.493
-699.514	-129.061	0.324	-0.045
-698.499	171.544	-0.191	-0.275
-697.485	-200.000	-0.003	-0.034
-696.470	-23.392	0.077	-0.047
-695.456	-20.193	0.067	0.041
-694.441	-90.708	0.305	-0.088
-693.426	40.443	-0.121	0.109
-692.412	-61.453	-0.070	-0.030
-691.397	202.406	-0.158	-0.244
-690.383	-78.637	-0.140	0.048
-689.368	-176.056	-0.356	-0.009
-688.354	800.000	0.021	0.088
-687.339	-200.000	0.024	0.315
-686.324	-10.509	-0.215	0.143
-685.310	-56.335	0.193	0.086
-684.295	-40.651	0.180	-0.093
-683.281	-118.299	0.070	0.013
-682.266	-162.748	0.131	0.006
-681.251	-200.000	-0.016	0.077
-680.237	-54.016	0.185	0.084
-679.222	435.692	0.141	0.307
-678.208	65.099	-0.068	-0.069
-677.193	89.704	0.230	-0.257
-676.178	-5.263	-0.084	-0.058
-675.164	800.000	-0.091	-0.327
-674.149	-87.985	-0.527	-0.158
-673.135	-61.722	-0.155	-0.065
-672.120	800.000	0.068	0.230
-671.105	-200.000	-0.002	0.098
-670.091	82.095	-0.057	0.062
-669.076	44.647	-0.270	-0.249
-668.062	-200.000	-0.013	0.214
-667.047	52.352	0.269	0.257
-666.032	75.711	-0.116	0.123
-665.018	17.150	0.143	0.114
-664.003	-132.005	0.238	-0.031
-662.989	-200.000	-0.065	-0.343
-661.974	-73.718	0.319	0.116
-660.959	-88.406	-0.593	-0.177
-659.945	-108.202	-0.492	-0.106
-658.930	-142.328	-0.274	0.027
-657.916	15.271	0.227	-0.178
-656.901	-81.601	-0.379	-0.125
-655.886	-200.000	-0.018	-0.320
-654.872	488.418	0.075	0.172
-653.857	95.627	-0.062	-0.071
-652.843	141.888	0.177	-0.234
-651.828	800.000	-0.065	-0.183
-650.814	122.793	-0.169	-0.211
-649.799	9.427	-0.149	-0.112
-648.784	-75.207	0.204	0.073
-647.770	-200.000	-0.009	0.093
-646.755	-40.516	-0.188	0.098
-645.741	-37.715	-0.237	-0.126
-644.726	30.172	-0.055	-0.047
-643.711	333.950	-0.153	-0.296
-642.697	-128.103	0.100	-0.014
-641.682	43.281	0.163	0.149
-640.668	214.141	-0.193	0.305
-639.653	148.483	-0.280	-0.377
-638.638	622.549	-0.134	-0.338
-637.624	-200.000	0.003	-0.250
-636.609	-200.000	-0.018	-0.260
-635.595	800.000	-0.053	-0.228
-634.580	-200.000	0.003	-0.202
-633.565	75.664	-0.169	-0.179
-632.551	-200.000	0.004	0.179
-631.536	-79.115	-0.273	-0.093
-630.522	-200.000	0.007	-0.033
-629.507	60.182	-0.210	0.207
-628.492	124.742	-0.090	-0.113
-627.478	-120.270	0.085	0.015
-626.463	-200.000	0.001	0.116
-625.449	452.369	-0.013	-0.028
-624.434	332.191	0.146	0.281
-623.419	-77.501	-0.245	-0.085
-622.405	775.930	0.053	-0.143
-621.390	-200.000	-0.012	0.257
-620.376	-34.405	0.181	-0.099
-619.361	-125.114	0.238	-0.036
-618.346	-132.973	0.179	-0.023
-617.332	35.441	0.146	-0.128
-616.317	160.994	0.133	-0.186
-615.303	-68.793	0.280	-0.108
-614.288	28.593	-0.242	0.204
-613.273	465.726	0.070	0.156
-612.259	-136.709	0.289	0.033
-611.244	132.485	-0.160	0.205
-610.230	-158.280	0.358	0.021
-609.215	381.109	-0.152	-0.311
-608.201	192.913	0.161	0.243
-607.186	339.012	0.108	0.210
-606.171	311.584	0.089	-0.166
-605.157	-57.393	-0.182	-0.080
-604.142	41.198	0.146	-0.132
-603.128	68.475	-0.056	0.057
-602.113	-32.827	0.038	-0.021
-601.098	-200.000	-0.047	-0.299
-600.084	368.852	0.049	0.100
-599.069	108.188	-0.242	-0.288
-598.055	-28.972	0.121	0.069
-597.040	-40.594	0.157	-0.081
-596.025	97.622	0.068	0.078
-595.011	-60.044	0.427	-0.182
-593.996	-122.524	0.124	0.020
-592.982	-80.461	0.234	0.078
-591.967	285.455	0.058	0.104
-590.952	-200.000	0.016	-0.277
-589.938	-43.905	0.206	0.103
-588.923	18.412	-0.340	0.271
-587.909	20.562	0.188	-0.151
-586.894	-63.354	-0.291	0.119
-585.879	-68.254	-0.084	-0.033
-584.865	309.566	0.138	-0.257
-583.850	-139.695	0.139	-0.015
-582.836	335.477	-0.156	-0.302
-581.821	800.000	-0.033	-0.101
-580.806	543.138	-0.138	0.329
-579.792	-93.219	-0.154	0.043
-578.777	800.000	-0.057	-0.184
-577.763	254.272	0.017	-0.029
-576.748	96.968	0.188	-0.215
-575.733	-8.335	-0.082	0.055
-574.719	79.100	-0.214	0.229
-573.704	-34.562	0.211	-0.115
-572.690	-129.629	-0.153	0.021
-571.675	731.933	0.078	0.207
-570.661	-157.017	0.434	0.026
-569.646	223.561	-0.079	-0.128
-568.631	-19.647	-0.208	0.128
-567.617	6.216	0.336	0.248
-566.602	-30.088	-0.392	-0.222
-565.588	48.379	0.125	-0.117
-564.573	-135.451	-0.331	0.039
-563.558	709.336	-0.022	0.059
-562.544	800.000	0.080	0.277
-561.529	800.000	0.012	0.050
-560.515	-131.995	-0.420	-0.055
-559.500	19.584	0.054	0.044
-558.485	800.000	-0.104	0.425
-557.471	29.667	0.147	0.124
-556.456	98.372	-0.211	-0.242
-555.442	-200.000	0.059	0.295
-554.427	-111.104	-0.417	0.085
-553.412	-121.447	0.340	-0.056
-552.398	-200.000	0.001	-0.339
-551.383	735.089	0.067	0.180
-550.369	-39.825	-0.388	0.202
-549.354	32.589	0.119	0.103
-548.339	39.673	0.174	0.155
-547.325	-200.000	0.003	-0.066
-546.310	800.000	-0.042	0.158
-545.296	580.012	-0.103	0.251
-544.281	101.275	0.208	-0.241
-543.266	277.853	0.133	-0.235
-542.252	-200.000	0.000	-0.026
-541.237	-9.827	0.151	-0.100
-540.223	23.909	0.231	-0.190
-539.208	312.272	0.072	0.135
-538.193	265.993	-0.137	-0.239
-537.179	-43.547	0.098	-0.049
-536.164	-158.818	0.042	0.002
-535.150	-69.295	0.250	-0.096
-534.135	-200.000	0.021	-0.148
-533.121	-161.861	-0.078	0.004
-532.106	132.299	-0.170	-0.218
-531.091	-96.277	0.150	-0.040
-530.077	-62.631	-0.270	-0.111
-529.062	31.820	-0.057	0.049
-528.048	268.238	0.126	-0.220
-527.033	-103.123	-0.198	-0.047
-526.018	328.051	0.049	-0.094
-525.004	800.000	-0.047	-0.142
-523.989	800.000	0.055	0.199
-522.975	-78.237	-0.320	0.109
-521.960	800.000	-0.073	0.242
-520.945	653.172	0.041	0.104
-519.931	-145.383	-0.388	-0.035
-518.916	-57.026	-0.285	-0.125
-517.902	134.119	-0.121	0.156
-516.887	-135.807	-0.315	-0.037
-515.872	-118.289	0.194	0.034
-514.858	-154.130	-0.239	-0.016
-513.843	132.597	-0.136	0.174
-512.829	616.247	0.127	-0.316
-511.814	145.686	0.118	-0.157
-510.799	-99.169	-0.171	0.043
-509.785	-65.508	0.315	-0.126
-508.770	119.043	0.082	-0.101
-507.756	30.023	-0.069	0.059
-506.741	116.698	-0.219	-0.267
-505.726	115.798	-0.036	0.044
-504.712	-200.000	-0.047	-0.348
-503.697	-81.271	0.434	0.142
-502.683	-189.549	0.253	-0.003
-501.668	83.024	-0.100	0.108
-500.653	-200.000	-0.016	-0.278
-499.639	-1.535	-0.058	-0.041
-498.624	327.218	-0.041	0.079
-497.610	800.000	0.066	-0.195
-496.595	-131.248	-0.464	0.061
-495.581	174.960	-0.073	-0.105
-494.566	-89.583	0.440	0.128
-493.551	49.682	-0.250	-0.234
-492.537	354.430	-0.013	0.026
-491.522	-148.304	-0.201	-0.016
-490.508	-106.537	0.219	-0.049
-489.493	265.531	-0.011	0.019
-488.478	-15.011	0.274	0.174
-487.464	2.968	0.221	0.159
-486.449	-121.388	0.154	-0.025
-485.435	-91.540	-0.089	0.025
-484.420	-200.000	0.035	-0.222
-483.405	-79.387	0.285	-0.096
-482.391	-149.760	-0.140	0.011
-481.376	-101.805	-0.229	-0.055
-480.362	-37.660	-0.184	0.097
-479.347	-200.000	0.035	0.155
-478.332	800.000	0.075	-0.290
-477.318	-200.000	-0.040	-0.266
-476.303	-171.724	0.161	0.005
-475.289	-58.591	0.135	-0.058
-474.274	-53.350	-0.067	-0.030
-473.259	351.112	0.065	0.129
-472.245	-106.057	0.085	0.019
-471.230	621.075	-0.094	0.235
-470.216	-73.072	0.136	0.050
-469.201	10.954	0.078	0.059
-468.186	44.463	0.156	-0.142
-467.172	142.560	0.142	-0.187
-466.157	-200.000	-0.001	-0.212
-465.143	238.839	0.058	-0.096
-464.128	-43.571	0.101	-0.051
-463.113	-200.000	-0.000	-0.073
-462.099	-65.715	-0.202	-0.080
-461.084	607.018	-0.047	-0.117
-460.070	-14.065	0.131	-0.084
-459.055	-200.000	0.022	-0.324
-458.040	90.339	-0.305	-0.339
-457.026	489.147	-0.057	-0.130
-456.011	5.191	-0.171	-0.125
-454.997	-13.687	0.332	0.213
-453.982	23.177	0.119	0.097
-452.968	800.000	0.034	-0.099
-451.953	800.000	-0.064	0.218
-450.938	706.908	0.150	0.392
-449.924	103.588	0.050	0.058
-448.909	498.735	0.065	0.148
-447.895	16.155	0.312	-0.244
-446.880	-16.095	-0.222	0.140
-445.865	13.303	0.175	0.135
-444.851	36.552	-0.042	0.037
-443.836	121.239	-0.230	0.284
-442.822	487.877	0.038	0.087
-441.807	-54.811	-0.257	-0.115
-440.792	-50.535	0.078	0.036
-439.778	169.365	-0.074	0.105
-438.763	-0.119	-0.254	0.179
-437.749	174.661	0.059	0.085
-436.734	232.830	0.106	-0.173
-435.719	-200.000	-0.039	-0.179
-434.705	-4.288	0.210	0.144
-433.690	-22.827	-0.236	0.141
-432.676	-127.735	0.437	0.063
-431.661	458.358	0.110	-0.243
-430.646	-123.279	-0.234	-0.037
-429.632	-50.104	0.049	0.023
-428.617	-200.000	-0.007	-0.262
-427.603	7.657	-0.311	-0.231
-426.588	-80.491	-0.228	-0.075
-425.573	253.615	0.174	0.294
-424.559	-42.356	-0.142	-0.072
-423.544	25.547	0.134	-0.110
-422.530	367.216	-0.028	0.056
-421.515	-169.852	-0.298	-0.011
-420.500	103.201	-0.177	0.206
-419.486	37.350	-0.175	-0.154
-418.471	-132.299	-0.129	-0.017
-417.457	-114.763	-0.247	-0.047
-416.442	581.230	-0.030	-0.074
-415.428	800.000	-0.061	-0.223
-414.413	38.214	-0.076	0.067
-413.398	-122.121	-0.390	0.063
-412.384	-85.018	0.348	-0.108
-411.369	219.062	0.142	0.225
-410.355	-30.642	-0.168	0.094
-409.340	225.414	0.061	-0.097
-408.325	-200.000	0.005	0.225
-407.311	-200.000	0.049	-0.235
-406.296	5.502	0.198	-0.145
-405.282	-10.410	-0.347	0.228
-404.267	-142.608	0.170	0.016
-403.252	117.550	-0.106	0.129
-402.238	260.444	0.029	-0.049
-401.223	23.048	-0.030	0.025
-400.209	-200.000	0.007	-0.120
-399.194	234.545	-0.099	0.161
-398.179	-29.142	-0.132	-0.075
-397.165	-200.000	-0.017	0.089
-396.150	-92.941	0.180	-0.050
-395.136	82.073	-0.242	-0.260
-394.121	-86.318	0.177	-0.054
-393.106	51.861	-0.144	0.136
-392.092	800.000	-0.043	-0.183
-391.077	-84.466	-0.380	0.119
-390.063	-13.243	0.097	0.062
-389.048	-200.000	0.030	0.190
-388.033	-54.250	0.275	-0.123
-387.019	535.932	0.113	0.264
-386.004	496.101	0.115	-0.261
-384.990	42.444	0.090	-0.081
-383.975	800.000	0.038	0.125
-382.960	-148.317	0.242	-0.020
-381.946	-29.940	0.210	-0.119
-380.931	102.998	-0.035	-0.041
-379.917	-36.686	0.216	0.115
-378.902	-51.007	-0.488	0.227
-377.888	-47.049	-0.172	-0.083
-376.873	86.094	0.373	0.406
-375.858	-200.000	-0.019	0.330
-374.844	37.408	-0.116	0.102
-373.829	-200.000	-0.037	0.252
-372.815	800.000	-0.037	0.156
-371.800	192.310	0.100	-0.149
-370.785	347.057	0.097	0.189
-369.771	-35.392	0.168	0.090
-368.756	15.091	-0.223	0.173
-367.742	-200.000	-0.034	0.228
-366.727	-49.638	0.159	0.075
-365.712	307.311	-0.155	-0.285
-364.698	800.000	0.067	0.264
-363.683	60.689	-0.229	0.225
-362.669	-111.930	0.120	-0.024
-361.654	-200.000	0.036	-0.170
-360.639	96.644	0.026	0.030
-359.625	456.800	0.095	-0.209
-358.610	-200.000	0.007	-0.068
-357.596	-126.710	0.402	0.059
-356.581	-100.043	0.171	-0.042
-355.566	-135.418	-0.327	0.039
-354.552	645.770	-0.094	0.238
-353.537	-200.000	0.023	-0.178
-352.523	86.028	0.089	-0.097
-351.508	-147.550	0.235	0.020
-350.493	541.824	-0.117	-0.274
-349.479	147.481	0.043	-0.057
-348.464	-43.025	-0.576	-0.288
-347.450	-141.307	0.352	0.035
-346.435	464.833	-0.168	0.372
-345.420	273.579	-0.095	0.166
-344.406	-200.000	0.059	-0.279
-343.391	-200.000	0.001	0.441
-342.377	183.764	-0.106	0.154
-341.362	-21.373	-0.269	-0.162
-340.348	303.835	-0.192	-0.352
-339.333	-183.291	-0.161	-0.003
-338.318	672.712	0.060	-0.155
-337.304	259.708	-0.103	0.175
-336.289	10.680	0.269	-0.203
-335.275	216.575	-0.054	0.085
-334.260	254.168	0.155	-0.262
-333.245	-200.000	-0.014	0.098
-332.231	-200.000	-0.065	0.387
-331.216	-84.771	-0.371	-0.115
-330.202	-2.935	0.270	-0.186
-329.187	94.452	-0.048	-0.054
-328.172	-148.624	0.611	0.049
-327.158	100.668	0.069	-0.079
-326.143	-103.745	0.300	0.069
-325.129	-200.000	0.008	0.133
-324.114	67.480	0.087	-0.087
-323.099	-200.000	-0.018	0.105
-322.085	-56.670	-0.020	-0.009
-321.070	69.427	-0.174	0.177
-320.056	-98.367	-0.228	0.058
-319.041	155.821	-0.008	0.011
-318.026	331.071	-0.200	0.380
-317.012	63.502	0.250	-0.248
-315.997	120.025	-0.181	0.221
-314.983	6.062	0.198	-0.145
-313.968	-143.221	-0.231	-0.022
-312.953	223.150	0.067	-0.107
-311.939	-12.116	0.139	-0.090
-310.924	-95.798	-0.109	0.029
-309.910	159.552	-0.030	0.041
-308.895	-200.000	0.016	-0.304
-307.880	800.000	-0.015	0.064
-306.866	-87.863	-0.240	0.071
-305.851	324.959	0.071	-0.133
-304.837	-23.558	-0.119	0.070
-303.822	157.159	0.249	0.340
-302.807	-200.000	0.057	-0.270
-301.793	397.373	-0.052	0.108
-300.778	-33.827	0.277	0.151
-299.764	800.000	-0.099	-0.352
-298.749	-160.336	-0.195	-0.010
-297.735	-90.865	0.116	0.033
-296.720	-172.632	-0.152	-0.005
-295.705	-100.731	-0.081	0.020
-294.691	-200.000	-0.032	0.209
-293.676	-34.365	0.160	0.086
-292.662	-200.000	0.003	0.028
-291.647	-155.722	0.321	-0.020
-290.632	106.848	-0.120	0.140
-289.618	-156.989	-0.107	0.006
-288.603	590.000	-0.120	-0.291
-287.589	-76.246	0.069	-0.024
-286.574	348.855	0.073	-0.141
-285.559	-37.998	-0.137	-0.072
-284.545	-121.613	0.051	-0.008
-283.530	343.849	-0.059	-0.114
-282.516	487.688	0.117	0.263
-281.501	18.514	-0.194	0.153
-280.486	-73.532	-0.179	-0.064
-279.472	-78.535	0.347	0.117
-278.457	800.000	0.080	0.269
-277.443	179.570	-0.147	0.212
-276.428	105.676	-0.051	0.059
-275.413	-200.000	-0.024	0.165
-274.399	413.245	0.065	0.136
-273.384	304.970	0.073	0.134
-272.370	-71.215	0.241	0.089
-271.355	-66.043	-0.162	-0.064
-270.340	-88.889	0.099	0.029
-269.326	800.000	0.088	-0.267
-268.311	40.004	-0.131	-0.116
-267.297	-45.087	-0.224	-0.110
-266.282	556.093	0.055	0.130
-265.267	148.472	0.166	0.221
-264.253	180.200	-0.065	-0.094
-263.238	215.638	0.195	-0.306
-262.224	-200.000	0.001	-0.058
-261.209	449.097	0.073	-0.159
-260.195	-153.595	0.341	0.023
-259.180	584.307	0.102	0.246
-258.165	2.354	-0.096	0.068
-257.151	3.441	-0.168	0.120
-256.136	-200.000	-0.066	-0.317
-255.122	727.326	0.070	0.185
-254.107	484.169	-0.056	0.125
-253.092	99.396	-0.305	-0.347
-252.078	590.194	-0.040	-0.097
-251.063	-200.000	-0.043	-0.199
-250.049	-150.480	-0.108	-0.008
-249.034	-65.657	-0.123	0.049
-248.019	-47.544	0.270	0.129
-247.005	200.408	0.140	-0.211
-245.990	-76.060	0.156	0.054
-244.976	-49.652	-0.397	-0.186
-243.961	4.665	-0.173	0.125
-242.946	793.537	-0.009	-0.023
-241.932	9.448	-0.256	-0.191
-240.917	-32.773	-0.108	-0.059
-239.903	-40.425	0.274	0.140
-238.888	800.000	-0.083	0.337
-237.873	338.210	-0.132	-0.253
-236.859	24.228	-0.123	0.100
-235.844	351.004	-0.207	0.402
-234.830	800.000	0.039	0.153
-233.815	288.448	0.185	0.329
-232.800	-130.673	0.326	-0.043
-231.786	82.727	0.023	0.025
-230.771	-71.109	0.386	0.143
-229.757	-117.533	-0.259	-0.046
-228.742	107.986	-0.161	0.189
-227.727	-143.939	0.244	0.023
-226.713	-200.000	-0.020	0.166
-225.698	-174.906	-0.144	-0.004
-224.684	-78.136	-0.115	0.039
-223.669	-24.655	0.141	0.082
-222.655	-23.825	-0.135	-0.079
-221.640	165.069	-0.213	0.296
-220.625	-68.197	0.094	-0.036
-219.611	-119.048	0.024	-0.004
-218.596	81.240	0.049	0.052
-217.582	161.251	-0.225	0.310
-216.567	324.719	-0.060	0.112
-215.552	227.278	0.118	-0.188
-214.538	-9.535	-0.177	-0.116
-213.523	507.179	0.142	0.323
-212.509	-29.444	-0.029	0.016
-211.494	-46.425	-0.319	-0.154
-210.479	-170.198	-0.421	-0.015
-209.465	800.000	-0.050	0.148
-208.450	-183.150	0.202	-0.004
-207.436	-100.050	-0.396	-0.097
-206.421	-194.223	-0.363	-0.003
-205.406	100.678	-0.047	0.053
-204.392	800.000	0.072	-0.206
-203.377	-125.059	0.076	-0.012
-202.363	-168.287	0.228	0.009
-201.348	-70.481	0.317	0.118
-200.333	-115.753	0.257	-0.047
-199.319	-200.000	0.037	0.171
-198.304	800.000	0.033	0.101
-197.290	-179.771	0.229	-0.005
-196.275	730.904	0.083	-0.217
-195.260	-83.612	0.257	-0.081
-194.246	-77.829	-0.330	-0.112
-193.231	124.022	0.131	0.161
-192.217	43.697	0.163	0.147
-191.202	-77.574	-0.177	-0.060
-190.187	800.000	0.023	-0.081
-189.173	64.035	0.091	-0.090
-188.158	-32.492	-0.261	0.143
-187.144	593.482	-0.023	0.055
-186.129	60.972	-0.133	-0.130
-185.114	-39.113	0.069	-0.036
-184.100	-200.000	0.081	-0.358
-183.085	271.620	0.124	0.215
-182.071	30.071	-0.048	-0.040
-181.056	250.546	-0.107	-0.178
-180.042	59.472	-0.242	-0.234
-179.027	-91.599	0.245	0.069
-178.012	81.732	-0.090	-0.096
-176.998	540.678	-0.085	-0.198
-175.983	-9.947	-0.104	0.068
-174.969	216.450	0.101	0.157
-173.954	-200.000	0.182	0.000
-172.939	800.000	0.066	0.184
-171.925	-192.811	-0.388	0.003
-170.910	74.354	0.280	-0.289
-169.896	200.726	0.128	-0.192
-168.881	5.586	0.068	-0.049
-167.866	-48.138	-0.308	0.146
-166.852	-32.353	0.089	-0.049
-165.837	296.932	0.090	-0.162
-164.823	-200.000	-0.012	0.114
-163.808	7.651	0.243	-0.178
-162.793	-0.226	0.041	0.029
-161.779	300.848	-0.116	0.210
-160.764	-76.371	0.419	0.145
-159.750	-45.821	-0.100	0.048
-158.735	-55.966	0.334	-0.146
-157.720	126.321	0.124	0.154
-156.706	536.249	0.093	0.217
-155.691	-40.887	0.169	0.086
-154.677	-49.648	0.352	0.164
-153.662	-64.959	0.284	-0.113
-152.647	95.169	0.179	0.200
-151.633	-2.738	-0.226	0.155
-150.618	141.368	0.037	0.048
-149.604	-38.187	0.231	0.120
-148.589	-200.000	0.020	-0.114
-147.574	44.282	-0.221	0.199
-146.560	-62.614	-0.360	0.146
-145.545	128.715	-0.093	-0.117
-144.531	-200.000	-0.006	-0.114
-143.516	-172.528	0.257	-0.008
-142.502	-200.000	0.044	0.235
-141.487	180.412	0.056	-0.081
-140.472	256.064	-0.049	-0.082
-139.458	-48.312	0.339	-0.160
-138.443	-42.373	0.183	0.092
-137.429	558.453	0.090	0.214
-136.414	-61.409	0.423	0.174
-135.399	132.914	0.119	0.151
-134.385	-200.000	-0.014	0.501
-133.370	-10.449	0.167	0.109
-132.356	-64.213	-0.214	-0.086
-131.341	76.517	-0.075	0.078
-130.326	43.373	0.099	0.089
-129.312	-143.899	-0.042	0.004
-128.297	225.612	-0.115	-0.183
-127.283	-200.000	-0.017	0.179
-126.268	-6.436	0.039	0.026
-125.253	29.047	0.152	-0.126
-124.239	180.552	0.078	0.112
-123.224	-55.064	-0.268	0.118
-122.210	79.564	-0.091	-0.096
-121.195	-126.774	0.469	-0.068
-120.180	542.497	0.133	-0.311
