DTS Sentinel unit serial number:	SN413079Multiplexer serial number:	ORYXHardware model number:	OX4-SRSoftware version number:	ORYX F/W v4.00 Oryx Data Collector v3.7.2.0data status	okinstallation	princeton_trtdifferential loss correction	single-endedforward channel	channel 3reverse channel	N/Adate	2019/09/18time	11:56:35forward acquisition time	60.00reverse acquisition time	0.00gamma	496.2192k internal	0.2323k external	0.2323temperature offset calibration	0.9958default loss term (dB/km)	0.3790temperature slope calibration	1.0000multiplexer offset coefficient	1.0000multiplexer slope coefficient	1.0000fibre end	0.00T internal ref (°C)	31.44T ext. ref 1 (°C)	0.48T ext. ref 2 (°C)	27.70length (m)	temperature (°C)	Stokes	anti-Stokes-747.200	239.578	-0.027	0.045
-746.185	402.824	-0.050	0.107
-745.171	-200.000	0.002	0.308
-744.156	-200.000	-0.021	0.211
-743.142	-64.923	0.195	-0.080
-742.127	177.554	0.179	0.263
-741.112	266.703	-0.095	-0.168
-740.098	-200.000	0.001	0.024
-739.083	589.093	0.053	0.133
-738.069	-17.479	0.071	0.045
-737.054	-140.965	0.180	-0.019
-736.039	12.851	-0.096	0.075
-735.025	800.000	0.082	0.355
-734.010	-200.000	0.000	0.186
-732.996	-51.073	0.105	-0.050
-731.981	-0.571	0.216	0.155
-730.966	117.006	-0.211	-0.262
-729.952	800.000	-0.060	-0.247
-728.937	-61.843	-0.457	0.193
-727.923	-100.276	-0.310	0.078
-726.908	800.000	0.046	-0.196
-725.894	-151.457	-0.235	-0.018
-724.879	3.230	-0.275	0.202
-723.864	16.351	0.079	0.063
-722.850	-200.000	-0.014	-0.105
-721.835	600.725	-0.044	-0.109
-720.821	368.462	-0.160	-0.326
-719.806	612.546	-0.049	-0.125
-718.791	215.148	0.164	0.262
-717.777	-57.346	-0.453	-0.201
-716.762	14.941	0.058	0.046
-715.748	1.040	0.108	-0.078
-714.733	364.400	0.137	-0.279
-713.718	251.128	0.091	-0.156
-712.704	289.293	-0.139	-0.254
-711.689	164.055	0.097	-0.138
-710.675	28.939	0.108	-0.093
-709.660	-45.621	0.157	0.078
-708.645	-200.000	0.008	0.067
-707.631	-71.790	0.269	-0.101
-706.616	90.834	0.054	-0.061
-705.602	-200.000	-0.019	-0.221
-704.587	-33.816	0.214	0.119
-703.572	800.000	0.082	-0.352
-702.558	-193.560	-0.417	-0.004
-701.543	800.000	0.069	0.218
-700.529	-200.000	-0.039	-0.189
-699.514	54.430	-0.154	-0.150
-698.499	61.546	0.067	-0.067
-697.485	800.000	0.037	-0.148
-696.470	-7.668	-0.266	-0.181
-695.456	-130.947	-0.274	-0.037
-694.441	-116.831	0.352	-0.065
-693.426	376.603	-0.072	0.148
-692.412	-45.604	-0.168	0.084
-691.397	-200.000	-0.029	0.260
-690.383	83.496	-0.058	0.064
-689.368	416.786	0.184	0.397
-688.354	553.813	-0.069	0.168
-687.339	515.327	-0.053	0.126
-686.324	-69.869	-0.091	-0.035
-685.310	250.756	-0.089	-0.153
-684.295	8.343	-0.270	-0.205
-683.281	-63.948	-0.215	0.089
-682.266	317.907	-0.077	0.147
-681.251	101.273	-0.192	0.225
-680.237	142.619	0.146	0.195
-679.222	-65.177	0.479	-0.195
-678.208	163.037	-0.191	-0.270
-677.193	442.031	-0.095	-0.210
-676.178	-200.000	-0.008	-0.240
-675.164	162.867	-0.141	-0.200
-674.149	250.080	0.158	0.269
-673.135	195.153	0.140	-0.213
-672.120	95.109	-0.110	0.126
-671.105	-81.423	0.179	-0.059
-670.091	52.666	0.321	-0.308
-669.076	12.178	0.158	0.122
-668.062	198.847	0.134	-0.207
-667.047	-108.241	-0.396	0.086
-666.032	800.000	-0.079	0.310
-665.018	583.455	-0.065	-0.160
-664.003	-200.000	-0.003	0.091
-662.989	800.000	-0.094	-0.345
-661.974	104.355	0.112	0.133
-660.959	373.099	0.070	-0.143
-659.945	800.000	0.051	0.149
-658.930	-136.649	-0.222	-0.026
-657.916	450.449	0.061	-0.135
-656.901	800.000	-0.046	0.161
-655.886	-8.376	-0.306	0.207
-654.872	66.853	-0.236	-0.241
-653.857	-49.807	0.103	-0.049
-652.843	800.000	0.145	-0.426
-651.828	800.000	-0.058	-0.182
-650.814	-200.000	0.005	0.073
-649.799	10.696	0.379	0.291
-648.784	-152.692	-0.321	-0.023
-647.770	360.403	-0.085	-0.171
-646.755	339.942	0.075	-0.147
-645.741	-12.651	-0.095	-0.062
-644.726	-200.000	0.005	-0.233
-643.711	-84.012	-0.150	-0.048
-642.697	468.220	0.099	0.224
-641.682	-51.331	0.089	-0.042
-640.668	-200.000	0.001	-0.027
-639.653	-119.061	0.093	0.016
-638.638	-85.866	-0.166	-0.052
-637.624	35.263	-0.163	0.143
-636.609	-72.622	-0.224	-0.083
-635.595	-156.186	0.331	-0.021
-634.580	-51.568	-0.182	0.085
-633.565	800.000	-0.050	0.186
-632.551	800.000	0.020	0.080
-631.536	116.272	-0.152	0.187
-630.522	7.072	-0.162	-0.121
-629.507	-200.000	0.066	-0.354
-628.492	-200.000	-0.010	-0.302
-627.478	800.000	0.122	-0.339
-626.463	167.469	0.146	-0.208
-625.449	800.000	0.083	-0.246
-624.434	800.000	0.104	-0.297
-623.419	-200.000	-0.004	0.034
-622.405	-14.104	0.004	-0.003
-621.390	143.799	-0.142	0.190
-620.376	-200.000	-0.015	0.241
-619.361	-162.112	-0.164	0.008
-618.346	79.219	-0.105	0.114
-617.332	85.216	-0.042	-0.047
-616.317	800.000	-0.087	0.351
-615.303	238.316	0.079	0.131
-614.288	800.000	0.043	0.120
-613.273	253.236	-0.160	-0.274
-612.259	113.894	0.113	0.138
-611.244	353.272	-0.172	0.343
-610.230	-200.000	-0.049	0.552
-609.215	800.000	0.048	0.209
-608.201	-16.268	-0.204	-0.130
-607.186	-200.000	-0.003	-0.472
-606.171	800.000	-0.088	-0.296
-605.157	-85.723	-0.139	0.043
-604.142	4.972	-0.306	-0.226
-603.128	314.975	-0.122	-0.230
-602.113	-85.856	0.066	0.021
-601.098	86.300	0.058	0.064
-600.084	163.586	-0.070	0.099
-599.069	-100.572	0.097	-0.024
-598.055	-72.109	-0.221	0.082
-597.040	-200.000	-0.019	0.113
-596.025	800.000	-0.044	0.154
-595.011	800.000	0.056	0.236
-593.996	0.725	0.212	-0.152
-592.982	-200.000	0.017	0.133
-591.967	-24.406	0.199	0.119
-590.952	74.258	-0.163	0.172
-589.938	-78.666	0.393	0.135
-588.923	800.000	0.052	0.210
-587.909	-200.000	0.050	-0.223
-586.894	39.609	-0.044	0.039
-585.879	-200.000	-0.032	0.230
-584.865	-171.895	-0.224	-0.007
-583.850	-105.828	-0.361	-0.082
-582.836	-200.000	-0.037	0.273
-581.821	52.017	0.125	0.120
-580.806	5.790	-0.342	-0.254
-579.792	-9.951	0.553	-0.369
-578.777	-172.988	0.332	-0.010
-577.763	-27.418	0.068	-0.039
-576.748	800.000	0.028	-0.084
-575.733	23.500	0.355	-0.293
-574.719	-167.222	-0.118	-0.005
-573.704	-200.000	-0.045	-0.273
-572.690	800.000	-0.036	-0.113
-571.675	356.461	-0.050	-0.101
-570.661	-181.733	0.233	-0.004
-569.646	-6.672	-0.008	0.005
-568.631	-135.118	-0.187	0.023
-567.617	-126.443	0.092	-0.014
-566.602	377.962	0.071	-0.146
-565.588	-200.000	-0.039	-0.274
-564.573	91.959	0.136	0.153
-563.558	17.057	0.188	-0.149
-562.544	-97.368	-0.103	0.027
-561.529	-14.744	-0.292	-0.188
-560.515	468.890	0.120	-0.271
-559.500	-200.000	0.033	-0.313
-558.485	772.354	0.047	-0.129
-557.471	-172.270	0.237	0.008
-556.456	-200.000	-0.040	-0.208
-555.442	-2.200	0.162	0.114
-554.427	-54.104	0.080	0.036
-553.412	333.953	0.154	0.298
-552.398	-94.326	-0.421	0.115
-551.383	48.120	-0.138	0.130
-550.369	252.755	0.152	0.260
-549.354	302.050	0.192	0.356
-548.339	-98.003	-0.081	-0.021
-547.325	-32.218	-0.250	0.140
-546.310	-123.122	-0.056	-0.009
-545.296	182.151	-0.112	-0.165
-544.281	-168.908	-0.228	0.009
-543.266	-101.724	0.070	0.017
-542.252	255.337	-0.105	-0.181
-541.237	-121.262	0.183	0.031
-540.223	-103.907	-0.123	0.029
-539.208	427.999	0.152	0.328
-538.193	-109.696	-0.152	0.032
-537.179	75.585	0.057	-0.061
-536.164	800.000	-0.024	0.075
-535.150	-200.000	-0.041	0.288
-534.135	198.087	0.085	-0.130
-533.121	-23.161	-0.110	-0.066
-532.106	211.916	0.152	-0.239
-531.091	-200.000	-0.026	-0.348
-530.077	-84.995	-0.187	-0.059
-529.062	800.000	0.082	0.255
-528.048	800.000	-0.050	-0.146
-527.033	703.215	0.153	-0.403
-526.018	-59.992	-0.295	0.126
-525.004	-200.000	-0.028	-0.206
-523.989	-33.594	-0.192	0.106
-522.975	-94.852	-0.227	-0.062
-521.960	390.418	-0.052	0.107
-520.945	-200.000	0.027	0.287
-519.931	-87.478	0.160	0.048
-518.916	278.449	-0.110	-0.196
-517.902	-107.047	0.420	0.093
-516.887	81.555	-0.176	-0.191
-515.872	10.944	0.256	-0.196
-514.858	34.844	-0.192	-0.168
-513.843	157.694	-0.301	0.417
-512.829	780.816	-0.022	-0.061
-511.814	-200.000	0.094	0.569
-510.799	-82.910	0.208	0.067
-509.785	18.790	-0.106	0.085
-508.770	10.429	-0.253	0.193
-507.756	-200.000	0.003	-0.284
-506.741	-64.451	-0.199	0.081
-505.726	-4.941	0.410	0.283
-504.712	627.280	-0.051	-0.130
-503.697	-45.263	0.079	-0.039
-502.683	-87.475	0.140	-0.042
-501.668	618.592	-0.055	-0.138
-500.653	255.769	0.084	0.145
-499.639	49.086	0.222	0.209
-498.624	-200.000	0.017	-0.167
-497.610	115.705	-0.258	0.315
-496.595	-105.660	-0.162	0.037
-495.581	189.448	-0.238	0.357
-494.566	-200.000	0.079	-0.408
-493.551	-128.805	-0.167	0.024
-492.537	-9.955	0.245	0.163
-491.522	-200.000	-0.019	0.349
-490.508	392.260	0.186	0.387
-489.493	800.000	0.036	0.145
-488.478	655.683	-0.041	-0.105
-487.464	776.379	0.090	-0.246
-486.449	0.750	-0.149	-0.107
-485.435	-125.446	-0.324	0.049
-484.420	-171.765	0.379	-0.012
-483.405	-200.000	0.010	0.264
-482.391	293.460	-0.096	-0.175
-481.376	-130.929	0.306	0.041
-480.362	-28.005	-0.128	0.074
-479.347	-134.777	-0.182	-0.022
-478.332	-86.875	0.122	0.037
-477.318	-76.419	-0.133	-0.047
-476.303	-150.967	-0.288	0.022
-475.289	800.000	0.080	-0.292
-474.274	414.004	-0.087	0.184
-473.259	-37.718	0.152	-0.081
-472.245	-65.930	-0.196	-0.078
-471.230	268.778	0.193	-0.338
-470.216	-200.000	0.012	0.076
-469.201	89.065	0.119	-0.133
-468.186	267.252	-0.163	-0.285
-467.172	-200.000	0.034	-0.237
-466.157	-83.017	0.480	0.155
-465.143	106.413	-0.191	0.226
-464.128	-153.909	-0.321	0.022
-463.113	-0.954	-0.111	-0.079
-462.099	800.000	-0.097	0.365
-461.084	-136.419	-0.162	0.019
-460.070	-166.733	0.026	0.001
-459.055	-135.718	-0.196	-0.023
-458.040	339.053	0.096	-0.186
-457.026	188.534	0.158	-0.236
-456.011	359.096	-0.114	0.227
-454.997	39.029	0.173	0.155
-453.982	-152.157	0.054	0.004
-452.968	200.640	-0.088	-0.135
-451.953	-146.601	0.238	-0.021
-450.938	-102.710	0.050	0.012
-449.924	13.477	-0.181	0.141
-448.909	-134.951	0.082	0.010
-447.895	84.545	-0.183	0.199
-446.880	-63.725	0.266	0.109
-445.865	261.125	-0.093	0.160
-444.851	-27.157	-0.284	-0.165
-443.836	-109.664	-0.287	0.060
-442.822	-200.000	0.025	-0.138
-441.807	-106.235	0.304	0.068
-440.792	156.920	-0.023	0.031
-439.778	57.980	0.293	0.286
-438.763	129.397	-0.026	-0.033
-437.749	-128.009	0.121	-0.017
-436.734	-95.820	0.093	0.025
-435.719	73.897	-0.029	-0.031
-434.705	7.415	-0.201	0.150
-433.690	102.586	0.109	0.127
-432.676	-16.778	0.209	0.132
-431.661	-200.000	-0.000	0.232
-430.646	-64.905	0.074	-0.030
-429.632	305.022	0.051	0.095
-428.617	59.455	-0.157	-0.154
-427.603	159.872	-0.076	-0.105
-426.588	-119.363	-0.154	0.027
-425.573	-99.685	-0.103	0.026
-424.559	-123.744	0.328	0.052
-423.544	661.894	-0.169	-0.435
-422.530	73.090	0.327	-0.340
-421.515	800.000	-0.007	-0.021
-420.500	800.000	-0.018	0.058
-419.486	27.779	-0.146	0.123
-418.471	-62.873	0.272	-0.112
-417.457	437.597	-0.048	-0.105
-416.442	-200.000	0.027	0.178
-415.428	-103.904	-0.096	0.022
-414.413	-86.384	0.399	-0.122
-413.398	-113.132	0.175	0.034
-412.384	-18.618	0.155	0.097
-411.369	23.608	0.176	0.145
-410.355	800.000	-0.017	0.058
-409.340	800.000	-0.023	-0.069
-408.325	-200.000	-0.002	-0.131
-407.311	-63.681	0.217	0.089
-406.296	-88.194	-0.256	0.076
-405.282	-200.000	0.001	0.235
-404.267	27.858	0.324	0.272
-403.252	437.220	0.069	0.149
-402.238	-49.485	-0.156	0.074
-401.223	36.139	0.184	-0.162
-400.209	124.579	0.164	0.206
-399.194	-200.000	0.047	-0.257
-398.179	800.000	-0.054	-0.181
-397.165	-200.000	0.041	-0.290
-396.150	-152.848	-0.174	0.012
-395.136	-161.372	0.090	0.005
-394.121	-104.756	0.103	-0.024
-393.106	-200.000	-0.005	0.051
-392.092	118.057	0.154	0.190
-391.077	-57.559	0.036	-0.016
-390.063	47.194	0.075	-0.069
-389.048	-43.762	-0.306	-0.154
-388.033	-151.598	0.268	0.020
-387.019	92.170	0.027	0.030
-386.004	-200.000	0.016	-0.135
-384.990	-90.779	-0.123	0.035
-383.975	-131.487	-0.348	0.046
-382.960	-98.537	-0.470	0.120
-381.946	-111.681	-0.367	-0.074
-380.931	-200.000	-0.035	-0.157
-379.917	-184.104	0.427	0.007
-378.902	718.297	-0.064	-0.170
-377.888	111.694	-0.103	-0.123
-376.873	800.000	-0.100	0.393
-375.858	0.439	0.019	0.014
-374.844	800.000	-0.042	-0.121
-373.829	-6.177	0.352	-0.240
-372.815	535.847	0.030	0.070
-371.800	231.188	0.050	-0.082
-370.785	197.703	0.123	0.187
-369.771	214.961	-0.101	0.160
-368.756	-85.586	0.076	0.024
-367.742	-80.011	0.165	0.055
-366.727	141.516	0.075	0.099
-365.712	-72.608	-0.297	-0.109
-364.698	443.838	0.150	-0.327
-363.683	496.513	-0.022	0.050
-362.669	800.000	-0.096	0.278
-361.654	-200.000	-0.029	0.195
-360.639	317.747	-0.115	0.216
-359.625	800.000	-0.056	0.214
-358.610	-117.093	-0.204	0.037
-357.596	0.153	-0.372	-0.264
-356.581	24.607	0.103	0.085
-355.566	22.651	-0.321	0.261
-354.552	3.471	-0.143	-0.104
-353.537	-78.314	0.106	0.036
-352.523	-47.345	0.102	-0.049
-351.508	-40.173	0.218	0.113
-350.493	800.000	-0.021	-0.081
-349.479	-134.333	0.275	-0.034
-348.464	102.675	-0.182	0.212
-347.450	368.890	0.100	0.201
-346.435	65.492	0.112	0.113
-345.420	800.000	0.035	0.151
-344.406	119.652	0.022	-0.027
-343.391	-133.351	0.263	0.033
-342.377	67.299	0.119	-0.121
-341.362	-18.301	0.263	0.164
-340.348	800.000	-0.104	-0.414
-339.333	-7.150	0.188	0.127
-338.318	114.323	-0.161	-0.194
-337.304	-53.190	-0.312	-0.142
-336.289	-13.108	-0.295	-0.191
-335.275	153.712	-0.123	-0.167
-334.260	281.712	-0.208	-0.371
-333.245	57.421	0.054	-0.052
-332.231	257.965	0.125	-0.214
-331.216	-90.649	0.152	0.044
-330.202	62.874	0.255	-0.253
-329.187	800.000	-0.035	0.143
-328.172	-72.360	0.159	-0.059
-327.158	-200.000	-0.047	-0.233
-326.143	208.224	-0.123	-0.191
-325.129	526.842	-0.042	-0.098
-324.114	-40.078	0.205	0.106
-323.099	-55.779	0.152	-0.067
-322.085	-26.778	-0.308	0.179
-321.070	800.000	0.010	0.040
-320.056	-42.961	0.184	-0.093
-319.041	767.326	0.120	0.325
-318.026	-80.604	0.096	-0.032
-317.012	-200.000	0.033	-0.303
-315.997	26.848	0.135	0.112
-314.983	-181.645	-0.253	0.005
-313.968	-42.289	0.053	0.027
-312.953	-28.847	0.029	-0.017
-311.939	-200.000	0.027	0.283
-310.924	-200.000	-0.014	0.062
-309.910	355.253	0.093	0.183
-308.895	186.440	-0.102	-0.151
-307.880	69.559	0.174	-0.178
-306.866	-62.187	0.120	0.050
-305.851	-136.475	-0.026	0.003
-304.837	800.000	-0.025	0.075
-303.822	-30.500	-0.167	-0.094
-302.807	50.421	0.039	0.037
-301.793	-130.405	-0.200	0.027
-300.778	219.758	0.028	0.044
-299.764	-200.000	-0.030	0.329
-298.749	800.000	0.116	-0.359
-297.735	-54.993	-0.166	0.074
-296.720	-77.161	-0.120	0.042
-295.705	-67.819	0.435	0.169
-294.691	-98.886	0.311	0.079
-293.676	800.000	-0.114	0.455
-292.662	-117.313	-0.296	-0.053
-291.647	6.618	-0.176	-0.130
-290.632	13.226	0.060	0.046
-289.618	389.513	-0.247	0.508
-288.603	-200.000	-0.062	-0.276
-287.589	-64.311	-0.053	0.022
-286.574	-7.943	-0.113	-0.075
-285.559	-52.317	-0.359	-0.165
-284.545	-6.198	-0.156	-0.106
-283.530	100.042	-0.254	0.293
-282.516	-62.458	-0.139	0.057
-281.501	-82.458	-0.204	-0.066
-280.486	800.000	0.006	0.020
-279.472	-124.106	0.173	-0.027
-278.457	-4.824	-0.371	-0.254
-277.443	-5.962	0.291	-0.198
-276.428	800.000	-0.116	-0.481
-275.413	-31.838	0.236	0.131
-274.399	104.927	0.064	-0.075
-273.384	-63.595	-0.208	-0.084
-272.370	-89.015	-0.014	0.004
-271.355	125.913	-0.173	0.217
-270.340	-200.000	0.043	0.198
-269.326	-136.818	0.260	-0.030
-268.311	800.000	0.035	0.147
-267.297	51.924	-0.195	-0.184
-266.282	208.663	-0.174	-0.269
-265.267	-200.000	0.001	0.488
-264.253	-6.626	-0.164	0.111
-263.238	-127.719	0.084	0.012
-262.224	-48.912	-0.132	-0.063
-261.209	-119.241	-0.396	0.068
-260.195	-200.000	0.018	-0.163
-259.180	800.000	-0.067	-0.242
-258.165	135.415	-0.086	0.110
-257.151	-104.549	0.249	0.057
-256.136	-22.003	0.118	0.071
-255.122	387.539	-0.083	0.169
-254.107	696.486	0.120	0.311
-253.092	-38.940	0.130	-0.068
-252.078	800.000	0.025	-0.109
-251.063	53.182	0.166	0.157
-250.049	-113.820	0.210	0.041
-249.034	-192.865	-0.070	0.001
-248.019	-106.177	-0.229	0.051
-247.005	-200.000	-0.043	0.283
-245.990	204.904	0.061	0.094
-244.976	567.596	0.072	-0.174
-243.961	-97.619	-0.124	0.032
-242.946	-106.109	0.029	0.006
-241.932	17.614	-0.186	-0.147
-240.917	261.535	-0.137	0.235
-239.903	20.890	0.161	-0.129
-238.888	-58.705	0.180	-0.077
-237.873	161.683	-0.183	-0.253
-236.859	-93.562	0.206	-0.056
-235.844	2.921	0.216	0.155
-234.830	-45.035	0.161	-0.079
-233.815	549.376	0.096	0.228
-232.800	-94.770	0.357	-0.096
-231.786	-139.195	0.139	0.015
-230.771	-99.994	0.152	0.037
-229.757	565.780	0.112	0.270
-228.742	-21.261	0.152	-0.092
-227.727	106.294	-0.185	-0.217
-226.713	-200.000	-0.008	0.111
-225.698	-200.000	-0.014	-0.155
-224.684	-94.714	0.179	-0.048
-223.669	-146.631	0.253	-0.022
-222.655	104.540	-0.253	-0.295
-221.640	800.000	0.015	-0.043
-220.625	-30.562	0.235	0.132
-219.611	25.331	0.094	-0.077
-218.596	458.506	0.114	-0.251
-217.582	385.780	-0.085	0.173
-216.567	-64.100	0.295	-0.119
-215.552	267.401	-0.090	0.156
-214.538	-17.518	0.130	0.081
-213.523	-182.717	0.097	0.002
-212.509	243.023	-0.091	0.152
-211.494	-200.000	-0.001	0.222
-210.479	-102.925	0.293	-0.069
-209.465	140.266	-0.068	-0.089
-208.450	-200.000	0.020	-0.135
-207.436	200.693	-0.153	-0.233
-206.421	57.890	0.229	-0.222
-205.406	-200.000	-0.002	0.236
-204.392	-16.501	0.219	-0.137
-203.377	9.927	0.126	-0.095
-202.363	-107.718	-0.209	-0.045
-201.348	223.254	-0.052	-0.082
-200.333	-200.000	-0.036	-0.172
-199.319	378.566	0.057	0.115
-198.304	-200.000	-0.013	-0.074
-197.290	253.749	0.251	-0.423
-196.275	-130.617	-0.215	-0.029
-195.260	414.688	-0.115	0.243
-194.246	-200.000	0.018	-0.140
-193.231	132.437	-0.144	0.183
-192.217	392.272	0.048	0.098
-191.202	800.000	0.087	-0.245
-190.187	42.228	-0.123	-0.111
-189.173	455.817	-0.057	-0.124
-188.158	142.600	0.100	0.131
-187.144	741.328	0.129	-0.342
-186.129	176.560	-0.077	-0.111
-185.114	-38.713	-0.338	-0.176
-184.100	-17.896	0.024	-0.015
-183.085	-200.000	0.001	0.401
-182.071	121.817	-0.217	-0.268
-181.056	-102.635	0.339	-0.080
-180.042	800.000	0.061	-0.195
-179.027	800.000	-0.028	0.087
-178.012	800.000	-0.091	0.289
-176.998	-200.000	-0.003	0.243
-175.983	800.000	-0.103	0.295
-174.969	113.335	-0.156	0.187
-173.954	-93.084	0.478	0.131
-172.939	252.257	0.073	-0.123
-171.925	800.000	-0.060	0.252
-170.910	-200.000	-0.026	-0.159
-169.896	208.098	0.153	0.235
-168.881	164.901	0.206	-0.288
-167.866	169.614	0.070	-0.099
-166.852	-41.366	0.273	0.139
-165.837	164.722	-0.049	-0.068
-164.823	-40.382	-0.314	-0.161
-163.808	368.218	-0.149	-0.298
-162.793	-200.000	-0.007	0.218
-161.779	-118.944	-0.106	0.018
-160.764	-200.000	-0.073	-0.355
-159.750	-73.651	-0.300	0.108
-158.735	-200.000	-0.021	0.203
-157.720	-200.000	-0.003	0.028
-156.706	-128.841	0.090	-0.013
-155.691	243.202	-0.155	0.257
-154.677	-160.265	-0.279	-0.015
-153.662	384.945	-0.071	-0.145
-152.647	-38.489	0.189	-0.099
-151.633	-200.000	-0.032	-0.280
-150.618	800.000	0.032	0.097
-149.604	25.977	0.251	-0.207
-148.589	-26.685	-0.208	-0.120
-147.574	116.666	-0.092	0.112
-146.560	-72.515	0.167	-0.061
-145.545	-133.087	-0.130	-0.016
-144.531	-200.000	0.071	0.374
-143.516	54.973	0.138	0.132
-142.502	-68.055	-0.080	-0.031
-141.487	-92.678	0.276	0.076
-140.472	-105.835	0.019	0.004
-139.458	-82.945	-0.181	-0.057
-138.443	800.000	0.063	-0.265
-137.429	-200.000	0.030	-0.304
-136.414	440.257	-0.087	-0.188
-135.399	88.081	0.137	-0.149
-134.385	-104.260	0.049	-0.011
-133.370	-143.809	-0.125	0.012
-132.356	-120.188	-0.257	0.043
-131.341	56.375	-0.137	0.131
-130.326	-180.440	0.053	-0.001
-129.312	-3.074	-0.072	-0.050
-128.297	117.725	-0.185	0.224
-127.283	143.046	-0.260	0.342
-126.268	-69.253	0.330	0.125
-125.253	75.297	0.253	0.264
-124.239	800.000	0.045	0.167
-123.224	11.763	0.108	0.082
-122.210	-90.016	0.242	-0.070
-121.195	800.000	0.057	0.175
