DTS Sentinel unit serial number:	SN413079Multiplexer serial number:	ORYXHardware model number:	OX4-SRSoftware version number:	ORYX F/W v4.00 Oryx Data Collector v3.7.2.0data status	okinstallation	princeton_trtdifferential loss correction	single-endedforward channel	channel 3reverse channel	N/Adate	2019/09/16time	14:28:35forward acquisition time	60.00reverse acquisition time	0.00gamma	496.2192k internal	0.2293k external	0.2293temperature offset calibration	0.9945default loss term (dB/km)	0.3790temperature slope calibration	1.0000multiplexer offset coefficient	1.0000multiplexer slope coefficient	1.0000fibre end	0.00T internal ref (°C)	41.95T ext. ref 1 (°C)	14.22T ext. ref 2 (°C)	36.29length (m)	temperature (°C)	Stokes	anti-Stokes-747.200	-153.258	0.099	0.007
-746.185	-200.000	0.014	0.421
-745.171	-200.000	-0.008	-0.121
-744.156	800.000	-0.066	0.220
-743.142	-99.487	0.194	0.050
-742.127	-18.907	0.336	0.214
-741.112	-176.261	-0.193	0.005
-740.098	-200.000	0.002	0.146
-739.083	149.173	-0.187	-0.259
-738.069	256.171	0.083	0.145
-737.054	800.000	0.084	0.320
-736.039	304.161	-0.212	-0.402
-735.025	-200.000	-0.011	-0.382
-734.010	800.000	-0.053	0.165
-732.996	13.284	0.111	-0.088
-731.981	265.365	-0.121	-0.216
-730.966	58.374	0.134	-0.134
-729.952	-137.068	-0.088	0.010
-728.937	710.589	-0.182	-0.492
-727.923	288.201	0.092	-0.170
-726.908	-200.000	-0.324	-0.001
-725.894	-200.000	0.066	-0.461
-724.879	800.000	0.067	-0.227
-723.864	-27.019	0.375	-0.224
-722.850	-171.877	-0.215	-0.007
-721.835	-10.254	0.117	0.080
-720.821	20.670	-0.172	0.142
-719.806	-161.837	-0.223	-0.012
-718.791	-71.424	-0.385	0.147
-717.777	-200.000	-0.034	0.195
-716.762	-75.732	-0.096	0.035
-715.748	-200.000	-0.003	-0.513
-714.733	-200.000	-0.021	0.097
-713.718	-32.745	-0.079	0.045
-712.704	14.838	0.097	0.078
-711.689	-111.392	-0.209	-0.044
-710.675	156.615	0.033	-0.046
-709.660	15.126	0.228	0.183
-708.645	-200.000	0.020	0.294
-707.631	20.997	-0.182	-0.151
-706.616	-55.626	0.136	-0.062
-705.602	800.000	0.054	-0.171
-704.587	429.271	0.053	-0.117
-703.572	45.144	0.093	-0.087
-702.558	-58.549	0.451	0.200
-701.543	-134.374	-0.110	-0.014
-700.529	-133.136	-0.191	-0.025
-699.514	-21.366	-0.214	-0.134
-698.499	-59.227	-0.021	0.009
-697.485	23.378	0.153	-0.129
-696.470	-200.000	-0.026	-0.176
-695.456	-95.302	-0.040	-0.011
-694.441	91.249	0.073	0.084
-693.426	-71.456	-0.237	-0.091
-692.412	-72.336	-0.246	0.093
-691.397	-24.122	0.219	-0.134
-690.383	-32.313	-0.356	0.203
-689.368	-89.362	0.092	0.028
-688.354	-200.000	-0.025	-0.204
-687.339	90.130	-0.050	0.057
-686.324	-171.437	0.215	-0.007
-685.310	-200.000	0.027	-0.140
-684.295	-102.892	-0.236	-0.057
-683.281	-30.380	-0.171	-0.099
-682.266	-65.785	0.313	-0.128
-681.251	-109.584	-0.295	0.064
-680.237	654.523	0.033	0.088
-679.222	-200.000	-0.040	-0.267
-678.208	311.221	0.126	-0.240
-677.193	-44.976	0.334	-0.170
-676.178	239.720	-0.084	0.143
-675.164	251.140	0.183	-0.318
-674.149	555.010	-0.041	0.101
-673.135	-18.020	0.242	0.155
-672.120	21.060	0.093	-0.077
-671.105	800.000	-0.041	-0.178
-670.091	388.654	-0.087	-0.183
-669.076	-153.035	-0.081	-0.006
-668.062	-82.970	-0.289	-0.095
-667.047	85.300	-0.054	-0.061
-666.032	800.000	0.032	-0.143
-665.018	-76.602	0.107	0.038
-664.003	-179.468	-0.164	0.004
-662.989	638.872	-0.115	-0.299
-661.974	146.145	-0.093	0.127
-660.959	-200.000	-0.001	-0.067
-659.945	-95.783	-0.024	0.007
-658.930	800.000	-0.012	0.036
-657.916	800.000	-0.074	-0.215
-656.901	-55.575	0.321	-0.147
-655.886	-200.000	-0.045	-0.301
-654.872	135.819	0.127	-0.168
-653.857	-3.552	-0.220	0.156
-652.843	193.952	-0.108	0.167
-651.828	-200.000	-0.002	-0.032
-650.814	133.445	0.086	-0.113
-649.799	-174.759	-0.205	0.006
-648.784	-181.222	0.330	0.007
-647.770	256.017	-0.028	-0.049
-646.755	-200.000	-0.017	0.295
-645.741	46.703	0.091	0.086
-644.726	800.000	-0.065	0.233
-643.711	800.000	0.031	-0.088
-642.697	102.269	0.168	-0.200
-641.682	800.000	-0.041	0.182
-640.668	-51.890	0.022	0.010
-639.653	800.000	0.077	0.308
-638.638	-74.754	0.262	-0.096
-637.624	38.733	0.170	0.155
-636.609	-200.000	0.033	0.358
-635.595	346.378	-0.092	-0.185
-634.580	800.000	0.006	-0.023
-633.565	-135.119	0.182	-0.022
-632.551	324.855	0.195	0.380
-631.536	116.680	-0.280	0.350
-630.522	17.848	0.122	-0.099
-629.507	-129.009	-0.156	0.022
-628.492	-177.925	-0.158	0.004
-627.478	-12.888	0.265	-0.176
-626.463	143.114	-0.101	-0.137
-625.449	-114.264	-0.367	-0.072
-624.434	-200.000	0.063	0.537
-623.419	-200.000	-0.008	0.059
-622.405	365.242	0.034	0.070
-621.390	-144.246	0.186	0.018
-620.376	90.374	0.113	0.129
-619.361	-51.195	0.219	-0.105
-618.346	84.159	-0.104	0.115
-617.332	-164.187	-0.211	0.010
-616.317	-200.000	-0.053	-0.263
-615.303	3.064	0.120	-0.089
-614.288	-64.585	0.210	0.087
-613.273	-16.477	-0.157	-0.102
-612.259	54.929	-0.089	0.088
-611.244	660.032	-0.172	-0.450
-610.230	169.217	-0.077	0.111
-609.215	-31.288	-0.187	0.107
-608.201	275.749	-0.046	0.084
-607.186	-88.983	-0.375	-0.113
-606.171	-200.000	-0.037	-0.371
-605.157	138.819	-0.108	0.144
-604.142	800.000	0.097	-0.389
-603.128	-103.783	0.145	-0.035
-602.113	-200.000	0.037	0.309
-601.098	23.925	-0.171	-0.143
-600.084	-54.291	-0.152	-0.070
-599.069	-103.611	0.157	-0.038
-598.055	-200.000	0.043	0.232
-597.040	48.895	0.208	-0.198
-596.025	77.561	0.053	-0.057
-595.011	-200.000	0.060	-0.308
-593.996	126.889	-0.111	0.143
-592.982	-101.495	0.406	-0.101
-591.967	-200.000	-0.075	0.366
-590.952	-140.980	0.398	0.042
-589.938	800.000	-0.007	-0.020
-588.923	-112.380	-0.262	0.053
-587.909	-84.060	-0.274	-0.089
-586.894	-19.844	-0.269	-0.169
-585.879	-157.193	-0.195	0.012
-584.865	800.000	-0.023	0.078
-583.850	-106.877	-0.254	0.057
-582.836	-200.000	-0.005	-0.194
-581.821	-41.392	0.156	-0.082
-580.806	286.031	-0.125	0.230
-579.792	-200.000	0.021	0.105
-578.777	-102.854	0.257	0.062
-577.763	800.000	0.031	-0.106
-576.748	152.205	0.245	-0.340
-575.733	47.730	-0.255	-0.242
-574.719	-186.291	0.315	-0.005
-573.704	410.630	-0.042	0.091
-572.690	-200.000	-0.001	0.051
-571.675	90.397	0.087	0.099
-570.661	19.189	0.214	0.174
-569.646	71.420	0.123	-0.130
-568.631	109.884	-0.077	-0.093
-567.617	534.972	0.091	0.219
-566.602	-16.076	0.057	0.037
-565.588	84.249	-0.240	-0.266
-564.573	-123.104	0.266	-0.043
-563.558	-102.496	0.158	-0.038
-562.544	186.526	-0.127	-0.193
-561.529	-134.760	0.075	-0.009
-560.515	-54.351	0.082	-0.038
-559.500	257.291	0.138	0.241
-558.485	-82.901	-0.222	-0.073
-557.471	-42.981	-0.294	-0.151
-556.456	54.575	-0.016	-0.015
-555.442	-142.520	-0.381	-0.038
-554.427	614.591	-0.009	-0.022
-553.412	-200.000	-0.028	-0.150
-552.398	-91.990	-0.227	0.065
-551.383	-8.651	0.089	-0.061
-550.369	730.476	0.060	0.163
-549.354	87.823	-0.092	-0.104
-548.339	262.679	0.101	-0.178
-547.325	-51.890	0.090	0.043
-546.310	187.551	0.306	0.464
-545.296	532.028	-0.102	-0.244
-544.281	577.812	0.082	0.204
-543.266	-200.000	-0.024	0.195
-542.252	1.825	-0.284	0.208
-541.237	23.513	-0.457	0.382
-540.223	800.000	0.053	0.206
-539.208	-135.691	-0.148	0.018
-538.193	-25.995	-0.067	0.040
-537.179	193.017	-0.167	-0.257
-536.164	55.997	-0.113	0.111
-535.150	-200.000	0.030	-0.160
-534.135	-200.000	-0.002	-0.291
-533.121	285.422	0.124	0.227
-532.106	-200.000	0.011	0.089
-531.091	437.402	-0.122	0.269
-530.077	50.324	-0.078	0.075
-529.062	260.151	-0.068	-0.119
-528.048	-142.555	0.291	-0.029
-527.033	191.191	0.075	-0.115
-526.018	45.751	-0.136	-0.128
-525.004	-116.154	-0.362	-0.068
-523.989	-200.000	-0.019	-0.377
-522.975	32.949	0.102	0.090
-521.960	-142.221	0.187	0.019
-520.945	-200.000	0.029	-0.218
-519.931	120.407	-0.209	-0.263
-518.916	560.687	-0.159	0.389
-517.902	444.209	0.127	-0.282
-516.887	-85.055	-0.105	-0.033
-515.872	-150.620	0.075	-0.006
-514.858	202.980	-0.069	-0.108
-513.843	560.292	-0.111	-0.272
-512.829	-200.000	-0.027	-0.304
-511.814	-167.539	-0.014	0.001
-510.799	-58.510	-0.085	-0.037
-509.785	513.788	-0.005	0.012
-508.770	61.264	-0.054	0.055
-507.756	-54.014	0.119	0.055
-506.741	-200.000	-0.155	0.000
-505.726	458.930	-0.068	-0.154
-504.712	111.343	0.107	-0.130
-503.697	-75.103	0.067	0.024
-502.683	-200.000	-0.045	-0.362
-501.668	-31.644	-0.338	-0.192
-500.653	-200.000	-0.025	-0.189
-499.639	-106.961	-0.326	0.073
-498.624	180.950	-0.092	-0.137
-497.610	-153.897	-0.439	0.030
-496.595	-120.418	-0.244	-0.042
-495.581	775.499	0.051	-0.141
-494.566	132.313	-0.193	-0.252
-493.551	90.922	-0.098	-0.111
-492.537	75.871	0.189	-0.202
-491.522	-200.000	-0.058	0.343
-490.508	-138.641	-0.211	-0.023
-489.493	45.114	0.236	0.220
-488.478	-89.661	0.318	-0.094
-487.464	-200.000	-0.009	-0.253
-486.449	-200.000	0.017	-0.155
-485.435	-106.576	-0.214	0.048
-484.420	-61.528	-0.274	0.117
-483.405	-23.255	0.098	0.060
-482.391	800.000	-0.028	0.091
-481.376	-35.592	0.191	0.105
-480.362	-99.798	0.584	-0.148
-479.347	50.292	-0.064	0.061
-478.332	263.446	-0.087	0.153
-477.318	117.880	0.164	-0.204
-476.303	-119.142	0.209	0.037
-475.289	-200.000	-0.008	-0.184
-474.274	797.466	0.124	-0.346
-473.259	310.043	0.101	0.192
-472.245	-55.515	0.483	0.219
-471.230	28.928	0.148	-0.127
-470.216	24.589	0.293	0.246
-469.201	8.571	-0.143	0.109
-468.186	-12.378	-0.203	0.134
-467.172	800.000	-0.043	0.188
-466.157	800.000	-0.014	-0.054
-465.143	-200.000	-0.005	-0.125
-464.128	79.660	0.081	-0.088
-463.113	185.142	0.187	0.281
-462.099	191.428	-0.103	0.157
-461.084	788.660	0.094	-0.261
-460.070	-154.513	-0.252	-0.017
-459.055	-10.321	-0.505	-0.339
-458.040	199.650	0.233	-0.362
-457.026	-200.000	-0.016	-0.079
-456.011	-65.590	0.293	-0.119
-454.997	-200.000	0.053	-0.347
-453.982	-132.672	0.317	0.041
-452.968	-47.806	-0.328	0.161
-451.953	-72.128	-0.303	-0.114
-450.938	-155.216	-0.231	0.015
-449.924	-78.906	0.149	0.051
-448.909	-143.855	0.178	0.017
-447.895	280.021	-0.073	-0.132
-446.880	-90.055	-0.182	-0.054
-445.865	-200.000	0.033	-0.267
-444.851	59.006	-0.266	0.264
-443.836	-65.152	0.322	0.131
-442.822	1.385	0.156	0.114
-441.807	-200.000	0.042	0.216
-440.792	-179.306	0.052	0.001
-439.778	201.086	-0.234	-0.364
-438.763	-54.169	0.280	-0.129
-437.749	190.606	0.135	0.205
-436.734	-5.827	-0.210	-0.145
-435.719	153.984	-0.020	0.028
-434.705	-99.740	-0.062	-0.016
-433.690	94.072	-0.210	-0.241
-432.676	-200.000	-0.171	0.001
-431.661	800.000	-0.052	0.225
-430.646	285.927	-0.126	-0.230
-429.632	292.711	0.093	0.172
-428.617	140.252	-0.025	-0.034
-427.603	-47.694	-0.018	0.009
-426.588	355.368	0.087	-0.176
-425.573	64.299	-0.040	-0.040
-424.559	800.000	-0.117	0.345
-423.544	27.996	-0.247	-0.211
-422.530	19.060	0.259	0.210
-421.515	-133.784	0.465	-0.058
-420.500	-200.000	-0.046	0.351
-419.486	-200.000	-0.029	-0.135
-418.471	-25.150	-0.294	-0.176
-417.457	-69.638	-0.482	-0.186
-416.442	-157.152	0.320	-0.020
-415.428	-200.000	-0.026	0.165
-414.413	-160.216	-0.244	0.013
-413.398	376.082	0.063	-0.130
-412.384	-200.000	0.024	-0.134
-411.369	-200.000	-0.025	0.336
-410.355	-200.000	0.015	0.070
-409.340	177.708	0.021	-0.031
-408.325	800.000	-0.077	-0.279
-407.311	-132.088	-0.355	0.047
-406.296	25.978	-0.072	0.061
-405.282	-135.572	0.445	0.053
-404.267	-106.231	0.133	-0.030
-403.252	-15.177	-0.038	-0.024
-402.238	-33.076	0.097	-0.054
-401.223	411.130	-0.048	0.104
-400.209	-23.892	0.097	-0.059
-399.194	800.000	-0.042	-0.173
-398.179	-113.805	0.029	-0.006
-397.165	-200.000	0.030	0.143
-396.150	-171.626	-0.232	-0.008
-395.136	-136.771	-0.192	-0.022
-394.121	28.012	0.252	-0.214
-393.106	-100.794	-0.198	-0.049
-392.092	135.911	-0.200	0.263
-391.077	217.892	0.147	0.237
-390.063	800.000	0.034	0.118
-389.048	56.351	0.295	-0.289
-388.033	163.069	-0.101	-0.144
-387.019	141.398	0.174	0.232
-386.004	-148.850	-0.313	-0.026
-384.990	-30.088	-0.032	-0.018
-383.975	-200.000	0.010	-0.126
-382.960	-67.293	0.195	-0.077
-381.946	-90.789	-0.313	0.091
-380.931	-163.426	0.111	0.005
-379.917	-32.942	-0.296	-0.166
-378.902	-155.075	-0.229	-0.015
-377.888	-138.788	0.291	0.032
-376.873	-200.000	0.012	-0.375
-375.858	-200.000	0.031	0.145
-374.844	299.238	-0.033	-0.061
-373.829	120.132	0.010	0.013
-372.815	-48.193	-0.102	0.050
-371.800	-200.000	-0.007	0.288
-370.785	-73.156	0.274	-0.101
-369.771	-132.366	0.330	0.043
-368.756	-159.124	-0.076	0.004
-367.742	-56.211	-0.140	0.063
-366.727	-112.601	0.261	0.052
-365.712	28.284	-0.061	0.052
-364.698	428.876	-0.109	-0.238
-363.683	-91.229	-0.357	0.103
-362.669	604.560	0.014	-0.036
-361.654	49.208	0.088	-0.084
-360.639	-65.137	-0.300	0.122
-359.625	-85.730	0.238	0.074
-358.610	401.157	0.140	0.296
-357.596	-60.282	0.220	0.094
-356.581	183.824	0.078	-0.117
-355.566	800.000	0.089	-0.285
-354.552	800.000	-0.017	-0.060
-353.537	53.980	-0.272	0.264
-352.523	-25.308	0.178	0.106
-351.508	-200.000	0.013	0.460
-350.493	-122.773	0.217	-0.035
-349.479	17.076	0.271	0.216
-348.464	134.896	-0.046	-0.060
-347.450	37.615	0.153	-0.137
-346.435	57.304	0.103	0.101
-345.420	-32.891	-0.196	-0.110
-344.406	-172.978	0.224	0.007
-343.391	225.853	-0.054	-0.089
-342.377	800.000	0.065	0.238
-341.362	-200.000	0.036	0.202
-340.348	214.287	0.021	-0.034
-339.333	274.088	0.106	0.190
-338.318	-47.497	-0.170	0.083
-337.304	800.000	-0.056	0.158
-336.289	-124.792	-0.287	0.045
-335.275	85.034	-0.216	0.239
-334.260	352.402	-0.024	-0.047
-333.245	-200.000	-0.005	0.174
-332.231	193.900	-0.112	-0.171
-331.216	-20.913	0.341	0.210
-330.202	-200.000	0.104	0.459
-329.187	81.570	-0.159	0.173
-328.172	800.000	-0.113	-0.378
-327.158	343.381	0.159	-0.313
-326.143	-109.836	0.064	0.014
-325.129	19.257	0.192	-0.155
-324.114	-82.377	-0.091	-0.030
-323.099	-38.069	0.167	-0.089
-322.085	800.000	-0.034	-0.105
-321.070	-65.025	-0.066	0.027
-320.056	61.944	0.125	-0.125
-319.041	-200.000	0.043	-0.288
-318.026	-114.864	0.136	0.026
-317.012	33.865	0.157	-0.137
-315.997	-200.000	0.027	0.352
-314.983	-19.809	0.233	-0.145
-313.968	-91.989	-0.222	0.063
-312.953	105.187	0.147	-0.175
-311.939	401.427	0.074	-0.156
-310.924	51.394	0.068	-0.065
-309.910	800.000	0.067	-0.271
-308.895	299.757	0.283	0.524
-307.880	-200.000	-0.059	-0.261
-306.866	-177.260	0.406	-0.010
-305.851	-130.615	-0.277	-0.038
-304.837	548.016	-0.007	-0.017
-303.822	-69.355	0.130	-0.050
-302.807	-200.000	-0.026	0.160
-301.793	-200.000	-0.000	0.062
-300.778	72.402	-0.131	0.137
-299.764	-30.834	-0.149	0.085
-298.749	800.000	-0.091	-0.289
-297.735	126.465	0.248	0.316
-296.720	-3.686	0.103	0.072
-295.705	158.619	-0.136	0.190
-294.691	62.143	-0.074	0.074
-293.676	89.200	-0.280	-0.313
-292.662	224.439	0.131	0.214
-291.647	101.021	0.110	0.129
-290.632	-182.581	0.155	-0.003
-289.618	-45.108	0.249	0.124
-288.603	-200.000	0.020	0.181
-287.589	-200.000	0.026	-0.263
-286.574	800.000	-0.044	-0.125
-285.559	-149.489	-0.291	-0.023
-284.545	264.378	-0.007	-0.012
-283.530	-200.000	-0.044	0.264
-282.516	68.917	-0.141	0.145
-281.501	192.297	-0.023	0.035
-280.486	203.401	-0.127	0.197
-279.472	12.670	0.235	-0.182
-278.457	-200.000	0.037	-0.232
-277.443	-200.000	-0.017	0.142
-276.428	-38.155	-0.125	-0.066
-275.413	-7.572	0.232	-0.158
-274.399	800.000	0.031	0.092
-273.384	800.000	0.082	-0.245
-272.370	-66.871	0.231	0.092
-271.355	-8.175	0.029	-0.020
-270.340	6.685	0.100	-0.075
-269.326	-57.431	-0.175	-0.077
-268.311	-71.492	0.115	-0.043
-267.297	363.502	0.145	-0.293
-266.282	-16.874	-0.028	-0.018
-265.267	-85.112	-0.383	0.120
-264.253	-6.379	-0.056	0.038
-263.238	616.434	-0.062	-0.155
-262.224	26.157	-0.133	-0.112
-261.209	-200.000	-0.016	0.082
-260.195	-64.484	-0.139	0.057
-259.180	31.116	0.202	0.174
-258.165	-69.765	-0.301	0.115
-257.151	261.212	0.141	0.244
-256.136	-152.820	0.184	-0.013
-255.122	800.000	0.055	-0.175
-254.107	-200.000	0.007	-0.200
-253.092	-200.000	0.032	0.325
-252.078	800.000	-0.166	0.499
-251.063	-60.503	-0.047	-0.020
-250.049	-200.000	-0.039	-0.239
-249.034	99.296	-0.104	0.121
-248.019	-119.691	-0.187	0.032
-247.005	800.000	-0.066	0.209
-245.990	639.600	-0.071	0.182
-244.976	42.055	-0.122	0.111
-243.961	49.101	-0.299	0.282
-242.946	-109.190	-0.361	0.077
-241.932	-2.832	-0.024	0.017
-240.917	-4.903	-0.218	-0.151
-239.903	-44.226	0.144	-0.072
-238.888	-200.000	-0.046	-0.211
-237.873	366.554	0.122	-0.246
-236.859	305.150	-0.179	-0.333
-235.844	166.138	-0.047	-0.067
-234.830	-200.000	-0.032	0.272
-233.815	163.207	-0.127	0.180
-232.800	-80.010	0.250	0.084
-231.786	-27.645	0.285	-0.166
-230.771	-200.000	-0.005	-0.248
-229.757	-114.516	-0.218	0.042
-228.742	720.453	0.022	0.059
-227.727	487.423	0.034	0.079
-226.713	178.833	-0.015	0.022
-225.698	-16.746	-0.173	0.110
-224.684	-32.751	-0.068	0.038
-223.669	58.133	0.090	0.088
-222.655	234.371	-0.129	0.213
-221.640	-115.196	0.051	0.010
-220.625	327.270	0.135	0.260
-219.611	800.000	0.091	0.349
-218.596	142.219	0.177	0.235
-217.582	-11.225	-0.223	-0.148
-216.567	-143.805	0.398	-0.038
-215.552	168.137	0.067	0.095
-214.538	-6.540	0.181	-0.124
-213.523	-200.000	0.019	0.112
-212.509	80.300	-0.120	0.130
-211.494	800.000	-0.040	0.170
-210.479	800.000	0.126	0.382
-209.465	2.930	-0.238	0.173
-208.450	-49.964	0.316	-0.150
-207.436	20.880	-0.106	-0.086
-206.421	-84.839	-0.310	0.098
-205.406	-33.754	-0.153	0.085
-204.392	447.464	0.032	0.070
-203.377	8.125	0.161	0.121
-202.363	-63.883	0.212	0.087
-201.348	448.280	0.143	-0.316
-200.333	-200.000	0.017	0.266
-199.319	-23.411	0.234	0.141
-198.304	-36.908	0.197	0.106
-197.290	290.209	-0.071	-0.129
-196.275	250.760	-0.129	-0.219
-195.260	28.511	0.310	-0.262
-194.246	149.070	-0.258	-0.350
-193.231	-200.000	-0.024	-0.251
-192.217	-104.024	0.037	-0.009
-191.202	800.000	0.048	0.157
-190.187	23.590	-0.063	0.052
-189.173	215.733	-0.142	-0.225
-188.158	246.054	-0.114	-0.193
-187.144	64.127	0.210	0.212
-186.129	-200.000	0.066	-0.332
-185.114	-58.526	0.129	0.056
-184.100	-24.324	0.166	0.099
-183.085	-76.296	0.162	-0.057
-182.071	800.000	0.046	0.145
-181.056	-35.482	-0.120	0.065
-180.042	-56.451	-0.245	-0.109
-179.027	117.695	0.188	-0.232
-178.012	462.445	0.020	-0.044
-176.998	-174.679	0.082	0.002
-175.983	134.935	0.253	-0.329
-174.969	-70.597	-0.343	-0.130
-173.954	-91.472	0.281	0.080
-172.939	800.000	-0.012	-0.053
-171.925	-25.812	-0.327	0.193
-170.910	305.133	0.172	-0.319
-169.896	-200.000	-0.018	0.304
-168.881	-36.524	-0.014	-0.007
-167.866	15.779	-0.172	0.136
-166.852	87.859	0.037	0.041
-165.837	-147.828	-0.240	-0.020
-164.823	35.079	-0.128	0.112
-163.808	15.499	-0.056	-0.044
-162.793	427.409	-0.100	0.215
-161.779	-200.000	0.138	0.000
-160.764	379.036	-0.086	-0.175
-159.750	800.000	0.093	-0.259
-158.735	-133.914	0.437	-0.054
-157.720	-168.556	0.358	-0.014
-156.706	158.850	0.054	-0.075
-155.691	-200.000	0.045	0.209
-154.677	-200.000	-0.033	-0.236
-153.662	42.220	0.093	-0.085
-152.647	-200.000	-0.030	0.198
-151.633	225.326	0.071	0.115
-150.618	82.955	-0.078	-0.085
-149.604	-200.000	-0.006	0.061
-148.589	-106.179	0.234	0.053
-147.574	-200.000	0.042	-0.336
-146.560	-48.333	0.167	0.080
-145.545	-40.071	0.260	0.136
-144.531	-89.698	0.144	-0.042
-143.516	660.831	-0.116	-0.298
-142.502	533.867	-0.068	-0.160
-141.487	430.199	-0.109	-0.236
-140.472	-125.718	-0.186	-0.028
-139.458	800.000	-0.069	0.196
-138.443	66.038	-0.074	-0.075
-137.429	-76.797	-0.141	0.049
-136.414	371.337	-0.085	-0.172
-135.399	-200.000	-0.021	0.292
-134.385	48.385	0.134	-0.125
-133.370	96.326	0.168	-0.192
-132.356	-200.000	0.034	-0.155
-131.341	-154.242	-0.284	0.019
-130.326	-114.992	-0.163	0.031
-129.312	209.574	0.147	-0.231
-128.297	17.834	0.132	0.105
-127.283	158.666	-0.207	0.287
-126.268	163.269	-0.181	0.254
-125.253	-80.043	-0.227	0.076
-124.239	191.977	-0.044	0.066
-123.224	-154.704	0.298	0.020
-122.210	102.012	0.083	-0.097
