DTS Sentinel unit serial number:	SN413079Multiplexer serial number:	ORYXHardware model number:	OX4-SRSoftware version number:	ORYX F/W v4.00 Oryx Data Collector v3.7.2.0data status	okinstallation	princeton_trtdifferential loss correction	single-endedforward channel	channel 3reverse channel	N/Adate	2019/09/12time	10:58:11forward acquisition time	60.00reverse acquisition time	0.00gamma	496.2192k internal	0.2295k external	0.2295temperature offset calibration	1.0036default loss term (dB/km)	0.3790temperature slope calibration	1.0000multiplexer offset coefficient	1.0000multiplexer slope coefficient	1.0000fibre end	0.00T internal ref (°C)	38.33T ext. ref 1 (°C)	1.95T ext. ref 2 (°C)	36.42length (m)	temperature (°C)	Stokes	anti-Stokes-747.200	800.000	0.024	-0.085
-746.185	-200.000	-0.016	0.300
-745.171	98.160	0.127	0.149
-744.156	55.397	0.188	0.186
-743.142	-200.000	0.005	0.184
-742.127	-76.347	0.235	0.085
-741.112	-200.000	0.048	0.294
-740.098	-105.529	-0.143	0.033
-739.083	-200.000	0.012	-0.072
-738.069	-129.737	0.126	0.018
-737.054	-13.340	-0.133	-0.088
-736.039	-126.787	-0.210	0.032
-735.025	-84.573	0.203	0.065
-734.010	-172.518	-0.170	-0.005
-732.996	-38.946	-0.115	-0.062
-731.981	258.479	0.134	-0.236
-730.966	-100.318	0.161	0.041
-729.952	-26.823	-0.271	-0.162
-728.937	69.977	-0.266	0.280
-727.923	-128.955	0.317	0.045
-726.908	-66.123	-0.255	0.104
-725.894	-47.971	-0.182	-0.090
-724.879	800.000	0.038	-0.156
-723.864	-26.334	-0.091	0.054
-722.850	8.043	-0.148	-0.113
-721.835	46.167	0.170	0.161
-720.821	524.830	0.025	-0.061
-719.806	-30.782	-0.154	-0.089
-718.791	-200.000	-0.012	-0.175
-717.777	124.315	0.228	-0.293
-716.762	-169.470	-0.217	0.008
-715.748	83.344	0.140	0.156
-714.733	-97.473	0.055	-0.015
-713.718	-200.000	-0.015	0.257
-712.704	-200.000	-0.030	0.148
-711.689	-154.338	0.104	-0.007
-710.675	-63.204	0.025	0.011
-709.660	141.631	-0.101	-0.137
-708.645	-200.000	-0.015	-0.088
-707.631	-167.848	-0.273	-0.011
-706.616	-84.816	0.207	0.066
-705.602	-200.000	0.011	0.173
-704.587	71.584	-0.149	-0.158
-703.572	-200.000	-0.039	-0.358
-702.558	800.000	0.171	-0.485
-701.543	800.000	0.051	0.186
-700.529	-200.000	-0.004	0.106
-699.514	237.598	0.045	0.076
-698.499	643.434	0.117	0.304
-697.485	206.608	-0.104	0.165
-696.470	800.000	-0.055	0.160
-695.456	-200.000	0.015	0.089
-694.441	103.110	-0.236	0.283
-693.426	-41.182	-0.120	0.063
-692.412	-200.000	0.004	0.113
-691.397	-77.150	-0.305	0.109
-690.383	-65.741	0.183	-0.075
-689.368	72.686	-0.117	-0.124
-688.354	74.749	-0.173	-0.185
-687.339	-160.576	0.136	0.007
-686.324	180.769	0.089	0.134
-685.310	-86.534	0.430	0.135
-684.295	117.619	-0.150	-0.188
-683.281	317.584	-0.043	0.083
-682.266	-94.716	-0.526	0.146
-681.251	-200.000	0.025	0.176
-680.237	75.265	0.099	0.106
-679.222	6.598	0.054	-0.041
-678.208	-19.403	-0.219	0.139
-677.193	42.223	0.166	0.154
-676.178	800.000	-0.032	0.107
-675.164	366.004	0.098	-0.202
-674.149	97.104	0.112	-0.131
-673.135	800.000	-0.010	0.037
-672.120	-35.608	0.088	0.049
-671.105	45.658	-0.192	0.181
-670.091	-160.757	-0.097	-0.005
-669.076	394.926	0.030	0.065
-668.062	94.235	-0.098	0.114
-667.047	139.251	-0.227	0.304
-666.032	-120.889	0.305	0.052
-665.018	-109.306	0.124	-0.027
-664.003	-79.656	0.262	-0.090
-662.989	-52.030	0.205	-0.097
-661.974	400.633	0.079	-0.169
-660.959	-18.885	-0.158	-0.100
-659.945	-99.735	0.132	-0.034
-658.930	800.000	0.048	0.209
-657.916	-10.644	0.160	0.108
-656.901	-167.314	0.155	-0.006
-655.886	-127.140	-0.268	0.040
-654.872	-73.812	-0.171	-0.063
-653.857	162.523	0.077	0.110
-652.843	-56.213	0.144	-0.065
-651.828	57.000	0.117	0.117
-650.814	173.488	-0.174	0.255
-649.799	-110.881	-0.125	-0.026
-648.784	-200.000	0.055	0.275
-647.770	-184.809	-0.262	0.004
-646.755	369.229	0.094	0.193
-645.741	-14.392	-0.173	-0.113
-644.726	800.000	0.063	-0.278
-643.711	340.597	0.114	-0.226
-642.697	-78.749	-0.160	-0.055
-641.682	800.000	-0.067	-0.221
-640.668	512.659	-0.212	-0.503
-639.653	-70.191	-0.172	-0.066
-638.638	-36.699	0.317	0.174
-637.624	-200.000	-0.273	-0.000
-636.609	-200.000	0.044	0.291
-635.595	140.360	-0.129	-0.173
-634.580	-200.000	0.032	0.154
-633.565	79.478	-0.125	-0.137
-632.551	159.734	-0.160	-0.227
-631.536	478.298	-0.203	-0.467
-630.522	-122.903	-0.303	0.050
-629.507	63.352	-0.137	0.140
-628.492	126.783	-0.106	0.137
-627.478	20.161	0.076	-0.062
-626.463	-69.630	0.190	0.074
-625.449	126.956	-0.131	-0.169
-624.434	546.525	0.099	-0.241
-623.419	800.000	-0.021	-0.087
-622.405	493.055	-0.100	-0.232
-621.390	-141.350	0.030	0.003
-620.376	-19.612	-0.093	-0.059
-619.361	800.000	-0.115	-0.350
-618.346	9.871	0.269	-0.208
-617.332	44.420	0.186	0.174
-616.317	800.000	-0.041	-0.156
-615.303	67.645	-0.150	-0.156
-614.288	800.000	-0.092	0.345
-613.273	543.307	-0.026	-0.063
-612.259	-112.266	-0.324	0.066
-611.244	-54.131	0.260	-0.120
-610.230	800.000	0.109	0.338
-609.215	-119.910	-0.229	0.040
-608.201	80.254	-0.182	0.199
-607.186	-2.339	-0.104	-0.074
-606.171	-108.382	0.135	0.030
-605.157	-200.000	0.031	0.238
-604.142	-53.840	0.161	-0.074
-603.128	-200.000	0.026	0.120
-602.113	-200.000	0.046	-0.409
-601.098	-8.056	0.240	-0.165
-600.084	-96.290	-0.378	0.102
-599.069	-200.000	-0.001	0.107
-598.055	95.121	-0.220	0.255
-597.040	800.000	-0.025	0.085
-596.025	-200.000	0.050	0.247
-595.011	-188.246	-0.061	-0.001
-593.996	-0.890	0.125	0.090
-592.982	-200.000	-0.036	0.233
-591.967	290.721	-0.195	0.361
-590.952	800.000	-0.068	0.277
-589.938	-200.000	-0.000	-0.151
-588.923	800.000	0.048	0.194
-587.909	32.223	0.175	-0.154
-586.894	-200.000	0.034	0.189
-585.879	800.000	0.063	-0.211
-584.865	-200.000	-0.009	-0.058
-583.850	17.887	-0.029	0.023
-582.836	151.117	-0.040	0.055
-581.821	-115.829	-0.233	0.044
-580.806	36.106	0.224	0.201
-579.792	800.000	-0.053	0.192
-578.777	800.000	-0.062	0.194
-577.763	-200.000	-0.006	-0.111
-576.748	307.714	-0.057	-0.109
-575.733	800.000	-0.132	-0.407
-574.719	-95.392	0.224	0.061
-573.704	72.068	0.199	0.210
-572.690	-50.548	0.196	0.094
-571.675	261.179	0.153	-0.268
-570.661	690.450	0.106	-0.281
-569.646	97.305	0.150	-0.175
-568.631	160.972	-0.041	0.059
-567.617	-136.891	-0.265	0.031
-566.602	-106.840	0.046	-0.010
-565.588	-65.856	0.470	0.191
-564.573	800.000	-0.071	-0.283
-563.558	-54.539	0.055	-0.025
-562.544	-133.030	-0.230	0.030
-561.529	148.402	-0.034	-0.047
-560.515	-116.346	-0.091	0.017
-559.500	174.191	-0.247	-0.362
-558.485	412.414	0.199	-0.429
-557.471	-200.000	0.012	0.110
-556.456	800.000	0.032	0.139
-555.442	80.002	0.195	-0.212
-554.427	-46.911	0.145	0.072
-553.412	-157.812	0.246	0.015
-552.398	11.578	-0.367	0.286
-551.383	-76.720	0.146	-0.052
-550.369	296.060	-0.016	-0.029
-549.354	-200.000	-0.068	-0.390
-548.339	-42.843	-0.207	-0.107
-547.325	794.860	0.064	0.178
-546.310	-103.099	0.104	0.025
-545.296	-27.622	-0.091	-0.054
-544.281	-125.862	0.196	0.030
-543.266	-180.259	0.105	0.002
-542.252	-101.448	-0.196	0.048
-541.237	-200.000	0.053	-0.268
-540.223	-95.103	-0.268	-0.073
-539.208	-70.589	0.197	0.076
-538.193	-17.209	-0.418	-0.267
-537.179	-84.206	0.203	0.065
-536.164	-180.249	0.309	-0.007
-535.150	-1.005	0.292	-0.209
-534.135	28.121	0.076	0.065
-533.121	-119.147	-0.300	0.053
-532.106	-41.610	0.109	0.057
-531.091	735.882	-0.014	-0.037
-530.077	800.000	-0.022	0.073
-529.062	-200.000	-0.038	0.196
-528.048	-164.061	-0.307	-0.014
-527.033	-200.000	-0.037	-0.223
-526.018	-110.448	0.115	-0.024
-525.004	-24.820	-0.199	-0.120
-523.989	-13.804	0.231	0.151
-522.975	-90.714	0.026	-0.008
-521.960	-200.000	-0.070	-0.325
-520.945	-200.000	-0.032	-0.211
-519.931	64.645	0.232	0.237
-518.916	-142.370	0.252	-0.025
-517.902	-200.000	0.000	-0.130
-516.887	-200.000	0.001	0.180
-515.872	-22.977	-0.240	-0.147
-514.858	-60.228	0.250	0.108
-513.843	-153.327	0.101	-0.007
-512.829	-191.494	0.087	-0.001
-511.814	800.000	0.095	-0.354
-510.799	191.858	-0.196	0.300
-509.785	-76.233	0.358	-0.128
-508.770	-11.689	0.050	-0.034
-507.756	-23.419	-0.250	0.152
-506.741	534.454	0.024	0.057
-505.726	-200.000	0.029	0.220
-504.712	-152.079	-0.324	0.024
-503.697	-200.000	-0.020	-0.299
-502.683	710.144	0.046	0.124
-501.668	330.389	-0.138	0.269
-500.653	31.713	-0.075	0.066
-499.639	-58.617	0.182	-0.080
-498.624	-6.713	-0.409	-0.282
-497.610	83.123	0.090	-0.099
-496.595	31.194	0.122	0.106
-495.581	-200.000	0.016	0.080
-494.566	568.186	0.134	0.330
-493.551	-133.651	-0.282	0.036
-492.537	209.214	-0.076	-0.121
-491.522	118.407	-0.123	0.154
-490.508	77.717	-0.216	-0.233
-489.493	-3.903	-0.102	-0.072
-488.478	-102.198	-0.136	-0.033
-487.464	-75.636	0.299	0.108
-486.449	-117.453	-0.139	-0.026
-485.435	-29.502	-0.242	0.140
-484.420	44.714	-0.215	0.200
-483.405	230.475	0.142	-0.235
-482.391	-45.935	0.263	-0.131
-481.376	269.917	0.158	-0.281
-480.362	-50.036	-0.262	0.126
-479.347	119.065	0.396	-0.496
-478.332	659.852	0.065	-0.169
-477.318	-50.382	0.194	0.093
-476.303	78.257	0.073	0.079
-475.289	220.980	0.114	-0.185
-474.274	-200.000	-0.023	-0.342
-473.259	649.821	-0.169	-0.437
-472.245	-177.613	-0.145	0.004
-471.230	-68.071	-0.240	-0.095
-470.216	-89.513	-0.193	0.057
-469.201	-98.384	-0.374	-0.097
-468.186	124.761	0.243	0.309
-467.172	31.961	-0.254	0.221
-466.157	44.159	-0.130	-0.120
-465.143	-200.000	0.034	-0.301
-464.128	132.558	0.062	-0.081
-463.113	-120.565	-0.146	-0.025
-462.099	-4.864	-0.176	-0.122
-461.084	-185.976	0.354	0.005
-460.070	29.947	0.183	-0.158
-459.055	800.000	-0.040	0.161
-458.040	29.437	-0.132	0.113
-457.026	-200.000	-0.078	0.352
-456.011	800.000	0.072	-0.256
-454.997	-22.737	-0.233	-0.142
-453.982	-200.000	0.016	0.109
-452.968	61.249	0.119	0.120
-451.953	800.000	0.093	-0.295
-450.938	155.158	0.141	-0.197
-449.924	-82.747	0.090	-0.029
-448.909	-64.658	-0.270	-0.111
-447.895	-134.249	-0.063	0.008
-446.880	3.940	0.240	-0.177
-445.865	27.948	-0.162	0.138
-444.851	-200.000	-0.091	0.423
-443.836	506.848	0.080	-0.187
-442.822	173.770	0.292	0.426
-441.807	8.342	-0.071	-0.054
-440.792	-200.000	-0.061	-0.446
-439.778	-35.281	0.107	0.059
-438.763	-200.000	-0.050	-0.281
-437.749	-146.491	0.152	0.013
-436.734	-50.555	-0.206	-0.098
-435.719	448.458	0.172	-0.384
-434.705	24.898	-0.214	-0.179
-433.690	153.489	-0.072	-0.099
-432.676	146.768	0.096	0.130
-431.661	279.893	0.155	0.279
-430.646	-200.000	-0.010	-0.306
-429.632	-74.431	-0.281	-0.102
-428.617	118.155	0.269	-0.335
-427.603	-50.170	-0.128	0.061
-426.588	207.494	0.072	0.113
-425.573	800.000	-0.064	0.234
-424.559	-80.836	-0.206	0.069
-423.544	35.109	-0.067	0.059
-422.530	-26.438	0.276	0.163
-421.515	399.150	0.049	0.103
-420.500	171.470	-0.085	0.123
-419.486	247.668	0.140	0.238
-418.471	369.057	-0.064	0.132
-417.457	103.028	-0.249	0.295
-416.442	-200.000	-0.054	0.260
-415.428	800.000	0.039	-0.154
-414.413	800.000	-0.056	0.217
-413.398	-56.268	-0.201	-0.090
-412.384	-200.000	0.041	0.515
-411.369	-97.982	-0.079	0.021
-410.355	-79.783	-0.314	-0.107
-409.340	234.554	0.139	-0.231
-408.325	-80.553	0.115	-0.039
-407.311	95.800	0.100	-0.115
-406.296	800.000	0.031	0.093
-405.282	2.019	-0.192	0.140
-404.267	181.139	0.217	0.322
-403.252	-95.370	-0.135	0.036
-402.238	-123.303	-0.370	0.060
-401.223	800.000	0.050	0.183
-400.209	-39.187	-0.143	-0.076
-399.194	31.377	-0.222	-0.192
-398.179	286.132	-0.055	0.100
-397.165	-200.000	0.024	-0.247
-396.150	478.122	0.045	0.103
-395.136	533.702	0.049	0.117
-394.121	-200.000	-0.009	-0.285
-393.106	-129.105	0.232	0.033
-392.092	-22.225	-0.182	-0.111
-391.077	-89.412	-0.232	0.069
-390.063	-74.505	0.217	0.079
-389.048	-120.016	0.195	0.034
-388.033	-95.222	0.297	0.081
-387.019	-15.587	-0.283	0.182
-386.004	-200.000	0.013	-0.124
-384.990	-17.756	-0.058	-0.037
-383.975	329.135	0.105	0.203
-382.960	-95.890	-0.259	0.070
-381.946	-152.388	-0.334	-0.024
-380.931	-101.738	0.236	0.058
-379.917	780.759	-0.101	-0.280
-378.902	77.884	-0.055	-0.059
-377.888	178.184	-0.160	-0.235
-376.873	-98.696	0.039	-0.010
-375.858	57.055	0.017	-0.017
-374.844	20.406	0.108	-0.088
-373.829	70.967	0.211	0.220
-372.815	-37.557	-0.179	-0.096
-371.800	-126.946	0.287	0.043
-370.785	-87.638	-0.236	0.072
-369.771	800.000	-0.031	-0.108
-368.756	-66.830	-0.215	-0.086
-367.742	47.192	0.163	0.153
-366.727	-82.833	-0.295	0.096
-365.712	206.225	-0.121	-0.190
-364.698	-27.919	-0.330	0.193
-363.683	-14.462	0.125	-0.081
-362.669	-147.293	-0.256	0.022
-361.654	-146.286	0.092	0.008
-360.639	664.403	-0.024	0.063
-359.625	-155.164	0.270	0.018
-358.610	107.830	-0.105	-0.125
-357.596	152.658	0.073	0.101
-356.581	139.943	-0.122	0.162
-355.566	121.962	0.046	0.058
-354.552	91.443	-0.040	-0.046
-353.537	-41.313	-0.110	-0.057
-352.523	-200.000	0.013	0.446
-351.508	800.000	-0.060	-0.201
-350.493	-142.528	0.035	-0.003
-349.479	-95.686	0.361	0.097
-348.464	-44.312	-0.113	-0.057
-347.450	-200.000	-0.028	-0.220
-346.435	57.766	-0.079	-0.078
-345.420	-135.043	0.308	-0.037
-344.406	-47.702	0.204	-0.100
-343.391	76.822	-0.041	-0.043
-342.377	-116.072	0.146	0.027
-341.362	-200.000	0.015	0.208
-340.348	-115.214	0.354	-0.067
-339.333	-200.000	0.013	-0.197
-338.318	-18.107	-0.203	0.128
-337.304	-119.404	0.062	-0.011
-336.289	-0.943	-0.263	0.188
-335.275	93.953	0.099	-0.113
-334.260	-45.316	0.183	-0.091
-333.245	-12.431	-0.095	-0.063
-332.231	223.426	0.224	-0.364
-331.216	-200.000	0.024	-0.366
-330.202	-29.172	0.053	-0.031
-329.187	29.058	-0.134	-0.114
-328.172	49.413	-0.111	0.105
-327.158	-70.744	-0.082	0.031
-326.143	-50.061	0.306	0.146
-325.129	-20.243	-0.016	-0.010
-324.114	-148.358	0.192	-0.016
-323.099	800.000	-0.021	0.089
-322.085	-91.234	-0.068	-0.020
-321.070	419.412	0.027	0.059
-320.056	-200.000	-0.006	0.036
-319.041	-200.000	-0.096	-0.000
-318.026	101.520	0.180	-0.211
-317.012	-200.000	0.014	-0.405
-315.997	-85.669	-0.251	-0.078
-314.983	188.673	0.210	-0.316
-313.968	-200.000	0.001	-0.214
-312.953	-102.717	-0.092	0.022
-311.939	-90.433	-0.084	-0.024
-310.924	-65.043	0.322	0.131
-309.910	-200.000	0.058	0.300
-308.895	225.428	-0.136	-0.222
-307.880	39.514	0.276	-0.248
-306.866	295.636	0.121	-0.223
-305.851	689.514	-0.059	-0.156
-304.837	-169.812	0.132	-0.005
-303.822	-13.585	0.183	-0.119
-302.807	117.785	0.125	0.154
-301.793	-158.675	0.285	-0.016
-300.778	800.000	0.071	0.228
-299.764	-200.000	-0.006	-0.138
-298.749	-20.508	-0.101	0.062
-297.735	-143.785	0.248	0.024
-296.720	-65.890	-0.039	0.016
-295.705	522.062	-0.036	0.084
-294.691	-200.000	-0.012	0.300
-293.676	300.322	0.148	-0.275
-292.662	-134.145	-0.544	-0.067
-291.647	-200.000	0.037	-0.186
-290.632	54.695	0.183	0.177
-289.618	475.835	0.029	-0.066
-288.603	800.000	-0.052	-0.216
-287.589	215.202	0.184	0.293
-286.574	-36.350	-0.164	-0.089
-285.559	800.000	-0.053	-0.195
-284.545	-168.253	-0.087	0.003
-283.530	-25.467	0.254	0.151
-282.516	376.760	-0.220	0.451
-281.501	-200.000	0.036	-0.239
-280.486	246.213	0.204	0.345
-279.472	-200.000	0.028	0.136
-278.457	106.429	-0.194	0.231
-277.443	-22.116	-0.279	-0.170
-276.428	-200.000	0.005	0.269
-275.413	47.276	-0.051	0.047
-274.399	4.754	-0.033	0.025
-273.384	132.718	0.085	0.110
-272.370	-61.810	0.111	-0.047
-271.355	-150.648	0.182	-0.014
-270.340	-131.702	0.274	0.036
-269.326	-110.266	-0.145	0.030
-268.311	800.000	0.112	0.383
-267.297	-62.235	-0.113	0.047
-266.282	119.858	0.145	-0.181
-265.267	86.606	0.173	0.191
-264.253	-41.695	0.264	0.136
-263.238	-200.000	0.052	0.256
-262.224	-145.539	-0.209	0.019
-261.209	-200.000	-0.021	-0.196
-260.195	-62.381	0.357	-0.149
-259.180	41.671	0.009	-0.008
-258.165	116.750	-0.172	0.212
-257.151	-185.803	0.149	0.002
-256.136	-100.289	0.079	-0.020
-255.122	-68.399	0.054	0.021
-254.107	-50.271	0.238	-0.113
-253.092	-200.000	0.024	-0.112
-252.078	-3.033	0.179	0.125
-251.063	43.754	0.140	-0.129
-250.049	522.454	0.175	-0.411
-249.034	-153.613	-0.341	-0.024
-248.019	502.319	0.135	-0.313
-247.005	-200.000	0.034	0.192
-245.990	800.000	0.022	0.092
-244.976	800.000	-0.067	-0.241
-243.961	-90.884	-0.200	0.058
-242.946	13.713	0.171	-0.133
-241.932	-8.773	0.109	-0.073
-240.917	800.000	-0.070	-0.287
-239.903	180.372	-0.072	0.106
-238.888	-7.569	0.170	0.115
-237.873	421.180	-0.034	0.074
-236.859	119.080	0.157	-0.195
-235.844	99.964	-0.181	0.210
-234.830	69.298	-0.233	0.241
-233.815	101.415	-0.133	0.155
-232.800	545.712	0.065	0.155
-231.786	-99.327	-0.364	0.092
-230.771	800.000	-0.060	0.205
-229.757	-1.016	0.221	-0.156
-228.742	-92.912	0.431	0.121
-227.727	106.765	-0.155	0.185
-226.713	-200.000	0.073	-0.361
-225.698	-76.121	-0.166	-0.059
-224.684	210.395	-0.111	-0.175
-223.669	54.439	0.261	0.252
-222.655	287.707	0.100	-0.180
-221.640	-17.067	0.258	0.163
-220.625	-49.432	-0.041	-0.019
-219.611	-77.022	-0.270	0.094
-218.596	409.587	-0.066	0.141
-217.582	800.000	0.074	-0.265
-216.567	49.586	0.145	0.137
-215.552	-30.538	0.212	0.120
-214.538	733.536	-0.088	0.236
-213.523	570.273	0.118	-0.288
-212.509	193.839	-0.311	0.472
-211.494	800.000	-0.019	0.059
-210.479	-99.633	-0.309	-0.078
-209.465	-184.070	-0.361	0.006
-208.450	-200.000	-0.079	0.530
-207.436	-27.793	-0.172	0.100
-206.421	72.297	0.139	-0.145
-205.406	98.670	0.083	0.096
-204.392	175.122	0.152	0.221
-203.377	-34.111	-0.082	0.045
-202.363	32.541	0.128	-0.111
-201.348	-200.000	0.008	0.080
-200.333	689.632	-0.058	0.153
-199.319	540.430	-0.075	0.178
-198.304	-3.753	-0.130	0.090
-197.290	-124.239	-0.346	0.054
-196.275	800.000	-0.030	0.087
-195.260	49.228	0.154	0.145
-194.246	24.154	0.226	-0.186
-193.231	312.054	-0.062	-0.116
-192.217	331.697	-0.164	0.317
-191.202	-200.000	0.006	0.096
-190.187	-200.000	0.009	-0.106
-189.173	-85.887	0.381	0.118
-188.158	-200.000	0.013	0.087
-187.144	800.000	-0.016	-0.068
-186.129	-80.502	0.424	0.141
-185.114	-75.677	-0.116	-0.041
-184.100	-200.000	-0.008	-0.202
-183.085	-22.857	-0.064	0.038
-182.071	72.605	-0.212	-0.221
-181.056	-49.685	0.122	0.058
-180.042	3.515	0.403	0.294
-179.027	95.529	-0.153	0.175
-178.012	-50.662	0.206	0.097
-176.998	-188.907	0.412	0.005
-175.983	262.543	-0.142	0.246
-174.969	800.000	0.058	0.198
-173.954	-70.448	0.038	-0.015
-172.939	454.301	0.136	0.300
-171.925	-200.000	-0.028	-0.377
-170.910	37.262	-0.163	0.145
-169.896	-33.635	0.101	-0.056
-168.881	-200.000	0.033	0.267
-167.866	-147.011	0.133	0.011
-166.852	800.000	-0.037	-0.133
-165.837	-94.176	0.098	0.027
-164.823	-200.000	-0.021	-0.347
-163.808	-39.299	-0.301	0.158
-162.793	-200.000	-0.011	0.392
-161.779	3.068	-0.416	0.302
-160.764	-200.000	-0.004	-0.033
-159.750	-59.134	0.028	0.012
-158.735	-18.845	0.089	-0.056
-157.720	-200.000	0.009	-0.124
-156.706	-200.000	0.010	0.128
-155.691	16.174	-0.162	0.127
-154.677	46.020	-0.115	-0.106
-153.662	-84.308	0.403	0.128
-152.647	-89.837	0.197	-0.058
-151.633	-14.993	0.076	-0.048
-150.618	-132.956	-0.226	-0.029
-149.604	-59.090	0.165	0.071
-148.589	64.636	-0.249	0.251
-147.574	-64.996	-0.229	-0.092
-146.560	-99.870	-0.275	-0.069
-145.545	-200.000	0.019	0.088
-144.531	295.580	-0.166	-0.304
-143.516	64.784	-0.053	-0.053
-142.502	613.122	-0.106	0.265
-141.487	-85.567	-0.324	-0.101
-140.472	285.986	-0.044	-0.079
-139.458	95.322	-0.219	0.249
-138.443	-1.499	-0.354	-0.249
-137.429	-50.030	0.157	0.074
-136.414	800.000	-0.022	-0.093
-135.399	-151.957	-0.108	0.008
-134.385	800.000	-0.104	0.297
-133.370	371.698	-0.065	0.132
-132.356	800.000	-0.141	0.423
-131.341	-149.859	0.340	-0.027
-130.326	-200.000	-0.015	0.267
-129.312	-65.578	-0.167	0.067
-128.297	-200.000	-0.021	0.123
-127.283	16.724	0.033	0.026
-126.268	19.510	0.234	-0.188
-125.253	-41.611	0.088	-0.045
-124.239	73.075	0.052	-0.054
-123.224	-135.250	-0.060	0.007
-122.210	294.825	0.149	0.272
-121.195	-200.000	0.291	-0.000
-120.180	-15.375	0.306	0.195
