DTS Sentinel unit serial number:	SN413079Multiplexer serial number:	ORYXHardware model number:	OX4-SRSoftware version number:	ORYX F/W v4.00 Oryx Data Collector v3.7.2.0data status	okinstallation	princeton_trtdifferential loss correction	single-endedforward channel	channel 3reverse channel	N/Adate	2019/09/12time	18:19:03forward acquisition time	15.00reverse acquisition time	0.00gamma	496.2192k internal	0.2316k external	0.2316temperature offset calibration	1.0090default loss term (dB/km)	0.3790temperature slope calibration	1.0000multiplexer offset coefficient	1.0000multiplexer slope coefficient	1.0000fibre end	0.00T internal ref (°C)	33.44T ext. ref 1 (°C)	2.93T ext. ref 2 (°C)	28.04length (m)	temperature (°C)	Stokes	anti-Stokes-747.200	-87.100	1.114	-0.343
-746.185	-81.438	0.504	-0.168
-745.171	800.000	0.279	-0.827
-744.156	-79.617	0.349	-0.119
-743.142	778.685	0.077	-0.213
-742.127	290.642	0.648	1.193
-741.112	85.276	0.071	0.079
-740.098	800.000	0.096	0.310
-739.083	-38.185	-0.259	-0.139
-738.069	-200.000	-0.022	0.310
-737.054	181.152	-0.099	-0.147
-736.039	-65.245	-0.146	0.060
-735.025	224.563	0.296	-0.484
-734.010	-22.918	0.600	0.367
-732.996	-47.545	-0.519	-0.255
-731.981	54.808	0.095	0.092
-730.966	-200.000	0.055	0.314
-729.952	39.126	-0.357	0.323
-728.937	242.003	-0.312	0.528
-727.923	116.556	0.340	-0.422
-726.908	210.362	-0.150	-0.238
-725.894	254.993	-0.318	-0.551
-724.879	-117.925	-0.402	-0.073
-723.864	23.126	0.627	-0.521
-722.850	800.000	0.306	-1.087
-721.835	122.019	-0.716	-0.905
-720.821	-108.083	0.243	0.053
-719.806	-200.000	-0.006	0.105
-718.791	-73.915	-0.544	-0.200
-717.777	-200.000	-0.038	-0.245
-716.762	-20.218	-0.111	0.069
-715.748	-52.525	-0.671	-0.314
-714.733	219.831	-0.317	0.513
-713.718	-90.798	-0.740	0.216
-712.704	167.116	-0.323	0.464
-711.689	261.292	0.255	0.446
-710.675	-200.000	-0.111	-0.614
-709.660	-42.009	1.098	-0.569
-708.645	129.530	0.208	0.269
-707.631	18.127	-0.738	-0.595
-706.616	-36.528	0.682	0.371
-705.602	-24.746	0.829	-0.498
-704.587	-200.000	-0.042	0.252
-703.572	33.275	0.168	-0.147
-702.558	-64.499	-0.420	0.173
-701.543	-68.869	0.190	-0.074
-700.529	-76.782	-0.675	0.239
-699.514	800.000	-0.030	-0.087
-698.499	-200.000	-0.074	0.679
-697.485	134.697	-0.273	0.358
-696.470	-123.365	-0.551	-0.089
-695.456	-165.863	0.318	-0.014
-694.441	-200.000	0.000	0.477
-693.426	-127.588	-1.089	-0.160
-692.412	-200.000	0.135	-0.791
-691.397	-200.000	0.039	0.854
-690.383	-77.555	-0.294	0.103
-689.368	3.233	0.438	0.322
-688.354	156.678	0.133	-0.186
-687.339	-200.000	0.106	-1.020
-686.324	25.284	-1.105	0.928
-685.310	-200.000	-0.011	-0.879
-684.295	-6.312	0.765	0.527
-683.281	134.665	0.376	-0.493
-682.266	-74.204	-0.132	0.048
-681.251	-200.000	-0.055	-0.250
-680.237	-146.543	0.865	-0.076
-679.222	451.685	-0.368	-0.822
-678.208	73.979	0.435	-0.461
-677.193	-160.897	0.631	-0.034
-676.178	130.172	-0.281	0.363
-675.164	-53.471	-0.500	-0.231
-674.149	-200.000	-0.123	0.944
-673.135	-70.664	0.068	0.026
-672.120	-200.000	0.049	0.263
-671.105	-73.334	-0.544	-0.201
-670.091	-36.070	-0.446	0.244
-669.076	5.391	-0.421	0.314
-668.062	-68.865	-0.711	0.277
-667.047	-16.549	-0.805	0.515
-666.032	238.149	0.249	0.418
-665.018	800.000	-0.228	0.836
-664.003	14.624	0.728	-0.575
-662.989	681.516	-0.201	-0.529
-661.974	51.066	-0.229	0.219
-660.959	800.000	0.122	0.519
-659.945	-86.655	-0.343	-0.106
-658.930	-168.379	0.869	0.034
-657.916	172.071	-0.055	0.080
-656.901	-63.202	-0.473	-0.197
-655.886	5.601	-0.602	0.449
-654.872	73.518	0.192	0.203
-653.857	-158.274	0.327	-0.019
-652.843	-158.290	-0.835	0.049
-651.828	800.000	-0.183	-0.795
-650.814	-159.237	-0.716	-0.041
-649.799	800.000	-0.082	-0.292
-648.784	-92.533	0.443	0.126
-647.770	-177.297	0.298	-0.007
-646.755	-115.314	0.294	0.056
-645.741	-106.764	-0.890	-0.199
-644.726	56.121	-0.360	-0.353
-643.711	262.233	-0.107	0.186
-642.697	666.359	0.128	0.333
-641.682	-118.314	-0.284	0.051
-640.668	184.093	0.380	0.568
-639.653	-132.018	-0.528	-0.069
-638.638	205.839	-0.092	0.144
-637.624	-133.798	0.301	0.038
-636.609	800.000	-0.144	0.532
-635.595	-200.000	-0.047	-0.819
-634.580	343.796	-0.278	-0.549
-633.565	-28.256	0.654	0.381
-632.551	-116.089	-0.329	-0.062
-631.536	-79.435	-0.946	-0.323
-630.522	87.417	-0.282	-0.315
-629.507	-117.184	-0.809	0.148
-628.492	-68.369	-0.712	-0.279
-627.478	-200.000	0.022	0.282
-626.463	-60.204	-0.402	-0.173
-625.449	80.558	0.519	-0.564
-624.434	-117.731	0.157	0.028
-623.419	-69.948	0.770	0.296
-622.405	71.331	-0.097	0.102
-621.390	-38.472	0.351	0.187
-620.376	-109.747	-0.317	0.067
-619.361	-110.740	-0.242	0.050
-618.346	-200.000	0.108	0.658
-617.332	28.828	0.145	0.123
-616.317	-171.507	0.206	0.007
-615.303	-170.419	0.765	0.027
-614.288	-133.937	-0.582	0.073
-613.273	191.493	-0.173	-0.263
-612.259	800.000	-0.184	0.705
-611.244	-30.300	-0.484	0.277
-610.230	519.194	-0.393	-0.927
-609.215	425.416	-0.331	-0.717
-608.201	12.945	0.465	-0.362
-607.186	-4.374	0.697	-0.486
-606.171	800.000	-0.345	-1.095
-605.157	43.404	-0.204	-0.188
-604.142	-200.000	0.066	-0.325
-603.128	196.541	-0.317	0.487
-602.113	59.487	0.557	0.553
-601.098	-26.142	0.798	-0.473
-600.084	81.752	0.526	0.574
-599.069	-1.878	0.247	-0.175
-598.055	363.893	-0.341	0.691
-597.040	-200.000	-0.008	-0.633
-596.025	60.264	-0.262	-0.261
-595.011	177.293	0.140	0.205
-593.996	-200.000	-0.014	1.000
-592.982	800.000	0.123	0.521
-591.967	9.311	-0.438	-0.334
-590.952	159.790	-0.374	0.525
-589.938	55.171	0.148	0.144
-588.923	-200.000	-0.055	0.605
-587.909	-18.009	0.360	-0.227
-586.894	45.436	-0.230	0.214
-585.879	20.182	0.232	-0.189
-584.865	57.676	0.107	-0.105
-583.850	-159.835	-0.394	-0.022
-582.836	-143.688	-0.605	-0.058
-581.821	-124.729	0.539	0.084
-580.806	237.619	-0.277	-0.463
-579.792	-94.466	0.429	0.118
-578.777	-111.839	-0.651	-0.132
-577.763	800.000	0.334	1.052
-576.748	800.000	0.054	-0.195
-575.733	-66.484	-0.670	-0.268
-574.719	58.519	-0.122	-0.121
-573.704	-98.673	0.425	0.109
-572.690	68.368	-0.316	-0.326
-571.675	-103.826	-0.694	-0.163
-570.661	800.000	-0.278	-0.888
-569.646	-200.000	-0.029	-0.170
-568.631	608.280	0.236	-0.593
-567.617	228.122	0.218	-0.357
-566.602	-200.000	-0.017	0.129
-565.588	-17.127	-0.535	0.339
-564.573	36.538	0.260	-0.231
-563.558	-200.000	0.076	-0.492
-562.544	-81.055	-0.521	-0.174
-561.529	36.615	0.388	-0.344
-560.515	-75.526	0.392	0.140
-559.500	-93.521	-0.713	0.198
-558.485	-200.000	-0.012	-0.358
-557.471	-1.096	0.469	0.333
-556.456	728.293	0.200	0.538
-555.442	-200.000	-0.159	-0.708
-554.427	695.775	-0.252	-0.666
-553.412	800.000	-0.084	-0.298
-552.398	-26.647	-0.588	0.346
-551.383	-103.378	0.150	-0.036
-550.369	541.226	0.388	-0.930
-549.354	-36.084	-0.616	-0.334
-548.339	-102.285	0.390	0.094
-547.325	-136.369	0.711	0.083
-546.310	-105.285	0.324	-0.074
-545.296	-154.670	-0.621	0.042
-544.281	715.579	0.366	0.977
-543.266	-200.000	-0.000	0.269
-542.252	800.000	-0.199	-0.575
-541.237	800.000	-0.177	-0.498
-540.223	-32.315	0.580	-0.325
-539.208	-95.738	0.691	-0.186
-538.193	800.000	-0.333	-0.938
-537.179	-122.701	-0.286	0.047
-536.164	800.000	0.029	0.100
-535.150	128.773	-0.698	0.894
-534.135	156.833	-0.357	0.495
-533.121	300.449	0.301	-0.558
-532.106	-200.000	0.112	0.524
-531.091	-200.000	-0.042	-0.403
-530.077	195.784	0.504	0.770
-529.062	343.354	-0.137	0.269
-528.048	122.413	0.251	-0.315
-527.033	-37.567	0.886	-0.475
-526.018	64.329	-0.566	0.573
-525.004	-156.719	-0.436	-0.027
-523.989	-200.000	-0.181	0.821
-522.975	-124.136	0.399	-0.063
-521.960	-173.352	-0.065	-0.002
-520.945	800.000	0.085	-0.273
-519.931	-102.651	-0.448	-0.107
-518.916	-100.035	-0.191	0.048
-517.902	-200.000	0.000	-0.233
-516.887	-20.399	-0.335	0.207
-515.872	-93.440	0.791	0.220
-514.858	-68.041	-0.769	-0.301
-513.843	13.471	-0.408	-0.317
-512.829	-200.000	-0.007	-0.246
-511.814	800.000	-0.111	-0.462
-510.799	-141.586	-0.716	0.072
-509.785	-142.030	-0.364	0.036
-508.770	-37.669	-0.097	-0.052
-507.756	604.932	0.223	-0.558
-506.741	297.240	0.445	0.821
-505.726	325.467	-0.469	0.900
-504.712	800.000	0.081	-0.258
-503.697	-200.000	-0.095	0.777
-502.683	225.322	0.495	0.804
-501.668	77.395	0.568	-0.607
-500.653	-60.805	0.560	0.238
-499.639	-162.192	0.321	-0.016
-498.624	178.115	-0.524	-0.768
-497.610	-71.560	-0.455	0.171
-496.595	74.497	0.474	0.500
-495.581	40.049	-0.411	-0.370
-494.566	171.427	0.256	-0.368
-493.551	779.468	0.124	-0.341
-492.537	-200.000	0.065	-0.513
-491.522	203.198	0.280	-0.435
-490.508	-153.129	0.512	-0.036
-489.493	119.774	0.123	-0.153
-488.478	-200.000	0.085	-0.588
-487.464	381.152	-0.521	1.072
-486.449	-0.689	1.072	0.762
-485.435	166.680	-0.287	0.408
-484.420	280.712	0.334	0.598
-483.405	328.380	-0.042	0.082
-482.391	-200.000	0.197	1.060
-481.376	29.341	0.137	-0.117
-480.362	-17.139	-0.559	-0.353
-479.347	800.000	0.144	0.521
-478.332	-8.553	0.290	-0.195
-477.318	9.013	-0.075	-0.057
-476.303	-45.420	0.275	-0.137
-475.289	-8.627	0.525	-0.354
-474.274	-42.170	0.372	0.191
-473.259	-62.760	0.283	-0.117
-472.245	262.121	-0.506	0.880
-471.230	66.462	-0.317	-0.323
-470.216	101.359	0.242	-0.282
-469.201	5.426	0.739	-0.546
-468.186	-26.548	-0.108	0.063
-467.172	189.975	-0.302	0.454
-466.157	-176.484	-0.567	-0.015
-465.143	800.000	-0.172	0.483
-464.128	39.510	-0.740	0.665
-463.113	-26.557	0.251	-0.147
-462.099	2.771	-0.299	0.217
-461.084	-200.000	0.116	-0.867
-460.070	-200.000	-0.066	-0.719
-459.055	-7.322	-0.464	-0.315
-458.040	-105.365	-0.154	-0.035
-457.026	97.511	-0.106	0.121
-456.011	105.607	0.104	-0.123
-454.997	-200.000	0.001	0.689
-453.982	789.148	-0.189	-0.519
-452.968	-2.237	0.467	-0.329
-451.953	605.651	-0.330	-0.824
-450.938	593.793	0.203	-0.503
-449.924	46.623	0.213	-0.198
-448.909	-53.725	0.131	0.060
-447.895	-151.718	0.411	0.030
-446.880	-101.974	-0.500	0.121
-445.865	270.903	-0.332	-0.585
-444.851	110.762	-0.328	-0.395
-443.836	-200.000	-0.069	0.588
-442.822	-52.843	-0.751	-0.346
-441.807	-200.000	0.098	-0.567
-440.792	-99.498	-0.408	-0.103
-439.778	-40.225	-0.561	0.292
-438.763	770.901	-0.333	-0.908
-437.749	-200.000	0.110	-0.706
-436.734	-56.208	-0.601	-0.268
-435.719	-92.154	-0.210	-0.059
-434.705	81.428	-0.372	0.402
-433.690	-200.000	0.111	-0.577
-432.676	-82.066	0.424	-0.138
-431.661	-109.185	0.625	0.133
-430.646	115.573	-0.334	-0.408
-429.632	-153.715	0.066	-0.005
-428.617	-22.312	-0.599	-0.364
-427.603	800.000	-0.207	-0.614
-426.588	-70.066	0.763	0.291
-425.573	-200.000	-0.117	0.575
-424.559	-16.334	-0.376	-0.239
-423.544	511.864	-0.217	0.506
-422.530	26.981	-0.613	-0.514
-421.515	-200.000	0.005	0.027
-420.500	65.302	-0.224	-0.227
-419.486	154.158	0.419	0.575
-418.471	800.000	-0.301	0.956
-417.457	296.961	0.280	-0.514
-416.442	-4.384	0.295	-0.204
-415.428	-200.000	0.047	0.941
-414.413	-81.416	-0.418	0.138
-413.398	238.524	0.557	-0.925
-412.384	-151.215	-0.458	-0.034
-411.369	71.952	-0.612	0.636
-410.355	50.942	0.156	0.148
-409.340	-38.129	-0.246	0.130
-408.325	-47.691	0.220	0.107
-407.311	4.002	0.179	-0.131
-406.296	-114.851	0.322	0.061
-405.282	-120.915	-0.771	-0.130
-404.267	60.206	-0.367	-0.363
-403.252	800.000	0.059	-0.175
-402.238	15.372	0.346	-0.271
-401.223	-98.450	-0.785	-0.201
-400.209	-22.451	0.483	-0.293
-399.194	202.412	-0.345	-0.532
-398.179	-73.419	-0.353	0.129
-397.165	96.100	-0.266	0.304
-396.150	-103.130	-0.813	-0.192
-395.136	-0.313	-0.281	-0.199
-394.121	-145.349	0.347	-0.031
-393.106	-200.000	0.007	0.112
-392.092	21.468	-0.305	0.247
-391.077	330.594	0.350	0.673
-390.063	800.000	-0.064	0.191
-389.048	-200.000	0.043	-0.318
-388.033	152.203	-0.141	0.192
-387.019	-24.534	-0.653	0.388
-386.004	-200.000	0.040	0.526
-384.990	-42.515	0.544	0.277
-383.975	-200.000	0.010	-0.264
-382.960	358.815	-0.165	0.330
-381.946	-200.000	0.036	0.201
-380.931	-122.615	0.074	-0.012
-379.917	-112.932	-0.331	0.065
-378.902	407.646	-0.275	-0.581
-377.888	-41.080	-0.283	0.146
-376.873	800.000	0.224	-0.770
-375.858	91.741	0.186	0.209
-374.844	800.000	-0.301	1.035
-373.829	48.120	0.744	-0.694
-372.815	800.000	-0.254	-1.062
-371.800	-200.000	0.005	-0.218
-370.785	-32.312	-0.904	-0.504
-369.771	-28.780	-0.386	0.222
-368.756	-200.000	0.140	-0.691
-367.742	-1.672	0.499	-0.351
-366.727	84.344	-0.259	-0.283
-365.712	-108.114	0.308	0.067
-364.698	-58.123	-0.277	-0.120
-363.683	363.163	-0.255	0.512
-362.669	-200.000	0.153	-0.924
-361.654	800.000	-0.052	0.212
-360.639	-64.320	0.506	0.206
-359.625	-24.855	-0.130	-0.077
-358.610	-58.058	-0.199	0.087
-357.596	-200.000	-0.013	0.487
-356.581	-36.399	0.121	-0.065
-355.566	-53.413	0.714	-0.326
-354.552	-138.502	0.562	-0.062
-353.537	209.563	0.164	0.256
-352.523	353.496	0.259	0.512
-351.508	245.631	-0.191	0.320
-350.493	-101.295	0.296	-0.072
-349.479	-19.009	-0.124	-0.077
-348.464	173.728	0.325	-0.468
-347.450	63.340	0.529	-0.529
-346.435	-200.000	-0.169	-0.814
-345.420	-109.359	0.486	0.103
-344.406	-50.996	0.139	0.065
-343.391	-166.837	0.209	0.009
-342.377	-10.116	-0.238	0.157
-341.362	800.000	-0.203	-0.558
-340.348	800.000	-0.085	-0.302
-339.333	-200.000	0.080	0.495
-338.318	-117.383	-0.128	-0.023
-337.304	800.000	0.147	0.451
-336.289	-36.684	-1.130	-0.605
-335.275	669.272	-0.283	0.730
-334.260	-200.000	-0.000	0.719
-333.245	454.804	-0.063	-0.139
-332.231	70.934	0.676	-0.698
-331.216	513.928	0.229	-0.532
-330.202	67.536	0.203	0.207
-329.187	-200.000	-0.180	0.858
-328.172	351.040	0.072	0.141
-327.158	-143.213	0.255	0.024
-326.143	80.416	0.263	0.282
-325.129	-146.299	0.470	0.041
-324.114	113.104	0.306	0.370
-323.099	-29.536	0.472	0.269
-322.085	293.679	0.480	0.873
-321.070	-33.434	-0.975	0.537
-320.056	-70.045	0.639	0.242
-319.041	-94.313	-0.785	0.214
-318.026	176.025	0.566	0.819
-317.012	443.869	0.053	-0.116
-315.997	-142.897	-0.777	0.075
-314.983	-60.646	0.632	-0.267
-313.968	-200.000	0.001	-0.389
-312.953	-80.361	0.221	-0.074
-311.939	-148.527	-0.410	-0.033
-310.924	-200.000	-0.096	-0.437
-309.910	647.602	0.125	0.317
-308.895	257.288	0.134	-0.230
-307.880	37.666	-0.490	0.433
-306.866	-33.033	0.375	-0.207
-305.851	126.082	-0.331	0.416
-304.837	13.704	-0.239	0.185
-303.822	108.772	0.454	0.540
-302.807	-120.533	1.030	-0.174
-301.793	17.591	0.136	-0.108
-300.778	800.000	-0.039	-0.124
-299.764	-151.818	-0.660	-0.048
-298.749	-198.408	0.804	0.005
-297.735	-30.646	0.594	0.335
-296.720	139.600	-0.019	0.024
-295.705	-13.279	-0.291	-0.188
-294.691	276.948	-0.496	0.878
-293.676	77.087	-0.327	-0.346
-292.662	20.242	0.297	0.239
-291.647	85.253	0.599	-0.655
-290.632	55.021	0.506	0.486
-289.618	-200.000	0.051	-0.452
-288.603	800.000	-0.326	1.298
-287.589	800.000	-0.184	0.567
-286.574	-98.132	0.575	0.147
-285.559	800.000	0.046	0.174
-284.545	-66.956	-0.345	-0.136
-283.530	-200.000	0.029	0.607
-282.516	-38.697	-0.555	-0.291
-281.501	134.226	-0.656	0.846
-280.486	-200.000	-0.141	0.768
-279.472	-164.872	0.387	-0.017
-278.457	-41.839	0.464	0.237
-277.443	-1.910	0.246	-0.172
-276.428	-92.541	-0.461	-0.129
-275.413	-200.000	0.087	-0.536
-274.399	-65.800	0.135	-0.054
-273.384	-83.740	0.869	-0.276
-272.370	-128.116	-0.624	-0.089
-271.355	28.355	-0.671	0.564
-270.340	-88.050	0.503	0.150
-269.326	800.000	-0.088	-0.313
-268.311	34.759	-0.524	0.456
-267.297	-88.389	-0.295	-0.088
-266.282	737.245	-0.077	0.207
-265.267	-99.296	-0.550	0.138
-264.253	-175.484	0.272	0.007
-263.238	621.866	-0.230	0.576
-262.224	-185.443	0.716	-0.011
-261.209	220.073	0.234	0.373
-260.195	-200.000	0.132	0.617
-259.180	138.645	0.197	0.257
-258.165	-19.013	0.128	-0.079
-257.151	222.846	-0.510	0.817
-256.136	-139.579	0.595	0.063
-255.122	-200.000	0.007	-0.035
-254.107	219.530	0.282	0.449
-253.092	326.657	-0.329	-0.627
-252.078	-26.971	-0.182	0.106
-251.063	-168.259	-0.177	-0.007
-250.049	-121.748	0.317	0.052
-249.034	-54.756	0.131	0.059
-248.019	266.728	-0.511	0.888
-247.005	47.143	0.224	-0.207
-245.990	-26.021	-0.858	-0.502
-244.976	-16.568	0.304	0.191
-243.961	234.077	0.211	-0.345
-242.946	-100.975	0.634	0.155
-241.932	56.608	0.885	-0.856
-240.917	171.894	-0.137	0.195
-239.903	315.446	0.274	0.514
-238.888	-85.988	0.230	-0.071
-237.873	10.618	-0.217	-0.164
-236.859	301.789	0.015	-0.027
-235.844	-121.056	0.413	-0.069
-234.830	397.561	0.184	0.381
-233.815	800.000	0.096	-0.335
-232.800	-151.145	-0.497	-0.037
-231.786	288.354	-0.228	0.409
-230.771	-31.459	0.687	0.384
-229.757	-175.385	0.421	-0.011
-228.742	243.310	-0.323	-0.538
-227.727	79.630	0.415	-0.442
-226.713	225.347	-0.235	-0.378
-225.698	175.026	-0.154	0.222
-224.684	-127.593	-0.381	0.055
-223.669	350.085	-0.156	-0.307
-222.655	-56.119	-0.522	0.231
-221.640	-21.757	-0.317	0.191
-220.625	-57.303	-0.503	0.220
-219.611	-12.291	0.151	0.098
-218.596	37.441	0.634	0.558
-217.582	800.000	-0.156	0.439
-216.567	19.323	-0.349	-0.278
-215.552	-78.406	-0.212	-0.072
-214.538	196.262	-0.261	0.395
-213.523	36.893	0.489	0.429
-212.509	418.001	-0.178	0.378
-211.494	-43.384	-0.589	0.295
-210.479	190.031	0.711	-1.058
-209.465	-112.724	0.181	-0.036
-208.450	24.669	0.270	-0.222
-207.436	153.264	0.213	-0.289
-206.421	173.252	-0.161	-0.230
-205.406	81.541	-0.491	-0.527
-204.392	-200.000	0.024	-0.335
-203.377	-49.048	0.122	-0.058
-202.363	-74.401	-0.300	0.107
-201.348	-200.000	0.008	0.108
-200.333	20.804	-0.274	-0.220
-199.319	214.799	0.350	-0.551
-198.304	24.538	0.658	-0.540
-197.290	572.127	0.289	-0.699
-196.275	-200.000	-0.085	0.387
-195.260	-161.440	0.359	-0.018
-194.246	87.872	0.610	0.670
-193.231	-53.824	-0.237	0.107
-192.217	-74.569	0.159	0.057
-191.202	47.614	0.532	0.492
-190.187	-88.100	0.620	-0.184
-189.173	453.571	0.429	-0.940
-188.158	-149.546	0.284	0.022
-187.144	800.000	-0.243	0.727
-186.129	-200.000	0.065	-0.339
-185.114	800.000	-0.198	-0.708
-184.100	-200.000	-0.017	0.618
-183.085	95.440	-0.196	-0.221
-182.071	214.075	-0.136	0.213
-181.056	-124.149	0.293	0.046
-180.042	-119.864	0.930	-0.159
-179.027	188.187	0.146	0.216
-178.012	159.892	-0.358	0.494
-176.998	-141.193	-0.968	-0.098
-175.983	-76.596	0.343	0.119
-174.969	800.000	-0.034	-0.112
-173.954	585.237	0.028	0.069
-172.939	-200.000	-0.127	0.680
-171.925	215.451	-0.244	0.384
-170.910	-46.761	0.115	-0.056
-169.896	-200.000	0.068	0.543
-168.881	281.389	0.313	0.554
-167.866	407.780	0.435	-0.912
-166.852	798.633	-0.224	0.611
-165.837	-47.737	-0.176	-0.084
-164.823	141.235	0.261	-0.342
-163.808	-110.538	0.967	-0.198
-162.793	289.119	-0.249	0.446
-161.779	479.379	0.157	-0.351
-160.764	-101.363	0.048	-0.012
-159.750	457.026	0.062	-0.135
-158.735	-29.886	0.425	-0.240
-157.720	31.415	0.995	0.846
-156.706	-11.863	-0.437	-0.284
-155.691	800.000	-0.271	-1.068
-154.677	-200.000	-0.055	0.462
-153.662	246.141	0.330	-0.551
-152.647	219.995	0.394	-0.624
-151.633	-149.863	-0.517	0.040
-150.618	-179.763	-0.564	0.012
-149.604	181.343	0.543	0.791
-148.589	-188.382	-1.058	0.013
-147.574	-200.000	0.016	0.278
-146.560	-91.833	0.964	-0.271
-145.545	-200.000	-0.021	-0.504
-144.531	291.812	-0.476	-0.858
-143.516	-200.000	0.117	-0.642
-142.502	-103.379	-1.417	0.331
-141.487	9.394	0.375	-0.280
-140.472	-60.070	0.549	0.232
-139.458	5.151	-0.318	-0.232
-138.443	-200.000	0.011	0.834
-137.429	193.637	-0.157	-0.236
-136.414	64.042	0.291	-0.290
-135.399	-156.866	-0.522	0.032
-134.385	116.177	-0.390	0.473
-133.370	248.364	0.296	0.495
-132.356	-200.000	0.015	0.851
-131.341	-200.000	-0.237	1.329
-130.326	-79.692	-0.630	-0.210
-129.312	-200.000	-0.004	0.023
-128.297	173.851	-0.409	0.585
-127.283	287.760	-0.201	0.360
-126.268	444.357	0.150	-0.325
-125.253	-87.179	0.621	0.187
-124.239	474.059	-0.245	-0.547
-123.224	-200.000	-0.025	-0.618
-122.210	800.000	0.235	-0.834
-121.195	800.000	-0.138	-0.411
