DTS Sentinel unit serial number:	SN413079Multiplexer serial number:	ORYXHardware model number:	OX4-SRSoftware version number:	ORYX F/W v4.00 Oryx Data Collector v3.7.2.0data status	okinstallation	princeton_trtdifferential loss correction	single-endedforward channel	channel 3reverse channel	N/Adate	2019/09/18time	17:40:35forward acquisition time	60.00reverse acquisition time	0.00gamma	496.2192k internal	0.2292k external	0.2292temperature offset calibration	0.9993default loss term (dB/km)	0.3790temperature slope calibration	1.0000multiplexer offset coefficient	1.0000multiplexer slope coefficient	1.0000fibre end	0.00T internal ref (°C)	40.28T ext. ref 1 (°C)	0.91T ext. ref 2 (°C)	35.10length (m)	temperature (°C)	Stokes	anti-Stokes-747.200	-99.262	-0.170	-0.044
-746.185	-200.000	-0.064	0.423
-745.171	-200.000	0.000	0.102
-744.156	-56.026	0.417	0.190
-743.142	-66.671	0.079	0.032
-742.127	233.739	-0.101	0.171
-741.112	-5.161	-0.169	0.119
-740.098	-118.975	0.252	0.045
-739.083	22.023	0.132	0.110
-738.069	98.155	-0.046	-0.055
-737.054	-62.512	0.051	0.021
-736.039	-200.000	0.052	0.275
-735.025	-133.173	0.373	0.048
-734.010	-48.670	-0.099	-0.049
-732.996	-95.579	0.088	-0.024
-731.981	-119.498	0.155	0.027
-730.966	155.176	-0.207	0.291
-729.952	235.536	-0.060	-0.101
-728.937	-200.000	-0.021	-0.103
-727.923	395.922	-0.046	-0.098
-726.908	-116.304	0.105	0.020
-725.894	800.000	-0.043	0.168
-724.879	784.305	-0.063	0.177
-723.864	-104.417	0.255	-0.060
-722.850	800.000	-0.088	-0.277
-721.835	361.735	0.027	0.055
-720.821	728.263	-0.035	-0.095
-719.806	-200.000	0.016	-0.260
-718.791	-200.000	0.069	0.364
-717.777	-184.350	-0.177	0.003
-716.762	-119.326	0.196	-0.035
-715.748	96.435	0.120	0.141
-714.733	-183.360	-0.200	-0.004
-713.718	132.214	-0.167	-0.220
-712.704	287.312	-0.188	0.348
-711.689	-4.915	0.171	0.120
-710.675	-104.839	-0.126	0.030
-709.660	-200.000	0.013	0.216
-708.645	508.228	-0.033	-0.079
-707.631	-93.840	0.189	0.053
-706.616	800.000	-0.092	-0.362
-705.602	74.675	0.181	-0.195
-704.587	-86.916	0.270	0.084
-703.572	-17.875	0.385	-0.247
-702.558	201.413	0.161	-0.253
-701.543	-70.186	0.239	-0.093
-700.529	-11.257	0.131	-0.088
-699.514	-71.133	0.401	0.154
-698.499	-127.028	0.188	-0.028
-697.485	84.729	0.034	-0.038
-696.470	109.015	0.061	-0.074
-695.456	-15.452	0.307	0.200
-694.441	395.367	0.119	-0.254
-693.426	-101.800	-0.323	-0.080
-692.412	-18.882	-0.403	0.256
-691.397	68.919	0.048	0.051
-690.383	278.179	-0.190	-0.346
-689.368	-90.869	0.477	-0.140
-688.354	-138.862	0.179	-0.020
-687.339	-116.156	-0.268	0.051
-686.324	61.203	0.245	0.248
-685.310	71.633	-0.191	-0.203
-684.295	-200.000	-0.053	-0.310
-683.281	488.445	-0.020	0.046
-682.266	94.950	-0.263	-0.306
-681.251	-186.051	0.157	-0.002
-680.237	-4.842	0.145	0.102
-679.222	512.586	-0.066	-0.157
-678.208	-200.000	0.025	-0.186
-677.193	-176.115	0.193	-0.005
-676.178	-200.000	-0.022	-0.273
-675.164	345.321	0.033	0.067
-674.149	800.000	-0.080	0.319
-673.135	-105.775	-0.078	0.018
-672.120	64.761	-0.088	0.090
-671.105	-106.144	0.276	-0.063
-670.091	-40.402	-0.295	-0.156
-669.076	-160.745	-0.115	-0.006
-668.062	258.780	-0.278	-0.490
-667.047	800.000	0.069	-0.310
-666.032	-105.938	0.222	0.051
-665.018	392.865	-0.105	0.223
-664.003	800.000	-0.024	0.095
-662.989	-200.000	0.043	0.346
-661.974	85.693	-0.144	-0.161
-660.959	800.000	0.056	0.196
-659.945	-200.000	-0.041	-0.220
-658.930	36.512	-0.258	-0.232
-657.916	114.180	-0.058	0.071
-656.901	-68.514	-0.240	0.095
-655.886	800.000	0.014	-0.046
-654.872	15.543	-0.321	-0.257
-653.857	215.298	0.082	-0.132
-652.843	11.114	-0.121	0.094
-651.828	-18.106	0.064	-0.041
-650.814	219.592	-0.092	-0.150
-649.799	-75.593	0.064	0.023
-648.784	-200.000	0.022	-0.160
-647.770	800.000	0.182	-0.532
-646.755	-200.000	0.028	0.138
-645.741	80.730	0.191	-0.210
-644.726	-31.538	0.194	0.111
-643.711	-34.489	0.326	0.182
-642.697	-93.373	0.046	0.013
-641.682	708.206	-0.222	-0.598
-640.668	-200.000	-0.004	-0.347
-639.653	-80.616	-0.094	0.032
-638.638	-46.344	-0.149	0.075
-637.624	-12.462	0.301	-0.201
-636.609	-200.000	-0.011	0.190
-635.595	-192.193	-0.062	-0.001
-634.580	-200.000	-0.005	-0.098
-633.565	-46.634	0.151	0.075
-632.551	30.910	-0.131	0.115
-631.536	305.392	0.058	-0.110
-630.522	-86.597	-0.265	-0.083
-629.507	800.000	-0.114	-0.326
-628.492	-200.000	-0.050	-0.350
-627.478	-107.358	-0.291	0.065
-626.463	-138.677	-0.281	-0.031
-625.449	-114.841	0.472	-0.092
-624.434	-200.000	-0.052	-0.394
-623.419	37.899	0.194	-0.176
-622.405	-87.397	0.176	0.054
-621.390	-90.963	0.104	0.031
-620.376	-200.000	0.001	-0.159
-619.361	-31.531	0.083	-0.048
-618.346	505.255	0.077	0.181
-617.332	79.498	-0.127	0.139
-616.317	-20.007	-0.058	0.037
-615.303	104.519	-0.160	-0.192
-614.288	-151.024	-0.081	0.006
-613.273	23.951	-0.224	-0.188
-612.259	-134.796	-0.410	-0.051
-611.244	800.000	-0.104	-0.410
-610.230	-108.843	0.141	0.031
-609.215	-131.065	0.144	-0.020
-608.201	453.457	0.136	0.306
-607.186	-43.325	0.104	0.054
-606.171	33.796	-0.296	-0.263
-605.157	-118.514	0.211	-0.038
-604.142	420.723	0.030	0.064
-603.128	-59.539	0.132	0.058
-602.113	722.219	-0.111	0.302
-601.098	187.353	-0.067	-0.102
-600.084	-200.000	0.018	0.234
-599.069	155.974	0.148	-0.208
-598.055	-200.000	-0.000	-0.234
-597.040	412.399	-0.141	-0.305
-596.025	-110.154	0.185	0.039
-595.011	6.124	0.249	-0.188
-593.996	63.508	-0.264	-0.270
-592.982	100.172	0.070	-0.083
-591.967	-23.223	-0.071	-0.044
-590.952	13.109	0.224	0.177
-589.938	510.571	-0.080	-0.188
-588.923	119.441	0.121	0.153
-587.909	-26.061	-0.109	0.065
-586.894	334.143	-0.060	0.117
-585.879	-179.423	-0.218	-0.005
-584.865	278.407	-0.062	0.113
-583.850	221.094	-0.086	0.141
-582.836	-63.053	-0.102	0.043
-581.821	-77.060	0.016	-0.006
-580.806	-134.514	0.289	0.036
-579.792	-140.231	-0.224	0.024
-578.777	-5.865	-0.181	-0.126
-577.763	-200.000	-0.025	-0.396
-576.748	-200.000	0.070	0.375
-575.733	119.738	-0.065	0.082
-574.719	-66.001	0.214	-0.087
-573.704	-200.000	0.012	0.173
-572.690	-1.093	0.121	0.087
-571.675	223.125	0.065	-0.106
-570.661	800.000	0.099	0.304
-569.646	-5.086	0.098	0.068
-568.631	-14.843	0.081	-0.053
-567.617	210.432	0.057	-0.091
-566.602	-159.781	0.199	0.011
-565.588	100.278	0.221	-0.260
-564.573	-200.000	-0.045	-0.284
-563.558	3.193	0.295	-0.218
-562.544	-200.000	0.012	-0.176
-561.529	800.000	0.010	-0.037
-560.515	-12.150	-0.055	0.037
-559.500	-118.969	-0.014	-0.003
-558.485	-57.905	-0.130	-0.058
-557.471	164.781	0.193	-0.277
-556.456	-162.700	0.354	-0.018
-555.442	-89.683	0.029	0.009
-554.427	-41.382	-0.133	0.069
-553.412	-22.655	0.051	0.032
-552.398	49.149	-0.148	-0.141
-551.383	-113.103	-0.041	-0.008
-550.369	25.370	-0.278	-0.234
-549.354	39.646	-0.123	0.112
-548.339	-166.809	0.099	0.004
-547.325	-200.000	0.009	0.175
-546.310	37.252	-0.132	0.119
-545.296	145.940	-0.210	-0.287
-544.281	126.613	-0.074	0.096
-543.266	800.000	0.017	-0.076
-542.252	-124.371	-0.339	0.054
-541.237	-84.941	0.080	0.026
-540.223	22.312	-0.120	0.100
-539.208	99.641	0.044	0.052
-538.193	-9.986	0.120	-0.081
-537.179	-78.396	0.081	0.028
-536.164	-200.000	-0.038	-0.241
-535.150	-57.884	0.101	0.045
-534.135	282.456	-0.195	-0.356
-533.121	32.490	0.180	-0.158
-532.106	22.557	-0.068	-0.057
-531.091	800.000	0.031	0.105
-530.077	535.902	-0.009	0.021
-529.062	363.869	0.091	-0.185
-528.048	-145.752	0.282	-0.026
-527.033	8.869	0.330	0.253
-526.018	167.284	-0.138	0.198
-525.004	55.501	0.085	-0.083
-523.989	71.868	0.158	0.167
-522.975	-200.000	0.036	-0.215
-521.960	43.748	-0.332	-0.308
-520.945	104.765	-0.388	-0.464
-519.931	-200.000	-0.019	-0.263
-518.916	104.103	-0.043	-0.051
-517.902	800.000	-0.045	-0.197
-516.887	355.462	0.158	0.319
-515.872	-155.855	-0.232	-0.015
-514.858	-74.279	0.087	-0.032
-513.843	10.499	-0.312	0.241
-512.829	26.101	-0.163	0.138
-511.814	-200.000	0.001	-0.262
-510.799	-200.000	-0.022	-0.197
-509.785	132.513	0.167	0.218
-508.770	-80.782	-0.423	-0.143
-507.756	281.238	0.191	0.348
-506.741	-200.000	-0.017	0.091
-505.726	-25.076	-0.099	0.059
-504.712	129.004	-0.183	-0.237
-503.697	394.955	-0.063	0.133
-502.683	-54.788	0.239	0.110
-501.668	-200.000	-0.059	0.297
-500.653	31.576	0.257	-0.224
-499.639	-25.514	0.178	-0.106
-498.624	800.000	-0.041	0.178
-497.610	101.432	-0.200	0.237
-496.595	13.245	0.088	-0.069
-495.581	108.626	-0.078	0.094
-494.566	800.000	-0.036	-0.151
-493.551	-127.169	0.442	-0.066
-492.537	-102.269	0.462	0.112
-491.522	800.000	-0.028	0.094
-490.508	270.971	0.084	-0.149
-489.493	-200.000	0.027	0.240
-488.478	-160.418	0.226	-0.012
-487.464	225.605	0.206	-0.338
-486.449	-200.000	-0.027	0.286
-485.435	-200.000	-0.045	0.381
-484.420	361.797	0.024	0.049
-483.405	475.318	0.103	0.235
-482.391	-111.775	0.057	-0.012
-481.376	800.000	0.032	-0.132
-480.362	-165.125	0.152	-0.007
-479.347	781.680	0.032	0.090
-478.332	393.246	-0.073	0.153
-477.318	-67.718	-0.065	0.026
-476.303	475.605	-0.042	-0.096
-475.289	800.000	-0.077	0.238
-474.274	-144.564	0.203	-0.019
-473.259	135.595	-0.191	-0.251
-472.245	19.110	0.127	0.103
-471.230	800.000	-0.050	-0.216
-470.216	69.861	-0.160	-0.167
-469.201	-21.525	-0.123	0.076
-468.186	-200.000	-0.018	0.411
-467.172	-48.910	0.223	0.108
-466.157	0.342	0.134	0.097
-465.143	179.970	-0.059	0.088
-464.128	-54.277	-0.318	-0.146
-463.113	5.729	0.227	-0.170
-462.099	-148.248	0.299	0.025
-461.084	-105.748	-0.242	0.055
-460.070	-132.070	0.219	0.029
-459.055	-200.000	0.018	-0.259
-458.040	133.541	0.066	-0.086
-457.026	-200.000	0.012	-0.054
-456.011	800.000	-0.022	-0.083
-454.997	-47.615	-0.345	0.169
-453.982	237.785	-0.069	-0.116
-452.968	-95.307	0.328	-0.089
-451.953	-200.000	0.017	0.092
-450.938	-74.579	-0.258	-0.094
-449.924	655.127	-0.121	0.314
-448.909	15.462	-0.033	0.026
-447.895	-200.000	-0.038	0.218
-446.880	145.680	-0.076	-0.103
-445.865	247.304	0.113	0.194
-444.851	-200.000	-0.036	-0.191
-443.836	59.079	-0.199	0.198
-442.822	15.697	0.154	0.123
-441.807	-200.000	-0.036	-0.183
-440.792	470.924	-0.004	-0.010
-439.778	-52.421	0.137	0.064
-438.763	102.021	-0.220	-0.259
-437.749	82.826	-0.107	0.118
-436.734	-72.014	0.342	0.129
-435.719	86.721	0.098	-0.110
-434.705	-200.000	-0.002	-0.190
-433.690	-194.439	0.257	0.002
-432.676	-59.931	-0.249	0.108
-431.661	-94.409	0.142	0.039
-430.646	800.000	0.067	0.242
-429.632	800.000	-0.143	0.600
-428.617	800.000	-0.038	-0.136
-427.603	-200.000	0.020	0.325
-426.588	-0.857	0.285	-0.204
-425.573	79.453	0.072	0.078
-424.559	43.695	0.087	-0.080
-423.544	-27.989	-0.057	-0.034
-422.530	-52.231	-0.099	-0.047
-421.515	800.000	0.049	0.172
-420.500	429.318	0.113	0.247
-419.486	30.506	0.163	0.140
-418.471	-71.294	-0.324	-0.123
-417.457	-86.445	-0.292	-0.091
-416.442	-145.073	-0.306	0.028
-415.428	136.342	0.113	-0.149
-414.413	15.842	0.416	0.331
-413.398	56.349	-0.108	0.106
-412.384	800.000	-0.180	0.510
-411.369	-133.573	-0.199	0.025
-410.355	800.000	-0.090	0.268
-409.340	-50.036	-0.166	-0.079
-408.325	49.430	-0.079	0.075
-407.311	-200.000	-0.050	0.395
-406.296	-25.805	0.271	-0.161
-405.282	-19.598	-0.179	-0.112
-404.267	-65.886	0.121	0.049
-403.252	800.000	-0.064	-0.275
-402.238	-48.361	-0.186	0.091
-401.223	-200.000	-0.089	0.426
-400.209	-137.568	-0.357	0.041
-399.194	68.940	-0.245	0.254
-398.179	-104.778	-0.072	0.017
-397.165	-131.990	-0.172	0.023
-396.150	136.096	-0.135	0.178
-395.136	606.480	-0.072	-0.181
-394.121	61.433	0.367	0.369
-393.106	242.150	-0.121	0.205
-392.092	-94.447	0.166	-0.046
-391.077	27.568	0.125	-0.106
-390.063	-73.869	-0.408	0.149
-389.048	-200.000	0.009	-0.292
-388.033	-200.000	0.000	-0.050
-387.019	473.709	-0.125	-0.285
-386.004	-114.361	-0.034	0.007
-384.990	-101.959	-0.125	-0.031
-383.975	186.976	0.046	-0.069
-382.960	150.939	0.155	0.212
-381.946	61.077	-0.130	0.130
-380.931	-132.258	0.157	-0.020
-379.917	-200.000	0.022	-0.149
-378.902	51.451	0.234	-0.224
-377.888	-200.000	-0.054	-0.246
-376.873	68.282	-0.220	-0.227
-375.858	-66.578	-0.164	0.066
-374.844	-74.212	-0.135	0.049
-373.829	449.337	0.035	-0.078
-372.815	-200.000	0.014	0.398
-371.800	89.346	-0.172	0.194
-370.785	25.132	-0.071	0.060
-369.771	-151.548	0.346	-0.026
-368.756	-200.000	-0.003	0.228
-367.742	299.576	-0.041	-0.076
-366.727	416.414	0.131	0.282
-365.712	90.624	-0.232	0.262
-364.698	-90.178	-0.179	-0.052
-363.683	-48.987	-0.181	0.087
-362.669	503.654	-0.089	-0.208
-361.654	65.075	-0.280	0.285
-360.639	235.478	-0.028	-0.046
-359.625	-106.559	0.197	-0.044
-358.610	800.000	0.042	0.118
-357.596	160.240	0.181	0.255
-356.581	163.522	0.196	0.278
-355.566	800.000	0.045	0.125
-354.552	335.721	0.043	-0.084
-353.537	-7.205	0.231	-0.158
-352.523	190.088	-0.087	-0.132
-351.508	44.242	0.263	0.243
-350.493	114.552	0.103	0.126
-349.479	185.412	-0.129	0.192
-348.464	-53.205	0.163	0.075
-347.450	-184.664	-0.312	-0.005
-346.435	-6.744	0.148	-0.102
-345.420	-101.783	0.271	-0.066
-344.406	-58.776	0.085	-0.037
-343.391	-200.000	-0.032	0.180
-342.377	158.323	0.057	-0.080
-341.362	-157.245	0.039	0.002
-340.348	800.000	0.028	0.125
-339.333	-173.630	-0.413	0.012
-338.318	-10.099	0.237	-0.159
-337.304	87.901	0.156	0.174
-336.289	130.719	-0.244	-0.315
-335.275	-43.879	-0.302	-0.153
-334.260	-200.000	0.013	0.155
-333.245	800.000	-0.099	-0.346
-332.231	-147.016	-0.244	0.021
-331.216	-153.010	0.157	0.011
-330.202	-200.000	0.002	0.104
-329.187	-200.000	-0.038	0.283
-328.172	800.000	-0.012	0.051
-327.158	-155.528	0.142	-0.009
-326.143	9.699	-0.293	-0.224
-325.129	-200.000	0.013	0.182
-324.114	2.333	-0.301	0.219
-323.099	-200.000	0.017	-0.332
-322.085	116.236	0.162	0.200
-321.070	800.000	0.115	0.380
-320.056	118.267	-0.185	0.229
-319.041	-200.000	0.018	-0.201
-318.026	-59.818	-0.156	0.067
-317.012	-64.789	0.217	-0.088
-315.997	22.272	-0.126	0.104
-314.983	-100.064	-0.236	0.059
-313.968	21.186	0.230	0.188
-312.953	238.589	-0.059	0.099
-311.939	800.000	-0.047	0.134
-310.924	-200.000	0.050	-0.286
-309.910	-123.823	0.239	0.038
-308.895	-129.397	0.084	0.012
-307.880	-200.000	-0.048	0.219
-306.866	18.335	-0.064	-0.051
-305.851	117.386	-0.164	0.202
-304.837	592.656	0.116	0.287
-303.822	-92.923	-0.295	0.083
-302.807	-82.903	0.349	-0.113
-301.793	-5.131	0.112	-0.078
-300.778	800.000	-0.123	0.414
-299.764	88.373	0.038	0.043
-298.749	800.000	-0.024	0.087
-297.735	-154.805	-0.185	-0.012
-296.720	271.774	-0.116	-0.205
-295.705	410.998	0.032	0.069
-294.691	69.123	0.023	-0.024
-293.676	-200.000	0.030	-0.299
-292.662	-72.012	-0.275	-0.103
-291.647	800.000	0.036	0.125
-290.632	338.979	-0.095	-0.186
-289.618	322.938	-0.168	-0.322
-288.603	800.000	-0.011	-0.042
-287.589	90.937	0.159	-0.180
-286.574	-90.372	0.095	-0.028
-285.559	-200.000	0.006	-0.125
-284.545	-54.942	-0.272	-0.123
-283.530	143.433	-0.172	-0.230
-282.516	-200.000	-0.013	-0.536
-281.501	-59.690	-0.186	-0.080
-280.486	55.742	-0.064	-0.062
-279.472	-71.478	-0.087	0.033
-278.457	-200.000	-0.038	0.201
-277.443	-155.478	0.062	-0.004
-276.428	297.035	0.090	0.167
-275.413	59.654	-0.175	0.174
-274.399	800.000	-0.055	0.182
-273.384	96.918	0.262	0.302
-272.370	196.558	0.152	-0.233
-271.355	84.621	0.237	-0.261
-270.340	406.738	-0.054	-0.115
-269.326	-107.034	0.299	-0.066
-268.311	-79.393	-0.193	-0.066
-267.297	800.000	0.023	0.074
-266.282	800.000	0.073	0.258
-265.267	-91.724	0.151	0.043
-264.253	-61.584	-0.254	0.107
-263.238	-38.716	0.093	-0.050
-262.224	134.832	-0.099	0.129
-261.209	24.265	0.043	-0.035
-260.195	-64.546	0.195	-0.080
-259.180	52.587	0.135	-0.129
-258.165	800.000	0.073	-0.255
-257.151	431.071	0.076	-0.166
-256.136	190.131	0.091	-0.138
-255.122	-117.221	-0.241	0.044
-254.107	-76.611	-0.215	0.076
-253.092	-139.242	-0.160	-0.017
-252.078	-200.000	-0.033	0.188
-251.063	800.000	-0.036	0.139
-250.049	108.245	-0.127	-0.153
-249.034	-107.137	-0.163	0.036
-248.019	-115.855	-0.157	0.030
-247.005	64.028	0.091	-0.092
-245.990	-40.207	0.236	0.123
-244.976	800.000	0.088	0.283
-243.961	-49.114	-0.076	0.036
-242.946	125.345	0.319	-0.404
-241.932	263.325	0.133	0.232
-240.917	84.313	0.209	-0.229
-239.903	-170.966	0.234	0.008
-238.888	75.348	0.239	-0.253
-237.873	350.484	0.084	0.166
-236.859	287.390	0.156	0.284
-235.844	800.000	-0.046	-0.150
-234.830	-78.217	-0.166	-0.057
-233.815	720.133	0.212	-0.567
-232.800	-200.000	0.008	-0.128
-231.786	139.633	-0.020	0.027
-230.771	70.267	0.188	0.194
-229.757	800.000	-0.023	0.076
-228.742	-154.325	-0.125	0.008
-227.727	-123.130	0.117	-0.019
-226.713	-106.477	-0.250	-0.056
-225.698	-18.771	0.175	0.109
-224.684	-14.948	-0.140	-0.090
-223.669	352.064	0.124	-0.247
-222.655	-200.000	-0.010	-0.124
-221.640	51.761	0.363	0.346
-220.625	95.017	0.092	-0.105
-219.611	-200.000	0.020	0.276
-218.596	174.101	-0.128	0.185
-217.582	-200.000	-0.031	-0.317
-216.567	325.028	-0.143	-0.274
-215.552	188.811	-0.150	-0.225
-214.538	-74.472	0.146	0.053
-213.523	217.588	-0.029	0.046
-212.509	151.788	0.237	0.324
-211.494	61.378	-0.138	-0.137
-210.479	757.088	0.112	-0.303
-209.465	-200.000	-0.050	0.284
-208.450	-155.403	0.027	-0.002
-207.436	290.319	-0.059	0.108
-206.421	-200.000	0.071	-0.431
-205.406	800.000	0.068	-0.207
-204.392	17.863	0.065	-0.052
-203.377	41.324	0.006	0.006
-202.363	2.617	0.494	0.359
-201.348	-64.183	0.127	0.052
-200.333	800.000	-0.101	-0.281
-199.319	-90.479	-0.382	0.111
-198.304	-103.953	-0.066	0.015
-197.290	-200.000	-0.000	-0.070
-196.275	-37.188	-0.202	0.108
-195.260	800.000	-0.058	0.243
-194.246	4.836	-0.285	0.210
-193.231	13.336	-0.041	0.032
-192.217	125.679	-0.256	-0.323
-191.202	-80.278	0.351	0.117
-190.187	-35.569	-0.180	-0.098
-189.173	640.936	-0.081	-0.207
-188.158	800.000	0.093	0.261
-187.144	-7.880	0.223	0.151
-186.129	38.464	0.140	0.125
-185.114	-20.550	-0.322	0.198
-184.100	293.082	-0.100	-0.182
-183.085	-69.977	0.200	0.076
-182.071	616.467	-0.133	-0.335
-181.056	-39.829	-0.279	-0.146
-180.042	-135.608	0.394	-0.047
-179.027	223.088	-0.164	-0.265
-178.012	52.619	0.163	-0.156
-176.998	730.669	0.037	0.100
-175.983	-128.078	0.098	-0.014
-174.969	-108.832	-0.091	0.020
-173.954	800.000	0.022	0.095
-172.939	-137.093	-0.095	-0.011
-171.925	40.410	0.283	0.255
-170.910	800.000	0.035	0.125
-169.896	472.071	-0.178	-0.400
-168.881	-129.861	-0.244	-0.034
-167.866	615.159	0.213	0.534
-166.852	-200.000	-0.006	-0.042
-165.837	-35.505	-0.260	0.141
-164.823	-200.000	-0.069	0.367
-163.808	-200.000	0.024	0.279
-162.793	-40.580	-0.107	0.056
-161.779	-45.261	-0.314	-0.156
-160.764	-112.955	0.312	0.062
-159.750	-3.729	0.248	-0.172
-158.735	-200.000	0.034	-0.233
-157.720	-88.392	0.015	0.005
-156.706	36.198	0.181	-0.160
-155.691	86.055	-0.095	-0.105
-154.677	800.000	0.091	-0.327
-153.662	-200.000	-0.021	0.178
-152.647	-200.000	0.013	0.324
-151.633	175.591	-0.012	-0.018
-150.618	-113.920	0.202	0.039
-149.604	566.954	-0.136	0.329
-148.589	-14.162	-0.104	0.067
-147.574	800.000	-0.057	-0.170
-146.560	800.000	-0.054	-0.197
-145.545	800.000	0.050	-0.160
-144.531	11.278	-0.106	0.081
-143.516	-200.000	0.008	0.309
-142.502	800.000	-0.111	0.401
-141.487	-200.000	0.110	0.511
-140.472	262.973	0.057	0.098
-139.458	140.661	-0.043	0.057
-138.443	454.577	0.109	0.242
-137.429	592.472	0.095	0.234
-136.414	-59.600	-0.145	-0.062
-135.399	82.428	0.278	0.302
-134.385	-18.836	0.281	0.175
-133.370	38.809	0.073	0.065
-132.356	1.874	0.273	0.197
-131.341	22.281	0.124	0.101
-130.326	-75.937	-0.159	0.056
-129.312	59.144	-0.264	-0.259
-128.297	427.648	-0.057	-0.124
-127.283	-60.489	-0.136	-0.058
-126.268	-16.372	-0.250	0.159
-125.253	13.353	-0.037	-0.029
-124.239	-35.557	-0.172	-0.093
-123.224	62.331	-0.181	-0.180
-122.210	722.495	0.065	-0.173
-121.195	93.357	-0.240	0.271
-120.180	-174.177	-0.407	0.012
