DTS Sentinel unit serial number:	SN413079Multiplexer serial number:	ORYXHardware model number:	OX4-SRSoftware version number:	ORYX F/W v4.00 Oryx Data Collector v3.7.2.0data status	okinstallation	princeton_trtdifferential loss correction	single-endedforward channel	channel 3reverse channel	N/Adate	2019/09/11time	08:34:11forward acquisition time	60.00reverse acquisition time	0.00gamma	496.2192k internal	0.2313k external	0.2313temperature offset calibration	0.9939default loss term (dB/km)	0.3790temperature slope calibration	1.0000multiplexer offset coefficient	1.0000multiplexer slope coefficient	1.0000fibre end	0.00T internal ref (°C)	33.27T ext. ref 1 (°C)	0.09T ext. ref 2 (°C)	30.59length (m)	temperature (°C)	Stokes	anti-Stokes-747.200	-74.073	0.098	0.036
-746.185	800.000	-0.078	0.273
-745.171	229.429	-0.056	0.092
-744.156	-185.464	0.279	-0.004
-743.142	-129.793	-0.379	0.053
-742.127	380.186	-0.086	0.180
-741.112	-62.021	-0.347	0.147
-740.098	-33.442	0.208	0.116
-739.083	-56.392	0.343	0.154
-738.069	-133.770	-0.227	0.029
-737.054	-16.748	0.383	0.246
-736.039	-109.257	-0.478	-0.103
-735.025	305.787	-0.083	0.157
-734.010	-163.535	-0.349	0.017
-732.996	-200.000	-0.005	-0.127
-731.981	241.984	-0.174	0.295
-730.966	-200.000	-0.021	-0.174
-729.952	-18.192	0.196	0.124
-728.937	77.851	-0.199	0.215
-727.923	-115.634	-0.193	0.037
-726.908	800.000	-0.065	-0.198
-725.894	-200.000	-0.032	0.346
-724.879	-76.356	-0.054	0.019
-723.864	-200.000	-0.007	-0.269
-722.850	-49.038	0.153	0.074
-721.835	165.536	0.074	-0.106
-720.821	-200.000	-0.040	0.193
-719.806	-200.000	-0.004	-0.049
-718.791	15.642	-0.054	-0.043
-717.777	217.440	0.041	-0.066
-716.762	398.754	0.145	-0.308
-715.748	-96.360	-0.176	-0.047
-714.733	199.415	-0.110	0.172
-713.718	-52.722	0.036	-0.017
-712.704	-85.069	0.282	-0.089
-711.689	149.733	-0.131	0.179
-710.675	-83.913	0.134	-0.043
-709.660	66.931	-0.251	-0.258
-708.645	99.910	0.158	0.185
-707.631	-200.000	0.013	-0.068
-706.616	-70.662	-0.108	-0.041
-705.602	-115.038	-0.153	0.030
-704.587	-79.072	-0.168	0.058
-703.572	184.026	-0.050	0.074
-702.558	-155.692	0.032	0.002
-701.543	800.000	0.083	-0.265
-700.529	-14.300	0.154	0.100
-699.514	-25.432	0.319	-0.191
-698.499	800.000	0.099	-0.309
-697.485	331.234	-0.066	-0.130
-696.470	237.711	0.083	0.140
-695.456	366.666	0.041	0.084
-694.441	-172.270	-0.284	0.009
-693.426	800.000	-0.063	-0.245
-692.412	-200.000	0.028	0.184
-691.397	800.000	-0.059	0.230
-690.383	29.144	-0.159	0.137
-689.368	383.365	-0.055	-0.114
-688.354	297.420	-0.084	0.157
-687.339	-200.000	0.043	0.380
-686.324	43.342	0.231	0.214
-685.310	-181.189	-0.259	-0.005
-684.295	-200.000	-0.020	0.203
-683.281	800.000	0.034	-0.134
-682.266	-200.000	-0.048	-0.293
-681.251	-26.759	-0.096	-0.057
-680.237	-41.157	0.105	-0.055
-679.222	-105.332	-0.133	0.031
-678.208	-135.746	0.173	0.021
-677.193	-200.000	0.036	0.438
-676.178	-189.175	0.173	-0.002
-675.164	-62.193	0.189	0.080
-674.149	-96.922	0.057	-0.015
-673.135	-145.082	-0.153	-0.014
-672.120	-87.572	0.157	0.048
-671.105	18.060	-0.289	-0.233
-670.091	-103.533	-0.048	-0.011
-669.076	-126.137	-0.047	0.007
-668.062	-60.930	0.280	0.120
-667.047	282.625	0.112	0.203
-666.032	5.323	-0.081	-0.061
-665.018	350.786	0.089	-0.177
-664.003	498.887	-0.134	-0.311
-662.989	-46.892	0.043	0.021
-661.974	-200.000	0.039	0.182
-660.959	800.000	0.104	-0.392
-659.945	207.118	-0.228	0.360
-658.930	-130.285	-0.215	0.030
-657.916	-200.000	0.000	0.150
-656.901	34.146	0.072	-0.064
-655.886	800.000	-0.072	-0.212
-654.872	800.000	-0.043	-0.186
-653.857	800.000	-0.002	-0.010
-652.843	-93.602	0.336	0.094
-651.828	-200.000	0.044	-0.283
-650.814	196.099	-0.187	-0.288
-649.799	-108.492	0.117	0.026
-648.784	619.067	-0.192	-0.487
-647.770	73.875	0.135	0.143
-646.755	-143.006	0.099	-0.010
-645.741	-18.941	0.035	-0.022
-644.726	-95.466	0.159	0.043
-643.711	-200.000	-0.020	-0.196
-642.697	-76.004	0.054	-0.019
-641.682	800.000	-0.057	0.170
-640.668	245.072	0.125	-0.212
-639.653	-74.202	0.466	0.170
-638.638	98.728	0.110	-0.128
-637.624	-82.922	0.395	-0.129
-636.609	-35.843	-0.093	-0.051
-635.595	12.879	0.053	0.041
-634.580	-140.088	0.288	-0.031
-633.565	463.906	-0.074	0.168
-632.551	-200.000	0.001	-0.130
-631.536	-1.755	-0.159	-0.113
-630.522	-200.000	0.020	-0.175
-629.507	-200.000	0.018	0.087
-628.492	-119.472	-0.321	0.056
-627.478	283.471	0.078	-0.142
-626.463	-137.358	0.273	0.031
-625.449	-140.656	0.203	-0.021
-624.434	197.665	0.120	0.185
-623.419	800.000	0.060	-0.242
-622.405	800.000	0.089	-0.283
-621.390	-200.000	0.027	-0.127
-620.376	21.433	-0.158	-0.129
-619.361	15.430	-0.163	-0.129
-618.346	-125.548	0.314	0.048
-617.332	217.993	-0.156	-0.251
-616.317	742.922	0.075	-0.204
-615.303	221.432	0.044	0.072
-614.288	800.000	0.005	-0.015
-613.273	-93.186	0.140	-0.039
-612.259	-89.379	-0.055	0.016
-611.244	108.578	-0.176	-0.212
-610.230	-38.980	-0.324	0.172
-609.215	-46.193	0.441	0.219
-608.201	109.579	0.155	-0.187
-607.186	-200.000	0.012	0.257
-606.171	-200.000	-0.064	-0.378
-605.157	25.330	-0.057	0.048
-604.142	-15.161	0.202	0.130
-603.128	216.514	-0.148	0.238
-602.113	-200.000	0.043	-0.203
-601.098	-200.000	-0.000	-0.158
-600.084	800.000	0.101	-0.306
-599.069	-163.336	-0.222	0.011
-598.055	-200.000	0.019	0.107
-597.040	-78.732	0.160	0.055
-596.025	800.000	0.065	0.209
-595.011	-200.000	-0.076	0.404
-593.996	-39.198	-0.255	-0.135
-592.982	78.621	-0.181	-0.195
-591.967	-102.145	0.209	-0.051
-590.952	97.718	0.185	-0.215
-589.938	459.220	-0.080	0.179
-588.923	-113.469	-0.316	-0.062
-587.909	-104.935	-0.324	-0.075
-586.894	-145.664	-0.064	0.006
-585.879	-100.409	0.084	0.021
-584.865	800.000	-0.070	-0.244
-583.850	-115.199	-0.159	-0.030
-582.836	68.030	-0.151	-0.156
-581.821	-81.753	0.361	0.119
-580.806	-191.598	-0.442	0.004
-579.792	-109.977	0.144	0.030
-578.777	670.572	0.046	0.120
-577.763	-181.728	-0.322	-0.006
-576.748	5.416	0.257	-0.191
-575.733	-10.282	-0.358	0.239
-574.719	-200.000	0.012	-0.116
-573.704	134.313	0.103	-0.135
-572.690	-200.000	-0.009	0.075
-571.675	216.668	-0.193	-0.309
-570.661	-200.000	0.025	-0.119
-569.646	-29.417	-0.160	-0.092
-568.631	-13.530	-0.038	0.025
-567.617	-200.000	0.010	0.119
-566.602	-31.093	0.174	0.099
-565.588	-200.000	0.083	-0.403
-564.573	-200.000	-0.010	0.137
-563.558	5.298	-0.240	-0.178
-562.544	-200.000	-0.012	-0.150
-561.529	-200.000	-0.004	-0.097
-560.515	-119.972	0.239	0.041
-559.500	-7.578	0.081	0.055
-558.485	-19.020	-0.317	-0.198
-557.471	49.357	-0.131	-0.124
-556.456	245.382	-0.293	-0.497
-555.442	20.449	0.181	-0.147
-554.427	192.011	-0.022	-0.034
-553.412	293.699	-0.158	0.291
-552.398	-74.061	0.339	-0.124
-551.383	-39.233	0.068	-0.036
-550.369	-26.479	-0.203	0.120
-549.354	-24.756	0.064	0.038
-548.339	144.392	0.173	-0.233
-547.325	371.416	-0.061	-0.125
-546.310	800.000	0.017	0.058
-545.296	-48.339	0.116	0.056
-544.281	347.906	0.119	0.237
-543.266	-175.174	-0.272	-0.008
-542.252	41.112	0.177	0.161
-541.237	29.853	0.248	-0.213
-540.223	-103.991	-0.136	0.032
-539.208	800.000	-0.034	0.112
-538.193	-77.467	-0.181	0.063
-537.179	-57.108	0.077	-0.034
-536.164	146.705	0.121	-0.163
-535.150	800.000	-0.057	0.164
-534.135	147.395	-0.075	0.101
-533.121	-35.597	0.242	-0.132
-532.106	497.644	0.119	-0.275
-531.091	800.000	-0.029	0.103
-530.077	800.000	-0.082	0.260
-529.062	549.489	0.080	-0.192
-528.048	-66.095	-0.263	-0.105
-527.033	-109.882	0.167	0.035
-526.018	800.000	-0.077	-0.330
-525.004	-69.259	0.297	0.115
-523.989	-129.098	-0.279	0.039
-522.975	-200.000	0.046	-0.213
-521.960	228.633	-0.088	-0.145
-520.945	172.081	0.087	-0.125
-519.931	-188.615	-0.323	-0.004
-518.916	800.000	-0.065	-0.242
-517.902	-156.807	0.086	0.005
-516.887	458.795	0.133	-0.297
-515.872	-25.623	-0.173	-0.103
-514.858	-23.602	0.396	0.239
-513.843	326.426	-0.209	0.401
-512.829	800.000	-0.032	0.117
-511.814	-200.000	0.001	0.212
-510.799	96.878	-0.118	0.136
-509.785	170.305	-0.093	0.134
-508.770	-125.105	-0.058	-0.009
-507.756	-45.468	0.060	-0.030
-506.741	800.000	-0.038	-0.114
-505.726	45.526	0.207	0.192
-504.712	360.695	0.166	0.334
-503.697	-200.000	-0.015	-0.073
-502.683	125.694	-0.150	0.190
-501.668	443.315	-0.022	-0.048
-500.653	800.000	-0.078	-0.229
-499.639	-173.501	0.442	-0.013
-498.624	384.260	0.081	0.168
-497.610	289.886	0.078	0.143
-496.595	55.271	-0.185	-0.180
-495.581	800.000	0.121	-0.388
-494.566	163.067	0.011	-0.015
-493.551	-98.669	0.373	0.095
-492.537	258.897	0.131	0.226
-491.522	-171.145	-0.105	0.004
-490.508	543.412	-0.087	-0.209
-489.493	130.459	-0.069	-0.088
-488.478	-200.000	0.036	0.178
-487.464	463.279	-0.010	-0.023
-486.449	-38.422	-0.130	0.069
-485.435	-163.054	-0.236	-0.011
-484.420	-85.454	0.259	-0.081
-483.405	-83.142	0.062	0.020
-482.391	9.916	-0.169	-0.129
-481.376	390.653	-0.189	-0.394
-480.362	800.000	0.100	0.309
-479.347	1.509	0.150	-0.109
-478.332	625.580	-0.163	0.414
-477.318	235.319	-0.194	-0.322
-476.303	268.672	0.053	0.093
-475.289	-19.122	0.198	-0.124
-474.274	-143.205	0.126	0.012
-473.259	-4.114	0.110	-0.077
-472.245	32.122	0.402	-0.348
-471.230	151.898	-0.206	-0.281
-470.216	-33.855	-0.200	-0.111
-469.201	121.673	0.058	-0.072
-468.186	-200.000	0.022	0.121
-467.172	-32.372	-0.126	0.071
-466.157	13.459	-0.064	-0.050
-465.143	-122.568	-0.195	-0.032
-464.128	-200.000	0.004	-0.022
-463.113	2.541	-0.161	-0.117
-462.099	-29.743	-0.084	-0.048
-461.084	25.878	0.143	0.119
-460.070	139.335	-0.207	-0.273
-459.055	-69.240	-0.292	0.113
-458.040	-200.000	-0.010	0.113
-457.026	-79.145	-0.213	0.072
-456.011	-79.274	-0.210	0.071
-454.997	-25.174	0.271	-0.161
-453.982	-51.904	0.183	-0.085
-452.968	800.000	0.063	-0.198
-451.953	-23.508	-0.186	-0.112
-450.938	-200.000	0.016	0.155
-449.924	302.342	-0.156	-0.289
-448.909	-4.232	0.157	-0.109
-447.895	-83.797	-0.250	-0.080
-446.880	-147.635	0.222	-0.019
-445.865	800.000	0.070	-0.304
-444.851	800.000	0.073	-0.285
-443.836	39.455	-0.094	-0.085
-442.822	-200.000	-0.031	0.363
-441.807	125.395	0.137	0.173
-440.792	-198.652	-0.398	-0.002
-439.778	438.047	-0.013	-0.029
-438.763	-127.638	-0.011	-0.002
-437.749	142.206	0.100	0.133
-436.734	208.378	0.052	0.081
-435.719	-32.072	0.149	-0.083
-434.705	-181.850	0.131	0.003
-433.690	-90.246	-0.436	0.127
-432.676	-38.699	0.240	0.127
-431.661	117.499	0.046	0.057
-430.646	-200.000	-0.003	-0.194
-429.632	-61.633	0.113	0.047
-428.617	181.881	0.057	-0.084
-427.603	-200.000	-0.026	-0.485
-426.588	62.392	0.138	0.138
-425.573	199.510	0.104	0.160
-424.559	246.743	-0.079	0.133
-423.544	-70.593	0.176	0.067
-422.530	-200.000	-0.004	-0.306
-421.515	219.202	-0.227	-0.364
-420.500	-59.754	0.148	0.063
-419.486	-139.333	-0.445	0.048
-418.471	60.007	0.123	0.122
-417.457	28.427	0.054	0.046
-416.442	-94.405	-0.260	0.071
-415.428	-52.669	0.166	-0.077
-414.413	-200.000	-0.050	0.382
-413.398	389.575	0.115	-0.239
-412.384	92.228	-0.177	0.200
-411.369	298.258	0.097	0.179
-410.355	46.802	0.123	0.114
-409.340	-76.000	-0.227	0.080
-408.325	13.522	-0.168	0.130
-407.311	-65.578	-0.195	0.078
-406.296	-200.000	-0.009	0.109
-405.282	-102.180	0.062	-0.015
-404.267	-57.627	-0.164	-0.072
-403.252	-102.189	-0.149	0.036
-402.238	101.849	0.132	0.154
-401.223	373.832	-0.091	-0.186
-400.209	800.000	0.166	-0.485
-399.194	800.000	-0.116	-0.370
-398.179	216.989	0.103	-0.164
-397.165	66.147	-0.031	-0.031
-396.150	-94.516	0.347	0.095
-395.136	160.825	-0.071	0.100
-394.121	652.183	-0.070	0.180
-393.106	-97.814	-0.278	0.072
-392.092	-75.715	-0.179	0.064
-391.077	-19.695	0.295	0.183
-390.063	-200.000	0.019	-0.151
-389.048	800.000	0.047	0.144
-388.033	129.209	0.125	0.160
-387.019	121.669	0.060	0.075
-386.004	800.000	-0.037	0.110
-384.990	289.538	-0.106	0.192
-383.975	-62.767	-0.242	0.100
-382.960	90.883	0.106	0.119
-381.946	-62.724	0.274	0.113
-380.931	-97.450	-0.143	-0.037
-379.917	1.555	0.104	-0.074
-378.902	-42.025	0.136	0.070
-377.888	284.563	0.064	-0.115
-376.873	-200.000	-0.002	0.385
-375.858	288.402	-0.073	-0.132
-374.844	107.521	0.270	-0.321
-373.829	-105.084	-0.187	0.043
-372.815	800.000	0.087	-0.340
-371.800	11.764	-0.086	-0.066
-370.785	800.000	0.019	0.075
-369.771	-200.000	-0.025	0.144
-368.756	342.396	-0.113	0.221
-367.742	86.837	-0.093	-0.103
-366.727	678.949	0.080	0.207
-365.712	21.427	0.044	-0.036
-364.698	-100.769	-0.280	-0.069
-363.683	-184.320	-0.163	-0.003
-362.669	-104.595	-0.241	-0.056
-361.654	-200.000	0.001	-0.355
-360.639	-200.000	0.037	-0.240
-359.625	800.000	0.017	-0.073
-358.610	26.418	0.245	0.205
-357.596	-71.145	-0.120	0.045
-356.581	800.000	-0.038	-0.110
-355.566	-96.315	-0.221	0.058
-354.552	-22.013	0.080	0.048
-353.537	728.155	-0.113	0.301
-352.523	-113.407	-0.098	0.019
-351.508	-8.692	0.174	0.117
-350.493	91.874	0.279	-0.314
-349.479	-200.000	-0.020	0.097
-348.464	-200.000	0.004	0.281
-347.450	-52.626	0.055	0.025
-346.435	-83.844	0.217	-0.069
-345.420	221.435	0.146	-0.234
-344.406	161.060	-0.073	-0.101
-343.391	11.810	0.208	-0.159
-342.377	-29.766	-0.145	0.083
-341.362	-200.000	-0.043	0.265
-340.348	-200.000	0.041	0.461
-339.333	19.863	0.313	0.252
-338.318	-200.000	0.013	-0.169
-337.304	81.608	-0.087	-0.094
-336.289	-102.978	-0.283	-0.067
-335.275	-200.000	-0.042	0.190
-334.260	-56.377	0.196	0.087
-333.245	800.000	-0.081	0.304
-332.231	177.689	0.079	0.115
-331.216	114.459	0.085	0.103
-330.202	800.000	-0.054	-0.183
-329.187	75.778	-0.122	-0.129
-328.172	-50.166	-0.213	-0.101
-327.158	36.758	-0.173	0.153
-326.143	249.559	0.087	0.147
-325.129	300.600	0.064	0.118
-324.114	-2.022	0.154	0.108
-323.099	-4.565	0.247	0.170
-322.085	296.358	-0.178	0.326
-321.070	-19.805	0.155	-0.096
-320.056	-44.744	-0.170	0.085
-319.041	-131.451	0.193	0.025
-318.026	224.359	-0.073	-0.118
-317.012	-200.000	-0.035	0.182
-315.997	477.715	0.009	-0.021
-314.983	-44.630	0.396	-0.197
-313.968	-109.086	-0.228	0.049
-312.953	-107.374	0.072	0.016
-311.939	-6.688	-0.202	0.137
-310.924	800.000	-0.038	-0.162
-309.910	205.886	-0.122	0.189
-308.895	-138.831	-0.138	0.015
-307.880	553.619	0.055	-0.132
-306.866	-200.000	0.028	-0.149
-305.851	-200.000	0.000	0.374
-304.837	153.845	-0.102	-0.139
-303.822	-200.000	-0.046	-0.200
-302.807	-127.523	0.148	-0.021
-301.793	-107.115	-0.165	0.036
-300.778	-200.000	0.024	0.255
-299.764	-200.000	0.011	-0.135
-298.749	-8.698	0.126	0.084
-297.735	-200.000	-0.069	-0.448
-296.720	-119.092	-0.175	-0.031
-295.705	298.874	0.071	-0.130
-294.691	800.000	-0.067	0.267
-293.676	-27.009	0.089	-0.052
-292.662	800.000	0.010	-0.029
-291.647	423.069	0.057	0.121
-290.632	582.181	-0.093	0.227
-289.618	411.900	0.114	0.241
-288.603	-200.000	-0.024	-0.305
-287.589	134.728	-0.213	0.275
-286.574	34.854	-0.076	-0.067
-285.559	-102.384	-0.308	-0.074
-284.545	-51.869	0.166	-0.077
-283.530	-108.800	0.024	-0.005
-282.516	-49.062	0.463	0.221
-281.501	-200.000	-0.229	-0.001
-280.486	214.358	-0.177	0.278
-279.472	-200.000	-0.007	0.310
-278.457	-99.447	-0.130	0.033
-277.443	19.989	0.178	-0.143
-276.428	800.000	0.048	-0.146
-275.413	279.796	0.035	0.062
-274.399	133.400	0.145	0.187
-273.384	-200.000	0.025	-0.175
-272.370	96.842	-0.005	0.006
-271.355	-99.990	-0.289	0.072
-270.340	12.292	-0.293	0.225
-269.326	-200.000	-0.016	-0.225
-268.311	-96.979	0.263	0.069
-267.297	-200.000	-0.004	0.291
-266.282	-61.424	-0.107	-0.045
-265.267	-25.218	0.130	-0.077
-264.253	-200.000	-0.501	0.001
-263.238	-200.000	0.035	0.162
-262.224	-112.039	-0.216	-0.043
-261.209	800.000	0.012	-0.033
-260.195	-181.020	-0.521	-0.010
-259.180	-91.874	0.095	-0.027
-258.165	-200.000	-0.005	0.104
-257.151	79.935	0.154	0.164
-256.136	302.610	0.254	-0.468
-255.122	-200.000	0.023	-0.223
-254.107	-0.127	-0.071	-0.050
-253.092	800.000	-0.048	0.139
-252.078	-200.000	-0.009	0.142
-251.063	-96.471	0.024	-0.006
-250.049	80.004	0.343	-0.367
-249.034	97.528	0.168	-0.192
-248.019	-150.335	-0.267	0.020
-247.005	281.345	0.060	0.107
-245.990	-200.000	-0.017	0.126
-244.976	-200.000	-0.011	-0.325
-243.961	-23.382	0.298	-0.178
-242.946	-10.274	0.136	-0.090
-241.932	-40.461	-0.238	-0.123
-240.917	124.379	-0.224	0.281
-239.903	800.000	-0.085	0.262
-238.888	151.395	0.093	0.125
-237.873	110.665	0.079	-0.095
-236.859	-200.000	0.080	0.440
-235.844	-200.000	0.002	0.102
-234.830	79.767	-0.140	0.150
-233.815	367.707	0.120	-0.240
-232.800	800.000	-0.122	-0.362
-231.786	-83.559	0.074	0.023
-230.771	64.664	-0.237	0.237
-229.757	145.559	0.056	0.075
-228.742	800.000	0.090	0.354
-227.727	-122.736	0.203	-0.033
-226.713	800.000	-0.043	-0.134
-225.698	116.034	-0.076	-0.092
-224.684	275.183	-0.126	0.221
-223.669	-75.845	0.035	-0.012
-222.655	800.000	-0.065	0.233
-221.640	-117.188	0.163	-0.029
-220.625	-40.094	0.178	0.092
-219.611	-136.428	-0.226	-0.026
-218.596	177.723	0.207	0.300
-217.582	-114.252	-0.310	-0.059
-216.567	-200.000	-0.003	0.083
-215.552	-35.409	-0.275	-0.149
-214.538	-139.465	0.091	0.010
-213.523	-167.668	0.064	0.003
-212.509	190.202	-0.104	0.155
-211.494	243.309	-0.062	-0.104
-210.479	-200.000	-0.023	-0.153
-209.465	146.856	0.213	-0.284
-208.450	109.403	-0.095	0.113
-207.436	-200.000	0.026	0.231
-206.421	-144.117	-0.152	-0.014
-205.406	81.504	-0.116	0.124
-204.392	-133.131	-0.104	0.013
-203.377	800.000	0.043	0.183
-202.363	82.647	-0.272	0.293
-201.348	-82.200	-0.093	0.030
-200.333	-170.836	0.283	0.010
-199.319	-131.272	0.058	-0.008
-198.304	27.357	0.247	0.206
-197.290	-130.631	0.171	-0.023
-196.275	-74.818	0.416	0.148
-195.260	800.000	-0.096	0.287
-194.246	-93.258	0.191	-0.053
-193.231	-131.471	0.484	-0.063
-192.217	800.000	0.071	0.251
-191.202	22.146	0.151	0.123
-190.187	28.452	-0.077	0.064
-189.173	690.193	-0.067	-0.175
-188.158	-34.222	0.156	-0.085
-187.144	83.779	-0.077	0.083
-186.129	-200.000	0.001	-0.202
-185.114	-19.000	-0.281	0.173
-184.100	-200.000	0.038	0.178
-183.085	-200.000	0.058	-0.369
-182.071	29.267	0.096	0.081
-181.056	-200.000	0.042	0.189
-180.042	-177.785	-0.440	0.011
-179.027	76.962	-0.163	0.172
-178.012	50.254	0.170	-0.159
-176.998	-68.033	-0.167	-0.064
-175.983	-41.742	0.303	-0.154
-174.969	241.967	0.088	-0.146
-173.954	-3.272	0.143	0.099
-172.939	-200.000	0.025	0.337
-171.925	-170.282	0.063	0.002
-170.910	-200.000	0.048	0.271
-169.896	702.699	-0.113	-0.296
-168.881	800.000	0.087	-0.261
-167.866	-116.994	0.194	0.035
-166.852	-200.000	-0.004	0.298
-165.837	-200.000	-0.013	0.502
-164.823	-24.817	0.161	-0.095
-163.808	-200.000	-0.011	-0.081
-162.793	755.692	-0.020	-0.055
-161.779	-35.591	-0.233	0.125
-160.764	800.000	-0.031	0.116
-159.750	360.347	0.172	-0.341
-158.735	-107.506	0.065	-0.014
-157.720	-106.511	-0.211	-0.047
-156.706	184.211	-0.216	0.318
-155.691	-61.254	0.252	0.105
-154.677	-65.469	-0.142	0.056
-153.662	-71.305	-0.171	-0.064
-152.647	139.844	0.163	-0.213
-151.633	-198.879	0.106	0.001
-150.618	-81.211	0.511	0.167
-149.604	138.217	0.207	0.269
-148.589	-63.711	-0.156	0.063
-147.574	357.193	-0.065	-0.129
-146.560	63.652	-0.091	-0.090
-145.545	800.000	0.085	-0.360
-144.531	18.464	0.387	-0.307
-143.516	-177.889	0.351	-0.008
-142.502	85.953	0.321	-0.349
-141.487	-69.732	-0.345	0.130
-140.472	-200.000	0.047	0.465
-139.458	56.048	0.219	0.211
-138.443	-61.945	0.213	0.088
-137.429	-6.965	-0.111	-0.075
-136.414	290.313	-0.288	-0.519
-135.399	-34.961	0.056	-0.030
-134.385	-49.204	0.476	-0.225
-133.370	-122.657	0.123	0.020
-132.356	299.081	0.100	0.182
-131.341	-3.076	0.136	0.094
-130.326	-138.041	-0.423	0.047
-129.312	-2.004	0.048	-0.033
-128.297	800.000	-0.056	-0.193
-127.283	278.220	-0.213	0.375
-126.268	-114.404	0.031	0.006
-125.253	34.383	0.255	0.221
-124.239	-200.000	-0.006	-0.077
-123.224	259.209	-0.148	0.252
-122.210	481.832	-0.072	0.161
-121.195	-53.012	0.045	0.021
