DTS Sentinel unit serial number:	SN413079Multiplexer serial number:	ORYXHardware model number:	OX4-SRSoftware version number:	ORYX F/W v4.00 Oryx Data Collector v3.7.2.0data status	okinstallation	princeton_trtdifferential loss correction	single-endedforward channel	channel 3reverse channel	N/Adate	2019/09/18time	04:28:34forward acquisition time	60.00reverse acquisition time	0.00gamma	496.2192k internal	0.2343k external	0.2343temperature offset calibration	0.9947default loss term (dB/km)	0.3790temperature slope calibration	1.0000multiplexer offset coefficient	1.0000multiplexer slope coefficient	1.0000fibre end	0.00T internal ref (°C)	23.37T ext. ref 1 (°C)	0.19T ext. ref 2 (°C)	17.57length (m)	temperature (°C)	Stokes	anti-Stokes-747.200	142.510	-0.116	0.154
-746.185	22.356	-0.118	0.097
-745.171	-56.230	-0.228	0.102
-744.156	-200.000	0.024	-0.236
-743.142	351.364	-0.073	-0.145
-742.127	-200.000	-0.010	0.316
-741.112	328.467	-0.070	0.134
-740.098	-41.676	-0.272	0.140
-739.083	-51.700	0.162	0.076
-738.069	800.000	0.079	0.339
-737.054	325.588	0.061	-0.117
-736.039	-121.210	-0.120	0.020
-735.025	-168.344	0.251	0.010
-734.010	800.000	-0.073	-0.250
-732.996	-0.815	0.163	-0.116
-731.981	-26.681	-0.408	0.239
-730.966	-200.000	0.037	-0.413
-729.952	-104.853	0.228	0.052
-728.937	-67.338	-0.405	-0.160
-727.923	-200.000	0.005	0.091
-726.908	189.216	-0.190	-0.285
-725.894	-192.783	-0.100	-0.001
-724.879	92.291	-0.244	-0.275
-723.864	108.397	0.116	-0.139
-722.850	-181.980	0.120	0.002
-721.835	-179.958	0.089	0.002
-720.821	-200.000	-0.022	0.118
-719.806	-200.000	-0.018	-0.137
-718.791	-57.184	-0.265	-0.117
-717.777	-30.599	0.246	0.139
-716.762	172.200	-0.172	-0.248
-715.748	106.420	0.122	-0.145
-714.733	800.000	0.021	-0.073
-713.718	64.891	-0.103	-0.104
-712.704	800.000	-0.074	0.251
-711.689	47.283	-0.070	-0.065
-710.675	9.873	-0.146	-0.111
-709.660	-22.583	-0.166	-0.100
-708.645	-200.000	-0.033	-0.244
-707.631	-160.067	0.228	0.012
-706.616	62.861	0.073	-0.073
-705.602	191.048	0.188	-0.282
-704.587	-200.000	0.061	-0.345
-703.572	440.505	-0.018	-0.039
-702.558	-200.000	-0.028	0.183
-701.543	-180.809	-0.028	0.001
-700.529	-124.318	-0.129	0.020
-699.514	384.385	0.089	-0.183
-698.499	-28.268	-0.160	-0.092
-697.485	-200.000	0.057	-0.258
-696.470	-116.277	-0.296	-0.055
-695.456	-105.893	0.201	0.045
-694.441	-200.000	0.055	0.319
-693.426	173.793	0.213	-0.307
-692.412	11.780	0.148	-0.113
-691.397	328.460	-0.070	0.134
-690.383	-118.419	-0.153	0.027
-689.368	4.877	-0.100	0.073
-688.354	164.611	-0.187	-0.264
-687.339	800.000	0.064	-0.252
-686.324	-26.133	0.324	-0.191
-685.310	-192.609	0.115	-0.001
-684.295	215.175	-0.092	0.147
-683.281	79.010	0.214	-0.228
-682.266	-104.286	-0.293	0.068
-681.251	238.061	0.177	0.293
-680.237	-150.546	0.297	0.023
-679.222	96.831	-0.183	0.209
-678.208	-96.178	-0.113	-0.030
-677.193	55.136	0.295	0.285
-676.178	-54.137	0.090	0.041
-675.164	243.251	-0.039	0.065
-674.149	21.361	-0.086	-0.070
-673.135	-57.541	0.078	-0.034
-672.120	-161.300	0.082	-0.004
-671.105	-200.000	0.046	-0.247
-670.091	-200.000	-0.005	-0.052
-669.076	-91.387	0.240	-0.069
-668.062	-116.833	0.303	-0.055
-667.047	27.500	0.250	-0.210
-666.032	-108.966	-0.211	-0.045
-665.018	227.558	-0.122	-0.199
-664.003	-102.504	0.152	0.036
-662.989	-100.781	-0.134	0.033
-661.974	-200.000	-0.076	-0.401
-660.959	59.845	0.205	0.202
-659.945	39.587	-0.175	0.157
-658.930	529.154	-0.048	0.113
-657.916	-74.775	-0.240	0.086
-656.901	557.596	-0.087	-0.209
-655.886	-92.614	0.239	-0.067
-654.872	56.864	-0.219	-0.213
-653.857	-53.802	0.038	0.017
-652.843	-200.000	-0.004	-0.287
-651.828	33.744	-0.291	-0.252
-650.814	800.000	0.032	0.102
-649.799	-200.000	-0.006	0.198
-648.784	626.116	-0.066	-0.166
-647.770	-200.000	-0.003	0.103
-646.755	277.537	0.163	0.289
-645.741	79.472	0.184	0.197
-644.726	-200.000	-0.000	-0.134
-643.711	291.799	-0.125	-0.226
-642.697	177.036	0.093	0.134
-641.682	421.474	-0.016	0.034
-640.668	-72.871	0.323	-0.118
-639.653	669.904	0.084	-0.216
-638.638	-154.316	-0.271	0.018
-637.624	296.953	0.111	0.203
-636.609	-187.241	-0.097	0.001
-635.595	-200.000	0.006	-0.130
-634.580	132.819	0.196	-0.252
-633.565	31.589	0.221	-0.190
-632.551	245.394	-0.131	-0.219
-631.536	-200.000	-0.006	-0.177
-630.522	800.000	0.048	-0.137
-629.507	127.100	-0.116	-0.147
-628.492	259.306	-0.105	-0.181
-627.478	85.509	-0.255	0.280
-626.463	800.000	0.134	-0.449
-625.449	-128.280	-0.380	-0.054
-624.434	225.586	0.188	0.304
-623.419	15.763	0.158	-0.124
-622.405	-56.939	-0.182	-0.080
-621.390	-200.000	0.050	0.300
-620.376	-200.000	0.001	-0.051
-619.361	-117.951	0.133	0.024
-618.346	-200.000	0.002	-0.085
-617.332	-200.000	-0.031	0.152
-616.317	-187.102	0.150	0.002
-615.303	-127.756	0.281	0.040
-614.288	-65.492	0.244	0.098
-613.273	-200.000	-0.007	0.109
-612.259	188.202	-0.140	-0.209
-611.244	-93.319	-0.071	0.020
-610.230	158.260	0.193	-0.267
-609.215	10.518	0.128	0.097
-608.201	800.000	-0.087	-0.252
-607.186	-200.000	-0.002	-0.043
-606.171	31.771	-0.155	0.133
-605.157	-172.896	-0.241	0.007
-604.142	179.915	-0.161	-0.235
-603.128	116.199	0.260	-0.318
-602.113	-17.432	0.259	0.162
-601.098	-125.048	0.073	0.011
-600.084	110.514	0.216	0.259
-599.069	67.083	-0.027	0.027
-598.055	-200.000	-0.206	-0.000
-597.040	-36.825	0.212	0.113
-596.025	254.135	-0.111	0.188
-595.011	460.664	0.157	-0.349
-593.996	800.000	-0.080	-0.316
-592.982	-200.000	0.035	-0.159
-591.967	800.000	0.046	-0.162
-590.952	-94.251	0.268	0.073
-589.938	82.748	0.102	-0.111
-588.923	-70.335	-0.107	-0.041
-587.909	800.000	0.038	0.135
-586.894	250.079	0.007	-0.012
-585.879	231.975	-0.174	-0.285
-584.865	-139.710	-0.155	0.016
-583.850	58.992	-0.078	-0.077
-582.836	-200.000	0.059	-0.312
-581.821	-200.000	0.024	-0.218
-580.806	144.228	0.095	-0.126
-579.792	-200.000	0.019	-0.239
-578.777	-25.962	-0.071	0.042
-577.763	-180.533	0.223	0.005
-576.748	-98.489	-0.072	0.018
-575.733	800.000	-0.009	-0.027
-574.719	231.842	0.080	0.131
-573.704	-200.000	0.010	0.126
-572.690	-28.699	0.235	0.134
-571.675	91.236	-0.110	-0.123
-570.661	800.000	-0.094	0.360
-569.646	-200.000	0.006	0.058
-568.631	-53.981	0.207	0.094
-567.617	-200.000	-0.002	0.056
-566.602	-102.533	0.196	-0.047
-565.588	-137.779	-0.095	-0.011
-564.573	-33.307	-0.169	-0.093
-563.558	-133.269	0.150	0.019
-562.544	118.465	-0.092	0.113
-561.529	62.538	-0.081	0.080
-560.515	17.858	-0.156	0.123
-559.500	377.992	-0.059	0.120
-558.485	32.672	0.264	-0.227
-557.471	332.453	0.012	0.023
-556.456	161.042	-0.151	0.209
-555.442	-93.812	0.191	0.052
-554.427	108.723	0.154	-0.183
-553.412	134.116	-0.181	0.233
-552.398	362.408	-0.119	0.237
-551.383	-200.000	0.018	-0.238
-550.369	800.000	-0.031	0.102
-549.354	150.385	-0.117	-0.159
-548.339	800.000	0.042	0.142
-547.325	96.086	-0.053	0.060
-546.310	27.028	-0.264	0.220
-545.296	-88.473	0.344	0.102
-544.281	510.768	-0.108	0.249
-543.266	-36.234	-0.058	-0.031
-542.252	-62.773	-0.074	-0.030
-541.237	-103.034	-0.380	-0.090
-540.223	-200.000	0.006	0.145
-539.208	586.603	-0.038	0.094
-538.193	296.003	-0.111	0.201
-537.179	-200.000	0.014	0.061
-536.164	-47.929	-0.169	0.081
-535.150	-72.812	-0.297	-0.109
-534.135	285.862	0.079	-0.141
-533.121	-200.000	-0.036	0.247
-532.106	83.894	-0.180	-0.195
-531.091	10.068	-0.082	0.062
-530.077	800.000	0.045	-0.165
-529.062	-200.000	0.024	0.107
-528.048	6.153	-0.198	-0.146
-527.033	-133.962	0.207	0.025
-526.018	-200.000	0.022	-0.313
-525.004	800.000	0.049	0.150
-523.989	-200.000	-0.008	-0.260
-522.975	-56.797	-0.250	0.110
-521.960	56.249	-0.129	-0.125
-520.945	-110.664	-0.175	0.036
-519.931	-28.060	-0.121	0.069
-518.916	-200.000	0.003	-0.179
-517.902	561.232	-0.136	0.326
-516.887	69.323	-0.145	-0.148
-515.872	-200.000	0.001	-0.084
-514.858	-106.726	-0.265	0.059
-513.843	-200.000	-0.061	-0.397
-512.829	27.683	0.367	0.307
-511.814	-200.000	-0.003	-0.083
-510.799	800.000	-0.132	0.387
-509.785	289.070	0.173	-0.310
-508.770	-163.993	0.200	-0.009
-507.756	-147.658	0.278	0.023
-506.741	800.000	0.092	-0.310
-505.726	800.000	-0.042	0.171
-504.712	-91.887	0.302	0.085
-503.697	800.000	0.022	-0.078
-502.683	-32.231	0.303	-0.168
-501.668	416.038	-0.139	-0.294
-500.653	-200.000	0.004	0.025
-499.639	-200.000	-0.013	-0.239
-498.624	-200.000	0.011	-0.130
-497.610	-77.139	-0.242	0.084
-496.595	-92.359	0.491	0.137
-495.581	800.000	0.042	0.134
-494.566	-200.000	-0.000	-0.354
-493.551	509.193	0.086	-0.199
-492.537	-0.045	-0.122	0.086
-491.522	-200.000	0.045	0.300
-490.508	-57.276	0.232	0.101
-489.493	-200.000	-0.029	0.258
-488.478	-200.000	0.009	0.121
-487.464	-38.170	-0.189	-0.099
-486.449	433.651	-0.187	0.404
-485.435	-26.508	-0.236	-0.137
-484.420	14.766	-0.271	-0.210
-483.405	249.438	0.068	-0.115
-482.391	-76.138	-0.254	-0.089
-481.376	458.168	-0.090	-0.198
-480.362	48.982	-0.082	-0.076
-479.347	197.347	0.119	-0.180
-478.332	59.601	-0.096	0.093
-477.318	94.302	-0.233	0.262
-476.303	-15.364	0.220	0.140
-475.289	-61.919	-0.148	-0.061
-474.274	-41.969	-0.179	0.091
-473.259	54.750	-0.156	0.149
-472.245	480.358	0.109	0.245
-471.230	-200.000	0.013	-0.106
-470.216	-120.907	-0.420	0.070
-469.201	800.000	-0.081	0.241
-468.186	95.889	-0.082	-0.093
-467.172	65.157	0.150	-0.150
-466.157	198.791	-0.077	-0.117
-465.143	-131.426	0.141	-0.018
-464.128	311.870	-0.082	-0.153
-463.113	11.971	0.201	0.153
-462.099	-200.000	-0.018	0.258
-461.084	-51.829	-0.151	-0.070
-460.070	-123.766	0.216	0.034
-459.055	-200.000	-0.011	-0.298
-458.040	33.821	-0.165	0.142
-457.026	-200.000	0.041	-0.243
-456.011	-32.468	0.293	0.162
-454.997	-43.214	0.221	-0.111
-453.982	-200.000	0.027	-0.246
-452.968	-56.274	-0.294	-0.130
-451.953	-25.454	0.250	0.146
-450.938	-200.000	0.072	-0.361
-449.924	-200.000	0.002	0.281
-448.909	-200.000	0.007	0.212
-447.895	-50.391	-0.096	-0.045
-446.880	217.715	0.085	-0.135
-445.865	130.793	0.111	0.140
-444.851	-106.801	0.183	-0.040
-443.836	244.635	0.073	0.122
-442.822	208.980	-0.203	0.315
-441.807	42.263	0.146	0.131
-440.792	800.000	0.167	0.543
-439.778	-200.000	0.072	0.000
-438.763	-92.512	0.385	-0.107
-437.749	380.052	-0.095	0.193
-436.734	-79.749	0.209	-0.070
-435.719	93.466	-0.402	0.450
-434.705	800.000	-0.098	-0.303
-433.690	186.012	0.086	0.126
-432.676	106.195	0.210	0.247
-431.661	-200.000	-0.018	-0.581
-430.646	-68.236	-0.212	0.082
-429.632	-89.979	-0.083	-0.024
-428.617	-200.000	0.059	-0.357
-427.603	47.335	-0.193	-0.178
-426.588	800.000	-0.045	-0.179
-425.573	133.032	-0.136	-0.173
-424.559	-128.768	-0.283	0.039
-423.544	-200.000	-0.055	-0.251
-422.530	-74.737	0.360	-0.128
-421.515	-80.743	-0.168	0.055
-420.500	-73.229	-0.109	-0.039
-419.486	-200.000	-0.089	-0.534
-418.471	-117.125	0.058	-0.010
-417.457	-64.885	-0.182	0.073
-416.442	598.617	-0.086	-0.212
-415.428	-89.775	-0.289	0.084
-414.413	-61.728	0.249	-0.103
-413.398	-58.935	-0.120	-0.051
-412.384	124.306	0.047	-0.059
-411.369	-200.000	-0.000	-0.011
-410.355	418.740	0.030	-0.063
-409.340	-22.296	-0.161	0.097
-408.325	800.000	-0.091	0.372
-407.311	-200.000	-0.024	0.250
-406.296	306.414	0.125	0.230
-405.282	800.000	0.051	-0.167
-404.267	-37.644	0.336	0.177
-403.252	79.146	0.331	0.351
-402.238	-66.954	0.286	0.111
-401.223	-20.549	0.214	-0.130
-400.209	800.000	0.098	0.408
-399.194	97.039	-0.170	-0.193
-398.179	747.165	0.184	-0.490
-397.165	-39.526	-0.262	-0.136
-396.150	-129.578	0.178	0.024
-395.136	20.453	0.260	-0.207
-394.121	-200.000	0.034	0.159
-393.106	-21.664	0.307	-0.185
-392.092	55.977	0.045	-0.043
-391.077	800.000	0.073	0.247
-390.063	-200.000	0.022	0.163
-389.048	112.265	-0.186	-0.222
-388.033	292.226	0.093	-0.167
-387.019	35.007	0.136	0.117
-386.004	237.980	0.083	-0.137
-384.990	800.000	0.095	0.403
-383.975	-124.875	0.479	0.073
-382.960	-182.988	-0.201	0.004
-381.946	-62.529	-0.571	0.234
-380.931	-54.671	0.142	-0.063
-379.917	-99.878	-0.313	-0.077
-378.902	-200.000	-0.009	-0.061
-377.888	-72.048	0.251	-0.092
-376.873	283.205	-0.280	-0.497
-375.858	-67.382	0.142	0.055
-374.844	62.541	-0.110	-0.109
-373.829	116.899	-0.150	-0.181
-372.815	473.901	-0.056	-0.124
-371.800	-77.848	0.064	-0.022
-370.785	800.000	0.038	-0.110
-369.771	89.381	-0.349	0.384
-368.756	800.000	0.036	-0.111
-367.742	562.725	-0.124	0.296
-366.727	52.952	-0.199	-0.188
-365.712	-200.000	-0.019	0.101
-364.698	-200.000	0.024	0.192
-363.683	-200.000	-0.014	0.200
-362.669	-44.650	0.206	0.102
-361.654	45.544	-0.194	0.177
-360.639	200.456	0.070	-0.107
-359.625	11.798	-0.050	0.038
-358.610	-200.000	-0.001	-0.060
-357.596	168.968	-0.073	0.102
-356.581	372.511	-0.056	-0.112
-355.566	-38.518	-0.186	-0.097
-354.552	-132.869	0.349	-0.044
-353.537	225.754	0.064	-0.102
-352.523	-24.609	0.199	0.117
-351.508	-115.874	-0.175	0.032
-350.493	-200.000	0.024	0.204
-349.479	289.819	-0.146	-0.261
-348.464	139.213	0.098	0.128
-347.450	-95.771	-0.237	0.062
-346.435	-58.983	-0.233	-0.099
-345.420	63.953	-0.074	0.073
-344.406	225.980	0.179	-0.285
-343.391	-131.608	-0.281	0.036
-342.377	100.974	0.171	-0.197
-341.362	1.388	0.172	0.122
-340.348	-64.808	-0.151	-0.060
-339.333	0.686	-0.063	-0.045
-338.318	-38.495	-0.091	-0.047
-337.304	-80.815	-0.266	0.087
-336.289	112.637	0.107	-0.128
-335.275	555.065	0.033	-0.078
-334.260	177.487	-0.249	-0.358
-333.245	-186.183	0.296	-0.004
-332.231	-67.998	-0.237	0.091
-331.216	-92.204	-0.259	-0.072
-330.202	-77.214	-0.372	-0.128
-329.187	-200.000	0.033	-0.265
-328.172	-200.000	0.030	-0.250
-327.158	-200.000	0.028	0.178
-326.143	800.000	0.017	0.071
-325.129	-98.395	-0.143	-0.036
-324.114	-133.409	0.330	0.041
-323.099	-162.389	-0.040	0.002
-322.085	462.577	-0.172	-0.378
-321.070	800.000	-0.059	0.215
-320.056	56.975	-0.039	0.037
-319.041	800.000	-0.049	-0.137
-318.026	98.257	-0.281	0.318
-317.012	800.000	0.046	-0.150
-315.997	161.311	0.113	0.155
-314.983	-200.000	-0.069	-0.460
-313.968	800.000	-0.030	-0.084
-312.953	556.858	-0.061	-0.146
-311.939	1.952	-0.072	0.051
-310.924	-200.000	-0.047	-0.388
-309.910	-43.236	-0.123	0.061
-308.895	-200.000	0.017	0.258
-307.880	85.874	-0.110	0.119
-306.866	-111.376	-0.077	0.015
-305.851	-200.000	-0.037	0.181
-304.837	-165.545	0.216	0.009
-303.822	-41.504	0.170	-0.086
-302.807	304.270	-0.050	-0.091
-301.793	-48.411	-0.069	-0.033
-300.778	-5.312	-0.383	0.259
-299.764	19.614	-0.309	0.245
-298.749	-76.415	0.387	-0.134
-297.735	-25.427	-0.025	-0.014
-296.720	120.953	0.283	-0.347
-295.705	79.380	0.086	0.091
-294.691	-75.606	-0.091	-0.032
-293.676	-81.940	0.245	-0.079
-292.662	404.031	0.020	0.041
-291.647	800.000	-0.035	-0.127
-290.632	800.000	0.014	0.044
-289.618	-128.302	-0.380	0.053
-288.603	800.000	0.098	0.291
-287.589	-200.000	0.005	0.339
-286.574	-122.525	-0.232	-0.037
-285.559	268.905	0.131	0.226
-284.545	-200.000	-0.055	-0.268
-283.530	-20.215	-0.104	-0.063
-282.516	-195.174	-0.173	-0.001
-281.501	-33.767	-0.211	0.115
-280.486	-69.813	0.172	-0.065
-279.472	28.961	0.190	0.158
-278.457	64.979	0.130	0.130
-277.443	-200.000	-0.014	-0.157
-276.428	-54.445	-0.187	0.083
-275.413	232.878	0.188	0.304
-274.399	-77.170	-0.137	0.047
-273.384	-64.270	-0.221	0.089
-272.370	-72.790	-0.206	-0.075
-271.355	-164.597	0.340	-0.015
-270.340	52.023	-0.166	0.156
-269.326	580.749	0.048	-0.116
-268.311	265.317	0.139	0.237
-267.297	-200.000	-0.036	-0.179
-266.282	164.191	-0.168	0.233
-265.267	42.207	0.204	-0.182
-264.253	66.928	0.195	-0.195
-263.238	-200.000	0.018	-0.121
-262.224	664.592	-0.097	-0.246
-261.209	-140.794	0.115	0.012
-260.195	-158.300	-0.115	0.007
-259.180	-200.000	-0.029	0.312
-258.165	-77.361	0.394	-0.134
-257.151	123.449	0.141	0.173
-256.136	-200.000	-0.009	0.194
-255.122	160.548	0.187	-0.256
-254.107	476.429	0.105	-0.233
-253.092	-30.439	0.049	0.027
-252.078	698.855	-0.034	0.088
-251.063	-172.036	0.164	-0.005
-250.049	-26.505	-0.226	0.130
-249.034	-0.352	0.225	0.157
-248.019	64.117	-0.304	-0.300
-247.005	248.038	-0.061	-0.101
-245.990	-65.115	0.312	0.124
-244.976	59.420	0.090	-0.087
-243.961	40.759	0.090	-0.080
-242.946	461.771	0.060	0.132
-241.932	47.407	-0.285	0.261
-240.917	-61.322	0.331	0.137
-239.903	-200.000	0.054	0.331
-238.888	-55.318	0.434	-0.191
-237.873	68.489	-0.111	-0.112
-236.859	-72.710	0.229	0.083
-235.844	-200.000	-0.014	-0.302
-234.830	271.874	-0.063	0.109
-233.815	-200.000	-0.046	0.413
-232.800	-200.000	0.004	-0.062
-231.786	-5.788	-0.103	0.069
-230.771	-6.615	0.119	0.079
-229.757	800.000	-0.062	0.190
-228.742	278.919	0.063	-0.111
-227.727	-200.000	-0.005	-0.189
-226.713	-200.000	0.014	0.087
-225.698	-43.745	0.194	0.096
-224.684	-139.128	-0.312	0.033
-223.669	-176.519	0.279	-0.007
-222.655	195.351	-0.156	0.233
-221.640	-111.796	0.101	-0.020
-220.625	-87.331	-0.202	0.060
-219.611	29.805	-0.061	0.051
-218.596	-91.222	-0.413	0.116
-217.582	-87.171	0.037	-0.011
-216.567	-200.000	-0.055	0.356
-215.552	-7.623	0.053	0.035
-214.538	-69.049	-0.169	0.064
-213.523	134.567	-0.140	-0.178
-212.509	-200.000	-0.032	-0.214
-211.494	71.752	0.116	-0.119
-210.479	-160.092	-0.209	-0.011
-209.465	-200.000	-0.073	-0.329
-208.450	800.000	-0.029	-0.093
-207.436	566.760	-0.025	-0.059
-206.421	126.113	0.173	0.215
-205.406	-153.503	0.124	-0.008
-204.392	-157.794	-0.229	0.013
-203.377	-46.619	0.045	0.021
-202.363	737.807	0.032	0.085
-201.348	-93.464	-0.291	0.079
-200.333	453.792	0.230	0.499
-199.319	-123.932	0.183	0.028
-198.304	-42.161	-0.182	-0.091
-197.290	-200.000	-0.113	0.523
-196.275	-200.000	0.033	0.148
-195.260	-107.728	0.035	0.007
-194.246	425.893	0.083	-0.176
-193.231	-77.058	0.096	0.033
-192.217	121.560	0.106	0.129
-191.202	-200.000	0.000	0.069
-190.187	800.000	0.032	0.097
-189.173	800.000	-0.073	0.218
-188.158	-85.463	0.060	0.018
-187.144	-140.339	0.219	0.022
-186.129	-163.264	-0.323	-0.015
-185.114	202.176	0.144	-0.218
-184.100	490.023	0.082	-0.183
-183.085	451.196	-0.041	0.088
-182.071	-200.000	-0.006	-0.436
-181.056	-60.163	-0.242	0.101
-180.042	-138.286	0.446	0.048
-179.027	100.528	-0.154	-0.175
-178.012	800.000	0.035	0.103
-176.998	-41.147	0.112	0.056
-175.983	800.000	-0.074	-0.203
-174.969	-2.258	0.155	0.107
-173.954	27.895	0.188	-0.155
-172.939	-130.665	0.119	-0.016
-171.925	-87.877	-0.244	-0.072
-170.910	-30.419	-0.170	0.094
-169.896	38.467	0.378	0.330
-168.881	151.307	-0.069	0.092
-167.866	-135.886	0.094	-0.011
-166.852	-169.339	-0.100	0.004
-165.837	-58.531	-0.141	0.060
-164.823	-101.224	0.402	0.096
-163.808	186.412	0.096	0.140
-162.793	-0.572	0.267	-0.185
-161.779	-57.070	0.072	-0.031
-160.764	-200.000	-0.016	0.308
-159.750	158.010	0.155	0.210
-158.735	-116.850	-0.091	-0.016
-157.720	25.809	-0.304	0.248
-156.706	800.000	-0.069	-0.235
-155.691	-41.287	0.177	-0.089
-154.677	-200.000	0.006	0.148
-153.662	93.488	0.087	0.096
-152.647	-132.751	0.340	-0.043
-151.633	-35.379	-0.197	-0.105
-150.618	-47.700	0.300	-0.143
-149.604	-160.570	0.195	0.010
-148.589	519.928	-0.028	0.064
-147.574	-113.813	-0.045	-0.008
-146.560	-90.213	0.270	0.077
-145.545	-135.265	-0.153	-0.018
-144.531	-200.000	-0.020	0.153
-143.516	-53.465	0.077	-0.035
-142.502	-151.969	0.204	0.015
-141.487	336.963	-0.214	0.406
-140.472	-92.213	0.145	0.040
-139.458	46.640	-0.212	-0.192
-138.443	-183.070	-0.270	-0.005
-137.429	380.750	0.104	0.209
-136.414	-61.996	0.160	-0.065
-135.399	-121.941	0.553	-0.089
-134.385	-37.876	0.254	0.132
-133.370	-200.000	0.016	0.243
-132.356	-76.732	-0.136	0.047
-131.341	800.000	-0.076	-0.264
-130.326	104.462	0.149	0.172
-129.312	-115.895	-0.170	0.031
-128.297	-143.875	0.165	-0.015
-127.283	-200.000	0.039	-0.195
-126.268	160.642	0.283	-0.386
-125.253	61.738	-0.084	-0.082
-124.239	-166.715	-0.285	-0.012
-123.224	3.043	-0.122	0.087
-122.210	75.504	-0.166	0.171
