DTS Sentinel unit serial number:	SN413079Multiplexer serial number:	ORYXHardware model number:	OX4-SRSoftware version number:	ORYX F/W v4.00 Oryx Data Collector v3.7.2.0data status	okinstallation	princeton_trtdifferential loss correction	single-endedforward channel	channel 3reverse channel	N/Adate	2019/09/14time	19:28:35forward acquisition time	60.00reverse acquisition time	0.00gamma	496.2192k internal	0.2311k external	0.2311temperature offset calibration	1.0013default loss term (dB/km)	0.3790temperature slope calibration	1.0000multiplexer offset coefficient	1.0000multiplexer slope coefficient	1.0000fibre end	0.00T internal ref (°C)	34.81T ext. ref 1 (°C)	4.88T ext. ref 2 (°C)	28.92length (m)	temperature (°C)	Stokes	anti-Stokes-747.200	446.530	0.101	-0.224
-746.185	172.960	-0.131	0.191
-745.171	53.349	0.190	-0.185
-744.156	155.210	-0.116	0.162
-743.142	-31.722	0.280	0.160
-742.127	240.595	0.047	0.079
-741.112	620.096	0.076	0.193
-740.098	44.668	0.210	-0.196
-739.083	-95.256	0.214	-0.058
-738.069	558.229	-0.041	0.101
-737.054	6.000	-0.183	0.137
-736.039	800.000	-0.061	-0.177
-735.025	49.211	0.219	0.209
-734.010	21.203	0.086	0.071
-732.996	-200.000	0.026	0.318
-731.981	2.243	-0.160	0.117
-730.966	182.152	-0.116	-0.174
-729.952	225.089	0.229	0.376
-728.937	-200.000	0.004	-0.050
-727.923	115.814	-0.167	-0.208
-726.908	-119.602	-0.168	-0.029
-725.894	392.588	-0.161	-0.340
-724.879	-83.446	-0.241	-0.078
-723.864	-53.426	-0.195	-0.090
-722.850	-88.184	-0.106	-0.032
-721.835	800.000	0.086	0.351
-720.821	95.486	-0.137	-0.158
-719.806	-39.065	0.127	0.068
-718.791	-125.153	-0.259	0.040
-717.777	-100.653	0.130	-0.032
-716.762	-138.687	-0.085	-0.009
-715.748	-86.170	-0.156	-0.049
-714.733	-200.000	0.002	0.048
-713.718	-141.676	-0.126	0.013
-712.704	13.130	-0.115	0.090
-711.689	195.052	0.153	-0.235
-710.675	-179.227	-0.241	0.005
-709.660	76.409	-0.142	-0.152
-708.645	-80.459	-0.103	0.035
-707.631	-114.573	0.042	0.008
-706.616	-200.000	0.048	-0.228
-705.602	149.306	0.144	0.198
-704.587	65.269	0.218	-0.223
-703.572	-164.291	0.303	-0.014
-702.558	-7.357	-0.433	-0.297
-701.543	-47.979	-0.229	0.112
-700.529	800.000	-0.052	-0.195
-699.514	-200.000	-0.018	-0.101
-698.499	60.102	-0.133	-0.133
-697.485	36.069	-0.133	0.118
-696.470	157.285	0.143	-0.201
-695.456	-14.284	0.277	-0.181
-694.441	9.387	-0.214	-0.164
-693.426	-29.205	-0.086	-0.050
-692.412	-19.279	-0.170	0.107
-691.397	-131.862	-0.271	-0.036
-690.383	800.000	-0.106	-0.307
-689.368	661.370	-0.073	0.191
-688.354	-132.278	-0.202	-0.026
-687.339	-57.677	0.215	0.096
-686.324	149.235	-0.098	0.135
-685.310	-159.140	-0.231	-0.013
-684.295	-127.498	0.218	-0.032
-683.281	-200.000	0.026	-0.217
-682.266	-200.000	0.038	-0.184
-681.251	800.000	0.119	-0.486
-680.237	-17.809	0.207	-0.131
-679.222	-125.064	-0.099	-0.015
-678.208	-200.000	-0.031	0.304
-677.193	-169.972	0.447	0.016
-676.178	-118.535	0.296	-0.053
-675.164	-200.000	0.030	-0.158
-674.149	-200.000	0.034	-0.179
-673.135	-200.000	-0.014	-0.264
-672.120	184.749	0.098	-0.147
-671.105	98.422	0.088	0.102
-670.091	-140.729	-0.012	0.001
-669.076	-108.462	-0.166	0.036
-668.062	800.000	-0.038	0.144
-667.047	-200.000	0.004	-0.140
-666.032	-140.326	-0.274	-0.029
-665.018	-15.994	0.153	-0.099
-664.003	197.789	-0.147	-0.227
-662.989	128.971	0.243	0.313
-661.974	308.301	-0.022	0.041
-660.959	-12.223	0.276	-0.183
-659.945	-114.732	-0.043	0.008
-658.930	-144.033	0.191	-0.018
-657.916	175.660	-0.193	0.283
-656.901	-61.936	0.409	0.173
-655.886	-78.451	0.270	-0.093
-654.872	-130.962	-0.202	0.027
-653.857	-19.174	0.331	0.208
-652.843	103.329	-0.145	0.172
-651.828	472.544	0.078	-0.177
-650.814	266.826	-0.098	0.174
-649.799	447.616	-0.032	-0.071
-648.784	-87.539	0.326	0.100
-647.770	-120.828	-0.123	-0.021
-646.755	-200.000	0.021	-0.186
-645.741	-112.935	0.087	0.017
-644.726	800.000	0.074	-0.223
-643.711	-29.588	-0.209	-0.121
-642.697	800.000	0.040	-0.134
-641.682	-200.000	0.007	0.049
-640.668	-149.169	-0.105	-0.008
-639.653	-31.348	-0.164	0.093
-638.638	2.891	0.132	-0.097
-637.624	-200.000	0.037	-0.227
-636.609	-131.941	0.326	0.043
-635.595	15.870	0.050	0.039
-634.580	800.000	-0.100	-0.299
-633.565	-200.000	-0.008	-0.090
-632.551	-81.781	-0.187	-0.062
-631.536	800.000	-0.019	-0.066
-630.522	-200.000	-0.061	0.272
-629.507	152.355	0.198	0.273
-628.492	800.000	-0.115	-0.350
-627.478	-38.713	-0.127	-0.068
-626.463	-177.975	-0.284	-0.007
-625.449	-152.096	-0.141	0.010
-624.434	48.945	0.180	0.171
-623.419	-200.000	0.004	0.247
-622.405	-77.610	0.151	-0.053
-621.390	-130.357	0.204	0.028
-620.376	-200.000	0.014	-0.104
-619.361	-144.156	0.335	-0.032
-618.346	300.417	-0.016	-0.030
-617.332	383.200	-0.111	-0.231
-616.317	-200.000	0.055	-0.283
-615.303	-87.492	-0.330	-0.101
-614.288	155.574	-0.067	0.094
-613.273	485.575	-0.062	-0.142
-612.259	-55.499	0.318	-0.144
-611.244	56.304	0.123	-0.121
-610.230	68.381	-0.238	-0.246
-609.215	-97.753	0.222	0.058
-608.201	497.286	0.062	-0.145
-607.186	-33.122	-0.160	-0.089
-606.171	800.000	0.040	-0.123
-605.157	800.000	-0.071	0.303
-604.142	-200.000	-0.038	0.228
-603.128	800.000	0.040	0.127
-602.113	-127.686	0.289	-0.042
-601.098	-58.240	0.063	-0.028
-600.084	283.451	-0.060	0.109
-599.069	-0.104	-0.177	-0.127
-598.055	-48.508	0.229	-0.111
-597.040	800.000	-0.082	-0.342
-596.025	-200.000	-0.037	-0.517
-595.011	-13.789	0.155	-0.101
-593.996	185.294	0.090	-0.134
-592.982	-200.000	-0.054	-0.323
-591.967	265.490	-0.115	0.203
-590.952	-103.153	-0.102	0.024
-589.938	-22.602	0.263	0.160
-588.923	-98.277	0.122	-0.032
-587.909	-147.464	-0.336	-0.029
-586.894	-66.133	0.199	-0.080
-585.879	602.264	-0.048	0.121
-584.865	-200.000	0.015	0.138
-583.850	-176.755	0.075	0.002
-582.836	116.505	0.152	0.188
-581.821	-18.468	-0.291	0.183
-580.806	-12.767	0.203	0.133
-579.792	-84.382	0.260	0.083
-578.777	18.161	0.116	0.093
-577.763	-200.000	-0.052	-0.354
-576.748	800.000	-0.059	0.226
-575.733	404.035	0.124	0.263
-574.719	59.045	-0.098	0.097
-573.704	-54.541	-0.057	-0.026
-572.690	-200.000	-0.071	-0.385
-571.675	213.558	-0.068	0.108
-570.661	392.192	-0.153	-0.321
-569.646	-68.574	-0.234	-0.091
-568.631	-77.468	-0.120	0.042
-567.617	402.037	-0.064	0.136
-566.602	-32.976	-0.080	0.045
-565.588	-197.877	0.512	0.003
-564.573	-148.060	-0.130	-0.011
-563.558	-69.929	-0.251	-0.096
-562.544	-17.579	0.103	0.065
-561.529	800.000	-0.018	-0.063
-560.515	-54.004	0.357	-0.164
-559.500	-188.456	-0.342	-0.004
-558.485	-74.598	-0.239	0.087
-557.471	29.889	-0.138	-0.118
-556.456	-200.000	-0.019	-0.248
-555.442	-63.788	-0.451	-0.186
-554.427	800.000	-0.059	0.165
-553.412	-116.685	-0.224	-0.041
-552.398	-200.000	-0.016	-0.168
-551.383	50.797	0.277	0.264
-550.369	296.719	0.015	-0.028
-549.354	-112.544	0.265	0.053
-548.339	-124.196	-0.427	-0.067
-547.325	-169.935	0.144	0.005
-546.310	800.000	-0.015	0.042
-545.296	-174.250	-0.214	-0.006
-544.281	-84.858	0.262	0.083
-543.266	-200.000	0.048	0.213
-542.252	-137.394	-0.067	0.008
-541.237	-200.000	0.049	-0.284
-540.223	-126.727	-0.055	0.008
-539.208	105.642	0.188	0.224
-538.193	800.000	-0.070	0.203
-537.179	163.532	0.177	0.250
-536.164	99.324	-0.066	0.076
-535.150	177.858	-0.038	0.056
-534.135	-200.000	-0.030	-0.333
-533.121	-200.000	-0.006	0.235
-532.106	10.510	0.339	0.260
-531.091	-18.722	0.276	-0.173
-530.077	121.595	0.150	0.188
-529.062	-200.000	-0.043	0.385
-528.048	9.177	0.117	-0.089
-527.033	-63.615	-0.246	-0.102
-526.018	30.150	-0.152	-0.130
-525.004	63.222	-0.186	-0.187
-523.989	-200.000	-0.027	-0.300
-522.975	-38.766	-0.348	0.185
-521.960	800.000	-0.066	-0.196
-520.945	-71.095	0.251	0.095
-519.931	641.870	-0.145	0.372
-518.916	1.277	-0.003	0.003
-517.902	-18.367	0.150	0.094
-516.887	-200.000	0.016	-0.319
-515.872	471.275	-0.022	0.049
-514.858	341.218	-0.085	0.167
-513.843	-64.038	0.084	0.034
-512.829	-135.640	-0.204	-0.024
-511.814	-112.886	0.344	-0.069
-510.799	800.000	0.151	-0.448
-509.785	-108.295	-0.183	0.040
-508.770	14.660	0.075	-0.059
-507.756	-28.547	0.209	-0.121
-506.741	-50.585	-0.167	0.079
-505.726	-200.000	0.008	0.230
-504.712	-200.000	0.039	0.394
-503.697	-88.250	-0.281	0.085
-502.683	399.475	-0.044	-0.092
-501.668	800.000	-0.037	-0.106
-500.653	17.153	0.076	-0.060
-499.639	19.136	0.098	-0.079
-498.624	800.000	0.093	0.330
-497.610	386.579	0.067	-0.139
-496.595	-35.629	0.328	0.179
-495.581	-22.531	-0.338	0.206
-494.566	119.019	0.172	0.214
-493.551	-200.000	-0.000	0.020
-492.537	361.840	-0.020	0.040
-491.522	-150.539	-0.109	-0.008
-490.508	596.378	0.012	-0.029
-489.493	-40.651	-0.273	0.142
-488.478	-10.396	-0.144	-0.096
-487.464	3.251	-0.108	-0.079
-486.449	87.584	0.061	0.068
-485.435	-99.470	0.334	0.084
-484.420	18.013	-0.110	0.088
-483.405	-19.611	0.191	0.119
-482.391	326.571	-0.103	-0.199
-481.376	-141.297	-0.210	-0.021
-480.362	-3.479	-0.214	0.150
-479.347	-200.000	-0.029	0.468
-478.332	-81.941	-0.149	0.049
-477.318	-80.629	-0.197	-0.066
-476.303	-137.494	0.108	0.012
-475.289	-71.573	-0.405	0.152
-474.274	-23.163	0.141	-0.085
-473.259	-6.580	0.077	0.053
-472.245	-200.000	0.077	-0.532
-471.230	156.656	-0.051	-0.070
-470.216	-1.644	-0.138	-0.097
-469.201	-200.000	-0.000	-0.128
-468.186	133.177	-0.094	-0.121
-467.172	-92.895	-0.332	-0.093
-466.157	-200.000	0.001	0.036
-465.143	2.186	-0.073	0.053
-464.128	155.575	-0.121	0.167
-463.113	16.137	0.176	-0.139
-462.099	240.824	-0.028	0.047
-461.084	-200.000	0.004	0.112
-460.070	-53.674	0.177	0.081
-459.055	-200.000	0.057	0.415
-458.040	-200.000	0.006	-0.060
-457.026	69.510	0.139	-0.143
-456.011	-123.731	-0.308	-0.049
-454.997	-44.268	-0.282	-0.142
-453.982	800.000	-0.071	-0.198
-452.968	-116.698	-0.103	-0.019
-451.953	8.913	0.295	-0.223
-450.938	-200.000	-0.023	-0.257
-449.924	0.988	-0.119	-0.085
-448.909	7.160	0.277	0.207
-447.895	121.423	-0.170	0.213
-446.880	536.566	-0.217	0.516
-445.865	26.413	0.117	0.098
-444.851	800.000	-0.014	-0.049
-443.836	59.530	-0.047	0.047
-442.822	784.453	0.060	0.165
-441.807	-200.000	-0.030	-0.223
-440.792	113.506	-0.269	-0.328
-439.778	-155.180	0.161	-0.011
-438.763	-200.000	0.039	0.286
-437.749	-124.406	-0.230	0.036
-436.734	-32.011	0.407	0.229
-435.719	-200.000	-0.053	-0.363
-434.705	-51.717	-0.044	-0.021
-433.690	-42.472	0.123	-0.063
-432.676	-200.000	-0.010	-0.380
-431.661	-19.409	-0.073	0.046
-430.646	255.085	0.210	0.360
-429.632	-135.522	-0.455	0.054
-428.617	-143.372	0.228	-0.022
-427.603	210.264	-0.210	-0.331
-426.588	800.000	0.025	-0.104
-425.573	-50.746	-0.101	0.048
-424.559	800.000	0.023	-0.064
-423.544	-200.000	-0.018	0.136
-422.530	118.438	0.109	-0.134
-421.515	-17.832	-0.114	-0.072
-420.500	-200.000	0.050	-0.230
-419.486	-40.525	-0.137	0.071
-418.471	-21.511	0.145	-0.089
-417.457	800.000	-0.039	-0.124
-416.442	243.445	-0.037	0.062
-415.428	-120.858	-0.207	0.035
-414.413	285.279	0.156	0.281
-413.398	-200.000	0.006	0.149
-412.384	576.799	-0.057	-0.139
-411.369	-71.198	0.108	0.040
-410.355	120.537	-0.247	0.308
-409.340	-132.482	0.189	-0.024
-408.325	-42.738	-0.341	0.174
-407.311	287.158	-0.072	-0.130
-406.296	-108.695	-0.150	0.032
-405.282	306.600	0.134	-0.250
-404.267	-78.917	0.058	-0.020
-403.252	139.786	0.110	0.145
-402.238	-14.826	-0.134	-0.086
-401.223	-14.787	-0.038	0.024
-400.209	-4.969	-0.172	0.118
-399.194	-200.000	-0.005	-0.226
-398.179	101.716	-0.072	-0.084
-397.165	-33.154	-0.190	-0.105
-396.150	-10.065	0.219	0.146
-395.136	167.062	0.163	0.231
-394.121	-200.000	-0.005	0.082
-393.106	-57.098	0.474	-0.209
-392.092	-65.490	-0.317	0.128
-391.077	97.008	0.180	0.206
-390.063	-134.478	0.135	-0.017
-389.048	62.985	-0.312	0.313
-388.033	316.750	0.142	0.269
-387.019	-200.000	0.013	-0.178
-386.004	800.000	-0.052	-0.218
-384.990	-95.535	0.079	0.021
-383.975	543.634	0.112	-0.267
-382.960	-89.379	0.283	0.083
-381.946	-3.433	0.176	0.122
-380.931	74.564	-0.183	0.193
-379.917	-200.000	0.016	0.223
-378.902	-5.405	0.169	0.116
-377.888	-200.000	-0.119	0.001
-376.873	302.609	-0.083	-0.153
-375.858	-138.056	0.143	-0.016
-374.844	-114.584	0.338	0.065
-373.829	-30.505	-0.116	-0.066
-372.815	16.659	-0.122	-0.097
-371.800	-66.072	0.150	0.060
-370.785	10.712	-0.035	0.027
-369.771	-200.000	0.008	0.120
-368.756	22.880	0.184	0.151
-367.742	-110.298	0.210	-0.044
-366.727	249.801	-0.017	-0.029
-365.712	4.463	-0.090	0.066
-364.698	-104.670	0.032	0.007
-363.683	21.014	-0.209	-0.170
-362.669	119.374	0.241	0.298
-361.654	-200.000	0.023	-0.378
-360.639	-200.000	0.005	0.204
-359.625	-180.383	0.325	0.007
-358.610	-113.620	-0.251	0.049
-357.596	800.000	-0.079	-0.243
-356.581	-133.089	0.298	0.038
-355.566	79.773	-0.204	-0.219
-354.552	800.000	0.014	0.055
-353.537	551.006	-0.144	0.345
-352.523	-0.813	0.295	0.209
-351.508	-17.202	-0.085	-0.054
-350.493	79.925	0.073	-0.078
-349.479	-191.511	-0.113	0.001
-348.464	-200.000	-0.011	0.259
-347.450	-137.045	-0.177	0.020
-346.435	724.026	0.070	-0.187
-345.420	800.000	-0.025	-0.101
-344.406	-200.000	-0.037	-0.219
-343.391	-200.000	-0.010	0.057
-342.377	435.858	-0.115	0.250
-341.362	180.785	0.108	0.158
-340.348	-32.581	0.203	-0.113
-339.333	-28.026	0.267	0.154
-338.318	-73.599	0.155	-0.057
-337.304	327.520	-0.034	0.065
-336.289	800.000	-0.074	0.238
-335.275	-36.118	-0.215	0.116
-334.260	-101.333	0.131	-0.032
-333.245	515.895	-0.066	0.153
-332.231	326.851	-0.027	-0.052
-331.216	-117.713	-0.087	-0.016
-330.202	-200.000	0.042	-0.229
-329.187	-192.535	-0.037	-0.000
-328.172	130.255	-0.090	0.115
-327.158	-141.560	-0.035	0.004
-326.143	-135.437	0.042	0.005
-325.129	223.925	0.202	0.326
-324.114	-200.000	-0.004	0.463
-323.099	-70.543	0.037	-0.014
-322.085	93.435	-0.104	0.118
-321.070	-200.000	-0.006	-0.209
-320.056	-194.657	-0.153	-0.001
-319.041	244.129	-0.117	-0.197
-318.026	-77.262	0.096	0.033
-317.012	768.571	0.165	0.448
-315.997	-200.000	0.023	0.176
-314.983	-200.000	0.057	-0.343
-313.968	747.117	0.056	0.150
-312.953	405.135	-0.134	0.281
-311.939	30.849	0.133	-0.114
-310.924	-71.434	0.202	0.075
-309.910	-167.444	-0.141	-0.006
-308.895	-200.000	0.024	-0.133
-307.880	44.360	0.383	0.351
-306.866	3.202	-0.023	0.017
-305.851	135.797	-0.238	-0.309
-304.837	53.019	-0.281	-0.268
-303.822	-200.000	-0.028	0.423
-302.807	-6.798	0.354	0.240
-301.793	800.000	0.070	0.272
-300.778	11.204	0.192	0.147
-299.764	-95.208	-0.235	-0.063
-298.749	293.821	-0.277	-0.505
-297.735	-1.776	0.258	0.181
-296.720	31.200	-0.235	0.201
-295.705	-35.901	-0.115	0.062
-294.691	147.531	0.119	0.160
-293.676	302.193	0.044	0.081
-292.662	210.700	-0.118	-0.185
-291.647	-200.000	0.029	0.243
-290.632	-200.000	0.017	-0.227
-289.618	-92.628	-0.056	-0.016
-288.603	-112.275	0.096	-0.019
-287.589	-200.000	-0.072	0.399
-286.574	61.843	-0.071	0.071
-285.559	109.116	-0.211	0.252
-284.545	-63.711	0.312	-0.127
-283.530	-138.473	-0.179	-0.020
-282.516	-200.000	0.029	0.126
-281.501	125.289	0.254	-0.320
-280.486	-29.222	-0.227	0.129
-279.472	318.114	0.172	-0.324
-278.457	491.459	0.135	0.308
-277.443	-106.250	0.329	0.074
-276.428	-30.666	-0.106	0.060
-275.413	-200.000	-0.016	-0.118
-274.399	-200.000	0.014	0.329
-273.384	135.791	-0.085	-0.110
-272.370	-181.110	0.109	0.002
-271.355	800.000	0.075	-0.207
-270.340	144.321	0.232	-0.308
-269.326	800.000	0.094	-0.280
-268.311	-95.277	-0.209	0.056
-267.297	-120.222	0.185	-0.031
-266.282	800.000	0.116	0.364
-265.267	12.887	0.051	0.040
-264.253	-122.897	-0.252	-0.040
-263.238	390.999	-0.042	0.087
-262.224	-133.708	-0.193	-0.024
-261.209	752.900	0.079	-0.214
-260.195	4.573	0.159	-0.116
-259.180	28.313	-0.291	-0.245
-258.165	-116.584	-0.115	0.021
-257.151	-20.028	-0.168	-0.103
-256.136	162.535	0.054	0.075
-255.122	-200.000	-0.003	0.161
-254.107	-118.395	0.180	-0.032
-253.092	15.622	0.172	0.135
-252.078	-158.481	-0.244	0.014
-251.063	-200.000	-0.039	-0.206
-250.049	31.641	0.058	0.050
-249.034	278.019	0.067	-0.118
-248.019	800.000	0.039	-0.129
-247.005	-200.000	0.009	0.192
-245.990	-200.000	0.034	-0.200
-244.976	-200.000	0.071	-0.323
-243.961	800.000	-0.023	-0.068
-242.946	-173.100	0.146	-0.004
-241.932	-200.000	0.017	0.080
-240.917	91.765	-0.065	-0.073
-239.903	-11.860	0.217	-0.142
-238.888	27.772	-0.160	-0.134
-237.873	77.732	0.107	-0.114
-236.859	66.379	-0.196	0.198
-235.844	18.642	-0.120	-0.096
-234.830	800.000	-0.041	-0.130
-233.815	-54.981	0.075	-0.034
-232.800	46.515	-0.122	0.113
-231.786	144.302	-0.215	0.286
-230.771	-11.044	-0.118	-0.077
-229.757	-20.470	-0.147	-0.090
-228.742	-200.000	-0.029	-0.196
-227.727	-43.736	-0.156	0.078
-226.713	-6.681	0.176	0.119
-225.698	174.817	0.047	-0.068
-224.684	-200.000	-0.045	0.427
-223.669	125.100	-0.163	-0.205
-222.655	-80.739	-0.161	-0.053
-221.640	-77.211	-0.215	-0.074
-220.625	-120.560	0.559	0.094
-219.611	-36.977	0.341	-0.182
-218.596	-17.684	-0.202	0.126
-217.582	800.000	-0.074	0.303
-216.567	-200.000	-0.007	0.050
-215.552	-37.866	0.063	0.033
-214.538	20.369	-0.135	0.108
-213.523	-88.280	-0.102	-0.030
-212.509	209.206	-0.049	-0.077
-211.494	2.684	0.341	-0.246
-210.479	464.060	-0.167	0.370
-209.465	-144.927	0.307	-0.028
-208.450	-200.000	-0.059	0.330
-207.436	-142.539	-0.238	0.023
-206.421	-123.035	0.182	0.029
-205.406	-24.042	0.178	0.106
-204.392	208.883	-0.040	0.062
-203.377	-182.567	0.136	0.002
-202.363	217.456	0.119	-0.189
-201.348	-54.051	-0.293	-0.133
-200.333	-170.033	0.134	-0.005
-199.319	-111.313	0.275	-0.056
-198.304	-200.000	-0.007	-0.175
-197.290	278.132	0.061	-0.108
-196.275	-87.218	0.231	-0.070
-195.260	-59.946	0.251	0.107
-194.246	272.550	0.083	-0.146
-193.231	780.662	0.040	0.108
-192.217	34.116	-0.182	0.157
-191.202	-3.849	-0.113	0.078
-190.187	0.912	0.129	-0.092
-189.173	-122.188	0.480	-0.078
-188.158	545.809	-0.118	-0.281
-187.144	-42.393	0.052	-0.026
-186.129	-40.713	-0.202	-0.104
-185.114	32.638	0.147	0.126
-184.100	-160.386	-0.075	-0.004
-183.085	248.582	-0.197	-0.331
-182.071	87.775	0.054	0.059
-181.056	269.190	0.224	-0.391
-180.042	-200.000	-0.002	-0.369
-179.027	131.004	-0.180	0.229
-178.012	-200.000	-0.063	0.283
-176.998	-112.370	0.118	-0.023
-175.983	-114.753	-0.303	0.057
-174.969	-0.230	0.316	-0.223
-173.954	-200.000	0.024	-0.281
-172.939	-145.259	-0.397	-0.036
-171.925	-200.000	0.023	0.146
-170.910	-92.056	0.125	0.035
-169.896	433.030	-0.098	0.210
-168.881	34.856	0.163	-0.141
-167.866	-26.040	-0.369	0.215
-166.852	86.285	0.281	0.307
-165.837	125.764	-0.122	0.153
-164.823	-200.000	0.038	-0.213
-163.808	-79.342	0.296	-0.099
-162.793	-81.028	-0.031	-0.010
-161.779	128.811	-0.327	-0.413
-160.764	-6.790	-0.271	-0.183
-159.750	32.732	0.095	-0.081
-158.735	-23.171	0.035	-0.021
-157.720	-155.823	-0.049	0.003
-156.706	-134.909	-0.072	-0.009
-155.691	-71.138	-0.366	-0.136
-154.677	163.983	0.144	-0.201
-153.662	-50.874	0.446	-0.208
-152.647	48.814	-0.150	0.140
-151.633	222.777	-0.057	0.092
-150.618	107.045	-0.139	0.164
-149.604	-176.419	-0.116	-0.003
-148.589	51.603	0.129	-0.121
-147.574	306.741	-0.031	-0.057
-146.560	-2.001	0.065	-0.046
-145.545	-200.000	-0.007	0.046
-144.531	-59.723	0.155	-0.066
-143.516	238.942	0.113	-0.186
-142.502	-200.000	0.017	0.245
-141.487	219.948	0.167	-0.265
-140.472	23.488	-0.235	0.191
-139.458	800.000	0.071	0.249
-138.443	-200.000	-0.007	0.067
-137.429	-126.986	-0.047	-0.007
-136.414	782.432	0.054	-0.147
-135.399	800.000	0.016	0.063
-134.385	-44.841	0.117	-0.058
-133.370	-79.115	0.194	-0.065
-132.356	22.856	-0.059	0.048
-131.341	-200.000	0.018	0.285
-130.326	153.451	0.239	0.324
-129.312	-46.094	-0.259	0.127
-128.297	-133.185	-0.292	-0.037
-127.283	800.000	-0.067	0.218
-126.268	128.088	0.128	0.161
-125.253	-154.288	0.222	0.015
-124.239	-200.000	0.005	-0.376
-123.224	-148.734	0.105	0.008
-122.210	347.853	-0.067	-0.131
