DTS Sentinel unit serial number:	SN413079Multiplexer serial number:	ORYXHardware model number:	OX4-SRSoftware version number:	ORYX F/W v4.00 Oryx Data Collector v3.7.2.0data status	okinstallation	princeton_trtdifferential loss correction	single-endedforward channel	channel 3reverse channel	N/Adate	2019/09/17time	05:00:34forward acquisition time	60.00reverse acquisition time	0.00gamma	496.2192k internal	0.2324k external	0.2324temperature offset calibration	0.9944default loss term (dB/km)	0.3790temperature slope calibration	1.0000multiplexer offset coefficient	1.0000multiplexer slope coefficient	1.0000fibre end	0.00T internal ref (°C)	29.50T ext. ref 1 (°C)	0.13T ext. ref 2 (°C)	23.94length (m)	temperature (°C)	Stokes	anti-Stokes-747.200	512.936	-0.072	0.169
-746.185	-64.256	-0.085	-0.035
-745.171	-60.990	-0.113	-0.048
-744.156	-69.841	-0.429	0.165
-743.142	-8.731	-0.268	-0.182
-742.127	201.027	-0.199	0.308
-741.112	-70.592	-0.179	0.068
-740.098	120.651	-0.125	0.157
-739.083	800.000	0.038	0.144
-738.069	204.971	-0.162	0.254
-737.054	132.869	-0.102	0.133
-736.039	39.090	-0.239	-0.216
-735.025	16.620	-0.092	-0.073
-734.010	-200.000	-0.006	0.091
-732.996	102.700	0.181	-0.213
-731.981	723.701	-0.180	-0.485
-730.966	14.715	0.177	-0.140
-729.952	-16.944	0.110	-0.070
-728.937	-81.149	-0.253	0.084
-727.923	-59.486	0.308	-0.133
-726.908	31.844	0.164	0.143
-725.894	-112.220	-0.201	0.041
-724.879	-186.735	-0.181	-0.003
-723.864	-120.433	0.039	-0.007
-722.850	252.398	-0.118	0.203
-721.835	454.806	-0.035	-0.079
-720.821	-79.509	-0.171	0.058
-719.806	-200.000	0.003	-0.047
-718.791	-200.000	-0.011	-0.198
-717.777	17.073	-0.149	-0.119
-716.762	66.613	-0.038	-0.039
-715.748	-89.887	0.209	-0.062
-714.733	-200.000	0.032	-0.184
-713.718	-34.066	-0.190	-0.105
-712.704	-158.388	-0.131	0.008
-711.689	-9.768	-0.155	-0.104
-710.675	-200.000	0.043	-0.302
-709.660	-113.900	-0.104	0.020
-708.645	-154.464	-0.304	-0.021
-707.631	490.277	-0.034	0.078
-706.616	129.478	0.207	-0.266
-705.602	337.770	0.115	-0.226
-704.587	572.976	-0.112	-0.275
-703.572	82.423	-0.149	-0.163
-702.558	-200.000	-0.074	-0.369
-701.543	-200.000	-0.012	-0.202
-700.529	351.007	0.030	-0.061
-699.514	68.449	0.096	-0.100
-698.499	-38.545	0.012	-0.006
-697.485	-3.450	0.197	0.138
-696.470	-200.000	-0.036	0.173
-695.456	225.390	0.036	-0.059
-694.441	-84.907	-0.149	0.047
-693.426	394.074	-0.096	-0.202
-692.412	44.079	0.081	-0.075
-691.397	10.020	0.037	0.029
-690.383	0.874	0.216	0.156
-689.368	-141.793	-0.157	0.016
-688.354	-200.000	-0.024	-0.126
-687.339	84.868	0.031	-0.034
-686.324	235.834	0.053	0.088
-685.310	-200.000	0.028	-0.282
-684.295	-83.588	-0.220	0.071
-683.281	-21.945	-0.236	-0.145
-682.266	-40.261	0.190	0.099
-681.251	41.036	-0.169	-0.154
-680.237	-28.244	0.183	-0.106
-679.222	-4.094	-0.196	0.137
-678.208	-101.723	-0.251	-0.061
-677.193	-114.861	-0.087	0.017
-676.178	-200.000	-0.056	-0.569
-675.164	-200.000	0.000	-0.250
-674.149	-200.000	-0.020	-0.228
-673.135	-117.328	-0.145	-0.027
-672.120	8.258	0.068	-0.051
-671.105	-122.025	-0.198	-0.033
-670.091	-1.188	0.155	0.110
-669.076	-104.888	0.183	0.042
-668.062	129.386	-0.068	0.087
-667.047	-200.000	0.057	-0.370
-666.032	-200.000	0.038	-0.281
-665.018	417.781	0.169	0.364
-664.003	144.396	0.271	-0.364
-662.989	800.000	0.052	0.160
-661.974	79.154	-0.133	-0.143
-660.959	-71.793	0.038	0.014
-659.945	16.863	-0.218	0.173
-658.930	800.000	-0.038	0.121
-657.916	593.218	0.161	0.401
-656.901	-200.000	-0.022	-0.225
-655.886	-165.043	-0.029	0.001
-654.872	100.017	-0.082	-0.095
-653.857	112.207	-0.060	-0.073
-652.843	340.493	-0.068	0.133
-651.828	800.000	-0.052	0.161
-650.814	-200.000	-0.007	0.135
-649.799	-200.000	-0.043	-0.372
-648.784	-48.530	-0.266	0.128
-647.770	320.300	0.083	0.159
-646.755	-200.000	-0.003	0.263
-645.741	800.000	-0.081	0.240
-644.726	800.000	0.061	-0.194
-643.711	51.587	-0.104	0.099
-642.697	90.223	0.276	0.311
-641.682	-64.570	-0.174	0.071
-640.668	-200.000	0.006	0.246
-639.653	17.265	-0.080	0.064
-638.638	800.000	0.103	-0.316
-637.624	-58.014	0.076	-0.033
-636.609	800.000	-0.044	0.160
-635.595	-200.000	0.001	-0.003
-634.580	385.621	-0.074	-0.154
-633.565	352.963	0.132	0.262
-632.551	-83.954	-0.062	-0.020
-631.536	-48.761	0.351	-0.169
-630.522	196.220	-0.050	-0.077
-629.507	-117.303	-0.237	0.043
-628.492	268.263	0.138	0.243
-627.478	-200.000	-0.024	0.120
-626.463	-103.197	-0.349	0.083
-625.449	-200.000	-0.032	0.157
-624.434	-9.463	0.086	-0.058
-623.419	-127.691	-0.199	0.029
-622.405	-200.000	-0.031	0.243
-621.390	-79.311	-0.089	0.030
-620.376	132.922	0.161	0.209
-619.361	800.000	0.097	-0.333
-618.346	11.408	-0.137	0.106
-617.332	99.273	-0.067	-0.078
-616.317	-200.000	0.038	0.252
-615.303	-148.136	0.045	-0.004
-614.288	-72.988	0.212	-0.078
-613.273	-104.886	-0.209	0.048
-612.259	800.000	-0.050	-0.221
-611.244	113.456	-0.130	-0.159
-610.230	-171.448	0.150	-0.005
-609.215	-123.343	-0.193	-0.031
-608.201	-194.018	0.342	0.003
-607.186	151.136	-0.333	0.455
-606.171	-200.000	0.023	0.675
-605.157	23.642	0.143	0.118
-604.142	-108.150	0.317	-0.069
-603.128	-200.000	0.025	-0.124
-602.113	25.265	0.032	0.026
-601.098	-57.337	-0.161	0.071
-600.084	74.492	-0.493	-0.520
-599.069	-200.000	-0.008	0.039
-598.055	-11.019	0.084	-0.056
-597.040	-200.000	0.016	-0.484
-596.025	-200.000	-0.011	0.162
-595.011	-46.800	0.055	-0.027
-593.996	-43.700	0.037	0.019
-592.982	-64.690	0.137	0.056
-591.967	6.469	-0.138	-0.103
-590.952	119.282	-0.109	-0.135
-589.938	206.320	0.089	-0.140
-588.923	-77.121	-0.131	0.046
-587.909	161.011	0.118	0.166
-586.894	354.337	0.050	-0.100
-585.879	76.011	-0.158	-0.168
-584.865	-112.935	0.056	0.011
-583.850	62.750	0.174	0.175
-582.836	-200.000	0.057	0.379
-581.821	52.918	-0.119	-0.114
-580.806	800.000	-0.037	0.148
-579.792	-200.000	-0.044	-0.222
-578.777	-3.477	0.126	0.088
-577.763	-132.301	0.590	-0.076
-576.748	-21.471	0.445	0.272
-575.733	17.312	0.239	0.190
-574.719	-35.692	-0.165	0.090
-573.704	46.026	-0.298	0.276
-572.690	-174.663	0.259	0.007
-571.675	-200.000	-0.002	0.032
-570.661	772.812	-0.057	-0.155
-569.646	800.000	-0.061	-0.269
-568.631	330.511	-0.064	-0.124
-567.617	-69.772	0.133	-0.051
-566.602	-200.000	0.020	0.177
-565.588	45.140	0.228	0.211
-564.573	-200.000	-0.011	0.092
-563.558	-69.429	0.024	-0.009
-562.544	146.701	0.107	0.144
-561.529	-28.553	0.120	-0.069
-560.515	2.907	0.276	0.201
-559.500	-15.349	0.388	-0.248
-558.485	619.501	0.126	0.318
-557.471	-200.000	-0.007	-0.507
-556.456	-133.485	-0.444	-0.056
-555.442	-26.354	-0.191	-0.112
-554.427	-120.158	0.029	-0.005
-553.412	-80.898	-0.139	-0.046
-552.398	-67.577	0.086	-0.034
-551.383	-200.000	0.010	-0.170
-550.369	-200.000	-0.021	0.127
-549.354	-200.000	0.024	0.178
-548.339	-29.027	0.295	0.170
-547.325	-130.162	0.089	-0.012
-546.310	470.863	0.049	0.110
-545.296	800.000	0.027	-0.091
-544.281	200.612	-0.072	-0.111
-543.266	800.000	0.079	0.227
-542.252	-0.124	-0.181	0.129
-541.237	123.309	0.186	-0.233
-540.223	277.321	0.173	0.309
-539.208	-200.000	-0.030	-0.152
-538.193	-89.315	-0.267	-0.079
-537.179	-169.389	-0.415	-0.015
-536.164	800.000	0.038	0.121
-535.150	-156.119	-0.131	-0.008
-534.135	286.570	0.011	-0.020
-533.121	200.750	-0.088	0.136
-532.106	410.352	0.081	-0.172
-531.091	800.000	-0.051	-0.141
-530.077	-84.174	0.252	0.080
-529.062	-143.423	-0.089	0.008
-528.048	623.331	-0.049	0.123
-527.033	79.832	0.129	-0.139
-526.018	-82.116	0.277	-0.091
-525.004	-157.954	-0.303	-0.018
-523.989	120.887	0.375	-0.466
-522.975	-175.883	-0.145	0.004
-521.960	-76.572	-0.053	-0.019
-520.945	274.009	-0.097	-0.172
-519.931	8.938	-0.104	0.079
-518.916	370.741	-0.083	-0.167
-517.902	-101.556	0.133	0.032
-516.887	-129.609	-0.097	0.013
-515.872	0.781	-0.145	-0.104
-514.858	-82.696	0.139	0.045
-513.843	43.188	0.167	-0.153
-512.829	9.252	0.138	-0.104
-511.814	82.441	0.074	-0.081
-510.799	800.000	-0.080	0.223
-509.785	258.188	-0.028	0.048
-508.770	-32.029	0.150	0.084
-507.756	-200.000	-0.043	-0.462
-506.741	707.427	0.054	-0.142
-505.726	30.669	0.124	0.106
-504.712	-200.000	-0.043	-0.438
-503.697	-56.186	-0.059	-0.026
-502.683	24.212	0.209	-0.173
-501.668	117.414	-0.257	-0.316
-500.653	-129.230	-0.390	0.054
-499.639	-178.470	0.318	0.007
-498.624	-8.614	-0.137	-0.092
-497.610	83.718	0.066	-0.072
-496.595	172.145	0.013	-0.018
-495.581	-95.969	-0.042	0.011
-494.566	194.861	-0.328	0.498
-493.551	456.055	0.107	0.238
-492.537	-39.990	0.121	0.063
-491.522	23.329	-0.170	-0.139
-490.508	-74.891	-0.085	-0.030
-489.493	-89.243	0.279	0.082
-488.478	12.090	0.259	0.199
-487.464	-71.637	0.185	-0.069
-486.449	-117.286	0.518	0.094
-485.435	-200.000	0.000	-0.101
-484.420	-195.745	-0.161	-0.001
-483.405	-68.967	0.183	0.071
-482.391	44.241	-0.091	0.084
-481.376	-13.362	0.071	-0.046
-480.362	-200.000	0.014	-0.386
-479.347	310.802	0.086	0.161
-478.332	45.645	-0.088	-0.081
-477.318	-4.264	0.310	-0.214
-476.303	-60.306	-0.047	0.020
-475.289	157.560	-0.045	0.063
-474.274	-200.000	0.072	0.344
-473.259	-26.081	-0.113	0.066
-472.245	-115.993	0.174	-0.032
-471.230	-200.000	0.023	-0.361
-470.216	581.391	0.079	0.192
-469.201	245.317	-0.049	-0.083
-468.186	800.000	-0.154	0.522
-467.172	-64.171	-0.321	0.131
-466.157	-179.071	0.204	-0.005
-465.143	-200.000	0.061	0.431
-464.128	800.000	0.079	0.293
-463.113	-125.568	0.337	-0.051
-462.099	30.184	0.265	-0.226
-461.084	-134.031	0.185	0.023
-460.070	23.009	0.157	-0.128
-459.055	-200.000	0.017	-0.185
-458.040	-67.956	-0.323	-0.126
-457.026	141.960	-0.062	0.082
-456.011	89.924	0.092	-0.103
-454.997	-182.545	0.262	-0.005
-453.982	154.179	-0.172	-0.236
-452.968	800.000	-0.098	0.410
-451.953	-69.352	-0.389	0.149
-450.938	74.612	-0.319	-0.335
-449.924	-92.873	0.063	0.018
-448.909	-49.139	0.100	0.048
-447.895	-200.000	0.007	0.036
-446.880	26.811	0.303	0.254
-445.865	40.505	-0.162	-0.145
-444.851	133.806	0.230	-0.296
-443.836	-10.244	-0.249	-0.165
-442.822	298.028	-0.096	-0.176
-441.807	32.046	-0.223	0.191
-440.792	800.000	0.074	0.222
-439.778	374.348	-0.039	0.079
-438.763	-135.281	-0.216	0.026
-437.749	-115.056	0.124	-0.023
-436.734	-200.000	0.017	-0.280
-435.719	-99.014	-0.167	-0.042
-434.705	-52.550	-0.250	-0.115
-433.690	-34.656	0.201	-0.110
-432.676	104.839	-0.131	-0.154
-431.661	633.583	0.022	-0.057
-430.646	-139.462	0.079	0.008
-429.632	74.100	-0.155	0.163
-428.617	-29.388	-0.040	0.023
-427.603	149.595	-0.254	-0.343
-426.588	21.167	-0.322	-0.261
-425.573	65.182	0.105	-0.106
-424.559	-200.000	0.017	-0.205
-423.544	149.232	0.185	-0.250
-422.530	727.981	0.056	0.150
-421.515	531.300	-0.055	-0.129
-420.500	-32.334	0.050	-0.028
-419.486	-87.918	0.319	-0.096
-418.471	-0.584	-0.134	-0.095
-417.457	-200.000	0.001	-0.016
-416.442	-200.000	0.009	-0.171
-415.428	-130.873	0.111	0.015
-414.413	20.565	-0.048	0.039
-413.398	-169.222	0.234	0.009
-412.384	800.000	0.086	-0.256
-411.369	-13.252	-0.166	-0.107
-410.355	-84.767	0.198	0.062
-409.340	800.000	-0.115	0.331
-408.325	-3.147	0.196	-0.136
-407.311	-69.488	0.120	0.046
-406.296	-200.000	0.052	0.241
-405.282	223.738	-0.151	-0.243
-404.267	-132.635	-0.233	0.030
-403.252	19.075	-0.351	-0.281
-402.238	134.283	-0.301	-0.389
-401.223	-57.966	-0.180	-0.078
-400.209	116.395	-0.201	-0.246
-399.194	41.406	0.242	-0.218
-398.179	-14.298	0.399	0.256
-397.165	-96.300	-0.175	-0.046
-396.150	-107.107	-0.222	-0.049
-395.136	-1.693	-0.159	0.112
-394.121	737.743	-0.122	0.326
-393.106	-68.732	-0.194	0.075
-392.092	118.387	0.113	0.139
-391.077	-47.229	0.075	0.036
-390.063	-140.228	0.322	0.034
-389.048	-48.504	0.412	-0.197
-388.033	-40.301	-0.276	-0.143
-387.019	-167.423	-0.141	-0.006
-386.004	0.113	-0.205	-0.145
-384.990	660.203	0.125	-0.320
-383.975	-200.000	0.012	0.141
-382.960	239.216	0.123	-0.203
-381.946	143.953	0.200	0.265
-380.931	290.035	0.112	0.203
-379.917	131.682	-0.434	-0.555
-378.902	-97.831	0.108	-0.028
-377.888	800.000	-0.046	-0.130
-376.873	97.959	0.149	0.171
-375.858	800.000	-0.119	0.432
-374.844	312.247	0.142	0.265
-373.829	-74.761	-0.235	-0.084
-372.815	-29.106	-0.167	0.095
-371.800	110.532	0.121	0.145
-370.785	-126.300	0.317	0.047
-369.771	-200.000	-0.003	0.021
-368.756	800.000	0.069	0.245
-367.742	-80.507	0.069	-0.023
-366.727	-132.695	0.150	0.019
-365.712	800.000	-0.057	-0.176
-364.698	-88.684	0.241	0.071
-363.683	-149.165	-0.317	-0.025
-362.669	199.075	-0.060	-0.092
-361.654	652.104	-0.106	0.270
-360.639	-200.000	-0.051	0.260
-359.625	-143.696	0.122	0.012
-358.610	171.798	-0.154	0.220
-357.596	770.708	0.022	-0.060
-356.581	179.424	-0.174	0.253
-355.566	-43.270	0.150	0.076
-354.552	-200.000	-0.024	0.111
-353.537	266.806	-0.124	0.216
-352.523	-200.000	0.026	0.175
-351.508	-40.112	0.250	-0.130
-350.493	-55.955	0.263	-0.117
-349.479	505.338	-0.035	0.079
-348.464	-200.000	-0.082	-0.465
-347.450	-132.366	-0.235	-0.030
-346.435	-43.939	0.190	-0.095
-345.420	-83.884	0.249	0.079
-344.406	-84.384	-0.145	-0.046
-343.391	178.984	-0.089	0.129
-342.377	-156.372	-0.293	-0.018
-341.362	-29.745	-0.082	0.046
-340.348	-200.000	-0.008	0.249
-339.333	-200.000	0.010	-0.119
-338.318	411.897	0.056	0.118
-337.304	800.000	0.156	0.453
-336.289	800.000	-0.042	-0.167
-335.275	-104.860	0.400	-0.091
-334.260	-36.919	0.089	-0.047
-333.245	-170.729	-0.304	-0.010
-332.231	800.000	0.078	-0.270
-331.216	-85.203	0.210	0.065
-330.202	800.000	-0.034	-0.137
-329.187	-36.058	0.110	0.059
-328.172	-200.000	-0.016	-0.129
-327.158	-200.000	0.002	0.149
-326.143	-92.027	0.091	-0.025
-325.129	577.129	-0.043	0.104
-324.114	-114.983	-0.306	0.058
-323.099	290.880	-0.070	0.126
-322.085	800.000	-0.089	-0.246
-321.070	-200.000	0.073	-0.353
-320.056	95.857	-0.162	0.183
-319.041	-172.681	0.394	0.012
-318.026	107.120	0.124	0.147
-317.012	-200.000	0.033	-0.265
-315.997	240.004	-0.310	-0.513
-314.983	37.359	-0.251	-0.221
-313.968	-102.497	0.504	0.120
-312.953	-200.000	0.015	0.241
-311.939	-191.234	0.245	-0.002
-310.924	-34.121	-0.233	-0.127
-309.910	-57.575	0.221	-0.096
-308.895	43.500	0.372	0.337
-307.880	-147.429	0.285	0.024
-306.866	101.031	-0.140	0.162
-305.851	-40.062	-0.193	0.100
-304.837	-60.115	0.267	0.113
-303.822	800.000	-0.085	0.261
-302.807	-200.000	0.040	0.218
-301.793	-44.915	0.382	-0.189
-300.778	281.280	0.084	0.149
-299.764	251.412	0.062	0.104
-298.749	340.272	-0.166	-0.321
-297.735	51.443	0.044	0.042
-296.720	-200.000	0.014	0.238
-295.705	300.199	-0.059	-0.108
-294.691	149.756	-0.147	-0.197
-293.676	-12.234	0.194	0.126
-292.662	-110.285	-0.161	0.033
-291.647	-191.900	-0.396	-0.004
-290.632	-200.000	0.025	0.439
-289.618	-195.815	-0.254	0.002
-288.603	-200.000	-0.060	-0.272
-287.589	-6.752	-0.136	0.092
-286.574	-181.744	-0.200	0.004
-285.559	-66.309	-0.060	0.024
-284.545	-200.000	0.037	-0.191
-283.530	-98.381	0.237	0.060
-282.516	393.696	0.098	0.202
-281.501	-73.171	-0.508	-0.184
-280.486	-46.421	-0.214	0.104
-279.472	157.382	-0.174	0.238
-278.457	71.849	0.230	0.237
-277.443	-24.968	0.323	0.190
-276.428	-200.000	-0.046	-0.228
-275.413	-32.441	-0.217	-0.120
-274.399	-40.903	0.130	0.067
-273.384	800.000	0.079	-0.222
-272.370	-109.600	0.100	-0.021
-271.355	156.743	0.068	0.093
-270.340	561.127	-0.152	-0.365
-269.326	66.172	0.070	0.070
-268.311	70.252	0.210	-0.215
-267.297	146.042	-0.225	0.299
-266.282	45.425	0.132	0.121
-265.267	31.757	0.119	0.101
-264.253	-200.000	0.058	-0.315
-263.238	800.000	0.070	0.211
-262.224	-95.425	0.112	0.030
-261.209	199.417	0.153	-0.233
-260.195	-74.092	-0.166	0.060
-259.180	-68.318	-0.159	0.061
-258.165	171.397	-0.227	0.323
-257.151	18.702	-0.186	0.147
-256.136	10.173	-0.193	-0.145
-255.122	214.725	0.141	0.221
-254.107	630.716	-0.052	0.130
-253.092	366.782	0.052	0.105
-252.078	-200.000	-0.013	-0.139
-251.063	800.000	0.117	0.325
-250.049	-47.183	-0.142	0.068
-249.034	-132.818	-0.043	-0.005
-248.019	-200.000	0.045	-0.253
-247.005	381.014	0.161	-0.326
-245.990	-173.119	-0.138	-0.004
-244.976	-200.000	0.002	-0.029
-243.961	376.890	-0.051	0.103
-242.946	-146.436	0.278	-0.024
-241.932	121.618	0.181	-0.223
-240.917	145.862	-0.215	0.285
-239.903	800.000	0.061	0.226
-238.888	-112.055	0.364	0.073
-237.873	-38.425	0.334	0.175
-236.859	689.244	-0.128	0.332
-235.844	-60.729	0.180	0.075
-234.830	22.605	0.485	-0.393
-233.815	-200.000	0.047	-0.264
-232.800	-26.063	-0.250	-0.146
-231.786	14.117	-0.281	-0.216
-230.771	105.890	-0.265	-0.310
-229.757	458.323	-0.158	-0.347
-228.742	-200.000	-0.001	-0.114
-227.727	-141.450	-0.164	0.016
-226.713	800.000	-0.049	-0.153
-225.698	-8.640	-0.113	0.075
-224.684	-200.000	0.062	0.340
-223.669	521.601	0.100	-0.232
-222.655	-124.847	-0.056	0.008
-221.640	54.225	0.134	0.127
-220.625	-100.802	-0.168	0.041
-219.611	-112.520	0.151	0.030
-218.596	153.468	0.235	-0.318
-217.582	-139.631	-0.339	0.036
-216.567	800.000	-0.086	0.279
-215.552	-200.000	-0.023	-0.120
-214.538	-101.853	-0.371	-0.089
-213.523	-200.000	0.021	-0.444
-212.509	117.782	-0.198	-0.241
-211.494	-136.245	-0.404	-0.047
-210.479	-47.864	0.285	0.136
-209.465	354.307	-0.152	-0.299
-208.450	11.288	0.268	0.203
-207.436	21.280	0.217	0.174
-206.421	-200.000	-0.012	0.069
-205.406	14.695	-0.208	0.161
-204.392	-160.731	-0.435	-0.023
-203.377	800.000	-0.083	-0.306
-202.363	-46.269	-0.110	-0.054
-201.348	-67.758	-0.238	-0.092
-200.333	-134.237	0.489	-0.059
-199.319	-200.000	-0.009	-0.053
-198.304	800.000	-0.062	-0.187
-197.290	-200.000	0.043	0.208
-196.275	375.560	-0.104	0.210
-195.260	414.794	0.092	-0.194
-194.246	63.189	-0.108	0.107
-193.231	-200.000	-0.332	-0.000
-192.217	-200.000	-0.052	-0.337
-191.202	-142.615	-0.258	-0.025
-190.187	-66.434	0.133	0.052
-189.173	-107.145	-0.030	0.006
-188.158	-200.000	0.044	0.405
-187.144	800.000	0.077	-0.224
-186.129	-81.581	-0.252	0.082
-185.114	17.049	0.028	0.022
-184.100	-17.018	0.088	-0.055
-183.085	1.114	0.171	-0.121
-182.071	-149.602	0.026	-0.002
-181.056	-115.446	-0.211	-0.039
-180.042	-48.061	-0.038	-0.018
-179.027	97.468	0.198	0.224
-178.012	214.688	-0.075	0.117
-176.998	-26.842	-0.118	-0.068
-175.983	43.995	-0.113	-0.102
-174.969	726.217	-0.123	0.324
-173.954	2.833	-0.183	0.131
-172.939	-200.000	-0.022	0.210
-171.925	-159.138	-0.094	0.005
-170.910	-195.527	-0.199	0.001
-169.896	-136.462	0.141	-0.016
-168.881	20.165	-0.144	0.115
-167.866	-200.000	0.028	-0.147
-166.852	-152.510	0.345	-0.024
-165.837	-12.819	0.069	0.044
-164.823	41.601	0.292	0.261
-163.808	-98.676	0.140	-0.035
-162.793	46.092	-0.111	0.102
-161.779	-74.881	-0.181	-0.064
-160.764	187.700	-0.042	-0.062
-159.750	31.757	-0.068	0.058
-158.735	45.897	0.107	-0.097
-157.720	-92.950	-0.220	-0.060
-156.706	-86.804	0.165	-0.050
-155.691	-200.000	-0.082	-0.406
-154.677	-128.631	0.283	0.039
-153.662	-113.558	-0.440	0.085
-152.647	-121.905	-0.129	-0.021
-151.633	665.773	0.119	0.304
-150.618	-200.000	-0.029	0.423
-149.604	800.000	-0.082	0.313
-148.589	-93.594	-0.050	-0.014
-147.574	466.607	0.150	0.331
-146.560	-2.892	-0.197	-0.136
-145.545	-200.000	0.017	0.256
-144.531	-200.000	0.033	0.394
-143.516	215.623	-0.119	0.187
-142.502	-90.450	0.368	0.105
-141.487	-200.000	-0.010	-0.064
-140.472	-125.180	-0.097	0.015
-139.458	172.002	0.083	-0.118
-138.443	-156.351	-0.070	-0.004
-137.429	800.000	-0.094	0.365
-136.414	-200.000	0.019	0.154
-135.399	25.844	0.259	0.213
-134.385	-102.161	0.282	-0.067
-133.370	-120.067	-0.107	-0.018
-132.356	800.000	0.042	-0.157
-131.341	64.638	0.172	0.171
-130.326	455.444	-0.070	-0.152
-129.312	535.675	-0.137	-0.320
-128.297	465.032	-0.161	0.354
-127.283	-200.000	0.029	0.138
-126.268	267.307	0.141	-0.243
-125.253	-147.489	-0.052	0.004
-124.239	151.409	-0.242	-0.325
-123.224	-6.965	0.254	0.170
-122.210	70.660	-0.336	-0.342
