DTS Sentinel unit serial number:	SN413079Multiplexer serial number:	ORYXHardware model number:	OX4-SRSoftware version number:	ORYX F/W v4.00 Oryx Data Collector v3.7.2.0data status	okinstallation	princeton_trtdifferential loss correction	single-endedforward channel	channel 3reverse channel	N/Adate	2019/09/13time	10:20:35forward acquisition time	60.00reverse acquisition time	0.00gamma	496.2192k internal	0.2322k external	0.2322temperature offset calibration	1.0136default loss term (dB/km)	0.3790temperature slope calibration	1.0000multiplexer offset coefficient	1.0000multiplexer slope coefficient	1.0000fibre end	0.00T internal ref (°C)	30.86T ext. ref 1 (°C)	4.53T ext. ref 2 (°C)	28.12length (m)	temperature (°C)	Stokes	anti-Stokes-747.200	-133.329	-0.067	-0.009
-746.185	-3.965	0.147	0.103
-745.171	682.791	0.100	0.264
-744.156	84.121	-0.209	0.230
-743.142	-111.762	0.123	0.025
-742.127	64.639	-0.142	0.144
-741.112	-79.637	0.092	0.031
-740.098	-200.000	-0.002	0.165
-739.083	-200.000	-0.114	-0.000
-738.069	60.387	-0.095	-0.095
-737.054	349.768	0.110	0.220
-736.039	-139.196	-0.140	0.015
-735.025	94.157	0.061	0.069
-734.010	-2.753	-0.326	-0.230
-732.996	-200.000	-0.003	-0.238
-731.981	-54.576	-0.261	-0.119
-730.966	125.737	0.016	-0.021
-729.952	800.000	0.138	-0.398
-728.937	184.718	-0.037	-0.055
-727.923	531.853	-0.029	-0.070
-726.908	18.332	0.048	0.039
-725.894	800.000	0.085	-0.261
-724.879	-100.150	-0.091	0.023
-723.864	-200.000	-0.037	-0.259
-722.850	465.021	-0.125	0.282
-721.835	71.083	-0.134	0.141
-720.821	48.965	-0.153	-0.145
-719.806	-54.402	-0.082	-0.037
-718.791	-6.248	-0.186	0.128
-717.777	-5.892	0.183	-0.126
-716.762	97.178	-0.230	-0.267
-715.748	612.183	0.028	-0.070
-714.733	48.245	-0.263	0.248
-713.718	32.912	-0.247	0.216
-712.704	368.937	-0.104	-0.212
-711.689	355.561	-0.081	0.163
-710.675	-200.000	0.024	-0.251
-709.660	-83.690	-0.183	-0.059
-708.645	-58.800	-0.375	0.164
-707.631	465.820	-0.073	0.165
-706.616	65.480	-0.121	-0.124
-705.602	-200.000	-0.020	-0.130
-704.587	-15.077	-0.240	-0.155
-703.572	-200.000	-0.012	-0.107
-702.558	291.763	0.047	-0.086
-701.543	-176.347	0.093	-0.002
-700.529	800.000	-0.038	0.147
-699.514	-138.699	0.075	-0.008
-698.499	-104.560	-0.223	0.052
-697.485	-200.000	-0.025	-0.256
-696.470	-91.455	-0.200	-0.058
-695.456	57.839	-0.249	-0.246
-694.441	465.815	-0.042	-0.094
-693.426	800.000	0.097	0.306
-692.412	-92.593	-0.388	0.110
-691.397	-200.000	0.010	0.106
-690.383	97.112	0.106	-0.122
-689.368	-0.615	-0.154	-0.110
-688.354	-166.759	-0.259	0.011
-687.339	423.820	-0.143	-0.310
-686.324	-15.606	0.170	-0.110
-685.310	800.000	0.092	0.314
-684.295	-200.000	-0.008	0.187
-683.281	50.151	-0.138	0.132
-682.266	-15.490	0.249	-0.161
-681.251	116.416	0.181	-0.223
-680.237	-200.000	0.010	-0.131
-679.222	-18.611	-0.203	0.128
-678.208	666.484	-0.023	0.060
-677.193	-65.258	-0.322	0.131
-676.178	-126.715	0.038	-0.006
-675.164	243.404	-0.093	0.157
-674.149	-158.569	-0.055	0.003
-673.135	-98.619	-0.232	0.060
-672.120	-17.225	-0.141	0.089
-671.105	-85.977	-0.402	0.125
-670.091	7.716	-0.138	-0.104
-669.076	800.000	0.128	0.424
-668.062	800.000	-0.081	0.238
-667.047	-154.503	0.221	-0.015
-666.032	-91.389	0.140	0.040
-665.018	-153.879	0.324	-0.022
-664.003	658.566	-0.052	-0.134
-662.989	-62.995	-0.271	0.113
-661.974	105.449	-0.107	0.127
-660.959	64.601	-0.123	-0.125
-659.945	594.309	0.137	0.341
-658.930	-44.524	-0.396	-0.199
-657.916	-4.293	0.229	0.160
-656.901	-35.193	-0.199	0.109
-655.886	176.164	-0.070	-0.102
-654.872	-107.665	0.178	-0.039
-653.857	-152.574	0.185	0.013
-652.843	9.016	-0.273	-0.207
-651.828	-186.766	-0.448	0.006
-650.814	800.000	-0.053	-0.200
-649.799	66.347	-0.042	0.043
-648.784	-73.954	0.180	0.066
-647.770	265.412	0.058	-0.103
-646.755	140.961	0.179	0.238
-645.741	50.353	0.202	0.193
-644.726	78.988	-0.098	0.105
-643.711	-4.258	-0.147	-0.103
-642.697	34.302	-0.068	0.060
-641.682	-50.344	0.161	-0.077
-640.668	-47.101	-0.170	-0.083
-639.653	-155.384	0.327	0.021
-638.638	216.217	-0.276	0.441
-637.624	-36.840	-0.152	0.082
-636.609	800.000	-0.096	-0.305
-635.595	43.743	0.132	-0.122
-634.580	-8.378	0.073	0.049
-633.565	156.448	0.141	-0.195
-632.551	-200.000	0.032	-0.154
-631.536	608.385	-0.102	0.255
-630.522	-200.000	0.012	0.307
-629.507	-174.180	0.211	0.006
-628.492	10.341	-0.049	0.038
-627.478	-29.090	0.272	-0.157
-626.463	22.113	0.203	0.167
-625.449	683.782	0.070	0.183
-624.434	37.975	0.221	-0.197
-623.419	-165.335	0.375	0.017
-622.405	194.020	0.085	0.129
-621.390	74.823	-0.208	-0.221
-620.376	63.441	0.134	-0.135
-619.361	-200.000	0.001	0.202
-618.346	800.000	-0.049	0.150
-617.332	-50.787	0.041	-0.020
-616.317	-101.651	0.234	-0.057
-615.303	-143.510	0.216	0.021
-614.288	176.064	-0.174	-0.254
-613.273	-140.679	0.160	-0.017
-612.259	273.735	-0.298	0.530
-611.244	110.363	-0.249	0.301
-610.230	-74.415	0.272	0.099
-609.215	-82.983	-0.195	0.063
-608.201	-60.801	-0.253	-0.108
-607.186	-88.856	0.509	-0.152
-606.171	167.915	0.084	0.120
-605.157	427.339	0.069	-0.150
-604.142	78.864	0.026	0.028
-603.128	-64.278	-0.162	0.066
-602.113	66.095	0.158	0.161
-601.098	-117.771	0.153	0.028
-600.084	-200.000	0.016	0.202
-599.069	-81.365	0.118	0.039
-598.055	-57.016	0.287	0.127
-597.040	291.131	-0.134	0.244
-596.025	-163.705	0.109	0.005
-595.011	-162.461	0.088	-0.004
-593.996	613.092	-0.048	-0.120
-592.982	324.809	0.226	0.433
-591.967	29.724	0.107	-0.091
-590.952	58.455	-0.212	-0.209
-589.938	49.782	-0.117	0.111
-588.923	558.014	0.031	-0.075
-587.909	50.196	-0.020	0.019
-586.894	222.491	0.037	-0.060
-585.879	800.000	0.037	-0.132
-584.865	189.729	0.053	0.080
-583.850	405.785	-0.103	-0.219
-582.836	-74.211	0.169	0.061
-581.821	522.587	-0.071	-0.168
-580.806	-92.338	-0.177	-0.050
-579.792	-200.000	-0.010	0.142
-578.777	-156.856	0.160	-0.010
-577.763	534.460	-0.057	0.135
-576.748	-7.706	0.134	-0.091
-575.733	-28.678	-0.143	0.082
-574.719	-35.585	-0.207	-0.113
-573.704	-139.554	0.255	-0.027
-572.690	-200.000	-0.033	0.170
-571.675	-62.192	0.058	0.024
-570.661	542.104	0.141	0.336
-569.646	-200.000	-0.012	0.285
-568.631	800.000	0.036	0.142
-567.617	-66.367	0.206	-0.082
-566.602	217.552	0.126	0.201
-565.588	251.059	-0.071	-0.121
-564.573	37.998	-0.230	0.205
-563.558	-161.032	-0.334	-0.018
-562.544	800.000	0.052	0.204
-561.529	-137.693	-0.114	-0.013
-560.515	26.982	0.233	0.196
-559.500	717.924	-0.069	0.185
-558.485	-77.137	-0.183	-0.064
-557.471	364.520	-0.083	-0.168
-556.456	-65.240	-0.107	0.043
-555.442	-97.144	0.065	-0.017
-554.427	-67.374	0.193	0.076
-553.412	-135.681	0.159	-0.019
-552.398	128.367	-0.230	-0.294
-551.383	-168.906	0.148	0.006
-550.369	155.363	-0.171	-0.236
-549.354	110.495	-0.100	-0.120
-548.339	-58.523	0.208	-0.090
-547.325	57.117	-0.182	-0.178
-546.310	-119.051	-0.236	0.041
-545.296	-176.404	0.162	-0.004
-544.281	-120.941	0.250	-0.042
-543.266	92.757	0.114	-0.129
-542.252	-161.166	0.027	0.001
-541.237	101.689	-0.185	-0.217
-540.223	800.000	0.143	-0.481
-539.208	-26.596	0.343	-0.201
-538.193	421.456	-0.080	0.171
-537.179	-200.000	0.010	-0.213
-536.164	733.532	-0.068	0.182
-535.150	-123.649	0.105	0.017
-534.135	25.391	-0.182	0.152
-533.121	570.657	0.049	0.119
-532.106	476.330	-0.037	-0.084
-531.091	404.213	0.015	-0.032
-530.077	800.000	-0.118	-0.397
-529.062	-48.156	-0.343	-0.166
-528.048	-200.000	-0.046	0.212
-527.033	-93.160	-0.167	0.046
-526.018	146.364	-0.165	0.222
-525.004	29.017	0.082	0.070
-523.989	-92.862	-0.218	-0.061
-522.975	-200.000	-0.011	0.353
-521.960	-200.000	-0.019	0.254
-520.945	-19.190	0.241	0.150
-519.931	-121.913	0.179	-0.029
-518.916	-200.000	-0.028	0.269
-517.902	221.878	-0.109	0.176
-516.887	-200.000	-0.049	0.339
-515.872	-0.833	0.273	0.194
-514.858	-200.000	0.015	-0.093
-513.843	-18.737	0.222	0.138
-512.829	-200.000	-0.001	0.158
-511.814	17.793	-0.180	0.143
-510.799	144.717	0.207	0.277
-509.785	-200.000	0.072	-0.347
-508.770	16.333	-0.061	0.048
-507.756	80.478	0.132	0.142
-506.741	800.000	0.013	-0.055
-505.726	-200.000	0.009	-0.256
-504.712	-93.715	0.113	-0.031
-503.697	540.788	-0.021	0.051
-502.683	5.999	-0.178	0.132
-501.668	116.058	0.095	0.116
-500.653	41.755	-0.128	-0.116
-499.639	57.493	0.216	0.211
-498.624	-149.727	0.052	-0.004
-497.610	79.688	-0.144	-0.155
-496.595	800.000	-0.075	0.283
-495.581	27.226	-0.157	0.132
-494.566	800.000	-0.066	-0.285
-493.551	800.000	-0.039	-0.109
-492.537	-45.341	0.176	0.087
-491.522	-153.118	0.138	-0.010
-490.508	170.360	-0.024	0.035
-489.493	23.423	0.065	0.053
-488.478	-200.000	-0.061	0.342
-487.464	-151.012	-0.291	0.022
-486.449	-200.000	0.004	0.566
-485.435	-96.172	-0.213	0.057
-484.420	-73.027	0.117	-0.043
-483.405	195.226	0.083	0.126
-482.391	177.616	-0.127	-0.185
-481.376	-10.139	0.246	0.164
-480.362	14.378	-0.114	-0.089
-479.347	-200.000	0.040	-0.213
-478.332	33.809	-0.232	0.202
-477.318	-200.000	-0.030	0.496
-476.303	-200.000	-0.065	-0.344
-475.289	358.562	0.242	-0.483
-474.274	-200.000	-0.017	-0.165
-473.259	134.218	-0.216	-0.281
-472.245	50.774	0.223	-0.211
-471.230	148.603	-0.151	-0.204
-470.216	193.824	-0.221	0.335
-469.201	-69.069	-0.152	0.058
-468.186	243.969	-0.199	-0.334
-467.172	-79.080	0.365	-0.124
-466.157	-200.000	-0.008	-0.434
-465.143	88.355	-0.250	-0.278
-464.128	-122.690	-0.046	0.008
-463.113	111.697	0.214	0.258
-462.099	100.629	0.121	-0.140
-461.084	800.000	-0.097	0.277
-460.070	-39.695	-0.289	-0.151
-459.055	-200.000	0.022	-0.183
-458.040	73.131	-0.093	-0.097
-457.026	-53.308	0.009	-0.004
-456.011	-57.124	-0.203	0.089
-454.997	-200.000	-0.011	-0.488
-453.982	267.460	-0.124	-0.216
-452.968	-90.569	0.099	-0.029
-451.953	450.539	0.097	0.215
-450.938	800.000	-0.077	0.262
-449.924	-187.725	-0.391	0.005
-448.909	26.441	-0.208	-0.174
-447.895	498.543	-0.062	0.143
-446.880	143.074	-0.059	0.078
-445.865	-200.000	-0.009	-0.102
-444.851	552.650	0.136	-0.327
-443.836	-62.154	0.179	-0.075
-442.822	35.478	-0.405	-0.355
-441.807	-200.000	-0.024	-0.251
-440.792	113.877	0.065	0.079
-439.778	800.000	-0.070	0.239
-438.763	-22.856	-0.294	-0.177
-437.749	-200.000	-0.002	-0.105
-436.734	-145.653	0.205	-0.018
-435.719	-98.056	0.176	0.045
-434.705	-200.000	-0.075	0.503
-433.690	-200.000	0.041	-0.248
-432.676	-58.464	0.248	-0.108
-431.661	-125.247	0.338	0.052
-430.646	800.000	0.022	0.089
-429.632	-200.000	0.014	-0.136
-428.617	-149.587	0.218	0.017
-427.603	-61.495	0.264	-0.111
-426.588	122.297	-0.085	0.106
-425.573	-200.000	-0.048	-0.230
-424.559	41.860	-0.095	-0.086
-423.544	-27.265	-0.199	-0.116
-422.530	81.529	0.123	-0.133
-421.515	-78.613	-0.129	0.044
-420.500	-200.000	0.006	0.164
-419.486	138.713	-0.143	0.187
-418.471	-120.958	-0.215	0.036
-417.457	-200.000	0.015	-0.326
-416.442	62.834	-0.043	0.043
-415.428	89.884	-0.065	0.073
-414.413	-200.000	-0.049	-0.384
-413.398	-91.494	-0.095	-0.027
-412.384	-115.642	-0.476	0.089
-411.369	8.649	-0.036	-0.027
-410.355	-78.416	-0.280	-0.096
-409.340	800.000	0.027	0.095
-408.325	-154.928	0.177	-0.012
-407.311	70.386	0.203	-0.209
-406.296	263.053	0.111	-0.193
-405.282	-71.864	-0.127	-0.047
-404.267	18.186	-0.151	0.120
-403.252	-200.000	-0.040	0.240
-402.238	-200.000	0.035	0.352
-401.223	-111.352	0.327	-0.066
-400.209	-80.441	-0.260	0.086
-399.194	2.169	-0.120	-0.086
-398.179	135.144	-0.155	-0.201
-397.165	-200.000	-0.051	0.295
-396.150	414.646	0.093	0.197
-395.136	-43.597	-0.035	-0.018
-394.121	-117.808	0.061	0.011
-393.106	-200.000	-0.017	0.139
-392.092	-81.219	-0.268	-0.088
-391.077	204.833	-0.073	0.113
-390.063	-200.000	0.026	0.129
-389.048	101.824	-0.205	0.238
-388.033	-53.376	0.169	0.077
-387.019	115.657	0.138	0.168
-386.004	745.148	-0.147	-0.395
-384.990	-186.058	0.298	-0.004
-383.975	-82.734	0.154	0.050
-382.960	83.300	-0.150	-0.163
-381.946	-99.108	-0.245	-0.062
-380.931	-98.110	-0.139	0.036
-379.917	-33.531	-0.062	-0.034
-378.902	-200.000	0.005	0.074
-377.888	201.326	-0.028	-0.042
-376.873	-200.000	-0.030	0.180
-375.858	-165.968	-0.305	0.013
-374.844	79.114	-0.102	-0.109
-373.829	-38.195	-0.180	-0.095
-372.815	89.641	-0.312	-0.347
-371.800	-200.000	0.010	0.045
-370.785	-96.288	-0.215	-0.057
-369.771	-200.000	0.056	0.290
-368.756	-200.000	-0.025	0.160
-367.742	-200.000	0.005	0.276
-366.727	-200.000	0.046	-0.216
-365.712	231.535	-0.058	0.095
-364.698	85.145	0.127	-0.139
-363.683	59.774	-0.074	-0.073
-362.669	-200.000	0.097	0.000
-361.654	692.562	0.034	-0.089
-360.639	69.530	0.344	0.352
-359.625	248.771	0.073	-0.124
-358.610	91.398	0.155	-0.173
-357.596	344.423	-0.119	-0.232
-356.581	-200.000	-0.012	0.323
-355.566	138.794	0.212	0.277
-354.552	-200.000	0.038	-0.195
-353.537	-172.429	-0.190	-0.006
-352.523	223.219	0.111	0.179
-351.508	122.084	0.122	0.151
-350.493	-6.699	0.074	0.050
-349.479	422.026	-0.055	0.118
-348.464	195.756	0.116	-0.176
-347.450	276.176	0.120	-0.213
-346.435	240.082	0.040	-0.066
-345.420	-84.843	-0.181	-0.056
-344.406	131.977	-0.161	-0.207
-343.391	-101.560	0.486	0.118
-342.377	-174.474	0.258	0.007
-341.362	708.121	-0.055	0.144
-340.348	16.727	-0.122	0.096
-339.333	-20.344	0.233	0.143
-338.318	-83.823	-0.120	0.038
-337.304	92.742	-0.173	-0.195
-336.289	-121.416	-0.090	0.015
-335.275	-172.335	-0.180	-0.006
-334.260	-136.468	-0.029	0.003
-333.245	-26.875	-0.147	-0.085
-332.231	-200.000	-0.013	-0.093
-331.216	-145.728	-0.170	0.015
-330.202	-136.059	-0.083	-0.010
-329.187	-17.644	0.364	0.228
-328.172	448.578	0.054	0.117
-327.158	-200.000	0.023	0.147
-326.143	-125.629	-0.050	-0.007
-325.129	-52.146	0.100	-0.046
-324.114	-200.000	0.008	0.058
-323.099	9.727	0.138	0.104
-322.085	668.427	0.054	-0.138
-321.070	187.333	-0.095	-0.141
-320.056	131.302	0.065	-0.084
-319.041	-95.515	0.228	0.061
-318.026	23.812	-0.231	-0.189
-317.012	800.000	-0.050	0.168
-315.997	-200.000	-0.010	0.151
-314.983	348.619	-0.230	-0.450
-313.968	346.104	-0.069	0.134
-312.953	18.276	-0.157	-0.124
-311.939	-198.014	0.262	-0.002
-310.924	55.436	0.198	0.190
-309.910	-200.000	0.011	0.144
-308.895	32.693	-0.162	-0.139
-307.880	-155.100	0.337	-0.022
-306.866	-92.148	0.211	-0.059
-305.851	12.308	0.194	-0.148
-304.837	-130.550	-0.272	0.036
-303.822	89.831	-0.068	-0.075
-302.807	-200.000	0.035	-0.311
-301.793	57.704	0.196	-0.190
-300.778	-200.000	-0.012	0.121
-299.764	-200.000	0.016	0.184
-298.749	-68.595	0.092	-0.035
-297.735	-54.581	0.023	-0.010
-296.720	-47.907	-0.241	0.116
-295.705	-45.322	0.116	0.057
-294.691	85.557	-0.292	-0.318
-293.676	-49.289	-0.133	0.063
-292.662	800.000	-0.072	-0.257
-291.647	-37.160	-0.215	-0.114
-290.632	-200.000	-0.021	0.206
-289.618	24.434	-0.178	-0.146
-288.603	-121.162	-0.181	0.030
-287.589	112.585	-0.057	0.068
-286.574	-167.141	0.190	0.008
-285.559	-161.333	0.221	0.011
-284.545	185.414	0.180	-0.265
-283.530	39.792	-0.039	0.035
-282.516	800.000	0.073	0.202
-281.501	-24.245	-0.193	-0.114
-280.486	264.704	-0.024	-0.041
-279.472	-186.064	-0.424	0.006
-278.457	224.632	0.186	0.298
-277.443	800.000	0.059	0.189
-276.428	-200.000	0.003	-0.078
-275.413	22.452	-0.111	-0.090
-274.399	117.440	0.253	0.309
-273.384	143.289	0.048	-0.064
-272.370	-49.529	-0.289	0.137
-271.355	-8.879	0.174	-0.115
-270.340	800.000	0.063	0.261
-269.326	-43.622	-0.191	0.096
-268.311	-54.775	-0.215	0.096
-267.297	79.605	0.219	0.233
-266.282	-74.681	0.148	-0.053
-265.267	103.649	-0.258	-0.301
-264.253	-100.030	-0.134	0.033
-263.238	387.416	0.197	-0.405
-262.224	367.013	0.176	-0.353
-261.209	-25.893	0.297	-0.173
-260.195	64.860	-0.232	-0.232
-259.180	-125.231	0.318	0.048
-258.165	19.832	-0.362	0.289
-257.151	-200.000	0.024	-0.259
-256.136	220.113	-0.106	0.168
-255.122	179.014	0.176	0.255
-254.107	712.800	-0.146	0.382
-253.092	800.000	-0.114	0.343
-252.078	-200.000	-0.213	-0.000
-251.063	164.219	0.082	0.115
-250.049	256.731	-0.122	0.208
-249.034	-200.000	0.033	0.285
-248.019	800.000	-0.047	-0.174
-247.005	62.257	-0.042	-0.041
-245.990	-3.095	-0.185	0.128
-244.976	-200.000	-0.031	-0.424
-243.961	800.000	0.190	-0.523
-242.946	-54.759	-0.064	0.029
-241.932	-119.190	0.413	0.071
-240.917	800.000	-0.099	0.296
-239.903	69.463	-0.197	0.201
-238.888	-62.768	-0.177	-0.073
-237.873	-57.430	-0.018	0.008
-236.859	-75.673	0.391	-0.138
-235.844	-19.755	-0.236	-0.145
-234.830	-200.000	0.022	-0.188
-233.815	333.413	0.132	-0.252
-232.800	-76.989	-0.185	-0.064
-231.786	13.464	0.067	-0.051
-230.771	95.506	-0.082	-0.093
-229.757	32.883	0.163	-0.140
-228.742	14.468	-0.262	0.203
-227.727	310.087	0.143	-0.265
-226.713	-50.680	0.272	0.127
-225.698	-37.305	0.232	0.123
-224.684	86.618	0.105	0.114
-223.669	66.523	0.217	0.218
-222.655	-67.028	-0.212	-0.083
-221.640	-31.462	0.125	0.069
-220.625	226.819	-0.294	-0.472
-219.611	-55.139	-0.270	-0.120
-218.596	-144.402	0.508	0.047
-217.582	-79.599	-0.156	-0.052
-216.567	-20.254	0.361	-0.220
-215.552	-29.739	-0.311	-0.175
-214.538	-130.095	0.462	-0.062
-213.523	800.000	-0.040	-0.116
-212.509	-109.445	-0.137	-0.029
-211.494	28.480	-0.283	-0.237
-210.479	-200.000	-0.009	0.192
-209.465	-100.106	0.059	0.014
-208.450	45.140	0.305	0.278
-207.436	447.408	-0.171	0.372
-206.421	-30.276	-0.303	0.170
-205.406	-200.000	-0.021	0.243
-204.392	-67.580	0.141	-0.055
-203.377	-64.037	-0.063	0.026
-202.363	128.483	0.147	0.186
-201.348	69.466	0.133	-0.136
-200.333	695.513	-0.127	-0.329
-199.319	-63.247	0.325	0.133
-198.304	800.000	0.006	0.024
-197.290	-122.233	0.340	-0.055
-196.275	-200.000	-0.010	0.057
-195.260	-42.921	0.247	-0.124
-194.246	242.093	-0.050	0.083
-193.231	-106.036	-0.270	-0.060
-192.217	53.565	-0.087	0.082
-191.202	24.058	-0.122	-0.100
-190.187	-82.063	-0.260	-0.084
-189.173	-133.466	-0.100	-0.012
-188.158	135.030	-0.136	0.175
-187.144	-37.788	0.125	-0.066
-186.129	-116.301	0.247	-0.045
-185.114	287.876	-0.094	-0.168
-184.100	-128.904	-0.285	0.040
-183.085	378.750	0.177	-0.357
-182.071	800.000	-0.083	-0.262
-181.056	-74.578	-0.275	-0.098
-180.042	577.694	0.049	0.118
-179.027	173.653	0.211	-0.300
-178.012	-65.730	0.159	0.063
-176.998	-34.707	0.419	-0.226
-175.983	-200.000	0.016	-0.358
-174.969	-200.000	-0.029	-0.239
-173.954	36.125	-0.218	-0.189
-172.939	787.660	-0.050	0.135
-171.925	405.346	0.072	0.150
-170.910	-200.000	0.024	0.205
-169.896	-111.394	0.382	0.077
-168.881	800.000	-0.073	0.247
-167.866	-200.000	0.004	-0.185
-166.852	-200.000	0.049	-0.280
-165.837	108.189	-0.144	-0.170
-164.823	342.281	0.073	-0.142
-163.808	271.558	-0.132	-0.230
-162.793	-150.653	0.131	-0.010
-161.779	-200.000	0.062	0.275
-160.764	-200.000	-0.037	-0.185
-159.750	800.000	-0.065	0.223
-158.735	194.474	0.253	0.378
-157.720	210.322	0.193	-0.300
-156.706	389.843	-0.203	0.416
-155.691	800.000	-0.090	0.358
-154.677	800.000	0.020	-0.056
-153.662	-119.548	-0.322	0.055
-152.647	48.219	0.242	-0.224
-151.633	61.783	-0.143	-0.140
-150.618	548.984	0.072	-0.171
-149.604	-115.310	-0.145	0.027
-148.589	48.435	-0.353	0.326
-147.574	-200.000	0.045	0.239
-146.560	-200.000	0.005	-0.457
-145.545	-200.000	-0.001	-0.080
-144.531	154.014	0.074	0.100
-143.516	4.952	0.176	-0.128
-142.502	-200.000	0.011	0.080
-141.487	-153.956	0.195	0.013
-140.472	-82.058	0.072	0.023
-139.458	-137.541	-0.181	0.020
-138.443	85.417	0.204	-0.221
-137.429	800.000	-0.121	-0.357
-136.414	75.665	-0.079	0.082
-135.399	800.000	-0.106	-0.396
-134.385	800.000	-0.087	0.310
-133.370	-81.411	0.244	-0.079
-132.356	800.000	0.007	-0.023
-131.341	-200.000	0.031	0.144
-130.326	461.386	0.072	0.158
-129.312	86.036	-0.150	-0.163
-128.297	2.291	0.169	0.120
-127.283	-149.826	-0.089	-0.007
-126.268	701.255	0.108	-0.281
-125.253	-200.000	-0.007	-0.105
-124.239	-183.970	0.013	-0.000
-123.224	20.762	0.042	-0.034
-122.210	-90.723	-0.275	-0.078
-121.195	243.363	0.162	0.267
