DTS Sentinel unit serial number:	SN413079Multiplexer serial number:	ORYXHardware model number:	OX4-SRSoftware version number:	ORYX F/W v4.00 Oryx Data Collector v3.7.2.0data status	okinstallation	princeton_trtdifferential loss correction	single-endedforward channel	channel 3reverse channel	N/Adate	2019/09/15time	20:48:35forward acquisition time	60.00reverse acquisition time	0.00gamma	496.2192k internal	0.2327k external	0.2327temperature offset calibration	0.9936default loss term (dB/km)	0.3790temperature slope calibration	1.0000multiplexer offset coefficient	1.0000multiplexer slope coefficient	1.0000fibre end	0.00T internal ref (°C)	32.37T ext. ref 1 (°C)	7.95T ext. ref 2 (°C)	24.48length (m)	temperature (°C)	Stokes	anti-Stokes-747.200	501.560	-0.083	-0.193
-746.185	-130.375	0.085	-0.012
-745.171	422.222	-0.128	0.276
-744.156	252.505	0.113	0.194
-743.142	-123.551	0.071	0.011
-742.127	800.000	-0.039	0.128
-741.112	-35.795	0.275	0.150
-740.098	442.433	-0.126	-0.278
-739.083	-200.000	0.026	0.194
-738.069	18.265	-0.042	0.034
-737.054	647.370	0.039	-0.101
-736.039	-113.583	-0.303	0.060
-735.025	-19.186	0.135	0.085
-734.010	261.522	0.107	-0.187
-732.996	-200.000	-0.010	0.238
-731.981	800.000	0.063	0.213
-730.966	231.744	0.079	-0.131
-729.952	-89.308	-0.113	-0.034
-728.937	386.411	-0.081	-0.170
-727.923	-186.797	-0.058	-0.001
-726.908	-200.000	-0.002	-0.177
-725.894	-5.254	0.017	0.012
-724.879	-72.291	0.124	-0.046
-723.864	-16.898	0.337	0.214
-722.850	72.912	-0.199	-0.210
-721.835	34.902	-0.124	-0.110
-720.821	227.352	0.015	0.025
-719.806	-9.096	0.039	0.026
-718.791	800.000	-0.053	-0.200
-717.777	47.663	0.108	-0.101
-716.762	-87.373	0.267	-0.081
-715.748	202.397	-0.045	-0.070
-714.733	-200.000	-0.019	0.201
-713.718	-200.000	0.046	0.290
-712.704	137.956	-0.197	-0.261
-711.689	-78.498	-0.258	0.089
-710.675	84.844	0.053	0.058
-709.660	-4.148	-0.150	-0.104
-708.645	-145.496	-0.379	0.034
-707.631	125.939	-0.318	-0.404
-706.616	305.350	0.105	0.197
-705.602	142.130	0.166	0.222
-704.587	103.023	-0.234	-0.275
-703.572	-84.962	-0.206	-0.065
-702.558	63.903	-0.125	0.127
-701.543	99.509	0.126	-0.147
-700.529	800.000	0.010	0.038
-699.514	388.306	0.068	-0.141
-698.499	63.189	-0.332	-0.335
-697.485	800.000	-0.051	-0.191
-696.470	105.177	-0.061	-0.072
-695.456	7.086	0.064	0.048
-694.441	-130.856	0.127	0.017
-693.426	504.436	0.117	-0.273
-692.412	-91.553	-0.129	-0.037
-691.397	800.000	-0.078	-0.221
-690.383	86.854	-0.212	-0.235
-689.368	-99.260	-0.058	-0.015
-688.354	800.000	-0.033	0.118
-687.339	-200.000	0.019	-0.330
-686.324	-81.038	0.145	-0.048
-685.310	-8.094	0.109	0.074
-684.295	-66.619	-0.058	-0.023
-683.281	323.337	-0.103	-0.198
-682.266	-164.979	0.102	0.005
-681.251	800.000	-0.079	0.233
-680.237	-200.000	-0.070	0.444
-679.222	269.157	-0.062	-0.110
-678.208	-125.303	0.229	-0.035
-677.193	-120.346	0.238	0.041
-676.178	69.560	-0.059	-0.061
-675.164	-6.498	-0.109	0.075
-674.149	629.552	0.147	-0.373
-673.135	-140.541	-0.379	-0.040
-672.120	-125.241	0.121	0.019
-671.105	132.711	-0.174	-0.226
-670.091	-200.000	0.013	0.094
-669.076	40.265	0.108	0.098
-668.062	-200.000	-0.030	-0.359
-667.047	99.342	0.047	-0.054
-666.032	390.446	-0.095	-0.197
-665.018	-37.825	0.106	0.057
-664.003	130.061	-0.132	0.169
-662.989	259.700	0.074	-0.129
-661.974	-74.534	-0.169	-0.061
-660.959	-200.000	-0.084	-0.458
-659.945	800.000	-0.072	0.221
-658.930	69.884	-0.101	0.105
-657.916	-127.662	-0.384	-0.056
-656.901	227.041	-0.164	-0.268
-655.886	-200.000	-0.024	0.183
-654.872	-65.835	-0.194	0.078
-653.857	-156.291	0.238	0.015
-652.843	-29.952	0.040	-0.023
-651.828	-39.398	0.190	0.100
-650.814	-94.368	-0.326	0.089
-649.799	322.786	0.042	0.081
-648.784	131.595	-0.121	0.156
-647.770	43.733	0.105	0.097
-646.755	60.627	-0.285	-0.284
-645.741	-162.912	-0.313	0.015
-644.726	-200.000	-0.002	0.204
-643.711	111.470	-0.213	0.258
-642.697	44.512	-0.096	-0.089
-641.682	365.081	-0.076	-0.153
-640.668	-107.249	0.215	0.047
-639.653	40.790	-0.187	0.170
-638.638	800.000	0.117	-0.349
-637.624	-133.376	0.167	0.021
-636.609	446.653	-0.054	0.120
-635.595	526.337	-0.152	-0.359
-634.580	800.000	-0.072	-0.204
-633.565	-52.054	-0.422	-0.197
-632.551	401.561	0.038	0.081
-631.536	112.603	0.110	-0.134
-630.522	146.604	0.004	0.005
-629.507	-5.167	-0.089	-0.061
-628.492	245.281	0.264	-0.446
-627.478	54.857	-0.161	-0.156
-626.463	-200.000	-0.034	-0.322
-625.449	353.286	-0.138	0.274
-624.434	-61.565	-0.303	0.128
-623.419	-200.000	-0.015	-0.095
-622.405	-200.000	-0.034	0.456
-621.390	-200.000	-0.021	0.435
-620.376	519.595	-0.044	-0.103
-619.361	101.887	0.176	0.206
-618.346	800.000	-0.027	0.101
-617.332	125.478	-0.203	-0.257
-616.317	-122.925	-0.161	0.026
-615.303	-200.000	-0.055	0.287
-614.288	-200.000	0.027	-0.289
-613.273	345.674	0.100	0.198
-612.259	122.015	-0.149	0.187
-611.244	-89.867	-0.016	0.005
-610.230	13.867	-0.069	0.054
-609.215	136.737	0.197	-0.259
-608.201	800.000	-0.042	-0.173
-607.186	-200.000	-0.095	-0.000
-606.171	126.883	0.167	-0.212
-605.157	-35.360	0.169	0.092
-604.142	48.668	-0.157	-0.147
-603.128	-200.000	0.012	-0.108
-602.113	702.411	-0.092	-0.243
-601.098	327.224	-0.026	-0.050
-600.084	-3.531	0.361	-0.251
-599.069	-5.093	-0.289	0.200
-598.055	380.408	0.180	-0.371
-597.040	-12.332	0.312	0.205
-596.025	45.620	0.126	0.117
-595.011	-43.948	-0.116	-0.059
-593.996	-200.000	0.005	0.163
-592.982	-200.000	-0.002	0.247
-591.967	-63.425	0.209	0.086
-590.952	-200.000	0.041	0.255
-589.938	800.000	0.028	0.093
-588.923	-50.634	-0.291	0.137
-587.909	-200.000	-0.053	-0.242
-586.894	341.845	0.148	0.290
-585.879	-79.463	-0.090	-0.031
-584.865	-63.391	-0.393	0.162
-583.850	-42.537	-0.263	-0.134
-582.836	85.948	0.207	-0.228
-581.821	46.604	0.121	0.112
-580.806	133.033	-0.168	-0.218
-579.792	-200.000	0.001	0.136
-578.777	537.911	0.078	-0.185
-577.763	800.000	-0.087	-0.365
-576.748	-200.000	0.011	0.108
-575.733	337.270	-0.067	0.130
-574.719	1.658	-0.006	0.005
-573.704	-144.709	-0.143	-0.013
-572.690	-200.000	0.055	-0.430
-571.675	81.090	0.179	-0.194
-570.661	611.650	-0.080	-0.201
-569.646	-139.404	-0.120	-0.013
-568.631	-200.000	-0.012	0.191
-567.617	306.688	0.099	0.184
-566.602	-28.081	-0.223	0.129
-565.588	97.150	0.062	-0.071
-564.573	-198.458	-0.154	0.001
-563.558	264.402	0.105	0.183
-562.544	230.366	0.089	0.146
-561.529	-200.000	-0.010	0.159
-560.515	-67.357	-0.238	-0.094
-559.500	-75.817	-0.083	-0.029
-558.485	155.334	0.100	-0.138
-557.471	64.670	0.205	-0.207
-556.456	581.145	-0.106	-0.259
-555.442	-40.759	-0.215	-0.111
-554.427	-42.923	0.245	0.124
-553.412	-61.206	-0.335	0.141
-552.398	75.673	0.054	0.057
-551.383	-168.635	-0.311	-0.012
-550.369	-181.079	0.231	-0.005
-549.354	-38.886	-0.197	-0.104
-548.339	-70.441	0.087	-0.033
-547.325	-200.000	-0.013	-0.135
-546.310	134.540	-0.150	-0.195
-545.296	-93.774	-0.055	0.015
-544.281	-1.572	-0.240	-0.169
-543.266	-200.000	-0.052	0.454
-542.252	71.461	-0.343	0.356
-541.237	167.204	0.167	0.237
-540.223	-23.703	-0.149	-0.089
-539.208	-37.438	0.227	-0.121
-538.193	-104.604	0.174	0.040
-537.179	289.327	0.196	-0.356
-536.164	-125.322	0.427	-0.065
-535.150	-62.386	0.103	0.043
-534.135	-61.042	0.033	-0.014
-533.121	-200.000	-0.001	-0.061
-532.106	-165.333	-0.243	0.011
-531.091	-57.562	-0.349	-0.153
-530.077	-55.941	0.230	-0.103
-529.062	800.000	0.098	0.290
-528.048	800.000	0.002	-0.004
-527.033	-200.000	-0.001	-0.154
-526.018	61.055	0.119	-0.118
-525.004	56.402	-0.159	-0.154
-523.989	-200.000	0.022	0.134
-522.975	-108.668	0.138	0.030
-521.960	-97.969	0.222	0.057
-520.945	711.163	0.079	0.210
-519.931	357.584	0.110	0.219
-518.916	14.564	0.112	-0.088
-517.902	291.439	0.078	-0.141
-516.887	-200.000	-0.058	-0.260
-515.872	800.000	0.057	-0.165
-514.858	-37.841	-0.239	0.127
-513.843	-159.957	-0.315	0.017
-512.829	800.000	-0.017	0.062
-511.814	253.388	0.158	-0.269
-510.799	-200.000	0.044	0.393
-509.785	-152.294	-0.197	0.014
-508.770	159.412	0.186	-0.259
-507.756	450.970	0.109	0.241
-506.741	-200.000	0.002	0.101
-505.726	76.667	-0.175	-0.185
-504.712	131.465	0.037	-0.047
-503.697	800.000	-0.047	0.153
-502.683	471.881	0.015	-0.033
-501.668	-143.484	-0.173	0.016
-500.653	-67.333	0.248	0.097
-499.639	-80.119	-0.123	-0.041
-498.624	-200.000	0.011	-0.075
-497.610	77.648	-0.138	0.147
-496.595	-110.164	0.374	-0.078
-495.581	-143.309	-0.158	-0.015
-494.566	41.062	-0.068	0.062
-493.551	-44.316	0.266	-0.133
-492.537	-83.288	-0.198	0.064
-491.522	800.000	0.050	-0.197
-490.508	-200.000	-0.025	0.141
-489.493	-200.000	0.038	0.327
-488.478	22.939	0.109	-0.090
-487.464	248.273	0.029	0.049
-486.449	-131.551	-0.256	-0.034
-485.435	-200.000	0.044	-0.443
-484.420	221.191	-0.126	0.202
-483.405	-200.000	-0.017	-0.111
-482.391	-55.292	0.388	0.174
-481.376	396.782	0.115	-0.240
-480.362	401.060	-0.112	-0.234
-479.347	-200.000	-0.029	-0.145
-478.332	-92.328	-0.269	0.075
-477.318	-200.000	-0.005	-0.097
-476.303	800.000	0.045	0.152
-475.289	13.176	0.105	-0.081
-474.274	-138.757	0.151	0.016
-473.259	194.813	-0.044	0.066
-472.245	3.640	0.192	0.140
-471.230	-92.694	0.221	0.062
-470.216	-200.000	-0.040	-0.284
-469.201	-200.000	-0.072	0.401
-468.186	-33.646	-0.181	-0.100
-467.172	-200.000	0.016	-0.355
-466.157	800.000	-0.012	-0.052
-465.143	-24.102	-0.074	-0.044
-464.128	-138.556	-0.222	-0.024
-463.113	800.000	-0.028	0.124
-462.099	-200.000	0.000	-0.319
-461.084	158.141	0.132	-0.182
-460.070	-116.948	0.179	-0.033
-459.055	-4.241	-0.151	0.105
-458.040	-25.829	-0.156	-0.091
-457.026	-107.287	-0.269	0.059
-456.011	-52.368	0.142	0.065
-454.997	-200.000	0.002	0.359
-453.982	20.751	0.237	-0.191
-452.968	800.000	-0.052	0.194
-451.953	-102.604	0.312	0.074
-450.938	635.639	-0.088	0.223
-449.924	-15.442	-0.108	0.069
-448.909	6.645	-0.010	-0.007
-447.895	89.379	-0.151	-0.168
-446.880	380.319	-0.022	-0.044
-445.865	-200.000	0.012	-0.098
-444.851	-200.000	-0.053	-0.384
-443.836	-26.491	-0.141	0.082
-442.822	164.535	-0.146	0.205
-441.807	800.000	-0.072	0.280
-440.792	-200.000	0.031	-0.174
-439.778	-109.150	0.196	0.041
-438.763	656.604	-0.062	-0.158
-437.749	572.623	0.084	0.204
-436.734	-164.115	-0.122	0.006
-435.719	160.481	0.314	0.436
-434.705	-70.486	-0.266	-0.101
-433.690	-40.932	0.175	0.090
-432.676	197.765	0.207	0.316
-431.661	-94.308	0.390	0.106
-430.646	-200.000	-0.000	-0.192
-429.632	-200.000	-0.005	-0.084
-428.617	800.000	0.106	-0.318
-427.603	800.000	0.014	0.058
-426.588	59.656	0.068	-0.067
-425.573	184.585	-0.040	0.059
-424.559	-11.446	-0.131	-0.086
-423.544	-200.000	-0.011	0.141
-422.530	-120.368	0.116	-0.020
-421.515	244.675	0.104	0.173
-420.500	-44.281	0.226	-0.113
-419.486	-81.079	0.513	0.169
-418.471	129.951	0.083	0.106
-417.457	-7.289	0.266	-0.179
-416.442	-200.000	-0.040	-0.230
-415.428	-53.350	-0.230	0.105
-414.413	800.000	0.090	0.265
-413.398	-200.000	-0.003	0.034
-412.384	94.556	-0.069	-0.078
-411.369	-152.273	-0.127	-0.009
-410.355	-71.069	0.161	-0.060
-409.340	270.356	0.058	-0.102
-408.325	184.568	-0.230	-0.339
-407.311	-59.841	-0.098	0.042
-406.296	393.320	0.136	0.281
-405.282	-63.923	-0.319	0.130
-404.267	-200.000	-0.012	0.223
-403.252	198.052	0.121	0.184
-402.238	2.022	0.118	-0.085
-401.223	-23.745	-0.181	0.108
-400.209	-200.000	-0.007	-0.230
-399.194	110.429	-0.025	0.030
-398.179	-127.298	-0.581	0.084
-397.165	-200.000	0.147	0.001
-396.150	800.000	-0.076	-0.215
-395.136	216.832	0.110	0.174
-394.121	-200.000	-0.001	-0.129
-393.106	83.272	-0.162	0.176
-392.092	365.968	0.083	0.166
-391.077	-7.554	-0.099	0.066
-390.063	-200.000	0.001	0.044
-389.048	55.449	0.082	0.079
-388.033	114.471	0.145	0.176
-387.019	262.804	-0.206	0.356
-386.004	-200.000	-0.062	0.414
-384.990	-9.386	-0.159	0.106
-383.975	-200.000	-0.015	-0.342
-382.960	-200.000	0.040	-0.188
-381.946	-23.856	0.029	0.018
-380.931	154.245	-0.177	-0.241
-379.917	213.216	-0.032	-0.051
-378.902	305.722	-0.134	0.247
-377.888	-33.003	-0.323	-0.178
-376.873	32.057	-0.191	0.164
-375.858	-179.047	0.326	-0.007
-374.844	-200.000	0.019	0.119
-373.829	-200.000	-0.025	-0.151
-372.815	-127.879	-0.116	-0.017
-371.800	-37.924	-0.055	0.029
-370.785	57.852	0.300	0.291
-369.771	-78.222	0.260	0.089
-368.756	800.000	0.071	-0.241
-367.742	-200.000	0.070	0.322
-366.727	543.391	0.018	0.042
-365.712	-89.792	-0.249	0.072
-364.698	41.386	0.035	0.031
-363.683	800.000	-0.055	0.234
-362.669	-106.720	0.221	-0.049
-361.654	800.000	-0.045	0.180
-360.639	-184.440	0.261	0.004
-359.625	102.912	0.081	-0.094
-358.610	-156.252	0.168	-0.010
-357.596	-61.565	-0.099	-0.041
-356.581	-11.621	-0.091	0.059
-355.566	81.194	-0.186	0.200
-354.552	0.727	-0.049	0.035
-353.537	-129.952	-0.151	0.020
-352.523	-62.552	-0.166	0.068
-351.508	15.310	0.101	-0.079
-350.493	13.045	0.286	0.219
-349.479	-200.000	0.023	-0.174
-348.464	-18.964	0.081	-0.050
-347.450	-61.943	0.115	0.048
-346.435	-70.607	-0.200	-0.075
-345.420	311.212	0.112	0.209
-344.406	-200.000	0.023	-0.232
-343.391	29.512	-0.168	-0.142
-342.377	-101.436	-0.134	0.032
-341.362	800.000	-0.055	-0.198
-340.348	-200.000	0.025	0.311
-339.333	652.747	-0.069	0.176
-338.318	-63.218	-0.161	-0.066
-337.304	-60.805	0.184	-0.077
-336.289	-93.935	0.239	-0.065
-335.275	-126.432	-0.391	-0.058
-334.260	800.000	-0.032	-0.130
-333.245	-142.391	-0.390	-0.038
-332.231	-200.000	0.072	-0.430
-331.216	-200.000	-0.010	-0.092
-330.202	161.583	-0.052	0.072
-329.187	68.363	0.213	0.216
-328.172	-83.712	0.169	0.053
-327.158	800.000	-0.029	-0.097
-326.143	263.919	-0.123	0.213
-325.129	247.061	-0.025	-0.042
-324.114	766.678	0.124	-0.333
-323.099	-167.833	-0.254	0.010
-322.085	-63.956	0.356	0.144
-321.070	-200.000	0.006	0.097
-320.056	800.000	0.120	-0.368
-319.041	-200.000	0.036	0.176
-318.026	268.916	-0.173	0.301
-317.012	-200.000	0.022	0.181
-315.997	50.531	0.019	-0.017
-314.983	105.808	0.423	-0.496
-313.968	228.969	0.080	0.129
-312.953	-152.034	0.109	-0.008
-311.939	-93.631	-0.286	-0.078
-310.924	133.792	-0.086	-0.110
-309.910	293.230	-0.101	-0.182
-308.895	25.134	0.442	-0.364
-307.880	192.255	-0.197	0.295
-306.866	303.503	-0.070	0.128
-305.851	-38.442	-0.129	0.068
-304.837	-64.698	0.226	-0.091
-303.822	311.495	-0.129	-0.239
-302.807	-200.000	-0.007	-0.132
-301.793	-154.009	0.204	0.014
-300.778	-24.737	-0.196	-0.116
-299.764	-153.721	-0.433	-0.029
-298.749	800.000	-0.037	-0.143
-297.735	-200.000	-0.010	-0.048
-296.720	-174.591	-0.289	0.008
-295.705	14.695	0.174	-0.135
-294.691	501.062	0.063	-0.143
-293.676	-140.839	0.410	0.042
-292.662	157.682	0.254	0.348
-291.647	800.000	-0.076	-0.308
-290.632	-170.439	-0.202	-0.007
-289.618	800.000	0.070	0.218
-288.603	-92.185	0.171	0.048
-287.589	122.918	-0.257	0.319
-286.574	-83.877	0.266	0.084
-285.559	-52.142	-0.152	-0.070
-284.545	800.000	0.062	-0.233
-283.530	800.000	0.128	0.386
-282.516	78.264	0.124	0.131
-281.501	489.804	0.101	-0.228
-280.486	18.693	-0.015	0.012
-279.472	-59.036	-0.195	0.083
-278.457	-145.915	0.193	-0.017
-277.443	13.587	-0.053	0.041
-276.428	-118.722	0.140	0.024
-275.413	27.694	0.191	-0.159
-274.399	800.000	-0.113	0.323
-273.384	-200.000	-0.021	0.177
-272.370	-70.002	0.391	0.148
-271.355	514.573	-0.132	-0.305
-270.340	69.389	0.182	-0.186
-269.326	-200.000	0.083	-0.491
-268.311	-200.000	-0.001	0.086
-267.297	101.962	-0.336	0.388
-266.282	800.000	0.078	-0.214
-265.267	34.907	0.121	0.104
-264.253	-48.400	0.292	-0.139
-263.238	-148.377	-0.074	-0.006
-262.224	-131.088	-0.245	0.032
-261.209	-200.000	0.010	0.196
-260.195	-69.217	0.124	-0.047
-259.180	-120.642	-0.108	-0.018
-258.165	616.263	0.035	0.087
-257.151	-200.000	-0.000	0.126
-256.136	320.799	-0.061	-0.115
-255.122	-83.614	-0.165	-0.052
-254.107	194.913	-0.087	-0.130
-253.092	567.469	0.065	0.155
-252.078	409.216	-0.060	0.126
-251.063	-200.000	0.029	0.279
-250.049	-200.000	-0.023	-0.149
-249.034	-118.030	0.104	0.018
-248.019	800.000	-0.070	-0.206
-247.005	180.486	-0.274	-0.397
-245.990	-61.706	0.282	-0.117
-244.976	39.409	-0.137	-0.121
-243.961	-108.756	0.076	-0.016
-242.946	-109.863	-0.259	-0.054
-241.932	-200.000	-0.028	-0.213
-240.917	-183.714	-0.207	0.003
-239.903	800.000	0.103	0.373
-238.888	126.249	-0.115	0.144
-237.873	-79.541	0.358	0.119
-236.859	53.437	0.091	0.086
-235.844	119.719	0.008	-0.010
-234.830	-119.125	-0.209	-0.036
-233.815	-200.000	-0.067	-0.405
-232.800	-2.970	0.262	-0.181
-231.786	14.881	0.229	0.177
-230.771	-141.284	0.286	-0.029
-229.757	-23.101	-0.148	-0.088
-228.742	62.819	0.193	-0.191
-227.727	61.889	-0.067	0.066
-226.713	-22.528	-0.128	-0.076
-225.698	-33.457	-0.145	-0.079
-224.684	488.631	-0.112	0.252
-223.669	685.595	-0.043	-0.110
-222.655	-200.000	0.073	-0.407
-221.640	-32.977	0.112	-0.061
-220.625	-66.684	0.224	0.088
-219.611	259.180	0.183	0.311
-218.596	800.000	-0.059	-0.256
-217.582	-113.572	0.102	-0.020
-216.567	-79.395	0.072	-0.024
-215.552	372.491	-0.139	0.279
-214.538	-141.267	0.311	0.031
-213.523	700.885	0.095	0.247
-212.509	37.736	-0.077	-0.068
-211.494	-200.000	0.029	0.165
-210.479	601.465	0.187	-0.459
-209.465	121.470	0.033	-0.040
-208.450	-200.000	0.014	0.108
-207.436	-163.300	0.481	0.023
-206.421	-22.430	0.088	0.052
-205.406	-56.619	-0.041	-0.018
-204.392	313.386	0.102	-0.190
-203.377	-200.000	0.047	0.271
-202.363	73.362	-0.076	0.078
-201.348	-33.252	0.186	-0.102
-200.333	11.577	0.075	-0.057
-199.319	2.599	0.197	0.141
-198.304	800.000	-0.052	0.201
-197.290	391.117	-0.162	0.331
-196.275	-64.881	0.336	0.134
-195.260	20.582	-0.127	0.102
-194.246	-200.000	-0.057	-0.254
-193.231	-145.626	0.162	-0.014
-192.217	800.000	-0.083	-0.245
-191.202	-74.561	0.198	-0.070
-190.187	191.730	-0.259	0.385
-189.173	410.785	0.089	-0.187
-188.158	-90.750	0.058	-0.016
-187.144	-200.000	-0.013	0.342
-186.129	-45.467	-0.158	-0.077
-185.114	577.326	-0.063	-0.152
-184.100	-51.040	0.323	0.149
-183.085	241.279	-0.088	0.145
-182.071	800.000	-0.013	0.054
-181.056	233.881	-0.056	-0.091
-180.042	33.471	0.136	-0.117
-179.027	2.102	-0.019	-0.014
-178.012	109.551	-0.281	-0.332
-176.998	-126.840	-0.261	-0.038
-175.983	-200.000	-0.034	0.255
-174.969	800.000	-0.028	-0.100
-173.954	-200.000	-0.016	0.226
-172.939	34.812	-0.344	-0.297
-171.925	-107.559	0.256	0.055
-170.910	800.000	-0.051	-0.172
-169.896	252.363	0.163	0.274
-168.881	51.299	0.040	-0.037
-167.866	-16.527	-0.217	0.135
-166.852	-85.013	-0.224	0.069
-165.837	800.000	-0.058	-0.219
-164.823	133.969	-0.091	-0.116
-163.808	-200.000	-0.006	-0.050
-162.793	-112.726	0.200	-0.039
-161.779	800.000	-0.064	-0.238
-160.764	-115.231	0.034	0.006
-159.750	800.000	-0.035	-0.102
-158.735	114.198	0.257	0.308
-157.720	-200.000	-0.033	0.146
-156.706	-104.996	-0.166	0.037
-155.691	-200.000	-0.011	0.066
-154.677	171.003	0.058	0.082
-153.662	10.216	-0.222	-0.167
-152.647	186.130	0.211	0.310
-151.633	6.504	-0.182	0.134
-150.618	544.308	-0.098	0.230
-149.604	800.000	-0.087	0.259
-148.589	-91.367	0.353	0.099
-147.574	-200.000	0.025	-0.197
-146.560	-200.000	0.025	0.254
-145.545	-125.674	0.115	-0.017
-144.531	-200.000	-0.017	0.129
-143.516	800.000	0.044	0.154
-142.502	-95.488	0.258	-0.068
-141.487	800.000	0.028	-0.088
-140.472	-126.079	0.238	-0.035
-139.458	-15.171	0.275	-0.174
-138.443	620.625	-0.090	0.222
-137.429	-172.333	-0.248	0.008
-136.414	223.356	0.217	0.345
-135.399	-33.444	0.254	0.138
-134.385	285.882	0.174	0.310
-133.370	621.253	-0.072	0.179
-132.356	-91.386	-0.108	0.030
-131.341	240.353	0.083	-0.137
-130.326	-35.929	-0.185	0.098
-129.312	359.347	0.117	0.231
-128.297	800.000	-0.042	0.152
-127.283	369.721	0.109	-0.217
-126.268	-139.436	-0.200	0.021
-125.253	-99.100	-0.119	-0.030
-124.239	-129.087	-0.181	0.025
-123.224	-97.278	0.288	0.074
-122.210	222.992	-0.143	-0.227
