DTS Sentinel unit serial number:	SN413079Multiplexer serial number:	ORYXHardware model number:	OX4-SRSoftware version number:	ORYX F/W v4.00 Oryx Data Collector v3.7.2.0data status	okinstallation	princeton_trtdifferential loss correction	single-endedforward channel	channel 3reverse channel	N/Adate	2019/09/17time	00:04:35forward acquisition time	60.00reverse acquisition time	0.00gamma	496.2192k internal	0.2325k external	0.2325temperature offset calibration	0.9944default loss term (dB/km)	0.3790temperature slope calibration	1.0000multiplexer offset coefficient	1.0000multiplexer slope coefficient	1.0000fibre end	0.00T internal ref (°C)	29.56T ext. ref 1 (°C)	0.10T ext. ref 2 (°C)	23.94length (m)	temperature (°C)	Stokes	anti-Stokes-747.200	439.180	-0.103	0.226
-746.185	-8.830	-0.184	0.125
-745.171	-119.567	-0.179	0.031
-744.156	-146.811	-0.103	0.009
-743.142	-26.089	-0.239	-0.142
-742.127	-161.342	0.172	0.009
-741.112	104.282	0.446	0.530
-740.098	299.144	0.046	-0.086
-739.083	800.000	0.060	-0.257
-738.069	-15.030	-0.474	0.306
-737.054	-141.446	-0.599	0.061
-736.039	-31.498	-0.331	-0.188
-735.025	9.433	0.046	-0.035
-734.010	-103.023	0.077	0.018
-732.996	-102.805	-0.085	-0.021
-731.981	7.458	-0.228	-0.172
-730.966	-82.945	-0.322	-0.105
-729.952	48.277	0.199	0.187
-728.937	-111.994	-0.096	0.020
-727.923	-129.275	0.049	0.007
-726.908	182.838	0.073	-0.109
-725.894	-73.233	-0.267	0.099
-724.879	24.261	-0.016	-0.013
-723.864	52.930	-0.095	-0.092
-722.850	-200.000	-0.008	-0.127
-721.835	210.900	-0.148	-0.234
-720.821	-72.309	0.072	0.027
-719.806	-149.164	-0.237	0.019
-718.791	15.749	0.212	-0.168
-717.777	13.640	-0.130	-0.102
-716.762	800.000	0.032	-0.123
-715.748	-162.059	-0.206	-0.010
-714.733	-33.791	-0.270	0.150
-713.718	196.989	-0.092	0.142
-712.704	249.620	-0.076	-0.130
-711.689	800.000	0.117	0.343
-710.675	-103.468	-0.210	-0.050
-709.660	-82.904	-0.341	-0.111
-708.645	203.919	-0.137	-0.214
-707.631	-149.478	-0.187	-0.015
-706.616	-200.000	0.050	0.412
-705.602	-85.278	-0.243	-0.077
-704.587	774.564	0.046	-0.127
-703.572	-113.143	-0.430	0.085
-702.558	-18.596	0.224	0.141
-701.543	800.000	0.062	-0.241
-700.529	36.758	-0.233	0.208
-699.514	52.939	0.099	0.095
-698.499	-46.538	-0.179	-0.088
-697.485	-200.000	-0.055	0.412
-696.470	20.423	0.096	-0.078
-695.456	133.756	0.034	-0.044
-694.441	305.810	-0.107	-0.201
-693.426	-26.136	0.277	0.164
-692.412	195.225	-0.163	0.249
-691.397	-155.761	-0.331	0.021
-690.383	-9.510	-0.109	-0.073
-689.368	-65.989	-0.124	-0.050
-688.354	-200.000	-0.003	-0.342
-687.339	37.140	-0.177	0.158
-686.324	800.000	-0.062	0.204
-685.310	-200.000	-0.018	-0.240
-684.295	-112.756	-0.265	0.053
-683.281	12.642	0.305	0.237
-682.266	17.000	0.111	0.089
-681.251	615.416	-0.047	0.118
-680.237	-107.224	-0.223	-0.049
-679.222	-128.694	-0.149	-0.021
-678.208	-200.000	0.040	-0.411
-677.193	-74.223	-0.205	0.074
-676.178	-87.874	0.022	0.007
-675.164	219.649	0.093	-0.150
-674.149	-144.636	0.148	-0.014
-673.135	-80.604	-0.264	-0.088
-672.120	-111.487	0.192	0.039
-671.105	-32.706	-0.289	-0.162
-670.091	758.890	0.096	-0.262
-669.076	-49.845	0.196	0.093
-668.062	57.983	-0.067	0.066
-667.047	-43.410	0.154	0.078
-666.032	-136.740	-0.176	-0.020
-665.018	650.773	-0.106	0.273
-664.003	-200.000	-0.012	-0.315
-662.989	-146.620	0.475	-0.041
-661.974	-37.898	0.236	0.126
-660.959	166.604	0.130	-0.185
-659.945	-200.000	-0.001	-0.322
-658.930	168.550	0.203	0.290
-657.916	185.347	-0.034	0.051
-656.901	-200.000	0.011	-0.206
-655.886	-98.837	-0.267	-0.068
-654.872	118.766	-0.103	-0.128
-653.857	-87.614	0.229	0.069
-652.843	-14.789	-0.329	-0.212
-651.828	155.887	-0.171	0.237
-650.814	800.000	-0.013	0.050
-649.799	130.573	0.179	-0.231
-648.784	335.970	-0.092	0.179
-647.770	171.751	0.106	0.153
-646.755	-193.419	-0.214	0.002
-645.741	619.792	0.036	0.091
-644.726	66.828	0.074	-0.075
-643.711	-200.000	-0.011	0.127
-642.697	-179.841	-0.293	0.006
-641.682	52.529	-0.139	0.133
-640.668	8.522	-0.161	-0.122
-639.653	-200.000	-0.006	-0.117
-638.638	-200.000	0.017	0.235
-637.624	800.000	-0.038	0.106
-636.609	-41.402	0.095	0.049
-635.595	-200.000	-0.038	0.167
-634.580	-37.820	-0.113	-0.061
-633.565	-158.559	0.130	0.008
-632.551	-98.368	0.398	0.102
-631.536	-200.000	-0.045	0.320
-630.522	174.218	-0.129	-0.187
-629.507	-59.408	-0.212	0.092
-628.492	-200.000	0.010	0.048
-627.478	-21.237	0.159	0.097
-626.463	236.304	-0.141	-0.235
-625.449	-200.000	0.011	-0.055
-624.434	800.000	0.090	0.255
-623.419	-91.819	-0.086	0.025
-622.405	-9.650	-0.377	-0.252
-621.390	90.250	0.088	-0.099
-620.376	-29.260	-0.170	-0.098
-619.361	504.911	0.108	-0.251
-618.346	-200.000	-0.010	-0.422
-617.332	-200.000	0.008	-0.103
-616.317	-38.858	0.352	-0.186
-615.303	-112.903	-0.047	-0.009
-614.288	-107.073	0.333	-0.074
-613.273	646.488	-0.121	-0.311
-612.259	629.394	-0.065	0.166
-611.244	-157.674	-0.176	0.011
-610.230	800.000	0.081	0.263
-609.215	-125.961	-0.095	-0.014
-608.201	-128.628	0.266	0.038
-607.186	673.368	-0.084	-0.219
-606.171	-200.000	0.051	-0.265
-605.157	328.555	0.134	-0.259
-604.142	221.824	0.057	0.092
-603.128	25.223	0.295	0.246
-602.113	-108.273	0.186	-0.040
-601.098	-103.250	0.352	-0.083
-600.084	273.760	-0.153	-0.272
-599.069	-50.576	-0.338	0.160
-598.055	800.000	0.077	-0.274
-597.040	-59.095	0.261	0.113
-596.025	-200.000	0.083	0.418
-595.011	42.959	-0.087	0.079
-593.996	-64.804	-0.228	-0.093
-592.982	171.795	0.070	-0.101
-591.967	-167.521	-0.169	0.007
-590.952	-200.000	0.053	0.284
-589.938	-37.213	0.278	0.149
-588.923	-78.269	-0.147	0.051
-587.909	98.332	-0.191	-0.221
-586.894	-91.533	0.325	-0.093
-585.879	-194.858	-0.145	0.001
-584.865	-21.342	-0.106	-0.065
-583.850	-95.202	0.228	0.062
-582.836	-200.000	-0.018	0.269
-581.821	-82.151	-0.111	0.036
-580.806	800.000	-0.071	-0.294
-579.792	170.917	0.214	0.307
-578.777	-58.662	-0.262	-0.114
-577.763	135.709	0.159	0.207
-576.748	-83.164	0.230	0.074
-575.733	74.745	-0.101	0.107
-574.719	-200.000	-0.232	-0.001
-573.704	58.834	-0.277	-0.273
-572.690	-78.027	-0.323	-0.111
-571.675	-150.343	0.259	0.020
-570.661	230.192	-0.122	-0.201
-569.646	-115.748	-0.058	0.011
-568.631	-200.000	-0.005	-0.367
-567.617	35.708	0.268	-0.236
-566.602	-97.562	0.393	-0.102
-565.588	-200.000	-0.000	0.198
-564.573	-93.668	0.018	0.005
-563.558	-175.188	-0.153	0.004
-562.544	-10.540	0.220	0.146
-561.529	-200.000	0.019	-0.248
-560.515	-63.302	-0.099	0.041
-559.500	14.527	-0.082	-0.064
-558.485	187.129	0.132	-0.197
-557.471	-140.935	-0.261	0.027
-556.456	-0.923	-0.418	-0.296
-555.442	-200.000	0.002	-0.076
-554.427	5.900	0.244	0.181
-553.412	800.000	-0.097	0.390
-552.398	305.587	-0.097	-0.180
-551.383	-199.937	0.339	-0.002
-550.369	-92.683	-0.172	0.048
-549.354	8.783	-0.092	0.070
-548.339	75.051	0.255	0.269
-547.325	-78.833	-0.106	-0.036
-546.310	-62.945	0.214	0.088
-545.296	6.720	0.170	-0.126
-544.281	46.643	-0.089	-0.083
-543.266	800.000	0.034	0.134
-542.252	-200.000	0.000	-0.105
-541.237	-200.000	0.016	0.147
-540.223	428.157	-0.080	0.174
-539.208	30.267	0.051	0.044
-538.193	-79.333	-0.184	0.062
-537.179	800.000	0.072	-0.239
-536.164	-200.000	-0.001	0.181
-535.150	-59.480	0.144	-0.062
-534.135	-123.355	0.601	0.096
-533.121	-197.533	-0.130	-0.001
-532.106	81.255	0.278	-0.301
-531.091	-200.000	0.010	-0.244
-530.077	-137.992	-0.147	-0.016
-529.062	37.948	0.194	0.172
-528.048	-107.580	0.465	0.102
-527.033	-39.520	-0.233	-0.122
-526.018	-90.291	0.340	-0.099
-525.004	89.826	-0.168	0.188
-523.989	574.261	-0.138	0.337
-522.975	40.469	0.080	-0.072
-521.960	111.247	-0.161	0.194
-520.945	-200.000	-0.035	0.254
-519.931	-77.895	-0.175	-0.060
-518.916	-113.510	-0.212	0.042
-517.902	-200.000	-0.049	-0.238
-516.887	508.479	-0.115	0.268
-515.872	211.049	-0.077	0.120
-514.858	-35.180	-0.108	0.059
-513.843	-29.364	0.379	-0.217
-512.829	-75.604	0.052	-0.019
-511.814	84.836	-0.116	-0.127
-510.799	431.298	0.094	0.203
-509.785	-132.671	0.183	0.023
-508.770	-90.041	0.114	-0.033
-507.756	362.290	0.059	-0.118
-506.741	-68.056	0.118	0.046
-505.726	-108.110	0.110	-0.024
-504.712	276.214	0.044	0.077
-503.697	-115.249	-0.303	0.057
-502.683	-50.187	-0.172	-0.081
-501.668	538.055	-0.111	-0.265
-500.653	-200.000	0.029	-0.181
-499.639	800.000	0.064	0.211
-498.624	224.685	-0.165	0.267
-497.610	-15.422	0.215	-0.137
-496.595	74.714	-0.347	-0.364
-495.581	135.417	-0.091	-0.119
-494.566	-122.661	-0.108	-0.017
-493.551	98.597	0.115	0.132
-492.537	364.759	0.089	-0.180
-491.522	-154.292	-0.408	-0.027
-490.508	528.772	0.057	-0.135
-489.493	146.363	0.082	0.110
-488.478	339.105	-0.112	0.219
-487.464	-200.000	-0.083	0.566
-486.449	-200.000	-0.052	0.331
-485.435	403.692	0.072	-0.151
-484.420	-30.079	0.042	0.024
-483.405	195.853	-0.084	0.128
-482.391	-159.979	0.298	0.016
-481.376	-200.000	-0.027	0.223
-480.362	-200.000	0.072	0.458
-479.347	-73.456	0.119	0.043
-478.332	-173.557	-0.611	-0.018
-477.318	-200.000	-0.020	0.163
-476.303	15.001	0.215	0.168
-475.289	4.168	-0.145	0.106
-474.274	-200.000	-0.016	-0.170
-473.259	-200.000	0.038	0.199
-472.245	71.900	-0.276	-0.286
-471.230	-168.211	0.339	-0.013
-470.216	150.674	0.078	0.106
-469.201	554.130	0.020	-0.048
-468.186	-200.000	0.003	-0.150
-467.172	715.081	-0.082	-0.218
-466.157	-166.536	-0.148	0.006
-465.143	85.712	-0.222	-0.244
-464.128	129.298	-0.120	-0.153
-463.113	112.308	0.248	-0.300
-462.099	-200.000	-0.034	0.196
-461.084	72.896	-0.187	0.195
-460.070	73.139	0.225	-0.235
-459.055	-200.000	-0.003	-0.091
-458.040	-7.683	0.233	0.157
-457.026	-93.855	0.142	-0.039
-456.011	800.000	0.059	0.254
-454.997	800.000	0.098	0.274
-453.982	800.000	-0.071	0.213
-452.968	-200.000	-0.019	0.274
-451.953	117.537	0.145	-0.178
-450.938	98.765	-0.044	-0.050
-449.924	-74.515	0.307	0.110
-448.909	475.826	0.006	-0.012
-447.895	800.000	0.031	-0.108
-446.880	-146.358	-0.212	0.019
-445.865	-200.000	-0.008	0.442
-444.851	-91.063	-0.149	0.043
-443.836	320.966	0.124	-0.235
-442.822	-200.000	0.016	-0.112
-441.807	800.000	-0.036	-0.128
-440.792	283.546	0.116	-0.208
-439.778	77.249	0.051	-0.054
-438.763	-135.734	-0.235	0.028
-437.749	-64.486	-0.086	0.035
-436.734	295.222	0.230	0.420
-435.719	-38.568	0.244	-0.129
-434.705	-14.142	0.266	0.171
-433.690	-64.087	-0.168	-0.068
-432.676	-200.000	-0.008	0.071
-431.661	159.429	0.082	0.113
-430.646	800.000	0.046	0.147
-429.632	-200.000	0.002	-0.071
-428.617	-37.641	-0.127	0.067
-427.603	207.583	-0.087	-0.136
-426.588	395.977	-0.076	-0.158
-425.573	51.290	0.152	-0.144
-424.559	-149.749	-0.112	-0.009
-423.544	-21.083	-0.118	0.072
-422.530	461.270	0.096	0.213
-421.515	800.000	0.053	0.215
-420.500	800.000	0.045	-0.146
-419.486	158.282	-0.180	-0.248
-418.471	20.317	-0.166	0.134
-417.457	-153.684	-0.324	-0.022
-416.442	696.412	0.010	0.027
-415.428	-60.523	0.092	-0.039
-414.413	-107.151	0.014	-0.003
-413.398	-200.000	-0.019	0.146
-412.384	50.254	-0.090	0.085
-411.369	-200.000	0.005	-0.180
-410.355	-156.957	0.170	0.010
-409.340	800.000	-0.027	0.099
-408.325	-78.052	-0.216	0.074
-407.311	-200.000	0.043	0.305
-406.296	86.703	-0.084	0.093
-405.282	800.000	0.044	-0.168
-404.267	-169.019	0.248	-0.009
-403.252	-184.178	-0.140	0.002
-402.238	68.445	-0.030	0.031
-401.223	-200.000	0.018	-0.134
-400.209	-200.000	-0.021	0.122
-399.194	-64.642	-0.386	0.156
-398.179	-200.000	-0.012	-0.106
-397.165	148.648	0.029	-0.039
-396.150	162.493	0.041	0.057
-395.136	-5.951	0.150	0.102
-394.121	-200.000	0.027	-0.129
-393.106	161.491	-0.062	-0.086
-392.092	-57.608	0.221	0.096
-391.077	67.004	-0.112	0.114
-390.063	-129.506	0.181	-0.025
-389.048	-50.386	-0.134	-0.063
-388.033	79.436	-0.020	0.022
-387.019	-43.213	-0.289	-0.146
-386.004	-96.966	-0.145	-0.038
-384.990	-200.000	0.025	0.302
-383.975	261.603	-0.203	-0.350
-382.960	-91.071	-0.024	0.007
-381.946	530.160	0.070	0.166
-380.931	-53.285	0.065	-0.029
-379.917	-127.938	0.259	0.037
-378.902	-87.569	-0.126	-0.038
-377.888	340.627	-0.138	-0.268
-376.873	-78.068	0.396	0.136
-375.858	-89.841	0.262	0.076
-374.844	-65.669	-0.204	0.081
-373.829	800.000	-0.071	-0.285
-372.815	-90.398	0.437	0.126
-371.800	-200.000	-0.003	0.093
-370.785	-78.946	-0.151	0.051
-369.771	439.924	-0.143	0.312
-368.756	-200.000	-0.007	-0.172
-367.742	253.309	-0.100	-0.170
-366.727	-31.997	-0.184	0.102
-365.712	104.422	0.129	-0.151
-364.698	-34.015	0.058	-0.032
-363.683	-200.000	0.019	-0.105
-362.669	738.328	0.091	-0.244
-361.654	410.548	-0.099	0.208
-360.639	2.665	-0.160	0.115
-359.625	162.385	-0.150	0.209
-358.610	57.808	-0.024	0.024
-357.596	-124.490	0.060	0.009
-356.581	257.886	-0.019	0.033
-355.566	167.664	0.062	0.088
-354.552	-200.000	0.021	0.292
-353.537	-151.327	0.094	-0.007
-352.523	220.720	0.101	0.160
-351.508	224.987	0.081	0.130
-350.493	800.000	-0.064	0.265
-349.479	-200.000	-0.007	0.052
-348.464	127.607	-0.148	-0.187
-347.450	-187.857	0.136	0.002
-346.435	-200.000	0.001	-0.091
-345.420	-200.000	-0.010	0.049
-344.406	-136.103	0.343	-0.040
-343.391	-133.022	0.187	0.024
-342.377	-166.488	0.317	0.013
-341.362	68.279	-0.098	-0.100
-340.348	658.785	-0.023	-0.059
-339.333	-160.269	-0.218	0.012
-338.318	800.000	0.109	-0.341
-337.304	63.966	-0.150	-0.150
-336.289	-200.000	-0.009	-0.246
-335.275	-200.000	0.073	0.341
-334.260	-178.237	0.430	0.010
-333.245	151.261	0.039	0.052
-332.231	-99.541	0.219	0.055
-331.216	-69.291	-0.300	0.115
-330.202	745.106	0.062	0.166
-329.187	800.000	-0.149	-0.456
-328.172	-149.395	0.441	-0.035
-327.158	147.630	-0.094	-0.126
-326.143	-124.830	0.178	0.027
-325.129	-200.000	0.007	-0.123
-324.114	119.480	-0.178	-0.219
-323.099	-90.349	0.448	-0.129
-322.085	-200.000	0.003	-0.263
-321.070	10.355	-0.290	0.219
-320.056	-6.769	-0.216	0.146
-319.041	13.380	0.208	0.160
-318.026	49.529	-0.071	0.066
-317.012	-200.000	-0.000	-0.107
-315.997	533.810	0.033	0.078
-314.983	-200.000	0.055	-0.312
-313.968	-200.000	0.010	-0.106
-312.953	-77.611	0.044	0.015
-311.939	205.891	-0.143	0.221
-310.924	-200.000	0.001	-0.037
-309.910	-152.780	0.305	0.021
-308.895	153.160	0.189	0.257
-307.880	-76.688	0.293	0.102
-306.866	67.553	0.109	0.110
-305.851	800.000	-0.147	0.463
-304.837	315.734	0.056	0.105
-303.822	-109.866	-0.279	0.058
-302.807	189.939	0.040	0.060
-301.793	155.467	-0.045	0.062
-300.778	-129.111	-0.273	-0.038
-299.764	-9.030	0.242	0.160
-298.749	471.700	-0.173	-0.386
-297.735	8.689	-0.342	-0.255
-296.720	249.781	-0.143	0.241
-295.705	-200.000	0.059	0.268
-294.691	-200.000	0.022	0.175
-293.676	0.760	-0.101	0.071
-292.662	-105.365	0.523	-0.118
-291.647	56.110	0.006	-0.006
-290.632	-178.615	-0.216	-0.005
-289.618	475.981	0.036	-0.080
-288.603	241.212	0.146	0.242
-287.589	122.653	-0.122	-0.152
-286.574	314.143	0.122	-0.228
-285.559	-135.179	-0.244	-0.029
-284.545	-200.000	-0.056	0.362
-283.530	-200.000	0.008	-0.242
-282.516	21.678	0.116	-0.094
-281.501	-4.141	0.034	-0.023
-280.486	-200.000	-0.048	-0.385
-279.472	216.014	-0.080	0.126
-278.457	-45.951	-0.403	0.197
-277.443	567.345	0.057	0.138
-276.428	323.798	-0.047	0.088
-275.413	-10.341	-0.207	0.136
-274.399	742.136	-0.044	-0.117
-273.384	117.963	-0.198	-0.241
-272.370	24.239	0.018	0.014
-271.355	-136.283	-0.164	-0.019
-270.340	15.018	-0.349	-0.271
-269.326	-200.000	-0.048	-0.301
-268.311	72.883	-0.296	-0.307
-267.297	64.459	-0.111	0.110
-266.282	-44.542	-0.321	0.159
-265.267	15.237	-0.307	0.239
-264.253	-116.010	-0.124	-0.023
-263.238	-200.000	0.058	-0.259
-262.224	-134.096	-0.076	0.009
-261.209	-149.068	0.186	-0.015
-260.195	-25.980	0.158	-0.092
-259.180	-126.637	-0.247	-0.036
-258.165	248.837	-0.031	-0.052
-257.151	-99.444	-0.233	0.058
-256.136	-74.676	0.105	-0.037
-255.122	-141.547	-0.234	0.023
-254.107	800.000	-0.108	-0.335
-253.092	-48.296	0.143	0.068
-252.078	672.858	0.078	0.200
-251.063	-200.000	0.009	-0.110
-250.049	-140.910	-0.264	-0.027
-249.034	112.908	0.199	-0.239
-248.019	109.944	0.164	0.194
-247.005	-200.000	-0.002	0.114
-245.990	-115.429	0.165	0.031
-244.976	705.278	0.113	-0.296
-243.961	158.838	0.112	-0.154
-242.946	11.880	-0.204	-0.155
-241.932	-107.932	-0.036	0.008
-240.917	247.673	0.056	-0.093
-239.903	-200.000	0.039	-0.200
-238.888	54.596	-0.149	0.142
-237.873	-69.044	-0.125	-0.048
-236.859	188.870	-0.083	-0.123
-235.844	800.000	0.043	0.133
-234.830	130.416	-0.150	-0.190
-233.815	800.000	-0.106	-0.314
-232.800	-120.143	0.213	0.036
-231.786	215.053	-0.079	-0.124
-230.771	295.457	0.201	-0.364
-229.757	-50.680	0.214	-0.100
-228.742	-200.000	0.012	0.394
-227.727	-108.086	-0.216	0.046
-226.713	-129.199	0.336	-0.046
-225.698	-76.553	-0.271	-0.094
-224.684	-161.477	-0.159	0.008
-223.669	-143.845	-0.226	0.021
-222.655	-105.840	0.175	-0.039
-221.640	-10.421	0.196	0.128
-220.625	-15.308	-0.317	-0.201
-219.611	54.918	0.275	0.263
-218.596	-107.051	0.107	-0.023
-217.582	97.618	-0.117	0.133
-216.567	0.434	-0.437	-0.308
-215.552	385.652	0.046	0.094
-214.538	-200.000	0.029	0.299
-213.523	-36.188	0.071	-0.038
-212.509	-108.685	0.322	-0.068
-211.494	800.000	-0.073	-0.233
-210.479	800.000	0.037	-0.112
-209.465	800.000	-0.060	-0.238
-208.450	-81.137	0.272	-0.089
-207.436	-18.124	-0.200	0.124
-206.421	-40.386	0.214	-0.110
-205.406	-37.112	-0.347	0.184
-204.392	800.000	-0.065	-0.282
-203.377	800.000	0.046	0.152
-202.363	364.856	0.106	0.211
-201.348	-18.883	0.118	-0.072
-200.333	-200.000	-0.007	-0.059
-199.319	41.624	-0.076	0.068
-198.304	-63.130	-0.034	0.014
-197.290	82.717	-0.261	-0.280
-196.275	18.275	0.160	-0.126
-195.260	113.494	-0.052	0.063
-194.246	297.251	0.143	-0.259
-193.231	379.526	0.066	0.133
-192.217	-200.000	0.091	0.409
-191.202	800.000	0.033	0.113
-190.187	800.000	-0.040	0.151
-189.173	728.151	-0.140	-0.368
-188.158	800.000	0.083	0.300
-187.144	290.254	0.170	-0.304
-186.129	-159.663	-0.170	-0.009
-185.114	-200.000	0.021	0.193
-184.100	-51.428	0.170	0.079
-183.085	-200.000	0.030	0.316
-182.071	-200.000	-0.023	-0.180
-181.056	-168.620	0.226	-0.008
-180.042	-200.000	-0.012	0.213
-179.027	-90.521	-0.295	-0.084
-178.012	86.481	-0.058	0.063
-176.998	-153.352	0.039	-0.003
-175.983	73.856	-0.219	-0.227
-174.969	0.719	0.158	0.112
-173.954	49.489	-0.095	0.088
-172.939	-200.000	0.014	-0.113
-171.925	-48.573	-0.164	-0.078
-170.910	16.592	-0.119	-0.093
-169.896	323.015	0.096	0.180
-168.881	117.950	-0.053	0.064
-167.866	-200.000	-0.018	-0.168
-166.852	103.825	0.145	0.168
-165.837	243.279	0.081	0.134
-164.823	331.398	-0.089	0.169
-163.808	800.000	0.178	0.501
-162.793	-62.125	-0.194	-0.080
-161.779	57.616	0.213	-0.205
-160.764	77.400	0.177	-0.186
-159.750	800.000	-0.052	0.206
-158.735	407.291	0.162	-0.337
-157.720	-48.546	0.240	-0.114
-156.706	-123.453	0.285	0.045
-155.691	-31.410	-0.175	-0.097
-154.677	-178.676	0.380	0.009
-153.662	-28.572	0.085	-0.048
-152.647	-126.950	-0.358	-0.052
-151.633	800.000	0.083	-0.281
-150.618	800.000	0.033	-0.119
-149.604	316.846	-0.102	-0.189
-148.589	-156.875	-0.228	0.014
-147.574	-200.000	-0.093	-0.498
-146.560	-200.000	-0.024	-0.160
-145.545	-32.681	-0.309	0.170
-144.531	-34.929	0.236	0.127
-143.516	-200.000	-0.038	-0.215
-142.502	-15.974	-0.071	-0.045
-141.487	122.996	0.166	0.205
-140.472	291.878	0.164	0.294
-139.458	-24.266	0.137	-0.081
-138.443	-200.000	-0.009	0.082
-137.429	32.815	-0.087	0.074
-136.414	12.905	-0.171	0.130
-135.399	-153.818	-0.202	0.014
-134.385	-44.444	0.135	0.067
-133.370	-148.696	0.227	0.018
-132.356	111.841	0.055	-0.065
-131.341	-200.000	-0.019	0.087
-130.326	52.971	0.180	0.169
-129.312	-138.966	-0.180	0.019
-128.297	446.341	0.113	-0.244
-127.283	-88.624	0.259	0.076
-126.268	32.611	-0.106	-0.090
-125.253	-200.000	-0.021	-0.105
-124.239	800.000	-0.049	0.155
-123.224	15.365	0.173	0.133
-122.210	69.879	0.224	0.227
