DTS Sentinel unit serial number:	SN413079Multiplexer serial number:	ORYXHardware model number:	OX4-SRSoftware version number:	ORYX F/W v4.00 Oryx Data Collector v3.7.2.0data status	okinstallation	princeton_trtdifferential loss correction	single-endedforward channel	channel 3reverse channel	N/Adate	2019/09/19time	10:44:34forward acquisition time	60.00reverse acquisition time	0.00gamma	496.2192k internal	0.2342k external	0.2342temperature offset calibration	0.9980default loss term (dB/km)	0.3790temperature slope calibration	1.0000multiplexer offset coefficient	1.0000multiplexer slope coefficient	1.0000fibre end	0.00T internal ref (°C)	24.62T ext. ref 1 (°C)	0.74T ext. ref 2 (°C)	20.12length (m)	temperature (°C)	Stokes	anti-Stokes-747.200	30.019	-0.075	-0.064
-746.185	-127.465	-0.115	-0.017
-745.171	75.526	0.258	0.273
-744.156	-91.518	0.449	-0.128
-743.142	-79.103	0.320	-0.109
-742.127	800.000	-0.037	-0.143
-741.112	-200.000	0.027	0.256
-740.098	-96.900	0.269	0.071
-739.083	-200.000	0.000	-0.147
-738.069	-200.000	-0.012	0.114
-737.054	-12.052	-0.239	-0.157
-736.039	257.589	-0.217	-0.374
-735.025	68.126	0.150	-0.154
-734.010	77.708	-0.188	-0.201
-732.996	-42.343	-0.175	-0.089
-731.981	-71.961	-0.284	0.106
-730.966	114.302	0.154	0.188
-729.952	-200.000	-0.034	0.224
-728.937	-91.363	0.257	0.073
-727.923	446.766	0.128	-0.282
-726.908	30.958	0.211	-0.181
-725.894	-12.198	-0.261	0.171
-724.879	-85.848	-0.170	-0.053
-723.864	-48.306	-0.034	-0.016
-722.850	-89.618	0.222	-0.065
-721.835	-78.365	-0.084	-0.029
-720.821	-18.438	0.284	-0.177
-719.806	-15.162	0.216	0.139
-718.791	-6.436	0.190	-0.129
-717.777	-200.000	-0.055	-0.383
-716.762	88.374	-0.141	-0.157
-715.748	-107.384	0.136	-0.030
-714.733	56.536	0.148	-0.144
-713.718	800.000	-0.028	-0.115
-712.704	1.851	-0.258	-0.186
-711.689	129.646	0.151	-0.193
-710.675	800.000	-0.067	-0.260
-709.660	-170.402	-0.501	0.018
-708.645	-200.000	-0.007	0.055
-707.631	-28.370	0.250	-0.144
-706.616	-91.022	0.208	0.060
-705.602	-200.000	-0.022	0.231
-704.587	-200.000	-0.007	-0.198
-703.572	295.772	0.133	-0.244
-702.558	29.278	-0.077	-0.065
-701.543	-95.194	-0.077	-0.021
-700.529	800.000	-0.100	-0.303
-699.514	-75.986	0.305	0.108
-698.499	-103.814	0.112	0.026
-697.485	67.082	-0.068	0.070
-696.470	800.000	-0.085	-0.263
-695.456	78.202	0.045	-0.048
-694.441	-103.525	0.229	0.054
-693.426	-143.345	-0.134	0.013
-692.412	320.604	0.238	-0.452
-691.397	800.000	0.035	-0.147
-690.383	-200.000	0.028	-0.163
-689.368	-161.656	0.379	-0.019
-688.354	-35.161	0.205	-0.111
-687.339	96.094	0.066	-0.075
-686.324	-107.680	-0.174	-0.038
-685.310	-75.071	0.213	0.076
-684.295	337.379	0.007	0.013
-683.281	-200.000	0.000	-0.015
-682.266	800.000	0.021	-0.070
-681.251	337.909	0.004	0.008
-680.237	-49.620	0.178	0.085
-679.222	-198.779	-0.140	0.001
-678.208	-122.683	-0.154	0.025
-677.193	89.594	-0.155	0.173
-676.178	63.765	-0.207	-0.208
-675.164	-200.000	-0.007	-0.193
-674.149	111.020	-0.046	-0.055
-673.135	-18.358	0.203	-0.127
-672.120	230.837	-0.096	-0.157
-671.105	95.456	0.161	-0.183
-670.091	-200.000	-0.018	-0.256
-669.076	-38.770	0.325	0.171
-668.062	-23.916	0.139	0.083
-667.047	-200.000	0.037	0.242
-666.032	142.197	0.198	0.262
-665.018	45.897	-0.034	0.031
-664.003	-200.000	0.060	0.273
-662.989	-108.219	-0.193	0.042
-661.974	-105.737	0.073	-0.016
-660.959	664.698	-0.021	-0.054
-659.945	-200.000	-0.008	0.093
-658.930	6.786	0.264	-0.196
-657.916	-200.000	0.084	-0.369
-656.901	63.920	0.144	-0.144
-655.886	214.816	-0.141	-0.223
-654.872	800.000	0.069	-0.291
-653.857	20.739	-0.108	-0.087
-652.843	56.893	-0.250	-0.243
-651.828	66.635	0.110	-0.112
-650.814	-200.000	-0.036	-0.250
-649.799	-200.000	0.057	0.432
-648.784	41.974	-0.454	-0.411
-647.770	80.110	0.104	-0.112
-646.755	-200.000	0.004	-0.065
-645.741	-127.188	0.123	0.018
-644.726	-71.022	0.195	-0.073
-643.711	642.706	0.013	0.034
-642.697	-143.650	0.202	0.019
-641.682	-24.100	-0.047	-0.028
-640.668	230.315	0.015	-0.025
-639.653	800.000	0.085	0.284
-638.638	693.233	0.028	0.073
-637.624	-200.000	-0.013	-0.201
-636.609	-200.000	0.080	-0.407
-635.595	173.920	0.172	0.248
-634.580	800.000	0.011	-0.043
-633.565	800.000	0.041	-0.168
-632.551	-65.195	-0.175	0.070
-631.536	172.589	0.084	0.121
-630.522	800.000	-0.087	-0.248
-629.507	63.529	0.049	-0.049
-628.492	800.000	-0.016	0.052
-627.478	-200.000	-0.080	-0.382
-626.463	800.000	-0.073	-0.218
-625.449	461.491	0.082	0.182
-624.434	-37.747	-0.271	0.144
-623.419	-136.994	-0.122	0.014
-622.405	-120.605	-0.474	0.080
-621.390	302.790	0.101	0.187
-620.376	-200.000	0.003	0.169
-619.361	-166.916	0.047	-0.002
-618.346	-7.769	0.216	-0.146
-617.332	-200.000	-0.004	-0.199
-616.317	-89.634	0.323	-0.094
-615.303	-200.000	-0.055	0.313
-614.288	483.184	-0.036	-0.082
-613.273	-122.584	-0.197	0.032
-612.259	-200.000	0.037	0.242
-611.244	-87.399	0.141	0.043
-610.230	-147.040	-0.218	0.019
-609.215	680.481	0.169	0.438
-608.201	57.252	-0.225	0.219
-607.186	800.000	0.031	-0.111
-606.171	-35.873	-0.119	0.064
-605.157	216.982	0.171	-0.271
-604.142	450.633	-0.078	-0.172
-603.128	-122.613	-0.271	-0.044
-602.113	-200.000	0.005	-0.051
-601.098	-79.987	0.292	0.098
-600.084	65.070	-0.184	0.185
-599.069	-23.781	-0.174	-0.104
-598.055	298.250	0.037	0.067
-597.040	309.145	0.122	-0.227
-596.025	-54.331	-0.240	0.108
-595.011	-35.843	-0.174	-0.094
-593.996	38.985	0.268	-0.238
-592.982	44.611	-0.230	0.210
-591.967	-120.303	0.121	0.021
-590.952	-94.813	0.238	0.064
-589.938	514.119	0.150	-0.348
-588.923	49.521	-0.142	-0.133
-587.909	439.391	-0.145	-0.315
-586.894	-75.328	-0.246	0.087
-585.879	800.000	0.056	-0.164
-584.865	-89.082	0.229	0.067
-583.850	-136.769	-0.229	-0.026
-582.836	-200.000	0.160	-0.000
-581.821	268.880	-0.169	-0.296
-580.806	530.271	-0.074	0.173
-579.792	-38.505	0.315	0.166
-578.777	378.408	-0.061	-0.124
-577.763	85.028	-0.035	0.039
-576.748	-200.000	-0.008	0.248
-575.733	-93.621	0.186	-0.051
-574.719	-145.982	-0.231	-0.020
-573.704	-132.258	0.194	-0.025
-572.690	-23.033	-0.211	0.127
-571.675	-200.000	-0.066	-0.327
-570.661	-200.000	0.045	-0.207
-569.646	-149.823	0.128	0.010
-568.631	-56.343	0.115	0.051
-567.617	7.972	0.224	0.167
-566.602	-200.000	0.001	0.085
-565.588	143.216	-0.166	0.220
-564.573	-200.000	-0.009	0.163
-563.558	800.000	0.043	0.170
-562.544	330.298	-0.084	-0.161
-561.529	10.006	-0.073	-0.055
-560.515	7.452	-0.203	0.151
-559.500	-69.712	-0.170	-0.065
-558.485	-36.592	0.167	-0.089
-557.471	-126.896	0.090	0.013
-556.456	-147.166	-0.432	-0.037
-555.442	-161.611	0.037	-0.002
-554.427	75.132	-0.130	-0.136
-553.412	314.644	-0.114	-0.214
-552.398	131.384	-0.269	0.344
-551.383	-17.262	0.116	0.072
-550.369	113.075	-0.236	0.284
-549.354	44.501	-0.132	0.121
-548.339	-76.624	-0.119	-0.042
-547.325	224.242	0.197	0.316
-546.310	234.911	-0.062	0.102
-545.296	116.920	-0.169	-0.206
-544.281	197.340	-0.128	-0.194
-543.266	-200.000	0.020	0.194
-542.252	-63.131	-0.246	-0.101
-541.237	238.262	-0.136	0.224
-540.223	-30.201	-0.301	0.170
-539.208	-200.000	-0.033	0.157
-538.193	577.546	0.061	-0.148
-537.179	-200.000	0.029	-0.409
-536.164	46.523	0.172	0.159
-535.150	379.382	-0.099	0.201
-534.135	-133.739	-0.305	-0.038
-533.121	800.000	0.010	-0.027
-532.106	8.034	0.199	0.148
-531.091	3.502	-0.297	-0.215
-530.077	68.901	-0.338	0.345
-529.062	-200.000	0.016	-0.179
-528.048	-100.219	0.208	-0.051
-527.033	22.088	-0.030	-0.025
-526.018	-38.336	0.041	-0.022
-525.004	406.954	0.109	-0.229
-523.989	51.723	0.149	-0.141
-522.975	-22.882	0.294	-0.176
-521.960	-23.158	-0.435	0.260
-520.945	78.714	0.089	-0.095
-519.931	800.000	-0.084	-0.277
-518.916	-105.970	-0.350	-0.078
-517.902	224.944	0.146	-0.234
-516.887	196.572	-0.119	-0.180
-515.872	52.313	-0.109	-0.103
-514.858	42.531	-0.036	-0.033
-513.843	-115.151	0.241	-0.045
-512.829	51.954	0.174	0.164
-511.814	-21.293	-0.248	-0.150
-510.799	800.000	-0.126	0.360
-509.785	-159.034	-0.256	-0.014
-508.770	85.792	0.175	0.191
-507.756	800.000	-0.063	-0.225
-506.741	122.816	-0.173	0.215
-505.726	-66.357	0.092	0.036
-504.712	163.020	0.327	0.456
-503.697	-180.011	0.169	-0.004
-502.683	-72.500	0.096	0.035
-501.668	388.326	0.096	0.197
-500.653	-200.000	0.011	0.169
-499.639	-115.955	0.104	-0.019
-498.624	31.235	0.208	-0.177
-497.610	-200.000	-0.007	-0.117
-496.595	414.502	-0.111	-0.234
-495.581	800.000	-0.106	-0.344
-494.566	9.777	0.076	-0.058
-493.551	83.963	0.176	0.190
-492.537	-62.195	0.343	-0.142
-491.522	-63.320	-0.200	-0.082
-490.508	-200.000	-0.029	-0.256
-489.493	353.871	-0.146	0.288
-488.478	316.238	0.018	-0.033
-487.464	349.947	-0.187	-0.366
-486.449	36.903	0.244	-0.214
-485.435	-106.790	-0.028	0.006
-484.420	-1.423	-0.011	0.008
-483.405	161.820	-0.135	-0.187
-482.391	-200.000	0.001	0.098
-481.376	-19.213	-0.425	0.262
-480.362	-200.000	0.003	-0.079
-479.347	360.339	-0.079	0.157
-478.332	-91.166	0.078	-0.022
-477.318	-35.493	-0.145	-0.078
-476.303	-200.000	-0.028	0.165
-475.289	-200.000	0.028	-0.201
-474.274	-128.515	-0.075	-0.010
-473.259	800.000	-0.047	-0.192
-472.245	111.700	-0.253	-0.302
-471.230	150.172	0.074	-0.099
-470.216	11.554	0.089	-0.068
-469.201	188.416	-0.301	0.446
-468.186	311.204	0.056	0.103
-467.172	-200.000	-0.002	-0.133
-466.157	-129.927	-0.123	0.017
-465.143	-28.218	0.127	-0.073
-464.128	72.213	0.104	-0.108
-463.113	193.401	-0.065	-0.098
-462.099	-181.229	-0.198	0.004
-461.084	800.000	-0.109	0.367
-460.070	-95.203	0.091	-0.024
-459.055	-87.970	-0.295	0.088
-458.040	5.273	-0.048	0.035
-457.026	-154.211	-0.051	0.003
-456.011	3.934	-0.154	-0.111
-454.997	775.581	0.092	-0.249
-453.982	-200.000	0.059	-0.332
-452.968	-200.000	-0.001	-0.105
-451.953	554.443	-0.118	-0.282
-450.938	-180.469	0.195	-0.004
-449.924	800.000	0.052	0.169
-448.909	181.618	0.059	-0.086
-447.895	103.806	0.153	0.178
-446.880	-200.000	-0.024	0.166
-445.865	-200.000	0.011	0.059
-444.851	-27.097	-0.394	-0.228
-443.836	175.228	0.158	0.227
-442.822	-21.068	-0.275	0.167
-441.807	-24.868	0.241	-0.142
-440.792	-5.348	0.210	0.143
-439.778	-140.728	-0.314	0.032
-438.763	599.752	-0.136	0.335
-437.749	155.577	-0.157	0.214
-436.734	800.000	-0.100	0.352
-435.719	271.413	-0.166	0.290
-434.705	-200.000	-0.012	-0.090
-433.690	106.607	0.241	0.282
-432.676	-71.856	0.440	0.162
-431.661	86.440	0.063	-0.068
-430.646	800.000	-0.090	-0.318
-429.632	-61.274	-0.095	-0.040
-428.617	-63.115	-0.276	0.113
-427.603	-114.071	0.135	-0.026
-426.588	66.500	-0.180	0.181
-425.573	-200.000	0.000	-0.212
-424.559	-200.000	-0.057	-0.317
-423.544	5.947	-0.194	-0.142
-422.530	-21.734	0.220	-0.133
-421.515	-200.000	0.031	-0.336
-420.500	-200.000	0.023	-0.098
-419.486	-200.000	0.043	-0.344
-418.471	175.185	0.070	-0.100
-417.457	800.000	0.041	-0.169
-416.442	72.849	0.147	-0.152
-415.428	-2.133	0.338	0.234
-414.413	45.996	0.258	0.236
-413.398	192.333	-0.219	0.326
-412.384	-130.469	-0.075	0.010
-411.369	257.624	-0.128	0.217
-410.355	2.799	-0.067	-0.048
-409.340	-28.891	-0.159	-0.090
-408.325	800.000	-0.075	-0.260
-407.311	-20.312	-0.291	-0.177
-406.296	-105.103	0.337	-0.076
-405.282	570.755	-0.068	-0.162
-404.267	-154.388	0.143	0.009
-403.252	242.382	0.285	-0.471
-402.238	-10.339	-0.211	-0.139
-401.223	800.000	0.009	0.033
-400.209	22.924	0.138	0.112
-399.194	800.000	0.044	0.189
-398.179	274.456	0.103	-0.181
-397.165	-200.000	-0.023	-0.167
-396.150	4.830	0.134	-0.097
-395.136	25.527	0.167	0.137
-394.121	90.600	0.257	0.284
-393.106	-106.812	0.103	-0.023
-392.092	38.413	0.243	-0.214
-391.077	70.367	-0.215	-0.219
-390.063	191.459	-0.234	0.348
-389.048	-107.269	0.386	0.084
-388.033	162.325	0.035	0.049
-387.019	161.074	-0.118	0.162
-386.004	415.232	0.056	0.117
-384.990	-23.179	-0.126	-0.075
-383.975	-21.156	0.164	-0.099
-382.960	69.323	0.211	0.214
-381.946	533.568	0.080	0.188
-380.931	303.809	0.033	-0.060
-379.917	-87.937	0.166	-0.049
-378.902	-102.312	-0.342	-0.081
-377.888	318.098	0.211	-0.395
-376.873	60.981	-0.104	0.102
-375.858	72.351	-0.087	-0.090
-374.844	322.157	0.139	-0.262
-373.829	-99.356	0.224	-0.056
-372.815	-160.532	-0.172	0.009
-371.800	-133.623	0.191	0.024
-370.785	-101.813	0.168	-0.040
-369.771	715.652	-0.101	-0.265
-368.756	-128.718	-0.176	0.025
-367.742	-37.014	0.266	0.140
-366.727	39.908	-0.172	-0.152
-365.712	167.063	0.153	-0.215
-364.698	25.572	-0.139	0.114
-363.683	-44.198	0.381	0.189
-362.669	644.303	-0.055	0.138
-361.654	183.533	-0.158	-0.231
-360.639	-7.213	0.229	0.153
-359.625	-52.400	-0.077	0.035
-358.610	276.936	0.017	0.030
-357.596	-43.381	0.379	-0.189
-356.581	772.984	-0.127	0.341
-355.566	23.956	0.089	0.072
-354.552	-112.882	0.171	0.033
-353.537	117.676	0.105	0.127
-352.523	-33.868	-0.245	0.133
-351.508	-77.378	0.150	-0.051
-350.493	26.623	-0.222	0.183
-349.479	61.064	-0.163	-0.160
-348.464	-163.651	0.167	0.008
-347.450	-200.000	0.025	-0.186
-346.435	298.599	0.044	-0.080
-345.420	342.674	-0.041	-0.079
-344.406	124.928	-0.031	-0.039
-343.391	-63.480	-0.176	-0.071
-342.377	-200.000	-0.010	0.089
-341.362	-84.835	-0.211	0.065
-340.348	-95.072	-0.389	-0.104
-339.333	-200.000	0.018	-0.176
-338.318	800.000	-0.046	-0.172
-337.304	-85.529	0.118	-0.036
-336.289	26.314	0.280	0.231
-335.275	20.548	-0.063	0.050
-334.260	16.696	-0.184	0.143
-333.245	-200.000	0.030	0.178
-332.231	-71.149	-0.313	0.116
-331.216	-200.000	0.018	-0.169
-330.202	800.000	-0.052	0.185
-329.187	-36.054	-0.141	0.075
-328.172	-200.000	0.018	0.192
-327.158	-200.000	0.025	0.664
-326.143	191.798	0.206	0.306
-325.129	56.586	-0.172	0.165
-324.114	800.000	0.058	-0.203
-323.099	52.509	0.159	-0.150
-322.085	800.000	-0.084	-0.296
-321.070	207.956	-0.041	0.063
-320.056	-200.000	0.033	-0.196
-319.041	290.961	0.082	-0.147
-318.026	10.875	-0.075	-0.057
-317.012	285.014	0.209	-0.371
-315.997	-154.725	-0.122	-0.008
-314.983	-155.648	-0.192	0.012
-313.968	-47.966	0.380	0.181
-312.953	800.000	-0.071	0.225
-311.939	-142.532	0.092	-0.009
-310.924	800.000	-0.106	-0.360
-309.910	152.201	-0.183	-0.246
-308.895	-56.080	0.423	0.186
-307.880	-200.000	-0.028	-0.185
-306.866	-118.393	0.175	0.031
-305.851	-160.967	-0.359	0.019
-304.837	800.000	0.068	0.215
-303.822	-88.681	-0.252	-0.074
-302.807	-3.991	0.240	0.164
-301.793	-200.000	-0.017	0.127
-300.778	-4.226	-0.106	0.072
-299.764	-74.864	0.071	0.025
-298.749	49.057	-0.191	-0.176
-297.735	15.007	0.095	0.073
-296.720	456.762	0.073	-0.160
-295.705	46.115	-0.095	-0.087
-294.691	162.161	0.164	0.226
-293.676	2.135	-0.069	0.049
-292.662	273.279	-0.109	-0.190
-291.647	-62.484	0.309	-0.126
-290.632	586.414	0.008	-0.018
-289.618	797.797	0.044	0.120
-288.603	-131.119	-0.096	-0.013
-287.589	26.346	-0.205	-0.169
-286.574	-37.803	0.077	-0.040
-285.559	188.337	0.225	0.331
-284.545	34.589	0.035	0.030
-283.530	-36.212	0.111	-0.059
-282.516	101.363	0.170	0.195
-281.501	165.012	0.084	0.116
-280.486	-200.000	0.014	0.275
-279.472	-150.931	-0.362	0.027
-278.457	-71.306	-0.153	0.056
-277.443	-78.168	0.029	-0.010
-276.428	60.117	0.249	-0.242
-275.413	-200.000	0.046	0.471
-274.399	800.000	0.069	0.228
-273.384	-66.425	-0.172	0.067
-272.370	-160.464	0.093	-0.005
-271.355	-155.674	-0.253	-0.016
-270.340	-200.000	0.023	-0.203
-269.326	88.412	-0.067	0.073
-268.311	-108.927	0.055	-0.012
-267.297	-67.534	-0.073	-0.028
-266.282	718.121	0.126	0.328
-265.267	-179.075	0.368	-0.008
-264.253	-200.000	0.053	0.271
-263.238	-165.062	-0.244	-0.011
-262.224	-139.825	-0.154	-0.016
-261.209	130.560	-0.130	-0.164
-260.195	186.154	-0.108	-0.157
-259.180	-36.697	0.101	0.053
-258.165	34.940	-0.048	0.041
-257.151	29.852	0.345	0.289
-256.136	351.344	-0.176	0.343
-255.122	-200.000	-0.009	-0.094
-254.107	199.439	-0.109	-0.164
-253.092	253.399	0.023	-0.038
-252.078	-32.084	-0.115	0.063
-251.063	-53.276	0.123	-0.055
-250.049	239.848	0.085	0.139
-249.034	-200.000	0.004	-0.048
-248.019	159.660	0.144	0.196
-247.005	-97.322	0.245	-0.063
-245.990	-33.361	0.115	-0.062
-244.976	490.967	0.149	0.335
-243.961	-200.000	0.004	-0.088
-242.946	-200.000	0.045	-0.444
-241.932	141.163	-0.239	0.310
-240.917	44.129	0.238	-0.215
-239.903	708.054	0.084	-0.217
-238.888	-78.459	-0.338	-0.114
-237.873	-200.000	-0.019	0.242
-236.859	-200.000	0.000	0.237
-235.844	136.620	0.076	0.097
-234.830	-200.000	0.042	-0.292
-233.815	800.000	0.038	0.135
-232.800	135.215	0.143	-0.183
-231.786	-52.203	-0.189	-0.086
-230.771	-200.000	-0.009	0.101
-229.757	-69.657	0.437	0.164
-228.742	-154.954	0.469	0.030
-227.727	29.179	0.117	-0.098
-226.713	114.838	-0.126	0.151
-225.698	-69.597	0.323	0.121
-224.684	495.960	0.071	-0.161
-223.669	473.600	0.076	-0.169
-222.655	112.652	0.203	0.241
-221.640	-14.205	0.210	-0.133
-220.625	172.629	-0.212	-0.299
-219.611	-65.124	0.185	-0.073
-218.596	-150.817	0.134	0.010
-217.582	159.953	-0.240	0.327
-216.567	800.000	0.077	0.209
-215.552	800.000	0.066	0.237
-214.538	58.529	0.198	-0.191
-213.523	120.476	0.108	-0.132
-212.509	110.112	-0.115	0.135
-211.494	-125.554	0.090	0.013
-210.479	-29.051	0.163	0.092
-209.465	301.525	0.027	0.050
-208.450	-200.000	-0.024	-0.113
-207.436	-74.059	0.072	0.026
-206.421	14.140	-0.089	-0.068
-205.406	-16.815	-0.081	-0.050
-204.392	38.876	-0.162	0.142
-203.377	-200.000	-0.024	-0.174
-202.363	-131.665	0.090	0.012
-201.348	103.540	-0.044	0.051
-200.333	-121.860	0.119	0.019
-199.319	-200.000	0.012	-0.230
-198.304	-200.000	0.019	0.346
-197.290	73.974	-0.093	-0.096
-196.275	800.000	0.153	0.422
-195.260	190.283	0.129	0.191
-194.246	307.136	0.182	0.333
-193.231	112.534	-0.125	-0.148
-192.217	800.000	0.051	0.213
-191.202	-89.278	-0.042	0.012
-190.187	671.093	0.038	-0.098
-189.173	50.112	-0.145	-0.134
-188.158	-200.000	-0.017	-0.244
-187.144	83.469	0.127	0.136
-186.129	-115.558	0.044	0.008
-185.114	255.339	-0.094	-0.158
-184.100	-200.000	0.036	0.259
-183.085	727.596	-0.161	-0.421
-182.071	168.153	-0.154	0.215
-181.056	16.600	0.040	0.031
-180.042	-97.268	0.151	0.039
-179.027	128.290	-0.108	-0.135
-178.012	-200.000	0.083	0.372
-176.998	-200.000	-0.026	0.165
-175.983	-25.922	0.268	0.154
-174.969	275.840	-0.331	-0.576
-173.954	-46.753	-0.444	0.213
-172.939	-167.451	0.250	-0.010
-171.925	-11.830	0.153	-0.098
-170.910	297.970	0.107	0.193
-169.896	24.351	0.104	-0.084
-168.881	64.579	-0.199	-0.197
-167.866	63.667	-0.100	0.099
-166.852	-200.000	0.013	-0.202
-165.837	-3.029	0.243	-0.166
-164.823	-200.000	0.011	0.071
-163.808	94.160	0.093	0.104
-162.793	47.455	-0.132	-0.121
-161.779	39.943	-0.207	-0.182
-160.764	-109.496	-0.266	-0.055
-159.750	141.166	0.025	0.032
-158.735	69.684	-0.032	-0.032
-157.720	124.235	0.180	-0.221
-156.706	254.406	0.247	-0.413
-155.691	800.000	-0.123	-0.344
-154.677	145.629	-0.179	0.234
-153.662	52.367	-0.048	0.045
-152.647	-81.534	0.235	0.076
-151.633	110.308	-0.247	0.291
-150.618	-200.000	-0.003	-0.138
-149.604	-0.178	-0.141	-0.098
-148.589	-200.000	0.017	-0.105
-147.574	30.922	-0.180	0.151
-146.560	77.906	-0.113	0.118
-145.545	-183.717	0.096	-0.002
-144.531	-116.458	-0.044	-0.008
-143.516	91.308	-0.064	0.071
-142.502	-200.000	0.030	0.192
-141.487	597.380	-0.138	0.333
-140.472	42.862	-0.080	0.071
-139.458	-136.521	0.140	0.016
-138.443	-200.000	0.029	-0.292
-137.429	-117.843	0.306	-0.054
-136.414	-47.330	0.319	0.152
-135.399	269.561	0.090	0.155
-134.385	-200.000	0.048	-0.318
-133.370	-136.699	-0.125	-0.014
-132.356	61.739	-0.046	0.045
-131.341	-200.000	0.022	0.385
-130.326	-43.456	-0.342	-0.169
-129.312	-64.330	-0.209	-0.083
-128.297	171.444	0.087	-0.122
-127.283	-200.000	-0.005	0.233
-126.268	241.836	-0.129	-0.212
-125.253	-105.722	-0.094	-0.021
-124.239	-115.036	0.462	-0.086
-123.224	-88.511	-0.183	0.053
-122.210	-128.560	0.156	-0.022
-121.195	262.826	0.085	-0.145
