DTS Sentinel unit serial number:	SN413079Multiplexer serial number:	ORYXHardware model number:	OX4-SRSoftware version number:	ORYX F/W v4.00 Oryx Data Collector v3.7.2.0data status	okinstallation	princeton_trtdifferential loss correction	single-endedforward channel	channel 3reverse channel	N/Adate	2019/09/14time	22:20:35forward acquisition time	60.00reverse acquisition time	0.00gamma	496.2192k internal	0.2319k external	0.2319temperature offset calibration	0.9987default loss term (dB/km)	0.3790temperature slope calibration	1.0000multiplexer offset coefficient	1.0000multiplexer slope coefficient	1.0000fibre end	0.00T internal ref (°C)	32.61T ext. ref 1 (°C)	4.70T ext. ref 2 (°C)	27.57length (m)	temperature (°C)	Stokes	anti-Stokes-747.200	-200.000	0.037	0.203
-746.185	76.821	0.262	-0.281
-745.171	-200.000	0.017	-0.305
-744.156	-157.246	0.035	-0.002
-743.142	800.000	0.016	-0.063
-742.127	102.452	0.247	0.292
-741.112	-82.562	0.257	0.084
-740.098	800.000	0.071	-0.227
-739.083	539.017	0.059	-0.141
-738.069	-118.292	-0.459	0.083
-737.054	-135.969	-0.114	-0.014
-736.039	-76.033	-0.234	0.084
-735.025	192.327	0.285	0.435
-734.010	162.804	-0.177	-0.252
-732.996	800.000	-0.125	-0.396
-731.981	74.054	0.265	-0.281
-730.966	-39.155	0.371	0.197
-729.952	141.874	-0.079	-0.106
-728.937	-116.164	0.227	-0.043
-727.923	271.536	0.073	0.129
-726.908	-10.261	0.085	0.057
-725.894	800.000	0.044	-0.185
-724.879	-200.000	-0.034	-0.284
-723.864	-15.689	-0.293	-0.189
-722.850	-137.510	0.206	-0.023
-721.835	2.613	0.106	-0.078
-720.821	-200.000	0.062	0.334
-719.806	-200.000	-0.005	0.028
-718.791	350.272	0.070	0.139
-717.777	189.133	0.058	0.087
-716.762	436.342	-0.047	0.103
-715.748	-32.885	0.410	-0.230
-714.733	25.604	-0.090	-0.076
-713.718	-30.626	-0.120	-0.068
-712.704	800.000	-0.138	0.584
-711.689	241.396	0.134	0.227
-710.675	800.000	0.017	0.065
-709.660	22.979	0.039	0.032
-708.645	628.531	0.017	-0.044
-707.631	-200.000	-0.038	0.196
-706.616	170.826	0.195	0.283
-705.602	163.193	0.135	0.192
-704.587	-67.615	0.155	-0.061
-703.572	-200.000	-0.027	-0.179
-702.558	57.596	-0.130	0.128
-701.543	26.134	0.173	-0.146
-700.529	43.396	-0.231	0.213
-699.514	-168.190	0.217	-0.009
-698.499	-129.281	-0.335	0.047
-697.485	-200.000	-0.004	0.194
-696.470	-200.000	0.010	-0.049
-695.456	-200.000	-0.078	0.361
-694.441	272.741	0.077	-0.136
-693.426	35.961	0.148	-0.132
-692.412	-46.938	0.034	0.017
-691.397	-200.000	-0.077	-0.419
-690.383	-173.455	-0.192	-0.006
-689.368	40.803	-0.169	-0.154
-688.354	-200.000	-0.030	0.000
-687.339	98.610	-0.139	-0.162
-686.324	-143.075	-0.218	-0.021
-685.310	-168.411	0.021	0.001
-684.295	-200.000	0.023	-0.281
-683.281	-70.043	0.244	0.094
-682.266	58.893	0.186	0.185
-681.251	422.705	0.143	-0.310
-680.237	-200.000	-0.012	-0.056
-679.222	51.345	-0.102	-0.098
-678.208	-73.829	-0.219	-0.080
-677.193	286.774	0.103	-0.188
-676.178	800.000	0.031	0.096
-675.164	-15.315	0.160	-0.103
-674.149	478.554	-0.090	0.206
-673.135	280.418	0.104	-0.187
-672.120	-1.594	-0.060	-0.042
-671.105	160.863	-0.028	-0.039
-670.091	-100.696	0.147	0.037
-669.076	800.000	0.060	-0.200
-668.062	5.373	0.219	-0.163
-667.047	337.882	0.044	-0.086
-666.032	-200.000	-0.005	-0.128
-665.018	539.950	0.017	-0.042
-664.003	-33.619	-0.159	-0.089
-662.989	-177.030	-0.196	-0.005
-661.974	100.878	0.180	-0.212
-660.959	11.175	-0.137	-0.106
-659.945	517.832	-0.082	-0.194
-658.930	2.371	-0.191	-0.140
-657.916	-99.822	0.198	-0.050
-656.901	19.890	0.142	0.115
-655.886	-96.284	0.085	0.023
-654.872	147.049	-0.167	-0.226
-653.857	-28.505	-0.148	0.086
-652.843	-9.260	0.253	-0.171
-651.828	58.852	-0.039	-0.038
-650.814	-200.000	-0.040	-0.324
-649.799	474.419	-0.146	-0.332
-648.784	800.000	0.038	0.118
-647.770	-200.000	0.033	-0.475
-646.755	-60.674	-0.463	-0.198
-645.741	-129.581	-0.254	0.035
-644.726	137.502	-0.179	-0.236
-643.711	-107.927	-0.165	0.036
-642.697	-124.160	0.217	-0.034
-641.682	415.324	0.169	0.362
-640.668	800.000	0.041	-0.139
-639.653	800.000	-0.059	-0.253
-638.638	-200.000	-0.021	-0.420
-637.624	0.130	-0.123	0.088
-636.609	-86.413	0.164	-0.051
-635.595	176.667	-0.113	-0.165
-634.580	-17.738	-0.320	0.202
-633.565	116.853	0.080	-0.099
-632.551	-190.378	-0.062	0.001
-631.536	-147.680	-0.278	-0.023
-630.522	32.356	0.373	-0.324
-629.507	33.718	-0.180	-0.158
-628.492	-46.118	0.170	-0.084
-627.478	207.588	-0.134	0.210
-626.463	-119.437	0.066	0.012
-625.449	370.975	-0.056	0.115
-624.434	-85.167	-0.182	0.057
-623.419	-167.231	-0.358	-0.015
-622.405	-25.909	0.027	0.016
-621.390	-200.000	0.004	-0.275
-620.376	201.781	-0.115	0.179
-619.361	219.131	-0.030	0.048
-618.346	9.911	-0.153	0.117
-617.332	290.394	-0.098	-0.179
-616.317	16.455	-0.223	-0.178
-615.303	-200.000	-0.018	-0.526
-614.288	-134.480	0.009	0.001
-613.273	26.871	0.174	-0.146
-612.259	-85.701	-0.115	0.036
-611.244	-181.226	0.175	0.004
-610.230	-158.683	-0.266	0.015
-609.215	165.495	0.125	0.178
-608.201	-80.856	0.156	0.052
-607.186	-200.000	-0.017	0.091
-606.171	326.455	-0.047	0.090
-605.157	-181.910	-0.313	-0.006
-604.142	800.000	0.068	0.203
-603.128	-200.000	-0.052	0.416
-602.113	-200.000	0.008	0.143
-601.098	-36.827	-0.154	-0.083
-600.084	187.379	0.036	-0.054
-599.069	122.703	-0.143	-0.179
-598.055	7.195	-0.133	-0.100
-597.040	-17.211	-0.164	0.104
-596.025	800.000	-0.045	-0.171
-595.011	31.141	-0.277	0.239
-593.996	-16.336	-0.027	-0.017
-592.982	-200.000	-0.003	-0.042
-591.967	-117.127	-0.136	-0.025
-590.952	-106.015	-0.278	0.063
-589.938	-74.464	-0.175	0.063
-588.923	123.404	-0.102	-0.129
-587.909	-200.000	0.002	0.101
-586.894	14.148	-0.240	-0.188
-585.879	-95.147	-0.203	-0.055
-584.865	384.485	-0.136	-0.282
-583.850	291.057	-0.077	0.140
-582.836	-200.000	-0.016	-0.111
-581.821	-98.275	-0.131	-0.034
-580.806	-12.558	-0.298	0.196
-579.792	-200.000	-0.016	-0.161
-578.777	800.000	0.078	-0.339
-577.763	-7.162	0.096	-0.066
-576.748	-102.594	0.014	-0.003
-575.733	26.330	0.225	0.189
-574.719	-125.554	0.228	-0.035
-573.704	-25.131	0.103	-0.061
-572.690	-18.910	-0.189	-0.118
-571.675	-102.844	-0.413	-0.099
-570.661	-186.778	-0.217	0.003
-569.646	-112.153	0.279	-0.056
-568.631	800.000	-0.022	-0.087
-567.617	-200.000	0.023	-0.217
-566.602	26.605	-0.245	-0.206
-565.588	-28.493	0.356	0.206
-564.573	-133.620	-0.265	-0.033
-563.558	173.676	0.066	-0.096
-562.544	-200.000	0.011	-0.256
-561.529	-116.441	0.178	0.033
-560.515	800.000	-0.010	-0.043
-559.500	-13.502	-0.165	-0.108
-558.485	800.000	-0.043	-0.146
-557.471	-154.397	0.083	0.006
-556.456	64.736	-0.130	-0.131
-555.442	-78.307	-0.303	-0.105
-554.427	-18.788	0.220	0.137
-553.412	-14.950	0.081	-0.052
-552.398	67.333	0.188	-0.193
-551.383	792.284	0.091	-0.251
-550.369	22.504	0.128	-0.105
-549.354	38.404	0.219	-0.196
-548.339	-20.420	-0.327	-0.202
-547.325	-200.000	-0.006	0.068
-546.310	-140.762	0.169	-0.018
-545.296	56.525	-0.124	0.121
-544.281	-79.958	-0.285	0.096
-543.266	800.000	0.070	-0.214
-542.252	30.036	-0.140	0.120
-541.237	-43.368	0.228	-0.116
-540.223	-93.750	-0.151	0.042
-539.208	-117.815	0.120	0.022
-538.193	520.563	-0.036	0.084
-537.179	135.191	-0.059	-0.078
-536.164	-154.772	0.164	0.011
-535.150	535.149	-0.098	-0.234
-534.135	438.073	-0.219	-0.478
-533.121	-84.458	0.322	-0.102
-532.106	-57.999	0.147	0.064
-531.091	29.152	-0.092	0.078
-530.077	757.231	-0.040	-0.109
-529.062	227.831	0.033	-0.054
-528.048	800.000	-0.077	0.245
-527.033	147.263	0.153	0.207
-526.018	446.459	-0.201	0.444
-525.004	86.167	0.112	0.123
-523.989	63.999	0.307	-0.309
-522.975	123.115	-0.067	-0.084
-521.960	443.998	-0.124	-0.274
-520.945	-200.000	0.007	-0.065
-519.931	-200.000	-0.013	0.184
-518.916	267.816	0.122	0.214
-517.902	-4.951	0.375	0.259
-516.887	-200.000	-0.021	-0.152
-515.872	142.362	0.194	-0.258
-514.858	-34.692	0.302	0.166
-513.843	452.904	0.113	-0.250
-512.829	800.000	0.050	-0.182
-511.814	25.189	0.186	0.155
-510.799	-156.828	0.326	0.020
-509.785	-32.399	0.335	-0.187
-508.770	410.111	0.154	-0.328
-507.756	75.399	-0.250	-0.265
-506.741	-200.000	-0.004	0.168
-505.726	3.644	-0.237	-0.174
-504.712	-20.569	-0.166	0.102
-503.697	-187.078	0.545	0.008
-502.683	-58.402	0.210	0.092
-501.668	100.068	0.168	0.195
-500.653	-88.030	-0.200	0.060
-499.639	-200.000	0.056	-0.303
-498.624	800.000	-0.040	0.118
-497.610	-34.147	-0.135	-0.074
-496.595	-46.932	0.104	0.051
-495.581	168.317	0.009	-0.013
-494.566	10.749	0.087	-0.067
-493.551	-108.715	0.396	-0.085
-492.537	-164.097	-0.375	-0.017
-491.522	-13.276	-0.250	-0.163
-490.508	32.248	-0.137	-0.118
-489.493	186.338	-0.155	-0.232
-488.478	-138.607	-0.186	-0.020
-487.464	148.087	-0.104	0.140
-486.449	-74.983	-0.137	0.049
-485.435	499.066	0.040	-0.093
-484.420	-51.650	0.056	-0.026
-483.405	-196.384	0.182	-0.001
-482.391	8.142	-0.172	0.130
-481.376	-59.292	-0.080	-0.034
-480.362	787.737	0.034	0.094
-479.347	330.760	-0.102	0.198
-478.332	8.155	0.165	-0.124
-477.318	19.114	0.101	-0.081
-476.303	-87.004	0.156	0.048
-475.289	-77.193	-0.310	0.108
-474.274	-167.823	-0.217	0.009
-473.259	41.814	-0.177	-0.161
-472.245	180.618	-0.056	-0.082
-471.230	394.233	0.094	-0.195
-470.216	-113.674	-0.191	0.037
-469.201	173.608	-0.075	0.108
-468.186	84.009	0.135	-0.147
-467.172	-200.000	-0.013	0.153
-466.157	297.451	-0.162	-0.298
-465.143	34.507	-0.288	0.252
-464.128	-129.906	-0.281	-0.039
-463.113	-55.648	-0.321	-0.144
-462.099	-177.697	0.408	0.010
-461.084	-200.000	-0.059	-0.267
-460.070	-119.183	0.160	0.028
-459.055	-200.000	-0.011	0.135
-458.040	9.204	0.330	0.250
-457.026	51.331	-0.354	-0.336
-456.011	-200.000	0.020	-0.104
-454.997	88.283	-0.202	0.225
-453.982	341.126	0.178	0.348
-452.968	375.571	0.082	-0.166
-451.953	116.621	-0.093	-0.114
-450.938	-127.367	0.231	0.034
-449.924	215.084	-0.123	-0.195
-448.909	46.185	0.139	-0.129
-447.895	-141.192	0.172	-0.018
-446.880	545.197	0.035	-0.083
-445.865	-139.519	-0.406	-0.043
-444.851	-76.708	0.216	0.076
-443.836	41.410	-0.073	0.066
-442.822	87.144	0.181	0.200
-441.807	-48.934	-0.140	-0.067
-440.792	-110.460	0.178	-0.037
-439.778	37.959	0.110	-0.098
-438.763	-51.423	-0.214	0.100
-437.749	800.000	-0.047	0.142
-436.734	-122.480	0.071	0.012
-435.719	112.190	-0.182	0.220
-434.705	800.000	0.101	0.384
-433.690	-103.875	0.489	0.114
-432.676	-94.684	-0.276	0.075
-431.661	-9.343	-0.093	-0.062
-430.646	-28.059	-0.063	0.036
-429.632	441.615	-0.098	0.213
-428.617	-200.000	-0.023	0.352
-427.603	91.957	-0.136	0.153
-426.588	580.999	-0.147	-0.361
-425.573	800.000	-0.145	0.474
-424.559	119.423	0.167	0.206
-423.544	-127.751	-0.168	0.024
-422.530	-200.000	-0.016	-0.438
-421.515	21.610	-0.082	0.067
-420.500	-156.871	0.142	0.009
-419.486	-174.935	-0.288	-0.008
-418.471	14.495	0.119	-0.093
-417.457	-96.947	-0.356	0.093
-416.442	800.000	-0.027	-0.092
-415.428	-66.229	-0.086	0.034
-414.413	125.724	-0.260	0.328
-413.398	179.432	0.128	-0.187
-412.384	-34.792	-0.037	-0.020
-411.369	-24.149	0.172	-0.103
-410.355	-0.779	0.157	0.111
-409.340	-22.858	0.349	-0.210
-408.325	691.092	0.112	0.292
-407.311	800.000	0.012	0.042
-406.296	-200.000	0.006	-0.123
-405.282	-158.981	-0.190	0.011
-404.267	-21.938	0.143	-0.087
-403.252	-200.000	0.080	0.440
-402.238	-200.000	-0.004	0.351
-401.223	-98.765	0.336	0.085
-400.209	-168.036	0.246	0.010
-399.194	-135.106	-0.276	-0.033
-398.179	90.779	-0.319	-0.357
-397.165	-23.950	-0.170	0.101
-396.150	20.824	0.258	0.209
-395.136	-200.000	0.032	0.299
-394.121	-200.000	0.041	0.187
-393.106	-114.608	0.430	0.082
-392.092	-55.998	-0.046	-0.020
-391.077	-34.221	-0.173	0.095
-390.063	64.030	-0.117	0.117
-389.048	-200.000	-0.020	-0.141
-388.033	800.000	0.091	-0.377
-387.019	-84.059	-0.390	0.124
-386.004	177.209	0.025	-0.036
-384.990	-48.211	-0.088	0.042
-383.975	-200.000	-0.101	0.550
-382.960	-200.000	-0.027	-0.201
-381.946	-200.000	-0.034	0.175
-380.931	62.001	-0.127	-0.126
-379.917	77.571	-0.105	0.112
-378.902	114.004	0.078	0.094
-377.888	-38.689	-0.184	0.097
-376.873	43.829	0.225	-0.205
-375.858	-200.000	0.011	0.055
-374.844	-106.656	0.095	-0.021
-373.829	-165.224	0.248	0.011
-372.815	249.503	-0.043	0.072
-371.800	-118.832	-0.130	-0.023
-370.785	140.167	-0.071	0.093
-369.771	153.913	-0.253	-0.346
-368.756	-200.000	-0.030	-0.167
-367.742	90.815	0.099	-0.110
-366.727	224.790	-0.050	-0.081
-365.712	-99.476	-0.287	0.072
-364.698	-105.360	-0.171	-0.039
-363.683	11.936	-0.388	-0.297
-362.669	-1.912	-0.344	-0.241
-361.654	-121.479	0.336	-0.056
-360.639	5.918	-0.254	-0.187
-359.625	-112.015	-0.080	-0.016
-358.610	-153.733	-0.393	0.027
-357.596	-200.000	0.018	0.179
-356.581	-96.059	0.202	-0.054
-355.566	-90.208	0.213	-0.062
-354.552	29.344	-0.241	0.204
-353.537	-200.000	0.008	0.245
-352.523	-200.000	-0.033	-0.245
-351.508	-48.349	0.554	0.266
-350.493	-23.598	-0.097	0.058
-349.479	772.990	0.051	0.139
-348.464	800.000	-0.076	-0.249
-347.450	800.000	0.061	-0.209
-346.435	-200.000	0.034	-0.209
-345.420	-89.626	0.131	-0.038
-344.406	-58.610	-0.192	0.083
-343.391	-96.026	0.349	-0.093
-342.377	147.596	-0.116	0.156
-341.362	79.804	-0.322	-0.344
-340.348	-99.761	0.148	-0.037
-339.333	-200.000	-0.012	0.056
-338.318	-111.172	-0.120	-0.025
-337.304	-96.988	-0.071	-0.018
-336.289	270.868	-0.117	0.206
-335.275	-15.369	0.240	0.153
-334.260	-115.193	-0.283	0.053
-333.245	87.927	-0.195	-0.215
-332.231	456.702	-0.054	-0.118
-331.216	-121.464	0.171	0.028
-330.202	-164.887	0.171	-0.008
-329.187	57.987	0.180	0.175
-328.172	-172.210	-0.332	0.011
-327.158	50.016	-0.125	-0.118
-326.143	-200.000	-0.056	-0.250
-325.129	65.383	0.130	-0.131
-324.114	144.673	0.191	0.254
-323.099	-73.224	-0.273	0.100
-322.085	-12.571	0.033	-0.021
-321.070	-65.351	-0.128	0.051
-320.056	267.048	-0.049	-0.084
-319.041	-103.990	0.175	0.041
-318.026	-54.036	-0.205	-0.093
-317.012	-200.000	0.038	0.434
-315.997	-161.501	-0.282	-0.014
-314.983	414.465	-0.230	-0.487
-313.968	-46.006	-0.070	0.034
-312.953	-200.000	0.010	0.147
-311.939	-177.911	0.164	-0.004
-310.924	800.000	-0.068	0.267
-309.910	-132.952	0.146	0.018
-308.895	-145.463	0.245	0.022
-307.880	-106.042	0.164	0.037
-306.866	-2.226	0.192	-0.134
-305.851	-9.360	0.049	-0.033
-304.837	108.002	0.263	0.311
-303.822	127.188	0.107	-0.135
-302.807	-96.867	-0.227	0.059
-301.793	-158.037	-0.364	0.021
-300.778	-200.000	0.007	0.394
-299.764	800.000	0.012	-0.051
-298.749	-113.862	-0.260	0.050
-297.735	-200.000	-0.046	-0.334
-296.720	-31.866	0.221	0.123
-295.705	-54.104	0.287	0.130
-294.691	-155.598	0.164	0.010
-293.676	349.430	-0.124	-0.244
-292.662	-2.886	-0.252	-0.175
-291.647	-89.463	0.126	-0.037
-290.632	61.330	0.241	0.238
-289.618	-200.000	-0.043	0.414
-288.603	-126.303	-0.290	-0.043
-287.589	800.000	0.076	0.270
-286.574	-200.000	0.016	-0.121
-285.559	471.149	-0.068	0.152
-284.545	800.000	0.059	0.201
-283.530	93.002	0.134	0.150
-282.516	520.940	0.030	-0.071
-281.501	800.000	-0.047	-0.202
-280.486	-138.106	0.183	0.020
-279.472	189.662	0.086	-0.128
-278.457	800.000	0.027	0.083
-277.443	22.231	0.339	0.275
-276.428	800.000	-0.039	-0.146
-275.413	28.432	0.280	-0.235
-274.399	-53.765	0.219	0.099
-273.384	272.745	0.130	-0.228
-272.370	-41.878	-0.068	0.035
-271.355	800.000	0.017	-0.055
-270.340	79.070	-0.169	-0.180
-269.326	-200.000	-0.015	0.074
-268.311	-200.000	-0.019	0.288
-267.297	10.203	0.171	0.129
-266.282	110.256	0.197	-0.235
-265.267	20.048	0.224	-0.180
-264.253	800.000	-0.032	0.136
-263.238	-81.231	-0.108	-0.035
-262.224	-78.715	-0.161	-0.055
-261.209	-200.000	-0.161	-0.001
-260.195	169.528	-0.278	0.394
-259.180	-43.146	0.212	0.106
-258.165	-83.039	0.210	0.067
-257.151	-53.333	0.061	-0.028
-256.136	208.000	-0.257	0.399
-255.122	-71.057	0.082	0.030
-254.107	800.000	-0.077	0.223
-253.092	-200.000	-0.008	0.332
-252.078	800.000	0.064	-0.200
-251.063	273.929	0.039	0.068
-250.049	800.000	-0.006	0.024
-249.034	-54.000	0.272	0.123
-248.019	-95.526	0.521	-0.139
-247.005	151.759	-0.066	-0.089
-245.990	800.000	0.027	0.114
-244.976	-39.648	0.070	-0.036
-243.961	492.077	-0.019	-0.043
-242.946	339.823	0.039	-0.076
-241.932	-198.415	0.349	-0.002
-240.917	-83.277	0.107	0.034
-239.903	800.000	-0.025	0.092
-238.888	800.000	0.081	-0.222
-237.873	70.194	0.112	0.114
-236.859	180.731	0.084	0.122
-235.844	-33.205	-0.036	-0.020
-234.830	18.798	0.164	-0.130
-233.815	521.977	0.096	0.223
-232.800	22.388	0.119	0.097
-231.786	102.837	0.198	0.230
-230.771	-200.000	-0.011	0.053
-229.757	-64.774	0.158	-0.063
-228.742	38.328	0.243	0.214
-227.727	-106.005	-0.227	-0.051
-226.713	800.000	0.020	0.070
-225.698	103.143	-0.058	-0.068
-224.684	97.694	-0.289	0.330
-223.669	800.000	-0.035	-0.152
-222.655	709.335	-0.037	-0.096
-221.640	800.000	0.093	-0.399
-220.625	-114.977	0.157	0.030
-219.611	-67.398	0.066	-0.026
-218.596	43.352	-0.113	-0.102
-217.582	101.568	0.084	0.098
-216.567	-200.000	-0.048	-0.242
-215.552	-153.078	0.404	0.028
-214.538	-127.050	0.303	-0.044
-213.523	122.855	-0.134	0.167
-212.509	397.720	0.064	0.132
-211.494	-200.000	0.021	0.099
-210.479	507.491	-0.194	-0.445
-209.465	196.957	0.044	0.067
-208.450	-200.000	0.092	0.498
-207.436	-87.776	0.167	-0.050
-206.421	45.995	-0.144	0.132
-205.406	542.631	0.137	0.323
-204.392	13.577	-0.196	0.151
-203.377	-69.314	-0.207	-0.079
-202.363	-176.327	-0.272	-0.007
-201.348	157.987	0.222	-0.305
-200.333	-92.427	0.155	-0.043
-199.319	-200.000	0.029	0.370
-198.304	-56.200	0.160	-0.070
-197.290	-200.000	-0.043	0.271
-196.275	-200.000	0.013	0.173
-195.260	-107.202	0.150	0.033
-194.246	-89.238	-0.218	-0.064
-193.231	103.292	-0.106	0.123
-192.217	-137.761	0.117	-0.013
-191.202	10.609	0.334	-0.252
-190.187	93.445	-0.118	0.133
-189.173	36.846	-0.145	0.127
-188.158	280.527	-0.146	0.258
-187.144	-11.516	-0.269	-0.175
-186.129	800.000	-0.063	-0.180
-185.114	800.000	-0.076	-0.247
-184.100	-200.000	0.021	0.111
-183.085	-101.303	-0.165	-0.040
-182.071	-86.378	0.136	0.041
-181.056	-182.671	0.367	0.007
-180.042	-105.864	0.227	0.051
-179.027	47.364	-0.133	0.123
-178.012	800.000	-0.025	0.088
-176.998	-167.525	0.171	0.007
-175.983	800.000	-0.047	-0.179
-174.969	-68.268	0.056	-0.021
-173.954	-200.000	0.061	-0.438
-172.939	-128.866	0.100	-0.014
-171.925	800.000	-0.100	0.387
-170.910	-155.526	0.104	0.007
-169.896	-200.000	0.170	0.001
-168.881	21.156	0.219	0.176
-167.866	-151.629	0.090	-0.007
-166.852	-200.000	-0.025	0.152
-165.837	800.000	0.074	-0.212
-164.823	5.254	0.143	0.104
-163.808	255.001	0.029	0.049
-162.793	-95.040	0.108	0.029
-161.779	172.147	0.101	0.143
-160.764	-162.197	0.370	-0.018
-159.750	-78.024	0.211	-0.072
-158.735	-145.686	0.120	-0.011
-157.720	27.355	-0.208	0.173
-156.706	33.194	0.108	-0.093
-155.691	-54.580	0.319	-0.143
-154.677	-200.000	0.049	0.509
-153.662	12.156	0.254	0.194
-152.647	-200.000	0.002	-0.084
-151.633	167.999	0.125	0.175
-150.618	613.703	0.122	-0.302
-149.604	-72.997	0.596	0.216
-148.589	102.843	-0.082	-0.095
-147.574	307.725	-0.095	0.176
-146.560	800.000	-0.053	-0.176
-145.545	363.178	0.103	0.204
-144.531	441.716	-0.073	-0.157
-143.516	-117.896	-0.142	0.025
-142.502	231.058	0.119	0.193
-141.487	-200.000	0.023	0.102
-140.472	-169.923	-0.137	0.005
-139.458	-200.000	-0.037	0.330
-138.443	-20.579	-0.037	-0.022
-137.429	-137.123	0.348	0.039
-136.414	69.694	-0.333	0.339
-135.399	-51.705	-0.079	0.036
-134.385	-180.258	0.074	-0.002
-133.370	-58.702	0.166	-0.071
-132.356	-165.946	-0.304	0.013
-131.341	68.548	-0.027	0.028
-130.326	800.000	-0.084	-0.306
-129.312	-50.329	-0.208	-0.097
-128.297	-39.702	0.166	0.085
-127.283	11.572	0.066	-0.050
-126.268	55.691	0.057	0.055
-125.253	106.225	-0.067	-0.079
-124.239	800.000	-0.141	0.392
-123.224	5.480	-0.117	0.085
-122.210	321.733	-0.094	0.177
-121.195	800.000	0.034	0.108
