DTS Sentinel unit serial number:	SN413079Multiplexer serial number:	ORYXHardware model number:	OX4-SRSoftware version number:	ORYX F/W v4.00 Oryx Data Collector v3.7.2.0data status	okinstallation	princeton_trtdifferential loss correction	single-endedforward channel	channel 3reverse channel	N/Adate	2019/09/15time	21:48:34forward acquisition time	60.00reverse acquisition time	0.00gamma	496.2192k internal	0.2329k external	0.2329temperature offset calibration	0.9937default loss term (dB/km)	0.3790temperature slope calibration	1.0000multiplexer offset coefficient	1.0000multiplexer slope coefficient	1.0000fibre end	0.00T internal ref (°C)	30.19T ext. ref 1 (°C)	8.44T ext. ref 2 (°C)	23.37length (m)	temperature (°C)	Stokes	anti-Stokes-747.200	-111.281	-0.454	-0.093
-746.185	13.416	0.247	0.193
-745.171	6.403	0.377	0.282
-744.156	-61.545	0.209	-0.089
-743.142	-103.774	-0.168	0.040
-742.127	-110.525	0.401	0.084
-741.112	33.968	0.094	0.083
-740.098	580.308	0.109	0.270
-739.083	-139.012	0.276	-0.030
-738.069	136.990	0.089	0.117
-737.054	-200.000	0.014	-0.068
-736.039	192.182	-0.143	0.217
-735.025	130.070	0.114	0.147
-734.010	291.715	0.171	-0.313
-732.996	800.000	-0.075	-0.210
-731.981	397.458	0.101	-0.213
-730.966	-180.498	0.151	-0.003
-729.952	396.024	0.090	0.189
-728.937	-200.000	0.003	-0.099
-727.923	-78.581	-0.415	0.143
-726.908	699.617	0.026	0.069
-725.894	-132.379	-0.597	-0.077
-724.879	305.990	-0.114	-0.214
-723.864	363.627	0.094	0.189
-722.850	485.291	-0.091	-0.209
-721.835	-128.562	-0.198	0.028
-720.821	264.960	0.066	0.117
-719.806	-25.186	0.104	0.062
-718.791	-200.000	0.012	0.060
-717.777	-158.561	-0.308	0.018
-716.762	263.791	-0.092	0.161
-715.748	-23.818	0.107	-0.064
-714.733	127.633	-0.092	0.118
-713.718	-60.340	0.151	-0.065
-712.704	188.527	-0.168	-0.253
-711.689	-20.714	0.386	-0.239
-710.675	-72.462	-0.119	-0.044
-709.660	28.805	0.326	0.278
-708.645	-87.829	-0.059	0.018
-707.631	800.000	0.024	0.102
-706.616	800.000	-0.091	-0.263
-705.602	99.970	-0.183	-0.213
-704.587	22.765	-0.113	-0.093
-703.572	-200.000	0.037	0.214
-702.558	800.000	0.065	0.246
-701.543	253.794	0.170	0.292
-700.529	-104.646	0.298	-0.069
-699.514	-200.000	0.008	-0.110
-698.499	800.000	0.035	0.148
-697.485	11.571	-0.448	-0.345
-696.470	-31.475	0.369	-0.209
-695.456	-122.171	-0.044	-0.007
-694.441	-12.532	-0.195	0.128
-693.426	-200.000	-0.007	0.043
-692.412	439.816	0.026	0.057
-691.397	800.000	0.159	-0.518
-690.383	259.106	-0.293	0.509
-689.368	-67.430	-0.188	0.074
-688.354	800.000	0.007	0.018
-687.339	85.914	0.140	0.155
-686.324	67.987	0.167	0.171
-685.310	42.863	-0.139	-0.128
-684.295	-28.457	-0.384	0.223
-683.281	274.711	-0.046	-0.082
-682.266	-115.743	0.126	0.024
-681.251	-22.177	-0.043	-0.026
-680.237	-41.977	-0.013	-0.007
-679.222	501.761	0.030	0.069
-678.208	800.000	0.021	0.066
-677.193	800.000	-0.047	0.136
-676.178	800.000	0.059	0.226
-675.164	-105.613	0.368	-0.084
-674.149	-61.744	-0.083	0.035
-673.135	-3.855	-0.061	0.042
-672.120	105.488	-0.077	0.091
-671.105	74.672	-0.084	-0.088
-670.091	-40.000	-0.070	-0.037
-669.076	-200.000	0.000	0.048
-668.062	-100.837	-0.134	0.033
-667.047	76.659	-0.091	0.097
-666.032	577.240	0.074	0.182
-665.018	27.605	0.155	-0.131
-664.003	-80.349	-0.267	0.090
-662.989	-189.679	0.096	-0.001
-661.974	-166.079	0.136	-0.006
-660.959	-200.000	0.018	-0.197
-659.945	-38.323	-0.276	0.147
-658.930	351.452	0.160	-0.317
-657.916	800.000	0.102	-0.327
-656.901	800.000	-0.041	0.139
-655.886	-101.369	0.478	-0.117
-654.872	-82.507	-0.397	0.129
-653.857	32.265	0.280	-0.243
-652.843	-75.332	-0.215	0.077
-651.828	-104.316	0.213	-0.050
-650.814	205.434	0.176	0.275
-649.799	800.000	-0.059	0.231
-648.784	-57.170	0.469	0.207
-647.770	-99.206	0.261	-0.066
-646.755	296.337	0.091	0.167
-645.741	-111.716	-0.117	-0.024
-644.726	447.186	0.103	-0.226
-643.711	-46.004	0.094	-0.047
-642.697	800.000	0.072	-0.211
-641.682	-113.264	-0.075	0.015
-640.668	-144.594	-0.198	0.018
-639.653	-200.000	-0.009	-0.093
-638.638	800.000	0.047	-0.130
-637.624	-15.621	-0.419	0.268
-636.609	241.431	0.134	-0.225
-635.595	-200.000	0.041	-0.283
-634.580	-90.428	0.061	0.018
-633.565	-137.793	-0.316	-0.035
-632.551	68.442	-0.217	-0.223
-631.536	174.985	-0.090	-0.131
-630.522	27.359	-0.171	0.144
-629.507	-200.000	0.004	0.078
-628.492	269.534	-0.162	-0.286
-627.478	-200.000	0.004	0.045
-626.463	111.140	0.173	-0.209
-625.449	24.765	0.143	0.119
-624.434	394.146	-0.187	-0.391
-623.419	595.195	0.208	-0.515
-622.405	632.327	-0.053	0.136
-621.390	-33.778	-0.326	-0.180
-620.376	800.000	-0.151	-0.478
-619.361	-84.907	-0.205	0.064
-618.346	-136.576	0.273	0.032
-617.332	-200.000	-0.003	0.034
-616.317	373.257	0.092	-0.187
-615.303	800.000	-0.058	-0.240
-614.288	47.663	-0.053	0.049
-613.273	15.248	-0.120	0.094
-612.259	42.104	0.146	0.133
-611.244	-191.629	-0.072	0.001
-610.230	800.000	-0.038	-0.118
-609.215	8.567	-0.050	0.037
-608.201	6.572	-0.162	0.120
-607.186	-200.000	0.023	-0.360
-606.171	-97.016	-0.160	-0.042
-605.157	109.754	0.158	0.189
-604.142	-200.000	-0.098	-0.499
-603.128	720.502	-0.077	0.205
-602.113	-148.398	-0.246	0.020
-601.098	644.327	-0.012	-0.031
-600.084	-92.113	0.077	-0.022
-599.069	800.000	-0.079	0.341
-598.055	228.377	0.059	-0.096
-597.040	-200.000	0.030	0.137
-596.025	-200.000	0.047	0.283
-595.011	329.984	0.051	-0.099
-593.996	-100.538	0.238	0.059
-592.982	-200.000	0.048	-0.301
-591.967	-131.595	-0.004	-0.001
-590.952	-200.000	0.062	0.545
-589.938	-57.282	-0.276	-0.121
-588.923	6.938	0.306	0.228
-587.909	-102.034	0.140	0.034
-586.894	50.315	-0.055	0.052
-585.879	-200.000	-0.050	0.275
-584.865	95.610	-0.054	0.062
-583.850	-200.000	0.022	0.301
-582.836	-88.224	-0.281	-0.084
-581.821	140.825	0.127	0.168
-580.806	-200.000	0.011	-0.134
-579.792	800.000	-0.050	0.176
-578.777	62.985	0.155	-0.155
-577.763	115.325	0.218	-0.267
-576.748	-24.612	-0.095	0.056
-575.733	33.314	-0.185	0.161
-574.719	215.205	0.266	0.422
-573.704	107.270	0.178	-0.211
-572.690	-99.279	-0.235	0.059
-571.675	-50.306	-0.166	0.078
-570.661	-119.173	0.148	-0.026
-569.646	317.116	-0.142	-0.269
-568.631	-81.286	-0.200	-0.066
-567.617	2.670	-0.233	0.169
-566.602	-200.000	0.020	0.159
-565.588	29.894	0.231	0.197
-564.573	-200.000	0.015	0.079
-563.558	-200.000	0.009	-0.092
-562.544	800.000	-0.111	-0.335
-561.529	16.364	-0.100	-0.079
-560.515	-153.647	-0.545	-0.038
-559.500	-195.443	-0.512	-0.004
-558.485	-200.000	0.008	0.177
-557.471	538.278	-0.111	-0.263
-556.456	176.292	-0.120	-0.175
-555.442	800.000	0.012	0.042
-554.427	-200.000	-0.011	0.285
-553.412	180.868	-0.228	0.334
-552.398	-200.000	0.042	-0.244
-551.383	57.696	0.072	-0.071
-550.369	-200.000	-0.007	0.083
-549.354	-144.061	0.232	0.022
-548.339	-14.072	0.062	0.040
-547.325	56.069	-0.204	-0.198
-546.310	-111.418	0.137	0.028
-545.296	-79.336	-0.145	0.049
-544.281	-200.000	-0.000	-0.386
-543.266	90.669	-0.104	-0.117
-542.252	-200.000	-0.003	0.190
-541.237	-78.998	-0.150	0.051
-540.223	189.719	0.064	-0.096
-539.208	202.517	-0.049	-0.076
-538.193	800.000	-0.137	-0.418
-537.179	23.259	-0.239	-0.196
-536.164	178.757	-0.106	0.154
-535.150	-30.650	0.273	0.154
-534.135	393.733	0.040	0.083
-533.121	116.658	0.128	-0.157
-532.106	-70.952	-0.239	-0.090
-531.091	-64.106	0.084	-0.034
-530.077	800.000	0.053	0.191
-529.062	124.827	-0.120	-0.150
-528.048	-200.000	0.008	-0.049
-527.033	-200.000	-0.019	0.106
-526.018	24.030	0.141	-0.117
-525.004	-8.970	0.059	0.040
-523.989	251.177	-0.067	0.114
-522.975	-169.875	0.159	0.006
-521.960	30.648	-0.148	0.126
-520.945	-79.362	0.328	-0.111
-519.931	-68.965	0.170	-0.065
-518.916	11.081	-0.123	0.094
-517.902	53.493	-0.247	-0.237
-516.887	652.674	-0.052	0.132
-515.872	-97.776	-0.222	0.057
-514.858	0.633	-0.020	-0.014
-513.843	-93.296	-0.143	0.040
-512.829	-200.000	0.022	0.262
-511.814	19.477	-0.093	-0.074
-510.799	-184.902	0.042	-0.001
-509.785	64.147	0.091	0.092
-508.770	800.000	0.046	-0.170
-507.756	99.411	0.084	0.097
-506.741	165.891	-0.235	0.332
-505.726	-168.436	-0.100	0.004
-504.712	800.000	0.060	-0.228
-503.697	-159.150	0.018	0.001
-502.683	-24.216	-0.082	0.049
-501.668	54.861	0.012	-0.011
-500.653	33.636	0.139	-0.120
-499.639	79.269	0.075	-0.080
-498.624	-200.000	0.020	-0.124
-497.610	-132.652	-0.335	0.043
-496.595	-58.860	0.075	0.032
-495.581	392.247	-0.243	-0.505
-494.566	-200.000	0.045	-0.234
-493.551	-141.944	0.196	0.020
-492.537	-124.146	0.196	0.031
-491.522	-32.171	-0.221	-0.123
-490.508	-60.656	-0.152	-0.064
-489.493	-14.055	-0.244	-0.157
-488.478	216.173	0.105	-0.167
-487.464	-48.373	0.059	0.028
-486.449	65.615	0.106	-0.107
-485.435	293.285	-0.086	0.157
-484.420	-54.556	0.021	-0.009
-483.405	-200.000	0.036	-0.159
-482.391	9.222	0.202	-0.152
-481.376	800.000	0.105	0.450
-480.362	-200.000	0.018	0.257
-479.347	-108.509	0.246	0.053
-478.332	-122.082	-0.284	0.046
-477.318	-97.880	0.182	-0.047
-476.303	-200.000	-0.024	-0.169
-475.289	-1.540	0.021	-0.015
-474.274	-117.526	-0.243	-0.044
-473.259	800.000	0.119	-0.339
-472.245	404.116	-0.050	0.105
-471.230	6.065	-0.245	0.181
-470.216	-118.989	-0.150	0.026
-469.201	43.247	-0.209	0.190
-468.186	352.036	-0.101	0.199
-467.172	105.517	-0.101	-0.118
-466.157	192.916	0.144	-0.216
-465.143	-116.815	-0.239	-0.044
-464.128	-6.491	0.167	-0.113
-463.113	-111.078	0.295	0.060
-462.099	-63.565	0.206	0.084
-461.084	800.000	0.112	-0.377
-460.070	-200.000	0.022	-0.110
-459.055	-51.741	-0.118	0.055
-458.040	34.392	-0.372	0.324
-457.026	120.904	-0.082	-0.101
-456.011	-17.497	-0.409	0.256
-454.997	46.573	-0.165	0.152
-453.982	-3.664	-0.230	-0.159
-452.968	-48.308	0.260	-0.125
-451.953	-35.618	0.139	-0.075
-450.938	229.700	-0.082	-0.133
-449.924	61.068	0.245	0.242
-448.909	353.126	-0.162	0.321
-447.895	-200.000	0.017	-0.334
-446.880	80.436	-0.116	-0.124
-445.865	-200.000	-0.007	0.130
-444.851	-119.501	0.094	0.016
-443.836	-36.535	0.236	0.126
-442.822	-135.565	-0.321	-0.038
-441.807	156.990	0.121	0.167
-440.792	292.295	-0.080	0.145
-439.778	-44.218	0.133	0.066
-438.763	-51.487	-0.143	-0.066
-437.749	270.651	-0.123	0.215
-436.734	-140.427	0.140	0.015
-435.719	800.000	-0.073	-0.309
-434.705	-13.874	0.191	0.123
-433.690	800.000	-0.069	0.193
-432.676	78.169	0.229	0.243
-431.661	373.475	0.171	0.346
-430.646	-47.144	-0.156	0.076
-429.632	29.768	0.108	-0.091
-428.617	-62.429	0.120	-0.050
-427.603	-200.000	0.002	-0.096
-426.588	252.307	-0.014	0.024
-425.573	75.556	-0.215	-0.225
-424.559	-149.232	-0.311	0.025
-423.544	-200.000	-0.012	0.066
-422.530	800.000	-0.170	-0.560
-421.515	-93.221	0.033	-0.009
-420.500	-200.000	0.032	-0.239
-419.486	-94.068	0.163	0.045
-418.471	-24.006	-0.115	-0.068
-417.457	-93.010	0.202	0.056
-416.442	-200.000	0.034	0.235
-415.428	-14.711	-0.236	-0.151
-414.413	800.000	0.026	-0.106
-413.398	29.273	0.117	0.099
-412.384	381.190	-0.117	0.238
-411.369	-122.905	0.217	0.035
-410.355	-200.000	0.003	-0.331
-409.340	149.034	0.111	0.149
-408.325	37.277	-0.092	-0.081
-407.311	29.188	-0.081	0.068
-406.296	-143.158	-0.367	0.035
-405.282	191.675	-0.080	0.120
-404.267	-200.000	0.017	-0.194
-403.252	-200.000	0.048	-0.392
-402.238	-1.757	0.244	-0.171
-401.223	-177.980	0.222	-0.005
-400.209	-200.000	0.005	-0.070
-399.194	426.857	-0.030	-0.065
-398.179	-109.282	-0.234	-0.049
-397.165	31.684	0.080	-0.068
-396.150	57.276	0.154	0.149
-395.136	-132.114	-0.148	-0.019
-394.121	-136.225	-0.124	-0.014
-393.106	-107.899	0.366	0.079
-392.092	21.181	0.125	0.101
-391.077	154.585	-0.024	-0.033
-390.063	128.865	-0.116	-0.147
-389.048	-200.000	-0.043	0.247
-388.033	214.218	0.108	-0.169
-387.019	97.201	0.367	-0.418
-386.004	62.497	0.134	-0.133
-384.990	-200.000	-0.010	-0.150
-383.975	183.270	-0.059	0.086
-382.960	-45.928	0.056	-0.027
-381.946	236.616	0.124	-0.204
-380.931	640.436	0.018	0.045
-379.917	-151.609	-0.167	0.012
-378.902	-157.483	-0.282	-0.017
-377.888	800.000	-0.054	-0.185
-376.873	-126.822	0.123	0.018
-375.858	-33.575	0.211	0.116
-374.844	-166.783	0.154	0.006
-373.829	800.000	-0.067	-0.194
-372.815	216.049	-0.172	-0.271
-371.800	184.889	0.200	-0.295
-370.785	94.702	0.173	0.195
-369.771	-64.185	-0.217	0.088
-368.756	-200.000	0.022	-0.128
-367.742	-6.163	0.272	-0.185
-366.727	-50.062	-0.191	0.090
-365.712	-161.326	0.050	-0.003
-364.698	328.497	0.132	0.251
-363.683	800.000	0.053	0.189
-362.669	169.710	0.093	0.131
-361.654	184.688	-0.013	0.019
-360.639	235.324	-0.242	0.397
-359.625	-146.416	0.226	0.020
-358.610	-200.000	0.007	-0.151
-357.596	60.702	0.154	0.152
-356.581	-103.040	-0.281	-0.066
-355.566	-55.848	0.117	-0.052
-354.552	-81.719	0.230	0.075
-353.537	302.084	0.056	-0.102
-352.523	800.000	-0.087	0.359
-351.508	-200.000	-0.023	0.152
-350.493	436.368	0.021	0.045
-349.479	-39.984	-0.220	-0.114
-348.464	-131.200	-0.138	0.018
-347.450	-200.000	0.012	0.160
-346.435	-200.000	-0.007	0.149
-345.420	800.000	-0.058	-0.171
-344.406	-139.697	0.134	0.014
-343.391	-53.166	0.192	-0.088
-342.377	-200.000	0.036	0.447
-341.362	142.565	-0.159	-0.209
-340.348	-86.423	0.512	-0.156
-339.333	204.463	-0.094	0.145
-338.318	-130.830	-0.113	0.015
-337.304	87.981	0.145	-0.159
-336.289	-139.564	0.256	0.027
-335.275	-158.892	-0.434	-0.024
-334.260	-113.197	0.062	-0.012
-333.245	800.000	-0.068	0.199
-332.231	800.000	-0.058	0.180
-331.216	-200.000	0.052	0.615
-330.202	-200.000	-0.013	-0.083
-329.187	-200.000	-0.020	0.233
-328.172	-190.797	0.346	0.004
-327.158	466.456	-0.164	0.364
-326.143	274.048	0.133	-0.233
-325.129	800.000	0.117	-0.358
-324.114	-74.696	-0.134	0.048
-323.099	26.401	0.078	0.065
-322.085	361.714	-0.142	-0.281
-321.070	800.000	-0.003	-0.009
-320.056	800.000	0.097	-0.383
-319.041	96.234	-0.173	-0.197
-318.026	142.556	0.308	0.406
-317.012	83.692	0.329	0.356
-315.997	-80.010	0.053	0.018
-314.983	77.238	-0.180	-0.189
-313.968	-200.000	0.018	-0.220
-312.953	-200.000	-0.015	-0.084
-311.939	-63.322	0.155	0.063
-310.924	-11.187	0.145	0.095
-309.910	-200.000	0.020	-0.184
-308.895	157.296	-0.093	0.127
-307.880	407.163	-0.078	0.163
-306.866	292.304	0.236	0.426
-305.851	14.264	-0.245	-0.189
-304.837	-171.115	0.145	0.005
-303.822	462.876	0.116	-0.256
-302.807	-65.064	0.240	0.096
-301.793	35.715	-0.204	-0.178
-300.778	-200.000	0.047	0.206
-299.764	84.361	-0.061	-0.066
-298.749	336.855	0.046	-0.089
-297.735	-134.355	-0.087	-0.011
-296.720	800.000	0.048	-0.169
-295.705	-197.535	-0.157	-0.001
-294.691	-133.572	0.582	-0.072
-293.676	15.699	-0.039	0.030
-292.662	-94.201	-0.101	-0.027
-291.647	-86.746	0.203	0.061
-290.632	-111.284	-0.138	-0.028
-289.618	17.186	0.203	0.159
-288.603	239.983	-0.148	0.245
-287.589	31.455	-0.131	0.111
-286.574	294.497	-0.124	-0.224
-285.559	-200.000	0.007	-0.146
-284.545	554.615	0.055	-0.132
-283.530	-200.000	-0.021	-0.094
-282.516	207.897	0.084	-0.129
-281.501	-17.189	0.148	-0.092
-280.486	800.000	-0.012	0.045
-279.472	-92.808	-0.141	0.039
-278.457	120.888	0.144	-0.177
-277.443	-200.000	-0.016	0.151
-276.428	86.257	0.139	-0.152
-275.413	289.146	-0.089	-0.160
-274.399	-78.053	0.118	0.040
-273.384	800.000	0.046	0.157
-272.370	539.843	-0.174	0.409
-271.355	-116.394	-0.074	-0.014
-270.340	-175.347	0.291	-0.008
-269.326	-84.771	0.274	0.085
-268.311	-44.502	0.156	0.077
-267.297	573.129	0.179	-0.432
-266.282	-64.233	-0.140	0.056
-265.267	-200.000	-0.028	0.308
-264.253	-200.000	-0.064	0.309
-263.238	-94.398	0.164	-0.044
-262.224	41.046	0.141	-0.126
-261.209	-117.080	-0.096	0.017
-260.195	39.322	-0.166	0.147
-259.180	800.000	-0.010	-0.040
-258.165	117.749	0.219	0.267
-257.151	-2.300	-0.271	0.188
-256.136	223.798	-0.025	-0.039
-255.122	-96.063	-0.170	0.045
-254.107	-73.013	-0.313	0.114
-253.092	631.253	-0.080	-0.199
-252.078	2.062	0.128	0.091
-251.063	100.156	-0.023	0.027
-250.049	-52.264	-0.173	0.079
-249.034	194.723	-0.104	0.156
-248.019	-114.424	0.210	-0.040
-247.005	-115.675	0.290	-0.054
-245.990	216.082	0.189	-0.297
-244.976	8.332	-0.087	-0.065
-243.961	-200.000	-0.025	0.215
-242.946	39.048	0.108	0.095
-241.932	-200.000	-0.034	0.501
-240.917	-200.000	0.009	0.154
-239.903	44.057	0.369	0.334
-238.888	-66.045	0.250	0.098
-237.873	83.000	0.262	-0.281
-236.859	-123.431	-0.136	-0.021
-235.844	-149.675	-0.091	0.007
-234.830	-200.000	-0.009	-0.130
-233.815	-25.181	0.026	-0.015
-232.800	238.996	0.150	-0.247
-231.786	72.098	-0.085	0.088
-230.771	-90.774	-0.201	0.057
-229.757	-200.000	0.055	-0.380
-228.742	-43.492	-0.221	0.110
-227.727	763.667	0.042	0.111
-226.713	189.650	-0.134	-0.198
-225.698	-200.000	-0.002	0.305
-224.684	800.000	0.040	0.133
-223.669	-55.263	0.067	-0.030
-222.655	-3.979	0.202	-0.139
-221.640	-28.206	-0.206	-0.118
-220.625	-89.083	-0.155	0.045
-219.611	-125.853	0.339	-0.050
-218.596	-82.510	-0.486	0.155
-217.582	-76.865	0.162	-0.056
-216.567	49.721	-0.175	-0.163
-215.552	-43.517	-0.372	-0.185
-214.538	-84.215	-0.096	-0.030
-213.523	-200.000	0.049	0.305
-212.509	-75.424	0.128	-0.045
-211.494	-36.361	0.148	-0.079
-210.479	800.000	0.139	0.410
-209.465	800.000	0.062	-0.198
-208.450	800.000	0.099	0.377
-207.436	-200.000	0.011	0.127
-206.421	419.651	-0.115	0.243
-205.406	-6.400	-0.149	-0.100
-204.392	141.193	-0.115	0.150
-203.377	800.000	0.048	0.168
-202.363	-75.300	-0.259	-0.091
-201.348	-200.000	0.003	-0.180
-200.333	-75.523	0.198	0.069
-199.319	363.367	0.199	-0.395
-198.304	457.520	0.097	-0.212
-197.290	68.957	-0.172	0.175
-196.275	43.092	-0.245	0.220
-195.260	435.955	0.090	0.193
-194.246	-173.101	-0.198	-0.006
-193.231	-66.409	0.304	-0.119
-192.217	-197.012	0.104	-0.001
-191.202	-66.617	0.214	-0.084
-190.187	-136.699	-0.224	0.025
-189.173	53.987	0.244	0.231
-188.158	215.710	0.137	-0.214
-187.144	72.599	-0.277	-0.284
-186.129	-129.140	0.220	0.030
-185.114	127.235	-0.198	0.247
-184.100	800.000	-0.038	-0.128
-183.085	317.633	-0.084	0.156
-182.071	-200.000	0.002	-0.117
-181.056	38.279	0.071	-0.063
-180.042	14.862	-0.067	0.051
-179.027	-200.000	0.010	-0.365
-178.012	17.021	0.137	0.107
-176.998	800.000	0.026	0.107
-175.983	581.940	-0.048	-0.117
-174.969	91.847	-0.145	0.161
-173.954	-144.491	0.173	-0.016
-172.939	-99.245	0.214	0.053
-171.925	-110.012	-0.175	0.036
-170.910	-78.091	-0.075	0.025
-169.896	-113.612	-0.203	0.039
-168.881	-200.000	-0.002	0.015
-167.866	576.644	0.113	0.272
-166.852	-92.580	0.224	0.062
-165.837	-200.000	0.050	-0.274
-164.823	-200.000	-0.041	0.316
-163.808	368.959	0.083	0.165
-162.793	464.199	0.203	-0.448
-161.779	-200.000	-0.006	0.335
-160.764	-90.959	0.099	-0.028
-159.750	-193.499	-0.114	0.001
-158.735	-154.025	0.229	-0.015
-157.720	-3.319	-0.177	-0.122
-156.706	14.597	0.190	0.146
-155.691	71.754	0.256	0.262
-154.677	-134.840	0.210	-0.025
-153.662	-46.214	-0.192	-0.093
-152.647	19.602	-0.135	-0.107
-151.633	-200.000	-0.045	0.252
-150.618	-200.000	-0.001	-0.150
-149.604	800.000	0.021	0.066
-148.589	107.656	-0.123	-0.144
-147.574	227.955	-0.107	-0.172
-146.560	49.099	0.182	-0.169
-145.545	-200.000	-0.053	0.234
-144.531	-200.000	0.046	0.212
-143.516	-39.385	0.178	-0.092
-142.502	-34.227	0.159	0.086
-141.487	128.723	-0.152	0.191
-140.472	70.983	0.093	-0.094
-139.458	13.618	0.395	-0.302
-138.443	54.550	0.303	-0.287
-137.429	8.613	0.141	0.104
-136.414	-177.207	0.571	-0.014
-135.399	677.504	-0.163	-0.416
-134.385	-10.700	0.128	-0.083
-133.370	800.000	-0.026	0.109
-132.356	33.615	-0.200	-0.171
-131.341	-114.211	-0.255	-0.048
-130.326	426.798	-0.132	0.279
-129.312	-90.800	0.137	-0.039
-128.297	412.697	-0.104	0.218
-127.283	800.000	-0.215	0.647
-126.268	-200.000	-0.025	0.192
-125.253	-33.170	0.218	0.119
-124.239	336.505	0.093	-0.177
-123.224	-25.669	-0.107	-0.062
-122.210	800.000	-0.026	0.109
-121.195	250.548	0.156	0.260
-120.180	-200.000	0.006	0.107
