DTS Sentinel unit serial number:	SN413079Multiplexer serial number:	ORYXHardware model number:	OX4-SRSoftware version number:	ORYX F/W v4.00 Oryx Data Collector v3.7.2.0data status	okinstallation	princeton_trtdifferential loss correction	single-endedforward channel	channel 3reverse channel	N/Adate	2019/09/12time	02:50:10forward acquisition time	60.00reverse acquisition time	0.00gamma	496.2192k internal	0.2322k external	0.2322temperature offset calibration	1.0064default loss term (dB/km)	0.3790temperature slope calibration	1.0000multiplexer offset coefficient	1.0000multiplexer slope coefficient	1.0000fibre end	0.00T internal ref (°C)	32.37T ext. ref 1 (°C)	2.08T ext. ref 2 (°C)	26.99length (m)	temperature (°C)	Stokes	anti-Stokes-747.200	280.020	-0.225	0.406
-746.185	800.000	-0.047	0.195
-745.171	-122.049	0.163	-0.027
-744.156	-11.576	0.152	0.101
-743.142	-105.797	-0.424	0.097
-742.127	177.304	-0.215	0.316
-741.112	59.690	0.044	0.044
-740.098	-199.132	-0.154	0.001
-739.083	800.000	0.117	0.346
-738.069	406.529	-0.081	0.173
-737.054	513.150	-0.057	0.134
-736.039	-128.892	-0.400	0.057
-735.025	-119.511	-0.202	-0.035
-734.010	352.354	0.156	0.313
-732.996	-97.176	-0.359	-0.095
-731.981	325.600	-0.141	-0.272
-730.966	79.548	0.083	0.090
-729.952	15.391	-0.147	-0.116
-728.937	-129.272	0.140	-0.020
-727.923	40.986	-0.304	0.277
-726.908	14.069	-0.170	0.134
-725.894	800.000	0.084	-0.333
-724.879	-91.539	-0.258	0.074
-723.864	353.986	-0.082	0.164
-722.850	-79.049	-0.175	-0.060
-721.835	-84.580	-0.090	-0.029
-720.821	-81.928	0.206	0.068
-719.806	60.075	0.227	-0.226
-718.791	-76.327	-0.200	0.071
-717.777	-42.019	-0.207	0.107
-716.762	152.112	0.219	0.302
-715.748	72.122	0.168	-0.177
-714.733	800.000	0.040	-0.119
-713.718	-54.695	0.116	0.053
-712.704	-69.405	-0.109	-0.042
-711.689	50.952	0.203	-0.194
-710.675	403.675	-0.021	-0.045
-709.660	-45.343	0.258	0.129
-708.645	197.415	0.113	-0.174
-707.631	230.590	-0.100	0.166
-706.616	189.109	-0.050	-0.076
-705.602	-99.970	0.176	-0.044
-704.587	267.485	0.092	0.162
-703.572	12.315	0.039	0.030
-702.558	17.676	0.131	0.105
-701.543	-59.463	0.318	-0.138
-700.529	-24.958	-0.284	-0.170
-699.514	-157.839	-0.324	0.019
-698.499	379.439	-0.078	0.161
-697.485	510.366	-0.077	-0.181
-696.470	-45.353	0.202	-0.101
-695.456	-200.000	0.010	0.063
-694.441	-200.000	0.031	-0.142
-693.426	43.757	-0.243	-0.225
-692.412	-6.613	-0.127	0.087
-691.397	-117.715	-0.548	0.099
-690.383	124.829	-0.092	0.116
-689.368	-107.834	-0.287	-0.063
-688.354	-200.000	0.022	0.149
-687.339	1.257	-0.357	0.259
-686.324	569.157	-0.113	-0.277
-685.310	-55.393	-0.269	-0.122
-684.295	20.355	-0.201	-0.164
-683.281	138.690	0.190	0.251
-682.266	-108.636	-0.184	0.040
-681.251	11.487	0.102	-0.079
-680.237	383.285	-0.136	0.281
-679.222	274.387	-0.165	0.295
-678.208	-200.000	-0.027	-0.198
-677.193	174.620	-0.343	-0.500
-676.178	-160.274	0.302	0.016
-675.164	-140.315	-0.283	-0.030
-674.149	-200.000	0.024	-0.183
-673.135	-200.000	-0.028	0.200
-672.120	153.146	0.257	0.354
-671.105	64.514	-0.134	-0.136
-670.091	-200.000	-0.012	-0.259
-669.076	-177.132	-0.275	0.007
-668.062	800.000	-0.093	-0.303
-667.047	148.530	-0.179	-0.244
-666.032	800.000	0.104	-0.344
-665.018	35.893	0.163	0.144
-664.003	800.000	0.019	-0.065
-662.989	800.000	-0.078	0.342
-661.974	170.971	-0.149	-0.215
-660.959	18.060	0.072	0.057
-659.945	-200.000	-0.003	0.265
-658.930	-55.483	0.265	0.120
-657.916	-34.114	0.291	-0.161
-656.901	800.000	-0.025	0.109
-655.886	164.798	0.332	-0.472
-654.872	-200.000	-0.006	0.066
-653.857	125.241	-0.154	0.196
-652.843	-79.911	0.266	0.090
-651.828	353.923	-0.117	0.234
-650.814	-200.000	-0.020	0.104
-649.799	-200.000	-0.007	-0.245
-648.784	-200.000	-0.043	-0.245
-647.770	37.850	-0.163	-0.146
-646.755	800.000	0.059	-0.182
-645.741	-200.000	-0.030	0.228
-644.726	800.000	-0.067	-0.270
-643.711	-49.900	0.109	-0.052
-642.697	-46.917	-0.115	-0.057
-641.682	-44.976	-0.181	0.091
-640.668	-8.216	0.349	0.236
-639.653	421.739	0.087	-0.188
-638.638	51.830	-0.157	0.150
-637.624	79.427	0.129	0.139
-636.609	-200.000	0.023	0.113
-635.595	-25.860	-0.091	-0.054
-634.580	-33.638	0.090	-0.050
-633.565	28.853	-0.238	-0.203
-632.551	-200.000	-0.013	-0.302
-631.536	91.076	-0.053	0.060
-630.522	-200.000	-0.011	0.390
-629.507	-200.000	0.011	-0.321
-628.492	110.614	-0.178	-0.215
-627.478	-79.520	0.069	0.023
-626.463	-83.697	0.064	0.021
-625.449	-200.000	-0.008	-0.287
-624.434	-55.789	-0.214	-0.096
-623.419	-150.694	-0.283	-0.022
-622.405	80.894	0.078	0.085
-621.390	-27.704	0.060	-0.035
-620.376	-77.798	-0.093	0.032
-619.361	-200.000	-0.023	0.179
-618.346	-193.037	0.076	0.001
-617.332	-43.231	0.297	0.151
-616.317	-200.000	0.034	-0.452
-615.303	687.449	0.096	-0.253
-614.288	-18.591	-0.206	0.129
-613.273	-130.188	0.128	-0.018
-612.259	5.010	0.061	-0.045
-611.244	-27.594	-0.065	0.038
-610.230	-45.525	0.177	-0.088
-609.215	-126.947	-0.393	-0.058
-608.201	-200.000	0.034	0.243
-607.186	127.964	-0.150	0.192
-606.171	-200.000	0.000	0.259
-605.157	451.152	0.045	0.101
-604.142	-67.736	-0.042	0.016
-603.128	424.525	-0.105	0.227
-602.113	320.535	-0.179	-0.343
-601.098	800.000	0.059	0.182
-600.084	-200.000	-0.041	-0.249
-599.069	77.915	0.171	-0.183
-598.055	800.000	0.033	0.103
-597.040	-175.911	0.161	-0.004
-596.025	-200.000	-0.029	-0.258
-595.011	-155.684	0.292	0.019
-593.996	-11.067	-0.286	-0.189
-592.982	-159.743	-0.075	-0.004
-591.967	39.170	0.116	-0.104
-590.952	-200.000	0.069	-0.327
-589.938	-40.183	-0.228	0.119
-588.923	-200.000	-0.042	-0.212
-587.909	-5.287	-0.326	-0.225
-586.894	-135.748	-0.201	0.024
-585.879	47.604	-0.098	-0.092
-584.865	229.157	0.189	-0.309
-583.850	397.885	0.087	0.184
-582.836	-200.000	0.003	-0.223
-581.821	-200.000	-0.027	0.165
-580.806	800.000	0.046	-0.195
-579.792	-32.445	-0.152	-0.085
-578.777	800.000	0.077	0.284
-577.763	-114.242	0.140	0.027
-576.748	800.000	-0.074	-0.273
-575.733	-30.227	-0.140	-0.080
-574.719	-200.000	0.055	0.376
-573.704	-80.124	0.007	-0.002
-572.690	-82.412	0.522	-0.170
-571.675	71.338	0.118	0.122
-570.661	800.000	0.069	-0.225
-569.646	-52.108	-0.261	0.122
-568.631	605.662	-0.124	-0.311
-567.617	-200.000	0.027	-0.225
-566.602	459.888	-0.069	-0.155
-565.588	-94.267	0.165	0.045
-564.573	400.151	0.046	-0.097
-563.558	560.864	-0.065	-0.158
-562.544	-25.740	0.145	0.086
-561.529	800.000	0.057	-0.250
-560.515	140.852	-0.050	-0.066
-559.500	-129.584	-0.237	0.033
-558.485	-166.319	-0.102	-0.004
-557.471	410.963	0.113	0.239
-556.456	-200.000	-0.019	-0.119
-555.442	-146.735	0.119	-0.010
-554.427	194.853	0.058	-0.088
-553.412	800.000	0.035	-0.122
-552.398	-53.848	-0.412	-0.188
-551.383	26.741	-0.083	-0.070
-550.369	36.089	0.293	-0.259
-549.354	233.648	0.075	-0.124
-548.339	-91.129	0.134	-0.039
-547.325	-200.000	0.049	0.235
-546.310	-125.960	0.416	0.063
-545.296	-200.000	0.001	-0.117
-544.281	-200.000	0.056	0.271
-543.266	-200.000	-0.066	-0.309
-542.252	-121.803	0.360	-0.060
-541.237	72.638	-0.132	-0.139
-540.223	-92.580	0.173	-0.049
-539.208	800.000	-0.023	-0.102
-538.193	-60.184	-0.175	-0.075
-537.179	193.116	0.222	-0.337
-536.164	-43.917	-0.302	0.152
-535.150	-200.000	-0.038	0.229
-534.135	-200.000	-0.022	0.111
-533.121	-200.000	-0.022	0.400
-532.106	-146.751	0.431	0.037
-531.091	-108.860	0.257	-0.055
-530.077	-200.000	-0.009	0.116
-529.062	-115.451	0.367	0.069
-528.048	800.000	-0.032	0.120
-527.033	15.462	0.114	-0.089
-526.018	-80.203	0.410	-0.137
-525.004	-132.394	-0.187	0.024
-523.989	183.916	-0.069	-0.102
-522.975	-67.477	-0.327	-0.128
-521.960	269.444	0.087	-0.153
-520.945	157.103	0.044	-0.061
-519.931	-200.000	-0.001	-0.245
-518.916	-200.000	-0.005	0.220
-517.902	-200.000	-0.030	0.257
-516.887	112.083	-0.104	0.126
-515.872	-102.993	-0.313	-0.074
-514.858	142.442	-0.140	0.186
-513.843	327.479	-0.117	0.224
-512.829	4.415	-0.194	-0.143
-511.814	-200.000	0.007	0.057
-510.799	305.988	-0.126	0.235
-509.785	-160.888	-0.070	-0.004
-508.770	6.931	-0.228	-0.170
-507.756	-141.524	0.161	-0.016
-506.741	-124.330	-0.241	0.038
-505.726	135.529	0.146	-0.190
-504.712	134.812	0.243	-0.315
-503.697	331.711	0.109	0.211
-502.683	99.143	0.041	-0.048
-501.668	70.346	0.074	0.076
-500.653	-200.000	0.013	-0.127
-499.639	-101.832	-0.119	0.029
-498.624	85.060	0.192	0.210
-497.610	3.378	-0.208	-0.152
-496.595	-0.410	-0.209	-0.149
-495.581	-11.274	-0.300	-0.198
-494.566	76.262	0.146	-0.154
-493.551	25.884	-0.191	-0.159
-492.537	143.021	0.244	0.325
-491.522	-156.179	-0.447	-0.028
-490.508	-40.260	0.237	-0.124
-489.493	-58.107	-0.090	0.039
-488.478	-165.903	-0.120	0.005
-487.464	269.496	0.072	-0.126
-486.449	44.059	0.074	-0.068
-485.435	-58.233	-0.189	0.082
-484.420	-200.000	0.000	0.046
-483.405	19.428	-0.217	0.175
-482.391	-156.694	-0.184	0.011
-481.376	29.986	0.132	0.112
-480.362	-161.732	0.170	-0.009
-479.347	-184.904	-0.178	0.003
-478.332	-148.589	0.086	-0.007
-477.318	44.088	0.073	-0.067
-476.303	800.000	-0.099	0.357
-475.289	-0.469	-0.148	-0.105
-474.274	62.303	-0.053	0.053
-473.259	-1.639	0.100	-0.070
-472.245	-5.321	-0.249	0.171
-471.230	141.278	-0.283	-0.375
-470.216	282.801	0.086	-0.154
-469.201	233.159	0.162	0.266
-468.186	-39.368	-0.273	0.143
-467.172	-104.454	-0.182	-0.042
-466.157	-55.915	0.446	0.199
-465.143	-3.753	-0.145	-0.101
-464.128	407.813	-0.021	0.044
-463.113	-183.192	0.219	-0.004
-462.099	-138.225	0.246	0.027
-461.084	-200.000	0.021	0.184
-460.070	-4.581	0.256	-0.177
-459.055	800.000	0.084	-0.347
-458.040	800.000	0.098	0.295
-457.026	800.000	-0.063	0.226
-456.011	800.000	0.033	0.133
-454.997	-74.172	-0.133	-0.048
-453.982	134.242	0.082	0.107
-452.968	543.677	-0.116	-0.277
-451.953	390.042	-0.070	-0.145
-450.938	-4.302	-0.142	0.098
-449.924	113.560	0.295	-0.358
-448.909	6.107	0.079	-0.059
-447.895	227.697	0.219	0.357
-446.880	-19.070	-0.207	0.129
-445.865	161.675	0.134	-0.187
-444.851	-44.376	0.082	-0.041
-443.836	-65.474	-0.223	-0.089
-442.822	-126.412	-0.035	0.005
-441.807	28.648	0.270	0.228
-440.792	4.355	0.231	-0.169
-439.778	-36.188	0.506	-0.273
-438.763	-0.342	0.152	-0.108
-437.749	268.507	-0.034	-0.060
-436.734	-128.972	0.095	-0.013
-435.719	800.000	-0.099	0.391
-434.705	-99.314	0.137	0.034
-433.690	61.807	-0.103	-0.103
-432.676	-57.210	-0.202	-0.089
-431.661	-90.476	0.202	0.059
-430.646	-68.817	-0.252	-0.097
-429.632	-0.158	-0.307	-0.218
-428.617	59.083	-0.450	0.442
-427.603	-77.409	-0.132	0.046
-426.588	-15.972	-0.482	-0.306
-425.573	-77.340	-0.166	0.058
-424.559	-84.578	-0.479	0.151
-423.544	-200.000	0.067	-0.314
-422.530	-143.045	-0.169	0.016
-421.515	-88.611	-0.106	0.031
-420.500	17.554	0.255	0.202
-419.486	-189.839	-0.070	-0.001
-418.471	292.445	-0.057	-0.104
-417.457	800.000	0.049	-0.154
-416.442	-36.809	-0.102	0.055
-415.428	672.754	-0.034	-0.089
-414.413	-170.198	-0.223	0.008
-413.398	16.949	-0.214	0.169
-412.384	800.000	-0.039	0.123
-411.369	452.571	-0.084	0.186
-410.355	168.181	-0.071	0.100
-409.340	-137.568	-0.345	0.039
-408.325	-160.333	-0.130	0.007
-407.311	-200.000	-0.034	0.194
-406.296	-200.000	-0.040	0.207
-405.282	354.977	0.200	0.396
-404.267	-127.237	0.307	-0.045
-403.252	-135.039	-0.277	0.033
-402.238	-144.729	-0.126	-0.012
-401.223	250.505	-0.079	0.134
-400.209	-123.506	0.263	0.042
-399.194	-98.269	0.283	0.072
-398.179	85.921	-0.092	0.101
-397.165	-200.000	-0.027	-0.232
-396.150	-112.183	0.334	-0.067
-395.136	-200.000	-0.014	-0.209
-394.121	-50.024	-0.194	-0.092
-393.106	-49.320	0.110	-0.052
-392.092	-39.983	0.079	-0.041
-391.077	82.576	-0.110	-0.119
-390.063	70.797	0.285	0.294
-389.048	-200.000	-0.015	0.291
-388.033	-130.179	0.193	-0.026
-387.019	50.444	-0.484	0.456
-386.004	251.036	0.139	-0.236
-384.990	-26.333	0.078	0.045
-383.975	800.000	-0.027	0.078
-382.960	66.225	0.173	-0.175
-381.946	-149.509	-0.032	0.003
-380.931	555.749	-0.026	-0.061
-379.917	99.885	-0.192	-0.222
-378.902	-25.481	-0.473	-0.278
-377.888	287.809	0.081	0.146
-376.873	184.281	0.095	0.140
-375.858	-148.852	-0.221	0.018
-374.844	661.849	0.106	0.272
-373.829	148.960	-0.173	-0.233
-372.815	-73.369	-0.217	-0.079
-371.800	-8.122	-0.088	0.059
-370.785	-131.040	0.182	-0.024
-369.771	611.594	0.042	0.104
-368.756	-115.634	0.242	0.045
-367.742	403.491	0.137	0.287
-366.727	-99.772	0.349	0.087
-365.712	134.308	-0.153	0.197
-364.698	-110.025	0.464	0.097
-363.683	-69.333	0.258	0.098
-362.669	-124.878	-0.135	0.021
-361.654	-81.134	0.197	-0.065
-360.639	125.731	0.047	-0.058
-359.625	-23.917	-0.151	-0.090
-358.610	-19.702	0.148	0.091
-357.596	471.043	-0.041	0.091
-356.581	-65.486	-0.372	0.149
-355.566	-200.000	-0.014	0.338
-354.552	-26.734	-0.048	-0.028
-353.537	-8.915	0.164	-0.109
-352.523	31.506	-0.102	0.087
-351.508	-4.934	-0.347	0.238
-350.493	-43.783	-0.095	-0.048
-349.479	-97.996	-0.290	-0.074
-348.464	-200.000	-0.000	0.167
-347.450	54.188	-0.189	0.180
-346.435	69.630	-0.137	-0.140
-345.420	268.144	-0.158	0.275
-344.406	204.109	0.084	-0.130
-343.391	658.072	0.035	-0.090
-342.377	-155.619	0.446	-0.029
-341.362	-200.000	0.018	0.157
-340.348	-200.000	0.045	0.215
-339.333	720.948	-0.035	0.093
-338.318	-95.910	0.203	0.054
-337.304	174.783	0.041	0.059
-336.289	-78.298	-0.134	-0.046
-335.275	35.528	0.200	-0.174
-334.260	-17.864	0.243	-0.151
-333.245	21.646	0.257	-0.208
-332.231	155.313	0.078	0.106
-331.216	293.701	0.120	0.219
-330.202	73.313	-0.140	-0.146
-329.187	-200.000	-0.012	-0.193
-328.172	-157.645	-0.101	-0.006
-327.158	-115.624	0.111	0.021
-326.143	24.320	0.083	0.068
-325.129	800.000	-0.026	-0.098
-324.114	-191.305	0.068	0.001
-323.099	-200.000	0.009	-0.230
-322.085	-77.227	-0.042	-0.015
-321.070	101.388	0.258	-0.298
-320.056	-110.129	0.251	0.052
-319.041	-200.000	-0.008	0.236
-318.026	-85.885	-0.298	-0.092
-317.012	68.233	-0.107	0.109
-315.997	-200.000	0.030	0.337
-314.983	81.794	0.200	-0.215
-313.968	-140.179	0.304	0.032
-312.953	-2.266	0.218	0.152
-311.939	266.647	-0.123	0.214
-310.924	-30.473	0.111	-0.063
-309.910	-200.000	-0.025	-0.292
-308.895	20.495	-0.272	-0.219
-307.880	-109.670	-0.089	-0.019
-306.866	235.640	0.069	-0.113
-305.851	-104.174	-0.131	0.030
-304.837	51.879	0.253	0.239
-303.822	-78.422	0.303	-0.103
-302.807	-160.716	0.149	-0.008
-301.793	-200.000	-0.005	0.075
-300.778	-9.641	0.072	0.048
-299.764	-108.287	0.096	-0.021
-298.749	207.600	0.098	0.152
-297.735	97.621	0.233	-0.266
-296.720	113.030	0.044	0.053
-295.705	90.729	0.185	-0.206
-294.691	-137.642	-0.109	-0.012
-293.676	354.967	-0.104	0.206
-292.662	-100.255	0.185	-0.046
-291.647	-81.027	-0.303	0.100
-290.632	16.733	-0.109	0.085
-289.618	139.193	0.155	0.203
-288.603	-200.000	0.064	0.420
-287.589	343.237	0.176	0.342
-286.574	388.944	0.083	-0.172
-285.559	259.808	-0.039	0.067
-284.545	55.340	-0.146	0.140
-283.530	18.175	0.116	-0.092
-282.516	-79.722	0.154	-0.052
-281.501	-77.215	-0.283	0.098
-280.486	-16.612	0.169	0.106
-279.472	27.171	-0.092	0.077
-278.457	-74.697	0.074	0.026
-277.443	800.000	0.068	-0.295
-276.428	-200.000	-0.019	0.209
-275.413	-99.252	-0.264	0.066
-274.399	-200.000	0.019	0.301
-273.384	-105.811	-0.141	-0.032
-272.370	800.000	0.101	0.294
-271.355	-93.056	-0.132	0.037
-270.340	-180.105	-0.262	-0.005
-269.326	-8.833	0.152	-0.101
-268.311	-23.191	0.008	0.005
-267.297	-62.948	0.155	0.064
-266.282	-32.293	0.163	0.090
-265.267	-29.890	-0.040	0.022
-264.253	800.000	-0.051	0.147
-263.238	-200.000	-0.052	-0.456
-262.224	357.671	0.054	-0.106
-261.209	306.275	-0.020	-0.038
-260.195	-200.000	0.033	0.181
-259.180	-200.000	0.003	0.100
-258.165	131.884	-0.077	0.099
-257.151	-200.000	0.008	0.070
-256.136	-29.747	0.097	0.055
-255.122	-200.000	0.048	-0.219
-254.107	15.567	0.182	0.141
-253.092	1.673	-0.219	0.156
-252.078	800.000	0.117	0.322
-251.063	-31.150	-0.114	-0.064
-250.049	-200.000	-0.015	-0.125
-249.034	800.000	-0.036	0.105
-248.019	-156.011	-0.401	-0.025
-247.005	125.914	0.112	-0.140
-245.990	-200.000	0.007	0.297
-244.976	450.909	0.144	0.314
-243.961	350.574	0.128	-0.250
-242.946	-26.861	0.089	-0.052
-241.932	-32.807	0.136	-0.075
-240.917	-200.000	-0.019	-0.315
-239.903	-200.000	-0.015	-0.249
-238.888	-144.145	0.039	0.004
-237.873	214.285	0.155	0.243
-236.859	-200.000	0.001	-0.040
-235.844	-200.000	0.030	-0.346
-234.830	481.270	-0.030	0.067
-233.815	800.000	-0.059	-0.235
-232.800	0.381	-0.116	-0.082
-231.786	-200.000	0.012	0.099
-230.771	24.062	0.157	0.128
-229.757	-127.834	-0.322	0.046
-228.742	-4.966	-0.213	-0.145
-227.727	0.499	0.106	0.075
-226.713	-42.544	-0.114	0.057
-225.698	-61.322	-0.153	-0.064
-224.684	71.755	0.135	-0.139
-223.669	-69.966	0.077	-0.029
-222.655	-143.530	-0.296	0.028
-221.640	-74.142	-0.155	0.056
-220.625	800.000	0.046	-0.132
-219.611	730.491	-0.177	-0.469
-218.596	-78.754	0.124	0.042
-217.582	-149.442	0.227	-0.018
-216.567	-87.308	0.380	-0.114
-215.552	-113.153	-0.299	0.058
-214.538	177.563	-0.140	0.201
-213.523	-97.160	0.413	0.107
-212.509	109.996	0.155	-0.184
-211.494	-19.406	-0.256	-0.157
-210.479	10.478	-0.206	0.155
-209.465	-103.237	0.103	0.024
-208.450	800.000	-0.097	0.345
-207.436	-100.199	0.139	-0.034
-206.421	-40.785	0.093	0.048
-205.406	357.200	-0.167	-0.329
-204.392	-110.231	0.289	-0.060
-203.377	-200.000	0.049	0.272
-202.363	-73.840	-0.207	-0.074
-201.348	-76.243	0.081	-0.028
-200.333	727.048	-0.111	-0.292
-199.319	51.009	0.241	0.226
-198.304	154.191	-0.074	0.100
-197.290	-142.301	0.392	-0.038
-196.275	800.000	-0.121	-0.372
-195.260	-37.617	-0.191	-0.101
-194.246	52.637	0.118	0.112
-193.231	273.395	0.113	0.197
-192.217	-109.216	0.221	0.046
-191.202	-200.000	0.015	-0.279
-190.187	507.691	-0.070	-0.160
-189.173	-107.304	0.286	0.062
-188.158	-103.270	0.247	-0.058
-187.144	137.253	0.032	-0.042
-186.129	-69.303	-0.195	-0.074
-185.114	13.573	-0.056	0.043
-184.100	-76.972	0.051	0.017
-183.085	315.709	0.073	0.137
-182.071	-176.590	-0.185	0.005
-181.056	92.252	-0.095	-0.106
-180.042	194.275	-0.088	-0.132
-179.027	51.632	0.160	-0.150
-178.012	-82.610	0.256	-0.082
-176.998	-167.804	-0.171	-0.007
-175.983	800.000	-0.054	0.156
-174.969	-200.000	0.014	0.075
-173.954	-200.000	0.011	0.288
-172.939	21.657	0.096	0.077
-171.925	59.123	0.292	0.283
-170.910	-200.000	0.002	0.057
-169.896	665.659	-0.044	0.112
-168.881	-100.054	-0.122	0.030
-167.866	39.145	0.227	0.201
-166.852	55.721	-0.175	0.167
-165.837	365.011	-0.044	-0.088
-164.823	283.956	0.183	0.325
-163.808	-11.640	-0.190	0.123
-162.793	497.462	0.123	-0.279
-161.779	-66.098	-0.214	0.084
-160.764	-26.643	-0.352	-0.203
-159.750	800.000	0.033	-0.136
-158.735	60.993	-0.210	0.206
-157.720	-200.000	-0.019	-0.259
-156.706	-54.386	-0.284	0.127
-155.691	-112.476	-0.133	-0.026
-154.677	-53.849	-0.117	0.052
-153.662	-93.543	-0.121	-0.033
-152.647	-3.694	0.316	0.217
-151.633	171.882	0.136	0.192
-150.618	314.251	0.101	-0.187
-149.604	-103.269	0.156	-0.036
-148.589	-200.000	-0.008	0.184
-147.574	-183.364	0.201	-0.003
-146.560	32.368	-0.124	-0.105
-145.545	-57.737	0.170	0.073
-144.531	-86.082	0.126	-0.038
-143.516	-200.000	0.096	-0.435
-142.502	-200.000	-0.050	-0.223
-141.487	170.257	0.131	0.185
-140.472	64.692	0.061	-0.061
-139.458	86.562	-0.197	0.214
-138.443	166.017	-0.163	-0.227
-137.429	618.795	-0.212	0.527
-136.414	99.245	0.145	-0.165
-135.399	258.790	0.084	-0.143
-134.385	759.205	0.158	0.423
-133.370	244.486	-0.080	0.133
-132.356	139.628	0.216	-0.280
-131.341	79.059	0.091	-0.096
-130.326	490.273	-0.050	-0.113
-129.312	-200.000	-0.075	-0.523
-128.297	-87.560	-0.155	0.046
-127.283	-17.353	-0.007	0.005
-126.268	800.000	-0.139	-0.414
-125.253	-200.000	0.025	-0.243
-124.239	39.845	0.081	0.072
-123.224	446.534	0.101	-0.219
-122.210	-68.188	0.016	-0.006
-121.195	75.593	0.329	0.342
