DTS Sentinel unit serial number:	SN413079Multiplexer serial number:	ORYXHardware model number:	OX4-SRSoftware version number:	ORYX F/W v4.00 Oryx Data Collector v3.7.2.0data status	okinstallation	princeton_trtdifferential loss correction	single-endedforward channel	channel 3reverse channel	N/Adate	2019/09/11time	12:02:10forward acquisition time	60.00reverse acquisition time	0.00gamma	496.2192k internal	0.2292k external	0.2292temperature offset calibration	0.9934default loss term (dB/km)	0.3790temperature slope calibration	1.0000multiplexer offset coefficient	1.0000multiplexer slope coefficient	1.0000fibre end	0.00T internal ref (°C)	39.34T ext. ref 1 (°C)	0.21T ext. ref 2 (°C)	37.18length (m)	temperature (°C)	Stokes	anti-Stokes-747.200	-62.479	-0.112	0.048
-746.185	59.227	-0.120	0.121
-745.171	-200.000	0.016	0.327
-744.156	-130.181	-0.282	-0.039
-743.142	38.627	0.132	-0.120
-742.127	-15.570	-0.222	0.145
-741.112	59.768	0.102	-0.103
-740.098	-200.000	0.039	0.513
-739.083	26.937	0.204	-0.175
-738.069	73.494	0.074	0.079
-737.054	-41.677	-0.161	0.085
-736.039	454.129	-0.068	0.155
-735.025	-200.000	-0.035	-0.176
-734.010	-200.000	0.038	-0.198
-732.996	800.000	0.092	-0.355
-731.981	-200.000	0.051	0.303
-730.966	153.075	0.032	0.045
-729.952	-200.000	-0.041	0.206
-728.937	-171.974	-0.151	0.005
-727.923	-200.000	-0.023	-0.371
-726.908	-200.000	-0.004	-0.168
-725.894	238.898	-0.310	-0.527
-724.879	-146.992	0.279	-0.024
-723.864	-68.492	0.103	-0.041
-722.850	-200.000	0.011	-0.413
-721.835	800.000	-0.038	-0.119
-720.821	199.978	0.065	-0.101
-719.806	80.884	-0.299	-0.330
-718.791	800.000	-0.009	-0.037
-717.777	-200.000	-0.003	-0.351
-716.762	21.056	0.043	0.036
-715.748	-17.161	-0.095	0.061
-714.733	10.370	0.069	0.054
-713.718	-104.149	-0.196	-0.047
-712.704	737.286	-0.142	-0.388
-711.689	-55.726	-0.092	0.042
-710.675	-18.363	-0.182	0.117
-709.660	-78.894	0.168	0.059
-708.645	229.796	-0.112	0.187
-707.631	-200.000	-0.006	-0.203
-706.616	31.899	-0.094	0.083
-705.602	185.516	-0.068	0.103
-704.587	195.281	0.039	-0.061
-703.572	11.682	-0.390	0.306
-702.558	660.531	0.102	0.269
-701.543	-175.836	-0.163	0.004
-700.529	-200.000	0.004	0.149
-699.514	341.337	-0.152	-0.304
-698.499	199.822	0.082	0.128
-697.485	800.000	-0.046	0.133
-696.470	-200.000	-0.083	-0.373
-695.456	-200.000	-0.056	-0.348
-694.441	800.000	-0.028	-0.083
-693.426	-82.677	0.365	-0.121
-692.412	-141.670	-0.501	-0.051
-691.397	564.076	0.117	-0.289
-690.383	117.181	-0.061	-0.077
-689.368	-20.241	-0.294	0.185
-688.354	233.811	0.085	0.142
-687.339	-200.000	-0.008	-0.092
-686.324	734.642	-0.156	-0.427
-685.310	790.192	-0.029	0.081
-684.295	-50.590	-0.496	0.239
-683.281	800.000	-0.085	-0.331
-682.266	-44.806	0.287	-0.146
-681.251	-186.004	0.108	-0.002
-680.237	83.639	-0.217	0.241
-679.222	38.932	-0.065	-0.060
-678.208	-52.579	0.401	-0.189
-677.193	120.987	0.173	0.219
-676.178	215.879	0.085	0.138
-675.164	-92.954	0.226	0.064
-674.149	-200.000	-0.002	-0.031
-673.135	468.313	-0.027	0.062
-672.120	-31.981	0.107	0.061
-671.105	241.993	-0.072	-0.124
-670.091	800.000	-0.096	-0.323
-669.076	-200.000	0.017	-0.358
-668.062	234.797	0.159	0.268
-667.047	-200.000	-0.005	-0.416
-666.032	-90.274	0.196	-0.058
-665.018	-149.591	0.637	0.051
-664.003	-89.081	0.062	-0.019
-662.989	-200.000	-0.003	-0.132
-661.974	499.813	-0.065	0.153
-660.959	-98.025	0.214	0.056
-659.945	130.285	0.065	0.085
-658.930	-99.127	0.089	0.023
-657.916	-7.111	-0.122	0.085
-656.901	44.970	-0.075	0.070
-655.886	11.825	0.090	-0.070
-654.872	69.439	-0.067	0.070
-653.857	-200.000	0.008	-0.545
-652.843	660.597	0.067	0.177
-651.828	800.000	0.110	0.318
-650.814	-71.718	0.110	-0.042
-649.799	-200.000	-0.011	0.198
-648.784	68.398	-0.240	-0.251
-647.770	-120.850	-0.110	-0.019
-646.755	800.000	0.077	-0.249
-645.741	-126.058	0.261	0.040
-644.726	332.731	0.193	-0.381
-643.711	-200.000	0.053	0.252
-642.697	-102.305	0.382	0.094
-641.682	800.000	0.158	0.478
-640.668	-31.554	-0.137	0.078
-639.653	792.442	0.121	-0.340
-638.638	229.290	-0.095	0.159
-637.624	-43.392	0.201	0.104
-636.609	59.080	0.068	-0.068
-635.595	-166.253	-0.242	-0.010
-634.580	-28.518	0.048	0.028
-633.565	-99.033	-0.276	0.071
-632.551	-147.246	0.074	0.006
-631.536	-142.637	0.241	0.024
-630.522	-200.000	-0.065	-0.295
-629.507	672.046	-0.025	-0.067
-628.492	-39.663	-0.007	-0.004
-627.478	-85.680	0.195	-0.062
-626.463	-200.000	-0.059	0.359
-625.449	800.000	-0.038	0.167
-624.434	108.599	0.060	-0.074
-623.419	250.343	0.140	0.242
-622.405	-177.088	-0.396	0.010
-621.390	-200.000	-0.019	-0.116
-620.376	-93.467	0.079	-0.022
-619.361	800.000	-0.023	0.102
-618.346	-131.371	-0.081	0.011
-617.332	84.961	-0.133	-0.148
-616.317	-8.471	0.131	-0.090
-615.303	-134.330	-0.137	0.017
-614.288	800.000	-0.035	0.103
-613.273	-81.839	-0.132	0.044
-612.259	11.780	-0.054	0.042
-611.244	-200.000	-0.037	-0.351
-610.230	585.159	-0.062	0.156
-609.215	117.451	0.201	-0.252
-608.201	-35.812	0.100	0.055
-607.186	-181.950	0.300	-0.006
-606.171	-200.000	0.106	0.522
-605.157	-81.673	-0.148	0.050
-604.142	-200.000	-0.037	-0.257
-603.128	-41.487	-0.126	-0.066
-602.113	-119.937	0.329	0.058
-601.098	239.463	0.061	0.103
-600.084	277.876	-0.073	0.132
-599.069	64.657	-0.122	0.125
-598.055	133.261	-0.205	0.269
-597.040	249.024	-0.040	-0.069
-596.025	372.598	-0.098	-0.202
-595.011	-200.000	0.020	0.095
-593.996	739.364	0.068	0.185
-592.982	-200.000	0.018	-0.166
-591.967	-190.142	-0.130	-0.001
-590.952	-116.190	-0.181	0.034
-589.938	63.106	-0.172	-0.175
-588.923	370.957	0.055	0.114
-587.909	13.771	0.335	-0.265
-586.894	325.589	-0.124	-0.241
-585.879	-89.751	-0.383	0.114
-584.865	-81.820	-0.284	0.095
-583.850	-13.178	0.110	0.073
-582.836	-200.000	0.014	-0.438
-581.821	62.451	0.107	0.108
-580.806	167.146	0.090	0.130
-579.792	172.294	0.150	-0.219
-578.777	-32.748	-0.195	-0.110
-577.763	-55.768	-0.124	-0.056
-576.748	-25.371	0.095	0.057
-575.733	420.811	-0.105	-0.228
-574.719	130.186	-0.227	-0.295
-573.704	19.864	-0.096	0.078
-572.690	800.000	-0.057	-0.174
-571.675	800.000	-0.076	0.217
-570.661	-2.726	-0.183	0.130
-569.646	151.143	-0.088	-0.121
-568.631	800.000	0.087	-0.297
-567.617	64.731	-0.084	0.086
-566.602	4.474	-0.087	-0.065
-565.588	-42.833	-0.191	0.099
-564.573	-200.000	-0.016	0.149
-563.558	800.000	0.082	-0.314
-562.544	-200.000	-0.003	-0.243
-561.529	29.319	-0.048	-0.042
-560.515	-12.584	-0.033	-0.022
-559.500	-60.804	0.463	-0.199
-558.485	-110.034	-0.151	-0.032
-557.471	-44.256	0.262	0.133
-556.456	454.160	0.126	-0.283
-555.442	-200.000	0.044	-0.371
-554.427	114.489	-0.205	-0.253
-553.412	-99.012	-0.146	-0.038
-552.398	-154.356	0.165	0.011
-551.383	485.914	0.059	0.137
-550.369	-200.000	-0.057	-0.386
-549.354	-200.000	0.026	-0.320
-548.339	12.092	0.154	0.120
-547.325	-84.695	0.293	-0.094
-546.310	-186.515	-0.053	-0.001
-545.296	-160.042	-0.075	-0.004
-544.281	-18.032	0.352	0.224
-543.266	800.000	-0.058	0.207
-542.252	-200.000	0.006	-0.040
-541.237	78.337	-0.120	0.130
-540.223	98.859	-0.101	0.119
-539.208	-200.000	0.033	-0.299
-538.193	66.881	-0.074	0.076
-537.179	415.008	-0.151	0.326
-536.164	33.248	0.190	0.167
-535.150	61.923	0.157	0.159
-534.135	-71.534	-0.195	0.074
-533.121	-66.622	0.207	-0.083
-532.106	-65.243	-0.142	-0.058
-531.091	50.813	0.223	-0.214
-530.077	209.906	-0.105	-0.167
-529.062	-98.573	0.461	-0.120
-528.048	-162.144	0.117	-0.006
-527.033	65.373	0.090	-0.093
-526.018	135.909	-0.335	0.442
-525.004	-10.502	0.111	-0.074
-523.989	-53.633	0.436	0.202
-522.975	120.464	0.272	0.343
-521.960	61.788	0.065	0.066
-520.945	-39.397	0.357	-0.190
-519.931	-75.153	-0.282	0.102
-518.916	-1.742	0.217	-0.155
-517.902	-146.195	-0.321	-0.029
-516.887	800.000	-0.117	0.358
-515.872	154.023	-0.099	-0.138
-514.858	392.262	-0.111	-0.235
-513.843	-200.000	0.029	-0.181
-512.829	-25.294	0.238	-0.143
-511.814	-173.873	-0.199	-0.006
-510.799	800.000	-0.075	0.230
-509.785	-102.052	-0.051	0.013
-508.770	-19.975	-0.221	-0.138
-507.756	57.534	0.088	0.087
-506.741	-76.423	0.225	0.080
-505.726	-139.213	-0.572	0.063
-504.712	-87.929	-0.202	-0.062
-503.697	-200.000	-0.003	-0.238
-502.683	157.309	0.266	-0.373
-501.668	-200.000	0.019	-0.127
-500.653	-72.028	-0.229	0.086
-499.639	-80.499	0.284	0.096
-498.624	-100.941	-0.107	-0.027
-497.610	190.014	0.231	-0.352
-496.595	-67.898	0.182	0.072
-495.581	221.378	0.147	-0.239
-494.566	-51.825	-0.366	0.173
-493.551	35.599	0.268	0.239
-492.537	55.982	-0.265	0.261
-491.522	32.263	-0.130	-0.114
-490.508	-200.000	-0.047	-0.299
-489.493	-142.831	0.398	0.039
-488.478	-123.126	0.283	-0.046
-487.464	-200.000	-0.058	-0.339
-486.449	-200.000	-0.003	-0.117
-485.435	800.000	0.056	0.231
-484.420	100.367	0.107	0.125
-483.405	-200.000	0.068	0.322
-482.391	342.962	0.057	-0.114
-481.376	-200.000	0.014	-0.190
-480.362	800.000	0.041	0.155
-479.347	-200.000	-0.017	-0.294
-478.332	-145.647	0.275	-0.025
-477.318	-92.665	-0.300	-0.085
-476.303	51.494	-0.252	0.242
-475.289	-45.817	-0.143	0.072
-474.274	190.518	0.121	-0.185
-473.259	25.507	0.068	-0.057
-472.245	-200.000	-0.006	-0.331
-471.230	510.831	-0.057	-0.135
-470.216	356.587	0.105	-0.212
-469.201	-37.418	-0.183	0.099
-468.186	225.861	0.167	0.274
-467.172	800.000	-0.101	0.286
-466.157	-101.576	0.140	-0.034
-465.143	-110.599	-0.232	-0.049
-464.128	227.076	-0.161	0.265
-463.113	800.000	0.068	0.210
-462.099	-20.424	0.300	-0.187
-461.084	-116.375	0.275	-0.051
-460.070	72.150	-0.201	0.212
-459.055	-176.283	0.392	0.010
-458.040	-191.535	0.176	0.002
-457.026	-42.663	0.162	-0.084
-456.011	-11.009	0.231	-0.155
-454.997	-200.000	-0.037	-0.254
-453.982	567.229	-0.077	0.190
-452.968	-135.591	-0.139	0.017
-451.953	-132.335	-0.364	0.048
-450.938	-200.000	0.004	-0.026
-449.924	-165.154	0.178	-0.008
-448.909	73.027	0.235	-0.248
-447.895	317.275	0.180	-0.344
-446.880	211.105	-0.084	-0.134
-445.865	62.637	0.352	-0.356
-444.851	1.904	-0.013	-0.010
-443.836	-175.671	-0.234	0.006
-442.822	-200.000	0.010	-0.072
-441.807	-200.000	-0.010	0.201
-440.792	334.604	-0.039	-0.076
-439.778	-84.368	-0.191	-0.061
-438.763	800.000	0.057	0.240
-437.749	-137.703	-0.077	-0.009
-436.734	-163.056	0.243	-0.012
-435.719	800.000	0.020	0.057
-434.705	-56.775	-0.195	0.087
-433.690	409.949	-0.092	-0.197
-432.676	-77.266	0.388	-0.136
-431.661	524.672	0.090	0.215
-430.646	135.842	0.145	-0.191
-429.632	-35.768	-0.165	-0.090
-428.617	800.000	-0.060	0.175
-427.603	-23.097	0.270	-0.165
-426.588	90.936	0.105	0.119
-425.573	-200.000	0.043	-0.281
-424.559	40.990	-0.072	0.065
-423.544	-143.158	-0.269	-0.026
-422.530	-29.155	0.201	-0.117
-421.515	-200.000	0.044	-0.262
-420.500	800.000	-0.069	-0.216
-419.486	287.139	-0.136	-0.249
-418.471	-19.565	-0.147	-0.092
-417.457	-32.100	0.081	-0.046
-416.442	-98.697	0.149	-0.038
-415.428	-35.141	-0.184	0.101
-414.413	569.856	0.079	0.195
-413.398	-125.563	-0.090	-0.014
-412.384	47.012	-0.180	-0.169
-411.369	283.471	-0.121	0.220
-410.355	-39.663	-0.131	0.069
-409.340	56.852	-0.024	-0.024
-408.325	647.715	0.017	0.044
-407.311	491.929	-0.093	-0.216
-406.296	-60.706	-0.385	0.165
-405.282	155.756	0.267	0.371
-404.267	43.319	-0.125	0.115
-403.252	11.501	-0.170	0.132
-402.238	-5.768	-0.230	-0.159
-401.223	-43.038	-0.306	0.157
-400.209	800.000	0.082	-0.323
-399.194	97.505	0.132	0.153
-398.179	800.000	-0.094	0.279
-397.165	-200.000	0.038	0.319
-396.150	-200.000	0.026	0.246
-395.136	98.701	-0.301	0.351
-394.121	800.000	-0.037	0.157
-393.106	-200.000	-0.014	-0.577
-392.092	113.210	-0.116	-0.142
-391.077	-142.127	-0.320	0.032
-390.063	-151.305	-0.268	-0.020
-389.048	198.551	0.121	0.187
-388.033	30.677	0.293	0.254
-387.019	324.259	0.031	-0.060
-386.004	117.957	-0.083	-0.103
-384.990	-104.357	-0.240	0.056
-383.975	143.408	0.108	0.145
-382.960	80.250	-0.097	0.106
-381.946	800.000	-0.029	-0.104
-380.931	-200.000	-0.026	0.267
-379.917	-122.042	0.194	0.032
-378.902	-42.310	0.144	0.074
-377.888	60.252	0.275	0.274
-376.873	-181.503	0.218	-0.004
-375.858	-52.948	0.045	0.021
-374.844	-173.239	-0.116	0.004
-373.829	-133.866	-0.216	0.027
-372.815	-62.824	0.168	-0.070
-371.800	-200.000	0.021	0.120
-370.785	343.023	-0.105	-0.207
-369.771	-173.089	0.281	0.009
-368.756	-53.132	-0.249	-0.115
-367.742	-84.923	-0.554	0.175
-366.727	-48.818	-0.118	-0.057
-365.712	467.363	0.126	-0.285
-364.698	800.000	0.087	-0.333
-363.683	-200.000	-0.008	0.079
-362.669	277.044	-0.059	0.105
-361.654	42.826	-0.180	0.165
-360.639	-200.000	0.032	0.223
-359.625	-200.000	-0.044	-0.396
-358.610	166.336	0.098	-0.141
-357.596	-72.314	-0.136	-0.051
-356.581	-112.592	-0.317	0.064
-355.566	-41.991	-0.093	-0.048
-354.552	-48.413	-0.286	0.139
-353.537	162.160	0.177	0.250
-352.523	-200.000	-0.045	-0.273
-351.508	-102.630	-0.133	0.032
-350.493	443.880	-0.064	0.141
-349.479	-200.000	-0.125	-0.000
-348.464	-77.985	0.134	-0.047
-347.450	2.751	0.409	0.299
-346.435	-19.467	0.216	-0.135
-345.420	-80.024	-0.340	-0.115
-344.406	140.704	0.099	0.131
-343.391	44.396	0.044	-0.040
-342.377	-46.784	-0.083	-0.041
-341.362	-75.423	0.120	-0.043
-340.348	800.000	-0.170	-0.522
-339.333	11.635	0.162	0.125
-338.318	-84.189	0.215	0.069
-337.304	-12.017	0.134	-0.089
-336.289	-143.730	0.087	0.008
-335.275	-200.000	-0.034	-0.258
-334.260	9.187	-0.172	0.131
-333.245	-200.000	-0.019	0.210
-332.231	-87.599	0.199	-0.061
-331.216	497.454	0.128	0.298
-330.202	-64.571	-0.128	0.052
-329.187	104.812	0.216	0.256
-328.172	-200.000	0.002	0.086
-327.158	800.000	-0.112	0.392
-326.143	-107.312	0.343	0.076
-325.129	800.000	0.029	0.087
-324.114	125.081	0.147	-0.186
-323.099	176.164	0.155	0.226
-322.085	45.509	-0.109	-0.101
-321.070	-0.383	-0.192	-0.137
-320.056	-73.252	0.220	-0.081
-319.041	43.540	0.086	-0.079
-318.026	258.076	0.107	-0.186
-317.012	453.625	0.111	0.247
-315.997	81.238	-0.060	-0.065
-314.983	-18.795	-0.201	0.126
-313.968	29.960	0.076	0.065
-312.953	357.920	-0.118	-0.237
-311.939	-131.074	0.434	-0.058
-310.924	-122.924	0.170	-0.028
-309.910	-200.000	0.034	-0.262
-308.895	274.518	0.170	-0.302
-307.880	-132.503	-0.116	-0.015
-306.866	262.804	0.113	-0.198
-305.851	96.359	-0.276	0.318
-304.837	-47.394	-0.051	0.025
-303.822	-159.747	0.107	0.006
-302.807	-94.114	-0.219	0.060
-301.793	-200.000	0.042	0.274
-300.778	487.083	0.225	0.516
-299.764	-136.091	-0.148	0.018
-298.749	-32.853	-0.255	0.142
-297.735	509.634	-0.069	-0.161
-296.720	112.121	0.156	-0.190
-295.705	327.275	0.056	0.108
-294.691	165.361	-0.113	0.160
-293.676	-180.486	-0.271	0.006
-292.662	300.052	0.107	-0.198
-291.647	261.904	0.160	-0.279
-290.632	1.009	-0.124	-0.089
-289.618	195.162	0.281	0.429
-288.603	121.975	-0.193	0.242
-287.589	-57.202	-0.284	-0.126
-286.574	-27.205	0.352	0.206
-285.559	-200.000	0.013	0.316
-284.545	-14.782	0.058	-0.037
-283.530	184.805	0.046	-0.068
-282.516	35.720	0.148	0.131
-281.501	-78.238	0.239	-0.082
-280.486	785.835	0.054	0.149
-279.472	-200.000	0.004	-0.027
-278.457	-120.459	0.339	-0.058
-277.443	-124.266	0.180	0.028
-276.428	92.518	-0.116	0.132
-275.413	764.731	-0.088	0.240
-274.399	-77.610	-0.035	0.012
-273.384	-200.000	0.038	0.298
-272.370	-65.444	0.129	0.052
-271.355	-137.357	-0.304	-0.035
-270.340	138.857	-0.043	0.057
-269.326	-64.737	-0.152	-0.062
-268.311	800.000	0.087	-0.281
-267.297	-17.622	0.125	-0.079
-266.282	27.592	0.232	0.196
-265.267	-200.000	-0.052	-0.232
-264.253	169.914	-0.131	0.188
-263.238	12.939	0.121	-0.094
-262.224	-174.399	-0.486	0.014
-261.209	27.447	-0.100	0.084
-260.195	169.374	0.046	-0.066
-259.180	800.000	0.012	0.045
-258.165	-71.858	-0.308	0.115
-257.151	151.066	-0.171	0.234
-256.136	800.000	-0.050	-0.138
-255.122	18.043	0.116	-0.093
-254.107	-131.717	-0.253	-0.033
-253.092	111.113	-0.139	0.168
-252.078	-28.903	0.026	-0.015
-251.063	-11.205	-0.074	-0.049
-250.049	-15.202	0.129	-0.083
-249.034	-19.064	-0.234	-0.146
-248.019	124.788	-0.075	-0.095
-247.005	195.314	0.154	0.235
-245.990	120.738	0.093	-0.116
-244.976	19.036	-0.073	0.059
-243.961	-37.570	0.045	0.024
-242.946	-57.561	0.187	0.082
-241.932	-62.055	-0.168	-0.071
-240.917	-56.316	-0.204	-0.091
-239.903	51.134	-0.134	0.127
-238.888	65.938	-0.162	0.165
-237.873	182.970	0.056	-0.084
-236.859	-63.334	0.065	-0.027
-235.844	-200.000	0.027	-0.418
-234.830	-181.261	0.149	-0.003
-233.815	-21.887	0.165	0.101
-232.800	-192.797	0.163	0.001
-231.786	0.167	0.211	-0.151
-230.771	-60.269	0.262	0.112
-229.757	800.000	0.044	0.147
-228.742	-200.000	0.036	0.172
-227.727	53.321	0.190	0.183
-226.713	-154.644	0.144	-0.010
-225.698	-86.863	0.331	0.101
-224.684	-101.510	-0.055	-0.013
-223.669	800.000	-0.116	-0.397
-222.655	785.244	0.038	-0.104
-221.640	91.124	-0.150	0.169
-220.625	-67.821	-0.224	0.088
-219.611	15.791	0.169	-0.133
-218.596	186.209	-0.050	0.074
-217.582	366.294	0.123	0.250
-216.567	-52.440	0.219	0.101
-215.552	-200.000	-0.005	-0.225
-214.538	199.762	-0.116	-0.178
-213.523	-31.420	0.204	-0.115
-212.509	-50.405	-0.085	0.040
-211.494	74.840	-0.218	0.231
-210.479	107.679	0.172	0.205
-209.465	-20.316	-0.076	-0.047
-208.450	-63.768	-0.154	0.063
-207.436	60.839	0.074	-0.074
-206.421	585.934	0.109	0.270
-205.406	-60.111	0.424	-0.181
-204.392	-200.000	-0.023	-0.416
-203.377	-200.000	-0.013	0.139
-202.363	267.619	-0.121	-0.212
-201.348	-23.244	-0.297	0.179
-200.333	-200.000	-0.075	-0.422
-199.319	246.506	-0.119	0.200
-198.304	26.607	-0.251	0.210
-197.290	65.550	-0.115	-0.116
-196.275	800.000	-0.028	0.093
-195.260	268.146	-0.122	0.214
-194.246	185.438	0.028	-0.042
-193.231	-200.000	-0.017	-0.130
-192.217	198.417	-0.255	-0.390
-191.202	-200.000	0.040	-0.280
-190.187	-67.234	0.232	-0.091
-189.173	800.000	0.038	0.127
-188.158	-73.480	-0.413	-0.151
-187.144	755.655	-0.089	0.241
-186.129	-200.000	-0.056	0.258
-185.114	-65.091	-0.079	-0.032
-184.100	217.842	0.120	0.192
-183.085	135.643	0.236	-0.307
-182.071	800.000	-0.033	0.131
-181.056	0.577	0.016	0.012
-180.042	77.591	0.257	0.274
-179.027	-200.000	-0.030	0.250
-178.012	-69.078	0.214	0.083
-176.998	-200.000	0.034	-0.205
-175.983	-21.684	0.251	-0.153
-174.969	-200.000	-0.007	-0.171
-173.954	283.213	-0.125	0.224
-172.939	-200.000	-0.041	0.262
-171.925	-52.933	-0.093	0.043
-170.910	338.592	0.175	-0.340
-169.896	226.352	-0.116	0.188
-168.881	138.671	0.257	-0.338
-167.866	236.779	-0.087	0.144
-166.852	-114.495	0.088	-0.017
-165.837	-76.045	0.042	-0.015
-164.823	67.284	0.091	0.093
-163.808	308.372	-0.128	0.239
-162.793	-200.000	-0.017	0.377
-161.779	-148.681	-0.352	-0.029
-160.764	-200.000	0.021	-0.168
-159.750	-200.000	-0.059	-0.282
-158.735	725.059	-0.040	-0.106
-157.720	-105.263	-0.151	-0.034
-156.706	85.209	-0.083	0.091
-155.691	800.000	0.077	0.260
-154.677	12.122	-0.215	-0.166
-153.662	-8.095	-0.346	0.233
-152.647	23.181	-0.223	0.183
-151.633	800.000	-0.009	0.032
-150.618	17.605	0.257	0.204
-149.604	-94.696	0.217	-0.059
-148.589	-139.232	0.338	0.036
-147.574	247.775	0.174	0.294
-146.560	353.051	0.188	0.374
-145.545	143.511	0.073	-0.097
-144.531	-26.514	-0.144	-0.084
-143.516	735.884	0.118	-0.317
-142.502	-200.000	0.002	0.193
-141.487	8.785	0.131	-0.099
-140.472	169.261	0.187	-0.267
-139.458	127.908	-0.070	-0.089
-138.443	62.487	-0.132	0.132
-137.429	-58.092	0.135	0.059
-136.414	-73.963	0.078	0.028
-135.399	-84.623	0.283	-0.089
-134.385	25.855	0.385	-0.321
-133.370	312.457	-0.093	-0.174
-132.356	-200.000	0.011	-0.307
-131.341	800.000	-0.116	-0.380
-130.326	-109.581	-0.153	-0.032
-129.312	410.968	-0.089	0.188
-128.297	-12.117	0.075	0.049
-127.283	-121.743	-0.134	-0.022
-126.268	-45.908	-0.071	-0.035
-125.253	-65.500	-0.344	0.138
-124.239	-115.858	0.527	0.098
-123.224	-97.473	-0.060	0.016
-122.210	491.805	-0.050	-0.113
-121.195	-8.507	-0.247	0.166
