DTS Sentinel unit serial number:	SN413079Multiplexer serial number:	ORYXHardware model number:	OX4-SRSoftware version number:	ORYX F/W v4.00 Oryx Data Collector v3.7.2.0data status	okinstallation	princeton_trtdifferential loss correction	single-endedforward channel	channel 3reverse channel	N/Adate	2019/09/15time	11:52:35forward acquisition time	60.00reverse acquisition time	0.00gamma	496.2192k internal	0.2306k external	0.2306temperature offset calibration	0.9976default loss term (dB/km)	0.3790temperature slope calibration	1.0000multiplexer offset coefficient	1.0000multiplexer slope coefficient	1.0000fibre end	0.00T internal ref (°C)	34.37T ext. ref 1 (°C)	5.06T ext. ref 2 (°C)	30.09length (m)	temperature (°C)	Stokes	anti-Stokes-747.200	781.971	-0.128	0.356
-746.185	-156.262	0.305	-0.019
-745.171	-200.000	-0.008	-0.109
-744.156	-37.411	0.191	0.104
-743.142	31.602	0.288	0.252
-742.127	800.000	-0.042	-0.121
-741.112	-0.420	0.125	0.090
-740.098	121.017	0.107	-0.135
-739.083	-103.562	0.054	0.013
-738.069	31.324	0.284	0.248
-737.054	-200.000	-0.049	-0.263
-736.039	36.078	-0.071	-0.064
-735.025	3.411	0.204	0.151
-734.010	-200.000	0.009	-0.424
-732.996	-29.178	0.231	-0.135
-731.981	-48.825	-0.238	0.116
-730.966	20.495	0.163	0.134
-729.952	-92.483	-0.197	-0.056
-728.937	89.374	-0.229	-0.259
-727.923	26.543	0.130	0.111
-726.908	-134.909	-0.192	0.024
-725.894	-34.847	-0.196	0.109
-724.879	-26.577	0.135	-0.080
-723.864	-4.107	0.169	-0.119
-722.850	422.494	-0.182	-0.397
-721.835	9.463	0.426	-0.328
-720.821	436.976	0.083	-0.185
-719.806	14.575	-0.099	0.078
-718.791	20.979	0.230	-0.189
-717.777	-187.165	-0.204	-0.003
-716.762	-157.241	-0.282	-0.017
-715.748	-57.544	-0.212	-0.094
-714.733	139.577	0.114	0.152
-713.718	-124.828	0.224	0.035
-712.704	800.000	0.037	0.165
-711.689	146.468	-0.109	0.148
-710.675	-67.049	0.451	-0.181
-709.660	266.261	0.083	0.148
-708.645	108.674	0.062	0.075
-707.631	800.000	0.192	-0.593
-706.616	-84.422	-0.314	-0.101
-705.602	250.386	0.074	-0.128
-704.587	62.216	0.133	-0.135
-703.572	269.020	-0.123	-0.219
-702.558	2.794	0.316	0.233
-701.543	23.272	0.169	0.141
-700.529	800.000	-0.041	0.137
-699.514	800.000	-0.053	0.227
-698.499	120.260	0.212	-0.267
-697.485	800.000	0.020	-0.060
-696.470	-49.848	0.293	0.141
-695.456	-200.000	0.212	0.001
-694.441	-69.655	-0.022	0.008
-693.426	65.120	0.126	0.129
-692.412	-200.000	0.080	-0.357
-691.397	62.051	-0.107	0.108
-690.383	800.000	0.088	0.290
-689.368	-24.763	-0.173	0.104
-688.354	267.462	-0.124	0.221
-687.339	-200.000	-0.014	-0.333
-686.324	-40.627	-0.263	-0.138
-685.310	117.887	-0.036	0.045
-684.295	66.056	-0.227	-0.234
-683.281	49.385	-0.171	-0.163
-682.266	-48.813	0.278	-0.135
-681.251	32.722	0.028	-0.024
-680.237	47.110	0.151	0.142
-679.222	-57.939	-0.138	0.061
-678.208	262.958	0.201	0.354
-677.193	542.404	0.057	-0.139
-676.178	-96.892	0.142	0.038
-675.164	-40.946	-0.295	0.155
-674.149	210.269	0.084	-0.133
-673.135	112.165	-0.081	-0.100
-672.120	-35.046	0.320	-0.177
-671.105	-200.000	0.004	0.153
-670.091	-44.142	0.048	-0.024
-669.076	73.082	-0.276	-0.293
-668.062	-105.936	0.128	0.029
-667.047	-200.000	0.003	0.020
-666.032	379.114	-0.063	0.131
-665.018	-200.000	0.005	-0.101
-664.003	67.885	-0.106	-0.110
-662.989	-114.117	-0.113	-0.022
-661.974	638.534	0.089	-0.230
-660.959	800.000	-0.085	0.241
-659.945	21.087	0.211	0.173
-658.930	-116.062	0.261	0.049
-657.916	62.913	-0.187	-0.190
-656.901	73.819	-0.247	0.263
-655.886	-15.194	0.039	0.025
-654.872	55.484	0.070	-0.069
-653.857	515.439	-0.069	0.164
-652.843	73.019	-0.150	-0.159
-651.828	-137.814	0.367	0.042
-650.814	18.711	0.215	0.174
-649.799	-179.685	0.339	0.007
-648.784	138.030	0.040	0.053
-647.770	-110.475	0.221	0.047
-646.755	51.377	0.182	0.175
-645.741	-200.000	-0.052	-0.369
-644.726	38.588	-0.236	-0.214
-643.711	-200.000	-0.002	-0.125
-642.697	11.085	-0.168	-0.130
-641.682	158.950	0.070	-0.098
-640.668	-200.000	-0.014	0.263
-639.653	191.249	-0.115	0.175
-638.638	-200.000	0.006	0.138
-637.624	-200.000	-0.024	-0.116
-636.609	-23.783	-0.067	0.040
-635.595	800.000	-0.052	0.204
-634.580	-103.844	-0.100	0.024
-633.565	58.678	-0.215	-0.214
-632.551	-200.000	0.012	-0.209
-631.536	-200.000	0.014	-0.069
-630.522	105.180	0.196	-0.235
-629.507	-16.877	-0.129	-0.082
-628.492	234.106	-0.146	-0.244
-627.478	-39.319	-0.309	0.164
-626.463	-200.000	0.002	0.267
-625.449	59.245	-0.207	0.206
-624.434	10.681	-0.179	0.138
-623.419	19.346	-0.386	-0.314
-622.405	193.052	0.194	0.297
-621.390	41.434	0.226	0.207
-620.376	-57.323	0.232	0.103
-619.361	-200.000	0.037	-0.175
-618.346	-77.371	-0.127	-0.045
-617.332	347.831	0.065	0.130
-616.317	0.669	0.032	-0.023
-615.303	-149.545	0.517	-0.041
-614.288	-111.283	-0.116	-0.024
-613.273	800.000	0.051	0.214
-612.259	-137.761	0.275	0.031
-611.244	19.232	0.132	-0.107
-610.230	-200.000	-0.024	0.220
-609.215	231.783	-0.061	0.101
-608.201	342.785	-0.118	-0.234
-607.186	543.839	0.106	0.257
-606.171	44.527	-0.066	-0.061
-605.157	201.848	0.126	0.196
-604.142	89.367	0.122	-0.138
-603.128	-166.801	-0.407	0.017
-602.113	40.439	0.145	-0.132
-601.098	10.082	0.089	-0.069
-600.084	-175.471	0.145	0.004
-599.069	-200.000	-0.041	0.290
-598.055	76.822	-0.030	-0.033
-597.040	1.110	-0.074	-0.054
-596.025	800.000	0.051	-0.155
-595.011	800.000	-0.056	0.205
-593.996	106.608	0.168	0.202
-592.982	-85.582	0.242	0.076
-591.967	348.230	-0.078	0.156
-590.952	279.814	0.064	0.115
-589.938	-108.519	-0.245	-0.053
-588.923	234.823	0.031	0.051
-587.909	800.000	-0.034	0.111
-586.894	-149.052	-0.190	0.015
-585.879	-68.611	-0.199	-0.078
-584.865	-71.957	-0.403	0.151
-583.850	97.998	-0.143	-0.166
-582.836	-51.608	-0.125	-0.059
-581.821	-47.400	-0.223	-0.110
-580.806	281.108	-0.163	0.295
-579.792	-152.935	0.142	-0.010
-578.777	-200.000	-0.021	-0.203
-577.763	800.000	-0.123	0.431
-576.748	22.429	-0.096	0.079
-575.733	800.000	0.037	-0.108
-574.719	-80.951	-0.134	0.045
-573.704	-81.444	-0.062	-0.021
-572.690	-45.975	0.017	0.008
-571.675	-9.094	-0.205	-0.139
-570.661	-3.171	-0.295	-0.208
-569.646	-45.136	0.509	0.256
-568.631	559.203	-0.027	0.065
-567.617	167.105	0.112	0.160
-566.602	-146.219	-0.229	-0.020
-565.588	-200.000	0.050	0.277
-564.573	-107.112	0.078	0.017
-563.558	-67.272	0.373	-0.148
-562.544	-111.113	-0.354	0.073
-561.529	22.948	-0.082	-0.068
-560.515	311.659	0.187	0.355
-559.500	-200.000	-0.005	0.286
-558.485	104.458	-0.064	0.077
-557.471	239.441	-0.050	0.085
-556.456	342.969	-0.042	0.083
-555.442	-95.991	-0.187	0.050
-554.427	46.428	-0.294	-0.275
-553.412	-178.314	0.138	0.003
-552.398	-61.615	-0.120	0.051
-551.383	-200.000	-0.020	-0.252
-550.369	291.235	-0.231	-0.424
-549.354	170.607	-0.043	-0.062
-548.339	-200.000	-0.018	0.213
-547.325	-81.441	-0.245	-0.082
-546.310	-200.000	0.029	-0.198
-545.296	17.478	0.275	0.221
-544.281	800.000	-0.081	0.309
-543.266	-200.000	-0.022	0.258
-542.252	39.431	-0.170	-0.153
-541.237	-113.151	0.068	-0.014
-540.223	-200.000	0.024	-0.281
-539.208	132.866	-0.247	-0.322
-538.193	-31.873	-0.253	-0.143
-537.179	26.059	0.219	0.184
-536.164	-64.332	0.173	0.071
-535.150	-170.494	-0.456	-0.016
-534.135	19.710	-0.215	-0.174
-533.121	-200.000	0.019	0.110
-532.106	137.039	-0.099	0.130
-531.091	-183.115	0.423	0.008
-530.077	103.106	-0.022	-0.027
-529.062	-43.264	0.179	-0.091
-528.048	-34.938	0.308	0.170
-527.033	-200.000	0.018	0.439
-526.018	-82.162	0.323	0.106
-525.004	-200.000	0.034	0.161
-523.989	-200.000	-0.014	-0.350
-522.975	113.764	-0.113	-0.138
-521.960	-165.416	-0.157	-0.007
-520.945	771.083	0.020	0.056
-519.931	-68.781	-0.181	-0.071
-518.916	61.324	0.067	0.067
-517.902	800.000	-0.045	-0.173
-516.887	-200.000	0.218	0.001
-515.872	-200.000	-0.010	0.277
-514.858	-118.269	0.021	-0.004
-513.843	109.310	-0.087	0.105
-512.829	-115.616	0.318	-0.060
-511.814	-200.000	0.010	0.189
-510.799	800.000	-0.186	-0.639
-509.785	-109.218	-0.095	0.020
-508.770	-200.000	0.034	-0.320
-507.756	800.000	0.110	0.373
-506.741	29.166	-0.104	0.089
-505.726	800.000	-0.063	-0.251
-504.712	-200.000	0.003	-0.014
-503.697	-200.000	-0.004	0.036
-502.683	-200.000	-0.085	0.405
-501.668	-149.139	0.214	0.017
-500.653	271.874	0.103	0.183
-499.639	-119.429	0.221	-0.039
-498.624	25.363	0.237	0.198
-497.610	-119.312	0.131	0.023
-496.595	42.016	-0.225	-0.206
-495.581	-92.785	0.247	-0.069
-494.566	-42.265	-0.225	-0.116
-493.551	-200.000	-0.031	0.253
-492.537	41.627	0.188	-0.171
-491.522	-200.000	0.011	0.051
-490.508	31.383	0.179	0.154
-489.493	-200.000	0.016	-0.122
-488.478	-129.028	-0.057	0.008
-487.464	-14.791	-0.369	-0.239
-486.449	186.352	-0.082	0.123
-485.435	752.176	-0.079	-0.215
-484.420	-17.014	-0.263	-0.167
-483.405	-76.990	0.105	0.037
-482.391	-30.566	0.069	-0.039
-481.376	-185.041	0.199	0.003
-480.362	598.362	-0.013	0.033
-479.347	-161.471	-0.203	-0.011
-478.332	81.546	0.129	0.140
-477.318	-85.560	0.236	0.074
-476.303	17.670	-0.160	-0.128
-475.289	800.000	0.083	-0.284
-474.274	235.609	-0.126	-0.209
-473.259	-119.434	0.330	-0.058
-472.245	81.866	0.031	0.034
-471.230	-200.000	0.005	0.335
-470.216	662.781	-0.035	-0.091
-469.201	-200.000	0.006	-0.161
-468.186	-192.259	-0.141	-0.001
-467.172	-31.491	-0.114	0.065
-466.157	-48.493	-0.231	-0.112
-465.143	-131.466	0.206	-0.027
-464.128	-46.768	0.253	-0.125
-463.113	-48.719	-0.131	-0.063
-462.099	229.680	-0.036	-0.060
-461.084	-200.000	0.021	0.128
-460.070	-70.579	0.318	-0.121
-459.055	800.000	0.076	0.274
-458.040	-120.432	-0.099	-0.017
-457.026	-72.777	0.068	-0.025
-456.011	-165.862	-0.079	0.003
-454.997	-17.739	0.198	-0.125
-453.982	-149.951	0.316	0.025
-452.968	-72.494	-0.118	0.044
-451.953	61.073	0.078	-0.078
-450.938	-200.000	0.017	0.163
-449.924	176.143	0.194	0.284
-448.909	-1.894	-0.147	-0.104
-447.895	-89.366	0.144	0.043
-446.880	-200.000	-0.011	0.117
-445.865	16.409	0.098	0.078
-444.851	-34.752	-0.273	-0.150
-443.836	142.182	0.061	-0.081
-442.822	-200.000	0.033	0.197
-441.807	-200.000	-0.005	-0.274
-440.792	-200.000	-0.006	-0.174
-439.778	-84.153	0.091	-0.029
-438.763	128.769	-0.098	-0.125
-437.749	-184.103	0.177	0.003
-436.734	-75.086	-0.353	0.127
-435.719	438.752	-0.183	0.402
-434.705	445.809	0.077	0.170
-433.690	-200.000	0.027	-0.127
-432.676	-182.909	0.229	-0.004
-431.661	-200.000	0.024	-0.168
-430.646	-200.000	0.024	0.227
-429.632	-115.509	-0.263	0.050
-428.617	-96.083	-0.196	-0.052
-427.603	-56.789	-0.252	-0.112
-426.588	-74.720	-0.065	-0.023
-425.573	-166.055	0.191	0.008
-424.559	-60.294	0.263	0.112
-423.544	-64.084	0.218	-0.089
-422.530	126.493	0.094	0.120
-421.515	-127.332	0.215	0.031
-420.500	120.128	0.129	0.161
-419.486	419.966	-0.133	0.285
-418.471	52.996	0.212	0.204
-417.457	7.456	-0.233	-0.175
-416.442	-4.850	0.141	-0.098
-415.428	11.581	0.126	-0.097
-414.413	135.982	-0.271	0.355
-413.398	673.249	0.086	-0.225
-412.384	59.010	0.242	-0.239
-411.369	108.861	0.280	0.336
-410.355	-125.099	0.049	-0.008
-409.340	800.000	0.033	0.109
-408.325	-200.000	-0.002	0.012
-407.311	234.852	-0.048	-0.080
-406.296	-74.291	-0.079	-0.029
-405.282	-144.498	-0.158	0.015
-404.267	-119.736	0.224	-0.039
-403.252	800.000	-0.072	0.265
-402.238	-46.279	-0.205	-0.101
-401.223	800.000	-0.045	-0.132
-400.209	29.630	-0.180	0.154
-399.194	-72.009	0.248	0.092
-398.179	-112.323	0.390	-0.078
-397.165	-1.295	-0.251	0.178
-396.150	-99.618	0.249	0.063
-395.136	218.885	-0.091	-0.146
-394.121	0.225	0.292	0.209
-393.106	31.364	-0.341	-0.294
-392.092	105.405	0.071	-0.085
-391.077	-136.480	0.326	0.038
-390.063	-83.714	0.125	0.040
-389.048	88.066	0.188	0.209
-388.033	325.658	-0.051	-0.098
-387.019	-25.650	0.278	0.164
-386.004	-200.000	-0.029	-0.539
-384.990	45.162	-0.170	0.157
-383.975	-200.000	-0.012	0.230
-382.960	-3.006	-0.033	-0.023
-381.946	-200.000	-0.048	0.234
-380.931	150.995	0.048	-0.065
-379.917	35.870	0.265	0.234
-378.902	-200.000	-0.015	-0.173
-377.888	153.562	0.131	-0.180
-376.873	-200.000	0.001	0.020
-375.858	-28.962	-0.223	0.129
-374.844	-139.161	-0.086	0.009
-373.829	800.000	0.034	-0.147
-372.815	-200.000	-0.018	0.085
-371.800	800.000	0.134	0.378
-370.785	241.662	0.147	0.247
-369.771	-22.046	0.063	-0.039
-368.756	-200.000	-0.052	0.256
-367.742	-107.677	0.212	-0.046
-366.727	304.903	-0.042	-0.078
-365.712	182.082	-0.235	-0.347
-364.698	259.376	-0.112	-0.193
-363.683	65.607	0.133	0.135
-362.669	-200.000	0.022	-0.330
-361.654	665.736	0.033	-0.084
-360.639	-200.000	0.003	0.015
-359.625	-100.830	-0.097	-0.024
-358.610	0.935	0.345	-0.248
-357.596	0.590	-0.187	0.134
-356.581	186.850	0.030	0.045
-355.566	600.143	0.048	0.120
-354.552	28.228	0.377	0.319
-353.537	53.473	0.167	-0.160
-352.523	-0.828	-0.042	0.030
-351.508	-41.874	-0.144	-0.074
-350.493	-94.263	-0.301	0.083
-349.479	-28.420	-0.273	0.158
-348.464	-139.715	-0.178	0.019
-347.450	-7.789	0.082	0.055
-346.435	-118.874	-0.204	-0.036
-345.420	553.083	-0.097	-0.234
-344.406	371.303	-0.087	0.177
-343.391	-87.435	-0.298	0.090
-342.377	-58.806	0.270	-0.117
-341.362	432.148	0.150	-0.327
-340.348	53.011	0.360	0.345
-339.333	-61.109	-0.265	0.112
-338.318	-42.820	-0.254	-0.129
-337.304	-200.000	-0.042	0.187
-336.289	7.944	0.133	-0.100
-335.275	401.858	0.109	0.229
-334.260	-191.164	-0.085	0.001
-333.245	89.743	-0.188	-0.210
-332.231	800.000	-0.156	0.521
-331.216	-135.360	0.113	-0.013
-330.202	51.217	-0.205	0.195
-329.187	-87.294	-0.080	0.024
-328.172	9.414	-0.086	-0.065
-327.158	19.199	-0.155	0.124
-326.143	276.357	0.135	0.241
-325.129	-21.187	-0.093	0.057
-324.114	800.000	-0.013	0.046
-323.099	-200.000	-0.018	-0.136
-322.085	492.269	0.041	0.094
-321.070	9.765	0.088	-0.067
-320.056	133.805	-0.166	-0.215
-319.041	-36.211	-0.140	-0.076
-318.026	-71.434	0.100	0.037
-317.012	-200.000	-0.027	-0.142
-315.997	-58.007	-0.142	0.062
-314.983	179.960	-0.093	0.136
-313.968	-200.000	0.036	0.205
-312.953	-39.272	-0.160	0.084
-311.939	-147.398	0.091	-0.008
-310.924	-109.837	-0.214	0.045
-309.910	-141.523	0.073	0.007
-308.895	509.875	-0.027	-0.062
-307.880	-115.651	0.105	-0.020
-306.866	-47.640	0.117	-0.057
-305.851	187.119	-0.141	0.210
-304.837	67.863	-0.079	0.081
-303.822	369.828	0.078	0.157
-302.807	-93.406	0.355	0.098
-301.793	-16.820	0.253	0.160
-300.778	-200.000	-0.008	-0.050
-299.764	396.709	-0.114	0.238
-298.749	-187.469	0.013	0.000
-297.735	-25.621	-0.184	-0.109
-296.720	-200.000	0.016	-0.122
-295.705	800.000	0.059	-0.218
-294.691	800.000	0.098	-0.321
-293.676	70.391	-0.175	-0.181
-292.662	390.730	0.075	-0.155
-291.647	-123.687	-0.233	-0.037
-290.632	-86.212	-0.056	-0.017
-289.618	271.333	0.154	0.270
-288.603	-82.560	0.134	0.044
-287.589	-133.702	-0.469	-0.059
-286.574	-129.410	0.194	-0.027
-285.559	-100.119	-0.137	0.034
-284.545	-200.000	-0.006	0.059
-283.530	-200.000	0.004	0.078
-282.516	-95.087	-0.135	-0.037
-281.501	-61.075	0.247	0.104
-280.486	-29.761	-0.227	0.129
-279.472	-43.634	0.143	-0.072
-278.457	800.000	-0.037	-0.116
-277.443	159.106	-0.262	-0.364
-276.428	-32.750	0.143	-0.079
-275.413	159.030	-0.178	-0.246
-274.399	-67.608	0.099	0.039
-273.384	131.472	-0.059	0.075
-272.370	800.000	-0.054	0.200
-271.355	-200.000	-0.035	-0.266
-270.340	-200.000	0.023	0.477
-269.326	522.934	0.052	0.123
-268.311	800.000	0.077	-0.213
-267.297	-78.628	-0.222	0.076
-266.282	-66.717	-0.067	-0.027
-265.267	-55.051	0.445	0.200
-264.253	-2.395	0.090	-0.063
-263.238	59.915	-0.254	-0.251
-262.224	-200.000	-0.202	-0.001
-261.209	43.062	-0.096	-0.088
-260.195	86.560	-0.131	0.144
-259.180	-200.000	0.027	0.167
-258.165	-165.125	0.266	0.012
-257.151	3.001	-0.175	-0.127
-256.136	-127.627	0.360	-0.052
-255.122	56.788	-0.317	-0.308
-254.107	351.330	-0.062	0.123
-253.092	-18.652	-0.297	0.185
-252.078	-5.273	0.113	-0.078
-251.063	-119.590	-0.408	-0.070
-250.049	-93.068	0.221	-0.061
-249.034	595.250	0.130	-0.321
-248.019	141.522	0.226	-0.298
-247.005	-200.000	-0.014	0.070
-245.990	116.720	0.175	-0.214
-244.976	-57.941	0.257	-0.112
-243.961	-200.000	-0.046	-0.311
-242.946	-105.282	0.278	0.063
-241.932	-70.760	0.141	0.053
-240.917	-76.196	-0.184	0.065
-239.903	-37.876	-0.292	-0.155
-238.888	-121.037	0.254	0.042
-237.873	25.214	0.098	-0.081
-236.859	-130.730	-0.208	-0.028
-235.844	800.000	0.077	-0.233
-234.830	-200.000	-0.006	0.100
-233.815	56.575	0.228	-0.221
-232.800	626.398	0.096	-0.243
-231.786	-200.000	0.001	0.153
-230.771	-200.000	0.017	0.296
-229.757	-136.844	-0.068	0.008
-228.742	-200.000	0.023	0.204
-227.727	-91.394	-0.292	-0.083
-226.713	194.398	-0.108	0.164
-225.698	-10.792	-0.205	0.135
-224.684	-190.233	0.053	0.001
-223.669	-200.000	-0.020	0.288
-222.655	208.871	-0.157	-0.245
-221.640	-107.225	0.278	-0.061
-220.625	58.645	0.320	-0.314
-219.611	-200.000	-0.026	0.186
-218.596	-200.000	0.018	-0.110
-217.582	-129.396	-0.184	0.025
-216.567	-200.000	-0.012	0.064
-215.552	80.292	0.417	0.447
-214.538	-116.735	-0.240	-0.044
-213.523	-200.000	-0.096	-0.456
-212.509	-121.365	0.134	-0.022
-211.494	123.663	0.212	-0.265
-210.479	-47.781	-0.261	0.126
-209.465	445.765	0.051	-0.112
-208.450	-140.032	0.233	0.024
-207.436	800.000	-0.043	0.138
-206.421	800.000	0.057	0.214
-205.406	-7.336	-0.031	0.021
-204.392	-97.990	-0.243	0.063
-203.377	202.966	-0.118	-0.181
-202.363	800.000	-0.090	-0.300
-201.348	-200.000	-0.045	-0.336
-200.333	115.753	0.172	-0.209
-199.319	290.568	-0.100	0.181
-198.304	-200.000	0.033	-0.237
-197.290	-200.000	-0.038	-0.252
-196.275	-14.043	0.183	0.117
-195.260	-87.138	0.173	-0.052
-194.246	-94.378	-0.341	-0.093
-193.231	-200.000	-0.024	0.162
-192.217	-102.738	-0.112	-0.027
-191.202	-170.526	0.295	-0.010
-190.187	-200.000	0.042	0.267
-189.173	213.105	0.160	-0.252
-188.158	466.100	0.101	-0.224
-187.144	-200.000	-0.006	0.029
-186.129	408.380	-0.027	-0.056
-185.114	371.163	-0.105	-0.211
-184.100	121.839	0.164	-0.203
-183.085	424.036	-0.020	0.042
-182.071	-173.697	-0.260	0.008
-181.056	-148.217	0.197	-0.016
-180.042	108.702	0.104	-0.124
-179.027	-113.725	-0.247	0.048
-178.012	-134.014	-0.019	0.002
-176.998	-109.544	0.036	0.008
-175.983	-176.905	-0.213	-0.005
-174.969	-200.000	0.010	-0.110
-173.954	-200.000	0.010	-0.091
-172.939	131.818	0.132	0.169
-171.925	98.323	-0.030	0.035
-170.910	-136.882	-0.302	0.034
-169.896	349.944	-0.159	-0.313
-168.881	74.317	-0.144	-0.150
-167.866	800.000	0.041	-0.165
-166.852	3.484	0.100	-0.073
-165.837	35.981	0.109	-0.096
-164.823	122.126	-0.059	-0.073
-163.808	800.000	-0.121	-0.368
-162.793	230.930	-0.138	-0.225
-161.779	-153.084	0.317	-0.022
-160.764	-154.814	0.177	0.012
-159.750	296.037	0.110	0.201
-158.735	194.692	0.135	0.203
-157.720	480.845	-0.023	-0.052
-156.706	-88.331	0.061	0.018
-155.691	-200.000	-0.030	-0.146
-154.677	175.906	-0.110	-0.159
-153.662	-139.737	0.357	-0.038
-152.647	-200.000	0.014	0.293
-151.633	515.786	0.077	0.179
-150.618	-74.863	0.063	-0.023
-149.604	-160.546	-0.347	0.018
-148.589	69.308	-0.129	-0.132
-147.574	-158.920	0.128	0.007
-146.560	-200.000	-0.060	-0.337
-145.545	117.112	0.026	0.031
-144.531	-200.000	0.016	0.257
-143.516	-39.978	0.122	-0.063
-142.502	-200.000	0.044	-0.196
-141.487	-114.407	-0.299	0.057
-140.472	-110.339	0.149	0.031
-139.458	42.896	-0.046	0.042
-138.443	358.870	-0.033	0.066
-137.429	-141.528	0.488	0.049
-136.414	-200.000	-0.008	0.057
-135.399	-200.000	0.019	-0.380
-134.385	-200.000	0.039	-0.235
-133.370	592.697	0.233	0.573
-132.356	333.219	0.084	0.161
-131.341	-200.000	-0.001	-0.135
-130.326	-200.000	0.000	0.154
-129.312	-97.037	0.307	0.080
-128.297	-48.277	-0.277	-0.133
-127.283	-47.058	-0.227	-0.110
-126.268	-92.157	0.263	-0.074
-125.253	-200.000	0.022	0.251
-124.239	104.059	0.150	-0.175
-123.224	-90.320	-0.145	-0.042
-122.210	-200.000	0.155	-0.000
-121.195	800.000	-0.035	0.149
