DTS Sentinel unit serial number:	SN413079Multiplexer serial number:	ORYXHardware model number:	OX4-SRSoftware version number:	ORYX F/W v4.00 Oryx Data Collector v3.7.2.0data status	okinstallation	princeton_trtdifferential loss correction	single-endedforward channel	channel 3reverse channel	N/Adate	2019/09/11time	18:54:10forward acquisition time	60.00reverse acquisition time	0.00gamma	496.2192k internal	0.2290k external	0.2290temperature offset calibration	1.0009default loss term (dB/km)	0.3790temperature slope calibration	1.0000multiplexer offset coefficient	1.0000multiplexer slope coefficient	1.0000fibre end	0.00T internal ref (°C)	42.67T ext. ref 1 (°C)	1.25T ext. ref 2 (°C)	34.94length (m)	temperature (°C)	Stokes	anti-Stokes-747.200	-200.000	0.006	-0.027
-746.185	-99.849	0.293	0.075
-745.171	-200.000	0.071	-0.438
-744.156	108.273	0.265	0.324
-743.142	397.932	0.081	-0.174
-742.127	-200.000	-0.038	0.293
-741.112	-81.850	0.290	-0.097
-740.098	-69.104	-0.237	-0.094
-739.083	-200.000	0.004	0.117
-738.069	141.137	0.022	0.029
-737.054	800.000	-0.086	-0.363
-736.039	209.996	-0.248	-0.399
-735.025	-108.043	0.088	0.019
-734.010	-29.581	-0.125	-0.073
-732.996	-126.902	-0.216	0.033
-731.981	670.186	-0.129	-0.342
-730.966	-200.000	-0.042	-0.331
-729.952	338.548	0.060	0.119
-728.937	63.137	0.175	0.179
-727.923	224.840	-0.073	0.121
-726.908	-159.491	-0.244	-0.014
-725.894	50.308	-0.111	-0.107
-724.879	-123.633	-0.181	-0.029
-723.864	168.942	-0.163	-0.238
-722.850	800.000	-0.053	-0.225
-721.835	200.713	-0.141	-0.222
-720.821	8.056	0.178	0.136
-719.806	525.321	-0.103	-0.248
-718.791	-200.000	0.019	-0.282
-717.777	800.000	-0.040	-0.148
-716.762	720.196	0.054	-0.146
-715.748	-12.510	0.033	0.022
-714.733	123.993	0.171	-0.220
-713.718	-82.906	0.092	-0.030
-712.704	-163.907	0.060	0.003
-711.689	754.477	-0.052	-0.145
-710.675	10.361	-0.331	-0.258
-709.660	508.698	0.004	-0.009
-708.645	3.359	-0.215	-0.160
-707.631	-200.000	0.039	0.331
-706.616	-200.000	-0.037	-0.237
-705.602	-41.927	-0.250	0.131
-704.587	-191.514	-0.269	-0.003
-703.572	339.560	-0.106	0.211
-702.558	800.000	-0.127	0.382
-701.543	-50.185	0.199	-0.096
-700.529	-200.000	-0.009	0.237
-699.514	-200.000	-0.064	0.305
-698.499	800.000	-0.064	-0.218
-697.485	-85.272	0.109	-0.035
-696.470	-200.000	-0.036	-0.195
-695.456	-200.000	-0.054	-0.255
-694.441	-200.000	-0.015	0.302
-693.426	-48.544	0.358	-0.176
-692.412	-200.000	0.037	0.299
-691.397	-111.468	-0.324	0.067
-690.383	-123.110	-0.433	0.071
-689.368	31.566	0.172	0.151
-688.354	48.471	0.205	0.196
-687.339	-92.375	-0.092	-0.027
-686.324	246.950	0.057	-0.098
-685.310	800.000	-0.033	-0.142
-684.295	399.407	0.135	0.288
-683.281	-80.317	0.296	-0.101
-682.266	-40.828	0.091	0.048
-681.251	197.927	-0.031	0.048
-680.237	800.000	0.094	-0.298
-679.222	356.590	-0.027	0.055
-678.208	-164.049	0.214	0.010
-677.193	-114.331	0.251	0.049
-676.178	-24.709	-0.160	-0.097
-675.164	-24.554	0.165	0.100
-674.149	-95.829	0.204	0.056
-673.135	275.768	0.079	-0.143
-672.120	568.435	0.058	0.145
-671.105	37.056	0.170	0.154
-670.091	34.203	0.094	-0.084
-669.076	-142.665	-0.188	0.019
-668.062	162.383	0.057	0.081
-667.047	800.000	-0.078	-0.343
-666.032	212.838	-0.039	0.062
-665.018	42.965	-0.040	-0.037
-664.003	261.390	-0.138	0.244
-662.989	-19.404	0.112	0.071
-661.974	22.683	-0.056	0.047
-660.959	30.810	-0.054	0.047
-659.945	-16.950	-0.174	-0.112
-658.930	145.940	0.036	0.050
-657.916	55.667	-0.083	-0.082
-656.901	-74.635	-0.054	0.020
-655.886	-89.461	-0.186	0.056
-654.872	-156.426	-0.068	-0.004
-653.857	-200.000	-0.059	-0.293
-652.843	358.521	0.104	0.213
-651.828	-121.036	-0.225	-0.039
-650.814	-130.121	0.541	0.075
-649.799	-126.551	-0.122	-0.018
-648.784	-158.260	-0.119	0.007
-647.770	197.786	-0.137	-0.214
-646.755	58.406	-0.174	0.175
-645.741	101.975	0.279	-0.332
-644.726	-146.823	0.135	0.012
-643.711	66.468	-0.099	-0.103
-642.697	16.503	0.247	0.199
-641.682	95.602	-0.218	-0.254
-640.668	800.000	-0.100	0.292
-639.653	-38.948	0.107	0.057
-638.638	231.554	0.107	0.179
-637.624	-119.348	-0.347	-0.061
-636.609	-110.642	-0.143	0.030
-635.595	-183.023	0.348	-0.006
-634.580	-109.066	-0.277	0.060
-633.565	61.782	0.127	-0.129
-632.551	441.568	0.033	-0.074
-631.536	800.000	0.026	0.102
-630.522	800.000	-0.065	0.205
-629.507	-49.798	-0.287	0.139
-628.492	66.565	0.328	0.340
-627.478	6.827	-0.005	-0.004
-626.463	27.496	-0.214	-0.183
-625.449	-200.000	0.007	0.367
-624.434	89.265	0.158	0.179
-623.419	-154.147	-0.235	0.016
-622.405	-200.000	-0.029	-0.167
-621.390	-200.000	-0.074	-0.601
-620.376	-163.430	0.058	0.003
-619.361	-110.049	-0.286	-0.061
-618.346	741.005	0.167	0.457
-617.332	-200.000	0.015	-0.175
-616.317	-51.994	0.308	0.146
-615.303	-149.395	0.244	0.020
-614.288	11.012	0.049	0.038
-613.273	-44.499	-0.258	0.132
-612.259	-200.000	0.026	-0.155
-611.244	22.749	0.057	0.048
-610.230	181.003	0.147	-0.220
-609.215	-200.000	-0.088	-0.541
-608.201	163.208	0.190	-0.272
-607.186	-200.000	-0.005	0.167
-606.171	-156.436	-0.058	0.004
-605.157	-200.000	0.018	0.248
-604.142	-11.125	0.173	-0.116
-603.128	-80.037	-0.172	0.059
-602.113	-59.706	0.267	-0.117
-601.098	190.844	0.041	-0.063
-600.084	51.033	-0.082	0.079
-599.069	800.000	-0.043	0.175
-598.055	103.903	0.110	0.131
-597.040	-200.000	-0.011	0.189
-596.025	800.000	-0.030	0.097
-595.011	-118.764	0.158	-0.028
-593.996	-92.287	0.086	-0.025
-592.982	113.912	0.256	0.316
-591.967	-68.783	0.236	0.093
-590.952	-58.973	-0.313	-0.138
-589.938	351.189	-0.104	0.209
-588.923	-123.578	-0.044	-0.007
-587.909	-200.000	-0.003	-0.172
-586.894	-87.137	0.428	-0.133
-585.879	-200.000	-0.023	0.206
-584.865	-200.000	0.005	-0.102
-583.850	146.903	-0.072	0.099
-582.836	-83.399	0.092	0.030
-581.821	34.609	0.220	0.196
-580.806	272.898	-0.076	-0.137
-579.792	-126.556	0.447	0.068
-578.777	172.064	-0.157	0.230
-577.763	-86.516	0.293	-0.092
-576.748	-200.000	-0.059	-0.276
-575.733	-51.636	-0.290	-0.138
-574.719	-34.240	-0.185	-0.103
-573.704	-3.036	-0.149	-0.106
-572.690	-160.904	-0.038	-0.002
-571.675	-128.003	-0.296	0.043
-570.661	-76.780	-0.167	0.060
-569.646	800.000	0.055	-0.158
-568.631	-200.000	0.008	0.239
-567.617	800.000	-0.011	-0.035
-566.602	49.051	0.226	0.216
-565.588	476.345	0.130	-0.298
-564.573	-36.086	0.163	0.089
-563.558	-82.635	-0.105	-0.035
-562.544	-200.000	0.026	0.178
-561.529	-200.000	0.018	-0.112
-560.515	711.506	0.069	0.186
-559.500	-117.322	0.198	-0.037
-558.485	-63.933	-0.247	0.103
-557.471	-59.750	0.146	0.063
-556.456	-163.518	0.162	-0.008
-555.442	209.822	0.068	0.108
-554.427	-121.469	0.266	0.045
-553.412	377.028	0.035	0.073
-552.398	-91.708	0.504	0.146
-551.383	17.107	-0.060	-0.048
-550.369	295.737	0.138	0.256
-549.354	-163.665	-0.145	0.007
-548.339	-200.000	0.015	0.096
-547.325	-86.277	-0.316	0.099
-546.310	151.688	-0.136	0.188
-545.296	15.417	-0.060	0.048
-544.281	800.000	-0.071	0.296
-543.266	-200.000	0.008	0.179
-542.252	694.221	-0.099	0.264
-541.237	501.332	0.090	0.210
-540.223	326.013	0.132	0.257
-539.208	28.663	-0.094	-0.081
-538.193	-39.488	0.216	0.115
-537.179	367.976	0.158	-0.324
-536.164	344.909	0.056	0.112
-535.150	-54.715	0.452	-0.207
-534.135	-39.059	0.303	0.162
-533.121	-79.454	0.045	0.015
-532.106	380.038	-0.182	-0.379
-531.091	-54.104	-0.593	-0.274
-530.077	719.417	0.122	-0.329
-529.062	-79.771	-0.234	0.080
-528.048	-52.856	-0.354	-0.166
-527.033	-141.847	-0.180	-0.018
-526.018	-77.886	0.109	0.038
-525.004	-96.110	-0.263	0.071
-523.989	5.088	-0.186	0.139
-522.975	240.881	0.106	-0.180
-521.960	-127.190	0.135	0.020
-520.945	116.449	-0.280	-0.349
-519.931	-32.799	0.155	-0.088
-518.916	-118.558	0.229	0.041
-517.902	-7.925	0.150	-0.103
-516.887	-200.000	-0.016	-0.124
-515.872	-7.282	0.193	0.133
-514.858	514.684	0.090	0.212
-513.843	-200.000	0.102	0.567
-512.829	86.435	-0.045	-0.051
-511.814	-200.000	0.074	-0.366
-510.799	-157.796	-0.247	-0.015
-509.785	-200.000	0.017	0.473
-508.770	-200.000	-0.026	0.320
-507.756	-155.117	0.013	-0.001
-506.741	-200.000	-0.025	-0.218
-505.726	28.504	-0.056	-0.048
-504.712	61.790	0.035	0.036
-503.697	-7.646	0.376	-0.258
-502.683	327.167	-0.085	0.166
-501.668	-57.834	-0.174	0.077
-500.653	84.383	0.128	0.142
-499.639	465.802	0.064	-0.146
-498.624	246.694	-0.151	-0.258
-497.610	-200.000	-0.057	-0.373
-496.595	-200.000	-0.055	0.337
-495.581	445.101	-0.130	-0.291
-494.566	627.180	0.112	-0.287
-493.551	-127.405	0.242	-0.036
-492.537	-115.691	-0.119	0.023
-491.522	-200.000	0.039	-0.227
-490.508	29.012	-0.202	-0.174
-489.493	-58.744	-0.287	-0.126
-488.478	-61.586	0.162	0.069
-487.464	-91.304	-0.359	-0.104
-486.449	-200.000	0.023	-0.213
-485.435	-200.000	0.035	0.197
-484.420	-71.017	0.116	0.044
-483.405	-96.817	0.332	-0.088
-482.391	-9.558	0.135	-0.091
-481.376	-151.523	0.149	-0.011
-480.362	-18.541	0.154	-0.098
-479.347	-75.517	-0.185	0.067
-478.332	-200.000	-0.005	-0.253
-477.318	1.768	0.096	0.070
-476.303	111.911	-0.244	-0.298
-475.289	454.126	-0.039	-0.088
-474.274	340.702	-0.141	-0.280
-473.259	-73.492	0.316	0.117
-472.245	-125.737	0.156	-0.024
-471.230	416.666	-0.118	-0.254
-470.216	-57.710	0.108	0.048
-469.201	344.908	-0.180	-0.358
-468.186	47.542	0.128	0.121
-467.172	-97.752	-0.063	-0.017
-466.157	67.707	0.333	0.345
-465.143	13.727	0.128	0.101
-464.128	-40.418	0.152	-0.080
-463.113	48.065	-0.203	0.192
-462.099	-166.776	-0.174	-0.007
-461.084	-84.736	-0.081	0.026
-460.070	-58.511	0.244	0.107
-459.055	-200.000	-0.016	-0.193
-458.040	16.123	-0.101	0.081
-457.026	-150.255	0.433	0.034
-456.011	-117.568	-0.215	0.039
-454.997	-149.859	-0.259	0.021
-453.982	-200.000	-0.001	0.066
-452.968	-94.056	0.132	0.037
-451.953	11.436	0.107	-0.083
-450.938	-136.223	-0.300	-0.036
-449.924	123.631	0.038	-0.049
-448.909	-162.304	0.060	0.003
-447.895	-83.310	-0.143	0.046
-446.880	43.291	-0.223	-0.206
-445.865	2.709	-0.270	-0.198
-444.851	-90.281	-0.179	0.053
-443.836	-24.670	-0.167	-0.100
-442.822	800.000	0.064	0.280
-441.807	-41.387	0.101	-0.053
-440.792	-68.519	-0.415	0.163
-439.778	-200.000	-0.022	-0.129
-438.763	-139.926	-0.334	-0.036
-437.749	-0.276	0.224	0.161
-436.734	-135.759	-0.378	0.045
-435.719	125.911	-0.220	0.282
-434.705	-44.711	0.160	-0.081
-433.690	8.705	-0.120	0.092
-432.676	-77.468	0.077	-0.027
-431.661	-200.000	0.029	0.211
-430.646	-200.000	0.005	-0.187
-429.632	98.676	-0.011	-0.013
-428.617	-148.056	0.121	0.010
-427.603	-63.977	0.117	-0.049
-426.588	-200.000	0.014	0.092
-425.573	800.000	-0.072	0.201
-424.559	-112.612	-0.150	-0.030
-423.544	325.318	0.085	-0.164
-422.530	41.132	-0.101	0.092
-421.515	-200.000	-0.048	0.227
-420.500	100.991	0.047	0.056
-419.486	800.000	0.003	0.010
-418.471	-72.642	-0.366	-0.137
-417.457	-200.000	0.007	0.273
-416.442	-157.050	0.321	-0.020
-415.428	277.223	0.042	-0.075
-414.413	198.282	0.094	-0.145
-413.398	-200.000	-0.002	-0.334
-412.384	-38.881	-0.210	-0.112
-411.369	800.000	-0.092	-0.375
-410.355	64.378	0.310	-0.316
-409.340	800.000	-0.104	-0.296
-408.325	-200.000	-0.066	0.379
-407.311	-117.426	-0.090	0.016
-406.296	161.733	-0.050	0.070
-405.282	104.036	-0.103	-0.122
-404.267	-17.295	0.265	0.169
-403.252	426.105	0.101	-0.220
-402.238	-64.210	0.293	-0.121
-401.223	-98.042	0.226	0.059
-400.209	-58.577	-0.142	0.062
-399.194	-144.964	-0.161	-0.015
-398.179	-94.822	0.018	-0.005
-397.165	-73.434	0.032	0.012
-396.150	-89.557	0.235	0.070
-395.136	-9.619	0.157	-0.106
-394.121	800.000	0.116	-0.375
-393.106	-50.706	-0.094	0.045
-392.092	-41.660	-0.159	-0.082
-391.077	800.000	0.047	-0.201
-390.063	18.262	0.270	0.218
-389.048	-200.000	-0.018	0.094
-388.033	-200.000	-0.114	-0.593
-387.019	-200.000	0.019	-0.186
-386.004	-58.514	0.214	-0.094
-384.990	-155.607	-0.018	0.001
-383.975	-24.038	-0.372	-0.225
-382.960	5.272	0.154	0.115
-381.946	16.544	0.061	0.049
-380.931	-108.597	0.180	-0.039
-379.917	-69.324	-0.121	0.047
-378.902	800.000	-0.037	-0.129
-377.888	-149.053	-0.213	0.017
-376.873	800.000	0.026	-0.096
-375.858	7.447	0.110	-0.083
-374.844	140.622	0.189	-0.253
-373.829	-29.006	0.111	0.065
-372.815	26.896	0.243	-0.206
-371.800	-123.887	0.173	-0.028
-370.785	-35.242	-0.064	-0.035
-369.771	800.000	-0.064	0.234
-368.756	597.954	0.026	-0.066
-367.742	-200.000	0.015	-0.149
-366.727	-106.777	-0.091	-0.020
-365.712	-200.000	0.026	0.148
-364.698	-200.000	-0.067	0.000
-363.683	-185.148	-0.515	-0.008
-362.669	-68.255	0.202	0.079
-361.654	-200.000	0.026	-0.190
-360.639	43.318	0.063	-0.058
-359.625	-200.000	-0.036	0.315
-358.610	800.000	-0.020	-0.084
-357.596	-61.400	-0.223	0.095
-356.581	-200.000	-0.006	0.103
-355.566	800.000	0.051	-0.194
-354.552	-67.681	-0.045	-0.018
-353.537	222.047	-0.153	-0.248
-352.523	85.045	-0.140	0.155
-351.508	-5.280	0.131	0.091
-350.493	-136.704	-0.389	-0.045
-349.479	-194.288	-0.478	0.004
-348.464	-103.846	0.172	0.040
-347.450	-135.448	-0.060	0.007
-346.435	-200.000	-0.190	-0.000
-345.420	-110.899	0.276	-0.057
-344.406	-43.312	-0.088	0.045
-343.391	-200.000	0.001	-0.031
-342.377	-114.445	-0.214	-0.042
-341.362	398.569	-0.087	0.183
-340.348	121.569	-0.099	0.125
-339.333	28.509	0.041	-0.035
-338.318	95.385	-0.165	-0.190
-337.304	-23.048	-0.180	-0.109
-336.289	-102.584	-0.222	-0.053
-335.275	-2.600	0.087	0.061
-334.260	-93.416	0.283	-0.079
-333.245	-200.000	0.003	-0.081
-332.231	-200.000	0.019	0.353
-331.216	-200.000	0.017	-0.282
-330.202	-17.049	0.285	0.181
-329.187	-192.371	-0.339	-0.003
-328.172	800.000	-0.095	0.306
-327.158	736.819	-0.072	-0.194
-326.143	563.563	0.066	-0.161
-325.129	80.937	-0.094	0.103
-324.114	54.393	0.178	0.173
-323.099	113.003	0.201	0.246
-322.085	56.245	0.136	0.133
-321.070	458.684	0.061	-0.137
-320.056	8.689	0.308	0.234
-319.041	-200.000	0.009	0.282
-318.026	121.713	-0.090	0.113
-317.012	-106.335	0.280	0.063
-315.997	-120.868	-0.233	-0.039
-314.983	107.851	-0.128	-0.154
-313.968	99.665	0.162	-0.188
-312.953	-200.000	0.092	0.492
-311.939	-91.838	0.035	0.010
-310.924	-200.000	0.062	0.415
-309.910	379.487	0.066	0.137
-308.895	-21.233	0.272	-0.167
-307.880	223.189	0.081	0.132
-306.866	-78.563	0.097	0.033
-305.851	202.725	-0.103	0.160
-304.837	-2.297	0.288	0.204
-303.822	-200.000	-0.000	-0.003
-302.807	-26.930	0.191	0.112
-301.793	449.995	0.138	0.307
-300.778	-200.000	0.001	0.022
-299.764	92.284	-0.185	-0.210
-298.749	-43.980	0.113	-0.057
-297.735	800.000	0.050	0.181
-296.720	-71.309	-0.058	0.022
-295.705	22.702	0.342	-0.282
-294.691	-200.000	0.004	-0.032
-293.676	-172.086	0.315	-0.010
-292.662	-85.881	-0.182	-0.057
-291.647	12.931	0.098	0.076
-290.632	-123.829	0.201	0.032
-289.618	13.371	0.139	0.109
-288.603	61.751	0.320	0.321
-287.589	334.561	0.183	0.358
-286.574	-70.369	-0.246	-0.094
-285.559	366.830	0.071	-0.145
-284.545	800.000	0.026	0.078
-283.530	111.716	-0.137	-0.167
-282.516	800.000	0.090	-0.284
-281.501	138.344	-0.233	0.308
-280.486	55.234	0.237	0.231
-279.472	367.142	0.056	-0.114
-278.457	-188.133	-0.085	0.001
-277.443	57.108	0.189	0.186
-276.428	-58.340	-0.094	-0.041
-275.413	19.398	-0.350	-0.283
-274.399	95.420	-0.083	-0.095
-273.384	-166.507	-0.285	0.012
-272.370	-53.093	0.213	-0.098
-271.355	-55.981	-0.119	0.054
-270.340	118.058	0.139	-0.172
-269.326	70.824	-0.114	-0.118
-268.311	-117.954	0.146	-0.026
-267.297	23.006	0.299	-0.246
-266.282	-64.834	-0.113	0.046
-265.267	-145.022	-0.173	-0.016
-264.253	-60.773	-0.210	-0.090
-263.238	132.696	-0.119	0.155
-262.224	-200.000	-0.048	0.306
-261.209	-64.261	0.073	-0.030
-260.195	312.726	-0.102	0.193
-259.180	-1.986	-0.110	0.077
-258.165	-114.156	-0.093	0.018
-257.151	-200.000	0.000	0.056
-256.136	-45.651	-0.273	-0.136
-255.122	-200.000	0.022	0.158
-254.107	11.471	0.182	-0.140
-253.092	-153.509	-0.305	-0.021
-252.078	399.484	0.181	-0.380
-251.063	-38.429	-0.200	0.106
-250.049	-88.666	-0.024	-0.007
-249.034	279.446	-0.044	0.079
-248.019	-97.832	-0.345	-0.090
-247.005	800.000	0.035	-0.121
-245.990	-1.733	0.340	-0.241
-244.976	-46.054	0.268	-0.132
-243.961	94.343	-0.121	-0.138
-242.946	51.276	0.137	-0.131
-241.932	134.152	0.018	0.024
-240.917	-200.000	0.009	0.156
-239.903	-100.206	-0.376	-0.094
-238.888	-153.953	-0.048	-0.003
-237.873	-36.152	0.257	0.140
-236.859	630.436	0.080	0.204
-235.844	213.702	-0.123	-0.196
-234.830	-86.967	-0.175	0.054
-233.815	174.485	-0.063	0.091
-232.800	-137.594	-0.211	0.024
-231.786	10.019	0.079	0.060
-230.771	-200.000	-0.055	-0.385
-229.757	168.969	0.186	0.266
-228.742	-89.980	-0.318	0.093
-227.727	-132.672	0.037	-0.005
-226.713	147.136	0.055	0.075
-225.698	-68.229	-0.261	0.102
-224.684	-200.000	0.016	0.154
-223.669	75.784	-0.237	-0.251
-222.655	-82.001	-0.139	0.046
-221.640	268.481	-0.073	-0.129
-220.625	-70.161	-0.318	0.121
-219.611	800.000	0.017	-0.061
-218.596	-102.777	0.130	0.031
-217.582	-5.220	-0.131	0.090
-216.567	-98.489	-0.307	0.079
-215.552	-200.000	-0.061	0.538
-214.538	800.000	0.062	0.245
-213.523	-155.574	0.272	-0.018
-212.509	-97.392	0.406	0.106
-211.494	800.000	-0.072	0.312
-210.479	-154.234	-0.110	-0.007
-209.465	48.144	-0.206	-0.193
-208.450	-179.951	-0.327	-0.007
-207.436	-35.858	-0.140	0.076
-206.421	323.302	0.076	0.145
-205.406	87.064	0.155	0.172
-204.392	-113.726	0.378	-0.074
-203.377	-200.000	-0.141	0.000
-202.363	-200.000	-0.011	0.052
-201.348	42.055	0.239	0.218
-200.333	94.646	0.187	0.213
-199.319	152.940	-0.180	0.246
-198.304	-118.761	-0.185	0.033
-197.290	137.592	-0.140	-0.184
-196.275	-129.680	-0.048	-0.007
-195.260	10.681	-0.175	-0.134
-194.246	156.140	0.079	-0.110
-193.231	-94.771	-0.188	-0.051
-192.217	105.907	-0.157	-0.187
-191.202	19.773	0.186	0.150
-190.187	-11.051	-0.286	0.189
-189.173	-200.000	-0.001	-0.068
-188.158	-200.000	-0.005	-0.031
-187.144	36.422	0.178	0.157
-186.129	413.942	-0.065	0.139
-185.114	-141.750	0.165	-0.017
-184.100	99.828	0.303	0.352
-183.085	800.000	0.034	0.099
-182.071	-3.355	0.085	-0.060
-181.056	-57.004	-0.323	-0.143
-180.042	-49.226	0.118	-0.057
-179.027	-200.000	-0.002	0.075
-178.012	-200.000	0.023	-0.403
-176.998	96.036	-0.195	0.224
-175.983	-52.863	-0.108	-0.050
-174.969	-154.193	0.183	-0.012
-173.954	-200.000	0.053	-0.324
-172.939	-147.759	0.199	0.017
-171.925	21.500	-0.033	0.027
-170.910	800.000	-0.038	0.163
-169.896	800.000	-0.011	-0.046
-168.881	-47.256	-0.007	0.003
-167.866	265.204	0.194	-0.338
-166.852	-200.000	-0.014	-0.290
-165.837	17.822	-0.247	-0.197
-164.823	-11.079	0.149	-0.098
-163.808	-200.000	0.035	-0.183
-162.793	-200.000	-0.028	-0.239
-161.779	55.183	-0.078	0.075
-160.764	800.000	0.074	-0.215
-159.750	-54.650	-0.397	-0.180
-158.735	-64.664	0.152	0.062
-157.720	-15.068	0.180	0.115
-156.706	-145.125	0.405	-0.037
-155.691	-139.068	-0.245	-0.027
-154.677	-126.205	0.120	-0.018
-153.662	-200.000	0.039	-0.298
-152.647	-74.998	-0.091	-0.033
-151.633	60.611	0.061	0.060
-150.618	-178.061	0.316	-0.008
-149.604	105.100	0.059	0.069
-148.589	-200.000	0.033	0.217
-147.574	129.442	-0.024	0.030
-146.560	-200.000	0.012	-0.263
-145.545	-132.140	-0.212	0.028
-144.531	-168.490	0.152	0.006
-143.516	4.994	0.110	0.081
-142.502	800.000	0.089	0.339
-141.487	565.264	0.070	0.171
-140.472	14.024	-0.597	-0.465
-139.458	-151.605	-0.173	-0.013
-138.443	-100.026	-0.276	-0.069
-137.429	-108.138	-0.127	-0.027
-136.414	-22.650	0.157	0.095
-135.399	40.442	0.041	0.037
-134.385	-200.000	0.000	-0.226
-133.370	131.981	-0.108	-0.139
-132.356	-98.683	-0.409	0.104
-131.341	119.745	0.104	0.129
-130.326	38.452	0.200	-0.178
-129.312	-57.931	0.316	0.138
-128.297	-200.000	0.012	0.134
-127.283	197.477	0.058	0.089
-126.268	218.838	0.095	0.151
-125.253	-186.429	0.133	0.002
-124.239	-200.000	0.019	-0.256
-123.224	-52.819	0.216	0.100
-122.210	800.000	-0.061	0.213
-121.195	-117.492	-0.374	-0.067
