DTS Sentinel unit serial number:	SN413079Multiplexer serial number:	ORYXHardware model number:	OX4-SRSoftware version number:	ORYX F/W v4.00 Oryx Data Collector v3.7.2.0data status	okinstallation	princeton_trtdifferential loss correction	single-endedforward channel	channel 3reverse channel	N/Adate	2019/09/16time	07:48:35forward acquisition time	60.00reverse acquisition time	0.00gamma	496.2192k internal	0.2330k external	0.2330temperature offset calibration	0.9954default loss term (dB/km)	0.3790temperature slope calibration	1.0000multiplexer offset coefficient	1.0000multiplexer slope coefficient	1.0000fibre end	0.00T internal ref (°C)	28.12T ext. ref 1 (°C)	11.72T ext. ref 2 (°C)	24.70length (m)	temperature (°C)	Stokes	anti-Stokes-747.200	-200.000	-0.031	0.264
-746.185	-84.593	-0.159	0.050
-745.171	436.039	-0.060	0.132
-744.156	800.000	-0.042	0.182
-743.142	0.608	0.163	0.117
-742.127	800.000	-0.048	0.145
-741.112	-82.613	-0.179	-0.058
-740.098	-200.000	0.042	-0.301
-739.083	-98.899	-0.332	-0.085
-738.069	388.457	-0.168	0.350
-737.054	127.603	-0.105	0.135
-736.039	-7.773	-0.318	0.216
-735.025	423.325	-0.110	0.238
-734.010	800.000	0.032	0.124
-732.996	-126.937	-0.298	-0.044
-731.981	-161.077	-0.263	-0.014
-730.966	201.974	-0.091	-0.141
-729.952	-117.018	-0.351	0.064
-728.937	-90.809	0.132	-0.038
-727.923	-112.317	-0.248	-0.050
-726.908	-200.000	-0.015	-0.142
-725.894	800.000	0.023	0.068
-724.879	99.790	0.154	-0.180
-723.864	-200.000	-0.011	-0.374
-722.850	-8.307	-0.204	-0.138
-721.835	-9.132	0.180	0.121
-720.821	-74.572	0.081	-0.029
-719.806	-122.464	-0.203	0.033
-718.791	-200.000	-0.030	-0.215
-717.777	-200.000	0.038	-0.420
-716.762	-200.000	0.046	-0.254
-715.748	-132.630	0.372	0.048
-714.733	48.399	0.056	-0.053
-713.718	755.346	-0.163	0.443
-712.704	-92.414	0.427	0.121
-711.689	203.518	-0.099	0.154
-710.675	317.372	-0.196	-0.373
-709.660	-11.211	0.041	-0.027
-708.645	-185.320	0.251	0.004
-707.631	27.457	-0.203	0.172
-706.616	-53.050	-0.192	0.089
-705.602	-30.844	0.055	0.031
-704.587	-94.868	0.239	-0.065
-703.572	-72.433	-0.122	-0.045
-702.558	-82.626	-0.602	0.196
-701.543	789.078	0.072	-0.198
-700.529	-23.663	-0.188	0.113
-699.514	229.842	-0.121	-0.198
-698.499	-200.000	0.026	0.470
-697.485	78.173	-0.289	0.309
-696.470	-7.239	-0.082	0.056
-695.456	-43.471	0.183	-0.093
-694.441	83.894	-0.149	0.163
-693.426	-88.427	0.145	-0.044
-692.412	-200.000	-0.019	0.543
-691.397	800.000	-0.033	0.091
-690.383	-165.625	-0.336	-0.015
-689.368	-85.316	-0.445	0.140
-688.354	800.000	0.013	-0.041
-687.339	53.145	-0.043	-0.041
-686.324	-200.000	0.001	-0.029
-685.310	-5.495	0.169	-0.117
-684.295	197.531	-0.197	-0.302
-683.281	188.330	-0.154	-0.231
-682.266	-200.000	0.020	-0.104
-681.251	671.995	0.111	-0.290
-680.237	427.377	0.045	-0.098
-679.222	171.921	-0.227	-0.328
-678.208	-139.679	0.186	0.020
-677.193	-142.711	-0.146	0.014
-676.178	-31.364	-0.277	-0.157
-675.164	-76.267	-0.270	0.095
-674.149	-174.568	0.087	-0.002
-673.135	800.000	-0.040	-0.137
-672.120	-98.471	0.032	0.008
-671.105	102.863	-0.057	-0.067
-670.091	800.000	-0.019	-0.078
-669.076	-16.436	0.106	0.067
-668.062	69.879	-0.213	-0.221
-667.047	-143.662	-0.441	-0.042
-666.032	26.384	-0.098	0.082
-665.018	800.000	-0.048	-0.166
-664.003	-200.000	-0.057	-0.303
-662.989	-200.000	0.031	0.142
-661.974	800.000	-0.069	-0.207
-660.959	-200.000	-0.027	-0.201
-659.945	183.629	0.191	-0.284
-658.930	163.313	-0.242	-0.341
-657.916	351.270	0.016	0.032
-656.901	-200.000	0.034	-0.242
-655.886	7.874	-0.155	0.117
-654.872	-104.516	0.146	-0.034
-653.857	324.506	0.134	-0.258
-652.843	-30.909	0.251	0.142
-651.828	-126.993	-0.188	-0.028
-650.814	-53.572	0.134	-0.061
-649.799	-200.000	0.032	-0.344
-648.784	-55.988	-0.164	-0.073
-647.770	800.000	0.052	0.156
-646.755	563.781	-0.051	-0.124
-645.741	-85.344	0.512	-0.160
-644.726	-76.907	-0.043	0.015
-643.711	-200.000	0.059	0.331
-642.697	800.000	-0.049	0.165
-641.682	236.521	-0.183	0.303
-640.668	800.000	0.048	0.149
-639.653	-88.750	-0.038	0.011
-638.638	-200.000	0.073	-0.483
-637.624	-7.972	0.113	0.077
-636.609	786.775	0.069	0.189
-635.595	-99.342	-0.205	0.052
-634.580	108.687	0.115	-0.138
-633.565	107.140	-0.187	-0.222
-632.551	14.212	0.197	-0.154
-631.536	-97.000	0.124	0.033
-630.522	-114.294	-0.472	-0.091
-629.507	800.000	-0.101	-0.318
-628.492	-113.789	0.243	0.047
-627.478	15.349	-0.348	0.274
-626.463	279.377	-0.149	-0.266
-625.449	455.637	-0.048	0.107
-624.434	800.000	0.037	-0.133
-623.419	-200.000	-0.004	-0.307
-622.405	-200.000	-0.000	0.089
-621.390	-109.799	-0.274	0.058
-620.376	-88.692	0.119	-0.035
-619.361	88.743	-0.344	0.384
-618.346	-59.164	-0.121	0.052
-617.332	-200.000	0.009	-0.219
-616.317	800.000	0.025	-0.106
-615.303	800.000	-0.053	-0.211
-614.288	208.342	0.021	0.033
-613.273	-116.673	0.321	-0.059
-612.259	-195.945	-0.282	0.002
-611.244	78.425	0.159	-0.170
-610.230	-6.680	-0.173	-0.118
-609.215	-200.000	0.010	0.317
-608.201	646.477	-0.055	0.141
-607.186	-97.768	0.155	0.040
-606.171	-200.000	-0.025	-0.167
-605.157	492.554	-0.065	0.149
-604.142	-182.225	-0.194	-0.004
-603.128	-146.345	-0.280	0.024
-602.113	41.914	0.071	0.064
-601.098	800.000	-0.026	-0.099
-600.084	-73.953	-0.224	-0.081
-599.069	-112.213	-0.474	0.095
-598.055	-200.000	0.041	0.225
-597.040	0.375	0.165	0.118
-596.025	98.615	-0.133	-0.154
-595.011	-138.611	-0.156	0.017
-593.996	199.130	0.220	-0.337
-592.982	-200.000	-0.072	0.330
-591.967	-200.000	0.049	-0.259
-590.952	-41.167	0.292	-0.151
-589.938	4.611	0.049	-0.036
-588.923	-200.000	-0.065	-0.524
-587.909	-93.782	0.168	-0.046
-586.894	134.829	0.039	0.050
-585.879	-79.884	-0.472	0.159
-584.865	-1.015	-0.116	-0.082
-583.850	-200.000	-0.001	0.031
-582.836	-86.690	-0.078	0.024
-581.821	-37.668	-0.069	0.037
-580.806	-200.000	0.015	-0.130
-579.792	90.932	-0.123	0.138
-578.777	382.826	-0.148	0.304
-577.763	51.693	0.036	0.035
-576.748	-109.102	-0.194	-0.041
-575.733	800.000	0.065	0.189
-574.719	9.809	-0.091	0.069
-573.704	-69.580	-0.335	-0.128
-572.690	-134.777	-0.260	0.032
-571.675	70.227	-0.117	0.121
-570.661	-140.900	0.258	0.027
-569.646	800.000	-0.031	0.104
-568.631	-95.329	0.210	-0.056
-567.617	-54.490	-0.322	-0.146
-566.602	-72.892	-0.120	0.044
-565.588	-95.759	-0.164	-0.044
-564.573	-200.000	0.024	-0.198
-563.558	616.964	-0.072	-0.182
-562.544	58.983	0.089	-0.087
-561.529	800.000	0.043	0.177
-560.515	-200.000	0.013	-0.276
-559.500	-142.531	0.188	-0.018
-558.485	226.791	0.116	0.187
-557.471	800.000	0.029	0.084
-556.456	-77.549	-0.265	-0.092
-555.442	800.000	-0.059	0.168
-554.427	-34.147	0.098	-0.054
-553.412	145.695	-0.054	-0.072
-552.398	-19.970	0.250	-0.154
-551.383	332.622	-0.122	-0.235
-550.369	-34.905	-0.211	0.115
-549.354	271.916	0.189	-0.333
-548.339	-125.908	-0.246	0.037
-547.325	800.000	0.107	0.320
-546.310	197.997	0.110	-0.168
-545.296	76.440	-0.116	-0.123
-544.281	-98.884	0.407	0.103
-543.266	117.412	-0.108	0.133
-542.252	-20.510	-0.173	-0.106
-541.237	133.824	0.127	0.164
-540.223	-200.000	0.062	0.339
-539.208	476.109	0.050	0.113
-538.193	-200.000	0.019	-0.217
-537.179	31.690	-0.113	0.097
-536.164	-200.000	-0.040	-0.502
-535.150	800.000	-0.051	0.161
-534.135	-107.811	0.144	-0.031
-533.121	-125.154	-0.310	-0.047
-532.106	-125.188	0.336	0.051
-531.091	583.699	0.029	-0.072
-530.077	106.623	0.288	0.341
-529.062	369.753	-0.119	0.240
-528.048	130.299	0.024	-0.031
-527.033	-173.202	0.279	-0.009
-526.018	-43.733	0.373	-0.187
-525.004	287.278	-0.038	-0.068
-523.989	-70.966	-0.232	-0.087
-522.975	529.793	-0.032	-0.076
-521.960	6.764	0.035	0.026
-520.945	-200.000	-0.022	-0.207
-519.931	79.478	0.061	-0.065
-518.916	24.510	0.160	-0.132
-517.902	26.510	-0.078	0.065
-516.887	-134.057	-0.356	0.044
-515.872	89.115	0.064	-0.071
-514.858	372.123	0.037	-0.076
-513.843	101.810	-0.200	-0.232
-512.829	800.000	-0.022	0.074
-511.814	345.663	0.047	0.092
-510.799	27.827	-0.096	0.081
-509.785	-101.953	0.409	-0.098
-508.770	-68.391	-0.154	-0.060
-507.756	800.000	0.033	-0.127
-506.741	-145.113	-0.109	-0.010
-505.726	134.455	0.079	0.103
-504.712	-85.193	0.131	0.041
-503.697	-89.020	-0.097	0.029
-502.683	-200.000	-0.015	-0.130
-501.668	694.970	0.092	0.242
-500.653	460.095	-0.046	-0.102
-499.639	-200.000	-0.006	-0.053
-498.624	333.455	0.123	-0.236
-497.610	-200.000	-0.053	-0.393
-496.595	19.441	0.125	-0.100
-495.581	-149.935	-0.128	0.010
-494.566	-99.656	0.407	0.102
-493.551	1.637	-0.311	-0.223
-492.537	570.871	0.070	-0.169
-491.522	175.219	-0.058	-0.084
-490.508	572.508	0.047	0.115
-489.493	13.089	-0.193	0.149
-488.478	-65.583	0.176	-0.070
-487.464	147.623	-0.114	0.153
-486.449	-21.296	-0.327	0.199
-485.435	-196.577	0.173	-0.001
-484.420	-200.000	0.073	0.364
-483.405	-200.000	-0.007	0.243
-482.391	-51.673	0.311	-0.145
-481.376	800.000	-0.005	-0.013
-480.362	128.646	-0.145	0.184
-479.347	-3.613	0.120	0.083
-478.332	-86.595	-0.113	-0.035
-477.318	800.000	0.109	-0.424
-476.303	148.644	0.184	-0.247
-475.289	-59.143	0.021	-0.009
-474.274	97.490	0.201	-0.231
-473.259	-198.627	-0.233	-0.001
-472.245	-14.298	-0.113	0.072
-471.230	9.515	0.144	-0.108
-470.216	-200.000	0.050	-0.265
-469.201	31.102	0.122	-0.104
-468.186	-66.739	0.059	-0.023
-467.172	800.000	-0.090	0.319
-466.157	24.820	0.274	0.226
-465.143	-114.747	0.197	0.038
-464.128	-200.000	0.012	-0.175
-463.113	-25.340	-0.107	0.063
-462.099	-71.678	-0.142	0.053
-461.084	-200.000	0.008	0.358
-460.070	-40.090	-0.206	0.107
-459.055	95.886	0.074	-0.084
-458.040	467.272	-0.092	-0.205
-457.026	-200.000	-0.103	0.477
-456.011	239.189	0.151	0.250
-454.997	17.916	-0.095	0.076
-453.982	-44.213	-0.055	0.027
-452.968	-37.952	-0.127	0.067
-451.953	7.658	0.151	0.113
-450.938	800.000	0.099	0.344
-449.924	569.785	0.124	0.301
-448.909	800.000	0.069	0.207
-447.895	-129.683	-0.192	-0.026
-446.880	-160.547	0.059	0.003
-445.865	-23.517	0.276	-0.165
-444.851	772.634	-0.117	-0.317
-443.836	-22.546	0.080	-0.048
-442.822	-78.762	-0.339	-0.115
-441.807	-50.152	-0.347	0.163
-440.792	-94.050	0.159	-0.043
-439.778	-96.873	-0.101	0.026
-438.763	218.617	-0.074	-0.118
-437.749	659.877	0.059	-0.152
-436.734	227.019	-0.126	0.204
-435.719	-54.072	-0.423	0.191
-434.705	146.390	-0.024	0.032
-433.690	164.511	0.124	-0.174
-432.676	300.421	0.043	-0.079
-431.661	4.303	-0.144	0.105
-430.646	-200.000	-0.076	-0.389
-429.632	-200.000	-0.059	-0.274
-428.617	-200.000	0.036	-0.191
-427.603	50.297	-0.179	0.168
-426.588	-87.968	0.439	0.131
-425.573	-71.401	-0.132	0.049
-424.559	800.000	0.115	-0.395
-423.544	-103.616	0.099	-0.023
-422.530	-70.905	0.304	0.114
-421.515	73.692	-0.181	-0.189
-420.500	800.000	0.073	-0.209
-419.486	-68.200	-0.024	0.009
-418.471	-52.593	-0.226	-0.104
-417.457	709.612	0.064	-0.168
-416.442	246.515	0.215	-0.360
-415.428	-6.975	-0.096	-0.065
-414.413	-140.754	-0.293	-0.030
-413.398	-73.781	-0.114	0.041
-412.384	-157.164	0.031	-0.002
-411.369	-75.989	-0.046	0.016
-410.355	523.109	-0.054	0.125
-409.340	800.000	-0.046	-0.195
-408.325	-135.773	0.239	0.028
-407.311	726.763	-0.052	-0.137
-406.296	-43.995	0.144	-0.072
-405.282	-36.717	0.096	-0.051
-404.267	-19.505	0.343	0.211
-403.252	522.218	0.102	0.238
-402.238	-107.634	-0.299	-0.065
-401.223	30.717	-0.144	0.122
-400.209	-200.000	0.014	0.211
-399.194	-130.145	0.177	0.024
-398.179	-200.000	0.001	-0.150
-397.165	368.002	-0.092	-0.185
-396.150	459.055	0.185	-0.408
-395.136	-200.000	0.035	-0.224
-394.121	-133.125	0.211	0.027
-393.106	-188.835	0.264	-0.003
-392.092	-200.000	0.043	0.460
-391.077	-200.000	0.026	0.149
-390.063	162.746	-0.202	0.281
-389.048	22.470	-0.129	-0.105
-388.033	-28.558	-0.200	-0.114
-387.019	-95.583	-0.400	-0.106
-386.004	39.906	-0.341	-0.304
-384.990	725.505	-0.108	0.286
-383.975	-138.242	-0.356	-0.039
-382.960	-83.406	0.166	0.053
-381.946	48.070	-0.132	-0.123
-380.931	-81.980	-0.250	-0.081
-379.917	-139.026	0.240	-0.026
-378.902	800.000	-0.083	0.318
-377.888	800.000	0.042	0.119
-376.873	-14.082	0.176	-0.113
-375.858	591.683	-0.030	0.073
-374.844	97.946	0.212	-0.243
-373.829	485.039	0.150	0.339
-372.815	20.063	0.305	0.244
-371.800	-200.000	-0.025	0.126
-370.785	122.230	-0.107	-0.132
-369.771	76.845	-0.115	0.121
-368.756	137.945	0.207	-0.269
-367.742	-42.394	0.166	-0.084
-366.727	187.529	-0.153	-0.227
-365.712	-38.735	0.094	-0.049
-364.698	-141.587	-0.330	0.033
-363.683	-194.949	0.276	0.002
-362.669	-200.000	0.016	-0.094
-361.654	-200.000	-0.019	-0.122
-360.639	724.388	-0.053	0.141
-359.625	84.817	-0.109	-0.119
-358.610	800.000	0.046	-0.191
-357.596	332.972	0.039	-0.074
-356.581	-111.214	-0.114	0.023
-355.566	-200.000	0.020	0.093
-354.552	-108.155	-0.190	0.041
-353.537	-133.355	0.528	-0.066
-352.523	-138.913	-0.213	0.023
-351.508	-73.661	0.133	0.048
-350.493	-0.130	0.228	-0.161
-349.479	100.941	-0.053	0.062
-348.464	-20.673	-0.093	0.057
-347.450	-141.080	-0.252	0.026
-346.435	20.261	-0.084	0.067
-345.420	-200.000	0.009	-0.041
-344.406	800.000	-0.029	0.093
-343.391	-200.000	-0.010	-0.047
-342.377	800.000	-0.072	0.267
-341.362	583.625	-0.076	0.185
-340.348	-58.044	0.230	0.099
-339.333	207.193	-0.057	0.088
-338.318	8.146	-0.312	0.232
-337.304	106.955	0.174	0.205
-336.289	800.000	0.026	0.103
-335.275	-31.516	-0.226	0.126
-334.260	365.264	0.111	0.221
-333.245	-200.000	0.039	-0.296
-332.231	0.770	0.016	0.011
-331.216	-194.012	0.293	0.002
-330.202	-33.165	0.049	-0.027
-329.187	-59.587	0.157	0.067
-328.172	301.802	0.030	-0.055
-327.158	190.093	-0.124	-0.184
-326.143	800.000	0.110	0.439
-325.129	-52.276	-0.539	-0.247
-324.114	-88.596	0.206	0.061
-323.099	51.945	-0.120	0.113
-322.085	75.313	0.146	0.153
-321.070	-119.413	-0.291	0.050
-320.056	-30.581	-0.151	-0.085
-319.041	-200.000	0.002	0.134
-318.026	117.393	-0.071	0.086
-317.012	22.707	-0.246	0.199
-315.997	-162.563	-0.141	0.007
-314.983	-105.644	0.557	-0.125
-313.968	63.574	0.305	0.303
-312.953	-64.531	0.137	0.055
-311.939	305.148	-0.122	-0.225
-310.924	271.623	0.149	-0.260
-309.910	-18.054	0.138	-0.086
-308.895	47.219	0.095	-0.087
-307.880	307.035	0.054	0.100
-306.866	122.029	-0.205	0.254
-305.851	-90.374	0.175	0.050
-304.837	454.294	-0.073	0.161
-303.822	800.000	-0.091	0.308
-302.807	-168.910	0.233	0.009
-301.793	257.888	-0.055	-0.094
-300.778	384.097	0.120	0.244
-299.764	-80.519	0.309	-0.102
-298.749	196.020	-0.029	-0.044
-297.735	217.941	-0.167	-0.264
-296.720	35.324	-0.247	-0.214
-295.705	46.669	0.078	0.072
-294.691	705.796	-0.117	-0.305
-293.676	800.000	0.057	-0.225
-292.662	232.896	-0.066	-0.107
-291.647	-200.000	-0.020	0.197
-290.632	468.531	-0.038	-0.085
-289.618	347.663	-0.155	0.301
-288.603	492.153	0.052	0.117
-287.589	-147.046	-0.384	0.033
-286.574	332.700	-0.119	0.228
-285.559	-118.716	0.222	0.039
-284.545	17.151	-0.280	0.220
-283.530	148.060	-0.209	0.279
-282.516	76.864	0.148	0.155
-281.501	-89.005	0.421	0.123
-280.486	-43.017	-0.322	-0.161
-279.472	261.451	0.153	-0.262
-278.457	-62.640	0.282	0.116
-277.443	-76.948	0.432	0.149
-276.428	42.495	0.035	-0.032
-275.413	-103.207	0.173	0.040
-274.399	-200.000	-0.032	-0.173
-273.384	139.010	-0.172	-0.224
-272.370	356.632	0.183	0.360
-271.355	-134.999	-0.278	-0.033
-270.340	-9.063	0.173	-0.114
-269.326	-65.391	0.312	-0.124
-268.311	10.960	-0.158	0.119
-267.297	800.000	-0.014	-0.039
-266.282	-181.794	0.260	0.005
-265.267	793.183	-0.104	0.282
-264.253	-126.642	0.034	-0.005
-263.238	579.703	-0.097	-0.236
-262.224	55.937	0.066	0.064
-261.209	105.722	0.418	0.488
-260.195	-200.000	-0.062	0.280
-259.180	-47.829	0.091	0.044
-258.165	-200.000	0.004	-0.166
-257.151	114.406	0.181	-0.218
-256.136	-20.758	-0.322	-0.195
-255.122	800.000	-0.077	0.312
-254.107	800.000	-0.091	-0.250
-253.092	-200.000	-0.013	-0.189
-252.078	488.608	-0.044	-0.099
-251.063	-176.772	0.133	0.003
-250.049	27.298	-0.221	-0.184
-249.034	21.315	0.300	-0.241
-248.019	-200.000	0.013	0.172
-247.005	169.273	0.128	-0.180
-245.990	96.113	-0.299	0.337
-244.976	-200.000	-0.025	0.131
-243.961	-46.131	-0.294	0.143
-242.946	-70.425	0.345	0.129
-241.932	-101.973	0.199	0.047
-240.917	369.986	-0.215	-0.429
-239.903	-200.000	0.044	0.255
-238.888	-132.893	0.288	-0.036
-237.873	-20.544	0.138	-0.084
-236.859	-79.752	-0.107	0.036
-235.844	668.437	0.132	0.336
-234.830	529.168	0.120	0.279
-233.815	-157.562	0.087	-0.005
-232.800	-106.810	0.273	-0.060
-231.786	30.181	-0.278	0.234
-230.771	108.720	-0.123	-0.145
-229.757	-81.963	0.136	-0.044
-228.742	520.323	0.110	0.254
-227.727	99.965	0.130	0.148
-226.713	468.051	0.140	-0.310
-225.698	-95.533	-0.209	0.055
-224.684	77.866	-0.072	-0.076
-223.669	264.911	-0.046	0.080
-222.655	403.632	-0.080	0.167
-221.640	1.783	0.292	-0.208
-220.625	-85.890	0.115	-0.035
-219.611	50.585	-0.314	-0.293
-218.596	-56.254	-0.325	0.143
-217.582	800.000	0.076	0.241
-216.567	76.976	-0.050	-0.052
-215.552	-72.017	0.154	-0.056
-214.538	-132.113	-0.086	0.011
-213.523	22.507	-0.101	-0.081
-212.509	-24.875	-0.160	-0.094
-211.494	-82.172	0.330	-0.106
-210.479	-67.246	-0.202	0.079
-209.465	342.003	-0.150	-0.289
-208.450	-200.000	0.039	-0.209
-207.436	-200.000	0.025	0.207
-206.421	-145.029	0.186	-0.017
-205.406	800.000	0.094	-0.318
-204.392	-200.000	-0.080	0.454
-203.377	27.610	0.102	-0.084
-202.363	37.227	0.218	-0.191
-201.348	-67.288	0.221	-0.086
-200.333	-31.873	0.364	-0.201
-199.319	704.730	-0.117	-0.303
-198.304	-200.000	0.023	-0.194
-197.290	-68.975	0.225	-0.086
-196.275	-177.239	0.118	0.003
-195.260	-98.891	0.103	0.026
-194.246	-63.054	0.347	0.141
-193.231	-111.112	0.230	-0.046
-192.217	151.687	0.154	0.207
-191.202	-163.571	0.114	-0.005
-190.187	-82.213	0.108	0.035
-189.173	-200.000	-0.005	0.161
-188.158	90.775	-0.224	-0.247
-187.144	-132.408	0.227	0.029
-186.129	759.565	-0.019	0.050
-185.114	-85.719	-0.171	0.052
-184.100	223.394	0.100	-0.159
-183.085	-67.066	0.179	-0.070
-182.071	-113.646	0.215	0.041
-181.056	-164.203	0.226	0.010
-180.042	83.959	-0.112	-0.121
-179.027	-158.284	-0.344	0.020
-178.012	-144.094	0.375	0.035
-176.998	64.111	-0.261	-0.259
-175.983	3.108	-0.170	0.122
-174.969	197.682	-0.081	-0.122
-173.954	-34.241	0.122	-0.066
-172.939	203.623	0.059	0.090
-171.925	800.000	0.092	0.283
-170.910	32.491	0.314	0.267
-169.896	-200.000	0.035	0.220
-168.881	-17.520	-0.192	0.119
-167.866	-32.760	-0.265	0.145
-166.852	-79.992	-0.217	-0.072
-165.837	-179.073	0.232	-0.005
-164.823	-200.000	0.027	-0.115
-163.808	-132.559	-0.239	0.030
-162.793	382.476	-0.006	0.012
-161.779	38.582	-0.109	-0.096
-160.764	-200.000	-0.031	0.336
-159.750	-123.992	-0.145	-0.022
-158.735	104.266	-0.070	-0.081
-157.720	800.000	0.020	0.064
-156.706	-96.068	-0.351	0.092
-155.691	-200.000	0.006	-0.199
-154.677	58.732	-0.102	0.098
-153.662	-8.988	0.103	0.068
-152.647	161.593	0.060	0.082
-151.633	-133.081	-0.368	0.046
-150.618	-200.000	-0.012	0.056
-149.604	98.977	-0.156	0.177
-148.589	-169.804	-0.587	0.021
-147.574	-98.146	-0.360	0.091
-146.560	81.133	0.229	-0.244
-145.545	678.798	-0.182	0.466
-144.531	-94.861	0.370	-0.099
-143.516	-111.866	0.316	0.063
-142.502	495.079	0.076	-0.171
-141.487	-200.000	0.007	0.137
-140.472	-19.820	0.150	0.091
-139.458	-73.683	0.231	0.083
-138.443	70.383	0.168	0.171
-137.429	181.442	-0.092	0.133
-136.414	674.961	-0.127	0.324
-135.399	-200.000	-0.002	0.141
-134.385	800.000	0.029	0.108
-133.370	156.223	0.245	0.332
-132.356	-41.228	0.189	-0.096
-131.341	-72.036	0.147	0.054
-130.326	800.000	0.093	0.361
-129.312	-99.245	-0.204	-0.051
-128.297	2.250	-0.007	0.005
-127.283	-65.820	0.458	-0.180
-126.268	254.599	0.137	0.230
-125.253	-21.330	-0.342	-0.205
-124.239	56.388	-0.082	0.079
-123.224	-200.000	0.005	0.032
-122.210	800.000	0.048	0.207
-121.195	-168.491	-0.266	0.010
