DTS Sentinel unit serial number:	SN413079Multiplexer serial number:	ORYXHardware model number:	OX4-SRSoftware version number:	ORYX F/W v4.00 Oryx Data Collector v3.7.2.0data status	okinstallation	princeton_trtdifferential loss correction	single-endedforward channel	channel 3reverse channel	N/Adate	2019/09/15time	01:44:35forward acquisition time	60.00reverse acquisition time	0.00gamma	496.2192k internal	0.2322k external	0.2322temperature offset calibration	0.9961default loss term (dB/km)	0.3790temperature slope calibration	1.0000multiplexer offset coefficient	1.0000multiplexer slope coefficient	1.0000fibre end	0.00T internal ref (°C)	31.81T ext. ref 1 (°C)	4.51T ext. ref 2 (°C)	26.69length (m)	temperature (°C)	Stokes	anti-Stokes-747.200	-27.206	0.143	0.084
-746.185	-78.584	-0.021	0.007
-745.171	-18.332	0.213	-0.134
-744.156	-136.464	-0.038	0.004
-743.142	9.584	-0.208	-0.160
-742.127	-200.000	0.007	-0.150
-741.112	-94.167	-0.106	-0.029
-740.098	-78.021	-0.030	-0.011
-739.083	328.818	0.054	-0.104
-738.069	-85.734	0.321	0.101
-737.054	17.927	0.164	-0.132
-736.039	236.013	0.057	-0.095
-735.025	57.111	0.029	-0.029
-734.010	-200.000	0.002	-0.154
-732.996	74.993	0.061	0.065
-731.981	70.869	-0.233	-0.244
-730.966	384.566	0.049	-0.102
-729.952	-127.247	-0.254	-0.038
-728.937	13.103	-0.184	0.144
-727.923	800.000	-0.144	0.411
-726.908	-200.000	-0.016	-0.109
-725.894	496.127	-0.096	-0.223
-724.879	243.627	0.200	0.339
-723.864	-163.020	-0.239	-0.012
-722.850	73.501	-0.258	-0.273
-721.835	-200.000	0.004	-0.220
-720.821	-200.000	0.006	0.106
-719.806	-97.627	-0.307	-0.080
-718.791	-187.941	0.129	-0.002
-717.777	-200.000	0.025	0.366
-716.762	-100.104	0.190	-0.048
-715.748	381.599	-0.156	0.323
-714.733	-13.955	0.194	-0.126
-713.718	396.379	0.110	-0.231
-712.704	-166.644	-0.178	-0.007
-711.689	68.031	0.232	-0.239
-710.675	381.271	-0.033	0.069
-709.660	700.391	-0.030	0.079
-708.645	-200.000	0.015	0.137
-707.631	-79.256	-0.204	-0.070
-706.616	239.620	0.186	-0.312
-705.602	800.000	-0.077	-0.297
-704.587	-49.920	0.142	-0.068
-703.572	-172.687	0.104	0.003
-702.558	-200.000	-0.005	0.080
-701.543	580.274	-0.029	-0.072
-700.529	71.513	0.110	0.116
-699.514	-200.000	0.053	0.311
-698.499	-133.747	0.089	-0.011
-697.485	-173.849	-0.198	-0.006
-696.470	-45.124	0.070	-0.035
-695.456	-200.000	-0.028	-0.416
-694.441	-200.000	-0.003	-0.048
-693.426	45.503	-0.070	-0.065
-692.412	-200.000	0.013	-0.312
-691.397	52.375	-0.061	-0.059
-690.383	-52.288	-0.234	0.109
-689.368	-94.004	-0.154	-0.043
-688.354	-74.201	-0.120	0.044
-687.339	800.000	0.078	-0.271
-686.324	-77.936	0.250	-0.087
-685.310	207.597	0.164	-0.258
-684.295	-109.467	0.043	0.009
-683.281	800.000	0.073	0.308
-682.266	-200.000	0.030	-0.138
-681.251	-81.152	0.347	0.116
-680.237	-200.000	-0.062	-0.313
-679.222	-130.453	0.086	0.012
-678.208	-26.740	-0.181	0.107
-677.193	-80.240	-0.282	0.095
-676.178	-28.506	0.337	-0.196
-675.164	-14.737	-0.166	0.107
-674.149	-77.083	0.051	0.018
-673.135	-200.000	0.001	-0.179
-672.120	-88.034	-0.147	-0.045
-671.105	-60.493	0.201	-0.086
-670.091	-62.791	0.138	0.058
-669.076	-151.151	0.337	-0.025
-668.062	569.572	0.076	0.186
-667.047	-40.366	-0.069	0.036
-666.032	-200.000	0.030	0.202
-665.018	-29.864	0.263	-0.151
-664.003	-22.536	-0.175	-0.107
-662.989	-46.165	-0.307	0.152
-661.974	-4.211	-0.209	-0.145
-660.959	-119.531	0.275	0.048
-659.945	-151.335	0.311	-0.023
-658.930	800.000	0.049	-0.209
-657.916	-172.469	-0.412	0.013
-656.901	-200.000	0.001	-0.094
-655.886	33.499	-0.320	0.280
-654.872	-200.000	-0.003	-0.186
-653.857	123.222	-0.179	-0.226
-652.843	142.136	-0.045	0.060
-651.828	67.578	-0.115	0.118
-650.814	-200.000	-0.012	-0.189
-649.799	-144.458	-0.096	-0.009
-648.784	280.884	-0.167	-0.300
-647.770	-200.000	-0.013	-0.327
-646.755	-16.965	-0.342	-0.217
-645.741	-125.105	0.148	-0.023
-644.726	339.083	-0.120	0.236
-643.711	800.000	-0.088	0.337
-642.697	126.603	0.164	-0.209
-641.682	39.972	0.255	-0.231
-640.668	30.005	0.120	0.103
-639.653	215.010	0.103	0.165
-638.638	-60.963	0.181	-0.077
-637.624	-14.527	0.106	0.069
-636.609	-43.637	0.316	0.160
-635.595	-27.123	-0.149	0.088
-634.580	-88.808	0.163	-0.049
-633.565	-19.814	-0.182	0.113
-632.551	-200.000	-0.026	0.121
-631.536	-26.295	0.280	-0.166
-630.522	-200.000	0.008	0.087
-629.507	73.430	-0.243	0.256
-628.492	800.000	0.039	-0.161
-627.478	-104.559	-0.283	-0.066
-626.463	163.424	-0.102	-0.144
-625.449	-122.399	0.145	-0.024
-624.434	800.000	-0.028	-0.079
-623.419	800.000	-0.096	-0.296
-622.405	800.000	-0.083	0.237
-621.390	-23.246	0.252	0.152
-620.376	800.000	0.048	-0.173
-619.361	258.243	0.095	-0.165
-618.346	620.644	0.093	-0.236
-617.332	140.252	0.222	0.294
-616.317	110.526	0.187	-0.226
-615.303	-185.476	-0.345	0.005
-614.288	-63.510	-0.087	-0.036
-613.273	-200.000	0.016	0.141
-612.259	234.915	-0.191	-0.317
-611.244	-200.000	0.025	-0.195
-610.230	-109.005	0.127	-0.027
-609.215	-200.000	-0.055	0.346
-608.201	240.578	-0.043	-0.072
-607.186	334.448	0.124	0.241
-606.171	800.000	-0.083	-0.251
-605.157	-164.914	0.015	0.001
-604.142	13.202	-0.260	-0.202
-603.128	361.310	0.050	-0.100
-602.113	-200.000	-0.000	-0.158
-601.098	117.614	0.120	-0.148
-600.084	-200.000	-0.034	-0.217
-599.069	-112.681	-0.361	0.072
-598.055	800.000	-0.034	0.098
-597.040	-200.000	0.017	-0.137
-596.025	32.529	-0.255	0.221
-595.011	126.849	0.151	0.192
-593.996	-70.188	0.400	0.153
-592.982	135.343	-0.058	-0.076
-591.967	-62.566	-0.075	0.031
-590.952	-200.000	0.047	0.234
-589.938	-82.745	-0.169	0.055
-588.923	-66.147	0.172	-0.069
-587.909	19.713	-0.173	0.140
-586.894	248.763	0.166	-0.282
-585.879	250.721	0.122	-0.208
-584.865	383.579	0.062	-0.127
-583.850	3.487	-0.269	0.197
-582.836	800.000	0.041	-0.170
-581.821	15.755	0.254	0.200
-580.806	-143.298	-0.167	0.016
-579.792	191.919	0.117	0.177
-578.777	146.761	0.266	0.359
-577.763	-89.927	0.006	-0.002
-576.748	-200.000	-0.090	-0.441
-575.733	2.610	-0.076	0.056
-574.719	602.977	-0.202	0.504
-573.704	79.182	0.197	0.212
-572.690	-200.000	0.018	0.171
-571.675	33.119	0.139	-0.121
-570.661	416.426	-0.056	-0.121
-569.646	-122.497	0.289	0.047
-568.631	-139.750	0.307	-0.033
-567.617	-42.900	-0.195	-0.099
-566.602	-200.000	-0.003	0.224
-565.588	-200.000	-0.017	0.188
-564.573	111.407	0.098	0.118
-563.558	-94.056	-0.377	0.104
-562.544	-200.000	0.043	-0.300
-561.529	238.402	-0.181	-0.302
-560.515	-55.679	0.297	0.133
-559.500	-200.000	-0.036	-0.365
-558.485	-69.043	0.458	-0.177
-557.471	-91.590	0.332	-0.095
-556.456	-144.600	0.053	-0.005
-555.442	51.762	0.338	-0.322
-554.427	-200.000	-0.044	-0.227
-553.412	-31.302	-0.147	0.083
-552.398	800.000	-0.052	-0.173
-551.383	-115.579	-0.091	-0.017
-550.369	-21.871	0.037	0.023
-549.354	-54.170	-0.305	-0.139
-548.339	-200.000	-0.062	-0.379
-547.325	-141.162	0.079	0.008
-546.310	-148.264	0.118	0.010
-545.296	259.332	-0.084	0.145
-544.281	-153.103	-0.340	-0.024
-543.266	57.772	-0.009	0.009
-542.252	-200.000	0.038	0.256
-541.237	-125.927	-0.441	-0.067
-540.223	-107.930	0.067	-0.015
-539.208	-85.629	0.023	-0.007
-538.193	596.580	0.037	-0.091
-537.179	800.000	-0.154	-0.450
-536.164	-76.851	0.317	0.111
-535.150	737.245	0.046	0.125
-534.135	-124.937	0.491	-0.076
-533.121	-137.510	-0.173	-0.020
-532.106	-200.000	-0.021	-0.194
-531.091	-200.000	0.012	-0.131
-530.077	-33.337	0.225	-0.125
-529.062	33.016	-0.056	-0.048
-528.048	-141.761	-0.241	0.024
-527.033	-108.031	-0.107	0.023
-526.018	-15.199	-0.010	-0.007
-525.004	800.000	-0.051	0.188
-523.989	20.373	-0.189	-0.153
-522.975	-42.713	-0.178	0.091
-521.960	117.187	-0.140	-0.173
-520.945	438.984	0.131	0.287
-519.931	800.000	0.053	0.203
-518.916	113.528	-0.134	0.163
-517.902	-200.000	0.020	0.244
-516.887	20.874	-0.316	-0.257
-515.872	800.000	-0.047	-0.157
-514.858	-168.150	-0.516	0.020
-513.843	59.968	-0.131	-0.129
-512.829	-200.000	-0.028	-0.332
-511.814	314.461	0.034	-0.064
-510.799	327.547	0.118	0.227
-509.785	-13.013	-0.339	-0.221
-508.770	-156.260	-0.394	-0.025
-507.756	-200.000	0.098	-0.510
-506.741	367.223	-0.094	0.190
-505.726	161.729	0.078	-0.109
-504.712	351.282	-0.109	0.216
-503.697	20.675	-0.202	0.164
-502.683	-73.245	0.219	-0.080
-501.668	-142.884	-0.225	0.022
-500.653	-9.217	0.179	-0.120
-499.639	-200.000	-0.068	0.362
-498.624	144.735	-0.045	-0.061
-497.610	52.163	-0.156	-0.149
-496.595	113.232	0.028	-0.034
-495.581	-29.583	-0.042	-0.024
-494.566	800.000	-0.064	-0.213
-493.551	111.269	-0.106	-0.128
-492.537	115.686	0.043	0.052
-491.522	20.173	0.409	-0.330
-490.508	-110.488	0.247	0.051
-489.493	800.000	0.044	0.169
-488.478	-34.567	-0.221	-0.121
-487.464	-71.790	-0.159	0.059
-486.449	268.992	0.078	-0.137
-485.435	567.482	-0.133	0.324
-484.420	-72.230	-0.243	0.090
-483.405	231.194	0.154	0.252
-482.391	-1.217	-0.259	0.183
-481.376	37.450	-0.200	-0.177
-480.362	22.618	0.216	-0.177
-479.347	348.043	-0.124	0.244
-478.332	-1.750	-0.277	0.195
-477.318	693.287	0.070	0.185
-476.303	800.000	0.058	0.231
-475.289	800.000	0.020	0.069
-474.274	45.269	-0.098	0.090
-473.259	238.836	-0.182	-0.302
-472.245	235.908	0.089	-0.147
-471.230	-6.676	0.195	-0.133
-470.216	136.208	-0.260	0.338
-469.201	-32.671	-0.163	0.090
-468.186	-200.000	0.028	0.197
-467.172	25.854	-0.433	-0.361
-466.157	800.000	0.069	-0.246
-465.143	800.000	-0.048	-0.193
-464.128	-106.054	0.109	-0.025
-463.113	-200.000	-0.006	-0.053
-462.099	-155.360	0.302	-0.020
-461.084	-90.111	0.118	-0.034
-460.070	-200.000	-0.010	-0.182
-459.055	34.732	0.190	0.166
-458.040	-24.699	-0.118	0.070
-457.026	-200.000	0.033	0.384
-456.011	7.468	-0.078	0.058
-454.997	28.583	0.244	-0.206
-453.982	36.519	0.113	0.100
-452.968	800.000	0.084	-0.338
-451.953	-76.442	-0.105	-0.037
-450.938	-200.000	-0.025	0.368
-449.924	800.000	0.072	-0.204
-448.909	800.000	-0.081	-0.330
-447.895	-11.034	0.386	0.254
-446.880	-83.338	-0.141	-0.045
-445.865	-41.944	-0.362	-0.185
-444.851	136.832	-0.101	-0.132
-443.836	-88.767	0.497	-0.147
-442.822	-38.816	0.222	-0.117
-441.807	-47.384	-0.152	0.074
-440.792	-200.000	-0.248	0.001
-439.778	71.830	-0.226	-0.235
-438.763	762.702	-0.104	-0.283
-437.749	41.357	0.300	-0.271
-436.734	225.583	0.166	-0.269
-435.719	402.406	-0.226	-0.473
-434.705	-155.225	0.293	-0.019
-433.690	285.003	-0.068	-0.123
-432.676	-37.152	0.180	0.096
-431.661	-200.000	0.018	-0.156
-430.646	-200.000	0.065	-0.346
-429.632	72.995	-0.081	-0.084
-428.617	719.947	-0.056	0.149
-427.603	287.177	0.132	-0.238
-426.588	494.235	0.141	-0.324
-425.573	12.343	0.181	0.139
-424.559	-200.000	-0.027	-0.256
-423.544	-135.212	-0.231	-0.028
-422.530	-89.269	-0.302	0.089
-421.515	35.358	-0.155	-0.136
-420.500	-30.888	0.080	-0.045
-419.486	-200.000	0.005	-0.200
-418.471	-200.000	-0.050	0.249
-417.457	-200.000	-0.013	0.203
-416.442	42.419	0.099	0.089
-415.428	-106.886	0.088	0.019
-414.413	-120.666	-0.275	-0.046
-413.398	189.355	-0.113	0.168
-412.384	-120.471	0.291	-0.049
-411.369	62.849	-0.012	0.012
-410.355	-200.000	-0.002	0.152
-409.340	-25.500	-0.136	0.080
-408.325	-5.607	-0.266	-0.182
-407.311	103.001	-0.117	0.137
-406.296	64.395	0.172	0.173
-405.282	-81.573	-0.325	0.107
-404.267	308.662	0.055	-0.103
-403.252	-187.349	0.218	-0.003
-402.238	753.186	0.142	0.383
-401.223	-49.539	0.364	-0.173
-400.209	-200.000	0.030	-0.227
-399.194	97.308	-0.033	0.037
-398.179	-40.374	-0.251	0.130
-397.165	391.815	0.124	-0.257
-396.150	800.000	-0.041	-0.154
-395.136	318.752	0.186	-0.351
-394.121	231.426	-0.083	0.136
-393.106	210.673	-0.045	-0.071
-392.092	120.442	-0.049	0.061
-391.077	-197.188	0.285	0.002
-390.063	62.007	-0.238	-0.236
-389.048	-97.385	-0.246	-0.064
-388.033	-104.138	-0.131	-0.030
-387.019	704.257	0.093	0.244
-386.004	387.431	0.150	-0.310
-384.990	98.116	-0.277	0.318
-383.975	113.847	0.084	0.102
-382.960	-17.992	-0.159	0.099
-381.946	32.203	0.182	0.157
-380.931	380.334	-0.142	-0.290
-379.917	800.000	0.032	0.089
-378.902	-200.000	0.044	0.354
-377.888	211.112	-0.120	0.189
-376.873	273.988	-0.125	0.219
-375.858	800.000	0.072	0.259
-374.844	-5.837	-0.146	0.099
-373.829	-67.094	-0.429	-0.168
-372.815	-77.739	0.133	-0.046
-371.800	495.144	0.060	0.138
-370.785	-66.017	-0.206	-0.082
-369.771	469.289	-0.074	0.166
-368.756	-13.071	-0.124	0.080
-367.742	238.488	-0.169	-0.280
-366.727	800.000	-0.102	-0.397
-365.712	347.418	-0.073	-0.143
-364.698	800.000	0.079	-0.240
-363.683	-122.422	0.123	0.020
-362.669	-48.163	0.373	0.179
-361.654	71.335	0.104	-0.107
-360.639	-10.070	0.292	0.193
-359.625	800.000	-0.104	0.406
-358.610	-53.758	0.289	0.131
-357.596	-52.600	-0.095	0.044
-356.581	-12.112	-0.195	0.127
-355.566	-9.941	0.330	-0.219
-354.552	-90.203	-0.342	0.099
-353.537	495.823	0.145	0.331
-352.523	-107.186	0.053	0.012
-351.508	-126.340	0.205	-0.030
-350.493	-128.909	-0.026	-0.004
-349.479	3.565	-0.095	-0.069
-348.464	172.642	0.225	0.323
-347.450	-94.294	0.034	-0.009
-346.435	-200.000	0.040	0.238
-345.420	-119.451	0.236	0.041
-344.406	-6.977	0.083	-0.056
-343.391	-18.939	0.184	0.114
-342.377	-54.890	0.356	-0.160
-341.362	-74.963	-0.172	0.061
-340.348	-114.942	-0.265	-0.050
-339.333	366.591	-0.298	0.598
-338.318	22.259	-0.188	0.152
-337.304	-200.000	0.030	-0.189
-336.289	800.000	0.027	-0.092
-335.275	21.882	-0.200	0.162
-334.260	524.986	-0.022	0.053
-333.245	-161.364	-0.217	-0.011
-332.231	800.000	-0.018	0.067
-331.216	-117.731	0.370	-0.066
-330.202	134.159	0.060	0.078
-329.187	800.000	0.014	-0.042
-328.172	-9.834	-0.122	0.081
-327.158	92.457	-0.225	-0.252
-326.143	-97.761	-0.110	0.028
-325.129	-136.582	-0.436	-0.050
-324.114	-30.255	0.268	0.151
-323.099	11.940	-0.270	-0.206
-322.085	-17.633	0.264	0.165
-321.070	800.000	0.069	0.241
-320.056	-8.862	0.061	0.040
-319.041	-115.109	-0.114	-0.021
-318.026	-200.000	-0.007	0.046
-317.012	-141.531	0.248	0.025
-315.997	-153.474	-0.052	0.004
-314.983	-28.880	0.138	0.079
-313.968	42.890	0.138	-0.125
-312.953	-135.777	0.042	0.005
-311.939	122.385	-0.102	0.127
-310.924	-200.000	-0.042	0.224
-309.910	465.687	-0.116	0.258
-308.895	-200.000	0.016	-0.133
-307.880	71.790	0.082	-0.085
-306.866	-104.156	-0.069	0.016
-305.851	11.911	0.178	-0.136
-304.837	-106.944	0.359	0.079
-303.822	449.114	0.169	-0.370
-302.807	-148.570	0.147	-0.012
-301.793	800.000	-0.115	0.364
-300.778	800.000	-0.015	-0.053
-299.764	800.000	0.075	-0.236
-298.749	92.902	-0.294	0.329
-297.735	-144.082	0.334	-0.031
-296.720	-80.029	0.113	0.038
-295.705	-123.840	-0.235	0.037
-294.691	800.000	0.029	-0.103
-293.676	-155.435	0.133	-0.009
-292.662	-73.280	-0.210	0.076
-291.647	-43.625	0.205	-0.103
-290.632	-200.000	-0.030	0.216
-289.618	-200.000	0.015	-0.308
-288.603	-163.441	-0.482	-0.023
-287.589	-200.000	-0.019	-0.276
-286.574	-137.238	-0.104	-0.012
-285.559	-200.000	-0.026	0.135
-284.545	-42.418	-0.243	0.123
-283.530	28.832	0.299	0.251
-282.516	800.000	-0.106	0.365
-281.501	657.357	-0.055	0.139
-280.486	-200.000	-0.066	-0.319
-279.472	101.787	0.271	-0.314
-278.457	189.374	0.101	0.150
-277.443	445.845	0.092	0.201
-276.428	-21.656	-0.198	-0.120
-275.413	-67.201	-0.136	-0.053
-274.399	214.697	-0.016	0.024
-273.384	360.732	0.093	0.184
-272.370	91.926	0.143	0.160
-271.355	138.968	-0.123	-0.160
-270.340	15.680	0.321	-0.251
-269.326	-42.114	-0.191	0.097
-268.311	-149.551	-0.158	-0.012
-267.297	15.453	0.084	-0.066
-266.282	-76.267	-0.334	-0.117
-265.267	-8.231	0.210	0.140
-264.253	-99.273	-0.172	0.043
-263.238	336.417	-0.076	0.147
-262.224	-95.175	0.201	0.054
-261.209	-200.000	0.055	0.275
-260.195	230.019	0.102	0.166
-259.180	-1.422	-0.097	0.068
-258.165	-82.371	-0.215	-0.069
-257.151	-64.970	-0.107	-0.043
-256.136	-120.712	-0.169	0.028
-255.122	800.000	0.060	0.224
-254.107	-184.563	0.188	-0.003
-253.092	-101.432	-0.207	0.050
-252.078	83.659	-0.124	0.134
-251.063	25.343	-0.155	0.128
-250.049	110.859	0.043	0.052
-249.034	122.230	0.156	0.193
-248.019	85.414	-0.178	0.194
-247.005	800.000	-0.046	-0.194
-245.990	656.623	-0.071	0.181
-244.976	113.884	-0.167	-0.201
-243.961	208.021	-0.113	0.174
-242.946	64.790	-0.397	0.397
-241.932	-162.021	0.251	-0.013
-240.917	590.135	0.119	0.291
-239.903	224.644	0.119	-0.191
-238.888	74.414	0.105	-0.109
-237.873	-200.000	-0.018	0.128
-236.859	92.526	0.126	0.141
-235.844	800.000	-0.006	-0.024
-234.830	-72.459	0.104	0.038
-233.815	-28.534	0.428	-0.244
-232.800	-107.530	0.343	-0.074
-231.786	800.000	0.049	0.148
-230.771	-115.020	-0.081	0.015
-229.757	120.355	-0.110	0.135
-228.742	67.410	-0.006	-0.006
-227.727	-108.924	-0.498	-0.105
-226.713	-67.894	0.090	-0.035
-225.698	-128.469	0.081	0.011
-224.684	-200.000	0.032	0.329
-223.669	-119.090	0.166	-0.029
-222.655	11.576	-0.242	-0.184
-221.640	-135.830	-0.068	0.008
-220.625	-132.084	0.369	-0.047
-219.611	-143.998	0.347	0.032
-218.596	53.328	-0.276	0.262
-217.582	-200.000	-0.001	0.150
-216.567	241.250	-0.016	-0.027
-215.552	-67.888	-0.028	-0.011
-214.538	162.275	0.051	0.071
-213.523	-101.527	-0.064	0.016
-212.509	-78.184	0.236	0.080
-211.494	241.509	0.186	0.307
-210.479	218.225	-0.095	-0.149
-209.465	-146.003	0.365	-0.032
-208.450	20.137	-0.111	0.088
-207.436	-200.000	0.016	0.252
-206.421	-65.280	0.136	-0.054
-205.406	39.227	0.342	-0.303
-204.392	-74.356	-0.228	0.081
-203.377	183.235	-0.126	-0.184
-202.363	-200.000	-0.036	-0.205
-201.348	82.358	-0.153	-0.164
-200.333	81.827	0.262	0.280
-199.319	-89.465	-0.029	0.008
-198.304	-60.651	-0.149	0.063
-197.290	628.654	0.067	0.167
-196.275	-174.228	0.242	-0.007
-195.260	-78.980	-0.240	-0.081
-194.246	-141.874	0.347	0.034
-193.231	-47.283	-0.070	0.034
-192.217	-148.749	0.045	0.004
-191.202	-106.408	0.442	-0.098
-190.187	800.000	0.051	-0.214
-189.173	27.237	0.185	-0.153
-188.158	32.260	0.152	-0.129
-187.144	431.685	-0.113	0.243
-186.129	59.755	-0.124	0.121
-185.114	129.417	-0.098	0.123
-184.100	94.626	-0.043	0.048
-183.085	191.552	-0.142	0.211
-182.071	42.919	0.281	0.254
-181.056	161.131	0.134	-0.185
-180.042	-200.000	0.074	0.430
-179.027	140.203	-0.188	0.245
-178.012	134.404	0.054	-0.069
-176.998	-85.269	0.197	0.061
-175.983	354.584	0.138	0.271
-174.969	11.515	-0.137	-0.104
-173.954	800.000	0.071	-0.301
-172.939	800.000	0.004	0.013
-171.925	-176.764	-0.166	0.004
-170.910	36.621	0.257	0.224
-169.896	76.520	-0.130	-0.136
-168.881	-43.837	-0.233	0.116
-167.866	-30.771	-0.126	0.071
-166.852	-80.883	0.074	0.024
-165.837	-200.000	-0.014	-0.135
-164.823	675.408	-0.140	-0.358
-163.808	2.128	0.337	-0.241
-162.793	-86.738	-0.133	-0.040
-161.779	71.345	-0.052	0.054
-160.764	-200.000	-0.022	0.390
-159.750	66.759	0.074	0.074
-158.735	-20.567	0.310	-0.188
-157.720	-20.459	0.253	-0.154
-156.706	0.351	0.286	-0.202
-155.691	20.980	-0.134	-0.108
-154.677	800.000	-0.137	-0.427
-153.662	-176.814	0.058	-0.001
-152.647	45.335	-0.107	-0.098
-151.633	99.805	-0.067	0.077
-150.618	-98.613	0.304	0.077
-149.604	-158.590	-0.318	-0.018
-148.589	-79.313	-0.374	0.125
-147.574	-103.886	0.357	0.082
-146.560	69.082	-0.211	0.214
-145.545	163.977	-0.070	0.097
-144.531	-200.000	0.068	0.333
-143.516	110.290	0.148	0.176
-142.502	-200.000	0.033	0.157
-141.487	-76.388	-0.057	-0.020
-140.472	800.000	-0.060	0.203
-139.458	-62.265	0.071	-0.029
-138.443	-56.987	-0.210	-0.092
-137.429	150.050	-0.245	0.328
-136.414	-200.000	-0.042	-0.333
-135.399	167.172	-0.014	0.020
-134.385	-22.401	-0.200	-0.119
-133.370	35.226	-0.066	0.057
-132.356	3.780	-0.223	-0.161
-131.341	-50.993	-0.252	0.116
-130.326	86.009	0.218	-0.237
-129.312	800.000	-0.127	0.441
-128.297	30.625	0.116	0.098
-127.283	280.470	0.117	0.206
-126.268	53.046	0.159	-0.150
-125.253	79.945	0.008	-0.008
-124.239	98.252	0.165	-0.187
-123.224	-200.000	-0.036	0.385
-122.210	168.828	0.164	-0.230
-121.195	-49.177	-0.475	-0.224
