DTS Sentinel unit serial number:	SN413079Multiplexer serial number:	ORYXHardware model number:	OX4-SRSoftware version number:	ORYX F/W v4.00 Oryx Data Collector v3.7.2.0data status	okinstallation	princeton_trtdifferential loss correction	single-endedforward channel	channel 3reverse channel	N/Adate	2019/09/15time	00:36:34forward acquisition time	60.00reverse acquisition time	0.00gamma	496.2192k internal	0.2320k external	0.2320temperature offset calibration	0.9972default loss term (dB/km)	0.3790temperature slope calibration	1.0000multiplexer offset coefficient	1.0000multiplexer slope coefficient	1.0000fibre end	0.00T internal ref (°C)	32.12T ext. ref 1 (°C)	4.58T ext. ref 2 (°C)	27.12length (m)	temperature (°C)	Stokes	anti-Stokes-747.200	66.893	0.234	-0.241
-746.185	23.149	-0.138	0.115
-745.171	99.175	-0.111	0.130
-744.156	800.000	-0.055	0.175
-743.142	-200.000	0.428	-0.001
-742.127	-200.000	-0.033	0.228
-741.112	392.704	0.089	-0.186
-740.098	-200.000	-0.001	0.195
-739.083	23.909	0.098	-0.081
-738.069	-138.659	-0.296	0.033
-737.054	35.156	-0.342	-0.303
-736.039	-134.268	0.117	-0.015
-735.025	-89.005	0.260	-0.078
-734.010	55.542	-0.196	-0.192
-732.996	-166.413	-0.242	-0.010
-731.981	-184.492	0.333	-0.005
-730.966	286.039	-0.133	0.243
-729.952	62.101	0.074	0.075
-728.937	109.526	-0.236	-0.286
-727.923	800.000	-0.084	-0.296
-726.908	66.268	-0.069	-0.071
-725.894	-20.361	0.157	-0.098
-724.879	-200.000	0.011	-0.096
-723.864	-115.419	0.040	-0.008
-722.850	677.857	0.056	-0.148
-721.835	74.515	-0.028	-0.030
-720.821	-200.000	-0.004	-0.137
-719.806	-22.058	-0.011	0.007
-718.791	-77.814	-0.205	-0.071
-717.777	-137.798	0.085	-0.010
-716.762	-98.374	-0.288	0.075
-715.748	197.032	0.045	-0.069
-714.733	800.000	-0.053	-0.228
-713.718	110.293	-0.249	0.302
-712.704	-200.000	-0.007	-0.349
-711.689	-200.000	-0.036	-0.282
-710.675	-128.076	0.262	0.038
-709.660	-173.564	-0.142	0.004
-708.645	-200.000	0.016	-0.163
-707.631	262.768	0.182	-0.319
-706.616	499.096	-0.076	0.177
-705.602	800.000	0.055	-0.233
-704.587	-1.087	-0.361	0.258
-703.572	-200.000	0.052	0.238
-702.558	800.000	0.059	0.201
-701.543	-200.000	0.002	-0.092
-700.529	75.905	0.229	-0.245
-699.514	-135.415	-0.112	0.014
-698.499	-151.177	-0.218	-0.017
-697.485	43.556	0.168	-0.155
-696.470	57.012	0.052	-0.051
-695.456	-141.035	-0.237	0.024
-694.441	8.432	0.093	0.070
-693.426	185.248	-0.038	-0.056
-692.412	-46.154	0.199	-0.099
-691.397	384.210	0.156	0.325
-690.383	-135.546	0.089	0.011
-689.368	-63.083	-0.194	0.081
-688.354	-200.000	-0.026	-0.142
-687.339	-31.092	-0.213	-0.121
-686.324	476.935	0.091	-0.208
-685.310	-99.707	-0.133	0.034
-684.295	238.459	-0.124	-0.209
-683.281	-129.317	-0.186	0.026
-682.266	-94.234	0.263	0.073
-681.251	38.132	0.168	0.151
-680.237	-200.000	-0.017	0.109
-679.222	-28.692	0.163	0.095
-678.208	586.764	-0.032	-0.079
-677.193	127.247	0.133	-0.170
-676.178	-133.008	0.188	-0.024
-675.164	31.941	-0.173	0.150
-674.149	-51.849	-0.275	0.129
-673.135	-85.279	-0.154	-0.048
-672.120	141.453	0.089	-0.119
-671.105	-62.266	-0.185	0.078
-670.091	41.352	-0.249	-0.227
-669.076	98.816	-0.258	0.300
-668.062	102.177	-0.121	-0.143
-667.047	262.201	-0.021	-0.036
-666.032	-7.542	-0.253	0.173
-665.018	-81.609	-0.305	-0.101
-664.003	141.227	0.122	-0.163
-662.989	-113.574	0.150	-0.029
-661.974	109.098	-0.065	-0.078
-660.959	168.817	-0.058	0.084
-659.945	-200.000	0.050	0.352
-658.930	64.635	-0.038	0.039
-657.916	389.796	0.148	0.308
-656.901	314.276	0.165	0.313
-655.886	-28.186	-0.122	0.071
-654.872	-200.000	0.020	-0.194
-653.857	-25.312	0.098	-0.058
-652.843	398.314	-0.094	-0.199
-651.828	-118.648	-0.262	0.047
-650.814	-61.123	-0.179	0.076
-649.799	-23.057	-0.245	0.149
-648.784	-75.593	0.012	0.004
-647.770	-35.205	-0.263	0.144
-646.755	-200.000	-0.053	-0.274
-645.741	-200.000	0.035	-0.351
-644.726	133.919	0.125	-0.163
-643.711	-56.624	-0.176	0.079
-642.697	117.466	0.149	0.185
-641.682	-84.964	-0.225	-0.071
-640.668	-4.068	0.133	0.093
-639.653	-159.101	0.197	0.011
-638.638	-67.071	0.188	-0.075
-637.624	60.214	-0.089	0.088
-636.609	111.869	-0.097	-0.118
-635.595	-36.366	0.327	0.178
-634.580	-98.812	-0.076	-0.019
-633.565	95.299	-0.211	0.242
-632.551	-35.180	0.174	-0.096
-631.536	554.404	-0.179	-0.433
-630.522	-33.114	-0.108	-0.060
-629.507	-89.508	-0.237	0.070
-628.492	-200.000	0.011	-0.389
-627.478	-101.662	-0.170	0.042
-626.463	16.292	0.113	0.090
-625.449	-200.000	-0.023	-0.130
-624.434	542.077	-0.025	0.059
-623.419	19.672	0.400	-0.324
-622.405	800.000	-0.117	-0.504
-621.390	540.479	-0.155	-0.370
-620.376	154.112	-0.094	-0.130
-619.361	204.652	0.031	0.049
-618.346	-63.646	-0.148	0.061
-617.332	-200.000	0.003	0.111
-616.317	627.632	-0.166	-0.422
-615.303	800.000	-0.077	0.264
-614.288	65.836	-0.306	0.312
-613.273	-143.974	-0.132	-0.013
-612.259	-98.744	-0.164	-0.042
-611.244	-181.337	-0.085	-0.002
-610.230	-200.000	-0.012	0.251
-609.215	-200.000	-0.038	-0.238
-608.201	-200.000	-0.053	0.446
-607.186	-4.323	-0.324	-0.226
-606.171	-65.910	-0.338	-0.136
-605.157	178.280	0.124	-0.182
-604.142	390.806	0.070	0.145
-603.128	-60.329	0.129	0.055
-602.113	176.920	-0.219	-0.321
-601.098	240.155	-0.078	-0.130
-600.084	123.948	-0.091	0.116
-599.069	151.045	0.056	0.077
-598.055	-122.565	0.101	-0.016
-597.040	-38.423	-0.077	0.041
-596.025	-53.480	-0.208	0.096
-595.011	-16.698	0.225	-0.143
-593.996	-200.000	-0.008	-0.158
-592.982	93.220	0.245	-0.279
-591.967	59.311	-0.164	0.162
-590.952	103.666	-0.078	-0.092
-589.938	-156.518	0.389	0.024
-588.923	-76.295	-0.171	0.061
-587.909	-200.000	0.001	-0.178
-586.894	-200.000	0.019	-0.146
-585.879	528.434	0.030	0.070
-584.865	291.615	0.020	-0.036
-583.850	-69.846	0.156	0.060
-582.836	-200.000	-0.054	0.321
-581.821	-108.435	-0.077	0.017
-580.806	800.000	0.155	0.433
-579.792	-120.823	0.077	0.013
-578.777	162.783	0.136	-0.192
-577.763	-200.000	0.012	0.177
-576.748	-13.230	0.313	0.204
-575.733	595.007	0.053	0.131
-574.719	-122.193	0.448	-0.074
-573.704	90.432	0.026	0.030
-572.690	3.162	-0.125	0.091
-571.675	-81.249	0.247	0.082
-570.661	-67.967	-0.273	0.107
-569.646	-23.431	-0.140	0.085
-568.631	106.643	-0.302	-0.360
-567.617	-200.000	-0.009	0.243
-566.602	-200.000	0.019	-0.396
-565.588	-200.000	-0.048	-0.342
-564.573	-200.000	-0.004	0.272
-563.558	409.022	0.107	-0.227
-562.544	219.815	0.130	-0.210
-561.529	156.496	-0.071	-0.098
-560.515	-80.996	0.194	-0.064
-559.500	-200.000	0.009	0.334
-558.485	22.862	-0.102	0.084
-557.471	-122.502	0.284	0.046
-556.456	-82.442	0.327	-0.107
-555.442	11.528	-0.214	0.165
-554.427	382.469	0.021	0.043
-553.412	-200.000	-0.030	-0.347
-552.398	800.000	-0.032	-0.127
-551.383	-180.246	0.506	-0.011
-550.369	79.730	-0.104	0.112
-549.354	19.144	-0.185	-0.149
-548.339	-152.636	-0.086	0.006
-547.325	4.282	0.015	0.011
-546.310	-42.392	-0.082	0.042
-545.296	-200.000	-0.035	-0.223
-544.281	207.056	0.052	-0.081
-543.266	46.886	-0.169	0.158
-542.252	41.391	-0.121	0.110
-541.237	-53.787	-0.082	0.038
-540.223	-200.000	-0.033	-0.147
-539.208	-14.625	-0.141	0.091
-538.193	-90.761	-0.151	-0.044
-537.179	84.565	-0.168	0.185
-536.164	128.485	-0.088	-0.113
-535.150	-200.000	0.028	0.266
-534.135	94.183	0.240	0.273
-533.121	800.000	-0.063	-0.235
-532.106	-70.321	0.455	-0.173
-531.091	-200.000	0.092	-0.433
-530.077	-85.222	-0.204	0.064
-529.062	136.541	0.074	-0.097
-528.048	-76.613	-0.056	-0.020
-527.033	-64.746	0.088	0.036
-526.018	800.000	-0.086	0.364
-525.004	606.815	0.087	0.218
-523.989	425.899	-0.116	-0.250
-522.975	628.168	-0.108	-0.273
-521.960	133.716	-0.058	0.075
-520.945	-56.867	0.210	0.093
-519.931	-15.842	0.056	0.036
-518.916	-137.308	-0.388	0.044
-517.902	207.564	-0.215	0.336
-516.887	5.168	0.187	0.138
-515.872	-81.036	-0.102	-0.034
-514.858	-200.000	-0.003	-0.025
-513.843	712.722	0.072	0.192
-512.829	-71.134	-0.374	-0.141
-511.814	-200.000	0.012	-0.076
-510.799	-49.604	0.466	-0.222
-509.785	-132.126	-0.085	-0.011
-508.770	-57.186	0.155	0.068
-507.756	-200.000	0.021	0.134
-506.741	800.000	-0.096	-0.282
-505.726	77.846	0.213	-0.227
-504.712	-76.016	-0.325	0.115
-503.697	-29.167	-0.094	-0.054
-502.683	-62.930	0.154	-0.064
-501.668	59.367	-0.039	0.038
-500.653	-36.389	0.125	0.068
-499.639	-200.000	0.006	0.211
-498.624	279.110	0.040	-0.071
-497.610	-200.000	-0.002	0.012
-496.595	-27.014	-0.602	0.352
-495.581	-33.032	0.077	0.043
-494.566	-51.027	0.227	0.107
-493.551	-200.000	-0.071	-0.334
-492.537	-79.012	-0.263	0.090
-491.522	53.486	0.106	0.102
-490.508	-174.432	0.272	-0.008
-489.493	800.000	-0.034	-0.108
-488.478	-97.713	0.237	0.061
-487.464	248.086	0.066	0.111
-486.449	-200.000	0.010	0.196
-485.435	-200.000	0.018	-0.227
-484.420	-122.056	0.069	0.011
-483.405	48.598	-0.206	-0.193
-482.391	14.816	-0.320	-0.250
-481.376	1.459	0.178	-0.128
-480.362	16.363	-0.192	-0.152
-479.347	-97.084	0.181	0.047
-478.332	-113.214	0.075	0.015
-477.318	800.000	-0.047	0.142
-476.303	-62.553	-0.348	0.144
-475.289	322.695	0.062	0.119
-474.274	800.000	0.136	0.430
-473.259	-16.296	-0.451	0.286
-472.245	-88.402	-0.088	-0.026
-471.230	-114.399	0.235	0.045
-470.216	-138.346	0.230	0.025
-469.201	-88.114	-0.183	0.055
-468.186	-16.453	0.218	-0.138
-467.172	194.014	-0.083	0.125
-466.157	19.524	-0.281	-0.226
-465.143	-200.000	-0.063	0.297
-464.128	479.586	-0.072	-0.164
-463.113	-200.000	-0.361	0.001
-462.099	-200.000	-0.012	-0.281
-461.084	800.000	-0.057	0.242
-460.070	213.120	-0.021	-0.034
-459.055	106.347	0.178	0.210
-458.040	800.000	0.072	0.199
-457.026	-200.000	0.046	0.435
-456.011	100.583	-0.129	-0.149
-454.997	-120.049	0.110	0.019
-453.982	74.814	-0.155	-0.163
-452.968	383.552	0.104	-0.213
-451.953	-3.781	-0.176	0.123
-450.938	800.000	-0.090	0.355
-449.924	55.294	0.073	-0.070
-448.909	-106.719	-0.311	-0.069
-447.895	800.000	-0.012	0.051
-446.880	464.472	-0.023	-0.052
-445.865	-121.515	0.339	0.056
-444.851	-101.276	0.149	-0.036
-443.836	800.000	0.063	-0.193
-442.822	559.599	0.083	-0.200
-441.807	-200.000	-0.081	-0.535
-440.792	-31.357	-0.151	-0.085
-439.778	-62.895	0.102	-0.042
-438.763	-39.017	-0.164	0.086
-437.749	-147.465	0.113	0.010
-436.734	360.965	0.186	-0.372
-435.719	-123.433	-0.321	0.051
-434.705	-184.870	0.115	-0.002
-433.690	43.073	0.248	0.226
-432.676	-10.352	-0.193	-0.128
-431.661	-96.476	-0.151	-0.040
-430.646	-108.435	0.031	-0.007
-429.632	-200.000	-0.064	-0.407
-428.617	61.700	-0.090	0.090
-427.603	-200.000	0.014	-0.403
-426.588	-200.000	-0.021	-0.133
-425.573	-21.232	0.307	-0.187
-424.559	520.102	0.060	-0.140
-423.544	98.617	0.167	0.192
-422.530	123.244	-0.155	-0.194
-421.515	-200.000	-0.025	-0.173
-420.500	38.992	0.006	-0.006
-419.486	-94.908	0.479	0.130
-418.471	124.753	0.184	-0.232
-417.457	-77.074	0.191	-0.066
-416.442	10.556	0.078	0.059
-415.428	652.566	0.076	0.194
-414.413	-124.807	-0.286	0.044
-413.398	-200.000	0.061	-0.388
-412.384	-48.594	0.156	-0.075
-411.369	-121.000	0.186	0.031
-410.355	-200.000	0.007	-0.403
-409.340	119.520	-0.024	0.030
-408.325	351.829	-0.190	0.375
-407.311	702.496	-0.092	0.243
-406.296	448.309	-0.175	-0.385
-405.282	-77.421	-0.215	0.075
-404.267	-59.603	-0.097	-0.042
-403.252	304.026	0.104	-0.192
-402.238	131.112	-0.130	-0.167
-401.223	-34.315	0.277	-0.152
-400.209	467.190	-0.136	0.304
-399.194	-134.086	0.188	0.023
-398.179	142.207	0.045	0.059
-397.165	-200.000	-0.024	0.220
-396.150	384.478	-0.118	-0.243
-395.136	-41.168	-0.142	0.073
-394.121	-122.969	0.239	-0.038
-393.106	-125.945	-0.289	0.043
-392.092	-200.000	0.021	-0.183
-391.077	308.798	0.090	-0.168
-390.063	-106.117	0.457	0.102
-389.048	-200.000	0.006	-0.157
-388.033	181.638	-0.063	-0.093
-387.019	3.675	0.086	-0.063
-386.004	-196.197	-0.093	-0.001
-384.990	-91.444	0.327	0.093
-383.975	-37.890	0.198	0.105
-382.960	-42.469	-0.224	0.114
-381.946	-78.727	-0.148	0.050
-380.931	-200.000	-0.015	0.094
-379.917	-105.061	-0.194	0.044
-378.902	-28.109	-0.124	0.072
-377.888	102.694	-0.117	0.137
-376.873	-200.000	-0.004	0.029
-375.858	-165.615	0.272	-0.012
-374.844	-77.164	0.104	0.036
-373.829	258.650	-0.219	-0.376
-372.815	-1.331	0.025	-0.017
-371.800	49.405	-0.110	0.104
-370.785	-139.831	0.234	-0.025
-369.771	158.204	-0.185	0.256
-368.756	-128.188	-0.144	0.020
-367.742	-118.645	-0.093	-0.016
-366.727	305.605	0.155	-0.287
-365.712	-117.915	-0.170	-0.030
-364.698	182.955	-0.136	0.201
-363.683	-78.777	-0.203	0.069
-362.669	-63.193	0.185	0.076
-361.654	-200.000	-0.003	-0.066
-360.639	107.140	-0.201	0.238
-359.625	362.439	0.059	0.118
-358.610	-200.000	-0.076	0.375
-357.596	343.595	-0.029	0.057
-356.581	-169.198	0.293	-0.011
-355.566	724.833	0.059	-0.157
-354.552	353.853	-0.186	0.367
-353.537	-20.389	0.050	0.031
-352.523	640.513	0.109	0.277
-351.508	800.000	0.066	0.251
-350.493	-200.000	-0.016	0.236
-349.479	-200.000	-0.029	0.258
-348.464	261.522	-0.104	0.180
-347.450	246.292	-0.053	0.089
-346.435	-89.415	0.112	0.033
-345.420	116.201	-0.102	0.125
-344.406	422.914	0.141	-0.301
-343.391	800.000	0.182	-0.514
-342.377	-200.000	-0.031	-0.159
-341.362	-9.225	-0.304	-0.202
-340.348	24.829	0.214	-0.176
-339.333	242.436	0.116	0.193
-338.318	-99.865	0.052	-0.013
-337.304	40.206	-0.319	0.285
-336.289	-200.000	-0.061	-0.290
-335.275	-200.000	-0.001	0.237
-334.260	159.410	0.113	0.156
-333.245	1.596	0.081	0.058
-332.231	226.424	0.037	-0.060
-331.216	-74.239	0.178	0.064
-330.202	24.939	-0.108	0.089
-329.187	83.294	0.112	-0.122
-328.172	-200.000	0.033	0.293
-327.158	-42.833	0.036	-0.018
-326.143	800.000	0.060	0.189
-325.129	319.356	-0.061	-0.116
-324.114	-126.140	0.292	-0.044
-323.099	-200.000	-0.039	0.216
-322.085	800.000	0.084	-0.271
-321.070	-97.371	-0.233	0.060
-320.056	-200.000	-0.049	-0.221
-319.041	409.599	0.107	-0.226
-318.026	334.530	-0.152	-0.293
-317.012	24.157	0.243	-0.199
-315.997	198.923	-0.104	0.159
-314.983	-200.000	-0.008	-0.262
-313.968	800.000	-0.049	0.138
-312.953	484.724	-0.079	-0.180
-311.939	131.186	0.176	0.224
-310.924	-200.000	-0.043	0.349
-309.910	21.581	0.366	0.296
-308.895	-12.485	0.079	0.051
-307.880	1.805	-0.199	-0.143
-306.866	-200.000	0.049	0.282
-305.851	142.633	0.049	-0.065
-304.837	-98.886	0.212	0.054
-303.822	0.519	-0.010	0.007
-302.807	-41.988	0.167	0.085
-301.793	800.000	0.048	0.136
-300.778	243.617	0.042	0.070
-299.764	-200.000	0.011	0.067
-298.749	-79.748	0.036	-0.012
-297.735	800.000	0.060	0.197
-296.720	-133.300	-0.215	-0.027
-295.705	800.000	-0.042	0.157
-294.691	51.698	0.156	-0.147
-293.676	-200.000	0.005	-0.190
-292.662	-21.900	-0.053	-0.032
-291.647	33.278	-0.302	-0.261
-290.632	-200.000	-0.021	0.105
-289.618	366.931	-0.061	-0.122
-288.603	508.408	-0.134	-0.310
-287.589	800.000	0.019	0.074
-286.574	-96.525	0.103	0.027
-285.559	-109.549	-0.131	-0.027
-284.545	-93.084	0.320	0.088
-283.530	54.684	0.021	0.020
-282.516	183.547	0.290	-0.426
-281.501	366.161	-0.180	-0.361
-280.486	-107.090	0.362	0.079
-279.472	-105.217	-0.183	0.042
-278.457	714.538	0.101	0.267
-277.443	176.026	-0.174	-0.250
-276.428	-14.592	0.245	-0.156
-275.413	-95.183	0.259	-0.069
-274.399	26.220	0.124	0.103
-273.384	-174.828	0.303	0.008
-272.370	1.679	-0.141	0.101
-271.355	-25.287	-0.241	0.141
-270.340	148.987	-0.184	0.247
-269.326	65.638	-0.142	0.143
-268.311	-129.688	0.098	-0.013
-267.297	-102.517	0.149	0.035
-266.282	-151.481	0.251	0.018
-265.267	-200.000	0.077	0.633
-264.253	62.103	-0.224	0.222
-263.238	233.851	0.105	-0.171
-262.224	-59.917	-0.296	0.125
-261.209	-200.000	0.012	-0.112
-260.195	-200.000	0.005	0.388
-259.180	-73.167	-0.239	-0.087
-258.165	-92.231	0.245	-0.069
-257.151	-85.326	0.105	-0.033
-256.136	-200.000	0.029	0.131
-255.122	-21.087	0.088	-0.054
-254.107	683.005	-0.028	-0.073
-253.092	296.417	-0.152	-0.277
-252.078	-10.397	-0.346	-0.228
-251.063	-33.581	-0.238	0.130
-250.049	-200.000	0.039	0.187
-249.034	-50.892	0.416	0.194
-248.019	800.000	-0.075	0.243
-247.005	390.454	0.098	0.201
-245.990	-87.476	-0.048	0.014
-244.976	-131.885	-0.231	0.030
-243.961	-92.616	-0.275	-0.077
-242.946	4.545	-0.316	-0.230
-241.932	-84.125	-0.112	0.035
-240.917	44.603	0.119	0.108
-239.903	251.359	-0.121	-0.204
-238.888	-4.396	-0.103	0.071
-237.873	-200.000	-0.027	-0.133
-236.859	800.000	0.023	0.074
-235.844	800.000	0.089	0.259
-234.830	-75.371	-0.248	0.088
-233.815	195.781	-0.092	-0.138
-232.800	-162.094	0.227	0.011
-231.786	141.089	0.103	-0.135
-230.771	-200.000	0.001	-0.285
-229.757	143.101	0.026	-0.034
-228.742	227.451	-0.125	-0.201
-227.727	-200.000	-0.028	0.138
-226.713	537.691	-0.110	0.260
-225.698	569.893	0.075	0.180
-224.684	258.328	0.249	0.425
-223.669	57.334	0.101	0.098
-222.655	87.838	-0.171	0.188
-221.640	-51.126	0.170	-0.079
-220.625	-89.792	-0.331	0.096
-219.611	37.662	-0.225	0.197
-218.596	-122.288	0.233	0.038
-217.582	-200.000	-0.004	0.103
-216.567	-200.000	-0.031	-0.222
-215.552	-163.789	0.245	0.011
-214.538	800.000	-0.098	0.349
-213.523	-171.599	0.324	0.011
-212.509	-55.751	-0.216	0.096
-211.494	-49.992	0.360	0.169
-210.479	-40.091	-0.325	-0.168
-209.465	800.000	0.076	-0.229
-208.450	84.096	-0.139	-0.151
-207.436	512.334	-0.053	0.123
-206.421	-171.298	0.410	-0.014
-205.406	505.959	0.097	-0.223
-204.392	-45.784	0.309	0.151
-203.377	-87.867	-0.186	-0.056
-202.363	30.930	0.184	0.156
-201.348	60.582	-0.257	0.252
-200.333	-62.296	0.259	0.107
-199.319	800.000	0.040	-0.120
-198.304	-144.545	-0.149	-0.014
-197.290	-36.547	-0.092	-0.049
-196.275	-136.302	-0.455	-0.052
-195.260	-14.875	0.173	-0.110
-194.246	283.634	0.104	0.185
-193.231	292.054	-0.045	0.080
-192.217	106.314	-0.046	0.054
-191.202	-167.740	-0.264	0.010
-190.187	-42.457	0.284	-0.144
-189.173	-200.000	0.023	-0.134
-188.158	74.457	0.080	-0.084
-187.144	-60.444	0.120	0.051
-186.129	-200.000	0.089	0.395
-185.114	-14.910	-0.208	0.132
-184.100	37.868	-0.134	0.117
-183.085	414.587	0.042	-0.089
-182.071	-86.529	-0.198	-0.060
-181.056	-100.956	-0.075	0.018
-180.042	-200.000	-0.009	-0.091
-179.027	-200.000	0.032	-0.310
-178.012	-91.378	-0.408	0.115
-176.998	86.797	0.211	0.230
-175.983	375.783	-0.112	-0.225
-174.969	-200.000	0.020	-0.279
-173.954	-115.607	0.033	-0.006
-172.939	33.200	0.111	0.095
-171.925	-200.000	-0.006	0.034
-170.910	-66.801	-0.167	-0.065
-169.896	-200.000	0.005	-0.057
-168.881	-114.350	0.288	-0.055
-167.866	287.024	0.169	-0.302
-166.852	184.005	0.137	-0.201
-165.837	150.930	0.086	-0.116
-164.823	16.306	0.521	-0.407
-163.808	-109.988	0.394	-0.082
-162.793	800.000	-0.035	0.098
-161.779	-30.393	-0.263	0.148
-160.764	-64.459	0.482	0.194
-159.750	-200.000	-0.003	0.101
-158.735	60.375	0.188	-0.184
-157.720	151.711	-0.098	0.131
-156.706	117.896	-0.105	0.128
-155.691	-60.854	-0.103	-0.043
-154.677	-66.691	0.230	-0.090
-153.662	-154.526	0.288	0.019
-152.647	-22.752	-0.285	0.170
-151.633	-65.145	-0.105	-0.042
-150.618	31.003	-0.131	0.111
-149.604	104.240	0.173	-0.201
-148.589	800.000	0.045	0.129
-147.574	-135.596	0.262	0.031
-146.560	-133.305	0.143	0.018
-145.545	24.730	0.236	0.193
-144.531	39.937	0.219	-0.194
-143.516	-19.634	-0.039	-0.024
-142.502	-13.433	0.091	-0.058
-141.487	-25.107	0.254	0.148
-140.472	-7.872	-0.243	0.162
-139.458	-38.945	0.251	0.131
-138.443	-66.168	-0.072	-0.028
-137.429	74.065	-0.257	0.267
-136.414	115.603	-0.109	-0.131
-135.399	-49.008	-0.204	0.096
-134.385	-159.369	-0.208	-0.011
-133.370	192.599	0.305	-0.455
-132.356	99.202	0.098	0.112
-131.341	77.314	-0.394	-0.414
-130.326	94.005	0.121	-0.135
-129.312	-29.605	0.074	-0.042
-128.297	-67.737	-0.242	-0.093
-127.283	171.077	-0.077	0.109
-126.268	800.000	-0.073	0.263
-125.253	-200.000	-0.022	-0.111
-124.239	-75.164	-0.480	0.169
-123.224	-163.271	0.138	0.007
-122.210	800.000	-0.074	0.250
-121.195	-127.102	0.196	0.028
