DTS Sentinel unit serial number:	SN413079Multiplexer serial number:	ORYXHardware model number:	OX4-SRSoftware version number:	ORYX F/W v4.00 Oryx Data Collector v3.7.2.0data status	okinstallation	princeton_trtdifferential loss correction	single-endedforward channel	channel 3reverse channel	N/Adate	2019/09/12time	13:46:11forward acquisition time	60.00reverse acquisition time	0.00gamma	496.2192k internal	0.2292k external	0.2292temperature offset calibration	1.0047default loss term (dB/km)	0.3790temperature slope calibration	1.0000multiplexer offset coefficient	1.0000multiplexer slope coefficient	1.0000fibre end	0.00T internal ref (°C)	40.98T ext. ref 1 (°C)	2.17T ext. ref 2 (°C)	35.73length (m)	temperature (°C)	Stokes	anti-Stokes-747.200	-17.168	-0.139	0.090
-746.185	30.584	-0.154	0.135
-745.171	-141.692	0.486	-0.050
-744.156	686.042	0.072	0.193
-743.142	-54.770	-0.239	-0.111
-742.127	66.098	-0.225	0.234
-741.112	382.895	0.049	0.104
-740.098	10.522	-0.160	0.125
-739.083	-97.991	-0.254	-0.067
-738.069	173.995	0.175	0.259
-737.054	454.779	0.169	-0.383
-736.039	-45.155	-0.108	-0.055
-735.025	-43.074	0.209	-0.109
-734.010	-200.000	-0.009	-0.092
-732.996	225.451	-0.170	-0.282
-731.981	800.000	0.045	0.182
-730.966	-103.784	-0.139	0.033
-729.952	-200.000	-0.038	-0.274
-728.937	116.051	0.185	-0.232
-727.923	-2.046	-0.124	-0.089
-726.908	-200.000	-0.019	-0.120
-725.894	59.543	-0.156	-0.157
-724.879	227.850	-0.180	-0.299
-723.864	142.253	0.113	-0.153
-722.850	-119.068	0.077	-0.014
-721.835	-5.554	-0.084	-0.059
-720.821	106.530	0.264	-0.320
-719.806	-37.008	0.234	-0.128
-718.791	-200.000	-0.029	0.156
-717.777	-200.000	0.010	0.171
-716.762	-73.395	-0.466	-0.174
-715.748	67.490	-0.317	-0.331
-714.733	443.920	-0.131	-0.295
-713.718	-149.261	-0.382	0.031
-712.704	-43.447	-0.109	-0.056
-711.689	-200.000	-0.062	-0.392
-710.675	12.775	-0.265	-0.210
-709.660	-32.412	0.276	-0.157
-708.645	800.000	-0.036	-0.122
-707.631	-185.018	0.199	-0.003
-706.616	182.974	-0.161	-0.243
-705.602	-27.454	0.137	0.081
-704.587	306.850	0.068	-0.130
-703.572	-200.000	-0.076	0.482
-702.558	-200.000	0.021	0.200
-701.543	177.173	0.123	-0.183
-700.529	800.000	-0.093	0.399
-699.514	34.494	-0.147	0.132
-698.499	-145.598	-0.148	0.014
-697.485	-91.618	0.020	-0.006
-696.470	314.101	-0.052	-0.100
-695.456	317.850	0.121	-0.234
-694.441	-125.040	0.311	0.049
-693.426	-89.454	0.100	-0.030
-692.412	-36.933	0.188	-0.103
-691.397	-200.000	0.013	-0.066
-690.383	-200.000	0.011	-0.239
-689.368	40.140	0.250	-0.230
-688.354	246.887	-0.086	0.147
-687.339	-1.697	0.127	-0.092
-686.324	800.000	0.071	0.273
-685.310	-24.235	-0.061	0.037
-684.295	99.785	0.053	-0.063
-683.281	-129.254	-0.230	0.033
-682.266	323.228	-0.092	-0.180
-681.251	-55.920	-0.113	-0.051
-680.237	-142.959	0.125	0.012
-679.222	3.532	-0.128	-0.095
-678.208	-172.989	0.273	0.009
-677.193	800.000	0.028	0.094
-676.178	475.457	-0.046	0.107
-675.164	-18.242	-0.132	-0.085
-674.149	-200.000	0.009	-0.053
-673.135	-114.043	0.115	-0.023
-672.120	448.104	-0.072	-0.163
-671.105	-47.295	0.189	0.094
-670.091	-38.465	-0.341	-0.184
-669.076	158.961	0.172	0.244
-668.062	800.000	-0.107	0.308
-667.047	217.341	-0.150	0.243
-666.032	-6.701	-0.232	-0.161
-665.018	-59.947	-0.197	0.086
-664.003	135.983	0.052	0.068
-662.989	37.472	-0.098	0.089
-661.974	-91.820	0.053	0.015
-660.959	278.473	0.046	0.084
-659.945	-153.847	-0.197	-0.014
-658.930	-39.805	0.335	0.178
-657.916	800.000	-0.056	-0.185
-656.901	-200.000	-0.041	-0.528
-655.886	-27.081	0.276	-0.164
-654.872	130.490	0.094	-0.122
-653.857	-100.397	-0.189	0.048
-652.843	-200.000	-0.013	-0.232
-651.828	-200.000	0.009	0.189
-650.814	293.751	0.075	-0.139
-649.799	-50.146	0.235	0.113
-648.784	-89.494	-0.175	-0.052
-647.770	209.626	0.136	-0.217
-646.755	151.491	-0.161	-0.223
-645.741	-36.450	0.221	0.122
-644.726	-98.652	0.111	0.029
-643.711	800.000	-0.149	0.544
-642.697	314.346	0.071	0.137
-641.682	233.494	-0.093	0.156
-640.668	117.502	-0.055	0.069
-639.653	112.704	0.070	0.087
-638.638	85.192	-0.166	-0.186
-637.624	205.941	-0.067	-0.107
-636.609	800.000	-0.016	0.054
-635.595	-200.000	-0.401	0.002
-634.580	-37.340	0.135	0.074
-633.565	21.406	-0.188	0.155
-632.551	9.215	-0.227	-0.175
-631.536	145.817	-0.150	-0.205
-630.522	301.542	-0.203	-0.383
-629.507	3.357	-0.201	-0.149
-628.492	12.109	-0.108	-0.085
-627.478	328.457	-0.067	0.132
-626.463	342.537	0.091	0.181
-625.449	-200.000	0.020	-0.236
-624.434	126.028	-0.263	-0.338
-623.419	-200.000	0.004	-0.202
-622.405	-59.675	-0.141	-0.062
-621.390	-14.750	-0.354	-0.231
-620.376	-97.396	-0.186	0.049
-619.361	526.526	-0.075	-0.180
-618.346	100.294	-0.082	-0.097
-617.332	-200.000	-0.026	0.151
-616.317	-200.000	-0.113	-0.000
-615.303	-70.969	0.199	-0.076
-614.288	-43.460	-0.239	-0.123
-613.273	-68.815	-0.208	0.082
-612.259	-118.356	0.086	0.015
-611.244	800.000	0.099	-0.410
-610.230	-26.147	0.063	0.038
-609.215	-153.510	0.116	0.008
-608.201	-86.685	0.178	0.056
-607.186	548.161	-0.045	-0.109
-606.171	-32.974	-0.135	0.076
-605.157	61.602	-0.062	-0.062
-604.142	252.085	-0.130	-0.226
-603.128	-200.000	0.029	0.297
-602.113	800.000	-0.045	0.167
-601.098	381.624	-0.128	-0.267
-600.084	-200.000	-0.030	0.162
-599.069	-116.486	-0.173	-0.033
-598.055	-92.828	0.035	0.010
-597.040	-98.928	-0.457	-0.118
-596.025	69.979	-0.151	-0.159
-595.011	-128.614	-0.190	0.027
-593.996	54.450	-0.250	0.245
-592.982	285.728	0.187	0.343
-591.967	54.239	0.101	0.099
-590.952	487.929	0.104	-0.242
-589.938	-77.185	0.167	-0.059
-588.923	800.000	-0.092	0.279
-587.909	-175.506	0.265	-0.007
-586.894	-67.101	0.182	0.073
-585.879	517.818	0.165	-0.393
-584.865	-3.261	0.214	-0.152
-583.850	-58.323	0.220	0.097
-582.836	-131.045	-0.071	0.010
-581.821	217.300	-0.118	0.191
-580.806	227.510	0.160	0.265
-579.792	76.448	0.196	-0.211
-578.777	-134.747	0.171	0.021
-577.763	-98.900	0.221	-0.057
-576.748	249.261	-0.077	0.133
-575.733	64.529	0.171	0.176
-574.719	-200.000	-0.011	-0.350
-573.704	-156.483	0.387	-0.025
-572.690	-200.000	-0.012	-0.242
-571.675	-81.797	-0.235	-0.078
-570.661	80.453	0.135	0.148
-569.646	800.000	0.007	0.023
-568.631	0.614	-0.419	0.305
-567.617	-21.392	0.130	-0.081
-566.602	-9.142	0.275	-0.187
-565.588	800.000	-0.077	-0.241
-564.573	-12.752	-0.154	0.102
-563.558	29.423	-0.050	0.043
-562.544	-104.330	-0.102	0.024
-561.529	74.328	0.081	-0.086
-560.515	-146.432	-0.125	-0.011
-559.500	183.824	0.102	-0.153
-558.485	-200.000	0.049	0.375
-557.471	229.489	-0.165	0.273
-556.456	-200.000	-0.102	0.000
-555.442	-25.956	0.247	-0.148
-554.427	641.138	0.057	0.147
-553.412	-159.010	-0.379	0.022
-552.398	6.277	0.176	-0.133
-551.383	242.812	0.068	-0.116
-550.369	-80.954	-0.090	-0.030
-549.354	-5.582	0.095	-0.066
-548.339	-7.338	0.237	-0.163
-547.325	316.805	-0.041	-0.079
-546.310	-56.171	0.017	-0.008
-545.296	-49.566	-0.275	0.133
-544.281	51.531	-0.122	-0.118
-543.266	145.592	-0.118	0.161
-542.252	161.195	-0.026	-0.037
-541.237	292.848	0.184	0.340
-540.223	-200.000	-0.048	0.386
-539.208	344.410	-0.126	0.251
-538.193	-93.807	-0.295	-0.082
-537.179	-51.791	-0.468	0.221
-536.164	-200.000	-0.022	-0.147
-535.150	-48.235	-0.239	0.117
-534.135	800.000	0.118	0.384
-533.121	-136.190	0.197	-0.023
-532.106	-31.782	-0.122	0.069
-531.091	-200.000	-0.017	-0.202
-530.077	-48.038	-0.142	-0.069
-529.062	-30.020	0.126	-0.073
-528.048	-40.291	0.079	0.042
-527.033	76.630	-0.006	0.006
-526.018	-20.815	0.081	-0.051
-525.004	-122.878	0.076	-0.012
-523.989	-200.000	0.037	-0.251
-522.975	-17.243	0.106	-0.068
-521.960	-144.349	-0.209	-0.020
-520.945	-23.352	0.087	-0.053
-519.931	378.546	0.012	0.024
-518.916	200.634	-0.045	0.070
-517.902	-200.000	-0.038	-0.257
-516.887	-115.836	0.236	0.045
-515.872	-95.299	-0.224	-0.061
-514.858	800.000	-0.068	-0.289
-513.843	-63.022	0.334	0.140
-512.829	-68.883	-0.047	-0.018
-511.814	-30.225	0.148	0.085
-510.799	53.773	0.212	-0.207
-509.785	44.446	0.220	0.205
-508.770	64.008	-0.208	-0.212
-507.756	-1.235	0.081	-0.058
-506.741	91.113	-0.031	-0.035
-505.726	-88.315	-0.221	0.067
-504.712	-71.066	-0.444	0.169
-503.697	-93.691	-0.480	-0.134
-502.683	119.525	0.191	0.240
-501.668	-28.851	0.224	0.131
-500.653	-200.000	-0.022	0.319
-499.639	-200.000	-0.006	0.173
-498.624	-195.021	0.106	-0.001
-497.610	29.203	-0.185	0.159
-496.595	-20.963	-0.233	-0.144
-495.581	-88.699	-0.181	0.055
-494.566	800.000	0.058	0.189
-493.551	325.391	-0.139	0.269
-492.537	-91.191	-0.512	-0.149
-491.522	-111.512	-0.214	0.044
-490.508	800.000	0.064	-0.184
-489.493	-181.390	0.262	0.005
-488.478	-89.984	-0.271	0.080
-487.464	-185.319	0.273	-0.004
-486.449	-123.770	0.107	0.017
-485.435	-200.000	-0.013	0.232
-484.420	-0.954	0.226	-0.162
-483.405	800.000	0.028	0.108
-482.391	47.387	-0.231	0.218
-481.376	63.271	-0.156	-0.158
-480.362	-200.000	0.001	-0.028
-479.347	-188.614	-0.404	0.005
-478.332	-7.440	0.082	-0.056
-477.318	-168.808	0.232	-0.009
-476.303	-68.474	0.062	0.024
-475.289	-53.777	-0.090	-0.041
-474.274	623.413	0.045	-0.116
-473.259	-105.750	-0.133	0.031
-472.245	-74.183	0.189	0.069
-471.230	-85.160	0.197	0.063
-470.216	-10.921	-0.060	-0.040
-469.201	-96.597	-0.179	-0.048
-468.186	175.177	-0.178	-0.261
-467.172	800.000	0.090	-0.276
-466.157	-62.126	-0.459	0.194
-465.143	-90.284	-0.051	0.015
-464.128	-39.209	0.405	0.215
-463.113	13.087	0.146	0.115
-462.099	-200.000	-0.053	-0.535
-461.084	141.474	-0.162	0.217
-460.070	-9.153	0.096	0.065
-459.055	-200.000	-0.017	-0.225
-458.040	295.467	0.170	0.315
-457.026	-200.000	-0.023	-0.116
-456.011	-200.000	-0.007	0.158
-454.997	36.575	0.410	-0.366
-453.982	289.077	-0.021	0.039
-452.968	800.000	0.082	-0.254
-451.953	800.000	-0.113	-0.328
-450.938	-120.652	-0.294	0.050
-449.924	800.000	-0.075	0.232
-448.909	-2.534	0.260	-0.184
-447.895	13.687	-0.121	0.095
-446.880	-36.834	0.109	-0.059
-445.865	-200.000	-0.040	0.254
-444.851	-200.000	-0.037	-0.306
-443.836	-200.000	-0.089	-0.414
-442.822	-179.680	-0.141	-0.003
-441.807	-92.723	-0.174	0.049
-440.792	-37.092	0.165	0.089
-439.778	-200.000	-0.002	-0.255
-438.763	329.864	-0.033	-0.064
-437.749	-63.153	-0.178	0.074
-436.734	135.229	0.240	0.315
-435.719	-110.261	-0.178	0.037
-434.705	134.405	-0.036	0.047
-433.690	-200.000	0.031	0.166
-432.676	-103.003	-0.245	-0.059
-431.661	-200.000	0.056	0.277
-430.646	-5.770	-0.093	-0.064
-429.632	-200.000	-0.023	0.192
-428.617	-54.238	-0.119	-0.055
-427.603	379.060	-0.035	0.072
-426.588	15.779	-0.115	-0.092
-425.573	70.115	-0.143	-0.149
-424.559	116.709	0.116	-0.144
-423.544	269.754	-0.051	0.090
-422.530	-200.000	-0.029	0.241
-421.515	84.882	0.023	0.026
-420.500	107.566	0.105	-0.126
-419.486	-168.650	0.137	-0.005
-418.471	34.857	-0.130	0.115
-417.457	-74.535	0.243	-0.088
-416.442	380.517	-0.071	-0.148
-415.428	13.906	0.066	-0.052
-414.413	-200.000	-0.033	-0.152
-413.398	640.575	0.023	-0.060
-412.384	239.846	-0.129	-0.218
-411.369	10.213	-0.114	-0.088
-410.355	-41.180	-0.296	-0.155
-409.340	48.954	0.314	0.298
-408.325	182.247	-0.032	0.047
-407.311	-182.382	-0.146	0.003
-406.296	-146.059	0.257	-0.023
-405.282	102.347	0.131	0.155
-404.267	800.000	-0.071	-0.206
-403.252	164.692	0.100	-0.143
-402.238	800.000	0.032	-0.131
-401.223	-64.621	-0.034	0.014
-400.209	-54.560	0.294	-0.134
-399.194	-56.735	0.118	-0.053
-398.179	540.622	-0.150	-0.360
-397.165	-99.466	0.198	0.050
-396.150	-12.968	0.255	0.168
-395.136	-200.000	0.000	0.225
-394.121	121.617	-0.082	-0.103
-393.106	-66.168	-0.418	-0.168
-392.092	-64.032	0.054	0.022
-391.077	-200.000	0.038	-0.402
-390.063	6.477	-0.136	-0.102
-389.048	-0.128	0.087	-0.063
-388.033	131.868	0.143	0.186
-387.019	-200.000	-0.015	-0.087
-386.004	-166.454	-0.119	-0.005
-384.990	-200.000	0.015	-0.077
-383.975	-200.000	-0.013	0.069
-382.960	800.000	0.026	-0.087
-381.946	83.384	-0.068	0.075
-380.931	-98.792	-0.246	0.063
-379.917	227.317	0.102	-0.167
-378.902	149.070	-0.246	-0.336
-377.888	287.113	0.189	0.345
-376.873	-1.100	-0.120	0.085
-375.858	466.897	0.103	0.233
-374.844	-200.000	-0.045	0.317
-373.829	-125.235	-0.079	0.012
-372.815	-92.557	-0.188	0.053
-371.800	800.000	0.062	0.196
-370.785	800.000	-0.096	-0.319
-369.771	-200.000	0.044	-0.209
-368.756	104.665	0.095	0.113
-367.742	-200.000	0.022	0.263
-366.727	45.046	-0.224	-0.208
-365.712	104.558	0.019	0.023
-364.698	-80.897	-0.162	0.054
-363.683	-22.514	-0.041	-0.025
-362.669	800.000	0.054	-0.174
-361.654	-136.881	0.380	0.044
-360.639	11.773	-0.320	0.248
-359.625	356.219	-0.167	0.335
-358.610	-200.000	-0.118	-0.562
-357.596	-146.663	0.427	-0.037
-356.581	-10.630	-0.220	-0.146
-355.566	203.699	-0.075	0.117
-354.552	800.000	0.057	0.222
-353.537	580.096	0.059	-0.146
-352.523	-137.400	-0.104	0.012
-351.508	-70.993	0.137	0.052
-350.493	181.203	-0.165	-0.244
-349.479	-45.072	0.090	0.045
-348.464	44.376	0.191	-0.177
-347.450	-200.000	0.051	-0.250
-346.435	353.495	0.144	0.288
-345.420	279.855	-0.081	0.145
-344.406	-200.000	0.007	0.180
-343.391	-200.000	-0.016	0.138
-342.377	-6.461	0.116	-0.080
-341.362	-72.536	-0.343	0.127
-340.348	-107.868	0.051	-0.011
-339.333	800.000	0.077	-0.255
-338.318	211.447	0.111	-0.177
-337.304	521.744	0.103	-0.243
-336.289	69.703	0.124	0.129
-335.275	271.883	0.053	-0.093
-334.260	159.271	0.147	-0.206
-333.245	-82.466	-0.133	0.043
-332.231	-200.000	0.023	-0.107
-331.216	-96.285	-0.184	-0.049
-330.202	159.427	0.131	-0.184
-329.187	-198.043	-0.219	-0.001
-328.172	-5.831	0.241	0.166
-327.158	-200.000	-0.026	-0.156
-326.143	-32.104	0.200	0.113
-325.129	-189.449	-0.061	-0.001
-324.114	-81.485	0.449	0.149
-323.099	648.822	0.094	0.243
-322.085	-99.930	-0.307	0.077
-321.070	-200.000	-0.020	0.197
-320.056	620.076	0.046	0.117
-319.041	-200.000	0.064	0.329
-318.026	-200.000	-0.006	0.289
-317.012	25.651	0.150	0.125
-315.997	402.434	-0.108	-0.228
-314.983	-95.330	0.252	0.068
-313.968	800.000	0.064	0.280
-312.953	-200.000	0.007	-0.155
-311.939	93.135	-0.246	0.280
-310.924	121.571	-0.115	0.144
-309.910	-200.000	0.038	-0.230
-308.895	-142.570	-0.034	-0.003
-307.880	800.000	0.061	0.229
-306.866	625.740	0.071	0.181
-305.851	167.837	-0.137	0.196
-304.837	246.760	0.124	-0.210
-303.822	800.000	0.073	0.289
-302.807	-78.050	0.281	0.097
-301.793	104.846	0.128	0.152
-300.778	-6.964	0.146	0.100
-299.764	59.179	0.167	-0.166
-298.749	221.701	0.184	0.297
-297.735	-71.778	-0.209	-0.078
-296.720	-65.588	0.113	0.046
-295.705	-200.000	-0.038	0.320
-294.691	800.000	-0.026	-0.090
-293.676	-131.020	-0.421	0.057
-292.662	21.361	0.117	0.096
-291.647	-176.062	0.176	-0.005
-290.632	171.195	-0.083	0.120
-289.618	-81.546	0.367	0.121
-288.603	-64.270	0.173	-0.071
-287.589	-22.660	0.232	-0.141
-286.574	800.000	0.068	-0.247
-285.559	2.454	-0.200	-0.145
-284.545	17.644	-0.273	-0.218
-283.530	382.880	0.078	0.161
-282.516	-104.036	-0.110	0.026
-281.501	-200.000	0.032	0.160
-280.486	1.460	0.038	-0.027
-279.472	-146.320	0.228	-0.020
-278.457	74.567	-0.103	0.109
-277.443	103.053	-0.099	0.117
-276.428	-155.420	-0.050	-0.003
-275.413	800.000	0.020	-0.065
-274.399	362.238	-0.048	0.097
-273.384	-175.326	-0.282	-0.008
-272.370	199.699	0.236	-0.363
-271.355	-79.337	0.236	-0.080
-270.340	216.778	0.093	-0.149
-269.326	-200.000	-0.018	0.206
-268.311	-200.000	0.001	0.086
-267.297	800.000	-0.081	0.312
-266.282	-81.818	-0.442	0.145
-265.267	-107.770	0.287	-0.063
-264.253	13.086	-0.102	-0.080
-263.238	-51.296	0.311	-0.146
-262.224	-200.000	-0.026	0.125
-261.209	-200.000	0.005	0.141
-260.195	-200.000	-0.086	0.519
-259.180	-200.000	0.054	0.356
-258.165	146.090	0.098	-0.132
-257.151	-32.163	0.044	0.025
-256.136	231.055	-0.138	-0.227
-255.122	119.368	-0.088	0.109
-254.107	800.000	-0.061	0.187
-253.092	115.030	0.024	0.029
-252.078	52.429	-0.336	-0.322
-251.063	49.619	0.098	-0.093
-250.049	-75.872	0.173	0.061
-249.034	-103.179	0.358	0.085
-248.019	-66.139	0.195	0.078
-247.005	33.859	-0.389	0.340
-245.990	17.857	0.175	-0.140
-244.976	-111.798	0.329	-0.067
-243.961	47.248	-0.291	0.272
-242.946	-118.754	0.316	-0.056
-241.932	74.299	0.263	0.277
-240.917	-54.687	0.297	-0.135
-239.903	-94.011	-0.099	0.027
-238.888	-19.648	-0.208	0.129
-237.873	-107.658	0.260	0.057
-236.859	-12.115	0.157	0.103
-235.844	123.776	0.233	-0.294
-234.830	-117.196	-0.196	-0.036
-233.815	-200.000	0.004	-0.151
-232.800	648.878	0.081	-0.207
-231.786	-200.000	-0.033	-0.337
-230.771	133.343	0.086	0.112
-229.757	-31.281	0.372	-0.210
-228.742	131.257	0.089	-0.114
-227.727	126.795	0.014	-0.018
-226.713	-37.554	-0.197	-0.105
-225.698	-168.534	-0.152	0.006
-224.684	-72.280	-0.187	-0.070
-223.669	-75.516	0.226	-0.081
-222.655	22.603	-0.084	-0.069
-221.640	-85.549	0.209	-0.065
-220.625	169.009	-0.052	-0.074
-219.611	-61.008	-0.353	0.150
-218.596	800.000	0.070	0.223
-217.582	-63.754	0.294	0.121
-216.567	304.315	0.122	-0.226
-215.552	104.416	0.078	0.093
-214.538	569.278	-0.073	0.179
-213.523	11.998	-0.173	0.133
-212.509	-154.775	-0.276	-0.018
-211.494	-135.790	-0.111	0.013
-210.479	21.677	-0.135	-0.110
-209.465	-200.000	0.005	-0.228
-208.450	-114.884	0.361	-0.069
-207.436	-33.750	0.291	0.161
-206.421	-159.304	0.289	-0.016
-205.406	800.000	0.043	-0.118
-204.392	349.549	-0.154	-0.306
-203.377	772.738	0.078	0.214
-202.363	-92.581	-0.081	-0.023
-201.348	-89.567	-0.321	-0.094
-200.333	-93.957	-0.155	0.043
-199.319	-56.994	-0.185	-0.082
-198.304	800.000	-0.035	-0.110
-197.290	-1.052	-0.188	-0.133
-196.275	-13.592	-0.088	0.057
-195.260	196.377	0.143	-0.219
-194.246	-200.000	-0.063	0.394
-193.231	125.831	-0.044	-0.055
-192.217	35.583	-0.085	0.075
-191.202	244.847	0.203	0.341
-190.187	-180.623	0.343	-0.007
-189.173	-200.000	-0.008	0.171
-188.158	-83.903	0.187	-0.060
-187.144	-200.000	0.075	0.337
-186.129	340.412	-0.080	-0.156
-185.114	-58.421	-0.114	-0.050
-184.100	-143.125	0.368	-0.035
-183.085	-200.000	-0.001	-0.005
-182.071	-33.728	-0.117	-0.065
-181.056	-60.243	0.355	-0.152
-180.042	15.966	-0.287	-0.227
-179.027	-117.089	-0.082	0.015
-178.012	-84.332	0.243	0.077
-176.998	-104.083	-0.135	0.031
-175.983	341.957	-0.125	-0.244
-174.969	-169.105	0.295	0.011
-173.954	-111.016	0.388	0.080
-172.939	2.577	0.402	-0.292
-171.925	-58.186	-0.157	0.069
-170.910	-69.642	-0.244	0.094
-169.896	-200.000	-0.055	0.245
-168.881	-133.706	0.010	-0.001
-167.866	463.275	-0.027	0.061
-166.852	8.544	0.044	0.033
-165.837	-16.489	0.254	-0.161
-164.823	800.000	0.026	-0.080
-163.808	77.285	0.127	-0.136
-162.793	-43.808	0.034	0.017
-161.779	800.000	0.080	0.256
-160.764	22.850	0.084	-0.069
-159.750	-179.546	-0.281	0.006
-158.735	-65.307	-0.254	0.102
-157.720	38.918	0.120	0.107
-156.706	-170.848	0.241	-0.008
-155.691	644.230	0.104	-0.264
-154.677	205.246	-0.062	-0.096
-153.662	162.382	0.149	-0.209
-152.647	-45.570	-0.244	-0.121
-151.633	-128.889	0.255	-0.036
-150.618	-77.172	-0.138	0.048
-149.604	-200.000	-0.043	-0.211
-148.589	95.624	0.192	0.219
-147.574	61.250	0.045	-0.045
-146.560	416.448	0.076	0.163
-145.545	147.481	-0.108	0.146
-144.531	-187.463	-0.079	0.001
-143.516	-90.809	0.177	-0.051
-142.502	-108.193	-0.110	-0.024
-141.487	-43.692	0.239	-0.120
-140.472	-13.878	0.144	0.093
-139.458	18.633	-0.235	-0.188
-138.443	-194.085	-0.231	-0.002
-137.429	162.566	0.150	-0.210
-136.414	-200.000	0.018	-0.404
-135.399	800.000	-0.059	-0.197
-134.385	-69.716	-0.120	-0.046
-133.370	-67.178	0.118	-0.046
-132.356	-32.624	0.172	-0.096
-131.341	243.478	0.160	0.269
-130.326	125.477	-0.070	0.088
-129.312	232.404	-0.018	0.029
-128.297	-200.000	-0.019	0.200
-127.283	-200.000	-0.022	0.197
-126.268	-200.000	-0.097	0.506
-125.253	438.063	-0.020	0.044
-124.239	205.514	0.071	0.111
-123.224	338.960	-0.183	-0.356
-122.210	800.000	0.024	0.081
-121.195	-70.096	-0.273	-0.104
