DTS Sentinel unit serial number:	SN413079Multiplexer serial number:	ORYXHardware model number:	OX4-SRSoftware version number:	ORYX F/W v4.00 Oryx Data Collector v3.7.2.0data status	okinstallation	princeton_trtdifferential loss correction	single-endedforward channel	channel 3reverse channel	N/Adate	2019/09/10time	22:10:11forward acquisition time	60.00reverse acquisition time	0.00gamma	496.2192k internal	0.2330k external	0.2330temperature offset calibration	0.9922default loss term (dB/km)	0.3790temperature slope calibration	1.0000multiplexer offset coefficient	1.0000multiplexer slope coefficient	1.0000fibre end	0.00T internal ref (°C)	30.56T ext. ref 1 (°C)	-0.32T ext. ref 2 (°C)	23.93length (m)	temperature (°C)	Stokes	anti-Stokes-747.200	-71.289	0.294	0.111
-746.185	781.069	-0.061	0.168
-745.171	703.769	0.105	0.279
-744.156	3.546	0.262	0.192
-743.142	-73.328	0.302	-0.111
-742.127	-163.706	-0.269	0.013
-741.112	78.943	0.212	0.229
-740.098	447.125	-0.164	0.362
-739.083	-103.279	0.438	0.104
-738.069	479.414	-0.111	0.254
-737.054	124.555	-0.056	-0.071
-736.039	-200.000	0.007	-0.141
-735.025	7.126	0.229	-0.172
-734.010	164.604	-0.097	-0.138
-732.996	475.778	0.077	-0.176
-731.981	-56.620	-0.086	0.039
-730.966	-107.442	0.473	-0.105
-729.952	-200.000	-0.027	-0.317
-728.937	-200.000	0.040	0.180
-727.923	-38.980	-0.203	-0.108
-726.908	-92.786	-0.124	-0.035
-725.894	-16.287	0.254	0.162
-724.879	426.456	0.022	-0.047
-723.864	-200.000	-0.083	-0.427
-722.850	84.072	-0.053	-0.059
-721.835	15.005	0.141	0.111
-720.821	37.750	-0.189	-0.169
-719.806	-99.711	-0.179	0.045
-718.791	-34.695	-0.231	0.127
-717.777	218.599	0.112	0.180
-716.762	800.000	0.037	0.123
-715.748	800.000	0.076	-0.241
-714.733	-92.337	-0.375	0.106
-713.718	-72.270	-0.214	0.080
-712.704	625.491	0.034	-0.085
-711.689	-94.123	-0.182	-0.050
-710.675	-200.000	0.000	-0.012
-709.660	117.086	0.220	0.272
-708.645	-111.448	-0.589	0.121
-707.631	109.724	0.073	0.087
-706.616	-200.000	0.040	0.248
-705.602	356.345	-0.115	0.230
-704.587	-200.000	-0.079	-0.432
-703.572	-200.000	0.034	-0.289
-702.558	372.090	0.049	-0.101
-701.543	237.912	0.158	-0.264
-700.529	-45.264	0.234	-0.117
-699.514	70.538	0.123	-0.128
-698.499	-69.469	0.270	-0.104
-697.485	-34.960	-0.193	0.106
-696.470	-200.000	-0.034	0.193
-695.456	446.820	0.151	0.334
-694.441	346.445	0.048	0.096
-693.426	0.174	-0.124	-0.089
-692.412	-71.812	-0.211	-0.079
-691.397	346.742	-0.097	0.192
-690.383	84.131	-0.016	-0.018
-689.368	-111.869	0.212	-0.043
-688.354	800.000	-0.080	-0.277
-687.339	251.651	-0.150	0.257
-686.324	41.171	-0.201	-0.182
-685.310	163.625	-0.045	-0.064
-684.295	-81.148	-0.323	0.107
-683.281	89.785	0.122	-0.137
-682.266	-118.020	0.339	0.061
-681.251	607.420	-0.049	-0.123
-680.237	800.000	0.036	-0.119
-679.222	-177.165	0.159	0.004
-678.208	-73.932	0.139	-0.051
-677.193	-29.929	0.126	-0.072
-676.178	268.135	-0.123	0.217
-675.164	-81.225	0.166	-0.055
-674.149	800.000	0.022	-0.090
-673.135	105.250	-0.214	-0.254
-672.120	-94.463	0.036	-0.010
-671.105	109.600	0.138	0.166
-670.091	-200.000	0.030	-0.179
-669.076	105.048	-0.196	-0.233
-668.062	281.216	0.226	-0.407
-667.047	167.999	-0.059	-0.084
-666.032	718.085	0.068	-0.180
-665.018	-200.000	-0.042	-0.191
-664.003	-195.951	-0.174	0.001
-662.989	-24.470	-0.463	0.277
-661.974	220.616	-0.076	0.123
-660.959	30.369	-0.146	-0.126
-659.945	534.424	-0.193	0.459
-658.930	486.674	0.084	-0.191
-657.916	430.380	-0.116	-0.252
-656.901	115.874	-0.129	0.159
-655.886	-24.886	-0.284	0.169
-654.872	-200.000	-0.005	-0.239
-653.857	-200.000	0.007	-0.168
-652.843	195.884	-0.144	-0.219
-651.828	151.021	-0.135	-0.184
-650.814	288.203	-0.079	0.143
-649.799	565.294	0.097	0.235
-648.784	53.809	-0.126	0.122
-647.770	-200.000	0.040	-0.407
-646.755	-144.695	0.129	-0.012
-645.741	800.000	0.073	0.240
-644.726	-110.009	-0.312	-0.065
-643.711	-200.000	0.061	0.460
-642.697	128.122	0.344	-0.439
-641.682	-69.935	0.022	0.009
-640.668	-113.932	-0.436	0.085
-639.653	-141.414	-0.338	0.034
-638.638	800.000	-0.079	-0.280
-637.624	-200.000	0.005	-0.051
-636.609	1.483	-0.055	-0.040
-635.595	-126.496	-0.194	-0.029
-634.580	-200.000	-0.025	-0.314
-633.565	35.455	-0.088	-0.078
-632.551	-200.000	0.028	0.219
-631.536	-101.802	0.135	0.033
-630.522	-103.130	-0.155	-0.037
-629.507	-127.764	-0.198	0.029
-628.492	-20.481	0.113	-0.070
-627.478	-99.880	-0.296	-0.074
-626.463	168.016	0.060	0.086
-625.449	800.000	0.074	-0.252
-624.434	-62.664	0.460	0.191
-623.419	790.983	0.058	-0.160
-622.405	-200.000	-0.024	-0.113
-621.390	487.957	0.031	-0.071
-620.376	-36.597	-0.082	0.044
-619.361	39.709	0.127	0.114
-618.346	-25.037	-0.234	-0.139
-617.332	-200.000	0.006	-0.056
-616.317	-200.000	0.031	-0.205
-615.303	-33.525	-0.052	-0.029
-614.288	-200.000	0.008	-0.174
-613.273	-91.179	-0.358	0.103
-612.259	-135.713	-0.195	-0.023
-611.244	-200.000	-0.036	-0.168
-610.230	-115.624	0.344	0.065
-609.215	3.317	-0.254	0.185
-608.201	181.904	0.178	0.263
-607.186	-129.774	-0.320	-0.044
-606.171	-12.382	-0.155	0.101
-605.157	-9.843	-0.165	0.110
-604.142	-73.805	0.081	-0.029
-603.128	14.646	-0.296	-0.232
-602.113	281.440	-0.079	0.143
-601.098	6.004	0.204	0.151
-600.084	-200.000	-0.009	-0.186
-599.069	-200.000	-0.002	-0.240
-598.055	-190.771	-0.100	-0.001
-597.040	71.384	-0.067	-0.069
-596.025	408.447	0.105	-0.222
-595.011	43.335	-0.240	-0.220
-593.996	119.871	-0.142	-0.176
-592.982	450.574	-0.178	-0.393
-591.967	9.123	-0.176	-0.133
-590.952	-67.860	0.215	0.084
-589.938	-78.983	0.201	0.068
-588.923	-18.379	-0.318	0.199
-587.909	800.000	0.067	-0.220
-586.894	-64.664	-0.155	0.063
-585.879	-86.173	-0.089	-0.027
-584.865	77.591	0.228	-0.243
-583.850	-91.608	-0.286	-0.081
-582.836	391.198	-0.117	0.243
-581.821	269.826	-0.106	0.187
-580.806	-43.561	0.341	0.172
-579.792	118.583	0.079	-0.098
-578.777	-200.000	-0.012	0.101
-577.763	-13.834	-0.227	-0.147
-576.748	-200.000	0.086	0.379
-575.733	25.739	0.150	-0.125
-574.719	-82.877	0.205	0.066
-573.704	61.579	0.130	-0.129
-572.690	800.000	0.095	0.367
-571.675	36.022	-0.136	-0.120
-570.661	-6.217	0.186	0.127
-569.646	-150.381	-0.242	0.019
-568.631	173.188	-0.277	0.399
-567.617	-94.868	-0.137	0.037
-566.602	-157.729	-0.353	-0.021
-565.588	800.000	0.086	0.334
-564.573	128.611	-0.328	0.418
-563.558	800.000	-0.036	-0.100
-562.544	-73.663	-0.232	-0.085
-561.529	-14.887	0.102	-0.065
-560.515	50.009	0.248	0.234
-559.500	800.000	-0.058	0.173
-558.485	-97.106	-0.193	-0.051
-557.471	-19.237	-0.343	-0.213
-556.456	-30.396	0.303	0.172
-555.442	33.966	0.220	-0.192
-554.427	-110.994	-0.146	-0.030
-553.412	-96.879	-0.047	0.012
-552.398	707.671	0.080	-0.211
-551.383	116.544	0.037	0.045
-550.369	-159.222	-0.432	-0.024
-549.354	259.231	-0.161	0.277
-548.339	73.574	-0.094	-0.098
-547.325	-79.466	-0.163	0.055
-546.310	-86.092	0.161	-0.050
-545.296	-139.780	0.074	0.008
-544.281	-56.866	-0.139	-0.061
-543.266	71.230	0.155	-0.161
-542.252	800.000	-0.098	0.310
-541.237	-200.000	0.005	-0.153
-540.223	-71.552	0.313	0.117
-539.208	232.181	-0.068	-0.112
-538.193	-76.497	0.140	0.049
-537.179	-195.133	-0.212	0.002
-536.164	800.000	-0.028	-0.098
-535.150	211.079	-0.122	0.192
-534.135	-42.666	0.201	-0.102
-533.121	-200.000	-0.038	0.368
-532.106	105.504	-0.112	0.132
-531.091	-168.875	0.383	0.014
-530.077	-6.088	-0.287	0.196
-529.062	-200.000	0.007	-0.135
-528.048	-166.924	-0.142	0.006
-527.033	-87.414	0.158	0.048
-526.018	-87.640	-0.048	0.015
-525.004	22.814	-0.365	-0.299
-523.989	405.540	-0.098	0.207
-522.975	-200.000	-0.125	0.000
-521.960	153.486	-0.036	0.049
-520.945	-92.242	-0.179	0.050
-519.931	-71.860	0.201	0.075
-518.916	-67.337	-0.209	0.082
-517.902	800.000	-0.041	-0.133
-516.887	110.815	-0.266	-0.319
-515.872	-46.855	0.053	-0.026
-514.858	487.539	-0.100	0.228
-513.843	44.165	0.061	0.056
-512.829	-64.906	-0.213	-0.086
-511.814	137.424	0.164	-0.214
-510.799	-200.000	0.002	0.330
-509.785	236.610	-0.078	0.129
-508.770	44.831	0.073	0.067
-507.756	-1.864	-0.175	0.123
-506.741	14.753	0.057	-0.044
-505.726	-87.654	-0.143	-0.043
-504.712	800.000	-0.093	0.301
-503.697	-29.636	-0.182	0.103
-502.683	45.927	0.101	0.093
-501.668	-118.289	-0.322	-0.057
-500.653	64.514	0.164	-0.165
-499.639	-144.705	0.180	-0.017
-498.624	-78.561	0.265	-0.091
-497.610	-40.714	-0.257	-0.133
-496.595	-114.737	0.378	0.072
-495.581	-200.000	-0.006	0.155
-494.566	-21.847	0.074	0.045
-493.551	164.931	-0.093	0.131
-492.537	427.497	-0.102	0.219
-491.522	64.962	0.222	0.224
-490.508	58.150	-0.268	-0.262
-489.493	99.214	-0.147	-0.169
-488.478	27.890	-0.170	-0.143
-487.464	4.204	0.120	-0.088
-486.449	-184.214	-0.397	-0.007
-485.435	-150.761	0.454	-0.034
-484.420	-121.156	-0.141	0.024
-483.405	-1.138	-0.191	-0.135
-482.391	172.329	-0.044	-0.062
-481.376	-86.650	0.287	-0.088
-480.362	-200.000	0.027	-0.369
-479.347	-80.362	-0.379	0.126
-478.332	800.000	0.072	-0.216
-477.318	181.257	-0.079	-0.115
-476.303	336.394	-0.071	-0.137
-475.289	-200.000	0.026	-0.381
-474.274	-183.720	0.487	0.008
-473.259	-97.175	0.340	0.089
-472.245	247.381	0.187	0.315
-471.230	439.634	-0.062	-0.135
-470.216	149.991	0.101	-0.136
-469.201	48.615	0.066	0.062
-468.186	392.682	0.157	-0.324
-467.172	-200.000	-0.021	-0.202
-466.157	23.291	0.105	0.086
-465.143	-39.638	-0.315	-0.164
-464.128	-186.801	0.243	0.003
-463.113	91.118	-0.129	0.144
-462.099	-200.000	-0.331	-0.001
-461.084	-90.452	0.220	-0.063
-460.070	-200.000	0.007	-0.204
-459.055	800.000	-0.030	0.119
-458.040	800.000	-0.083	0.340
-457.026	540.378	0.114	0.271
-456.011	575.583	-0.168	0.408
-454.997	-140.187	0.126	-0.013
-453.982	51.945	0.187	0.177
-452.968	-6.596	-0.104	-0.070
-451.953	800.000	0.013	0.051
-450.938	221.247	-0.187	-0.299
-449.924	-6.507	0.182	-0.123
-448.909	157.788	-0.149	0.205
-447.895	800.000	-0.024	-0.076
-446.880	-200.000	0.006	-0.227
-445.865	-98.096	0.145	0.037
-444.851	235.508	0.154	-0.254
-443.836	800.000	-0.036	-0.158
-442.822	-95.410	0.254	-0.068
-441.807	-103.590	-0.058	0.013
-440.792	800.000	-0.040	0.142
-439.778	440.714	-0.117	0.254
-438.763	19.786	-0.248	0.199
-437.749	800.000	-0.081	0.324
-436.734	-2.289	0.030	0.021
-435.719	30.521	-0.042	0.035
-434.705	127.128	-0.229	0.290
-433.690	800.000	0.018	-0.053
-432.676	-95.695	-0.293	-0.078
-431.661	-4.896	0.302	-0.207
-430.646	-102.723	-0.259	-0.061
-429.632	312.012	0.076	-0.142
-428.617	-43.066	-0.182	0.092
-427.603	18.090	0.094	0.075
-426.588	-200.000	0.000	-0.146
-425.573	-200.000	-0.039	-0.345
-424.559	190.948	-0.138	0.206
-423.544	-81.896	0.373	0.121
-422.530	-200.000	0.025	0.206
-421.515	53.156	-0.288	-0.274
-420.500	-200.000	0.016	-0.129
-419.486	590.606	0.028	0.068
-418.471	192.126	0.240	-0.360
-417.457	-29.781	0.178	-0.101
-416.442	800.000	0.024	0.077
-415.428	-112.186	-0.077	-0.015
-414.413	543.491	0.105	-0.248
-413.398	302.460	0.030	-0.055
-412.384	152.015	-0.143	-0.194
-411.369	-92.216	0.105	0.029
-410.355	-76.321	0.329	0.115
-409.340	800.000	0.067	0.228
-408.325	-68.852	-0.278	-0.107
-407.311	800.000	-0.175	-0.533
-406.296	296.966	-0.128	0.233
-405.282	173.934	-0.162	0.232
-404.267	456.251	-0.060	0.132
-403.252	-200.000	0.000	0.157
-402.238	-140.516	0.245	0.025
-401.223	202.957	0.067	0.103
-400.209	30.555	-0.198	-0.168
-399.194	-200.000	0.021	0.118
-398.179	-86.757	0.025	0.008
-397.165	-92.127	-0.109	0.031
-396.150	11.240	0.194	-0.148
-395.136	155.623	0.072	-0.098
-394.121	-49.106	0.237	0.112
-393.106	-112.534	0.118	-0.023
-392.092	65.793	0.165	0.166
-391.077	800.000	0.057	-0.205
-390.063	800.000	0.042	0.158
-389.048	-84.599	0.068	-0.021
-388.033	-200.000	0.011	-0.102
-387.019	18.260	0.133	0.105
-386.004	-117.804	-0.198	-0.035
-384.990	-145.868	0.383	0.034
-383.975	108.553	-0.081	-0.096
-382.960	-60.090	-0.118	-0.050
-381.946	-13.584	-0.344	-0.221
-380.931	494.660	0.048	0.109
-379.917	-200.000	0.042	-0.245
-378.902	-12.709	0.302	0.195
-377.888	-41.088	0.216	0.111
-376.873	800.000	0.044	-0.136
-375.858	364.385	-0.026	-0.051
-374.844	264.215	0.111	-0.192
-373.829	31.243	0.458	-0.390
-372.815	150.251	-0.085	0.114
-371.800	695.705	0.088	0.229
-370.785	439.419	-0.055	0.120
-369.771	800.000	0.122	0.403
-368.756	-62.499	-0.165	0.068
-367.742	-129.259	0.161	-0.022
-366.727	-200.000	0.003	0.075
-365.712	239.543	0.090	-0.149
-364.698	-200.000	-0.001	-0.025
-363.683	240.652	-0.149	-0.247
-362.669	-186.696	-0.348	0.005
-361.654	-200.000	-0.015	-0.210
-360.639	83.080	0.243	-0.262
-359.625	800.000	-0.046	0.152
-358.610	-92.799	-0.099	0.028
-357.596	800.000	-0.046	0.151
-356.581	61.089	-0.048	0.047
-355.566	85.636	0.095	0.103
-354.552	-102.674	0.145	-0.034
-353.537	-182.770	0.102	0.002
-352.523	800.000	-0.013	0.046
-351.508	72.534	0.228	0.235
-350.493	153.654	-0.127	0.172
-349.479	-200.000	-0.015	0.203
-348.464	216.944	-0.044	0.069
-347.450	287.245	0.029	-0.053
-346.435	152.270	-0.098	-0.133
-345.420	291.492	-0.124	0.224
-344.406	161.302	0.101	-0.140
-343.391	-26.035	0.080	-0.047
-342.377	800.000	0.072	-0.244
-341.362	-129.694	0.174	-0.024
-340.348	-132.889	0.265	0.033
-339.333	800.000	-0.053	0.217
-338.318	262.119	0.029	0.050
-337.304	-200.000	-0.010	0.228
-336.289	-17.628	0.143	-0.089
-335.275	319.903	0.038	0.071
-334.260	-193.816	0.104	0.001
-333.245	38.589	0.295	0.260
-332.231	396.653	0.037	0.076
-331.216	800.000	0.048	-0.188
-330.202	-102.321	-0.249	0.059
-329.187	444.703	0.101	0.219
-328.172	-200.000	0.026	0.130
-327.158	-80.375	-0.224	-0.074
-326.143	-68.769	0.481	-0.184
-325.129	-3.795	0.166	-0.114
-324.114	553.236	0.011	-0.027
-323.099	-136.846	0.429	-0.049
-322.085	-34.099	0.152	-0.083
-321.070	214.896	0.035	-0.054
-320.056	-163.277	0.066	-0.003
-319.041	-200.000	0.055	-0.531
-318.026	800.000	-0.054	0.160
-317.012	458.848	-0.055	0.121
-315.997	-125.615	-0.180	-0.027
-314.983	99.547	-0.107	0.123
-313.968	-22.787	0.137	-0.082
-312.953	-200.000	0.002	0.099
-311.939	-146.196	-0.163	0.014
-310.924	-106.493	0.288	0.064
-309.910	107.146	0.016	0.018
-308.895	-200.000	-0.006	0.094
-307.880	-28.623	0.173	-0.098
-306.866	-26.185	-0.032	-0.019
-305.851	21.026	0.104	0.084
-304.837	-62.275	0.257	0.106
-303.822	108.767	0.167	-0.198
-302.807	18.034	-0.108	-0.085
-301.793	-200.000	-0.042	0.322
-300.778	-56.065	-0.150	0.066
-299.764	35.511	0.129	0.112
-298.749	800.000	0.054	-0.180
-297.735	-110.889	0.238	-0.049
-296.720	-101.949	-0.077	0.018
-295.705	251.099	-0.024	-0.040
-294.691	170.105	-0.077	-0.109
-293.676	-118.620	-0.169	0.029
-292.662	-177.728	-0.114	0.003
-291.647	188.995	0.109	-0.162
-290.632	-8.277	0.342	0.228
-289.618	-62.411	-0.161	-0.066
-288.603	-3.359	0.134	0.092
-287.589	-95.352	0.122	-0.032
-286.574	634.864	0.022	-0.056
-285.559	415.383	-0.059	0.125
-284.545	130.720	-0.103	-0.131
-283.530	-148.455	-0.293	0.024
-282.516	-114.701	-0.329	-0.062
-281.501	77.256	0.273	0.287
-280.486	-133.912	0.284	0.035
-279.472	-142.260	-0.337	-0.033
-278.457	-200.000	0.051	0.259
-277.443	-32.489	0.224	0.123
-276.428	-47.395	-0.252	-0.121
-275.413	-165.951	-0.313	-0.013
-274.399	800.000	-0.004	-0.017
-273.384	492.540	-0.096	-0.217
-272.370	-91.212	0.292	-0.083
-271.355	-200.000	0.007	0.088
-270.340	69.516	-0.030	-0.030
-269.326	-24.451	-0.162	-0.096
-268.311	-6.225	0.140	-0.094
-267.297	24.460	-0.211	0.173
-266.282	44.401	0.089	-0.080
-265.267	-38.793	-0.101	0.053
-264.253	800.000	0.049	-0.200
-263.238	63.851	0.118	0.117
-262.224	58.276	0.134	-0.130
-261.209	-200.000	-0.084	0.438
-260.195	800.000	0.040	0.110
-259.180	-200.000	0.033	0.230
-258.165	-160.296	0.127	-0.007
-257.151	800.000	-0.045	0.191
-256.136	416.910	-0.021	-0.044
-255.122	-74.507	-0.137	-0.049
-254.107	194.302	-0.082	-0.124
-253.092	-72.945	0.060	0.022
-252.078	-46.961	0.151	-0.073
-251.063	-200.000	0.074	0.325
-250.049	90.890	-0.132	-0.146
-249.034	732.041	0.135	0.357
-248.019	-11.907	0.083	0.054
-247.005	167.851	-0.160	0.225
-245.990	261.307	0.158	-0.270
-244.976	-76.092	-0.117	-0.041
-243.961	-92.836	-0.623	-0.172
-242.946	-200.000	-0.041	-0.191
-241.932	22.144	-0.237	-0.191
-240.917	572.088	0.027	-0.066
-239.903	211.424	0.044	0.068
-238.888	-122.090	0.059	0.010
-237.873	-200.000	0.036	-0.323
-236.859	-200.000	0.007	-0.067
-235.844	-20.207	0.158	-0.096
-234.830	234.344	0.061	0.099
-233.815	-200.000	0.039	-0.231
-232.800	-156.528	0.155	-0.010
-231.786	54.873	0.278	0.265
-230.771	-103.785	-0.036	0.008
-229.757	159.478	0.195	-0.268
-228.742	22.997	-0.184	0.149
-227.727	383.809	-0.159	0.324
-226.713	77.480	-0.105	-0.110
-225.698	-8.136	-0.267	-0.177
-224.684	-68.802	0.053	0.020
-223.669	-77.607	-0.234	-0.080
-222.655	-140.900	-0.250	0.025
-221.640	-33.164	0.143	-0.078
-220.625	-200.000	0.003	-0.173
-219.611	46.148	-0.192	0.176
-218.596	800.000	0.019	0.072
-217.582	-200.000	0.016	-0.216
-216.567	800.000	0.054	-0.197
-215.552	-200.000	-0.019	-0.227
-214.538	-77.575	0.293	-0.100
-213.523	-200.000	-0.004	0.117
-212.509	-0.563	0.287	0.201
-211.494	800.000	0.061	-0.185
-210.479	-46.702	0.129	0.062
-209.465	-87.433	0.088	-0.026
-208.450	-20.840	-0.101	-0.061
-207.436	133.246	-0.180	-0.230
-206.421	-139.498	0.169	0.018
-205.406	12.534	0.101	-0.077
-204.392	800.000	0.093	-0.360
-203.377	-25.574	0.037	0.021
-202.363	1.560	-0.197	0.140
-201.348	-131.636	0.478	-0.062
-200.333	-115.039	-0.368	-0.069
-199.319	595.381	0.060	0.146
-198.304	-141.689	-0.338	0.033
-197.290	-200.000	-0.019	0.096
-196.275	-38.683	0.265	0.138
-195.260	-75.854	0.216	-0.075
-194.246	414.046	0.174	-0.365
-193.231	-51.524	0.239	0.110
-192.217	31.116	-0.234	-0.197
-191.202	-78.255	0.077	0.026
-190.187	-130.741	0.120	-0.016
-189.173	-139.248	0.092	-0.010
-188.158	-200.000	0.015	0.070
-187.144	116.557	0.085	0.103
-186.129	137.149	0.137	0.177
-185.114	-200.000	0.005	-0.151
-184.100	-200.000	0.016	-0.192
-183.085	319.147	-0.194	-0.363
-182.071	356.934	-0.087	-0.172
-181.056	78.137	0.187	0.197
-180.042	399.494	0.119	0.246
-179.027	-94.505	0.354	0.095
-178.012	-22.110	0.106	0.063
-176.998	-83.445	-0.228	-0.072
-175.983	-54.024	-0.247	-0.111
-174.969	18.607	0.104	0.082
-173.954	134.404	-0.142	0.181
-172.939	800.000	0.089	0.269
-171.925	-71.255	0.195	-0.072
-170.910	149.111	-0.019	0.025
-169.896	633.678	0.018	-0.044
-168.881	80.276	-0.111	-0.118
-167.866	-199.986	0.207	0.001
-166.852	59.185	-0.166	-0.161
-165.837	-200.000	-0.010	-0.093
-164.823	195.961	0.069	0.104
-163.808	-130.870	0.271	0.036
-162.793	-25.984	-0.044	-0.026
-161.779	-83.439	-0.587	0.185
-160.764	800.000	0.069	0.244
-159.750	-200.000	0.007	0.108
-158.735	-109.140	-0.218	-0.046
-157.720	-200.000	-0.004	0.025
-156.706	133.656	0.255	0.325
-155.691	-200.000	-0.044	0.349
-154.677	-156.483	0.301	0.018
-153.662	7.865	0.016	0.012
-152.647	-83.555	-0.162	-0.051
-151.633	-1.294	0.191	0.133
-150.618	44.440	-0.204	-0.184
-149.604	800.000	0.055	0.157
-148.589	235.453	0.111	-0.180
-147.574	709.012	-0.046	0.120
-146.560	-99.162	0.178	0.044
-145.545	-83.750	-0.302	-0.095
-144.531	-10.314	0.086	-0.056
-143.516	758.331	0.104	0.277
-142.502	164.823	0.092	-0.127
-141.487	11.496	-0.070	-0.053
-140.472	461.364	0.090	0.196
-139.458	800.000	-0.158	0.500
-138.443	-200.000	-0.007	-0.239
-137.429	52.393	0.184	0.173
-136.414	86.043	0.099	-0.107
-135.399	537.989	0.065	0.152
-134.385	212.620	0.275	0.426
-133.370	259.932	0.106	-0.181
-132.356	-200.000	0.107	-0.497
-131.341	-200.000	-0.047	-0.212
-130.326	253.842	-0.054	-0.091
-129.312	611.162	-0.125	-0.308
-128.297	378.485	-0.015	0.030
-127.283	-127.423	0.081	0.012
-126.268	-113.414	-0.372	-0.072
-125.253	-6.937	0.088	-0.059
-124.239	-136.791	0.154	-0.017
-123.224	199.301	0.305	0.459
-122.210	361.970	-0.091	-0.180
-121.195	-116.576	-0.028	-0.005
-120.180	56.640	-0.135	0.129
