DTS Sentinel unit serial number:	SN413079Multiplexer serial number:	ORYXHardware model number:	OX4-SRSoftware version number:	ORYX F/W v4.00 Oryx Data Collector v3.7.2.0data status	okinstallation	princeton_trtdifferential loss correction	single-endedforward channel	channel 3reverse channel	N/Adate	2019/09/12time	21:48:35forward acquisition time	60.00reverse acquisition time	0.00gamma	496.2192k internal	0.2326k external	0.2326temperature offset calibration	1.0131default loss term (dB/km)	0.3790temperature slope calibration	1.0000multiplexer offset coefficient	1.0000multiplexer slope coefficient	1.0000fibre end	0.00T internal ref (°C)	30.20T ext. ref 1 (°C)	3.74T ext. ref 2 (°C)	24.82length (m)	temperature (°C)	Stokes	anti-Stokes-747.200	-49.064	-0.168	-0.081
-746.185	64.496	0.139	0.141
-745.171	187.965	-0.126	0.189
-744.156	-200.000	-0.020	0.213
-743.142	8.742	-0.168	0.127
-742.127	69.160	-0.169	-0.175
-741.112	-200.000	0.017	-0.280
-740.098	187.525	-0.119	0.179
-739.083	-38.190	-0.234	0.125
-738.069	-200.000	-0.009	0.141
-737.054	93.200	-0.100	0.115
-736.039	-125.429	-0.199	-0.031
-735.025	-142.910	0.430	0.042
-734.010	133.302	0.082	0.108
-732.996	-135.630	-0.454	0.054
-731.981	-68.005	0.381	0.150
-730.966	-200.000	-0.006	0.364
-729.952	-200.000	0.005	0.219
-728.937	77.118	0.167	0.179
-727.923	276.128	-0.074	0.132
-726.908	641.028	0.130	-0.333
-725.894	-200.000	0.029	-0.313
-724.879	-168.790	-0.321	-0.012
-723.864	-73.593	-0.217	0.080
-722.850	-155.134	-0.136	-0.009
-721.835	-7.336	-0.198	0.135
-720.821	193.097	-0.225	-0.343
-719.806	-200.000	-0.013	-0.340
-718.791	0.583	0.210	0.151
-717.777	9.767	-0.148	-0.113
-716.762	-200.000	-0.024	-0.229
-715.748	-97.517	-0.225	0.059
-714.733	-200.000	0.006	-0.145
-713.718	-0.037	-0.414	0.297
-712.704	800.000	0.042	0.131
-711.689	20.164	0.072	-0.059
-710.675	-200.000	0.001	-0.038
-709.660	-72.873	0.101	-0.038
-708.645	-114.752	-0.225	0.043
-707.631	-200.000	0.007	0.152
-706.616	167.329	-0.123	-0.176
-705.602	-42.277	-0.056	0.029
-704.587	-77.992	-0.321	-0.111
-703.572	-81.029	0.186	0.062
-702.558	114.202	-0.339	0.415
-701.543	-200.000	-0.018	-0.399
-700.529	-99.532	-0.106	0.027
-699.514	800.000	-0.048	-0.152
-698.499	-200.000	-0.094	-0.498
-697.485	-149.902	0.198	0.016
-696.470	800.000	-0.033	0.115
-695.456	-24.245	0.104	-0.063
-694.441	-73.089	0.045	-0.017
-693.426	-158.924	-0.225	0.013
-692.412	139.284	0.145	-0.192
-691.397	-200.000	0.019	0.268
-690.383	294.402	0.183	0.337
-689.368	800.000	-0.084	-0.280
-688.354	-200.000	-0.045	-0.220
-687.339	-200.000	-0.013	-0.065
-686.324	-29.811	-0.209	0.120
-685.310	800.000	-0.021	0.091
-684.295	800.000	0.039	-0.130
-683.281	-1.597	-0.212	-0.150
-682.266	-86.031	-0.282	0.088
-681.251	-29.142	0.465	0.268
-680.237	-97.767	-0.065	0.017
-679.222	-179.280	0.218	0.005
-678.208	-43.435	-0.108	-0.055
-677.193	-176.642	0.191	-0.005
-676.178	-74.774	-0.333	-0.120
-675.164	-96.013	0.315	-0.084
-674.149	-21.392	-0.139	-0.085
-673.135	-136.652	0.327	-0.038
-672.120	-148.838	0.318	0.026
-671.105	-83.302	-0.300	-0.097
-670.091	157.362	0.186	-0.259
-669.076	800.000	0.035	0.118
-668.062	800.000	-0.034	0.104
-667.047	68.139	-0.095	0.098
-666.032	-130.427	0.111	-0.015
-665.018	180.480	-0.286	-0.422
-664.003	60.967	-0.130	0.130
-662.989	800.000	0.033	0.118
-661.974	-200.000	0.029	0.232
-660.959	-2.641	-0.068	0.048
-659.945	316.394	-0.095	-0.180
-658.930	290.619	-0.154	-0.281
-657.916	-200.000	-0.005	-0.066
-656.901	-67.215	-0.187	0.074
-655.886	-93.368	0.215	-0.060
-654.872	479.396	-0.106	0.241
-653.857	105.178	-0.212	-0.252
-652.843	100.188	0.167	-0.195
-651.828	-98.691	-0.083	-0.021
-650.814	-27.387	0.204	-0.119
-649.799	-154.614	-0.404	-0.027
-648.784	-200.000	0.015	0.402
-647.770	-41.255	-0.040	0.021
-646.755	214.951	0.160	-0.255
-645.741	-200.000	0.017	0.195
-644.726	277.368	-0.049	0.087
-643.711	-28.681	0.456	0.264
-642.697	-200.000	0.025	-0.190
-641.682	-62.132	0.473	-0.198
-640.668	640.438	0.068	-0.173
-639.653	-116.107	-0.149	0.028
-638.638	-155.180	0.389	0.025
-637.624	198.152	-0.216	0.332
-636.609	-85.097	-0.156	-0.049
-635.595	-55.165	-0.310	0.140
-634.580	63.967	-0.104	0.105
-633.565	213.130	-0.048	-0.077
-632.551	-56.976	-0.131	0.058
-631.536	72.759	-0.043	0.045
-630.522	-200.000	0.019	-0.208
-629.507	267.668	-0.093	0.164
-628.492	-13.614	-0.375	0.244
-627.478	272.497	0.100	0.178
-626.463	779.875	-0.148	-0.407
-625.449	-200.000	0.023	0.248
-624.434	-38.166	-0.077	0.041
-623.419	-25.523	-0.404	0.239
-622.405	126.348	0.354	0.450
-621.390	39.994	0.250	-0.225
-620.376	84.698	0.261	-0.287
-619.361	-200.000	-0.023	-0.157
-618.346	59.633	-0.196	0.194
-617.332	-40.038	-0.216	-0.113
-616.317	-200.000	-0.003	-0.040
-615.303	177.520	0.079	0.116
-614.288	-0.693	0.176	-0.125
-613.273	-29.114	-0.559	-0.322
-612.259	96.698	-0.182	-0.209
-611.244	129.364	0.116	0.149
-610.230	178.972	-0.071	-0.104
-609.215	800.000	-0.127	0.455
-608.201	141.755	-0.026	-0.035
-607.186	-161.601	-0.122	-0.006
-606.171	-200.000	-0.012	-0.077
-605.157	43.958	0.090	-0.083
-604.142	-122.502	0.276	-0.045
-603.128	-181.856	0.312	-0.006
-602.113	137.451	0.070	-0.092
-601.098	-59.646	-0.039	-0.017
-600.084	-144.157	0.085	0.008
-599.069	-200.000	-0.007	0.199
-598.055	71.912	0.120	-0.125
-597.040	256.995	-0.178	0.307
-596.025	245.489	-0.077	0.130
-595.011	-200.000	-0.017	-0.103
-593.996	-115.667	0.374	0.070
-592.982	-112.587	-0.334	-0.067
-591.967	800.000	-0.065	-0.206
-590.952	-75.216	0.405	0.145
-589.938	122.137	-0.094	-0.118
-588.923	-200.000	0.067	-0.306
-587.909	289.890	0.253	-0.460
-586.894	22.616	-0.287	0.235
-585.879	-142.642	-0.073	-0.007
-584.865	-200.000	0.026	-0.122
-583.850	-154.906	0.193	0.013
-582.836	-112.688	0.274	-0.055
-581.821	208.128	0.007	0.011
-580.806	97.140	-0.205	-0.235
-579.792	-22.287	-0.330	-0.200
-578.777	179.544	0.178	-0.261
-577.763	52.834	-0.217	0.208
-576.748	-66.746	-0.125	0.050
-575.733	-137.964	0.304	0.034
-574.719	39.261	-0.168	0.151
-573.704	345.917	-0.058	0.114
-572.690	108.747	-0.330	-0.395
-571.675	-53.401	0.213	-0.098
-570.661	-3.280	-0.192	0.134
-569.646	280.951	0.145	-0.260
-568.631	-22.385	-0.107	0.065
-567.617	752.808	0.153	-0.415
-566.602	-125.512	-0.264	-0.040
-565.588	-144.619	0.227	-0.021
-564.573	237.382	0.095	0.157
-563.558	162.671	0.053	0.075
-562.544	-43.951	-0.119	0.060
-561.529	263.620	-0.238	0.415
-560.515	-45.349	0.247	0.123
-559.500	-69.920	-0.074	0.028
-558.485	58.535	-0.112	0.110
-557.471	800.000	-0.018	0.069
-556.456	249.549	-0.178	0.303
-555.442	-200.000	0.028	0.127
-554.427	-141.050	0.170	0.017
-553.412	43.753	-0.107	0.098
-552.398	-200.000	-0.297	0.001
-551.383	345.543	0.133	0.262
-550.369	-90.524	-0.044	-0.013
-549.354	658.228	0.025	-0.065
-548.339	-145.250	0.194	0.018
-547.325	-50.640	-0.180	0.085
-546.310	182.104	-0.149	-0.220
-545.296	-57.680	-0.211	-0.093
-544.281	108.767	0.094	-0.112
-543.266	24.692	0.138	-0.114
-542.252	-16.595	-0.062	0.039
-541.237	800.000	-0.073	-0.257
-540.223	171.102	-0.112	0.161
-539.208	42.717	-0.137	0.125
-538.193	256.447	0.209	-0.358
-537.179	244.487	-0.039	0.066
-536.164	-76.671	-0.361	-0.127
-535.150	74.580	0.087	0.092
-534.135	-90.591	0.220	0.064
-533.121	-173.262	-0.054	-0.002
-532.106	-200.000	-0.026	0.368
-531.091	-200.000	-0.048	-0.220
-530.077	800.000	0.030	-0.128
-529.062	-21.011	-0.240	0.147
-528.048	-119.396	0.091	0.016
-527.033	-200.000	-0.015	-0.114
-526.018	255.076	0.091	-0.156
-525.004	479.568	0.044	0.100
-523.989	800.000	-0.034	-0.119
-522.975	647.314	0.085	0.217
-521.960	-93.282	0.304	0.084
-520.945	-76.053	-0.354	-0.125
-519.931	800.000	-0.065	-0.207
-518.916	173.758	-0.168	0.242
-517.902	-139.143	-0.035	0.004
-516.887	572.281	-0.042	0.103
-515.872	-136.061	0.284	-0.033
-514.858	-70.248	-0.215	0.082
-513.843	-115.984	-0.193	-0.036
-512.829	-200.000	-0.024	0.419
-511.814	-82.344	-0.136	0.044
-510.799	-126.328	0.215	0.032
-509.785	-8.784	-0.095	-0.064
-508.770	-128.910	0.218	-0.031
-507.756	15.497	0.140	-0.110
-506.741	800.000	-0.085	-0.306
-505.726	800.000	-0.043	0.161
-504.712	-90.398	-0.202	-0.058
-503.697	97.424	0.267	0.307
-502.683	-200.000	0.005	-0.433
-501.668	-107.446	0.118	-0.026
-500.653	42.979	-0.065	-0.059
-499.639	-84.361	-0.067	0.021
-498.624	19.534	0.264	0.212
-497.610	800.000	-0.108	-0.314
-496.595	63.995	0.221	-0.222
-495.581	57.152	-0.144	0.141
-494.566	-134.963	-0.597	-0.072
-493.551	-124.789	0.287	-0.044
-492.537	800.000	-0.129	-0.458
-491.522	-140.008	-0.423	0.045
-490.508	-149.454	0.090	0.007
-489.493	-110.710	0.105	-0.022
-488.478	44.475	-0.345	-0.316
-487.464	800.000	-0.048	-0.145
-486.449	732.133	0.146	-0.391
-485.435	-124.743	-0.342	-0.053
-484.420	800.000	-0.059	-0.188
-483.405	141.728	-0.196	-0.260
-482.391	-0.729	-0.050	-0.035
-481.376	143.194	0.194	-0.258
-480.362	234.449	-0.092	-0.152
-479.347	-165.658	0.431	0.019
-478.332	800.000	-0.057	0.176
-477.318	-172.889	-0.185	0.006
-476.303	800.000	-0.105	0.368
-475.289	-200.000	-0.037	-0.298
-474.274	-76.049	0.296	0.105
-473.259	-65.192	-0.152	-0.061
-472.245	-105.943	0.271	-0.061
-471.230	-131.907	-0.203	-0.026
-470.216	-200.000	-0.014	0.121
-469.201	132.513	-0.076	0.097
-468.186	-66.139	-0.111	-0.044
-467.172	-200.000	0.018	-0.157
-466.157	-200.000	0.037	-0.403
-465.143	82.793	-0.058	-0.062
-464.128	-105.045	-0.188	-0.043
-463.113	-12.428	0.232	0.152
-462.099	16.365	0.146	0.115
-461.084	-22.605	-0.163	0.098
-460.070	31.506	-0.285	0.245
-459.055	-200.000	0.010	-0.163
-458.040	185.947	0.045	-0.066
-457.026	184.437	-0.077	0.114
-456.011	-48.060	0.256	-0.124
-454.997	-200.000	-0.057	-0.279
-453.982	453.633	-0.112	0.248
-452.968	-52.022	0.134	0.062
-451.953	39.854	0.204	0.183
-450.938	-90.575	0.482	0.139
-449.924	-4.122	-0.302	0.209
-448.909	-51.068	0.140	-0.065
-447.895	-99.008	-0.320	-0.081
-446.880	-136.909	0.180	0.021
-445.865	-16.802	0.092	-0.058
-444.851	-198.551	0.456	-0.003
-443.836	-200.000	-0.014	-0.380
-442.822	95.558	0.039	0.044
-441.807	-106.485	-0.010	0.002
-440.792	110.189	0.053	-0.063
-439.778	-200.000	-0.044	0.263
-438.763	-74.105	-0.110	-0.040
-437.749	190.146	0.228	0.341
-436.734	-119.855	-0.295	0.051
-435.719	-23.404	-0.131	0.079
-434.705	-38.315	-0.151	0.080
-433.690	-72.093	0.353	0.131
-432.676	-39.184	0.201	-0.105
-431.661	18.032	-0.062	-0.049
-430.646	-126.578	-0.191	0.028
-429.632	-96.180	0.101	0.027
-428.617	-154.590	-0.182	-0.012
-427.603	28.043	0.319	-0.268
-426.588	3.755	0.110	0.080
-425.573	715.334	-0.084	0.222
-424.559	217.458	-0.107	0.170
-423.544	138.774	0.083	-0.108
-422.530	-89.610	-0.246	-0.072
-421.515	-200.000	0.066	0.311
-420.500	-98.581	0.188	0.048
-419.486	14.268	-0.148	-0.115
-418.471	-126.071	0.099	-0.015
-417.457	-80.072	-0.192	-0.064
-416.442	-200.000	0.027	0.326
-415.428	1.923	0.179	0.128
-414.413	-133.608	-0.191	0.024
-413.398	-166.343	0.082	-0.003
-412.384	800.000	-0.104	-0.392
-411.369	-133.444	-0.427	0.053
-410.355	13.634	0.212	-0.164
-409.340	775.542	-0.188	0.510
-408.325	-80.921	0.282	-0.093
-407.311	-21.975	-0.238	0.144
-406.296	31.778	-0.052	0.044
-405.282	-200.000	-0.032	0.304
-404.267	-60.146	0.126	0.053
-403.252	392.430	0.081	-0.167
-402.238	-89.625	0.130	-0.038
-401.223	-200.000	0.015	-0.147
-400.209	506.101	0.072	0.167
-399.194	20.482	0.239	-0.192
-398.179	-139.399	0.062	-0.007
-397.165	-10.839	0.277	0.182
-396.150	-73.312	-0.075	0.027
-395.136	-200.000	-0.009	-0.248
-394.121	517.876	-0.106	0.246
-393.106	-79.423	0.157	-0.053
-392.092	-110.943	-0.228	-0.047
-391.077	-147.926	0.241	0.020
-390.063	90.920	-0.181	0.202
-389.048	-145.566	0.193	-0.017
-388.033	-95.961	0.219	0.058
-387.019	-191.981	-0.079	-0.001
-386.004	132.687	0.179	-0.230
-384.990	288.055	-0.090	0.163
-383.975	-111.831	-0.489	-0.098
-382.960	-200.000	0.010	0.068
-381.946	-99.808	-0.270	0.067
-380.931	62.512	0.194	0.193
-379.917	-176.044	0.335	-0.009
-378.902	20.070	-0.194	-0.156
-377.888	581.625	0.130	-0.316
-376.873	-200.000	-0.069	-0.336
-375.858	800.000	0.053	0.152
-374.844	-18.021	0.090	0.056
-373.829	-74.077	-0.148	-0.053
-372.815	-112.410	0.161	-0.032
-371.800	-153.346	-0.113	0.008
-370.785	196.173	-0.158	0.239
-369.771	109.798	0.120	0.143
-368.756	56.372	-0.187	-0.181
-367.742	-121.509	-0.222	0.037
-366.727	-97.649	-0.322	-0.083
-365.712	-116.889	0.390	-0.071
-364.698	-100.029	-0.246	0.061
-363.683	-92.548	-0.081	-0.023
-362.669	-62.934	0.284	0.117
-361.654	157.322	0.129	-0.178
-360.639	-200.000	-0.033	-0.227
-359.625	-38.465	0.133	0.070
-358.610	64.784	0.094	0.094
-357.596	-200.000	0.009	0.052
-356.581	-72.964	-0.213	-0.078
-355.566	178.184	0.073	0.106
-354.552	-128.256	-0.052	0.007
-353.537	66.944	-0.089	0.090
-352.523	-200.000	-0.012	-0.271
-351.508	-169.636	0.266	0.010
-350.493	-36.884	0.026	0.014
-349.479	-1.329	0.338	0.237
-348.464	444.611	-0.153	-0.333
-347.450	-71.357	-0.169	-0.063
-346.435	61.956	-0.073	0.072
-345.420	347.007	0.123	0.241
-344.406	800.000	0.119	-0.331
-343.391	28.932	0.130	-0.109
-342.377	79.163	0.046	0.049
-341.362	-27.811	-0.166	0.096
-340.348	800.000	-0.105	-0.364
-339.333	181.335	0.128	-0.187
-338.318	371.433	0.089	-0.179
-337.304	239.794	0.050	-0.083
-336.289	800.000	0.022	-0.069
-335.275	141.882	-0.051	-0.067
-334.260	184.833	-0.273	0.401
-333.245	-55.615	-0.088	0.039
-332.231	-118.561	-0.054	0.009
-331.216	-116.781	0.311	-0.057
-330.202	800.000	-0.113	0.406
-329.187	158.395	-0.138	0.191
-328.172	-42.954	0.122	-0.061
-327.158	-154.285	0.484	-0.032
-326.143	173.015	-0.072	0.103
-325.129	-200.000	-0.045	-0.367
-324.114	-54.700	0.285	-0.128
-323.099	-50.735	0.180	-0.084
-322.085	386.898	-0.089	0.183
-321.070	-141.691	-0.179	0.018
-320.056	124.154	-0.174	0.217
-319.041	797.437	-0.112	0.306
-318.026	120.041	-0.181	0.222
-317.012	-67.007	0.041	0.016
-315.997	-200.000	-0.032	0.244
-314.983	397.581	-0.067	-0.138
-313.968	800.000	0.065	0.210
-312.953	-200.000	0.197	0.001
-311.939	-171.752	0.092	-0.003
-310.924	-200.000	-0.024	-0.249
-309.910	197.246	0.052	0.078
-308.895	-200.000	-0.026	0.358
-307.880	-192.342	0.109	0.001
-306.866	-114.526	-0.180	-0.034
-305.851	-200.000	0.005	-0.138
-304.837	158.920	-0.057	0.078
-303.822	220.159	0.134	0.212
-302.807	-200.000	0.016	-0.173
-301.793	112.042	0.210	-0.251
-300.778	-200.000	0.001	0.063
-299.764	547.178	-0.205	-0.485
-298.749	186.518	-0.088	-0.131
-297.735	-125.286	-0.123	0.019
-296.720	-200.000	-0.214	-0.001
-295.705	598.078	-0.028	-0.068
-294.691	-56.458	-0.179	0.079
-293.676	-114.203	0.134	0.026
-292.662	800.000	-0.182	-0.519
-291.647	586.982	0.121	-0.295
-290.632	-86.719	0.247	0.075
-289.618	122.033	0.087	0.107
-288.603	800.000	-0.110	0.326
-287.589	-61.866	-0.141	0.058
-286.574	800.000	-0.083	-0.304
-285.559	-175.928	0.063	-0.002
-284.545	-47.440	0.280	-0.135
-283.530	288.578	0.127	0.227
-282.516	-200.000	0.298	0.001
-281.501	158.546	0.101	0.140
-280.486	3.828	0.100	-0.072
-279.472	267.105	0.054	0.094
-278.457	-138.911	0.431	0.046
-277.443	109.782	-0.071	-0.085
-276.428	10.245	0.203	-0.153
-275.413	171.068	-0.082	0.116
-274.399	-18.912	-0.103	0.064
-273.384	68.847	0.190	0.193
-272.370	-200.000	0.006	-0.278
-271.355	374.051	-0.023	-0.047
-270.340	-147.514	0.118	0.010
-269.326	-143.115	-0.242	0.023
-268.311	-132.210	-0.102	-0.013
-267.297	-10.234	-0.073	0.048
-266.282	-62.924	-0.198	0.081
-265.267	-200.000	-0.007	-0.049
-264.253	-34.646	0.308	-0.167
-263.238	23.332	-0.313	-0.255
-262.224	-46.979	-0.103	-0.050
-261.209	800.000	-0.090	0.368
-260.195	-18.941	-0.263	-0.162
-259.180	360.021	0.173	0.343
-258.165	438.100	0.129	0.278
-257.151	12.659	-0.287	0.219
-256.136	-73.769	0.203	-0.073
-255.122	-172.384	0.142	-0.004
-254.107	-58.006	0.175	-0.076
-253.092	-200.000	-0.055	-0.412
-252.078	89.841	-0.390	0.431
-251.063	-163.032	0.089	0.004
-250.049	143.965	-0.071	-0.094
-249.034	65.083	0.151	0.151
-248.019	-11.171	-0.048	0.031
-247.005	-77.466	-0.023	-0.008
-245.990	-104.035	0.289	-0.067
-244.976	426.420	0.106	-0.226
-243.961	-50.781	-0.197	0.092
-242.946	-62.419	-0.124	0.051
-241.932	-200.000	-0.025	0.158
-240.917	-126.296	0.139	0.021
-239.903	800.000	0.060	-0.248
-238.888	148.038	-0.064	-0.086
-237.873	158.429	0.238	-0.326
-236.859	800.000	0.062	0.189
-235.844	-52.243	-0.086	0.039
-234.830	92.463	0.090	0.100
-233.815	800.000	-0.031	0.086
-232.800	800.000	0.057	-0.221
-231.786	162.515	0.127	-0.176
-230.771	-5.844	0.142	0.096
-229.757	800.000	-0.041	-0.134
-228.742	-63.019	0.123	0.050
-227.727	-118.432	0.294	-0.052
-226.713	-163.085	0.080	0.004
-225.698	-191.444	-0.307	0.003
-224.684	-104.238	0.204	-0.047
-223.669	47.326	-0.164	0.151
-222.655	-131.737	0.144	-0.019
-221.640	-127.545	0.320	-0.046
-220.625	800.000	-0.125	-0.513
-219.611	-105.397	0.333	0.075
-218.596	-69.834	0.479	-0.181
-217.582	800.000	-0.064	0.265
-216.567	-200.000	0.023	0.155
-215.552	321.128	0.030	0.056
-214.538	100.282	-0.168	0.193
-213.523	-43.312	-0.277	-0.138
-212.509	-200.000	0.035	0.169
-211.494	-179.230	0.232	-0.005
-210.479	800.000	-0.077	-0.217
-209.465	-200.000	0.034	0.166
-208.450	39.153	0.209	0.185
-207.436	-140.409	-0.109	0.011
-206.421	-136.276	-0.076	-0.009
-205.406	-130.873	-0.167	0.022
-204.392	-78.301	0.184	-0.062
-203.377	-59.708	-0.262	0.111
-202.363	9.277	0.126	0.094
-201.348	326.570	0.043	-0.082
-200.333	-54.128	-0.121	0.054
-199.319	131.582	0.127	-0.162
-198.304	800.000	0.061	-0.169
-197.290	-200.000	-0.054	0.260
-196.275	-169.788	-0.317	-0.011
-195.260	569.357	0.084	-0.202
-194.246	-49.118	-0.162	-0.076
-193.231	-79.428	0.303	-0.101
-192.217	-200.000	0.013	0.070
-191.202	-143.703	0.164	0.015
-190.187	605.401	0.079	0.195
-189.173	261.107	0.028	0.047
-188.158	496.203	0.025	-0.057
-187.144	-64.804	-0.054	0.022
-186.129	8.367	-0.201	0.149
-185.114	-200.000	-0.001	-0.244
-184.100	160.696	0.028	0.038
-183.085	-24.491	-0.104	-0.061
-182.071	-99.765	0.112	-0.028
-181.056	-62.510	-0.096	0.039
-180.042	-200.000	0.011	-0.211
-179.027	755.947	-0.105	0.280
-178.012	193.075	-0.093	0.138
-176.998	-92.626	-0.326	-0.090
-175.983	-141.948	-0.149	-0.015
-174.969	-78.782	-0.100	0.034
-173.954	-200.000	0.019	-0.321
-172.939	-176.321	-0.117	-0.003
-171.925	-83.121	0.107	0.034
-170.910	392.500	0.118	-0.241
-169.896	70.392	-0.048	-0.049
-168.881	162.229	0.052	-0.072
-167.866	-200.000	0.011	0.153
-166.852	414.965	0.040	-0.084
-165.837	-200.000	-0.015	0.268
-164.823	19.569	0.143	0.113
-163.808	-158.855	-0.198	-0.011
-162.793	179.710	-0.198	0.285
-161.779	-143.259	-0.222	0.021
-160.764	138.825	0.098	0.127
-159.750	2.696	0.445	0.318
-158.735	476.203	0.069	0.153
-157.720	-83.318	-0.121	-0.038
-156.706	-30.865	-0.075	0.042
-155.691	337.781	-0.098	0.188
-154.677	800.000	-0.094	0.311
-153.662	-87.941	0.097	0.029
-152.647	0.574	0.083	-0.058
-151.633	439.113	0.044	-0.094
-150.618	-119.664	0.043	0.007
-149.604	255.631	0.170	0.287
-148.589	5.842	-0.122	-0.089
-147.574	800.000	-0.072	-0.202
-146.560	-105.461	0.506	0.113
-145.545	691.152	0.118	0.305
-144.531	-128.965	0.201	0.028
-143.516	-78.863	0.209	-0.070
-142.502	-200.000	0.013	-0.085
-141.487	-200.000	-0.047	-0.406
-140.472	187.597	0.102	-0.151
-139.458	-51.744	0.501	-0.230
-138.443	438.400	-0.024	0.051
-137.429	-40.939	0.162	0.083
-136.414	-124.896	-0.136	0.021
-135.399	236.174	-0.071	-0.116
-134.385	314.227	-0.097	0.180
-133.370	-200.000	0.008	-0.123
-132.356	-117.670	0.236	-0.042
-131.341	-200.000	0.042	0.232
-130.326	-200.000	0.011	0.369
-129.312	24.094	-0.163	-0.132
-128.297	-74.257	0.219	-0.078
-127.283	149.081	-0.127	-0.169
-126.268	-115.275	-0.291	-0.054
-125.253	800.000	-0.063	-0.175
-124.239	-200.000	0.012	0.170
-123.224	-200.000	-0.044	-0.191
