DTS Sentinel unit serial number:	SN413079Multiplexer serial number:	ORYXHardware model number:	OX4-SRSoftware version number:	ORYX F/W v4.00 Oryx Data Collector v3.7.2.0data status	okinstallation	princeton_trtdifferential loss correction	single-endedforward channel	channel 3reverse channel	N/Adate	2019/09/10time	16:46:11forward acquisition time	60.00reverse acquisition time	0.00gamma	496.2192k internal	0.2300k external	0.2300temperature offset calibration	0.9905default loss term (dB/km)	0.3790temperature slope calibration	1.0000multiplexer offset coefficient	1.0000multiplexer slope coefficient	1.0000fibre end	0.00T internal ref (°C)	37.69T ext. ref 1 (°C)	-0.31T ext. ref 2 (°C)	30.69length (m)	temperature (°C)	Stokes	anti-Stokes-747.200	-103.462	-0.555	-0.133
-746.185	-200.000	0.045	0.213
-745.171	376.048	0.177	-0.368
-744.156	-200.000	0.028	0.199
-743.142	-200.000	0.031	-0.322
-742.127	-110.488	0.409	0.087
-741.112	-119.136	0.207	-0.037
-740.098	181.577	-0.175	0.262
-739.083	-53.631	0.289	0.135
-738.069	107.526	-0.137	0.166
-737.054	28.341	0.058	-0.050
-736.039	99.505	-0.152	-0.180
-735.025	35.538	0.142	0.127
-734.010	40.177	-0.194	0.177
-732.996	-48.503	-0.439	0.215
-731.981	13.000	-0.157	0.124
-730.966	-200.000	-0.016	-0.272
-729.952	-200.000	0.076	0.353
-728.937	62.623	-0.177	0.181
-727.923	-79.651	-0.157	0.054
-726.908	-200.000	-0.066	0.358
-725.894	6.331	0.280	0.212
-724.879	-29.743	-0.072	0.042
-723.864	-82.746	-0.160	-0.053
-722.850	153.518	-0.222	0.310
-721.835	-87.149	0.145	-0.045
-720.821	-59.641	-0.063	0.028
-719.806	564.396	-0.037	-0.091
-718.791	-200.000	-0.053	0.277
-717.777	80.922	0.051	0.056
-716.762	-180.439	-0.152	0.003
-715.748	660.554	-0.116	0.305
-714.733	213.028	0.099	-0.159
-713.718	-94.448	-0.272	0.075
-712.704	800.000	0.091	-0.316
-711.689	-92.837	-0.194	-0.055
-710.675	353.080	0.120	0.243
-709.660	-139.035	0.196	0.022
-708.645	2.027	-0.095	0.070
-707.631	-200.000	-0.030	0.291
-706.616	-124.070	0.127	-0.020
-705.602	-56.600	-0.056	0.025
-704.587	-6.465	0.042	-0.029
-703.572	-134.038	-0.166	0.021
-702.558	112.719	0.020	0.025
-701.543	-103.196	0.240	0.058
-700.529	-200.000	-0.002	-0.102
-699.514	695.742	0.062	0.165
-698.499	-200.000	0.027	0.150
-697.485	-65.402	0.147	0.060
-696.470	-42.593	0.162	0.084
-695.456	432.465	-0.221	-0.487
-694.441	-200.000	0.088	-0.411
-693.426	-16.206	-0.122	-0.079
-692.412	87.953	0.034	0.039
-691.397	163.516	-0.138	-0.197
-690.383	-200.000	-0.017	-0.088
-689.368	33.932	0.151	-0.134
-688.354	-60.932	0.370	-0.159
-687.339	13.602	0.308	-0.244
-686.324	71.460	-0.191	0.201
-685.310	87.242	0.074	-0.084
-684.295	-200.000	-0.000	-0.026
-683.281	50.442	0.342	0.329
-682.266	-200.000	-0.012	-0.137
-681.251	701.258	-0.052	-0.140
-680.237	-200.000	-0.023	0.117
-679.222	114.591	0.064	0.079
-678.208	102.812	0.157	0.188
-677.193	-200.000	0.035	-0.306
-676.178	100.366	0.248	-0.292
-675.164	-200.000	0.131	0.586
-674.149	284.277	-0.121	-0.221
-673.135	531.171	-0.059	0.141
-672.120	-17.869	-0.259	0.165
-671.105	-30.590	0.139	-0.080
-670.091	84.832	-0.163	-0.181
-669.076	-200.000	-0.012	-0.156
-668.062	-114.872	-0.168	-0.033
-667.047	800.000	-0.042	-0.152
-666.032	-22.516	0.223	-0.137
-665.018	62.290	0.154	0.156
-664.003	800.000	0.071	-0.310
-662.989	-18.148	-0.272	0.173
-661.974	156.338	-0.200	-0.280
-660.959	-149.204	0.237	-0.019
-659.945	-200.000	0.033	-0.235
-658.930	190.715	-0.103	0.157
-657.916	465.727	-0.020	0.046
-656.901	-72.910	0.246	0.092
-655.886	32.738	0.287	-0.252
-654.872	-85.375	-0.109	-0.034
-653.857	0.185	0.254	-0.184
-652.843	-140.948	0.159	0.017
-651.828	800.000	0.091	0.301
-650.814	454.097	0.071	-0.159
-649.799	-200.000	-0.044	0.221
-648.784	-111.844	-0.250	0.051
-647.770	800.000	-0.045	0.129
-646.755	-200.000	-0.189	0.000
-645.741	-200.000	0.051	-0.261
-644.726	222.715	0.042	0.069
-643.711	-200.000	0.001	-0.078
-642.697	-102.410	-0.170	0.041
-641.682	-162.343	0.136	-0.007
-640.668	79.393	-0.190	-0.207
-639.653	389.196	0.117	0.245
-638.638	-39.342	0.317	-0.169
-637.624	-200.000	-0.010	-0.299
-636.609	34.045	0.071	-0.063
-635.595	-116.170	-0.200	0.038
-634.580	416.494	0.030	0.065
-633.565	-75.811	0.281	-0.101
-632.551	800.000	-0.075	-0.252
-631.536	275.239	-0.083	-0.149
-630.522	184.083	0.206	-0.309
-629.507	-200.000	0.049	0.317
-628.492	800.000	-0.018	-0.069
-627.478	-47.458	0.342	0.169
-626.463	-129.126	0.322	-0.046
-625.449	-200.000	-0.004	-0.134
-624.434	-170.157	0.153	-0.006
-623.419	265.648	-0.157	-0.278
-622.405	164.025	0.128	0.183
-621.390	102.219	-0.022	-0.026
-620.376	-200.000	-0.034	0.211
-619.361	-97.783	-0.247	0.065
-618.346	-116.931	0.065	0.012
-617.332	-90.234	0.121	0.036
-616.317	156.042	0.159	0.223
-615.303	-200.000	0.085	-0.637
-614.288	-147.549	-0.135	0.012
-613.273	-141.419	0.366	0.038
-612.259	518.363	0.084	-0.198
-611.244	167.617	-0.138	-0.198
-610.230	93.183	0.089	0.102
-609.215	337.591	0.084	-0.165
-608.201	800.000	0.071	-0.255
-607.186	-96.644	-0.016	0.004
-606.171	110.095	-0.031	-0.038
-605.157	-82.645	0.122	-0.040
-604.142	-200.000	-0.013	-0.172
-603.128	62.065	0.045	-0.046
-602.113	534.749	-0.105	-0.253
-601.098	30.579	0.140	-0.122
-600.084	800.000	0.056	0.208
-599.069	29.403	-0.477	-0.411
-598.055	-82.082	-0.190	-0.063
-597.040	-200.000	-0.002	-0.175
-596.025	-200.000	0.009	-0.225
-595.011	52.457	-0.316	0.305
-593.996	-102.964	-0.140	0.034
-592.982	183.539	-0.087	-0.130
-591.967	-200.000	0.006	0.512
-590.952	53.697	-0.098	-0.096
-589.938	800.000	0.047	0.135
-588.923	-124.360	-0.173	0.027
-587.909	800.000	-0.085	-0.290
-586.894	199.451	0.145	0.226
-585.879	360.355	0.098	-0.199
-584.865	800.000	0.063	0.241
-583.850	-22.723	-0.156	0.095
-582.836	800.000	0.080	0.244
-581.821	-145.557	-0.246	0.022
-580.806	222.954	0.029	0.048
-579.792	-101.027	-0.145	-0.036
-578.777	54.207	0.091	0.089
-577.763	232.890	-0.084	-0.140
-576.748	-200.000	-0.010	-0.303
-575.733	208.301	0.028	-0.045
-574.719	-2.106	0.148	-0.105
-573.704	-33.080	0.381	-0.214
-572.690	-200.000	0.068	-0.420
-571.675	800.000	-0.012	0.039
-570.661	-70.034	-0.228	0.088
-569.646	-168.222	-0.201	-0.008
-568.631	-200.000	-0.013	-0.148
-567.617	277.629	-0.164	-0.295
-566.602	-21.120	-0.189	-0.117
-565.588	44.639	-0.186	-0.173
-564.573	76.776	0.112	-0.120
-563.558	-7.156	0.186	0.128
-562.544	-7.432	-0.088	0.060
-561.529	306.108	-0.077	0.145
-560.515	95.623	0.191	-0.221
-559.500	800.000	-0.045	0.143
-558.485	375.258	-0.166	-0.342
-557.471	18.672	0.230	0.186
-556.456	-102.381	-0.322	-0.078
-555.442	-200.000	-0.017	-0.206
-554.427	172.057	-0.156	-0.227
-553.412	-93.858	-0.513	0.143
-552.398	14.310	-0.109	0.086
-551.383	-62.491	0.091	-0.038
-550.369	800.000	0.117	-0.369
-549.354	15.281	0.228	0.181
-548.339	102.614	-0.082	-0.098
-547.325	180.818	-0.104	0.155
-546.310	170.398	0.311	0.451
-545.296	-34.883	0.173	0.095
-544.281	-200.000	0.019	-0.108
-543.266	1.804	-0.407	-0.297
-542.252	-140.569	0.402	0.042
-541.237	-47.979	0.217	-0.106
-540.223	-57.822	-0.588	0.260
-539.208	-88.949	0.131	0.039
-538.193	-111.515	0.242	0.050
-537.179	3.934	0.121	-0.090
-536.164	-28.255	0.293	0.171
-535.150	-200.000	0.050	0.230
-534.135	-70.888	-0.281	-0.107
-533.121	-52.236	-0.155	0.073
-532.106	800.000	-0.157	0.495
-531.091	-30.257	0.208	-0.119
-530.077	312.399	-0.105	-0.200
-529.062	-79.759	-0.334	0.114
-528.048	800.000	0.061	-0.200
-527.033	10.408	0.004	0.003
-526.018	-200.000	-0.033	-0.187
-525.004	338.941	0.083	0.164
-523.989	800.000	0.076	-0.271
-522.975	475.593	-0.184	-0.420
-521.960	-200.000	0.021	0.121
-520.945	34.829	0.023	0.020
-519.931	-44.720	0.294	0.148
-518.916	800.000	-0.046	0.183
-517.902	-200.000	-0.035	0.213
-516.887	49.634	0.191	0.182
-515.872	-112.248	-0.248	0.050
-514.858	-72.675	-0.264	-0.098
-513.843	144.686	0.322	0.435
-512.829	-200.000	-0.013	0.088
-511.814	-98.899	0.135	-0.035
-510.799	-123.610	-0.324	0.052
-509.785	-96.144	-0.205	0.055
-508.770	363.075	-0.164	-0.333
-507.756	-135.480	-0.232	-0.028
-506.741	-73.219	-0.349	-0.129
-505.726	-107.749	-0.078	-0.017
-504.712	-69.157	-0.241	-0.094
-503.697	-200.000	-0.015	0.068
-502.683	-85.155	0.297	0.094
-501.668	24.679	0.229	-0.192
-500.653	150.491	-0.116	0.160
-499.639	73.988	-0.152	-0.161
-498.624	-56.232	-0.115	0.052
-497.610	-119.825	0.314	0.055
-496.595	369.757	-0.143	0.292
-495.581	-200.000	0.033	0.201
-494.566	360.553	-0.077	0.156
-493.551	800.000	-0.092	-0.314
-492.537	89.935	-0.352	-0.398
-491.522	70.109	-0.197	-0.205
-490.508	-134.473	0.204	-0.025
-489.493	125.729	-0.134	0.171
-488.478	147.572	-0.158	0.215
-487.464	72.966	0.264	0.279
-486.449	-66.953	-0.167	-0.067
-485.435	-200.000	0.006	-0.178
-484.420	-114.309	-0.193	0.038
-483.405	-110.713	-0.143	0.030
-482.391	80.430	0.067	0.073
-481.376	-200.000	-0.002	0.117
-480.362	800.000	0.057	-0.232
-479.347	14.012	-0.199	-0.156
-478.332	800.000	0.081	0.232
-477.318	800.000	-0.063	0.265
-476.303	-134.625	0.381	0.047
-475.289	-132.711	-0.303	0.039
-474.274	-29.211	-0.223	0.129
-473.259	-153.746	-0.442	-0.031
-472.245	374.466	-0.024	-0.050
-471.230	-200.000	0.030	0.233
-470.216	-165.870	-0.458	0.020
-469.201	-200.000	-0.018	0.162
-468.186	-113.355	-0.258	-0.051
-467.172	104.205	0.096	0.114
-466.157	-111.500	-0.306	-0.063
-465.143	190.761	0.113	0.171
-464.128	-165.333	-0.205	-0.009
-463.113	229.687	-0.009	0.015
-462.099	40.082	-0.099	-0.090
-461.084	-106.671	0.099	0.022
-460.070	27.843	0.111	0.095
-459.055	100.856	0.202	0.236
-458.040	54.514	0.104	0.101
-457.026	-200.000	-0.003	0.130
-456.011	44.905	0.117	0.109
-454.997	-200.000	-0.049	0.249
-453.982	-45.980	-0.306	-0.152
-452.968	571.661	0.122	-0.299
-451.953	-200.000	-0.007	-0.169
-450.938	-25.701	-0.191	0.114
-449.924	-122.358	0.237	-0.039
-448.909	800.000	-0.063	0.259
-447.895	52.525	0.133	0.128
-446.880	91.228	-0.163	0.184
-445.865	-130.486	-0.262	0.036
-444.851	596.368	-0.049	-0.122
-443.836	415.676	-0.134	-0.289
-442.822	800.000	0.067	-0.262
-441.807	-97.115	-0.225	-0.059
-440.792	239.298	0.012	-0.020
-439.778	-70.456	0.482	-0.184
-438.763	-83.175	0.217	-0.070
-437.749	454.682	-0.096	0.214
-436.734	-154.309	-0.393	0.027
-435.719	-193.884	0.531	-0.004
-434.705	704.008	-0.079	-0.209
-433.690	376.808	0.082	0.169
-432.676	-25.622	-0.201	0.119
-431.661	218.369	0.144	-0.232
-430.646	-171.219	-0.185	-0.006
-429.632	123.723	0.038	-0.048
-428.617	36.926	-0.181	0.162
-427.603	314.810	0.122	0.232
-426.588	800.000	-0.102	-0.299
-425.573	-102.714	0.350	-0.084
-424.559	388.151	-0.062	-0.130
-423.544	-161.343	-0.264	0.014
-422.530	134.716	0.219	-0.286
-421.515	52.601	-0.054	0.052
-420.500	5.815	0.308	0.230
-419.486	164.169	0.049	-0.070
-418.471	-200.000	0.029	-0.190
-417.457	240.246	-0.096	-0.162
-416.442	190.489	-0.247	0.374
-415.428	-200.000	-0.006	-0.070
-414.413	-32.485	-0.100	0.056
-413.398	99.729	0.173	0.202
-412.384	-200.000	0.016	0.452
-411.369	-187.674	0.281	-0.004
-410.355	-90.377	-0.334	-0.097
-409.340	-108.845	0.159	0.034
-408.325	-200.000	-0.015	0.403
-407.311	800.000	0.091	0.351
-406.296	31.173	-0.329	0.284
-405.282	33.381	-0.304	-0.265
-404.267	-200.000	0.016	-0.142
-403.252	-125.640	-0.378	0.058
-402.238	326.887	0.144	0.277
-401.223	-18.682	-0.166	-0.104
-400.209	312.097	-0.155	-0.293
-399.194	-59.539	0.220	0.095
-398.179	-200.000	0.003	0.142
-397.165	194.507	-0.095	0.145
-396.150	504.215	-0.023	-0.054
-395.136	-200.000	-0.006	0.271
-394.121	678.914	0.051	-0.132
-393.106	444.551	-0.087	0.192
-392.092	-160.244	0.317	-0.017
-391.077	61.307	0.259	0.259
-390.063	-178.073	0.153	0.004
-389.048	451.368	-0.031	-0.068
-388.033	351.155	-0.117	0.232
-387.019	800.000	0.069	-0.228
-386.004	800.000	0.053	-0.153
-384.990	-118.282	0.220	0.039
-383.975	136.394	0.087	0.114
-382.960	-155.736	0.277	-0.018
-381.946	-200.000	0.001	-0.041
-380.931	-18.818	-0.156	-0.097
-379.917	52.530	-0.087	0.084
-378.902	-32.113	-0.142	0.080
-377.888	32.400	0.098	0.085
-376.873	-53.655	0.228	-0.105
-375.858	800.000	-0.053	-0.148
-374.844	-28.968	-0.388	0.224
-373.829	501.715	0.102	-0.237
-372.815	248.505	-0.150	0.254
-371.800	800.000	0.092	0.302
-370.785	-131.423	0.213	-0.028
-369.771	-200.000	-0.022	-0.246
-368.756	-20.465	-0.080	0.049
-367.742	184.614	0.119	-0.178
-366.727	-200.000	0.002	-0.150
-365.712	-52.799	0.239	0.111
-364.698	-200.000	0.026	0.635
-363.683	-105.358	0.072	-0.017
-362.669	605.635	0.078	-0.195
-361.654	-200.000	0.004	-0.123
-360.639	2.693	0.241	0.176
-359.625	65.875	0.229	0.233
-358.610	-150.424	0.367	0.028
-357.596	800.000	-0.051	-0.148
-356.581	-135.086	-0.125	0.015
-355.566	137.503	-0.067	0.088
-354.552	96.849	-0.143	-0.164
-353.537	287.550	0.199	0.361
-352.523	-82.066	-0.118	-0.039
-351.508	-93.371	-0.265	-0.074
-350.493	8.982	0.214	0.162
-349.479	-25.469	-0.160	-0.095
-348.464	-200.000	0.041	-0.379
-347.450	65.523	-0.247	0.251
-346.435	17.805	-0.247	0.198
-345.420	-200.000	0.020	0.208
-344.406	-200.000	0.034	-0.252
-343.391	-200.000	-0.010	-0.328
-342.377	5.799	-0.197	-0.147
-341.362	-200.000	0.022	-0.137
-340.348	159.670	0.195	-0.272
-339.333	-146.533	-0.274	0.024
-338.318	-34.736	-0.198	0.109
-337.304	68.007	-0.194	-0.199
-336.289	49.317	0.184	0.174
-335.275	133.048	0.057	-0.074
-334.260	800.000	0.061	0.202
-333.245	-21.533	0.182	0.111
-332.231	-200.000	0.013	-0.109
-331.216	-21.515	-0.251	-0.154
-330.202	201.604	0.126	0.195
-329.187	93.582	-0.036	0.041
-328.172	800.000	-0.022	-0.071
-327.158	141.388	-0.118	0.156
-326.143	-134.838	0.344	-0.042
-325.129	65.525	-0.012	-0.013
-324.114	-111.788	-0.339	-0.069
-323.099	-130.301	0.097	-0.013
-322.085	-121.570	-0.431	0.072
-321.070	800.000	-0.036	0.107
-320.056	81.797	-0.135	0.146
-319.041	-40.131	0.215	0.112
-318.026	-103.026	-0.417	0.099
-317.012	-140.406	0.110	-0.011
-315.997	-168.957	0.134	0.005
-314.983	-200.000	0.033	0.209
-313.968	-11.903	0.068	0.045
-312.953	601.813	0.163	0.406
-311.939	800.000	0.103	0.330
-310.924	-82.039	-0.092	-0.030
-309.910	7.346	0.275	0.206
-308.895	-82.290	0.121	0.039
-307.880	800.000	0.043	0.176
-306.866	6.557	0.259	0.193
-305.851	-200.000	-0.012	0.145
-304.837	8.929	0.097	0.073
-303.822	64.720	-0.121	0.123
-302.807	32.877	0.177	-0.154
-301.793	800.000	0.017	-0.061
-300.778	-57.341	0.186	-0.082
-299.764	-55.053	0.207	-0.094
-298.749	370.559	0.026	-0.053
-297.735	-39.430	0.469	-0.246
-296.720	631.419	0.058	-0.147
-295.705	31.359	0.106	-0.091
-294.691	-66.482	-0.158	0.063
-293.676	-58.950	-0.153	-0.066
-292.662	247.817	0.090	-0.153
-291.647	800.000	0.011	0.042
-290.632	4.826	0.305	0.224
-289.618	-63.405	0.111	-0.046
-288.603	-146.749	0.391	0.034
-287.589	-200.000	-0.012	0.240
-286.574	-64.524	0.256	0.104
-285.559	800.000	-0.089	-0.381
-284.545	66.823	0.148	0.151
-283.530	65.098	0.102	0.104
-282.516	-146.061	0.331	-0.029
-281.501	-200.000	0.050	0.392
-280.486	107.066	0.054	0.065
-279.472	94.734	-0.161	0.184
-278.457	-200.000	-0.011	0.074
-277.443	-200.000	0.016	-0.199
-276.428	-26.739	-0.131	0.077
-275.413	157.391	0.029	0.040
-274.399	800.000	-0.034	-0.143
-273.384	686.603	-0.034	0.090
-272.370	-142.123	0.454	-0.045
-271.355	42.628	0.276	-0.252
-270.340	48.064	-0.416	-0.389
-269.326	148.782	-0.036	-0.048
-268.311	-9.467	0.177	0.118
-267.297	546.626	-0.122	0.291
-266.282	76.460	-0.165	0.175
-265.267	-200.000	-0.094	-0.717
-264.253	143.480	0.087	0.116
-263.238	-200.000	0.032	0.256
-262.224	24.083	0.137	0.114
-261.209	-200.000	-0.036	0.305
-260.195	-36.615	-0.148	0.080
-259.180	65.141	-0.204	-0.206
-258.165	-144.137	0.164	-0.015
-257.151	-93.127	-0.042	0.012
-256.136	-200.000	-0.030	-0.302
-255.122	232.631	0.198	-0.326
-254.107	40.576	0.097	-0.088
-253.092	-30.755	-0.096	-0.055
-252.078	-191.762	0.337	-0.003
-251.063	197.141	-0.193	0.295
-250.049	-200.000	-0.013	0.244
-249.034	-200.000	-0.016	-0.427
-248.019	324.583	0.169	-0.322
-247.005	-83.172	0.037	-0.012
-245.990	66.298	-0.059	-0.060
-244.976	414.124	0.146	0.311
-243.961	15.130	-0.157	0.123
-242.946	-122.784	0.360	0.058
-241.932	-126.673	0.236	-0.035
-240.917	-137.252	0.131	0.015
-239.903	-200.000	-0.020	-0.138
-238.888	-149.607	-0.188	0.015
-237.873	-150.249	-0.375	-0.029
-236.859	-138.531	-0.216	-0.024
-235.844	115.462	0.028	0.034
-234.830	-41.309	-0.370	0.191
-233.815	-200.000	0.009	-0.144
-232.800	189.060	0.042	0.064
-231.786	-138.593	0.049	-0.005
-230.771	-200.000	0.003	-0.091
-229.757	800.000	-0.014	-0.040
-228.742	-91.158	0.209	0.060
-227.727	-54.793	-0.157	0.071
-226.713	-200.000	-0.060	-0.289
-225.698	-200.000	-0.002	0.077
-224.684	-15.646	0.160	-0.102
-223.669	-70.505	-0.248	0.094
-222.655	-37.904	0.024	0.013
-221.640	-187.118	-0.383	-0.005
-220.625	241.370	-0.055	0.092
-219.611	-81.079	0.318	-0.105
-218.596	175.980	-0.128	0.186
-217.582	-50.512	0.139	0.065
-216.567	376.458	-0.136	-0.277
-215.552	155.817	0.200	-0.276
-214.538	800.000	0.045	-0.166
-213.523	11.147	0.291	0.223
-212.509	-200.000	0.055	-0.286
-211.494	183.906	0.137	-0.203
-210.479	104.120	0.181	-0.212
-209.465	68.649	0.160	0.164
-208.450	-200.000	0.026	0.165
-207.436	87.294	-0.073	0.081
-206.421	547.260	0.009	-0.022
-205.406	-200.000	0.020	0.186
-204.392	125.315	0.130	0.164
-203.377	-11.958	-0.256	-0.168
-202.363	-87.965	0.302	0.091
-201.348	24.935	0.151	0.125
-200.333	496.946	0.063	-0.144
-199.319	-126.827	0.152	-0.022
-198.304	-200.000	0.003	0.100
-197.290	31.891	0.187	0.160
-196.275	5.894	-0.117	-0.086
-195.260	420.108	0.053	-0.114
-194.246	-29.687	-0.175	-0.100
-193.231	-52.072	-0.044	0.021
-192.217	226.808	0.073	0.119
-191.202	-169.736	0.125	-0.005
-190.187	-90.896	-0.141	0.040
-189.173	800.000	0.018	-0.067
-188.158	-200.000	0.025	-0.115
-187.144	30.316	-0.077	-0.066
-186.129	-73.569	-0.167	0.061
-185.114	212.425	-0.171	-0.269
-184.100	60.352	-0.239	-0.236
-183.085	-200.000	0.023	0.111
-182.071	-188.253	0.197	0.002
-181.056	-20.854	-0.238	-0.145
-180.042	289.881	-0.044	-0.079
-179.027	-200.000	-0.027	0.185
-178.012	51.275	0.510	0.483
-176.998	-200.000	-0.247	0.000
-175.983	-32.819	0.020	-0.011
-174.969	-81.258	-0.314	0.103
-173.954	800.000	-0.109	0.370
-172.939	-176.521	-0.244	-0.006
-171.925	-9.100	0.218	-0.145
-170.910	-101.829	-0.160	0.039
-169.896	-75.754	-0.058	0.020
-168.881	212.267	0.091	-0.142
-167.866	158.784	0.101	0.140
-166.852	-128.968	0.104	0.014
-165.837	-200.000	0.025	-0.179
-164.823	316.311	-0.098	0.184
-163.808	-113.730	0.337	-0.065
-162.793	-200.000	0.010	-0.196
-161.779	34.356	0.202	-0.176
-160.764	800.000	-0.072	-0.210
-159.750	298.680	0.058	-0.106
-158.735	-68.634	-0.110	0.042
-157.720	20.507	0.252	-0.203
-156.706	-26.481	0.159	0.093
-155.691	-19.800	0.116	-0.072
-154.677	701.672	-0.145	-0.380
-153.662	87.793	0.046	0.051
-152.647	-37.845	-0.175	-0.093
-151.633	-200.000	0.028	-0.124
-150.618	-53.853	0.098	-0.044
-149.604	-84.032	-0.269	-0.085
-148.589	800.000	-0.054	-0.233
-147.574	500.662	0.079	-0.181
-146.560	-106.743	-0.262	0.058
-145.545	-110.682	-0.301	-0.062
-144.531	103.922	0.181	0.212
-143.516	-28.232	-0.167	0.096
-142.502	-133.857	0.172	-0.021
-141.487	-105.529	-0.120	0.027
-140.472	201.532	0.175	-0.268
-139.458	-49.711	0.353	0.167
-138.443	24.528	0.077	0.063
-137.429	604.999	0.043	0.106
-136.414	186.275	0.167	-0.247
-135.399	-30.840	0.585	0.329
-134.385	-101.812	0.151	0.036
-133.370	226.518	0.085	0.137
-132.356	-128.972	0.130	0.018
-131.341	-87.852	-0.331	0.099
-130.326	-91.880	-0.230	0.065
-129.312	278.804	0.081	0.143
-128.297	126.159	-0.169	0.213
-127.283	88.442	0.335	0.371
-126.268	800.000	0.022	0.063
-125.253	72.244	-0.226	0.234
-124.239	67.680	0.125	-0.128
-123.224	364.424	-0.089	0.179
-122.210	177.569	-0.121	0.176
-121.195	-162.169	-0.203	-0.010
-120.180	48.492	-0.218	-0.204
