DTS Sentinel unit serial number:	SN413079Multiplexer serial number:	ORYXHardware model number:	OX4-SRSoftware version number:	ORYX F/W v4.00 Oryx Data Collector v3.7.2.0data status	okinstallation	princeton_trtdifferential loss correction	single-endedforward channel	channel 3reverse channel	N/Adate	2019/09/17time	04:56:35forward acquisition time	60.00reverse acquisition time	0.00gamma	496.2192k internal	0.2324k external	0.2324temperature offset calibration	0.9944default loss term (dB/km)	0.3790temperature slope calibration	1.0000multiplexer offset coefficient	1.0000multiplexer slope coefficient	1.0000fibre end	0.00T internal ref (°C)	29.50T ext. ref 1 (°C)	0.14T ext. ref 2 (°C)	23.91length (m)	temperature (°C)	Stokes	anti-Stokes-747.200	-54.812	-0.153	-0.070
-746.185	-43.679	-0.088	-0.045
-745.171	-200.000	-0.030	0.151
-744.156	800.000	0.098	0.336
-743.142	-90.266	0.148	0.043
-742.127	-200.000	0.041	0.259
-741.112	-120.113	-0.290	0.050
-740.098	-2.967	0.097	0.068
-739.083	8.277	0.117	0.089
-738.069	-200.000	-0.066	0.331
-737.054	-200.000	0.007	0.077
-736.039	-200.000	-0.004	0.094
-735.025	97.456	0.152	-0.176
-734.010	-99.841	0.139	-0.035
-732.996	91.908	-0.245	-0.278
-731.981	-106.452	0.173	-0.039
-730.966	680.559	-0.185	-0.485
-729.952	-100.712	-0.303	-0.075
-728.937	157.492	0.020	-0.028
-727.923	-73.756	-0.301	0.110
-726.908	-76.158	0.110	0.039
-725.894	191.995	-0.145	-0.221
-724.879	87.621	-0.197	-0.221
-723.864	248.327	-0.057	0.098
-722.850	-38.061	0.264	-0.141
-721.835	-62.828	0.082	0.034
-720.821	800.000	0.031	-0.132
-719.806	106.216	-0.271	-0.323
-718.791	-67.620	-0.270	-0.107
-717.777	-7.243	-0.160	0.110
-716.762	553.016	-0.077	0.186
-715.748	800.000	-0.065	-0.229
-714.733	54.158	-0.155	-0.150
-713.718	82.139	0.136	-0.149
-712.704	20.509	0.298	-0.243
-711.689	56.390	0.166	-0.163
-710.675	-150.021	0.442	-0.035
-709.660	-200.000	0.026	0.170
-708.645	70.997	-0.066	-0.069
-707.631	800.000	-0.027	-0.104
-706.616	-122.591	-0.123	-0.020
-705.602	-46.947	-0.078	0.039
-704.587	-200.000	-0.044	-0.245
-703.572	-69.193	-0.066	-0.026
-702.558	346.583	-0.136	0.269
-701.543	800.000	0.051	0.217
-700.529	-107.247	0.226	0.050
-699.514	-44.909	0.320	0.161
-698.499	-200.000	0.076	0.352
-697.485	-200.000	-0.157	-0.001
-696.470	800.000	-0.052	-0.222
-695.456	27.366	0.126	0.106
-694.441	-12.598	-0.207	0.136
-693.426	-200.000	-0.053	0.247
-692.412	-200.000	0.072	0.347
-691.397	-27.442	-0.188	0.110
-690.383	-200.000	0.169	0.000
-689.368	-87.643	0.178	0.054
-688.354	-46.749	0.402	0.198
-687.339	-60.685	-0.154	0.066
-686.324	430.567	0.032	-0.069
-685.310	44.718	-0.225	-0.208
-684.295	152.237	-0.216	0.296
-683.281	-120.805	-0.280	0.048
-682.266	-16.242	-0.307	-0.196
-681.251	-200.000	0.022	0.370
-680.237	-200.000	-0.006	-0.030
-679.222	-97.625	0.190	-0.050
-678.208	-109.995	0.216	0.046
-677.193	-25.625	0.266	0.158
-676.178	172.783	0.060	-0.087
-675.164	7.626	0.160	0.121
-674.149	157.081	-0.170	0.237
-673.135	800.000	-0.035	-0.141
-672.120	-200.000	-0.005	0.124
-671.105	41.172	-0.126	0.115
-670.091	237.740	0.091	-0.153
-669.076	-43.641	0.285	0.145
-668.062	-26.152	0.133	-0.079
-667.047	178.067	-0.230	-0.337
-666.032	-95.876	-0.103	0.028
-665.018	99.086	0.158	0.184
-664.003	78.197	0.292	0.314
-662.989	800.000	0.037	-0.135
-661.974	-200.000	-0.014	-0.247
-660.959	77.339	-0.277	-0.297
-659.945	800.000	-0.015	0.056
-658.930	800.000	0.044	-0.152
-657.916	334.249	-0.023	-0.045
-656.901	10.843	-0.164	0.126
-655.886	-53.875	-0.242	-0.111
-654.872	52.005	0.218	-0.209
-653.857	-153.132	0.185	0.013
-652.843	-81.959	-0.190	0.063
-651.828	800.000	-0.006	-0.024
-650.814	-73.820	-0.249	-0.091
-649.799	57.161	0.205	0.201
-648.784	-140.840	-0.337	-0.035
-647.770	-5.186	-0.352	0.243
-646.755	306.879	0.046	0.085
-645.741	-178.719	-0.214	-0.005
-644.726	98.123	-0.250	0.290
-643.711	-13.603	0.235	0.153
-642.697	-22.197	0.206	-0.126
-641.682	95.839	-0.059	0.067
-640.668	-116.293	0.087	0.016
-639.653	-140.934	0.089	0.009
-638.638	-42.336	0.374	-0.192
-637.624	-70.834	-0.199	0.075
-636.609	-24.021	-0.271	-0.163
-635.595	-200.000	0.013	-0.406
-634.580	8.067	-0.165	0.125
-633.565	-49.683	0.104	-0.050
-632.551	-85.566	-0.547	0.171
-631.536	800.000	-0.050	-0.143
-630.522	-200.000	-0.007	0.036
-629.507	-31.540	-0.251	0.142
-628.492	-200.000	-0.051	0.267
-627.478	167.559	-0.118	-0.169
-626.463	253.866	-0.039	-0.068
-625.449	201.109	0.202	-0.312
-624.434	-200.000	-0.006	0.278
-623.419	197.603	-0.160	0.245
-622.405	702.067	-0.106	0.280
-621.390	-62.099	0.257	-0.108
-620.376	-200.000	-0.005	-0.097
-619.361	-106.771	-0.147	0.033
-618.346	-200.000	-0.031	-0.174
-617.332	-200.000	0.033	0.180
-616.317	-77.775	-0.256	-0.089
-615.303	-200.000	-0.006	0.064
-614.288	-50.456	0.149	-0.071
-613.273	157.350	0.256	-0.356
-612.259	-96.213	-0.230	0.061
-611.244	261.936	-0.018	-0.032
-610.230	-97.591	-0.241	0.063
-609.215	800.000	-0.038	0.112
-608.201	-92.657	-0.193	0.054
-607.186	10.766	0.098	-0.075
-606.171	-66.460	0.116	0.046
-605.157	800.000	-0.048	-0.148
-604.142	-200.000	0.016	0.110
-603.128	-200.000	-0.006	-0.121
-602.113	-200.000	0.016	-0.187
-601.098	267.619	0.064	-0.112
-600.084	-121.322	-0.191	-0.032
-599.069	-2.640	0.120	-0.084
-598.055	623.245	0.039	-0.100
-597.040	-172.294	0.075	-0.002
-596.025	-15.242	-0.176	-0.113
-595.011	246.824	-0.113	0.192
-593.996	-200.000	-0.000	0.045
-592.982	-44.367	0.320	-0.161
-591.967	168.665	0.035	-0.050
-590.952	190.644	-0.016	-0.024
-589.938	65.402	0.267	-0.272
-588.923	-71.892	-0.202	0.075
-587.909	-200.000	-0.018	-0.170
-586.894	501.126	-0.138	-0.320
-585.879	57.915	-0.078	-0.077
-584.865	542.336	0.052	-0.125
-583.850	-84.524	-0.338	-0.107
-582.836	166.817	0.056	-0.080
-581.821	445.564	-0.051	0.113
-580.806	-113.920	0.218	-0.042
-579.792	114.614	-0.048	-0.058
-578.777	88.058	-0.146	-0.163
-577.763	26.658	-0.077	0.065
-576.748	-23.966	-0.088	0.053
-575.733	417.336	-0.024	0.051
-574.719	-75.451	-0.374	0.134
-573.704	-150.822	-0.170	-0.013
-572.690	-51.919	-0.160	0.075
-571.675	-109.509	-0.161	-0.034
-570.661	133.509	0.156	0.202
-569.646	-143.019	-0.124	0.012
-568.631	-200.000	-0.008	0.186
-567.617	-200.000	-0.048	-0.363
-566.602	800.000	0.020	-0.060
-565.588	-44.148	-0.087	-0.044
-564.573	800.000	-0.060	0.262
-563.558	127.722	-0.220	-0.280
-562.544	24.687	0.263	0.218
-561.529	-110.539	-0.159	-0.033
-560.515	-50.162	-0.286	0.136
-559.500	132.900	0.032	-0.041
-558.485	177.469	-0.440	-0.642
-557.471	55.033	0.077	0.075
-556.456	262.929	-0.128	0.222
-555.442	-200.000	-0.056	0.280
-554.427	-157.549	0.237	0.014
-553.412	-62.784	0.468	-0.194
-552.398	800.000	-0.021	-0.089
-551.383	800.000	0.045	-0.149
-550.369	256.157	-0.169	0.290
-549.354	-111.743	-0.265	-0.054
-548.339	-98.587	0.456	0.117
-547.325	-179.332	-0.610	-0.014
-546.310	-200.000	0.018	0.146
-545.296	-200.000	0.017	-0.112
-544.281	105.058	-0.174	-0.206
-543.266	207.101	-0.130	-0.203
-542.252	303.444	-0.232	0.431
-541.237	800.000	-0.061	0.197
-540.223	-28.418	-0.265	-0.153
-539.208	-112.831	0.025	0.005
-538.193	-150.246	-0.069	0.005
-537.179	-86.576	-0.188	-0.058
-536.164	328.787	0.009	0.018
-535.150	43.112	0.195	-0.178
-534.135	-167.573	0.148	0.006
-533.121	413.178	0.053	0.113
-532.106	-200.000	-0.028	-0.414
-531.091	-58.113	0.133	0.058
-530.077	-75.867	0.294	0.104
-529.062	-71.007	0.316	0.119
-528.048	282.237	-0.055	0.099
-527.033	-74.433	-0.287	0.103
-526.018	529.509	0.054	-0.129
-525.004	-77.887	-0.105	-0.036
-523.989	-200.000	0.030	0.323
-522.975	365.631	-0.114	-0.230
-521.960	-89.781	0.153	-0.045
-520.945	-33.197	-0.065	0.036
-519.931	-72.062	-0.084	0.031
-518.916	-200.000	0.012	-0.203
-517.902	-200.000	0.022	-0.280
-516.887	-200.000	-0.008	-0.086
-515.872	-28.880	0.051	-0.029
-514.858	800.000	-0.018	0.063
-513.843	800.000	0.059	-0.189
-512.829	-200.000	0.035	-0.195
-511.814	101.320	0.340	0.396
-510.799	-200.000	0.034	0.178
-509.785	679.304	0.053	0.139
-508.770	120.871	-0.078	-0.097
-507.756	-200.000	-0.020	-0.350
-506.741	-200.000	-0.007	-0.130
-505.726	51.499	0.144	0.137
-504.712	130.057	-0.069	0.089
-503.697	263.095	0.203	-0.352
-502.683	-200.000	-0.028	-0.167
-501.668	167.253	-0.110	-0.156
-500.653	800.000	0.016	0.069
-499.639	64.672	0.281	-0.283
-498.624	338.217	0.002	-0.004
-497.610	-83.922	0.129	0.041
-496.595	590.286	-0.033	0.082
-495.581	277.567	-0.078	0.138
-494.566	-45.250	0.186	0.092
-493.551	-200.000	0.018	0.356
-492.537	236.262	-0.094	0.155
-491.522	-148.695	-0.146	-0.012
-490.508	251.273	0.062	0.106
-489.493	-39.844	0.043	0.023
-488.478	800.000	-0.081	0.269
-487.464	-200.000	0.016	0.128
-486.449	55.424	-0.089	0.086
-485.435	800.000	-0.102	0.309
-484.420	-200.000	-0.014	-0.529
-483.405	243.864	0.144	-0.241
-482.391	-70.412	0.185	0.070
-481.376	33.673	0.152	0.132
-480.362	-69.945	-0.071	-0.027
-479.347	255.998	0.019	0.033
-478.332	-142.648	-0.111	-0.011
-477.318	81.262	0.187	0.202
-476.303	368.540	0.185	-0.375
-475.289	234.324	0.071	-0.116
-474.274	-0.793	-0.142	-0.100
-473.259	-200.000	0.009	-0.374
-472.245	800.000	0.017	-0.049
-471.230	-8.874	-0.255	0.171
-470.216	-136.132	0.246	0.029
-469.201	75.830	-0.222	0.235
-468.186	89.038	0.107	0.118
-467.172	-105.835	-0.394	0.089
-466.157	314.451	0.072	-0.135
-465.143	-118.248	0.177	0.031
-464.128	606.265	-0.160	0.398
-463.113	-176.090	-0.061	0.002
-462.099	487.211	0.178	0.405
-461.084	-200.000	0.035	-0.154
-460.070	22.799	0.026	0.021
-459.055	-67.235	-0.415	0.163
-458.040	373.762	-0.137	-0.277
-457.026	533.672	0.037	-0.087
-456.011	-127.970	0.467	0.067
-454.997	800.000	-0.097	-0.386
-453.982	-142.314	-0.084	-0.008
-452.968	76.091	-0.097	0.102
-451.953	-119.176	-0.317	0.055
-450.938	511.693	-0.156	-0.364
-449.924	-1.827	0.346	0.243
-448.909	163.863	-0.195	0.274
-447.895	-53.508	0.270	0.123
-446.880	-40.103	-0.158	0.082
-445.865	-11.631	0.110	-0.072
-444.851	601.529	-0.066	-0.164
-443.836	-200.000	0.016	-0.287
-442.822	-200.000	-0.043	0.435
-441.807	-187.265	0.308	-0.004
-440.792	151.869	-0.049	-0.067
-439.778	-155.668	-0.292	-0.019
-438.763	60.524	-0.226	0.223
-437.749	461.475	0.058	-0.130
-436.734	-106.635	0.414	-0.092
-435.719	-200.000	-0.003	-0.019
-434.705	-32.632	-0.069	0.038
-433.690	-121.389	0.169	-0.028
-432.676	-137.954	-0.100	-0.011
-431.661	655.071	0.031	0.081
-430.646	800.000	-0.095	-0.293
-429.632	-200.000	-0.064	0.359
-428.617	7.143	0.125	0.093
-427.603	169.286	-0.115	-0.163
-426.588	61.378	0.063	-0.062
-425.573	-171.127	-0.119	-0.004
-424.559	30.819	0.124	0.106
-423.544	2.616	0.330	-0.239
-422.530	-200.000	-0.065	0.378
-421.515	1.504	0.093	0.066
-420.500	-53.815	-0.268	-0.122
-419.486	-200.000	-0.055	-0.245
-418.471	-36.421	-0.379	0.203
-417.457	-164.969	0.163	0.007
-416.442	-69.170	0.312	-0.120
-415.428	-200.000	-0.009	-0.214
-414.413	-23.719	-0.234	0.140
-413.398	242.177	-0.151	0.252
-412.384	-176.043	0.147	-0.004
-411.369	-200.000	-0.015	-0.266
-410.355	-200.000	-0.002	-0.232
-409.340	-107.107	-0.099	-0.022
-408.325	40.845	0.180	-0.162
-407.311	800.000	-0.051	-0.155
-406.296	800.000	0.038	-0.139
-405.282	101.395	-0.146	-0.170
-404.267	73.656	-0.080	0.084
-403.252	-185.819	-0.208	0.003
-402.238	-73.844	0.361	-0.131
-401.223	38.558	-0.164	0.146
-400.209	-147.804	0.059	-0.005
-399.194	-9.837	0.179	-0.119
-398.179	339.557	-0.252	-0.490
-397.165	69.642	-0.075	0.077
-396.150	800.000	0.105	0.325
-395.136	434.096	-0.131	-0.284
-394.121	425.220	0.067	0.144
-393.106	-62.619	0.127	-0.053
-392.092	99.933	0.014	-0.016
-391.077	239.317	0.032	0.054
-390.063	-32.963	0.316	0.175
-389.048	-71.854	0.165	-0.061
-388.033	174.041	0.222	0.319
-387.019	-88.142	0.170	0.051
-386.004	405.329	-0.039	-0.081
-384.990	62.018	0.070	0.069
-383.975	800.000	0.059	-0.243
-382.960	-200.000	0.018	0.287
-381.946	-200.000	0.001	0.062
-380.931	130.790	0.082	0.105
-379.917	-55.498	0.242	-0.108
-378.902	-138.996	0.237	0.026
-377.888	61.041	-0.212	0.210
-376.873	-200.000	0.021	-0.101
-375.858	754.331	-0.108	0.289
-374.844	-200.000	-0.006	0.210
-373.829	800.000	0.140	0.433
-372.815	-25.760	0.282	0.165
-371.800	-200.000	-0.043	0.272
-370.785	-35.615	-0.227	-0.123
-369.771	-138.152	-0.251	0.028
-368.756	-38.963	-0.159	0.083
-367.742	-50.549	0.304	-0.143
-366.727	211.452	-0.154	-0.242
-365.712	-200.000	-0.005	-0.184
-364.698	30.820	0.131	0.111
-363.683	-200.000	0.038	0.173
-362.669	-200.000	0.027	0.157
-361.654	48.060	-0.053	-0.049
-360.639	-17.292	0.116	-0.073
-359.625	-42.244	0.200	0.102
-358.610	8.044	0.290	0.216
-357.596	-82.781	-0.115	0.037
-356.581	-118.448	0.331	0.058
-355.566	144.698	0.259	-0.344
-354.552	-112.001	0.252	-0.051
-353.537	-200.000	-0.048	0.284
-352.523	75.156	0.218	-0.228
-351.508	523.174	-0.027	0.062
-350.493	357.889	0.056	0.111
-349.479	-120.468	0.221	-0.037
-348.464	-200.000	-0.019	0.116
-347.450	-102.994	0.398	-0.094
-346.435	-71.090	0.099	-0.037
-345.420	-200.000	-0.081	-0.493
-344.406	-200.000	0.018	0.168
-343.391	-200.000	0.040	0.220
-342.377	-200.000	0.051	-0.230
-341.362	390.679	-0.078	0.160
-340.348	-23.289	0.044	-0.026
-339.333	-76.818	-0.234	-0.081
-338.318	-159.444	0.289	0.016
-337.304	24.108	-0.197	0.161
-336.289	-200.000	0.006	-0.139
-335.275	558.304	0.131	-0.314
-334.260	559.970	0.061	0.146
-333.245	-98.582	-0.475	0.120
-332.231	-200.000	-0.060	0.441
-331.216	606.307	-0.048	-0.118
-330.202	-56.641	0.110	0.048
-329.187	-121.221	0.082	-0.014
-328.172	-67.267	-0.090	0.035
-327.158	-144.051	0.411	-0.038
-326.143	-141.565	0.416	-0.042
-325.129	483.439	0.055	0.125
-324.114	128.678	0.074	0.094
-323.099	-142.646	-0.127	0.012
-322.085	419.001	0.044	0.094
-321.070	-31.390	0.213	-0.119
-320.056	279.008	0.217	-0.384
-319.041	-148.236	0.126	0.010
-318.026	-38.165	0.360	-0.189
-317.012	77.184	-0.131	-0.139
-315.997	-0.454	-0.138	0.097
-314.983	-61.852	-0.087	-0.036
-313.968	-118.433	-0.146	-0.026
-312.953	-30.310	0.173	0.098
-311.939	74.176	-0.321	-0.335
-310.924	132.660	-0.112	-0.143
-309.910	-43.833	0.337	0.168
-308.895	-200.000	-0.015	-0.067
-307.880	-72.741	0.262	-0.096
-306.866	800.000	0.152	-0.420
-305.851	165.761	0.052	-0.073
-304.837	-50.177	-0.323	-0.152
-303.822	450.375	0.209	-0.457
-302.807	255.837	-0.191	0.325
-301.793	399.702	-0.041	-0.085
-300.778	-112.820	-0.243	0.048
-299.764	8.121	0.042	0.031
-298.749	-79.089	-0.242	-0.081
-297.735	70.329	0.069	-0.071
-296.720	800.000	-0.105	-0.411
-295.705	34.806	-0.197	0.171
-294.691	-75.841	0.247	0.087
-293.676	115.093	0.030	0.036
-292.662	154.794	-0.159	0.217
-291.647	703.110	-0.014	-0.038
-290.632	24.903	-0.085	-0.070
-289.618	800.000	-0.068	0.194
-288.603	-64.643	0.211	-0.085
-287.589	-200.000	-0.025	0.233
-286.574	-91.703	-0.106	0.030
-285.559	-41.407	-0.103	-0.053
-284.545	147.318	-0.089	-0.119
-283.530	226.173	-0.117	-0.189
-282.516	-200.000	-0.006	0.360
-281.501	-79.024	-0.195	0.066
-280.486	-116.754	-0.013	0.002
-279.472	75.267	-0.060	-0.063
-278.457	-78.047	-0.038	-0.013
-277.443	-200.000	0.038	0.195
-276.428	-91.367	0.096	0.027
-275.413	-146.959	-0.150	0.013
-274.399	-200.000	0.019	0.423
-273.384	800.000	-0.056	0.175
-272.370	-200.000	-0.047	-0.470
-271.355	-57.292	-0.151	-0.066
-270.340	-115.976	0.031	-0.006
-269.326	169.178	0.133	-0.188
-268.311	5.441	-0.044	-0.032
-267.297	-66.913	-0.279	0.109
-266.282	-200.000	0.013	-0.134
-265.267	-185.392	0.301	0.005
-264.253	413.645	0.059	0.125
-263.238	-55.603	-0.133	0.059
-262.224	800.000	0.039	-0.152
-261.209	800.000	0.052	-0.211
-260.195	-76.608	-0.351	-0.122
-259.180	345.364	-0.026	0.050
-258.165	-200.000	-0.009	-0.172
-257.151	800.000	0.003	-0.013
-256.136	95.799	-0.062	0.070
-255.122	273.468	-0.060	0.105
-254.107	216.275	0.059	-0.094
-253.092	-145.876	-0.405	-0.036
-252.078	800.000	0.024	0.077
-251.063	-198.527	0.057	-0.000
-250.049	800.000	0.042	-0.117
-249.034	76.940	0.235	0.247
-248.019	-200.000	0.105	-0.000
-247.005	800.000	-0.063	0.260
-245.990	144.196	0.093	0.123
-244.976	-40.034	-0.247	0.128
-243.961	301.299	-0.131	0.240
-242.946	-200.000	-0.009	0.222
-241.932	231.374	-0.229	0.372
-240.917	48.767	0.099	0.092
-239.903	247.506	-0.217	0.364
-238.888	43.652	-0.366	0.331
-237.873	328.368	-0.074	0.140
-236.859	800.000	-0.077	0.227
-235.844	-94.478	0.284	0.077
-234.830	-124.217	-0.262	0.041
-233.815	-12.629	-0.348	0.225
-232.800	-24.272	0.068	0.040
-231.786	-200.000	-0.025	-0.133
-230.771	83.938	-0.195	-0.210
-229.757	-200.000	0.023	0.208
-228.742	-10.070	-0.289	-0.190
-227.727	404.487	0.109	0.227
-226.713	-130.546	-0.177	0.024
-225.698	800.000	0.096	-0.405
-224.684	119.682	-0.034	0.042
-223.669	-158.860	-0.186	0.011
-222.655	7.338	0.318	0.235
-221.640	-200.000	-0.022	-0.121
-220.625	603.464	0.012	0.029
-219.611	-23.410	0.107	-0.064
-218.596	800.000	0.095	0.321
-217.582	-66.684	-0.043	0.017
-216.567	597.687	0.116	0.284
-215.552	-113.903	-0.197	-0.038
-214.538	-132.405	-0.104	0.013
-213.523	-83.654	0.188	0.059
-212.509	148.593	0.095	0.127
-211.494	12.374	0.185	-0.141
-210.479	-19.295	-0.111	0.068
-209.465	-200.000	0.024	0.108
-208.450	-119.713	0.132	-0.023
-207.436	-18.279	0.184	0.114
-206.421	-83.533	0.238	-0.075
-205.406	-200.000	0.053	-0.312
-204.392	-36.267	-0.119	0.063
-203.377	800.000	0.140	-0.388
-202.363	-200.000	0.043	-0.277
-201.348	-30.705	0.410	0.229
-200.333	161.359	0.117	-0.162
-199.319	696.186	0.146	-0.379
-198.304	800.000	-0.013	0.044
-197.290	-200.000	0.021	0.191
-196.275	800.000	0.078	-0.293
-195.260	-148.990	-0.276	0.022
-194.246	-137.657	0.119	0.013
-193.231	200.363	-0.020	-0.030
-192.217	800.000	-0.094	0.396
-191.202	19.616	0.087	0.070
-190.187	-200.000	-0.051	-0.265
-189.173	87.718	0.174	0.191
-188.158	800.000	0.051	0.195
-187.144	109.440	-0.164	-0.194
-186.129	148.883	0.105	-0.140
-185.114	-6.848	0.089	-0.060
-184.100	-122.696	0.474	0.076
-183.085	28.123	-0.111	-0.092
-182.071	18.001	0.225	0.177
-181.056	422.645	-0.047	0.100
-180.042	-152.486	-0.046	0.003
-179.027	59.682	0.087	0.084
-178.012	586.465	0.124	0.301
-176.998	84.867	0.203	-0.220
-175.983	-77.245	0.390	0.134
-174.969	-200.000	0.012	-0.092
-173.954	-111.488	0.156	0.031
-172.939	-140.237	0.253	-0.026
-171.925	40.554	0.205	0.182
-170.910	9.003	0.209	0.156
-169.896	188.544	0.190	-0.281
-168.881	-14.173	-0.240	-0.153
-167.866	-153.645	-0.120	-0.008
-166.852	-71.291	0.220	-0.081
-165.837	-141.957	-0.157	-0.015
-164.823	-200.000	-0.031	0.167
-163.808	-200.000	-0.017	-0.167
-162.793	403.560	-0.072	0.150
-161.779	-71.631	-0.275	-0.101
-160.764	-200.000	-0.010	-0.293
-159.750	155.477	-0.123	-0.168
-158.735	145.392	-0.127	-0.167
-157.720	-200.000	-0.010	-0.052
-156.706	247.135	-0.017	-0.029
-155.691	-92.764	-0.182	-0.050
-154.677	682.029	0.078	0.202
-153.662	571.723	-0.013	0.032
-152.647	-65.640	-0.091	-0.036
-151.633	800.000	0.088	-0.313
-150.618	325.497	-0.182	-0.344
-149.604	-120.370	0.341	-0.057
-148.589	-75.084	0.100	-0.035
-147.574	-200.000	-0.026	-0.222
-146.560	482.263	0.091	0.205
-145.545	754.135	0.043	0.115
-144.531	-200.000	0.027	0.158
-143.516	-123.327	0.173	-0.027
-142.502	-35.275	-0.282	-0.151
-141.487	-200.000	-0.041	0.185
-140.472	128.472	-0.144	-0.180
-139.458	167.455	-0.051	-0.072
-138.443	-200.000	0.028	0.247
-137.429	-200.000	-0.037	0.228
-136.414	33.649	0.059	0.051
-135.399	-41.240	-0.240	0.122
-134.385	-98.978	0.256	-0.064
-133.370	361.005	0.095	0.188
-132.356	150.852	-0.058	0.078
-131.341	621.718	0.091	-0.225
-130.326	23.148	-0.130	-0.105
-129.312	111.667	0.093	0.110
-128.297	770.242	0.045	0.121
-127.283	800.000	-0.027	0.116
-126.268	-40.463	0.131	0.067
-125.253	299.122	-0.118	0.215
-124.239	-200.000	-0.018	0.192
-123.224	-200.000	-0.001	0.234
-122.210	223.192	0.070	0.110
