DTS Sentinel unit serial number:	SN413079Multiplexer serial number:	ORYXHardware model number:	OX4-SRSoftware version number:	ORYX F/W v4.00 Oryx Data Collector v3.7.2.0data status	okinstallation	princeton_trtdifferential loss correction	single-endedforward channel	channel 3reverse channel	N/Adate	2019/09/12time	23:12:35forward acquisition time	60.00reverse acquisition time	0.00gamma	496.2192k internal	0.2328k external	0.2328temperature offset calibration	1.0123default loss term (dB/km)	0.3790temperature slope calibration	1.0000multiplexer offset coefficient	1.0000multiplexer slope coefficient	1.0000fibre end	0.00T internal ref (°C)	29.19T ext. ref 1 (°C)	3.72T ext. ref 2 (°C)	23.76length (m)	temperature (°C)	Stokes	anti-Stokes-747.200	-132.648	-0.088	-0.011
-746.185	645.751	-0.096	0.248
-745.171	-117.311	0.174	-0.032
-744.156	31.156	-0.351	0.304
-743.142	-70.560	0.124	-0.047
-742.127	-200.000	-0.010	0.139
-741.112	7.446	-0.200	0.151
-740.098	149.137	0.070	-0.096
-739.083	61.006	-0.080	-0.080
-738.069	45.782	-0.298	0.278
-737.054	-200.000	0.003	-0.129
-736.039	800.000	-0.094	-0.304
-735.025	4.116	0.099	0.073
-734.010	14.962	-0.137	-0.108
-732.996	441.652	-0.044	0.098
-731.981	-114.611	-0.434	-0.084
-730.966	-15.806	0.124	0.079
-729.952	-125.868	-0.400	0.061
-728.937	-49.284	-0.126	0.061
-727.923	-73.553	-0.231	0.085
-726.908	-188.208	0.060	0.001
-725.894	710.270	0.059	-0.158
-724.879	-56.299	-0.139	-0.062
-723.864	-200.000	0.013	-0.135
-722.850	263.566	0.182	-0.318
-721.835	-58.416	0.154	-0.067
-720.821	-83.466	0.414	-0.133
-719.806	-75.727	0.109	0.039
-718.791	47.250	-0.083	-0.078
-717.777	344.469	-0.095	0.188
-716.762	317.894	0.076	0.145
-715.748	-200.000	0.051	-0.390
-714.733	800.000	-0.010	-0.043
-713.718	-200.000	0.009	-0.226
-712.704	539.726	-0.122	-0.292
-711.689	179.616	-0.198	0.292
-710.675	-200.000	-0.034	0.259
-709.660	-200.000	-0.040	-0.215
-708.645	-99.782	-0.301	0.076
-707.631	-3.085	-0.208	0.146
-706.616	760.238	-0.013	0.035
-705.602	318.269	-0.161	-0.306
-704.587	-200.000	0.019	-0.186
-703.572	-98.640	0.255	0.065
-702.558	-116.468	-0.079	0.015
-701.543	-63.283	-0.210	-0.087
-700.529	388.663	-0.038	0.080
-699.514	-200.000	-0.078	-0.414
-698.499	-25.125	0.175	0.104
-697.485	156.998	0.100	-0.139
-696.470	95.295	-0.062	0.071
-695.456	-5.143	-0.033	0.023
-694.441	87.971	-0.359	-0.401
-693.426	103.816	-0.302	0.356
-692.412	115.411	0.187	0.230
-691.397	-24.363	-0.159	0.095
-690.383	-197.786	-0.028	0.000
-689.368	-143.122	0.249	0.024
-688.354	-126.778	-0.102	-0.015
-687.339	506.440	-0.057	-0.134
-686.324	466.443	0.037	-0.083
-685.310	84.591	0.278	0.306
-684.295	-89.352	0.033	0.010
-683.281	-57.994	-0.167	-0.073
-682.266	-107.758	0.202	0.044
-681.251	-200.000	0.020	0.130
-680.237	-101.105	-0.100	0.025
-679.222	800.000	-0.042	0.133
-678.208	-2.285	-0.089	-0.062
-677.193	-139.661	0.324	0.035
-676.178	217.168	-0.070	0.112
-675.164	181.276	0.052	-0.077
-674.149	-136.289	-0.095	0.011
-673.135	-190.051	0.331	-0.004
-672.120	185.823	0.016	-0.024
-671.105	443.413	-0.050	0.109
-670.091	87.878	-0.215	-0.240
-669.076	-109.045	0.295	-0.063
-668.062	-112.759	0.177	-0.035
-667.047	9.703	-0.050	0.038
-666.032	428.544	-0.162	0.352
-665.018	-26.095	-0.402	-0.237
-664.003	800.000	-0.076	-0.296
-662.989	-8.356	-0.203	0.137
-661.974	149.209	-0.194	0.264
-660.959	-55.322	-0.096	0.043
-659.945	-200.000	-0.020	0.231
-658.930	601.325	-0.032	0.081
-657.916	665.688	0.018	0.047
-656.901	-20.797	0.215	-0.132
-655.886	-69.196	-0.176	0.068
-654.872	248.631	0.185	0.314
-653.857	-200.000	-0.012	0.178
-652.843	-135.086	0.167	0.020
-651.828	-108.397	-0.095	0.021
-650.814	191.961	-0.059	0.089
-649.799	-200.000	-0.025	-0.168
-648.784	-200.000	0.002	-0.205
-647.770	26.294	-0.144	-0.121
-646.755	2.095	0.233	0.169
-645.741	39.686	-0.204	-0.184
-644.726	-145.045	-0.083	-0.008
-643.711	-200.000	-0.044	-0.218
-642.697	223.396	-0.040	-0.065
-641.682	-83.400	0.130	0.042
-640.668	-124.326	-0.257	0.040
-639.653	-162.362	0.128	0.006
-638.638	153.230	0.114	0.157
-637.624	-137.942	0.140	-0.016
-636.609	-87.878	0.230	0.070
-635.595	12.869	0.102	-0.079
-634.580	155.230	-0.163	0.224
-633.565	111.840	-0.067	-0.081
-632.551	-200.000	-0.016	0.146
-631.536	65.103	-0.165	0.167
-630.522	-134.686	0.406	-0.050
-629.507	-123.466	-0.176	-0.028
-628.492	-200.000	0.031	-0.175
-627.478	-156.524	0.123	-0.008
-626.463	53.942	-0.103	-0.099
-625.449	-200.000	0.007	0.032
-624.434	-9.140	0.388	0.260
-623.419	-134.354	-0.375	0.046
-622.405	72.795	-0.022	-0.023
-621.390	27.925	0.143	0.121
-620.376	-76.084	-0.009	0.003
-619.361	-200.000	-0.009	-0.095
-618.346	501.404	0.058	-0.135
-617.332	121.885	0.045	-0.057
-616.317	-147.934	-0.085	-0.007
-615.303	-101.923	-0.477	-0.116
-614.288	2.220	0.077	0.055
-613.273	56.345	-0.162	-0.157
-612.259	92.156	0.129	-0.145
-611.244	8.246	0.042	0.032
-610.230	-3.882	0.186	-0.129
-609.215	-200.000	0.027	0.194
-608.201	-138.907	-0.078	-0.008
-607.186	57.553	0.325	-0.318
-606.171	-51.289	0.064	-0.030
-605.157	-200.000	-0.001	-0.295
-604.142	-148.904	-0.035	-0.003
-603.128	58.240	0.303	-0.297
-602.113	-81.271	-0.191	0.063
-601.098	-79.965	0.244	-0.082
-600.084	-14.522	-0.073	-0.047
-599.069	-117.152	-0.253	0.046
-598.055	40.012	0.022	0.020
-597.040	-200.000	-0.035	0.173
-596.025	800.000	-0.038	-0.152
-595.011	30.688	0.284	-0.243
-593.996	277.416	-0.086	0.153
-592.982	-200.000	-0.007	-0.059
-591.967	-33.621	-0.248	-0.137
-590.952	532.864	0.051	0.121
-589.938	-3.847	-0.202	-0.140
-588.923	287.988	-0.068	0.123
-587.909	-131.039	-0.163	-0.022
-586.894	-200.000	0.006	-0.132
-585.879	98.114	0.167	-0.193
-584.865	-10.936	-0.094	-0.062
-583.850	-65.447	-0.043	0.017
-582.836	294.030	0.014	-0.026
-581.821	-130.331	-0.086	-0.012
-580.806	775.519	0.009	-0.025
-579.792	-50.145	-0.260	0.123
-578.777	108.401	0.112	0.134
-577.763	-127.113	0.103	-0.015
-576.748	204.718	-0.081	-0.126
-575.733	-46.719	0.292	-0.143
-574.719	-31.905	0.463	0.260
-573.704	-123.642	-0.250	0.040
-572.690	340.427	0.049	-0.095
-571.675	82.639	0.089	-0.096
-570.661	517.580	0.063	0.149
-569.646	-83.836	0.380	0.121
-568.631	-195.313	-0.156	-0.001
-567.617	70.930	-0.145	0.151
-566.602	138.424	-0.130	0.171
-565.588	-87.280	-0.460	-0.140
-564.573	-66.128	-0.185	-0.074
-563.558	-200.000	0.007	-0.448
-562.544	-127.427	0.127	0.018
-561.529	-47.066	0.081	-0.039
-560.515	-86.208	0.246	0.076
-559.500	355.739	0.052	0.103
-558.485	125.499	0.091	0.115
-557.471	-156.527	-0.305	-0.019
-556.456	-153.140	-0.323	-0.023
-555.442	-200.000	0.003	0.097
-554.427	-200.000	0.027	0.240
-553.412	-20.194	-0.233	-0.144
-552.398	-200.000	0.098	0.588
-551.383	-200.000	0.001	0.247
-550.369	-66.846	0.121	-0.048
-549.354	123.168	-0.169	-0.212
-548.339	40.889	-0.108	-0.097
-547.325	310.921	0.254	-0.476
-546.310	-27.533	-0.102	-0.059
-545.296	-146.127	-0.168	0.015
-544.281	766.491	-0.126	-0.343
-543.266	800.000	0.050	0.204
-542.252	49.683	0.354	0.333
-541.237	171.626	0.194	-0.278
-540.223	-103.802	-0.038	-0.009
-539.208	-200.000	-0.031	0.142
-538.193	132.947	0.256	0.330
-537.179	124.671	0.122	-0.153
-536.164	800.000	0.134	-0.505
-535.150	202.322	0.159	-0.245
-534.135	-50.630	0.202	-0.095
-533.121	-85.145	0.266	0.083
-532.106	-37.674	0.290	0.154
-531.091	-93.758	0.186	-0.051
-530.077	-114.502	-0.222	0.043
-529.062	665.718	0.123	-0.318
-528.048	-81.746	-0.081	-0.027
-527.033	51.479	0.088	0.083
-526.018	-200.000	0.025	0.419
-525.004	65.897	-0.056	0.057
-523.989	271.857	0.038	0.067
-522.975	-169.183	-0.301	-0.011
-521.960	-73.970	-0.329	0.119
-520.945	800.000	-0.048	0.209
-519.931	-112.544	-0.211	-0.042
-518.916	591.522	0.128	0.317
-517.902	-122.010	-0.245	0.040
-516.887	800.000	-0.022	-0.086
-515.872	534.079	0.062	0.146
-514.858	-200.000	-0.024	-0.383
-513.843	317.849	0.066	-0.125
-512.829	-200.000	-0.022	-0.109
-511.814	201.420	0.091	0.140
-510.799	-75.361	-0.228	-0.081
-509.785	-200.000	-0.009	-0.164
-508.770	46.106	0.047	0.044
-507.756	800.000	-0.055	0.215
-506.741	800.000	0.068	-0.250
-505.726	-200.000	0.011	0.122
-504.712	-94.002	-0.166	0.045
-503.697	147.698	-0.070	0.094
-502.683	-128.746	0.389	0.055
-501.668	-127.844	0.161	0.023
-500.653	800.000	-0.038	-0.112
-499.639	-54.236	-0.126	0.057
-498.624	-200.000	0.022	0.222
-497.610	99.285	-0.194	-0.224
-496.595	-162.752	-0.158	-0.008
-495.581	-104.489	-0.188	0.043
-494.566	-57.679	0.272	-0.119
-493.551	-16.078	-0.290	-0.184
-492.537	217.514	-0.041	0.065
-491.522	517.993	-0.099	0.231
-490.508	-65.729	-0.041	-0.016
-489.493	-19.071	0.166	-0.103
-488.478	252.785	-0.119	0.202
-487.464	591.603	-0.022	-0.054
-486.449	-75.595	-0.309	0.110
-485.435	800.000	0.005	-0.015
-484.420	103.697	-0.191	-0.224
-483.405	67.813	0.066	-0.068
-482.391	122.054	-0.085	0.106
-481.376	70.781	0.123	-0.126
-480.362	-125.263	0.194	0.030
-479.347	-43.646	0.033	0.016
-478.332	-200.000	0.038	0.235
-477.318	87.444	0.090	-0.099
-476.303	291.973	0.100	-0.181
-475.289	-200.000	-0.041	-0.375
-474.274	-123.563	0.183	0.029
-473.259	-93.331	-0.144	-0.040
-472.245	39.877	-0.072	0.065
-471.230	69.015	0.060	-0.061
-470.216	18.327	-0.301	0.240
-469.201	-153.021	0.180	0.013
-468.186	-200.000	0.023	-0.136
-467.172	385.587	-0.117	0.240
-466.157	29.047	-0.226	0.191
-465.143	590.847	-0.051	0.127
-464.128	100.224	-0.146	0.169
-463.113	-200.000	0.016	-0.551
-462.099	-75.363	-0.055	-0.019
-461.084	59.769	0.047	-0.046
-460.070	-70.407	-0.300	-0.113
-459.055	34.890	-0.160	0.139
-458.040	41.046	-0.107	0.096
-457.026	358.817	-0.050	-0.099
-456.011	7.056	-0.092	-0.069
-454.997	140.221	0.157	-0.206
-453.982	-129.348	0.383	-0.053
-452.968	38.485	-0.086	0.076
-451.953	800.000	-0.064	0.199
-450.938	128.247	0.201	0.254
-449.924	-97.784	-0.118	-0.030
-448.909	-74.255	-0.478	0.172
-447.895	-200.000	-0.059	-0.277
-446.880	44.824	0.197	0.181
-445.865	-17.763	-0.201	0.125
-444.851	-180.164	-0.274	-0.006
-443.836	417.306	-0.077	0.164
-442.822	-11.042	-0.085	0.056
-441.807	27.555	0.110	-0.092
-440.792	-112.297	0.082	0.016
-439.778	41.009	-0.094	0.085
-438.763	-109.200	0.073	-0.015
-437.749	52.357	0.142	0.135
-436.734	-35.332	-0.334	-0.181
-435.719	459.661	-0.151	-0.335
-434.705	219.997	0.034	-0.054
-433.690	-200.000	-0.246	0.001
-432.676	-182.439	0.139	0.003
-431.661	-20.967	-0.085	-0.052
-430.646	-20.419	0.145	0.089
-429.632	211.687	0.139	0.218
-428.617	-106.758	-0.382	-0.084
-427.603	-200.000	-0.011	-0.279
-426.588	13.343	-0.222	0.172
-425.573	-174.937	-0.186	0.005
-424.559	-131.310	0.393	-0.052
-423.544	647.241	-0.087	-0.220
-422.530	-200.000	0.001	0.264
-421.515	-200.000	0.105	-0.000
-420.500	-49.958	0.073	0.035
-419.486	616.387	-0.069	0.172
-418.471	-200.000	-0.400	-0.000
-417.457	-10.411	0.127	-0.084
-416.442	44.002	0.032	0.029
-415.428	-32.354	0.074	-0.041
-414.413	206.255	0.173	0.268
-413.398	143.907	-0.153	0.203
-412.384	-118.592	-0.030	-0.005
-411.369	159.960	0.093	-0.128
-410.355	800.000	0.016	-0.045
-409.340	621.753	-0.190	-0.476
-408.325	800.000	0.086	-0.255
-407.311	46.820	0.070	0.065
-406.296	51.710	0.126	0.119
-405.282	-120.887	-0.149	-0.025
-404.267	-110.903	0.130	-0.027
-403.252	12.251	-0.193	0.148
-402.238	34.222	-0.188	-0.163
-401.223	67.354	0.115	-0.116
-400.209	-114.715	-0.115	-0.022
-399.194	311.592	-0.087	-0.163
-398.179	180.145	0.123	-0.179
-397.165	800.000	-0.027	-0.111
-396.150	-72.782	0.110	-0.040
-395.136	-146.184	0.333	-0.029
-394.121	51.847	0.099	-0.094
-393.106	-160.876	0.227	-0.012
-392.092	127.926	0.079	-0.100
-391.077	61.258	-0.131	0.129
-390.063	-91.092	0.399	-0.114
-389.048	800.000	-0.045	0.163
-388.033	-200.000	0.369	-0.000
-387.019	800.000	-0.063	-0.189
-386.004	16.075	0.070	0.055
-384.990	101.194	-0.200	-0.231
-383.975	505.607	0.124	-0.285
-382.960	-130.534	-0.133	-0.018
-381.946	254.851	-0.164	0.279
-380.931	116.736	-0.110	-0.134
-379.917	186.010	0.179	-0.264
-378.902	800.000	0.017	0.056
-377.888	101.339	-0.156	0.181
-376.873	800.000	0.027	0.116
-375.858	240.520	0.156	0.258
-374.844	58.559	0.296	0.289
-373.829	-77.711	0.172	-0.059
-372.815	-200.000	0.063	-0.291
-371.800	120.656	-0.199	-0.246
-370.785	634.004	0.072	-0.181
-369.771	-179.411	-0.169	-0.004
-368.756	4.792	-0.204	0.149
-367.742	-200.000	-0.053	0.483
-366.727	21.763	-0.200	0.162
-365.712	-55.530	0.169	0.075
-364.698	-184.311	0.292	-0.005
-363.683	-200.000	-0.027	0.120
-362.669	29.512	0.136	0.115
-361.654	-200.000	0.007	-0.181
-360.639	158.543	-0.082	-0.114
-359.625	-42.597	0.145	-0.074
-358.610	-200.000	0.016	-0.093
-357.596	222.749	-0.080	-0.128
-356.581	800.000	0.102	-0.314
-355.566	-116.090	-0.402	-0.074
-354.552	161.109	-0.210	-0.291
-353.537	58.078	0.128	-0.125
-352.523	-92.664	0.255	-0.071
-351.508	28.641	0.183	-0.154
-350.493	-200.000	-0.023	-0.147
-349.479	-126.248	-0.190	-0.028
-348.464	217.588	0.263	0.416
-347.450	-25.368	0.110	0.065
-346.435	-65.958	0.431	0.171
-345.420	-110.863	-0.227	0.046
-344.406	-94.950	-0.094	0.025
-343.391	-134.338	0.100	-0.012
-342.377	800.000	-0.173	-0.549
-341.362	156.022	0.065	0.089
-340.348	-67.947	0.414	-0.160
-339.333	44.638	-0.144	0.132
-338.318	272.607	0.115	-0.202
-337.304	37.003	-0.303	0.266
-336.289	397.612	0.091	0.188
-335.275	127.224	0.156	-0.196
-334.260	800.000	-0.058	0.241
-333.245	800.000	0.036	0.143
-332.231	-48.447	0.197	0.094
-331.216	-200.000	0.024	0.115
-330.202	-24.724	0.326	0.192
-329.187	97.889	-0.134	0.153
-328.172	-200.000	0.046	-0.279
-327.158	-41.432	0.264	-0.135
-326.143	-185.219	-0.211	0.003
-325.129	-200.000	-0.034	-0.188
-324.114	-26.250	-0.349	-0.203
-323.099	-36.835	-0.185	-0.099
-322.085	-122.044	0.256	-0.042
-321.070	-200.000	0.038	0.182
-320.056	483.900	0.104	0.235
-319.041	-114.896	-0.203	-0.038
-318.026	-161.962	0.263	0.013
-317.012	-98.075	0.192	0.049
-315.997	322.280	-0.140	0.265
-314.983	244.220	-0.056	0.094
-313.968	-108.799	0.371	-0.079
-312.953	-200.000	0.064	0.327
-311.939	800.000	0.063	-0.197
-310.924	-200.000	-0.001	0.111
-309.910	-60.929	0.377	0.158
-308.895	-62.831	-0.094	0.038
-307.880	704.399	0.108	-0.283
-306.866	-58.151	0.136	-0.059
-305.851	-137.736	0.276	0.031
-304.837	-148.120	-0.094	0.008
-303.822	-183.109	-0.347	-0.006
-302.807	-200.000	0.043	0.252
-301.793	-48.159	0.316	0.151
-300.778	9.000	-0.136	0.101
-299.764	605.339	-0.067	0.165
-298.749	-118.438	0.272	0.048
-297.735	800.000	0.100	0.298
-296.720	-200.000	0.058	0.333
-295.705	65.017	0.226	-0.226
-294.691	531.530	-0.146	0.342
-293.676	-200.000	0.029	0.173
-292.662	800.000	0.083	0.306
-291.647	-30.178	0.339	0.191
-290.632	-200.000	0.023	-0.322
-289.618	-91.045	-0.080	-0.023
-288.603	-142.263	0.318	0.031
-287.589	337.887	-0.141	0.272
-286.574	-200.000	-0.030	-0.181
-285.559	-56.632	-0.191	0.084
-284.545	-139.698	-0.092	0.010
-283.530	303.664	-0.055	0.100
-282.516	5.510	0.266	-0.194
-281.501	-138.124	-0.331	-0.036
-280.486	480.011	-0.079	0.177
-279.472	-200.000	-0.081	0.520
-278.457	-16.303	0.547	0.343
-277.443	17.362	0.231	0.182
-276.428	-38.798	-0.295	0.154
-275.413	-152.995	0.066	-0.005
-274.399	431.478	0.093	0.200
-273.384	17.516	-0.085	0.067
-272.370	40.986	-0.154	-0.138
-271.355	455.901	-0.066	-0.144
-270.340	392.360	-0.127	-0.260
-269.326	-200.000	0.025	-0.158
-268.311	345.457	0.120	-0.234
-267.297	212.481	0.099	0.155
-266.282	-101.981	-0.312	-0.075
-265.267	41.835	-0.036	-0.032
-264.253	-117.387	-0.246	-0.044
-263.238	590.707	-0.073	-0.179
-262.224	190.635	0.053	0.078
-261.209	30.278	-0.209	0.176
-260.195	-53.158	-0.171	-0.078
-259.180	-160.131	0.193	0.010
-258.165	-23.956	-0.426	0.252
-257.151	-100.747	-0.158	0.039
-256.136	-85.461	0.044	-0.013
-255.122	31.912	-0.371	0.316
-254.107	-84.497	0.304	0.095
-253.092	-88.742	-0.100	-0.029
-252.078	111.362	-0.098	0.116
-251.063	800.000	0.063	0.229
-250.049	-94.859	-0.416	0.111
-249.034	55.524	-0.162	0.155
-248.019	181.760	0.065	-0.094
-247.005	-140.901	-0.175	0.018
-245.990	419.533	-0.087	0.183
-244.976	388.593	0.085	0.173
-243.961	-200.000	-0.040	0.212
-242.946	32.665	-0.164	-0.140
-241.932	19.968	-0.089	-0.071
-240.917	-200.000	-0.003	-0.395
-239.903	401.600	-0.099	-0.206
-238.888	120.626	-0.070	0.086
-237.873	369.831	0.014	0.027
-236.859	800.000	0.087	0.253
-235.844	158.375	-0.259	-0.355
-234.830	800.000	0.029	-0.106
-233.815	-56.666	-0.190	0.083
-232.800	-155.896	0.307	-0.019
-231.786	-126.649	-0.247	-0.036
-230.771	259.134	0.070	0.118
-229.757	42.868	0.189	-0.170
-228.742	-52.184	-0.113	-0.052
-227.727	-69.288	-0.279	0.106
-226.713	-200.000	-0.056	-0.310
-225.698	585.674	-0.119	-0.289
-224.684	-200.000	0.002	0.039
-223.669	-165.005	-0.196	0.009
-222.655	357.958	0.121	0.239
-221.640	134.718	0.178	0.228
-220.625	-44.951	-0.069	-0.034
-219.611	-200.000	-0.048	-0.245
-218.596	-182.223	0.065	-0.001
-217.582	-200.000	0.034	-0.171
-216.567	800.000	-0.076	-0.288
-215.552	-164.596	0.498	0.022
-214.538	339.873	-0.067	-0.129
-213.523	-58.056	-0.274	0.118
-212.509	-200.000	0.003	0.064
-211.494	368.264	0.148	-0.296
-210.479	-13.370	-0.231	-0.148
-209.465	-200.000	-0.006	-0.145
-208.450	116.969	-0.195	-0.237
-207.436	72.583	0.030	-0.030
-206.421	20.413	-0.224	0.179
-205.406	-66.572	0.205	-0.080
-204.392	-200.000	0.051	0.241
-203.377	-118.890	0.295	0.051
-202.363	-99.467	0.056	-0.014
-201.348	64.762	0.101	-0.100
-200.333	-1.005	0.142	0.099
-199.319	75.718	-0.120	0.125
-198.304	5.823	-0.275	0.201
-197.290	-13.444	-0.164	0.105
-196.275	-32.015	0.232	0.128
-195.260	-22.895	0.104	-0.062
-194.246	-112.868	-0.206	0.040
-193.231	191.676	0.117	-0.173
-192.217	800.000	0.052	0.168
-191.202	-44.234	0.037	0.018
-190.187	-8.523	0.108	0.072
-189.173	49.460	0.239	-0.222
-188.158	-41.889	-0.218	0.110
-187.144	-128.840	0.200	-0.028
-186.129	-200.000	0.010	0.250
-185.114	157.428	0.107	-0.146
-184.100	-72.111	0.156	-0.057
-183.085	424.340	0.069	-0.146
-182.071	-200.000	-0.042	-0.290
-181.056	101.829	0.262	-0.301
-180.042	800.000	-0.135	0.384
-179.027	116.305	-0.123	0.148
-178.012	106.965	0.179	0.210
-176.998	-200.000	-0.013	0.133
-175.983	137.366	0.085	-0.109
-174.969	8.850	-0.147	0.109
-173.954	-158.908	-0.066	0.004
-172.939	-138.390	0.244	-0.027
-171.925	-200.000	-0.024	-0.350
-170.910	42.149	-0.211	0.189
-169.896	348.759	-0.087	0.170
-168.881	783.546	0.012	-0.034
-167.866	4.524	0.217	0.157
-166.852	-156.821	-0.047	0.003
-165.837	33.353	0.103	-0.088
-164.823	-88.138	-0.086	-0.025
-163.808	-4.514	-0.106	0.072
-162.793	-49.033	0.069	-0.032
-161.779	25.955	-0.135	0.111
-160.764	15.441	0.159	-0.123
-159.750	-170.517	0.268	0.009
-158.735	-133.722	0.088	-0.011
-157.720	134.105	0.131	-0.167
-156.706	-24.422	0.062	0.036
-155.691	24.572	-0.057	-0.046
-154.677	-200.000	0.007	0.274
-153.662	54.706	0.242	0.230
-152.647	124.474	-0.165	-0.205
-151.633	91.514	-0.194	-0.215
-150.618	107.642	-0.114	0.134
-149.604	800.000	0.047	0.188
-148.589	-200.000	0.205	0.001
-147.574	-55.320	0.273	0.121
-146.560	800.000	0.063	0.195
-145.545	800.000	-0.026	-0.109
-144.531	72.552	0.201	-0.206
-143.516	30.116	-0.084	-0.071
-142.502	59.243	0.119	0.116
-141.487	-108.736	0.388	0.082
-140.472	-144.437	0.416	-0.038
-139.458	-200.000	-0.068	-0.301
-138.443	3.189	0.295	-0.211
-137.429	73.243	0.148	-0.152
-136.414	31.246	0.251	-0.212
-135.399	-117.913	0.303	0.053
-134.385	-13.523	0.544	0.347
-133.370	-126.448	0.183	-0.027
-132.356	441.643	-0.098	0.211
-131.341	240.141	-0.145	0.238
-130.326	90.790	0.196	0.216
-129.312	669.536	-0.058	0.147
-128.297	-126.746	0.194	0.028
-127.283	800.000	-0.112	0.389
-126.268	-46.192	0.301	0.146
-125.253	-200.000	0.000	-0.007
-124.239	34.630	0.297	-0.255
-123.224	32.415	0.287	-0.244
-122.210	-19.218	0.150	-0.092
-121.195	-196.772	-0.203	0.001
