DTS Sentinel unit serial number:	SN413079Multiplexer serial number:	ORYXHardware model number:	OX4-SRSoftware version number:	ORYX F/W v4.00 Oryx Data Collector v3.7.2.0data status	okinstallation	princeton_trtdifferential loss correction	single-endedforward channel	channel 3reverse channel	N/Adate	2019/09/18time	19:28:35forward acquisition time	60.00reverse acquisition time	0.00gamma	496.2192k internal	0.2322k external	0.2322temperature offset calibration	1.0009default loss term (dB/km)	0.3790temperature slope calibration	1.0000multiplexer offset coefficient	1.0000multiplexer slope coefficient	1.0000fibre end	0.00T internal ref (°C)	33.06T ext. ref 1 (°C)	1.12T ext. ref 2 (°C)	22.76length (m)	temperature (°C)	Stokes	anti-Stokes-747.200	-160.110	0.213	0.012
-746.185	800.000	-0.132	0.436
-745.171	800.000	0.092	0.256
-744.156	-200.000	-0.061	0.371
-743.142	125.194	-0.116	0.147
-742.127	56.607	0.208	0.205
-741.112	248.667	-0.171	-0.293
-740.098	-200.000	-0.011	-0.090
-739.083	-200.000	-0.015	-0.165
-738.069	800.000	-0.053	0.177
-737.054	-37.010	-0.235	0.127
-736.039	-22.837	-0.259	0.158
-735.025	-125.314	0.045	-0.007
-734.010	346.699	-0.039	-0.077
-732.996	-95.347	-0.047	0.013
-731.981	-200.000	-0.008	-0.285
-730.966	-7.818	0.277	0.189
-729.952	-89.411	-0.089	0.026
-728.937	-3.237	0.197	0.139
-727.923	558.455	0.036	0.088
-726.908	99.738	0.048	-0.056
-725.894	-83.426	-0.177	-0.057
-724.879	-200.000	0.008	-0.214
-723.864	-91.928	-0.234	-0.067
-722.850	-29.303	0.282	0.163
-721.835	-96.152	-0.381	-0.102
-720.821	800.000	-0.098	-0.333
-719.806	800.000	-0.041	0.172
-718.791	1.149	0.029	-0.021
-717.777	293.927	-0.119	0.220
-716.762	267.757	-0.166	0.294
-715.748	-200.000	-0.023	0.129
-714.733	-62.425	0.294	-0.123
-713.718	-174.561	0.264	0.008
-712.704	119.326	-0.099	-0.124
-711.689	-124.855	0.288	0.045
-710.675	800.000	-0.053	0.175
-709.660	-152.946	-0.363	0.026
-708.645	800.000	-0.070	0.246
-707.631	-106.829	-0.273	-0.061
-706.616	242.389	0.110	0.186
-705.602	-67.566	0.148	0.058
-704.587	-64.487	-0.218	-0.089
-703.572	23.386	0.095	-0.079
-702.558	-119.593	0.536	-0.094
-701.543	-43.348	0.053	-0.027
-700.529	199.247	0.145	-0.225
-699.514	-124.560	0.173	0.027
-698.499	-158.960	-0.382	-0.022
-697.485	-81.896	0.118	-0.039
-696.470	-200.000	0.015	-0.098
-695.456	67.035	0.059	0.061
-694.441	198.462	0.068	-0.105
-693.426	-9.359	0.101	-0.068
-692.412	-200.000	-0.197	-0.001
-691.397	-33.370	0.049	0.027
-690.383	-83.602	-0.301	0.097
-689.368	-3.307	-0.348	-0.245
-688.354	-86.204	0.193	-0.060
-687.339	421.985	-0.107	0.231
-686.324	199.336	0.089	-0.138
-685.310	6.857	0.054	0.040
-684.295	800.000	-0.036	-0.127
-683.281	256.913	0.176	-0.305
-682.266	97.610	-0.146	-0.170
-681.251	-56.838	-0.109	0.048
-680.237	800.000	-0.044	0.158
-679.222	359.432	-0.056	-0.112
-678.208	-10.572	0.239	0.160
-677.193	-148.733	-0.101	-0.008
-676.178	-48.292	0.261	-0.127
-675.164	117.411	0.088	0.108
-674.149	10.827	-0.127	0.098
-673.135	800.000	0.075	-0.253
-672.120	384.582	0.023	0.047
-671.105	-200.000	-0.018	0.093
-670.091	76.248	-0.181	0.193
-669.076	-2.933	-0.170	0.120
-668.062	-76.031	-0.292	-0.104
-667.047	800.000	0.037	0.131
-666.032	-64.802	0.126	-0.051
-665.018	-151.383	-0.207	0.015
-664.003	-92.674	-0.032	0.009
-662.989	164.159	0.035	-0.050
-661.974	94.337	0.131	-0.150
-660.959	40.418	-0.240	0.218
-659.945	-169.458	0.332	-0.012
-658.930	-200.000	-0.085	-0.483
-657.916	-19.607	0.350	0.218
-656.901	-123.067	-0.248	0.040
-655.886	22.339	-0.140	0.115
-654.872	36.837	0.146	0.130
-653.857	-22.471	0.195	0.119
-652.843	422.225	-0.154	0.332
-651.828	290.640	-0.040	-0.074
-650.814	102.575	0.072	0.085
-649.799	-200.000	-0.028	-0.207
-648.784	52.245	0.089	0.085
-647.770	-54.624	0.095	0.043
-646.755	-50.635	0.321	-0.152
-645.741	32.450	0.210	-0.183
-644.726	105.362	0.163	-0.194
-643.711	800.000	0.036	-0.156
-642.697	-77.045	0.185	0.065
-641.682	-27.506	-0.025	-0.014
-640.668	388.917	-0.055	0.115
-639.653	800.000	-0.052	-0.221
-638.638	66.080	0.031	-0.032
-637.624	105.010	-0.073	0.086
-636.609	-28.071	-0.210	-0.122
-635.595	-200.000	0.043	-0.284
-634.580	-44.834	0.303	0.152
-633.565	434.507	0.026	0.057
-632.551	800.000	0.038	-0.106
-631.536	800.000	0.025	0.108
-630.522	59.509	0.115	-0.114
-629.507	67.929	-0.140	-0.144
-628.492	-200.000	0.039	0.297
-627.478	389.390	0.034	-0.072
-626.463	188.324	-0.062	0.093
-625.449	-18.562	0.277	-0.174
-624.434	29.747	-0.115	0.098
-623.419	-200.000	-0.026	0.448
-622.405	-200.000	0.167	-0.001
-621.390	0.480	0.150	0.108
-620.376	-87.071	-0.319	0.098
-619.361	-200.000	0.043	0.363
-618.346	123.382	0.151	-0.190
-617.332	194.872	-0.322	-0.491
-616.317	-15.616	0.308	0.198
-615.303	131.421	-0.122	0.158
-614.288	-200.000	0.004	0.051
-613.273	-35.745	0.214	-0.116
-612.259	-177.371	-0.229	0.006
-611.244	-29.543	0.228	0.131
-610.230	701.367	-0.130	0.344
-609.215	-6.640	-0.202	-0.138
-608.201	-147.496	0.209	0.018
-607.186	-133.168	-0.267	-0.034
-606.171	800.000	0.032	0.094
-605.157	339.288	0.076	-0.150
-604.142	622.934	-0.100	-0.253
-603.128	-180.280	0.355	-0.007
-602.113	-200.000	-0.075	-0.334
-601.098	-108.426	-0.096	-0.021
-600.084	601.553	0.077	-0.193
-599.069	120.580	0.202	0.252
-598.055	-200.000	-0.001	-0.203
-597.040	229.772	-0.056	0.092
-596.025	140.516	-0.108	-0.144
-595.011	800.000	-0.008	0.031
-593.996	51.296	0.379	0.361
-592.982	523.716	-0.007	-0.016
-591.967	-145.475	0.371	0.033
-590.952	-140.853	0.368	-0.038
-589.938	210.447	0.231	-0.364
-588.923	607.141	-0.068	-0.171
-587.909	-200.000	-0.002	-0.118
-586.894	-50.966	-0.075	-0.035
-585.879	-71.040	0.282	0.107
-584.865	-65.737	0.118	0.048
-583.850	84.241	-0.044	0.048
-582.836	12.254	0.203	0.157
-581.821	54.049	0.265	0.256
-580.806	217.910	-0.107	0.171
-579.792	-7.083	-0.101	0.069
-578.777	-115.630	-0.042	0.008
-577.763	-48.384	-0.081	0.039
-576.748	-200.000	-0.023	0.208
-575.733	-126.986	-0.106	0.016
-574.719	800.000	0.026	0.095
-573.704	-200.000	-0.019	-0.427
-572.690	-28.885	0.399	0.230
-571.675	83.431	-0.156	-0.171
-570.661	149.600	-0.132	0.179
-569.646	-37.514	-0.135	0.072
-568.631	-35.037	-0.109	0.059
-567.617	85.667	0.178	0.196
-566.602	-124.756	-0.233	0.036
-565.588	-200.000	-0.031	0.251
-564.573	184.535	0.146	-0.216
-563.558	51.859	-0.124	-0.118
-562.544	-200.000	0.079	0.376
-561.529	-65.635	0.061	0.024
-560.515	14.233	0.395	-0.309
-559.500	-200.000	0.001	0.472
-558.485	-200.000	0.004	-0.105
-557.471	158.449	-0.007	0.010
-556.456	-61.336	-0.445	-0.188
-555.442	689.869	0.130	-0.341
-554.427	-35.075	-0.128	-0.070
-553.412	134.210	0.141	-0.183
-552.398	-200.000	0.007	0.073
-551.383	69.479	-0.305	-0.315
-550.369	-29.119	-0.227	-0.131
-549.354	17.185	-0.199	-0.158
-548.339	-152.213	-0.231	0.017
-547.325	18.695	-0.103	-0.082
-546.310	-82.863	0.070	0.023
-545.296	16.224	0.148	0.117
-544.281	-200.000	-0.012	-0.236
-543.266	41.992	0.110	0.100
-542.252	-200.000	-0.005	-0.116
-541.237	496.467	0.151	-0.349
-540.223	-139.557	0.240	0.026
-539.208	-74.820	-0.106	-0.038
-538.193	-1.366	-0.241	0.171
-537.179	-11.543	0.088	0.058
-536.164	-58.914	-0.146	-0.063
-535.150	170.945	0.083	0.120
-534.135	-165.030	0.328	-0.015
-533.121	-61.013	0.223	0.094
-532.106	-69.745	0.124	0.047
-531.091	417.404	0.100	-0.214
-530.077	0.521	-0.348	0.249
-529.062	-200.000	0.000	-0.173
-528.048	141.449	-0.142	0.188
-527.033	-200.000	-0.011	-0.173
-526.018	-200.000	0.016	-0.163
-525.004	-192.838	-0.232	0.002
-523.989	133.868	0.084	0.109
-522.975	-89.293	0.482	-0.142
-521.960	-96.408	0.190	-0.050
-520.945	-107.252	-0.274	-0.060
-519.931	-0.364	-0.098	0.070
-518.916	151.442	-0.168	-0.229
-517.902	800.000	-0.098	-0.278
-516.887	491.537	0.132	-0.302
-515.872	-120.249	-0.302	0.052
-514.858	437.987	-0.125	-0.272
-513.843	-148.332	0.205	0.017
-512.829	-121.989	0.107	0.018
-511.814	289.292	0.100	-0.182
-510.799	-200.000	0.022	-0.187
-509.785	90.314	-0.063	0.071
-508.770	800.000	0.081	0.271
-507.756	-62.842	0.050	0.021
-506.741	-44.144	0.233	-0.117
-505.726	-15.281	-0.121	-0.077
-504.712	-128.134	-0.540	0.077
-503.697	269.425	0.151	0.265
-502.683	-150.242	-0.084	-0.006
-501.668	-200.000	-0.085	-0.429
-500.653	46.829	-0.164	0.152
-499.639	-200.000	-0.008	-0.085
-498.624	18.832	-0.081	-0.065
-497.610	-200.000	-0.014	0.077
-496.595	800.000	0.017	0.062
-495.581	148.305	0.154	-0.208
-494.566	149.118	-0.098	-0.133
-493.551	491.264	0.100	0.229
-492.537	-75.158	0.104	-0.037
-491.522	-200.000	0.059	0.271
-490.508	-200.000	-0.006	-0.242
-489.493	196.104	0.033	0.050
-488.478	800.000	-0.038	0.130
-487.464	45.372	0.191	-0.176
-486.449	544.122	-0.056	-0.133
-485.435	-69.724	0.112	-0.043
-484.420	312.502	-0.117	-0.220
-483.405	125.931	-0.179	-0.226
-482.391	-123.448	-0.386	-0.061
-481.376	71.819	0.042	0.043
-480.362	-200.000	0.012	0.117
-479.347	-123.730	0.218	0.035
-478.332	-200.000	0.009	0.047
-477.318	66.319	-0.153	-0.155
-476.303	-152.482	0.235	0.017
-475.289	236.150	-0.115	-0.189
-474.274	87.382	-0.056	0.062
-473.259	-36.700	0.105	-0.056
-472.245	-184.691	-0.100	-0.002
-471.230	-95.538	0.219	-0.059
-470.216	-78.234	-0.211	-0.072
-469.201	-15.395	-0.240	-0.153
-468.186	-66.611	0.137	0.054
-467.172	800.000	-0.017	-0.059
-466.157	-119.480	-0.111	0.019
-465.143	-200.000	0.003	-0.016
-464.128	348.552	0.172	-0.340
-463.113	-200.000	-0.028	-0.143
-462.099	-155.194	0.068	-0.004
-461.084	246.473	0.076	-0.128
-460.070	104.351	0.095	0.111
-459.055	-0.480	0.293	0.208
-458.040	-200.000	0.016	0.069
-457.026	-31.292	0.049	-0.028
-456.011	-65.883	0.094	-0.038
-454.997	304.718	0.134	0.248
-453.982	688.536	-0.069	-0.179
-452.968	55.067	-0.178	-0.172
-451.953	729.436	0.067	-0.178
-450.938	-130.766	0.238	0.032
-449.924	-200.000	0.003	-0.537
-448.909	-51.512	-0.232	0.108
-447.895	-200.000	-0.002	0.178
-446.880	800.000	-0.066	-0.252
-445.865	-46.277	-0.256	-0.125
-444.851	263.947	-0.030	-0.052
-443.836	-38.433	0.248	-0.131
-442.822	-114.122	-0.203	0.039
-441.807	800.000	-0.093	0.293
-440.792	70.309	-0.118	-0.122
-439.778	-75.782	-0.298	0.105
-438.763	303.363	-0.051	0.094
-437.749	20.883	-0.199	-0.161
-436.734	800.000	0.055	0.154
-435.719	28.573	0.181	-0.153
-434.705	-119.649	0.019	0.003
-433.690	-185.002	0.367	-0.006
-432.676	16.653	-0.098	-0.077
-431.661	-70.253	0.112	0.043
-430.646	800.000	-0.022	0.086
-429.632	132.155	-0.158	-0.204
-428.617	-200.000	-0.014	0.183
-427.603	344.800	0.093	-0.182
-426.588	800.000	0.081	0.226
-425.573	-200.000	0.013	0.093
-424.559	-200.000	-0.009	0.169
-423.544	117.692	-0.104	-0.128
-422.530	156.262	0.144	0.198
-421.515	-17.957	-0.296	0.185
-420.500	-51.449	-0.346	0.161
-419.486	-119.218	-0.200	-0.035
-418.471	415.723	-0.264	-0.561
-417.457	-108.217	-0.390	-0.084
-416.442	176.924	0.077	0.112
-415.428	-15.927	0.350	-0.222
-414.413	82.608	-0.143	0.155
-413.398	800.000	0.131	0.413
-412.384	-137.945	0.145	-0.016
-411.369	-200.000	-0.018	0.154
-410.355	84.617	0.081	0.089
-409.340	-51.764	0.285	-0.133
-408.325	82.893	-0.087	0.094
-407.311	-22.726	-0.122	-0.073
-406.296	160.875	0.182	-0.253
-405.282	-97.304	0.138	0.036
-404.267	-200.000	-0.022	-0.409
-403.252	-26.329	-0.077	-0.045
-402.238	-72.104	0.108	-0.040
-401.223	16.971	-0.069	0.054
-400.209	800.000	0.048	-0.184
-399.194	77.995	-0.101	0.107
-398.179	201.546	-0.072	-0.111
-397.165	-108.558	-0.148	0.032
-396.150	800.000	0.061	0.214
-395.136	544.744	0.114	0.272
-394.121	182.790	0.148	0.218
-393.106	-34.013	-0.273	-0.150
-392.092	-28.112	-0.374	0.216
-391.077	-200.000	0.041	0.275
-390.063	-105.309	-0.187	-0.043
-389.048	-39.733	-0.106	0.055
-388.033	583.302	-0.083	0.203
-387.019	800.000	-0.040	0.142
-386.004	800.000	-0.031	0.106
-384.990	186.052	-0.045	0.066
-383.975	-69.073	0.173	-0.066
-382.960	-9.923	0.048	0.032
-381.946	800.000	0.089	0.357
-380.931	-117.138	-0.558	0.101
-379.917	135.555	-0.080	-0.104
-378.902	-139.728	-0.321	-0.034
-377.888	214.039	0.131	0.207
-376.873	800.000	-0.053	0.213
-375.858	201.974	-0.213	-0.328
-374.844	-54.873	0.256	0.115
-373.829	9.006	0.215	-0.162
-372.815	217.249	0.072	-0.114
-371.800	-200.000	0.013	-0.231
-370.785	-200.000	-0.006	-0.137
-369.771	-30.860	-0.479	0.269
-368.756	800.000	-0.072	-0.214
-367.742	-93.976	-0.303	0.083
-366.727	-52.017	0.363	-0.168
-365.712	-84.267	-0.302	0.095
-364.698	-200.000	0.006	-0.151
-363.683	-162.534	-0.208	0.010
-362.669	-200.000	-0.014	0.180
-361.654	-130.309	0.394	-0.053
-360.639	-6.256	0.070	0.048
-359.625	-51.381	0.126	-0.059
-358.610	5.511	-0.196	-0.144
-357.596	727.922	0.104	-0.276
-356.581	222.672	0.182	0.292
-355.566	698.296	-0.072	-0.187
-354.552	32.369	0.110	-0.095
-353.537	174.359	-0.077	0.111
-352.523	-146.532	0.271	-0.023
-351.508	800.000	0.067	-0.261
-350.493	-149.762	-0.279	-0.022
-349.479	188.839	-0.078	-0.116
-348.464	800.000	-0.068	0.260
-347.450	425.327	-0.076	0.163
-346.435	-51.505	-0.205	0.095
-345.420	-26.257	-0.296	0.173
-344.406	800.000	0.036	0.149
-343.391	236.615	0.105	-0.172
-342.377	-135.742	0.138	-0.016
-341.362	69.508	-0.167	-0.171
-340.348	-97.871	0.248	-0.064
-339.333	800.000	0.133	0.378
-338.318	44.650	0.080	0.073
-337.304	96.621	-0.191	0.218
-336.289	81.140	0.089	0.095
-335.275	152.296	0.164	0.223
-334.260	185.517	0.134	-0.198
-333.245	472.982	0.066	-0.149
-332.231	122.177	0.098	0.122
-331.216	134.760	0.287	-0.371
-330.202	-80.671	-0.181	0.060
-329.187	-26.589	0.189	-0.110
-328.172	-6.774	-0.157	0.106
-327.158	161.554	-0.068	-0.094
-326.143	111.272	-0.104	0.125
-325.129	800.000	-0.030	0.107
-324.114	-15.289	-0.025	0.016
-323.099	-6.358	-0.289	0.196
-322.085	97.172	-0.159	-0.182
-321.070	58.735	-0.193	-0.189
-320.056	-132.540	-0.085	0.011
-319.041	-23.650	0.120	0.072
-318.026	800.000	-0.101	0.434
-317.012	-200.000	0.006	-0.181
-315.997	42.653	0.092	0.083
-314.983	-160.475	0.501	0.027
-313.968	800.000	0.087	0.243
-312.953	111.049	-0.065	0.078
-311.939	83.690	-0.213	0.231
-310.924	-117.135	-0.353	-0.064
-309.910	-200.000	0.008	0.399
-308.895	-200.000	-0.001	0.125
-307.880	-106.734	0.190	0.042
-306.866	78.016	0.166	-0.175
-305.851	-53.542	0.340	-0.155
-304.837	-58.689	0.156	0.067
-303.822	-189.225	-0.066	0.001
-302.807	35.922	-0.055	-0.048
-301.793	381.098	-0.040	0.081
-300.778	83.355	0.189	-0.205
-299.764	134.977	0.068	0.087
-298.749	-132.381	-0.065	0.008
-297.735	800.000	-0.050	-0.139
-296.720	-38.387	-0.243	0.128
-295.705	800.000	0.040	0.166
-294.691	447.444	0.138	-0.302
-293.676	-69.077	0.115	0.044
-292.662	800.000	0.047	0.174
-291.647	77.574	-0.141	0.149
-290.632	154.464	0.190	-0.259
-289.618	800.000	-0.067	0.237
-288.603	67.407	-0.072	0.073
-287.589	800.000	-0.047	0.172
-286.574	-200.000	0.015	0.220
-285.559	559.290	0.068	-0.162
-284.545	69.726	-0.184	-0.188
-283.530	103.800	-0.152	0.177
-282.516	-108.135	0.148	-0.032
-281.501	419.562	0.022	0.047
-280.486	38.654	-0.051	-0.045
-279.472	-161.128	-0.332	-0.017
-278.457	-76.915	-0.247	0.086
-277.443	-200.000	0.051	0.265
-276.428	285.843	0.014	0.026
-275.413	153.466	0.173	0.235
-274.399	363.435	0.114	0.227
-273.384	-144.630	-0.217	-0.020
-272.370	147.057	-0.085	0.113
-271.355	-30.487	0.109	-0.061
-270.340	800.000	-0.021	0.057
-269.326	264.860	-0.128	-0.222
-268.311	170.871	-0.254	0.361
-267.297	152.188	0.098	-0.133
-266.282	-200.000	0.051	-0.349
-265.267	10.832	-0.283	0.214
-264.253	-165.156	0.483	0.021
-263.238	-121.028	-0.110	0.018
-262.224	800.000	0.042	0.158
-261.209	343.623	0.104	-0.201
-260.195	-93.854	-0.073	-0.020
-259.180	-158.989	-0.121	-0.007
-258.165	-200.000	-0.021	0.127
-257.151	-67.235	-0.222	0.086
-256.136	800.000	-0.106	0.419
-255.122	-24.292	-0.236	-0.140
-254.107	-51.687	0.123	0.057
-253.092	27.149	0.172	-0.143
-252.078	137.316	-0.093	0.120
-251.063	-200.000	0.066	0.315
-250.049	-103.871	-0.349	0.081
-249.034	199.931	-0.078	-0.118
-248.019	67.543	-0.088	-0.089
-247.005	-177.777	-0.166	-0.004
-245.990	-62.683	0.291	-0.120
-244.976	85.667	0.139	0.151
-243.961	-79.397	0.204	-0.069
-242.946	-200.000	0.038	0.394
-241.932	256.346	-0.180	-0.306
-240.917	-143.802	0.484	0.045
-239.903	743.020	0.084	0.223
-238.888	138.244	-0.212	-0.275
-237.873	314.671	0.032	0.061
-236.859	800.000	-0.082	0.228
-235.844	610.597	0.045	0.111
-234.830	0.937	-0.217	-0.154
-233.815	47.943	0.115	-0.107
-232.800	-36.442	-0.252	0.135
-231.786	-161.959	0.192	0.010
-230.771	-126.734	-0.077	-0.011
-229.757	800.000	0.020	-0.071
-228.742	-118.363	0.516	-0.091
-227.727	278.852	-0.198	-0.350
-226.713	-58.644	-0.156	0.067
-225.698	-73.668	-0.426	0.154
-224.684	80.793	0.271	0.289
-223.669	800.000	-0.088	0.328
-222.655	-41.602	0.215	0.109
-221.640	-17.443	-0.149	-0.093
-220.625	-200.000	-0.189	0.001
-219.611	361.904	-0.055	-0.110
-218.596	51.562	0.247	-0.232
-217.582	166.403	0.163	0.229
-216.567	-127.557	-0.056	-0.008
-215.552	-168.052	0.194	-0.007
-214.538	-200.000	-0.038	-0.174
-213.523	402.424	-0.085	0.177
-212.509	-106.711	0.302	-0.066
-211.494	-23.821	-0.204	0.121
-210.479	193.942	-0.053	-0.080
-209.465	474.101	0.099	0.220
-208.450	-63.299	-0.190	0.077
-207.436	800.000	0.055	0.186
-206.421	87.424	-0.180	0.197
-205.406	-200.000	0.009	-0.284
-204.392	776.687	-0.039	-0.106
-203.377	-200.000	-0.042	0.363
-202.363	-200.000	0.027	-0.131
-201.348	283.479	-0.141	0.250
-200.333	-145.304	0.252	-0.023
-199.319	-50.945	0.240	-0.111
-198.304	-18.217	0.107	0.066
-197.290	-104.774	0.286	-0.065
-196.275	-57.958	0.236	0.102
-195.260	-38.141	-0.128	-0.067
-194.246	34.066	0.125	-0.108
-193.231	-121.362	0.177	0.029
-192.217	142.916	-0.269	0.353
-191.202	335.050	-0.147	-0.281
-190.187	-200.000	-0.003	0.144
-189.173	-200.000	-0.025	0.116
-188.158	800.000	0.056	0.226
-187.144	410.591	0.145	0.304
-186.129	-14.879	0.142	-0.090
-185.114	-200.000	0.001	0.051
-184.100	800.000	0.135	-0.373
-183.085	800.000	0.021	0.060
-182.071	169.484	0.163	0.230
-181.056	320.158	0.167	0.313
-180.042	-69.328	-0.291	0.111
-179.027	175.487	-0.116	0.167
-178.012	-145.298	0.176	-0.016
-176.998	207.504	-0.142	0.219
-175.983	-76.542	-0.088	0.030
-174.969	756.749	-0.081	-0.215
-173.954	23.897	-0.075	-0.061
-172.939	-11.483	0.023	-0.015
-171.925	-77.775	0.128	-0.044
-170.910	800.000	0.050	0.157
-169.896	-85.867	-0.388	0.119
-168.881	20.258	-0.116	0.092
-167.866	354.017	0.077	-0.152
-166.852	-200.000	0.044	-0.310
-165.837	-143.469	-0.044	0.004
-164.823	-127.838	0.179	0.025
-163.808	-27.616	0.191	-0.110
-162.793	-200.000	-0.098	-0.471
-161.779	-6.259	-0.200	0.135
-160.764	-110.593	-0.316	-0.065
-159.750	-128.849	-0.332	-0.046
-158.735	-116.002	0.348	0.064
-157.720	-200.000	0.017	-0.334
-156.706	-200.000	-0.069	-0.378
-155.691	42.258	0.077	-0.069
-154.677	-200.000	0.012	-0.453
-153.662	91.275	0.109	-0.121
-152.647	-145.703	0.185	0.016
-151.633	-200.000	-0.031	-0.297
-150.618	-76.708	-0.267	-0.092
-149.604	-200.000	0.040	0.188
-148.589	54.944	-0.117	-0.112
-147.574	735.849	0.055	-0.145
-146.560	-83.484	0.061	0.019
-145.545	246.574	-0.142	0.236
-144.531	231.257	-0.076	0.124
-143.516	-81.191	0.085	0.028
-142.502	800.000	0.060	-0.177
-141.487	800.000	0.098	-0.287
-140.472	107.976	-0.138	-0.163
-139.458	-32.674	0.138	0.076
-138.443	-200.000	-0.031	-0.219
-137.429	54.866	-0.274	0.261
-136.414	-109.212	0.109	0.023
-135.399	74.452	-0.142	-0.147
-134.385	369.676	-0.134	-0.268
-133.370	10.746	0.172	0.129
-132.356	800.000	0.083	-0.300
-131.341	-40.786	0.202	-0.103
-130.326	-31.132	0.073	0.040
-129.312	-129.268	0.218	0.030
-128.297	301.586	-0.149	0.271
-127.283	-11.510	-0.132	0.085
-126.268	800.000	-0.076	0.299
-125.253	-178.099	0.192	0.004
-124.239	-200.000	-0.063	-0.348
-123.224	-200.000	0.018	0.285
-122.210	-176.405	0.184	0.005
-121.195	-35.419	0.202	-0.108
