DTS Sentinel unit serial number:	SN413079Multiplexer serial number:	ORYXHardware model number:	OX4-SRSoftware version number:	ORYX F/W v4.00 Oryx Data Collector v3.7.2.0data status	okinstallation	princeton_trtdifferential loss correction	single-endedforward channel	channel 3reverse channel	N/Adate	2019/09/14time	15:40:35forward acquisition time	60.00reverse acquisition time	0.00gamma	496.2192k internal	0.2294k external	0.2294temperature offset calibration	1.0056default loss term (dB/km)	0.3790temperature slope calibration	1.0000multiplexer offset coefficient	1.0000multiplexer slope coefficient	1.0000fibre end	0.00T internal ref (°C)	38.78T ext. ref 1 (°C)	5.14T ext. ref 2 (°C)	34.41length (m)	temperature (°C)	Stokes	anti-Stokes-747.200	-200.000	-0.063	-0.324
-746.185	550.564	0.031	0.077
-745.171	800.000	0.022	0.066
-744.156	-200.000	-0.031	0.177
-743.142	295.756	-0.182	-0.340
-742.127	4.081	0.168	0.126
-741.112	52.353	-0.193	0.188
-740.098	-200.000	0.032	0.209
-739.083	-48.854	0.140	0.069
-738.069	558.401	0.082	0.202
-737.054	-68.216	0.345	-0.137
-736.039	27.495	0.239	-0.206
-735.025	800.000	-0.031	0.120
-734.010	595.985	0.023	-0.059
-732.996	257.433	-0.060	-0.105
-731.981	-71.582	-0.233	-0.089
-730.966	-113.685	-0.233	-0.046
-729.952	-200.000	-0.032	0.158
-728.937	12.333	-0.168	-0.132
-727.923	-200.000	-0.041	0.183
-726.908	-126.788	0.168	-0.025
-725.894	-200.000	0.011	-0.264
-724.879	-56.221	-0.150	-0.068
-723.864	-78.834	-0.246	0.086
-722.850	-200.000	0.079	-0.449
-721.835	-28.637	-0.175	-0.103
-720.821	800.000	0.101	-0.286
-719.806	-200.000	0.018	0.148
-718.791	-79.795	0.205	-0.071
-717.777	427.560	-0.008	-0.017
-716.762	394.568	0.078	-0.165
-715.748	168.980	-0.130	0.190
-714.733	-133.189	-0.375	0.048
-713.718	-82.693	0.027	0.009
-712.704	-60.365	0.054	0.023
-711.689	800.000	0.125	-0.376
-710.675	-200.000	-0.168	-0.001
-709.660	-200.000	0.004	-0.113
-708.645	-2.477	-0.204	-0.146
-707.631	-200.000	-0.011	-0.149
-706.616	-200.000	-0.032	0.159
-705.602	-13.063	-0.190	0.126
-704.587	-97.970	0.208	-0.055
-703.572	75.178	-0.117	0.126
-702.558	-92.476	-0.123	0.035
-701.543	576.836	-0.082	-0.205
-700.529	76.952	-0.268	-0.291
-699.514	141.947	-0.036	0.048
-698.499	-160.257	-0.204	-0.011
-697.485	201.199	-0.137	0.215
-696.470	-63.130	0.274	0.115
-695.456	-85.375	0.341	-0.109
-694.441	369.755	0.023	0.048
-693.426	-200.000	0.013	-0.330
-692.412	641.600	0.035	-0.092
-691.397	-64.592	-0.044	-0.018
-690.383	-200.000	0.043	-0.257
-689.368	-200.000	-0.011	0.119
-688.354	397.170	0.008	-0.018
-687.339	146.549	-0.126	0.173
-686.324	48.715	0.241	-0.231
-685.310	215.194	0.103	0.167
-684.295	-200.000	0.015	0.087
-683.281	-43.410	0.146	-0.075
-682.266	-94.790	0.185	0.051
-681.251	-22.057	0.177	-0.109
-680.237	1.062	0.101	-0.074
-679.222	11.447	0.287	0.225
-678.208	-31.865	-0.244	-0.139
-677.193	800.000	-0.080	0.261
-676.178	500.095	0.101	0.238
-675.164	82.725	0.171	-0.189
-674.149	19.313	0.131	-0.107
-673.135	-200.000	-0.007	-0.112
-672.120	-88.594	-0.303	-0.092
-671.105	-200.000	0.430	-0.001
-670.091	472.210	0.020	0.045
-669.076	43.745	0.116	-0.108
-668.062	284.724	-0.074	0.137
-667.047	117.688	-0.166	0.208
-666.032	2.252	-0.136	-0.100
-665.018	338.121	0.044	0.088
-664.003	-200.000	-0.032	-0.158
-662.989	176.442	-0.240	-0.355
-661.974	-16.090	-0.195	-0.127
-660.959	-200.000	-0.087	-0.413
-659.945	747.877	-0.117	0.321
-658.930	800.000	-0.084	-0.258
-657.916	-30.623	-0.455	-0.263
-656.901	-18.650	-0.137	-0.087
-655.886	-38.444	-0.103	-0.055
-654.872	-104.515	-0.369	-0.087
-653.857	-14.755	0.243	-0.159
-652.843	800.000	-0.034	-0.119
-651.828	-35.626	0.136	0.075
-650.814	-77.549	-0.071	-0.025
-649.799	55.726	0.133	-0.131
-648.784	517.349	-0.121	0.288
-647.770	204.795	0.209	0.330
-646.755	800.000	0.039	0.148
-645.741	-106.829	-0.543	0.123
-644.726	-132.274	0.094	0.012
-643.711	87.248	-0.084	-0.094
-642.697	16.147	-0.156	0.126
-641.682	443.413	-0.045	0.100
-640.668	-130.208	0.208	-0.029
-639.653	800.000	0.029	0.106
-638.638	-119.490	0.193	0.034
-637.624	317.890	-0.178	-0.344
-636.609	40.321	-0.038	-0.034
-635.595	-200.000	0.004	0.042
-634.580	389.068	0.094	-0.197
-633.565	127.231	0.274	0.353
-632.551	248.114	-0.038	-0.065
-631.536	100.097	0.100	-0.118
-630.522	144.565	0.034	0.047
-629.507	-23.074	-0.207	0.127
-628.492	751.817	0.048	0.131
-627.478	-40.667	-0.332	-0.175
-626.463	-26.101	0.319	0.191
-625.449	-200.000	0.005	-0.044
-624.434	-27.770	-0.076	-0.045
-623.419	135.738	-0.030	-0.039
-622.405	119.590	-0.197	-0.248
-621.390	800.000	0.006	0.021
-620.376	-103.035	0.230	0.055
-619.361	-200.000	-0.031	-0.430
-618.346	-142.921	-0.078	-0.008
-617.332	174.475	0.119	-0.176
-616.317	545.398	0.217	0.528
-615.303	32.478	-0.392	0.345
-614.288	-200.000	0.003	0.127
-613.273	-179.694	0.182	-0.004
-612.259	-94.919	-0.220	0.061
-611.244	-23.892	0.188	-0.114
-610.230	177.678	0.072	0.107
-609.215	259.651	-0.064	0.112
-608.201	476.764	-0.191	-0.439
-607.186	-12.694	-0.248	-0.164
-606.171	482.323	0.072	0.166
-605.157	466.872	0.103	0.235
-604.142	85.705	-0.137	-0.153
-603.128	-200.000	-0.006	-0.057
-602.113	800.000	0.083	0.235
-601.098	-200.000	0.012	-0.058
-600.084	-200.000	-0.019	-0.110
-599.069	787.056	0.088	0.244
-598.055	-200.000	-0.047	0.395
-597.040	-107.997	0.226	0.050
-596.025	-82.957	-0.123	0.040
-595.011	175.182	0.098	-0.144
-593.996	385.042	0.068	-0.142
-592.982	139.838	-0.149	0.200
-591.967	98.844	-0.234	0.274
-590.952	223.427	-0.121	0.198
-589.938	321.696	-0.149	-0.288
-588.923	-31.737	-0.265	-0.151
-587.909	-200.000	-0.015	0.245
-586.894	116.383	-0.095	-0.118
-585.879	-18.927	0.069	0.043
-584.865	-179.994	-0.281	-0.006
-583.850	-10.957	0.086	0.057
-582.836	186.243	0.120	-0.181
-581.821	188.017	0.133	-0.202
-580.806	561.215	0.089	-0.219
-579.792	-200.000	-0.005	-0.161
-578.777	271.660	-0.056	-0.099
-577.763	800.000	-0.107	0.329
-576.748	-52.375	0.176	0.083
-575.733	85.859	-0.131	-0.146
-574.719	-78.510	-0.477	0.166
-573.704	-4.983	0.143	-0.100
-572.690	-25.653	0.139	-0.083
-571.675	-200.000	0.003	-0.021
-570.661	401.250	-0.081	-0.173
-569.646	-143.415	-0.081	-0.008
-568.631	-52.974	0.357	-0.167
-567.617	-52.714	-0.309	-0.145
-566.602	207.512	0.132	-0.209
-565.588	72.079	0.081	0.086
-564.573	-61.829	0.036	0.015
-563.558	117.289	-0.083	-0.104
-562.544	93.123	0.112	0.129
-561.529	410.442	0.018	-0.039
-560.515	-18.966	0.160	-0.101
-559.500	-66.263	0.199	-0.080
-558.485	-128.041	0.122	0.018
-557.471	167.884	0.210	-0.303
-556.456	49.203	-0.232	-0.222
-555.442	-150.300	-0.309	0.024
-554.427	-90.630	0.076	0.022
-553.412	-200.000	0.036	0.216
-552.398	-200.000	0.017	0.099
-551.383	800.000	-0.083	0.313
-550.369	520.877	0.090	-0.215
-549.354	627.966	-0.119	-0.305
-548.339	-200.000	0.000	0.056
-547.325	-68.781	-0.237	0.093
-546.310	-78.085	-0.285	-0.100
-545.296	105.063	0.098	-0.117
-544.281	76.416	0.090	-0.097
-543.266	-172.910	-0.189	0.006
-542.252	19.149	0.261	-0.212
-541.237	4.696	-0.114	-0.085
-540.223	-128.475	-0.305	-0.044
-539.208	-17.987	-0.190	0.121
-538.193	170.527	0.037	0.054
-537.179	800.000	0.053	-0.185
-536.164	167.966	-0.166	0.239
-535.150	-200.000	-0.004	-0.183
-534.135	800.000	-0.040	0.135
-533.121	-60.752	-0.099	0.042
-532.106	-84.545	0.097	-0.031
-531.091	-27.852	-0.184	-0.108
-530.077	413.435	-0.055	0.119
-529.062	-80.154	-0.120	-0.041
-528.048	-31.492	0.156	-0.089
-527.033	9.714	0.159	0.122
-526.018	800.000	0.064	-0.228
-525.004	-26.574	-0.342	0.203
-523.989	-151.046	0.043	-0.003
-522.975	361.352	0.160	-0.325
-521.960	800.000	0.058	-0.188
-520.945	800.000	0.080	-0.286
-519.931	516.048	0.032	0.077
-518.916	93.137	0.252	-0.288
-517.902	-88.094	0.190	-0.058
-516.887	-145.205	-0.284	-0.026
-515.872	244.025	-0.157	0.267
-514.858	515.733	-0.138	0.327
-513.843	-200.000	-0.017	-0.202
-512.829	-139.735	-0.209	-0.023
-511.814	95.949	-0.137	0.158
-510.799	-76.425	0.136	-0.048
-509.785	643.393	0.093	-0.239
-508.770	-200.000	-0.029	0.239
-507.756	580.307	0.244	-0.606
-506.741	-120.599	0.054	-0.009
-505.726	-200.000	0.001	0.167
-504.712	-55.779	0.131	0.059
-503.697	162.508	-0.032	0.046
-502.683	-114.703	-0.108	-0.021
-501.668	543.935	-0.114	-0.276
-500.653	-72.298	0.482	-0.181
-499.639	88.179	0.068	-0.076
-498.624	-28.090	-0.351	0.206
-497.610	2.755	-0.189	0.139
-496.595	800.000	0.077	-0.265
-495.581	-22.842	-0.172	-0.105
-494.566	-120.217	-0.255	0.044
-493.551	800.000	-0.028	-0.085
-492.537	265.491	0.163	0.288
-491.522	800.000	-0.028	0.108
-490.508	-81.952	-0.076	0.025
-489.493	-200.000	0.026	0.201
-488.478	800.000	0.082	0.234
-487.464	-53.143	0.299	-0.139
-486.449	-91.893	0.215	0.062
-485.435	226.215	0.144	0.237
-484.420	-145.099	-0.061	-0.006
-483.405	-200.000	-0.019	0.151
-482.391	800.000	-0.068	-0.295
-481.376	-77.548	-0.150	0.053
-480.362	40.702	0.117	0.106
-479.347	74.018	-0.101	0.107
-478.332	253.964	-0.078	0.135
-477.318	-200.000	-0.032	-0.153
-476.303	-200.000	0.026	-0.118
-475.289	294.954	0.059	0.110
-474.274	-200.000	-0.001	-0.168
-473.259	800.000	-0.119	0.458
-472.245	161.826	-0.184	-0.260
-471.230	578.708	0.128	0.317
-470.216	116.894	0.147	-0.182
-469.201	340.670	0.087	-0.172
-468.186	-200.000	0.011	0.313
-467.172	-19.723	-0.193	-0.121
-466.157	-78.898	0.271	0.093
-465.143	471.040	-0.126	0.287
-464.128	-191.758	-0.166	0.002
-463.113	300.366	0.046	0.086
-462.099	-44.799	-0.127	-0.064
-461.084	-200.000	-0.003	0.037
-460.070	-1.701	0.128	-0.091
-459.055	800.000	-0.117	-0.435
-458.040	45.281	0.260	-0.243
-457.026	-200.000	0.038	-0.348
-456.011	-51.796	0.149	0.070
-454.997	-82.245	-0.168	-0.055
-453.982	616.788	-0.122	-0.310
-452.968	140.856	-0.103	-0.137
-451.953	311.100	-0.128	-0.243
-450.938	800.000	0.041	-0.160
-449.924	361.676	-0.070	-0.142
-448.909	-188.245	0.358	0.005
-447.895	152.933	-0.239	0.331
-446.880	40.046	-0.022	-0.020
-445.865	154.413	-0.163	-0.226
-444.851	25.306	0.413	0.347
-443.836	-47.894	-0.383	-0.187
-442.822	-6.011	-0.100	0.069
-441.807	-159.466	-0.361	0.020
-440.792	165.173	0.146	0.208
-439.778	-200.000	0.004	-0.305
-438.763	261.427	0.066	0.116
-437.749	-50.108	0.175	0.084
-436.734	800.000	-0.074	-0.241
-435.719	-103.399	0.202	0.048
-434.705	-200.000	-0.003	0.248
-433.690	44.867	-0.177	0.165
-432.676	-200.000	-0.102	0.532
-431.661	14.026	-0.106	-0.084
-430.646	256.901	-0.109	-0.189
-429.632	-62.394	0.176	-0.074
-428.617	-101.053	-0.214	0.053
-427.603	-97.033	0.230	0.061
-426.588	-78.259	-0.096	-0.033
-425.573	800.000	-0.068	-0.296
-424.559	800.000	-0.048	0.186
-423.544	252.017	-0.098	0.169
-422.530	-146.898	0.249	0.022
-421.515	136.277	0.181	-0.239
-420.500	-36.977	0.206	-0.112
-419.486	-159.991	0.177	-0.010
-418.471	25.572	0.074	0.062
-417.457	24.887	-0.175	0.146
-416.442	320.536	0.062	-0.120
-415.428	122.126	0.140	-0.177
-414.413	82.140	0.169	-0.185
-413.398	-139.166	0.335	0.037
-412.384	-170.917	-0.060	0.002
-411.369	100.701	0.094	0.111
-410.355	-200.000	-0.085	-0.387
-409.340	-90.905	-0.226	0.066
-408.325	217.934	0.225	-0.361
-407.311	673.833	0.131	0.344
-406.296	800.000	0.076	0.267
-405.282	-36.233	-0.141	0.077
-404.267	3.117	-0.121	0.089
-403.252	800.000	-0.013	-0.040
-402.238	-200.000	0.025	0.239
-401.223	-200.000	0.026	0.175
-400.209	-172.563	-0.312	0.010
-399.194	-200.000	0.043	-0.196
-398.179	-120.354	-0.126	-0.022
-397.165	149.452	-0.098	0.135
-396.150	-11.668	-0.080	0.053
-395.136	-111.843	0.105	0.021
-394.121	-133.313	-0.106	-0.013
-393.106	283.166	0.054	-0.099
-392.092	163.704	-0.147	-0.209
-391.077	188.391	0.115	-0.173
-390.063	-200.000	-0.020	-0.432
-389.048	-122.199	-0.093	0.015
-388.033	-200.000	0.042	0.220
-387.019	-97.957	-0.255	0.066
-386.004	262.486	0.097	0.169
-384.990	-97.002	-0.339	-0.090
-383.975	776.671	0.082	-0.227
-382.960	166.180	0.161	0.230
-381.946	-101.242	-0.110	0.027
-380.931	-94.679	0.154	-0.042
-379.917	26.082	0.260	0.219
-378.902	-44.592	-0.201	0.101
-377.888	-29.364	-0.214	0.124
-376.873	-133.527	0.113	0.014
-375.858	-200.000	-0.001	-0.091
-374.844	73.802	0.317	0.335
-373.829	-137.468	-0.273	-0.031
-372.815	41.846	-0.256	0.234
-371.800	-16.050	0.147	-0.094
-370.785	-45.222	-0.192	-0.096
-369.771	196.313	0.067	-0.103
-368.756	800.000	-0.115	0.437
-367.742	-24.495	0.176	0.106
-366.727	74.392	-0.209	0.222
-365.712	-125.858	0.101	-0.015
-364.698	33.035	-0.053	-0.046
-363.683	-145.134	0.173	-0.016
-362.669	-37.338	0.241	0.130
-361.654	49.619	0.065	-0.061
-360.639	416.185	-0.128	-0.276
-359.625	-103.965	0.208	0.049
-358.610	800.000	-0.151	0.524
-357.596	-58.544	-0.103	-0.045
-356.581	-81.431	-0.194	-0.064
-355.566	256.767	-0.157	0.272
-354.552	-13.752	0.260	0.170
-353.537	-200.000	-0.032	-0.255
-352.523	-139.786	-0.261	0.028
-351.508	473.096	0.060	0.137
-350.493	10.517	-0.131	-0.101
-349.479	-200.000	-0.017	-0.172
-348.464	279.030	0.111	-0.199
-347.450	8.790	0.087	-0.066
-346.435	296.153	0.076	-0.140
-345.420	177.091	-0.234	0.343
-344.406	-154.968	0.150	-0.010
-343.391	-200.000	0.005	0.063
-342.377	-52.314	0.101	0.047
-341.362	-78.562	-0.502	-0.173
-340.348	575.153	-0.098	-0.240
-339.333	800.000	0.076	0.257
-338.318	800.000	0.065	-0.275
-337.304	-200.000	0.001	-0.180
-336.289	-96.916	-0.544	-0.144
-335.275	-7.739	-0.024	-0.017
-334.260	-53.517	-0.194	-0.089
-333.245	354.798	0.088	-0.175
-332.231	-200.000	-0.013	0.188
-331.216	329.660	0.158	0.306
-330.202	-13.789	-0.207	0.135
-329.187	-200.000	-0.035	-0.158
-328.172	-97.012	-0.171	-0.045
-327.158	-44.152	0.329	-0.166
-326.143	-78.989	-0.241	0.083
-325.129	800.000	0.036	-0.136
-324.114	65.555	-0.193	0.197
-323.099	776.020	-0.125	0.343
-322.085	-42.099	0.201	-0.103
-321.070	75.972	-0.383	0.408
-320.056	800.000	0.007	-0.023
-319.041	-44.114	0.327	0.165
-318.026	248.331	0.125	-0.212
-317.012	-176.879	0.221	0.006
-315.997	-134.000	0.153	0.019
-314.983	-200.000	0.047	-0.394
-313.968	131.695	-0.089	0.114
-312.953	-181.277	-0.351	-0.007
-311.939	12.366	-0.173	-0.134
-310.924	-166.467	0.148	0.006
-309.910	800.000	0.039	-0.158
-308.895	-200.000	-0.014	0.113
-307.880	-44.888	0.171	0.086
-306.866	-107.829	0.342	-0.075
-305.851	203.789	-0.015	-0.024
-304.837	734.058	0.179	0.482
-303.822	175.044	-0.121	0.177
-302.807	171.225	-0.103	-0.149
-301.793	800.000	0.094	0.281
-300.778	-93.832	0.150	-0.041
-299.764	-200.000	-0.001	-0.344
-298.749	-156.736	-0.270	-0.017
-297.735	-148.563	0.249	-0.020
-296.720	-200.000	-0.029	0.127
-295.705	-32.862	0.234	0.131
-294.691	197.279	0.136	0.209
-293.676	-83.197	0.156	-0.050
-292.662	-184.663	-0.248	-0.004
-291.647	-124.682	-0.220	-0.034
-290.632	-9.651	-0.246	0.165
-289.618	-66.712	0.072	0.028
-288.603	-200.000	0.025	0.228
-287.589	-134.306	0.198	0.024
-286.574	-55.145	0.192	-0.087
-285.559	-107.976	0.175	-0.038
-284.545	-50.794	-0.107	0.051
-283.530	800.000	0.031	0.121
-282.516	-122.502	-0.094	-0.015
-281.501	51.868	0.247	-0.236
-280.486	-72.910	0.153	-0.056
-279.472	-70.168	0.065	-0.025
-278.457	98.002	0.204	0.235
-277.443	-130.430	-0.151	-0.021
-276.428	-0.750	0.272	-0.193
-275.413	82.044	0.447	-0.487
-274.399	-105.442	-0.073	-0.017
-273.384	79.511	0.219	0.236
-272.370	268.930	-0.255	0.449
-271.355	-174.982	0.265	0.007
-270.340	108.433	-0.281	0.337
-269.326	-200.000	0.036	-0.207
-268.311	-200.000	-0.008	-0.066
-267.297	-152.409	0.343	0.025
-266.282	800.000	-0.067	0.230
-265.267	-74.188	-0.245	-0.089
-264.253	329.875	-0.150	-0.289
-263.238	800.000	0.039	-0.115
-262.224	-57.490	0.496	-0.218
-261.209	83.440	0.052	-0.057
-260.195	566.575	0.132	0.321
-259.180	-133.247	0.215	-0.027
-258.165	549.183	0.120	0.289
-257.151	79.095	-0.034	0.037
-256.136	202.915	-0.193	-0.299
-255.122	-87.750	-0.260	-0.079
-254.107	-31.728	-0.165	0.093
-253.092	-200.000	0.054	-0.347
-252.078	149.815	0.151	-0.205
-251.063	-5.294	0.239	0.164
-250.049	-132.032	-0.277	-0.036
-249.034	-42.569	0.127	-0.065
-248.019	200.092	-0.118	-0.181
-247.005	23.137	0.131	-0.108
-245.990	-200.000	0.042	0.203
-244.976	176.032	0.120	0.175
-243.961	247.790	-0.161	-0.272
-242.946	-41.940	0.061	0.031
-241.932	28.100	0.030	-0.026
-240.917	-200.000	-0.007	-0.304
-239.903	21.213	0.178	0.145
-238.888	-200.000	-0.037	0.302
-237.873	-118.717	-0.192	0.034
-236.859	-25.313	-0.345	0.205
-235.844	800.000	-0.041	0.158
-234.830	-129.745	0.223	0.031
-233.815	599.886	0.045	-0.113
-232.800	-33.638	-0.081	0.045
-231.786	-6.485	0.202	-0.138
-230.771	7.901	0.114	-0.086
-229.757	-200.000	-0.003	0.154
-228.742	-4.768	-0.158	0.109
-227.727	-157.076	0.126	-0.008
-226.713	-35.353	-0.149	0.081
-225.698	-139.102	-0.077	0.008
-224.684	202.547	-0.316	-0.489
-223.669	-4.930	0.130	0.090
-222.655	48.767	-0.092	-0.086
-221.640	-114.061	-0.203	0.039
-220.625	800.000	-0.091	-0.294
-219.611	-200.000	0.050	-0.358
-218.596	105.218	-0.065	-0.077
-217.582	800.000	0.094	0.298
-216.567	-82.323	0.210	-0.068
-215.552	440.639	-0.124	0.271
-214.538	-200.000	-0.062	0.334
-213.523	104.703	-0.272	-0.321
-212.509	123.977	0.142	0.179
-211.494	137.087	0.094	0.124
-210.479	5.149	-0.081	-0.060
-209.465	-17.845	-0.236	0.149
-208.450	-200.000	-0.053	-0.273
-207.436	127.393	-0.198	-0.252
-206.421	-200.000	0.007	0.082
-205.406	-150.411	0.139	-0.011
-204.392	-127.043	-0.150	0.022
-203.377	-98.438	0.158	0.040
-202.363	-200.000	0.024	-0.219
-201.348	-29.733	0.233	0.133
-200.333	-78.778	0.275	0.094
-199.319	431.865	-0.126	-0.274
-198.304	159.853	0.118	0.165
-197.290	281.336	-0.087	-0.157
-196.275	-133.786	-0.127	-0.016
-195.260	800.000	0.035	-0.139
-194.246	-25.489	-0.114	0.067
-193.231	139.733	0.136	0.180
-192.217	800.000	0.026	0.090
-191.202	-85.924	0.308	-0.095
-190.187	110.958	-0.062	0.074
-189.173	-200.000	-0.007	-0.118
-188.158	-200.000	0.013	-0.119
-187.144	228.243	0.078	-0.127
-186.129	266.557	-0.046	0.080
-185.114	-88.268	-0.297	0.089
-184.100	-200.000	-0.040	-0.185
-183.085	110.264	0.153	0.184
-182.071	82.318	0.172	-0.186
-181.056	379.039	-0.032	-0.066
-180.042	-200.000	-0.022	-0.127
-179.027	-37.218	-0.126	0.067
-178.012	301.898	0.028	-0.051
-176.998	-170.746	-0.370	0.013
-175.983	154.614	0.197	0.271
-174.969	53.211	0.199	0.190
-173.954	-127.253	0.232	0.034
-172.939	186.578	0.005	-0.008
-171.925	-200.000	0.024	0.329
-170.910	-88.805	0.276	-0.082
-169.896	-140.436	0.168	-0.017
-168.881	209.447	0.051	-0.080
-167.866	-200.000	0.006	-0.176
-166.852	3.451	-0.152	0.111
-165.837	-48.889	0.081	0.039
-164.823	800.000	-0.085	-0.272
-163.808	800.000	-0.054	-0.195
-162.793	800.000	0.040	-0.135
-161.779	-200.000	0.069	0.319
-160.764	92.592	0.315	-0.356
-159.750	-6.418	-0.088	-0.060
-158.735	568.360	-0.079	-0.193
-157.720	-200.000	-0.033	0.165
-156.706	-142.189	0.175	0.017
-155.691	800.000	0.148	0.442
-154.677	-200.000	0.060	0.325
-153.662	-27.515	0.370	0.215
-152.647	84.863	0.046	0.051
-151.633	111.209	-0.082	0.098
-150.618	800.000	0.055	0.206
-149.604	1.374	-0.115	0.082
-148.589	-145.021	-0.121	-0.011
-147.574	266.657	0.150	-0.262
-146.560	72.242	-0.235	0.244
-145.545	-60.462	0.073	0.031
-144.531	522.298	0.093	0.218
-143.516	-200.000	0.074	-0.392
-142.502	-200.000	-0.013	-0.072
-141.487	376.589	0.219	-0.446
-140.472	-136.489	-0.155	0.018
-139.458	-200.000	-0.014	0.089
-138.443	800.000	-0.071	0.225
-137.429	48.087	-0.213	-0.199
-136.414	-200.000	-0.007	-0.101
-135.399	800.000	0.018	0.066
-134.385	320.305	-0.053	-0.101
-133.370	2.273	-0.150	-0.109
-132.356	-35.990	-0.177	0.096
-131.341	68.675	0.140	0.144
-130.326	-39.458	0.044	0.023
-129.312	560.501	0.104	0.250
-128.297	-126.450	-0.124	-0.018
-127.283	231.851	0.106	-0.173
-126.268	-200.000	0.014	0.231
-125.253	-200.000	0.024	0.131
-124.239	2.084	-0.069	-0.050
-123.224	263.095	-0.077	0.134
-122.210	-135.379	-0.265	-0.032
