DTS Sentinel unit serial number:	SN413079Multiplexer serial number:	ORYXHardware model number:	OX4-SRSoftware version number:	ORYX F/W v4.00 Oryx Data Collector v3.7.2.0data status	okinstallation	princeton_trtdifferential loss correction	single-endedforward channel	channel 3reverse channel	N/Adate	2019/09/16time	21:48:35forward acquisition time	60.00reverse acquisition time	0.00gamma	496.2192k internal	0.2325k external	0.2325temperature offset calibration	0.9937default loss term (dB/km)	0.3790temperature slope calibration	1.0000multiplexer offset coefficient	1.0000multiplexer slope coefficient	1.0000fibre end	0.00T internal ref (°C)	31.27T ext. ref 1 (°C)	0.06T ext. ref 2 (°C)	25.55length (m)	temperature (°C)	Stokes	anti-Stokes-747.200	-200.000	0.023	0.361
-746.185	-91.698	-0.276	0.079
-745.171	152.902	0.087	0.121
-744.156	220.548	0.075	0.121
-743.142	-89.928	0.344	0.101
-742.127	-25.319	-0.278	0.166
-741.112	38.497	0.226	0.204
-740.098	-122.634	-0.101	0.017
-739.083	-37.434	0.192	0.103
-738.069	86.814	-0.072	0.080
-737.054	800.000	-0.063	-0.245
-736.039	-36.149	0.319	-0.174
-735.025	537.952	0.112	0.268
-734.010	726.505	-0.088	0.236
-732.996	117.035	0.072	-0.090
-731.981	-169.419	-0.267	-0.010
-730.966	-200.000	0.040	-0.393
-729.952	178.026	0.188	-0.276
-728.937	633.047	-0.087	0.223
-727.923	-94.550	-0.224	0.061
-726.908	28.501	0.090	-0.077
-725.894	60.219	-0.100	0.100
-724.879	302.416	0.066	0.123
-723.864	-60.907	-0.209	0.089
-722.850	800.000	0.115	-0.380
-721.835	12.683	0.089	0.069
-720.821	800.000	-0.020	0.066
-719.806	196.299	0.106	0.163
-718.791	-200.000	0.025	-0.266
-717.777	191.661	0.261	-0.396
-716.762	92.611	-0.102	0.116
-715.748	155.723	0.114	-0.159
-714.733	158.880	-0.243	0.340
-713.718	131.260	-0.133	0.172
-712.704	-57.533	-0.187	0.082
-711.689	-27.860	-0.177	-0.103
-710.675	252.098	-0.090	-0.155
-709.660	-54.871	0.277	0.126
-708.645	151.085	-0.027	-0.037
-707.631	800.000	-0.095	-0.287
-706.616	237.505	-0.149	-0.249
-705.602	-200.000	0.022	0.246
-704.587	586.352	0.100	-0.249
-703.572	-45.920	0.178	-0.089
-702.558	800.000	0.119	-0.393
-701.543	20.229	-0.271	-0.220
-700.529	13.051	0.300	0.234
-699.514	-50.196	0.258	0.123
-698.499	800.000	-0.098	-0.312
-697.485	-73.403	0.097	-0.036
-696.470	-80.294	0.159	0.053
-695.456	174.214	0.100	0.145
-694.441	-62.895	0.314	-0.131
-693.426	-200.000	0.037	0.233
-692.412	-20.261	0.022	-0.014
-691.397	28.689	0.263	-0.224
-690.383	-200.000	0.031	-0.291
-689.368	-101.805	-0.184	-0.045
-688.354	800.000	-0.125	-0.516
-687.339	-200.000	0.024	-0.330
-686.324	644.364	0.067	-0.172
-685.310	-69.243	-0.317	-0.123
-684.295	-176.646	0.298	-0.008
-683.281	-27.131	0.368	-0.216
-682.266	442.462	0.046	-0.101
-681.251	13.243	-0.185	-0.144
-680.237	-48.613	-0.025	0.012
-679.222	156.937	0.123	0.171
-678.208	-20.934	0.206	0.127
-677.193	-200.000	-0.053	-0.386
-676.178	-145.019	-0.173	-0.016
-675.164	-60.972	-0.303	-0.129
-674.149	84.401	0.129	-0.142
-673.135	75.196	-0.404	-0.428
-672.120	-165.190	-0.216	-0.010
-671.105	-67.955	0.217	-0.085
-670.091	-200.000	-0.007	-0.139
-669.076	-102.134	-0.193	0.047
-668.062	-200.000	-0.038	0.171
-667.047	6.592	-0.228	0.170
-666.032	-200.000	-0.055	-0.250
-665.018	25.378	-0.055	0.046
-664.003	-200.000	-0.011	-0.105
-662.989	-152.729	0.163	-0.012
-661.974	-200.000	-0.035	-0.192
-660.959	26.321	0.124	0.104
-659.945	-102.796	0.174	0.042
-658.930	-129.002	-0.274	-0.039
-657.916	27.017	-0.131	0.111
-656.901	-174.872	0.202	0.006
-655.886	-63.356	0.286	0.118
-654.872	-117.900	0.093	-0.017
-653.857	-32.875	0.260	0.145
-652.843	800.000	-0.093	0.406
-651.828	-89.213	-0.187	0.055
-650.814	-99.590	-0.052	0.013
-649.799	68.867	-0.074	-0.076
-648.784	-32.740	0.098	0.055
-647.770	322.879	-0.042	-0.080
-646.755	-200.000	-0.003	0.052
-645.741	223.805	-0.089	0.145
-644.726	-161.470	0.067	-0.003
-643.711	47.083	-0.251	0.235
-642.697	-200.000	0.004	0.025
-641.682	576.807	-0.145	-0.356
-640.668	-142.386	-0.353	0.035
-639.653	-137.582	-0.248	-0.028
-638.638	-200.000	0.014	0.069
-637.624	-94.053	0.144	-0.040
-636.609	474.797	-0.152	-0.345
-635.595	-54.927	0.147	-0.066
-634.580	24.124	-0.147	-0.122
-633.565	-200.000	0.002	0.023
-632.551	800.000	-0.042	0.168
-631.536	-43.529	0.247	0.125
-630.522	-137.143	-0.349	0.040
-629.507	216.553	0.201	0.320
-628.492	-130.765	0.091	-0.012
-627.478	-38.235	-0.070	0.037
-626.463	-200.000	0.001	-0.044
-625.449	179.072	0.056	-0.082
-624.434	-200.000	-0.040	-0.218
-623.419	193.474	-0.110	0.168
-622.405	94.742	0.130	0.148
-621.390	105.949	0.204	-0.242
-620.376	-39.629	0.211	0.111
-619.361	52.886	0.126	-0.121
-618.346	-95.309	-0.222	-0.060
-617.332	673.649	0.032	0.084
-616.317	238.524	-0.082	-0.136
-615.303	185.679	-0.087	-0.129
-614.288	800.000	0.133	0.533
-613.273	-10.220	0.284	0.189
-612.259	-200.000	0.037	0.195
-611.244	-80.601	-0.195	-0.065
-610.230	-108.957	-0.389	-0.083
-609.215	800.000	0.008	-0.028
-608.201	106.907	-0.044	0.053
-607.186	-89.700	-0.253	-0.074
-606.171	-110.263	0.157	-0.033
-605.157	-200.000	0.020	-0.392
-604.142	-67.067	0.125	0.049
-603.128	59.377	-0.127	0.126
-602.113	6.866	-0.085	0.064
-601.098	-200.000	-0.015	-0.088
-600.084	-62.252	-0.064	-0.027
-599.069	166.881	-0.251	0.358
-598.055	800.000	-0.064	-0.212
-597.040	-200.000	0.057	-0.441
-596.025	0.569	0.488	-0.350
-595.011	559.273	-0.205	0.497
-593.996	800.000	-0.066	0.195
-592.982	-33.727	0.321	-0.177
-591.967	-43.584	0.172	-0.087
-590.952	800.000	-0.150	-0.551
-589.938	98.747	0.052	-0.061
-588.923	-200.000	0.014	-0.186
-587.909	-129.004	0.148	-0.021
-586.894	-43.924	0.040	-0.020
-585.879	-102.504	0.059	0.014
-584.865	-47.319	0.240	0.117
-583.850	-125.170	0.417	-0.064
-582.836	800.000	-0.069	0.268
-581.821	36.487	-0.051	0.045
-580.806	-200.000	0.007	-0.070
-579.792	-83.703	0.260	0.083
-578.777	502.885	0.154	0.357
-577.763	98.456	0.198	0.228
-576.748	-88.548	-0.218	-0.065
-575.733	-200.000	0.037	0.171
-574.719	682.755	-0.080	0.209
-573.704	-98.172	0.137	-0.035
-572.690	-60.261	-0.191	-0.082
-571.675	-53.968	-0.178	-0.081
-570.661	25.184	0.115	-0.095
-569.646	-200.000	-0.018	0.249
-568.631	-47.419	-0.296	-0.144
-567.617	12.735	-0.128	0.099
-566.602	-114.596	-0.300	-0.058
-565.588	-200.000	-0.041	0.224
-564.573	-200.000	0.007	-0.171
-563.558	101.603	0.258	-0.302
-562.544	-123.141	-0.213	0.034
-561.529	146.114	0.112	0.151
-560.515	-178.635	0.121	-0.003
-559.500	182.493	-0.150	0.222
-558.485	-24.922	0.068	0.041
-557.471	15.151	-0.169	0.133
-556.456	-97.242	-0.168	-0.044
-555.442	-200.000	-0.011	-0.086
-554.427	141.082	-0.175	-0.232
-553.412	19.454	-0.066	0.053
-552.398	-63.463	-0.174	-0.072
-551.383	68.747	-0.081	0.083
-550.369	-1.048	0.350	-0.248
-549.354	-200.000	-0.002	0.280
-548.339	782.930	-0.043	0.119
-547.325	-200.000	0.011	-0.137
-546.310	340.845	0.065	0.127
-545.296	800.000	0.038	-0.110
-544.281	-43.748	0.117	0.059
-543.266	230.832	-0.126	-0.207
-542.252	-200.000	-0.011	-0.176
-541.237	138.905	-0.088	0.116
-540.223	-62.282	0.242	0.101
-539.208	217.339	-0.191	-0.304
-538.193	-200.000	-0.045	-0.202
-537.179	49.822	0.225	0.212
-536.164	34.041	-0.160	-0.139
-535.150	8.713	0.099	0.075
-534.135	-12.665	-0.457	-0.298
-533.121	186.936	0.075	0.112
-532.106	731.431	0.157	0.420
-531.091	9.139	0.135	0.102
-530.077	135.488	0.246	-0.320
-529.062	-200.000	-0.032	-0.290
-528.048	-185.613	0.390	-0.006
-527.033	175.963	0.122	0.178
-526.018	202.413	-0.176	-0.272
-525.004	-120.639	0.199	0.034
-523.989	-200.000	-0.025	0.280
-522.975	29.178	0.207	0.176
-521.960	-27.932	-0.296	-0.171
-520.945	800.000	0.036	-0.121
-519.931	-89.398	-0.394	0.116
-518.916	-89.356	0.110	-0.032
-517.902	-200.000	0.005	0.137
-516.887	-147.852	0.159	0.013
-515.872	30.659	-0.152	0.130
-514.858	-114.340	0.461	0.089
-513.843	-138.708	-0.300	0.033
-512.829	-195.904	0.218	0.002
-511.814	150.011	-0.157	0.214
-510.799	-200.000	-0.007	-0.081
-509.785	800.000	-0.075	-0.284
-508.770	198.549	-0.028	-0.043
-507.756	288.515	-0.054	-0.097
-506.741	661.962	-0.006	-0.015
-505.726	-119.020	0.401	0.070
-504.712	81.293	-0.224	-0.242
-503.697	-200.000	0.010	0.356
-502.683	-21.178	0.089	0.054
-501.668	-200.000	0.032	-0.160
-500.653	244.098	-0.097	-0.163
-499.639	-120.504	-0.207	-0.035
-498.624	-159.246	-0.160	-0.009
-497.610	-13.453	-0.095	-0.062
-496.595	-51.691	-0.368	-0.171
-495.581	26.223	-0.324	0.270
-494.566	-178.420	-0.169	-0.004
-493.551	-200.000	0.006	-0.440
-492.537	-23.003	0.144	-0.087
-491.522	-97.913	0.337	0.087
-490.508	-122.588	0.177	0.029
-489.493	302.807	0.107	-0.199
-488.478	-200.000	-0.073	0.000
-487.464	-200.000	0.004	0.063
-486.449	-105.419	-0.072	-0.016
-485.435	-200.000	-0.025	0.434
-484.420	149.692	0.107	-0.145
-483.405	-52.475	-0.250	0.116
-482.391	-156.671	0.292	-0.018
-481.376	21.789	0.167	0.136
-480.362	670.376	-0.026	-0.067
-479.347	-158.198	-0.312	-0.018
-478.332	-141.003	-0.120	-0.012
-477.318	800.000	-0.053	0.151
-476.303	-200.000	-0.039	0.242
-475.289	-53.545	0.190	-0.087
-474.274	-53.047	-0.104	-0.048
-473.259	-164.595	0.256	0.012
-472.245	438.725	-0.081	-0.177
-471.230	-164.556	0.059	0.003
-470.216	-62.395	0.137	-0.057
-469.201	-163.217	0.177	0.008
-468.186	-38.683	0.210	-0.110
-467.172	35.879	0.136	0.120
-466.157	457.392	-0.069	0.153
-465.143	50.493	0.035	0.033
-464.128	93.913	-0.093	0.105
-463.113	-115.307	-0.173	-0.033
-462.099	-200.000	-0.016	-0.103
-461.084	-190.283	0.174	-0.002
-460.070	800.000	-0.061	0.222
-459.055	122.758	0.173	-0.216
-458.040	-120.580	-0.334	0.056
-457.026	-109.579	-0.171	-0.036
-456.011	209.353	-0.042	0.066
-454.997	-200.000	-0.006	-0.057
-453.982	316.455	0.149	0.281
-452.968	363.473	0.213	0.427
-451.953	-151.767	0.064	0.005
-450.938	800.000	0.079	-0.316
-449.924	270.416	-0.208	0.365
-448.909	800.000	0.068	0.251
-447.895	33.867	0.260	-0.226
-446.880	-200.000	-0.018	-0.160
-445.865	37.570	0.089	-0.079
-444.851	800.000	0.097	-0.279
-443.836	-29.660	-0.116	-0.066
-442.822	-103.024	-0.244	0.058
-441.807	-168.126	0.251	-0.010
-440.792	154.684	0.147	-0.201
-439.778	800.000	-0.025	0.087
-438.763	-76.966	-0.135	0.047
-437.749	226.515	-0.083	0.134
-436.734	-142.665	-0.252	-0.025
-435.719	-171.901	-0.226	0.007
-434.705	516.220	-0.156	0.364
-433.690	164.232	0.198	0.278
-432.676	-100.878	0.051	0.012
-431.661	325.137	-0.072	-0.138
-430.646	185.039	-0.125	-0.185
-429.632	544.300	0.136	-0.325
-428.617	99.415	0.143	-0.165
-427.603	119.907	-0.163	0.201
-426.588	307.623	-0.091	-0.169
-425.573	733.001	-0.028	-0.074
-424.559	-58.458	0.234	-0.101
-423.544	-200.000	-0.011	0.240
-422.530	800.000	-0.036	0.116
-421.515	-146.373	0.118	0.010
-420.500	90.386	0.178	-0.199
-419.486	-58.492	-0.121	0.053
-418.471	317.584	0.020	0.038
-417.457	117.117	0.137	-0.167
-416.442	-200.000	0.018	0.138
-415.428	346.630	0.139	0.273
-414.413	-200.000	-0.029	0.248
-413.398	-110.035	-0.337	0.070
-412.384	-92.062	-0.229	-0.065
-411.369	-64.473	0.180	-0.073
-410.355	-200.000	0.009	-0.125
-409.340	-33.880	-0.111	-0.061
-408.325	6.198	-0.139	0.103
-407.311	-79.358	0.444	0.150
-406.296	2.889	-0.245	-0.177
-405.282	-52.386	0.211	0.097
-404.267	0.851	-0.351	0.250
-403.252	25.077	0.308	-0.254
-402.238	-173.560	0.085	0.003
-401.223	-50.648	0.208	0.098
-400.209	-26.806	-0.279	-0.163
-399.194	800.000	-0.108	-0.310
-398.179	-31.765	-0.252	0.141
-397.165	-94.392	-0.298	0.081
-396.150	800.000	0.033	-0.092
-395.136	-200.000	-0.035	0.604
-394.121	-96.377	-0.050	0.013
-393.106	-36.179	-0.087	0.047
-392.092	-96.038	0.326	-0.086
-391.077	-65.151	-0.170	0.068
-390.063	496.281	0.017	0.039
-389.048	-84.413	0.299	-0.094
-388.033	-50.948	-0.257	-0.120
-387.019	542.210	-0.074	0.176
-386.004	-200.000	-0.016	-0.168
-384.990	-111.160	0.039	-0.008
-383.975	-18.845	-0.222	0.138
-382.960	-73.496	0.260	-0.094
-381.946	22.335	-0.281	0.228
-380.931	-200.000	-0.004	0.071
-379.917	-200.000	-0.029	0.134
-378.902	16.776	-0.074	-0.059
-377.888	-200.000	0.004	-0.289
-376.873	-120.471	-0.322	0.054
-375.858	-102.997	-0.035	-0.008
-374.844	-200.000	0.029	-0.321
-373.829	238.878	0.145	0.240
-372.815	35.745	-0.257	-0.224
-371.800	-200.000	0.233	0.000
-370.785	159.402	0.081	0.113
-369.771	-28.014	-0.182	-0.105
-368.756	-163.447	-0.228	-0.011
-367.742	227.147	0.144	0.233
-366.727	-200.000	0.024	0.236
-365.712	29.327	0.198	-0.167
-364.698	24.545	0.179	-0.147
-363.683	303.743	0.046	0.085
-362.669	-89.368	0.355	-0.104
-361.654	44.963	-0.242	0.221
-360.639	-7.481	-0.313	-0.211
-359.625	116.264	0.044	0.054
-358.610	140.189	0.102	-0.134
-357.596	149.785	0.155	-0.209
-356.581	-200.000	0.000	0.193
-355.566	315.524	0.312	0.585
-354.552	285.279	0.330	0.591
-353.537	-200.000	0.030	-0.259
-352.523	295.389	-0.095	-0.173
-351.508	800.000	-0.131	0.528
-350.493	-108.743	-0.255	-0.054
-349.479	-4.262	0.292	0.201
-348.464	783.664	-0.085	-0.231
-347.450	-56.055	0.079	0.035
-346.435	-103.643	-0.285	-0.066
-345.420	-200.000	0.010	-0.359
-344.406	800.000	-0.026	-0.099
-343.391	137.287	0.198	0.257
-342.377	-200.000	-0.018	0.215
-341.362	800.000	0.053	-0.146
-340.348	68.440	0.233	-0.237
-339.333	713.093	0.106	-0.279
-338.318	-200.000	-0.016	-0.223
-337.304	59.985	-0.123	0.121
-336.289	800.000	0.027	0.086
-335.275	31.718	0.154	-0.131
-334.260	-151.045	-0.209	0.016
-333.245	59.690	-0.065	-0.064
-332.231	-49.706	-0.243	-0.115
-331.216	653.103	-0.149	-0.378
-330.202	800.000	-0.039	0.160
-329.187	7.962	-0.081	-0.060
-328.172	-98.291	0.042	-0.011
-327.158	-200.000	0.004	0.208
-326.143	-200.000	0.009	0.246
-325.129	387.856	0.031	-0.064
-324.114	-25.002	0.204	0.120
-323.099	-116.028	0.245	-0.045
-322.085	-37.761	0.132	-0.069
-321.070	4.190	-0.140	-0.102
-320.056	-95.247	-0.117	0.031
-319.041	-127.373	0.306	0.044
-318.026	-111.041	0.080	-0.016
-317.012	125.106	-0.081	0.101
-315.997	575.109	0.133	0.321
-314.983	-200.000	-0.073	0.413
-313.968	-200.000	-0.068	0.520
-312.953	44.902	-0.526	-0.481
-311.939	-13.530	-0.091	-0.059
-310.924	800.000	-0.053	-0.218
-309.910	59.521	0.071	0.069
-308.895	-200.000	-0.032	-0.204
-307.880	-70.410	-0.457	0.172
-306.866	136.404	-0.124	0.161
-305.851	36.555	-0.118	0.103
-304.837	-60.985	-0.208	-0.087
-303.822	-44.297	0.044	-0.022
-302.807	46.001	0.134	0.123
-301.793	800.000	-0.025	0.078
-300.778	-200.000	0.001	-0.087
-299.764	-200.000	0.003	-0.314
-298.749	-33.346	-0.269	-0.148
-297.735	800.000	-0.133	-0.420
-296.720	489.731	0.100	0.226
-295.705	-8.717	-0.285	-0.190
-294.691	31.505	0.154	-0.131
-293.676	231.473	-0.014	0.022
-292.662	-200.000	0.019	-0.116
-291.647	147.661	0.080	-0.107
-290.632	557.894	-0.106	0.253
-289.618	800.000	-0.069	0.276
-288.603	1.645	0.143	0.102
-287.589	-47.764	-0.156	-0.075
-286.574	-33.160	0.404	0.222
-285.559	-157.220	0.549	-0.033
-284.545	29.023	0.132	0.111
-283.530	-43.377	0.074	0.037
-282.516	-200.000	-0.052	0.308
-281.501	-30.623	0.164	-0.092
-280.486	-88.973	-0.221	0.065
-279.472	-200.000	0.038	-0.435
-278.457	-44.461	-0.222	0.110
-277.443	-62.473	-0.083	-0.034
-276.428	277.690	-0.179	-0.315
-275.413	416.529	0.092	0.194
-274.399	-200.000	-0.028	0.327
-273.384	43.613	-0.411	-0.373
-272.370	-38.212	0.121	0.063
-271.355	-18.923	-0.183	0.113
-270.340	-118.261	0.258	0.046
-269.326	191.601	-0.130	-0.193
-268.311	-200.000	-0.044	-0.281
-267.297	268.235	0.239	-0.415
-266.282	89.778	0.192	0.212
-265.267	-184.555	0.107	-0.002
-264.253	429.945	0.080	0.170
-263.238	65.012	-0.140	-0.140
-262.224	-200.000	-0.029	-0.346
-261.209	121.189	-0.136	-0.168
-260.195	-166.403	0.090	0.004
-259.180	-48.405	-0.213	-0.102
-258.165	-42.082	0.216	-0.109
-257.151	-107.671	-0.112	-0.024
-256.136	-129.787	-0.215	0.029
-255.122	-200.000	0.084	-0.527
-254.107	52.909	0.329	-0.311
-253.092	277.040	0.058	0.101
-252.078	-200.000	0.034	0.303
-251.063	-121.558	-0.061	-0.010
-250.049	-151.790	0.610	0.044
-249.034	-119.210	-0.125	0.022
-248.019	-89.233	-0.320	-0.093
-247.005	-200.000	-0.023	-0.275
-245.990	90.340	0.085	-0.094
-244.976	355.602	-0.083	0.163
-243.961	-200.000	0.013	0.205
-242.946	76.804	-0.136	0.143
-241.932	775.604	0.061	-0.165
-240.917	-200.000	-0.013	-0.333
-239.903	-158.367	-0.333	0.019
-238.888	-200.000	0.002	-0.282
-237.873	-63.410	0.161	-0.065
-236.859	13.011	-0.071	-0.055
-235.844	171.229	0.153	-0.218
-234.830	-49.413	-0.222	0.105
-233.815	800.000	0.079	0.245
-232.800	-113.266	0.358	0.070
-231.786	248.462	0.194	-0.325
-230.771	-64.550	0.040	-0.016
-229.757	-2.332	-0.187	-0.130
-228.742	-171.984	-0.257	-0.008
-227.727	-74.777	-0.051	0.018
-226.713	-127.483	-0.301	-0.043
-225.698	7.656	0.195	0.144
-224.684	69.480	-0.166	-0.169
-223.669	-104.054	0.200	-0.046
-222.655	314.271	0.091	0.170
-221.640	800.000	-0.032	0.101
-220.625	79.773	-0.151	0.161
-219.611	-49.781	0.312	0.147
-218.596	800.000	-0.053	-0.211
-217.582	-200.000	-0.005	-0.151
-216.567	-200.000	-0.036	-0.298
-215.552	96.798	0.260	-0.294
-214.538	-108.490	-0.162	-0.034
-213.523	385.620	-0.077	-0.157
-212.509	-200.000	-0.003	-0.141
-211.494	-144.073	-0.507	-0.047
-210.479	-68.632	0.229	-0.088
-209.465	-45.202	0.149	0.073
-208.450	800.000	-0.050	0.153
-207.436	-200.000	0.009	-0.226
-206.421	800.000	-0.029	0.118
-205.406	-200.000	-0.036	0.274
-204.392	-200.000	0.011	-0.206
-203.377	136.105	0.092	-0.118
-202.363	-77.750	0.184	-0.063
-201.348	-147.142	0.239	-0.020
-200.333	-49.015	0.128	-0.061
-199.319	53.087	0.274	0.259
-198.304	-42.022	-0.163	0.083
-197.290	407.400	0.109	-0.227
-196.275	383.469	0.085	0.172
-195.260	48.061	-0.237	0.219
-194.246	-200.000	-0.001	0.068
-193.231	-49.104	-0.087	0.041
-192.217	107.597	-0.240	0.282
-191.202	105.486	0.206	0.240
-190.187	800.000	0.108	-0.394
-189.173	337.747	0.048	-0.092
-188.158	800.000	-0.029	-0.090
-187.144	-200.000	-0.013	0.352
-186.129	-161.886	0.227	0.011
-185.114	377.891	-0.082	-0.166
-184.100	72.974	0.187	-0.193
-183.085	-200.000	-0.056	0.420
-182.071	-200.000	-0.037	-0.180
-181.056	254.449	0.151	-0.256
-180.042	-102.304	0.298	0.071
-179.027	392.844	-0.111	0.227
-178.012	-4.591	0.174	0.119
-176.998	-145.849	-0.076	0.007
-175.983	-200.000	-0.071	0.389
-174.969	-46.614	-0.110	-0.053
-173.954	452.746	0.138	0.300
-172.939	-58.191	-0.156	-0.067
-171.925	333.204	-0.064	0.122
-170.910	290.506	0.123	-0.220
-169.896	800.000	0.050	0.173
-168.881	-5.021	0.264	0.179
-167.866	-32.735	0.187	0.103
-166.852	33.915	0.264	0.227
-165.837	-200.000	0.073	0.344
-164.823	800.000	0.052	0.192
-163.808	-47.735	-0.388	0.185
-162.793	800.000	-0.038	0.148
-161.779	64.269	0.205	0.204
-160.764	800.000	-0.125	-0.403
-159.750	65.296	-0.107	0.106
-158.735	123.509	0.126	-0.156
-157.720	-200.000	-0.011	0.070
-156.706	-91.791	0.139	-0.039
-155.691	-200.000	-0.066	-0.552
-154.677	98.271	-0.014	-0.016
-153.662	24.806	-0.037	0.030
-152.647	-200.000	-0.069	0.363
-151.633	-200.000	-0.022	-0.197
-150.618	19.590	0.198	0.157
-149.604	800.000	-0.099	0.271
-148.589	-66.146	-0.186	0.073
-147.574	-104.469	-0.236	0.054
-146.560	23.151	-0.186	0.151
-145.545	-133.755	0.264	0.032
-144.531	30.411	-0.108	-0.091
-143.516	-70.109	0.332	-0.125
-142.502	34.457	0.128	-0.110
-141.487	514.259	-0.074	0.170
-140.472	-1.112	0.258	0.180
-139.458	36.158	0.317	0.275
-138.443	146.044	-0.106	-0.140
-137.429	-94.715	0.246	0.066
-136.414	-103.795	0.167	0.039
-135.399	-200.000	0.015	0.381
-134.385	-28.560	0.135	-0.077
-133.370	215.500	0.117	-0.182
-132.356	55.489	0.114	-0.109
-131.341	-86.302	-0.230	0.070
-130.326	106.095	-0.111	0.129
-129.312	-200.000	0.022	-0.126
-128.297	-131.166	-0.170	-0.022
-127.283	-164.193	-0.185	-0.008
-126.268	-200.000	0.033	-0.261
-125.253	18.124	0.414	0.325
-124.239	304.634	-0.066	0.121
-123.224	44.406	-0.100	-0.091
-122.210	150.204	-0.129	0.173
