DTS Sentinel unit serial number:	SN413079Multiplexer serial number:	ORYXHardware model number:	OX4-SRSoftware version number:	ORYX F/W v4.00 Oryx Data Collector v3.7.2.0data status	okinstallation	princeton_trtdifferential loss correction	single-endedforward channel	channel 3reverse channel	N/Adate	2019/09/12time	03:46:11forward acquisition time	60.00reverse acquisition time	0.00gamma	496.2192k internal	0.2322k external	0.2322temperature offset calibration	1.0071default loss term (dB/km)	0.3790temperature slope calibration	1.0000multiplexer offset coefficient	1.0000multiplexer slope coefficient	1.0000fibre end	0.00T internal ref (°C)	32.16T ext. ref 1 (°C)	2.16T ext. ref 2 (°C)	27.10length (m)	temperature (°C)	Stokes	anti-Stokes-747.200	81.466	0.162	0.177
-746.185	-200.000	0.192	0.001
-745.171	-55.698	-0.359	-0.162
-744.156	83.486	-0.129	0.142
-743.142	7.919	-0.207	-0.157
-742.127	261.245	-0.081	0.142
-741.112	-105.104	-0.194	0.045
-740.098	-81.510	-0.099	0.033
-739.083	800.000	-0.057	0.189
-738.069	156.713	0.027	0.037
-737.054	-49.202	-0.192	-0.093
-736.039	-153.634	-0.158	-0.011
-735.025	-36.739	0.297	-0.161
-734.010	580.046	-0.099	-0.245
-732.996	-58.357	0.241	0.106
-731.981	-200.000	0.058	-0.262
-730.966	185.226	-0.056	-0.084
-729.952	-200.000	0.011	-0.145
-728.937	605.754	-0.058	0.147
-727.923	-106.780	0.277	0.062
-726.908	-134.566	-0.235	-0.029
-725.894	442.846	-0.028	-0.062
-724.879	133.913	-0.179	-0.234
-723.864	-19.981	-0.220	-0.137
-722.850	-42.035	-0.080	0.041
-721.835	-200.000	0.016	-0.190
-720.821	313.125	0.052	-0.098
-719.806	618.985	0.226	-0.573
-718.791	-200.000	-0.012	0.148
-717.777	-151.376	-0.347	0.026
-716.762	66.580	0.187	0.192
-715.748	-185.198	0.292	0.005
-714.733	-152.768	-0.219	-0.016
-713.718	221.390	0.047	-0.076
-712.704	-74.985	0.023	-0.008
-711.689	-200.000	-0.001	-0.236
-710.675	30.013	0.200	0.172
-709.660	-200.000	-0.021	0.289
-708.645	-108.452	-0.394	0.086
-707.631	800.000	0.063	-0.230
-706.616	-167.227	-0.450	0.018
-705.602	-62.118	-0.509	-0.214
-704.587	9.004	-0.174	-0.132
-703.572	-200.000	0.017	0.179
-702.558	-117.342	0.193	-0.035
-701.543	-136.611	-0.240	-0.028
-700.529	284.167	-0.132	-0.240
-699.514	-200.000	0.021	-0.133
-698.499	53.336	0.028	-0.027
-697.485	-94.852	-0.172	-0.047
-696.470	26.531	-0.262	-0.221
-695.456	-92.723	-0.072	0.020
-694.441	81.288	0.135	-0.147
-693.426	-81.095	-0.192	0.064
-692.412	620.345	-0.086	0.219
-691.397	643.940	0.015	-0.039
-690.383	-145.417	-0.082	0.007
-689.368	130.810	-0.065	-0.085
-688.354	-42.154	0.345	0.178
-687.339	233.385	-0.225	0.374
-686.324	114.981	-0.235	-0.290
-685.310	-137.630	0.026	-0.003
-684.295	-49.355	0.212	-0.102
-683.281	-200.000	-0.019	0.257
-682.266	-69.348	0.176	0.068
-681.251	22.801	-0.036	-0.030
-680.237	83.091	-0.249	-0.273
-679.222	-80.331	0.140	-0.047
-678.208	-107.844	-0.277	0.061
-677.193	-99.614	-0.158	-0.040
-676.178	81.184	-0.366	0.398
-675.164	769.271	0.009	-0.024
-674.149	-24.058	-0.172	-0.104
-673.135	612.279	0.063	-0.159
-672.120	199.381	-0.115	0.178
-671.105	-56.053	0.294	0.132
-670.091	-0.797	0.093	0.066
-669.076	800.000	-0.055	0.204
-668.062	-12.010	0.217	-0.143
-667.047	800.000	0.020	0.078
-666.032	800.000	-0.100	-0.285
-665.018	-6.679	0.184	0.126
-664.003	-200.000	0.019	0.349
-662.989	75.120	0.116	0.123
-661.974	-2.299	0.198	0.140
-660.959	179.990	0.091	-0.135
-659.945	-200.000	-0.022	-0.418
-658.930	-88.865	-0.229	0.068
-657.916	137.504	0.134	-0.176
-656.901	2.116	0.186	0.135
-655.886	57.048	0.092	-0.090
-654.872	800.000	0.026	0.090
-653.857	-13.810	0.175	0.114
-652.843	77.609	-0.213	-0.228
-651.828	-104.597	-0.143	-0.033
-650.814	800.000	-0.065	0.218
-649.799	169.414	0.065	-0.094
-648.784	-96.705	-0.235	0.062
-647.770	18.556	0.114	0.091
-646.755	652.299	-0.103	0.267
-645.741	800.000	0.103	-0.329
-644.726	252.904	-0.103	0.178
-643.711	-200.000	0.023	0.189
-642.697	-10.845	0.264	0.176
-641.682	-25.572	0.092	-0.055
-640.668	-91.715	0.180	-0.052
-639.653	-110.948	-0.158	0.033
-638.638	800.000	-0.042	-0.142
-637.624	2.743	-0.056	-0.041
-636.609	276.087	0.033	0.058
-635.595	-200.000	-0.032	0.232
-634.580	-78.504	-0.181	-0.062
-633.565	-84.254	0.172	0.055
-632.551	88.378	-0.286	-0.320
-631.536	20.713	-0.185	-0.151
-630.522	800.000	0.030	-0.104
-629.507	426.710	-0.051	-0.110
-628.492	105.439	0.284	-0.337
-627.478	45.631	0.154	-0.143
-626.463	-197.944	0.201	-0.001
-625.449	-72.598	-0.423	0.157
-624.434	-46.888	0.341	-0.168
-623.419	-70.074	-0.241	-0.092
-622.405	294.077	-0.190	-0.348
-621.390	160.540	0.084	-0.119
-620.376	-200.000	0.008	0.090
-619.361	-70.997	-0.310	-0.117
-618.346	267.980	-0.175	-0.308
-617.332	257.796	-0.168	0.291
-616.317	800.000	-0.043	0.132
-615.303	-87.234	0.132	0.040
-614.288	-103.772	-0.101	-0.024
-613.273	800.000	-0.056	0.156
-612.259	-200.000	-0.013	-0.153
-611.244	-140.748	0.282	-0.029
-610.230	800.000	0.033	0.093
-609.215	-151.810	-0.247	-0.018
-608.201	-154.003	-0.132	0.009
-607.186	339.472	-0.063	0.124
-606.171	171.258	0.193	0.279
-605.157	702.649	0.083	-0.220
-604.142	-43.375	-0.075	0.038
-603.128	141.486	0.177	0.236
-602.113	-104.351	-0.149	-0.035
-601.098	800.000	-0.024	-0.086
-600.084	-31.554	-0.152	-0.086
-599.069	-129.699	-0.282	-0.039
-598.055	-164.293	0.225	-0.010
-597.040	-68.978	-0.341	-0.132
-596.025	-55.114	-0.125	0.057
-595.011	-104.330	-0.061	-0.014
-593.996	800.000	-0.026	0.071
-592.982	-147.712	-0.287	-0.024
-591.967	136.620	-0.194	-0.255
-590.952	249.812	-0.073	0.125
-589.938	-124.647	0.424	0.066
-588.923	24.423	0.336	0.279
-587.909	-63.714	-0.342	-0.141
-586.894	-59.587	-0.283	-0.122
-585.879	-103.564	0.165	-0.039
-584.865	88.859	-0.094	-0.105
-583.850	219.201	-0.064	0.102
-582.836	800.000	0.062	-0.269
-581.821	-81.914	0.215	-0.071
-580.806	-121.271	0.174	-0.029
-579.792	-200.000	-0.031	-0.177
-578.777	-170.333	0.295	-0.010
-577.763	-55.514	-0.126	-0.057
-576.748	-200.000	-0.001	0.199
-575.733	73.425	0.115	0.121
-574.719	341.012	0.075	0.147
-573.704	-200.000	-0.004	-0.360
-572.690	-155.268	0.275	-0.018
-571.675	-24.985	-0.461	0.275
-570.661	-182.578	0.177	0.003
-569.646	-58.360	-0.106	-0.046
-568.631	-42.168	-0.371	-0.190
-567.617	-200.000	-0.055	-0.241
-566.602	225.955	-0.226	-0.367
-565.588	800.000	0.074	0.229
-564.573	439.643	0.046	-0.101
-563.558	479.391	-0.163	0.370
-562.544	-195.753	-0.104	-0.001
-561.529	-0.032	0.052	-0.037
-560.515	-38.576	-0.262	-0.139
-559.500	-87.060	0.552	-0.169
-558.485	-23.190	-0.224	-0.135
-557.471	-52.056	-0.138	-0.064
-556.456	-200.000	0.010	-0.247
-555.442	140.032	-0.067	-0.089
-554.427	-37.328	-0.139	0.074
-553.412	-200.000	-0.024	-0.298
-552.398	800.000	0.055	-0.210
-551.383	-143.600	-0.048	-0.005
-550.369	-8.688	-0.133	-0.089
-549.354	115.392	0.073	0.090
-548.339	27.390	0.107	-0.090
-547.325	-200.000	0.009	-0.072
-546.310	-120.814	0.203	0.034
-545.296	800.000	0.022	0.076
-544.281	-200.000	0.012	0.190
-543.266	-200.000	0.007	0.035
-542.252	-28.735	-0.063	-0.036
-541.237	-200.000	-0.014	-0.133
-540.223	-139.130	0.145	-0.016
-539.208	-57.938	-0.213	-0.093
-538.193	-108.569	-0.412	0.089
-537.179	-108.180	-0.380	-0.082
-536.164	-115.703	0.294	0.055
-535.150	-46.341	-0.338	0.167
-534.135	284.452	-0.090	0.163
-533.121	237.208	0.188	-0.312
-532.106	-66.487	-0.211	0.084
-531.091	32.431	0.242	-0.210
-530.077	800.000	-0.062	-0.198
-529.062	-140.052	-0.150	0.016
-528.048	-200.000	0.019	-0.395
-527.033	215.907	0.025	-0.040
-526.018	112.810	-0.095	0.115
-525.004	-200.000	0.008	-0.068
-523.989	-200.000	0.025	-0.205
-522.975	-200.000	-0.017	0.085
-521.960	-55.227	-0.099	-0.045
-520.945	730.324	-0.006	0.017
-519.931	142.728	-0.113	-0.150
-518.916	-64.832	0.131	-0.053
-517.902	171.150	0.149	-0.215
-516.887	61.456	0.199	-0.198
-515.872	599.806	0.055	-0.138
-514.858	-200.000	0.033	0.313
-513.843	800.000	0.076	-0.227
-512.829	-3.041	0.199	0.139
-511.814	-60.485	0.273	0.116
-510.799	198.711	0.176	-0.269
-509.785	-7.484	0.204	-0.139
-508.770	267.502	0.121	-0.213
-507.756	7.102	0.249	0.186
-506.741	2.229	-0.129	-0.093
-505.726	85.426	0.069	0.076
-504.712	539.715	-0.133	0.317
-503.697	-43.473	-0.135	0.068
-502.683	-80.429	-0.123	-0.041
-501.668	-85.763	0.293	0.091
-500.653	-191.461	-0.248	0.002
-499.639	-152.460	-0.355	0.025
-498.624	-13.655	0.287	-0.186
-497.610	-36.968	-0.210	0.113
-496.595	-180.199	-0.247	-0.005
-495.581	-75.094	0.249	0.089
-494.566	-57.649	0.111	0.048
-493.551	277.641	-0.161	-0.287
-492.537	800.000	0.037	0.160
-491.522	-151.011	-0.193	-0.015
-490.508	-200.000	-0.000	0.267
-489.493	-200.000	-0.012	0.115
-488.478	577.128	-0.062	-0.151
-487.464	-152.747	0.258	0.018
-486.449	254.151	-0.097	0.166
-485.435	96.625	0.021	-0.024
-484.420	-75.432	0.092	-0.033
-483.405	-83.718	-0.308	0.098
-482.391	387.688	0.093	0.192
-481.376	-80.662	0.187	-0.062
-480.362	800.000	0.134	-0.405
-479.347	-86.140	0.031	0.010
-478.332	448.152	0.111	0.245
-477.318	800.000	-0.035	-0.148
-476.303	-109.835	-0.451	-0.095
-475.289	-200.000	-0.011	0.160
-474.274	-41.833	-0.149	-0.076
-473.259	-136.329	-0.228	-0.027
-472.245	146.665	0.237	0.318
-471.230	-174.656	-0.230	-0.007
-470.216	312.601	0.125	-0.234
-469.201	44.379	0.265	0.243
-468.186	800.000	-0.069	0.299
-467.172	-200.000	0.001	0.076
-466.157	134.337	0.140	-0.181
-465.143	-200.000	-0.021	0.168
-464.128	354.367	0.030	-0.059
-463.113	334.032	0.058	0.113
-462.099	80.743	-0.224	0.242
-461.084	-99.429	-0.154	0.039
-460.070	-126.536	0.349	-0.052
-459.055	731.608	-0.033	0.089
-458.040	82.438	-0.075	-0.081
-457.026	-136.720	-0.208	0.024
-456.011	-139.152	0.242	-0.026
-454.997	-45.945	-0.183	-0.090
-453.982	-47.019	-0.081	-0.039
-452.968	-25.258	-0.143	-0.085
-451.953	-142.138	-0.334	-0.033
-450.938	-127.256	-0.167	-0.024
-449.924	800.000	0.020	0.062
-448.909	800.000	-0.025	-0.070
-447.895	489.001	0.048	-0.111
-446.880	266.588	-0.061	0.106
-445.865	-56.244	0.214	0.095
-444.851	169.194	0.101	0.143
-443.836	191.721	0.111	0.166
-442.822	90.865	0.352	0.394
-441.807	-200.000	-0.030	0.238
-440.792	-188.386	0.332	-0.004
-439.778	14.086	-0.170	0.133
-438.763	389.890	0.115	0.237
-437.749	800.000	0.036	0.103
-436.734	-187.026	0.195	-0.003
-435.719	127.063	-0.167	0.212
-434.705	-65.919	0.343	0.137
-433.690	-129.217	-0.369	-0.051
-432.676	51.156	-0.162	0.153
-431.661	-117.691	0.035	-0.006
-430.646	189.341	-0.085	-0.127
-429.632	-185.026	0.018	0.000
-428.617	-200.000	0.052	-0.378
-427.603	119.460	0.168	-0.207
-426.588	-125.590	-0.218	0.033
-425.573	132.888	-0.091	0.117
-424.559	150.517	-0.199	0.270
-423.544	-200.000	-0.026	0.159
-422.530	-200.000	0.019	0.155
-421.515	-200.000	0.019	0.315
-420.500	56.839	-0.193	-0.187
-419.486	438.513	0.072	0.157
-418.471	583.874	-0.080	-0.197
-417.457	328.636	0.085	0.164
-416.442	-200.000	-0.035	0.214
-415.428	155.883	0.134	-0.184
-414.413	-200.000	0.051	-0.268
-413.398	-200.000	-0.039	-0.189
-412.384	-48.776	0.140	-0.067
-411.369	151.076	0.075	0.102
-410.355	-22.685	-0.094	-0.057
-409.340	-11.715	0.116	-0.076
-408.325	98.965	0.099	-0.114
-407.311	-111.158	-0.155	-0.032
-406.296	7.137	0.133	0.099
-405.282	110.984	0.113	0.135
-404.267	-22.862	-0.166	-0.100
-403.252	-66.361	-0.312	0.124
-402.238	-65.029	0.314	0.126
-401.223	800.000	0.108	-0.383
-400.209	352.459	0.137	0.271
-399.194	-16.534	0.104	-0.066
-398.179	-115.012	0.171	0.032
-397.165	800.000	-0.032	-0.129
-396.150	274.302	0.130	-0.229
-395.136	-200.000	-0.001	0.033
-394.121	224.787	-0.194	0.313
-393.106	299.103	-0.049	0.089
-392.092	250.393	0.141	-0.239
-391.077	-114.923	-0.295	-0.056
-390.063	-200.000	-0.037	0.224
-389.048	-200.000	0.023	0.137
-388.033	-136.748	0.183	0.021
-387.019	476.599	0.060	0.135
-386.004	-200.000	0.033	-0.237
-384.990	-200.000	-0.052	0.230
-383.975	72.416	0.213	0.222
-382.960	77.495	0.090	-0.096
-381.946	-109.506	0.159	-0.034
-380.931	-113.186	0.370	-0.073
-379.917	2.425	0.083	0.060
-378.902	-200.000	0.026	0.179
-377.888	753.515	-0.031	0.083
-376.873	-86.056	0.017	-0.005
-375.858	-63.009	-0.186	-0.076
-374.844	-152.860	-0.183	0.013
-373.829	-145.516	0.121	0.011
-372.815	135.073	-0.265	0.343
-371.800	31.131	0.342	-0.292
-370.785	0.373	-0.119	-0.085
-369.771	12.734	0.221	-0.170
-368.756	-167.622	-0.132	-0.005
-367.742	-200.000	0.001	-0.158
-366.727	488.284	0.097	0.220
-365.712	-64.812	0.134	0.054
-364.698	45.662	-0.253	-0.233
-363.683	-172.578	-0.100	-0.003
-362.669	-109.934	0.357	0.075
-361.654	128.465	-0.092	0.117
-360.639	-200.000	0.021	-0.263
-359.625	19.720	-0.087	-0.070
-358.610	345.143	0.196	-0.383
-357.596	260.995	-0.088	-0.151
-356.581	-45.124	0.200	0.099
-355.566	777.874	0.028	0.075
-354.552	800.000	0.029	0.097
-353.537	800.000	0.035	-0.130
-352.523	83.260	0.050	0.055
-351.508	250.527	0.166	0.281
-350.493	-131.609	0.178	-0.023
-349.479	14.960	-0.079	-0.061
-348.464	-164.496	-0.582	0.026
-347.450	71.298	0.169	-0.174
-346.435	-200.000	0.019	-0.163
-345.420	-123.069	0.136	-0.022
-344.406	-36.735	0.051	-0.027
-343.391	-200.000	-0.012	0.284
-342.377	-126.903	0.102	-0.015
-341.362	-80.733	-0.172	-0.057
-340.348	106.914	0.317	0.375
-339.333	-52.968	0.065	-0.030
-338.318	-110.130	-0.276	-0.057
-337.304	-175.791	0.233	0.006
-336.289	-200.000	-0.005	0.040
-335.275	245.791	-0.107	0.179
-334.260	-160.340	0.227	-0.012
-333.245	90.524	-0.114	-0.127
-332.231	48.770	0.109	0.102
-331.216	-114.706	0.408	0.078
-330.202	-200.000	0.021	-0.286
-329.187	-84.817	-0.366	-0.114
-328.172	-39.629	-0.123	-0.064
-327.158	-84.693	-0.061	0.019
-326.143	41.295	-0.102	0.092
-325.129	11.343	-0.166	0.127
-324.114	-134.555	-0.263	-0.032
-323.099	82.421	0.165	0.178
-322.085	-200.000	0.027	0.158
-321.070	-200.000	0.020	-0.100
-320.056	83.150	-0.266	-0.288
-319.041	-100.685	0.166	0.041
-318.026	-142.739	0.126	-0.012
-317.012	436.112	0.038	-0.081
-315.997	-51.820	0.074	-0.034
-314.983	-50.567	-0.309	-0.145
-313.968	754.587	-0.170	-0.456
-312.953	-86.331	0.044	0.013
-311.939	4.225	0.224	0.163
-310.924	235.749	0.148	0.243
-309.910	-17.152	-0.098	-0.062
-308.895	-14.480	-0.148	-0.094
-307.880	-166.951	-0.197	-0.008
-306.866	-60.309	0.182	0.077
-305.851	-200.000	-0.027	0.233
-304.837	-200.000	-0.034	0.349
-303.822	-3.314	0.187	-0.129
-302.807	-49.905	-0.106	0.050
-301.793	-116.792	0.148	0.027
-300.778	245.212	0.126	-0.210
-299.764	-137.553	0.148	0.017
-298.749	800.000	0.054	0.229
-297.735	-101.457	-0.091	0.022
-296.720	-42.395	0.088	-0.044
-295.705	76.126	-0.228	0.240
-294.691	303.269	-0.095	0.176
-293.676	-120.171	-0.382	0.065
-292.662	-18.095	-0.314	0.195
-291.647	-200.000	0.024	-0.191
-290.632	70.509	-0.119	0.122
-289.618	258.974	0.183	-0.313
-288.603	673.155	0.064	0.164
-287.589	4.223	-0.101	-0.074
-286.574	273.801	-0.033	-0.059
-285.559	-84.626	0.118	-0.037
-284.545	432.601	0.101	-0.218
-283.530	174.855	0.112	0.161
-282.516	-200.000	0.031	0.210
-281.501	120.604	-0.130	-0.160
-280.486	-200.000	0.013	-0.061
-279.472	389.976	-0.108	0.222
-278.457	-138.492	0.277	-0.030
-277.443	-200.000	-0.011	0.248
-276.428	127.944	0.224	-0.282
-275.413	585.165	0.009	-0.021
-274.399	135.046	-0.153	-0.197
-273.384	565.831	0.032	0.077
-272.370	-122.883	0.129	0.021
-271.355	394.355	0.022	0.046
-270.340	-41.828	-0.411	-0.209
-269.326	-91.050	-0.361	0.103
-268.311	-124.616	-0.217	-0.033
-267.297	417.274	-0.168	0.356
-266.282	-135.381	-0.339	0.040
-265.267	-43.019	0.298	0.150
-264.253	771.904	-0.073	-0.197
-263.238	-200.000	-0.040	-0.306
-262.224	-112.784	-0.238	-0.047
-261.209	-69.511	-0.329	-0.125
-260.195	-98.136	0.390	-0.099
-259.180	488.997	0.074	-0.168
-258.165	-23.550	-0.193	-0.115
-257.151	417.887	-0.108	0.230
-256.136	-52.146	-0.133	-0.061
-255.122	-18.596	0.136	-0.084
-254.107	-200.000	0.015	0.105
-253.092	800.000	0.092	0.339
-252.078	3.447	-0.086	-0.062
-251.063	-200.000	0.021	-0.203
-250.049	120.679	-0.186	-0.230
-249.034	41.075	0.162	-0.145
-248.019	-7.196	-0.086	0.058
-247.005	-180.631	-0.074	-0.002
-245.990	198.399	0.097	-0.148
-244.976	60.249	0.139	0.137
-243.961	72.410	0.124	0.128
-242.946	137.629	0.186	0.241
-241.932	68.992	0.211	-0.215
-240.917	68.382	-0.119	0.120
-239.903	-200.000	-0.031	0.151
-238.888	-29.302	-0.228	0.129
-237.873	-200.000	-0.023	-0.131
-236.859	-66.491	0.363	0.143
-235.844	-200.000	-0.008	-0.117
-234.830	-200.000	0.040	-0.231
-233.815	-200.000	-0.017	-0.263
-232.800	45.316	0.058	0.053
-231.786	800.000	0.122	0.483
-230.771	604.888	-0.081	0.200
-229.757	308.965	0.152	-0.282
-228.742	471.816	-0.083	0.184
-227.727	-132.140	0.197	0.025
-226.713	-200.000	-0.012	0.113
-225.698	100.845	-0.115	0.132
-224.684	-38.151	0.107	0.056
-223.669	-157.082	0.185	-0.011
-222.655	-47.665	0.061	-0.029
-221.640	-200.000	0.001	0.350
-220.625	83.830	0.286	0.309
-219.611	-54.455	-0.148	-0.066
-218.596	-22.583	-0.007	0.004
-217.582	128.673	0.280	0.354
-216.567	736.139	-0.153	-0.405
-215.552	-161.824	0.286	0.014
-214.538	-143.940	0.480	0.045
-213.523	378.375	-0.123	0.249
-212.509	-99.167	-0.235	-0.059
-211.494	800.000	-0.091	0.304
-210.479	-200.000	0.036	0.423
-209.465	-104.887	-0.135	-0.031
-208.450	800.000	0.060	-0.198
-207.436	-200.000	-0.001	0.080
-206.421	-200.000	-0.006	-0.125
-205.406	58.794	-0.233	-0.227
-204.392	364.149	-0.088	-0.176
-203.377	-123.971	-0.389	0.061
-202.363	-200.000	-0.018	-0.148
-201.348	-22.526	0.337	0.202
-200.333	-90.374	0.264	0.076
-199.319	-93.906	-0.154	-0.042
-198.304	98.981	-0.098	-0.111
-197.290	-170.818	-0.305	0.010
-196.275	-49.866	-0.366	-0.172
-195.260	-200.000	0.001	-0.018
-194.246	245.639	-0.200	-0.332
-193.231	44.650	0.256	-0.232
-192.217	-92.082	0.133	-0.037
-191.202	-194.277	-0.146	0.001
-190.187	-200.000	-0.030	0.234
-189.173	19.149	0.251	0.199
-188.158	293.955	0.044	0.080
-187.144	-134.118	-0.161	0.020
-186.129	205.402	0.167	-0.256
-185.114	139.523	-0.046	0.060
-184.100	14.369	0.268	-0.207
-183.085	-56.551	-0.141	0.062
-182.071	253.493	-0.192	0.325
-181.056	-44.140	0.336	0.167
-180.042	-44.975	0.296	-0.146
-179.027	493.999	-0.087	-0.198
-178.012	70.783	0.213	0.218
-176.998	-200.000	0.001	0.412
-175.983	0.738	0.299	-0.211
-174.969	-1.551	0.299	0.209
-173.954	-200.000	-0.070	-0.409
-172.939	215.828	-0.126	0.198
-171.925	-200.000	0.061	0.367
-170.910	549.644	0.037	-0.088
-169.896	-200.000	0.000	0.025
-168.881	42.769	-0.170	0.153
-167.866	-200.000	0.002	0.128
-166.852	99.235	0.156	-0.179
-165.837	-98.995	0.257	0.064
-164.823	800.000	0.059	-0.235
-163.808	800.000	0.074	-0.215
-162.793	1.827	0.335	-0.239
-161.779	162.854	0.009	0.012
-160.764	-200.000	-0.036	0.247
-159.750	-35.281	-0.310	0.167
-158.735	-200.000	-0.017	0.080
-157.720	54.957	-0.152	-0.145
-156.706	-66.400	0.167	0.066
-155.691	-200.000	0.014	0.289
-154.677	-200.000	0.057	-0.256
-153.662	800.000	-0.064	0.208
-152.647	-200.000	0.009	-0.324
-151.633	-200.000	0.006	-0.221
-150.618	114.771	0.141	-0.170
-149.604	184.248	0.082	-0.120
-148.589	-48.898	-0.265	0.126
-147.574	-102.939	0.245	0.057
-146.560	138.019	0.209	0.271
-145.545	-200.000	0.345	-0.001
-144.531	-127.122	-0.334	0.048
-143.516	800.000	0.108	0.346
-142.502	-200.000	0.023	0.253
-141.487	293.464	-0.083	-0.149
-140.472	-54.084	0.252	0.113
-139.458	-200.000	-0.016	-0.097
-138.443	43.046	-0.179	0.161
-137.429	-141.103	-0.165	-0.017
-136.414	-43.477	0.191	-0.095
-135.399	286.990	0.315	-0.562
-134.385	-125.823	0.088	-0.013
-133.370	-54.381	-0.078	-0.035
-132.356	-106.415	0.245	0.054
-131.341	-26.505	-0.309	-0.179
-130.326	706.068	0.082	0.213
-129.312	800.000	0.157	0.508
-128.297	-200.000	-0.004	0.457
-127.283	227.326	0.135	0.216
-126.268	-81.945	0.090	0.029
-125.253	226.133	-0.059	-0.094
-124.239	-200.000	0.215	0.001
-123.224	-29.495	0.154	0.087
-122.210	263.859	-0.158	0.272
