DTS Sentinel unit serial number:	SN413079Multiplexer serial number:	ORYXHardware model number:	OX4-SRSoftware version number:	ORYX F/W v4.00 Oryx Data Collector v3.7.2.0data status	okinstallation	princeton_trtdifferential loss correction	single-endedforward channel	channel 3reverse channel	N/Adate	2019/09/19time	12:20:34forward acquisition time	60.00reverse acquisition time	0.00gamma	496.2192k internal	0.2337k external	0.2337temperature offset calibration	0.9988default loss term (dB/km)	0.3790temperature slope calibration	1.0000multiplexer offset coefficient	1.0000multiplexer slope coefficient	1.0000fibre end	0.00T internal ref (°C)	26.64T ext. ref 1 (°C)	0.87T ext. ref 2 (°C)	23.82length (m)	temperature (°C)	Stokes	anti-Stokes-747.200	800.000	-0.071	0.242
-746.185	-69.125	0.483	0.187
-745.171	660.260	-0.100	0.259
-744.156	241.642	-0.063	0.106
-743.142	800.000	-0.086	-0.315
-742.127	-6.225	-0.297	0.203
-741.112	-149.253	-0.112	-0.009
-740.098	-161.266	-0.455	-0.024
-739.083	-122.010	-0.127	-0.021
-738.069	-200.000	-0.018	0.120
-737.054	-159.053	0.127	0.007
-736.039	257.745	-0.344	-0.594
-735.025	-148.114	0.258	-0.021
-734.010	-150.377	-0.165	-0.013
-732.996	-200.000	0.009	0.152
-731.981	131.548	-0.133	0.171
-730.966	-173.650	0.072	-0.002
-729.952	-200.000	-0.005	-0.086
-728.937	-200.000	0.029	0.288
-727.923	-136.770	-0.287	-0.033
-726.908	-200.000	0.014	-0.149
-725.894	-30.831	0.143	-0.081
-724.879	326.647	0.126	-0.241
-723.864	86.021	-0.536	0.591
-722.850	208.388	-0.188	-0.295
-721.835	3.125	0.114	0.083
-720.821	-116.308	-0.200	-0.037
-719.806	-71.323	0.363	0.136
-718.791	800.000	0.010	-0.035
-717.777	-200.000	0.035	-0.198
-716.762	800.000	-0.065	0.235
-715.748	92.464	-0.089	-0.101
-714.733	38.503	-0.061	0.054
-713.718	32.168	0.059	0.051
-712.704	-64.508	-0.308	-0.125
-711.689	-43.221	-0.226	0.115
-710.675	537.979	-0.083	-0.197
-709.660	652.553	0.111	0.284
-708.645	-170.977	0.128	0.004
-707.631	-139.935	0.038	-0.004
-706.616	91.446	0.068	-0.076
-705.602	25.841	-0.135	-0.113
-704.587	-200.000	0.013	0.157
-703.572	-200.000	-0.014	-0.166
-702.558	800.000	-0.042	0.130
-701.543	-195.068	0.273	0.002
-700.529	584.288	0.092	-0.227
-699.514	-108.389	0.229	0.049
-698.499	5.344	0.192	-0.142
-697.485	35.936	0.038	0.034
-696.470	-109.379	-0.269	0.057
-695.456	-113.631	0.202	-0.040
-694.441	134.675	0.098	0.127
-693.426	-200.000	-0.019	0.210
-692.412	130.394	-0.147	-0.189
-691.397	116.586	-0.153	-0.188
-690.383	-132.770	0.036	-0.005
-689.368	800.000	-0.112	-0.334
-688.354	57.410	-0.145	-0.141
-687.339	-163.088	0.098	0.005
-686.324	-48.400	-0.084	0.040
-685.310	-200.000	-0.012	-0.284
-684.295	800.000	-0.096	-0.298
-683.281	159.443	0.095	0.133
-682.266	1.857	-0.118	0.085
-681.251	331.342	-0.134	-0.258
-680.237	75.395	0.140	0.148
-679.222	-200.000	-0.039	-0.323
-678.208	335.632	-0.148	0.287
-677.193	-148.228	-0.151	0.012
-676.178	11.436	0.167	-0.128
-675.164	-63.753	-0.234	0.096
-674.149	-200.000	-0.035	0.157
-673.135	-189.395	-0.279	0.003
-672.120	59.226	0.118	0.116
-671.105	800.000	-0.013	0.048
-670.091	101.739	0.086	0.101
-669.076	800.000	0.102	-0.307
-668.062	-64.441	0.535	0.217
-667.047	-200.000	0.013	0.181
-666.032	106.811	-0.049	0.058
-665.018	-111.685	-0.120	-0.024
-664.003	-130.151	-0.064	0.009
-662.989	800.000	0.076	-0.250
-661.974	-105.787	-0.387	-0.087
-660.959	-177.374	0.349	0.009
-659.945	15.894	-0.048	0.038
-658.930	-200.000	0.023	0.186
-657.916	-1.464	-0.288	-0.203
-656.901	-84.283	0.175	-0.055
-655.886	106.091	-0.076	-0.090
-654.872	-175.891	0.206	0.005
-653.857	-200.000	0.096	0.465
-652.843	-178.257	-0.139	0.003
-651.828	-200.000	-0.012	0.209
-650.814	657.745	0.071	-0.183
-649.799	-157.791	0.086	-0.005
-648.784	163.768	0.153	0.215
-647.770	-200.000	-0.098	0.480
-646.755	-25.381	0.323	0.191
-645.741	517.107	0.095	-0.222
-644.726	8.139	-0.123	-0.093
-643.711	18.921	0.311	-0.249
-642.697	-145.077	0.290	-0.026
-641.682	-200.000	-0.004	-0.042
-640.668	-182.507	-0.315	0.006
-639.653	-200.000	0.097	0.446
-638.638	16.026	0.188	-0.148
-637.624	-30.015	-0.164	-0.093
-636.609	-44.270	0.101	0.051
-635.595	-42.525	0.240	-0.122
-634.580	18.755	0.257	-0.206
-633.565	588.230	0.071	-0.176
-632.551	52.982	0.144	0.138
-631.536	111.938	-0.286	0.345
-630.522	-12.885	0.090	0.058
-629.507	-200.000	-0.297	-0.001
-628.492	403.189	0.103	0.216
-627.478	-200.000	-0.051	-0.320
-626.463	-2.644	0.230	0.160
-625.449	257.741	0.138	0.237
-624.434	100.182	-0.167	-0.194
-623.419	-97.911	-0.325	-0.084
-622.405	368.915	-0.167	-0.337
-621.390	-9.282	-0.162	-0.108
-620.376	204.909	0.043	0.067
-619.361	-200.000	-0.021	-0.177
-618.346	-200.000	-0.024	-0.131
-617.332	-143.331	-0.301	0.029
-616.317	800.000	-0.034	-0.096
-615.303	-66.867	-0.297	-0.117
-614.288	800.000	-0.077	0.328
-613.273	0.954	0.116	0.083
-612.259	94.361	-0.118	-0.134
-611.244	-181.129	0.153	0.003
-610.230	12.301	0.340	0.261
-609.215	800.000	0.121	-0.507
-608.201	377.970	-0.098	0.200
-607.186	80.177	-0.017	0.018
-606.171	-79.658	0.127	0.043
-605.157	-88.771	-0.144	-0.043
-604.142	-8.684	0.055	-0.037
-603.128	-200.000	0.008	0.122
-602.113	-200.000	0.049	0.239
-601.098	-200.000	0.016	0.137
-600.084	153.766	-0.194	-0.265
-599.069	204.609	-0.069	-0.106
-598.055	-200.000	-0.006	0.052
-597.040	78.662	0.125	-0.133
-596.025	183.098	-0.196	-0.289
-595.011	15.015	-0.115	-0.090
-593.996	-46.753	-0.072	0.035
-592.982	60.009	0.247	-0.243
-591.967	594.620	-0.086	-0.213
-590.952	1.092	0.030	-0.021
-589.938	-155.621	-0.356	0.023
-588.923	-88.651	-0.296	-0.088
-587.909	373.383	-0.100	0.203
-586.894	175.592	-0.124	0.180
-585.879	-57.928	-0.119	0.052
-584.865	-62.814	0.115	0.048
-583.850	155.219	-0.230	-0.315
-582.836	502.558	-0.096	-0.221
-581.821	-11.266	-0.090	0.059
-580.806	-200.000	-0.065	-0.327
-579.792	769.542	0.069	0.188
-578.777	-200.000	0.013	0.354
-577.763	-100.498	0.347	-0.086
-576.748	-74.941	0.492	-0.176
-575.733	-126.643	0.559	-0.083
-574.719	-200.000	0.006	-0.132
-573.704	68.225	0.023	-0.024
-572.690	-1.744	-0.042	-0.029
-571.675	-200.000	0.005	0.164
-570.661	-127.859	-0.411	-0.059
-569.646	-127.512	0.176	0.026
-568.631	-16.532	-0.077	0.048
-567.617	16.977	-0.087	-0.069
-566.602	-38.775	-0.107	0.056
-565.588	165.344	0.314	-0.443
-564.573	-200.000	0.013	0.060
-563.558	-158.664	0.140	-0.008
-562.544	-200.000	-0.074	0.370
-561.529	-48.918	0.151	0.072
-560.515	-200.000	0.008	0.211
-559.500	800.000	-0.084	0.241
-558.485	800.000	-0.069	-0.246
-557.471	-0.674	0.225	0.159
-556.456	116.761	0.188	0.230
-555.442	-40.654	-0.133	-0.069
-554.427	800.000	-0.069	-0.238
-553.412	348.179	-0.109	0.215
-552.398	-200.000	-0.022	-0.120
-551.383	800.000	0.025	0.072
-550.369	376.029	-0.040	0.081
-549.354	28.761	-0.079	0.067
-548.339	800.000	-0.033	-0.102
-547.325	-149.293	-0.142	0.011
-546.310	-49.601	-0.383	0.182
-545.296	-9.115	0.161	0.107
-544.281	-56.423	0.500	-0.221
-543.266	2.898	-0.188	-0.136
-542.252	-200.000	0.007	-0.041
-541.237	-93.613	-0.094	0.026
-540.223	-200.000	-0.021	-0.316
-539.208	-200.000	0.044	-0.531
-538.193	-154.829	-0.238	0.016
-537.179	-200.000	-0.037	-0.196
-536.164	800.000	-0.060	0.173
-535.150	-43.452	0.135	-0.068
-534.135	-50.619	-0.136	0.064
-533.121	148.036	-0.115	-0.154
-532.106	21.767	-0.432	0.350
-531.091	-25.503	0.186	0.109
-530.077	-51.620	0.262	-0.122
-529.062	5.980	0.259	-0.191
-528.048	98.370	-0.139	-0.159
-527.033	-136.443	-0.040	0.005
-526.018	123.839	-0.197	0.246
-525.004	-139.769	0.129	-0.014
-523.989	-24.061	-0.277	-0.165
-522.975	280.495	-0.104	-0.185
-521.960	182.669	-0.149	0.219
-520.945	117.071	-0.120	-0.147
-519.931	377.357	0.132	-0.269
-518.916	574.819	-0.040	0.096
-517.902	800.000	-0.137	0.512
-516.887	133.237	0.101	0.130
-515.872	57.287	0.049	0.047
-514.858	-34.591	-0.156	0.085
-513.843	185.454	-0.151	0.223
-512.829	-146.931	0.189	-0.016
-511.814	365.978	-0.080	0.160
-510.799	-70.790	0.169	0.063
-509.785	-56.381	-0.207	0.091
-508.770	796.483	0.110	0.300
-507.756	-200.000	-0.049	0.317
-506.741	-115.443	-0.104	0.019
-505.726	-200.000	0.063	-0.286
-504.712	227.336	-0.076	-0.124
-503.697	401.478	0.056	0.118
-502.683	-200.000	0.002	-0.025
-501.668	800.000	0.024	-0.100
-500.653	40.195	0.170	0.152
-499.639	739.954	-0.063	0.168
-498.624	-200.000	0.021	0.328
-497.610	89.690	0.293	0.325
-496.595	-96.556	0.067	-0.018
-495.581	800.000	-0.128	-0.396
-494.566	-46.469	0.095	0.047
-493.551	638.927	-0.031	0.077
-492.537	800.000	0.025	0.089
-491.522	-149.244	-0.081	-0.006
-490.508	-122.518	-0.195	-0.031
-489.493	800.000	0.088	-0.304
-488.478	50.439	0.102	-0.096
-487.464	-200.000	0.032	-0.168
-486.449	-4.609	0.177	-0.122
-485.435	-110.969	0.399	-0.081
-484.420	-200.000	0.002	-0.115
-483.405	28.642	0.088	0.074
-482.391	-200.000	-0.007	-0.233
-481.376	800.000	0.106	0.394
-480.362	-200.000	-0.043	-0.235
-479.347	-13.606	0.206	-0.133
-478.332	-4.651	-0.142	-0.097
-477.318	202.450	-0.124	0.190
-476.303	-189.718	-0.509	0.006
-475.289	32.240	0.127	0.109
-474.274	-68.362	-0.212	-0.082
-473.259	-73.393	0.158	0.057
-472.245	-43.384	-0.326	-0.164
-471.230	800.000	0.078	-0.305
-470.216	70.101	0.215	0.221
-469.201	-28.457	-0.143	0.082
-468.186	-110.924	-0.116	-0.024
-467.172	-93.708	-0.255	-0.070
-466.157	86.976	-0.283	0.311
-465.143	153.436	-0.060	-0.082
-464.128	-200.000	-0.034	0.252
-463.113	-200.000	-0.009	-0.075
-462.099	334.787	-0.105	-0.202
-461.084	-167.800	-0.138	-0.005
-460.070	-57.529	0.101	-0.044
-459.055	81.083	-0.182	0.194
-458.040	800.000	0.079	0.248
-457.026	-200.000	-0.008	0.383
-456.011	-200.000	0.064	-0.293
-454.997	800.000	0.071	-0.248
-453.982	293.358	0.105	-0.191
-452.968	250.661	-0.097	-0.163
-451.953	-200.000	0.046	0.214
-450.938	-200.000	-0.033	-0.392
-449.924	158.698	0.158	-0.218
-448.909	-4.637	0.411	0.281
-447.895	-54.871	-0.255	0.114
-446.880	-87.992	-0.391	0.117
-445.865	-74.553	0.281	0.101
-444.851	800.000	-0.026	0.087
-443.836	-24.989	0.219	-0.129
-442.822	-200.000	0.038	0.235
-441.807	-200.000	-0.022	-0.165
-440.792	-88.729	0.351	0.103
-439.778	76.491	-0.329	0.346
-438.763	121.779	0.211	0.261
-437.749	-54.752	0.109	0.049
-436.734	27.843	-0.046	-0.038
-435.719	108.741	-0.245	-0.291
-434.705	800.000	-0.050	-0.216
-433.690	-85.583	-0.295	0.091
-432.676	188.238	0.289	0.429
-431.661	-63.693	0.240	-0.098
-430.646	-119.246	-0.433	0.075
-429.632	-85.244	0.226	0.070
-428.617	146.846	-0.106	0.141
-427.603	-55.676	0.106	-0.047
-426.588	-200.000	0.026	0.208
-425.573	-20.391	-0.146	0.089
-424.559	-200.000	0.083	0.366
-423.544	47.837	0.145	-0.134
-422.530	79.120	0.347	-0.369
-421.515	-200.000	0.000	-0.132
-420.500	41.878	-0.305	-0.274
-419.486	-200.000	-0.002	-0.272
-418.471	-29.685	0.226	-0.128
-417.457	-40.761	-0.222	0.114
-416.442	21.692	-0.060	-0.049
-415.428	-2.934	0.148	0.102
-414.413	-200.000	0.052	0.300
-413.398	-200.000	0.025	-0.223
-412.384	-100.445	0.215	-0.053
-411.369	-200.000	-0.023	-0.125
-410.355	800.000	-0.075	0.208
-409.340	-200.000	0.012	-0.174
-408.325	28.853	0.156	0.131
-407.311	-151.743	0.147	0.011
-406.296	149.803	-0.174	-0.233
-405.282	86.413	-0.116	-0.126
-404.267	24.345	0.352	-0.288
-403.252	800.000	0.178	0.504
-402.238	-200.000	0.003	-0.018
-401.223	7.440	0.250	0.185
-400.209	-200.000	0.030	0.132
-399.194	-200.000	-0.011	0.155
-398.179	-200.000	0.013	0.070
-397.165	-43.675	-0.199	-0.099
-396.150	-200.000	0.035	0.225
-395.136	-200.000	-0.027	0.400
-394.121	441.736	0.024	-0.053
-393.106	800.000	-0.032	0.114
-392.092	-165.467	0.177	0.008
-391.077	-200.000	-0.029	0.191
-390.063	-48.378	-0.337	0.161
-389.048	800.000	0.065	-0.222
-388.033	800.000	0.101	0.304
-387.019	465.293	0.218	-0.483
-386.004	-127.083	0.302	-0.044
-384.990	66.999	0.096	0.097
-383.975	-30.554	-0.157	-0.088
-382.960	87.162	-0.241	0.264
-381.946	418.239	0.107	-0.227
-380.931	-200.000	-0.008	0.228
-379.917	-200.000	-0.045	-0.248
-378.902	-88.942	-0.322	-0.094
-377.888	-107.691	-0.212	-0.046
-376.873	800.000	0.075	0.280
-375.858	-17.966	-0.143	-0.088
-374.844	800.000	0.052	0.170
-373.829	-6.008	-0.155	0.105
-372.815	-84.803	-0.134	-0.042
-371.800	800.000	-0.027	-0.109
-370.785	-200.000	0.038	-0.352
-369.771	191.353	0.090	-0.133
-368.756	-200.000	-0.045	-0.210
-367.742	180.058	0.359	-0.521
-366.727	278.495	0.109	-0.192
-365.712	-91.056	-0.509	0.145
-364.698	13.989	0.212	0.163
-363.683	-200.000	-0.066	-0.382
-362.669	73.919	-0.027	0.028
-361.654	-200.000	0.011	-0.214
-360.639	13.385	-0.092	0.070
-359.625	-56.889	0.517	0.226
-358.610	182.764	0.176	0.257
-357.596	-64.669	-0.059	0.024
-356.581	186.625	0.228	-0.336
-355.566	-33.759	0.268	-0.146
-354.552	-3.750	-0.284	-0.195
-353.537	-200.000	-0.009	0.060
-352.523	-139.522	-0.223	0.024
-351.508	37.105	-0.246	-0.215
-350.493	43.144	0.207	-0.187
-349.479	34.810	-0.078	0.068
-348.464	122.783	-0.093	-0.114
-347.450	-109.559	0.197	0.041
-346.435	-56.762	-0.228	0.100
-345.420	191.814	0.077	-0.115
-344.406	-9.470	-0.275	0.181
-343.391	-67.833	-0.254	0.098
-342.377	-200.000	0.058	-0.320
-341.362	-200.000	-0.039	-0.398
-340.348	214.761	-0.096	-0.151
-339.333	-200.000	-0.027	0.160
-338.318	-32.977	-0.234	-0.128
-337.304	-82.712	-0.117	0.037
-336.289	-64.129	0.247	0.100
-335.275	-200.000	0.014	-0.100
-334.260	-183.695	-0.325	-0.005
-333.245	-200.000	0.002	-0.259
-332.231	193.724	0.017	-0.025
-331.216	-200.000	0.031	-0.225
-330.202	20.353	0.079	0.063
-329.187	800.000	0.031	-0.089
-328.172	-88.754	0.325	0.095
-327.158	85.748	-0.020	-0.022
-326.143	-200.000	-0.068	0.416
-325.129	13.961	0.446	-0.343
-324.114	742.488	0.084	-0.224
-323.099	682.083	-0.093	-0.238
-322.085	42.681	0.074	-0.067
-321.070	-122.468	0.135	0.022
-320.056	276.473	0.042	-0.073
-319.041	800.000	0.050	-0.162
-318.026	-200.000	0.007	0.281
-317.012	153.519	0.286	0.387
-315.997	-106.924	-0.206	0.045
-314.983	13.884	0.196	0.150
-313.968	-47.507	-0.466	-0.223
-312.953	-164.372	0.120	-0.005
-311.939	-200.000	-0.073	-0.368
-310.924	-200.000	-0.014	-0.130
-309.910	-200.000	0.037	-0.176
-308.895	-200.000	0.068	-0.402
-307.880	-64.508	-0.434	0.174
-306.866	-59.608	-0.156	0.066
-305.851	106.663	-0.133	-0.155
-304.837	-39.214	-0.094	0.049
-303.822	800.000	0.098	0.298
-302.807	374.103	-0.085	0.172
-301.793	800.000	0.005	-0.020
-300.778	-56.364	0.213	-0.093
-299.764	95.244	0.139	0.157
-298.749	141.130	0.147	0.192
-297.735	22.747	0.156	0.126
-296.720	-133.287	0.274	0.034
-295.705	-26.126	-0.022	-0.013
-294.691	620.029	0.022	0.056
-293.676	800.000	0.131	0.424
-292.662	-47.700	-0.092	-0.044
-291.647	800.000	0.016	0.058
-290.632	501.784	0.132	0.301
-289.618	800.000	-0.008	-0.030
-288.603	-200.000	-0.008	-0.206
-287.589	17.074	-0.268	0.209
-286.574	-14.496	-0.013	0.008
-285.559	-200.000	-0.046	-0.262
-284.545	-185.857	-0.116	-0.002
-283.530	9.330	0.153	-0.114
-282.516	-200.000	-0.041	0.274
-281.501	-200.000	0.011	-0.257
-280.486	-43.322	-0.295	-0.147
-279.472	206.187	-0.011	0.017
-278.457	800.000	-0.073	-0.229
-277.443	-200.000	-0.008	-0.066
-276.428	427.035	-0.087	0.185
-275.413	-183.530	0.087	0.001
-274.399	800.000	-0.077	-0.258
-273.384	-152.087	-0.159	0.011
-272.370	800.000	-0.130	-0.356
-271.355	-20.021	-0.128	-0.078
-270.340	-88.146	-0.237	0.070
-269.326	140.243	0.091	0.118
-268.311	-47.498	0.035	-0.017
-267.297	366.783	0.113	0.225
-266.282	-200.000	-0.036	0.165
-265.267	-200.000	0.041	0.272
-264.253	-100.737	-0.184	-0.045
-263.238	368.802	0.104	-0.207
-262.224	-26.378	-0.156	-0.090
-261.209	167.936	-0.051	-0.071
-260.195	-143.931	0.157	-0.015
-259.180	143.670	-0.064	-0.083
-258.165	685.851	-0.128	0.330
-257.151	-200.000	-0.007	0.245
-256.136	221.903	0.140	-0.222
-255.122	49.692	-0.331	-0.307
-254.107	-159.792	0.089	0.005
-253.092	230.618	0.117	-0.188
-252.078	262.918	-0.187	-0.320
-251.063	-10.327	-0.172	-0.112
-250.049	800.000	-0.100	0.337
-249.034	27.978	0.188	0.156
-248.019	-108.715	0.161	-0.034
-247.005	-195.141	0.238	-0.002
-245.990	113.017	0.190	0.227
-244.976	7.896	-0.340	0.251
-243.961	-200.000	-0.054	0.264
-242.946	800.000	0.032	-0.136
-241.932	54.111	0.110	0.104
-240.917	-200.000	-0.032	0.263
-239.903	800.000	-0.109	0.388
-238.888	154.822	0.125	-0.169
-237.873	-200.000	-0.005	0.400
-236.859	-50.797	-0.355	0.164
-235.844	-77.693	0.073	0.025
-234.830	-24.663	-0.214	0.125
-233.815	-200.000	0.002	0.260
-232.800	25.443	0.138	0.113
-231.786	42.287	-0.292	-0.261
-230.771	-90.973	-0.018	0.005
-229.757	-64.452	0.273	-0.109
-228.742	-146.586	0.115	0.010
-227.727	-200.000	0.012	-0.382
-226.713	-57.796	0.197	-0.085
-225.698	800.000	0.113	0.485
-224.684	199.342	0.155	0.234
-223.669	-2.497	-0.179	-0.124
-222.655	-75.835	0.328	0.114
-221.640	-34.605	0.116	0.063
-220.625	771.575	-0.064	0.172
-219.611	298.981	0.030	0.054
-218.596	-112.088	0.008	0.001
-217.582	471.083	-0.087	0.193
-216.567	-122.224	-0.193	-0.031
-215.552	-164.374	-0.354	0.016
-214.538	-1.871	0.148	0.103
-213.523	559.936	-0.043	0.103
-212.509	-42.559	0.325	-0.163
-211.494	130.433	0.151	-0.190
-210.479	27.534	0.255	-0.211
-209.465	21.528	0.397	-0.317
-208.450	-59.987	-0.154	-0.065
-207.436	-142.345	0.068	0.007
-206.421	-110.766	0.124	0.025
-205.406	-200.000	-0.018	-0.152
-204.392	-200.000	-0.012	-0.102
-203.377	-200.000	-0.008	0.202
-202.363	-67.395	-0.169	-0.065
-201.348	40.041	-0.280	-0.248
-200.333	-161.889	-0.259	0.013
-199.319	273.968	0.114	-0.197
-198.304	6.355	0.099	-0.072
-197.290	-91.501	0.196	0.055
-196.275	164.243	-0.034	0.047
-195.260	516.462	0.057	0.130
-194.246	-105.914	-0.207	-0.046
-193.231	-99.452	0.137	-0.034
-192.217	-22.434	-0.101	-0.060
-191.202	-53.054	-0.255	0.115
-190.187	-75.322	-0.224	0.078
-189.173	-9.414	-0.042	0.028
-188.158	360.217	-0.068	-0.133
-187.144	800.000	-0.047	0.152
-186.129	800.000	-0.084	-0.311
-185.114	-66.704	0.250	-0.097
-184.100	800.000	-0.034	-0.104
-183.085	-200.000	0.003	-0.177
-182.071	-17.221	0.314	0.194
-181.056	-119.880	0.299	-0.050
-180.042	-118.453	0.062	0.011
-179.027	142.671	-0.051	-0.067
-178.012	-200.000	0.041	-0.178
-176.998	275.647	-0.054	0.094
-175.983	88.664	0.204	0.222
-174.969	-200.000	0.013	-0.303
-173.954	274.484	-0.202	-0.352
-172.939	334.936	-0.169	0.322
-171.925	-41.202	0.181	0.092
-170.910	-200.000	0.051	0.368
-169.896	-200.000	-0.060	0.335
-168.881	6.367	0.412	-0.300
-167.866	86.439	0.044	0.048
-166.852	264.855	0.115	-0.196
-165.837	-174.427	0.589	-0.017
-164.823	62.753	-0.122	0.120
-163.808	-48.340	-0.362	-0.171
-162.793	76.849	-0.142	0.148
-161.779	-10.673	-0.145	0.094
-160.764	-156.450	0.176	0.011
-159.750	-107.884	-0.361	-0.077
-158.735	-200.000	-0.023	0.287
-157.720	328.169	-0.033	-0.061
-156.706	-200.000	-0.006	0.036
-155.691	575.256	0.082	0.196
-154.677	-1.650	0.162	-0.112
-153.662	800.000	0.092	0.362
-152.647	-200.000	0.025	0.191
-151.633	56.086	-0.112	0.106
-150.618	-48.071	0.239	0.113
-149.604	-56.896	-0.254	0.110
-148.589	464.701	-0.273	0.599
-147.574	-200.000	0.037	0.331
-146.560	-200.000	-0.013	-0.136
-145.545	-23.719	-0.167	0.098
-144.531	-200.000	0.010	-0.228
-143.516	-149.056	0.386	0.030
-142.502	66.605	-0.122	-0.122
-141.487	-119.744	-0.197	-0.033
-140.472	-200.000	-0.014	-0.135
-139.458	-200.000	0.038	0.200
-138.443	-200.000	0.001	-0.152
-137.429	85.245	0.105	-0.113
-136.414	-78.120	0.184	0.062
-135.399	98.088	0.280	0.316
-134.385	209.655	0.142	-0.219
-133.370	-198.854	-0.164	-0.001
-132.356	-53.809	0.232	-0.104
-131.341	165.042	0.065	-0.090
-130.326	87.232	0.163	0.176
-129.312	-13.652	-0.148	-0.094
-128.297	-20.196	0.172	0.104
-127.283	-130.235	-0.563	0.075
-126.268	-200.000	0.030	-0.259
-125.253	61.104	-0.110	0.107
-124.239	643.307	0.106	0.264
-123.224	-96.043	0.286	-0.074
-122.210	729.946	0.024	0.063
