DTS Sentinel unit serial number:	SN413079Multiplexer serial number:	ORYXHardware model number:	OX4-SRSoftware version number:	ORYX F/W v4.00 Oryx Data Collector v3.7.2.0data status	okinstallation	princeton_trtdifferential loss correction	single-endedforward channel	channel 3reverse channel	N/Adate	2019/09/13time	01:48:34forward acquisition time	60.00reverse acquisition time	0.00gamma	496.2192k internal	0.2333k external	0.2333temperature offset calibration	1.0124default loss term (dB/km)	0.3790temperature slope calibration	1.0000multiplexer offset coefficient	1.0000multiplexer slope coefficient	1.0000fibre end	0.00T internal ref (°C)	27.69T ext. ref 1 (°C)	3.81T ext. ref 2 (°C)	22.31length (m)	temperature (°C)	Stokes	anti-Stokes-747.200	-200.000	0.025	-0.161
-746.185	12.232	-0.190	0.147
-745.171	-71.395	0.258	-0.097
-744.156	113.360	0.071	-0.086
-743.142	-200.000	-0.080	-0.490
-742.127	-187.627	-0.230	0.003
-741.112	98.234	0.198	-0.229
-740.098	-181.415	-0.326	-0.006
-739.083	-4.435	0.331	-0.230
-738.069	800.000	-0.042	0.178
-737.054	63.934	0.308	-0.311
-736.039	-200.000	0.018	0.286
-735.025	800.000	0.171	0.505
-734.010	-200.000	0.003	-0.056
-732.996	42.662	-0.052	-0.047
-731.981	800.000	0.075	0.329
-730.966	78.092	-0.098	-0.105
-729.952	50.152	0.119	-0.113
-728.937	800.000	0.093	-0.386
-727.923	-118.288	-0.312	-0.056
-726.908	227.375	-0.033	-0.054
-725.894	-200.000	0.024	-0.124
-724.879	81.896	-0.076	-0.083
-723.864	66.198	-0.140	-0.143
-722.850	-88.252	-0.088	0.026
-721.835	-17.012	0.139	0.088
-720.821	-70.478	-0.253	-0.096
-719.806	-200.000	-0.020	0.170
-718.791	-4.158	-0.163	0.113
-717.777	-14.092	0.240	0.155
-716.762	-147.921	-0.287	0.024
-715.748	-200.000	0.003	-0.060
-714.733	59.256	0.150	-0.148
-713.718	115.552	0.081	-0.099
-712.704	-154.317	0.436	0.029
-711.689	-200.000	0.010	0.492
-710.675	-148.378	0.268	-0.022
-709.660	184.642	0.167	-0.248
-708.645	207.520	0.034	0.054
-707.631	148.332	-0.161	0.218
-706.616	5.143	-0.083	0.061
-705.602	544.486	0.068	-0.162
-704.587	-119.483	-0.255	-0.044
-703.572	800.000	0.019	0.057
-702.558	800.000	0.068	0.238
-701.543	-50.223	0.204	0.097
-700.529	-99.965	-0.260	-0.065
-699.514	-103.670	0.068	-0.016
-698.499	-153.883	0.216	0.015
-697.485	-104.361	0.451	-0.105
-696.470	-200.000	-0.009	0.244
-695.456	-200.000	0.013	0.092
-694.441	-200.000	-0.048	0.481
-693.426	-87.127	0.131	-0.040
-692.412	-81.165	0.103	0.034
-691.397	-66.771	0.184	-0.073
-690.383	-27.286	-0.398	0.233
-689.368	190.581	0.124	0.186
-688.354	-200.000	0.020	-0.180
-687.339	-129.125	-0.135	0.019
-686.324	-119.733	-0.200	-0.035
-685.310	-200.000	0.040	-0.190
-684.295	36.621	0.074	0.066
-683.281	109.295	0.120	-0.144
-682.266	-61.805	0.292	-0.123
-681.251	-200.000	-0.016	-0.134
-680.237	201.199	-0.044	0.067
-679.222	58.511	-0.416	-0.409
-678.208	20.495	0.011	0.009
-677.193	800.000	0.052	-0.216
-676.178	456.019	-0.037	0.083
-675.164	-156.932	-0.151	0.009
-674.149	-58.821	-0.260	0.113
-673.135	253.007	0.246	-0.422
-672.120	369.442	-0.210	-0.426
-671.105	-136.242	0.049	-0.006
-670.091	-200.000	-0.010	-0.117
-669.076	-37.671	-0.061	-0.033
-668.062	-200.000	-0.017	0.085
-667.047	-165.502	-0.192	0.008
-666.032	721.404	-0.098	-0.262
-665.018	34.345	0.259	0.226
-664.003	-66.155	0.242	0.097
-662.989	-160.218	0.477	-0.026
-661.974	-118.074	0.158	0.028
-660.959	29.784	0.236	-0.201
-659.945	456.897	0.156	-0.347
-658.930	51.329	0.116	-0.111
-657.916	9.835	0.030	-0.023
-656.901	800.000	-0.035	-0.121
-655.886	-200.000	-0.003	-0.159
-654.872	49.497	0.278	0.262
-653.857	317.713	-0.074	0.141
-652.843	800.000	-0.068	-0.199
-651.828	22.491	-0.060	-0.049
-650.814	800.000	-0.139	0.419
-649.799	-60.464	-0.235	0.100
-648.784	-45.469	0.065	0.032
-647.770	683.302	0.102	0.266
-646.755	142.161	0.051	-0.068
-645.741	24.662	-0.223	0.185
-644.726	35.639	-0.267	-0.235
-643.711	-22.625	0.189	-0.115
-642.697	-124.477	0.031	0.005
-641.682	-112.523	0.272	0.054
-640.668	-59.269	-0.279	0.120
-639.653	-80.664	-0.239	0.080
-638.638	104.001	-0.101	0.118
-637.624	-96.178	-0.032	-0.009
-636.609	-7.352	-0.137	-0.093
-635.595	359.878	-0.220	0.440
-634.580	136.964	0.157	0.205
-633.565	131.913	0.219	0.282
-632.551	-119.027	-0.155	0.027
-631.536	-26.607	-0.133	-0.078
-630.522	223.774	0.190	0.306
-629.507	800.000	0.063	-0.263
-628.492	-17.735	0.053	0.033
-627.478	612.916	0.125	0.313
-626.463	-2.390	-0.075	-0.053
-625.449	-132.402	0.262	-0.034
-624.434	-73.704	0.090	0.033
-623.419	11.787	-0.072	0.055
-622.405	478.506	-0.162	-0.367
-621.390	-176.281	-0.164	0.004
-620.376	-124.779	0.145	0.022
-619.361	-200.000	0.037	-0.346
-618.346	-200.000	-0.004	-0.168
-617.332	-84.439	-0.218	0.069
-616.317	-54.040	0.106	-0.048
-615.303	-42.822	-0.049	-0.025
-614.288	-63.849	-0.263	0.108
-613.273	-96.344	0.040	-0.011
-612.259	52.004	0.294	0.280
-611.244	16.549	0.089	-0.070
-610.230	-14.531	0.290	0.186
-609.215	3.413	-0.072	-0.052
-608.201	-178.953	0.096	0.002
-607.186	-200.000	-0.021	-0.257
-606.171	-71.412	0.108	0.040
-605.157	-1.644	-0.196	-0.138
-604.142	-13.720	-0.319	-0.207
-603.128	800.000	0.027	0.079
-602.113	-57.674	-0.183	-0.080
-601.098	41.287	-0.081	-0.073
-600.084	-80.595	0.169	-0.056
-599.069	800.000	0.091	-0.274
-598.055	-54.157	0.423	0.192
-597.040	-85.090	-0.243	0.076
-596.025	-15.863	0.103	-0.066
-595.011	88.402	-0.221	-0.246
-593.996	80.423	-0.223	-0.240
-592.982	-10.753	-0.091	0.060
-591.967	2.926	0.087	-0.063
-590.952	-61.048	-0.321	-0.135
-589.938	-130.675	0.249	0.033
-588.923	-200.000	-0.018	-0.237
-587.909	163.090	-0.135	0.190
-586.894	-87.969	-0.248	0.075
-585.879	-200.000	0.062	-0.368
-584.865	36.918	-0.169	-0.149
-583.850	409.255	0.025	0.053
-582.836	35.139	-0.440	-0.385
-581.821	800.000	-0.077	-0.220
-580.806	-90.148	0.296	-0.086
-579.792	-200.000	0.022	0.379
-578.777	-86.783	0.039	-0.012
-577.763	-200.000	0.028	0.210
-576.748	-137.013	-0.238	-0.027
-575.733	-39.831	0.136	0.071
-574.719	-200.000	-0.007	0.032
-573.704	-156.900	0.059	-0.004
-572.690	293.679	0.114	-0.207
-571.675	-108.158	0.289	0.062
-570.661	800.000	0.052	0.202
-569.646	800.000	-0.095	-0.393
-568.631	72.336	0.156	0.162
-567.617	-98.914	-0.154	-0.039
-566.602	586.443	-0.144	-0.354
-565.588	-36.042	-0.111	-0.060
-564.573	-176.319	-0.274	-0.007
-563.558	-69.856	0.287	0.109
-562.544	536.184	-0.089	0.212
-561.529	171.929	0.112	-0.160
-560.515	718.525	-0.059	0.156
-559.500	-23.977	-0.190	0.114
-558.485	2.749	0.177	-0.128
-557.471	-44.735	0.085	0.042
-556.456	28.694	-0.279	0.236
-555.442	206.911	-0.115	0.178
-554.427	-200.000	-0.061	0.270
-553.412	776.135	0.113	0.308
-552.398	-200.000	0.075	-0.724
-551.383	-134.969	-0.103	-0.012
-550.369	199.802	0.152	0.232
-549.354	-200.000	0.019	-0.165
-548.339	-112.172	0.158	-0.032
-547.325	2.879	0.361	0.262
-546.310	-99.866	-0.279	-0.070
-545.296	149.489	-0.116	-0.157
-544.281	120.939	0.115	-0.143
-543.266	281.276	-0.127	-0.226
-542.252	-200.000	0.025	0.425
-541.237	-22.800	0.293	-0.177
-540.223	-138.926	0.056	0.006
-539.208	-200.000	0.008	0.226
-538.193	293.132	-0.067	-0.121
-537.179	-73.991	-0.165	-0.060
-536.164	46.645	0.189	-0.175
-535.150	-169.025	-0.519	-0.019
-534.135	-90.424	-0.261	-0.075
-533.121	800.000	0.104	-0.313
-532.106	210.950	0.123	-0.193
-531.091	199.501	0.043	0.066
-530.077	32.067	-0.315	-0.271
-529.062	800.000	-0.062	-0.263
-528.048	157.387	0.085	-0.118
-527.033	-47.372	-0.284	0.138
-526.018	-2.424	-0.158	-0.110
-525.004	800.000	-0.114	-0.380
-523.989	-160.837	0.222	0.012
-522.975	30.618	0.148	-0.126
-521.960	800.000	0.043	0.174
-520.945	19.720	-0.078	0.063
-519.931	88.075	-0.262	-0.290
-518.916	-200.000	0.042	0.485
-517.902	-59.774	-0.268	-0.114
-516.887	47.512	-0.105	-0.097
-515.872	-70.518	0.471	-0.178
-514.858	139.232	0.026	-0.034
-513.843	800.000	0.160	0.441
-512.829	-200.000	0.015	-0.122
-511.814	60.901	-0.124	0.123
-510.799	-19.201	0.067	0.041
-509.785	-38.919	0.100	0.053
-508.770	-30.217	-0.074	0.042
-507.756	-142.055	0.103	-0.010
-506.741	54.385	0.132	-0.126
-505.726	273.510	-0.116	-0.204
-504.712	184.274	0.131	0.193
-503.697	186.575	0.083	0.124
-502.683	242.841	0.091	0.152
-501.668	-77.215	-0.290	-0.101
-500.653	-153.818	0.180	0.012
-499.639	-71.704	0.173	-0.064
-498.624	-200.000	0.011	0.202
-497.610	171.452	-0.077	-0.110
-496.595	800.000	0.053	0.214
-495.581	-62.178	-0.445	0.185
-494.566	143.661	0.158	0.210
-493.551	-72.405	-0.340	-0.125
-492.537	483.859	-0.067	-0.151
-491.522	244.780	-0.039	0.066
-490.508	-65.898	0.287	0.114
-489.493	-9.027	0.166	0.111
-488.478	800.000	0.028	-0.107
-487.464	14.028	0.212	0.164
-486.449	-66.613	-0.049	0.019
-485.435	-43.812	-0.107	-0.054
-484.420	51.439	0.190	0.179
-483.405	0.882	0.127	0.090
-482.391	288.801	0.128	-0.230
-481.376	-41.766	-0.331	-0.169
-480.362	-59.339	-0.098	0.042
-479.347	-174.132	0.188	0.005
-478.332	800.000	0.189	-0.552
-477.318	26.695	-0.095	-0.079
-476.303	557.325	0.091	-0.218
-475.289	-135.146	0.404	0.048
-474.274	-102.698	-0.495	-0.117
-473.259	-200.000	-0.076	0.351
-472.245	-46.013	-0.126	0.062
-471.230	-131.344	0.128	-0.017
-470.216	-71.851	-0.244	-0.091
-469.201	-46.056	0.287	-0.141
-468.186	-51.839	-0.231	0.107
-467.172	-97.521	-0.119	0.031
-466.157	41.077	0.391	-0.351
-465.143	-4.310	-0.216	0.148
-464.128	424.914	-0.126	0.270
-463.113	-63.121	-0.138	-0.057
-462.099	-200.000	-0.005	0.109
-461.084	-129.287	-0.088	0.012
-460.070	800.000	-0.043	0.179
-459.055	-200.000	0.019	0.193
-458.040	313.235	0.135	-0.253
-457.026	800.000	-0.063	-0.201
-456.011	11.019	-0.173	-0.131
-454.997	-66.806	-0.131	0.052
-453.982	800.000	-0.057	-0.221
-452.968	-200.000	0.014	-0.110
-451.953	65.884	-0.168	-0.169
-450.938	-160.088	-0.198	-0.011
-449.924	707.858	0.110	-0.290
-448.909	239.025	0.074	0.123
-447.895	-54.767	0.153	0.068
-446.880	-35.675	-0.055	-0.029
-445.865	-17.713	-0.330	0.206
-444.851	514.263	-0.118	-0.273
-443.836	800.000	0.015	0.047
-442.822	-26.585	-0.354	0.206
-441.807	-200.000	0.139	-0.000
-440.792	136.834	0.215	-0.279
-439.778	-40.582	0.071	0.037
-438.763	-158.388	-0.293	-0.017
-437.749	26.686	0.101	-0.084
-436.734	661.303	0.041	-0.104
-435.719	315.420	0.090	0.169
-434.705	800.000	0.019	0.083
-433.690	-10.153	-0.092	0.061
-432.676	-200.000	0.039	0.330
-431.661	-5.629	0.267	-0.182
-430.646	800.000	0.057	-0.239
-429.632	7.340	0.200	-0.148
-428.617	33.952	-0.149	0.129
-427.603	-78.294	-0.173	0.059
-426.588	-166.993	0.300	-0.012
-425.573	51.381	-0.170	-0.160
-424.559	482.846	0.057	-0.130
-423.544	-141.519	-0.093	0.009
-422.530	-13.675	0.070	0.045
-421.515	144.673	0.086	0.115
-420.500	-200.000	0.023	-0.210
-419.486	255.060	-0.085	-0.144
-418.471	38.266	-0.061	0.054
-417.457	86.876	0.108	0.119
-416.442	800.000	-0.044	0.188
-415.428	113.326	0.077	0.093
-414.413	-125.549	0.164	-0.025
-413.398	-125.331	0.130	0.020
-412.384	5.216	0.206	0.151
-411.369	-200.000	0.010	-0.139
-410.355	-21.556	0.342	-0.207
-409.340	-75.037	-0.103	0.036
-408.325	800.000	0.099	0.289
-407.311	-136.770	-0.632	-0.072
-406.296	-200.000	0.007	-0.173
-405.282	-45.049	0.014	0.007
-404.267	-68.491	-0.237	0.091
-403.252	800.000	0.024	-0.098
-402.238	-67.198	0.150	0.058
-401.223	-200.000	0.046	0.397
-400.209	293.680	0.058	-0.105
-399.194	-200.000	-0.020	0.088
-398.179	-134.536	-0.119	0.014
-397.165	80.080	-0.074	0.079
-396.150	107.404	-0.037	0.044
-395.136	800.000	0.017	-0.071
-394.121	8.727	0.156	0.117
-393.106	25.096	-0.574	-0.473
-392.092	20.673	0.301	0.242
-391.077	-67.814	0.327	-0.127
-390.063	177.015	0.140	0.203
-389.048	-200.000	-0.010	-0.162
-388.033	-43.845	0.115	0.057
-387.019	-200.000	-0.009	0.312
-386.004	372.933	-0.054	0.109
-384.990	86.319	0.059	-0.065
-383.975	-200.000	-0.002	0.043
-382.960	-200.000	0.034	0.153
-381.946	-118.830	0.114	-0.020
-380.931	547.398	-0.044	-0.103
-379.917	-30.334	-0.272	0.153
-378.902	-97.460	-0.283	-0.073
-377.888	800.000	-0.050	-0.217
-376.873	4.121	0.079	-0.058
-375.858	617.315	0.161	0.400
-374.844	-200.000	0.037	0.259
-373.829	423.719	-0.091	0.193
-372.815	62.870	0.266	-0.263
-371.800	800.000	0.052	-0.197
-370.785	-93.375	0.107	0.029
-369.771	-75.939	-0.343	0.120
-368.756	-49.028	0.383	-0.182
-367.742	43.909	-0.049	-0.045
-366.727	-75.488	0.073	0.026
-365.712	-102.667	0.208	0.049
-364.698	-61.104	-0.258	-0.108
-363.683	284.284	0.116	0.207
-362.669	123.759	-0.049	0.061
-361.654	485.420	-0.164	0.370
-360.639	800.000	-0.105	0.322
-359.625	-200.000	0.066	-0.394
-358.610	81.821	0.145	-0.156
-357.596	-65.084	-0.222	-0.089
-356.581	-49.672	0.176	-0.083
-355.566	99.948	-0.070	-0.080
-354.552	32.698	0.214	0.183
-353.537	-126.280	0.178	-0.026
-352.523	-50.585	-0.257	0.120
-351.508	-77.210	-0.324	-0.112
-350.493	428.866	0.072	-0.153
-349.479	-115.806	-0.355	-0.066
-348.464	105.508	0.147	-0.173
-347.450	611.384	-0.084	-0.208
-346.435	-156.775	0.297	-0.018
-345.420	-200.000	-0.002	-0.024
-344.406	198.037	0.094	-0.142
-343.391	-50.301	-0.180	0.084
-342.377	285.380	0.069	0.123
-341.362	154.355	-0.207	0.281
-340.348	-95.623	0.082	0.022
-339.333	306.565	-0.026	-0.047
-338.318	357.821	0.067	0.131
-337.304	-100.652	-0.168	-0.041
-336.289	-103.741	0.245	-0.057
-335.275	-136.640	0.225	0.026
-334.260	-3.356	0.113	-0.078
-333.245	-200.000	-0.026	0.200
-332.231	-65.170	-0.250	0.100
-331.216	-0.537	0.175	0.123
-330.202	-84.062	0.045	-0.014
-329.187	249.561	-0.121	0.203
-328.172	-200.000	-0.000	0.097
-327.158	412.058	-0.038	-0.080
-326.143	-125.576	0.212	0.032
-325.129	219.822	0.187	-0.296
-324.114	93.849	0.246	-0.276
-323.099	19.557	-0.328	-0.261
-322.085	609.639	0.059	0.146
-321.070	800.000	0.051	0.200
-320.056	-73.172	0.468	0.169
-319.041	-200.000	0.047	-0.218
-318.026	-200.000	-0.022	-0.188
-317.012	-9.405	0.244	-0.161
-315.997	446.582	0.066	0.144
-314.983	430.128	-0.158	-0.339
-313.968	-87.264	0.112	0.034
-312.953	-41.368	0.181	0.092
-311.939	-98.364	0.167	-0.042
-310.924	330.179	0.172	-0.327
-309.910	131.990	0.094	0.120
-308.895	-31.861	0.217	-0.120
-307.880	41.784	-0.311	-0.279
-306.866	84.980	-0.164	0.178
-305.851	-154.759	-0.024	0.002
-304.837	-9.931	0.323	0.212
-303.822	50.565	-0.244	-0.228
-302.807	343.856	0.044	0.086
-301.793	87.374	-0.104	0.113
-300.778	-121.184	0.214	-0.035
-299.764	10.719	-0.098	0.074
-298.749	154.530	-0.126	0.172
-297.735	-97.417	0.052	-0.013
-296.720	-21.252	-0.060	-0.036
-295.705	-67.851	0.176	0.068
-294.691	-126.674	0.369	0.054
-293.676	-72.326	-0.302	0.111
-292.662	800.000	0.009	-0.029
-291.647	-118.086	0.052	0.009
-290.632	0.614	-0.075	-0.053
-289.618	442.746	0.106	0.229
-288.603	407.357	-0.159	0.332
-287.589	-90.866	-0.059	-0.017
-286.574	376.514	-0.200	0.404
-285.559	800.000	0.012	0.047
-284.545	-105.116	0.118	-0.027
-283.530	800.000	0.042	0.131
-282.516	148.738	0.169	-0.226
-281.501	-167.651	-0.048	0.002
-280.486	110.039	-0.052	0.062
-279.472	-89.691	-0.266	0.077
-278.457	-70.954	0.143	-0.053
-277.443	249.538	0.236	-0.395
-276.428	31.607	-0.111	0.094
-275.413	8.870	-0.175	0.130
-274.399	385.696	0.046	0.093
-273.384	-99.131	0.009	-0.002
-272.370	71.392	-0.391	-0.401
-271.355	131.013	0.100	0.126
-270.340	-200.000	-0.048	0.257
-269.326	-140.864	-0.205	0.021
-268.311	204.698	-0.144	0.221
-267.297	-141.748	0.138	-0.014
-266.282	-90.588	-0.127	0.036
-265.267	139.639	0.071	0.093
-264.253	1.940	0.213	-0.151
-263.238	-200.000	-0.016	0.139
-262.224	-200.000	-0.009	0.105
-261.209	-94.608	0.236	0.063
-260.195	-1.254	-0.083	-0.058
-259.180	293.421	-0.107	0.193
-258.165	65.975	-0.059	0.059
-257.151	127.085	-0.141	-0.176
-256.136	-17.657	0.111	0.068
-255.122	-16.513	-0.254	-0.159
-254.107	3.940	0.086	-0.062
-253.092	329.940	-0.065	0.123
-252.078	121.790	-0.125	0.153
-251.063	167.369	0.070	0.099
-250.049	378.835	-0.012	0.025
-249.034	-101.156	-0.116	-0.028
-248.019	-57.588	0.191	-0.082
-247.005	28.524	-0.120	0.100
-245.990	-200.000	0.003	-0.094
-244.976	-116.124	-0.075	0.014
-243.961	-200.000	0.002	-0.248
-242.946	-119.851	0.167	0.028
-241.932	6.312	0.134	-0.098
-240.917	-74.052	-0.321	-0.115
-239.903	-200.000	-0.001	0.015
-238.888	270.592	-0.128	0.222
-237.873	583.812	-0.037	0.089
-236.859	800.000	0.092	-0.274
-235.844	-104.864	-0.115	-0.026
-234.830	-58.688	-0.084	-0.036
-233.815	-119.273	0.216	0.037
-232.800	-200.000	0.010	0.075
-231.786	-98.790	-0.138	0.035
-230.771	-56.970	-0.225	0.098
-229.757	-200.000	0.059	-0.287
-228.742	167.816	-0.025	-0.035
-227.727	-75.818	0.300	0.105
-226.713	-33.864	-0.270	0.147
-225.698	-200.000	0.042	-0.208
-224.684	800.000	0.017	0.046
-223.669	86.264	0.119	0.129
-222.655	-104.397	0.228	0.052
-221.640	85.656	-0.060	-0.065
-220.625	-183.295	-0.444	0.008
-219.611	-0.619	0.074	0.052
-218.596	66.229	-0.154	0.154
-217.582	-98.294	0.128	0.032
-216.567	-55.851	0.351	-0.154
-215.552	-77.666	-0.506	0.172
-214.538	-86.436	0.129	0.039
-213.523	800.000	-0.037	0.160
-212.509	-199.293	-0.067	-0.000
-211.494	158.128	-0.087	0.118
-210.479	-79.968	0.266	0.088
-209.465	-136.095	0.142	0.016
-208.450	109.737	0.077	-0.091
-207.436	-106.882	0.285	-0.062
-206.421	-200.000	0.057	-0.354
-205.406	-104.950	0.148	0.033
-204.392	-200.000	0.018	-0.147
-203.377	194.093	0.112	0.167
-202.363	-200.000	-0.037	0.172
-201.348	551.972	0.098	-0.232
-200.333	9.497	0.162	-0.121
-199.319	-9.754	-0.060	0.039
-198.304	-149.314	0.335	-0.026
-197.290	-67.954	0.198	0.076
-196.275	275.017	0.077	0.135
-195.260	111.599	-0.066	-0.078
-194.246	478.279	-0.062	0.137
-193.231	-48.916	0.412	-0.194
-192.217	5.194	-0.181	0.131
-191.202	-76.851	0.270	-0.093
-190.187	-200.000	-0.022	0.182
-189.173	-128.926	0.272	-0.038
-188.158	709.961	-0.097	-0.253
-187.144	-93.541	-0.223	0.061
-186.129	-138.489	-0.170	-0.018
-185.114	325.986	0.092	0.173
-184.100	331.508	0.059	0.113
-183.085	-200.000	0.016	0.232
-182.071	-16.685	-0.036	-0.022
-181.056	239.530	-0.083	-0.137
-180.042	-200.000	-0.002	0.227
-179.027	800.000	-0.074	-0.251
-178.012	-18.253	0.289	-0.178
-176.998	-200.000	-0.054	-0.248
-175.983	-26.416	0.145	-0.084
-174.969	-142.948	0.305	0.029
-173.954	-79.495	-0.157	-0.052
-172.939	246.777	-0.069	-0.114
-171.925	220.761	-0.138	-0.218
-170.910	-200.000	0.096	0.000
-169.896	800.000	-0.100	0.331
-168.881	37.358	-0.177	0.154
-167.866	98.138	-0.116	0.131
-166.852	-100.197	0.423	0.103
-165.837	-46.629	-0.238	-0.115
-164.823	800.000	-0.125	0.343
-163.808	328.791	-0.134	-0.253
-162.793	-41.499	0.211	-0.107
-161.779	-89.452	-0.278	0.080
-160.764	-200.000	0.034	0.305
-159.750	-141.140	-0.412	0.041
-158.735	-56.833	-0.173	-0.075
-157.720	70.640	0.073	0.074
-156.706	-200.000	0.011	-0.275
-155.691	-56.943	-0.180	0.078
-154.677	-187.223	0.356	-0.005
-153.662	-88.803	-0.197	0.057
-152.647	-114.471	0.438	0.083
-151.633	-200.000	-0.003	0.244
-150.618	-134.598	-0.164	-0.020
-149.604	48.248	-0.154	0.141
-148.589	-200.000	-0.056	0.423
-147.574	-200.000	0.019	-0.225
-146.560	-106.764	-0.312	-0.068
-145.545	800.000	0.075	0.243
-144.531	-85.989	0.151	-0.046
-143.516	-1.749	-0.114	-0.079
-142.502	800.000	0.012	-0.048
-141.487	-19.492	-0.114	-0.070
-140.472	-200.000	0.002	0.119
-139.458	-200.000	0.016	0.465
-138.443	-200.000	0.049	0.233
-137.429	-83.166	-0.080	-0.025
-136.414	-55.459	0.119	0.052
-135.399	-89.200	0.091	0.026
-134.385	-200.000	0.002	-0.057
-133.370	-116.218	-0.172	-0.031
-132.356	-102.517	0.435	0.102
-131.341	800.000	-0.025	-0.085
-130.326	-80.824	-0.293	-0.096
-129.312	-200.000	0.038	-0.273
-128.297	-149.722	-0.307	0.024
-127.283	-91.344	0.131	0.037
-126.268	40.099	0.086	0.076
-125.253	-200.000	0.011	-0.110
-124.239	16.272	-0.062	0.048
-123.224	-71.492	0.220	0.081
-122.210	169.649	-0.153	0.214
-121.195	37.268	0.269	-0.234
-120.180	69.177	-0.187	0.189
-119.166	-94.213	-0.040	0.011
