DTS Sentinel unit serial number:	SN413079Multiplexer serial number:	ORYXHardware model number:	OX4-SRSoftware version number:	ORYX F/W v4.00 Oryx Data Collector v3.7.2.0data status	okinstallation	princeton_trtdifferential loss correction	single-endedforward channel	channel 3reverse channel	N/Adate	2019/09/14time	07:40:34forward acquisition time	60.00reverse acquisition time	0.00gamma	496.2192k internal	0.2339k external	0.2339temperature offset calibration	1.0046default loss term (dB/km)	0.3790temperature slope calibration	1.0000multiplexer offset coefficient	1.0000multiplexer slope coefficient	1.0000fibre end	0.00T internal ref (°C)	26.31T ext. ref 1 (°C)	3.47T ext. ref 2 (°C)	21.90length (m)	temperature (°C)	Stokes	anti-Stokes-747.200	-200.000	0.065	-0.445
-746.185	22.246	-0.186	-0.152
-745.171	455.938	-0.080	-0.179
-744.156	-195.701	-0.360	0.003
-743.142	-200.000	0.007	-0.297
-742.127	-43.059	-0.252	-0.128
-741.112	191.011	0.056	0.085
-740.098	-39.682	-0.375	0.197
-739.083	-106.679	-0.218	0.049
-738.069	-38.919	-0.404	0.213
-737.054	800.000	-0.059	0.241
-736.039	354.940	0.099	-0.198
-735.025	605.887	0.048	0.121
-734.010	7.113	-0.154	-0.115
-732.996	-124.902	0.198	0.031
-731.981	33.380	-0.241	-0.209
-730.966	-21.273	0.064	-0.040
-729.952	-83.699	-0.289	0.093
-728.937	71.390	-0.133	-0.138
-727.923	800.000	0.160	-0.495
-726.908	800.000	0.078	0.258
-725.894	-155.216	-0.344	0.022
-724.879	-129.568	0.146	0.020
-723.864	409.036	0.086	-0.183
-722.850	-104.561	-0.220	-0.051
-721.835	-16.273	-0.139	-0.088
-720.821	-96.300	-0.063	-0.017
-719.806	-200.000	-0.029	-0.351
-718.791	-151.910	-0.195	-0.014
-717.777	-200.000	-0.048	0.391
-716.762	-95.883	0.116	0.031
-715.748	352.676	-0.066	0.130
-714.733	-138.796	0.198	0.022
-713.718	-200.000	0.008	-0.163
-712.704	-43.809	-0.316	-0.160
-711.689	35.009	0.099	-0.087
-710.675	10.695	-0.187	-0.143
-709.660	800.000	-0.026	0.078
-708.645	42.276	0.099	0.091
-707.631	800.000	-0.083	0.296
-706.616	-156.765	0.074	0.005
-705.602	-176.379	0.209	0.005
-704.587	42.105	0.270	-0.246
-703.572	-99.499	-0.093	-0.023
-702.558	-200.000	0.060	-0.363
-701.543	-137.627	0.307	-0.035
-700.529	-85.176	-0.064	-0.020
-699.514	-181.179	-0.308	-0.006
-698.499	-200.000	0.015	0.072
-697.485	164.684	-0.131	-0.185
-696.470	-104.141	-0.219	-0.051
-695.456	800.000	-0.108	0.422
-694.441	-31.759	-0.174	-0.098
-693.426	108.769	-0.051	0.061
-692.412	396.337	0.141	-0.294
-691.397	173.285	-0.018	0.026
-690.383	-200.000	-0.002	-0.178
-689.368	-67.671	0.348	-0.136
-688.354	191.470	-0.076	-0.115
-687.339	-118.053	-0.129	-0.023
-686.324	110.976	0.133	0.160
-685.310	52.032	0.041	-0.039
-684.295	-64.541	0.104	-0.042
-683.281	-104.520	0.232	-0.054
-682.266	-200.000	-0.042	-0.195
-681.251	101.777	-0.191	-0.222
-680.237	-200.000	-0.053	-0.334
-679.222	-116.974	0.287	-0.052
-678.208	800.000	-0.092	-0.340
-677.193	-200.000	0.014	-0.119
-676.178	368.232	0.080	0.161
-675.164	-153.052	-0.633	-0.045
-674.149	340.412	0.082	-0.160
-673.135	-45.891	0.123	-0.061
-672.120	800.000	-0.042	0.129
-671.105	285.090	0.160	-0.288
-670.091	-41.541	0.214	0.110
-669.076	-102.385	-0.141	-0.034
-668.062	-50.329	-0.454	0.215
-667.047	261.033	-0.122	-0.212
-666.032	634.700	-0.120	-0.304
-665.018	250.395	0.122	-0.208
-664.003	-200.000	-0.018	0.266
-662.989	-99.629	-0.373	0.094
-661.974	165.893	-0.105	0.148
-660.959	68.599	-0.259	-0.266
-659.945	-105.648	-0.088	0.020
-658.930	-200.000	-0.015	-0.079
-657.916	-76.254	-0.078	-0.027
-656.901	800.000	-0.085	0.277
-655.886	216.837	0.152	0.242
-654.872	-189.730	-0.148	-0.002
-653.857	-127.267	0.196	0.029
-652.843	800.000	0.050	0.194
-651.828	-106.330	0.103	0.023
-650.814	55.307	0.204	-0.197
-649.799	81.535	0.151	-0.164
-648.784	800.000	-0.024	-0.097
-647.770	-116.543	0.283	-0.052
-646.755	-12.245	-0.289	-0.189
-645.741	-32.321	-0.263	-0.147
-644.726	-8.172	0.140	-0.094
-643.711	-200.000	0.008	-0.197
-642.697	302.548	-0.141	0.261
-641.682	83.180	0.072	-0.078
-640.668	382.662	-0.127	0.260
-639.653	-98.933	-0.127	0.032
-638.638	-69.797	-0.121	-0.046
-637.624	6.280	0.177	0.131
-636.609	-200.000	0.034	-0.239
-635.595	17.792	-0.087	-0.069
-634.580	310.326	0.190	0.355
-633.565	-28.199	-0.140	0.081
-632.551	7.998	-0.320	0.240
-631.536	-200.000	0.016	-0.157
-630.522	-192.827	0.251	-0.002
-629.507	-48.512	0.272	0.131
-628.492	145.017	-0.042	0.056
-627.478	-52.598	0.220	-0.101
-626.463	-81.258	-0.103	0.034
-625.449	-200.000	0.032	0.139
-624.434	-200.000	-0.054	0.442
-623.419	-95.458	-0.067	0.018
-622.405	-200.000	-0.000	-0.061
-621.390	415.696	-0.103	0.220
-620.376	128.879	-0.103	-0.131
-619.361	128.758	0.267	0.339
-618.346	301.155	0.098	0.181
-617.332	251.516	-0.140	0.239
-616.317	-84.472	-0.285	-0.090
-615.303	-108.192	-0.217	-0.047
-614.288	-66.612	0.160	0.063
-613.273	185.805	0.019	0.029
-612.259	800.000	0.041	-0.169
-611.244	-13.278	-0.149	-0.097
-610.230	-153.081	-0.238	-0.017
-609.215	-50.022	-0.131	0.062
-608.201	-95.827	-0.305	-0.081
-607.186	800.000	0.164	-0.576
-606.171	-14.507	0.285	-0.183
-605.157	-200.000	-0.018	0.451
-604.142	-139.933	-0.093	-0.010
-603.128	136.920	0.061	-0.080
-602.113	-200.000	-0.013	-0.114
-601.098	-53.193	0.163	0.075
-600.084	1.520	0.153	0.110
-599.069	-200.000	0.016	-0.123
-598.055	136.530	0.169	-0.220
-597.040	-45.744	0.284	-0.140
-596.025	1.382	0.288	0.206
-595.011	18.150	-0.225	-0.179
-593.996	800.000	-0.036	0.142
-592.982	-84.090	-0.281	0.089
-591.967	-6.896	-0.115	0.078
-590.952	-11.854	0.030	-0.019
-589.938	-50.786	0.255	-0.119
-588.923	-135.495	-0.293	-0.035
-587.909	122.946	-0.268	-0.334
-586.894	-91.224	0.197	0.056
-585.879	-69.597	0.361	0.138
-584.865	-92.330	0.330	0.093
-583.850	58.864	0.146	-0.143
-582.836	800.000	0.071	-0.199
-581.821	-4.899	-0.136	0.093
-580.806	-200.000	0.041	0.000
-579.792	26.054	0.124	-0.103
-578.777	22.513	0.144	0.117
-577.763	28.096	-0.307	0.258
-576.748	-200.000	0.076	-0.417
-575.733	213.940	0.108	-0.170
-574.719	336.080	-0.131	0.253
-573.704	-1.093	-0.177	-0.125
-572.690	-84.193	-0.261	-0.082
-571.675	-50.502	-0.114	-0.053
-570.661	800.000	-0.017	0.070
-569.646	-102.420	-0.108	-0.026
-568.631	-2.827	-0.075	-0.052
-567.617	-67.284	0.031	-0.012
-566.602	120.238	-0.179	0.221
-565.588	121.924	-0.069	-0.086
-564.573	-200.000	-0.004	-0.266
-563.558	-200.000	-0.024	-0.290
-562.544	728.711	0.019	-0.051
-561.529	-64.015	-0.128	-0.052
-560.515	-200.000	-0.067	-0.309
-559.500	-89.321	0.336	-0.099
-558.485	130.285	-0.146	0.187
-557.471	137.687	-0.142	-0.186
-556.456	92.359	-0.411	-0.461
-555.442	-149.893	0.191	-0.015
-554.427	662.677	0.012	0.031
-553.412	-148.917	0.385	-0.031
-552.398	-200.000	0.068	0.306
-551.383	-135.630	0.240	0.028
-550.369	-90.308	-0.059	-0.017
-549.354	-159.830	0.251	-0.014
-548.339	800.000	-0.079	-0.222
-547.325	-149.859	0.145	-0.011
-546.310	238.193	0.109	-0.180
-545.296	-99.649	0.243	0.061
-544.281	61.333	-0.253	0.250
-543.266	-163.805	0.380	-0.018
-542.252	-12.448	0.171	0.111
-541.237	510.631	0.016	0.036
-540.223	-86.814	0.105	0.032
-539.208	-124.240	0.238	-0.037
-538.193	-200.000	-0.009	0.082
-537.179	-63.286	-0.105	0.043
-536.164	-105.889	-0.185	-0.041
-535.150	778.589	0.007	0.020
-534.135	-47.918	0.068	-0.033
-533.121	-164.591	-0.331	0.015
-532.106	212.502	0.059	-0.093
-531.091	-6.705	-0.506	-0.343
-530.077	-143.938	0.282	-0.026
-529.062	800.000	0.043	-0.139
-528.048	-95.127	-0.057	0.015
-527.033	-200.000	-0.009	-0.139
-526.018	-200.000	0.015	-0.084
-525.004	-75.194	0.254	0.090
-523.989	13.349	0.062	-0.048
-522.975	99.137	-0.119	-0.137
-521.960	800.000	0.058	-0.176
-520.945	-107.766	-0.147	-0.032
-519.931	109.618	-0.051	0.061
-518.916	426.781	0.058	-0.123
-517.902	512.830	0.124	-0.287
-516.887	-106.638	-0.116	0.026
-515.872	-170.103	0.120	0.004
-514.858	-91.420	0.214	0.061
-513.843	800.000	-0.044	-0.139
-512.829	-21.751	-0.304	0.184
-511.814	-35.103	0.195	0.106
-510.799	40.331	-0.295	0.264
-509.785	-118.470	0.187	-0.033
-508.770	4.043	-0.410	0.298
-507.756	156.287	-0.289	-0.397
-506.741	-37.213	0.218	-0.116
-505.726	-100.561	0.611	0.150
-504.712	-17.117	0.207	0.130
-503.697	50.706	-0.221	0.208
-502.683	300.188	0.178	-0.326
-501.668	66.424	0.118	0.119
-500.653	800.000	0.037	-0.129
-499.639	35.970	0.102	-0.089
-498.624	247.543	0.135	-0.226
-497.610	-188.767	-0.249	-0.003
-496.595	133.104	0.168	-0.216
-495.581	160.962	-0.118	0.163
-494.566	-67.986	0.293	0.114
-493.551	-110.995	0.068	0.014
-492.537	-117.149	-0.320	0.058
-491.522	-68.345	0.230	0.089
-490.508	73.161	-0.288	-0.299
-489.493	82.262	0.143	-0.154
-488.478	83.961	-0.181	-0.196
-487.464	-103.868	0.013	0.003
-486.449	42.870	-0.119	-0.108
-485.435	-200.000	-0.010	0.091
-484.420	800.000	0.072	-0.219
-483.405	-200.000	0.004	-0.016
-482.391	-176.274	-0.272	0.007
-481.376	-60.105	-0.191	0.081
-480.362	-200.000	-0.026	-0.118
-479.347	-138.647	0.119	-0.013
-478.332	-168.668	-0.097	0.004
-477.318	15.512	-0.072	0.056
-476.303	-156.468	-0.068	-0.004
-475.289	107.698	0.106	0.125
-474.274	-171.565	0.084	0.003
-473.259	-76.042	-0.065	-0.023
-472.245	-66.635	-0.159	-0.063
-471.230	-200.000	-0.004	0.191
-470.216	-100.094	0.325	0.080
-469.201	233.968	0.101	0.166
-468.186	39.261	0.188	0.167
-467.172	-200.000	-0.016	-0.426
-466.157	150.371	0.087	-0.118
-465.143	-26.853	0.095	-0.055
-464.128	753.650	-0.105	0.283
-463.113	45.168	0.129	-0.118
-462.099	-96.391	0.270	0.071
-461.084	-38.361	0.129	-0.068
-460.070	-129.881	-0.217	-0.030
-459.055	-200.000	0.009	-0.291
-458.040	-200.000	-0.046	0.293
-457.026	-164.718	0.141	0.006
-456.011	-173.325	0.189	-0.006
-454.997	-45.078	0.068	-0.034
-453.982	-200.000	0.012	-0.228
-452.968	10.497	-0.129	-0.097
-451.953	175.144	-0.094	0.136
-450.938	-160.715	-0.548	-0.029
-449.924	-138.255	0.321	0.035
-448.909	-91.405	-0.289	-0.082
-447.895	-150.685	-0.130	-0.010
-446.880	149.838	0.067	-0.091
-445.865	-200.000	-0.002	0.236
-444.851	12.759	-0.299	0.229
-443.836	27.552	-0.346	-0.289
-442.822	-145.301	-0.398	0.036
-441.807	96.923	-0.117	-0.133
-440.792	-68.949	-0.077	0.030
-439.778	-69.124	-0.224	-0.085
-438.763	800.000	-0.030	0.130
-437.749	-11.478	0.276	0.180
-436.734	202.649	-0.078	0.119
-435.719	190.664	-0.175	-0.261
-434.705	21.825	-0.293	-0.237
-433.690	-200.000	0.008	-0.044
-432.676	800.000	-0.021	-0.062
-431.661	573.032	-0.179	0.432
-430.646	-200.000	0.022	-0.226
-429.632	-16.979	0.107	-0.067
-428.617	-63.151	-0.181	0.074
-427.603	-200.000	0.023	-0.391
-426.588	-44.377	0.304	-0.151
-425.573	800.000	-0.043	0.117
-424.559	-151.749	-0.436	-0.032
-423.544	-88.080	0.278	0.083
-422.530	-196.034	-0.269	0.002
-421.515	100.251	0.261	-0.300
-420.500	-63.022	-0.107	0.044
-419.486	181.243	0.125	-0.181
-418.471	102.472	0.086	0.100
-417.457	-45.832	0.288	-0.141
-416.442	45.524	-0.252	-0.231
-415.428	-200.000	-0.012	0.122
-414.413	51.891	-0.209	-0.197
-413.398	53.776	0.220	-0.209
-412.384	-42.612	0.314	0.158
-411.369	-108.897	-0.158	-0.033
-410.355	-94.240	-0.246	-0.067
-409.340	-200.000	-0.011	0.162
-408.325	-72.210	-0.120	-0.044
-407.311	-200.000	-0.054	0.331
-406.296	54.522	0.120	0.114
-405.282	-156.039	-0.133	-0.008
-404.267	-200.000	0.001	-0.127
-403.252	376.985	0.137	-0.277
-402.238	64.321	0.367	0.366
-401.223	147.951	-0.301	0.402
-400.209	-76.313	0.274	-0.095
-399.194	161.418	0.127	-0.175
-398.179	1.238	-0.341	0.242
-397.165	-121.473	0.468	0.077
-396.150	-155.318	-0.082	0.005
-395.136	171.393	0.107	0.152
-394.121	-200.000	-0.038	-0.335
-393.106	800.000	-0.012	-0.034
-392.092	800.000	0.025	-0.086
-391.077	-8.226	-0.106	-0.070
-390.063	521.687	-0.055	0.128
-389.048	-144.965	-0.079	-0.007
-388.033	402.402	-0.150	-0.312
-387.019	263.620	0.040	-0.069
-386.004	52.963	-0.118	-0.112
-384.990	105.557	-0.244	0.285
-383.975	-95.305	0.218	0.058
-382.960	118.320	0.147	-0.179
-381.946	301.057	-0.076	0.138
-380.931	203.967	-0.103	-0.157
-379.917	-200.000	0.010	0.204
-378.902	-118.445	0.133	0.023
-377.888	-139.664	0.212	0.022
-376.873	-7.284	-0.052	-0.035
-375.858	62.625	0.070	-0.069
-374.844	-87.895	-0.268	-0.080
-373.829	119.076	-0.097	-0.118
-372.815	-200.000	0.069	-0.495
-371.800	-69.705	0.144	0.055
-370.785	800.000	0.091	0.253
-369.771	-50.044	0.075	-0.035
-368.756	-95.445	-0.262	-0.070
-367.742	-200.000	-0.019	-0.148
-366.727	-200.000	-0.018	0.222
-365.712	278.743	-0.183	-0.322
-364.698	495.447	-0.065	-0.147
-363.683	800.000	-0.132	0.381
-362.669	-200.000	0.006	-0.049
-361.654	63.267	0.160	0.159
-360.639	-200.000	0.024	0.132
-359.625	800.000	-0.081	0.264
-358.610	70.269	-0.062	-0.063
-357.596	-200.000	-0.057	-0.386
-356.581	-129.832	-0.244	-0.033
-355.566	740.631	0.074	0.196
-354.552	-142.972	-0.226	0.022
-353.537	-101.820	0.289	0.069
-352.523	-67.877	-0.102	0.039
-351.508	-13.879	-0.174	0.111
-350.493	-200.000	-0.083	0.363
-349.479	101.557	0.117	-0.135
-348.464	-73.476	-0.209	0.075
-347.450	-144.936	0.241	0.022
-346.435	-38.046	0.037	0.019
-345.420	-0.172	-0.091	-0.064
-344.406	652.253	-0.009	-0.024
-343.391	231.633	0.071	0.115
-342.377	-158.881	-0.415	0.023
-341.362	168.534	-0.166	0.234
-340.348	141.566	0.061	-0.080
-339.333	78.174	0.173	-0.182
-338.318	193.627	0.111	-0.166
-337.304	219.492	-0.099	0.157
-336.289	-200.000	-0.011	0.143
-335.275	158.024	0.138	-0.189
-334.260	50.291	0.054	0.051
-333.245	625.993	0.087	0.217
-332.231	-38.440	0.107	0.056
-331.216	119.610	-0.221	0.270
-330.202	6.581	-0.093	-0.068
-329.187	167.352	-0.055	0.077
-328.172	299.437	0.148	0.269
-327.158	44.138	0.094	-0.085
-326.143	-48.711	0.183	-0.087
-325.129	-200.000	-0.029	-0.276
-324.114	308.492	0.174	0.320
-323.099	-166.869	-0.068	0.003
-322.085	-95.491	0.049	0.013
-321.070	200.347	0.128	-0.194
-320.056	-123.600	0.124	0.019
-319.041	190.565	-0.168	-0.248
-318.026	-122.533	0.306	-0.049
-317.012	6.929	-0.194	-0.143
-315.997	-200.000	0.086	-0.431
-314.983	456.179	-0.056	-0.122
-313.968	-52.159	0.315	0.144
-312.953	800.000	-0.044	0.173
-311.939	-163.603	0.362	0.017
-310.924	58.407	-0.167	-0.162
-309.910	800.000	0.074	-0.231
-308.895	282.293	-0.111	0.195
-307.880	14.633	-0.157	0.121
-306.866	188.940	-0.134	0.198
-305.851	-200.000	0.024	-0.124
-304.837	-59.654	-0.171	0.072
-303.822	-40.321	0.131	-0.067
-302.807	-39.902	-0.132	0.068
-301.793	48.016	0.282	0.260
-300.778	590.770	0.157	0.382
-299.764	-20.311	-0.204	0.124
-298.749	-144.362	0.037	0.003
-297.735	254.931	0.134	0.226
-296.720	-20.874	-0.310	0.187
-295.705	-8.730	-0.202	-0.133
-294.691	-86.369	-0.041	-0.012
-293.676	-181.978	-0.203	0.004
-292.662	-169.622	-0.181	0.006
-291.647	305.384	0.168	0.307
-290.632	61.852	0.285	0.279
-289.618	70.691	0.046	-0.047
-288.603	271.781	0.136	-0.236
-287.589	-10.260	-0.101	-0.066
-286.574	-93.259	-0.099	-0.027
-285.559	-45.025	0.237	0.116
-284.545	-44.035	-0.159	0.079
-283.530	-200.000	-0.005	0.342
-282.516	-90.901	0.089	-0.025
-281.501	-97.504	0.145	-0.037
-280.486	145.341	0.226	-0.298
-279.472	41.257	-0.161	0.144
-278.457	-7.799	0.271	-0.180
-277.443	-200.000	-0.010	0.123
-276.428	298.151	-0.127	-0.231
-275.413	416.385	-0.051	-0.107
-274.399	-200.000	-0.008	0.061
-273.384	229.617	-0.128	0.206
-272.370	800.000	-0.050	0.137
-271.355	-159.283	0.563	0.031
-270.340	39.991	0.103	-0.091
-269.326	-168.219	-0.441	-0.017
-268.311	-50.806	-0.085	-0.039
-267.297	-156.852	-0.185	0.011
-266.282	-21.060	0.303	0.182
-265.267	800.000	0.032	0.095
-264.253	800.000	-0.016	-0.069
-263.238	120.463	-0.050	-0.062
-262.224	-54.257	-0.059	-0.026
-261.209	119.949	-0.286	0.350
-260.195	-69.147	0.140	0.053
-259.180	800.000	-0.072	0.211
-258.165	6.909	-0.140	-0.103
-257.151	-22.554	-0.246	-0.146
-256.136	496.010	-0.151	0.341
-255.122	-200.000	0.019	-0.179
-254.107	-105.038	-0.121	0.027
-253.092	-16.345	0.120	0.075
-252.078	-200.000	-0.045	0.210
-251.063	-76.261	0.334	0.116
-250.049	-55.787	0.086	-0.038
-249.034	-169.073	-0.343	0.013
-248.019	-84.319	-0.151	0.047
-247.005	215.436	0.147	-0.229
-245.990	514.052	-0.013	0.029
-244.976	13.414	-0.119	-0.091
-243.961	800.000	-0.067	-0.260
-242.946	530.322	-0.071	0.164
-241.932	514.761	-0.091	-0.210
-240.917	-200.000	0.019	0.160
-239.903	-138.221	-0.127	-0.014
-238.888	13.521	0.211	0.161
-237.873	800.000	0.126	0.525
-236.859	389.500	-0.130	-0.264
-235.844	504.694	-0.036	0.081
-234.830	-200.000	-0.047	-0.286
-233.815	-61.777	0.299	0.123
-232.800	800.000	0.069	-0.278
-231.786	-98.024	0.319	0.081
-230.771	-200.000	-0.098	-0.638
-229.757	49.711	0.417	-0.386
-228.742	-26.572	0.289	0.166
-227.727	263.777	-0.129	-0.221
-226.713	-91.915	0.467	-0.130
-225.698	568.795	-0.110	-0.263
-224.684	-52.155	-0.065	0.030
-223.669	-200.000	0.020	0.328
-222.655	-200.000	0.053	0.648
-221.640	800.000	0.082	0.327
-220.625	-62.690	-0.372	0.152
-219.611	67.844	-0.173	0.174
-218.596	-173.107	-0.136	0.004
-217.582	67.729	0.313	0.314
-216.567	800.000	-0.075	-0.203
-215.552	128.514	0.248	0.310
-214.538	-75.680	0.076	-0.027
-213.523	1.253	0.164	0.116
-212.509	243.163	-0.097	-0.159
-211.494	-23.317	0.396	0.234
-210.479	364.923	-0.191	0.378
-209.465	286.759	0.108	0.192
-208.450	800.000	-0.054	-0.179
-207.436	-89.778	0.482	-0.138
-206.421	800.000	0.057	-0.236
-205.406	0.157	0.301	0.211
-204.392	-57.508	-0.075	-0.032
-203.377	29.892	0.131	0.110
-202.363	182.291	0.170	0.245
-201.348	113.707	0.036	-0.043
-200.333	412.803	-0.087	0.182
-199.319	78.574	-0.205	0.215
-198.304	-200.000	-0.040	0.214
-197.290	-200.000	0.038	-0.361
-196.275	-31.080	0.523	-0.290
-195.260	-169.508	0.254	-0.009
-194.246	-9.662	-0.113	-0.074
-193.231	800.000	-0.111	-0.350
-192.217	-161.919	-0.032	0.002
-191.202	-118.298	0.149	-0.026
-190.187	-124.911	-0.340	-0.051
-189.173	106.152	-0.064	0.075
-188.158	-200.000	-0.007	0.140
-187.144	757.185	0.107	-0.285
-186.129	-13.096	-0.185	0.118
-185.114	-26.055	0.189	-0.109
-184.100	-120.442	-0.169	0.028
-183.085	25.588	-0.263	0.215
-182.071	-144.133	0.298	0.027
-181.056	-117.194	-0.351	0.063
-180.042	28.559	0.229	-0.190
-179.027	-60.114	0.184	-0.077
-178.012	-85.944	-0.354	-0.107
-176.998	116.879	-0.068	-0.082
-175.983	382.577	-0.185	-0.373
-174.969	40.867	0.284	0.252
-173.954	-200.000	-0.045	0.317
-172.939	-7.764	-0.326	0.216
-171.925	157.793	-0.190	0.258
-170.910	24.923	-0.185	-0.150
-169.896	439.537	-0.064	-0.136
-168.881	-200.000	-0.042	-0.337
-167.866	-200.000	0.007	-0.099
-166.852	-200.000	0.034	0.254
-165.837	68.184	0.270	0.271
-164.823	-19.216	0.177	-0.108
-163.808	-20.213	0.032	0.019
-162.793	-200.000	-0.023	-0.249
-161.779	-21.932	-0.316	0.189
-160.764	-169.568	-0.327	0.012
-159.750	-200.000	0.041	-0.260
-158.735	-151.925	-0.256	0.018
-157.720	45.838	0.045	0.041
-156.706	691.124	0.064	0.164
-155.691	315.300	0.079	0.146
-154.677	-200.000	0.020	0.396
-153.662	622.203	0.136	0.335
-152.647	-61.178	0.112	-0.046
-151.633	17.913	0.073	0.057
-150.618	-152.686	0.184	0.013
-149.604	-23.702	-0.123	-0.072
-148.589	114.424	0.204	-0.244
-147.574	-73.508	0.459	-0.164
-146.560	119.485	-0.169	-0.205
-145.545	7.593	0.384	-0.281
-144.531	562.498	0.020	-0.047
-143.516	-98.545	-0.198	0.049
-142.502	285.236	-0.075	-0.132
-141.487	-102.975	0.477	0.111
-140.472	-200.000	-0.023	0.191
-139.458	-200.000	-0.018	-0.232
-138.443	-149.549	0.574	0.044
-137.429	201.080	-0.116	-0.175
-136.414	-200.000	-0.035	0.252
-135.399	-53.479	-0.255	0.114
-134.385	59.071	-0.101	-0.097
-133.370	58.617	0.253	0.244
-132.356	390.378	0.050	-0.102
-131.341	-63.264	-0.395	0.159
-130.326	145.008	-0.083	0.108
-129.312	-168.148	0.252	0.010
-128.297	300.665	-0.083	0.149
-127.283	-67.750	0.537	-0.206
-126.268	-200.000	-0.018	0.251
-125.253	31.225	-0.107	0.090
-124.239	-200.000	-0.018	0.077
-123.224	-33.509	0.377	0.204
-122.210	303.417	-0.030	0.054
