DTS Sentinel unit serial number:	SN413079Multiplexer serial number:	ORYXHardware model number:	OX4-SRSoftware version number:	ORYX F/W v4.00 Oryx Data Collector v3.7.2.0data status	okinstallation	princeton_trtdifferential loss correction	single-endedforward channel	channel 3reverse channel	N/Adate	2019/09/19time	06:56:35forward acquisition time	60.00reverse acquisition time	0.00gamma	496.2192k internal	0.2348k external	0.2348temperature offset calibration	0.9987default loss term (dB/km)	0.3790temperature slope calibration	1.0000multiplexer offset coefficient	1.0000multiplexer slope coefficient	1.0000fibre end	0.00T internal ref (°C)	19.00T ext. ref 1 (°C)	0.56T ext. ref 2 (°C)	12.75length (m)	temperature (°C)	Stokes	anti-Stokes-747.200	-95.781	0.220	-0.059
-746.185	581.286	-0.135	0.330
-745.171	-9.118	0.142	0.095
-744.156	-114.620	0.063	-0.012
-743.142	-15.149	0.466	0.298
-742.127	800.000	-0.128	0.535
-741.112	-87.079	0.164	-0.050
-740.098	-152.879	-0.151	-0.011
-739.083	-200.000	0.016	0.084
-738.069	-81.559	-0.233	0.076
-737.054	800.000	0.015	-0.061
-736.039	-74.041	-0.385	0.139
-735.025	-67.343	0.221	0.087
-734.010	-96.049	-0.294	-0.078
-732.996	-46.616	-0.171	-0.084
-731.981	-10.998	-0.165	0.109
-730.966	-31.867	-0.229	-0.128
-729.952	355.788	0.032	0.063
-728.937	-165.376	-0.196	0.009
-727.923	-63.475	-0.215	-0.088
-726.908	-45.966	-0.162	0.080
-725.894	-142.168	0.093	0.009
-724.879	800.000	0.021	-0.061
-723.864	-200.000	0.041	0.292
-722.850	-200.000	0.005	-0.189
-721.835	-95.706	-0.337	0.090
-720.821	21.420	0.354	-0.287
-719.806	273.906	-0.184	-0.324
-718.791	276.392	0.151	0.268
-717.777	-200.000	-0.048	-0.233
-716.762	724.489	0.096	-0.255
-715.748	800.000	-0.070	-0.268
-714.733	268.488	-0.096	-0.169
-713.718	12.085	0.278	-0.213
-712.704	-31.081	0.212	-0.119
-711.689	-134.195	-0.287	-0.035
-710.675	-12.675	-0.021	-0.014
-709.660	442.788	0.120	-0.262
-708.645	800.000	-0.008	0.028
-707.631	60.124	0.154	0.152
-706.616	-200.000	0.070	0.373
-705.602	28.078	-0.175	0.147
-704.587	162.258	0.238	-0.333
-703.572	95.504	-0.205	-0.234
-702.558	-120.826	0.179	-0.030
-701.543	-92.294	0.035	0.010
-700.529	800.000	0.164	-0.572
-699.514	42.642	0.079	-0.072
-698.499	-200.000	-0.042	0.193
-697.485	286.198	-0.146	-0.263
-696.470	-157.639	-0.157	0.009
-695.456	-25.608	0.153	0.090
-694.441	800.000	0.118	-0.407
-693.426	-200.000	-0.046	0.300
-692.412	-85.981	-0.167	0.051
-691.397	-122.593	0.229	0.037
-690.383	-200.000	-0.006	0.104
-689.368	-200.000	0.002	0.028
-688.354	129.598	-0.136	-0.173
-687.339	-36.928	0.322	-0.172
-686.324	-157.380	0.148	-0.009
-685.310	800.000	0.048	0.144
-684.295	-75.299	0.190	-0.068
-683.281	11.529	-0.168	0.129
-682.266	-200.000	-0.016	-0.236
-681.251	-181.372	0.212	0.004
-680.237	370.392	-0.160	0.323
-679.222	-200.000	-0.009	-0.043
-678.208	327.297	0.026	-0.051
-677.193	608.973	0.116	0.290
-676.178	-200.000	0.074	-0.401
-675.164	800.000	-0.051	-0.168
-674.149	-78.127	0.196	0.067
-673.135	-200.000	-0.020	0.126
-672.120	800.000	0.076	-0.328
-671.105	95.988	-0.058	-0.066
-670.091	174.845	-0.099	-0.142
-669.076	-118.472	0.181	0.032
-668.062	-105.429	0.087	-0.020
-667.047	-71.353	0.187	0.070
-666.032	-200.000	0.016	0.342
-665.018	-39.738	0.322	-0.168
-664.003	10.365	0.043	0.032
-662.989	96.496	-0.187	0.213
-661.974	17.199	0.264	-0.208
-660.959	-21.808	-0.157	-0.095
-659.945	-26.876	0.151	-0.088
-658.930	-102.406	-0.132	0.031
-657.916	29.147	0.136	0.115
-656.901	-59.934	-0.050	-0.021
-655.886	800.000	0.057	-0.186
-654.872	98.242	-0.156	0.179
-653.857	374.610	-0.086	0.174
-652.843	-79.381	-0.340	0.114
-651.828	53.578	0.154	0.147
-650.814	67.437	-0.096	0.098
-649.799	36.272	-0.115	-0.101
-648.784	-12.586	0.294	0.191
-647.770	800.000	0.040	0.136
-646.755	88.770	0.230	-0.255
-645.741	800.000	0.031	-0.108
-644.726	-103.844	-0.087	-0.020
-643.711	389.161	0.213	0.440
-642.697	-146.563	0.439	-0.038
-641.682	-200.000	-0.020	-0.166
-640.668	34.750	0.346	0.301
-639.653	-143.777	0.088	0.008
-638.638	-200.000	-0.063	-0.292
-637.624	-134.480	-0.224	0.027
-636.609	317.567	0.022	0.042
-635.595	145.548	0.382	-0.509
-634.580	-118.675	-0.374	0.066
-633.565	-89.814	-0.148	0.043
-632.551	133.303	-0.133	-0.171
-631.536	-88.802	0.142	-0.042
-630.522	93.480	0.046	0.051
-629.507	170.976	-0.237	-0.338
-628.492	82.582	0.224	0.242
-627.478	121.717	0.125	-0.154
-626.463	800.000	-0.081	-0.273
-625.449	-89.843	-0.300	-0.087
-624.434	106.766	-0.139	-0.164
-623.419	-50.921	0.098	-0.046
-622.405	122.152	0.187	0.232
-621.390	29.458	-0.178	0.150
-620.376	74.240	-0.190	0.198
-619.361	800.000	0.056	0.199
-618.346	-36.059	0.099	-0.053
-617.332	-200.000	-0.042	0.312
-616.317	800.000	-0.062	0.233
-615.303	83.310	-0.107	0.116
-614.288	20.750	-0.099	0.080
-613.273	-183.668	0.149	-0.003
-612.259	22.127	-0.110	-0.089
-611.244	-37.417	0.200	0.106
-610.230	445.129	-0.074	0.161
-609.215	385.828	0.044	0.090
-608.201	-200.000	-0.014	0.170
-607.186	-144.507	-0.305	0.028
-606.171	-5.037	0.215	-0.147
-605.157	-200.000	-0.010	-0.347
-604.142	27.174	0.193	-0.161
-603.128	178.603	0.065	-0.094
-602.113	-134.764	-0.092	-0.011
-601.098	-200.000	0.027	0.182
-600.084	-50.741	-0.168	-0.079
-599.069	24.746	-0.212	-0.175
-598.055	-200.000	0.304	0.001
-597.040	-112.269	-0.113	-0.022
-596.025	68.527	0.094	0.095
-595.011	-200.000	0.040	0.319
-593.996	38.086	0.110	-0.097
-592.982	-111.365	0.049	0.010
-591.967	-36.727	0.310	-0.165
-590.952	134.112	0.117	-0.151
-589.938	-200.000	0.094	-0.503
-588.923	-200.000	0.066	-0.335
-587.909	800.000	0.077	-0.214
-586.894	43.921	-0.201	-0.183
-585.879	475.168	0.060	0.135
-584.865	-200.000	-0.014	-0.119
-583.850	-200.000	-0.070	0.319
-582.836	800.000	0.069	0.201
-581.821	-182.665	-0.173	-0.003
-580.806	-158.871	0.223	0.013
-579.792	-200.000	-0.005	0.292
-578.777	22.621	-0.186	0.151
-577.763	-101.370	0.136	0.033
-576.748	39.009	0.154	-0.137
-575.733	59.883	0.225	-0.221
-574.719	96.278	0.097	0.110
-573.704	731.768	-0.036	-0.094
-572.690	480.371	-0.094	0.211
-571.675	144.228	0.185	-0.245
-570.661	237.145	-0.100	0.165
-569.646	-110.775	0.361	-0.074
-568.631	428.083	0.135	-0.288
-567.617	800.000	-0.137	-0.440
-566.602	447.750	-0.086	0.188
-565.588	-7.787	-0.190	0.128
-564.573	217.760	0.040	-0.064
-563.558	-102.696	-0.191	-0.045
-562.544	347.237	-0.124	0.242
-561.529	-1.614	0.145	-0.101
-560.515	-3.221	-0.204	0.141
-559.500	61.396	0.195	-0.192
-558.485	-144.827	0.054	-0.005
-557.471	-15.053	0.102	0.065
-556.456	-105.476	0.325	-0.073
-555.442	-200.000	0.042	-0.308
-554.427	-57.915	0.096	0.042
-553.412	-144.254	-0.262	0.024
-552.398	-111.260	-0.171	0.035
-551.383	800.000	-0.048	0.183
-550.369	-147.557	0.275	-0.023
-549.354	-22.733	-0.253	-0.152
-548.339	-200.000	0.003	0.110
-547.325	-119.876	-0.168	-0.029
-546.310	-82.575	0.018	-0.006
-545.296	56.832	-0.063	-0.061
-544.281	110.406	0.052	-0.062
-543.266	117.782	-0.190	-0.232
-542.252	-11.953	0.151	-0.098
-541.237	61.879	-0.114	-0.113
-540.223	586.248	0.110	0.269
-539.208	-200.000	0.013	0.190
-538.193	8.365	-0.017	-0.013
-537.179	-200.000	0.003	-0.230
-536.164	-128.604	0.073	-0.010
-535.150	199.532	0.152	0.230
-534.135	800.000	-0.070	-0.243
-533.121	442.190	0.033	0.071
-532.106	-140.627	-0.111	-0.011
-531.091	-146.929	-0.220	-0.019
-530.077	-200.000	-0.003	0.134
-529.062	-200.000	0.077	-0.385
-528.048	-103.195	0.383	0.090
-527.033	33.585	-0.074	0.064
-526.018	14.669	-0.153	-0.118
-525.004	-200.000	-0.019	0.204
-523.989	241.233	0.087	0.145
-522.975	24.754	0.175	-0.144
-521.960	-78.975	0.173	-0.058
-520.945	94.927	0.132	0.148
-519.931	297.948	0.158	-0.288
-518.916	-23.207	0.216	0.129
-517.902	-200.000	-0.028	0.145
-516.887	-118.385	-0.107	0.019
-515.872	-200.000	0.011	-0.205
-514.858	-29.758	-0.184	0.104
-513.843	235.958	-0.193	0.316
-512.829	323.827	0.079	-0.148
-511.814	-200.000	0.013	0.400
-510.799	73.535	0.132	0.137
-509.785	800.000	0.049	-0.214
-508.770	-38.659	-0.159	-0.083
-507.756	-200.000	-0.029	0.148
-506.741	34.541	0.285	-0.246
-505.726	302.450	-0.025	-0.047
-504.712	514.724	-0.158	-0.365
-503.697	22.952	-0.320	-0.260
-502.683	800.000	0.016	-0.046
-501.668	-35.521	-0.055	-0.030
-500.653	241.085	-0.118	-0.195
-499.639	-110.059	-0.265	0.055
-498.624	800.000	0.021	-0.068
-497.610	-200.000	0.010	-0.211
-496.595	-112.952	-0.355	0.070
-495.581	48.689	0.032	-0.029
-494.566	299.469	-0.085	0.156
-493.551	-43.074	-0.178	-0.089
-492.537	31.358	-0.059	-0.050
-491.522	253.464	0.097	0.165
-490.508	-200.000	-0.009	0.061
-489.493	136.254	0.124	0.160
-488.478	-105.176	0.227	0.051
-487.464	45.831	0.185	-0.169
-486.449	-49.946	0.071	0.033
-485.435	165.898	0.067	-0.094
-484.420	8.288	-0.129	-0.096
-483.405	-52.920	0.040	-0.018
-482.391	-200.000	-0.007	-0.371
-481.376	-200.000	-0.004	-0.249
-480.362	-160.428	-0.165	-0.009
-479.347	-79.699	-0.121	-0.040
-478.332	800.000	0.042	-0.125
-477.318	-127.102	-0.136	0.020
-476.303	-151.883	0.211	-0.015
-475.289	334.341	-0.076	0.145
-474.274	-200.000	0.065	0.437
-473.259	86.010	-0.178	0.194
-472.245	197.273	-0.063	-0.095
-471.230	20.242	0.088	-0.070
-470.216	-76.787	-0.169	0.059
-469.201	66.523	-0.141	-0.142
-468.186	83.335	-0.030	-0.032
-467.172	-134.727	0.251	0.030
-466.157	800.000	0.012	0.042
-465.143	-164.027	-0.103	0.005
-464.128	514.092	-0.048	-0.112
-463.113	-126.949	-0.357	-0.052
-462.099	262.217	-0.049	-0.085
-461.084	8.259	0.079	-0.058
-460.070	431.241	-0.173	0.371
-459.055	-63.918	0.158	-0.064
-458.040	-24.678	-0.235	-0.138
-457.026	275.946	0.197	0.346
-456.011	208.574	-0.074	0.115
-454.997	-97.740	-0.067	0.017
-453.982	-142.480	0.067	0.007
-452.968	-200.000	0.014	0.096
-451.953	-4.258	-0.342	-0.234
-450.938	-27.192	0.113	0.065
-449.924	160.894	-0.133	0.184
-448.909	-31.574	-0.101	0.056
-447.895	128.757	0.039	0.050
-446.880	160.532	0.253	-0.349
-445.865	-133.263	0.160	0.020
-444.851	-200.000	0.082	-0.394
-443.836	-86.486	-0.091	0.028
-442.822	235.432	-0.141	0.229
-441.807	-3.483	0.265	0.182
-440.792	471.450	0.012	-0.027
-439.778	-168.080	0.289	-0.011
-438.763	336.275	-0.032	-0.061
-437.749	105.413	0.134	0.156
-436.734	19.793	-0.205	0.163
-435.719	68.715	-0.107	-0.109
-434.705	-200.000	-0.018	0.170
-433.690	-33.915	0.294	0.160
-432.676	-84.169	-0.227	-0.071
-431.661	13.899	-0.171	0.131
-430.646	-200.000	0.022	0.165
-429.632	14.856	-0.166	0.128
-428.617	67.584	0.068	-0.068
-427.603	-97.071	0.107	0.028
-426.588	-55.076	0.107	-0.047
-425.573	-151.110	0.290	-0.022
-424.559	-77.700	0.221	-0.075
-423.544	-109.448	0.223	-0.047
-422.530	-200.000	0.018	-0.336
-421.515	199.782	0.033	0.049
-420.500	-46.618	0.253	-0.122
-419.486	-162.871	-0.300	-0.014
-418.471	-200.000	-0.012	-0.068
-417.457	324.189	-0.188	-0.354
-416.442	-8.093	0.125	0.083
-415.428	800.000	0.055	-0.235
-414.413	46.366	-0.296	0.270
-413.398	800.000	0.075	0.285
-412.384	348.878	0.200	-0.389
-411.369	166.447	-0.086	-0.120
-410.355	27.201	-0.236	-0.195
-409.340	-10.693	0.362	-0.236
-408.325	153.816	-0.083	-0.112
-407.311	35.264	-0.012	-0.010
-406.296	-20.122	-0.142	0.086
-405.282	-94.491	0.103	0.028
-404.267	188.454	-0.165	-0.243
-403.252	-11.459	-0.208	0.135
-402.238	-200.000	-0.094	0.417
-401.223	-133.943	-0.492	-0.060
-400.209	-133.991	0.225	-0.027
-399.194	-200.000	-0.188	-0.000
-398.179	213.801	0.129	0.202
-397.165	800.000	-0.080	0.221
-396.150	-125.361	0.226	-0.034
-395.136	21.296	0.275	0.221
-394.121	800.000	-0.077	-0.307
-393.106	-51.519	0.185	-0.085
-392.092	-200.000	-0.000	0.636
-391.077	-162.337	-0.318	-0.016
-390.063	-111.383	0.321	-0.065
-389.048	-200.000	0.039	0.405
-388.033	-41.955	0.343	-0.173
-387.019	277.150	0.110	0.192
-386.004	130.903	-0.267	-0.337
-384.990	-200.000	0.005	0.076
-383.975	294.537	-0.051	0.091
-382.960	-200.000	-0.011	-0.294
-381.946	133.338	0.111	0.141
-380.931	-42.509	-0.051	-0.026
-379.917	-167.303	-0.459	0.018
-378.902	-99.195	0.048	-0.012
-377.888	800.000	0.051	-0.206
-376.873	-124.512	-0.296	-0.045
-375.858	46.488	0.071	0.065
-374.844	334.762	-0.143	0.273
-373.829	800.000	0.049	-0.185
-372.815	800.000	0.033	-0.099
-371.800	800.000	0.038	0.120
-370.785	800.000	0.102	-0.412
-369.771	800.000	0.069	-0.211
-368.756	-200.000	0.012	0.097
-367.742	-200.000	0.005	0.248
-366.727	44.997	0.147	-0.133
-365.712	194.137	-0.098	-0.146
-364.698	-193.079	-0.101	-0.001
-363.683	800.000	-0.050	-0.155
-362.669	227.062	0.091	-0.146
-361.654	-24.726	0.170	0.100
-360.639	360.845	-0.048	0.095
-359.625	-82.856	-0.047	0.015
-358.610	800.000	0.023	0.083
-357.596	358.626	0.169	0.332
-356.581	405.087	0.065	0.134
-355.566	-15.160	-0.185	-0.117
-354.552	194.674	0.159	0.237
-353.537	-200.000	-0.011	0.225
-352.523	800.000	0.053	0.170
-351.508	-30.239	-0.236	0.132
-350.493	-37.017	0.059	0.031
-349.479	146.668	0.179	-0.237
-348.464	-81.229	-0.195	0.063
-347.450	288.623	-0.073	-0.131
-346.435	-200.000	-0.017	0.084
-345.420	586.732	-0.047	-0.113
-344.406	-200.000	0.038	0.276
-343.391	-127.698	-0.267	0.038
-342.377	253.745	0.063	-0.107
-341.362	-14.107	-0.172	-0.109
-340.348	-134.829	-0.227	-0.027
-339.333	-53.992	-0.140	0.063
-338.318	102.063	-0.143	0.164
-337.304	-171.927	-0.269	0.009
-336.289	800.000	0.015	-0.046
-335.275	-116.297	0.260	0.047
-334.260	-72.895	-0.185	0.067
-333.245	-93.240	0.205	-0.056
-332.231	-142.382	-0.245	-0.024
-331.216	-96.511	-0.095	0.025
-330.202	800.000	-0.030	-0.120
-329.187	440.197	0.040	-0.086
-328.172	-118.485	0.406	0.071
-327.158	-36.241	-0.170	0.090
-326.143	-161.730	0.181	0.009
-325.129	322.958	-0.104	0.195
-324.114	-130.103	-0.431	0.058
-323.099	-153.018	0.371	-0.026
-322.085	-120.806	0.169	-0.028
-321.070	-98.723	0.034	0.009
-320.056	366.165	0.138	-0.274
-319.041	264.966	0.061	-0.104
-318.026	141.414	-0.094	0.123
-317.012	-47.951	-0.218	0.104
-315.997	14.657	0.065	0.050
-314.983	800.000	-0.092	0.336
-313.968	-91.976	0.211	-0.059
-312.953	-200.000	0.000	0.101
-311.939	-98.374	-0.209	0.053
-310.924	545.657	0.015	0.035
-309.910	353.589	0.093	0.182
-308.895	-37.739	-0.168	-0.088
-307.880	-146.249	0.153	-0.013
-306.866	7.700	-0.152	-0.111
-305.851	-179.091	0.297	0.007
-304.837	-200.000	0.005	0.359
-303.822	-3.619	0.035	0.024
-302.807	286.833	0.183	0.324
-301.793	-60.522	-0.205	0.086
-300.778	100.360	0.252	-0.287
-299.764	-12.819	-0.170	-0.109
-298.749	-11.934	-0.474	-0.305
-297.735	422.429	-0.078	0.165
-296.720	800.000	0.021	-0.066
-295.705	42.670	0.355	0.317
-294.691	248.800	0.191	-0.317
-293.676	498.722	-0.119	-0.269
-292.662	-12.730	-0.293	-0.188
-291.647	20.730	-0.177	0.141
-290.632	-114.655	0.292	0.055
-289.618	-53.611	0.094	-0.042
-288.603	-200.000	-0.000	0.014
-287.589	-129.022	-0.349	-0.048
-286.574	-107.099	-0.162	0.035
-285.559	-200.000	0.014	0.369
-284.545	-41.478	0.300	-0.151
-283.530	-113.474	0.222	0.043
-282.516	800.000	0.008	-0.027
-281.501	207.002	0.086	0.131
-280.486	800.000	-0.025	-0.075
-279.472	-102.590	-0.342	-0.080
-278.457	-52.475	0.164	0.074
-277.443	800.000	0.142	-0.393
-276.428	-200.000	0.013	-0.076
-275.413	25.359	-0.207	0.169
-274.399	263.274	-0.104	-0.178
-273.384	152.932	0.225	-0.302
-272.370	-200.000	-0.021	0.095
-271.355	-163.787	-0.081	0.004
-270.340	521.577	-0.058	0.134
-269.326	-200.000	0.033	0.147
-268.311	70.272	-0.063	0.063
-267.297	-50.794	0.140	0.065
-266.282	128.638	-0.235	0.293
-265.267	708.872	0.117	0.304
-264.253	800.000	-0.079	-0.311
-263.238	620.579	0.019	0.046
-262.224	-144.660	-0.322	0.029
-261.209	53.146	-0.069	-0.065
-260.195	-20.559	0.264	0.159
-259.180	30.985	-0.104	0.087
-258.165	-19.206	-0.143	0.087
-257.151	-167.836	-0.584	0.023
-256.136	649.856	0.101	-0.253
-255.122	-109.888	-0.071	-0.015
-254.107	-200.000	0.022	0.466
-253.092	-12.417	0.259	-0.166
-252.078	47.308	0.132	-0.120
-251.063	-200.000	0.019	0.123
-250.049	118.126	0.267	0.322
-249.034	47.342	0.164	-0.150
-248.019	237.423	-0.200	-0.325
-247.005	-200.000	-0.019	0.140
-245.990	-89.409	0.183	-0.053
-244.976	110.198	0.239	-0.281
-243.961	-47.211	-0.182	0.087
-242.946	-103.661	0.247	0.057
-241.932	-144.835	0.226	0.020
-240.917	800.000	-0.050	-0.174
-239.903	33.794	0.152	-0.130
-238.888	218.429	-0.035	0.054
-237.873	-200.000	0.035	0.258
-236.859	129.520	0.118	0.147
-235.844	-200.000	-0.049	0.300
-234.830	539.030	0.087	-0.202
-233.815	-77.059	-0.110	0.038
-232.800	47.129	-0.208	0.190
-231.786	169.965	-0.149	0.208
-230.771	-178.557	-0.158	0.004
-229.757	-200.000	-0.010	0.100
-228.742	800.000	-0.119	-0.411
-227.727	105.225	-0.120	0.138
-226.713	234.704	-0.126	-0.203
-225.698	182.523	-0.058	-0.084
-224.684	800.000	0.146	0.403
-223.669	591.158	0.110	0.266
-222.655	-58.718	-0.133	-0.057
-221.640	-142.183	0.040	0.004
-220.625	21.787	-0.084	0.067
-219.611	-137.965	-0.170	0.019
-218.596	1.263	-0.072	-0.050
-217.582	-84.040	-0.244	0.076
-216.567	-200.000	0.005	-0.038
-215.552	121.391	0.162	0.198
-214.538	114.795	0.225	0.268
-213.523	550.758	0.114	-0.267
-212.509	-99.293	-0.361	0.089
-211.494	-114.144	0.144	0.027
-210.479	800.000	0.083	0.224
-209.465	152.172	0.195	0.261
-208.450	-139.339	-0.106	-0.011
-207.436	-200.000	0.045	0.374
-206.421	800.000	0.094	0.300
-205.406	107.890	0.197	-0.230
-204.392	57.388	0.203	0.193
-203.377	-159.500	-0.085	-0.005
-202.363	800.000	0.112	-0.468
-201.348	-200.000	-0.071	0.352
-200.333	-17.455	-0.184	0.113
-199.319	-200.000	0.041	-0.278
-198.304	489.419	-0.028	-0.062
-197.290	43.370	-0.171	0.152
-196.275	-200.000	-0.043	0.342
-195.260	108.579	-0.195	-0.228
-194.246	52.368	-0.048	-0.045
-193.231	421.509	0.035	0.074
-192.217	90.088	0.167	0.183
-191.202	75.194	-0.113	0.117
-190.187	-200.000	0.041	-0.564
-189.173	-49.380	0.156	0.073
-188.158	-86.448	-0.122	0.037
-187.144	54.266	0.119	-0.112
-186.129	602.892	0.087	0.212
-185.114	-146.866	0.204	0.017
-184.100	-116.383	-0.224	-0.041
-183.085	157.252	-0.079	0.107
-182.071	240.171	0.224	0.365
-181.056	-200.000	-0.003	-0.222
-180.042	101.678	-0.318	-0.362
-179.027	-200.000	0.018	-0.156
-178.012	122.171	0.153	-0.186
-176.998	-33.531	0.108	-0.058
-175.983	-68.956	-0.376	-0.142
-174.969	800.000	0.111	-0.379
-173.954	164.160	0.092	0.126
-172.939	-77.568	0.053	-0.018
-171.925	800.000	-0.026	0.079
-170.910	281.507	0.099	-0.174
-169.896	800.000	-0.047	-0.145
-168.881	203.844	-0.113	-0.171
-167.866	-115.168	-0.337	-0.062
-166.852	-3.973	0.187	-0.127
-165.837	-31.012	0.214	-0.118
-164.823	121.585	-0.134	-0.163
-163.808	100.478	0.152	-0.172
-162.793	-53.430	-0.218	-0.098
-161.779	-200.000	0.017	0.174
-160.764	800.000	0.032	0.136
-159.750	27.519	0.271	-0.223
-158.735	184.306	0.142	-0.205
-157.720	-26.321	0.367	0.210
-156.706	-69.345	-0.177	0.066
-155.691	200.819	0.204	-0.307
-154.677	800.000	0.042	0.124
-153.662	-200.000	-0.034	0.281
-152.647	-12.295	-0.157	0.100
-151.633	-154.737	-0.502	0.032
-150.618	186.572	0.129	0.188
-149.604	17.434	-0.342	0.265
-148.589	800.000	-0.059	0.182
-147.574	-115.476	0.092	-0.017
-146.560	-77.613	0.049	-0.017
-145.545	54.085	-0.062	-0.058
-144.531	800.000	-0.107	-0.299
-143.516	445.914	-0.029	-0.063
-142.502	-103.515	-0.174	0.040
-141.487	-53.942	-0.219	-0.097
-140.472	800.000	0.056	-0.214
-139.458	-152.270	-0.086	0.006
-138.443	-71.382	0.049	-0.018
-137.429	-81.792	0.189	0.061
-136.414	-43.646	0.335	0.165
-135.399	95.342	-0.330	-0.367
-134.385	-200.000	0.026	0.293
-133.370	150.046	0.435	0.576
-132.356	299.907	0.170	0.306
-131.341	33.350	-0.237	-0.200
-130.326	-60.997	0.196	0.081
-129.312	663.160	-0.076	0.192
-128.297	188.412	0.045	0.066
-127.283	-12.821	0.174	0.110
-126.268	3.368	-0.332	-0.236
-125.253	-5.694	0.138	0.092
-124.239	114.203	0.242	0.287
-123.224	76.399	0.192	-0.198
-122.210	-200.000	0.013	0.175
-121.195	82.303	0.079	0.084
