DTS Sentinel unit serial number:	SN413079Multiplexer serial number:	ORYXHardware model number:	OX4-SRSoftware version number:	ORYX F/W v4.00 Oryx Data Collector v3.7.2.0data status	okinstallation	princeton_trtdifferential loss correction	single-endedforward channel	channel 3reverse channel	N/Adate	2019/09/12time	19:17:04forward acquisition time	15.00reverse acquisition time	0.00gamma	496.2192k internal	0.2321k external	0.2321temperature offset calibration	1.0103default loss term (dB/km)	0.3790temperature slope calibration	1.0000multiplexer offset coefficient	1.0000multiplexer slope coefficient	1.0000fibre end	0.00T internal ref (°C)	32.50T ext. ref 1 (°C)	3.19T ext. ref 2 (°C)	27.02length (m)	temperature (°C)	Stokes	anti-Stokes-747.200	-181.495	0.448	-0.009
-746.185	-13.150	-0.363	0.238
-745.171	-119.581	-0.541	0.095
-744.156	800.000	-0.017	0.053
-743.142	356.173	-0.218	-0.439
-742.127	26.874	0.341	0.289
-741.112	618.590	0.082	0.209
-740.098	-116.359	0.440	0.082
-739.083	489.259	0.121	0.279
-738.069	249.296	-0.170	-0.291
-737.054	288.506	-0.104	0.190
-736.039	-200.000	-0.060	-0.340
-735.025	292.721	0.100	-0.185
-734.010	-200.000	-0.008	0.068
-732.996	800.000	-0.087	0.260
-731.981	-200.000	-0.042	-0.755
-730.966	-112.615	-0.414	0.083
-729.952	-76.736	-0.425	0.150
-728.937	73.815	-0.389	-0.412
-727.923	25.913	-0.615	-0.518
-726.908	800.000	0.064	0.271
-725.894	9.541	-0.496	-0.380
-724.879	-27.784	0.381	-0.223
-723.864	800.000	-0.059	0.191
-722.850	659.240	-0.060	-0.156
-721.835	-200.000	0.049	-0.453
-720.821	-151.645	-0.527	0.039
-719.806	-132.056	-0.265	-0.035
-718.791	-103.229	-0.451	-0.108
-717.777	144.682	-0.064	0.086
-716.762	413.935	-0.256	-0.551
-715.748	-200.000	0.096	0.922
-714.733	800.000	0.108	0.341
-713.718	-138.280	0.268	-0.030
-712.704	-200.000	0.084	-0.630
-711.689	-123.546	0.477	-0.076
-710.675	184.551	0.068	-0.101
-709.660	-200.000	-0.061	0.721
-708.645	384.631	-0.091	-0.189
-707.631	-48.567	-0.600	0.291
-706.616	-115.580	0.311	0.059
-705.602	56.245	0.280	-0.274
-704.587	-77.986	-0.509	-0.177
-703.572	-73.033	-0.600	0.222
-702.558	52.763	0.494	0.476
-701.543	800.000	0.224	-0.623
-700.529	800.000	-0.202	0.630
-699.514	-131.633	0.833	-0.110
-698.499	641.017	0.372	0.955
-697.485	800.000	0.032	-0.091
-696.470	66.140	-0.359	-0.367
-695.456	-79.799	0.428	0.145
-694.441	800.000	-0.225	0.896
-693.426	437.336	0.021	-0.045
-692.412	-200.000	-0.114	-0.903
-691.397	800.000	-0.087	0.331
-690.383	57.961	-0.396	-0.391
-689.368	-200.000	-0.035	0.221
-688.354	-200.000	-0.037	-0.814
-687.339	554.173	0.334	-0.809
-686.324	60.973	-0.365	-0.366
-685.310	-29.244	0.937	-0.541
-684.295	-123.876	0.141	0.022
-683.281	180.593	0.055	0.082
-682.266	337.474	-0.170	-0.333
-681.251	95.617	0.709	0.815
-680.237	-200.000	-0.005	0.071
-679.222	-144.019	-0.455	0.043
-678.208	49.038	-0.388	0.367
-677.193	-45.000	0.814	0.409
-676.178	-200.000	0.030	0.140
-675.164	-74.763	-0.666	0.241
-674.149	-84.400	0.630	-0.201
-673.135	-139.784	0.957	0.102
-672.120	800.000	0.091	0.354
-671.105	-200.000	-0.013	-0.835
-670.091	-142.000	-1.150	-0.115
-669.076	8.713	0.465	0.353
-668.062	-132.852	0.292	0.037
-667.047	-96.656	-0.434	0.115
-666.032	-94.775	-0.599	0.164
-665.018	-27.142	0.772	-0.453
-664.003	29.220	0.907	-0.776
-662.989	166.073	-0.334	-0.476
-661.974	161.341	0.312	0.440
-660.959	307.167	0.145	-0.272
-659.945	-30.001	-0.470	-0.270
-658.930	202.812	0.204	0.317
-657.916	82.615	-0.248	-0.271
-656.901	97.860	-0.194	0.225
-655.886	-78.346	-0.349	0.121
-654.872	8.729	-0.693	-0.526
-653.857	-68.815	-0.422	0.164
-652.843	-137.174	-0.359	0.041
-651.828	-131.109	-0.526	-0.070
-650.814	-85.779	-0.598	-0.187
-649.799	169.128	-0.540	0.776
-648.784	-49.919	0.038	0.018
-647.770	-43.180	0.289	-0.147
-646.755	-200.000	-0.153	0.758
-645.741	-126.912	-0.159	0.024
-644.726	-169.276	0.759	-0.028
-643.711	-200.000	-0.024	0.608
-642.697	72.776	-0.319	-0.336
-641.682	-200.000	0.086	0.445
-640.668	187.721	-0.114	-0.171
-639.653	7.640	0.298	0.224
-638.638	800.000	-0.056	-0.207
-637.624	-90.279	-0.211	-0.062
-636.609	113.084	0.310	0.379
-635.595	-200.000	0.052	0.483
-634.580	-200.000	-0.064	-0.369
-633.565	-49.943	0.686	-0.327
-632.551	-95.170	0.289	0.079
-631.536	-200.000	-0.001	0.241
-630.522	-130.021	0.257	0.035
-629.507	-200.000	-0.020	-0.709
-628.492	52.279	-0.295	-0.283
-627.478	-138.429	-0.260	0.029
-626.463	-200.000	-0.100	0.870
-625.449	86.484	0.316	0.350
-624.434	800.000	-0.069	-0.211
-623.419	428.677	0.201	0.438
-622.405	-47.077	-0.375	-0.184
-621.390	218.676	0.076	0.123
-620.376	471.167	0.119	-0.270
-619.361	-111.310	-0.999	0.205
-618.346	-116.150	-0.419	0.078
-617.332	-46.528	1.506	0.743
-616.317	251.779	0.326	-0.558
-615.303	-124.568	-0.469	0.073
-614.288	-127.574	-0.716	-0.104
-613.273	287.239	-0.212	-0.386
-612.259	221.632	0.453	-0.732
-611.244	-200.000	0.085	0.461
-610.230	-155.874	0.099	0.006
-609.215	19.042	0.586	0.473
-608.201	163.717	0.102	0.145
-607.186	-139.428	0.398	0.043
-606.171	-142.037	0.973	0.097
-605.157	-13.942	-0.314	0.204
-604.142	-173.883	-0.604	-0.018
-603.128	47.332	-0.351	-0.329
-602.113	514.134	0.234	-0.548
-601.098	-200.000	-0.026	0.281
-600.084	-96.819	-0.142	0.037
-599.069	75.274	0.936	-0.992
-598.055	40.630	0.794	-0.719
-597.040	-81.176	-0.405	-0.134
-596.025	-107.219	-0.498	-0.110
-595.011	363.154	-0.390	-0.787
-593.996	-168.193	0.741	-0.029
-592.982	72.304	0.401	0.420
-591.967	-95.999	-0.647	0.173
-590.952	800.000	0.106	-0.452
-589.938	-200.000	-0.061	0.645
-588.923	311.999	0.256	-0.483
-587.909	-2.914	0.093	0.065
-586.894	224.934	-0.437	-0.710
-585.879	52.200	0.624	-0.597
-584.865	98.560	0.430	-0.498
-583.850	-138.633	0.479	-0.053
-582.836	231.350	-0.403	0.663
-581.821	-17.182	0.429	0.272
-580.806	229.534	-0.461	0.756
-579.792	487.599	-0.285	0.652
-578.777	-4.950	-0.197	-0.136
-577.763	-84.968	0.720	-0.227
-576.748	800.000	-0.396	1.129
-575.733	-100.219	-1.140	-0.285
-574.719	347.182	0.350	-0.691
-573.704	87.337	0.234	0.260
-572.690	-133.900	0.553	-0.069
-571.675	-200.000	-0.067	-0.302
-570.661	800.000	-0.112	-0.436
-569.646	800.000	0.193	0.698
-568.631	49.876	0.226	-0.214
-567.617	-200.000	-0.082	0.435
-566.602	382.115	0.472	0.974
-565.588	-200.000	-0.111	0.840
-564.573	-39.156	0.248	0.131
-563.558	463.187	-0.122	0.274
-562.544	194.169	-0.203	0.308
-561.529	-82.890	0.437	0.142
-560.515	128.164	-0.214	0.273
-559.500	-66.698	-0.551	-0.219
-558.485	-42.334	-0.498	0.255
-557.471	-165.679	-0.780	-0.034
-556.456	-68.613	0.248	0.096
-555.442	-130.402	-0.696	0.095
-554.427	491.870	0.107	-0.245
-553.412	-64.264	0.232	0.095
-552.398	632.401	-0.087	-0.221
-551.383	400.753	-0.198	-0.418
-550.369	-114.973	0.392	-0.075
-549.354	-104.826	-0.719	-0.166
-548.339	-35.046	0.500	0.273
-547.325	-79.366	-0.064	-0.022
-546.310	342.229	-0.363	-0.712
-545.296	-121.437	-0.175	0.029
-544.281	-200.000	0.069	-0.735
-543.266	6.621	-0.938	0.699
-542.252	-99.173	1.180	-0.299
-541.237	-200.000	-0.005	-0.235
-540.223	295.595	0.093	0.171
-539.208	-56.274	-0.331	0.148
-538.193	179.921	-0.257	-0.377
-537.179	-66.569	0.232	-0.092
-536.164	324.627	-0.099	0.190
-535.150	-40.348	0.377	-0.197
-534.135	369.651	-0.158	-0.321
-533.121	-200.000	-0.039	-0.378
-532.106	38.256	0.252	-0.225
-531.091	478.897	-0.173	0.393
-530.077	92.601	0.175	0.198
-529.062	80.530	0.321	0.347
-528.048	-70.482	-1.102	-0.418
-527.033	-200.000	0.135	0.889
-526.018	-200.000	-0.069	-0.335
-525.004	-84.765	0.126	0.040
-523.989	-62.711	-0.582	-0.242
-522.975	-200.000	-0.002	-0.735
-521.960	-6.984	0.786	0.535
-520.945	800.000	0.063	0.178
-519.931	-124.946	0.486	-0.075
-518.916	-200.000	0.002	0.132
-517.902	-200.000	0.003	0.141
-516.887	497.671	0.088	-0.203
-515.872	213.820	0.186	-0.295
-514.858	-21.538	-0.874	0.534
-513.843	45.864	-0.464	-0.430
-512.829	40.034	0.546	-0.491
-511.814	556.275	0.280	0.675
-510.799	-72.128	0.595	-0.221
-509.785	-85.103	-0.693	-0.217
-508.770	-19.018	0.890	-0.554
-507.756	-200.000	-0.003	-0.316
-506.741	97.987	0.348	-0.401
-505.726	-200.000	-0.022	-0.439
-504.712	88.043	0.347	0.386
-503.697	-96.570	-0.244	0.065
-502.683	-56.943	-0.401	0.177
-501.668	800.000	-0.161	-0.447
-500.653	83.459	-0.430	0.469
-499.639	786.192	0.209	-0.574
-498.624	780.252	0.121	-0.331
-497.610	-200.000	0.014	-0.102
-496.595	146.531	0.109	-0.147
-495.581	211.254	0.328	0.517
-494.566	-148.099	-0.791	-0.066
-493.551	54.039	0.513	0.493
-492.537	45.991	-0.739	-0.685
-491.522	150.749	0.324	0.441
-490.508	39.703	0.482	-0.433
-489.493	237.252	-0.283	0.469
-488.478	-200.000	-0.037	0.176
-487.464	-200.000	-0.005	0.721
-486.449	-200.000	0.220	1.210
-485.435	-124.221	0.072	-0.011
-484.420	142.510	0.522	0.693
-483.405	800.000	0.176	0.552
-482.391	147.238	0.063	0.085
-481.376	-200.000	0.058	0.453
-480.362	-182.869	0.695	-0.012
-479.347	-96.965	0.362	-0.095
-478.332	137.232	-0.333	-0.436
-477.318	-62.577	-0.855	-0.355
-476.303	162.777	0.374	0.525
-475.289	30.082	0.187	-0.159
-474.274	-160.709	-0.682	-0.036
-473.259	-200.000	0.091	-0.557
-472.245	800.000	0.059	0.221
-471.230	-77.391	-0.230	0.080
-470.216	148.172	0.741	1.000
-469.201	78.783	0.341	-0.365
-468.186	-161.251	-0.384	-0.020
-467.172	-48.417	-0.080	-0.038
-466.157	800.000	-0.156	-0.565
-465.143	406.079	-0.234	-0.494
-464.128	157.445	0.271	-0.374
-463.113	-200.000	-0.073	-0.351
-462.099	-200.000	0.009	0.237
-461.084	-200.000	0.055	-0.251
-460.070	-28.216	0.447	-0.258
-459.055	800.000	0.244	-0.834
-458.040	-200.000	0.049	-0.313
-457.026	70.665	0.125	-0.129
-456.011	262.278	-0.275	0.477
-454.997	-50.038	0.545	-0.258
-453.982	-136.415	-0.614	0.071
-452.968	-86.059	0.399	0.123
-451.953	-38.390	-0.411	0.218
-450.938	-69.069	0.468	-0.180
-449.924	-77.856	0.400	0.138
-448.909	-200.000	-0.414	0.001
-447.895	-95.383	-0.243	-0.065
-446.880	-94.433	-0.345	0.094
-445.865	-134.620	-0.539	-0.066
-444.851	110.195	-0.235	0.282
-443.836	212.766	-0.241	0.380
-442.822	-200.000	-0.039	0.206
-441.807	-200.000	-0.177	-1.003
-440.792	179.673	0.164	0.240
-439.778	53.841	-0.144	0.139
-438.763	-200.000	0.025	0.269
-437.749	800.000	-0.169	-0.619
-436.734	-5.445	-0.788	0.540
-435.719	-200.000	-0.052	0.533
-434.705	18.599	-0.321	0.256
-433.690	142.332	-0.506	0.670
-432.676	205.028	0.235	0.364
-431.661	-200.000	0.038	-0.378
-430.646	132.277	-0.422	0.543
-429.632	-32.633	-0.159	0.088
-428.617	341.465	-0.393	-0.767
-427.603	-102.152	-0.530	0.127
-426.588	233.687	0.529	-0.870
-425.573	489.414	-0.064	-0.146
-424.559	158.162	-0.212	0.294
-423.544	-200.000	0.016	-0.130
-422.530	-13.743	0.331	0.214
-421.515	-100.199	-0.683	-0.170
-420.500	25.495	-0.480	-0.399
-419.486	14.958	-0.788	0.616
-418.471	-49.620	0.072	0.034
-417.457	-41.110	0.090	0.047
-416.442	64.718	-0.729	-0.733
-415.428	154.358	-0.313	0.429
-414.413	-84.421	-0.429	0.135
-413.398	84.779	0.316	-0.345
-412.384	-136.565	0.667	0.077
-411.369	-34.640	0.644	0.352
-410.355	800.000	0.239	-0.678
-409.340	-149.727	-0.456	-0.036
-408.325	-200.000	-0.179	1.079
-407.311	-200.000	-0.004	0.590
-406.296	-200.000	0.166	0.809
-405.282	-200.000	0.034	-0.579
-404.267	25.038	0.429	0.355
-403.252	-11.117	0.399	0.263
-402.238	800.000	-0.129	0.540
-401.223	409.736	0.333	-0.704
-400.209	-60.117	0.099	-0.042
-399.194	361.452	0.019	-0.038
-398.179	800.000	0.122	0.341
-397.165	-57.377	-0.803	-0.352
-396.150	-200.000	0.050	0.247
-395.136	-61.124	1.326	-0.558
-394.121	-35.835	0.457	-0.247
-393.106	383.396	0.287	-0.589
-392.092	49.219	0.761	0.713
-391.077	457.351	0.161	-0.357
-390.063	-40.916	0.607	-0.313
-389.048	273.179	0.367	0.646
-388.033	-200.000	0.081	0.361
-387.019	-114.417	-0.544	0.104
-386.004	800.000	-0.114	-0.495
-384.990	243.623	-0.377	-0.630
-383.975	-84.898	0.350	0.109
-382.960	-2.701	0.249	-0.174
-381.946	-51.535	-1.383	0.643
-380.931	-105.350	-0.194	-0.044
-379.917	-200.000	-0.054	-0.444
-378.902	-52.046	0.757	-0.350
-377.888	649.396	-0.106	-0.271
-376.873	165.072	-0.297	-0.417
-375.858	-110.356	0.399	0.083
-374.844	-200.000	-0.045	-0.472
-373.829	-106.414	0.735	-0.164
-372.815	-133.108	0.402	0.051
-371.800	205.272	-0.522	-0.807
-370.785	306.996	-0.367	0.681
-369.771	-24.661	0.522	0.309
-368.756	326.977	-0.280	-0.535
-367.742	-47.124	-0.280	0.136
-366.727	-1.045	-0.250	0.176
-365.712	272.188	0.228	-0.401
-364.698	71.051	0.354	0.365
-363.683	79.150	0.628	0.669
-362.669	800.000	-0.168	-0.640
-361.654	-156.233	0.235	-0.015
-360.639	195.623	-0.585	0.886
-359.625	-65.823	-0.116	-0.046
-358.610	648.210	-0.422	-1.075
-357.596	255.806	0.076	-0.130
-356.581	6.793	-0.196	0.145
-355.566	-200.000	0.068	-1.103
-354.552	-200.000	-0.053	0.607
-353.537	304.208	0.586	1.083
-352.523	800.000	-0.087	0.329
-351.508	83.199	-0.271	0.294
-350.493	25.681	0.405	0.336
-349.479	82.320	-0.163	0.176
-348.464	142.479	-0.545	-0.721
-347.450	-200.000	0.057	0.312
-346.435	-51.060	0.257	0.120
-345.420	-105.776	-0.621	-0.140
-344.406	112.112	-0.078	0.094
-343.391	203.258	-0.240	0.369
-342.377	-200.000	-0.043	-0.583
-341.362	-64.782	-0.500	-0.201
-340.348	10.862	-0.644	-0.489
-339.333	-0.780	-0.123	-0.087
-338.318	-86.417	0.292	-0.089
-337.304	-73.639	-0.439	-0.159
-336.289	800.000	-0.173	-0.640
-335.275	-200.000	-0.006	0.135
-334.260	-200.000	0.025	-0.227
-333.245	-200.000	-0.014	-0.408
-332.231	-74.710	0.732	0.262
-331.216	-200.000	0.008	0.112
-330.202	-2.895	0.663	0.461
-329.187	-166.140	-0.613	-0.026
-328.172	-166.645	0.168	-0.007
-327.158	200.682	0.106	-0.162
-326.143	195.263	-0.379	-0.572
-325.129	164.055	0.475	-0.665
-324.114	800.000	0.089	0.279
-323.099	24.982	0.328	-0.270
-322.085	47.187	0.337	-0.311
-321.070	125.725	-0.338	-0.424
-320.056	-22.367	0.573	-0.345
-319.041	-132.467	0.355	0.045
-318.026	14.759	-0.461	-0.359
-317.012	-200.000	0.168	-0.894
-315.997	-142.053	0.578	-0.057
-314.983	800.000	-0.070	-0.284
-313.968	-200.000	0.022	0.128
-312.953	637.557	0.160	0.404
-311.939	800.000	-0.280	0.863
-310.924	62.982	-0.139	0.138
-309.910	800.000	0.180	-0.626
-308.895	-164.801	0.899	0.040
-307.880	800.000	-0.125	0.353
-306.866	137.508	-0.179	-0.233
-305.851	-75.920	-0.875	0.308
-304.837	45.892	0.740	0.680
-303.822	389.516	0.103	0.212
-302.807	-90.935	-0.803	0.230
-301.793	-147.534	0.961	-0.081
-300.778	160.206	-0.190	0.263
-299.764	525.968	0.278	-0.651
-298.749	800.000	0.102	-0.281
-297.735	-200.000	0.128	-0.616
-296.720	-48.234	-0.317	-0.152
-295.705	-200.000	-0.100	-0.438
-294.691	261.323	0.390	0.671
-293.676	393.638	-0.371	-0.768
-292.662	800.000	0.279	0.976
-291.647	359.525	0.356	-0.707
-290.632	800.000	0.184	0.639
-289.618	-144.537	0.305	-0.028
-288.603	67.299	0.476	0.482
-287.589	222.345	0.651	1.040
-286.574	211.495	0.163	0.255
-285.559	141.798	-0.092	0.121
-284.545	800.000	-0.184	0.697
-283.530	-200.000	0.155	-0.780
-282.516	2.664	-0.423	-0.305
-281.501	-23.822	0.469	0.279
-280.486	-136.880	-0.994	-0.113
-279.472	-200.000	-0.002	-0.440
-278.457	7.175	-0.834	-0.618
-277.443	343.386	-0.285	-0.554
-276.428	57.404	-0.294	-0.285
-275.413	17.651	0.764	0.603
-274.399	1.488	-0.054	0.039
-273.384	50.810	0.634	0.596
-272.370	-74.248	0.597	-0.214
-271.355	728.424	-0.201	-0.533
-270.340	550.354	0.212	-0.505
-269.326	-198.729	-0.509	-0.003
-268.311	778.378	-0.157	-0.426
-267.297	150.238	0.185	-0.249
-266.282	285.719	0.173	0.310
-265.267	-200.000	0.116	0.764
-264.253	768.422	-0.273	0.738
-263.238	-151.304	-0.500	-0.037
-262.224	-8.012	0.249	-0.167
-261.209	800.000	0.042	-0.146
-260.195	-16.026	-0.376	0.237
-259.180	-34.643	0.452	-0.245
-258.165	-97.484	0.302	-0.078
-257.151	-44.540	-0.953	-0.472
-256.136	-137.610	-1.182	-0.132
-255.122	-20.721	0.280	0.170
-254.107	141.425	0.401	0.527
-253.092	-74.710	-0.246	0.088
-252.078	-96.469	-0.370	0.097
-251.063	23.821	0.791	-0.647
-250.049	800.000	-0.366	1.236
-249.034	352.877	-0.275	0.541
-248.019	-71.378	-1.068	0.397
-247.005	322.781	0.142	-0.269
-245.990	-200.000	0.060	0.343
-244.976	-108.679	-0.323	-0.069
-243.961	231.069	0.400	0.649
-242.946	275.136	-0.550	-0.965
-241.932	652.512	0.282	-0.715
-240.917	-147.719	0.637	0.053
-239.903	303.999	0.210	0.386
-238.888	-192.558	-0.306	-0.003
-237.873	-95.193	-0.217	-0.058
-236.859	93.032	-0.271	-0.304
-235.844	270.056	-0.294	0.512
-234.830	-93.821	0.961	-0.262
-233.815	123.275	-0.436	-0.541
-232.800	286.477	-0.234	-0.419
-231.786	174.782	-0.089	-0.128
-230.771	-111.131	-0.219	-0.044
-229.757	-120.835	-0.656	0.110
-228.742	17.946	0.345	0.272
-227.727	315.510	-0.333	0.622
-226.713	368.709	0.254	0.508
-225.698	-40.158	-0.329	-0.170
-224.684	397.213	-0.500	1.035
-223.669	-57.060	-0.719	-0.314
-222.655	-161.864	-0.561	-0.028
-221.640	99.715	0.588	-0.674
-220.625	-149.700	-0.248	0.019
-219.611	800.000	0.090	0.280
-218.596	-107.723	-0.328	0.071
-217.582	-200.000	-0.056	-0.331
-216.567	754.489	0.038	0.103
-215.552	698.876	-0.252	-0.655
-214.538	53.746	-0.087	0.083
-213.523	-129.455	-0.503	0.069
-212.509	316.840	0.320	0.599
-211.494	-48.597	0.551	0.262
-210.479	47.599	-0.205	0.190
-209.465	-200.000	-0.033	0.976
-208.450	93.844	-0.469	-0.526
-207.436	800.000	-0.495	-1.437
-206.421	128.162	0.339	0.427
-205.406	148.119	0.598	-0.798
-204.392	77.191	0.558	0.587
-203.377	770.754	-0.086	0.231
-202.363	122.402	-0.490	0.606
-201.348	322.609	-0.178	0.335
-200.333	800.000	0.090	-0.282
-199.319	-97.001	0.885	0.229
-198.304	44.009	0.750	-0.680
-197.290	-200.000	-0.032	-0.377
-196.275	800.000	0.232	0.668
-195.260	225.262	-0.391	-0.626
-194.246	800.000	-0.080	0.256
-193.231	-168.660	-0.096	-0.004
-192.217	-200.000	0.072	0.496
-191.202	-195.139	-0.486	0.004
-190.187	-200.000	0.139	-0.790
-189.173	-200.000	-0.052	-0.461
-188.158	23.914	0.168	-0.137
-187.144	-49.694	0.539	0.254
-186.129	-14.453	-0.188	0.120
-185.114	216.332	-0.255	-0.401
-184.100	482.057	-0.275	0.618
-183.085	42.900	0.692	-0.624
-182.071	-200.000	-0.143	0.648
-181.056	800.000	-0.136	-0.375
-180.042	8.847	-0.279	-0.208
-179.027	122.222	-0.516	-0.637
-178.012	-69.660	-1.171	-0.443
-176.998	597.147	0.514	-1.259
-175.983	76.893	0.533	-0.559
-174.969	-200.000	-0.057	-0.862
-173.954	-200.000	0.097	0.485
-172.939	-19.630	0.357	-0.218
-171.925	199.811	-0.427	-0.647
-170.910	5.313	0.184	0.134
-169.896	-22.096	0.261	-0.156
-168.881	-84.025	-0.460	-0.145
-167.866	-200.000	-0.208	1.063
-166.852	396.616	-0.030	-0.062
-165.837	800.000	-0.157	-0.465
-164.823	75.992	-0.188	-0.196
-163.808	800.000	0.131	0.465
-162.793	95.319	-0.421	0.474
-161.779	-200.000	-0.084	0.397
-160.764	412.475	0.283	0.594
-159.750	209.049	0.578	0.894
-158.735	176.415	0.311	0.447
-157.720	-36.857	0.387	0.205
-156.706	-133.124	0.237	-0.030
-155.691	264.652	0.294	-0.506
-154.677	237.553	-0.168	-0.275
-153.662	288.276	0.750	1.342
-152.647	211.377	0.325	0.506
-151.633	0.955	-0.518	0.366
-150.618	303.825	0.156	0.286
-149.604	-85.424	-0.213	0.066
-148.589	242.971	-0.568	-0.940
-147.574	-200.000	0.142	-0.686
-146.560	-109.133	0.452	-0.095
-145.545	110.570	0.241	-0.286
-144.531	800.000	-0.230	-0.764
-143.516	-200.000	-0.036	-0.630
-142.502	800.000	-0.092	0.274
-141.487	-200.000	0.005	0.381
-140.472	-45.886	-0.400	0.195
-139.458	800.000	-0.223	0.822
-138.443	-200.000	0.040	0.226
-137.429	-118.577	0.983	0.172
-136.414	153.564	0.280	0.379
-135.399	-200.000	-0.121	0.700
-134.385	323.391	0.149	0.281
-133.370	8.369	-0.320	-0.238
-132.356	-200.000	0.032	-0.529
-131.341	800.000	-0.094	0.284
-130.326	317.983	0.134	0.250
-129.312	411.558	0.148	0.309
-128.297	-154.194	0.728	-0.049
-127.283	-33.891	-0.113	0.062
-126.268	430.051	0.125	0.266
-125.253	-60.591	-0.326	-0.137
-124.239	-113.637	-0.529	-0.102
-123.224	800.000	-0.166	0.524
-122.210	670.808	0.298	0.761
