DTS Sentinel unit serial number:	SN413079Multiplexer serial number:	ORYXHardware model number:	OX4-SRSoftware version number:	ORYX F/W v4.00 Oryx Data Collector v3.7.2.0data status	okinstallation	princeton_trtdifferential loss correction	single-endedforward channel	channel 3reverse channel	N/Adate	2019/09/16time	22:56:35forward acquisition time	60.00reverse acquisition time	0.00gamma	496.2192k internal	0.2325k external	0.2325temperature offset calibration	0.9940default loss term (dB/km)	0.3790temperature slope calibration	1.0000multiplexer offset coefficient	1.0000multiplexer slope coefficient	1.0000fibre end	0.00T internal ref (°C)	30.41T ext. ref 1 (°C)	0.09T ext. ref 2 (°C)	24.01length (m)	temperature (°C)	Stokes	anti-Stokes-747.200	123.161	-0.151	-0.191
-746.185	211.977	0.212	0.337
-745.171	94.268	0.140	-0.160
-744.156	-93.797	-0.072	0.020
-743.142	800.000	0.071	0.270
-742.127	50.549	0.047	-0.045
-741.112	216.557	0.140	0.224
-740.098	800.000	0.044	0.176
-739.083	30.135	0.143	0.123
-738.069	-200.000	-0.005	-0.259
-737.054	539.506	-0.016	0.039
-736.039	-61.390	-0.526	0.223
-735.025	38.965	-0.182	0.164
-734.010	3.255	-0.316	0.232
-732.996	-42.417	0.359	0.185
-731.981	-82.894	-0.496	-0.161
-730.966	-200.000	0.032	0.187
-729.952	75.993	-0.297	0.316
-728.937	303.586	0.150	-0.280
-727.923	188.841	-0.189	-0.286
-726.908	163.344	0.111	-0.157
-725.894	503.075	0.081	-0.189
-724.879	-71.401	0.137	0.052
-723.864	193.971	-0.014	-0.021
-722.850	172.740	-0.108	-0.157
-721.835	8.360	-0.405	-0.307
-720.821	100.392	-0.082	-0.096
-719.806	-134.053	0.018	0.002
-718.791	-200.000	-0.011	-0.056
-717.777	-32.430	-0.028	0.016
-716.762	120.983	-0.121	-0.151
-715.748	57.201	0.118	0.116
-714.733	-72.637	-0.108	0.040
-713.718	-200.000	-0.072	0.338
-712.704	-44.935	0.088	-0.044
-711.689	-112.639	0.301	0.060
-710.675	11.127	-0.189	0.146
-709.660	-200.000	-0.017	-0.613
-708.645	800.000	0.161	-0.456
-707.631	-1.238	-0.034	0.024
-706.616	-33.001	0.039	-0.022
-705.602	38.083	-0.121	0.108
-704.587	-46.907	0.182	-0.090
-703.572	-200.000	0.040	0.197
-702.558	202.343	0.079	0.123
-701.543	-178.537	-0.056	-0.001
-700.529	800.000	0.082	0.349
-699.514	-200.000	0.045	0.220
-698.499	-19.030	0.339	-0.212
-697.485	800.000	-0.032	-0.127
-696.470	-167.977	0.310	-0.012
-695.456	10.142	-0.261	0.200
-694.441	13.866	0.210	0.164
-693.426	-40.567	-0.112	-0.059
-692.412	-25.511	-0.216	-0.128
-691.397	-65.189	-0.213	-0.087
-690.383	113.623	0.085	0.104
-689.368	-89.882	0.360	0.106
-688.354	-64.985	-0.337	0.137
-687.339	414.516	-0.111	-0.238
-686.324	-39.370	-0.082	-0.043
-685.310	754.396	-0.017	-0.046
-684.295	-200.000	-0.055	0.312
-683.281	-60.795	0.231	-0.098
-682.266	-200.000	0.010	0.151
-681.251	192.928	0.039	0.060
-680.237	-200.000	-0.000	0.084
-679.222	-7.053	-0.201	-0.137
-678.208	-59.628	0.217	-0.093
-677.193	10.731	0.109	0.084
-676.178	154.299	-0.278	-0.384
-675.164	-200.000	0.027	-0.268
-674.149	-117.037	-0.199	-0.037
-673.135	-200.000	-0.051	-0.276
-672.120	142.809	0.282	0.378
-671.105	-66.504	-0.199	-0.079
-670.091	129.521	-0.097	-0.125
-669.076	176.652	0.218	-0.319
-668.062	319.602	0.127	-0.242
-667.047	-88.401	-0.358	0.108
-666.032	-80.795	0.048	-0.016
-665.018	-200.000	0.015	0.528
-664.003	-129.944	-0.262	-0.036
-662.989	-124.958	0.185	-0.029
-661.974	748.606	-0.100	-0.270
-660.959	-50.319	-0.132	-0.063
-659.945	17.349	0.158	0.126
-658.930	-116.005	-0.042	0.008
-657.916	-66.241	0.144	-0.058
-656.901	35.832	-0.247	-0.218
-655.886	800.000	-0.060	0.262
-654.872	-200.000	0.035	-0.284
-653.857	193.550	0.126	0.191
-652.843	-200.000	-0.082	0.415
-651.828	-200.000	0.018	0.094
-650.814	-200.000	-0.046	0.319
-649.799	-95.725	-0.249	0.067
-648.784	14.610	0.154	-0.121
-647.770	800.000	0.102	-0.334
-646.755	800.000	0.114	-0.330
-645.741	95.460	-0.072	0.083
-644.726	420.908	0.103	0.222
-643.711	800.000	0.109	-0.461
-642.697	144.535	0.257	-0.345
-641.682	-20.548	0.110	0.068
-640.668	-118.269	-0.115	0.020
-639.653	-124.084	0.338	0.053
-638.638	106.968	0.082	-0.098
-637.624	-0.873	0.183	0.130
-636.609	-173.685	0.218	0.007
-635.595	-14.458	0.186	-0.120
-634.580	31.386	-0.070	0.060
-633.565	77.588	-0.195	-0.209
-632.551	-67.889	0.055	0.022
-631.536	316.844	0.057	-0.109
-630.522	-112.338	-0.252	-0.051
-629.507	11.227	-0.266	0.205
-628.492	-50.909	0.103	0.049
-627.478	164.188	-0.139	-0.197
-626.463	91.002	0.065	0.074
-625.449	-194.398	-0.067	0.001
-624.434	-200.000	0.032	-0.166
-623.419	-86.630	-0.088	-0.027
-622.405	165.245	0.254	-0.360
-621.390	-56.081	0.095	-0.043
-620.376	78.287	0.125	0.134
-619.361	119.634	0.158	-0.196
-618.346	800.000	0.026	-0.095
-617.332	-39.618	-0.137	-0.072
-616.317	102.503	-0.167	-0.196
-615.303	-8.966	0.167	0.112
-614.288	-16.273	-0.192	0.122
-613.273	48.698	0.056	-0.052
-612.259	-200.000	0.000	0.178
-611.244	-143.526	0.331	0.032
-610.230	29.796	0.220	0.188
-609.215	-142.296	0.102	-0.010
-608.201	-73.287	-0.231	0.085
-607.186	550.461	-0.036	0.087
-606.171	341.243	-0.212	0.416
-605.157	155.406	-0.187	0.259
-604.142	-200.000	0.028	-0.123
-603.128	-115.688	-0.354	0.067
-602.113	-200.000	-0.008	0.198
-601.098	56.120	-0.306	-0.298
-600.084	-150.456	0.150	0.012
-599.069	255.099	0.091	-0.157
-598.055	447.287	-0.036	0.079
-597.040	-138.678	0.091	0.010
-596.025	-60.239	-0.323	-0.138
-595.011	-119.450	-0.292	0.051
-593.996	-64.670	-0.274	-0.111
-592.982	6.635	-0.170	0.127
-591.967	800.000	0.052	0.212
-590.952	435.516	0.046	0.101
-589.938	-59.118	0.174	-0.075
-588.923	60.062	-0.169	0.167
-587.909	-85.527	-0.131	0.041
-586.894	-167.336	-0.237	0.010
-585.879	-104.617	0.057	0.013
-584.865	254.639	-0.090	-0.154
-583.850	9.010	-0.132	-0.100
-582.836	-200.000	0.032	-0.278
-581.821	-161.054	-0.279	-0.015
-580.806	-86.953	-0.125	0.038
-579.792	548.121	0.109	0.261
-578.777	-43.553	0.080	-0.040
-577.763	-200.000	0.032	-0.238
-576.748	56.671	0.047	0.046
-575.733	-22.074	-0.366	-0.223
-574.719	-185.903	0.295	0.004
-573.704	703.591	0.063	0.167
-572.690	-200.000	0.019	0.227
-571.675	-150.137	0.244	-0.019
-570.661	-8.100	-0.311	0.210
-569.646	322.249	0.018	-0.034
-568.631	-133.017	0.406	-0.052
-567.617	6.781	0.315	0.235
-566.602	147.717	-0.079	-0.107
-565.588	800.000	0.073	0.232
-564.573	113.581	0.064	0.078
-563.558	466.612	0.093	-0.208
-562.544	-63.908	-0.260	-0.106
-561.529	-200.000	0.016	-0.190
-560.515	19.579	-0.215	-0.173
-559.500	-76.352	-0.179	-0.063
-558.485	-200.000	0.008	0.202
-557.471	88.217	-0.174	-0.194
-556.456	-200.000	0.039	-0.206
-555.442	170.163	0.255	-0.365
-554.427	-109.654	0.265	0.056
-553.412	72.711	0.182	-0.190
-552.398	-42.938	-0.156	0.079
-551.383	800.000	-0.033	-0.092
-550.369	800.000	-0.074	-0.205
-549.354	194.855	0.023	0.035
-548.339	-15.511	0.228	0.146
-547.325	-93.693	0.199	0.055
-546.310	-13.209	-0.098	-0.064
-545.296	57.605	-0.294	0.288
-544.281	66.583	-0.212	0.216
-543.266	8.375	-0.145	-0.109
-542.252	-200.000	-0.020	-0.134
-541.237	69.589	-0.145	0.150
-540.223	-152.565	-0.326	-0.023
-539.208	576.870	-0.060	0.148
-538.193	147.817	-0.156	-0.210
-537.179	-200.000	-0.024	0.194
-536.164	68.762	0.049	-0.050
-535.150	128.072	0.161	-0.205
-534.135	-200.000	-0.004	0.116
-533.121	-79.709	0.191	0.065
-532.106	329.772	0.104	-0.200
-531.091	-97.159	0.168	-0.044
-530.077	-158.432	-0.331	-0.019
-529.062	-14.400	0.223	0.144
-528.048	-200.000	0.013	0.249
-527.033	-104.027	-0.229	-0.053
-526.018	-163.987	0.148	-0.007
-525.004	-70.828	0.202	0.076
-523.989	-9.088	-0.302	-0.202
-522.975	-188.533	-0.153	-0.002
-521.960	45.587	0.218	0.201
-520.945	-200.000	-0.002	0.347
-519.931	6.866	0.245	-0.183
-518.916	-162.250	0.217	0.011
-517.902	-200.000	0.056	-0.287
-516.887	-79.040	0.157	-0.054
-515.872	-160.541	-0.379	0.020
-514.858	-118.247	-0.341	-0.061
-513.843	174.781	0.040	0.058
-512.829	-115.179	0.362	-0.068
-511.814	81.482	0.133	-0.144
-510.799	43.642	0.163	-0.149
-509.785	54.517	-0.114	0.110
-508.770	-55.878	0.070	-0.031
-507.756	-32.719	0.070	-0.039
-506.741	397.965	-0.043	-0.091
-505.726	-200.000	0.043	-0.209
-504.712	800.000	0.118	0.346
-503.697	9.157	0.074	-0.056
-502.683	-160.837	-0.266	-0.014
-501.668	-142.254	0.206	-0.020
-500.653	-76.745	-0.322	-0.113
-499.639	60.247	0.319	0.316
-498.624	714.400	-0.063	-0.168
-497.610	-200.000	0.000	0.287
-496.595	50.022	-0.181	0.170
-495.581	101.970	0.084	-0.098
-494.566	376.242	-0.086	-0.175
-493.551	596.998	-0.113	-0.280
-492.537	227.554	-0.104	-0.169
-491.522	-80.714	-0.326	-0.108
-490.508	-200.000	-0.047	-0.236
-489.493	-200.000	0.012	-0.119
-488.478	-97.175	0.210	0.055
-487.464	-120.251	0.275	0.047
-486.449	111.170	-0.079	0.095
-485.435	800.000	0.146	0.493
-484.420	-200.000	-0.021	0.118
-483.405	800.000	0.048	-0.187
-482.391	800.000	0.054	-0.224
-481.376	-14.851	0.168	0.108
-480.362	-67.288	0.122	-0.048
-479.347	-200.000	-0.001	0.067
-478.332	141.166	-0.071	-0.094
-477.318	-29.220	-0.386	0.221
-476.303	18.564	0.207	0.165
-475.289	800.000	0.046	0.146
-474.274	58.153	-0.114	-0.112
-473.259	-118.943	-0.260	0.045
-472.245	376.472	0.115	0.234
-471.230	106.928	0.055	0.065
-470.216	20.936	0.079	-0.064
-469.201	-45.042	0.331	-0.165
-468.186	-162.778	-0.063	-0.003
-467.172	312.128	0.092	-0.172
-466.157	244.587	0.012	-0.020
-465.143	-83.443	0.114	-0.036
-464.128	-156.282	-0.116	0.007
-463.113	440.532	-0.084	-0.183
-462.099	-155.043	-0.147	-0.010
-461.084	-200.000	-0.036	-0.224
-460.070	-96.288	-0.239	-0.063
-459.055	-131.418	0.476	0.063
-458.040	124.929	-0.040	-0.050
-457.026	-141.840	-0.273	0.027
-456.011	70.938	0.030	0.031
-454.997	-149.656	-0.261	-0.021
-453.982	800.000	0.009	-0.028
-452.968	-116.290	-0.056	-0.010
-451.953	-37.415	0.202	0.108
-450.938	63.268	-0.081	0.081
-449.924	-200.000	-0.001	-0.408
-448.909	-64.197	0.068	-0.028
-447.895	309.878	-0.054	0.101
-446.880	-118.713	-0.296	-0.052
-445.865	-200.000	-0.014	-0.240
-444.851	-75.847	0.130	0.046
-443.836	9.412	0.161	-0.121
-442.822	-200.000	-0.045	0.197
-441.807	-200.000	0.009	-0.249
-440.792	-56.749	0.295	-0.130
-439.778	331.494	-0.181	0.348
-438.763	200.627	-0.176	-0.269
-437.749	-110.168	-0.200	0.042
-436.734	-200.000	0.045	-0.224
-435.719	800.000	0.012	0.042
-434.705	800.000	0.106	0.358
-433.690	-3.354	0.042	0.029
-432.676	229.774	0.092	-0.150
-431.661	-85.848	-0.464	0.143
-430.646	-137.025	0.188	0.021
-429.632	-143.821	-0.394	-0.037
-428.617	-200.000	-0.027	-0.292
-427.603	-200.000	0.039	-0.220
-426.588	-66.639	0.085	0.034
-425.573	143.242	0.070	0.093
-424.559	-200.000	0.016	0.248
-423.544	-200.000	0.012	0.256
-422.530	137.388	0.117	-0.152
-421.515	-111.419	0.155	-0.032
-420.500	-113.773	0.557	0.108
-419.486	146.060	-0.146	-0.196
-418.471	212.232	-0.062	0.098
-417.457	-200.000	0.021	0.378
-416.442	-178.331	-0.257	-0.006
-415.428	59.854	0.231	-0.227
-414.413	-122.807	-0.323	-0.052
-413.398	-184.453	0.175	0.003
-412.384	97.746	0.238	-0.273
-411.369	800.000	0.044	0.153
-410.355	-163.886	-0.256	-0.012
-409.340	-200.000	0.003	0.265
-408.325	-200.000	-0.006	0.410
-407.311	-146.859	0.181	-0.016
-406.296	-200.000	-0.002	-0.080
-405.282	195.741	-0.144	0.218
-404.267	-103.040	0.219	0.052
-403.252	296.553	0.132	0.241
-402.238	290.355	-0.134	0.243
-401.223	-124.318	0.289	0.045
-400.209	-43.042	-0.331	0.167
-399.194	-93.600	0.302	0.083
-398.179	-92.625	-0.107	0.030
-397.165	-200.000	-0.034	-0.284
-396.150	-200.000	-0.074	0.538
-395.136	12.483	-0.217	0.166
-394.121	-200.000	0.002	0.317
-393.106	276.141	-0.049	-0.086
-392.092	800.000	0.013	0.057
-391.077	79.764	-0.327	0.349
-390.063	-60.829	0.259	-0.109
-389.048	-163.938	0.284	-0.013
-388.033	-13.712	-0.229	0.148
-387.019	-54.431	-0.119	-0.054
-386.004	174.116	-0.094	0.134
-384.990	-62.075	-0.061	0.025
-383.975	-91.753	-0.263	0.074
-382.960	-200.000	0.020	0.118
-381.946	-200.000	-0.032	-0.357
-380.931	-27.797	-0.109	-0.063
-379.917	12.536	-0.611	-0.469
-378.902	-100.065	0.473	-0.117
-377.888	-60.254	-0.085	0.036
-376.873	74.378	0.035	0.037
-375.858	-59.487	-0.182	0.078
-374.844	-200.000	0.012	0.143
-373.829	513.965	-0.098	-0.227
-372.815	347.324	-0.096	0.189
-371.800	519.977	-0.071	-0.166
-370.785	-35.326	-0.151	-0.082
-369.771	-81.778	0.407	-0.133
-368.756	-180.560	0.153	0.003
-367.742	-17.147	0.196	-0.123
-366.727	338.460	-0.133	0.258
-365.712	-200.000	-0.022	0.260
-364.698	-97.445	0.303	0.078
-363.683	-136.443	-0.047	-0.005
-362.669	-66.796	-0.167	-0.066
-361.654	-200.000	-0.008	-0.088
-360.639	454.156	0.094	-0.207
-359.625	-47.177	-0.227	0.110
-358.610	167.967	-0.099	0.140
-357.596	800.000	0.065	-0.238
-356.581	-26.910	0.226	-0.131
-355.566	-2.642	-0.066	0.046
-354.552	644.168	0.070	0.178
-353.537	800.000	0.033	0.117
-352.523	-200.000	-0.042	-0.208
-351.508	248.558	0.037	0.062
-350.493	323.953	0.184	0.349
-349.479	25.565	-0.319	0.264
-348.464	-80.743	-0.208	0.069
-347.450	-131.400	-0.089	0.012
-346.435	68.359	-0.153	0.156
-345.420	-29.800	0.333	0.189
-344.406	89.760	0.061	0.067
-343.391	-200.000	-0.017	0.212
-342.377	117.591	0.038	-0.047
-341.362	98.255	0.138	0.158
-340.348	345.078	-0.128	0.250
-339.333	202.678	-0.071	0.109
-338.318	-200.000	-0.049	0.387
-337.304	-112.024	-0.054	-0.011
-336.289	342.900	-0.257	-0.500
-335.275	-106.998	0.339	0.075
-334.260	-175.878	0.488	0.013
-333.245	-78.090	0.296	0.101
-332.231	33.172	-0.063	-0.054
-331.216	195.982	0.086	0.130
-330.202	-125.283	-0.194	-0.029
-329.187	-200.000	0.002	-0.343
-328.172	-200.000	-0.034	0.258
-327.158	159.088	-0.061	-0.084
-326.143	377.347	-0.125	0.254
-325.129	-114.378	-0.203	0.039
-324.114	-200.000	0.019	0.090
-323.099	137.625	0.070	-0.091
-322.085	-74.592	0.289	-0.103
-321.070	172.001	0.133	0.189
-320.056	527.373	0.020	0.047
-319.041	627.247	-0.073	0.184
-318.026	34.611	0.201	0.174
-317.012	-25.331	-0.116	0.068
-315.997	-23.837	-0.143	-0.085
-314.983	19.867	0.107	0.086
-313.968	408.439	0.151	0.318
-312.953	-93.435	-0.339	-0.093
-311.939	-126.299	-0.258	-0.038
-310.924	-46.109	0.026	0.013
-309.910	-141.078	-0.216	0.022
-308.895	123.404	0.118	-0.147
-307.880	307.353	-0.233	-0.430
-306.866	-78.097	0.218	0.075
-305.851	57.681	0.247	0.240
-304.837	800.000	0.068	0.269
-303.822	219.322	-0.040	0.063
-302.807	233.603	0.194	-0.317
-301.793	6.209	0.178	0.131
-300.778	142.156	-0.202	0.266
-299.764	-200.000	-0.036	0.251
-298.749	-89.898	-0.308	0.089
-297.735	-110.344	0.227	0.047
-296.720	42.418	0.060	0.054
-295.705	69.049	-0.237	-0.241
-294.691	-89.876	-0.189	-0.055
-293.676	328.235	-0.100	0.190
-292.662	-138.541	-0.224	-0.024
-291.647	-150.683	-0.357	-0.027
-290.632	-95.171	0.290	0.078
-289.618	-99.051	-0.404	-0.101
-288.603	384.395	0.066	-0.135
-287.589	-59.374	-0.108	-0.046
-286.574	-158.616	-0.155	0.009
-285.559	-200.000	-0.021	-0.235
-284.545	800.000	0.090	-0.245
-283.530	91.361	-0.086	-0.095
-282.516	-97.948	-0.104	0.027
-281.501	800.000	-0.136	-0.396
-280.486	-200.000	0.030	-0.133
-279.472	-144.509	-0.506	-0.046
-278.457	-89.842	-0.080	0.023
-277.443	-53.927	-0.118	0.053
-276.428	-106.206	-0.074	-0.016
-275.413	-118.315	0.067	0.012
-274.399	-200.000	0.001	0.136
-273.384	11.564	0.151	0.115
-272.370	-164.247	0.054	0.002
-271.355	-200.000	-0.018	-0.107
-270.340	346.584	0.085	-0.165
-269.326	800.000	0.042	0.172
-268.311	-200.000	-0.102	0.516
-267.297	-115.427	0.229	-0.043
-266.282	-160.307	-0.170	-0.009
-265.267	34.076	0.150	-0.129
-264.253	800.000	-0.057	0.158
-263.238	336.213	0.110	-0.211
-262.224	-200.000	0.034	-0.382
-261.209	-45.169	-0.111	-0.055
-260.195	56.873	0.178	0.172
-259.180	800.000	0.091	0.347
-258.165	-110.987	-0.298	-0.061
-257.151	279.397	0.001	-0.002
-256.136	-109.286	0.414	0.087
-255.122	17.697	-0.119	-0.094
-254.107	-154.398	0.626	-0.042
-253.092	-200.000	-0.047	0.257
-252.078	800.000	-0.027	0.108
-251.063	-73.446	-0.239	-0.086
-250.049	-0.821	0.134	-0.094
-249.034	-36.175	0.239	-0.128
-248.019	-200.000	-0.013	-0.136
-247.005	-200.000	-0.006	0.226
-245.990	69.962	0.213	-0.217
-244.976	8.751	-0.142	-0.106
-243.961	396.813	0.185	-0.382
-242.946	232.073	0.094	0.152
-241.932	-200.000	0.014	-0.185
-240.917	-114.182	0.188	-0.036
-239.903	60.577	0.101	0.099
-238.888	-131.619	0.202	-0.026
-237.873	-200.000	0.061	-0.372
-236.859	-200.000	0.048	0.287
-235.844	800.000	0.092	-0.394
-234.830	-121.913	0.245	-0.040
-233.815	214.527	0.089	-0.139
-232.800	3.509	0.114	0.082
-231.786	395.981	-0.111	-0.229
-230.771	-58.335	0.092	-0.040
-229.757	-173.412	0.116	-0.003
-228.742	-200.000	-0.014	0.173
-227.727	283.697	-0.023	-0.040
-226.713	76.320	-0.227	0.238
-225.698	-162.085	0.305	-0.015
-224.684	143.854	0.200	-0.264
-223.669	240.732	-0.030	-0.049
-222.655	-119.630	0.068	-0.012
-221.640	-130.631	-0.304	0.040
-220.625	-0.957	0.303	-0.212
-219.611	-200.000	-0.009	-0.224
-218.596	-200.000	0.043	-0.206
-217.582	-200.000	-0.007	0.302
-216.567	-39.967	0.129	-0.067
-215.552	681.213	-0.114	0.293
-214.538	-97.446	-0.068	0.018
-213.523	-85.666	0.182	0.056
-212.509	313.261	0.081	-0.151
-211.494	33.781	-0.151	0.130
-210.479	246.677	-0.154	-0.256
-209.465	-56.627	0.176	-0.077
-208.450	261.051	0.111	-0.190
-207.436	-68.055	-0.162	0.063
-206.421	-165.903	0.154	-0.007
-205.406	-51.299	0.294	0.136
-204.392	-57.284	-0.143	-0.062
-203.377	-128.437	0.057	-0.008
-202.363	561.031	-0.065	-0.155
-201.348	-138.682	-0.219	-0.024
-200.333	-63.632	0.110	-0.045
-199.319	-171.612	-0.421	0.014
-198.304	-200.000	-0.001	-0.008
-197.290	2.678	-0.073	-0.052
-196.275	-14.612	0.111	0.070
-195.260	131.218	0.090	-0.114
-194.246	-111.974	-0.280	-0.056
-193.231	286.931	-0.095	0.169
-192.217	143.678	-0.221	0.291
-191.202	-165.442	-0.231	-0.010
-190.187	-71.253	0.261	0.097
-189.173	-200.000	0.076	0.416
-188.158	287.724	-0.161	0.288
-187.144	-67.826	0.202	-0.078
-186.129	25.717	0.267	-0.219
-185.114	276.600	0.130	-0.229
-184.100	-19.777	-0.365	-0.223
-183.085	-200.000	-0.006	0.391
-182.071	-127.296	-0.188	0.027
-181.056	58.656	0.144	0.139
-180.042	-200.000	-0.013	-0.271
-179.027	-158.704	0.258	-0.015
-178.012	-200.000	-0.016	-0.257
-176.998	-19.478	0.099	0.061
-175.983	588.365	0.107	-0.261
-174.969	97.462	-0.293	0.333
-173.954	199.791	0.183	0.277
-172.939	-200.000	-0.013	0.077
-171.925	367.904	-0.117	0.234
-170.910	-200.000	0.027	-0.323
-169.896	-119.763	-0.182	-0.031
-168.881	78.596	-0.160	0.169
-167.866	-96.290	0.193	0.050
-166.852	92.881	-0.112	0.124
-165.837	106.610	-0.121	-0.142
-164.823	-120.758	-0.169	0.028
-163.808	13.312	0.131	0.100
-162.793	39.805	0.147	0.130
-161.779	468.376	-0.023	0.051
-160.764	-116.913	-0.243	0.044
-159.750	91.942	0.340	-0.378
-158.735	148.414	0.216	0.287
-157.720	-40.995	-0.147	-0.075
-156.706	284.427	0.260	-0.461
-155.691	150.609	-0.182	-0.244
-154.677	149.537	-0.116	-0.155
-153.662	-75.925	0.064	-0.022
-152.647	-150.390	0.459	0.035
-151.633	-83.966	-0.183	0.057
-150.618	364.227	0.134	-0.266
-149.604	320.694	-0.102	-0.191
-148.589	-200.000	-0.017	-0.210
-147.574	85.064	-0.184	0.199
-146.560	-96.555	-0.487	0.127
-145.545	481.100	0.020	0.045
-144.531	-91.264	-0.023	0.006
-143.516	-134.732	0.215	-0.026
-142.502	-200.000	0.035	-0.161
-141.487	-22.425	-0.191	0.114
-140.472	297.708	0.149	0.270
-139.458	-60.474	-0.300	0.125
-138.443	-200.000	-0.032	0.186
-137.429	-200.000	0.003	-0.183
-136.414	-200.000	-0.014	0.149
-135.399	-200.000	-0.053	0.558
-134.385	108.934	0.374	-0.441
-133.370	7.352	-0.043	0.032
-132.356	681.140	0.135	0.346
-131.341	36.597	-0.218	0.190
-130.326	-157.071	0.323	0.019
-129.312	38.037	-0.062	-0.054
-128.297	-200.000	0.075	0.494
-127.283	-27.493	0.218	0.125
-126.268	107.347	0.137	0.161
-125.253	39.420	0.207	0.182
-124.239	550.138	0.055	-0.130
-123.224	156.292	-0.200	0.272
-122.210	-200.000	0.003	-0.050
-121.195	-44.150	-0.100	-0.050
