DTS Sentinel unit serial number:	SN413079Multiplexer serial number:	ORYXHardware model number:	OX4-SRSoftware version number:	ORYX F/W v4.00 Oryx Data Collector v3.7.2.0data status	okinstallation	princeton_trtdifferential loss correction	single-endedforward channel	channel 3reverse channel	N/Adate	2019/09/17time	06:12:34forward acquisition time	60.00reverse acquisition time	0.00gamma	496.2192k internal	0.2329k external	0.2329temperature offset calibration	0.9945default loss term (dB/km)	0.3790temperature slope calibration	1.0000multiplexer offset coefficient	1.0000multiplexer slope coefficient	1.0000fibre end	0.00T internal ref (°C)	28.56T ext. ref 1 (°C)	0.13T ext. ref 2 (°C)	21.93length (m)	temperature (°C)	Stokes	anti-Stokes-747.200	-20.978	-0.386	0.238
-746.185	800.000	-0.056	0.160
-745.171	-200.000	0.006	-0.044
-744.156	-82.675	-0.153	-0.050
-743.142	-111.785	-0.048	0.010
-742.127	-46.739	0.104	0.051
-741.112	231.341	-0.122	0.201
-740.098	-144.163	0.217	-0.020
-739.083	800.000	-0.038	-0.158
-738.069	-81.718	0.146	0.048
-737.054	-200.000	0.001	-0.194
-736.039	-170.766	-0.347	-0.012
-735.025	125.919	0.198	0.252
-734.010	62.518	0.109	0.109
-732.996	800.000	0.014	-0.057
-731.981	36.278	-0.048	0.043
-730.966	70.748	0.134	-0.140
-729.952	-120.598	-0.051	-0.009
-728.937	30.706	-0.188	0.162
-727.923	-96.765	0.124	0.033
-726.908	800.000	-0.074	0.266
-725.894	-33.529	0.113	0.063
-724.879	-200.000	-0.053	0.433
-723.864	-139.287	-0.279	0.030
-722.850	12.216	-0.197	-0.153
-721.835	6.379	-0.115	0.086
-720.821	463.698	0.127	0.286
-719.806	-200.000	0.035	-0.250
-718.791	-164.224	0.352	-0.016
-717.777	-48.922	-0.244	-0.118
-716.762	53.042	-0.239	-0.230
-715.748	137.533	0.119	-0.157
-714.733	292.005	-0.108	-0.199
-713.718	182.070	0.160	0.238
-712.704	-95.464	0.063	-0.017
-711.689	83.140	-0.066	0.072
-710.675	-59.613	0.150	0.065
-709.660	509.783	0.122	-0.286
-708.645	-142.511	0.249	-0.025
-707.631	-114.564	0.292	0.056
-706.616	-30.183	-0.086	-0.049
-705.602	283.422	0.095	0.172
-704.587	53.254	-0.152	0.146
-703.572	-200.000	-0.001	0.245
-702.558	34.144	0.148	0.129
-701.543	-200.000	-0.043	-0.189
-700.529	-163.326	-0.203	-0.010
-699.514	0.672	0.291	0.209
-698.499	-1.686	-0.065	0.046
-697.485	-110.179	0.062	-0.013
-696.470	21.262	0.187	0.153
-695.456	-96.059	-0.049	-0.013
-694.441	800.000	-0.042	-0.158
-693.426	144.044	0.212	-0.284
-692.412	-77.385	0.425	-0.149
-691.397	508.729	0.097	-0.228
-690.383	171.477	-0.160	-0.230
-689.368	-67.469	-0.268	0.106
-688.354	800.000	0.114	0.363
-687.339	-25.089	-0.293	-0.175
-686.324	-33.333	0.099	0.055
-685.310	-160.345	0.266	-0.014
-684.295	617.527	-0.077	-0.195
-683.281	-127.022	-0.302	-0.045
-682.266	800.000	-0.049	-0.177
-681.251	-4.477	0.245	0.170
-680.237	38.020	0.212	-0.189
-679.222	440.803	0.043	0.094
-678.208	391.040	-0.063	-0.132
-677.193	-32.618	0.247	-0.138
-676.178	29.748	-0.242	-0.207
-675.164	-94.927	-0.301	-0.082
-674.149	-200.000	0.005	0.199
-673.135	424.449	0.121	-0.261
-672.120	499.759	-0.059	0.136
-671.105	-109.060	0.395	-0.084
-670.091	-34.514	0.203	0.112
-669.076	-200.000	0.047	0.242
-668.062	-2.296	-0.254	-0.179
-667.047	800.000	0.026	-0.078
-666.032	-104.345	0.524	-0.122
-665.018	-13.888	0.244	0.159
-664.003	-76.900	-0.179	0.063
-662.989	156.473	0.121	-0.168
-661.974	53.214	-0.078	0.075
-660.959	-104.609	-0.289	0.067
-659.945	800.000	0.024	-0.087
-658.930	-120.822	0.262	0.044
-657.916	-94.886	0.091	0.025
-656.901	-58.326	-0.412	-0.180
-655.886	-11.776	-0.167	0.110
-654.872	231.619	0.136	0.224
-653.857	-92.755	-0.587	-0.165
-652.843	18.748	0.219	-0.176
-651.828	-7.497	0.246	0.167
-650.814	233.039	0.043	0.071
-649.799	290.379	-0.075	0.137
-648.784	-162.319	-0.356	-0.018
-647.770	229.197	0.152	-0.248
-646.755	-200.000	0.051	-0.240
-645.741	-53.119	-0.324	0.149
-644.726	-175.961	-0.283	0.008
-643.711	-127.840	0.268	-0.039
-642.697	-157.854	0.152	0.009
-641.682	39.622	-0.043	-0.039
-640.668	102.542	-0.162	-0.190
-639.653	-109.857	0.109	-0.023
-638.638	800.000	0.058	0.163
-637.624	196.764	-0.057	0.088
-636.609	-2.080	-0.305	0.215
-635.595	28.707	0.371	0.315
-634.580	-200.000	0.001	-0.197
-633.565	-73.115	0.239	0.088
-632.551	-200.000	-0.018	-0.329
-631.536	-200.000	0.033	-0.203
-630.522	-11.303	0.122	0.081
-629.507	-200.000	0.007	0.351
-628.492	-120.525	0.295	0.050
-627.478	317.768	0.085	-0.161
-626.463	-200.000	0.009	-0.143
-625.449	-200.000	0.004	0.146
-624.434	132.748	0.040	-0.052
-623.419	90.699	0.052	-0.058
-622.405	-200.000	0.061	0.318
-621.390	800.000	0.097	0.299
-620.376	525.478	-0.095	0.225
-619.361	66.954	0.122	0.124
-618.346	-110.821	-0.210	0.043
-617.332	72.558	-0.238	0.248
-616.317	197.562	0.123	0.188
-615.303	-200.000	-0.077	-0.421
-614.288	-121.578	-0.087	0.015
-613.273	-200.000	-0.029	0.224
-612.259	-96.596	-0.062	0.016
-611.244	-200.000	0.040	0.325
-610.230	550.028	-0.012	-0.029
-609.215	94.188	0.229	-0.261
-608.201	583.215	0.118	0.290
-607.186	44.190	-0.147	-0.136
-606.171	-87.572	-0.257	-0.078
-605.157	-88.014	-0.134	0.040
-604.142	800.000	-0.117	0.352
-603.128	-136.669	-0.113	0.013
-602.113	-200.000	-0.012	-0.247
-601.098	500.770	0.112	-0.259
-600.084	-184.509	0.519	0.008
-599.069	-200.000	0.008	-0.282
-598.055	-200.000	0.047	-0.395
-597.040	-2.170	-0.132	0.093
-596.025	-87.365	0.406	0.123
-595.011	800.000	0.042	0.125
-593.996	281.549	0.115	-0.206
-592.982	-200.000	-0.043	-0.339
-591.967	-200.000	0.012	-0.198
-590.952	-65.763	0.215	0.086
-589.938	70.007	0.238	0.246
-588.923	-158.171	0.165	0.010
-587.909	-200.000	0.004	-0.280
-586.894	48.625	0.036	-0.034
-585.879	713.676	-0.127	-0.337
-584.865	224.861	-0.006	-0.009
-583.850	-62.929	0.108	-0.045
-582.836	-178.767	0.124	0.003
-581.821	-115.119	-0.202	0.038
-580.806	38.828	-0.149	-0.133
-579.792	-84.429	0.226	0.071
-578.777	-72.459	0.203	0.075
-577.763	83.216	-0.040	0.044
-576.748	298.936	-0.182	-0.335
-575.733	-200.000	0.002	0.237
-574.719	219.631	-0.134	0.215
-573.704	-93.512	0.466	0.129
-572.690	-200.000	-0.077	-0.439
-571.675	-98.547	0.302	-0.077
-570.661	-77.678	0.183	-0.063
-569.646	-200.000	-0.013	0.091
-568.631	-118.925	-0.101	0.018
-567.617	-200.000	-0.002	-0.385
-566.602	-200.000	-0.037	0.171
-565.588	-127.508	-0.171	-0.025
-564.573	-200.000	-0.024	-0.121
-563.558	-179.915	0.223	-0.005
-562.544	599.523	0.044	0.110
-561.529	34.978	-0.131	0.115
-560.515	-124.501	0.201	0.031
-559.500	-84.917	-0.071	0.022
-558.485	-82.835	-0.342	0.111
-557.471	-65.811	-0.347	-0.139
-556.456	-200.000	-0.065	-0.312
-555.442	800.000	0.112	0.338
-554.427	31.723	-0.166	0.143
-553.412	-200.000	-0.023	-0.239
-552.398	-200.000	-0.022	0.200
-551.383	-34.208	-0.266	0.146
-550.369	191.136	-0.085	-0.128
-549.354	800.000	0.029	-0.086
-548.339	-200.000	-0.069	0.332
-547.325	-0.627	-0.012	0.009
-546.310	59.830	-0.035	0.035
-545.296	496.180	0.041	-0.094
-544.281	109.296	0.212	0.254
-543.266	-200.000	-0.010	-0.297
-542.252	-138.162	-0.241	-0.027
-541.237	677.458	0.095	-0.248
-540.223	89.120	0.072	-0.081
-539.208	-114.228	-0.260	0.050
-538.193	-129.144	-0.310	-0.043
-537.179	-118.190	-0.082	0.015
-536.164	800.000	-0.020	-0.073
-535.150	800.000	0.062	0.257
-534.135	579.825	-0.021	-0.052
-533.121	-51.444	0.341	-0.159
-532.106	-200.000	-0.003	-0.187
-531.091	5.122	0.085	-0.063
-530.077	317.364	-0.144	0.271
-529.062	-90.285	0.369	-0.107
-528.048	235.324	-0.146	0.241
-527.033	-200.000	-0.006	-0.102
-526.018	-200.000	-0.077	0.401
-525.004	-75.766	-0.276	-0.098
-523.989	-200.000	0.038	-0.180
-522.975	18.790	0.335	-0.268
-521.960	-81.491	-0.182	-0.060
-520.945	-174.490	0.098	0.003
-519.931	-47.900	-0.183	0.089
-518.916	800.000	0.117	0.329
-517.902	-35.753	-0.083	0.045
-516.887	800.000	0.103	-0.330
-515.872	-98.389	-0.202	-0.052
-514.858	705.777	-0.035	0.092
-513.843	-25.010	-0.145	0.086
-512.829	174.487	0.186	0.269
-511.814	1.206	-0.338	-0.243
-510.799	-132.268	-0.184	0.024
-509.785	319.792	0.138	-0.262
-508.770	-87.991	0.366	-0.110
-507.756	248.295	-0.188	-0.317
-506.741	-4.957	0.127	-0.088
-505.726	520.579	-0.054	0.127
-504.712	-29.892	0.205	-0.117
-503.697	45.633	0.059	-0.054
-502.683	295.309	0.049	-0.090
-501.668	-74.849	-0.339	-0.121
-500.653	-200.000	-0.009	0.234
-499.639	-200.000	-0.006	-0.149
-498.624	-191.509	0.131	0.001
-497.610	-9.735	-0.415	-0.276
-496.595	226.679	-0.119	-0.193
-495.581	-200.000	0.023	-0.120
-494.566	43.463	-0.078	-0.071
-493.551	-122.570	-0.198	0.032
-492.537	226.162	0.118	-0.191
-491.522	800.000	0.041	-0.121
-490.508	-87.195	-0.313	0.095
-489.493	-200.000	0.014	-0.101
-488.478	-143.621	0.147	0.014
-487.464	31.837	-0.169	-0.145
-486.449	185.771	-0.127	-0.188
-485.435	240.379	-0.029	-0.049
-484.420	321.998	0.040	-0.076
-483.405	733.087	-0.161	0.430
-482.391	-93.430	-0.226	0.062
-481.376	-200.000	-0.016	-0.283
-480.362	210.667	-0.129	-0.202
-479.347	-143.325	-0.380	0.036
-478.332	-40.447	0.325	0.168
-477.318	743.201	0.054	-0.145
-476.303	21.433	0.255	0.206
-475.289	-200.000	0.052	0.409
-474.274	68.912	-0.256	0.263
-473.259	-200.000	-0.015	0.098
-472.245	235.064	0.033	-0.055
-471.230	19.293	0.109	0.087
-470.216	-124.661	0.264	0.041
-469.201	-150.376	0.085	0.007
-468.186	800.000	-0.054	-0.155
-467.172	-98.829	-0.174	0.044
-466.157	-200.000	0.001	0.062
-465.143	-200.000	-0.004	0.312
-464.128	-200.000	0.005	0.083
-463.113	-200.000	-0.028	0.136
-462.099	-74.150	-0.227	-0.082
-461.084	25.704	0.207	0.172
-460.070	719.244	-0.154	0.408
-459.055	-58.941	0.137	0.059
-458.040	223.219	-0.079	-0.127
-457.026	-169.986	0.225	-0.008
-456.011	71.276	0.141	-0.146
-454.997	-147.420	0.228	-0.019
-453.982	-200.000	0.015	0.126
-452.968	-118.020	-0.227	0.040
-451.953	-66.848	0.222	0.087
-450.938	24.279	-0.213	0.175
-449.924	-65.226	-0.320	0.128
-448.909	-65.997	0.368	0.146
-447.895	-81.214	0.207	0.068
-446.880	19.544	-0.214	0.171
-445.865	-29.889	-0.159	0.090
-444.851	21.555	-0.215	-0.174
-443.836	800.000	-0.030	-0.122
-442.822	-166.543	0.397	0.016
-441.807	-183.565	-0.129	0.002
-440.792	-89.680	0.039	0.011
-439.778	800.000	-0.025	0.105
-438.763	107.421	0.077	0.091
-437.749	244.518	-0.020	-0.033
-436.734	382.805	0.040	0.081
-435.719	800.000	0.052	0.194
-434.705	-47.619	0.235	0.114
-433.690	-59.141	0.222	-0.095
-432.676	-200.000	-0.025	0.355
-431.661	53.482	0.204	0.194
-430.646	-195.645	0.429	-0.003
-429.632	234.432	0.179	-0.294
-428.617	-200.000	-0.014	0.075
-427.603	-124.315	-0.263	-0.041
-426.588	90.200	0.189	0.210
-425.573	-64.043	0.141	-0.057
-424.559	164.970	-0.032	0.045
-423.544	68.687	0.204	-0.209
-422.530	342.364	0.185	-0.360
-421.515	-57.335	-0.415	0.181
-420.500	555.472	-0.092	-0.220
-419.486	528.932	0.093	0.217
-418.471	-175.299	0.097	-0.003
-417.457	-200.000	-0.002	-0.488
-416.442	91.961	-0.193	0.217
-415.428	-79.350	0.146	-0.049
-414.413	-18.467	-0.298	-0.185
-413.398	-101.065	-0.184	-0.045
-412.384	488.896	-0.176	-0.401
-411.369	800.000	0.098	-0.291
-410.355	-45.181	0.189	-0.093
-409.340	-82.357	-0.238	-0.077
-408.325	273.975	-0.120	0.210
-407.311	-200.000	0.049	0.304
-406.296	99.374	0.167	-0.191
-405.282	65.762	0.230	0.231
-404.267	-200.000	0.052	-0.511
-403.252	800.000	0.052	-0.153
-402.238	-200.000	-0.019	0.114
-401.223	-43.387	-0.402	0.202
-400.209	80.880	-0.223	-0.239
-399.194	-200.000	-0.013	-0.059
-398.179	-131.379	-0.347	0.046
-397.165	40.804	-0.110	-0.098
-396.150	-2.003	-0.112	0.078
-395.136	-191.462	-0.254	-0.003
-394.121	-200.000	0.027	-0.157
-393.106	-122.727	-0.195	0.031
-392.092	-200.000	0.003	0.228
-391.077	-120.453	-0.058	-0.010
-390.063	-46.781	0.091	-0.044
-389.048	210.457	-0.058	-0.091
-388.033	152.838	-0.151	0.205
-387.019	-112.753	-0.200	-0.039
-386.004	425.036	-0.153	-0.326
-384.990	800.000	-0.166	-0.495
-383.975	588.341	0.104	0.254
-382.960	-117.702	0.323	-0.058
-381.946	-115.749	0.117	0.022
-380.931	800.000	0.077	0.238
-379.917	-1.348	0.171	-0.120
-378.902	69.183	-0.316	0.323
-377.888	101.860	-0.065	-0.075
-376.873	-54.146	0.257	-0.116
-375.858	111.667	0.056	0.067
-374.844	4.085	-0.113	-0.082
-373.829	57.057	-0.076	-0.073
-372.815	150.441	0.102	-0.138
-371.800	800.000	0.078	-0.224
-370.785	-172.364	-0.206	0.007
-369.771	-157.343	0.062	0.004
-368.756	-35.848	-0.193	-0.104
-367.742	800.000	0.072	-0.304
-366.727	-12.040	-0.246	0.160
-365.712	-65.385	-0.320	0.128
-364.698	117.155	0.093	0.114
-363.683	800.000	-0.012	-0.032
-362.669	-29.503	-0.189	0.107
-361.654	-200.000	-0.000	-0.120
-360.639	13.048	0.271	0.208
-359.625	411.765	-0.090	0.189
-358.610	-200.000	-0.012	0.162
-357.596	800.000	-0.085	-0.238
-356.581	132.397	-0.125	-0.159
-355.566	-31.902	0.489	-0.272
-354.552	800.000	0.011	0.035
-353.537	800.000	-0.101	0.330
-352.523	-70.537	-0.088	0.033
-351.508	-200.000	0.046	-0.250
-350.493	-45.147	-0.242	-0.119
-349.479	48.462	-0.057	-0.053
-348.464	2.633	0.210	-0.151
-347.450	-136.954	-0.194	0.022
-346.435	72.737	-0.078	-0.081
-345.420	425.086	-0.123	0.262
-344.406	533.874	-0.058	0.137
-343.391	-107.831	0.292	-0.063
-342.377	-99.133	0.159	0.040
-341.362	-76.860	-0.365	-0.126
-340.348	17.537	-0.082	-0.065
-339.333	-13.829	0.195	-0.125
-338.318	-133.294	0.312	-0.039
-337.304	95.001	0.126	0.142
-336.289	-7.861	0.225	-0.150
-335.275	182.695	-0.162	-0.238
-334.260	550.003	0.022	-0.053
-333.245	31.572	-0.034	0.029
-332.231	-200.000	0.000	-0.063
-331.216	-19.526	0.047	0.029
-330.202	-65.157	0.122	0.049
-329.187	-117.186	-0.263	0.047
-328.172	-26.269	0.237	0.138
-327.158	-14.196	0.323	0.206
-326.143	-98.850	0.078	0.020
-325.129	-107.801	0.172	-0.037
-324.114	-200.000	0.049	0.257
-323.099	-63.639	0.468	0.190
-322.085	-60.040	0.213	0.090
-321.070	-200.000	-0.017	0.143
-320.056	-138.985	-0.102	-0.011
-319.041	-88.969	-0.389	0.114
-318.026	73.742	0.142	-0.147
-317.012	-17.376	0.378	0.236
-315.997	-200.000	-0.043	-0.205
-314.983	-200.000	-0.023	-0.420
-313.968	-49.403	-0.122	-0.058
-312.953	-152.952	-0.259	0.018
-311.939	-0.697	0.026	0.018
-310.924	800.000	0.009	-0.031
-309.910	354.829	0.130	0.255
-308.895	-143.068	0.205	0.020
-307.880	-200.000	-0.025	-0.175
-306.866	-137.685	0.085	0.010
-305.851	-52.832	0.354	0.161
-304.837	-171.741	0.341	-0.011
-303.822	27.471	-0.171	-0.142
-302.807	111.397	-0.133	-0.159
-301.793	176.445	-0.137	0.197
-300.778	236.930	0.080	0.132
-299.764	383.519	-0.090	-0.184
-298.749	-28.229	-0.212	-0.121
-297.735	-88.150	-0.121	-0.036
-296.720	759.261	0.051	0.137
-295.705	398.734	-0.223	0.461
-294.691	-200.000	-0.026	0.199
-293.676	8.194	0.238	0.177
-292.662	221.942	0.143	-0.228
-291.647	53.390	-0.121	0.115
-290.632	-200.000	-0.011	-0.258
-289.618	-200.000	-0.051	-0.328
-288.603	113.817	0.083	0.100
-287.589	292.064	0.299	-0.539
-286.574	-200.000	-0.015	0.186
-285.559	-200.000	0.000	0.062
-284.545	-200.000	0.008	0.210
-283.530	-89.988	-0.127	0.037
-282.516	148.721	0.152	-0.204
-281.501	1.997	0.106	-0.076
-280.486	111.476	0.078	0.093
-279.472	571.684	0.058	-0.141
-278.457	386.311	0.079	0.161
-277.443	182.358	0.118	0.172
-276.428	-145.974	-0.134	0.012
-275.413	800.000	0.090	-0.271
-274.399	8.931	0.177	0.132
-273.384	-9.704	-0.056	-0.037
-272.370	-80.882	0.141	-0.046
-271.355	800.000	-0.084	0.323
-270.340	-44.206	-0.230	-0.114
-269.326	-141.003	-0.033	0.003
-268.311	-36.052	0.363	-0.194
-267.297	-121.973	-0.177	-0.029
-266.282	-200.000	0.011	0.130
-265.267	800.000	-0.064	0.220
-264.253	-135.251	-0.165	0.020
-263.238	44.933	-0.097	-0.088
-262.224	800.000	-0.039	0.113
-261.209	-43.063	0.115	-0.058
-260.195	-157.179	0.222	-0.013
-259.180	151.684	0.076	-0.102
-258.165	155.804	0.055	0.075
-257.151	-200.000	0.079	-0.404
-256.136	27.444	0.026	-0.022
-255.122	34.909	-0.135	0.117
-254.107	24.895	0.143	0.117
-253.092	-200.000	0.015	0.085
-252.078	71.415	0.059	0.061
-251.063	192.668	0.179	-0.268
-250.049	12.384	-0.292	-0.222
-249.034	351.209	0.049	-0.096
-248.019	144.454	0.136	-0.179
-247.005	-11.092	-0.201	-0.131
-245.990	279.638	-0.060	0.106
-244.976	-200.000	-0.010	0.173
-243.961	-44.127	0.322	-0.160
-242.946	104.135	-0.117	0.136
-241.932	186.530	0.125	-0.184
-240.917	277.734	0.156	-0.274
-239.903	459.230	-0.218	0.479
-238.888	3.873	-0.259	0.187
-237.873	-200.000	0.022	0.147
-236.859	-34.187	-0.205	-0.111
-235.844	-26.083	0.279	-0.162
-234.830	37.908	-0.086	-0.075
-233.815	-171.589	-0.181	-0.006
-232.800	-200.000	-0.022	0.419
-231.786	800.000	0.127	0.458
-230.771	-200.000	-0.063	-0.312
-229.757	-154.808	0.091	0.006
-228.742	179.435	0.156	0.226
-227.727	9.925	0.196	-0.147
-226.713	800.000	-0.065	0.187
-225.698	-74.491	0.178	-0.063
-224.684	-155.254	0.034	0.002
-223.669	-91.537	0.174	-0.049
-222.655	-148.773	-0.094	0.008
-221.640	22.517	0.298	0.241
-220.625	-92.864	0.278	-0.077
-219.611	-130.887	-0.118	0.016
-218.596	44.717	-0.332	0.301
-217.582	-31.062	0.202	-0.113
-216.567	-82.976	0.215	-0.069
-215.552	-200.000	0.009	0.070
-214.538	-143.247	0.274	0.026
-213.523	-22.221	-0.171	0.102
-212.509	3.736	-0.162	-0.117
-211.494	-200.000	-0.003	-0.122
-210.479	-44.585	0.371	0.183
-209.465	105.596	-0.202	-0.236
-208.450	130.881	-0.095	-0.120
-207.436	-116.900	-0.066	-0.012
-206.421	-200.000	-0.046	0.218
-205.406	-113.896	-0.276	0.053
-204.392	-200.000	-0.059	0.291
-203.377	-139.720	-0.235	0.025
-202.363	800.000	-0.034	-0.144
-201.348	800.000	-0.085	-0.363
-200.333	688.982	0.082	0.212
-199.319	84.033	0.120	0.129
-198.304	56.233	0.139	0.133
-197.290	133.360	-0.230	0.293
-196.275	-70.034	-0.304	0.114
-195.260	146.796	0.210	0.279
-194.246	-200.000	-0.025	-0.135
-193.231	-17.270	0.134	0.083
-192.217	-200.000	-0.016	-0.154
-191.202	-20.526	-0.312	0.189
-190.187	12.708	-0.302	-0.230
-189.173	228.053	-0.096	-0.155
-188.158	-82.543	-0.127	0.041
-187.144	306.182	-0.160	-0.294
-186.129	800.000	-0.032	0.105
-185.114	-114.230	0.350	0.067
-184.100	269.918	0.033	-0.057
-183.085	61.019	0.223	-0.218
-182.071	-111.156	-0.534	0.108
-181.056	-200.000	-0.034	0.400
-180.042	-8.617	0.167	0.111
-179.027	451.872	-0.136	-0.295
-178.012	81.436	0.022	0.023
-176.998	152.172	-0.154	0.207
-175.983	50.697	-0.189	0.176
-174.969	-5.780	0.227	-0.153
-173.954	1.064	0.317	-0.224
-172.939	-185.543	0.346	-0.005
-171.925	800.000	-0.083	0.340
-170.910	149.631	-0.127	0.170
-169.896	-200.000	0.019	-0.301
-168.881	-103.623	-0.177	0.041
-167.866	800.000	-0.052	0.223
-166.852	221.320	0.108	-0.171
-165.837	-200.000	0.007	-0.129
-164.823	185.420	-0.094	-0.138
-163.808	800.000	-0.060	0.202
-162.793	-44.635	-0.206	-0.101
-161.779	800.000	-0.102	0.306
-160.764	451.587	-0.085	-0.185
-159.750	-200.000	-0.008	0.357
-158.735	-200.000	-0.002	-0.109
-157.720	-45.627	-0.170	-0.083
-156.706	792.023	0.089	-0.242
-155.691	-200.000	0.000	0.358
-154.677	-200.000	0.006	-0.033
-153.662	210.470	-0.212	-0.328
-152.647	87.900	0.218	0.238
-151.633	-40.833	0.136	0.069
-150.618	800.000	-0.068	0.245
-149.604	-79.305	-0.004	0.001
-148.589	789.676	0.037	-0.099
-147.574	-102.481	0.097	0.023
-146.560	-15.899	0.117	0.074
-145.545	-78.983	0.144	0.048
-144.531	298.496	0.097	-0.176
-143.516	-106.033	0.093	0.021
-142.502	-12.437	-0.171	-0.110
-141.487	-88.758	0.181	0.053
-140.472	-65.234	0.016	-0.007
-139.458	600.829	0.141	-0.344
-138.443	-25.568	0.039	-0.022
-137.429	407.500	-0.073	-0.151
-136.414	344.126	-0.041	-0.079
-135.399	8.616	-0.293	0.217
-134.385	-153.223	-0.062	-0.004
-133.370	22.351	-0.184	0.148
-132.356	377.582	0.062	-0.125
-131.341	361.914	-0.050	-0.098
-130.326	281.896	-0.213	-0.375
-129.312	276.844	0.081	0.142
-128.297	-200.000	0.016	0.274
-127.283	-83.229	-0.211	0.067
-126.268	388.113	-0.042	0.085
-125.253	78.051	-0.147	0.154
-124.239	800.000	0.075	-0.235
-123.224	253.408	0.095	-0.159
-122.210	169.816	0.067	0.095
-121.195	800.000	-0.032	-0.126
