DTS Sentinel unit serial number:	SN413079Multiplexer serial number:	ORYXHardware model number:	OX4-SRSoftware version number:	ORYX F/W v4.00 Oryx Data Collector v3.7.2.0data status	okinstallation	princeton_trtdifferential loss correction	single-endedforward channel	channel 3reverse channel	N/Adate	2019/09/13time	15:36:35forward acquisition time	60.00reverse acquisition time	0.00gamma	496.2192k internal	0.2306k external	0.2306temperature offset calibration	1.0141default loss term (dB/km)	0.3790temperature slope calibration	1.0000multiplexer offset coefficient	1.0000multiplexer slope coefficient	1.0000fibre end	0.00T internal ref (°C)	34.95T ext. ref 1 (°C)	4.76T ext. ref 2 (°C)	29.34length (m)	temperature (°C)	Stokes	anti-Stokes-747.200	665.574	-0.054	0.141
-746.185	-4.509	0.306	0.215
-745.171	80.918	0.129	0.141
-744.156	-56.692	-0.249	0.112
-743.142	800.000	0.095	0.331
-742.127	-16.872	0.101	-0.065
-741.112	-200.000	0.022	-0.145
-740.098	360.661	-0.074	-0.152
-739.083	800.000	-0.085	0.317
-738.069	28.481	0.073	0.062
-737.054	-16.968	-0.329	-0.211
-736.039	134.718	-0.356	-0.470
-735.025	246.129	0.186	0.319
-734.010	470.938	-0.082	-0.188
-732.996	-73.429	-0.253	-0.094
-731.981	-200.000	-0.004	-0.046
-730.966	239.197	-0.117	-0.197
-729.952	89.416	-0.160	-0.182
-728.937	-152.784	-0.298	0.021
-727.923	-64.163	-0.403	0.167
-726.908	-141.161	-0.030	0.003
-725.894	90.618	-0.357	-0.407
-724.879	-61.584	-0.322	-0.137
-723.864	-200.000	0.015	0.168
-722.850	25.655	-0.019	-0.016
-721.835	289.058	0.150	-0.277
-720.821	-154.009	-0.068	0.005
-719.806	235.612	0.061	-0.102
-718.791	159.057	0.112	0.158
-717.777	-45.661	-0.120	-0.061
-716.762	-200.000	0.019	-0.202
-715.748	800.000	0.104	-0.384
-714.733	547.750	0.120	-0.292
-713.718	-76.365	-0.058	-0.021
-712.704	277.686	-0.031	0.056
-711.689	-174.824	-0.201	0.006
-710.675	-88.966	0.228	0.069
-709.660	800.000	-0.034	-0.132
-708.645	2.744	-0.092	-0.068
-707.631	-200.000	0.010	0.393
-706.616	241.979	-0.171	0.291
-705.602	-200.000	0.028	0.413
-704.587	-91.437	0.118	0.034
-703.572	800.000	0.069	-0.298
-702.558	216.868	-0.040	-0.064
-701.543	795.289	-0.107	-0.299
-700.529	-138.925	0.148	0.016
-699.514	26.002	-0.093	-0.079
-698.499	38.339	-0.275	-0.249
-697.485	-27.283	0.300	-0.178
-696.470	34.850	-0.094	-0.084
-695.456	-200.000	-0.026	0.309
-694.441	-200.000	0.024	0.143
-693.426	-200.000	-0.028	0.399
-692.412	-200.000	-0.011	0.306
-691.397	25.872	-0.154	-0.130
-690.383	86.536	-0.133	-0.149
-689.368	-94.847	0.178	-0.049
-688.354	153.468	0.199	0.277
-687.339	10.395	0.141	-0.109
-686.324	296.504	-0.099	-0.185
-685.310	-200.000	0.034	0.222
-684.295	-106.059	-0.046	0.011
-683.281	-152.466	-0.214	-0.016
-682.266	-174.199	-0.151	-0.004
-681.251	-42.076	0.170	0.089
-680.237	-200.000	0.041	0.246
-679.222	-112.518	-0.258	-0.052
-678.208	-139.964	-0.255	-0.027
-677.193	-101.868	-0.097	0.024
-676.178	-141.131	0.167	0.017
-675.164	140.980	-0.048	0.065
-674.149	-200.000	0.011	0.122
-673.135	138.547	-0.287	0.382
-672.120	800.000	0.061	0.249
-671.105	116.881	-0.067	-0.084
-670.091	-4.249	0.056	0.040
-669.076	-200.000	-0.023	-0.264
-668.062	252.168	0.099	-0.171
-667.047	58.398	-0.077	-0.077
-666.032	800.000	-0.048	0.147
-665.018	-163.067	-0.197	-0.010
-664.003	-138.479	0.013	0.001
-662.989	80.472	-0.067	-0.073
-661.974	-129.839	-0.163	0.023
-660.959	800.000	-0.060	-0.236
-659.945	-82.449	-0.136	0.045
-658.930	-111.814	0.246	0.050
-657.916	-112.322	0.130	0.026
-656.901	-200.000	-0.026	-0.169
-655.886	-200.000	-0.004	-0.061
-654.872	-200.000	0.021	0.246
-653.857	800.000	0.059	-0.196
-652.843	-95.373	0.180	-0.049
-651.828	800.000	-0.058	0.219
-650.814	-108.400	0.244	-0.053
-649.799	42.782	0.053	-0.049
-648.784	82.459	-0.265	-0.292
-647.770	-200.000	0.007	-0.182
-646.755	-83.508	-0.244	0.079
-645.741	-34.364	-0.271	-0.151
-644.726	293.245	0.055	-0.101
-643.711	156.377	-0.172	-0.241
-642.697	-34.065	-0.296	-0.165
-641.682	179.629	0.141	-0.210
-640.668	280.933	0.113	0.206
-639.653	800.000	-0.066	-0.212
-638.638	800.000	0.117	-0.486
-637.624	-86.788	-0.041	-0.013
-636.609	-90.303	-0.129	0.038
-635.595	-200.000	0.019	0.240
-634.580	800.000	0.113	-0.321
-633.565	293.626	0.133	0.247
-632.551	27.594	-0.238	-0.203
-631.536	-26.651	0.057	0.034
-630.522	-11.273	-0.161	-0.107
-629.507	-174.276	-0.116	0.003
-628.492	52.857	0.186	0.180
-627.478	485.875	-0.123	0.285
-626.463	-147.980	-0.292	0.025
-625.449	305.632	-0.215	-0.404
-624.434	-88.470	0.056	-0.017
-623.419	48.991	-0.117	0.112
-622.405	-200.000	0.021	-0.209
-621.390	-18.976	-0.163	-0.103
-620.376	-73.051	-0.099	-0.037
-619.361	-9.096	0.199	0.135
-618.346	-115.745	0.211	0.040
-617.332	35.073	0.146	0.129
-616.317	-162.869	0.205	-0.010
-615.303	383.374	-0.136	-0.284
-614.288	-19.404	-0.185	-0.116
-613.273	800.000	0.067	0.207
-612.259	-12.435	0.174	-0.115
-611.244	63.484	0.160	0.162
-610.230	-59.120	-0.224	-0.098
-609.215	-66.884	-0.154	0.062
-608.201	39.837	-0.269	0.244
-607.186	-30.946	0.297	-0.170
-606.171	-102.267	-0.385	-0.094
-605.157	434.660	0.085	-0.186
-604.142	800.000	-0.083	-0.338
-603.128	-148.696	0.132	-0.011
-602.113	-200.000	-0.003	-0.107
-601.098	-189.632	0.394	0.005
-600.084	248.325	0.089	0.152
-599.069	-34.056	0.162	0.090
-598.055	800.000	-0.044	-0.125
-597.040	-92.405	0.358	0.102
-596.025	-200.000	-0.031	0.407
-595.011	0.819	-0.092	-0.067
-593.996	319.910	-0.119	-0.228
-592.982	-200.000	-0.017	-0.131
-591.967	-200.000	-0.072	-0.351
-590.952	800.000	-0.141	-0.430
-589.938	-119.547	-0.359	-0.063
-588.923	22.779	-0.173	-0.143
-587.909	44.270	0.052	0.049
-586.894	-200.000	-0.019	-0.188
-585.879	435.666	-0.078	-0.171
-584.865	37.431	-0.159	-0.142
-583.850	195.391	-0.113	-0.173
-582.836	-55.133	-0.121	-0.055
-581.821	-46.674	0.080	-0.040
-580.806	-200.000	-0.030	0.202
-579.792	-47.008	0.169	0.083
-578.777	-100.741	-0.002	0.001
-577.763	-75.816	0.043	-0.016
-576.748	-200.000	-0.030	0.235
-575.733	-92.565	-0.082	-0.023
-574.719	503.161	-0.030	-0.069
-573.704	-126.338	0.236	-0.036
-572.690	-200.000	-0.282	-0.000
-571.675	-200.000	-0.033	-0.181
-570.661	-64.248	-0.312	0.128
-569.646	300.566	-0.074	0.138
-568.631	-10.191	-0.041	-0.027
-567.617	-131.754	-0.031	0.004
-566.602	-50.262	-0.320	-0.153
-565.588	-56.446	-0.193	-0.087
-564.573	58.925	-0.086	-0.085
-563.558	12.116	-0.116	-0.090
-562.544	-200.000	0.048	0.280
-561.529	13.449	-0.076	-0.060
-560.515	800.000	-0.023	-0.080
-559.500	429.287	-0.099	0.216
-558.485	93.862	0.191	0.219
-557.471	-200.000	0.057	-0.256
-556.456	127.944	-0.139	-0.179
-555.442	648.349	0.146	-0.376
-554.427	800.000	0.029	0.107
-553.412	-41.933	0.210	0.109
-552.398	-200.000	-0.008	0.142
-551.383	-10.052	0.265	-0.178
-550.369	-41.181	0.320	0.167
-549.354	682.156	0.155	-0.408
-548.339	62.030	0.152	0.153
-547.325	-26.200	-0.166	-0.098
-546.310	47.972	0.152	0.144
-545.296	168.845	-0.151	0.217
-544.281	-109.180	0.288	-0.062
-543.266	107.855	-0.258	0.310
-542.252	44.086	-0.113	-0.105
-541.237	-54.806	-0.177	0.081
-540.223	800.000	0.055	0.200
-539.208	-94.261	0.235	0.065
-538.193	-200.000	0.031	0.198
-537.179	-200.000	0.015	0.110
-536.164	-200.000	-0.019	0.088
-535.150	-200.000	-0.013	0.094
-534.135	111.792	0.101	-0.123
-533.121	-149.299	-0.042	0.003
-532.106	-77.198	-0.206	-0.073
-531.091	-200.000	-0.004	0.052
-530.077	-13.249	0.219	-0.144
-529.062	248.411	-0.117	0.200
-528.048	372.013	0.094	-0.192
-527.033	88.797	0.253	0.284
-526.018	800.000	-0.077	0.315
-525.004	785.314	0.101	0.279
-523.989	77.028	0.126	0.135
-522.975	-200.000	0.001	-0.184
-521.960	378.121	-0.046	-0.094
-520.945	-2.243	-0.093	-0.066
-519.931	-200.000	-0.026	-0.156
-518.916	84.922	-0.220	-0.244
-517.902	-106.648	0.123	-0.028
-516.887	800.000	-0.121	-0.372
-515.872	-114.983	-0.175	-0.034
-514.858	155.891	-0.082	0.114
-513.843	0.289	-0.270	-0.194
-512.829	364.024	-0.035	0.071
-511.814	-133.766	-0.283	-0.036
-510.799	-177.771	-0.506	0.012
-509.785	-200.000	-0.030	-0.192
-508.770	300.136	-0.162	-0.301
-507.756	800.000	0.038	-0.117
-506.741	208.140	-0.134	-0.211
-505.726	487.354	-0.062	0.144
-504.712	-60.294	0.130	-0.056
-503.697	106.060	0.025	-0.030
-502.683	148.974	-0.176	0.240
-501.668	25.485	0.062	-0.052
-500.653	800.000	0.087	-0.290
-499.639	-94.833	0.302	-0.083
-498.624	-84.390	-0.304	-0.097
-497.610	103.930	0.315	0.373
-496.595	-200.000	0.007	-0.233
-495.581	800.000	-0.071	0.300
-494.566	-118.417	-0.088	-0.016
-493.551	227.757	-0.183	0.300
-492.537	-65.355	-0.135	0.055
-491.522	291.131	0.127	-0.233
-490.508	-145.688	0.193	0.017
-489.493	800.000	0.049	0.150
-488.478	19.492	-0.057	0.046
-487.464	-80.694	-0.060	0.020
-486.449	-32.527	0.189	0.106
-485.435	-97.833	0.300	0.078
-484.420	-200.000	-0.108	-0.497
-483.405	50.028	0.186	-0.176
-482.391	83.539	-0.178	-0.195
-481.376	75.141	-0.244	0.259
-480.362	-109.920	0.215	0.045
-479.347	-101.175	-0.209	-0.051
-478.332	-64.235	-0.280	0.115
-477.318	-106.906	0.047	0.011
-476.303	-122.462	-0.115	-0.019
-475.289	800.000	-0.016	-0.069
-474.274	120.727	0.094	-0.117
-473.259	67.507	0.170	-0.175
-472.245	-135.244	0.076	-0.009
-471.230	-10.793	-0.100	-0.067
-470.216	-100.653	0.278	-0.069
-469.201	-108.167	0.171	-0.037
-468.186	17.267	0.089	0.071
-467.172	271.040	-0.070	-0.124
-466.157	342.563	0.185	0.365
-465.143	-35.531	-0.125	0.068
-464.128	-82.837	0.024	-0.008
-463.113	-200.000	0.039	0.253
-462.099	800.000	0.070	0.304
-461.084	-81.860	0.358	0.118
-460.070	-29.843	0.093	-0.053
-459.055	242.250	-0.246	-0.414
-458.040	-200.000	0.016	0.133
-457.026	-14.150	-0.091	-0.059
-456.011	593.472	0.063	-0.156
-454.997	-200.000	-0.001	-0.097
-453.982	-25.638	0.213	0.126
-452.968	-86.493	-0.171	-0.053
-451.953	-39.494	0.120	-0.063
-450.938	-200.000	0.003	0.082
-449.924	-61.481	0.226	0.095
-448.909	-114.074	0.134	-0.026
-447.895	-142.004	-0.396	0.040
-446.880	493.420	0.020	-0.047
-445.865	45.793	-0.135	0.125
-444.851	178.313	-0.050	0.074
-443.836	-104.653	0.134	0.031
-442.822	315.132	-0.218	0.413
-441.807	-200.000	-0.064	0.318
-440.792	-73.383	0.204	-0.075
-439.778	-1.751	0.344	-0.244
-438.763	3.612	-0.079	0.058
-437.749	-115.600	0.308	0.058
-436.734	-44.684	0.151	-0.076
-435.719	-107.192	-0.327	-0.072
-434.705	522.350	0.094	0.223
-433.690	-123.935	0.323	-0.051
-432.676	-200.000	0.060	-0.316
-431.661	345.330	0.206	0.406
-430.646	233.157	-0.075	0.125
-429.632	65.345	-0.038	0.038
-428.617	-7.526	-0.110	-0.075
-427.603	-200.000	-0.013	0.150
-426.588	93.304	0.100	0.113
-425.573	-200.000	0.010	-0.217
-424.559	-147.468	-0.154	-0.013
-423.544	-107.175	0.188	-0.042
-422.530	39.511	-0.034	0.031
-421.515	591.071	0.034	-0.083
-420.500	-7.586	-0.082	0.056
-419.486	-200.000	0.050	0.320
-418.471	-108.122	-0.116	0.025
-417.457	-36.140	0.133	-0.072
-416.442	162.993	0.142	0.200
-415.428	-189.106	0.184	0.002
-414.413	-50.095	0.242	-0.115
-413.398	62.387	0.080	0.081
-412.384	-200.000	0.054	-0.266
-411.369	-182.457	0.209	-0.004
-410.355	-7.313	0.372	-0.253
-409.340	-131.358	0.409	0.054
-408.325	-122.143	0.069	-0.011
-407.311	-200.000	0.023	-0.240
-406.296	-200.000	0.009	-0.111
-405.282	-200.000	0.015	0.304
-404.267	-200.000	0.006	0.075
-403.252	169.309	0.090	-0.128
-402.238	325.239	-0.051	0.098
-401.223	157.109	-0.227	-0.315
-400.209	-200.000	-0.040	0.259
-399.194	710.494	0.187	0.496
-398.179	127.449	-0.092	0.117
-397.165	140.449	-0.103	-0.136
-396.150	-136.477	-0.069	-0.008
-395.136	-167.366	-0.078	-0.003
-394.121	738.388	0.053	0.142
-393.106	146.293	0.196	0.263
-392.092	-150.141	-0.390	0.030
-391.077	800.000	-0.046	0.155
-390.063	-32.727	0.130	-0.073
-389.048	-128.525	-0.376	-0.054
-388.033	259.404	0.121	0.210
-387.019	632.061	-0.162	0.411
-386.004	-126.150	0.123	0.019
-384.990	-179.185	0.093	-0.002
-383.975	-82.985	-0.130	0.042
-382.960	-122.868	0.325	0.053
-381.946	-28.055	-0.112	0.065
-380.931	-45.100	-0.163	-0.081
-379.917	59.122	-0.126	0.124
-378.902	-200.000	0.012	-0.201
-377.888	323.054	0.155	-0.297
-376.873	-90.014	-0.230	0.067
-375.858	3.892	-0.268	0.196
-374.844	144.133	-0.039	-0.052
-373.829	486.090	0.057	-0.130
-372.815	70.228	-0.225	0.233
-371.800	-200.000	0.018	0.225
-370.785	-127.655	-0.130	0.019
-369.771	-200.000	0.037	0.204
-368.756	11.645	-0.268	-0.206
-367.742	-90.075	0.293	-0.086
-366.727	-123.153	0.062	0.010
-365.712	147.098	0.184	0.248
-364.698	-69.285	-0.119	0.046
-363.683	-200.000	-0.030	-0.270
-362.669	-113.881	0.575	0.112
-361.654	-56.805	-0.250	-0.111
-360.639	-55.011	0.124	-0.056
-359.625	-37.516	-0.304	0.163
-358.610	44.572	0.106	0.098
-357.596	65.655	-0.179	-0.182
-356.581	103.635	-0.104	0.123
-355.566	769.444	-0.095	-0.258
-354.552	800.000	0.018	-0.059
-353.537	800.000	-0.084	-0.278
-352.523	766.681	-0.090	0.246
-351.508	-125.470	0.322	-0.049
-350.493	-43.582	-0.056	0.028
-349.479	-156.647	0.141	0.009
-348.464	-118.358	0.275	0.049
-347.450	-56.888	-0.050	-0.022
-346.435	-171.642	0.301	-0.010
-345.420	800.000	-0.108	0.374
-344.406	16.512	-0.220	0.174
-343.391	-114.751	0.085	-0.016
-342.377	800.000	0.055	0.209
-341.362	-24.139	-0.130	0.078
-340.348	-76.781	-0.112	0.039
-339.333	162.936	-0.013	0.019
-338.318	-29.966	-0.200	-0.114
-337.304	643.370	-0.109	0.279
-336.289	73.547	0.173	0.181
-335.275	-125.145	-0.305	-0.047
-334.260	-119.863	-0.118	-0.020
-333.245	182.656	0.040	-0.059
-332.231	714.320	0.029	-0.076
-331.216	101.615	-0.048	0.056
-330.202	-130.883	0.429	0.058
-329.187	31.925	-0.269	0.232
-328.172	-128.621	-0.265	-0.038
-327.158	800.000	0.030	-0.126
-326.143	98.361	-0.190	-0.219
-325.129	-133.435	0.131	0.016
-324.114	800.000	-0.053	0.229
-323.099	-61.679	0.496	-0.208
-322.085	-200.000	-0.013	0.094
-321.070	-200.000	0.038	-0.478
-320.056	-96.668	0.132	-0.035
-319.041	-1.313	0.166	-0.117
-318.026	-200.000	-0.096	-0.506
-317.012	800.000	0.095	-0.266
-315.997	75.787	0.249	0.264
-314.983	156.922	0.051	-0.071
-313.968	-157.711	0.246	0.015
-312.953	37.751	-0.056	-0.049
-311.939	550.139	-0.083	0.200
-310.924	-200.000	0.015	0.154
-309.910	335.299	0.148	0.286
-308.895	37.075	-0.198	-0.175
-307.880	-200.000	-0.060	0.307
-306.866	77.960	0.100	0.107
-305.851	-126.539	-0.176	-0.026
-304.837	106.932	0.137	0.163
-303.822	-49.289	-0.229	-0.109
-302.807	800.000	-0.075	-0.310
-301.793	-107.860	0.220	0.048
-300.778	140.185	-0.176	-0.233
-299.764	-200.000	-0.007	0.041
-298.749	-54.585	0.255	0.115
-297.735	800.000	0.068	-0.245
-296.720	-29.622	0.187	0.107
-295.705	551.645	-0.059	-0.141
-294.691	151.479	-0.068	-0.093
-293.676	-200.000	0.002	0.032
-292.662	320.944	0.066	-0.125
-291.647	-21.609	0.089	0.054
-290.632	800.000	-0.069	-0.273
-289.618	-99.995	-0.135	-0.034
-288.603	-20.089	0.326	0.201
-287.589	482.757	0.136	0.309
-286.574	674.277	-0.132	0.342
-285.559	-29.892	0.085	0.048
-284.545	231.766	-0.140	-0.230
-283.530	42.105	0.163	-0.148
-282.516	-200.000	0.004	0.143
-281.501	800.000	-0.045	0.160
-280.486	61.287	-0.289	0.287
-279.472	-200.000	0.082	0.485
-278.457	120.709	-0.160	-0.198
-277.443	-51.534	-0.226	-0.106
-276.428	-63.806	-0.108	0.044
-275.413	49.142	0.107	-0.100
-274.399	-200.000	-0.016	-0.093
-273.384	45.519	0.207	-0.191
-272.370	-126.572	0.239	0.035
-271.355	111.417	-0.148	0.179
-270.340	61.135	-0.177	-0.176
-269.326	-91.714	0.159	-0.045
-268.311	-16.003	-0.174	-0.111
-267.297	476.697	0.081	0.184
-266.282	-200.000	-0.035	-0.220
-265.267	128.492	-0.204	0.259
-264.253	-80.475	0.227	0.075
-263.238	-200.000	-0.024	-0.164
-262.224	800.000	0.094	0.260
-261.209	-200.000	-0.001	-0.010
-260.195	-174.247	-0.373	0.011
-259.180	-136.524	0.307	0.036
-258.165	238.558	-0.141	-0.235
-257.151	-182.730	-0.099	-0.002
-256.136	160.849	0.103	0.143
-255.122	18.192	-0.159	-0.127
-254.107	200.319	0.192	0.294
-253.092	33.319	0.057	0.049
-252.078	188.905	-0.172	0.257
-251.063	-142.342	-0.422	-0.042
-250.049	767.911	0.052	-0.142
-249.034	800.000	-0.021	-0.061
-248.019	693.940	-0.025	0.066
-247.005	800.000	0.053	0.159
-245.990	-69.359	-0.032	-0.012
-244.976	-139.062	0.199	-0.022
-243.961	-115.517	-0.096	-0.018
-242.946	788.034	0.073	-0.200
-241.932	-18.971	0.383	0.238
-240.917	-200.000	0.003	0.029
-239.903	-163.329	0.370	0.018
-238.888	5.699	0.318	-0.234
-237.873	-19.633	-0.108	-0.066
-236.859	14.807	-0.259	-0.202
-235.844	-94.632	0.267	-0.073
-234.830	-76.243	-0.192	0.068
-233.815	-131.689	0.126	-0.016
-232.800	-200.000	-0.023	-0.213
-231.786	-169.864	-0.095	-0.003
-230.771	41.135	-0.176	0.159
-229.757	-200.000	0.001	-0.008
-228.742	81.975	0.205	-0.221
-227.727	713.488	0.077	0.204
-226.713	23.831	-0.204	0.167
-225.698	3.595	-0.039	0.028
-224.684	377.255	-0.127	0.258
-223.669	-200.000	0.048	-0.433
-222.655	374.486	-0.047	0.095
-221.640	328.135	-0.017	0.032
-220.625	-120.253	0.038	-0.006
-219.611	639.520	0.050	0.127
-218.596	800.000	0.082	-0.303
-217.582	-116.345	-0.190	-0.035
-216.567	800.000	-0.047	-0.201
-215.552	26.042	-0.090	0.075
-214.538	-74.160	0.282	-0.102
-213.523	305.094	-0.062	-0.116
-212.509	-200.000	-0.018	0.227
-211.494	-0.471	0.089	0.063
-210.479	-3.450	-0.322	0.223
-209.465	-106.763	-0.086	0.019
-208.450	143.871	0.132	0.175
-207.436	-54.548	-0.133	0.060
-206.421	-200.000	-0.026	0.214
-205.406	-154.822	-0.390	-0.026
-204.392	-187.542	-0.278	0.004
-203.377	800.000	-0.083	0.240
-202.363	325.946	0.075	-0.144
-201.348	311.447	0.208	0.388
-200.333	-198.685	0.242	-0.001
-199.319	-27.522	0.089	0.052
-198.304	800.000	-0.048	0.198
-197.290	148.222	-0.117	0.158
-196.275	19.930	0.136	-0.109
-195.260	-36.103	0.236	0.127
-194.246	-122.726	0.217	-0.035
-193.231	-200.000	0.043	-0.211
-192.217	-27.312	-0.129	-0.075
-191.202	-152.521	0.144	-0.010
-190.187	-200.000	-0.011	-0.123
-189.173	-1.726	-0.223	0.156
-188.158	-32.498	0.212	-0.118
-187.144	63.052	-0.191	0.191
-186.129	-200.000	-0.045	-0.229
-185.114	278.734	0.185	-0.329
-184.100	-33.270	0.169	0.093
-183.085	197.889	-0.144	-0.219
-182.071	276.663	0.148	0.262
-181.056	800.000	0.069	-0.246
-180.042	-7.249	0.142	0.096
-179.027	-91.070	0.272	0.078
-178.012	-67.822	0.400	0.156
-176.998	148.229	-0.208	-0.279
-175.983	-26.482	0.153	0.089
-174.969	-41.356	-0.131	-0.067
-173.954	-54.528	-0.339	-0.153
-172.939	164.824	-0.170	-0.238
-171.925	-173.163	-0.175	0.005
-170.910	-149.377	0.289	-0.023
-169.896	10.658	0.245	-0.186
-168.881	283.101	-0.105	-0.187
-167.866	384.906	0.063	-0.129
-166.852	194.560	0.107	0.162
-165.837	-67.872	0.255	0.099
-164.823	-5.743	-0.252	0.172
-163.808	-104.802	-0.112	-0.026
-162.793	482.063	0.158	0.358
-161.779	347.012	0.059	0.115
-160.764	323.464	-0.081	-0.154
-159.750	-61.651	-0.435	0.181
-158.735	-68.831	-0.244	0.094
-157.720	-98.606	-0.114	-0.029
-156.706	239.138	0.081	0.133
-155.691	-81.714	0.135	0.044
-154.677	-195.454	0.403	0.003
-153.662	-49.576	0.146	0.069
-152.647	-43.456	-0.110	-0.055
-151.633	-56.165	-0.150	-0.066
-150.618	-182.934	-0.209	-0.004
-149.604	210.127	0.062	0.096
-148.589	-66.303	0.361	0.143
-147.574	391.417	0.010	0.020
-146.560	-200.000	0.055	-0.262
-145.545	-143.913	-0.421	0.039
-144.531	-123.407	-0.352	-0.056
-143.516	516.608	0.152	0.354
-142.502	-4.622	-0.100	0.068
-141.487	-119.994	-0.031	-0.005
-140.472	-72.792	0.115	0.042
-139.458	-61.531	0.200	0.083
-138.443	482.112	-0.033	0.075
-137.429	800.000	0.041	-0.174
-136.414	-200.000	0.016	-0.094
-135.399	-34.404	-0.568	0.309
-134.385	12.908	0.420	0.323
-133.370	217.623	0.147	0.233
-132.356	-67.977	0.368	0.143
-131.341	61.513	-0.156	-0.155
-130.326	442.953	-0.131	0.286
-129.312	86.447	0.232	0.254
-128.297	800.000	0.067	0.229
-127.283	295.638	0.121	0.220
-126.268	76.107	0.194	0.204
-125.253	-200.000	0.022	-0.120
-124.239	118.569	-0.135	0.165
-123.224	168.719	-0.105	0.149
-122.210	-116.841	-0.241	0.044
