DTS Sentinel unit serial number:	SN413079Multiplexer serial number:	ORYXHardware model number:	OX4-SRSoftware version number:	ORYX F/W v4.00 Oryx Data Collector v3.7.2.0data status	okinstallation	princeton_trtdifferential loss correction	single-endedforward channel	channel 3reverse channel	N/Adate	2019/09/13time	17:52:35forward acquisition time	60.00reverse acquisition time	0.00gamma	496.2192k internal	0.2305k external	0.2305temperature offset calibration	1.0131default loss term (dB/km)	0.3790temperature slope calibration	1.0000multiplexer offset coefficient	1.0000multiplexer slope coefficient	1.0000fibre end	0.00T internal ref (°C)	35.39T ext. ref 1 (°C)	4.97T ext. ref 2 (°C)	28.54length (m)	temperature (°C)	Stokes	anti-Stokes-747.200	800.000	-0.043	-0.140
-746.185	-200.000	0.004	0.061
-745.171	-2.184	0.377	-0.269
-744.156	-75.357	0.091	0.033
-743.142	-129.389	-0.136	0.019
-742.127	-200.000	-0.005	-0.175
-741.112	-115.980	-0.337	0.064
-740.098	-6.041	-0.072	-0.050
-739.083	-149.449	-0.250	0.020
-738.069	189.167	0.108	-0.165
-737.054	8.460	-0.089	0.068
-736.039	-45.364	-0.150	0.076
-735.025	160.967	-0.132	0.187
-734.010	-84.351	-0.185	-0.059
-732.996	302.299	-0.059	-0.111
-731.981	25.410	0.281	0.238
-730.966	326.332	-0.069	-0.134
-729.952	800.000	0.094	-0.329
-728.937	-177.019	0.388	0.010
-727.923	141.733	-0.217	-0.292
-726.908	-6.104	0.162	-0.113
-725.894	-200.000	-0.007	-0.420
-724.879	-137.423	-0.477	-0.055
-723.864	-200.000	0.012	-0.133
-722.850	257.349	-0.057	0.100
-721.835	112.851	0.422	-0.520
-720.821	334.823	-0.104	-0.206
-719.806	82.889	-0.330	0.365
-718.791	-50.230	0.199	-0.096
-717.777	60.709	-0.215	0.217
-716.762	71.508	0.217	0.229
-715.748	-200.000	0.024	0.222
-714.733	-40.516	0.207	0.109
-713.718	260.004	0.095	0.167
-712.704	-76.821	-0.319	0.113
-711.689	63.599	-0.165	-0.168
-710.675	-1.391	-0.130	-0.093
-709.660	11.890	-0.229	-0.179
-708.645	800.000	0.044	-0.152
-707.631	-70.001	-0.236	-0.091
-706.616	69.236	-0.095	-0.099
-705.602	-85.022	0.065	0.021
-704.587	-133.248	-0.202	0.026
-703.572	-32.777	-0.401	0.226
-702.558	-46.469	0.331	0.165
-701.543	-169.433	0.212	0.008
-700.529	800.000	0.110	-0.377
-699.514	-48.625	-0.201	-0.098
-698.499	239.375	-0.086	-0.145
-697.485	-9.107	-0.098	0.067
-696.470	-200.000	0.002	0.187
-695.456	-162.824	-0.280	-0.014
-694.441	440.603	0.088	0.195
-693.426	800.000	0.115	-0.437
-692.412	800.000	0.029	0.113
-691.397	125.360	-0.076	0.097
-690.383	-173.997	0.239	-0.007
-689.368	-72.933	0.192	0.072
-688.354	435.666	0.181	0.399
-687.339	127.845	-0.174	0.225
-686.324	800.000	0.048	-0.190
-685.310	23.208	0.124	0.104
-684.295	113.139	0.160	-0.197
-683.281	-108.674	0.254	-0.055
-682.266	-40.735	0.492	-0.259
-681.251	91.546	-0.099	0.113
-680.237	2.470	0.053	0.039
-679.222	-200.000	-0.029	-0.176
-678.208	800.000	-0.066	-0.230
-677.193	115.971	-0.351	0.436
-676.178	-6.435	-0.323	0.223
-675.164	468.574	-0.123	0.281
-674.149	-77.260	0.235	0.083
-673.135	4.447	-0.303	0.226
-672.120	152.931	-0.149	0.207
-671.105	-56.282	-0.180	-0.081
-670.091	174.191	0.169	-0.248
-669.076	-44.964	-0.269	0.136
-668.062	323.518	-0.118	0.229
-667.047	-200.000	-0.029	0.248
-666.032	25.086	0.190	0.160
-665.018	-151.881	-0.149	-0.011
-664.003	25.784	0.315	0.266
-662.989	326.149	0.079	-0.154
-661.974	-72.435	-0.179	0.067
-660.959	99.792	-0.226	0.266
-659.945	800.000	-0.017	0.061
-658.930	253.050	0.007	-0.012
-657.916	-200.000	-0.041	0.273
-656.901	25.310	0.198	0.167
-655.886	-18.327	-0.343	-0.217
-654.872	-134.468	0.365	0.045
-653.857	44.533	-0.238	-0.222
-652.843	358.311	0.011	0.022
-651.828	102.911	-0.087	0.103
-650.814	429.544	0.070	0.155
-649.799	-96.044	0.528	-0.143
-648.784	-82.066	-0.080	-0.027
-647.770	-200.000	-0.010	-0.182
-646.755	288.750	0.161	-0.296
-645.741	-82.625	-0.220	0.072
-644.726	-147.872	-0.072	0.006
-643.711	-85.126	-0.239	0.076
-642.697	-156.665	0.121	0.008
-641.682	-181.743	0.364	0.007
-640.668	449.291	-0.128	0.286
-639.653	-88.993	0.342	-0.103
-638.638	194.359	0.078	0.121
-637.624	22.010	-0.170	-0.141
-636.609	-59.896	-0.355	0.154
-635.595	308.004	-0.096	0.181
-634.580	32.381	0.164	0.144
-633.565	298.139	-0.142	0.265
-632.551	153.970	-0.122	0.169
-631.536	-113.306	-0.090	0.018
-630.522	-131.129	-0.178	-0.024
-629.507	-200.000	0.005	-0.149
-628.492	-193.748	-0.255	-0.002
-627.478	-200.000	0.020	-0.181
-626.463	-58.826	0.074	-0.033
-625.449	52.419	-0.013	-0.013
-624.434	93.211	0.039	-0.045
-623.419	-137.528	-0.110	-0.013
-622.405	-200.000	0.028	-0.157
-621.390	-42.030	0.107	0.055
-620.376	5.751	0.032	-0.024
-619.361	57.407	0.219	-0.217
-618.346	-158.541	-0.148	0.009
-617.332	800.000	0.089	-0.292
-616.317	420.388	-0.061	0.132
-615.303	800.000	0.028	0.097
-614.288	-200.000	0.006	-0.104
-613.273	286.904	0.160	0.293
-612.259	425.485	-0.091	-0.199
-611.244	136.145	-0.087	0.115
-610.230	-28.296	-0.221	-0.129
-609.215	800.000	-0.111	-0.332
-608.201	-50.893	0.195	0.093
-607.186	212.890	0.056	0.089
-606.171	-1.755	0.127	-0.091
-605.157	45.471	-0.068	-0.063
-604.142	71.066	0.269	-0.282
-603.128	-200.000	-0.061	-0.338
-602.113	220.257	0.096	-0.156
-601.098	-200.000	0.013	0.231
-600.084	-11.116	0.243	0.162
-599.069	800.000	0.039	-0.156
-598.055	5.225	-0.067	0.050
-597.040	107.581	0.095	0.114
-596.025	-70.944	-0.143	-0.055
-595.011	-44.045	-0.139	0.071
-593.996	-200.000	-0.093	0.573
-592.982	800.000	-0.057	0.167
-591.967	-155.745	0.352	-0.023
-590.952	197.259	-0.070	0.109
-589.938	-150.646	0.269	0.021
-588.923	42.619	-0.184	0.170
-587.909	32.954	0.091	0.080
-586.894	-6.327	-0.130	-0.090
-585.879	-2.612	0.257	-0.182
-584.865	141.249	-0.044	0.059
-583.850	295.734	-0.056	0.103
-582.836	800.000	-0.036	0.154
-581.821	-200.000	-0.006	-0.165
-580.806	-156.220	-0.245	0.016
-579.792	-89.613	-0.156	-0.046
-578.777	-25.198	0.129	0.077
-577.763	639.304	0.083	-0.214
-576.748	6.093	-0.056	-0.042
-575.733	-72.766	-0.102	0.038
-574.719	-103.405	-0.065	-0.015
-573.704	-94.189	0.372	-0.103
-572.690	380.526	0.116	0.241
-571.675	800.000	-0.117	0.407
-570.661	544.915	-0.067	-0.163
-569.646	168.190	0.060	0.086
-568.631	-87.743	0.194	-0.059
-567.617	476.209	-0.048	0.110
-566.602	348.882	-0.090	0.180
-565.588	46.937	0.100	-0.094
-564.573	-116.876	-0.070	0.013
-563.558	-126.561	-0.287	0.043
-562.544	-200.000	-0.004	0.123
-561.529	214.828	-0.066	-0.105
-560.515	-200.000	-0.036	-0.175
-559.500	-200.000	-0.003	0.076
-558.485	-114.051	-0.394	-0.077
-557.471	-58.841	-0.128	-0.056
-556.456	59.235	0.145	-0.144
-555.442	596.618	-0.070	-0.175
-554.427	-99.032	-0.274	-0.070
-553.412	-60.927	0.185	0.079
-552.398	-200.000	-0.015	-0.117
-551.383	800.000	-0.041	-0.117
-550.369	-47.498	0.515	-0.253
-549.354	-200.000	-0.008	-0.161
-548.339	800.000	0.097	0.314
-547.325	-200.000	0.087	-0.411
-546.310	-16.744	-0.044	-0.028
-545.296	-20.926	-0.271	-0.168
-544.281	28.218	0.130	-0.111
-543.266	354.635	-0.150	0.300
-542.252	-59.656	-0.348	0.151
-541.237	-29.169	-0.045	-0.026
-540.223	-103.545	0.182	0.043
-539.208	-120.584	-0.566	-0.097
-538.193	800.000	0.016	-0.064
-537.179	-200.000	0.058	0.366
-536.164	351.722	-0.073	0.145
-535.150	-56.804	-0.207	-0.092
-534.135	-200.000	0.005	0.140
-533.121	-96.479	0.088	-0.024
-532.106	-200.000	-0.000	-0.098
-531.091	56.243	0.034	-0.034
-530.077	131.263	-0.179	0.232
-529.062	181.055	-0.039	0.058
-528.048	-62.834	-0.049	0.020
-527.033	611.182	0.122	-0.307
-526.018	92.595	0.136	-0.155
-525.004	-10.025	-0.298	0.200
-523.989	1.423	0.109	-0.079
-522.975	56.218	-0.060	-0.059
-521.960	-77.250	0.203	-0.071
-520.945	208.679	0.199	0.314
-519.931	-135.992	-0.301	0.036
-518.916	800.000	0.076	-0.261
-517.902	65.613	0.047	0.048
-516.887	-117.393	-0.572	0.105
-515.872	4.086	0.042	-0.031
-514.858	51.293	-0.123	-0.118
-513.843	-200.000	-0.011	-0.312
-512.829	208.631	0.295	-0.466
-511.814	-124.658	-0.076	0.012
-510.799	14.508	-0.073	0.057
-509.785	35.697	0.150	-0.133
-508.770	125.863	-0.101	0.128
-507.756	16.807	-0.128	-0.102
-506.741	-72.415	0.178	-0.066
-505.726	446.457	-0.087	0.193
-504.712	47.857	-0.124	0.116
-503.697	-22.797	0.073	0.044
-502.683	83.516	-0.179	-0.197
-501.668	800.000	-0.034	-0.104
-500.653	-64.707	0.305	0.125
-499.639	800.000	0.095	0.272
-498.624	55.964	0.155	0.152
-497.610	-47.785	-0.157	0.077
-496.595	-82.048	-0.263	0.087
-495.581	89.239	-0.069	-0.077
-494.566	-17.693	0.205	0.130
-493.551	18.526	0.115	0.092
-492.537	800.000	-0.043	0.133
-491.522	-72.087	0.059	-0.022
-490.508	-23.027	0.213	-0.129
-489.493	89.916	-0.199	0.224
-488.478	-37.759	-0.152	-0.082
-487.464	566.939	0.124	0.303
-486.449	-73.636	-0.149	0.055
-485.435	154.178	0.104	-0.144
-484.420	-58.038	0.115	0.051
-483.405	-41.504	0.383	0.199
-482.391	800.000	-0.074	-0.259
-481.376	204.889	0.115	-0.179
-480.362	86.880	-0.168	0.187
-479.347	-36.924	-0.042	0.023
-478.332	-68.822	-0.208	-0.081
-477.318	-85.463	0.070	-0.022
-476.303	79.903	0.172	-0.186
-475.289	-126.874	-0.356	-0.053
-474.274	-112.975	-0.275	-0.055
-473.259	125.859	0.108	0.138
-472.245	-200.000	0.017	0.157
-471.230	-41.211	-0.419	-0.218
-470.216	-157.587	-0.067	0.004
-469.201	-22.924	-0.001	-0.001
-468.186	-31.886	-0.218	-0.123
-467.172	-19.269	-0.092	-0.058
-466.157	-116.708	-0.297	0.055
-465.143	800.000	0.096	-0.400
-464.128	139.506	-0.090	0.120
-463.113	-75.549	0.196	-0.070
-462.099	68.099	-0.260	0.268
-461.084	-125.627	0.287	-0.044
-460.070	-200.000	0.008	-0.147
-459.055	758.964	-0.022	0.061
-458.040	800.000	0.134	0.373
-457.026	133.580	0.095	0.124
-456.011	-19.557	0.072	0.045
-454.997	-109.095	0.229	-0.049
-453.982	282.121	0.165	0.298
-452.968	-71.292	-0.320	-0.121
-451.953	358.763	0.163	0.327
-450.938	60.130	-0.230	-0.229
-449.924	182.705	-0.043	0.063
-448.909	-200.000	0.032	-0.248
-447.895	-200.000	0.005	-0.074
-446.880	-200.000	-0.030	0.258
-445.865	800.000	-0.063	-0.243
-444.851	-31.403	0.312	0.177
-443.836	-14.129	0.432	-0.281
-442.822	-126.652	-0.366	0.055
-441.807	-106.860	0.261	-0.058
-440.792	216.080	0.105	0.167
-439.778	-2.441	0.174	0.123
-438.763	-113.317	0.019	-0.004
-437.749	18.502	-0.167	-0.134
-436.734	-200.000	0.019	-0.193
-435.719	37.217	-0.166	-0.148
-434.705	-164.175	0.413	-0.019
-433.690	97.935	-0.044	-0.051
-432.676	-200.000	-0.010	0.150
-431.661	252.122	-0.157	0.269
-430.646	800.000	0.086	-0.255
-429.632	-200.000	-0.008	-0.130
-428.617	512.768	-0.043	0.100
-427.603	-61.511	-0.190	0.080
-426.588	-37.790	-0.231	0.123
-425.573	95.585	0.124	-0.142
-424.559	170.903	-0.224	-0.323
-423.544	-60.030	0.165	-0.071
-422.530	42.640	0.155	-0.142
-421.515	-200.000	0.450	0.000
-420.500	-163.563	-0.296	0.014
-419.486	-98.389	0.192	-0.049
-418.471	18.776	-0.174	0.140
-417.457	-200.000	-0.024	-0.190
-416.442	277.827	-0.066	0.117
-415.428	-66.112	0.116	0.046
-414.413	-200.000	0.025	-0.117
-413.398	-171.971	-0.317	-0.010
-412.384	-19.821	0.189	0.118
-411.369	113.167	0.352	0.429
-410.355	606.241	0.099	-0.247
-409.340	159.789	-0.125	-0.175
-408.325	-144.277	-0.727	0.068
-407.311	394.477	-0.063	0.132
-406.296	127.659	0.183	-0.233
-405.282	1.786	0.221	0.160
-404.267	-153.152	0.122	-0.009
-403.252	-119.567	-0.117	-0.020
-402.238	-102.793	-0.100	0.024
-401.223	165.633	-0.077	-0.110
-400.209	-200.000	0.022	-0.269
-399.194	-200.000	-0.013	-0.154
-398.179	800.000	0.078	0.239
-397.165	-139.187	-0.174	0.019
-396.150	-200.000	0.047	-0.212
-395.136	800.000	0.050	0.188
-394.121	800.000	-0.089	0.252
-393.106	-6.807	0.321	-0.219
-392.092	-82.626	-0.383	0.125
-391.077	-24.861	0.251	-0.150
-390.063	-113.640	0.048	-0.010
-389.048	-200.000	-0.013	-0.142
-388.033	48.063	0.274	-0.257
-387.019	26.567	0.094	-0.079
-386.004	-54.746	-0.293	-0.133
-384.990	800.000	-0.057	0.191
-383.975	307.355	0.069	-0.128
-382.960	25.519	0.307	0.257
-381.946	-152.827	-0.352	0.025
-380.931	-36.196	0.358	0.194
-379.917	138.606	0.178	-0.235
-378.902	-142.580	-0.346	0.034
-377.888	83.493	-0.130	0.142
-376.873	-200.000	0.016	-0.109
-375.858	36.899	-0.125	-0.111
-374.844	267.050	-0.158	-0.278
-373.829	49.822	0.263	0.249
-372.815	-62.882	-0.053	0.022
-371.800	25.936	-0.385	0.322
-370.785	707.958	-0.070	0.186
-369.771	40.789	-0.231	0.209
-368.756	-9.502	-0.062	0.041
-367.742	-70.258	0.089	0.034
-366.727	152.912	-0.117	-0.160
-365.712	800.000	0.079	0.336
-364.698	-2.518	-0.206	0.145
-363.683	-112.862	-0.336	-0.067
-362.669	-114.941	-0.163	-0.031
-361.654	16.847	0.089	0.070
-360.639	43.395	0.142	0.130
-359.625	-200.000	0.008	0.178
-358.610	284.996	-0.052	-0.094
-357.596	167.014	0.077	0.110
-356.581	800.000	-0.119	-0.400
-355.566	745.673	0.021	0.057
-354.552	263.353	0.157	-0.273
-353.537	226.840	-0.094	-0.153
-352.523	410.911	-0.114	0.243
-351.508	486.903	0.113	0.258
-350.493	321.919	0.065	0.123
-349.479	287.310	-0.025	-0.046
-348.464	-200.000	-0.045	-0.415
-347.450	-200.000	0.022	0.387
-346.435	-41.932	-0.130	-0.067
-345.420	-200.000	-0.048	0.463
-344.406	524.980	-0.060	0.142
-343.391	-109.479	-0.157	0.033
-342.377	-200.000	0.015	-0.090
-341.362	-7.671	-0.127	-0.086
-340.348	-7.528	0.113	-0.077
-339.333	59.239	0.045	0.044
-338.318	-84.111	-0.068	0.022
-337.304	-200.000	-0.017	0.107
-336.289	800.000	0.084	-0.286
-335.275	127.878	-0.054	-0.068
-334.260	147.072	0.128	0.173
-333.245	-56.369	0.257	0.114
-332.231	-40.914	-0.191	-0.099
-331.216	-10.843	0.317	-0.210
-330.202	633.770	0.037	-0.093
-329.187	12.540	-0.246	-0.190
-328.172	-155.215	-0.065	-0.004
-327.158	272.591	0.146	-0.258
-326.143	313.808	-0.146	-0.275
-325.129	-200.000	-0.015	-0.130
-324.114	67.743	-0.063	-0.064
-323.099	-200.000	0.025	0.222
-322.085	-102.281	0.151	0.036
-321.070	-115.187	0.507	0.096
-320.056	-36.943	0.327	0.176
-319.041	-62.980	0.350	0.145
-318.026	478.790	-0.040	0.091
-317.012	43.178	-0.028	0.025
-315.997	60.272	0.014	0.014
-314.983	86.596	0.219	0.242
-313.968	-60.765	-0.252	-0.107
-312.953	88.294	-0.064	-0.071
-311.939	-73.935	0.108	0.039
-310.924	-186.568	0.116	-0.002
-309.910	227.739	0.062	-0.101
-308.895	-62.658	-0.097	0.040
-307.880	97.447	0.047	0.054
-306.866	45.623	-0.194	-0.180
-305.851	-50.294	-0.146	0.069
-304.837	-103.948	0.237	-0.055
-303.822	300.439	-0.079	-0.145
-302.807	188.160	0.152	-0.227
-301.793	-144.294	0.305	-0.028
-300.778	-166.505	-0.237	0.010
-299.764	-62.213	-0.092	-0.039
-298.749	-94.616	0.061	-0.017
-297.735	-111.853	-0.241	0.049
-296.720	-113.509	0.322	-0.063
-295.705	-82.144	-0.242	0.079
-294.691	-14.357	0.088	0.057
-293.676	268.209	-0.024	0.041
-292.662	192.848	-0.116	-0.175
-291.647	-60.187	0.214	0.091
-290.632	-3.936	0.235	-0.163
-289.618	-200.000	-0.021	0.144
-288.603	227.691	-0.130	0.211
-287.589	-86.245	-0.182	0.056
-286.574	-102.869	-0.245	0.058
-285.559	116.047	0.076	0.093
-284.545	438.156	-0.092	0.200
-283.530	56.462	-0.192	-0.187
-282.516	800.000	-0.033	0.112
-281.501	247.615	0.081	-0.138
-280.486	574.885	-0.016	0.040
-279.472	-104.368	0.175	0.041
-278.457	-103.714	0.200	0.047
-277.443	27.284	-0.013	-0.011
-276.428	-200.000	-0.007	0.139
-275.413	-105.090	0.005	0.001
-274.399	-200.000	-0.030	0.147
-273.384	-45.517	0.281	-0.139
-272.370	-90.744	0.141	0.041
-271.355	582.599	-0.048	0.119
-270.340	57.879	-0.055	0.053
-269.326	-145.832	-0.287	-0.025
-268.311	-93.123	0.196	-0.054
-267.297	96.880	-0.126	-0.144
-266.282	-33.228	0.295	-0.163
-265.267	60.296	0.045	-0.044
-264.253	-111.707	0.079	0.016
-263.238	-68.873	-0.271	-0.105
-262.224	-41.470	0.123	-0.063
-261.209	-200.000	0.041	-0.314
-260.195	-156.790	-0.015	-0.001
-259.180	-53.920	0.094	-0.043
-258.165	-200.000	-0.007	0.072
-257.151	-56.353	0.281	0.125
-256.136	385.513	-0.123	0.253
-255.122	-186.102	-0.230	-0.003
-254.107	273.509	-0.064	0.113
-253.092	-198.054	-0.194	-0.001
-252.078	-109.981	0.290	0.061
-251.063	234.998	0.225	0.371
-250.049	-85.231	0.083	-0.026
-249.034	800.000	0.090	0.297
-248.019	376.290	0.068	-0.138
-247.005	3.421	0.161	0.117
-245.990	45.066	-0.078	0.072
-244.976	2.047	-0.324	-0.234
-243.961	414.617	-0.104	0.220
-242.946	-41.541	0.185	-0.095
-241.932	-200.000	0.004	0.145
-240.917	81.743	0.190	0.205
-239.903	800.000	0.007	-0.029
-238.888	-45.895	0.358	-0.176
-237.873	124.079	-0.137	-0.171
-236.859	-175.778	-0.085	0.002
-235.844	-200.000	-0.010	-0.088
-234.830	787.563	-0.131	-0.359
-233.815	197.070	0.108	0.164
-232.800	-66.284	0.255	-0.101
-231.786	61.019	0.227	-0.225
-230.771	-97.596	0.124	-0.032
-229.757	-130.460	-0.312	0.042
-228.742	800.000	-0.129	0.366
-227.727	28.565	-0.361	-0.305
-226.713	-28.906	0.104	-0.059
-225.698	-11.289	-0.204	-0.134
-224.684	282.698	-0.078	-0.140
-223.669	-104.024	0.297	-0.069
-222.655	73.314	-0.264	0.276
-221.640	-200.000	0.017	0.075
-220.625	-200.000	0.053	0.311
-219.611	-200.000	-0.053	-0.250
-218.596	67.162	0.072	0.073
-217.582	-200.000	-0.011	-0.073
-216.567	-88.034	0.205	-0.062
-215.552	-200.000	-0.036	0.262
-214.538	-167.454	-0.396	-0.016
-213.523	237.721	-0.087	0.144
-212.509	-79.158	0.104	0.035
-211.494	79.789	0.283	-0.303
-210.479	-200.000	-0.015	0.153
-209.465	-127.817	0.219	-0.031
-208.450	800.000	-0.027	0.101
-207.436	-200.000	0.019	-0.094
-206.421	-39.484	0.077	-0.040
-205.406	-26.550	-0.086	0.050
-204.392	-75.381	0.111	-0.039
-203.377	-200.000	-0.018	-0.114
-202.363	245.391	0.032	0.054
-201.348	-168.710	-0.075	-0.003
-200.333	-200.000	0.005	-0.062
-199.319	-151.315	-0.327	-0.024
-198.304	75.776	-0.105	0.110
-197.290	-37.524	0.165	-0.088
-196.275	-200.000	-0.004	-0.036
-195.260	-94.341	-0.145	0.039
-194.246	-200.000	-0.053	0.239
-193.231	800.000	-0.040	0.120
-192.217	-97.151	-0.133	-0.035
-191.202	207.249	-0.157	0.244
-190.187	515.377	0.039	0.091
-189.173	800.000	0.143	0.451
-188.158	-200.000	0.080	-0.355
-187.144	196.181	0.121	-0.183
-186.129	204.325	-0.138	-0.213
-185.114	169.309	-0.215	-0.306
-184.100	-76.329	-0.010	-0.003
-183.085	800.000	0.065	-0.188
-182.071	-120.141	0.050	0.008
-181.056	800.000	-0.064	-0.260
-180.042	-113.669	-0.080	0.016
-179.027	20.342	0.159	0.128
-178.012	79.674	0.039	0.042
-176.998	382.616	-0.035	-0.071
-175.983	800.000	-0.043	0.146
-174.969	176.018	0.156	0.225
-173.954	172.156	-0.055	-0.079
-172.939	800.000	0.026	-0.085
-171.925	24.656	0.177	-0.146
-170.910	353.979	0.070	-0.138
-169.896	16.515	0.094	-0.074
-168.881	192.771	-0.149	0.224
-167.866	457.513	0.164	0.363
-166.852	-10.578	-0.136	0.089
-165.837	477.093	0.144	0.323
-164.823	-200.000	-0.022	-0.161
-163.808	762.008	-0.102	0.276
-162.793	-74.702	0.200	0.072
-161.779	-95.129	0.202	-0.054
-160.764	774.055	0.088	-0.238
-159.750	57.847	0.334	-0.325
-158.735	33.263	-0.159	-0.137
-157.720	-40.616	-0.073	0.038
-156.706	66.747	-0.168	-0.170
-155.691	12.829	0.390	0.300
-154.677	18.953	0.143	0.114
-153.662	-123.036	-0.011	0.002
-152.647	-200.000	0.010	-0.235
-151.633	-167.761	-0.108	-0.004
-150.618	800.000	-0.080	0.273
-149.604	-160.177	0.147	0.008
-148.589	-82.643	-0.100	-0.032
-147.574	538.018	-0.091	-0.215
-146.560	-63.371	0.089	0.036
-145.545	800.000	-0.045	-0.136
-144.531	-200.000	-0.015	0.454
-143.516	-200.000	-0.027	0.190
-142.502	386.929	-0.016	-0.034
-141.487	-95.135	-0.230	-0.062
-140.472	7.626	0.133	-0.099
-139.458	241.881	-0.078	0.129
-138.443	-178.158	0.133	-0.003
-137.429	800.000	0.027	0.098
-136.414	800.000	0.026	0.090
-135.399	-86.042	0.210	0.064
-134.385	-95.868	0.291	0.077
-133.370	-152.593	0.185	-0.013
-132.356	-200.000	0.015	-0.183
-131.341	-135.746	0.104	-0.012
-130.326	-105.307	0.285	0.065
-129.312	-65.237	-0.095	-0.038
-128.297	65.336	-0.031	-0.031
-127.283	-200.000	0.016	-0.200
-126.268	-129.416	-0.185	-0.026
-125.253	189.806	0.056	-0.084
-124.239	-200.000	0.039	-0.194
-123.224	559.120	-0.113	-0.272
-122.210	-5.725	-0.128	-0.087
-121.195	-200.000	-0.006	-0.078
