DTS Sentinel unit serial number:	SN413079Multiplexer serial number:	ORYXHardware model number:	OX4-SRSoftware version number:	ORYX F/W v4.00 Oryx Data Collector v3.7.2.0data status	okinstallation	princeton_trtdifferential loss correction	single-endedforward channel	channel 3reverse channel	N/Adate	2019/09/18time	07:36:34forward acquisition time	60.00reverse acquisition time	0.00gamma	496.2192k internal	0.2343k external	0.2343temperature offset calibration	0.9947default loss term (dB/km)	0.3790temperature slope calibration	1.0000multiplexer offset coefficient	1.0000multiplexer slope coefficient	1.0000fibre end	0.00T internal ref (°C)	23.20T ext. ref 1 (°C)	0.19T ext. ref 2 (°C)	17.75length (m)	temperature (°C)	Stokes	anti-Stokes-747.200	-46.666	-0.287	0.141
-746.185	-155.276	-0.195	0.013
-745.171	-62.545	0.203	-0.084
-744.156	-88.075	-0.095	-0.028
-743.142	-200.000	0.060	-0.348
-742.127	269.276	-0.179	0.314
-741.112	160.750	0.210	-0.294
-740.098	-60.244	0.220	0.094
-739.083	13.912	0.037	0.029
-738.069	-82.536	0.153	-0.050
-737.054	-123.270	0.241	0.039
-736.039	130.185	-0.112	-0.144
-735.025	-150.703	0.385	-0.029
-734.010	1.209	-0.261	0.188
-732.996	-48.456	0.285	0.137
-731.981	-200.000	0.023	-0.372
-730.966	-28.903	-0.283	-0.163
-729.952	540.920	-0.058	-0.138
-728.937	-200.000	-0.088	0.426
-727.923	248.431	0.020	-0.034
-726.908	66.667	0.090	0.092
-725.894	-102.994	0.094	-0.022
-724.879	-200.000	-0.051	-0.622
-723.864	-52.201	-0.050	-0.023
-722.850	-121.639	-0.221	0.037
-721.835	-200.000	-0.039	0.336
-720.821	-1.818	0.038	0.027
-719.806	800.000	0.073	-0.292
-718.791	113.562	-0.230	-0.279
-717.777	-36.008	0.218	-0.118
-716.762	562.124	0.076	0.184
-715.748	-200.000	-0.000	0.003
-714.733	33.593	0.187	-0.163
-713.718	-39.372	0.087	-0.045
-712.704	-93.164	-0.258	0.072
-711.689	94.643	0.080	-0.091
-710.675	63.622	-0.200	-0.201
-709.660	-107.354	0.127	-0.028
-708.645	-88.676	-0.131	-0.039
-707.631	283.121	-0.203	-0.364
-706.616	37.126	0.350	0.310
-705.602	-84.087	-0.301	-0.096
-704.587	609.522	0.043	0.109
-703.572	169.800	-0.158	-0.225
-702.558	32.108	-0.289	0.249
-701.543	-200.000	0.003	-0.170
-700.529	27.432	0.224	-0.188
-699.514	39.114	0.019	-0.017
-698.499	-29.816	0.138	0.079
-697.485	307.466	-0.071	0.132
-696.470	800.000	-0.066	0.211
-695.456	800.000	0.083	-0.291
-694.441	-111.667	0.291	0.059
-693.426	-200.000	0.036	-0.254
-692.412	-11.624	-0.290	-0.191
-691.397	145.672	0.199	0.266
-690.383	15.975	0.131	-0.103
-689.368	800.000	0.016	0.063
-688.354	121.538	-0.176	0.219
-687.339	122.450	-0.182	-0.227
-686.324	146.654	-0.160	-0.215
-685.310	-142.598	-0.211	0.021
-684.295	800.000	-0.115	0.450
-683.281	-149.065	-0.495	-0.040
-682.266	343.714	0.279	-0.546
-681.251	39.436	0.105	-0.094
-680.237	-140.477	0.024	0.003
-679.222	283.040	0.145	0.260
-678.208	134.051	-0.188	-0.243
-677.193	19.815	-0.058	-0.046
-676.178	-11.062	0.236	-0.155
-675.164	-3.698	-0.427	-0.296
-674.149	242.904	-0.103	-0.172
-673.135	-200.000	-0.055	0.272
-672.120	112.761	0.156	-0.188
-671.105	123.009	-0.248	-0.311
-670.091	573.809	-0.058	-0.141
-669.076	-156.185	0.112	-0.007
-668.062	-127.260	0.220	0.032
-667.047	7.724	-0.110	-0.082
-666.032	-21.308	0.210	0.128
-665.018	-144.174	-0.098	0.009
-664.003	-106.362	0.221	0.049
-662.989	60.062	-0.359	0.354
-661.974	-8.324	-0.389	-0.261
-660.959	-200.000	-0.001	0.014
-659.945	-69.583	0.219	-0.084
-658.930	467.229	-0.150	0.337
-657.916	-122.006	-0.263	0.043
-656.901	745.302	-0.069	-0.187
-655.886	425.756	-0.066	0.142
-654.872	-58.829	-0.160	-0.069
-653.857	-163.442	-0.225	0.011
-652.843	800.000	-0.049	-0.175
-651.828	54.429	0.297	0.285
-650.814	57.458	-0.163	0.159
-649.799	19.118	0.278	-0.222
-648.784	411.448	-0.032	0.068
-647.770	777.155	-0.045	-0.122
-646.755	800.000	0.087	-0.291
-645.741	-35.111	-0.287	-0.156
-644.726	-167.821	0.239	0.009
-643.711	-200.000	-0.018	-0.277
-642.697	-167.978	0.439	0.017
-641.682	-123.629	0.173	-0.027
-640.668	121.663	-0.081	-0.101
-639.653	-106.458	0.265	0.059
-638.638	-186.456	-0.368	0.005
-637.624	-90.447	-0.237	0.068
-636.609	129.826	0.100	0.128
-635.595	-69.022	-0.248	0.095
-634.580	-100.047	0.451	-0.112
-633.565	431.560	-0.090	-0.195
-632.551	-144.215	-0.214	-0.020
-631.536	-165.479	-0.119	0.005
-630.522	-200.000	0.016	-0.101
-629.507	-200.000	-0.038	-0.185
-628.492	74.034	0.221	-0.231
-627.478	67.886	-0.180	0.184
-626.463	-77.995	-0.082	0.028
-625.449	-200.000	-0.028	0.144
-624.434	-62.286	-0.219	0.091
-623.419	-56.516	0.221	0.098
-622.405	-42.735	-0.190	0.096
-621.390	14.022	-0.035	0.027
-620.376	-47.947	-0.201	0.097
-619.361	-200.000	-0.053	0.242
-618.346	64.905	-0.279	-0.280
-617.332	156.674	-0.118	0.163
-616.317	-159.387	0.403	0.022
-615.303	184.421	-0.140	0.207
-614.288	-200.000	0.018	0.162
-613.273	-200.000	0.018	-0.093
-612.259	-23.830	0.254	0.152
-611.244	50.372	0.140	0.131
-610.230	-101.783	0.132	0.032
-609.215	582.902	-0.135	-0.330
-608.201	-176.461	-0.187	0.005
-607.186	-61.877	0.128	-0.054
-606.171	-200.000	0.008	0.185
-605.157	800.000	0.061	0.245
-604.142	800.000	-0.093	-0.374
-603.128	-62.829	-0.201	0.083
-602.113	-200.000	0.011	0.069
-601.098	-92.133	-0.183	0.051
-600.084	-200.000	-0.051	0.338
-599.069	-26.601	0.025	0.015
-598.055	66.761	-0.145	0.147
-597.040	-90.320	-0.058	0.017
-596.025	-2.790	-0.114	0.079
-595.011	-156.439	-0.091	-0.006
-593.996	153.120	-0.207	-0.282
-592.982	-79.575	-0.234	0.079
-591.967	-105.847	0.317	-0.071
-590.952	800.000	0.073	-0.286
-589.938	800.000	-0.112	-0.327
-588.923	190.427	-0.153	-0.229
-587.909	553.543	-0.034	0.083
-586.894	-95.197	0.427	-0.114
-585.879	104.139	0.209	0.245
-584.865	538.647	0.034	0.081
-583.850	-119.488	-0.263	-0.045
-582.836	-200.000	-0.040	-0.281
-581.821	181.075	0.114	0.166
-580.806	100.570	-0.096	-0.110
-579.792	-100.174	-0.442	-0.109
-578.777	169.525	-0.289	0.411
-577.763	-200.000	-0.010	0.175
-576.748	-200.000	0.011	0.168
-575.733	54.319	-0.221	-0.211
-574.719	800.000	-0.015	-0.061
-573.704	216.841	-0.121	-0.192
-572.690	439.675	0.094	0.205
-571.675	-5.724	0.168	-0.114
-570.661	-97.777	-0.389	-0.100
-569.646	-30.160	-0.098	0.055
-568.631	28.091	0.214	0.179
-567.617	104.303	-0.118	-0.138
-566.602	-89.094	0.314	-0.092
-565.588	191.994	-0.128	-0.192
-564.573	52.365	0.231	-0.219
-563.558	-200.000	0.015	-0.114
-562.544	800.000	-0.098	0.366
-561.529	-91.687	0.021	-0.006
-560.515	-200.000	0.047	-0.281
-559.500	-200.000	-0.001	0.057
-558.485	-200.000	-0.032	-0.163
-557.471	248.403	-0.113	-0.190
-556.456	-21.981	-0.230	0.139
-555.442	800.000	0.107	0.327
-554.427	46.491	-0.112	-0.103
-553.412	31.725	-0.263	-0.225
-552.398	214.884	0.212	-0.335
-551.383	-178.598	0.140	-0.003
-550.369	-25.123	-0.216	-0.127
-549.354	-4.065	-0.396	-0.273
-548.339	568.738	0.125	0.302
-547.325	-118.214	0.188	0.033
-546.310	800.000	-0.032	0.118
-545.296	-137.592	0.152	0.017
-544.281	53.951	0.010	0.010
-543.266	-105.700	-0.237	-0.053
-542.252	-200.000	0.055	-0.556
-541.237	8.831	0.118	0.088
-540.223	-28.392	-0.306	0.175
-539.208	0.800	-0.400	0.284
-538.193	800.000	-0.051	-0.141
-537.179	-4.129	0.051	-0.035
-536.164	15.610	-0.147	-0.115
-535.150	-83.932	-0.078	0.025
-534.135	27.390	-0.125	-0.105
-533.121	-35.809	0.257	-0.138
-532.106	188.795	-0.112	0.167
-531.091	40.749	0.263	0.236
-530.077	-200.000	0.063	-0.286
-529.062	125.546	0.161	-0.202
-528.048	169.553	-0.018	0.026
-527.033	-200.000	0.022	-0.243
-526.018	-106.445	0.352	0.078
-525.004	-73.884	0.214	0.077
-523.989	529.364	0.173	0.404
-522.975	-33.858	0.391	0.214
-521.960	-175.395	0.038	-0.001
-520.945	-14.120	0.200	0.128
-519.931	246.399	-0.079	0.132
-518.916	-72.975	-0.160	-0.058
-517.902	-150.205	-0.193	0.015
-516.887	710.917	-0.094	0.247
-515.872	-200.000	0.060	0.291
-514.858	168.454	-0.021	-0.030
-513.843	6.226	0.077	-0.056
-512.829	-200.000	0.026	0.255
-511.814	-200.000	-0.044	-0.387
-510.799	-6.328	-0.059	0.040
-509.785	92.851	-0.113	0.126
-508.770	-177.456	0.112	0.003
-507.756	170.915	-0.333	-0.474
-506.741	507.026	0.151	-0.347
-505.726	-109.961	-0.363	0.075
-504.712	27.134	0.288	0.240
-503.697	26.875	0.304	0.253
-502.683	137.733	-0.118	0.153
-501.668	-200.000	-0.032	0.142
-500.653	-6.124	0.089	0.060
-499.639	-176.366	-0.149	-0.004
-498.624	800.000	-0.129	0.410
-497.610	291.100	0.097	0.174
-496.595	87.420	0.061	-0.067
-495.581	-40.018	0.308	0.159
-494.566	-157.269	0.132	-0.008
-493.551	-200.000	0.004	0.032
-492.537	85.386	0.047	-0.051
-491.522	-200.000	0.022	-0.257
-490.508	-159.516	-0.200	0.011
-489.493	482.797	0.071	-0.160
-488.478	-145.201	0.334	-0.030
-487.464	-91.183	0.276	-0.078
-486.449	181.277	-0.132	0.192
-485.435	60.131	-0.255	-0.250
-484.420	351.049	0.096	-0.188
-483.405	26.416	-0.115	-0.095
-482.391	-200.000	0.015	-0.070
-481.376	-133.751	-0.278	-0.034
-480.362	-57.063	0.162	-0.071
-479.347	-61.112	-0.157	-0.066
-478.332	-8.549	-0.200	-0.133
-477.318	287.207	0.085	-0.152
-476.303	-100.873	0.241	0.059
-475.289	78.513	0.196	-0.208
-474.274	-200.000	0.044	0.271
-473.259	-22.834	0.043	-0.026
-472.245	376.848	-0.041	-0.083
-471.230	565.950	-0.061	0.146
-470.216	114.852	0.066	0.080
-469.201	-200.000	0.003	-0.182
-468.186	800.000	0.036	0.109
-467.172	506.045	0.078	0.178
-466.157	800.000	0.068	-0.274
-465.143	206.012	-0.073	0.113
-464.128	119.290	-0.172	-0.211
-463.113	123.910	-0.107	-0.133
-462.099	-71.697	0.137	-0.051
-461.084	-105.711	0.241	0.054
-460.070	-126.724	-0.342	-0.050
-459.055	281.375	-0.119	-0.211
-458.040	-140.229	0.254	0.026
-457.026	467.954	0.026	-0.057
-456.011	-110.765	0.262	-0.053
-454.997	159.872	-0.048	0.066
-453.982	-89.062	0.304	0.089
-452.968	137.354	0.022	0.028
-451.953	52.655	0.319	-0.301
-450.938	-25.886	0.016	-0.009
-449.924	-92.493	-0.260	0.072
-448.909	157.303	-0.058	-0.079
-447.895	-9.436	-0.145	0.096
-446.880	800.000	-0.009	0.027
-445.865	800.000	0.022	-0.064
-444.851	-200.000	-0.005	0.130
-443.836	-75.958	0.201	0.070
-442.822	139.120	0.176	0.229
-441.807	-58.513	-0.321	-0.138
-440.792	432.821	0.180	0.386
-439.778	-84.139	-0.183	-0.057
-438.763	27.833	-0.062	0.052
-437.749	115.161	0.186	-0.225
-436.734	-200.000	0.053	-0.283
-435.719	-200.000	-0.060	-0.280
-434.705	-200.000	-0.006	-0.429
-433.690	-69.110	0.110	0.042
-432.676	-200.000	-0.058	0.250
-431.661	-30.796	0.276	0.154
-430.646	-87.458	0.311	-0.093
-429.632	-63.967	0.241	-0.097
-428.617	22.692	-0.240	-0.194
-427.603	-39.135	-0.196	0.102
-426.588	-83.484	0.210	0.066
-425.573	800.000	-0.133	-0.472
-424.559	20.829	-0.191	-0.153
-423.544	-0.297	0.180	0.126
-422.530	654.999	-0.124	0.314
-421.515	475.865	0.084	0.187
-420.500	686.479	-0.051	0.131
-419.486	-137.824	-0.380	0.042
-418.471	-200.000	0.030	-0.395
-417.457	-200.000	-0.006	-0.103
-416.442	-124.115	0.298	0.046
-415.428	800.000	0.067	0.238
-414.413	-15.961	0.034	0.022
-413.398	173.449	0.263	0.375
-412.384	-134.915	-0.300	-0.036
-411.369	-53.629	0.161	-0.073
-410.355	-133.824	0.160	-0.020
-409.340	-200.000	-0.048	0.218
-408.325	119.279	-0.059	0.072
-407.311	328.307	0.212	-0.403
-406.296	-91.379	0.120	0.034
-405.282	231.128	0.016	-0.025
-404.267	-51.087	-0.010	-0.005
-403.252	-200.000	-0.092	-0.629
-402.238	-72.836	-0.119	0.043
-401.223	-192.743	-0.155	0.001
-400.209	-93.450	0.171	-0.047
-399.194	118.909	0.241	-0.295
-398.179	165.450	0.299	0.418
-397.165	-193.085	-0.211	-0.002
-396.150	357.897	0.209	-0.411
-395.136	-45.034	0.083	0.041
-394.121	-118.030	-0.166	0.029
-393.106	108.720	-0.228	-0.269
-392.092	800.000	-0.050	0.149
-391.077	-121.077	-0.305	-0.051
-390.063	-61.535	0.051	-0.021
-389.048	-93.925	-0.135	0.037
-388.033	-128.623	-0.159	-0.022
-387.019	350.476	-0.092	0.180
-386.004	-149.589	0.225	0.018
-384.990	-126.271	0.140	0.021
-383.975	-190.675	0.435	-0.005
-382.960	344.303	0.113	0.218
-381.946	-69.945	0.101	-0.038
-380.931	-67.226	-0.273	-0.106
-379.917	-15.598	-0.153	0.097
-378.902	-132.277	0.091	0.012
-377.888	-18.117	0.315	-0.195
-376.873	-84.981	0.245	0.076
-375.858	-118.418	0.228	0.040
-374.844	-39.452	0.213	0.110
-373.829	222.122	0.194	0.308
-372.815	-200.000	0.039	0.286
-371.800	187.756	-0.086	0.127
-370.785	-100.636	-0.183	0.045
-369.771	-84.088	-0.340	-0.106
-368.756	92.369	-0.153	0.170
-367.742	-200.000	-0.008	0.104
-366.727	-28.671	-0.245	0.139
-365.712	235.774	-0.090	0.147
-364.698	800.000	0.096	0.335
-363.683	-104.383	-0.244	-0.056
-362.669	-62.153	-0.223	0.092
-361.654	539.201	-0.052	-0.122
-360.639	-179.773	0.066	0.001
-359.625	-200.000	0.077	-0.350
-358.610	69.490	-0.191	0.194
-357.596	161.914	-0.061	0.085
-356.581	800.000	0.041	-0.171
-355.566	-155.345	0.283	0.018
-354.552	800.000	-0.049	0.182
-353.537	43.723	-0.126	-0.114
-352.523	-200.000	0.045	-0.281
-351.508	74.550	0.160	-0.166
-350.493	800.000	0.066	0.180
-349.479	87.072	0.174	-0.189
-348.464	-167.128	-0.061	0.002
-347.450	-47.853	0.059	0.028
-346.435	-54.965	-0.377	-0.168
-345.420	-113.123	-0.064	-0.012
-344.406	142.456	0.062	0.082
-343.391	411.491	-0.047	-0.099
-342.377	-54.195	0.293	0.131
-341.362	-200.000	-0.041	0.257
-340.348	-131.728	-0.275	0.036
-339.333	122.054	0.279	-0.344
-338.318	-166.029	0.252	0.011
-337.304	-15.042	0.047	-0.030
-336.289	-18.025	0.105	0.065
-335.275	244.449	-0.114	0.189
-334.260	-17.531	-0.163	-0.101
-333.245	197.587	0.036	-0.054
-332.231	-200.000	-0.039	0.174
-331.216	-72.935	0.497	-0.180
-330.202	-49.370	0.070	-0.033
-329.187	-200.000	0.033	-0.316
-328.172	405.688	0.118	-0.244
-327.158	800.000	0.040	-0.151
-326.143	-42.311	-0.265	0.133
-325.129	-200.000	-0.071	0.413
-324.114	177.189	0.069	-0.100
-323.099	415.821	-0.155	0.326
-322.085	-200.000	-0.009	0.554
-321.070	22.843	-0.310	0.250
-320.056	-200.000	0.043	-0.233
-319.041	-19.984	-0.148	-0.090
-318.026	5.122	-0.207	-0.150
-317.012	800.000	0.110	0.385
-315.997	-177.909	0.160	0.004
-314.983	800.000	-0.052	-0.155
-313.968	-200.000	0.013	-0.171
-312.953	94.698	-0.116	-0.130
-311.939	294.171	0.080	-0.145
-310.924	-127.192	-0.298	0.043
-309.910	190.157	-0.143	-0.211
-308.895	-132.280	0.098	0.012
-307.880	20.708	0.148	-0.118
-306.866	65.668	-0.081	0.081
-305.851	-200.000	0.036	0.228
-304.837	-200.000	0.014	0.238
-303.822	-62.550	-0.168	0.069
-302.807	-31.812	-0.111	0.061
-301.793	39.479	-0.191	0.168
-300.778	181.031	-0.152	0.220
-299.764	-200.000	-0.013	-0.135
-298.749	800.000	-0.077	-0.285
-297.735	800.000	-0.029	0.081
-296.720	698.616	0.099	0.256
-295.705	-73.868	-0.061	0.022
-294.691	177.763	-0.050	0.071
-293.676	-45.729	0.197	0.096
-292.662	-92.005	-0.064	0.018
-291.647	166.853	-0.079	-0.110
-290.632	-19.481	-0.418	0.255
-289.618	-39.677	0.147	-0.076
-288.603	135.361	-0.328	0.420
-287.589	97.331	-0.033	0.037
-286.574	-200.000	-0.012	0.127
-285.559	-200.000	-0.068	-0.372
-284.545	324.739	0.052	-0.098
-283.530	-111.398	-0.244	0.049
-282.516	-118.152	0.203	-0.036
-281.501	-200.000	-0.014	0.362
-280.486	119.005	-0.227	-0.276
-279.472	-140.992	0.360	-0.036
-278.457	-138.736	0.246	0.026
-277.443	221.097	0.134	-0.212
-276.428	-200.000	0.005	-0.245
-275.413	100.997	-0.164	-0.188
-274.399	-49.372	-0.033	-0.016
-273.384	119.152	-0.205	-0.249
-272.370	772.765	0.037	-0.100
-271.355	-101.976	0.028	0.007
-270.340	37.609	0.068	-0.059
-269.326	-19.605	0.170	-0.104
-268.311	-116.389	0.127	-0.023
-267.297	36.095	0.136	-0.118
-266.282	800.000	0.053	0.150
-265.267	-200.000	-0.007	0.066
-264.253	800.000	-0.061	-0.236
-263.238	-168.750	-0.418	-0.016
-262.224	-13.570	-0.319	0.203
-261.209	473.117	0.182	-0.403
-260.195	-145.585	0.061	-0.005
-259.180	-112.800	-0.117	-0.023
-258.165	-67.218	-0.293	0.113
-257.151	125.725	0.159	-0.197
-256.136	-23.282	-0.281	0.166
-255.122	-36.368	0.225	-0.119
-254.107	-200.000	-0.023	-0.142
-253.092	206.396	0.301	0.460
-252.078	800.000	-0.100	0.304
-251.063	800.000	0.057	0.165
-250.049	4.863	0.194	-0.140
-249.034	119.859	0.130	0.159
-248.019	122.841	-0.078	0.096
-247.005	-22.101	-0.184	0.110
-245.990	36.941	-0.024	0.021
-244.976	54.383	-0.085	-0.080
-243.961	-37.082	-0.145	0.076
-242.946	14.845	0.160	0.123
-241.932	800.000	-0.075	-0.271
-240.917	-200.000	0.007	0.189
-239.903	8.805	-0.240	-0.178
-238.888	38.988	-0.058	-0.051
-237.873	800.000	0.021	0.081
-236.859	-139.072	-0.140	-0.015
-235.844	-79.540	-0.145	0.048
-234.830	-200.000	0.007	0.329
-233.815	800.000	-0.025	0.081
-232.800	-200.000	0.011	-0.318
-231.786	-82.440	-0.151	0.048
-230.771	150.179	-0.076	-0.101
-229.757	-32.462	-0.208	-0.114
-228.742	10.527	-0.158	0.118
-227.727	-114.696	-0.193	0.036
-226.713	108.424	-0.217	0.255
-225.698	16.841	-0.092	0.071
-224.684	800.000	0.151	0.496
-223.669	17.999	0.361	-0.282
-222.655	545.437	0.049	-0.115
-221.640	20.577	0.155	0.123
-220.625	800.000	0.044	0.149
-219.611	617.495	0.080	-0.198
-218.596	779.611	0.051	0.137
-217.582	352.299	-0.196	0.381
-216.567	407.493	-0.117	-0.242
-215.552	800.000	0.075	-0.214
-214.538	573.247	0.045	-0.107
-213.523	-200.000	0.015	0.106
-212.509	-65.013	-0.037	0.015
-211.494	21.059	0.062	0.050
-210.479	126.457	-0.228	0.283
-209.465	-112.781	0.319	-0.062
-208.450	37.647	0.251	-0.219
-207.436	-69.602	0.322	-0.121
-206.421	-129.850	0.176	0.024
-205.406	151.620	0.064	-0.086
-204.392	-200.000	-0.028	0.149
-203.377	50.201	0.182	-0.169
-202.363	-182.138	-0.133	0.002
-201.348	-58.148	0.212	0.090
-200.333	-11.691	-0.186	-0.120
-199.319	-81.744	0.087	0.028
-198.304	55.695	0.147	0.139
-197.290	404.387	-0.234	0.483
-196.275	-60.249	-0.180	0.075
-195.260	49.841	0.137	-0.126
-194.246	-200.000	0.029	0.227
-193.231	-200.000	0.048	0.356
-192.217	-28.342	0.005	0.003
-191.202	-23.392	-0.138	-0.081
-190.187	-123.343	0.127	0.020
-189.173	800.000	0.062	-0.194
-188.158	627.574	-0.061	0.150
-187.144	-159.767	-0.041	-0.002
-186.129	345.417	-0.074	0.142
-185.114	24.308	0.078	-0.063
-184.100	-200.000	-0.044	0.252
-183.085	-200.000	-0.007	0.203
-182.071	147.471	-0.230	-0.303
-181.056	-200.000	0.013	-0.177
-180.042	-80.423	-0.369	0.120
-179.027	-45.858	0.541	-0.262
-178.012	425.809	0.104	-0.219
-176.998	-52.387	-0.010	0.005
-175.983	38.391	-0.255	-0.222
-174.969	410.322	0.144	0.299
-173.954	-70.273	-0.266	0.099
-172.939	-131.003	0.108	0.014
-171.925	-2.692	0.160	-0.110
-170.910	800.000	0.031	0.130
-169.896	454.559	-0.130	0.282
-168.881	234.244	-0.192	0.310
-167.866	800.000	0.007	0.026
-166.852	-175.128	0.103	-0.003
-165.837	222.613	-0.051	0.080
-164.823	-48.667	-0.211	-0.099
-163.808	-49.785	0.285	-0.132
-162.793	-98.609	0.262	-0.065
-161.779	-58.058	-0.021	0.009
-160.764	-70.806	0.105	0.039
-159.750	-200.000	-0.011	-0.126
-158.735	86.972	0.190	-0.206
-157.720	-200.000	0.057	-0.408
-156.706	34.158	0.229	0.195
-155.691	293.640	-0.083	-0.148
-154.677	-169.986	0.204	0.007
-153.662	-129.028	0.344	-0.047
-152.647	800.000	0.029	-0.121
-151.633	649.019	0.086	0.215
-150.618	-20.882	0.198	0.119
-149.604	240.381	-0.218	-0.355
-148.589	417.962	0.048	-0.101
-147.574	326.738	0.113	0.212
-146.560	120.432	-0.259	0.315
-145.545	-154.859	-0.052	0.003
-144.531	-144.198	-0.120	0.011
-143.516	800.000	-0.070	-0.196
-142.502	193.171	-0.059	0.087
-141.487	-200.000	-0.053	0.327
-140.472	-111.674	0.310	0.061
-139.458	-200.000	0.005	0.275
-138.443	800.000	-0.064	-0.189
-137.429	-200.000	0.018	-0.185
-136.414	-66.099	0.088	-0.034
-135.399	-200.000	-0.001	-0.479
-134.385	-200.000	-0.001	-0.428
-133.370	-95.518	0.182	-0.048
-132.356	250.126	0.053	0.088
-131.341	-127.176	-0.199	0.028
-130.326	-78.177	0.283	-0.095
-129.312	111.968	-0.179	-0.211
-128.297	272.429	0.073	0.127
-127.283	-97.398	-0.208	-0.053
-126.268	-96.167	0.193	0.050
-125.253	800.000	0.043	0.162
-124.239	-53.785	0.318	-0.142
-123.224	70.653	-0.228	-0.230
-122.210	-176.775	0.286	-0.007
-121.195	-25.493	-0.126	0.073
