DTS Sentinel unit serial number:	SN413079Multiplexer serial number:	ORYXHardware model number:	OX4-SRSoftware version number:	ORYX F/W v4.00 Oryx Data Collector v3.7.2.0data status	okinstallation	princeton_trtdifferential loss correction	single-endedforward channel	channel 3reverse channel	N/Adate	2019/09/18time	09:08:35forward acquisition time	60.00reverse acquisition time	0.00gamma	496.2192k internal	0.2340k external	0.2340temperature offset calibration	0.9940default loss term (dB/km)	0.3790temperature slope calibration	1.0000multiplexer offset coefficient	1.0000multiplexer slope coefficient	1.0000fibre end	0.00T internal ref (°C)	25.42T ext. ref 1 (°C)	0.24T ext. ref 2 (°C)	22.69length (m)	temperature (°C)	Stokes	anti-Stokes-747.200	-200.000	-0.032	-0.174
-746.185	-85.646	-0.207	0.064
-745.171	-22.575	0.402	-0.244
-744.156	46.121	-0.148	-0.137
-743.142	94.862	0.022	0.025
-742.127	23.267	0.396	0.326
-741.112	442.355	-0.086	-0.188
-740.098	59.554	-0.068	0.067
-739.083	800.000	-0.090	0.280
-738.069	-200.000	-0.022	0.141
-737.054	352.389	-0.145	0.287
-736.039	119.981	0.064	0.079
-735.025	-112.356	-0.278	0.056
-734.010	-76.161	0.059	-0.021
-732.996	-67.592	-0.340	0.134
-731.981	-200.000	-0.019	0.082
-730.966	-45.194	0.242	-0.121
-729.952	27.676	-0.141	-0.119
-728.937	800.000	0.057	-0.209
-727.923	-8.945	0.077	0.052
-726.908	800.000	0.075	-0.300
-725.894	35.151	-0.286	0.251
-724.879	224.938	-0.148	-0.240
-723.864	259.821	-0.152	0.262
-722.850	-32.214	-0.185	-0.103
-721.835	354.216	-0.164	-0.327
-720.821	32.327	-0.173	-0.150
-719.806	89.474	-0.203	-0.226
-718.791	-110.740	-0.356	0.073
-717.777	25.498	-0.076	-0.063
-716.762	-60.826	-0.233	-0.099
-715.748	-73.859	0.085	0.031
-714.733	-42.397	0.106	0.054
-713.718	646.925	-0.111	-0.285
-712.704	-200.000	-0.015	-0.228
-711.689	-200.000	0.023	-0.137
-710.675	-58.557	-0.142	0.061
-709.660	-43.052	-0.399	-0.203
-708.645	2.180	0.121	-0.087
-707.631	-67.490	0.192	0.075
-706.616	44.144	-0.112	-0.103
-705.602	-200.000	-0.006	-0.208
-704.587	-200.000	0.020	0.132
-703.572	-49.470	-0.456	-0.217
-702.558	-105.484	-0.494	-0.112
-701.543	-9.239	0.083	0.056
-700.529	141.242	0.021	0.028
-699.514	-103.338	-0.372	-0.088
-698.499	-178.051	-0.077	-0.002
-697.485	-18.198	-0.222	0.139
-696.470	-111.347	-0.161	-0.033
-695.456	89.011	0.140	0.155
-694.441	-200.000	-0.007	-0.069
-693.426	-54.802	-0.493	-0.223
-692.412	32.868	0.065	-0.056
-691.397	800.000	-0.028	-0.098
-690.383	91.263	-0.187	0.210
-689.368	-55.470	0.146	0.065
-688.354	119.813	-0.158	-0.196
-687.339	-28.875	-0.195	-0.112
-686.324	1.474	-0.217	0.156
-685.310	287.022	0.137	-0.247
-684.295	-24.753	-0.107	-0.064
-683.281	-142.101	-0.356	0.035
-682.266	800.000	0.078	0.318
-681.251	325.796	-0.040	0.076
-680.237	-200.000	-0.027	-0.413
-679.222	80.860	-0.182	-0.197
-678.208	-200.000	-0.050	-0.239
-677.193	572.816	0.138	-0.336
-676.178	69.601	-0.248	-0.255
-675.164	-47.579	-0.157	-0.076
-674.149	-97.649	0.067	0.017
-673.135	-93.282	-0.204	0.057
-672.120	-200.000	-0.021	0.094
-671.105	-163.861	0.163	0.008
-670.091	800.000	-0.059	0.234
-669.076	-148.774	0.367	0.030
-668.062	-100.269	-0.334	-0.083
-667.047	-200.000	0.030	0.283
-666.032	44.281	0.182	-0.167
-665.018	268.682	0.122	0.214
-664.003	227.469	-0.146	0.238
-662.989	-144.553	0.291	-0.027
-661.974	800.000	0.107	-0.365
-660.959	-101.673	-0.122	0.030
-659.945	196.444	-0.237	0.361
-658.930	800.000	-0.018	-0.065
-657.916	-59.385	-0.176	0.076
-656.901	529.503	0.119	-0.280
-655.886	215.157	-0.078	-0.123
-654.872	70.272	-0.188	-0.194
-653.857	-97.951	-0.144	0.037
-652.843	-200.000	0.045	0.212
-651.828	-49.237	-0.300	0.143
-650.814	-200.000	0.016	0.240
-649.799	-113.108	0.298	-0.059
-648.784	-186.672	-0.205	0.003
-647.770	48.229	0.186	-0.174
-646.755	38.493	0.211	-0.188
-645.741	-68.499	0.388	-0.150
-644.726	63.688	0.266	0.267
-643.711	-200.000	0.025	0.126
-642.697	-20.761	-0.241	-0.148
-641.682	-60.201	-0.248	0.106
-640.668	169.227	0.244	-0.348
-639.653	-200.000	0.005	0.386
-638.638	-70.701	-0.135	0.051
-637.624	-177.745	-0.293	0.007
-636.609	8.561	0.079	0.060
-635.595	266.000	0.117	0.204
-634.580	-18.217	-0.102	-0.064
-633.565	-200.000	0.003	-0.049
-632.551	-156.236	-0.335	-0.021
-631.536	-25.227	-0.132	0.078
-630.522	738.532	-0.018	0.048
-629.507	10.665	-0.171	0.130
-628.492	-131.374	0.119	-0.016
-627.478	4.879	-0.329	0.241
-626.463	291.803	-0.129	-0.234
-625.449	-38.330	0.275	0.145
-624.434	38.510	-0.121	0.108
-623.419	2.609	0.165	-0.119
-622.405	277.055	-0.173	-0.306
-621.390	127.949	-0.139	-0.176
-620.376	172.823	-0.112	-0.161
-619.361	33.565	0.273	-0.237
-618.346	271.963	-0.110	-0.193
-617.332	-191.175	-0.384	0.004
-616.317	-200.000	-0.003	0.267
-615.303	-200.000	-0.083	-0.388
-614.288	-200.000	0.048	0.337
-613.273	103.919	-0.037	0.044
-612.259	138.148	0.146	-0.190
-611.244	-112.364	0.278	0.056
-610.230	338.184	-0.020	0.039
-609.215	-68.794	0.043	-0.017
-608.201	452.817	0.203	-0.448
-607.186	-163.318	0.216	0.010
-606.171	-39.718	-0.087	-0.046
-605.157	-200.000	-0.051	-0.363
-604.142	240.398	0.074	-0.123
-603.128	291.038	-0.076	-0.138
-602.113	-2.061	-0.129	-0.090
-601.098	208.308	0.230	-0.359
-600.084	74.476	-0.126	-0.132
-599.069	96.887	-0.034	0.038
-598.055	-200.000	0.014	0.100
-597.040	-200.000	0.020	-0.124
-596.025	-133.642	0.493	-0.061
-595.011	57.134	-0.137	0.133
-593.996	-200.000	0.028	-0.235
-592.982	496.280	-0.093	-0.213
-591.967	-200.000	0.013	-0.174
-590.952	-200.000	0.047	-0.224
-589.938	-6.354	-0.249	-0.169
-588.923	800.000	-0.042	-0.180
-587.909	-200.000	0.010	0.191
-586.894	-153.106	0.100	-0.007
-585.879	800.000	-0.070	0.258
-584.865	-18.192	0.325	0.203
-583.850	-60.955	-0.228	0.096
-582.836	36.672	-0.119	0.105
-581.821	123.507	-0.103	-0.128
-580.806	800.000	0.063	-0.196
-579.792	-48.875	0.308	-0.147
-578.777	651.297	-0.021	0.053
-577.763	-149.951	0.289	0.022
-576.748	11.713	-0.175	0.134
-575.733	800.000	0.103	0.323
-574.719	-84.723	-0.195	0.061
-573.704	-33.317	0.193	-0.106
-572.690	-200.000	-0.036	-0.193
-571.675	369.792	0.046	-0.092
-570.661	89.732	0.094	0.105
-569.646	86.946	-0.153	0.168
-568.631	-38.954	0.193	-0.101
-567.617	-18.293	-0.199	-0.124
-566.602	724.263	-0.085	-0.226
-565.588	296.260	-0.125	-0.227
-564.573	-98.980	0.169	0.043
-563.558	176.314	-0.192	-0.277
-562.544	119.478	-0.204	0.251
-561.529	-30.065	0.128	0.073
-560.515	-200.000	-0.024	-0.171
-559.500	14.163	0.123	-0.096
-558.485	-200.000	0.021	-0.312
-557.471	-111.515	-0.201	0.041
-556.456	3.707	0.268	0.195
-555.442	147.825	-0.073	0.098
-554.427	232.406	0.135	-0.220
-553.412	41.986	0.103	-0.093
-552.398	-23.197	0.155	0.093
-551.383	78.458	0.229	0.243
-550.369	66.468	-0.132	-0.133
-549.354	179.398	0.267	-0.389
-548.339	800.000	0.070	-0.278
-547.325	95.519	0.126	-0.143
-546.310	116.821	-0.109	0.134
-545.296	71.379	-0.205	-0.211
-544.281	-164.862	0.161	-0.007
-543.266	539.585	-0.106	-0.252
-542.252	800.000	0.080	-0.338
-541.237	305.063	-0.109	-0.201
-540.223	116.689	0.172	-0.210
-539.208	10.095	0.086	-0.065
-538.193	-139.524	-0.301	0.032
-537.179	167.133	-0.045	0.063
-536.164	-138.238	0.072	0.008
-535.150	70.813	-0.174	-0.179
-534.135	457.593	-0.037	-0.081
-533.121	113.509	0.189	-0.228
-532.106	-128.167	0.470	-0.067
-531.091	50.781	-0.244	-0.230
-530.077	-49.198	-0.139	-0.066
-529.062	-200.000	0.021	0.151
-528.048	800.000	-0.093	0.342
-527.033	-200.000	-0.014	0.174
-526.018	-200.000	-0.017	-0.170
-525.004	190.481	0.065	0.097
-523.989	-59.150	0.071	-0.031
-522.975	44.049	-0.079	-0.072
-521.960	477.776	-0.116	-0.261
-520.945	36.967	-0.098	-0.087
-519.931	4.620	-0.086	-0.063
-518.916	48.304	-0.130	-0.121
-517.902	-200.000	0.019	0.275
-516.887	223.881	-0.118	-0.190
-515.872	92.378	-0.116	0.130
-514.858	-190.462	-0.186	-0.002
-513.843	91.037	-0.165	0.184
-512.829	250.956	0.054	0.091
-511.814	-125.825	-0.044	0.007
-510.799	-183.435	-0.211	-0.004
-509.785	107.293	-0.033	0.039
-508.770	415.794	-0.097	-0.205
-507.756	-200.000	0.000	0.135
-506.741	-69.205	0.074	-0.028
-505.726	800.000	-0.095	0.284
-504.712	-200.000	-0.016	0.440
-503.697	672.218	0.121	0.312
-502.683	6.934	0.055	0.040
-501.668	3.946	-0.243	0.176
-500.653	400.323	0.086	0.180
-499.639	254.713	0.119	0.203
-498.624	-200.000	0.007	0.164
-497.610	318.693	0.066	-0.124
-496.595	800.000	-0.035	-0.151
-495.581	2.782	0.147	0.106
-494.566	-159.840	0.148	-0.008
-493.551	588.108	0.091	-0.223
-492.537	-84.550	-0.180	0.056
-491.522	-200.000	0.029	0.263
-490.508	-133.134	0.175	0.022
-489.493	449.629	-0.026	0.057
-488.478	-74.407	0.206	0.074
-487.464	-41.865	0.168	-0.086
-486.449	615.854	0.111	0.277
-485.435	-200.000	-0.031	-0.329
-484.420	168.641	-0.248	-0.350
-483.405	-55.424	-0.079	-0.035
-482.391	91.766	-0.250	-0.279
-481.376	-116.205	0.186	-0.034
-480.362	62.807	0.156	0.155
-479.347	-48.479	0.309	0.148
-478.332	211.299	0.111	0.173
-477.318	-97.061	-0.144	-0.037
-476.303	468.129	-0.052	-0.115
-475.289	613.342	-0.044	-0.110
-474.274	-136.899	0.395	-0.045
-473.259	-25.828	-0.199	0.116
-472.245	-97.013	-0.187	-0.049
-471.230	-200.000	0.033	0.172
-470.216	-77.367	0.199	-0.068
-469.201	8.314	0.117	-0.087
-468.186	-39.160	-0.604	-0.315
-467.172	-65.262	-0.126	-0.050
-466.157	10.869	0.205	0.155
-465.143	297.193	-0.188	-0.343
-464.128	-43.841	0.187	0.093
-463.113	-11.579	-0.261	0.170
-462.099	183.255	0.271	0.397
-461.084	800.000	0.126	0.352
-460.070	326.559	0.172	0.327
-459.055	-17.731	0.137	-0.085
-458.040	-111.881	-0.420	0.084
-457.026	9.347	0.166	-0.125
-456.011	-200.000	0.081	-0.356
-454.997	-200.000	-0.016	0.095
-453.982	120.467	-0.158	0.194
-452.968	445.005	-0.129	-0.282
-451.953	230.716	-0.089	-0.145
-450.938	25.908	0.179	0.148
-449.924	579.003	0.086	0.209
-448.909	-162.939	-0.131	-0.006
-447.895	800.000	-0.035	-0.102
-446.880	-147.134	-0.225	0.019
-445.865	134.845	-0.091	0.117
-444.851	157.318	-0.167	-0.229
-443.836	-200.000	0.007	-0.213
-442.822	-106.574	-0.271	0.060
-441.807	59.301	0.201	0.196
-440.792	800.000	-0.130	-0.445
-439.778	-22.755	0.311	-0.186
-438.763	74.628	0.200	-0.208
-437.749	44.014	0.109	-0.099
-436.734	40.931	-0.054	-0.049
-435.719	-53.889	-0.290	-0.131
-434.705	-84.931	0.414	-0.129
-433.690	282.196	0.048	-0.086
-432.676	-200.000	0.026	-0.135
-431.661	-179.196	-0.292	0.006
-430.646	-80.277	0.126	-0.042
-429.632	-200.000	0.017	-0.124
-428.617	55.282	0.081	0.077
-427.603	-90.827	-0.077	0.022
-426.588	800.000	0.124	-0.367
-425.573	-200.000	0.002	0.227
-424.559	-96.250	-0.191	-0.050
-423.544	-200.000	-0.023	-0.145
-422.530	131.017	0.084	0.106
-421.515	72.916	-0.160	-0.166
-420.500	178.874	-0.129	-0.187
-419.486	-200.000	-0.032	-0.181
-418.471	-95.227	0.409	-0.109
-417.457	-163.973	-0.307	0.014
-416.442	171.683	0.156	0.221
-415.428	-184.535	-0.014	-0.000
-414.413	-118.989	-0.128	-0.022
-413.398	71.526	0.017	0.018
-412.384	-200.000	0.103	0.448
-411.369	96.765	0.211	-0.239
-410.355	-48.650	0.254	-0.121
-409.340	34.500	0.204	0.176
-408.325	-141.014	-0.100	0.010
-407.311	-157.616	-0.069	-0.004
-406.296	127.231	0.050	-0.063
-405.282	-67.359	0.242	0.094
-404.267	-69.728	-0.183	-0.069
-403.252	223.201	0.086	0.137
-402.238	-200.000	0.063	-0.404
-401.223	800.000	0.093	-0.293
-400.209	-71.277	0.062	0.023
-399.194	-4.296	-0.156	-0.107
-398.179	44.228	-0.192	-0.174
-397.165	-84.045	0.077	0.024
-396.150	114.152	-0.159	-0.191
-395.136	12.600	-0.216	-0.165
-394.121	130.125	-0.176	0.223
-393.106	239.538	0.009	0.014
-392.092	-200.000	-0.003	0.041
-391.077	-30.300	0.244	0.137
-390.063	-131.576	-0.111	-0.014
-389.048	3.880	0.180	0.130
-388.033	-200.000	-0.048	-0.211
-387.019	177.958	-0.219	0.316
-386.004	-200.000	-0.034	0.162
-384.990	-14.578	-0.244	0.155
-383.975	-23.589	-0.290	0.172
-382.960	-62.046	0.194	0.080
-381.946	-141.065	0.426	-0.043
-380.931	278.800	0.147	-0.260
-379.917	147.073	0.165	-0.220
-378.902	128.560	0.068	0.086
-377.888	472.582	0.175	0.389
-376.873	388.197	0.123	0.251
-375.858	139.308	-0.163	0.212
-374.844	800.000	-0.113	0.367
-373.829	-33.166	-0.238	-0.130
-372.815	-31.585	0.246	0.137
-371.800	-100.051	-0.206	-0.051
-370.785	-148.542	-0.190	-0.015
-369.771	800.000	-0.057	-0.174
-368.756	-33.945	0.183	-0.099
-367.742	297.861	-0.068	-0.124
-366.727	215.451	0.109	0.170
-365.712	-92.563	0.361	0.100
-364.698	120.336	-0.118	0.144
-363.683	155.328	-0.066	-0.090
-362.669	517.400	0.096	-0.222
-361.654	109.377	0.194	0.229
-360.639	-200.000	-0.030	-0.210
-359.625	-200.000	-0.009	-0.257
-358.610	7.680	0.251	-0.185
-357.596	-164.123	-0.151	0.007
-356.581	-145.347	0.152	-0.014
-355.566	442.638	0.167	0.360
-354.552	127.405	0.148	0.186
-353.537	42.781	0.028	-0.026
-352.523	10.588	0.192	-0.145
-351.508	-200.000	-0.020	-0.191
-350.493	180.686	-0.263	0.381
-349.479	-200.000	0.024	-0.103
-348.464	-172.715	-0.228	0.007
-347.450	-88.397	-0.155	0.046
-346.435	312.387	-0.112	-0.208
-345.420	-200.000	-0.027	0.159
-344.406	-200.000	0.189	-0.001
-343.391	-200.000	0.053	-0.479
-342.377	33.121	-0.062	0.053
-341.362	-62.647	-0.317	0.130
-340.348	-10.445	0.171	0.112
-339.333	111.969	0.231	-0.275
-338.318	800.000	-0.091	-0.333
-337.304	21.566	0.290	0.232
-336.289	-53.897	0.133	0.060
-335.275	-187.991	0.158	0.002
-334.260	124.406	0.118	0.146
-333.245	-19.960	-0.228	-0.139
-332.231	800.000	-0.020	-0.077
-331.216	-200.000	-0.014	-0.142
-330.202	441.593	-0.014	0.030
-329.187	-160.526	-0.372	-0.020
-328.172	285.675	0.147	0.261
-327.158	457.244	-0.079	0.174
-326.143	800.000	0.035	0.106
-325.129	-58.859	0.166	0.071
-324.114	111.284	0.226	0.268
-323.099	112.425	-0.180	0.215
-322.085	-200.000	0.018	-0.243
-321.070	800.000	0.051	0.172
-320.056	367.854	-0.155	0.308
-319.041	-167.686	0.177	0.007
-318.026	-118.479	0.388	0.068
-317.012	-114.503	0.353	-0.067
-315.997	800.000	0.088	0.323
-314.983	618.190	0.044	-0.110
-313.968	-111.590	-0.451	0.090
-312.953	-200.000	-0.033	-0.219
-311.939	11.422	0.222	-0.167
-310.924	-200.000	-0.001	0.221
-309.910	-40.205	-0.086	-0.044
-308.895	-111.445	-0.189	-0.038
-307.880	104.936	0.102	0.118
-306.866	764.263	-0.086	0.230
-305.851	-139.714	-0.108	0.011
-304.837	394.176	0.141	0.290
-303.822	-81.261	0.333	-0.108
-302.807	92.625	-0.093	-0.103
-301.793	-51.078	0.104	-0.048
-300.778	-36.296	0.101	0.053
-299.764	-40.426	-0.176	-0.090
-298.749	-4.375	0.437	-0.298
-297.735	-143.636	0.210	-0.020
-296.720	141.040	0.162	-0.211
-295.705	529.259	0.188	0.437
-294.691	-83.926	0.574	-0.180
-293.676	10.612	-0.142	-0.107
-292.662	11.532	0.239	-0.180
-291.647	155.961	-0.055	-0.075
-290.632	-58.013	-0.134	0.058
-289.618	-183.004	0.274	0.005
-288.603	-166.928	-0.387	-0.016
-287.589	363.262	0.111	0.219
-286.574	-200.000	-0.015	0.124
-285.559	-77.978	0.228	0.077
-284.545	-48.402	0.297	-0.141
-283.530	116.291	0.147	-0.177
-282.516	-7.585	0.262	-0.175
-281.501	359.851	-0.103	-0.204
-280.486	800.000	-0.033	-0.107
-279.472	-88.419	0.191	-0.056
-278.457	122.266	-0.031	-0.038
-277.443	-200.000	-0.024	-0.115
-276.428	-90.817	-0.229	-0.065
-275.413	-7.052	0.070	-0.047
-274.399	-1.204	-0.163	0.113
-273.384	125.203	0.325	0.403
-272.370	7.150	0.352	0.258
-271.355	-94.897	-0.211	0.056
-270.340	-142.203	0.092	-0.009
-269.326	119.571	-0.290	0.353
-268.311	-200.000	0.084	0.451
-267.297	44.780	0.161	0.146
-266.282	-55.343	-0.268	-0.118
-265.267	120.535	-0.131	-0.160
-264.253	-200.000	-0.003	0.276
-263.238	177.537	0.110	-0.158
-262.224	404.217	-0.076	-0.157
-261.209	-55.903	-0.098	0.043
-260.195	118.896	0.132	0.160
-259.180	800.000	-0.062	-0.217
-258.165	345.194	-0.054	0.105
-257.151	64.133	-0.063	0.062
-256.136	800.000	0.103	0.396
-255.122	800.000	0.025	-0.086
-254.107	-102.927	-0.132	-0.031
-253.092	-17.265	0.129	-0.080
-252.078	-200.000	-0.021	0.103
-251.063	-10.729	-0.064	0.042
-250.049	677.771	-0.036	0.092
-249.034	195.460	-0.122	-0.182
-248.019	213.208	-0.067	-0.104
-247.005	62.740	-0.216	0.213
-245.990	800.000	0.094	0.304
-244.976	66.197	-0.101	-0.101
-243.961	-200.000	0.029	0.173
-242.946	-71.053	0.074	0.027
-241.932	19.983	-0.507	0.402
-240.917	-185.442	0.035	-0.001
-239.903	776.431	0.162	0.436
-238.888	76.776	0.108	0.112
-237.873	28.480	-0.181	0.150
-236.859	-8.824	-0.114	-0.075
-235.844	83.788	-0.146	-0.156
-234.830	-200.000	0.037	0.250
-233.815	162.294	0.239	0.330
-232.800	-200.000	0.018	0.354
-231.786	100.492	-0.194	0.221
-230.771	-72.695	-0.047	0.017
-229.757	-114.213	-0.015	-0.003
-228.742	211.287	-0.089	0.137
-227.727	83.209	-0.050	0.053
-226.713	-200.000	0.004	0.065
-225.698	97.801	0.106	-0.120
-224.684	-30.467	-0.032	-0.018
-223.669	800.000	0.038	0.132
-222.655	-200.000	-0.026	0.142
-221.640	-200.000	0.035	0.269
-220.625	-110.024	-0.184	-0.038
-219.611	-136.598	-0.273	-0.031
-218.596	-200.000	0.011	-0.081
-217.582	-200.000	-0.001	-0.036
-216.567	-103.903	-0.201	0.046
-215.552	5.381	-0.185	-0.134
-214.538	-121.756	-0.308	-0.050
-213.523	-172.401	-0.078	-0.002
-212.509	0.992	0.088	-0.062
-211.494	283.174	-0.179	0.316
-210.479	112.899	-0.162	-0.192
-209.465	800.000	-0.051	0.173
-208.450	-92.726	-0.145	-0.040
-207.436	800.000	-0.158	-0.440
-206.421	182.025	0.104	0.150
-205.406	166.222	-0.270	0.375
-204.392	-23.186	-0.161	0.095
-203.377	40.877	-0.136	0.120
-202.363	126.102	-0.025	0.031
-201.348	44.039	0.150	-0.135
-200.333	452.674	0.090	-0.194
-199.319	-200.000	0.037	0.213
-198.304	84.842	0.302	0.325
-197.290	153.465	-0.114	-0.154
-196.275	-88.417	-0.169	-0.050
-195.260	157.628	0.060	0.082
-194.246	-67.351	0.095	-0.037
-193.231	112.048	-0.139	-0.165
-192.217	15.676	-0.326	0.252
-191.202	800.000	-0.041	0.114
-190.187	210.345	-0.069	-0.107
-189.173	182.609	-0.192	-0.278
-188.158	115.993	0.102	0.123
-187.144	-147.204	-0.083	0.007
-186.129	-26.008	0.275	-0.159
-185.114	263.434	-0.177	-0.301
-184.100	401.664	-0.126	0.259
-183.085	26.538	0.172	-0.141
-182.071	-153.208	0.044	0.003
-181.056	-200.000	0.005	0.234
-180.042	267.349	-0.139	-0.238
-179.027	-200.000	-0.031	-0.172
-178.012	800.000	0.030	-0.108
-176.998	-134.760	0.113	0.013
-175.983	-45.801	-0.336	0.163
-174.969	244.443	-0.191	0.315
-173.954	-35.065	-0.078	0.042
-172.939	-200.000	0.009	0.233
-171.925	-200.000	0.001	0.425
-170.910	-200.000	0.042	0.235
-169.896	147.048	0.032	0.042
-168.881	-200.000	0.024	-0.423
-167.866	690.190	0.008	-0.020
-166.852	-25.088	-0.161	-0.093
-165.837	-126.349	0.099	-0.014
-164.823	197.126	0.177	0.264
-163.808	800.000	-0.088	0.241
-162.793	146.522	0.057	-0.075
-161.779	-21.930	0.105	0.063
-160.764	425.962	0.092	-0.194
-159.750	800.000	0.038	-0.113
-158.735	82.428	0.180	0.191
-157.720	109.466	-0.144	-0.169
-156.706	-200.000	-0.002	-0.414
-155.691	257.866	-0.055	-0.092
-154.677	23.319	-0.322	0.259
-153.662	21.340	-0.170	0.135
-152.647	43.045	-0.136	0.122
-151.633	-75.362	-0.102	-0.036
-150.618	-118.422	0.318	-0.055
-149.604	-81.098	0.216	0.070
-148.589	-28.996	0.257	0.144
-147.574	-134.200	0.206	-0.025
-146.560	-200.000	0.009	-0.184
-145.545	751.227	0.125	0.330
-144.531	72.146	0.211	0.215
-143.516	800.000	0.019	-0.063
-142.502	-96.783	-0.092	-0.024
-141.487	-100.153	-0.179	-0.044
-140.472	362.085	-0.172	-0.337
-139.458	107.215	0.133	-0.155
-138.443	39.916	-0.184	0.162
-137.429	-200.000	-0.018	0.157
-136.414	29.553	0.261	0.217
-135.399	93.047	-0.121	0.134
-134.385	800.000	-0.054	0.184
-133.370	16.104	-0.269	-0.207
-132.356	800.000	0.054	-0.220
-131.341	-174.386	-0.092	-0.003
-130.326	800.000	0.016	0.053
-129.312	-84.917	0.247	-0.076
-128.297	300.426	0.166	0.300
-127.283	800.000	0.027	-0.081
-126.268	-200.000	-0.000	-0.068
-125.253	499.986	0.027	0.061
-124.239	485.192	0.095	0.211
-123.224	335.324	-0.154	0.292
-122.210	608.633	0.075	-0.184
-121.195	800.000	0.119	-0.382
