DTS Sentinel unit serial number:	SN413079Multiplexer serial number:	ORYXHardware model number:	OX4-SRSoftware version number:	ORYX F/W v4.00 Oryx Data Collector v3.7.2.0data status	okinstallation	princeton_trtdifferential loss correction	single-endedforward channel	channel 3reverse channel	N/Adate	2019/09/17time	09:04:35forward acquisition time	60.00reverse acquisition time	0.00gamma	496.2192k internal	0.2328k external	0.2328temperature offset calibration	0.9939default loss term (dB/km)	0.3790temperature slope calibration	1.0000multiplexer offset coefficient	1.0000multiplexer slope coefficient	1.0000fibre end	0.00T internal ref (°C)	28.12T ext. ref 1 (°C)	0.13T ext. ref 2 (°C)	24.80length (m)	temperature (°C)	Stokes	anti-Stokes-747.200	27.500	0.244	-0.206
-746.185	-200.000	-0.012	0.181
-745.171	-48.050	-0.075	-0.036
-744.156	-6.152	0.158	-0.109
-743.142	-200.000	-0.003	-0.035
-742.127	-200.000	0.028	0.277
-741.112	-101.131	-0.076	-0.019
-740.098	-46.082	-0.296	0.147
-739.083	-159.205	0.401	0.023
-738.069	126.350	-0.026	0.034
-737.054	-59.226	-0.261	0.113
-736.039	-48.659	-0.414	-0.200
-735.025	35.647	0.110	0.097
-734.010	-57.293	-0.263	-0.117
-732.996	-114.726	0.102	-0.020
-731.981	246.632	-0.096	0.163
-730.966	355.560	0.107	-0.215
-729.952	-46.229	-0.432	-0.214
-728.937	142.132	-0.156	-0.208
-727.923	-200.000	0.066	-0.307
-726.908	25.080	0.345	-0.288
-725.894	-26.861	-0.282	-0.166
-724.879	192.344	-0.089	0.135
-723.864	-200.000	-0.342	0.001
-722.850	-200.000	-0.002	-0.201
-721.835	-200.000	-0.035	-0.274
-720.821	-200.000	-0.020	0.180
-719.806	174.959	-0.086	0.126
-718.791	800.000	0.010	-0.039
-717.777	741.094	-0.067	0.181
-716.762	-120.544	-0.238	0.041
-715.748	-155.252	-0.182	-0.012
-714.733	-129.705	-0.108	-0.015
-713.718	91.410	0.208	-0.235
-712.704	20.840	0.158	0.129
-711.689	-19.160	-0.329	-0.206
-710.675	20.557	-0.229	0.186
-709.660	-200.000	-0.013	0.130
-708.645	-161.934	-0.080	-0.004
-707.631	-8.796	0.132	-0.089
-706.616	-113.311	0.205	-0.041
-705.602	684.648	0.071	-0.188
-704.587	-154.344	0.172	0.012
-703.572	327.749	0.029	-0.056
-702.558	-123.317	-0.176	-0.028
-701.543	384.723	0.104	-0.216
-700.529	-200.000	-0.037	0.221
-699.514	253.221	0.084	0.145
-698.499	-195.089	-0.182	0.001
-697.485	-104.554	0.106	0.025
-696.470	136.057	-0.053	-0.069
-695.456	106.429	-0.208	0.248
-694.441	-151.260	0.127	0.010
-693.426	-200.000	-0.282	-0.001
-692.412	96.184	-0.119	-0.137
-691.397	395.134	-0.116	-0.243
-690.383	588.861	0.033	0.082
-689.368	-34.756	0.078	0.043
-688.354	800.000	-0.045	-0.134
-687.339	-200.000	-0.003	-0.041
-686.324	-112.067	0.141	-0.029
-685.310	-52.827	0.150	-0.070
-684.295	49.304	-0.347	-0.328
-683.281	-74.910	-0.223	-0.080
-682.266	191.337	0.105	-0.159
-681.251	-11.382	-0.042	-0.028
-680.237	-106.011	-0.258	0.058
-679.222	-200.000	0.065	-0.701
-678.208	-36.601	0.109	-0.059
-677.193	-200.000	-0.010	-0.060
-676.178	624.397	0.085	-0.216
-675.164	-200.000	-0.112	-0.520
-674.149	-200.000	-0.031	-0.262
-673.135	800.000	-0.052	-0.155
-672.120	53.768	-0.041	-0.039
-671.105	-71.613	-0.558	0.209
-670.091	-90.634	0.193	0.056
-669.076	-200.000	-0.016	-0.303
-668.062	-44.843	0.089	0.045
-667.047	-146.959	-0.168	-0.014
-666.032	-153.286	0.263	0.018
-665.018	-104.315	0.081	-0.019
-664.003	130.059	-0.187	-0.240
-662.989	-46.743	-0.434	-0.213
-661.974	800.000	-0.058	0.243
-660.959	-200.000	-0.047	-0.301
-659.945	-151.473	-0.124	0.009
-658.930	-200.000	0.017	0.358
-657.916	-81.356	0.140	0.046
-656.901	89.325	0.097	0.108
-655.886	-100.052	0.201	-0.050
-654.872	-82.742	0.076	0.025
-653.857	190.512	0.194	-0.292
-652.843	143.739	-0.294	-0.393
-651.828	-29.232	0.388	-0.223
-650.814	-200.000	-0.003	-0.118
-649.799	-131.437	-0.117	0.015
-648.784	320.947	0.053	0.100
-647.770	-19.064	0.275	0.171
-646.755	-12.451	-0.252	-0.165
-645.741	800.000	0.105	-0.297
-644.726	-66.518	0.212	-0.084
-643.711	-65.499	0.262	-0.106
-642.697	-2.216	0.281	0.198
-641.682	-52.842	0.096	-0.044
-640.668	-114.511	-0.112	-0.022
-639.653	-27.923	0.122	0.071
-638.638	-200.000	0.005	-0.148
-637.624	-200.000	-0.025	0.312
-636.609	-116.027	-0.041	0.008
-635.595	162.611	0.165	-0.232
-634.580	-49.324	-0.343	0.164
-633.565	-57.252	-0.305	0.134
-632.551	498.591	-0.108	0.250
-631.536	-148.060	-0.368	0.031
-630.522	-68.048	0.445	-0.174
-629.507	-200.000	0.012	-0.400
-628.492	49.900	0.316	-0.299
-627.478	227.756	0.141	-0.231
-626.463	55.809	-0.214	-0.208
-625.449	-135.852	-0.135	0.016
-624.434	81.456	0.121	-0.131
-623.419	-105.853	0.120	-0.027
-622.405	195.025	-0.114	-0.174
-621.390	326.544	-0.034	0.065
-620.376	45.449	-0.269	0.249
-619.361	-135.111	0.191	0.023
-618.346	-200.000	-0.003	0.076
-617.332	-200.000	0.052	-0.343
-616.317	342.666	-0.018	0.034
-615.303	-157.778	-0.338	-0.020
-614.288	-200.000	0.035	-0.238
-613.273	93.726	-0.213	-0.242
-612.259	-150.981	0.236	-0.018
-611.244	-200.000	0.009	0.087
-610.230	-50.509	-0.392	0.185
-609.215	200.502	0.133	0.204
-608.201	498.071	0.076	0.176
-607.186	-200.000	0.352	0.001
-606.171	-83.343	0.159	-0.051
-605.157	-39.591	0.116	-0.061
-604.142	-57.428	0.095	0.042
-603.128	-105.064	-0.141	-0.032
-602.113	-145.297	0.209	0.019
-601.098	84.122	-0.087	-0.095
-600.084	7.601	0.199	-0.149
-599.069	-50.438	0.018	-0.009
-598.055	-89.121	-0.234	0.069
-597.040	800.000	-0.099	0.341
-596.025	-42.373	-0.004	-0.002
-595.011	240.058	0.059	-0.098
-593.996	178.497	-0.167	-0.244
-592.982	175.873	-0.181	-0.264
-591.967	800.000	0.120	-0.334
-590.952	35.478	-0.150	0.131
-589.938	12.277	-0.115	-0.089
-588.923	-52.145	0.226	-0.105
-587.909	97.832	-0.094	0.108
-586.894	346.947	-0.083	0.163
-585.879	-145.254	-0.106	0.010
-584.865	-200.000	-0.016	-0.089
-583.850	19.081	0.250	0.201
-582.836	508.948	-0.069	-0.160
-581.821	-14.184	-0.152	-0.098
-580.806	-173.023	-0.055	0.002
-579.792	-9.991	-0.407	0.271
-578.777	126.471	-0.144	-0.183
-577.763	51.162	-0.100	0.095
-576.748	210.129	-0.136	0.213
-575.733	-92.426	0.297	0.084
-574.719	130.348	-0.173	0.222
-573.704	-184.240	-0.175	0.003
-572.690	800.000	-0.046	0.162
-571.675	136.376	0.174	0.227
-570.661	800.000	0.061	0.202
-569.646	699.827	-0.062	-0.164
-568.631	-86.407	-0.152	0.047
-567.617	-142.990	0.201	-0.020
-566.602	-1.470	-0.126	0.089
-565.588	-200.000	0.090	-0.484
-564.573	-35.497	-0.553	0.301
-563.558	-131.597	0.118	0.015
-562.544	-200.000	0.027	-0.135
-561.529	-20.513	-0.191	-0.118
-560.515	112.033	0.059	-0.071
-559.500	-200.000	0.028	-0.362
-558.485	64.758	-0.292	-0.295
-557.471	24.516	-0.082	-0.068
-556.456	-200.000	0.029	-0.169
-555.442	800.000	0.024	-0.097
-554.427	-75.653	-0.440	0.156
-553.412	-140.072	-0.044	-0.005
-552.398	46.171	0.124	0.115
-551.383	377.096	0.119	-0.243
-550.369	121.297	-0.111	-0.138
-549.354	-82.399	0.243	-0.079
-548.339	800.000	-0.046	0.172
-547.325	6.440	0.358	-0.266
-546.310	213.059	0.035	0.056
-545.296	516.266	-0.160	-0.374
-544.281	70.920	-0.147	-0.152
-543.266	-200.000	-0.006	0.049
-542.252	-159.801	0.045	-0.002
-541.237	63.434	-0.109	-0.109
-540.223	-200.000	0.009	-0.114
-539.208	-200.000	-0.014	0.184
-538.193	-156.911	-0.292	-0.018
-537.179	-28.314	-0.473	-0.273
-536.164	631.204	0.062	0.156
-535.150	-200.000	-0.008	0.158
-534.135	-200.000	-0.021	0.214
-533.121	800.000	-0.080	-0.243
-532.106	-9.260	-0.113	0.075
-531.091	-127.328	0.038	-0.006
-530.077	800.000	-0.040	0.118
-529.062	800.000	-0.078	0.228
-528.048	-12.662	-0.094	-0.061
-527.033	166.694	-0.122	0.173
-526.018	-37.933	-0.160	0.085
-525.004	-101.097	0.089	0.022
-523.989	403.421	-0.035	0.073
-522.975	67.621	-0.146	-0.149
-521.960	60.079	0.002	-0.002
-520.945	-102.217	0.096	0.023
-519.931	-200.000	0.025	0.146
-518.916	-50.390	-0.187	-0.088
-517.902	-114.866	0.618	-0.118
-516.887	-70.789	-0.295	-0.111
-515.872	367.627	0.016	0.033
-514.858	-200.000	0.051	-0.298
-513.843	-85.058	0.255	-0.080
-512.829	-136.282	-0.069	0.008
-511.814	7.641	-0.032	-0.024
-510.799	-89.210	-0.358	-0.106
-509.785	-75.550	0.091	-0.032
-508.770	-15.765	0.208	-0.132
-507.756	443.831	-0.024	-0.053
-506.741	-123.947	0.313	-0.049
-505.726	39.599	0.122	-0.109
-504.712	388.345	-0.107	-0.222
-503.697	800.000	0.082	-0.265
-502.683	800.000	0.082	0.247
-501.668	260.507	-0.046	0.079
-500.653	-57.348	-0.171	0.075
-499.639	-0.512	-0.081	-0.057
-498.624	165.557	-0.060	0.084
-497.610	-116.794	-0.149	-0.027
-496.595	-92.458	-0.279	0.078
-495.581	50.989	0.140	-0.133
-494.566	-200.000	0.006	0.123
-493.551	-200.000	0.075	0.353
-492.537	-69.720	0.103	0.039
-491.522	-131.873	-0.344	0.045
-490.508	-200.000	0.017	0.079
-489.493	-200.000	0.054	-0.408
-488.478	70.299	-0.150	-0.155
-487.464	311.872	0.189	-0.354
-486.449	-200.000	0.037	0.189
-485.435	-200.000	0.054	0.318
-484.420	-38.674	-0.315	-0.166
-483.405	800.000	0.022	-0.073
-482.391	-200.000	-0.039	-0.257
-481.376	3.992	-0.256	0.186
-480.362	-200.000	-0.049	-0.305
-479.347	-70.627	-0.158	-0.060
-478.332	-200.000	0.108	-0.590
-477.318	-43.695	-0.132	0.066
-476.303	253.010	0.125	-0.213
-475.289	356.732	0.083	0.164
-474.274	151.970	0.147	-0.200
-473.259	-88.460	-0.242	-0.072
-472.245	800.000	0.081	-0.260
-471.230	-112.627	-0.204	-0.041
-470.216	800.000	0.045	0.169
-469.201	223.809	-0.036	-0.057
-468.186	-76.226	-0.327	-0.115
-467.172	-200.000	-0.071	0.358
-466.157	800.000	-0.073	0.219
-465.143	220.757	0.103	0.165
-464.128	340.620	0.070	-0.136
-463.113	800.000	-0.010	-0.035
-462.099	114.019	-0.238	-0.288
-461.084	557.618	0.111	-0.267
-460.070	-200.000	-0.031	0.180
-459.055	-4.780	-0.157	-0.108
-458.040	59.568	-0.111	0.109
-457.026	-138.315	0.121	-0.013
-456.011	-30.945	0.198	-0.111
-454.997	463.831	0.056	0.124
-453.982	-156.461	0.147	-0.009
-452.968	-133.922	-0.265	-0.033
-451.953	-200.000	0.017	0.245
-450.938	9.679	-0.151	-0.114
-449.924	30.458	-0.307	0.262
-448.909	31.189	0.120	0.102
-447.895	-51.200	0.143	-0.067
-446.880	-200.000	-0.017	-0.135
-445.865	206.949	0.064	0.100
-444.851	-200.000	-0.011	-0.077
-443.836	800.000	0.134	0.445
-442.822	-52.687	-0.242	-0.111
-441.807	-200.000	-0.013	0.087
-440.792	-121.149	0.292	0.049
-439.778	652.989	-0.050	0.127
-438.763	136.719	-0.219	-0.284
-437.749	87.011	-0.113	0.124
-436.734	800.000	-0.031	-0.088
-435.719	-150.888	0.154	0.012
-434.705	162.531	0.199	0.278
-433.690	800.000	0.021	-0.089
-432.676	-55.854	0.058	-0.026
-431.661	103.631	0.039	0.045
-430.646	173.795	-0.082	0.118
-429.632	492.644	-0.067	0.153
-428.617	69.285	-0.046	-0.047
-427.603	-200.000	0.018	0.325
-426.588	178.593	0.031	-0.045
-425.573	-108.399	0.320	0.069
-424.559	-73.523	-0.357	-0.130
-423.544	-200.000	0.052	-0.248
-422.530	19.045	-0.056	-0.044
-421.515	-200.000	-0.004	-0.057
-420.500	-21.951	0.263	-0.159
-419.486	132.145	-0.148	0.190
-418.471	-200.000	0.020	0.364
-417.457	5.895	0.192	0.142
-416.442	-200.000	-0.027	-0.122
-415.428	7.621	0.078	0.058
-414.413	97.811	0.156	-0.179
-413.398	-160.950	0.112	-0.006
-412.384	499.004	0.070	0.159
-411.369	15.041	-0.150	-0.117
-410.355	210.441	0.052	0.081
-409.340	-98.637	-0.194	0.049
-408.325	-25.932	-0.083	-0.049
-407.311	295.942	0.100	-0.181
-406.296	61.800	-0.303	-0.300
-405.282	-103.714	0.214	-0.050
-404.267	73.204	-0.072	-0.075
-403.252	35.837	-0.099	0.087
-402.238	-185.930	0.145	0.002
-401.223	-200.000	-0.024	0.150
-400.209	27.969	0.082	0.069
-399.194	48.319	-0.143	0.133
-398.179	-104.183	-0.326	-0.075
-397.165	25.023	0.160	0.132
-396.150	230.809	-0.119	0.193
-395.136	-3.190	-0.052	0.036
-394.121	61.458	-0.075	0.074
-393.106	54.810	0.229	0.219
-392.092	-122.797	-0.306	-0.049
-391.077	276.605	0.038	0.067
-390.063	-33.499	-0.195	-0.107
-389.048	323.953	0.054	-0.102
-388.033	-133.239	0.249	0.031
-387.019	-200.000	-0.034	0.352
-386.004	-98.029	0.325	-0.083
-384.990	-76.574	0.439	-0.153
-383.975	-200.000	0.006	0.054
-382.960	-200.000	0.036	0.461
-381.946	21.682	0.094	0.076
-380.931	-200.000	0.015	0.140
-379.917	-114.841	0.173	-0.033
-378.902	-174.622	0.265	-0.007
-377.888	-95.571	-0.212	0.056
-376.873	44.140	-0.190	-0.173
-375.858	74.379	-0.191	0.199
-374.844	-118.990	0.196	-0.034
-373.829	191.913	0.039	0.058
-372.815	319.112	0.113	0.213
-371.800	-200.000	0.026	0.193
-370.785	-147.679	-0.385	0.032
-369.771	-25.303	-0.140	0.082
-368.756	-135.806	-0.198	0.023
-367.742	-154.905	0.155	-0.010
-366.727	-183.756	-0.162	0.003
-365.712	-92.042	0.069	0.019
-364.698	-185.376	0.093	-0.001
-363.683	800.000	-0.157	0.441
-362.669	337.863	0.027	0.052
-361.654	-123.583	0.137	-0.022
-360.639	-132.715	0.241	0.031
-359.625	-16.128	-0.089	0.056
-358.610	-200.000	0.053	0.319
-357.596	22.184	0.335	0.271
-356.581	27.724	-0.271	-0.226
-355.566	53.179	-0.355	-0.338
-354.552	-126.664	0.253	0.037
-353.537	295.379	-0.175	0.319
-352.523	108.842	-0.108	0.128
-351.508	66.659	0.120	0.121
-350.493	800.000	0.022	-0.068
-349.479	-179.324	0.341	0.007
-348.464	-200.000	-0.039	-0.279
-347.450	172.784	0.221	0.316
-346.435	-108.307	-0.106	0.023
-345.420	800.000	-0.037	-0.153
-344.406	800.000	0.085	0.279
-343.391	62.570	-0.165	-0.163
-342.377	-200.000	-0.010	0.127
-341.362	-145.609	0.308	-0.027
-340.348	-200.000	-0.025	0.560
-339.333	135.308	-0.178	0.230
-338.318	-200.000	-0.015	0.213
-337.304	248.644	-0.158	0.265
-336.289	800.000	0.041	-0.140
-335.275	412.816	0.040	0.084
-334.260	326.245	0.093	0.177
-333.245	687.025	0.054	0.141
-332.231	479.365	0.104	0.234
-331.216	-200.000	0.000	-0.196
-330.202	-138.487	-0.348	-0.038
-329.187	-54.828	0.127	0.057
-328.172	-6.704	0.233	-0.157
-327.158	-46.911	0.091	0.044
-326.143	516.801	0.123	-0.285
-325.129	-52.162	-0.353	-0.162
-324.114	290.302	0.085	-0.153
-323.099	143.895	-0.050	-0.067
-322.085	-200.000	0.026	0.289
-321.070	800.000	-0.040	-0.118
-320.056	-61.636	-0.176	0.073
-319.041	163.748	0.184	0.257
-318.026	-152.164	-0.030	0.002
-317.012	-200.000	-0.001	-0.067
-315.997	-97.198	-0.054	-0.014
-314.983	56.961	0.118	0.114
-313.968	136.146	-0.226	0.292
-312.953	-84.855	0.402	0.125
-311.939	209.926	-0.071	0.110
-310.924	83.081	0.241	-0.260
-309.910	-92.152	0.414	0.116
-308.895	11.582	-0.383	-0.291
-307.880	800.000	-0.097	0.276
-306.866	79.712	-0.106	-0.113
-305.851	-169.915	0.186	0.007
-304.837	-200.000	0.028	-0.257
-303.822	800.000	-0.026	-0.077
-302.807	76.128	-0.140	-0.146
-301.793	399.317	-0.023	-0.048
-300.778	-119.806	-0.077	-0.013
-299.764	-20.464	0.324	-0.197
-298.749	97.269	0.255	-0.290
-297.735	-93.414	0.119	0.033
-296.720	-34.637	0.226	-0.123
-295.705	163.755	-0.026	0.036
-294.691	218.969	0.070	0.111
-293.676	14.750	0.112	0.086
-292.662	314.056	-0.060	-0.111
-291.647	680.032	0.121	0.312
-290.632	26.157	0.156	-0.129
-289.618	472.259	-0.138	-0.307
-288.603	-126.276	0.106	0.016
-287.589	-103.897	0.220	0.051
-286.574	6.671	0.333	0.245
-285.559	-143.331	0.439	0.042
-284.545	800.000	-0.091	-0.286
-283.530	145.062	-0.146	-0.193
-282.516	-95.627	0.309	-0.082
-281.501	-200.000	0.034	-0.164
-280.486	-130.043	-0.352	-0.048
-279.472	99.924	0.125	0.144
-278.457	31.881	0.023	-0.020
-277.443	37.431	0.155	0.136
-276.428	97.611	-0.060	-0.068
-275.413	795.067	-0.111	0.302
-274.399	241.515	-0.037	-0.061
-273.384	-200.000	0.048	-0.383
-272.370	-200.000	0.003	-0.172
-271.355	67.235	0.203	-0.205
-270.340	65.376	-0.258	0.258
-269.326	-156.840	-0.274	0.017
-268.311	-120.521	0.143	-0.024
-267.297	-104.463	0.238	-0.054
-266.282	-119.234	0.370	0.064
-265.267	4.061	0.118	-0.085
-264.253	800.000	0.028	-0.077
-263.238	-69.578	-0.243	-0.092
-262.224	-38.801	-0.359	0.187
-261.209	39.648	0.118	-0.104
-260.195	-155.303	0.417	-0.027
-259.180	-200.000	0.023	0.256
-258.165	10.992	0.034	-0.026
-257.151	-200.000	0.024	-0.340
-256.136	3.782	0.207	0.149
-255.122	-139.419	0.055	0.006
-254.107	68.846	0.127	-0.129
-253.092	800.000	-0.077	-0.228
-252.078	434.168	-0.044	0.095
-251.063	-62.286	-0.124	-0.051
-250.049	736.856	0.068	-0.179
-249.034	446.952	-0.165	0.359
-248.019	800.000	0.040	0.116
-247.005	-139.815	-0.203	0.021
-245.990	-200.000	-0.020	0.099
-244.976	-200.000	0.013	0.252
-243.961	-86.020	0.121	0.037
-242.946	34.126	0.166	-0.143
-241.932	-82.271	0.286	0.092
-240.917	-109.211	0.091	-0.019
-239.903	77.600	-0.290	-0.305
-238.888	-71.265	0.310	0.115
-237.873	-28.850	-0.376	0.213
-236.859	-87.034	-0.230	-0.069
-235.844	-200.000	-0.012	0.051
-234.830	-65.423	-0.216	0.086
-233.815	-185.653	-0.145	-0.002
-232.800	-142.411	-0.355	0.034
-231.786	131.897	0.061	-0.077
-230.771	-12.378	-0.073	-0.047
-229.757	800.000	0.107	-0.314
-228.742	119.067	0.242	-0.295
-227.727	4.093	-0.183	-0.132
-226.713	122.957	0.102	0.126
-225.698	-65.931	-0.161	0.064
-224.684	-200.000	-0.041	0.226
-223.669	-14.079	-0.197	0.125
-222.655	-15.850	0.187	-0.118
-221.640	-125.453	0.138	-0.021
-220.625	-96.920	-0.122	0.032
-219.611	11.639	0.372	-0.282
-218.596	-200.000	0.021	-0.160
-217.582	-39.292	0.217	0.112
-216.567	-42.949	0.259	0.130
-215.552	-200.000	0.025	0.135
-214.538	-93.015	-0.116	0.032
-213.523	-118.209	-0.182	0.032
-212.509	-74.794	-0.160	-0.057
-211.494	-118.656	-0.215	-0.037
-210.479	-48.454	-0.138	0.066
-209.465	-83.466	0.199	0.063
-208.450	-140.144	-0.087	0.009
-207.436	57.137	-0.094	0.090
-206.421	-200.000	0.052	-0.230
-205.406	-200.000	-0.003	0.237
-204.392	800.000	0.090	0.272
-203.377	-108.268	0.120	0.026
-202.363	254.026	0.112	0.189
-201.348	-61.438	0.045	0.019
-200.333	-81.894	0.112	-0.036
-199.319	75.307	-0.129	0.134
-198.304	-77.585	-0.218	-0.075
-197.290	59.101	-0.134	-0.130
-196.275	-91.690	-0.212	0.059
-195.260	-13.046	0.163	-0.105
-194.246	-71.968	0.056	0.021
-193.231	800.000	-0.022	0.081
-192.217	418.313	-0.013	0.028
-191.202	-200.000	0.023	-0.113
-190.187	163.017	-0.355	0.491
-189.173	-200.000	0.028	0.268
-188.158	-156.392	0.528	0.033
-187.144	-22.114	0.195	-0.117
-186.129	-200.000	0.106	0.522
-185.114	-186.828	0.026	0.000
-184.100	228.721	0.009	0.014
-183.085	-21.581	0.339	-0.204
-182.071	-9.678	-0.213	-0.140
-181.056	-40.684	0.398	-0.203
-180.042	-200.000	0.015	-0.173
-179.027	-81.068	0.124	-0.040
-178.012	-18.243	-0.184	-0.114
-176.998	-107.206	0.261	-0.057
-175.983	29.142	0.108	0.090
-174.969	36.597	-0.204	-0.177
-173.954	-94.137	0.049	-0.013
-172.939	-200.000	0.206	-0.001
-171.925	800.000	0.071	0.273
-170.910	238.993	0.045	0.073
-169.896	-125.253	-0.471	0.071
-168.881	-200.000	0.020	0.132
-167.866	-116.615	-0.072	0.013
-166.852	-70.803	0.190	-0.071
-165.837	358.558	0.187	-0.367
-164.823	-92.333	0.151	-0.042
-163.808	45.485	0.111	-0.101
-162.793	800.000	0.073	0.243
-161.779	197.184	-0.161	-0.241
-160.764	56.843	0.242	0.232
-159.750	447.841	0.032	-0.070
-158.735	-25.503	-0.022	0.013
-157.720	15.154	0.187	-0.144
-156.706	-24.335	-0.372	0.218
-155.691	-55.006	-0.312	-0.139
-154.677	-200.000	0.069	0.304
-153.662	69.539	-0.297	-0.301
-152.647	-56.375	-0.167	-0.073
-151.633	800.000	-0.035	-0.103
-150.618	776.853	-0.009	-0.023
-149.604	-89.567	-0.126	-0.036
-148.589	33.335	-0.308	0.263
-147.574	-64.346	0.113	0.045
-146.560	178.099	0.079	-0.114
-145.545	-121.928	-0.282	0.046
-144.531	297.959	0.051	0.091
-143.516	-200.000	0.003	-0.082
-142.502	-62.512	0.172	0.070
-141.487	-200.000	-0.027	0.282
-140.472	11.276	-0.121	0.091
-139.458	-200.000	0.045	0.239
-138.443	247.290	-0.120	0.200
-137.429	800.000	0.174	0.554
-136.414	8.802	-0.091	0.067
-135.399	6.386	0.167	0.122
-134.385	-200.000	-0.008	-0.418
-133.370	435.591	-0.125	0.268
-132.356	-200.000	-0.017	-0.265
-131.341	-175.417	-0.080	0.002
-130.326	800.000	-0.037	-0.142
-129.312	98.465	0.113	-0.128
-128.297	-200.000	0.033	0.514
-127.283	59.174	0.252	-0.244
-126.268	-68.522	0.123	0.047
-125.253	0.702	0.136	-0.096
-124.239	-64.905	-0.417	-0.166
-123.224	-103.835	-0.291	-0.067
-122.210	325.592	-0.057	-0.108
