DTS Sentinel unit serial number:	SN413079Multiplexer serial number:	ORYXHardware model number:	OX4-SRSoftware version number:	ORYX F/W v4.00 Oryx Data Collector v3.7.2.0data status	okinstallation	princeton_trtdifferential loss correction	single-endedforward channel	channel 3reverse channel	N/Adate	2019/09/12time	18:17:03forward acquisition time	15.00reverse acquisition time	0.00gamma	496.2192k internal	0.2317k external	0.2317temperature offset calibration	1.0087default loss term (dB/km)	0.3790temperature slope calibration	1.0000multiplexer offset coefficient	1.0000multiplexer slope coefficient	1.0000fibre end	0.00T internal ref (°C)	33.50T ext. ref 1 (°C)	2.88T ext. ref 2 (°C)	28.01length (m)	temperature (°C)	Stokes	anti-Stokes-747.200	-14.046	0.684	0.447
-746.185	-162.886	-0.646	-0.032
-745.171	208.112	-0.060	-0.096
-744.156	27.671	0.280	0.239
-743.142	800.000	-0.118	-0.457
-742.127	-156.129	-0.695	0.044
-741.112	-113.293	-0.567	0.113
-740.098	-172.152	0.864	-0.028
-739.083	82.828	0.436	0.480
-738.069	-164.580	-0.526	-0.024
-737.054	-12.689	0.214	0.141
-736.039	721.243	-0.148	0.398
-735.025	-200.000	-0.035	0.303
-734.010	-139.941	-0.325	-0.035
-732.996	-110.917	0.295	0.061
-731.981	-115.621	-1.157	-0.220
-730.966	421.299	0.285	0.619
-729.952	-147.158	-0.189	0.016
-728.937	532.889	-0.118	0.282
-727.923	-199.607	0.103	0.001
-726.908	168.154	0.585	0.842
-725.894	122.750	-0.145	0.183
-724.879	-200.000	-0.022	0.243
-723.864	-200.000	-0.312	-0.000
-722.850	90.399	-0.209	0.237
-721.835	275.533	0.587	-1.053
-720.821	800.000	0.054	0.230
-719.806	133.249	0.913	1.193
-718.791	378.940	-0.062	0.128
-717.777	53.512	-0.215	-0.209
-716.762	271.773	-0.390	-0.696
-715.748	714.449	-0.065	-0.173
-714.733	800.000	-0.112	0.333
-713.718	-60.193	-1.008	-0.434
-712.704	-200.000	-0.020	0.721
-711.689	-66.521	-0.634	0.254
-710.675	-43.046	0.651	0.334
-709.660	-62.154	0.159	0.067
-708.645	-200.000	-0.014	0.375
-707.631	147.098	0.059	-0.080
-706.616	297.721	0.174	-0.323
-705.602	216.987	-0.221	-0.356
-704.587	-3.600	0.363	-0.255
-703.572	240.023	0.457	-0.770
-702.558	27.695	0.248	-0.211
-701.543	39.136	0.262	0.237
-700.529	243.763	0.319	0.540
-699.514	-124.827	0.056	-0.009
-698.499	-200.000	0.040	0.514
-697.485	441.503	-0.380	-0.839
-696.470	14.468	-0.671	0.530
-695.456	207.239	0.220	-0.346
-694.441	27.311	0.975	-0.828
-693.426	-122.931	-0.747	-0.122
-692.412	592.184	-0.376	-0.939
-691.397	17.354	0.490	0.393
-690.383	-39.958	0.753	0.397
-689.368	40.846	-0.813	-0.741
-688.354	-90.244	0.320	0.094
-687.339	-169.195	0.469	0.018
-686.324	-200.000	-0.004	0.223
-685.310	436.662	0.121	-0.267
-684.295	-200.000	-0.027	0.447
-683.281	-64.653	0.371	-0.152
-682.266	312.907	-0.557	1.056
-681.251	-200.000	0.033	0.405
-680.237	-148.698	-0.343	0.028
-679.222	-200.000	-0.148	0.671
-678.208	-200.000	0.013	-0.123
-677.193	352.703	-0.068	0.136
-676.178	-200.000	-0.050	0.442
-675.164	-200.000	0.017	0.133
-674.149	800.000	-0.254	0.893
-673.135	800.000	0.039	-0.133
-672.120	-124.375	-0.266	-0.042
-671.105	108.068	0.472	-0.569
-670.091	-40.292	0.313	-0.164
-669.076	-21.026	0.279	0.172
-668.062	19.103	-0.212	0.172
-667.047	800.000	-0.265	0.897
-666.032	-117.299	0.569	-0.104
-665.018	76.998	0.261	0.280
-664.003	-3.675	-0.172	0.121
-662.989	-186.488	1.033	0.015
-661.974	207.608	0.141	0.222
-660.959	151.180	-0.443	-0.608
-659.945	-118.521	0.537	0.096
-658.930	29.957	0.293	0.252
-657.916	317.015	-0.280	-0.534
-656.901	-59.916	0.659	-0.285
-655.886	-8.219	0.267	0.181
-654.872	232.411	-0.290	-0.481
-653.857	-200.000	0.062	-0.279
-652.843	668.905	0.251	0.655
-651.828	550.113	-0.134	-0.324
-650.814	-179.749	-0.604	-0.013
-649.799	379.461	-0.206	0.426
-648.784	167.300	0.697	0.998
-647.770	-200.000	0.052	0.403
-646.755	-200.000	0.036	-0.742
-645.741	649.754	0.123	0.317
-644.726	201.743	-0.112	-0.174
-643.711	-174.322	-0.706	0.021
-642.697	800.000	-0.331	1.095
-641.682	-128.572	-1.035	-0.148
-640.668	800.000	-0.259	-1.000
-639.653	-175.506	0.357	0.010
-638.638	84.508	0.037	0.041
-637.624	-200.000	-0.002	-0.706
-636.609	39.725	0.502	-0.454
-635.595	800.000	-0.223	0.629
-634.580	-200.000	0.062	-0.281
-633.565	-28.687	-0.277	-0.160
-632.551	0.601	-0.543	0.392
-631.536	-95.112	-0.350	-0.095
-630.522	439.795	0.323	-0.710
-629.507	-58.397	0.319	-0.140
-628.492	-200.000	0.086	0.599
-627.478	22.695	-0.140	0.116
-626.463	-161.783	-0.521	-0.027
-625.449	141.304	-0.280	-0.373
-624.434	-200.000	0.041	-0.547
-623.419	-40.387	-0.540	-0.283
-622.405	9.170	-0.655	-0.499
-621.390	-157.998	0.600	0.036
-620.376	322.431	-0.351	0.673
-619.361	800.000	0.057	0.221
-618.346	800.000	0.163	0.607
-617.332	331.188	-0.220	-0.427
-616.317	-109.729	-0.587	0.124
-615.303	290.632	-0.479	0.876
-614.288	123.772	0.438	0.554
-613.273	139.994	-0.613	0.815
-612.259	217.813	-0.205	-0.329
-611.244	127.313	0.309	0.395
-610.230	-85.810	0.826	-0.258
-609.215	47.413	-0.341	0.320
-608.201	41.748	0.530	-0.484
-607.186	104.122	0.352	-0.417
-606.171	-54.883	-0.533	0.242
-605.157	800.000	0.095	0.391
-604.142	703.103	0.087	0.231
-603.128	-24.518	0.586	0.351
-602.113	-22.652	-0.137	-0.084
-601.098	5.557	0.150	-0.111
-600.084	144.730	-0.169	0.228
-599.069	392.684	-0.051	0.108
-598.055	109.399	-0.292	0.352
-597.040	-200.000	0.200	-1.157
-596.025	396.081	-0.377	-0.792
-595.011	-117.538	0.272	-0.050
-593.996	-200.000	0.042	0.362
-592.982	439.018	-0.172	0.377
-591.967	800.000	-0.304	0.942
-590.952	800.000	0.114	-0.369
-589.938	-10.021	0.450	-0.301
-588.923	102.731	-0.340	0.401
-587.909	73.912	-0.612	-0.646
-586.894	800.000	-0.073	0.283
-585.879	-200.000	-0.038	-0.191
-584.865	70.503	0.320	-0.333
-583.850	-200.000	-0.077	-0.735
-582.836	-200.000	-0.020	-0.415
-581.821	-200.000	0.087	0.516
-580.806	-35.328	0.477	0.261
-579.792	-200.000	-0.050	0.230
-578.777	88.930	-0.360	0.403
-577.763	-99.118	0.361	-0.092
-576.748	48.405	0.511	-0.481
-575.733	-0.052	-0.543	-0.389
-574.719	-200.000	-0.023	-0.196
-573.704	-58.869	-0.277	0.121
-572.690	-70.107	-0.485	-0.185
-571.675	39.823	0.383	-0.345
-570.661	-135.300	0.225	-0.027
-569.646	800.000	0.224	-0.789
-568.631	135.108	-0.806	-1.053
-567.617	-200.000	-0.038	-0.356
-566.602	140.658	-0.235	0.313
-565.588	-200.000	-0.032	-0.250
-564.573	-64.159	0.231	-0.095
-563.558	800.000	0.310	0.976
-562.544	1.885	-0.343	0.249
-561.529	800.000	-0.053	0.182
-560.515	243.325	0.195	0.328
-559.500	-189.423	0.244	0.003
-558.485	284.346	-0.390	0.706
-557.471	-11.201	-0.743	-0.492
-556.456	-200.000	-0.004	-0.483
-555.442	134.110	-0.275	0.358
-554.427	361.019	0.197	-0.397
-553.412	-200.000	0.137	-0.656
-552.398	303.971	-0.289	-0.539
-551.383	800.000	-0.195	-0.668
-550.369	800.000	-0.108	0.321
-549.354	22.344	0.437	0.359
-548.339	176.540	-0.709	1.036
-547.325	-68.774	0.399	-0.155
-546.310	432.679	-0.133	0.289
-545.296	800.000	-0.218	0.802
-544.281	-18.461	0.430	-0.270
-543.266	-200.000	0.001	-0.008
-542.252	-47.592	-0.660	-0.322
-541.237	-200.000	-0.010	-0.590
-540.223	171.472	0.132	-0.190
-539.208	84.844	0.336	0.370
-538.193	7.521	0.330	-0.248
-537.179	167.523	-0.356	-0.509
-536.164	70.888	0.315	0.327
-535.150	800.000	-0.040	0.138
-534.135	-52.042	-0.284	0.132
-533.121	-68.159	-0.261	0.102
-532.106	-200.000	-0.102	-0.838
-531.091	88.847	0.528	0.590
-530.077	322.884	0.155	-0.297
-529.062	-200.000	-0.132	0.849
-528.048	-171.184	0.286	-0.010
-527.033	-78.334	0.332	0.114
-526.018	-91.028	-0.942	-0.272
-525.004	800.000	0.238	-0.968
-523.989	-200.000	0.144	0.842
-522.975	-99.680	-0.968	0.244
-521.960	-3.106	0.461	-0.323
-520.945	-16.043	-0.199	-0.127
-519.931	-75.029	-0.345	0.124
-518.916	376.969	-0.217	0.445
-517.902	-200.000	-0.009	-0.266
-516.887	-71.634	0.476	0.178
-515.872	38.484	0.165	-0.148
-514.858	217.948	-0.256	0.410
-513.843	-93.656	-0.057	-0.016
-512.829	-200.000	-0.137	-0.913
-511.814	213.156	0.309	-0.490
-510.799	-200.000	-0.047	0.256
-509.785	268.168	-0.445	-0.783
-508.770	41.677	0.264	0.240
-507.756	66.563	-0.309	-0.315
-506.741	-68.420	-0.661	-0.257
-505.726	44.728	-0.426	-0.393
-504.712	-168.044	0.854	-0.033
-503.697	-62.974	-0.089	0.037
-502.683	-200.000	-0.028	0.490
-501.668	27.096	0.404	-0.340
-500.653	800.000	-0.039	-0.114
-499.639	-200.000	0.021	0.151
-498.624	-200.000	0.005	0.214
-497.610	-77.959	0.744	0.257
-496.595	-24.265	-0.386	-0.231
-495.581	-200.000	0.006	0.572
-494.566	-63.300	-0.208	0.086
-493.551	64.304	0.468	0.472
-492.537	-5.105	-0.507	-0.350
-491.522	-65.471	1.191	-0.480
-490.508	136.372	-0.612	-0.801
-489.493	-200.000	0.076	-0.780
-488.478	-61.999	0.676	-0.283
-487.464	445.505	0.103	-0.228
-486.449	-93.395	0.288	-0.080
-485.435	168.854	-0.196	0.279
-484.420	240.621	0.165	0.276
-483.405	-200.000	0.179	-1.003
-482.391	800.000	0.139	-0.464
-481.376	-47.011	0.514	0.251
-480.362	-62.565	-0.183	-0.076
-479.347	-103.789	-0.258	0.060
-478.332	725.923	-0.235	0.628
-477.318	-31.704	-1.231	-0.692
-476.303	160.507	-0.178	-0.250
-475.289	800.000	0.088	0.294
-474.274	-200.000	0.027	0.577
-473.259	-200.000	-0.014	0.394
-472.245	515.717	0.221	-0.517
-471.230	-200.000	0.015	-0.317
-470.216	77.753	0.075	0.080
-469.201	173.081	0.535	0.772
-468.186	-37.438	0.396	0.212
-467.172	94.746	-0.171	0.195
-466.157	30.933	0.281	-0.242
-465.143	-136.882	-0.521	0.060
-464.128	-76.306	0.890	0.314
-463.113	37.255	-0.447	-0.397
-462.099	-79.196	-0.456	-0.155
-461.084	-200.000	-0.000	0.063
-460.070	422.295	-0.039	0.084
-459.055	-64.209	0.972	0.397
-458.040	619.338	0.251	-0.632
-457.026	-200.000	0.120	0.802
-456.011	800.000	-0.043	-0.124
-454.997	-177.160	-0.317	0.008
-453.982	-28.714	-0.394	-0.227
-452.968	-200.000	-0.059	-0.394
-451.953	-118.946	0.917	-0.161
-450.938	679.682	0.168	0.437
-449.924	-57.502	-0.250	-0.110
-448.909	58.185	0.200	-0.196
-447.895	2.693	-0.292	0.212
-446.880	11.990	-0.338	0.260
-445.865	374.121	0.134	0.273
-444.851	-189.418	0.485	0.006
-443.836	-37.494	-0.152	-0.081
-442.822	-105.182	-0.372	0.085
-441.807	-93.701	0.274	0.076
-440.792	77.642	0.207	-0.220
-439.778	104.361	-0.235	-0.276
-438.763	157.852	0.473	-0.656
-437.749	72.235	-0.287	-0.299
-436.734	-200.000	0.057	0.698
-435.719	-77.137	-0.746	-0.260
-434.705	-200.000	0.063	-0.307
-433.690	800.000	-0.279	0.850
-432.676	-200.000	0.014	0.788
-431.661	610.195	0.194	-0.485
-430.646	-194.797	-0.986	-0.008
-429.632	-10.629	0.437	0.289
-428.617	-89.505	-0.357	-0.105
-427.603	192.489	0.512	-0.773
-426.588	466.381	0.197	-0.441
-425.573	-200.000	0.055	0.522
-424.559	-51.954	-0.269	0.125
-423.544	6.661	0.489	0.364
-422.530	97.467	0.151	0.174
-421.515	206.471	0.862	1.342
-420.500	164.881	0.405	0.571
-419.486	-200.000	0.041	0.622
-418.471	-41.486	0.993	-0.511
-417.457	-200.000	-0.075	-0.568
-416.442	-72.639	0.218	-0.080
-415.428	-200.000	-0.039	0.709
-414.413	661.254	0.135	-0.348
-413.398	83.070	0.515	-0.561
-412.384	-88.054	-0.513	-0.154
-411.369	-200.000	0.002	-0.049
-410.355	-55.350	0.637	0.286
-409.340	-200.000	0.088	0.393
-408.325	-200.000	0.073	-0.377
-407.311	-200.000	-0.045	-0.201
-406.296	-184.585	-0.352	0.006
-405.282	56.269	0.326	0.317
-404.267	64.679	0.324	0.327
-403.252	-8.906	0.486	-0.325
-402.238	103.085	0.068	0.079
-401.223	-55.611	0.305	0.136
-400.209	-101.708	-0.218	-0.053
-399.194	-32.549	-0.386	-0.215
-398.179	322.053	0.151	-0.287
-397.165	-6.041	-0.421	-0.287
-396.150	-98.511	-0.556	0.142
-395.136	-200.000	-0.020	-0.271
-394.121	-84.540	0.882	0.278
-393.106	150.287	0.237	-0.321
-392.092	156.130	0.556	-0.766
-391.077	-200.000	0.024	-0.294
-390.063	-200.000	-0.012	0.078
-389.048	800.000	0.171	0.718
-388.033	800.000	0.099	-0.376
-387.019	-200.000	0.048	-0.416
-386.004	693.189	0.165	-0.431
-384.990	-200.000	-0.008	0.368
-383.975	-61.042	0.460	0.194
-382.960	-200.000	0.003	-0.299
-381.946	-200.000	-0.035	0.236
-380.931	800.000	-0.021	0.071
-379.917	-25.732	-0.271	-0.159
-378.902	360.050	-0.290	-0.579
-377.888	740.190	0.197	-0.528
-376.873	-133.701	0.133	0.017
-375.858	58.796	0.193	-0.189
-374.844	-57.521	0.510	0.223
-373.829	-139.770	0.061	-0.006
-372.815	-44.765	0.296	-0.147
-371.800	-152.428	0.868	-0.062
-370.785	-200.000	0.005	0.664
-369.771	-200.000	-0.196	-1.007
-368.756	-200.000	-0.065	0.546
-367.742	-49.733	0.680	-0.322
-366.727	800.000	0.196	0.749
-365.712	-200.000	0.006	0.521
-364.698	-200.000	-0.053	0.893
-363.683	800.000	-0.048	-0.136
-362.669	2.881	0.478	-0.346
-361.654	149.972	-0.286	0.387
-360.639	630.833	0.317	-0.800
-359.625	-22.356	-0.291	-0.176
-358.610	103.806	0.080	0.094
-357.596	341.551	0.118	-0.229
-356.581	-200.000	-0.111	-0.634
-355.566	-200.000	-0.016	-1.133
-354.552	-52.951	-0.202	-0.093
-353.537	229.049	-0.158	-0.257
-352.523	35.671	0.618	0.542
-351.508	-173.800	1.252	0.037
-350.493	-200.000	0.080	0.487
-349.479	-36.046	-0.189	0.102
-348.464	-60.793	0.447	-0.189
-347.450	-200.000	0.050	-0.287
-346.435	-28.390	-0.536	0.308
-345.420	5.241	-0.159	0.117
-344.406	37.425	-0.484	-0.428
-343.391	-161.273	-0.445	0.023
-342.377	-173.695	-0.074	0.002
-341.362	-45.170	0.886	-0.439
-340.348	292.954	-0.194	0.352
-339.333	23.106	0.479	-0.392
-338.318	-11.189	0.222	-0.146
-337.304	-28.986	0.491	0.281
-336.289	-200.000	-0.017	-0.176
-335.275	-44.982	-0.244	0.121
-334.260	471.906	0.244	0.547
-333.245	153.409	-0.614	0.837
-332.231	352.074	0.492	0.972
-331.216	385.334	-0.246	0.506
-330.202	-180.168	-0.298	-0.006
-329.187	113.949	-0.363	-0.439
-328.172	229.435	0.408	-0.664
-327.158	-3.726	0.215	0.149
-326.143	-200.000	0.170	-0.778
-325.129	800.000	0.193	-0.766
-324.114	-33.526	-0.591	-0.325
-323.099	731.678	0.204	0.542
-322.085	-61.730	-0.383	0.160
-321.070	-200.000	-0.033	0.692
-320.056	67.875	-0.589	-0.600
-319.041	24.737	0.528	0.436
-318.026	62.959	-0.195	-0.194
-317.012	-53.669	-0.355	0.162
-315.997	-200.000	0.009	-0.094
-314.983	48.856	-0.215	0.201
-313.968	175.643	0.290	0.419
-312.953	443.956	0.353	-0.770
-311.939	154.066	0.197	0.269
-310.924	-102.366	-0.152	0.036
-309.910	-48.255	0.968	0.465
-308.895	-11.831	-0.559	-0.365
-307.880	-99.851	-0.996	0.248
-306.866	4.893	-0.769	0.563
-305.851	-54.361	0.515	-0.233
-304.837	-117.168	-0.508	-0.092
-303.822	-128.089	0.623	0.089
-302.807	-43.136	0.571	-0.288
-301.793	-107.969	0.438	0.095
-300.778	-32.369	0.922	0.512
-299.764	262.587	-0.207	0.358
-298.749	-200.000	-0.017	-0.497
-297.735	-200.000	-0.076	0.761
-296.720	53.123	0.452	0.431
-295.705	40.078	0.433	0.387
-294.691	36.429	-0.346	-0.304
-293.676	-15.616	-0.696	-0.442
-292.662	-97.713	0.123	-0.032
-291.647	-126.056	-0.948	0.142
-290.632	-200.000	0.041	0.626
-289.618	28.141	-0.181	-0.152
-288.603	220.922	-0.626	0.999
-287.589	-23.927	-0.877	0.522
-286.574	-200.000	-0.059	0.291
-285.559	-98.093	0.573	-0.147
-284.545	444.148	0.220	0.479
-283.530	-200.000	0.074	-1.079
-282.516	115.430	-0.618	0.751
-281.501	-126.048	0.465	-0.069
-280.486	-200.000	-0.029	1.431
-279.472	511.278	0.345	-0.799
-278.457	-128.929	-0.616	-0.086
-277.443	-9.930	-0.242	0.160
-276.428	-192.842	-1.269	-0.011
-275.413	22.344	0.372	-0.302
-274.399	-12.870	-0.663	-0.429
-273.384	566.491	-0.120	-0.290
-272.370	162.326	0.779	1.086
-271.355	157.895	-0.348	-0.480
-270.340	-99.311	-0.320	0.080
-269.326	-200.000	-0.054	0.296
-268.311	225.490	0.065	0.104
-267.297	800.000	-0.096	-0.327
-266.282	276.475	-0.238	0.420
-265.267	-2.221	0.414	-0.289
-264.253	800.000	-0.112	-0.314
-263.238	74.069	0.355	-0.370
-262.224	2.288	0.526	0.378
-261.209	208.283	-0.227	-0.353
-260.195	-133.827	1.264	-0.156
-259.180	-74.239	-0.439	0.158
-258.165	-38.874	0.156	0.082
-257.151	100.914	-0.237	0.273
-256.136	800.000	-0.043	-0.133
-255.122	12.844	-0.161	-0.124
-254.107	-200.000	-0.016	-0.209
-253.092	-67.600	-0.384	-0.149
-252.078	243.200	-0.551	0.918
-251.063	20.137	0.359	0.287
-250.049	-100.794	0.438	0.107
-249.034	-200.000	-0.124	0.951
-248.019	29.133	0.468	-0.395
-247.005	691.037	0.064	0.167
-245.990	122.329	0.274	0.339
-244.976	-104.199	-0.775	-0.179
-243.961	131.034	-0.166	0.211
-242.946	-200.000	0.114	-0.673
-241.932	117.197	-0.845	-1.031
-240.917	-80.248	0.216	-0.072
-239.903	83.737	0.060	-0.065
-238.888	-73.207	0.646	-0.235
-237.873	-118.013	0.078	0.014
-236.859	513.184	0.266	0.616
-235.844	52.703	-0.296	0.281
-234.830	-145.820	-0.742	0.066
-233.815	-99.198	0.302	0.076
-232.800	800.000	-0.091	-0.321
-231.786	700.213	-0.163	-0.427
-230.771	-200.000	-0.008	0.208
-229.757	-120.533	0.315	0.053
-228.742	342.357	0.010	0.019
-227.727	-200.000	0.050	0.591
-226.713	-165.322	0.474	0.021
-225.698	-65.014	0.505	0.202
-224.684	-26.724	0.754	-0.438
-223.669	-200.000	0.143	-0.806
-222.655	-3.108	-0.213	0.148
-221.640	-15.026	-1.447	0.920
-220.625	137.799	0.275	-0.358
-219.611	428.965	-0.194	-0.416
-218.596	-169.565	0.321	-0.012
-217.582	-200.000	-0.056	-0.478
-216.567	270.489	0.021	-0.037
-215.552	147.568	-0.387	0.518
-214.538	-62.778	-0.574	0.236
-213.523	-200.000	0.004	-0.030
-212.509	69.640	-0.549	-0.561
-211.494	195.409	-0.157	0.236
-210.479	-89.537	0.750	0.218
-209.465	-121.458	-0.365	-0.060
-208.450	228.966	0.225	0.364
-207.436	-110.348	0.501	0.103
-206.421	162.363	0.161	0.223
-205.406	435.129	-0.187	-0.403
-204.392	-200.000	-0.045	-0.912
-203.377	-185.312	-0.313	-0.005
-202.363	-73.935	-0.248	-0.089
-201.348	209.699	0.699	-1.087
-200.333	800.000	0.068	-0.265
-199.319	46.424	0.166	0.152
-198.304	-138.874	-0.374	0.040
-197.290	367.903	-0.095	-0.191
-196.275	86.922	0.355	-0.389
-195.260	-200.000	0.088	-0.552
-194.246	-16.340	-0.363	0.228
-193.231	-80.936	0.539	0.177
-192.217	-19.474	-0.331	0.203
-191.202	-134.982	-0.766	-0.092
-190.187	-37.595	-0.180	0.095
-189.173	-36.684	-0.892	-0.475
-188.158	-101.960	0.264	-0.063
-187.144	-115.793	0.343	0.064
-186.129	681.637	-0.153	-0.395
-185.114	19.751	0.494	-0.394
-184.100	-119.031	-0.369	-0.064
-183.085	22.143	-0.338	0.273
-182.071	-14.635	0.382	0.244
-181.056	726.053	0.152	0.400
-180.042	-200.000	-0.128	0.932
-179.027	-62.117	0.145	-0.060
-178.012	-39.797	-0.168	-0.087
-176.998	150.474	0.055	-0.074
-175.983	-133.364	-0.009	0.001
-174.969	-88.246	-0.137	0.041
-173.954	-123.620	-0.396	-0.062
-172.939	311.646	0.147	-0.273
-171.925	800.000	-0.147	-0.623
-170.910	360.992	-0.183	0.363
-169.896	-154.158	-0.815	0.055
-168.881	188.557	-0.075	-0.111
-167.866	-117.147	0.465	0.084
-166.852	-59.957	0.303	-0.128
-165.837	123.901	0.117	-0.146
-164.823	-92.133	-0.429	-0.120
-163.808	-200.000	0.031	0.615
-162.793	-2.164	0.376	-0.261
-161.779	-64.339	-0.659	0.265
-160.764	-133.301	0.227	-0.028
-159.750	-108.819	0.210	0.044
-158.735	-17.294	0.775	-0.483
-157.720	179.597	0.499	0.723
-156.706	510.884	0.328	0.755
-155.691	129.428	-0.396	0.501
-154.677	-52.070	-0.454	0.209
-153.662	529.186	-0.341	0.795
-152.647	4.333	-0.519	0.376
-151.633	13.824	-0.339	-0.261
-150.618	-53.595	-0.094	0.043
-149.604	10.109	-0.508	-0.382
-148.589	94.239	0.540	0.607
-147.574	-200.000	-0.019	0.090
-146.560	-200.000	0.059	0.289
-145.545	-200.000	-0.095	-0.608
-144.531	40.097	0.626	-0.557
-143.516	-100.490	0.341	0.083
-142.502	-200.000	-0.030	0.794
-141.487	363.437	0.463	0.921
-140.472	-200.000	0.067	0.705
-139.458	800.000	-0.130	-0.434
-138.443	140.761	-0.150	0.196
-137.429	-120.478	0.592	0.099
-136.414	-200.000	-0.027	0.130
-135.399	800.000	0.043	0.146
-134.385	305.185	-0.125	0.229
-133.370	119.878	-0.234	0.287
-132.356	800.000	0.113	-0.442
-131.341	43.247	-0.361	0.326
-130.326	161.561	0.326	-0.451
-129.312	-22.736	0.048	-0.028
-128.297	-200.000	0.067	-0.384
-127.283	214.042	0.381	-0.595
-126.268	2.664	-0.473	0.339
-125.253	-89.508	-0.560	-0.163
-124.239	163.340	-0.519	0.722
-123.224	12.785	0.108	-0.082
-122.210	-31.286	-1.276	0.710
-121.195	-81.270	0.909	-0.296
