DTS Sentinel unit serial number:	SN413079Multiplexer serial number:	ORYXHardware model number:	OX4-SRSoftware version number:	ORYX F/W v4.00 Oryx Data Collector v3.7.2.0data status	okinstallation	princeton_trtdifferential loss correction	single-endedforward channel	channel 3reverse channel	N/Adate	2019/09/18time	12:00:35forward acquisition time	60.00reverse acquisition time	0.00gamma	496.2192k internal	0.2323k external	0.2323temperature offset calibration	0.9963default loss term (dB/km)	0.3790temperature slope calibration	1.0000multiplexer offset coefficient	1.0000multiplexer slope coefficient	1.0000fibre end	0.00T internal ref (°C)	31.55T ext. ref 1 (°C)	0.49T ext. ref 2 (°C)	27.71length (m)	temperature (°C)	Stokes	anti-Stokes-747.200	-5.510	-0.095	-0.066
-746.185	33.514	0.215	0.189
-745.171	90.733	-0.153	-0.173
-744.156	799.390	-0.079	0.220
-743.142	800.000	-0.057	0.221
-742.127	-42.880	0.300	0.154
-741.112	31.578	-0.146	0.127
-740.098	800.000	-0.031	0.095
-739.083	-121.757	0.209	0.035
-738.069	327.615	-0.099	0.192
-737.054	752.955	0.120	-0.329
-736.039	-27.366	-0.414	-0.243
-735.025	-127.703	0.283	-0.041
-734.010	-200.000	-0.049	-0.264
-732.996	231.674	-0.278	0.460
-731.981	-134.373	0.094	-0.012
-730.966	-110.889	0.264	0.055
-729.952	-200.000	-0.078	-0.387
-728.937	222.965	-0.149	0.243
-727.923	41.554	0.194	0.177
-726.908	-62.858	0.210	-0.088
-725.894	350.683	-0.199	0.397
-724.879	663.292	0.075	0.195
-723.864	-45.086	-0.162	0.081
-722.850	800.000	0.051	-0.141
-721.835	800.000	0.048	0.189
-720.821	-152.301	-0.152	0.011
-719.806	-127.359	0.086	0.013
-718.791	-200.000	0.005	0.073
-717.777	-147.848	-0.338	0.028
-716.762	-95.717	-0.087	-0.024
-715.748	-200.000	-0.021	-0.443
-714.733	335.092	-0.133	-0.259
-713.718	22.413	-0.092	-0.076
-712.704	-53.149	0.101	-0.047
-711.689	-76.551	-0.239	-0.085
-710.675	-49.502	-0.075	-0.036
-709.660	23.817	-0.254	0.211
-708.645	129.528	0.123	-0.159
-707.631	-54.188	-0.218	0.100
-706.616	146.664	-0.194	0.263
-705.602	7.770	0.090	0.068
-704.587	-200.000	-0.008	-0.220
-703.572	-200.000	-0.013	-0.096
-702.558	-200.000	-0.016	-0.388
-701.543	800.000	0.069	0.297
-700.529	-51.278	-0.175	0.083
-699.514	-115.070	-0.259	-0.050
-698.499	-152.544	0.338	0.024
-697.485	167.531	0.166	-0.238
-696.470	-200.000	-0.006	-0.102
-695.456	800.000	0.044	-0.189
-694.441	141.508	0.075	-0.100
-693.426	157.466	-0.194	-0.270
-692.412	-10.772	-0.059	-0.039
-691.397	-200.000	-0.047	-0.344
-690.383	-200.000	0.031	0.250
-689.368	57.837	0.082	0.081
-688.354	41.091	-0.226	0.206
-687.339	53.396	0.129	-0.125
-686.324	593.141	-0.046	0.114
-685.310	75.817	0.195	-0.207
-684.295	-145.879	0.067	0.006
-683.281	-131.062	0.129	-0.017
-682.266	-125.490	0.045	-0.007
-681.251	133.447	-0.345	-0.449
-680.237	800.000	-0.102	0.384
-679.222	-200.000	-0.016	-0.149
-678.208	-188.321	-0.495	-0.006
-677.193	-200.000	0.014	0.228
-676.178	155.709	-0.099	0.137
-675.164	53.023	-0.270	-0.260
-674.149	800.000	-0.083	0.277
-673.135	296.932	-0.177	0.327
-672.120	-106.334	-0.335	0.076
-671.105	-200.000	-0.044	-0.302
-670.091	800.000	0.029	-0.090
-669.076	471.000	0.122	0.276
-668.062	11.483	-0.057	0.044
-667.047	-43.921	-0.199	0.101
-666.032	712.444	-0.058	-0.154
-665.018	800.000	0.031	0.091
-664.003	-116.046	-0.055	-0.010
-662.989	-132.664	-0.186	-0.024
-661.974	12.223	0.203	0.158
-660.959	-200.000	0.041	-0.466
-659.945	800.000	0.074	-0.290
-658.930	-165.807	-0.397	-0.017
-657.916	-195.479	0.388	-0.003
-656.901	584.616	0.156	-0.386
-655.886	-200.000	-0.020	0.130
-654.872	800.000	-0.006	0.018
-653.857	-31.438	-0.134	0.076
-652.843	180.260	0.037	0.054
-651.828	-200.000	0.006	0.317
-650.814	-123.378	0.269	-0.043
-649.799	-53.407	0.201	-0.093
-648.784	-62.067	-0.264	0.111
-647.770	-154.352	-0.128	-0.009
-646.755	244.999	-0.134	-0.227
-645.741	-96.899	-0.210	-0.056
-644.726	-89.417	0.352	-0.104
-643.711	-14.177	-0.170	-0.110
-642.697	-69.473	0.158	0.061
-641.682	-133.301	0.263	0.033
-640.668	-84.225	-0.333	0.106
-639.653	-100.969	-0.119	0.029
-638.638	46.476	0.279	0.260
-637.624	12.985	0.492	0.383
-636.609	558.718	-0.121	-0.294
-635.595	95.994	-0.222	-0.255
-634.580	100.670	0.079	0.092
-633.565	800.000	-0.056	0.179
-632.551	194.479	0.139	-0.212
-631.536	-79.849	-0.162	-0.055
-630.522	355.751	-0.014	-0.027
-629.507	-200.000	0.011	-0.057
-628.492	-200.000	-0.069	-0.317
-627.478	-34.701	0.288	0.158
-626.463	32.101	-0.121	-0.105
-625.449	70.821	0.137	0.143
-624.434	344.569	0.191	0.377
-623.419	-78.107	-0.051	-0.018
-622.405	800.000	0.135	-0.388
-621.390	-80.589	-0.275	-0.092
-620.376	198.912	-0.045	-0.069
-619.361	258.519	0.167	-0.290
-618.346	11.960	-0.213	-0.165
-617.332	-61.660	-0.134	0.057
-616.317	74.502	0.135	0.142
-615.303	-2.017	0.237	-0.167
-614.288	-55.028	-0.260	0.117
-613.273	-131.964	-0.131	0.017
-612.259	-200.000	0.001	-0.267
-611.244	-149.564	-0.253	0.020
-610.230	191.626	-0.200	-0.302
-609.215	-44.188	-0.220	0.111
-608.201	518.916	0.042	-0.099
-607.186	414.281	-0.024	0.051
-606.171	800.000	0.036	0.133
-605.157	-88.856	-0.194	0.058
-604.142	-115.297	-0.052	0.010
-603.128	800.000	-0.050	-0.198
-602.113	209.599	-0.097	0.153
-601.098	-92.847	0.446	-0.125
-600.084	132.976	0.089	0.115
-599.069	-200.000	-0.006	0.127
-598.055	800.000	0.056	-0.169
-597.040	476.350	-0.076	0.172
-596.025	800.000	-0.172	0.485
-595.011	-200.000	0.022	0.096
-593.996	-199.939	-0.032	-0.000
-592.982	-200.000	0.056	0.395
-591.967	-45.056	-0.275	0.137
-590.952	83.653	0.173	0.190
-589.938	494.867	0.046	0.106
-588.923	-70.096	-0.206	-0.079
-587.909	-200.000	-0.000	0.147
-586.894	182.029	-0.207	0.305
-585.879	-91.881	-0.305	-0.087
-584.865	734.358	-0.104	-0.280
-583.850	-200.000	0.002	0.131
-582.836	-200.000	0.000	0.257
-581.821	800.000	0.046	0.193
-580.806	800.000	-0.061	0.189
-579.792	573.219	0.043	0.105
-578.777	-45.927	0.253	0.125
-577.763	-131.819	0.105	0.014
-576.748	550.750	-0.154	-0.372
-575.733	-184.391	-0.136	-0.002
-574.719	-81.493	-0.062	-0.021
-573.704	-200.000	-0.014	0.062
-572.690	-200.000	-0.011	-0.231
-571.675	245.350	-0.068	0.114
-570.661	81.588	0.172	0.187
-569.646	-134.740	0.071	-0.009
-568.631	182.758	-0.168	-0.248
-567.617	-139.267	0.293	-0.032
-566.602	-17.231	0.283	-0.179
-565.588	-200.000	0.056	0.251
-564.573	-69.347	0.402	0.155
-563.558	63.715	-0.114	-0.115
-562.544	-3.331	0.266	0.186
-561.529	-200.000	-0.007	-0.112
-560.515	296.205	0.118	0.217
-559.500	800.000	-0.068	0.220
-558.485	-200.000	-0.050	-0.294
-557.471	-200.000	0.009	0.121
-556.456	-145.561	-0.250	-0.022
-555.442	-127.312	0.270	-0.039
-554.427	-200.000	0.012	-0.073
-553.412	-101.445	0.031	0.008
-552.398	-58.776	-0.254	0.110
-551.383	7.494	0.080	0.060
-550.369	103.021	-0.106	0.124
-549.354	-200.000	0.220	0.001
-548.339	27.303	0.101	0.085
-547.325	-98.205	-0.218	0.056
-546.310	103.121	-0.074	-0.087
-545.296	-191.339	-0.132	-0.001
-544.281	23.700	0.093	0.076
-543.266	422.224	-0.091	0.196
-542.252	279.628	0.105	0.188
-541.237	16.073	0.396	-0.313
-540.223	-200.000	0.008	0.190
-539.208	-99.962	0.256	-0.064
-538.193	800.000	0.023	0.066
-537.179	800.000	0.095	0.375
-536.164	-200.000	0.025	0.128
-535.150	300.072	-0.104	-0.191
-534.135	660.993	0.103	-0.266
-533.121	-105.834	0.230	-0.052
-532.106	-113.057	0.200	0.040
-531.091	-69.610	-0.138	0.053
-530.077	-84.042	0.232	0.074
-529.062	208.995	-0.111	0.173
-528.048	-200.000	0.059	0.501
-527.033	550.461	-0.049	-0.117
-526.018	-117.840	-0.189	0.034
-525.004	-159.160	0.173	0.010
-523.989	-102.106	0.433	0.105
-522.975	297.056	0.049	-0.091
-521.960	-55.576	0.018	0.008
-520.945	110.243	0.170	-0.204
-519.931	-200.000	-0.031	-0.147
-518.916	-15.892	-0.231	-0.147
-517.902	-124.482	-0.359	0.056
-516.887	-98.881	0.289	0.073
-515.872	446.246	0.041	-0.091
-514.858	180.107	0.138	-0.203
-513.843	-72.774	0.091	0.034
-512.829	-135.071	0.188	-0.023
-511.814	-144.558	-0.222	-0.021
-510.799	-200.000	0.039	-0.382
-509.785	21.846	-0.061	-0.050
-508.770	219.659	-0.127	0.203
-507.756	-117.236	-0.256	-0.046
-506.741	800.000	-0.123	-0.359
-505.726	684.234	0.065	-0.169
-504.712	-200.000	0.151	0.001
-503.697	800.000	-0.081	-0.250
-502.683	133.508	0.217	-0.281
-501.668	800.000	0.014	0.054
-500.653	529.904	0.043	0.102
-499.639	-75.945	0.062	0.022
-498.624	101.263	0.028	-0.032
-497.610	166.294	-0.127	0.181
-496.595	237.404	-0.063	0.104
-495.581	44.772	0.045	0.041
-494.566	74.977	-0.115	0.121
-493.551	84.706	-0.239	0.262
-492.537	-125.349	0.046	-0.007
-491.522	-52.046	0.148	-0.069
-490.508	672.820	0.028	0.073
-489.493	61.524	-0.160	0.160
-488.478	72.595	0.080	0.084
-487.464	-200.000	0.000	-0.450
-486.449	-200.000	-0.018	0.140
-485.435	589.823	0.046	0.113
-484.420	-80.524	-0.140	-0.047
-483.405	-96.333	0.156	0.041
-482.391	800.000	0.075	-0.225
-481.376	-72.137	0.213	0.079
-480.362	-200.000	-0.013	0.101
-479.347	800.000	-0.082	-0.288
-478.332	-32.914	0.033	-0.018
-477.318	-106.118	-0.296	-0.067
-476.303	-200.000	0.097	0.484
-475.289	-141.848	0.165	-0.017
-474.274	-154.759	-0.372	-0.025
-473.259	-154.129	0.321	0.022
-472.245	11.268	0.212	-0.162
-471.230	-83.815	0.532	-0.169
-470.216	358.757	0.093	0.185
-469.201	-40.926	0.108	0.056
-468.186	-145.131	0.137	0.012
-467.172	-90.258	-0.226	0.066
-466.157	800.000	0.080	-0.336
-465.143	-18.104	-0.032	-0.020
-464.128	-11.703	-0.143	-0.094
-463.113	601.929	0.051	-0.127
-462.099	-119.462	0.236	0.041
-461.084	58.144	0.085	0.083
-460.070	-136.579	0.169	0.020
-459.055	-100.707	0.141	-0.035
-458.040	473.318	0.120	0.270
-457.026	-78.458	0.081	-0.028
-456.011	-152.837	0.231	-0.016
-454.997	-101.326	-0.311	0.076
-453.982	-200.000	-0.003	0.088
-452.968	85.437	-0.103	0.113
-451.953	154.667	0.035	-0.048
-450.938	-126.682	-0.140	-0.021
-449.924	617.420	-0.182	-0.455
-448.909	-109.698	-0.266	-0.056
-447.895	70.115	0.283	-0.292
-446.880	-200.000	-0.011	-0.055
-445.865	685.355	-0.114	0.298
-444.851	-200.000	0.005	-0.072
-443.836	-200.000	-0.030	0.265
-442.822	47.575	-0.085	0.079
-441.807	545.403	-0.104	0.248
-440.792	257.792	0.195	-0.336
-439.778	-200.000	-0.021	-0.152
-438.763	-24.951	-0.233	-0.138
-437.749	-115.500	0.378	-0.071
-436.734	25.667	0.257	0.214
-435.719	800.000	-0.055	0.155
-434.705	-200.000	0.027	0.134
-433.690	-62.527	0.204	0.084
-432.676	-159.887	0.226	-0.012
-431.661	-31.638	-0.189	-0.106
-430.646	-200.000	0.012	0.068
-429.632	800.000	-0.067	-0.286
-428.617	146.591	-0.215	-0.289
-427.603	-117.376	0.144	0.026
-426.588	576.916	-0.079	0.193
-425.573	-59.006	0.059	-0.026
-424.559	800.000	0.037	0.116
-423.544	800.000	-0.023	-0.085
-422.530	800.000	0.022	0.062
-421.515	-70.087	-0.057	0.022
-420.500	-51.171	0.113	0.053
-419.486	-200.000	-0.040	-0.261
-418.471	111.055	-0.108	-0.130
-417.457	800.000	-0.051	-0.190
-416.442	-125.589	-0.051	-0.008
-415.428	62.375	-0.149	-0.148
-414.413	-200.000	-0.029	-0.345
-413.398	-76.915	0.475	0.165
-412.384	103.152	0.097	0.113
-411.369	-39.295	0.075	-0.039
-410.355	29.517	-0.094	-0.080
-409.340	-200.000	-0.012	-0.125
-408.325	-200.000	0.044	0.210
-407.311	-92.626	0.230	0.064
-406.296	-65.923	0.082	0.033
-405.282	-200.000	0.058	-0.443
-404.267	15.297	-0.094	-0.074
-403.252	72.553	0.095	0.099
-402.238	330.209	-0.082	-0.158
-401.223	-35.833	-0.158	0.085
-400.209	-200.000	-0.019	0.114
-399.194	51.025	-0.375	-0.354
-398.179	29.678	0.093	-0.079
-397.165	-114.912	0.177	-0.034
-396.150	-200.000	-0.018	0.297
-395.136	-52.299	0.169	0.078
-394.121	-129.098	0.171	0.024
-393.106	62.017	-0.183	-0.181
-392.092	401.414	-0.010	-0.020
-391.077	260.535	-0.148	0.255
-390.063	-200.000	0.004	0.133
-389.048	68.692	-0.036	0.037
-388.033	141.482	0.106	0.140
-387.019	-75.556	-0.094	-0.033
-386.004	-130.292	0.530	0.072
-384.990	800.000	0.016	-0.056
-383.975	-149.002	-0.380	-0.030
-382.960	-200.000	-0.045	-0.309
-381.946	-22.100	-0.021	0.013
-380.931	800.000	0.019	0.071
-379.917	-54.656	-0.107	-0.048
-378.902	800.000	0.124	0.442
-377.888	136.000	-0.127	-0.165
-376.873	598.354	-0.041	0.102
-375.858	800.000	0.104	0.369
-374.844	660.853	-0.047	-0.121
-373.829	230.695	0.090	0.146
-372.815	37.837	-0.165	-0.146
-371.800	-200.000	-0.013	-0.199
-370.785	202.937	-0.129	0.199
-369.771	57.116	-0.165	0.161
-368.756	-123.131	-0.287	-0.046
-367.742	-200.000	-0.021	-0.198
-366.727	-28.608	-0.249	-0.143
-365.712	298.336	-0.053	0.097
-364.698	87.916	0.106	-0.117
-363.683	247.238	-0.228	-0.384
-362.669	-200.000	0.033	0.355
-361.654	134.609	0.155	0.200
-360.639	-89.668	-0.194	-0.057
-359.625	-99.542	0.243	0.061
-358.610	-73.353	0.102	-0.037
-357.596	160.641	-0.281	-0.390
-356.581	116.161	-0.067	0.081
-355.566	-142.020	-0.210	-0.021
-354.552	46.591	0.129	-0.119
-353.537	436.470	-0.126	0.273
-352.523	306.467	0.110	0.204
-351.508	-106.006	-0.221	0.049
-350.493	238.753	0.140	-0.231
-349.479	800.000	0.017	-0.064
-348.464	-200.000	0.035	-0.327
-347.450	-43.363	0.081	-0.041
-346.435	40.049	0.326	0.291
-345.420	-159.093	-0.300	0.017
-344.406	81.360	-0.218	-0.234
-343.391	-200.000	-0.056	-0.376
-342.377	-200.000	-0.028	0.168
-341.362	-10.146	0.150	-0.099
-340.348	245.571	-0.070	-0.118
-339.333	800.000	-0.123	0.438
-338.318	-200.000	0.009	0.116
-337.304	-144.409	-0.239	0.022
-336.289	-119.717	-0.061	-0.010
-335.275	104.144	-0.130	-0.152
-334.260	-200.000	0.001	0.287
-333.245	800.000	0.033	-0.107
-332.231	634.986	0.098	-0.247
-331.216	-39.376	-0.152	-0.079
-330.202	800.000	-0.068	0.226
-329.187	223.212	0.153	-0.245
-328.172	255.388	0.048	0.082
-327.158	25.276	-0.247	0.204
-326.143	-132.529	0.076	-0.010
-325.129	60.488	-0.054	-0.053
-324.114	163.603	0.246	0.344
-323.099	-200.000	-0.027	0.186
-322.085	-200.000	0.000	-0.143
-321.070	-51.653	-0.489	0.226
-320.056	-28.005	-0.259	-0.149
-319.041	68.896	0.085	-0.087
-318.026	259.342	0.088	0.150
-317.012	204.009	0.190	-0.293
-315.997	-114.758	0.075	0.014
-314.983	-128.716	0.106	0.015
-313.968	-87.772	0.165	0.050
-312.953	-200.000	-0.006	0.107
-311.939	137.295	-0.028	0.036
-310.924	181.812	0.215	-0.315
-309.910	34.518	0.141	-0.123
-308.895	55.937	0.098	-0.095
-307.880	80.458	-0.136	-0.146
-306.866	-93.268	-0.231	-0.064
-305.851	611.503	0.051	0.126
-304.837	219.567	0.197	-0.313
-303.822	-200.000	-0.012	0.061
-302.807	41.528	0.150	0.134
-301.793	-200.000	-0.049	-0.279
-300.778	-119.777	0.164	-0.028
-299.764	466.657	0.040	-0.090
-298.749	-19.694	0.142	-0.087
-297.735	-124.504	-0.167	0.026
-296.720	180.884	0.139	0.203
-295.705	-191.697	-0.409	-0.004
-294.691	-140.021	0.297	-0.031
-293.676	285.378	-0.192	-0.343
-292.662	298.655	-0.071	0.130
-291.647	-200.000	-0.062	0.395
-290.632	98.943	0.195	-0.223
-289.618	-200.000	0.001	0.090
-288.603	27.814	0.327	-0.273
-287.589	-127.685	0.356	-0.051
-286.574	164.216	0.129	0.180
-285.559	532.969	-0.129	0.304
-284.545	800.000	0.041	0.135
-283.530	-200.000	0.010	-0.181
-282.516	-200.000	-0.012	0.227
-281.501	13.391	0.081	0.063
-280.486	210.254	0.010	0.016
-279.472	-53.478	0.138	-0.062
-278.457	-200.000	-0.010	0.272
-277.443	-43.104	-0.217	-0.109
-276.428	353.056	-0.073	-0.144
-275.413	6.870	0.286	0.211
-274.399	-167.151	-0.108	-0.004
-273.384	-100.552	-0.151	0.037
-272.370	-200.000	-0.013	0.097
-271.355	-148.252	0.450	0.037
-270.340	-11.213	-0.234	0.153
-269.326	3.233	-0.316	0.228
-268.311	-200.000	0.006	-0.067
-267.297	-104.022	-0.152	0.035
-266.282	-31.195	-0.243	0.136
-265.267	-18.239	-0.247	0.153
-264.253	3.347	0.018	0.013
-263.238	-103.786	-0.141	0.033
-262.224	-25.291	0.206	0.121
-261.209	800.000	0.081	-0.233
-260.195	800.000	-0.050	-0.207
-259.180	-150.130	0.218	-0.017
-258.165	-168.771	-0.125	-0.005
-257.151	70.696	0.304	0.312
-256.136	-49.684	0.330	0.155
-255.122	-174.685	0.117	-0.003
-254.107	-22.542	-0.237	0.142
-253.092	304.107	0.081	0.148
-252.078	800.000	-0.157	0.429
-251.063	-200.000	-0.002	-0.059
-250.049	-200.000	-0.001	0.133
-249.034	-73.375	0.071	0.026
-248.019	218.872	-0.120	-0.191
-247.005	-75.021	-0.114	0.040
-245.990	-200.000	-0.027	0.123
-244.976	-160.412	-0.161	0.009
-243.961	-82.915	-0.175	0.056
-242.946	195.678	0.091	0.138
-241.932	-200.000	0.023	0.112
-240.917	-200.000	0.015	0.132
-239.903	800.000	-0.066	-0.249
-238.888	211.418	-0.160	0.249
-237.873	135.366	0.237	-0.306
-236.859	-81.769	-0.303	0.098
-235.844	233.966	0.221	0.361
-234.830	-53.000	-0.315	-0.143
-233.815	-34.556	0.277	-0.150
-232.800	-28.219	-0.052	0.030
-231.786	-101.079	-0.109	0.026
-230.771	800.000	0.063	-0.192
-229.757	-32.962	-0.350	-0.192
-228.742	115.646	-0.130	-0.158
-227.727	-140.435	0.234	-0.024
-226.713	-1.128	0.159	0.112
-225.698	-147.724	0.090	0.008
-224.684	-94.440	-0.335	-0.090
-223.669	-127.237	0.102	0.015
-222.655	-54.338	0.018	0.008
-221.640	-86.382	-0.332	0.101
-220.625	514.175	-0.055	0.128
-219.611	606.369	0.063	0.155
-218.596	-200.000	0.006	0.136
-217.582	193.507	-0.113	0.169
-216.567	-200.000	0.043	0.307
-215.552	-6.587	0.109	-0.073
-214.538	-6.291	-0.107	-0.072
-213.523	-60.008	-0.227	0.096
-212.509	431.287	0.136	-0.291
-211.494	-30.364	0.362	0.203
-210.479	-125.143	0.234	-0.035
-209.465	-62.721	0.379	-0.155
-208.450	-115.940	-0.125	-0.023
-207.436	-127.120	0.149	0.022
-206.421	800.000	-0.098	0.286
-205.406	-166.417	0.231	0.010
-204.392	-87.060	-0.368	0.111
-203.377	150.884	0.043	0.058
-202.363	-38.278	0.153	0.080
-201.348	-88.157	-0.292	0.087
-200.333	109.899	0.273	-0.324
-199.319	79.692	-0.237	-0.251
-198.304	-200.000	-0.015	-0.188
-197.290	-106.848	0.113	-0.025
-196.275	800.000	-0.057	0.178
-195.260	-74.094	0.197	-0.070
-194.246	-200.000	0.009	0.084
-193.231	-83.644	0.097	-0.031
-192.217	-142.690	-0.310	0.030
-191.202	369.052	0.125	-0.251
-190.187	293.711	-0.091	-0.164
-189.173	-6.092	-0.173	-0.117
-188.158	174.085	0.215	0.308
-187.144	-182.868	-0.379	-0.007
-186.129	-155.131	-0.092	0.006
-185.114	800.000	0.012	0.038
-184.100	-40.873	0.241	-0.123
-183.085	265.855	-0.299	-0.516
-182.071	-123.583	-0.313	-0.049
-181.056	236.111	0.128	-0.209
-180.042	-21.456	0.275	-0.166
-179.027	-200.000	-0.009	-0.042
-178.012	33.390	0.134	-0.115
-176.998	-130.968	-0.222	-0.029
-175.983	-128.418	-0.102	-0.014
-174.969	-91.078	0.255	-0.072
-173.954	24.582	-0.171	-0.140
-172.939	-200.000	-0.041	-0.212
-171.925	-200.000	0.013	0.251
-170.910	112.351	-0.204	-0.244
-169.896	71.160	0.089	0.091
-168.881	-200.000	-0.021	-0.137
-167.866	-200.000	0.037	0.209
-166.852	-142.929	0.171	-0.016
-165.837	-110.284	0.064	0.013
-164.823	17.432	-0.093	-0.073
-163.808	199.065	-0.292	-0.441
-162.793	-92.627	-0.126	0.035
-161.779	356.836	-0.138	-0.271
-160.764	-200.000	-0.060	-0.284
-159.750	19.061	0.106	-0.084
-158.735	70.940	-0.225	0.230
-157.720	207.148	-0.061	0.094
-156.706	-200.000	-0.006	0.052
-155.691	-62.260	-0.260	0.107
-154.677	-85.798	0.238	-0.073
-153.662	92.100	0.076	0.085
-152.647	-200.000	0.031	0.178
-151.633	12.509	-0.311	-0.237
-150.618	51.743	0.030	-0.028
-149.604	-79.175	-0.008	0.003
-148.589	-35.286	0.205	-0.110
-147.574	-200.000	-0.067	-0.408
-146.560	-167.077	0.348	-0.014
-145.545	57.396	-0.156	-0.150
-144.531	266.878	0.063	-0.108
-143.516	-148.652	0.194	-0.016
-142.502	181.571	0.104	0.151
-141.487	-200.000	-0.036	-0.232
-140.472	-200.000	0.071	0.344
-139.458	800.000	-0.067	0.238
-138.443	-200.000	-0.045	0.255
-137.429	-200.000	-0.027	-0.379
-136.414	-12.567	0.366	0.236
-135.399	-59.192	0.256	-0.109
-134.385	135.631	-0.348	0.447
-133.370	-31.334	0.096	0.053
-132.356	-59.138	0.057	0.024
-131.341	581.396	-0.117	0.282
-130.326	5.162	0.190	0.138
-129.312	-146.813	-0.119	-0.010
-128.297	-163.115	0.354	-0.017
-127.283	58.084	0.249	-0.240
-126.268	248.795	-0.149	0.249
-125.253	544.774	0.032	0.076
-124.239	-200.000	0.006	0.075
-123.224	-12.629	0.248	-0.160
-122.210	472.327	-0.039	0.087
