DTS Sentinel unit serial number:	SN413079Multiplexer serial number:	ORYXHardware model number:	OX4-SRSoftware version number:	ORYX F/W v4.00 Oryx Data Collector v3.7.2.0data status	okinstallation	princeton_trtdifferential loss correction	single-endedforward channel	channel 3reverse channel	N/Adate	2019/09/14time	09:52:35forward acquisition time	60.00reverse acquisition time	0.00gamma	496.2192k internal	0.2315k external	0.2315temperature offset calibration	1.0056default loss term (dB/km)	0.3790temperature slope calibration	1.0000multiplexer offset coefficient	1.0000multiplexer slope coefficient	1.0000fibre end	0.00T internal ref (°C)	32.61T ext. ref 1 (°C)	3.97T ext. ref 2 (°C)	30.91length (m)	temperature (°C)	Stokes	anti-Stokes-747.200	-200.000	0.017	-0.253
-746.185	800.000	-0.028	-0.092
-745.171	-200.000	-0.070	0.317
-744.156	211.772	-0.207	0.330
-743.142	-53.875	0.274	0.127
-742.127	53.111	-0.202	0.196
-741.112	14.328	-0.069	0.055
-740.098	-84.053	-0.217	-0.070
-739.083	-20.085	0.058	-0.036
-738.069	498.438	-0.021	-0.049
-737.054	-156.411	-0.075	-0.005
-736.039	84.226	-0.111	0.123
-735.025	-107.861	0.400	-0.088
-734.010	-106.787	-0.191	0.043
-732.996	-49.292	-0.196	0.095
-731.981	800.000	-0.070	-0.304
-730.966	68.243	0.055	-0.057
-729.952	292.319	0.150	-0.277
-728.937	67.678	-0.225	0.233
-727.923	20.668	0.085	0.069
-726.908	4.977	-0.156	-0.117
-725.894	800.000	-0.109	-0.332
-724.879	31.987	-0.335	-0.293
-723.864	156.012	0.175	-0.245
-722.850	800.000	-0.116	-0.431
-721.835	-200.000	-0.006	0.030
-720.821	275.733	-0.116	-0.208
-719.806	18.149	0.233	0.188
-718.791	-94.495	-0.304	-0.084
-717.777	-70.857	-0.253	0.097
-716.762	-170.747	0.345	-0.012
-715.748	156.172	0.115	-0.161
-714.733	-109.758	-0.222	-0.047
-713.718	-39.410	-0.233	-0.124
-712.704	-39.334	0.159	-0.085
-711.689	-3.372	-0.207	0.146
-710.675	51.340	0.189	0.181
-709.660	-88.123	-0.249	-0.076
-708.645	322.413	0.096	0.185
-707.631	-200.000	-0.018	-0.472
-706.616	-45.510	0.270	-0.135
-705.602	453.621	0.053	0.118
-704.587	-56.454	-0.210	0.094
-703.572	-36.402	0.204	-0.111
-702.558	-97.193	-0.205	0.054
-701.543	-110.628	-0.035	-0.007
-700.529	104.119	0.076	-0.091
-699.514	-200.000	-0.009	0.063
-698.499	-109.388	-0.207	-0.044
-697.485	800.000	-0.104	0.330
-696.470	-116.096	-0.070	-0.013
-695.456	655.929	0.032	0.083
-694.441	62.252	0.154	-0.155
-693.426	-183.948	-0.472	-0.008
-692.412	-200.000	0.029	0.260
-691.397	-37.596	-0.267	-0.144
-690.383	-41.407	-0.191	-0.100
-689.368	163.853	-0.210	-0.298
-688.354	800.000	-0.104	-0.336
-687.339	-73.171	-0.240	-0.089
-686.324	-3.739	-0.114	0.080
-685.310	-200.000	-0.012	-0.120
-684.295	60.861	0.298	-0.298
-683.281	-109.590	0.175	0.037
-682.266	138.013	-0.089	-0.118
-681.251	800.000	-0.109	0.316
-680.237	376.338	0.226	-0.466
-679.222	-60.571	-0.097	-0.042
-678.208	1.994	0.323	-0.236
-677.193	-93.109	-0.248	0.070
-676.178	800.000	-0.075	0.253
-675.164	-95.467	-0.187	0.051
-674.149	44.653	0.114	0.106
-673.135	-12.192	-0.031	-0.021
-672.120	-200.000	-0.005	-0.096
-671.105	282.194	0.063	-0.115
-670.091	742.742	-0.046	-0.124
-669.076	-92.962	0.102	0.029
-668.062	-9.336	-0.106	-0.072
-667.047	-136.306	-0.324	-0.038
-666.032	-133.640	-0.158	0.020
-665.018	800.000	-0.019	-0.079
-664.003	-200.000	-0.006	0.210
-662.989	-7.654	-0.058	0.040
-661.974	165.967	-0.102	0.146
-660.959	-97.572	0.327	0.086
-659.945	19.707	0.105	-0.085
-658.930	-60.875	0.156	0.067
-657.916	-151.490	-0.252	-0.019
-656.901	-151.107	-0.037	0.003
-655.886	-101.700	0.232	0.057
-654.872	-25.174	0.100	-0.060
-653.857	9.684	0.196	0.150
-652.843	156.655	0.055	0.076
-651.828	-200.000	-0.070	-0.368
-650.814	62.884	-0.193	-0.195
-649.799	-32.489	-0.322	0.181
-648.784	-28.639	-0.130	0.075
-647.770	13.966	-0.122	0.096
-646.755	25.769	-0.151	-0.127
-645.741	-200.000	0.042	-0.288
-644.726	130.923	0.193	-0.251
-643.711	-64.029	0.296	-0.122
-642.697	-55.466	-0.052	0.024
-641.682	800.000	-0.028	-0.111
-640.668	-18.641	-0.175	-0.110
-639.653	-130.174	-0.194	0.027
-638.638	-2.189	-0.129	0.091
-637.624	-200.000	-0.001	-0.445
-636.609	-54.888	-0.279	-0.127
-635.595	152.197	-0.128	-0.176
-634.580	6.908	-0.251	-0.189
-633.565	800.000	-0.113	-0.326
-632.551	595.650	-0.052	0.129
-631.536	165.804	-0.126	-0.180
-630.522	800.000	-0.052	-0.177
-629.507	-125.436	0.086	0.013
-628.492	239.955	0.086	-0.145
-627.478	7.097	0.260	-0.196
-626.463	-133.131	0.350	-0.045
-625.449	263.421	-0.072	0.127
-624.434	27.800	0.146	0.124
-623.419	-123.339	-0.272	-0.044
-622.405	-200.000	-0.150	-0.001
-621.390	89.021	-0.124	-0.139
-620.376	20.410	-0.227	-0.185
-619.361	341.241	0.145	0.285
-618.346	225.755	-0.150	-0.244
-617.332	399.630	0.066	0.139
-616.317	-112.593	-0.072	0.015
-615.303	-36.134	-0.275	0.150
-614.288	-60.773	0.113	0.048
-613.273	800.000	0.050	-0.184
-612.259	47.961	-0.080	0.076
-611.244	800.000	0.051	0.174
-610.230	103.871	-0.062	0.074
-609.215	225.904	-0.223	0.364
-608.201	51.818	0.142	0.136
-607.186	165.219	-0.049	0.070
-606.171	-119.886	0.172	0.030
-605.157	-195.325	0.239	-0.002
-604.142	336.940	0.073	0.143
-603.128	-100.833	0.125	-0.031
-602.113	119.022	-0.182	-0.227
-601.098	187.730	-0.141	-0.213
-600.084	-200.000	-0.043	-0.283
-599.069	-200.000	0.011	0.134
-598.055	145.574	0.047	0.064
-597.040	80.572	-0.051	-0.055
-596.025	-87.482	0.172	-0.052
-595.011	-62.833	0.157	0.066
-593.996	170.593	0.066	-0.096
-592.982	-46.654	-0.164	0.081
-591.967	-200.000	0.012	-0.194
-590.952	555.481	-0.138	-0.335
-589.938	-200.000	-0.040	-0.566
-588.923	-200.000	0.027	0.345
-587.909	-154.943	0.116	0.008
-586.894	85.863	-0.136	0.151
-585.879	334.983	0.007	-0.014
-584.865	-66.120	-0.147	-0.059
-583.850	-157.522	-0.356	-0.022
-582.836	68.015	-0.182	-0.187
-581.821	-200.000	-0.024	0.158
-580.806	-153.437	-0.111	-0.008
-579.792	800.000	0.055	0.167
-578.777	-155.122	0.130	0.009
-577.763	-54.196	-0.215	-0.098
-576.748	83.068	-0.179	-0.196
-575.733	-200.000	0.052	-0.267
-574.719	82.144	-0.193	-0.211
-573.704	-56.981	0.119	-0.053
-572.690	71.907	0.093	0.097
-571.675	-200.000	-0.003	0.128
-570.661	12.012	0.156	-0.121
-569.646	-92.418	0.245	-0.069
-568.631	159.348	-0.048	-0.068
-567.617	93.277	-0.118	-0.134
-566.602	430.134	-0.060	-0.130
-565.588	-50.164	0.352	0.168
-564.573	-67.898	0.162	-0.064
-563.558	800.000	0.114	0.335
-562.544	82.933	-0.205	-0.224
-561.529	-162.308	0.216	-0.011
-560.515	-200.000	0.006	-0.149
-559.500	-31.652	-0.246	0.139
-558.485	-36.473	-0.141	-0.077
-557.471	691.119	-0.076	0.201
-556.456	144.546	0.133	-0.178
-555.442	800.000	-0.115	0.389
-554.427	800.000	-0.014	-0.049
-553.412	-66.994	-0.155	-0.062
-552.398	139.508	-0.046	0.061
-551.383	167.533	0.141	0.202
-550.369	246.425	0.089	-0.152
-549.354	-120.581	0.109	-0.019
-548.339	128.701	0.105	-0.134
-547.325	-200.000	-0.022	-0.372
-546.310	-6.461	-0.172	-0.118
-545.296	-57.903	0.215	-0.095
-544.281	103.895	0.226	-0.267
-543.266	313.486	0.182	-0.344
-542.252	194.636	-0.127	0.194
-541.237	-13.775	-0.074	-0.048
-540.223	-200.000	-0.007	0.132
-539.208	-200.000	-0.050	0.334
-538.193	-98.107	-0.203	0.052
-537.179	206.540	-0.124	-0.195
-536.164	594.631	-0.033	0.082
-535.150	40.701	-0.279	-0.253
-534.135	-94.072	-0.162	0.045
-533.121	-135.535	0.187	-0.022
-532.106	-7.457	0.068	-0.046
-531.091	-25.853	0.240	0.142
-530.077	-200.000	-0.021	0.240
-529.062	800.000	-0.079	0.225
-528.048	674.875	-0.101	-0.263
-527.033	-64.862	-0.234	-0.095
-526.018	-46.850	-0.148	0.073
-525.004	-34.924	-0.465	0.255
-523.989	-200.000	-0.004	0.202
-522.975	-200.000	0.000	-0.243
-521.960	-76.252	0.100	0.036
-520.945	-75.502	0.135	0.048
-519.931	39.626	0.038	0.034
-518.916	800.000	-0.083	0.320
-517.902	264.236	0.051	-0.089
-516.887	37.357	0.284	-0.253
-515.872	800.000	0.032	-0.136
-514.858	800.000	0.023	0.069
-513.843	800.000	-0.002	-0.005
-512.829	-66.847	-0.093	0.037
-511.814	87.254	-0.059	0.066
-510.799	69.363	0.226	0.234
-509.785	1.009	-0.066	-0.047
-508.770	428.687	-0.037	-0.081
-507.756	-200.000	0.032	0.150
-506.741	800.000	0.089	-0.371
-505.726	-200.000	-0.000	-0.166
-504.712	-127.642	0.050	-0.007
-503.697	-67.822	-0.078	-0.031
-502.683	38.983	-0.131	0.117
-501.668	140.020	0.116	-0.153
-500.653	89.782	-0.114	0.127
-499.639	-200.000	-0.053	0.250
-498.624	183.622	0.157	0.233
-497.610	375.891	0.154	-0.316
-496.595	40.015	0.067	-0.061
-495.581	-93.225	-0.233	0.065
-494.566	-200.000	0.051	0.442
-493.551	-52.531	-0.235	-0.109
-492.537	163.912	-0.063	0.089
-491.522	-200.000	0.021	0.244
-490.508	-54.071	-0.354	0.162
-489.493	2.996	0.178	0.129
-488.478	46.999	-0.107	-0.100
-487.464	198.622	0.121	-0.186
-486.449	46.040	-0.130	-0.120
-485.435	-0.262	0.239	0.170
-484.420	-200.000	-0.019	0.294
-483.405	27.280	0.112	0.094
-482.391	-36.252	-0.331	-0.179
-481.376	218.711	-0.230	-0.369
-480.362	-29.777	-0.300	0.171
-479.347	32.597	0.181	-0.157
-478.332	502.367	0.026	0.061
-477.318	-200.000	0.028	-0.266
-476.303	-147.169	0.068	-0.006
-475.289	-3.931	0.153	0.107
-474.274	670.585	-0.074	-0.191
-473.259	-145.574	0.220	-0.020
-472.245	138.033	0.141	-0.185
-471.230	722.532	-0.067	0.180
-470.216	-11.209	-0.237	0.156
-469.201	479.604	0.143	0.324
-468.186	51.420	0.077	-0.073
-467.172	-200.000	-0.004	0.136
-466.157	-183.121	0.100	0.002
-465.143	-58.112	-0.166	0.073
-464.128	-67.659	0.113	-0.044
-463.113	282.146	0.155	0.278
-462.099	177.513	-0.026	-0.038
-461.084	-152.855	-0.069	-0.005
-460.070	215.758	-0.007	-0.011
-459.055	31.956	-0.221	-0.191
-458.040	-37.259	0.075	0.040
-457.026	-137.060	0.274	0.031
-456.011	377.214	-0.082	0.168
-454.997	15.085	0.130	-0.102
-453.982	-122.611	0.140	-0.023
-452.968	-23.174	0.224	-0.135
-451.953	-131.740	-0.131	0.017
-450.938	-200.000	0.019	0.289
-449.924	-67.606	-0.210	0.083
-448.909	180.684	-0.068	0.100
-447.895	-177.756	-0.177	0.004
-446.880	800.000	0.037	0.122
-445.865	-64.636	-0.097	-0.040
-444.851	707.726	-0.102	-0.271
-443.836	-56.649	-0.114	0.050
-442.822	-200.000	0.006	0.061
-441.807	18.868	0.110	0.088
-440.792	162.656	0.121	0.170
-439.778	-94.494	0.257	0.070
-438.763	-153.688	-0.256	0.018
-437.749	110.770	-0.078	0.094
-436.734	516.676	-0.028	0.067
-435.719	800.000	0.028	-0.107
-434.705	-95.912	-0.276	-0.074
-433.690	-80.161	0.181	-0.061
-432.676	-0.890	0.158	0.112
-431.661	-200.000	0.039	-0.234
-430.646	-180.131	-0.267	-0.006
-429.632	-101.008	0.130	-0.032
-428.617	639.102	-0.070	-0.178
-427.603	98.793	0.071	0.082
-426.588	-163.190	0.324	-0.016
-425.573	148.033	0.161	0.217
-424.559	73.256	-0.234	0.245
-423.544	329.568	-0.152	0.293
-422.530	-69.862	0.459	0.175
-421.515	7.102	-0.257	0.192
-420.500	10.814	0.079	0.060
-419.486	-132.199	0.073	0.009
-418.471	696.826	0.040	-0.106
-417.457	74.450	0.221	0.232
-416.442	-103.067	-0.204	-0.048
-415.428	-131.944	0.571	0.075
-414.413	777.934	-0.125	0.341
-413.398	23.190	0.122	0.100
-412.384	-61.417	0.122	-0.051
-411.369	-200.000	-0.020	-0.175
-410.355	-200.000	0.001	-0.117
-409.340	181.724	0.064	-0.095
-408.325	800.000	0.113	0.368
-407.311	-29.357	-0.182	-0.104
-406.296	-200.000	-0.057	0.295
-405.282	-21.732	0.157	-0.096
-404.267	-62.788	0.347	0.144
-403.252	800.000	0.130	0.381
-402.238	-2.265	0.277	0.194
-401.223	52.527	-0.189	0.180
-400.209	44.017	-0.114	0.104
-399.194	-129.490	0.163	0.023
-398.179	800.000	0.070	0.269
-397.165	-79.102	0.141	0.048
-396.150	-200.000	-0.019	-0.093
-395.136	-200.000	0.017	-0.181
-394.121	-31.720	-0.182	-0.102
-393.106	246.467	-0.085	-0.144
-392.092	-200.000	-0.010	0.211
-391.077	-200.000	0.041	0.287
-390.063	223.685	0.188	0.303
-389.048	-103.254	0.194	0.046
-388.033	-13.526	-0.112	-0.073
-387.019	-200.000	-0.015	-0.403
-386.004	-106.327	-0.089	-0.020
-384.990	-66.458	-0.205	0.081
-383.975	312.086	0.131	0.245
-382.960	117.463	-0.268	0.329
-381.946	-30.636	0.149	-0.084
-380.931	-200.000	-0.014	0.103
-379.917	-33.782	0.128	-0.071
-378.902	-98.085	-0.105	0.027
-377.888	-200.000	0.003	0.459
-376.873	331.603	0.092	-0.178
-375.858	348.943	0.066	0.130
-374.844	-141.332	-0.469	-0.048
-373.829	-39.919	-0.187	0.097
-372.815	-200.000	-0.063	0.432
-371.800	26.539	0.067	-0.056
-370.785	-200.000	-0.040	-0.217
-369.771	40.752	0.041	-0.037
-368.756	-200.000	0.015	-0.224
-367.742	-200.000	0.016	0.129
-366.727	118.281	-0.040	0.049
-365.712	-99.410	0.195	-0.049
-364.698	52.673	0.067	0.064
-363.683	-67.715	-0.305	0.119
-362.669	-183.162	-0.135	-0.002
-361.654	-200.000	-0.011	-0.115
-360.639	21.814	0.087	0.071
-359.625	-200.000	-0.014	-0.131
-358.610	800.000	-0.114	-0.349
-357.596	-117.490	0.356	0.064
-356.581	245.713	0.194	0.326
-355.566	-133.098	0.217	0.027
-354.552	-128.311	-0.191	-0.027
-353.537	-128.106	-0.132	0.019
-352.523	-0.710	-0.249	0.176
-351.508	-56.882	-0.201	0.089
-350.493	800.000	0.097	0.274
-349.479	-200.000	0.047	0.211
-348.464	-26.992	0.264	-0.154
-347.450	598.777	-0.028	-0.069
-346.435	760.173	0.037	-0.099
-345.420	-139.846	0.162	-0.017
-344.406	-200.000	0.021	-0.118
-343.391	-91.617	0.170	-0.048
-342.377	-51.463	-0.543	0.253
-341.362	176.815	0.090	0.130
-340.348	-200.000	-0.058	-0.263
-339.333	107.774	0.173	0.206
-338.318	-77.617	0.057	0.020
-337.304	-78.664	0.405	-0.138
-336.289	-200.000	-0.019	-0.443
-335.275	-77.511	-0.160	-0.055
-334.260	-51.465	0.185	0.086
-333.245	613.332	-0.034	-0.085
-332.231	800.000	0.012	-0.051
-331.216	2.384	0.059	-0.043
-330.202	-116.904	0.284	0.052
-329.187	-156.958	-0.241	-0.015
-328.172	800.000	0.079	0.233
-327.158	263.123	-0.185	0.320
-326.143	-95.507	-0.260	0.070
-325.129	657.851	-0.048	-0.124
-324.114	-200.000	0.010	-0.106
-323.099	-121.552	0.359	0.059
-322.085	107.915	0.039	-0.046
-321.070	257.482	0.172	-0.295
-320.056	-112.300	-0.443	0.088
-319.041	145.582	-0.185	0.248
-318.026	99.241	0.126	0.145
-317.012	800.000	-0.086	-0.254
-315.997	-200.000	0.059	-0.338
-314.983	-41.891	-0.365	-0.186
-313.968	-129.026	-0.240	0.034
-312.953	39.784	-0.215	0.192
-311.939	644.515	0.094	0.239
-310.924	-200.000	-0.004	0.225
-309.910	32.703	0.289	0.249
-308.895	334.597	0.062	-0.120
-307.880	293.963	0.041	-0.076
-306.866	-127.214	0.278	0.040
-305.851	12.313	0.028	-0.021
-304.837	38.214	0.454	-0.403
-303.822	464.411	-0.053	-0.118
-302.807	800.000	0.050	0.209
-301.793	-164.435	0.052	-0.002
-300.778	-200.000	0.010	-0.063
-299.764	-1.610	0.352	-0.247
-298.749	-61.312	-0.114	-0.048
-297.735	-7.948	0.268	0.180
-296.720	-117.633	-0.206	0.037
-295.705	-200.000	-0.033	0.204
-294.691	94.449	-0.048	0.054
-293.676	14.118	-0.279	0.217
-292.662	275.919	-0.086	-0.153
-291.647	-106.439	0.181	0.040
-290.632	-34.074	-0.094	0.051
-289.618	-170.387	-0.131	0.005
-288.603	65.456	0.051	0.051
-287.589	-10.794	0.206	0.136
-286.574	-107.352	-0.388	-0.085
-285.559	-11.846	-0.149	0.097
-284.545	251.864	0.103	0.175
-283.530	58.491	0.268	0.262
-282.516	-129.936	0.162	0.022
-281.501	13.411	-0.299	0.231
-280.486	-200.000	0.031	0.342
-279.472	-55.993	-0.219	-0.097
-278.457	82.697	0.191	-0.207
-277.443	-10.134	0.115	-0.076
-276.428	-31.890	0.336	-0.188
-275.413	-200.000	-0.015	0.216
-274.399	126.790	0.185	0.233
-273.384	62.515	-0.137	0.136
-272.370	-20.520	0.186	0.114
-271.355	-45.881	0.181	-0.089
-270.340	69.097	-0.027	0.028
-269.326	-200.000	0.009	0.055
-268.311	800.000	0.058	-0.166
-267.297	6.372	-0.301	-0.222
-266.282	-73.092	-0.114	-0.042
-265.267	67.523	-0.176	0.179
-264.253	26.252	-0.045	0.038
-263.238	13.633	-0.336	-0.260
-262.224	-85.028	0.237	0.074
-261.209	72.467	-0.080	-0.082
-260.195	-34.229	0.083	0.045
-259.180	559.119	0.055	0.132
-258.165	-87.929	-0.302	0.090
-257.151	800.000	-0.018	-0.062
-256.136	-200.000	-0.045	0.244
-255.122	-200.000	-0.043	-0.277
-254.107	-12.677	0.388	0.252
-253.092	139.372	0.129	0.169
-252.078	263.041	0.056	-0.097
-251.063	6.340	0.052	-0.038
-250.049	41.006	0.120	-0.108
-249.034	188.437	-0.183	0.272
-248.019	-55.474	0.228	-0.102
-247.005	304.462	-0.007	0.013
-245.990	-111.504	-0.355	0.072
-244.976	-70.755	-0.087	-0.033
-243.961	382.087	-0.052	-0.105
-242.946	554.654	-0.130	-0.310
-241.932	-200.000	-0.013	0.075
-240.917	0.343	0.187	-0.132
-239.903	242.177	-0.130	-0.216
-238.888	-137.499	-0.078	-0.009
-237.873	51.462	-0.233	0.220
-236.859	108.531	-0.123	-0.146
-235.844	66.143	-0.141	0.143
-234.830	141.237	0.115	-0.151
-233.815	-128.860	0.245	-0.034
-232.800	303.250	-0.127	-0.233
-231.786	211.495	-0.243	-0.380
-230.771	59.803	0.190	0.186
-229.757	800.000	-0.043	0.132
-228.742	-200.000	-0.037	-0.268
-227.727	-3.764	0.158	-0.109
-226.713	784.816	-0.099	-0.269
-225.698	265.756	-0.054	0.093
-224.684	-33.819	0.198	0.108
-223.669	-200.000	0.165	0.000
-222.655	-200.000	-0.030	0.211
-221.640	45.699	-0.017	-0.016
-220.625	-200.000	0.026	0.385
-219.611	-37.171	0.185	-0.098
-218.596	800.000	-0.099	0.351
-217.582	-199.482	-0.082	0.000
-216.567	-145.461	-0.126	0.011
-215.552	-15.438	-0.146	0.093
-214.538	-200.000	-0.042	0.258
-213.523	-200.000	0.061	0.397
-212.509	800.000	0.070	0.299
-211.494	134.244	0.083	-0.107
-210.479	64.742	-0.185	-0.185
-209.465	444.370	-0.064	-0.139
-208.450	-200.000	-0.016	-0.132
-207.436	38.422	0.123	-0.109
-206.421	153.131	0.183	-0.249
-205.406	-41.495	-0.172	-0.088
-204.392	72.361	-0.077	0.079
-203.377	434.871	0.076	-0.164
-202.363	157.383	0.195	-0.268
-201.348	414.140	-0.074	-0.156
-200.333	155.079	-0.041	0.055
-199.319	-42.022	-0.126	-0.064
-198.304	-48.352	0.139	0.066
-197.290	-90.322	-0.315	0.091
-196.275	213.779	0.271	-0.426
-195.260	800.000	0.100	-0.334
-194.246	349.558	-0.021	0.040
-193.231	476.052	-0.026	-0.057
-192.217	-200.000	0.034	-0.158
-191.202	-68.719	0.170	-0.065
-190.187	-200.000	0.011	-0.244
-189.173	657.765	-0.197	0.502
-188.158	759.487	0.029	0.077
-187.144	68.301	-0.066	0.067
-186.129	800.000	-0.084	-0.357
-185.114	91.094	-0.143	-0.159
-184.100	-56.371	0.165	0.073
-183.085	-200.000	0.044	-0.412
-182.071	154.261	0.282	-0.384
-181.056	24.993	-0.130	0.107
-180.042	232.108	0.133	0.216
-179.027	-200.000	0.025	0.125
-178.012	-21.682	0.387	-0.234
-176.998	-200.000	0.073	-0.466
-175.983	85.125	-0.115	0.125
-174.969	-88.305	-0.128	0.038
-173.954	800.000	0.124	-0.364
-172.939	401.503	0.050	-0.105
-171.925	-200.000	0.036	0.368
-170.910	-91.827	0.220	0.062
-169.896	155.164	0.241	0.329
-168.881	197.695	-0.077	-0.116
-167.866	32.882	0.150	-0.129
-166.852	-164.609	0.245	-0.011
-165.837	-135.804	-0.258	0.030
-164.823	-142.083	-0.476	-0.047
-163.808	45.725	-0.312	-0.286
-162.793	178.016	0.117	-0.169
-161.779	-61.230	0.369	-0.154
-160.764	134.710	0.229	-0.294
-159.750	-200.000	-0.006	-0.054
-158.735	-42.260	-0.369	0.187
-157.720	57.742	0.036	-0.035
-156.706	-73.385	0.161	0.058
-155.691	-25.531	0.423	0.248
-154.677	102.514	0.014	0.016
-153.662	435.392	0.163	-0.351
-152.647	219.367	-0.185	-0.294
-151.633	-200.000	-0.011	0.056
-150.618	800.000	0.041	0.178
-149.604	155.970	0.117	-0.160
-148.589	-200.000	-0.051	-0.292
-147.574	-200.000	-0.071	-0.366
-146.560	-3.478	0.135	-0.093
-145.545	96.331	0.128	0.145
-144.531	175.642	-0.107	0.154
-143.516	83.593	-0.201	0.217
-142.502	106.559	-0.100	0.117
-141.487	800.000	-0.051	-0.140
-140.472	14.540	-0.180	-0.139
-139.458	320.847	0.201	-0.379
-138.443	564.480	0.124	0.297
-137.429	-49.311	0.291	0.137
-136.414	-164.640	-0.218	0.010
-135.399	71.825	0.251	0.258
-134.385	800.000	0.094	0.379
-133.370	-200.000	0.053	-0.341
-132.356	320.857	0.033	0.062
-131.341	-200.000	0.008	0.205
-130.326	-87.630	-0.452	0.135
-129.312	-12.948	-0.363	-0.234
-128.297	-38.217	0.089	0.047
-127.283	-33.693	-0.135	0.074
-126.268	64.014	0.130	0.129
-125.253	-135.309	0.154	0.018
-124.239	-49.572	-0.104	-0.049
-123.224	-200.000	0.030	0.194
-122.210	800.000	-0.073	0.253
-121.195	147.916	0.200	0.266
-120.180	-68.143	0.495	0.191
