DTS Sentinel unit serial number:	SN413079Multiplexer serial number:	ORYXHardware model number:	OX4-SRSoftware version number:	ORYX F/W v4.00 Oryx Data Collector v3.7.2.0data status	okinstallation	princeton_trtdifferential loss correction	single-endedforward channel	channel 3reverse channel	N/Adate	2019/09/11time	00:02:11forward acquisition time	60.00reverse acquisition time	0.00gamma	496.2192k internal	0.2331k external	0.2331temperature offset calibration	0.9924default loss term (dB/km)	0.3790temperature slope calibration	1.0000multiplexer offset coefficient	1.0000multiplexer slope coefficient	1.0000fibre end	0.00T internal ref (°C)	29.44T ext. ref 1 (°C)	-0.32T ext. ref 2 (°C)	23.06length (m)	temperature (°C)	Stokes	anti-Stokes-747.200	159.764	-0.145	0.203
-746.185	800.000	0.033	0.124
-745.171	-79.809	-0.088	-0.030
-744.156	102.182	0.123	0.145
-743.142	-200.000	-0.062	0.438
-742.127	-200.000	0.004	0.432
-741.112	581.253	-0.082	-0.202
-740.098	-178.723	-0.351	-0.008
-739.083	-16.467	-0.046	-0.030
-738.069	-165.041	-0.247	0.011
-737.054	462.376	-0.118	-0.265
-736.039	800.000	-0.048	-0.160
-735.025	-193.737	-0.099	0.001
-734.010	-137.763	-0.273	0.031
-732.996	710.542	0.074	0.197
-731.981	800.000	-0.056	-0.158
-730.966	95.012	0.194	-0.222
-729.952	-200.000	0.104	0.490
-728.937	200.273	-0.103	-0.158
-727.923	52.579	-0.329	-0.316
-726.908	-200.000	-0.285	-0.001
-725.894	13.143	-0.148	-0.116
-724.879	278.049	0.058	-0.104
-723.864	-62.507	-0.070	0.029
-722.850	5.081	0.057	0.042
-721.835	-44.272	0.450	0.227
-720.821	-200.000	0.023	0.329
-719.806	7.200	-0.266	0.199
-718.791	-26.971	0.195	0.114
-717.777	380.304	-0.062	0.128
-716.762	-14.644	0.345	-0.223
-715.748	-90.443	-0.192	-0.056
-714.733	75.603	0.094	0.100
-713.718	-169.278	-0.186	0.007
-712.704	800.000	0.041	-0.156
-711.689	-24.132	-0.090	0.054
-710.675	398.605	-0.026	-0.055
-709.660	326.833	0.167	-0.322
-708.645	538.711	-0.073	0.175
-707.631	-175.127	-0.465	-0.013
-706.616	93.416	-0.229	0.261
-705.602	-134.701	-0.254	0.031
-704.587	-188.516	-0.162	0.002
-703.572	30.809	-0.293	-0.252
-702.558	-6.698	0.157	-0.107
-701.543	-169.033	-0.081	-0.003
-700.529	-67.799	0.022	-0.009
-699.514	204.515	-0.117	0.183
-698.499	468.369	0.111	0.251
-697.485	238.438	-0.084	-0.140
-696.470	-43.768	-0.027	-0.014
-695.456	800.000	0.116	-0.434
-694.441	-200.000	-0.014	0.080
-693.426	115.866	-0.101	0.125
-692.412	146.994	-0.091	0.123
-691.397	-115.490	0.154	0.029
-690.383	214.265	0.090	-0.143
-689.368	344.259	-0.067	-0.131
-688.354	115.588	0.128	-0.157
-687.339	55.412	-0.134	-0.130
-686.324	145.341	-0.128	-0.173
-685.310	-66.170	-0.244	-0.098
-684.295	23.384	-0.106	-0.088
-683.281	33.766	0.098	-0.085
-682.266	173.629	0.209	-0.303
-681.251	-48.168	-0.272	-0.132
-680.237	148.569	0.057	0.077
-679.222	800.000	0.019	0.068
-678.208	-53.186	-0.200	-0.092
-677.193	-15.222	0.168	-0.108
-676.178	-104.723	-0.215	0.050
-675.164	10.932	-0.128	-0.098
-674.149	198.687	0.134	-0.205
-673.135	-200.000	0.015	0.236
-672.120	-200.000	-0.007	-0.157
-671.105	173.768	-0.143	-0.207
-670.091	-200.000	-0.019	0.121
-669.076	800.000	-0.059	-0.181
-668.062	-200.000	0.040	-0.413
-667.047	165.648	0.271	-0.384
-666.032	570.146	-0.073	-0.179
-665.018	5.295	0.110	-0.081
-664.003	-11.438	-0.142	-0.094
-662.989	-200.000	-0.004	0.096
-661.974	-72.912	0.186	-0.069
-660.959	-200.000	0.042	0.233
-659.945	-200.000	-0.039	-0.175
-658.930	394.249	-0.105	-0.220
-657.916	-200.000	0.028	-0.139
-656.901	-41.550	-0.150	-0.077
-655.886	641.756	-0.082	-0.209
-654.872	155.526	0.128	-0.177
-653.857	-32.216	0.287	0.161
-652.843	25.802	-0.185	-0.155
-651.828	-168.933	0.168	0.006
-650.814	-200.000	0.016	0.159
-649.799	800.000	-0.030	0.103
-648.784	-0.759	0.072	0.051
-647.770	-200.000	-0.027	0.119
-646.755	570.051	-0.052	-0.127
-645.741	-117.122	-0.075	0.014
-644.726	83.916	-0.128	-0.140
-643.711	-200.000	0.077	-0.340
-642.697	109.390	0.101	0.121
-641.682	-75.551	0.219	0.078
-640.668	800.000	0.042	0.127
-639.653	217.218	0.053	0.085
-638.638	800.000	-0.066	-0.209
-637.624	20.990	0.088	0.071
-636.609	800.000	0.024	0.069
-635.595	516.227	0.087	0.203
-634.580	-200.000	0.054	0.314
-633.565	800.000	0.051	0.155
-632.551	41.571	0.202	-0.184
-631.536	-52.138	0.415	0.193
-630.522	-131.078	-0.058	0.008
-629.507	-200.000	0.025	-0.254
-628.492	-19.441	0.201	-0.125
-627.478	401.025	0.098	0.206
-626.463	-140.715	-0.310	0.032
-625.449	-200.000	-0.025	0.243
-624.434	-75.371	-0.055	-0.019
-623.419	-64.334	-0.030	-0.012
-622.405	-130.091	0.061	0.008
-621.390	-200.000	0.007	0.035
-620.376	123.179	0.188	0.236
-619.361	-100.644	0.107	-0.026
-618.346	-148.232	-0.252	0.021
-617.332	-150.603	-0.102	0.008
-616.317	446.900	-0.047	-0.104
-615.303	374.741	0.084	-0.170
-614.288	91.323	-0.105	-0.119
-613.273	800.000	-0.066	-0.182
-612.259	53.090	-0.105	0.101
-611.244	-200.000	-0.065	0.516
-610.230	-200.000	-0.017	0.116
-609.215	-200.000	-0.095	-0.611
-608.201	32.627	-0.158	-0.137
-607.186	1.359	0.240	0.173
-606.171	-125.235	0.322	0.049
-605.157	-200.000	-0.002	0.023
-604.142	-200.000	0.005	0.067
-603.128	60.479	-0.193	0.191
-602.113	404.172	0.147	0.310
-601.098	-189.507	-0.310	-0.004
-600.084	303.470	-0.108	-0.199
-599.069	-200.000	-0.012	-0.220
-598.055	-166.093	-0.326	0.014
-597.040	-107.324	-0.129	0.028
-596.025	65.367	0.139	-0.141
-595.011	-82.931	0.297	-0.096
-593.996	201.023	0.041	-0.063
-592.982	-65.471	0.354	-0.142
-591.967	-200.000	0.035	-0.294
-590.952	-131.847	0.157	-0.021
-589.938	-135.364	-0.178	-0.021
-588.923	266.203	0.040	0.070
-587.909	-26.802	0.273	-0.160
-586.894	800.000	0.083	-0.229
-585.879	8.766	0.092	0.070
-584.865	-110.788	-0.204	0.042
-583.850	800.000	0.024	0.082
-582.836	268.066	0.119	0.209
-581.821	211.571	0.306	-0.482
-580.806	-200.000	0.063	0.370
-579.792	-200.000	0.024	-0.426
-578.777	55.359	0.185	0.179
-577.763	265.113	0.096	-0.167
-576.748	-200.000	-0.031	-0.191
-575.733	800.000	-0.082	0.315
-574.719	257.760	0.192	-0.330
-573.704	-56.371	-0.121	-0.054
-572.690	800.000	-0.025	-0.101
-571.675	0.832	0.132	0.095
-570.661	-200.000	0.033	-0.215
-569.646	72.186	-0.314	-0.327
-568.631	50.166	0.016	-0.015
-567.617	85.949	-0.124	-0.137
-566.602	-105.181	-0.162	-0.037
-565.588	-91.621	-0.215	0.061
-564.573	1.510	-0.044	-0.032
-563.558	179.299	-0.110	-0.161
-562.544	800.000	-0.057	0.232
-561.529	-200.000	-0.049	-0.224
-560.515	21.804	-0.356	-0.290
-559.500	-200.000	-0.004	0.024
-558.485	563.367	0.099	0.239
-557.471	-120.059	0.362	-0.062
-556.456	-20.916	0.248	0.152
-555.442	40.663	-0.264	0.238
-554.427	-181.118	0.129	-0.003
-553.412	-113.195	-0.136	-0.027
-552.398	207.298	-0.203	0.316
-551.383	137.983	0.191	0.250
-550.369	-99.804	-0.170	-0.042
-549.354	-79.720	0.140	0.047
-548.339	-200.000	0.024	0.194
-547.325	-30.930	-0.249	0.141
-546.310	145.098	-0.079	0.105
-545.296	-200.000	-0.034	-0.277
-544.281	-13.929	0.389	0.251
-543.266	8.013	-0.058	0.044
-542.252	800.000	-0.034	0.108
-541.237	332.602	-0.079	0.153
-540.223	800.000	0.017	0.060
-539.208	-12.702	-0.085	0.055
-538.193	800.000	0.067	0.195
-537.179	33.844	-0.253	0.220
-536.164	-117.964	-0.085	0.015
-535.150	788.334	0.051	-0.140
-534.135	-200.000	-0.041	-0.245
-533.121	41.807	0.223	0.202
-532.106	-200.000	0.007	0.077
-531.091	575.958	-0.035	-0.085
-530.077	14.797	-0.186	0.145
-529.062	759.111	0.147	-0.399
-528.048	57.135	-0.184	-0.179
-527.033	-109.841	-0.104	0.022
-526.018	-146.952	0.326	-0.028
-525.004	-160.700	0.231	0.012
-523.989	67.343	-0.073	-0.074
-522.975	-200.000	0.035	-0.287
-521.960	-80.762	-0.119	0.039
-520.945	-200.000	0.032	0.140
-519.931	132.135	0.039	0.050
-518.916	1.738	-0.168	0.121
-517.902	800.000	0.118	-0.371
-516.887	-132.359	0.618	0.080
-515.872	195.859	0.060	0.091
-514.858	800.000	-0.040	0.172
-513.843	-200.000	-0.041	0.304
-512.829	800.000	-0.019	0.066
-511.814	800.000	-0.025	0.097
-510.799	-200.000	0.004	-0.023
-509.785	54.409	-0.191	0.183
-508.770	3.391	0.035	-0.025
-507.756	800.000	0.085	-0.344
-506.741	774.515	0.050	0.135
-505.726	-200.000	-0.022	0.351
-504.712	-200.000	0.011	0.242
-503.697	-4.747	0.052	-0.036
-502.683	292.646	0.102	0.186
-501.668	150.745	0.229	-0.310
-500.653	175.883	0.202	-0.293
-499.639	-35.583	0.025	0.014
-498.624	-200.000	-0.059	-0.258
-497.610	-113.639	-0.122	0.024
-496.595	-200.000	0.004	-0.134
-495.581	-24.798	0.204	0.121
-494.566	-28.736	-0.241	-0.138
-493.551	-148.768	-0.056	0.005
-492.537	-73.413	-0.156	0.057
-491.522	497.260	0.030	0.068
-490.508	176.940	0.180	-0.261
-489.493	228.731	-0.054	0.088
-488.478	-41.480	0.251	-0.129
-487.464	-8.760	-0.064	-0.042
-486.449	-165.365	0.249	-0.011
-485.435	-200.000	0.007	-0.322
-484.420	800.000	0.091	0.283
-483.405	-168.025	0.066	-0.003
-482.391	-60.111	0.133	0.057
-481.376	-64.484	-0.457	0.185
-480.362	-127.077	0.186	0.027
-479.347	31.255	0.167	-0.143
-478.332	-175.437	-0.140	0.004
-477.318	-200.000	0.005	-0.083
-476.303	115.389	-0.226	-0.275
-475.289	-44.481	0.328	0.164
-474.274	-71.135	0.165	-0.062
-473.259	-177.588	-0.075	-0.002
-472.245	-94.767	0.144	0.039
-471.230	-88.382	-0.364	-0.108
-470.216	-200.000	-0.018	0.276
-469.201	-22.732	-0.136	-0.082
-468.186	-200.000	-0.005	-0.029
-467.172	800.000	0.026	0.090
-466.157	-0.380	-0.235	0.166
-465.143	-62.015	-0.143	0.059
-464.128	311.095	-0.082	-0.153
-463.113	-7.860	0.096	-0.064
-462.099	69.771	0.162	-0.166
-461.084	-200.000	-0.068	0.440
-460.070	-97.434	-0.081	0.021
-459.055	195.142	-0.113	-0.171
-458.040	214.198	0.094	0.148
-457.026	-50.528	0.200	-0.094
-456.011	270.571	0.162	0.283
-454.997	592.285	0.128	-0.314
-453.982	800.000	-0.022	0.067
-452.968	800.000	-0.039	0.160
-451.953	358.640	-0.076	0.151
-450.938	-98.969	0.135	-0.034
-449.924	-200.000	0.028	0.201
-448.909	210.044	-0.068	-0.107
-447.895	-200.000	0.013	-0.270
-446.880	-63.987	0.297	0.121
-445.865	-31.349	-0.276	-0.155
-444.851	-4.265	0.173	-0.119
-443.836	800.000	-0.093	0.311
-442.822	-110.947	-0.377	0.077
-441.807	-97.068	-0.179	0.047
-440.792	-14.450	-0.082	-0.052
-439.778	623.937	-0.159	-0.399
-438.763	54.568	-0.208	-0.199
-437.749	-143.449	-0.343	-0.033
-436.734	-170.342	-0.143	0.005
-435.719	6.038	-0.428	0.315
-434.705	95.713	-0.151	0.171
-433.690	602.979	-0.103	-0.254
-432.676	-14.554	-0.278	0.178
-431.661	22.715	0.116	0.094
-430.646	116.798	-0.113	-0.138
-429.632	-35.726	-0.188	0.101
-428.617	-200.000	0.028	-0.144
-427.603	-193.764	0.307	-0.003
-426.588	-200.000	0.007	-0.164
-425.573	79.660	-0.159	0.169
-424.559	800.000	-0.028	-0.103
-423.544	-200.000	0.012	-0.156
-422.530	-200.000	0.016	-0.236
-421.515	331.132	0.044	0.085
-420.500	31.817	-0.224	0.191
-419.486	-200.000	0.025	-0.334
-418.471	310.111	0.204	-0.380
-417.457	342.883	-0.120	0.234
-416.442	389.339	0.075	-0.154
-415.428	-200.000	0.012	-0.309
-414.413	-200.000	-0.042	-0.295
-413.398	-85.492	0.078	0.024
-412.384	-11.363	-0.140	0.091
-411.369	-122.107	0.234	-0.038
-410.355	-9.821	0.332	0.220
-409.340	19.757	0.097	0.077
-408.325	120.063	0.070	-0.087
-407.311	114.292	-0.059	-0.072
-406.296	-83.067	-0.009	0.003
-405.282	-200.000	-0.019	0.403
-404.267	617.300	0.048	0.121
-403.252	-192.624	-0.136	-0.001
-402.238	141.090	0.272	0.357
-401.223	-68.830	-0.106	0.041
-400.209	-154.828	0.139	0.009
-399.194	-46.116	-0.284	-0.139
-398.179	-27.001	-0.011	-0.007
-397.165	800.000	-0.104	0.298
-396.150	-83.410	0.217	-0.069
-395.136	800.000	-0.091	-0.266
-394.121	800.000	-0.048	0.133
-393.106	-106.346	-0.049	0.011
-392.092	87.936	-0.059	-0.065
-391.077	-125.596	-0.070	-0.011
-390.063	-105.463	0.055	-0.012
-389.048	-22.031	0.097	0.058
-388.033	-37.035	-0.233	-0.124
-387.019	-47.657	0.229	-0.110
-386.004	-200.000	0.020	0.183
-384.990	-200.000	-0.009	0.124
-383.975	-77.930	-0.164	0.056
-382.960	-64.314	0.393	-0.159
-381.946	544.824	0.086	0.203
-380.931	205.282	-0.230	-0.355
-379.917	-155.553	0.110	-0.007
-378.902	43.501	-0.062	-0.056
-377.888	444.546	-0.070	-0.152
-376.873	-129.521	0.339	0.047
-375.858	143.407	-0.124	0.164
-374.844	-183.943	0.341	-0.006
-373.829	186.480	-0.280	-0.413
-372.815	800.000	-0.057	-0.191
-371.800	-200.000	-0.110	0.000
-370.785	-42.622	0.337	0.170
-369.771	-49.208	-0.341	0.162
-368.756	-154.675	0.328	0.022
-367.742	9.543	0.118	0.089
-366.727	-200.000	-0.031	-0.225
-365.712	51.767	0.314	0.296
-364.698	-200.000	-0.019	0.160
-363.683	-166.140	0.188	-0.008
-362.669	9.485	0.036	-0.027
-361.654	-122.186	-0.076	0.012
-360.639	420.967	-0.010	-0.021
-359.625	425.258	0.040	-0.086
-358.610	-200.000	-0.045	-0.200
-357.596	-89.613	-0.180	-0.052
-356.581	-200.000	0.021	0.141
-355.566	33.632	-0.202	-0.174
-354.552	800.000	-0.020	-0.071
-353.537	714.769	-0.040	-0.104
-352.523	159.228	-0.240	0.331
-351.508	-96.750	0.167	-0.044
-350.493	-200.000	-0.000	0.046
-349.479	5.135	-0.209	-0.152
-348.464	800.000	-0.037	-0.145
-347.450	169.521	-0.086	0.121
-346.435	-138.961	-0.257	0.028
-345.420	-43.942	0.196	-0.098
-344.406	-200.000	-0.000	-0.108
-343.391	-184.596	-0.179	-0.003
-342.377	312.070	0.080	0.149
-341.362	-96.903	-0.311	-0.081
-340.348	121.031	-0.307	0.378
-339.333	-200.000	0.022	0.182
-338.318	159.640	0.209	0.289
-337.304	154.979	0.111	-0.152
-336.289	229.820	-0.066	-0.107
-335.275	-200.000	0.002	-0.189
-334.260	134.529	-0.177	0.227
-333.245	-113.218	0.089	0.017
-332.231	-200.000	0.024	-0.197
-331.216	-135.622	0.085	0.010
-330.202	-148.254	-0.317	0.026
-329.187	206.226	0.170	0.262
-328.172	-17.913	-0.294	0.182
-327.158	233.692	-0.272	-0.443
-326.143	-94.208	-0.291	-0.079
-325.129	261.162	-0.110	0.188
-324.114	-99.661	-0.568	-0.141
-323.099	-165.244	-0.110	-0.005
-322.085	-184.150	-0.069	0.001
-321.070	-85.805	0.210	0.064
-320.056	-116.481	-0.125	0.023
-319.041	330.678	-0.039	0.074
-318.026	161.407	0.299	0.414
-317.012	-200.000	-0.017	0.234
-315.997	-200.000	0.011	-0.224
-314.983	-200.000	-0.033	0.317
-313.968	15.430	0.200	0.156
-312.953	-19.843	-0.206	0.126
-311.939	334.033	0.020	-0.039
-310.924	-24.405	-0.317	-0.187
-309.910	-110.378	0.026	-0.005
-308.895	24.776	-0.035	0.029
-307.880	181.290	-0.126	-0.183
-306.866	-117.853	-0.284	-0.050
-305.851	-200.000	0.018	-0.203
-304.837	311.886	0.109	0.203
-303.822	-200.000	-0.069	-0.330
-302.807	-49.545	0.026	0.012
-301.793	415.024	0.102	0.215
-300.778	-200.000	-0.002	-0.112
-299.764	62.271	0.270	-0.266
-298.749	800.000	-0.056	-0.218
-297.735	-57.265	-0.311	0.136
-296.720	800.000	-0.093	-0.391
-295.705	46.447	-0.116	-0.106
-294.691	-200.000	-0.019	0.085
-293.676	-200.000	0.054	0.242
-292.662	246.093	-0.036	0.060
-291.647	800.000	0.058	0.175
-290.632	-141.154	0.292	0.029
-289.618	82.914	0.311	-0.335
-288.603	-110.090	-0.305	-0.063
-287.589	6.895	0.359	-0.265
-286.574	-9.414	0.204	0.135
-285.559	-64.764	-0.095	0.038
-284.545	-7.007	0.165	-0.111
-283.530	108.476	0.109	-0.129
-282.516	29.174	0.337	-0.283
-281.501	-78.619	-0.262	0.089
-280.486	532.768	0.129	-0.301
-279.472	-82.587	0.210	0.067
-278.457	-152.842	-0.188	0.013
-277.443	130.140	0.063	-0.080
-276.428	-200.000	-0.046	-0.327
-275.413	-200.000	-0.033	0.217
-274.399	-48.294	0.343	0.163
-273.384	747.368	0.029	-0.078
-272.370	176.796	0.145	-0.209
-271.355	-68.259	0.105	0.040
-270.340	-133.152	-0.126	-0.016
-269.326	-200.000	-0.051	0.424
-268.311	505.383	-0.010	-0.024
-267.297	-157.346	-0.293	0.017
-266.282	-88.167	0.353	0.104
-265.267	800.000	-0.087	-0.284
-264.253	81.316	-0.168	0.179
-263.238	-121.662	-0.068	-0.011
-262.224	645.864	0.134	-0.339
-261.209	148.379	-0.131	0.175
-260.195	-200.000	-0.061	0.276
-259.180	-15.032	0.283	0.179
-258.165	-84.514	-0.086	0.027
-257.151	-43.778	0.193	-0.096
-256.136	-78.844	-0.274	0.092
-255.122	-154.851	-0.397	-0.026
-254.107	-10.307	-0.159	-0.104
-253.092	123.309	0.074	0.092
-252.078	413.961	-0.083	0.175
-251.063	358.011	0.148	-0.292
-250.049	-142.532	0.220	0.021
-249.034	-110.667	0.333	-0.068
-248.019	-49.340	0.228	0.107
-247.005	800.000	0.072	-0.222
-245.990	-77.452	-0.046	0.016
-244.976	-115.001	-0.122	-0.023
-243.961	154.730	-0.215	0.292
-242.946	17.298	0.162	0.127
-241.932	-145.809	0.043	-0.004
-240.917	-35.404	-0.279	0.149
-239.903	800.000	0.035	0.108
-238.888	-155.942	0.013	-0.001
-237.873	167.848	-0.227	0.319
-236.859	-45.570	-0.098	-0.048
-235.844	-83.608	-0.229	-0.072
-234.830	744.725	0.144	0.381
-233.815	20.055	0.139	0.111
-232.800	-31.317	-0.110	0.061
-231.786	-153.950	-0.295	0.020
-230.771	2.267	0.357	-0.254
-229.757	386.464	-0.179	-0.365
-228.742	-200.000	-0.037	0.178
-227.727	332.820	0.159	0.302
-226.713	800.000	-0.129	0.427
-225.698	62.746	-0.120	-0.119
-224.684	-200.000	-0.021	0.184
-223.669	-118.089	0.266	-0.047
-222.655	-200.000	0.020	-0.360
-221.640	137.054	0.137	-0.177
-220.625	-200.000	0.016	-0.137
-219.611	-119.835	-0.244	-0.041
-218.596	-35.195	-0.121	-0.065
-217.582	-82.522	-0.258	0.083
-216.567	84.711	0.055	-0.059
-215.552	-200.000	-0.035	-0.245
-214.538	-103.896	-0.259	-0.060
-213.523	-200.000	-0.020	0.384
-212.509	800.000	-0.076	0.319
-211.494	273.416	0.115	-0.201
-210.479	454.122	0.063	0.138
-209.465	82.760	-0.237	0.253
-208.450	800.000	-0.023	0.082
-207.436	-200.000	0.033	-0.446
-206.421	-63.762	0.056	-0.023
-205.406	65.952	0.175	0.174
-204.392	-8.974	-0.151	-0.099
-203.377	-16.731	-0.296	0.184
-202.363	55.761	-0.226	-0.215
-201.348	-92.886	0.250	0.069
-200.333	-26.405	0.133	-0.077
-199.319	111.008	-0.222	0.263
-198.304	603.964	0.069	-0.169
-197.290	16.784	0.153	-0.120
-196.275	565.782	-0.103	0.247
-195.260	-136.546	-0.133	-0.015
-194.246	-51.821	-0.124	-0.057
-193.231	-138.261	0.251	0.027
-192.217	33.168	0.355	0.303
-191.202	800.000	0.082	-0.315
-190.187	-200.000	-0.028	0.164
-189.173	29.410	-0.122	0.102
-188.158	184.843	-0.110	-0.161
-187.144	-11.337	0.205	-0.133
-186.129	-62.171	0.073	0.030
-185.114	-200.000	0.040	0.223
-184.100	797.136	0.069	-0.188
-183.085	-127.429	0.074	0.011
-182.071	342.614	-0.184	-0.354
-181.056	800.000	0.044	-0.167
-180.042	84.701	0.232	0.250
-179.027	-7.799	0.124	-0.083
-178.012	-152.200	0.111	-0.008
-176.998	569.284	0.155	-0.371
-175.983	64.905	0.219	0.217
-174.969	-94.965	0.045	-0.012
-173.954	800.000	-0.057	-0.246
-172.939	182.962	0.195	0.283
-171.925	7.673	0.215	0.158
-170.910	146.531	-0.170	-0.225
-169.896	-81.299	-0.295	0.096
-168.881	-44.720	0.201	0.099
-167.866	-53.508	-0.187	0.084
-166.852	-200.000	0.019	0.134
-165.837	-4.802	0.401	0.272
-164.823	-81.010	0.429	-0.140
-163.808	-188.916	0.394	0.005
-162.793	168.581	-0.113	-0.158
-161.779	437.124	0.148	0.317
-160.764	-40.687	0.062	-0.031
-159.750	141.303	0.085	-0.111
-158.735	138.049	-0.151	0.195
-157.720	51.112	-0.140	-0.131
-156.706	-167.845	-0.110	0.004
-155.691	461.737	0.130	0.285
-154.677	-27.859	-0.059	0.034
-153.662	-20.329	-0.056	-0.034
-152.647	-200.000	0.013	-0.331
-151.633	800.000	-0.088	-0.345
-150.618	-80.444	-0.033	0.011
-149.604	800.000	0.062	-0.222
-148.589	438.915	-0.076	-0.162
-147.574	685.668	0.067	-0.172
-146.560	-200.000	0.144	-0.000
-145.545	-68.462	0.317	0.121
-144.531	-79.571	-0.115	0.038
-143.516	-200.000	0.018	0.198
-142.502	-157.252	0.175	-0.010
-141.487	-86.904	-0.478	-0.143
-140.472	800.000	0.040	-0.120
-139.458	-172.692	0.200	0.006
-138.443	-18.677	0.338	0.207
-137.429	-200.000	-0.011	0.126
-136.414	-200.000	-0.018	-0.216
-135.399	-99.258	0.312	0.078
-134.385	-60.773	0.489	0.203
-133.370	800.000	-0.097	0.301
-132.356	-102.281	0.347	0.082
-131.341	-89.895	0.131	0.037
-130.326	-1.892	-0.085	0.059
-129.312	493.479	-0.074	-0.167
-128.297	800.000	0.049	0.149
-127.283	-88.457	-0.384	0.113
-126.268	-54.802	-0.071	-0.031
-125.253	80.697	0.274	0.290
-124.239	474.032	0.049	0.108
-123.224	132.875	0.186	0.236
-122.210	-50.808	0.246	0.113
