DTS Sentinel unit serial number:	SN413079Multiplexer serial number:	ORYXHardware model number:	OX4-SRSoftware version number:	ORYX F/W v4.00 Oryx Data Collector v3.7.2.0data status	okinstallation	princeton_trtdifferential loss correction	single-endedforward channel	channel 3reverse channel	N/Adate	2019/09/14time	22:08:35forward acquisition time	60.00reverse acquisition time	0.00gamma	496.2192k internal	0.2318k external	0.2318temperature offset calibration	0.9991default loss term (dB/km)	0.3790temperature slope calibration	1.0000multiplexer offset coefficient	1.0000multiplexer slope coefficient	1.0000fibre end	0.00T internal ref (°C)	32.66T ext. ref 1 (°C)	4.70T ext. ref 2 (°C)	27.64length (m)	temperature (°C)	Stokes	anti-Stokes-747.200	800.000	0.133	0.394
-746.185	800.000	-0.070	0.239
-745.171	-164.300	0.202	0.009
-744.156	504.841	-0.064	0.150
-743.142	-200.000	0.018	0.129
-742.127	90.063	0.251	0.284
-741.112	782.816	0.110	0.306
-740.098	52.143	-0.104	0.101
-739.083	-75.495	0.031	0.011
-738.069	47.672	0.170	-0.160
-737.054	108.621	0.217	-0.262
-736.039	-44.058	-0.352	0.179
-735.025	138.377	-0.128	0.169
-734.010	-30.779	-0.247	0.142
-732.996	20.188	-0.348	-0.285
-731.981	344.186	-0.072	0.143
-730.966	174.205	-0.372	-0.544
-729.952	-56.614	-0.310	-0.139
-728.937	-200.000	-0.024	-0.131
-727.923	800.000	-0.094	-0.342
-726.908	-124.411	-0.399	0.063
-725.894	-104.759	-0.271	-0.063
-724.879	800.000	-0.071	-0.251
-723.864	-43.515	-0.210	0.107
-722.850	-100.687	0.361	0.090
-721.835	-148.353	-0.092	0.008
-720.821	800.000	-0.089	-0.312
-719.806	-150.352	0.173	0.013
-718.791	-200.000	-0.050	0.362
-717.777	-186.138	-0.033	-0.000
-716.762	-31.814	-0.276	0.157
-715.748	124.772	0.271	-0.345
-714.733	-55.119	0.106	0.048
-713.718	-42.526	-0.146	-0.075
-712.704	11.256	0.269	0.208
-711.689	94.269	-0.072	-0.082
-710.675	-150.580	0.216	-0.017
-709.660	-142.449	0.314	0.031
-708.645	800.000	0.061	-0.235
-707.631	-109.699	-0.303	-0.064
-706.616	-200.000	0.000	-0.281
-705.602	430.988	0.012	0.026
-704.587	-175.287	-0.140	0.004
-703.572	-74.946	-0.189	-0.068
-702.558	-84.840	0.190	-0.060
-701.543	-55.624	-0.184	-0.083
-700.529	-96.585	-0.416	-0.111
-699.514	86.068	0.154	-0.171
-698.499	800.000	-0.038	-0.122
-697.485	-10.598	-0.177	-0.118
-696.470	800.000	-0.098	0.306
-695.456	-100.518	-0.165	0.041
-694.441	-50.031	0.169	0.081
-693.426	-50.629	-0.188	-0.090
-692.412	348.086	0.076	-0.151
-691.397	-200.000	0.039	0.234
-690.383	615.946	0.025	0.063
-689.368	24.875	0.094	0.079
-688.354	285.883	0.123	0.224
-687.339	-118.208	-0.058	0.010
-686.324	41.648	0.133	-0.122
-685.310	-200.000	0.001	-0.083
-684.295	7.121	-0.108	-0.082
-683.281	-48.714	0.257	0.125
-682.266	173.018	0.252	-0.367
-681.251	800.000	0.028	0.114
-680.237	136.517	-0.124	-0.164
-679.222	319.051	0.089	0.169
-678.208	100.093	-0.096	-0.112
-677.193	-110.648	-0.189	-0.039
-676.178	320.672	-0.081	-0.155
-675.164	-68.515	-0.194	0.076
-674.149	-122.506	-0.180	-0.029
-673.135	15.468	-0.176	0.140
-672.120	16.677	0.202	-0.161
-671.105	-98.920	0.117	-0.030
-670.091	-18.850	0.228	0.143
-669.076	-98.216	-0.328	0.085
-668.062	-79.740	-0.222	-0.075
-667.047	588.815	0.077	0.192
-666.032	-20.526	0.173	0.107
-665.018	235.678	0.082	-0.137
-664.003	237.511	-0.087	-0.146
-662.989	-114.222	-0.488	-0.095
-661.974	-200.000	-0.024	0.121
-660.959	174.581	0.133	0.193
-659.945	800.000	-0.085	0.309
-658.930	142.055	0.130	0.174
-657.916	-200.000	-0.009	-0.144
-656.901	18.126	-0.237	-0.191
-655.886	36.380	-0.048	-0.043
-654.872	224.502	-0.109	-0.177
-653.857	-106.741	0.109	-0.024
-652.843	44.685	0.172	0.160
-651.828	800.000	0.085	-0.343
-650.814	-83.383	0.096	-0.031
-649.799	-112.833	-0.256	0.051
-648.784	-41.456	0.315	0.164
-647.770	-172.119	-0.409	-0.013
-646.755	64.246	0.100	-0.101
-645.741	-130.337	0.170	-0.023
-644.726	-51.083	-0.020	-0.009
-643.711	-140.428	0.160	-0.017
-642.697	-200.000	-0.010	0.174
-641.682	-86.283	-0.253	-0.079
-640.668	776.423	0.109	0.300
-639.653	-200.000	0.010	-0.123
-638.638	153.272	-0.185	-0.255
-637.624	-200.000	-0.083	-0.378
-636.609	-93.655	0.217	-0.060
-635.595	800.000	-0.061	-0.180
-634.580	296.924	0.074	0.137
-633.565	-16.683	-0.393	-0.250
-632.551	800.000	0.020	0.070
-631.536	800.000	-0.037	0.119
-630.522	-175.776	0.045	-0.001
-629.507	-20.942	0.121	0.075
-628.492	652.295	-0.065	-0.167
-627.478	-9.242	-0.180	0.121
-626.463	-105.744	0.167	0.038
-625.449	-141.896	-0.440	-0.044
-624.434	29.450	0.208	-0.178
-623.419	179.144	0.055	0.081
-622.405	-200.000	-0.009	-0.051
-621.390	-111.373	-0.174	0.036
-620.376	-60.873	0.196	-0.084
-619.361	800.000	-0.028	-0.085
-618.346	148.551	-0.099	0.135
-617.332	800.000	-0.051	0.201
-616.317	389.545	0.049	-0.103
-615.303	-200.000	0.002	-0.442
-614.288	-6.406	0.231	-0.159
-613.273	800.000	-0.051	-0.180
-612.259	319.100	0.026	-0.050
-611.244	64.374	-0.100	0.101
-610.230	313.586	0.083	0.157
-609.215	-81.362	-0.090	-0.030
-608.201	153.799	-0.139	0.192
-607.186	335.356	0.195	0.381
-606.171	800.000	0.062	0.216
-605.157	-200.000	0.030	0.322
-604.142	800.000	0.073	-0.221
-603.128	0.565	0.221	0.159
-602.113	57.241	-0.182	0.179
-601.098	800.000	-0.024	-0.092
-600.084	-85.896	0.068	0.021
-599.069	1.937	0.052	-0.038
-598.055	-157.581	-0.374	0.023
-597.040	-118.261	0.169	0.030
-596.025	-57.400	0.157	0.069
-595.011	800.000	-0.068	0.268
-593.996	-200.000	-0.025	-0.490
-592.982	-103.133	-0.230	-0.055
-591.967	800.000	-0.045	-0.150
-590.952	800.000	0.086	0.365
-589.938	-23.420	0.236	0.142
-588.923	309.128	0.212	0.398
-587.909	276.825	0.136	-0.243
-586.894	3.123	0.121	-0.088
-585.879	-123.949	0.181	0.029
-584.865	609.753	0.077	-0.194
-583.850	180.482	0.089	-0.132
-582.836	-105.777	0.284	-0.065
-581.821	-130.418	0.269	-0.037
-580.806	-67.310	0.239	0.095
-579.792	-18.067	0.093	0.058
-578.777	554.014	0.017	0.042
-577.763	800.000	0.100	0.360
-576.748	800.000	-0.046	-0.197
-575.733	-0.784	-0.114	-0.081
-574.719	800.000	-0.081	0.310
-573.704	-146.874	0.221	-0.019
-572.690	-186.303	0.180	-0.003
-571.675	10.943	0.166	-0.128
-570.661	-200.000	-0.019	0.142
-569.646	180.002	0.167	-0.246
-568.631	66.357	-0.329	-0.336
-567.617	-192.024	-0.202	-0.002
-566.602	-64.085	0.082	-0.033
-565.588	-200.000	-0.065	0.357
-564.573	212.073	0.039	0.062
-563.558	-45.489	0.061	0.030
-562.544	-53.820	-0.519	-0.238
-561.529	80.875	0.308	-0.333
-560.515	197.024	-0.087	-0.133
-559.500	-200.000	-0.019	0.260
-558.485	-69.021	-0.281	-0.109
-557.471	-56.903	0.080	-0.035
-556.456	15.751	0.120	0.095
-555.442	800.000	-0.063	0.231
-554.427	800.000	0.063	-0.200
-553.412	649.564	-0.133	0.342
-552.398	-31.146	-0.181	-0.102
-551.383	-200.000	-0.043	-0.218
-550.369	-81.412	0.237	-0.078
-549.354	-200.000	0.038	-0.363
-548.339	-22.225	-0.091	-0.056
-547.325	-200.000	0.003	-0.159
-546.310	24.965	-0.259	-0.216
-545.296	58.632	-0.181	0.179
-544.281	-200.000	-0.020	-0.102
-543.266	282.180	0.128	-0.230
-542.252	343.965	-0.251	-0.494
-541.237	-41.020	-0.236	0.122
-540.223	272.253	-0.093	-0.165
-539.208	104.191	-0.186	-0.219
-538.193	-200.000	-0.048	-0.218
-537.179	180.297	-0.070	-0.102
-536.164	-122.642	0.094	-0.015
-535.150	-73.374	0.246	0.090
-534.135	-200.000	-0.042	0.270
-533.121	336.332	0.148	0.289
-532.106	-200.000	-0.010	0.111
-531.091	315.632	-0.100	0.189
-530.077	-25.086	-0.243	0.144
-529.062	-5.093	-0.071	-0.049
-528.048	800.000	0.064	-0.181
-527.033	-200.000	-0.029	-0.155
-526.018	511.634	-0.090	-0.210
-525.004	-50.422	0.140	-0.066
-523.989	5.556	0.036	-0.027
-522.975	-200.000	-0.012	0.072
-521.960	-100.197	-0.246	0.061
-520.945	20.945	0.104	0.085
-519.931	-200.000	0.004	-0.032
-518.916	546.228	0.116	0.279
-517.902	-162.833	0.305	-0.015
-516.887	230.162	0.082	-0.134
-515.872	-200.000	0.012	0.202
-514.858	210.964	-0.084	-0.133
-513.843	-34.895	0.168	0.092
-512.829	69.701	0.089	-0.092
-511.814	800.000	0.065	-0.239
-510.799	98.509	0.171	0.198
-509.785	51.812	0.389	0.371
-508.770	290.165	0.053	-0.097
-507.756	-123.051	0.248	-0.040
-506.741	-4.535	-0.185	-0.128
-505.726	800.000	-0.067	0.207
-504.712	-90.172	-0.339	-0.099
-503.697	228.503	0.158	-0.258
-502.683	-200.000	0.042	0.242
-501.668	66.884	0.373	0.380
-500.653	-77.321	0.186	0.065
-499.639	800.000	-0.067	-0.258
-498.624	-15.631	-0.320	0.205
-497.610	800.000	0.044	0.159
-496.595	34.088	-0.195	-0.170
-495.581	800.000	0.015	0.062
-494.566	-47.769	-0.308	0.150
-493.551	145.713	0.151	0.202
-492.537	-200.000	0.025	0.329
-491.522	-10.289	-0.071	0.047
-490.508	-74.865	-0.249	0.089
-489.493	235.750	0.269	0.445
-488.478	62.758	-0.174	-0.174
-487.464	117.308	-0.109	-0.134
-486.449	-200.000	0.042	-0.212
-485.435	-88.768	-0.134	-0.040
-484.420	-125.421	-0.208	-0.032
-483.405	800.000	0.028	-0.117
-482.391	-184.060	0.202	0.003
-481.376	-17.077	0.093	0.059
-480.362	-44.462	-0.110	0.055
-479.347	-129.643	-0.337	0.047
-478.332	35.719	-0.341	-0.300
-477.318	192.231	0.280	-0.423
-476.303	83.167	-0.137	-0.150
-475.289	-69.875	0.069	0.026
-474.274	-154.217	0.307	-0.021
-473.259	-200.000	-0.015	0.111
-472.245	-110.925	-0.134	0.028
-471.230	-200.000	0.037	-0.316
-470.216	465.467	0.105	-0.234
-469.201	-44.541	-0.068	-0.034
-468.186	278.871	0.074	0.132
-467.172	59.573	0.172	0.170
-466.157	800.000	-0.067	0.219
-465.143	-72.525	-0.036	-0.013
-464.128	-200.000	-0.029	-0.364
-463.113	-200.000	-0.124	0.000
-462.099	88.478	0.362	-0.402
-461.084	146.385	-0.093	-0.125
-460.070	800.000	0.011	0.032
-459.055	-59.085	-0.224	0.097
-458.040	-200.000	0.018	-0.086
-457.026	-90.154	-0.286	-0.083
-456.011	-84.619	0.176	0.056
-454.997	-167.120	0.137	-0.006
-453.982	-21.422	0.017	0.010
-452.968	-192.079	-0.344	0.003
-451.953	-200.000	0.003	0.205
-450.938	-200.000	0.002	0.290
-449.924	-107.132	0.405	-0.089
-448.909	800.000	-0.024	0.091
-447.895	200.120	-0.072	0.111
-446.880	800.000	0.172	0.526
-445.865	800.000	0.038	0.130
-444.851	-200.000	0.022	-0.204
-443.836	-54.260	0.206	-0.094
-442.822	-77.237	-0.218	-0.076
-441.807	-200.000	-0.091	0.408
-440.792	-104.963	0.201	-0.046
-439.778	-114.579	-0.225	0.043
-438.763	-200.000	0.003	0.120
-437.749	121.167	-0.218	0.271
-436.734	669.316	0.080	-0.207
-435.719	22.297	0.225	0.184
-434.705	-57.743	-0.168	0.073
-433.690	18.312	-0.074	0.059
-432.676	800.000	-0.068	0.261
-431.661	-104.595	0.046	-0.011
-430.646	-40.844	-0.220	-0.114
-429.632	-77.404	0.229	0.079
-428.617	28.390	-0.107	-0.091
-427.603	800.000	0.125	-0.367
-426.588	26.698	-0.073	0.061
-425.573	27.806	0.256	-0.216
-424.559	75.581	-0.165	0.174
-423.544	-125.879	0.091	-0.014
-422.530	-90.101	0.125	0.037
-421.515	-148.028	-0.308	-0.026
-420.500	-96.170	0.086	-0.023
-419.486	76.168	-0.167	0.177
-418.471	-157.788	0.287	-0.017
-417.457	-165.650	-0.193	-0.008
-416.442	437.261	-0.069	-0.149
-415.428	-114.032	0.141	0.027
-414.413	-53.388	-0.270	0.124
-413.398	-139.045	0.283	-0.031
-412.384	-112.721	-0.271	0.054
-411.369	32.252	-0.252	-0.217
-410.355	301.929	0.074	-0.137
-409.340	-114.918	-0.213	-0.041
-408.325	-139.408	0.054	0.006
-407.311	615.269	0.008	-0.020
-406.296	96.261	0.155	-0.177
-405.282	-50.876	-0.235	-0.111
-404.267	800.000	-0.093	0.292
-403.252	800.000	-0.095	0.367
-402.238	-0.828	0.261	-0.184
-401.223	-200.000	-0.073	-0.646
-400.209	-200.000	-0.015	-0.195
-399.194	133.440	-0.166	0.214
-398.179	87.575	0.143	-0.158
-397.165	-69.753	-0.164	0.063
-396.150	-163.138	-0.075	0.004
-395.136	-4.906	-0.172	0.118
-394.121	800.000	-0.069	0.213
-393.106	-200.000	0.023	-0.421
-392.092	316.417	0.104	-0.196
-391.077	-50.303	0.573	0.270
-390.063	-200.000	-0.146	0.000
-389.048	353.728	-0.031	0.060
-388.033	-101.648	-0.126	0.031
-387.019	762.433	-0.116	0.314
-386.004	231.895	0.158	0.258
-384.990	-103.910	0.103	0.024
-383.975	-200.000	-0.023	0.178
-382.960	-167.617	-0.218	-0.009
-381.946	800.000	0.035	0.132
-380.931	800.000	0.055	0.189
-379.917	-83.378	0.284	0.091
-378.902	-68.137	0.050	-0.019
-377.888	800.000	-0.068	0.210
-376.873	-154.785	-0.162	-0.011
-375.858	-170.967	0.134	-0.005
-374.844	-200.000	-0.012	-0.070
-373.829	-45.304	0.163	-0.081
-372.815	-200.000	0.018	-0.137
-371.800	0.053	0.101	-0.072
-370.785	-200.000	-0.009	-0.241
-369.771	-55.668	0.179	0.080
-368.756	-200.000	-0.015	-0.223
-367.742	86.736	-0.099	-0.109
-366.727	38.380	0.197	0.175
-365.712	45.386	-0.208	-0.192
-364.698	9.321	0.066	-0.050
-363.683	-14.570	-0.243	0.156
-362.669	89.683	-0.175	0.195
-361.654	-77.094	-0.232	-0.081
-360.639	-145.529	0.477	0.043
-359.625	10.259	0.222	-0.169
-358.610	98.348	-0.163	0.187
-357.596	184.889	-0.147	-0.218
-356.581	-1.567	-0.279	0.196
-355.566	-87.377	0.391	0.118
-354.552	116.935	0.290	0.355
-353.537	-200.000	-0.014	0.096
-352.523	107.921	-0.235	0.279
-351.508	-18.821	0.127	0.079
-350.493	586.420	-0.048	-0.117
-349.479	-143.991	0.099	-0.009
-348.464	-21.741	-0.473	0.287
-347.450	-200.000	-0.019	-0.113
-346.435	297.508	0.050	-0.091
-345.420	-114.230	0.211	-0.041
-344.406	-40.258	0.049	0.026
-343.391	66.962	0.286	-0.290
-342.377	115.476	-0.161	-0.195
-341.362	118.217	-0.233	0.286
-340.348	800.000	-0.020	-0.084
-339.333	128.494	-0.075	0.096
-338.318	-135.061	-0.089	0.011
-337.304	-53.595	-0.172	-0.078
-336.289	54.245	-0.091	-0.088
-335.275	193.649	0.140	-0.212
-334.260	17.466	0.248	0.196
-333.245	412.476	-0.152	0.321
-332.231	800.000	-0.116	-0.329
-331.216	-200.000	0.081	-0.388
-330.202	-60.713	-0.212	-0.090
-329.187	242.976	-0.165	0.275
-328.172	-200.000	0.050	-0.270
-327.158	-200.000	0.046	0.211
-326.143	-1.753	-0.018	0.013
-325.129	480.485	-0.093	-0.209
-324.114	24.141	-0.108	0.089
-323.099	87.040	0.238	0.261
-322.085	110.924	0.077	0.093
-321.070	146.923	0.100	-0.133
-320.056	-180.943	0.249	0.005
-319.041	585.481	0.221	0.540
-318.026	800.000	-0.061	0.232
-317.012	800.000	0.020	-0.080
-315.997	-102.317	-0.138	0.033
-314.983	169.980	0.051	0.072
-313.968	-74.646	0.067	-0.024
-312.953	-90.055	-0.169	0.049
-311.939	-200.000	-0.018	0.133
-310.924	-200.000	0.058	-0.439
-309.910	56.820	-0.137	-0.132
-308.895	-141.140	-0.258	-0.026
-307.880	10.724	-0.266	-0.202
-306.866	-91.287	-0.209	-0.060
-305.851	42.672	0.135	-0.123
-304.837	145.202	-0.211	0.281
-303.822	-1.405	0.030	-0.021
-302.807	-109.474	-0.081	0.017
-301.793	-21.291	-0.161	0.098
-300.778	99.713	-0.116	-0.134
-299.764	-139.041	-0.178	-0.019
-298.749	800.000	0.099	0.277
-297.735	210.867	-0.148	0.232
-296.720	111.639	-0.152	0.183
-295.705	-118.681	0.227	-0.040
-294.691	-35.103	-0.237	0.128
-293.676	800.000	0.032	-0.124
-292.662	-139.110	0.642	-0.069
-291.647	-200.000	-0.005	-0.098
-290.632	-152.785	-0.354	0.025
-289.618	-11.026	-0.106	-0.070
-288.603	-52.054	-0.057	-0.026
-287.589	-69.578	-0.149	-0.057
-286.574	274.108	-0.172	0.302
-285.559	5.018	0.238	-0.174
-284.545	10.611	0.199	0.151
-283.530	-65.199	0.229	0.092
-282.516	374.118	0.105	-0.212
-281.501	800.000	-0.070	0.264
-280.486	800.000	0.026	0.095
-279.472	57.663	-0.258	-0.251
-278.457	800.000	0.052	-0.191
-277.443	-11.367	-0.088	0.058
-276.428	-200.000	-0.015	-0.306
-275.413	-200.000	-0.015	-0.156
-274.399	-187.086	-0.149	-0.002
-273.384	-152.159	0.225	-0.016
-272.370	45.918	0.115	0.106
-271.355	-200.000	0.251	0.001
-270.340	481.543	0.029	-0.066
-269.326	73.443	-0.110	-0.114
-268.311	-200.000	0.042	0.236
-267.297	-18.078	-0.037	0.023
-266.282	509.764	0.106	-0.245
-265.267	-113.437	0.288	0.056
-264.253	-200.000	-0.004	0.127
-263.238	26.983	-0.084	0.070
-262.224	63.486	-0.299	-0.298
-261.209	800.000	0.055	0.189
-260.195	-81.213	0.249	-0.082
-259.180	-96.130	-0.241	-0.064
-258.165	-200.000	-0.058	0.303
-257.151	-200.000	-0.006	0.100
-256.136	-31.384	0.085	0.048
-255.122	-0.006	-0.192	0.136
-254.107	800.000	-0.046	0.175
-253.092	-58.533	0.251	-0.108
-252.078	-104.128	0.108	-0.025
-251.063	-141.488	0.207	-0.021
-250.049	-200.000	0.023	-0.211
-249.034	-200.000	-0.008	-0.104
-248.019	-95.628	0.183	-0.049
-247.005	-200.000	0.014	0.432
-245.990	800.000	-0.038	0.133
-244.976	-44.139	0.145	-0.072
-243.961	8.913	-0.215	-0.161
-242.946	71.120	0.224	0.231
-241.932	81.645	-0.287	0.308
-240.917	-65.317	-0.332	-0.133
-239.903	104.678	0.348	-0.406
-238.888	184.027	0.092	0.135
-237.873	1.474	0.270	-0.193
-236.859	800.000	-0.041	-0.124
-235.844	-56.917	0.141	-0.062
-234.830	800.000	0.085	-0.282
-233.815	185.621	-0.149	0.219
-232.800	800.000	-0.048	0.140
-231.786	800.000	-0.070	-0.232
-230.771	800.000	-0.083	0.250
-229.757	49.251	-0.230	0.214
-228.742	-200.000	0.021	0.318
-227.727	-173.156	-0.319	0.010
-226.713	800.000	0.069	-0.224
-225.698	-126.248	0.365	0.054
-224.684	-34.803	-0.315	-0.171
-223.669	-86.291	0.115	0.035
-222.655	275.916	-0.063	0.111
-221.640	665.576	0.026	-0.067
-220.625	-26.375	-0.190	0.110
-219.611	-188.078	0.206	-0.003
-218.596	800.000	0.035	0.104
-217.582	-175.032	0.163	0.004
-216.567	45.006	-0.053	0.048
-215.552	-30.803	0.325	0.182
-214.538	-200.000	0.039	-0.172
-213.523	-128.419	0.148	0.021
-212.509	800.000	0.047	0.191
-211.494	-200.000	-0.035	0.441
-210.479	-200.000	0.033	0.384
-209.465	-200.000	0.018	-0.148
-208.450	39.506	0.140	0.124
-207.436	800.000	-0.049	-0.134
-206.421	-200.000	-0.015	-0.162
-205.406	31.156	-0.091	-0.078
-204.392	24.671	-0.173	-0.142
-203.377	14.127	-0.075	-0.058
-202.363	-200.000	-0.003	0.051
-201.348	-58.569	-0.123	-0.053
-200.333	-70.825	0.076	0.028
-199.319	800.000	0.067	-0.191
-198.304	-19.398	-0.128	-0.078
-197.290	203.869	0.148	0.226
-196.275	-91.605	0.143	0.040
-195.260	800.000	-0.072	0.217
-194.246	44.147	-0.059	-0.054
-193.231	-172.639	0.297	0.009
-192.217	278.602	-0.054	0.096
-191.202	138.690	0.137	-0.178
-190.187	645.548	0.098	-0.248
-189.173	-83.064	-0.095	0.030
-188.158	340.877	-0.128	-0.248
-187.144	-3.309	0.130	-0.090
-186.129	-76.220	-0.056	-0.020
-185.114	1.791	-0.201	0.144
-184.100	-50.438	0.072	-0.034
-183.085	272.860	0.080	0.140
-182.071	-200.000	-0.019	0.098
-181.056	517.382	0.031	0.072
-180.042	-200.000	0.034	-0.236
-179.027	-200.000	0.033	-0.244
-178.012	-200.000	-0.028	-0.209
-176.998	-34.745	-0.154	-0.084
-175.983	-200.000	0.023	-0.219
-174.969	65.840	-0.174	-0.175
-173.954	4.617	0.079	-0.057
-172.939	-145.557	0.134	0.012
-171.925	4.242	-0.144	0.105
-170.910	-92.472	-0.055	0.015
-169.896	-52.696	-0.236	0.108
-168.881	78.968	0.121	-0.129
-167.866	-16.914	0.108	-0.068
-166.852	-5.347	-0.210	0.143
-165.837	-200.000	0.062	-0.279
-164.823	-35.231	0.249	-0.134
-163.808	-105.646	0.092	0.021
-162.793	634.847	-0.074	0.185
-161.779	-114.947	-0.222	0.042
-160.764	235.585	-0.125	0.204
-159.750	321.597	-0.093	-0.175
-158.735	140.008	0.238	-0.311
-157.720	-200.000	-0.002	0.051
-156.706	800.000	0.119	-0.385
-155.691	-200.000	-0.013	-0.134
-154.677	-47.284	0.083	0.040
-153.662	-12.006	0.167	0.108
-152.647	130.211	0.059	-0.075
-151.633	-200.000	0.043	0.209
-150.618	-39.133	0.274	-0.142
-149.604	-200.000	0.042	0.220
-148.589	291.310	-0.037	0.067
-147.574	57.237	0.122	-0.117
-146.560	-33.119	-0.095	0.052
-145.545	-200.000	0.049	0.382
-144.531	-47.550	0.163	0.078
-143.516	50.897	0.237	0.222
-142.502	97.645	-0.269	0.305
-141.487	-154.969	0.334	-0.022
-140.472	55.313	-0.193	-0.184
-139.458	-70.424	-0.215	0.081
-138.443	-72.776	-0.338	-0.123
-137.429	143.429	-0.126	0.166
-136.414	-200.000	0.007	-0.114
-135.399	58.845	-0.080	-0.078
-134.385	-56.410	-0.136	0.060
-133.370	-200.000	-0.057	-0.286
-132.356	24.047	-0.203	0.165
-131.341	78.528	-0.123	-0.130
-130.326	0.575	0.299	0.211
-129.312	-87.839	-0.017	-0.005
-128.297	653.029	0.086	-0.218
-127.283	63.155	-0.319	0.316
-126.268	800.000	0.036	-0.120
-125.253	-122.052	0.098	-0.016
-124.239	242.038	0.126	-0.209
-123.224	3.287	0.286	-0.206
-122.210	-29.630	0.094	-0.053
-121.195	170.688	-0.266	0.376
