DTS Sentinel unit serial number:	SN413079Multiplexer serial number:	ORYXHardware model number:	OX4-SRSoftware version number:	ORYX F/W v4.00 Oryx Data Collector v3.7.2.0data status	okinstallation	princeton_trtdifferential loss correction	single-endedforward channel	channel 3reverse channel	N/Adate	2019/09/12time	20:02:04forward acquisition time	15.00reverse acquisition time	0.00gamma	496.2192k internal	0.2323k external	0.2323temperature offset calibration	1.0115default loss term (dB/km)	0.3790temperature slope calibration	1.0000multiplexer offset coefficient	1.0000multiplexer slope coefficient	1.0000fibre end	0.00T internal ref (°C)	31.75T ext. ref 1 (°C)	3.47T ext. ref 2 (°C)	26.32length (m)	temperature (°C)	Stokes	anti-Stokes-747.200	-118.994	-0.460	-0.081
-746.185	466.009	0.380	0.860
-745.171	-104.539	-0.613	0.143
-744.156	-55.098	0.221	-0.101
-743.142	308.556	0.388	-0.731
-742.127	213.444	-0.202	-0.323
-741.112	-200.000	0.050	-0.237
-740.098	-16.737	-0.297	0.190
-739.083	800.000	0.153	0.437
-738.069	37.759	-0.636	0.570
-737.054	-49.901	0.150	0.072
-736.039	-16.163	-0.538	0.345
-735.025	26.963	-0.499	0.422
-734.010	-68.806	-0.227	-0.089
-732.996	-119.094	0.428	-0.076
-731.981	-35.556	-0.380	0.208
-730.966	10.614	-0.434	0.334
-729.952	-197.907	0.127	0.001
-728.937	-179.838	0.709	0.015
-727.923	203.720	0.317	0.495
-726.908	-0.712	-0.268	0.192
-725.894	296.790	-0.351	-0.650
-724.879	-200.000	0.061	-0.670
-723.864	-45.237	0.302	-0.151
-722.850	-11.520	-0.902	-0.598
-721.835	-54.974	1.029	-0.468
-720.821	-145.806	-0.800	-0.072
-719.806	656.945	-0.294	-0.763
-718.791	-184.287	0.456	-0.008
-717.777	-87.948	0.692	-0.210
-716.762	36.041	-0.620	-0.551
-715.748	-200.000	-0.093	0.893
-714.733	96.058	0.065	-0.075
-713.718	38.747	-0.454	-0.408
-712.704	-200.000	-0.023	-0.209
-711.689	-71.668	-0.207	0.078
-710.675	145.271	0.167	-0.225
-709.660	51.614	-0.165	-0.158
-708.645	-58.638	-0.363	-0.159
-707.631	800.000	-0.082	-0.318
-706.616	33.396	-0.216	-0.189
-705.602	-200.000	-0.039	-0.913
-704.587	-90.162	0.566	0.166
-703.572	-182.899	-0.830	0.015
-702.558	136.059	0.264	-0.347
-701.543	155.812	0.672	-0.934
-700.529	392.168	-0.089	-0.187
-699.514	-200.000	0.123	-0.768
-698.499	-97.656	-0.896	0.234
-697.485	-117.357	-0.496	-0.091
-696.470	4.444	0.464	-0.343
-695.456	517.792	0.239	0.564
-694.441	-101.609	0.204	-0.050
-693.426	108.469	-0.412	-0.495
-692.412	-71.729	-0.343	-0.129
-691.397	800.000	0.213	-0.597
-690.383	-71.422	0.558	0.211
-689.368	-200.000	-0.005	-0.049
-688.354	256.684	-0.340	-0.588
-687.339	-41.798	0.536	0.277
-686.324	121.313	-0.215	0.270
-685.310	-13.296	-1.111	0.727
-684.295	105.529	-0.529	-0.629
-683.281	-16.216	0.612	0.392
-682.266	255.286	-0.242	0.417
-681.251	-50.518	-0.169	0.080
-680.237	623.417	0.133	-0.338
-679.222	-29.140	-0.853	0.493
-678.208	-34.373	-0.115	0.064
-677.193	58.477	0.437	-0.432
-676.178	-54.974	-0.134	-0.061
-675.164	-84.019	-0.645	0.206
-674.149	800.000	0.128	0.508
-673.135	800.000	0.111	0.320
-672.120	-102.856	-0.881	0.211
-671.105	391.193	0.458	0.957
-670.091	430.523	0.286	0.624
-669.076	-166.174	-1.039	-0.044
-668.062	-59.894	0.432	-0.186
-667.047	66.299	-0.276	-0.282
-666.032	-200.000	0.072	-0.601
-665.018	-80.198	-0.500	0.168
-664.003	-58.121	0.297	0.130
-662.989	-100.332	-1.145	0.286
-661.974	18.530	-0.386	0.311
-660.959	-200.000	0.125	1.075
-659.945	-159.368	0.493	0.028
-658.930	535.611	0.243	-0.581
-657.916	-134.764	0.340	0.042
-656.901	-200.000	-0.107	0.691
-655.886	800.000	0.144	-0.623
-654.872	800.000	-0.076	-0.215
-653.857	-83.951	0.363	-0.116
-652.843	8.955	0.269	-0.204
-651.828	-200.000	0.056	0.294
-650.814	-125.213	0.468	0.072
-649.799	9.711	0.964	0.735
-648.784	-39.359	-0.698	0.368
-647.770	68.024	0.325	0.335
-646.755	-200.000	0.092	0.784
-645.741	359.943	0.309	0.622
-644.726	-77.392	0.201	0.070
-643.711	-7.765	0.996	0.676
-642.697	140.707	-0.385	0.512
-641.682	-200.000	-0.036	0.628
-640.668	89.694	-0.447	0.502
-639.653	-200.000	-0.011	-0.105
-638.638	-28.593	0.647	0.375
-637.624	-200.000	0.055	0.272
-636.609	-100.754	0.175	0.043
-635.595	261.446	-0.222	-0.386
-634.580	-44.479	-0.900	-0.453
-633.565	-109.224	0.454	0.097
-632.551	-200.000	0.062	0.295
-631.536	-9.683	0.468	0.313
-630.522	-9.228	-0.182	0.123
-629.507	25.298	0.487	-0.407
-628.492	-73.345	0.356	0.131
-627.478	800.000	-0.219	0.835
-626.463	-103.866	0.976	-0.229
-625.449	29.158	0.296	-0.253
-624.434	-200.000	-0.060	-0.464
-623.419	152.102	0.129	-0.177
-622.405	-200.000	-0.017	-0.227
-621.390	-42.189	0.604	-0.310
-620.376	639.950	0.281	0.718
-619.361	227.195	0.353	0.576
-618.346	-63.224	-0.743	0.308
-617.332	-56.440	0.260	0.116
-616.317	800.000	-0.081	0.241
-615.303	-200.000	0.094	-1.059
-614.288	-78.178	0.636	-0.220
-613.273	-64.426	0.265	0.108
-612.259	-93.433	0.448	-0.125
-611.244	800.000	0.162	0.679
-610.230	800.000	-0.118	-0.402
-609.215	96.761	0.472	0.543
-608.201	-152.534	0.690	0.050
-607.186	3.467	0.801	-0.586
-606.171	35.875	0.618	-0.546
-605.157	-151.260	-0.844	-0.063
-604.142	-75.442	0.919	-0.329
-603.128	82.363	-0.668	-0.728
-602.113	42.528	-0.312	-0.285
-601.098	-14.598	0.187	0.121
-600.084	283.382	-0.410	-0.739
-599.069	-85.422	0.764	0.239
-598.055	-90.662	-0.332	-0.096
-597.040	-30.982	-0.080	0.045
-596.025	380.905	-0.324	0.667
-595.011	-99.752	-0.231	0.058
-593.996	575.382	-0.250	-0.612
-592.982	57.544	0.381	-0.373
-591.967	38.395	-0.328	0.294
-590.952	800.000	0.140	0.433
-589.938	35.325	0.229	-0.201
-588.923	800.000	-0.084	0.235
-587.909	-54.388	-0.670	-0.305
-586.894	239.227	-0.216	0.361
-585.879	81.083	-0.201	0.218
-584.865	-128.792	0.795	0.112
-583.850	-71.303	-0.549	0.207
-582.836	800.000	-0.280	-0.912
-581.821	117.269	-0.869	-1.072
-580.806	-117.558	-0.489	0.089
-579.792	-93.732	-0.050	-0.014
-578.777	-41.446	-0.096	0.050
-577.763	141.876	-0.194	-0.258
-576.748	25.535	-0.524	0.437
-575.733	-200.000	-0.012	0.789
-574.719	-52.473	0.350	0.163
-573.704	-85.012	-0.918	-0.289
-572.690	-200.000	-0.134	-0.690
-571.675	-200.000	0.053	0.603
-570.661	800.000	0.105	0.318
-569.646	-158.837	-0.809	0.046
-568.631	-93.324	1.141	0.318
-567.617	-95.910	-0.321	0.086
-566.602	-138.808	-0.665	-0.073
-565.588	782.120	0.170	-0.467
-564.573	-81.554	-0.281	-0.093
-563.558	432.546	0.256	-0.557
-562.544	382.904	-0.108	-0.223
-561.529	-142.757	-0.492	-0.048
-560.515	608.222	-0.375	0.937
-559.500	-36.940	0.650	0.349
-558.485	-42.568	0.365	-0.186
-557.471	-82.875	-0.103	-0.033
-556.456	-38.885	-0.216	-0.114
-555.442	-54.616	-0.099	-0.045
-554.427	75.345	-0.223	0.236
-553.412	275.753	-0.535	0.951
-552.398	-119.741	-0.992	0.172
-551.383	-57.427	0.221	0.097
-550.369	64.457	-0.465	-0.470
-549.354	78.130	-0.448	-0.479
-548.339	22.696	-0.319	-0.262
-547.325	383.715	-0.237	-0.489
-546.310	-149.637	-0.216	-0.017
-545.296	-45.965	0.584	-0.288
-544.281	-50.257	-0.582	0.276
-543.266	279.025	0.102	-0.182
-542.252	51.265	-0.302	-0.287
-541.237	-75.193	0.647	0.232
-540.223	-200.000	-0.110	0.596
-539.208	-109.690	-0.614	-0.129
-538.193	-87.168	-0.208	0.063
-537.179	-78.191	-0.791	0.273
-536.164	45.340	0.227	0.210
-535.150	-200.000	0.077	0.665
-534.135	-147.695	-0.788	-0.066
-533.121	-41.702	-0.471	0.242
-532.106	29.391	-0.582	0.495
-531.091	129.774	-0.045	-0.058
-530.077	-69.629	-0.969	0.371
-529.062	800.000	0.176	-0.548
-528.048	-12.545	0.261	-0.171
-527.033	-200.000	-0.127	0.890
-526.018	59.073	0.803	0.791
-525.004	-11.120	0.252	-0.166
-523.989	-104.303	0.482	0.112
-522.975	9.875	0.327	-0.248
-521.960	-52.634	0.525	-0.242
-520.945	-151.347	-0.155	-0.012
-519.931	-148.027	0.116	-0.010
-518.916	-133.306	-0.190	0.024
-517.902	483.939	0.280	-0.638
-516.887	-0.795	0.442	0.313
-515.872	106.050	0.442	-0.523
-514.858	492.059	0.040	0.091
-513.843	-25.361	-0.655	0.388
-512.829	60.470	-0.630	-0.625
-511.814	650.886	0.088	-0.225
-510.799	-138.669	-0.764	-0.084
-509.785	90.105	-0.657	-0.735
-508.770	-200.000	-0.002	0.275
-507.756	3.624	-0.401	0.293
-506.741	-77.365	-0.654	-0.227
-505.726	-134.559	0.538	-0.066
-504.712	12.818	-0.361	0.279
-503.697	-130.248	-0.699	0.095
-502.683	161.272	-0.055	0.077
-501.668	572.310	-0.295	-0.718
-500.653	-40.265	-0.297	-0.155
-499.639	70.261	-0.141	-0.146
-498.624	800.000	0.200	0.708
-497.610	-142.702	-1.004	0.098
-496.595	800.000	-0.018	0.077
-495.581	-103.943	0.442	0.103
-494.566	141.488	0.144	-0.191
-493.551	293.612	-0.183	-0.334
-492.537	-136.607	-0.512	-0.059
-491.522	103.511	-0.093	0.109
-490.508	-29.161	0.740	0.424
-489.493	-62.123	0.842	0.351
-488.478	-200.000	0.108	-0.699
-487.464	800.000	0.279	0.789
-486.449	-28.356	0.278	0.161
-485.435	100.179	0.529	0.613
-484.420	-200.000	-0.085	-0.925
-483.405	145.130	0.430	-0.575
-482.391	-46.460	0.215	0.105
-481.376	-33.827	-0.339	-0.187
-480.362	-200.000	0.055	0.849
-479.347	2.923	0.287	-0.209
-478.332	95.856	-0.214	0.244
-477.318	-200.000	0.115	-0.558
-476.303	-39.495	-0.827	0.433
-475.289	-66.559	-0.427	0.169
-474.274	163.679	0.424	-0.596
-473.259	12.855	0.535	-0.413
-472.245	92.094	-1.009	-1.136
-471.230	316.647	-0.351	0.663
-470.216	173.504	-0.251	-0.362
-469.201	-180.060	-0.982	-0.021
-468.186	-18.094	-0.168	0.105
-467.172	427.736	-0.192	-0.414
-466.157	94.453	-0.277	-0.314
-465.143	-103.490	-0.538	0.126
-464.128	-18.068	0.486	0.304
-463.113	-157.767	-0.309	-0.018
-462.099	-127.844	0.792	0.114
-461.084	274.105	0.295	0.521
-460.070	-37.889	-0.596	-0.316
-459.055	163.187	0.571	0.801
-458.040	-35.463	-0.762	-0.413
-457.026	341.472	0.325	0.633
-456.011	-90.498	-0.195	0.056
-454.997	733.483	0.306	-0.818
-453.982	166.196	0.232	-0.328
-452.968	204.936	-0.268	0.415
-451.953	3.938	-0.674	0.492
-450.938	-200.000	0.012	0.065
-449.924	800.000	0.216	-0.597
-448.909	-106.919	1.149	0.254
-447.895	-200.000	0.032	0.604
-446.880	362.025	0.125	0.249
-445.865	669.725	0.157	0.406
-444.851	-200.000	-0.051	-0.375
-443.836	-200.000	-0.031	-0.531
-442.822	179.045	0.444	-0.648
-441.807	13.559	-0.554	-0.429
-440.792	-130.048	0.676	0.092
-439.778	-152.337	0.712	0.051
-438.763	-49.486	-0.406	0.193
-437.749	-19.061	0.780	-0.484
-436.734	-95.186	-0.146	0.039
-435.719	78.876	-0.508	0.542
-434.705	-30.733	0.184	0.104
-433.690	418.132	-0.231	0.493
-432.676	303.304	-0.382	-0.707
-431.661	-71.452	-1.182	0.441
-430.646	481.401	-0.174	0.394
-429.632	800.000	0.101	0.423
-428.617	-200.000	-0.066	-0.544
-427.603	-200.000	0.074	-0.714
-426.588	319.087	0.320	-0.605
-425.573	-88.261	0.286	-0.085
-424.559	-3.659	-0.903	-0.626
-423.544	-45.983	0.698	0.343
-422.530	800.000	0.102	0.331
-421.515	72.332	0.191	0.199
-420.500	424.102	0.092	-0.198
-419.486	-200.000	0.159	0.864
-418.471	800.000	-0.235	-0.852
-417.457	-16.588	1.323	0.836
-416.442	-35.592	-0.242	-0.131
-415.428	-72.155	0.504	-0.186
-414.413	-153.041	-0.406	-0.028
-413.398	51.050	-0.547	-0.517
-412.384	184.992	0.157	0.233
-411.369	4.463	0.432	0.316
-410.355	-86.765	0.628	0.191
-409.340	-78.495	0.562	0.192
-408.325	-49.779	0.942	-0.446
-407.311	167.922	0.350	-0.497
-406.296	-65.067	-1.076	0.433
-405.282	70.827	0.274	-0.282
-404.267	800.000	0.307	-1.047
-403.252	-83.036	0.692	-0.222
-402.238	283.480	-0.229	-0.410
-401.223	-167.101	-0.116	-0.005
-400.209	-75.817	-0.214	-0.075
-399.194	800.000	0.102	0.331
-398.179	-200.000	0.057	0.342
-397.165	-200.000	0.047	0.606
-396.150	38.785	-0.044	0.039
-395.136	533.034	-0.231	0.545
-394.121	515.816	0.396	0.920
-393.106	-19.733	0.411	-0.253
-392.092	800.000	0.247	0.744
-391.077	-200.000	0.068	-0.349
-390.063	31.099	0.200	-0.171
-389.048	-16.850	-0.839	-0.528
-388.033	-194.105	0.530	0.004
-387.019	-155.908	-0.995	0.063
-386.004	205.577	-0.275	0.425
-384.990	-56.320	-0.353	0.156
-383.975	-46.637	-0.447	-0.218
-382.960	-200.000	0.081	0.622
-381.946	800.000	-0.267	0.894
-380.931	-200.000	-0.062	0.971
-379.917	800.000	-0.073	0.254
-378.902	349.280	0.359	-0.705
-377.888	-44.696	0.573	0.285
-376.873	-22.633	0.683	0.411
-375.858	-58.470	0.208	0.090
-374.844	371.070	0.150	-0.304
-373.829	-150.854	-0.211	0.016
-372.815	22.685	0.394	-0.321
-371.800	118.897	0.034	0.042
-370.785	6.262	0.359	-0.265
-369.771	207.535	0.136	0.211
-368.756	800.000	-0.260	-0.729
-367.742	477.274	-0.068	-0.153
-366.727	-37.705	0.249	-0.132
-365.712	-86.630	-0.609	0.186
-364.698	51.863	0.401	-0.380
-363.683	18.154	0.619	-0.491
-362.669	80.225	0.414	0.444
-361.654	27.876	-0.296	-0.248
-360.639	-101.093	-0.295	-0.072
-359.625	-38.340	0.710	-0.374
-358.610	-63.115	-0.515	0.211
-357.596	-26.642	0.462	-0.269
-356.581	-200.000	0.012	-0.078
-355.566	800.000	-0.181	-0.696
-354.552	800.000	-0.145	-0.428
-353.537	37.925	0.552	-0.488
-352.523	-200.000	0.061	0.463
-351.508	22.569	0.509	-0.414
-350.493	-72.887	0.512	-0.187
-349.479	-57.610	0.277	0.121
-348.464	147.306	0.549	-0.734
-347.450	76.655	-0.680	0.717
-346.435	-33.180	-0.584	-0.322
-345.420	349.557	-0.240	-0.471
-344.406	268.879	0.114	0.199
-343.391	100.230	-0.149	0.172
-342.377	-10.082	0.383	0.253
-341.362	-107.314	0.473	-0.103
-340.348	-132.639	-0.769	-0.098
-339.333	-122.612	0.601	-0.097
-338.318	-27.172	0.712	-0.412
-337.304	109.163	0.276	0.328
-336.289	-200.000	0.011	-0.216
-335.275	-93.597	-1.112	0.305
-334.260	693.904	-0.050	-0.130
-333.245	12.557	-0.876	0.672
-332.231	-200.000	0.022	-0.856
-331.216	426.215	-0.205	-0.439
-330.202	74.296	0.380	-0.396
-329.187	456.885	0.246	-0.543
-328.172	143.206	-0.367	0.486
-327.158	-200.000	0.035	-0.228
-326.143	-15.830	0.288	0.182
-325.129	800.000	0.347	-1.070
-324.114	-72.120	-0.513	0.189
-323.099	-129.129	0.076	-0.011
-322.085	-112.196	-0.337	-0.067
-321.070	800.000	-0.248	-0.975
-320.056	94.634	-0.255	-0.288
-319.041	108.006	-0.189	0.223
-318.026	31.714	0.505	-0.432
-317.012	-34.210	0.238	0.130
-315.997	-103.927	0.260	0.060
-314.983	602.864	-0.271	-0.668
-313.968	-200.000	-0.010	-0.644
-312.953	-53.235	0.831	0.378
-311.939	800.000	-0.108	-0.343
-310.924	-94.530	0.279	-0.075
-309.910	25.120	-0.312	0.257
-308.895	30.647	-0.727	-0.618
-307.880	-34.511	0.760	-0.413
-306.866	-200.000	0.067	-0.816
-305.851	-41.699	-0.399	0.203
-304.837	-161.704	-0.365	-0.018
-303.822	-200.000	0.136	-0.696
-302.807	-126.973	0.504	0.074
-301.793	-40.400	0.275	0.142
-300.778	-200.000	-0.002	-0.258
-299.764	-27.747	0.207	0.119
-298.749	13.756	0.930	-0.718
-297.735	800.000	0.167	-0.698
-296.720	-200.000	0.148	-0.926
-295.705	-65.891	0.536	0.213
-294.691	305.302	-0.146	0.269
-293.676	-200.000	-0.011	0.106
-292.662	-73.280	-0.876	-0.318
-291.647	-200.000	0.112	-0.968
-290.632	26.067	-0.195	0.162
-289.618	139.301	-0.195	-0.255
-288.603	-88.221	0.582	0.173
-287.589	-110.349	0.736	-0.152
-286.574	129.226	0.348	0.440
-285.559	800.000	0.149	0.420
-284.545	-137.488	-0.497	-0.056
-283.530	-40.241	0.987	-0.509
-282.516	-84.758	-0.391	-0.122
-281.501	-6.735	-0.296	-0.200
-280.486	-165.096	-0.895	0.039
-279.472	-200.000	0.030	-0.630
-278.457	-30.551	-0.766	-0.430
-277.443	113.115	0.135	-0.163
-276.428	-96.237	-0.122	0.032
-275.413	114.802	-0.071	0.086
-274.399	-29.232	0.096	0.055
-273.384	280.034	-0.272	0.482
-272.370	-135.974	1.090	0.127
-271.355	351.381	0.399	0.782
-270.340	800.000	-0.121	0.422
-269.326	-114.290	-0.739	-0.141
-268.311	82.481	-0.371	0.399
-267.297	-82.309	-0.300	0.097
-266.282	-48.926	0.811	-0.385
-265.267	-200.000	-0.093	0.786
-264.253	-42.994	-1.106	0.556
-263.238	-41.541	-0.415	0.212
-262.224	753.279	0.204	0.545
-261.209	-200.000	-0.062	0.507
-260.195	504.937	0.050	-0.115
-259.180	-143.930	-0.308	-0.029
-258.165	-104.554	0.184	-0.042
-257.151	146.663	0.662	0.882
-256.136	-117.410	0.894	0.160
-255.122	-98.331	-0.676	-0.172
-254.107	-60.015	-0.646	-0.273
-253.092	-150.182	0.952	-0.073
-252.078	-200.000	-0.042	-0.492
-251.063	-12.892	-0.364	-0.235
-250.049	172.709	-0.459	0.655
-249.034	-200.000	-0.044	0.566
-248.019	6.225	-0.428	-0.315
-247.005	-34.687	-0.402	0.218
-245.990	287.467	-0.201	-0.360
-244.976	290.198	-0.279	-0.502
-243.961	-66.998	-0.196	0.076
-242.946	741.876	-0.176	-0.469
-241.932	-137.502	-1.166	0.130
-240.917	-110.973	0.543	-0.110
-239.903	-137.823	-1.227	0.136
-238.888	380.797	0.173	-0.351
-237.873	-200.000	-0.187	-0.001
-236.859	149.215	0.548	-0.734
-235.844	-80.489	-0.172	-0.057
-234.830	-103.342	0.593	-0.138
-233.815	-135.566	0.373	0.044
-232.800	-146.389	0.283	-0.025
-231.786	406.123	0.245	0.512
-230.771	-171.610	-0.741	0.024
-229.757	170.582	-0.163	-0.231
-228.742	206.149	0.182	-0.280
-227.727	-118.248	-0.318	0.056
-226.713	-45.382	-0.439	0.215
-225.698	-97.137	0.390	0.101
-224.684	-47.557	0.412	-0.198
-223.669	444.993	0.394	0.856
-222.655	-200.000	-0.518	0.002
-221.640	-51.648	-0.441	0.203
-220.625	-1.695	-0.622	0.433
-219.611	130.619	-0.527	0.668
-218.596	800.000	0.071	0.285
-217.582	800.000	-0.103	-0.348
-216.567	-200.000	-0.274	1.286
-215.552	-157.418	0.692	0.041
-214.538	-40.355	-0.124	0.064
-213.523	189.764	-0.453	0.672
-212.509	-122.824	0.522	-0.083
-211.494	-38.703	0.283	-0.148
-210.479	477.338	0.278	-0.623
-209.465	-93.413	-0.867	-0.237
-208.450	-48.144	0.746	0.356
-207.436	-117.118	0.620	0.112
-206.421	428.515	-0.111	0.237
-205.406	-8.224	-0.406	-0.270
-204.392	-108.652	0.430	0.091
-203.377	690.594	-0.383	-0.991
-202.363	257.204	0.303	0.515
-201.348	38.424	-0.165	0.146
-200.333	148.191	-0.254	-0.339
-199.319	-24.890	0.686	-0.403
-198.304	-84.692	-0.546	-0.170
-197.290	-82.597	-0.571	0.183
-196.275	16.385	0.233	0.181
-195.260	190.435	-0.420	0.624
-194.246	379.971	0.187	0.379
-193.231	800.000	0.030	0.119
-192.217	32.161	0.772	0.658
-191.202	151.601	0.165	-0.222
-190.187	-133.152	-0.716	0.090
-189.173	-11.558	0.804	0.522
-188.158	446.427	0.085	-0.184
-187.144	-139.345	0.913	0.097
-186.129	69.412	0.289	0.294
-185.114	30.706	-0.309	-0.261
-184.100	-71.001	0.792	-0.294
-183.085	-200.000	-0.001	-0.369
-182.071	-104.359	-0.658	0.151
-181.056	-2.492	0.404	0.280
-180.042	160.509	-0.114	-0.158
-179.027	-200.000	0.047	-0.310
-178.012	-16.876	0.693	-0.433
-176.998	-98.031	0.522	-0.133
-175.983	-40.619	0.889	0.455
-174.969	145.484	0.373	-0.493
-173.954	-200.000	-0.090	0.431
-172.939	240.342	0.185	0.304
-171.925	378.180	0.234	-0.472
-170.910	35.753	0.552	-0.479
-169.896	602.496	0.207	0.509
-168.881	21.026	-0.564	-0.452
-167.866	0.143	-0.665	0.468
-166.852	-103.575	0.347	0.080
-165.837	-52.941	0.715	0.325
-164.823	-90.199	0.183	-0.052
-163.808	-97.686	0.391	0.100
-162.793	-56.995	0.232	-0.101
-161.779	25.896	0.293	-0.241
-160.764	-138.781	-0.294	0.032
-159.750	-39.008	-0.365	0.190
-158.735	-90.370	-0.672	0.192
-157.720	-129.019	-0.656	-0.091
-156.706	800.000	0.160	0.681
-155.691	192.542	-0.400	0.596
-154.677	-179.278	-0.559	-0.012
-153.662	129.632	-0.188	0.237
-152.647	156.420	-0.435	0.592
-151.633	-32.576	-0.580	-0.319
-150.618	142.612	-0.331	-0.434
-149.604	-200.000	-0.060	0.679
-148.589	-139.617	0.595	0.063
-147.574	-51.756	0.874	0.402
-146.560	800.000	0.047	0.174
-145.545	97.250	0.019	0.021
-144.531	-200.000	0.048	0.477
-143.516	625.728	0.195	0.484
-142.502	132.265	-0.212	-0.270
-141.487	-50.706	0.273	-0.127
-140.472	25.592	-0.704	0.578
-139.458	-200.000	0.001	0.511
-138.443	-114.626	-0.174	-0.033
-137.429	-200.000	0.020	0.341
-136.414	62.787	-0.317	0.313
-135.399	-129.662	0.295	0.040
-134.385	-116.591	-0.421	-0.076
-133.370	-90.145	-0.481	-0.138
-132.356	193.527	0.280	0.418
-131.341	-20.856	-0.196	0.118
-130.326	632.898	-0.140	0.350
-129.312	284.001	-0.161	-0.286
-128.297	250.963	0.227	0.381
-127.283	-200.000	0.111	0.773
-126.268	-200.000	0.037	-0.356
-125.253	-200.000	-0.068	-0.367
-124.239	-152.684	-0.682	-0.048
-123.224	-26.828	0.940	-0.541
-122.210	-39.472	-0.483	-0.249
-121.195	309.149	0.224	-0.412
