DTS Sentinel unit serial number:	SN413079Multiplexer serial number:	ORYXHardware model number:	OX4-SRSoftware version number:	ORYX F/W v4.00 Oryx Data Collector v3.7.2.0data status	okinstallation	princeton_trtdifferential loss correction	single-endedforward channel	channel 3reverse channel	N/Adate	2019/09/12time	08:10:11forward acquisition time	60.00reverse acquisition time	0.00gamma	496.2192k internal	0.2313k external	0.2313temperature offset calibration	1.0038default loss term (dB/km)	0.3790temperature slope calibration	1.0000multiplexer offset coefficient	1.0000multiplexer slope coefficient	1.0000fibre end	0.00T internal ref (°C)	33.25T ext. ref 1 (°C)	1.69T ext. ref 2 (°C)	29.80length (m)	temperature (°C)	Stokes	anti-Stokes-747.200	68.932	0.115	-0.120
-746.185	-127.627	-0.755	0.111
-745.171	-200.000	0.008	0.225
-744.156	400.150	-0.133	0.283
-743.142	159.346	0.244	-0.345
-742.127	-200.000	0.022	0.233
-741.112	-24.779	0.098	0.059
-740.098	-200.000	-0.028	0.190
-739.083	-200.000	-0.059	-0.279
-738.069	306.942	0.108	0.205
-737.054	-200.000	-0.038	-0.299
-736.039	-4.494	-0.280	-0.196
-735.025	-48.387	-0.083	0.040
-734.010	-200.000	0.106	-0.515
-732.996	-200.000	0.041	-0.184
-731.981	-129.805	-0.161	0.022
-730.966	241.948	-0.080	-0.136
-729.952	21.151	-0.131	-0.108
-728.937	128.790	-0.143	-0.185
-727.923	-200.000	-0.001	-0.046
-726.908	-48.747	0.254	0.124
-725.894	-59.763	-0.166	-0.072
-724.879	-98.449	0.059	0.015
-723.864	-7.675	0.198	-0.136
-722.850	-58.142	-0.137	0.061
-721.835	-22.796	0.192	-0.117
-720.821	94.341	-0.022	-0.026
-719.806	-56.522	-0.047	-0.021
-718.791	259.103	-0.209	0.365
-717.777	-94.410	0.287	0.079
-716.762	208.606	-0.034	0.054
-715.748	38.104	-0.385	0.347
-714.733	-200.000	0.018	-0.224
-713.718	800.000	-0.102	-0.451
-712.704	-145.897	0.173	0.016
-711.689	800.000	0.039	0.112
-710.675	107.004	0.156	0.187
-709.660	123.988	0.312	-0.397
-708.645	-68.868	0.181	-0.071
-707.631	179.064	-0.126	0.186
-706.616	-67.650	-0.154	0.061
-705.602	11.102	-0.279	0.216
-704.587	-129.916	-0.067	-0.009
-703.572	-61.652	0.200	-0.085
-702.558	800.000	-0.072	-0.260
-701.543	-200.000	0.110	-0.515
-700.529	-35.165	0.177	-0.097
-699.514	441.779	-0.032	0.070
-698.499	56.470	-0.091	-0.090
-697.485	-111.520	-0.257	0.053
-696.470	18.169	0.223	0.180
-695.456	800.000	0.110	0.368
-694.441	-77.886	-0.211	-0.074
-693.426	-200.000	0.010	-0.209
-692.412	-16.950	-0.168	0.107
-691.397	-200.000	0.020	-0.202
-690.383	800.000	0.071	-0.257
-689.368	-200.000	-0.012	-0.098
-688.354	683.787	0.065	-0.171
-687.339	-200.000	-0.017	0.139
-686.324	-124.753	0.259	0.041
-685.310	-141.334	0.370	0.038
-684.295	99.303	-0.235	-0.275
-683.281	800.000	0.108	0.342
-682.266	-108.124	0.319	-0.070
-681.251	-102.315	0.026	-0.006
-680.237	-118.449	0.277	-0.050
-679.222	330.342	0.040	0.079
-678.208	-86.645	0.424	0.131
-677.193	-48.942	0.180	-0.087
-676.178	13.771	0.075	0.059
-675.164	-158.683	0.367	0.021
-674.149	-200.000	0.021	-0.204
-673.135	-200.000	0.021	-0.307
-672.120	183.025	-0.125	0.187
-671.105	-200.000	-0.052	-0.267
-670.091	-88.389	0.292	-0.088
-669.076	329.824	0.072	-0.140
-668.062	20.444	-0.107	-0.087
-667.047	-39.900	-0.180	0.095
-666.032	143.625	0.283	0.382
-665.018	-95.198	0.220	-0.060
-664.003	-29.310	-0.314	-0.182
-662.989	-13.585	0.136	-0.089
-661.974	198.209	0.111	0.172
-660.959	-28.743	-0.197	-0.114
-659.945	67.631	-0.246	-0.254
-658.930	800.000	0.059	0.200
-657.916	-7.090	-0.041	-0.028
-656.901	-200.000	0.004	0.048
-655.886	-129.353	0.435	0.061
-654.872	-200.000	-0.013	0.101
-653.857	-173.923	-0.238	0.007
-652.843	-115.481	-0.099	0.019
-651.828	-2.925	0.179	-0.127
-650.814	76.023	-0.150	-0.161
-649.799	-22.635	0.111	0.068
-648.784	-86.657	0.038	0.012
-647.770	-200.000	0.002	0.277
-646.755	-200.000	-0.003	-0.177
-645.741	509.928	0.087	0.204
-644.726	-134.619	0.155	-0.019
-643.711	-145.857	-0.228	-0.020
-642.697	11.549	0.212	0.164
-641.682	-27.641	-0.276	-0.162
-640.668	800.000	0.034	0.147
-639.653	-200.000	-0.009	0.263
-638.638	-22.919	-0.152	-0.092
-637.624	26.306	-0.147	-0.124
-636.609	182.756	0.324	-0.483
-635.595	-75.863	0.156	0.056
-634.580	-143.834	0.281	0.027
-633.565	-118.166	-0.362	0.065
-632.551	800.000	0.140	-0.446
-631.536	64.280	-0.198	-0.201
-630.522	-144.019	-0.201	-0.019
-629.507	-76.027	0.031	-0.011
-628.492	-129.029	-0.226	-0.032
-627.478	800.000	-0.131	-0.442
-626.463	-26.555	0.249	0.147
-625.449	-164.100	0.086	-0.004
-624.434	538.044	-0.121	-0.289
-623.419	414.735	-0.157	0.337
-622.405	-15.013	0.328	-0.212
-621.390	60.844	0.172	0.172
-620.376	165.741	0.082	0.117
-619.361	-77.684	-0.146	0.051
-618.346	800.000	-0.051	0.161
-617.332	-98.464	0.149	0.038
-616.317	170.200	-0.082	0.118
-615.303	103.494	0.240	0.284
-614.288	-116.349	-0.179	-0.033
-613.273	364.470	-0.116	-0.235
-612.259	7.652	-0.181	-0.137
-611.244	2.351	-0.073	0.053
-610.230	-28.660	-0.185	0.107
-609.215	-200.000	0.009	-0.130
-608.201	-82.513	-0.325	-0.106
-607.186	-200.000	0.025	-0.186
-606.171	-6.144	0.068	0.047
-605.157	-1.664	-0.077	-0.054
-604.142	-76.592	-0.151	-0.053
-603.128	-17.262	-0.054	-0.034
-602.113	-71.326	-0.382	0.145
-601.098	-200.000	-0.002	0.032
-600.084	-14.984	0.126	-0.082
-599.069	490.983	0.159	0.368
-598.055	-64.016	-0.176	0.073
-597.040	96.487	0.217	0.250
-596.025	-41.154	-0.238	0.124
-595.011	398.136	0.081	-0.171
-593.996	226.111	-0.092	-0.150
-592.982	188.931	0.041	0.062
-591.967	260.252	0.128	-0.223
-590.952	-200.000	-0.030	0.301
-589.938	34.423	0.272	-0.239
-588.923	21.744	-0.327	-0.269
-587.909	-200.000	-0.003	0.388
-586.894	-5.998	-0.170	-0.117
-585.879	-200.000	-0.030	0.150
-584.865	-200.000	0.026	0.210
-583.850	13.678	-0.311	-0.243
-582.836	27.716	-0.226	-0.192
-581.821	-147.436	-0.293	-0.025
-580.806	410.490	0.086	-0.183
-579.792	-127.001	-0.405	-0.060
-578.777	652.308	-0.110	0.285
-577.763	800.000	-0.037	-0.109
-576.748	-3.983	-0.181	0.126
-575.733	127.688	0.178	0.228
-574.719	-139.372	0.381	-0.041
-573.704	-3.409	-0.219	0.154
-572.690	39.935	-0.318	0.288
-571.675	-58.788	-0.055	-0.024
-570.661	-121.254	0.206	0.035
-569.646	-19.111	-0.285	0.179
-568.631	-29.531	-0.024	0.014
-567.617	369.877	-0.074	-0.150
-566.602	-65.298	0.299	-0.121
-565.588	-1.048	-0.220	-0.157
-564.573	7.564	0.065	0.049
-563.558	-200.000	0.028	0.139
-562.544	-20.280	-0.351	-0.218
-561.529	208.285	0.108	-0.170
-560.515	800.000	-0.026	-0.093
-559.500	39.078	0.146	0.132
-558.485	-3.752	-0.351	0.245
-557.471	-49.649	-0.356	0.170
-556.456	66.041	0.167	0.171
-555.442	-200.000	-0.027	0.334
-554.427	244.743	0.073	-0.124
-553.412	-25.239	-0.072	-0.043
-552.398	-100.041	-0.292	-0.073
-551.383	37.680	-0.051	0.046
-550.369	229.551	0.114	0.188
-549.354	-77.825	0.103	0.036
-548.339	75.727	-0.097	-0.103
-547.325	330.257	0.201	0.390
-546.310	-200.000	0.029	-0.133
-545.296	538.655	-0.070	0.168
-544.281	-200.000	-0.040	0.270
-543.266	-200.000	-0.010	-0.112
-542.252	55.095	0.223	-0.217
-541.237	-101.951	-0.087	-0.021
-540.223	-115.061	-0.167	0.032
-539.208	-200.000	0.013	-0.075
-538.193	-138.146	0.130	-0.015
-537.179	-44.370	0.040	-0.020
-536.164	250.839	-0.070	0.120
-535.150	-200.000	0.024	0.612
-534.135	-7.457	0.088	-0.060
-533.121	-36.748	0.050	-0.027
-532.106	-66.314	-0.286	-0.115
-531.091	69.989	-0.145	-0.151
-530.077	-200.000	-0.068	0.000
-529.062	-200.000	0.045	-0.242
-528.048	49.055	0.017	-0.016
-527.033	800.000	0.072	0.218
-526.018	323.748	-0.048	0.092
-525.004	31.104	-0.145	0.125
-523.989	35.680	-0.094	0.083
-522.975	-60.271	-0.142	0.061
-521.960	-177.631	-0.146	-0.004
-520.945	180.936	-0.103	0.152
-519.931	748.051	-0.094	-0.255
-518.916	81.573	0.128	-0.139
-517.902	-200.000	-0.012	-0.244
-516.887	800.000	-0.049	-0.200
-515.872	-200.000	0.008	0.318
-514.858	-59.647	0.366	-0.158
-513.843	800.000	-0.053	0.157
-512.829	390.550	0.147	0.307
-511.814	-200.000	0.000	-0.324
-510.799	141.634	-0.145	-0.193
-509.785	-78.515	0.203	0.070
-508.770	62.167	-0.185	0.185
-507.756	-128.585	0.340	0.048
-506.741	313.480	-0.098	-0.186
-505.726	-11.338	0.075	-0.050
-504.712	800.000	0.081	0.249
-503.697	298.972	0.088	-0.162
-502.683	-107.215	0.138	-0.031
-501.668	-200.000	-0.032	-0.370
-500.653	-156.050	-0.281	-0.018
-499.639	-19.968	0.016	0.010
-498.624	524.991	-0.019	-0.045
-497.610	-18.708	0.360	-0.225
-496.595	133.531	-0.318	-0.413
-495.581	-148.080	-0.262	0.022
-494.566	-149.214	0.234	0.019
-493.551	-99.008	0.071	-0.018
-492.537	-26.519	-0.259	0.152
-491.522	-50.308	0.089	-0.042
-490.508	-91.846	0.244	0.069
-489.493	401.472	0.068	0.143
-488.478	80.687	0.116	-0.126
-487.464	30.175	0.174	0.149
-486.449	-1.250	0.126	0.090
-485.435	-200.000	0.033	0.193
-484.420	-190.511	0.335	0.004
-483.405	-200.000	0.011	-0.129
-482.391	114.946	0.097	0.119
-481.376	55.231	0.418	-0.406
-480.362	42.084	-0.232	-0.212
-479.347	-3.637	0.098	0.068
-478.332	79.643	0.091	0.098
-477.318	17.853	-0.127	-0.102
-476.303	-17.231	-0.136	-0.086
-475.289	432.975	0.075	-0.164
-474.274	4.288	0.199	-0.146
-473.259	40.965	-0.282	-0.255
-472.245	416.202	0.047	0.101
-471.230	-51.956	0.135	0.063
-470.216	-140.767	-0.088	0.009
-469.201	-14.253	-0.263	-0.170
-468.186	16.847	-0.037	0.030
-467.172	800.000	0.058	0.182
-466.157	800.000	-0.107	0.322
-465.143	800.000	0.031	0.119
-464.128	33.908	-0.197	0.172
-463.113	-55.465	-0.093	0.042
-462.099	-200.000	0.006	-0.039
-461.084	-43.487	0.473	0.240
-460.070	-200.000	-0.003	0.142
-459.055	335.161	0.045	-0.087
-458.040	480.523	0.117	0.266
-457.026	-200.000	-0.023	-0.217
-456.011	66.005	-0.121	0.124
-454.997	-42.892	-0.089	0.045
-453.982	-200.000	-0.045	0.338
-452.968	-200.000	0.036	0.368
-451.953	114.976	-0.045	0.055
-450.938	113.388	-0.154	0.187
-449.924	-200.000	-0.019	-0.135
-448.909	-94.903	0.157	-0.043
-447.895	-200.000	0.045	-0.219
-446.880	-31.964	-0.324	0.182
-445.865	179.743	-0.154	-0.225
-444.851	-51.496	-0.372	-0.174
-443.836	117.107	0.188	-0.231
-442.822	-2.922	-0.086	-0.060
-441.807	-17.293	-0.179	0.113
-440.792	-60.008	-0.357	-0.153
-439.778	-115.967	-0.086	-0.016
-438.763	800.000	-0.019	0.073
-437.749	457.009	-0.135	-0.301
-436.734	-133.414	0.267	0.034
-435.719	-105.780	0.052	-0.012
-434.705	800.000	0.021	-0.090
-433.690	-200.000	0.021	-0.217
-432.676	800.000	-0.042	0.126
-431.661	-49.420	-0.179	-0.085
-430.646	-188.394	0.293	0.004
-429.632	-33.226	-0.059	0.033
-428.617	309.087	0.125	0.235
-427.603	800.000	0.040	0.127
-426.588	800.000	-0.049	0.181
-425.573	800.000	0.036	-0.153
-424.559	-200.000	0.062	-0.306
-423.544	85.396	-0.107	0.118
-422.530	-82.665	0.087	0.028
-421.515	225.953	0.110	-0.178
-420.500	144.757	0.245	-0.329
-419.486	-29.543	0.283	-0.162
-418.471	-32.520	-0.238	0.133
-417.457	-50.033	0.615	-0.292
-416.442	320.720	-0.154	-0.293
-415.428	-131.563	0.255	0.034
-414.413	410.826	0.073	-0.155
-413.398	-158.382	0.274	0.016
-412.384	-4.688	0.207	0.143
-411.369	-102.071	-0.174	0.042
-410.355	339.021	0.117	0.228
-409.340	-112.973	-0.218	0.043
-408.325	-7.492	-0.319	-0.216
-407.311	131.217	-0.221	-0.284
-406.296	298.443	0.215	-0.395
-405.282	11.958	-0.107	-0.082
-404.267	-52.243	-0.134	0.062
-403.252	81.790	0.078	0.084
-402.238	-200.000	0.063	0.000
-401.223	-63.400	-0.307	0.127
-400.209	-200.000	0.035	0.175
-399.194	-148.688	-0.447	-0.036
-398.179	111.759	0.066	-0.080
-397.165	800.000	0.015	-0.051
-396.150	-61.952	-0.232	-0.097
-395.136	-118.593	-0.047	-0.008
-394.121	105.620	-0.092	0.109
-393.106	-200.000	0.036	0.201
-392.092	10.218	-0.138	0.105
-391.077	178.226	0.155	0.227
-390.063	248.352	0.063	0.107
-389.048	-200.000	-0.019	0.155
-388.033	-200.000	-0.005	0.152
-387.019	-1.522	0.069	0.049
-386.004	84.450	-0.119	-0.130
-384.990	489.172	-0.077	0.176
-383.975	-95.969	0.359	-0.096
-382.960	35.951	0.262	0.231
-381.946	-200.000	0.001	-0.536
-380.931	22.207	0.126	-0.103
-379.917	-44.750	-0.555	-0.277
-378.902	-200.000	-0.008	0.058
-377.888	-70.265	0.398	0.151
-376.873	-127.677	-0.286	0.041
-375.858	203.035	0.178	-0.275
-374.844	69.218	0.134	-0.138
-373.829	-53.596	0.209	0.095
-372.815	66.083	-0.104	-0.106
-371.800	144.880	-0.078	-0.104
-370.785	63.397	0.096	0.097
-369.771	-200.000	-0.003	-0.195
-368.756	757.801	0.079	0.215
-367.742	-75.288	-0.059	0.021
-366.727	-53.333	-0.213	-0.098
-365.712	12.699	-0.127	0.098
-364.698	201.305	0.177	-0.272
-363.683	136.693	-0.076	-0.099
-362.669	92.843	-0.060	-0.068
-361.654	-54.150	-0.215	-0.097
-360.639	67.760	0.310	0.317
-359.625	259.048	0.146	0.251
-358.610	31.793	0.210	-0.181
-357.596	-200.000	0.010	0.058
-356.581	-15.335	0.332	0.212
-355.566	-200.000	-0.049	-0.500
-354.552	109.616	-0.244	-0.293
-353.537	93.936	-0.029	-0.032
-352.523	-36.513	-0.214	0.115
-351.508	369.602	-0.117	0.236
-350.493	555.895	0.149	0.359
-349.479	269.402	-0.260	-0.456
-348.464	-200.000	0.104	0.486
-347.450	25.979	-0.048	0.040
-346.435	436.328	-0.146	0.316
-345.420	153.236	0.120	-0.163
-344.406	-97.682	0.116	0.030
-343.391	-101.692	-0.143	0.035
-342.377	-56.257	-0.365	0.162
-341.362	-200.000	0.102	0.711
-340.348	86.614	-0.123	-0.136
-339.333	196.965	0.214	-0.325
-338.318	-200.000	0.001	-0.071
-337.304	800.000	-0.043	0.182
-336.289	-116.597	0.083	-0.015
-335.275	-123.761	-0.043	0.007
-334.260	86.567	-0.150	0.165
-333.245	-172.762	0.408	0.013
-332.231	-117.985	-0.342	-0.061
-331.216	-200.000	0.037	0.405
-330.202	258.226	-0.139	0.238
-329.187	-65.643	0.120	-0.048
-328.172	-86.172	0.159	0.049
-327.158	-200.000	0.016	-0.119
-326.143	-56.910	-0.114	0.050
-325.129	-67.191	0.214	0.084
-324.114	-21.598	-0.277	0.168
-323.099	-200.000	0.052	0.296
-322.085	307.805	-0.113	0.210
-321.070	-200.000	-0.024	0.122
-320.056	-200.000	-0.016	-0.295
-319.041	-45.081	-0.185	-0.092
-318.026	-77.409	0.123	-0.042
-317.012	66.354	0.029	-0.030
-315.997	-37.863	0.035	0.018
-314.983	-47.420	-0.051	-0.025
-313.968	212.953	0.085	-0.134
-312.953	-62.668	-0.092	-0.038
-311.939	15.095	0.111	-0.087
-310.924	-132.174	0.244	-0.032
-309.910	-119.025	0.450	-0.079
-308.895	228.448	-0.037	-0.060
-307.880	-200.000	-0.051	0.443
-306.866	68.631	-0.292	0.299
-305.851	222.470	0.202	-0.324
-304.837	-20.137	-0.080	0.049
-303.822	-119.277	-0.209	-0.036
-302.807	-200.000	-0.052	0.231
-301.793	800.000	0.065	0.240
-300.778	-200.000	-0.049	-0.259
-299.764	138.695	0.104	0.136
-298.749	34.325	-0.223	-0.194
-297.735	-107.011	-0.269	0.059
-296.720	-200.000	0.035	-0.374
-295.705	135.765	-0.089	0.116
-294.691	-69.034	0.061	0.023
-293.676	34.555	0.196	0.171
-292.662	-67.119	-0.106	0.042
-291.647	-200.000	-0.028	0.408
-290.632	-30.049	0.171	-0.097
-289.618	-93.868	0.370	0.101
-288.603	-133.980	-0.374	-0.046
-287.589	-130.066	0.123	0.017
-286.574	-68.928	-0.093	0.036
-285.559	51.911	-0.198	0.188
-284.545	-150.090	0.167	-0.013
-283.530	-39.419	-0.139	0.072
-282.516	-95.138	0.105	0.028
-281.501	389.696	-0.026	0.053
-280.486	-16.505	0.061	0.038
-279.472	-11.662	0.156	0.102
-278.457	-31.323	-0.054	0.030
-277.443	224.762	-0.103	0.165
-276.428	-59.628	-0.162	0.069
-275.413	31.285	0.274	-0.234
-274.399	-159.028	-0.544	-0.031
-273.384	-108.928	-0.415	0.088
-272.370	94.398	-0.082	0.093
-271.355	20.812	-0.097	0.078
-270.340	-113.702	0.240	0.047
-269.326	-63.990	0.322	-0.131
-268.311	800.000	-0.080	-0.266
-267.297	514.674	-0.047	-0.110
-266.282	-156.166	0.329	-0.021
-265.267	310.822	0.131	-0.244
-264.253	-200.000	0.004	0.172
-263.238	-103.676	-0.097	-0.023
-262.224	179.934	0.190	0.278
-261.209	444.576	-0.095	-0.207
-260.195	-200.000	0.010	0.218
-259.180	74.003	0.069	-0.072
-258.165	27.354	0.115	-0.096
-257.151	-74.905	-0.049	0.018
-256.136	-200.000	-0.013	0.061
-255.122	800.000	0.054	-0.180
-254.107	800.000	-0.053	-0.177
-253.092	194.207	0.200	-0.301
-252.078	1.233	-0.209	0.149
-251.063	95.082	-0.143	-0.162
-250.049	-200.000	0.013	0.331
-249.034	90.389	0.167	-0.186
-248.019	-200.000	-0.012	-0.119
-247.005	46.483	0.266	-0.246
-245.990	-104.273	-0.199	-0.046
-244.976	23.654	0.243	0.199
-243.961	-79.699	0.076	-0.026
-242.946	-157.953	-0.120	0.007
-241.932	800.000	-0.073	0.301
-240.917	17.735	-0.289	0.229
-239.903	-200.000	0.012	-0.225
-238.888	-200.000	0.042	-0.193
-237.873	-130.254	0.441	0.060
-236.859	-30.120	0.196	-0.111
-235.844	66.894	0.193	0.195
-234.830	86.730	-0.223	0.244
-233.815	-200.000	-0.042	0.238
-232.800	30.415	0.465	0.395
-231.786	552.206	0.072	0.172
-230.771	-36.060	0.417	0.224
-229.757	-200.000	0.010	-0.312
-228.742	800.000	0.107	-0.355
-227.727	-106.060	-0.123	0.028
-226.713	314.133	-0.143	0.267
-225.698	-59.545	-0.399	-0.170
-224.684	391.162	-0.140	-0.289
-223.669	-131.132	-0.067	0.009
-222.655	-112.407	-0.343	0.068
-221.640	219.454	-0.021	-0.033
-220.625	-79.714	-0.296	-0.099
-219.611	-104.162	0.088	0.020
-218.596	66.275	-0.148	-0.149
-217.582	-132.843	-0.195	0.025
-216.567	-80.064	0.309	-0.103
-215.552	32.842	-0.061	0.053
-214.538	-85.923	-0.252	0.077
-213.523	-183.950	0.381	0.006
-212.509	800.000	0.066	-0.270
-211.494	-146.786	-0.197	0.017
-210.479	112.467	-0.273	-0.328
-209.465	-4.303	0.369	-0.254
-208.450	-101.265	0.207	-0.050
-207.436	-93.733	-0.344	0.094
-206.421	-84.318	0.235	0.074
-205.406	67.579	-0.168	0.170
-204.392	-19.601	0.177	0.109
-203.377	-17.561	0.309	0.193
-202.363	-200.000	-0.007	0.290
-201.348	-152.163	0.515	-0.037
-200.333	107.461	-0.126	-0.149
-199.319	93.457	0.073	-0.082
-198.304	-34.521	-0.228	0.124
-197.290	800.000	-0.086	0.287
-196.275	-133.680	-0.234	0.029
-195.260	-107.678	0.146	-0.032
-194.246	197.295	-0.067	0.101
-193.231	-55.707	-0.159	-0.071
-192.217	508.147	0.159	-0.365
-191.202	-26.092	-0.057	0.033
-190.187	-200.000	0.037	-0.324
-189.173	648.985	0.077	-0.196
-188.158	243.095	0.184	-0.306
-187.144	126.749	-0.153	0.192
-186.129	2.770	0.268	-0.193
-185.114	-91.208	0.079	-0.022
-184.100	800.000	0.109	-0.452
-183.085	-186.660	0.382	-0.005
-182.071	-61.813	0.135	-0.056
-181.056	-72.642	0.151	-0.055
-180.042	-1.414	0.166	-0.116
-179.027	94.925	0.124	0.141
-178.012	268.665	-0.024	-0.042
-176.998	704.994	0.143	0.374
-175.983	6.516	0.194	-0.143
-174.969	-11.859	0.157	-0.102
-173.954	-200.000	0.014	-0.501
-172.939	-137.078	-0.152	-0.017
-171.925	372.689	0.103	0.207
-170.910	49.636	0.102	-0.096
-169.896	51.057	-0.164	0.154
-168.881	287.046	0.153	-0.275
-167.866	519.495	0.048	-0.111
-166.852	27.333	-0.196	0.163
-165.837	-89.836	0.224	-0.065
-164.823	61.792	0.340	-0.336
-163.808	11.562	-0.072	-0.054
-162.793	745.309	-0.038	-0.101
-161.779	445.355	-0.040	-0.087
-160.764	15.016	-0.226	-0.175
-159.750	-45.929	0.300	0.147
-158.735	-5.848	-0.035	0.024
-157.720	-149.788	0.110	0.009
-156.706	-82.352	-0.190	-0.061
-155.691	-57.738	0.066	-0.029
-154.677	34.234	0.303	0.262
-153.662	214.008	0.145	0.227
-152.647	-134.371	-0.068	-0.008
-151.633	-106.870	0.184	0.040
-150.618	210.358	0.018	0.028
-149.604	-200.000	0.021	0.165
-148.589	-200.000	-0.020	0.360
-147.574	510.653	0.199	0.459
-146.560	615.125	-0.211	-0.524
-145.545	-125.419	-0.086	-0.013
-144.531	-200.000	0.003	-0.027
-143.516	-200.000	-0.013	-0.070
-142.502	254.869	-0.076	-0.129
-141.487	-70.245	-0.475	0.179
-140.472	-30.169	-0.130	-0.073
-139.458	-33.231	0.507	0.278
-138.443	2.103	-0.108	0.077
-137.429	-34.783	-0.321	-0.174
-136.414	-200.000	0.022	0.166
-135.399	21.745	0.108	0.087
-134.385	64.838	0.171	-0.171
-133.370	-139.670	0.136	0.014
-132.356	-40.345	0.237	-0.122
-131.341	81.116	0.104	0.111
-130.326	-143.776	0.447	-0.042
-129.312	-19.927	-0.291	0.178
-128.297	84.667	0.237	0.257
-127.283	579.751	0.096	-0.233
-126.268	-136.731	0.282	-0.032
-125.253	156.238	-0.115	0.157
-124.239	-37.329	-0.578	0.306
-123.224	303.736	-0.065	-0.119
-122.210	36.966	-0.181	0.159
-121.195	-164.262	0.122	-0.006
-120.180	-20.458	0.243	-0.148
