DTS Sentinel unit serial number:	SN413079Multiplexer serial number:	ORYXHardware model number:	OX4-SRSoftware version number:	ORYX F/W v4.00 Oryx Data Collector v3.7.2.0data status	okinstallation	princeton_trtdifferential loss correction	single-endedforward channel	channel 3reverse channel	N/Adate	2019/09/11time	05:06:11forward acquisition time	60.00reverse acquisition time	0.00gamma	496.2192k internal	0.2330k external	0.2330temperature offset calibration	0.9906default loss term (dB/km)	0.3790temperature slope calibration	1.0000multiplexer offset coefficient	1.0000multiplexer slope coefficient	1.0000fibre end	0.00T internal ref (°C)	29.45T ext. ref 1 (°C)	-0.27T ext. ref 2 (°C)	23.33length (m)	temperature (°C)	Stokes	anti-Stokes-747.200	-200.000	0.038	0.184
-746.185	71.765	0.220	0.230
-745.171	239.514	0.139	-0.232
-744.156	-34.932	-0.167	0.092
-743.142	450.395	0.044	0.097
-742.127	-200.000	-0.019	-0.112
-741.112	212.741	-0.145	0.231
-740.098	-3.275	0.351	-0.247
-739.083	-200.000	0.029	0.240
-738.069	182.311	-0.206	0.306
-737.054	241.253	0.108	-0.181
-736.039	-96.791	0.116	0.031
-735.025	133.207	0.167	-0.217
-734.010	-200.000	-0.010	-0.188
-732.996	-62.316	-0.560	-0.235
-731.981	-164.672	0.370	0.017
-730.966	82.200	-0.168	-0.183
-729.952	38.430	-0.091	-0.082
-728.937	2.892	0.088	-0.064
-727.923	-4.961	-0.259	-0.179
-726.908	381.306	0.148	-0.307
-725.894	23.628	-0.157	-0.130
-724.879	-65.710	0.237	0.095
-723.864	-200.000	0.000	0.104
-722.850	-12.164	0.181	0.119
-721.835	800.000	-0.067	-0.265
-720.821	-200.000	-0.012	0.178
-719.806	-49.618	0.162	0.077
-718.791	-121.196	-0.211	-0.035
-717.777	610.165	-0.070	0.176
-716.762	800.000	-0.040	0.154
-715.748	-97.042	0.114	-0.030
-714.733	-62.305	-0.149	-0.062
-713.718	-200.000	0.011	-0.159
-712.704	-83.963	-0.174	-0.056
-711.689	139.896	0.096	0.127
-710.675	800.000	0.058	0.178
-709.660	-62.302	0.114	-0.048
-708.645	71.081	-0.163	-0.169
-707.631	-200.000	0.017	-0.100
-706.616	292.092	-0.128	-0.234
-705.602	362.917	-0.219	-0.442
-704.587	162.482	-0.035	0.049
-703.572	730.456	-0.134	-0.360
-702.558	758.339	-0.087	0.236
-701.543	-200.000	0.006	0.090
-700.529	216.248	-0.068	-0.108
-699.514	-42.414	-0.066	-0.034
-698.499	-200.000	-0.074	-0.327
-697.485	-48.443	0.066	-0.032
-696.470	165.005	-0.063	0.089
-695.456	-70.538	0.243	-0.092
-694.441	-87.849	-0.243	0.074
-693.426	-200.000	-0.031	0.399
-692.412	-155.401	-0.302	0.020
-691.397	-62.422	-0.113	0.047
-690.383	-50.092	0.324	0.154
-689.368	-200.000	0.006	-0.038
-688.354	-89.927	-0.209	0.061
-687.339	-69.053	0.174	0.067
-686.324	722.545	-0.070	-0.188
-685.310	800.000	-0.014	0.046
-684.295	-8.383	0.156	0.105
-683.281	-200.000	-0.339	0.001
-682.266	-40.501	-0.179	-0.093
-681.251	9.732	0.110	-0.084
-680.237	-64.277	0.206	0.084
-679.222	62.758	-0.256	0.257
-678.208	800.000	0.036	-0.145
-677.193	-45.079	0.208	0.104
-676.178	-64.566	-0.389	0.158
-675.164	505.539	-0.076	-0.176
-674.149	781.544	-0.050	0.138
-673.135	-105.057	-0.075	-0.017
-672.120	-97.862	-0.293	0.076
-671.105	-200.000	-0.042	0.203
-670.091	411.533	0.144	-0.308
-669.076	101.734	0.199	0.233
-668.062	353.534	0.071	-0.142
-667.047	16.643	-0.238	0.189
-666.032	800.000	-0.075	0.266
-665.018	97.760	-0.077	-0.089
-664.003	14.548	0.218	0.171
-662.989	-200.000	-0.010	0.162
-661.974	-200.000	-0.009	0.105
-660.959	122.333	-0.107	-0.135
-659.945	-171.665	-0.217	0.007
-658.930	-43.726	-0.466	-0.236
-657.916	800.000	0.032	-0.094
-656.901	0.006	0.186	-0.133
-655.886	228.784	0.043	-0.071
-654.872	-200.000	-0.018	-0.195
-653.857	-15.961	0.153	-0.098
-652.843	800.000	-0.069	0.241
-651.828	43.701	-0.058	0.053
-650.814	248.247	0.114	0.194
-649.799	800.000	0.033	0.133
-648.784	42.211	-0.097	-0.089
-647.770	-173.205	-0.089	0.003
-646.755	-96.911	0.232	-0.061
-645.741	247.686	-0.182	0.308
-644.726	-46.054	0.211	0.104
-643.711	-68.985	-0.068	-0.026
-642.697	-37.853	-0.148	-0.079
-641.682	139.087	-0.230	-0.303
-640.668	90.472	0.178	-0.200
-639.653	-200.000	-0.020	-0.185
-638.638	-183.730	-0.343	-0.006
-637.624	-42.960	0.123	-0.063
-636.609	-200.000	0.006	0.371
-635.595	28.124	0.251	-0.212
-634.580	211.848	0.018	0.028
-633.565	-24.868	-0.095	-0.057
-632.551	-9.514	0.143	-0.096
-631.536	-191.020	-0.365	-0.004
-630.522	138.363	-0.173	-0.227
-629.507	-65.520	-0.174	-0.070
-628.492	-153.099	0.193	-0.014
-627.478	-118.040	0.169	0.030
-626.463	-104.789	-0.258	0.059
-625.449	251.898	0.162	-0.277
-624.434	-200.000	-0.074	0.336
-623.419	-131.604	0.324	0.043
-622.405	-79.744	0.455	-0.154
-621.390	-181.572	-0.318	-0.006
-620.376	8.389	-0.107	-0.080
-619.361	-200.000	-0.081	0.402
-618.346	4.368	0.059	0.043
-617.332	375.973	-0.057	-0.116
-616.317	77.898	-0.229	0.244
-615.303	-75.541	-0.197	0.070
-614.288	-69.376	0.091	-0.035
-613.273	-37.216	0.269	-0.144
-612.259	386.341	-0.065	0.135
-611.244	223.526	0.283	0.458
-610.230	-148.024	-0.194	-0.016
-609.215	98.311	-0.122	-0.141
-608.201	-41.597	-0.319	-0.164
-607.186	-200.000	-0.016	0.113
-606.171	-97.754	-0.276	0.071
-605.157	291.183	-0.113	0.206
-604.142	35.078	0.203	0.178
-603.128	-80.946	-0.084	-0.028
-602.113	178.571	0.214	0.313
-601.098	-128.712	0.165	-0.023
-600.084	-99.069	-0.175	0.044
-599.069	58.759	-0.143	-0.141
-598.055	-200.000	-0.097	-0.605
-597.040	37.482	-0.151	-0.134
-596.025	43.658	-0.191	-0.175
-595.011	367.112	-0.092	-0.187
-593.996	-63.585	-0.021	0.009
-592.982	115.625	0.148	-0.181
-591.967	166.453	-0.094	0.133
-590.952	-63.125	-0.402	-0.166
-589.938	133.001	0.057	0.074
-588.923	-147.949	-0.083	0.007
-587.909	-200.000	0.020	-0.185
-586.894	-200.000	0.032	-0.169
-585.879	-125.676	0.112	0.017
-584.865	25.124	0.209	-0.173
-583.850	502.301	0.015	0.034
-582.836	-114.476	-0.211	0.041
-581.821	99.951	0.048	0.055
-580.806	-151.899	-0.490	-0.036
-579.792	11.741	0.293	0.225
-578.777	-131.382	-0.193	0.026
-577.763	61.715	0.101	0.101
-576.748	70.575	0.193	-0.200
-575.733	183.200	-0.149	-0.219
-574.719	136.276	0.065	-0.085
-573.704	800.000	0.044	-0.161
-572.690	-32.477	-0.141	-0.078
-571.675	103.095	0.228	-0.267
-570.661	-200.000	0.010	-0.220
-569.646	165.470	-0.113	-0.159
-568.631	-116.828	-0.115	0.021
-567.617	155.374	-0.220	-0.302
-566.602	134.882	0.030	0.039
-565.588	800.000	0.093	-0.293
-564.573	-130.035	0.454	0.062
-563.558	-12.929	-0.418	0.272
-562.544	-131.984	0.204	0.027
-561.529	82.238	-0.139	-0.151
-560.515	-200.000	0.011	-0.149
-559.500	44.621	0.108	0.099
-558.485	106.980	0.299	0.355
-557.471	-94.729	-0.205	-0.056
-556.456	-194.756	0.406	0.003
-555.442	-200.000	-0.043	-0.221
-554.427	0.521	-0.124	-0.088
-553.412	125.668	0.131	-0.165
-552.398	51.607	-0.027	0.026
-551.383	-200.000	-0.018	0.294
-550.369	57.476	0.149	-0.145
-549.354	-200.000	0.001	-0.028
-548.339	38.936	-0.309	0.276
-547.325	327.828	-0.097	-0.185
-546.310	713.855	0.099	0.263
-545.296	304.973	-0.146	0.271
-544.281	-92.252	0.418	-0.118
-543.266	-53.050	0.103	0.047
-542.252	800.000	0.035	-0.140
-541.237	57.132	0.344	-0.335
-540.223	14.861	0.026	-0.020
-539.208	582.325	-0.091	0.222
-538.193	-158.354	0.108	0.006
-537.179	289.293	0.146	-0.265
-536.164	-200.000	0.045	-0.230
-535.150	362.256	-0.186	0.373
-534.135	176.153	-0.105	0.152
-533.121	-136.338	-0.352	-0.041
-532.106	69.227	-0.238	-0.244
-531.091	251.392	0.111	-0.189
-530.077	-56.073	0.117	0.052
-529.062	-200.000	-0.088	-0.534
-528.048	28.533	-0.218	0.184
-527.033	682.880	0.060	-0.155
-526.018	-105.680	-0.195	0.044
-525.004	800.000	0.061	-0.203
-523.989	-138.791	-0.454	-0.049
-522.975	800.000	0.078	-0.270
-521.960	-145.291	-0.188	0.017
-520.945	272.774	-0.082	-0.144
-519.931	-134.360	-0.244	-0.030
-518.916	-200.000	-0.031	-0.288
-517.902	15.151	-0.157	-0.122
-516.887	-49.601	-0.216	-0.103
-515.872	177.233	0.239	-0.347
-514.858	-56.247	0.311	0.138
-513.843	-200.000	-0.016	-0.297
-512.829	-68.329	-0.152	-0.059
-511.814	800.000	-0.086	0.305
-510.799	159.979	-0.135	-0.188
-509.785	-200.000	0.002	0.088
-508.770	188.835	0.108	0.161
-507.756	22.239	-0.289	-0.236
-506.741	-94.549	-0.234	-0.064
-505.726	-108.090	0.387	-0.084
-504.712	-4.811	0.178	0.123
-503.697	-63.387	0.111	0.045
-502.683	215.775	-0.026	-0.042
-501.668	-200.000	-0.051	0.272
-500.653	-95.415	0.056	-0.015
-499.639	281.526	-0.039	0.069
-498.624	-200.000	0.047	-0.300
-497.610	415.579	-0.095	0.202
-496.595	-118.340	0.430	-0.076
-495.581	-142.836	-0.044	-0.004
-494.566	-1.345	0.170	-0.120
-493.551	671.975	-0.120	0.309
-492.537	-118.093	0.237	-0.042
-491.522	800.000	0.032	-0.092
-490.508	82.451	-0.043	-0.047
-489.493	-200.000	0.075	-0.384
-488.478	-123.580	-0.197	0.031
-487.464	-140.352	0.260	-0.027
-486.449	-200.000	0.017	0.284
-485.435	126.148	0.106	-0.134
-484.420	62.519	0.240	0.239
-483.405	-75.595	0.110	-0.039
-482.391	-17.051	-0.134	0.084
-481.376	361.172	0.246	0.492
-480.362	-200.000	-0.007	-0.190
-479.347	-108.615	0.379	0.081
-478.332	470.378	0.071	-0.159
-477.318	-200.000	-0.024	-0.338
-476.303	-100.265	0.314	0.078
-475.289	26.081	0.317	-0.264
-474.274	553.723	0.009	-0.022
-473.259	-200.000	-0.008	-0.060
-472.245	800.000	-0.062	-0.242
-471.230	219.497	0.093	-0.149
-470.216	-27.785	0.158	0.092
-469.201	-200.000	-0.134	0.000
-468.186	-146.389	-0.209	0.018
-467.172	501.737	-0.049	-0.114
-466.157	6.901	0.168	-0.125
-465.143	798.269	0.049	0.134
-464.128	91.866	0.107	0.120
-463.113	800.000	0.183	0.559
-462.099	-200.000	-0.018	-0.096
-461.084	800.000	-0.055	-0.218
-460.070	-23.057	0.118	0.071
-459.055	800.000	0.048	0.149
-458.040	-3.658	-0.245	-0.169
-457.026	639.291	-0.188	-0.476
-456.011	364.506	-0.092	-0.185
-454.997	278.727	-0.099	-0.176
-453.982	342.564	0.069	-0.134
-452.968	-109.433	0.294	0.062
-451.953	800.000	0.067	0.227
-450.938	800.000	-0.044	0.124
-449.924	54.552	-0.074	0.071
-448.909	19.769	-0.136	-0.109
-447.895	73.537	-0.126	-0.131
-446.880	-78.160	-0.225	-0.077
-445.865	-200.000	0.056	0.419
-444.851	318.985	0.109	-0.205
-443.836	292.357	0.176	-0.318
-442.822	800.000	-0.091	0.302
-441.807	-117.502	0.326	-0.059
-440.792	-31.386	-0.181	0.102
-439.778	65.420	0.182	-0.184
-438.763	149.752	0.071	-0.095
-437.749	392.065	0.051	-0.105
-436.734	-81.621	0.131	0.043
-435.719	-80.311	0.102	-0.034
-434.705	227.820	-0.071	-0.115
-433.690	-200.000	-0.047	0.409
-432.676	-200.000	0.009	0.197
-431.661	24.476	0.174	-0.143
-430.646	-60.681	0.112	0.047
-429.632	116.502	-0.085	0.104
-428.617	-10.711	0.107	-0.070
-427.603	9.451	0.289	-0.217
-426.588	-200.000	0.056	0.319
-425.573	800.000	-0.036	0.124
-424.559	374.077	-0.067	-0.136
-423.544	166.099	-0.208	-0.293
-422.530	800.000	0.102	-0.338
-421.515	800.000	0.023	-0.069
-420.500	48.858	-0.456	0.426
-419.486	-41.023	-0.105	-0.054
-418.471	-50.634	0.300	0.140
-417.457	53.800	0.157	0.150
-416.442	-200.000	0.025	0.130
-415.428	20.619	0.155	-0.125
-414.413	233.759	-0.065	-0.107
-413.398	29.559	0.206	0.174
-412.384	13.316	0.122	0.094
-411.369	-112.620	-0.287	-0.057
-410.355	21.724	0.262	-0.212
-409.340	-40.681	0.235	-0.121
-408.325	-97.060	-0.185	0.048
-407.311	283.540	0.041	0.073
-406.296	410.132	0.052	0.110
-405.282	142.385	-0.259	-0.342
-404.267	-181.391	-0.279	-0.005
-403.252	-96.950	-0.213	0.056
-402.238	-59.008	0.357	0.153
-401.223	721.580	0.060	-0.159
-400.209	-161.806	-0.202	-0.010
-399.194	-64.819	-0.031	-0.012
-398.179	-103.589	0.195	0.045
-397.165	476.130	0.095	0.213
-396.150	-115.675	0.307	0.057
-395.136	-74.042	-0.040	0.014
-394.121	-30.639	-0.089	-0.050
-393.106	190.877	-0.061	0.091
-392.092	34.857	-0.256	-0.222
-391.077	-28.081	-0.158	0.091
-390.063	-48.596	0.267	-0.127
-389.048	-182.640	0.258	0.005
-388.033	800.000	0.097	0.374
-387.019	-31.508	0.052	0.029
-386.004	-200.000	-0.010	-0.096
-384.990	568.871	-0.190	0.459
-383.975	-2.589	-0.054	-0.038
-382.960	90.215	0.299	0.332
-381.946	-124.614	-0.232	-0.036
-380.931	-200.000	-0.066	0.333
-379.917	-200.000	0.036	-0.461
-378.902	22.787	0.139	-0.113
-377.888	-33.374	0.096	0.052
-376.873	147.286	-0.065	0.087
-375.858	-129.409	-0.249	-0.034
-374.844	164.469	0.016	0.022
-373.829	-1.666	-0.146	0.102
-372.815	249.324	-0.122	-0.206
-371.800	800.000	-0.065	-0.183
-370.785	-51.351	-0.192	-0.089
-369.771	-182.274	-0.107	0.002
-368.756	90.870	-0.104	-0.116
-367.742	-14.746	0.178	-0.113
-366.727	138.553	-0.447	0.582
-365.712	180.356	0.109	-0.158
-364.698	-64.857	0.215	0.086
-363.683	617.951	0.025	0.063
-362.669	800.000	-0.086	0.325
-361.654	145.565	-0.039	-0.052
-360.639	133.991	-0.046	0.059
-359.625	-55.301	-0.098	-0.044
-358.610	-45.837	0.364	-0.179
-357.596	207.777	-0.113	-0.175
-356.581	800.000	-0.058	0.196
-355.566	-88.730	0.337	0.099
-354.552	-200.000	-0.009	-0.127
-353.537	800.000	-0.035	0.104
-352.523	-79.093	-0.009	0.003
-351.508	-24.753	-0.056	-0.033
-350.493	-200.000	-0.018	0.239
-349.479	-24.619	0.221	0.130
-348.464	-65.242	-0.306	-0.122
-347.450	-172.256	-0.072	0.002
-346.435	240.066	-0.186	0.308
-345.420	-145.658	-0.102	-0.009
-344.406	-200.000	0.036	-0.314
-343.391	-118.766	0.243	-0.042
-342.377	30.498	0.331	0.281
-341.362	800.000	-0.035	-0.128
-340.348	-9.501	-0.146	0.097
-339.333	-164.499	-0.110	0.005
-338.318	-104.342	-0.209	-0.048
-337.304	-200.000	-0.028	0.456
-336.289	-67.074	0.531	0.207
-335.275	-110.143	-0.313	-0.065
-334.260	800.000	0.065	-0.217
-333.245	-102.514	-0.060	0.014
-332.231	-169.089	0.082	0.003
-331.216	293.147	0.182	-0.329
-330.202	-1.406	-0.121	0.084
-329.187	-96.489	0.392	0.103
-328.172	295.578	-0.087	0.158
-327.158	-67.406	0.230	0.090
-326.143	800.000	0.022	-0.095
-325.129	220.956	0.064	0.101
-324.114	-142.779	-0.468	0.045
-323.099	-63.404	0.288	0.117
-322.085	-154.690	0.127	0.008
-321.070	1.775	-0.100	-0.071
-320.056	19.567	0.348	-0.278
-319.041	-43.272	0.118	-0.059
-318.026	592.467	0.095	-0.231
-317.012	161.530	0.148	-0.205
-315.997	245.236	-0.279	0.465
-314.983	-200.000	-0.022	0.147
-313.968	-118.433	-0.088	-0.015
-312.953	468.022	-0.075	-0.167
-311.939	-109.539	0.150	-0.031
-310.924	-40.531	0.194	0.100
-309.910	-125.245	-0.238	-0.036
-308.895	273.608	0.148	0.260
-307.880	-200.000	-0.021	0.096
-306.866	-200.000	0.004	-0.239
-305.851	159.182	0.045	0.063
-304.837	-180.493	0.119	0.002
-303.822	-200.000	-0.013	0.151
-302.807	-92.127	-0.183	-0.051
-301.793	799.830	0.127	-0.346
-300.778	230.163	-0.039	-0.062
-299.764	-56.600	-0.227	-0.100
-298.749	421.100	-0.092	-0.194
-297.735	3.871	0.185	0.134
-296.720	28.993	0.198	0.166
-295.705	6.466	0.098	-0.072
-294.691	382.334	0.038	-0.077
-293.676	13.123	0.141	0.108
-292.662	-200.000	0.058	-0.418
-291.647	800.000	0.076	0.256
-290.632	-115.893	-0.169	-0.031
-289.618	-12.125	-0.233	-0.151
-288.603	5.684	0.128	-0.094
-287.589	-200.000	-0.062	-0.354
-286.574	-200.000	-0.025	0.193
-285.559	-120.251	-0.098	-0.017
-284.545	-12.987	-0.135	0.087
-283.530	-97.048	0.208	0.054
-282.516	-34.424	0.148	-0.080
-281.501	33.480	0.108	0.093
-280.486	-79.030	-0.290	0.098
-279.472	-36.084	-0.270	-0.144
-278.457	800.000	-0.032	0.111
-277.443	-200.000	-0.017	-0.106
-276.428	36.471	0.276	0.240
-275.413	186.733	0.075	0.110
-274.399	800.000	0.034	0.110
-273.384	800.000	0.049	-0.163
-272.370	-127.171	0.058	0.008
-271.355	800.000	-0.048	0.181
-270.340	-200.000	0.018	-0.184
-269.326	299.863	-0.076	-0.138
-268.311	-177.890	0.096	0.002
-267.297	-200.000	0.005	0.087
-266.282	-25.416	0.141	0.082
-265.267	40.619	-0.110	-0.098
-264.253	140.787	0.186	0.243
-263.238	-200.000	-0.005	-0.089
-262.224	800.000	-0.042	-0.118
-261.209	66.228	-0.172	0.172
-260.195	106.700	0.075	0.088
-259.180	128.349	-0.083	-0.104
-258.165	-200.000	-0.038	0.226
-257.151	-93.380	-0.165	0.045
-256.136	-46.680	-0.367	0.177
-255.122	800.000	0.050	0.166
-254.107	-55.977	-0.288	-0.127
-253.092	4.238	-0.145	-0.105
-252.078	39.220	-0.129	0.114
-251.063	-65.991	-0.105	-0.041
-250.049	239.650	-0.044	-0.073
-249.034	-104.844	-0.165	-0.037
-248.019	341.541	-0.090	-0.173
-247.005	75.857	-0.057	0.059
-245.990	383.555	0.039	-0.079
-244.976	-200.000	0.069	0.363
-243.961	8.310	0.142	0.105
-242.946	122.480	0.273	0.337
-241.932	-26.629	-0.371	0.214
-240.917	-200.000	-0.069	-0.462
-239.903	42.219	0.180	-0.161
-238.888	-33.797	0.227	0.123
-237.873	-200.000	-0.003	-0.049
-236.859	-111.835	-0.468	-0.093
-235.844	-144.057	0.179	0.017
-234.830	95.741	0.138	0.155
-233.815	800.000	0.025	-0.104
-232.800	-200.000	-0.004	0.158
-231.786	392.460	0.118	0.242
-230.771	153.421	0.088	0.118
-229.757	-45.601	-0.238	-0.116
-228.742	122.105	-0.177	0.218
-227.727	-193.556	0.274	-0.002
-226.713	550.376	0.160	-0.380
-225.698	800.000	-0.103	0.332
-224.684	655.969	0.054	0.136
-223.669	-200.000	-0.009	-0.431
-222.655	300.043	0.042	-0.076
-221.640	93.457	0.058	0.065
-220.625	-129.304	0.104	-0.014
-219.611	250.961	-0.068	0.114
-218.596	264.995	-0.099	-0.170
-217.582	407.673	-0.190	-0.396
-216.567	-149.365	-0.260	-0.020
-215.552	124.893	0.242	0.301
-214.538	-96.504	-0.129	0.034
-213.523	-117.128	-0.275	0.049
-212.509	-200.000	0.011	0.057
-211.494	170.633	-0.107	-0.151
-210.479	800.000	-0.061	0.188
-209.465	-200.000	-0.032	0.232
-208.450	30.766	-0.349	0.294
-207.436	-200.000	0.007	-0.134
-206.421	35.017	0.314	0.271
-205.406	-85.777	-0.167	0.051
-204.392	80.200	-0.073	-0.077
-203.377	-200.000	-0.007	0.208
-202.363	18.679	0.062	0.049
-201.348	-48.308	-0.276	-0.131
-200.333	213.407	-0.036	-0.056
-199.319	9.472	0.369	0.275
-198.304	-98.205	-0.140	0.036
-197.290	-160.934	-0.078	0.004
-196.275	-83.508	0.342	-0.108
-195.260	-95.568	-0.053	-0.014
-194.246	800.000	0.155	0.428
-193.231	-200.000	-0.007	0.125
-192.217	195.248	0.176	0.263
-191.202	-133.052	0.298	0.037
-190.187	-53.172	0.248	-0.112
-189.173	-200.000	-0.028	-0.241
-188.158	-89.241	0.141	0.041
-187.144	216.515	0.153	0.240
-186.129	-84.078	0.366	-0.115
-185.114	58.402	0.116	0.112
-184.100	-119.645	-0.171	0.029
-183.085	-44.836	-0.176	-0.086
-182.071	-24.177	0.218	-0.128
-181.056	-23.477	0.193	0.114
-180.042	264.656	-0.033	0.057
-179.027	-200.000	-0.033	-0.200
-178.012	15.854	0.140	0.108
-176.998	800.000	0.073	0.260
-175.983	800.000	0.057	-0.168
-174.969	121.828	0.126	0.155
-173.954	-200.000	0.051	0.261
-172.939	524.955	0.078	-0.181
-171.925	-22.396	-0.310	0.185
-170.910	-93.816	-0.093	-0.025
-169.896	65.433	0.109	0.109
-168.881	128.134	-0.123	0.154
-167.866	264.840	0.058	-0.099
-166.852	-200.000	0.000	0.037
-165.837	-83.561	-0.290	0.091
-164.823	-108.896	-0.334	0.070
-163.808	689.322	0.077	-0.197
-162.793	-43.775	-0.269	0.133
-161.779	346.106	0.059	-0.115
-160.764	-97.873	-0.088	0.022
-159.750	800.000	0.031	0.093
-158.735	-51.513	-0.273	0.125
-157.720	2.860	-0.235	0.168
-156.706	166.970	-0.025	0.034
-155.691	10.830	0.043	-0.033
-154.677	534.818	-0.074	-0.173
-153.662	-200.000	-0.036	-0.269
-152.647	-200.000	0.010	0.606
-151.633	123.297	-0.180	0.222
-150.618	276.727	-0.094	0.164
-149.604	114.888	0.181	-0.217
-148.589	-200.000	-0.007	-0.359
-147.574	39.903	-0.140	-0.124
-146.560	-41.472	0.086	0.044
-145.545	-200.000	0.007	0.039
-144.531	800.000	0.047	0.153
-143.516	-90.880	-0.160	0.045
-142.502	-200.000	0.013	0.378
-141.487	800.000	-0.146	-0.404
-140.472	89.780	0.188	-0.207
-139.458	11.023	0.121	0.091
-138.443	-129.242	0.226	0.031
-137.429	25.539	-0.178	0.146
-136.414	-147.992	0.204	0.017
-135.399	509.864	-0.154	0.351
-134.385	-55.676	-0.272	-0.119
-133.370	-200.000	-0.055	-0.285
-132.356	715.208	-0.023	0.059
-131.341	-63.384	-0.344	-0.139
-130.326	138.425	-0.075	-0.097
-129.312	103.606	0.284	0.328
-128.297	10.536	-0.434	0.325
-127.283	-200.000	-0.005	0.054
-126.268	-200.000	0.005	0.213
-125.253	223.795	-0.132	-0.210
-124.239	188.912	0.192	-0.282
-123.224	342.804	-0.103	-0.199
-122.210	-3.539	-0.027	0.019
-121.195	146.337	-0.078	0.104
