DTS Sentinel unit serial number:	SN413079Multiplexer serial number:	ORYXHardware model number:	OX4-SRSoftware version number:	ORYX F/W v4.00 Oryx Data Collector v3.7.2.0data status	okinstallation	princeton_trtdifferential loss correction	single-endedforward channel	channel 3reverse channel	N/Adate	2019/09/17time	03:56:35forward acquisition time	60.00reverse acquisition time	0.00gamma	496.2192k internal	0.2323k external	0.2323temperature offset calibration	0.9940default loss term (dB/km)	0.3790temperature slope calibration	1.0000multiplexer offset coefficient	1.0000multiplexer slope coefficient	1.0000fibre end	0.00T internal ref (°C)	29.92T ext. ref 1 (°C)	0.14T ext. ref 2 (°C)	24.44length (m)	temperature (°C)	Stokes	anti-Stokes-747.200	800.000	0.081	0.300
-746.185	-200.000	0.016	-0.202
-745.171	800.000	0.111	-0.345
-744.156	71.005	-0.210	0.219
-743.142	215.793	0.062	-0.099
-742.127	1.581	-0.225	-0.164
-741.112	76.461	-0.177	-0.189
-740.098	-40.681	0.426	0.223
-739.083	-59.120	0.196	-0.085
-738.069	-101.369	-0.170	-0.042
-737.054	214.156	-0.219	0.350
-736.039	142.328	-0.154	0.206
-735.025	-182.950	0.271	0.005
-734.010	-200.000	-0.031	-0.346
-732.996	595.214	-0.073	-0.182
-731.981	-200.000	-0.018	0.102
-730.966	90.057	0.152	-0.172
-729.952	-170.279	-0.396	-0.014
-728.937	-164.496	-0.216	-0.010
-727.923	-188.064	-0.220	0.003
-726.908	-16.817	0.229	-0.146
-725.894	20.388	-0.290	-0.237
-724.879	-11.938	-0.336	-0.222
-723.864	16.228	-0.037	0.030
-722.850	-200.000	-0.006	0.403
-721.835	-55.063	-0.026	0.012
-720.821	-200.000	-0.061	0.388
-719.806	23.448	-0.165	0.137
-718.791	800.000	0.067	0.188
-717.777	-53.540	-0.064	-0.029
-716.762	-82.770	-0.370	0.121
-715.748	-76.783	0.225	0.080
-714.733	-200.000	-0.025	-0.161
-713.718	-74.245	-0.194	0.071
-712.704	-176.351	0.158	0.004
-711.689	676.075	-0.098	-0.257
-710.675	138.423	0.091	-0.120
-709.660	-200.000	-0.029	-0.165
-708.645	336.032	0.014	0.027
-707.631	148.818	-0.136	0.186
-706.616	-171.849	0.419	-0.014
-705.602	800.000	0.055	-0.165
-704.587	116.052	0.127	0.157
-703.572	-104.260	-0.249	-0.058
-702.558	5.863	-0.052	0.039
-701.543	-8.936	-0.047	-0.031
-700.529	-28.338	-0.319	0.186
-699.514	202.071	-0.043	-0.067
-698.499	-107.775	-0.290	0.064
-697.485	-105.079	-0.261	-0.060
-696.470	174.952	-0.338	0.494
-695.456	-0.836	-0.383	-0.273
-694.441	87.368	-0.149	-0.166
-693.426	-200.000	0.018	-0.180
-692.412	71.506	0.132	-0.138
-691.397	-200.000	-0.016	0.172
-690.383	604.178	0.094	-0.237
-689.368	-18.689	0.060	-0.038
-688.354	-200.000	-0.011	-0.113
-687.339	38.063	0.254	-0.228
-686.324	800.000	0.122	-0.390
-685.310	16.703	-0.272	-0.216
-684.295	-107.124	-0.067	-0.015
-683.281	800.000	-0.070	-0.231
-682.266	-111.641	-0.286	-0.058
-681.251	189.798	0.121	-0.183
-680.237	106.739	-0.089	-0.107
-679.222	512.687	-0.070	0.164
-678.208	100.457	0.084	0.098
-677.193	800.000	-0.020	-0.056
-676.178	800.000	-0.045	-0.187
-675.164	800.000	-0.037	0.115
-674.149	690.488	0.047	-0.123
-673.135	32.896	-0.105	-0.092
-672.120	-200.000	0.014	0.078
-671.105	-55.289	-0.045	-0.020
-670.091	94.328	-0.129	0.147
-669.076	36.289	-0.105	-0.093
-668.062	40.783	0.141	-0.128
-667.047	295.713	0.172	-0.317
-666.032	84.449	-0.207	0.228
-665.018	-160.243	0.142	0.008
-664.003	77.398	0.271	0.290
-662.989	800.000	-0.132	-0.401
-661.974	-2.805	0.139	0.098
-660.959	-150.330	0.164	-0.013
-659.945	-200.000	0.020	0.294
-658.930	800.000	0.016	0.051
-657.916	333.016	0.035	-0.069
-656.901	-200.000	0.005	-0.582
-655.886	-36.167	-0.248	0.135
-654.872	800.000	0.076	0.222
-653.857	-42.318	-0.154	-0.079
-652.843	23.570	0.161	-0.133
-651.828	78.514	-0.050	-0.054
-650.814	-58.339	0.395	-0.173
-649.799	-200.000	-0.050	0.393
-648.784	-200.000	0.012	0.095
-647.770	-170.469	0.148	0.005
-646.755	205.847	-0.090	-0.140
-645.741	591.593	-0.059	-0.146
-644.726	28.770	0.156	0.133
-643.711	593.265	-0.116	-0.289
-642.697	-200.000	0.006	0.271
-641.682	167.475	0.138	0.197
-640.668	-194.647	0.117	0.001
-639.653	-39.964	0.274	-0.144
-638.638	82.735	-0.018	-0.020
-637.624	800.000	0.058	-0.182
-636.609	-2.583	-0.127	0.089
-635.595	481.537	-0.095	0.218
-634.580	71.133	-0.168	-0.175
-633.565	-160.265	-0.142	-0.008
-632.551	396.275	-0.150	0.314
-631.536	411.580	-0.156	0.333
-630.522	-126.064	0.207	-0.031
-629.507	686.992	0.122	-0.321
-628.492	-200.000	0.035	-0.175
-627.478	-158.915	0.374	-0.021
-626.463	22.316	-0.219	-0.180
-625.449	129.134	0.125	-0.160
-624.434	486.470	-0.067	-0.155
-623.419	-60.846	0.202	-0.086
-622.405	471.776	-0.051	-0.116
-621.390	-200.000	0.019	0.130
-620.376	-1.377	0.067	-0.047
-619.361	-39.752	-0.286	0.150
-618.346	-12.033	-0.246	0.162
-617.332	-200.000	-0.024	0.223
-616.317	-9.662	-0.237	-0.158
-615.303	-200.000	-0.023	-0.137
-614.288	-118.476	0.255	0.045
-613.273	-200.000	0.002	0.251
-612.259	39.974	-0.284	-0.256
-611.244	150.095	-0.218	-0.297
-610.230	55.118	-0.085	-0.083
-609.215	-200.000	0.055	-0.261
-608.201	-14.647	0.174	-0.113
-607.186	800.000	0.066	0.210
-606.171	-49.860	-0.232	0.110
-605.157	-25.790	0.269	-0.159
-604.142	-130.558	0.157	0.021
-603.128	188.472	0.015	-0.022
-602.113	120.657	0.043	0.054
-601.098	800.000	0.031	0.099
-600.084	268.257	0.094	-0.165
-599.069	35.517	-0.262	-0.231
-598.055	-114.302	-0.544	-0.105
-597.040	-200.000	-0.018	-0.219
-596.025	-200.000	0.025	0.109
-595.011	-2.594	0.313	-0.220
-593.996	-200.000	-0.004	-0.215
-592.982	468.191	0.097	0.218
-591.967	188.273	0.036	-0.054
-590.952	282.054	-0.118	0.212
-589.938	176.127	0.251	-0.366
-588.923	-105.916	-0.110	0.025
-587.909	800.000	-0.079	-0.249
-586.894	26.803	-0.048	-0.040
-585.879	-124.738	-0.220	0.034
-584.865	157.182	-0.169	-0.235
-583.850	53.575	0.267	-0.257
-582.836	263.090	-0.137	0.239
-581.821	48.745	0.172	0.162
-580.806	-107.814	0.174	0.038
-579.792	-70.458	0.137	0.052
-578.777	19.441	0.259	-0.209
-577.763	305.795	0.070	-0.130
-576.748	562.669	-0.137	0.333
-575.733	-69.886	0.159	0.061
-574.719	-110.360	-0.162	0.034
-573.704	-7.768	0.145	0.098
-572.690	-200.000	-0.005	0.042
-571.675	-63.301	0.136	-0.056
-570.661	35.972	-0.063	-0.055
-569.646	424.748	-0.183	-0.395
-568.631	39.150	-0.156	0.140
-567.617	-98.841	-0.300	-0.077
-566.602	-200.000	-0.011	-0.097
-565.588	-200.000	-0.041	-0.207
-564.573	82.015	0.080	-0.087
-563.558	647.747	0.056	-0.142
-562.544	800.000	-0.070	-0.274
-561.529	-118.719	0.131	-0.023
-560.515	464.562	0.056	0.125
-559.500	21.332	-0.233	0.190
-558.485	-63.625	-0.372	-0.153
-557.471	224.310	0.186	-0.302
-556.456	3.099	-0.092	0.067
-555.442	-200.000	0.010	-0.054
-554.427	-106.241	-0.264	0.059
-553.412	40.986	0.185	-0.168
-552.398	226.506	0.042	-0.068
-551.383	-46.761	-0.055	-0.027
-550.369	258.473	-0.176	-0.304
-549.354	185.818	-0.306	0.456
-548.339	-67.792	0.381	-0.149
-547.325	-200.000	-0.012	0.126
-546.310	280.067	0.047	0.084
-545.296	-200.000	-0.017	0.322
-544.281	-48.946	-0.348	-0.167
-543.266	-133.916	-0.081	0.010
-542.252	-189.621	0.167	-0.002
-541.237	-191.315	-0.076	0.001
-540.223	-70.817	0.087	-0.033
-539.208	166.010	0.197	-0.280
-538.193	-117.929	0.260	-0.047
-537.179	138.302	-0.145	0.191
-536.164	195.111	-0.090	-0.138
-535.150	-200.000	0.063	0.334
-534.135	320.668	-0.063	0.119
-533.121	611.095	-0.052	-0.130
-532.106	-163.592	-0.313	-0.015
-531.091	800.000	-0.063	0.255
-530.077	-105.829	0.379	-0.086
-529.062	57.793	0.096	0.094
-528.048	-67.102	0.283	-0.112
-527.033	-120.459	-0.249	-0.042
-526.018	118.276	-0.224	-0.277
-525.004	157.117	0.117	0.162
-523.989	10.339	-0.147	0.112
-522.975	0.638	0.274	-0.196
-521.960	-200.000	0.026	0.118
-520.945	800.000	0.127	-0.357
-519.931	-98.368	-0.191	-0.049
-518.916	114.107	-0.009	-0.011
-517.902	560.067	0.083	0.200
-516.887	800.000	-0.045	0.170
-515.872	-25.952	-0.034	-0.020
-514.858	13.400	0.528	-0.410
-513.843	-200.000	0.016	-0.136
-512.829	-200.000	-0.024	-0.390
-511.814	14.717	0.127	0.099
-510.799	-200.000	-0.014	0.330
-509.785	710.547	-0.061	0.162
-508.770	-127.448	0.171	0.025
-507.756	217.040	-0.166	-0.265
-506.741	56.616	-0.240	-0.234
-505.726	-80.218	0.114	-0.038
-504.712	51.798	0.197	-0.187
-503.697	-138.022	-0.345	-0.038
-502.683	255.376	-0.060	0.103
-501.668	-26.066	0.148	-0.087
-500.653	800.000	0.104	0.387
-499.639	-200.000	-0.031	-0.309
-498.624	723.775	-0.123	-0.328
-497.610	-11.166	-0.284	0.187
-496.595	-194.241	-0.113	0.001
-495.581	-175.121	-0.283	0.008
-494.566	-45.353	0.154	0.076
-493.551	77.940	-0.219	-0.233
-492.537	42.680	-0.238	0.216
-491.522	-200.000	-0.007	-0.111
-490.508	800.000	0.045	-0.146
-489.493	-197.359	0.260	0.002
-488.478	168.859	-0.030	0.043
-487.464	-136.043	0.160	0.019
-486.449	24.787	0.511	0.423
-485.435	101.246	-0.081	0.094
-484.420	-14.393	0.317	-0.204
-483.405	-53.427	0.335	-0.153
-482.391	19.788	-0.196	0.158
-481.376	25.323	-0.084	-0.070
-480.362	800.000	0.078	-0.218
-479.347	-23.672	-0.127	0.076
-478.332	-109.781	-0.161	-0.034
-477.318	118.346	0.202	0.249
-476.303	-56.679	0.158	-0.070
-475.289	-200.000	-0.032	-0.217
-474.274	-120.523	0.087	-0.015
-473.259	531.117	0.157	0.371
-472.245	-63.043	0.334	0.138
-471.230	-11.974	-0.087	0.057
-470.216	-110.343	-0.089	-0.019
-469.201	617.421	0.053	-0.132
-468.186	-80.115	0.142	0.048
-467.172	-154.310	0.126	-0.008
-466.157	114.384	-0.126	0.153
-465.143	-18.414	-0.166	-0.103
-464.128	-200.000	0.041	-0.218
-463.113	-89.742	-0.169	0.049
-462.099	-200.000	0.038	-0.181
-461.084	270.151	0.101	-0.177
-460.070	-49.945	-0.184	0.087
-459.055	-200.000	-0.027	0.188
-458.040	-200.000	-0.029	0.195
-457.026	-200.000	0.014	0.222
-456.011	-101.390	-0.054	0.013
-454.997	-154.298	-0.090	0.006
-453.982	85.655	0.229	-0.251
-452.968	-200.000	0.038	0.234
-451.953	15.286	0.176	0.138
-450.938	753.771	-0.112	-0.303
-449.924	-164.838	-0.027	0.001
-448.909	12.908	0.104	-0.081
-447.895	-115.624	-0.249	-0.047
-446.880	115.792	0.137	0.168
-445.865	-200.000	0.005	0.093
-444.851	47.539	-0.215	0.200
-443.836	-35.391	-0.141	0.077
-442.822	-72.721	-0.144	0.053
-441.807	-72.675	-0.063	0.023
-440.792	-36.674	-0.412	0.221
-439.778	435.107	-0.129	-0.280
-438.763	411.643	-0.039	0.082
-437.749	-22.060	-0.216	-0.131
-436.734	178.800	-0.090	-0.131
-435.719	-162.274	0.029	-0.001
-434.705	800.000	0.069	0.210
-433.690	24.419	0.104	-0.086
-432.676	-11.617	0.147	0.096
-431.661	-52.100	-0.179	0.083
-430.646	-97.048	0.259	0.068
-429.632	229.762	0.068	0.111
-428.617	-60.204	0.312	0.133
-427.603	549.216	0.067	0.161
-426.588	6.038	-0.159	0.117
-425.573	358.829	-0.154	-0.307
-424.559	-88.181	-0.041	-0.012
-423.544	136.539	0.192	0.250
-422.530	-100.649	-0.252	-0.062
-421.515	-15.255	-0.089	0.057
-420.500	-200.000	0.003	-0.098
-419.486	10.538	0.097	-0.074
-418.471	-35.681	-0.134	-0.073
-417.457	-15.845	0.024	-0.015
-416.442	-65.356	0.193	-0.077
-415.428	800.000	-0.102	0.338
-414.413	-200.000	0.050	0.321
-413.398	-190.631	-0.191	-0.002
-412.384	28.135	0.189	-0.159
-411.369	27.797	-0.063	0.053
-410.355	25.874	0.128	0.106
-409.340	-101.607	-0.063	-0.015
-408.325	-127.920	-0.252	0.036
-407.311	-200.000	-0.017	0.429
-406.296	-200.000	-0.015	-0.275
-405.282	800.000	-0.106	0.316
-404.267	-200.000	0.022	0.244
-403.252	116.675	-0.119	0.146
-402.238	-113.841	-0.079	0.015
-401.223	483.138	-0.038	0.086
-400.209	247.999	-0.095	-0.160
-399.194	800.000	-0.059	-0.196
-398.179	132.115	-0.147	0.188
-397.165	-140.527	0.147	0.015
-396.150	57.491	0.224	-0.218
-395.136	800.000	0.010	-0.043
-394.121	-200.000	-0.017	0.117
-393.106	78.884	0.155	0.165
-392.092	-200.000	-0.015	0.108
-391.077	-111.918	-0.072	0.015
-390.063	-200.000	0.010	-0.085
-389.048	-200.000	0.030	-0.233
-388.033	-200.000	0.007	-0.141
-387.019	399.104	-0.156	0.325
-386.004	-87.792	-0.261	0.078
-384.990	350.274	0.083	0.163
-383.975	293.415	0.149	-0.270
-382.960	-75.115	0.161	-0.057
-381.946	265.123	0.095	-0.165
-380.931	-200.000	0.067	-0.351
-379.917	800.000	-0.057	0.215
-378.902	421.497	-0.040	0.084
-377.888	800.000	-0.080	0.239
-376.873	84.126	-0.278	-0.303
-375.858	-110.503	0.342	-0.071
-374.844	122.563	0.212	-0.264
-373.829	-108.863	-0.113	0.024
-372.815	-94.643	0.252	-0.068
-371.800	-94.914	0.081	0.022
-370.785	307.076	0.056	-0.104
-369.771	800.000	-0.049	-0.143
-368.756	-24.315	-0.021	0.013
-367.742	-200.000	0.032	0.299
-366.727	800.000	-0.077	0.231
-365.712	-40.893	-0.078	0.040
-364.698	49.873	0.320	0.300
-363.683	-41.507	-0.211	-0.108
-362.669	-76.773	0.069	-0.024
-361.654	-167.698	0.327	0.013
-360.639	-137.880	-0.463	0.052
-359.625	-14.663	-0.430	-0.275
-358.610	-200.000	-0.024	0.111
-357.596	800.000	0.041	0.132
-356.581	-200.000	-0.037	0.183
-355.566	800.000	0.096	0.367
-354.552	-138.011	0.241	0.027
-353.537	-0.264	0.163	0.116
-352.523	-107.537	-0.086	-0.019
-351.508	800.000	-0.085	0.350
-350.493	-80.679	-0.198	-0.066
-349.479	240.501	0.074	0.123
-348.464	-54.508	-0.215	0.097
-347.450	-63.578	-0.073	-0.030
-346.435	-56.939	0.029	-0.013
-345.420	229.051	-0.145	-0.235
-344.406	800.000	0.071	0.243
-343.391	-200.000	0.036	0.440
-342.377	-80.632	-0.086	-0.028
-341.362	-114.652	-0.175	0.033
-340.348	-200.000	-0.002	-0.241
-339.333	-169.901	-0.162	0.006
-338.318	800.000	-0.047	0.192
-337.304	-108.119	0.372	0.080
-336.289	-107.896	0.115	0.025
-335.275	-200.000	0.012	-0.193
-334.260	-84.228	-0.299	-0.094
-333.245	284.335	0.292	-0.522
-332.231	-87.304	0.450	0.136
-331.216	-145.571	0.157	-0.014
-330.202	-62.847	0.214	0.088
-329.187	-135.434	0.195	0.023
-328.172	105.147	0.007	-0.008
-327.158	-123.716	0.402	0.063
-326.143	-121.293	-0.175	-0.029
-325.129	-200.000	0.040	-0.326
-324.114	-21.133	-0.273	-0.166
-323.099	70.996	0.190	0.195
-322.085	-164.394	-0.105	0.005
-321.070	-77.779	-0.207	-0.071
-320.056	-69.927	-0.094	-0.035
-319.041	-34.810	0.271	0.147
-318.026	358.003	0.111	-0.219
-317.012	-47.651	-0.129	0.062
-315.997	800.000	-0.049	0.175
-314.983	19.190	0.186	-0.148
-313.968	50.393	-0.246	-0.231
-312.953	800.000	0.023	-0.091
-311.939	209.579	0.100	-0.156
-310.924	-199.314	0.141	0.001
-309.910	800.000	0.008	-0.026
-308.895	-17.064	-0.174	0.109
-307.880	749.002	0.021	0.055
-306.866	245.737	-0.206	-0.344
-305.851	800.000	-0.104	-0.288
-304.837	519.864	-0.086	-0.201
-303.822	-200.000	0.025	-0.132
-302.807	-107.754	-0.321	-0.070
-301.793	368.687	0.150	0.301
-300.778	-195.535	0.061	-0.000
-299.764	-3.212	-0.526	0.364
-298.749	123.433	0.128	-0.159
-297.735	-200.000	-0.046	0.262
-296.720	-148.739	0.510	0.041
-295.705	180.457	-0.178	0.259
-294.691	-72.082	-0.407	-0.150
-293.676	-137.475	0.213	-0.024
-292.662	-200.000	-0.002	-0.163
-291.647	-161.425	-0.221	0.011
-290.632	-200.000	-0.021	0.133
-289.618	337.838	0.193	0.372
-288.603	252.944	0.068	0.114
-287.589	-67.877	0.113	0.044
-286.574	-103.115	-0.155	-0.036
-285.559	54.447	-0.143	-0.137
-284.545	-133.708	-0.307	-0.038
-283.530	40.919	-0.035	-0.031
-282.516	312.640	-0.135	0.252
-281.501	1.597	-0.140	0.100
-280.486	411.763	-0.219	-0.462
-279.472	58.761	-0.100	0.098
-278.457	-113.525	0.297	-0.058
-277.443	56.591	-0.102	0.099
-276.428	-200.000	0.003	0.182
-275.413	68.202	0.207	-0.210
-274.399	-200.000	0.023	-0.177
-273.384	-81.491	-0.138	0.045
-272.370	-200.000	0.015	-0.152
-271.355	-200.000	0.033	-0.158
-270.340	-89.665	0.276	-0.080
-269.326	-117.114	-0.414	-0.075
-268.311	-200.000	0.047	0.270
-267.297	-181.803	-0.095	0.002
-266.282	13.679	0.079	-0.061
-265.267	800.000	-0.086	0.239
-264.253	79.655	-0.099	0.105
-263.238	-200.000	-0.052	-0.427
-262.224	800.000	0.060	-0.228
-261.209	57.167	0.161	0.156
-260.195	56.934	0.080	-0.077
-259.180	-71.063	0.078	-0.029
-258.165	-200.000	-0.018	0.225
-257.151	-166.137	-0.017	-0.001
-256.136	86.673	-0.206	0.226
-255.122	-200.000	-0.019	-0.085
-254.107	104.289	-0.060	0.070
-253.092	-118.542	-0.205	-0.036
-252.078	-115.131	0.152	0.029
-251.063	-200.000	-0.041	-0.203
-250.049	-200.000	-0.032	0.248
-249.034	-96.181	0.114	-0.030
-248.019	331.736	-0.088	-0.168
-247.005	-200.000	0.009	-0.143
-245.990	800.000	-0.074	-0.301
-244.976	-21.432	-0.167	0.101
-243.961	24.228	0.049	0.040
-242.946	-144.631	0.336	-0.031
-241.932	74.617	-0.138	0.143
-240.917	267.235	-0.136	-0.235
-239.903	-136.163	-0.187	0.022
-238.888	-66.726	-0.186	0.073
-237.873	226.656	-0.215	0.345
-236.859	-92.554	0.460	0.128
-235.844	170.081	0.086	-0.122
-234.830	-200.000	0.005	0.052
-233.815	-62.960	0.081	-0.033
-232.800	-200.000	-0.016	0.411
-231.786	193.796	0.183	-0.275
-230.771	-113.394	-0.111	-0.021
-229.757	-200.000	0.020	-0.176
-228.742	-87.195	0.321	-0.096
-227.727	239.389	0.042	-0.069
-226.713	-200.000	0.045	0.275
-225.698	-152.392	0.400	0.028
-224.684	-27.238	-0.214	0.124
-223.669	37.717	0.164	-0.145
-222.655	318.259	0.228	-0.426
-221.640	800.000	-0.017	-0.054
-220.625	241.367	0.166	0.274
-219.611	-4.722	-0.340	-0.232
-218.596	74.332	-0.121	-0.126
-217.582	-48.880	-0.128	0.061
-216.567	-107.964	-0.202	0.043
-215.552	55.923	0.024	0.023
-214.538	-20.197	-0.151	-0.092
-213.523	90.198	-0.184	0.204
-212.509	292.197	0.128	-0.231
-211.494	505.540	0.095	0.218
-210.479	-200.000	0.007	-0.142
-209.465	-200.000	-0.006	-0.195
-208.450	88.017	0.131	-0.144
-207.436	2.674	0.140	0.100
-206.421	-119.480	0.126	0.022
-205.406	52.265	0.144	-0.136
-204.392	178.102	0.167	0.240
-203.377	95.740	-0.100	-0.113
-202.363	-200.000	-0.035	-0.281
-201.348	372.559	0.117	0.236
-200.333	800.000	-0.051	0.154
-199.319	82.997	-0.046	0.050
-198.304	-72.622	0.355	-0.129
-197.290	-157.422	0.257	-0.015
-196.275	-200.000	0.007	0.040
-195.260	-89.800	-0.104	0.030
-194.246	30.343	-0.117	0.098
-193.231	377.598	-0.082	0.165
-192.217	-110.382	-0.240	-0.049
-191.202	-102.075	0.045	0.011
-190.187	117.674	0.157	0.191
-189.173	-200.000	0.001	0.146
-188.158	351.684	0.182	-0.357
-187.144	800.000	0.025	-0.095
-186.129	-200.000	0.060	-0.408
-185.114	-200.000	-0.007	-0.087
-184.100	-155.916	0.342	-0.021
-183.085	15.816	0.191	-0.148
-182.071	451.791	0.196	0.427
-181.056	-52.974	-0.139	0.063
-180.042	-124.150	-0.265	0.041
-179.027	-105.529	-0.251	0.056
-178.012	-200.000	0.019	-0.096
-176.998	122.935	-0.135	-0.166
-175.983	-105.044	0.286	0.065
-174.969	-75.137	-0.006	0.002
-173.954	-149.056	0.232	0.018
-172.939	-134.390	0.273	0.033
-171.925	-200.000	0.006	0.259
-170.910	800.000	-0.062	0.214
-169.896	127.680	-0.197	-0.247
-168.881	122.268	-0.298	0.368
-167.866	-200.000	0.001	-0.057
-166.852	800.000	0.035	0.135
-165.837	-178.541	0.171	0.004
-164.823	188.890	0.066	-0.097
-163.808	800.000	0.080	-0.251
-162.793	-200.000	0.053	0.242
-161.779	677.544	0.104	0.268
-160.764	-31.769	0.181	-0.100
-159.750	-34.577	-0.360	0.195
-158.735	-200.000	-0.037	0.164
-157.720	-82.821	-0.028	-0.009
-156.706	-200.000	0.024	-0.193
-155.691	-68.998	-0.191	0.073
-154.677	391.438	-0.054	0.111
-153.662	-200.000	0.032	0.193
-152.647	126.871	0.276	0.345
-151.633	79.886	0.241	0.256
-150.618	-125.835	0.250	0.037
-149.604	-54.555	-0.058	-0.026
-148.589	-33.289	-0.272	0.149
-147.574	22.652	-0.271	-0.219
-146.560	800.000	-0.121	-0.353
-145.545	-25.441	0.309	0.180
-144.531	-99.678	0.221	-0.055
-143.516	-123.107	0.395	0.063
-142.502	525.151	-0.042	-0.097
-141.487	-98.409	0.140	-0.035
-140.472	652.299	-0.076	-0.193
-139.458	152.972	0.116	-0.156
-138.443	535.808	0.039	-0.092
-137.429	-200.000	0.020	0.183
-136.414	73.759	0.214	-0.221
-135.399	800.000	0.101	0.378
-134.385	11.499	0.078	0.059
-133.370	-59.249	0.225	-0.096
-132.356	-117.455	-0.113	-0.020
-131.341	14.458	0.194	0.149
-130.326	717.161	-0.098	0.256
-129.312	219.155	-0.071	0.113
-128.297	-155.476	0.112	0.007
-127.283	480.428	-0.068	-0.153
-126.268	-81.349	-0.280	0.091
-125.253	800.000	-0.013	-0.037
-124.239	-16.475	-0.251	0.157
-123.224	800.000	0.047	-0.151
-122.210	22.767	-0.065	0.053
