DTS Sentinel unit serial number:	SN413079Multiplexer serial number:	ORYXHardware model number:	OX4-SRSoftware version number:	ORYX F/W v4.00 Oryx Data Collector v3.7.2.0data status	okinstallation	princeton_trtdifferential loss correction	single-endedforward channel	channel 3reverse channel	N/Adate	2019/09/17time	07:24:35forward acquisition time	60.00reverse acquisition time	0.00gamma	496.2192k internal	0.2335k external	0.2335temperature offset calibration	0.9947default loss term (dB/km)	0.3790temperature slope calibration	1.0000multiplexer offset coefficient	1.0000multiplexer slope coefficient	1.0000fibre end	0.00T internal ref (°C)	27.19T ext. ref 1 (°C)	0.12T ext. ref 2 (°C)	21.51length (m)	temperature (°C)	Stokes	anti-Stokes-747.200	-67.073	-0.352	0.140
-746.185	-38.934	0.251	0.133
-745.171	172.098	0.145	-0.210
-744.156	160.039	-0.105	-0.148
-743.142	-168.870	-0.133	0.005
-742.127	-60.805	0.130	-0.055
-741.112	-160.601	-0.590	0.032
-740.098	115.367	0.201	0.247
-739.083	-46.408	-0.272	-0.134
-738.069	-200.000	0.073	0.504
-737.054	-110.700	0.343	0.071
-736.039	208.247	-0.113	0.178
-735.025	-126.567	0.345	-0.051
-734.010	50.160	-0.340	-0.323
-732.996	358.880	-0.098	-0.196
-731.981	329.679	-0.172	-0.332
-730.966	-168.879	0.228	0.009
-729.952	-200.000	0.026	-0.283
-728.937	210.357	-0.214	-0.337
-727.923	44.156	-0.064	-0.059
-726.908	391.418	-0.085	0.176
-725.894	-98.618	-0.047	-0.012
-724.879	-102.930	-0.248	0.059
-723.864	-95.692	-0.188	-0.050
-722.850	-200.000	0.013	-0.074
-721.835	35.470	-0.154	-0.136
-720.821	31.330	-0.257	0.222
-719.806	800.000	0.054	0.151
-718.791	-175.138	0.117	-0.003
-717.777	-200.000	0.048	-0.261
-716.762	534.010	-0.057	-0.136
-715.748	74.545	0.198	-0.209
-714.733	199.201	0.206	0.317
-713.718	800.000	0.014	-0.044
-712.704	129.000	-0.159	-0.204
-711.689	205.037	0.130	0.203
-710.675	-45.341	0.102	-0.051
-709.660	-200.000	-0.007	-0.120
-708.645	219.849	-0.117	0.188
-707.631	14.155	-0.246	-0.192
-706.616	-56.804	0.258	0.114
-705.602	305.971	-0.175	-0.326
-704.587	-83.360	-0.121	0.039
-703.572	50.251	0.136	0.129
-702.558	-200.000	0.020	0.226
-701.543	-5.343	0.185	0.128
-700.529	202.946	0.094	-0.145
-699.514	38.498	0.083	0.074
-698.499	150.224	-0.174	-0.237
-697.485	499.575	-0.022	-0.051
-696.470	-65.964	-0.171	-0.069
-695.456	-141.739	0.289	-0.029
-694.441	221.965	-0.165	0.266
-693.426	-87.366	0.152	0.046
-692.412	-9.189	-0.235	0.157
-691.397	800.000	-0.092	-0.293
-690.383	271.196	-0.049	0.086
-689.368	515.127	0.046	0.107
-688.354	48.111	0.073	-0.069
-687.339	-200.000	0.005	0.341
-686.324	247.329	0.062	0.105
-685.310	-139.134	-0.159	-0.017
-684.295	-176.398	0.085	0.002
-683.281	6.632	0.187	0.139
-682.266	192.051	-0.048	0.072
-681.251	284.191	0.028	-0.051
-680.237	-200.000	0.027	-0.290
-679.222	-38.037	-0.292	-0.156
-678.208	525.795	0.063	-0.149
-677.193	-40.697	0.065	0.034
-676.178	-122.690	-0.206	0.033
-675.164	-200.000	0.032	0.159
-674.149	60.436	-0.320	-0.318
-673.135	68.615	-0.062	0.064
-672.120	-200.000	0.029	-0.381
-671.105	-77.268	0.237	0.082
-670.091	71.818	-0.375	0.391
-669.076	162.879	-0.047	-0.066
-668.062	800.000	-0.101	-0.365
-667.047	443.594	-0.055	-0.122
-666.032	-200.000	0.006	-0.272
-665.018	-86.182	-0.181	0.056
-664.003	92.680	-0.200	0.226
-662.989	76.146	0.195	-0.207
-661.974	117.655	0.137	-0.169
-660.959	-107.912	0.227	-0.049
-659.945	-143.359	-0.184	0.018
-658.930	800.000	0.048	0.211
-657.916	-37.242	0.084	-0.045
-656.901	800.000	0.059	0.185
-655.886	-103.275	-0.148	0.035
-654.872	-70.390	0.167	-0.063
-653.857	-67.590	0.188	-0.074
-652.843	14.296	-0.275	-0.214
-651.828	-200.000	-0.103	-0.496
-650.814	496.355	0.064	-0.147
-649.799	187.952	-0.137	-0.205
-648.784	-47.457	0.245	0.119
-647.770	261.171	-0.122	0.212
-646.755	-136.326	-0.045	-0.005
-645.741	236.594	-0.167	0.277
-644.726	253.957	0.084	-0.144
-643.711	469.479	0.105	-0.237
-642.697	24.391	-0.172	-0.142
-641.682	-200.000	-0.007	-0.204
-640.668	60.718	0.164	0.163
-639.653	328.246	0.024	0.046
-638.638	56.197	-0.122	-0.119
-637.624	800.000	0.059	-0.222
-636.609	36.754	0.174	0.154
-635.595	21.575	0.195	0.159
-634.580	-138.676	0.217	-0.024
-633.565	-200.000	0.023	0.209
-632.551	-20.679	-0.217	-0.133
-631.536	-21.170	0.147	-0.090
-630.522	22.968	0.119	-0.097
-629.507	270.297	0.025	-0.044
-628.492	-123.796	-0.374	-0.059
-627.478	96.551	-0.209	0.240
-626.463	248.449	-0.098	0.166
-625.449	10.515	-0.244	-0.186
-624.434	30.204	-0.062	-0.053
-623.419	-143.980	0.222	0.021
-622.405	-144.556	-0.178	-0.016
-621.390	-130.335	0.716	-0.097
-620.376	-200.000	0.039	0.207
-619.361	7.085	-0.320	-0.239
-618.346	-24.179	-0.191	0.114
-617.332	645.311	0.074	-0.190
-616.317	-200.000	0.019	-0.082
-615.303	716.241	-0.048	0.128
-614.288	800.000	0.037	-0.103
-613.273	177.248	-0.052	-0.076
-612.259	-200.000	0.031	0.166
-611.244	800.000	0.101	-0.296
-610.230	-155.805	-0.044	-0.003
-609.215	241.985	-0.025	-0.042
-608.201	119.923	0.216	0.268
-607.186	5.785	0.370	-0.273
-606.171	-17.269	0.070	-0.044
-605.157	91.293	0.176	-0.198
-604.142	171.729	-0.058	0.083
-603.128	-63.144	-0.197	0.081
-602.113	40.533	-0.275	-0.248
-601.098	156.138	0.056	-0.077
-600.084	-157.557	-0.389	0.023
-599.069	-72.404	0.049	-0.018
-598.055	-125.405	-0.182	-0.028
-597.040	606.663	-0.038	0.094
-596.025	-104.004	-0.358	-0.083
-595.011	-1.191	-0.184	0.130
-593.996	-200.000	-0.054	0.301
-592.982	800.000	-0.034	-0.106
-591.967	-25.849	-0.175	0.103
-590.952	-200.000	0.001	-0.345
-589.938	-150.599	-0.280	-0.021
-588.923	-136.709	-0.363	-0.042
-587.909	491.641	-0.145	-0.333
-586.894	-200.000	0.045	-0.445
-585.879	127.935	0.175	-0.223
-584.865	150.050	0.059	-0.081
-583.850	-29.432	0.140	0.080
-582.836	188.499	-0.040	0.059
-581.821	119.061	0.137	-0.170
-580.806	-56.603	0.183	0.081
-579.792	-31.318	-0.456	0.256
-578.777	55.099	-0.106	-0.102
-577.763	46.234	-0.074	-0.068
-576.748	329.777	0.103	0.197
-575.733	396.252	-0.107	0.222
-574.719	422.443	0.070	-0.149
-573.704	-125.664	-0.131	-0.020
-572.690	-73.331	-0.391	-0.143
-571.675	384.922	-0.045	-0.093
-570.661	800.000	0.013	-0.053
-569.646	-33.563	-0.453	-0.250
-568.631	-200.000	0.028	-0.319
-567.617	-117.691	0.090	-0.016
-566.602	-149.969	-0.128	0.010
-565.588	-142.446	-0.230	0.023
-564.573	-26.697	-0.140	-0.082
-563.558	117.913	-0.055	0.068
-562.544	684.986	-0.058	0.150
-561.529	-200.000	0.033	-0.438
-560.515	-165.176	-0.138	0.006
-559.500	132.136	-0.142	0.182
-558.485	36.649	0.099	-0.088
-557.471	-26.296	-0.150	0.088
-556.456	-72.928	-0.144	0.053
-555.442	800.000	-0.074	0.259
-554.427	88.732	-0.015	0.016
-553.412	324.128	-0.055	-0.104
-552.398	-78.019	-0.394	-0.135
-551.383	126.887	0.148	-0.187
-550.369	35.448	-0.129	0.113
-549.354	-23.400	-0.201	-0.120
-548.339	34.415	0.224	-0.195
-547.325	141.822	-0.255	-0.338
-546.310	2.333	-0.103	0.074
-545.296	210.934	0.094	-0.148
-544.281	-52.281	-0.065	0.030
-543.266	-71.314	0.446	-0.167
-542.252	-81.140	-0.119	-0.039
-541.237	-64.025	-0.212	0.086
-540.223	-29.851	-0.135	-0.077
-539.208	-200.000	-0.037	-0.245
-538.193	-200.000	-0.005	0.245
-537.179	-58.250	-0.125	-0.054
-536.164	-200.000	0.007	0.036
-535.150	-200.000	0.007	0.120
-534.135	80.941	-0.200	0.215
-533.121	-138.119	0.379	0.042
-532.106	-102.522	0.251	0.060
-531.091	152.483	-0.131	-0.179
-530.077	-33.444	-0.160	0.088
-529.062	-125.812	-0.043	0.007
-528.048	-200.000	0.022	0.149
-527.033	-23.616	0.221	0.132
-526.018	43.058	-0.139	0.126
-525.004	-200.000	-0.009	0.201
-523.989	603.669	-0.080	0.197
-522.975	135.860	0.226	-0.294
-521.960	61.539	-0.119	0.118
-520.945	53.805	0.154	0.147
-519.931	165.808	-0.183	-0.257
-518.916	-86.245	-0.153	-0.047
-517.902	431.333	0.133	0.286
-516.887	-132.259	-0.322	-0.042
-515.872	-54.099	-0.139	-0.063
-514.858	72.299	-0.094	0.097
-513.843	-3.482	0.174	-0.120
-512.829	-200.000	-0.019	0.158
-511.814	580.060	0.197	0.480
-510.799	-200.000	0.053	-0.261
-509.785	-42.687	0.182	-0.092
-508.770	89.092	0.164	0.182
-507.756	-48.668	0.126	0.061
-506.741	-65.970	0.164	0.065
-505.726	-122.442	-0.072	0.012
-504.712	-96.325	0.241	-0.063
-503.697	162.151	-0.125	-0.175
-502.683	-130.440	-0.084	-0.011
-501.668	-113.994	0.207	-0.040
-500.653	-122.448	-0.288	-0.047
-499.639	32.619	0.013	-0.011
-498.624	76.080	-0.220	-0.232
-497.610	-106.180	0.228	0.051
-496.595	120.672	0.343	-0.424
-495.581	35.449	0.119	0.104
-494.566	-200.000	0.006	0.091
-493.551	44.659	-0.262	0.240
-492.537	-182.469	0.405	-0.007
-491.522	-25.562	-0.201	-0.118
-490.508	230.687	0.141	-0.230
-489.493	-96.671	-0.419	0.110
-488.478	800.000	0.058	0.249
-487.464	-75.748	-0.151	-0.053
-486.449	-180.217	-0.128	-0.003
-485.435	17.392	-0.165	0.131
-484.420	16.018	-0.043	0.034
-483.405	-98.074	0.269	-0.069
-482.391	-200.000	0.016	-0.090
-481.376	-106.394	0.170	0.038
-480.362	464.538	0.106	0.236
-479.347	-120.106	-0.104	-0.018
-478.332	-1.916	0.140	0.098
-477.318	-106.574	-0.216	0.048
-476.303	-130.984	0.488	-0.065
-475.289	23.817	-0.146	0.119
-474.274	-107.374	0.376	0.082
-473.259	-83.333	0.414	-0.132
-472.245	-61.135	-0.220	0.092
-471.230	60.321	-0.111	0.109
-470.216	58.356	0.255	0.248
-469.201	-163.161	0.139	0.007
-468.186	569.442	-0.108	-0.262
-467.172	-125.418	0.135	0.020
-466.157	-173.257	0.098	-0.003
-465.143	-200.000	0.029	0.141
-464.128	-74.398	0.209	-0.075
-463.113	135.446	-0.265	0.342
-462.099	82.024	0.249	0.268
-461.084	218.130	0.141	-0.224
-460.070	65.496	-0.096	-0.097
-459.055	-99.040	0.079	0.020
-458.040	-48.192	-0.296	-0.142
-457.026	-189.986	-0.079	0.001
-456.011	689.602	0.047	0.123
-454.997	-200.000	0.070	0.449
-453.982	-200.000	-0.016	0.090
-452.968	-200.000	-0.003	0.039
-451.953	10.856	-0.227	-0.172
-450.938	-37.174	0.113	0.060
-449.924	-115.975	-0.255	-0.047
-448.909	-66.120	0.121	0.048
-447.895	-145.111	0.391	0.035
-446.880	-104.576	-0.382	-0.088
-445.865	-200.000	-0.064	-0.330
-444.851	321.471	-0.177	-0.334
-443.836	181.120	0.084	0.122
-442.822	34.739	-0.109	0.095
-441.807	134.058	0.102	0.131
-440.792	-59.901	-0.238	-0.101
-439.778	324.166	-0.052	-0.098
-438.763	-52.732	0.047	-0.022
-437.749	-63.645	0.201	-0.082
-436.734	-74.871	0.141	0.050
-435.719	39.700	-0.210	-0.187
-434.705	492.286	-0.046	0.104
-433.690	585.987	-0.048	0.118
-432.676	-25.673	-0.372	0.218
-431.661	30.922	-0.191	-0.162
-430.646	-200.000	-0.003	-0.033
-429.632	24.335	-0.072	-0.059
-428.617	571.335	-0.089	-0.214
-427.603	800.000	-0.039	-0.160
-426.588	-120.847	-0.152	0.025
-425.573	-200.000	0.012	-0.140
-424.559	10.904	-0.069	-0.052
-423.544	-105.344	0.040	0.009
-422.530	94.128	-0.103	0.116
-421.515	314.226	0.247	-0.461
-420.500	198.142	0.185	-0.280
-419.486	800.000	-0.072	-0.198
-418.471	31.170	0.144	-0.123
-417.457	-6.426	0.078	-0.053
-416.442	196.421	-0.146	0.220
-415.428	-27.826	0.114	0.065
-414.413	800.000	-0.039	0.123
-413.398	189.141	-0.050	-0.074
-412.384	-121.605	-0.408	0.067
-411.369	-161.559	0.262	0.013
-410.355	-47.859	0.142	-0.068
-409.340	94.547	0.126	0.142
-408.325	-180.125	-0.382	-0.008
-407.311	-200.000	0.068	-0.326
-406.296	184.406	-0.020	-0.029
-405.282	346.936	-0.057	-0.111
-404.267	134.783	-0.213	0.274
-403.252	-200.000	-0.030	0.325
-402.238	711.439	0.088	0.232
-401.223	325.796	0.138	0.262
-400.209	800.000	-0.018	-0.062
-399.194	75.859	0.198	0.207
-398.179	11.903	0.240	-0.183
-397.165	-104.829	0.249	0.057
-396.150	158.033	-0.187	-0.257
-395.136	-200.000	0.024	0.172
-394.121	436.616	0.142	-0.307
-393.106	-47.506	-0.174	-0.084
-392.092	53.236	0.343	0.326
-391.077	-200.000	-0.014	-0.064
-390.063	-33.748	0.177	0.097
-389.048	50.033	0.276	-0.259
-388.033	800.000	-0.074	-0.263
-387.019	117.702	0.159	-0.194
-386.004	-84.913	-0.089	-0.028
-384.990	163.533	0.074	0.102
-383.975	-143.692	0.109	0.010
-382.960	-137.401	-0.178	-0.020
-381.946	-200.000	-0.008	0.109
-380.931	369.062	0.109	0.219
-379.917	-200.000	-0.004	-0.350
-378.902	113.370	-0.078	-0.093
-377.888	212.236	0.058	-0.091
-376.873	-170.683	-0.381	0.013
-375.858	92.212	0.147	-0.164
-374.844	94.504	0.088	-0.099
-373.829	-136.606	0.201	-0.023
-372.815	74.106	0.162	0.168
-371.800	142.610	-0.254	0.334
-370.785	-8.126	-0.136	0.090
-369.771	-131.298	0.226	-0.030
-368.756	-8.324	-0.260	-0.173
-367.742	-101.554	0.303	0.073
-366.727	16.673	0.359	0.281
-365.712	-131.634	0.157	0.020
-364.698	-200.000	-0.058	-0.356
-363.683	-200.000	-0.002	-0.083
-362.669	-93.250	0.178	0.049
-361.654	800.000	0.119	-0.340
-360.639	-89.744	-0.174	0.051
-359.625	-200.000	-0.022	0.155
-358.610	394.232	-0.087	0.180
-357.596	-39.798	0.052	0.027
-356.581	26.592	0.271	-0.225
-355.566	99.529	0.021	-0.024
-354.552	-62.129	0.154	0.064
-353.537	397.971	0.075	-0.154
-352.523	-110.323	0.162	0.033
-351.508	368.265	0.093	0.187
-350.493	15.891	-0.208	0.162
-349.479	350.531	-0.182	0.357
-348.464	30.226	0.155	-0.131
-347.450	-200.000	-0.007	0.378
-346.435	800.000	0.099	0.408
-345.420	85.660	0.068	0.074
-344.406	-200.000	0.011	0.273
-343.391	-68.015	0.292	-0.113
-342.377	88.586	-0.164	-0.180
-341.362	-56.428	0.232	0.102
-340.348	52.925	-0.246	-0.233
-339.333	-47.012	0.243	-0.117
-338.318	-40.048	0.337	0.174
-337.304	-41.717	0.268	0.136
-336.289	-200.000	-0.011	-0.236
-335.275	-19.091	0.256	-0.157
-334.260	-200.000	-0.007	0.261
-333.245	363.576	-0.087	0.173
-332.231	-125.807	-0.200	-0.030
-331.216	-123.096	-0.248	-0.039
-330.202	132.047	-0.050	-0.063
-329.187	55.438	-0.128	-0.122
-328.172	800.000	-0.043	0.183
-327.158	-41.675	-0.122	0.062
-326.143	371.217	0.064	0.129
-325.129	800.000	0.096	-0.334
-324.114	227.745	0.101	0.162
-323.099	-131.178	0.245	0.032
-322.085	56.908	-0.081	-0.078
-321.070	35.009	-0.228	-0.198
-320.056	-200.000	-0.054	-0.248
-319.041	177.723	0.147	0.212
-318.026	-107.981	0.169	-0.036
-317.012	255.904	0.293	0.496
-315.997	-200.000	-0.003	0.321
-314.983	800.000	-0.010	-0.034
-313.968	-172.680	0.168	-0.005
-312.953	-109.839	-0.232	-0.048
-311.939	272.409	0.010	0.017
-310.924	390.707	0.167	-0.342
-309.910	186.209	-0.139	-0.204
-308.895	800.000	0.112	0.363
-307.880	4.857	-0.336	0.244
-306.866	-200.000	0.036	0.205
-305.851	-47.677	-0.308	0.147
-304.837	91.784	-0.295	0.327
-303.822	142.563	0.116	0.152
-302.807	-118.197	-0.284	-0.050
-301.793	-145.401	0.115	-0.010
-300.778	150.557	-0.136	-0.182
-299.764	127.904	-0.065	0.081
-298.749	-200.000	-0.038	-0.202
-297.735	351.335	-0.158	-0.310
-296.720	-18.168	0.094	0.058
-295.705	-200.000	-0.006	0.116
-294.691	800.000	-0.026	0.074
-293.676	-200.000	-0.023	-0.205
-292.662	110.849	0.179	0.213
-291.647	-68.193	0.357	-0.137
-290.632	800.000	-0.051	0.155
-289.618	-200.000	-0.081	0.455
-288.603	88.993	0.116	0.127
-287.589	25.428	0.394	-0.323
-286.574	800.000	-0.083	-0.333
-285.559	-86.854	-0.157	0.047
-284.545	730.513	0.062	0.163
-283.530	56.779	0.186	0.179
-282.516	73.404	-0.157	0.162
-281.501	-200.000	-0.025	-0.176
-280.486	139.569	-0.051	-0.067
-279.472	-200.000	-0.017	0.134
-278.457	52.098	0.104	0.098
-277.443	-149.883	-0.188	0.015
-276.428	-82.495	-0.174	-0.056
-275.413	-67.987	0.271	0.104
-274.399	283.245	0.036	-0.063
-273.384	-200.000	-0.014	-0.082
-272.370	-26.873	-0.171	-0.098
-271.355	315.900	0.089	0.165
-270.340	53.058	0.202	0.191
-269.326	800.000	0.073	-0.245
-268.311	113.885	0.204	-0.245
-267.297	117.246	-0.117	-0.142
-266.282	-200.000	-0.014	0.223
-265.267	800.000	0.092	0.320
-264.253	22.009	0.396	-0.318
-263.238	-68.189	-0.243	-0.093
-262.224	-125.996	-0.231	-0.034
-261.209	183.520	-0.109	-0.160
-260.195	-200.000	-0.000	0.061
-259.180	-132.223	-0.210	-0.027
-258.165	87.751	-0.239	0.261
-257.151	52.959	-0.108	0.102
-256.136	618.027	0.094	-0.233
-255.122	213.485	-0.073	-0.114
-254.107	-109.329	-0.210	-0.044
-253.092	616.835	-0.075	-0.185
-252.078	-200.000	0.013	0.082
-251.063	0.801	0.084	0.059
-250.049	-135.893	0.269	-0.031
-249.034	-36.085	-0.253	-0.135
-248.019	-4.898	-0.161	0.109
-247.005	800.000	0.102	0.278
-245.990	-26.604	0.162	-0.093
-244.976	139.203	0.039	-0.050
-243.961	635.175	0.111	0.277
-242.946	54.547	-0.095	-0.090
-241.932	-22.448	0.199	-0.119
-240.917	-71.278	0.262	-0.097
-239.903	34.658	-0.202	0.174
-238.888	-200.000	0.010	0.137
-237.873	-200.000	-0.028	-0.384
-236.859	-156.377	-0.371	-0.023
-235.844	356.302	-0.068	-0.133
-234.830	135.695	0.006	-0.008
-233.815	-200.000	0.012	0.059
-232.800	15.135	-0.085	0.066
-231.786	-23.871	0.219	0.129
-230.771	-13.474	-0.213	0.136
-229.757	800.000	0.062	-0.211
-228.742	121.699	-0.029	-0.035
-227.727	800.000	-0.097	-0.317
-226.713	-78.920	-0.224	-0.075
-225.698	588.393	0.092	0.223
-224.684	80.165	0.251	0.266
-223.669	112.289	-0.148	-0.177
-222.655	302.612	0.041	-0.075
-221.640	800.000	0.048	-0.187
-220.625	-59.487	-0.375	-0.159
-219.611	195.731	0.288	-0.432
-218.596	-135.260	0.324	0.038
-217.582	476.526	0.076	0.169
-216.567	509.459	-0.138	-0.317
-215.552	-200.000	-0.028	0.150
-214.538	-98.515	0.140	0.035
-213.523	38.758	-0.105	0.093
-212.509	351.339	-0.084	-0.164
-211.494	-200.000	0.007	0.296
-210.479	-3.270	0.268	0.183
-209.465	93.204	0.168	-0.187
-208.450	800.000	-0.078	0.321
-207.436	-74.482	0.284	0.101
-206.421	54.847	-0.089	0.085
-205.406	40.652	0.199	-0.176
-204.392	44.631	-0.174	-0.158
-203.377	107.053	-0.237	0.277
-202.363	0.998	0.142	0.100
-201.348	66.844	0.110	-0.110
-200.333	-200.000	0.027	0.283
-199.319	30.031	-0.061	-0.051
-198.304	604.662	0.048	0.118
-197.290	-200.000	0.011	0.123
-196.275	-200.000	-0.006	-0.205
-195.260	800.000	0.021	0.084
-194.246	41.050	-0.125	0.111
-193.231	250.200	-0.058	-0.097
-192.217	88.680	0.205	0.224
-191.202	-92.008	0.085	-0.024
-190.187	-123.553	0.287	0.045
-189.173	132.793	-0.145	0.184
-188.158	14.921	0.187	0.144
-187.144	16.549	-0.194	-0.150
-186.129	158.496	0.060	-0.082
-185.114	-85.168	-0.059	-0.018
-184.100	42.835	0.310	-0.278
-183.085	-200.000	0.022	-0.264
-182.071	-86.134	0.199	0.060
-181.056	-200.000	-0.005	-0.053
-180.042	-200.000	0.042	0.254
-179.027	243.701	-0.186	0.307
-178.012	256.233	0.238	0.402
-176.998	-96.629	-0.136	-0.035
-175.983	-83.042	0.085	-0.027
-174.969	239.808	0.240	-0.392
-173.954	-136.733	-0.242	0.027
-172.939	-115.347	0.385	0.071
-171.925	-200.000	-0.043	0.251
-170.910	-12.540	-0.039	-0.025
-169.896	-200.000	-0.014	0.152
-168.881	160.170	-0.071	-0.098
-167.866	-100.672	-0.075	0.018
-166.852	800.000	-0.115	0.411
-165.837	295.524	-0.095	0.172
-164.823	-124.811	0.192	-0.029
-163.808	-23.077	0.203	0.120
-162.793	-67.405	-0.198	0.077
-161.779	800.000	-0.148	-0.437
-160.764	800.000	-0.046	-0.132
-159.750	-72.100	0.371	-0.135
-158.735	-200.000	0.019	-0.151
-157.720	14.589	-0.298	0.229
-156.706	-144.077	-0.050	-0.005
-155.691	-200.000	0.023	0.133
-154.677	368.519	0.111	0.221
-153.662	800.000	-0.102	-0.279
-152.647	197.472	-0.022	-0.033
-151.633	343.492	-0.030	0.058
-150.618	187.253	-0.125	0.183
-149.604	-91.891	-0.043	0.012
-148.589	139.491	-0.161	0.208
-147.574	24.688	-0.145	-0.118
-146.560	-106.218	-0.300	0.066
-145.545	-24.012	0.351	0.206
-144.531	38.699	0.137	0.120
-143.516	-145.645	-0.309	-0.027
-142.502	800.000	-0.070	-0.244
-141.487	-200.000	-0.002	0.062
-140.472	-39.156	-0.022	0.012
-139.458	140.024	-0.199	0.258
-138.443	347.442	0.130	-0.251
-137.429	-134.348	0.264	-0.032
-136.414	-200.000	0.048	0.256
-135.399	-200.000	-0.002	-0.199
-134.385	25.387	-0.145	-0.118
-133.370	-200.000	-0.014	-0.107
-132.356	-28.321	0.160	0.090
-131.341	-200.000	-0.010	-0.290
-130.326	-20.751	-0.165	0.099
-129.312	276.325	0.075	0.131
-128.297	305.348	-0.040	0.072
-127.283	82.999	-0.006	-0.007
-126.268	260.045	0.026	-0.044
-125.253	-85.046	0.404	0.124
-124.239	68.504	0.057	-0.057
-123.224	294.477	0.121	-0.216
-122.210	273.861	0.107	0.186
-121.195	800.000	0.041	0.141
