DTS Sentinel unit serial number:	SN413079Multiplexer serial number:	ORYXHardware model number:	OX4-SRSoftware version number:	ORYX F/W v4.00 Oryx Data Collector v3.7.2.0data status	okinstallation	princeton_trtdifferential loss correction	single-endedforward channel	channel 3reverse channel	N/Adate	2019/09/14time	04:52:35forward acquisition time	60.00reverse acquisition time	0.00gamma	496.2192k internal	0.2338k external	0.2338temperature offset calibration	1.0053default loss term (dB/km)	0.3790temperature slope calibration	1.0000multiplexer offset coefficient	1.0000multiplexer slope coefficient	1.0000fibre end	0.00T internal ref (°C)	26.87T ext. ref 1 (°C)	3.35T ext. ref 2 (°C)	21.99length (m)	temperature (°C)	Stokes	anti-Stokes-747.200	-57.151	-0.072	0.032
-746.185	800.000	-0.096	0.301
-745.171	-108.416	0.430	-0.093
-744.156	626.247	-0.179	0.454
-743.142	258.240	-0.093	-0.161
-742.127	-168.684	-0.208	-0.008
-741.112	-200.000	0.025	-0.150
-740.098	-114.534	-0.330	-0.064
-739.083	-200.000	0.016	0.648
-738.069	-37.610	-0.390	0.209
-737.054	94.339	0.126	-0.143
-736.039	-200.000	0.017	-0.294
-735.025	-200.000	-0.001	0.118
-734.010	800.000	0.046	-0.190
-732.996	48.799	-0.092	-0.086
-731.981	113.785	-0.105	-0.128
-730.966	-118.013	-0.362	-0.065
-729.952	145.204	-0.179	-0.240
-728.937	-200.000	0.080	-0.467
-727.923	-94.008	0.388	-0.107
-726.908	-73.790	-0.189	-0.069
-725.894	-6.682	0.119	-0.081
-724.879	250.100	-0.106	-0.180
-723.864	-87.603	0.105	-0.032
-722.850	-111.083	-0.213	-0.044
-721.835	-104.603	-0.390	-0.090
-720.821	-200.000	-0.001	0.176
-719.806	6.782	0.111	0.083
-718.791	800.000	0.035	-0.106
-717.777	72.681	0.084	-0.087
-716.762	-200.000	-0.003	-0.294
-715.748	800.000	0.022	-0.068
-714.733	-200.000	-0.081	-0.405
-713.718	118.573	0.125	-0.155
-712.704	-14.050	-0.214	0.139
-711.689	-78.995	-0.125	-0.042
-710.675	-59.566	0.143	0.062
-709.660	-200.000	0.037	-0.195
-708.645	243.390	-0.295	-0.495
-707.631	-33.229	-0.160	-0.089
-706.616	113.663	-0.157	-0.191
-705.602	335.170	0.175	-0.340
-704.587	-200.000	0.002	0.160
-703.572	-47.056	-0.103	0.050
-702.558	-106.558	0.057	-0.013
-701.543	-200.000	-0.009	0.094
-700.529	-190.404	-0.255	0.003
-699.514	-200.000	0.055	-0.370
-698.499	-69.974	0.228	0.087
-697.485	24.252	0.058	-0.048
-696.470	74.267	-0.135	-0.142
-695.456	15.170	-0.142	-0.111
-694.441	53.278	-0.203	0.194
-693.426	800.000	-0.040	0.112
-692.412	372.656	0.092	-0.187
-691.397	-23.006	-0.150	-0.091
-690.383	-200.000	-0.048	-0.233
-689.368	73.379	0.029	0.031
-688.354	-42.952	0.228	0.116
-687.339	399.149	-0.088	-0.185
-686.324	-5.625	0.175	-0.120
-685.310	-118.569	-0.187	0.033
-684.295	-72.592	-0.150	0.055
-683.281	677.350	0.050	-0.130
-682.266	800.000	-0.061	0.168
-681.251	434.742	0.057	-0.124
-680.237	240.119	0.054	-0.090
-679.222	24.791	0.146	0.121
-678.208	-132.079	0.205	0.027
-677.193	69.540	-0.255	0.263
-676.178	-99.759	-0.175	0.044
-675.164	-3.703	-0.229	0.159
-674.149	-86.216	-0.264	-0.081
-673.135	168.830	0.250	-0.356
-672.120	-185.567	0.066	0.001
-671.105	140.631	-0.135	-0.179
-670.091	527.563	0.113	-0.266
-669.076	-85.077	-0.204	0.064
-668.062	93.564	-0.323	-0.366
-667.047	185.753	0.070	0.104
-666.032	-102.715	0.347	0.083
-665.018	44.278	0.068	0.063
-664.003	7.056	-0.049	-0.037
-662.989	-57.590	0.174	-0.076
-661.974	800.000	0.079	0.251
-660.959	-4.447	0.196	-0.136
-659.945	-114.882	-0.371	-0.071
-658.930	-20.786	0.143	0.087
-657.916	-36.783	-0.033	-0.018
-656.901	-186.832	-0.273	0.004
-655.886	-25.775	-0.309	-0.182
-654.872	-82.158	-0.190	-0.062
-653.857	766.270	0.125	-0.340
-652.843	290.748	0.180	-0.327
-651.828	78.256	0.189	-0.202
-650.814	-200.000	-0.025	-0.142
-649.799	-99.347	0.083	0.021
-648.784	-39.267	-0.062	-0.033
-647.770	-200.000	0.030	-0.213
-646.755	-80.574	-0.237	0.079
-645.741	384.987	0.063	-0.129
-644.726	800.000	-0.008	0.033
-643.711	324.319	-0.100	-0.190
-642.697	-114.335	0.539	0.104
-641.682	137.872	-0.047	0.062
-640.668	-13.565	0.151	-0.098
-639.653	-200.000	-0.011	0.327
-638.638	-39.709	0.187	-0.098
-637.624	130.026	-0.088	-0.113
-636.609	-109.245	0.160	-0.034
-635.595	51.377	0.012	-0.011
-634.580	9.439	-0.281	-0.213
-633.565	418.214	-0.033	-0.072
-632.551	50.527	-0.101	-0.096
-631.536	-200.000	-0.006	-0.327
-630.522	-102.746	0.326	0.078
-629.507	-200.000	0.032	0.374
-628.492	25.175	-0.177	0.146
-627.478	-51.725	0.232	-0.108
-626.463	252.927	-0.142	-0.243
-625.449	63.831	-0.351	0.352
-624.434	-105.983	-0.345	0.078
-623.419	-123.915	0.283	-0.045
-622.405	618.465	0.018	-0.045
-621.390	800.000	-0.102	0.379
-620.376	178.360	-0.052	0.076
-619.361	-23.904	-0.244	0.146
-618.346	83.835	0.134	0.146
-617.332	-77.350	0.276	-0.096
-616.317	189.945	0.017	-0.025
-615.303	-131.310	0.177	0.023
-614.288	53.473	0.030	0.029
-613.273	-9.646	-0.236	-0.157
-612.259	146.877	-0.209	-0.280
-611.244	30.134	-0.263	-0.224
-610.230	-31.270	-0.152	0.086
-609.215	1.770	0.154	-0.111
-608.201	11.713	-0.244	0.187
-607.186	-64.842	0.134	-0.054
-606.171	106.307	0.142	-0.168
-605.157	151.961	-0.048	0.066
-604.142	38.150	0.224	0.199
-603.128	-136.121	-0.267	0.031
-602.113	-84.425	-0.239	-0.076
-601.098	800.000	-0.069	-0.222
-600.084	323.992	0.113	-0.214
-599.069	-78.635	0.318	-0.108
-598.055	-142.538	-0.196	-0.019
-597.040	-95.051	0.081	-0.022
-596.025	-129.478	-0.496	-0.069
-595.011	-200.000	-0.035	0.240
-593.996	-170.057	-0.212	0.008
-592.982	128.301	0.063	0.080
-591.967	264.998	-0.153	0.266
-590.952	-54.838	0.134	0.060
-589.938	-63.712	-0.298	0.122
-588.923	34.799	-0.083	-0.073
-587.909	4.616	0.080	0.058
-586.894	88.320	-0.123	-0.137
-585.879	4.439	-0.050	0.037
-584.865	800.000	0.087	-0.263
-583.850	538.203	0.081	-0.191
-582.836	446.132	0.027	-0.059
-581.821	800.000	-0.064	-0.225
-580.806	670.151	-0.054	-0.139
-579.792	-82.196	0.225	0.073
-578.777	-200.000	0.073	0.382
-577.763	288.636	-0.084	0.152
-576.748	78.108	-0.225	-0.239
-575.733	-200.000	0.015	-0.162
-574.719	800.000	0.058	0.186
-573.704	284.582	-0.217	-0.389
-572.690	-185.572	-0.277	-0.004
-571.675	-134.494	0.144	-0.018
-570.661	-173.003	-0.150	-0.005
-569.646	-164.858	0.273	-0.012
-568.631	12.481	-0.123	-0.094
-567.617	-31.161	-0.183	0.103
-566.602	1.743	0.343	0.246
-565.588	-58.246	-0.136	0.059
-564.573	156.654	0.215	0.296
-563.558	-200.000	0.051	0.395
-562.544	800.000	-0.051	0.213
-561.529	31.278	-0.186	0.159
-560.515	-200.000	-0.197	0.000
-559.500	42.010	-0.312	-0.282
-558.485	-20.388	-0.080	-0.049
-557.471	-83.464	0.073	0.023
-556.456	-200.000	0.053	-0.320
-555.442	-15.792	0.350	-0.222
-554.427	-89.221	-0.159	0.047
-553.412	286.918	0.190	0.342
-552.398	-186.128	-0.211	0.003
-551.383	501.623	-0.013	0.030
-550.369	43.795	-0.133	0.121
-549.354	-1.240	0.090	-0.063
-548.339	-58.091	-0.252	0.109
-547.325	-200.000	-0.064	-0.339
-546.310	-110.890	-0.239	0.049
-545.296	3.895	-0.251	0.183
-544.281	109.457	0.062	-0.073
-543.266	-120.447	0.125	0.021
-542.252	-100.154	0.284	0.070
-541.237	-20.840	-0.098	-0.060
-540.223	-200.000	0.041	0.223
-539.208	341.882	0.093	-0.181
-538.193	231.447	-0.071	-0.115
-537.179	-127.694	-0.308	-0.044
-536.164	-106.127	0.104	0.023
-535.150	33.653	-0.041	0.035
-534.135	-200.000	-0.063	-0.367
-533.121	169.298	-0.225	-0.320
-532.106	557.410	0.079	-0.190
-531.091	147.383	0.086	-0.116
-530.077	315.086	0.039	0.073
-529.062	111.340	0.241	-0.290
-528.048	-20.328	0.415	0.254
-527.033	-200.000	-0.004	0.236
-526.018	-200.000	-0.036	-0.337
-525.004	44.311	-0.189	-0.173
-523.989	-74.018	-0.172	0.062
-522.975	-200.000	0.036	0.544
-521.960	130.736	-0.185	-0.236
-520.945	-200.000	0.052	0.319
-519.931	46.997	-0.242	0.224
-518.916	-200.000	0.018	-0.108
-517.902	-200.000	0.034	-0.215
-516.887	-110.324	-0.308	-0.064
-515.872	-63.704	-0.325	-0.132
-514.858	-30.427	-0.078	0.044
-513.843	800.000	0.091	0.326
-512.829	207.728	-0.084	-0.130
-511.814	800.000	0.085	-0.242
-510.799	800.000	0.025	-0.087
-509.785	-80.094	0.097	0.032
-508.770	455.347	0.119	-0.263
-507.756	-94.043	0.499	-0.136
-506.741	125.276	-0.023	0.029
-505.726	-33.653	-0.231	-0.127
-504.712	39.268	-0.050	0.044
-503.697	-200.000	0.026	-0.150
-502.683	-20.818	0.039	-0.024
-501.668	240.304	-0.094	-0.155
-500.653	531.615	0.140	0.329
-499.639	-63.528	0.182	-0.074
-498.624	-60.564	0.378	0.160
-497.610	-28.291	-0.237	0.136
-496.595	291.111	0.216	-0.390
-495.581	-200.000	-0.053	0.239
-494.566	24.358	-0.090	0.074
-493.551	-126.798	-0.187	-0.027
-492.537	-3.693	-0.110	0.076
-491.522	800.000	0.083	-0.263
-490.508	136.023	-0.164	0.212
-489.493	-1.079	0.177	0.124
-488.478	6.767	0.294	0.217
-487.464	-200.000	-0.057	-0.442
-486.449	-200.000	-0.030	0.320
-485.435	-55.848	-0.132	0.059
-484.420	75.072	0.128	0.134
-483.405	-33.002	-0.308	0.170
-482.391	604.698	0.124	0.307
-481.376	-22.134	-0.121	0.073
-480.362	42.568	0.295	-0.266
-479.347	-7.935	-0.323	-0.217
-478.332	800.000	0.045	-0.125
-477.318	-200.000	0.050	0.267
-476.303	-200.000	0.062	-0.337
-475.289	-200.000	-0.029	0.321
-474.274	-57.103	0.400	0.175
-473.259	88.910	0.205	-0.226
-472.245	-51.350	-0.057	-0.026
-471.230	202.768	-0.223	-0.342
-470.216	-66.819	-0.052	0.020
-469.201	-71.136	0.343	-0.128
-468.186	85.654	0.098	-0.107
-467.172	-58.125	-0.169	-0.073
-466.157	-81.064	-0.101	-0.033
-465.143	800.000	-0.079	0.250
-464.128	-64.744	0.503	0.202
-463.113	-87.822	-0.138	-0.041
-462.099	-31.229	-0.203	0.113
-461.084	-200.000	0.030	0.163
-460.070	572.320	0.137	0.330
-459.055	-1.698	0.237	0.166
-458.040	-200.000	-0.015	-0.243
-457.026	-44.373	-0.347	0.172
-456.011	101.260	-0.093	0.107
-454.997	-37.188	0.330	-0.175
-453.982	800.000	-0.032	0.108
-452.968	-200.000	0.051	0.298
-451.953	-200.000	0.000	-0.050
-450.938	-19.528	-0.420	0.258
-449.924	-200.000	0.065	0.348
-448.909	-200.000	0.016	0.232
-447.895	204.417	-0.173	0.267
-446.880	279.697	-0.058	0.103
-445.865	108.931	0.087	0.103
-444.851	-122.683	-0.083	0.013
-443.836	-59.602	-0.187	0.080
-442.822	134.681	0.133	0.172
-441.807	493.862	-0.031	0.071
-440.792	216.166	0.209	0.330
-439.778	-200.000	-0.028	-0.313
-438.763	72.552	0.256	-0.265
-437.749	267.449	0.060	0.105
-436.734	16.735	-0.322	0.252
-435.719	152.733	-0.165	-0.223
-434.705	219.832	-0.133	-0.211
-433.690	800.000	-0.073	0.252
-432.676	52.301	-0.251	0.237
-431.661	-55.208	-0.062	-0.027
-430.646	130.142	0.173	0.219
-429.632	447.010	-0.057	0.124
-428.617	-21.961	0.230	-0.138
-427.603	148.775	0.151	-0.202
-426.588	800.000	0.060	-0.208
-425.573	-46.156	0.085	-0.041
-424.559	29.547	-0.151	-0.127
-423.544	193.026	-0.156	0.233
-422.530	-44.432	-0.302	-0.150
-421.515	-52.231	-0.187	0.086
-420.500	-47.355	-0.335	-0.162
-419.486	348.004	-0.116	0.226
-418.471	231.902	-0.161	0.262
-417.457	-111.898	-0.392	0.078
-416.442	-166.629	-0.226	0.009
-415.428	104.167	0.033	0.038
-414.413	-200.000	0.013	-0.225
-413.398	800.000	-0.070	-0.208
-412.384	205.757	-0.047	-0.072
-411.369	-200.000	-0.017	0.172
-410.355	142.615	0.220	-0.289
-409.340	-26.519	0.111	-0.064
-408.325	800.000	0.083	-0.236
-407.311	528.365	0.102	-0.238
-406.296	-133.796	0.539	-0.066
-405.282	-122.327	-0.459	0.074
-404.267	56.264	0.248	0.239
-403.252	-200.000	0.060	0.474
-402.238	-17.757	0.179	-0.111
-401.223	-200.000	-0.212	-0.001
-400.209	-41.151	-0.065	-0.033
-399.194	6.871	0.300	-0.221
-398.179	114.728	-0.177	-0.213
-397.165	800.000	0.066	-0.221
-396.150	-200.000	0.017	-0.226
-395.136	-16.966	0.021	0.013
-394.121	179.405	-0.122	0.176
-393.106	-77.077	0.231	-0.080
-392.092	120.928	0.180	0.222
-391.077	-10.186	0.092	-0.061
-390.063	-70.162	-0.140	-0.053
-389.048	129.367	0.147	-0.186
-388.033	-59.183	-0.089	-0.038
-387.019	800.000	0.076	0.294
-386.004	-69.924	0.229	-0.086
-384.990	239.386	0.073	0.119
-383.975	-63.761	0.146	0.059
-382.960	-200.000	-0.043	0.283
-381.946	-200.000	-0.042	0.322
-380.931	224.416	-0.104	0.167
-379.917	-188.397	0.098	-0.001
-378.902	-200.000	-0.030	0.141
-377.888	-200.000	-0.011	-0.127
-376.873	259.393	-0.028	0.047
-375.858	800.000	0.109	0.409
-374.844	800.000	0.086	0.240
-373.829	26.844	-0.165	0.137
-372.815	-200.000	-0.023	0.253
-371.800	143.217	-0.131	0.172
-370.785	-103.756	-0.246	-0.057
-369.771	140.457	-0.136	-0.177
-368.756	-121.968	0.130	0.021
-367.742	493.157	0.065	-0.148
-366.727	132.040	0.161	-0.205
-365.712	-200.000	-0.016	-0.166
-364.698	-69.083	0.190	-0.072
-363.683	-53.423	-0.074	0.034
-362.669	800.000	0.048	0.143
-361.654	-79.075	-0.161	0.054
-360.639	236.391	-0.057	-0.093
-359.625	59.387	-0.194	0.189
-358.610	-1.149	0.407	0.285
-357.596	-100.739	-0.045	-0.011
-356.581	-6.001	-0.063	0.042
-355.566	800.000	-0.089	-0.251
-354.552	48.561	-0.049	-0.045
-353.537	508.227	-0.077	0.177
-352.523	307.579	-0.226	0.416
-351.508	390.609	0.175	0.358
-350.493	295.039	-0.234	0.423
-349.479	65.869	0.162	-0.162
-348.464	31.882	0.051	0.044
-347.450	182.776	-0.093	0.136
-346.435	-98.462	-0.165	-0.042
-345.420	800.000	0.042	-0.147
-344.406	-42.835	0.271	-0.136
-343.391	-19.038	0.281	-0.173
-342.377	-156.816	-0.197	0.012
-341.362	-55.410	0.381	-0.169
-340.348	-141.441	-0.072	-0.007
-339.333	83.609	0.063	0.067
-338.318	-92.750	-0.132	0.036
-337.304	-200.000	-0.034	0.331
-336.289	19.323	0.148	-0.118
-335.275	-185.579	-0.146	0.002
-334.260	-158.042	0.205	-0.012
-333.245	-112.293	0.233	0.046
-332.231	-80.582	0.292	0.096
-331.216	-38.873	0.140	0.073
-330.202	-91.148	0.356	-0.101
-329.187	73.327	0.105	0.109
-328.172	462.469	-0.182	-0.401
-327.158	409.125	0.016	-0.034
-326.143	137.886	-0.129	-0.167
-325.129	-200.000	-0.005	-0.167
-324.114	-200.000	-0.016	0.209
-323.099	-81.464	-0.067	0.022
-322.085	385.512	-0.079	0.161
-321.070	-89.404	-0.149	0.043
-320.056	-200.000	-0.044	-0.242
-319.041	-180.717	-0.097	-0.002
-318.026	118.315	-0.055	0.067
-317.012	101.346	0.206	0.237
-315.997	-200.000	-0.036	-0.248
-314.983	-146.877	-0.420	0.036
-313.968	-38.946	0.133	0.069
-312.953	-107.280	-0.191	0.041
-311.939	-63.661	0.461	-0.187
-310.924	115.499	0.089	-0.108
-309.910	36.633	-0.176	-0.153
-308.895	-143.077	0.099	0.009
-307.880	-200.000	-0.041	0.410
-306.866	-14.531	-0.072	-0.046
-305.851	161.718	-0.071	-0.098
-304.837	106.913	-0.074	-0.087
-303.822	800.000	0.044	0.128
-302.807	-10.330	-0.076	0.050
-301.793	79.366	-0.111	0.117
-300.778	-91.771	-0.205	0.058
-299.764	314.981	0.099	0.183
-298.749	76.443	0.217	-0.227
-297.735	381.293	-0.105	0.213
-296.720	-200.000	-0.075	-0.353
-295.705	-200.000	0.027	-0.125
-294.691	86.002	0.193	-0.210
-293.676	-56.930	0.097	-0.042
-292.662	404.556	-0.102	0.212
-291.647	90.183	0.151	0.167
-290.632	53.405	-0.184	0.174
-289.618	800.000	0.063	-0.190
-288.603	1.961	0.086	0.061
-287.589	-79.889	0.189	-0.062
-286.574	165.744	0.205	0.286
-285.559	104.053	0.015	0.018
-284.545	133.210	-0.104	-0.132
-283.530	-191.799	0.088	0.001
-282.516	114.204	0.117	-0.140
-281.501	280.972	-0.202	-0.356
-280.486	-200.000	-0.019	0.336
-279.472	-24.494	0.151	-0.089
-278.457	-200.000	0.017	0.079
-277.443	18.838	-0.165	0.130
-276.428	-200.000	0.006	-0.301
-275.413	-100.676	0.209	-0.051
-274.399	5.662	-0.179	-0.131
-273.384	-71.310	0.164	-0.061
-272.370	-59.462	0.251	0.106
-271.355	-48.841	-0.437	-0.206
-270.340	189.566	0.152	-0.225
-269.326	-200.000	-0.003	-0.503
-268.311	226.038	0.214	-0.342
-267.297	-200.000	-0.002	-0.122
-266.282	-8.523	0.148	-0.098
-265.267	91.325	0.096	0.106
-264.253	78.286	0.035	-0.036
-263.238	-83.408	-0.372	-0.117
-262.224	-200.000	0.005	0.135
-261.209	-138.899	-0.279	0.030
-260.195	800.000	0.058	0.188
-259.180	203.001	0.149	-0.227
-258.165	408.745	-0.080	0.166
-257.151	150.775	-0.120	-0.161
-256.136	55.847	-0.123	-0.117
-255.122	176.352	0.120	-0.171
-254.107	12.210	-0.078	-0.059
-253.092	741.202	-0.138	0.366
-252.078	123.683	-0.055	0.068
-251.063	42.722	-0.162	-0.146
-250.049	-200.000	0.010	0.223
-249.034	21.746	0.202	-0.162
-248.019	111.641	-0.131	-0.155
-247.005	-200.000	-0.038	-0.293
-245.990	91.149	0.150	0.165
-244.976	800.000	-0.102	-0.377
-243.961	-192.318	-0.418	-0.004
-242.946	68.701	0.195	-0.197
-241.932	499.471	0.038	0.087
-240.917	-84.354	-0.145	0.045
-239.903	-160.129	-0.210	0.011
-238.888	310.189	-0.057	0.105
-237.873	273.660	-0.231	0.401
-236.859	-97.852	-0.189	-0.048
-235.844	-70.848	-0.310	0.115
-234.830	20.190	0.304	0.241
-233.815	27.958	0.273	-0.226
-232.800	-24.652	0.106	0.062
-231.786	89.011	0.161	-0.176
-230.771	-162.824	-0.259	0.012
-229.757	149.411	-0.109	-0.145
-228.742	54.114	-0.159	0.151
-227.727	800.000	0.027	-0.103
-226.713	384.107	0.115	-0.233
-225.698	-42.292	0.110	-0.055
-224.684	256.870	0.077	-0.129
-223.669	147.978	0.149	0.198
-222.655	-56.746	-0.248	0.108
-221.640	408.603	-0.083	0.173
-220.625	-88.845	0.311	-0.091
-219.611	53.717	0.167	-0.157
-218.596	-44.874	0.265	-0.130
-217.582	-70.008	0.090	-0.034
-216.567	-108.453	0.249	0.053
-215.552	-27.542	-0.299	0.171
-214.538	205.066	0.062	0.094
-213.523	-81.044	0.152	-0.049
-212.509	-132.318	0.378	0.048
-211.494	-200.000	-0.041	-0.238
-210.479	-84.076	-0.048	0.015
-209.465	800.000	0.057	-0.189
-208.450	-200.000	-0.011	0.188
-207.436	-74.312	-0.031	0.011
-206.421	-200.000	-0.016	-0.121
-205.406	-200.000	-0.030	0.287
-204.392	282.245	-0.196	0.345
-203.377	800.000	-0.011	0.039
-202.363	-33.883	-0.180	-0.097
-201.348	-60.603	0.102	0.043
-200.333	1.704	-0.205	-0.145
-199.319	-200.000	-0.003	0.135
-198.304	-158.271	0.147	0.008
-197.290	-134.348	-0.243	-0.029
-196.275	-188.709	-0.083	0.001
-195.260	-78.755	0.137	0.046
-194.246	-17.323	0.144	-0.089
-193.231	-31.517	0.313	0.173
-192.217	-71.480	-0.234	0.086
-191.202	-12.589	-0.044	-0.028
-190.187	7.410	-0.044	-0.032
-189.173	0.724	0.254	0.178
-188.158	-200.000	-0.077	-0.495
-187.144	333.303	-0.147	0.279
-186.129	33.225	0.327	-0.279
-185.114	-84.897	0.510	-0.157
-184.100	8.728	0.068	-0.051
-183.085	-200.000	0.051	-0.263
-182.071	36.087	-0.168	-0.145
-181.056	53.756	-0.095	-0.089
-180.042	208.541	0.136	-0.208
-179.027	-134.601	-0.294	-0.035
-178.012	-200.000	-0.021	0.262
-176.998	-28.012	0.048	0.027
-175.983	130.584	0.121	-0.152
-174.969	450.866	-0.042	0.091
-173.954	229.546	0.050	0.081
-172.939	-92.985	0.481	0.132
-171.925	800.000	-0.085	0.235
-170.910	45.601	-0.160	0.145
-169.896	-145.229	-0.182	-0.016
-168.881	289.274	0.234	-0.416
-167.866	-74.079	0.176	0.063
-166.852	-7.144	-0.199	0.132
-165.837	-52.131	-0.115	0.052
-164.823	53.603	0.229	0.216
-163.808	-143.905	0.356	0.033
-162.793	-121.170	0.455	-0.075
-161.779	47.417	0.059	-0.054
-160.764	337.381	0.159	-0.304
-159.750	-43.896	0.042	-0.021
-158.735	-75.084	0.356	-0.125
-157.720	-42.760	-0.127	0.063
-156.706	95.617	0.196	-0.219
-155.691	-179.649	-0.165	0.004
-154.677	-52.314	-0.023	0.010
-153.662	-12.388	0.125	-0.080
-152.647	10.572	-0.192	-0.143
-151.633	-200.000	0.013	-0.144
-150.618	-145.381	0.256	0.023
-149.604	135.969	0.103	0.132
-148.589	-180.551	0.200	-0.004
-147.574	-61.579	-0.187	-0.077
-146.560	800.000	-0.084	0.332
-145.545	-28.525	0.241	0.136
-144.531	498.142	0.092	-0.207
-143.516	800.000	0.060	0.188
-142.502	124.919	0.285	0.351
-141.487	-156.246	-0.297	-0.018
-140.472	-193.204	-0.236	0.002
-139.458	-200.000	-0.019	-0.242
-138.443	103.157	-0.118	-0.136
-137.429	-68.988	-0.353	-0.134
-136.414	-25.669	0.212	0.122
-135.399	-61.205	0.034	0.014
-134.385	-92.897	0.070	-0.019
-133.370	800.000	-0.081	-0.328
-132.356	-81.014	-0.173	-0.056
-131.341	47.592	0.131	-0.120
-130.326	-107.607	0.390	0.084
-129.312	486.429	-0.044	0.098
-128.297	-7.767	0.081	0.054
-127.283	156.195	0.143	0.193
-126.268	-200.000	0.064	0.319
-125.253	-200.000	-0.005	-0.360
-124.239	-200.000	0.003	-0.356
-123.224	16.349	0.100	-0.077
-122.210	-149.344	0.238	-0.019
-121.195	311.515	0.054	0.100
