DTS Sentinel unit serial number:	SN413079Multiplexer serial number:	ORYXHardware model number:	OX4-SRSoftware version number:	ORYX F/W v4.00 Oryx Data Collector v3.7.2.0data status	okinstallation	princeton_trtdifferential loss correction	single-endedforward channel	channel 3reverse channel	N/Adate	2019/09/19time	15:12:35forward acquisition time	60.00reverse acquisition time	0.00gamma	496.2192k internal	0.2314k external	0.2314temperature offset calibration	1.0006default loss term (dB/km)	0.3790temperature slope calibration	1.0000multiplexer offset coefficient	1.0000multiplexer slope coefficient	1.0000fibre end	0.00T internal ref (°C)	33.52T ext. ref 1 (°C)	1.12T ext. ref 2 (°C)	30.52length (m)	temperature (°C)	Stokes	anti-Stokes-747.200	161.415	-0.043	-0.061
-746.185	30.309	-0.146	0.126
-745.171	-68.248	-0.064	-0.025
-744.156	127.962	0.213	0.275
-743.142	-58.835	-0.062	-0.027
-742.127	0.031	0.133	-0.096
-741.112	-200.000	0.019	-0.230
-740.098	234.841	0.088	0.147
-739.083	-2.838	-0.095	-0.067
-738.069	-131.765	-0.165	-0.022
-737.054	168.567	0.053	0.077
-736.039	5.792	-0.472	-0.354
-735.025	-44.229	0.133	0.068
-734.010	512.882	-0.036	0.085
-732.996	-200.000	0.031	0.174
-731.981	-85.346	-0.276	0.087
-730.966	-58.285	-0.365	0.161
-729.952	-200.000	0.020	-0.276
-728.937	-137.579	-0.081	-0.009
-727.923	23.749	-0.334	-0.279
-726.908	104.028	-0.266	-0.316
-725.894	612.400	0.006	0.015
-724.879	193.780	0.116	-0.179
-723.864	28.528	0.108	-0.093
-722.850	352.420	0.117	-0.235
-721.835	-200.000	0.004	-0.076
-720.821	-72.246	-0.141	0.053
-719.806	52.505	0.257	-0.249
-718.791	10.781	-0.174	-0.135
-717.777	-200.000	-0.050	-0.295
-716.762	51.434	-0.134	0.129
-715.748	-30.740	-0.210	0.120
-714.733	-200.000	-0.006	-0.462
-713.718	-200.000	0.014	-0.383
-712.704	-56.064	0.427	0.193
-711.689	-200.000	0.004	-0.348
-710.675	285.892	0.193	0.352
-709.660	-84.832	0.033	0.011
-708.645	83.086	-0.088	-0.097
-707.631	384.771	-0.171	0.356
-706.616	20.208	0.010	-0.008
-705.602	-72.906	-0.222	-0.083
-704.587	-199.930	0.089	0.000
-703.572	50.035	-0.130	-0.124
-702.558	-122.737	-0.107	-0.018
-701.543	-170.193	0.165	0.006
-700.529	548.763	-0.156	-0.377
-699.514	-53.903	0.119	-0.055
-698.499	-200.000	0.025	-0.239
-697.485	800.000	0.050	-0.213
-696.470	-27.170	-0.212	-0.125
-695.456	-141.789	-0.174	0.018
-694.441	-73.046	0.371	0.138
-693.426	-46.267	-0.031	-0.015
-692.412	-8.311	-0.296	-0.202
-691.397	300.329	0.037	0.069
-690.383	-93.274	0.336	-0.094
-689.368	-60.536	0.327	0.140
-688.354	-200.000	-0.017	-0.196
-687.339	-138.009	0.216	0.024
-686.324	33.607	0.138	-0.121
-685.310	-200.000	0.056	-0.263
-684.295	20.166	-0.151	0.123
-683.281	800.000	-0.029	-0.109
-682.266	60.956	-0.107	-0.108
-681.251	440.818	-0.089	0.197
-680.237	-69.316	-0.142	0.055
-679.222	-108.915	0.617	-0.133
-678.208	115.615	0.086	0.107
-677.193	-33.780	0.186	-0.104
-676.178	612.182	0.035	-0.087
-675.164	-200.000	0.057	0.308
-674.149	-28.454	-0.265	0.155
-673.135	560.599	-0.059	0.143
-672.120	-200.000	0.004	-0.092
-671.105	19.282	0.071	0.057
-670.091	65.605	-0.280	-0.287
-669.076	-200.000	-0.034	0.251
-668.062	79.917	0.123	0.134
-667.047	800.000	-0.087	0.339
-666.032	-104.733	-0.379	-0.088
-665.018	344.909	0.156	-0.310
-664.003	-200.000	-0.021	0.170
-662.989	-37.104	-0.121	-0.066
-661.974	800.000	-0.028	-0.119
-660.959	25.565	-0.106	0.089
-659.945	-179.059	0.262	-0.006
-658.930	-27.638	0.141	0.083
-657.916	-23.928	0.256	-0.155
-656.901	-3.887	0.042	-0.030
-655.886	40.613	-0.312	-0.284
-654.872	387.425	-0.081	-0.170
-653.857	-27.693	-0.156	-0.092
-652.843	89.618	0.169	0.190
-651.828	487.863	-0.065	0.150
-650.814	57.318	-0.107	-0.106
-649.799	-166.479	-0.267	-0.011
-648.784	211.736	-0.107	0.171
-647.770	71.329	-0.237	0.249
-646.755	-69.908	-0.137	-0.053
-645.741	-102.605	0.256	0.062
-644.726	-200.000	-0.010	-0.077
-643.711	599.469	0.021	-0.053
-642.697	337.335	-0.051	0.101
-641.682	57.889	-0.230	0.227
-640.668	-11.596	-0.222	-0.147
-639.653	-200.000	-0.020	-0.158
-638.638	370.017	-0.030	0.061
-637.624	-200.000	-0.047	0.383
-636.609	-81.234	0.120	0.040
-635.595	-58.606	0.136	0.060
-634.580	297.142	0.183	0.338
-633.565	-33.754	0.057	-0.032
-632.551	-200.000	0.035	0.176
-631.536	-200.000	-0.016	-0.119
-630.522	62.521	-0.139	-0.140
-629.507	418.802	0.105	0.227
-628.492	-200.000	-0.007	-0.081
-627.478	-73.268	-0.196	0.072
-626.463	-91.777	-0.172	-0.049
-625.449	800.000	0.032	0.103
-624.434	299.480	0.112	0.207
-623.419	-176.711	0.328	-0.008
-622.405	-50.883	-0.072	-0.034
-621.390	13.115	0.088	0.069
-620.376	-200.000	-0.024	-0.252
-619.361	92.537	-0.178	0.203
-618.346	-200.000	0.033	0.277
-617.332	800.000	0.125	0.365
-616.317	800.000	-0.121	0.374
-615.303	-80.180	0.128	-0.043
-614.288	-200.000	-0.032	-0.144
-613.273	-200.000	0.094	-0.454
-612.259	-0.837	0.159	-0.114
-611.244	-200.000	-0.009	0.362
-610.230	-200.000	-0.006	-0.489
-609.215	-2.354	0.125	0.089
-608.201	13.312	0.243	-0.190
-607.186	-151.000	0.279	-0.021
-606.171	62.396	-0.206	0.207
-605.157	800.000	0.074	-0.291
-604.142	125.715	-0.168	-0.214
-603.128	-73.884	-0.310	0.114
-602.113	-105.671	0.037	-0.008
-601.098	-175.254	0.225	0.006
-600.084	800.000	0.043	-0.134
-599.069	-24.837	-0.119	0.071
-598.055	194.286	0.061	0.094
-597.040	-123.702	-0.410	0.065
-596.025	746.382	0.115	0.313
-595.011	54.316	-0.037	0.036
-593.996	-19.769	-0.041	-0.026
-592.982	-200.000	-0.035	0.185
-591.967	158.597	0.173	-0.242
-590.952	243.837	0.155	-0.262
-589.938	-150.193	0.186	0.015
-588.923	-53.845	0.376	-0.173
-587.909	-117.089	0.295	-0.054
-586.894	362.734	0.111	0.225
-585.879	800.000	-0.074	0.306
-584.865	-200.000	-0.018	0.118
-583.850	318.352	0.057	0.108
-582.836	-200.000	0.037	-0.418
-581.821	-87.329	0.130	0.040
-580.806	-19.803	-0.215	0.134
-579.792	-96.529	-0.192	0.051
-578.777	-151.711	0.342	-0.025
-577.763	-200.000	-0.019	0.253
-576.748	-37.701	-0.173	0.093
-575.733	-99.768	0.198	0.050
-574.719	-200.000	-0.042	-0.259
-573.704	-200.000	-0.031	0.207
-572.690	-104.520	-0.099	0.023
-571.675	-94.652	-0.290	-0.079
-570.661	-114.565	-0.035	0.007
-569.646	-41.794	-0.018	-0.009
-568.631	-157.042	-0.341	0.021
-567.617	46.053	-0.330	-0.308
-566.602	34.944	-0.103	-0.091
-565.588	143.958	-0.072	-0.097
-564.573	-97.860	0.228	0.059
-563.558	-200.000	-0.033	0.579
-562.544	-124.565	0.379	0.059
-561.529	-86.124	-0.158	-0.049
-560.515	-200.000	0.006	0.140
-559.500	-200.000	0.002	0.221
-558.485	-180.529	0.193	0.004
-557.471	-68.308	-0.203	0.079
-556.456	252.446	-0.055	-0.095
-555.442	-81.515	0.167	-0.055
-554.427	-148.325	0.108	0.009
-553.412	-200.000	0.024	0.303
-552.398	-200.000	-0.015	-0.072
-551.383	-200.000	-0.009	0.111
-550.369	598.444	-0.077	-0.192
-549.354	84.673	-0.120	-0.132
-548.339	-200.000	-0.008	-0.140
-547.325	553.379	-0.109	-0.264
-546.310	-115.771	0.304	-0.057
-545.296	-136.300	-0.152	-0.018
-544.281	470.572	0.067	-0.152
-543.266	57.993	-0.220	0.217
-542.252	800.000	0.030	0.105
-541.237	22.958	0.263	-0.217
-540.223	-96.754	-0.401	-0.106
-539.208	332.733	0.047	0.092
-538.193	-77.256	-0.172	0.060
-537.179	-30.333	0.207	-0.118
-536.164	-9.763	-0.139	0.093
-535.150	-70.169	0.270	0.103
-534.135	-122.380	0.101	0.016
-533.121	-69.759	-0.191	-0.074
-532.106	602.717	0.104	-0.260
-531.091	-146.765	-0.131	0.011
-530.077	162.396	0.119	-0.167
-529.062	800.000	0.091	-0.345
-528.048	-200.000	0.021	-0.166
-527.033	-41.615	-0.199	0.103
-526.018	-4.118	-0.232	-0.162
-525.004	800.000	-0.045	-0.166
-523.989	572.982	0.067	0.163
-522.975	64.886	0.166	0.168
-521.960	800.000	0.013	-0.050
-520.945	-151.848	0.039	-0.003
-519.931	-74.321	-0.327	0.119
-518.916	103.931	-0.131	0.155
-517.902	-81.951	-0.284	-0.093
-516.887	76.869	-0.118	-0.126
-515.872	21.150	-0.266	0.217
-514.858	45.205	0.144	0.134
-513.843	-4.636	0.198	0.137
-512.829	254.329	-0.127	0.219
-511.814	355.933	-0.153	-0.305
-510.799	-75.394	-0.376	0.135
-509.785	103.020	0.115	-0.135
-508.770	-193.000	-0.343	0.003
-507.756	357.555	-0.122	0.244
-506.741	-96.207	0.258	-0.069
-505.726	-153.825	-0.184	0.013
-504.712	259.151	-0.069	-0.120
-503.697	-200.000	-0.012	-0.222
-502.683	239.951	0.021	-0.036
-501.668	214.637	-0.061	0.097
-500.653	74.021	0.100	0.106
-499.639	51.741	0.081	-0.077
-498.624	687.681	0.097	-0.254
-497.610	800.000	0.058	0.249
-496.595	800.000	-0.059	-0.251
-495.581	-200.000	-0.006	-0.304
-494.566	-200.000	0.072	0.329
-493.551	-200.000	-0.078	0.409
-492.537	-139.344	-0.048	-0.005
-491.522	10.949	0.138	-0.106
-490.508	-167.950	-0.367	-0.014
-489.493	410.733	0.111	0.236
-488.478	128.267	0.280	0.357
-487.464	109.251	0.059	0.071
-486.449	-25.715	-0.375	-0.222
-485.435	117.545	-0.036	-0.044
-484.420	504.273	-0.217	0.503
-483.405	-135.010	0.406	-0.049
-482.391	-16.822	0.203	-0.129
-481.376	11.239	-0.173	-0.133
-480.362	-3.382	0.306	0.214
-479.347	-36.797	0.447	-0.241
-478.332	-141.059	0.279	0.029
-477.318	800.000	-0.015	-0.048
-476.303	43.259	0.210	0.192
-475.289	-200.000	0.048	0.402
-474.274	-46.478	0.182	0.090
-473.259	170.261	-0.045	0.065
-472.245	-200.000	-0.010	-0.471
-471.230	-81.783	0.226	0.074
-470.216	800.000	-0.091	-0.386
-469.201	-44.293	0.162	0.081
-468.186	-145.558	0.361	0.032
-467.172	30.682	0.197	-0.169
-466.157	-200.000	0.023	0.141
-465.143	-88.569	-0.082	0.025
-464.128	-200.000	-0.035	-0.265
-463.113	-66.255	-0.220	-0.088
-462.099	100.333	0.047	0.055
-461.084	513.393	0.067	-0.157
-460.070	-149.500	-0.378	-0.030
-459.055	-58.098	-0.114	0.050
-458.040	-129.155	0.076	-0.011
-457.026	800.000	0.150	-0.424
-456.011	-200.000	0.004	-0.069
-454.997	-200.000	-0.036	0.255
-453.982	164.291	0.165	0.234
-452.968	92.598	0.032	0.037
-451.953	-35.320	0.212	-0.116
-450.938	-121.900	-0.161	0.027
-449.924	-200.000	0.006	-0.064
-448.909	-200.000	-0.023	-0.170
-447.895	9.655	-0.142	0.108
-446.880	-32.411	-0.104	0.058
-445.865	800.000	-0.126	-0.529
-444.851	-200.000	0.047	-0.237
-443.836	-200.000	0.018	-0.152
-442.822	-164.461	-0.296	0.014
-441.807	-200.000	0.041	-0.264
-440.792	132.598	-0.262	-0.339
-439.778	23.213	0.176	0.144
-438.763	-20.495	-0.252	-0.155
-437.749	-32.798	0.256	0.143
-436.734	82.326	-0.190	0.206
-435.719	18.291	0.221	-0.177
-434.705	-200.000	-0.018	-0.151
-433.690	273.460	-0.108	0.191
-432.676	-200.000	-0.025	-0.180
-431.661	294.076	-0.041	0.075
-430.646	580.664	-0.119	0.292
-429.632	-61.109	0.376	0.159
-428.617	-51.913	-0.092	-0.043
-427.603	-90.584	0.312	0.090
-426.588	-188.479	0.333	0.004
-425.573	-120.150	0.063	-0.011
-424.559	-91.842	-0.379	0.108
-423.544	-200.000	-0.009	-0.197
-422.530	337.015	0.129	-0.251
-421.515	800.000	0.005	0.017
-420.500	-200.000	-0.028	0.214
-419.486	11.517	-0.169	0.130
-418.471	-157.584	-0.077	0.005
-417.457	-120.397	-0.167	0.028
-416.442	-136.106	-0.135	-0.016
-415.428	-200.000	0.038	0.351
-414.413	-147.259	-0.138	0.012
-413.398	-48.001	-0.386	0.187
-412.384	196.264	-0.039	-0.060
-411.369	44.358	-0.065	0.060
-410.355	-0.068	-0.197	-0.140
-409.340	-0.532	-0.160	0.114
-408.325	-146.548	-0.108	0.009
-407.311	31.786	0.238	0.205
-406.296	90.504	0.032	-0.035
-405.282	-144.081	0.218	0.020
-404.267	229.202	0.013	0.022
-403.252	-46.946	0.106	-0.052
-402.238	248.811	-0.081	0.138
-401.223	74.672	-0.177	0.187
-400.209	549.036	0.042	-0.101
-399.194	-140.079	-0.163	0.017
-398.179	-200.000	0.089	0.547
-397.165	-76.076	-0.114	0.040
-396.150	443.860	-0.214	-0.470
-395.136	-135.488	-0.184	0.022
-394.121	44.718	0.114	-0.105
-393.106	-160.291	-0.113	-0.006
-392.092	-50.825	0.146	-0.068
-391.077	-102.547	0.309	-0.074
-390.063	120.091	0.123	-0.153
-389.048	-200.000	-0.076	0.407
-388.033	173.763	0.079	0.113
-387.019	800.000	0.015	0.049
-386.004	37.680	0.303	-0.269
-384.990	-200.000	0.011	-0.118
-383.975	-143.636	-0.023	-0.002
-382.960	27.501	0.225	-0.189
-381.946	-85.784	-0.170	0.053
-380.931	-83.522	0.062	-0.020
-379.917	119.710	-0.033	0.041
-378.902	-113.194	0.155	-0.030
-377.888	-141.132	0.265	0.027
-376.873	42.601	0.084	-0.077
-375.858	364.568	0.154	0.310
-374.844	56.259	-0.160	0.155
-373.829	-40.197	-0.079	-0.041
-372.815	-37.814	-0.182	0.097
-371.800	26.308	0.086	0.072
-370.785	3.382	0.241	0.175
-369.771	295.516	-0.115	0.211
-368.756	-47.738	0.165	0.080
-367.742	-102.125	-0.243	0.058
-366.727	81.751	0.063	0.068
-365.712	114.323	0.065	-0.079
-364.698	-160.712	0.082	-0.004
-363.683	-200.000	0.015	0.279
-362.669	-91.289	0.132	0.038
-361.654	673.652	0.073	0.190
-360.639	254.516	-0.053	-0.090
-359.625	-113.654	-0.051	-0.010
-358.610	-166.957	-0.357	-0.015
-357.596	-18.543	-0.060	0.037
-356.581	34.195	0.294	0.256
-355.566	-47.171	0.142	0.069
-354.552	185.476	-0.083	0.124
-353.537	-87.030	-0.170	-0.052
-352.523	728.970	0.066	-0.176
-351.508	-41.213	-0.187	0.097
-350.493	-135.362	-0.167	-0.020
-349.479	-118.993	0.165	-0.029
-348.464	177.365	-0.111	0.162
-347.450	800.000	-0.062	-0.222
-346.435	122.102	-0.073	0.091
-345.420	-200.000	0.037	-0.333
-344.406	-146.737	0.153	-0.013
-343.391	-38.603	0.059	0.031
-342.377	-23.124	-0.095	-0.057
-341.362	-63.410	0.217	-0.089
-340.348	-200.000	0.012	-0.094
-339.333	800.000	0.063	0.216
-338.318	513.706	0.066	0.153
-337.304	-27.706	-0.076	-0.044
-336.289	-200.000	-0.050	-0.286
-335.275	-90.543	-0.319	-0.092
-334.260	800.000	-0.097	0.355
-333.245	155.104	0.126	0.173
-332.231	-31.456	-0.288	0.162
-331.216	-12.726	0.290	-0.189
-330.202	-200.000	0.031	-0.199
-329.187	800.000	-0.096	-0.317
-328.172	-8.483	0.199	0.133
-327.158	-33.272	0.062	-0.034
-326.143	-200.000	-0.007	-0.633
-325.129	-95.110	-0.177	-0.048
-324.114	113.055	0.038	-0.046
-323.099	800.000	-0.017	0.060
-322.085	-51.494	0.197	-0.092
-321.070	-200.000	-0.004	0.202
-320.056	160.827	-0.181	0.252
-319.041	-200.000	0.003	0.193
-318.026	-7.245	-0.166	0.112
-317.012	-108.072	0.208	-0.045
-315.997	106.653	-0.182	0.215
-314.983	226.583	-0.135	0.218
-313.968	-200.000	0.005	0.131
-312.953	-156.163	0.258	-0.016
-311.939	-104.876	-0.257	-0.059
-310.924	-64.075	-0.062	0.025
-309.910	-124.320	-0.156	0.024
-308.895	55.870	0.086	-0.083
-307.880	208.226	-0.090	0.140
-306.866	289.912	-0.132	0.239
-305.851	-10.742	-0.097	-0.064
-304.837	-153.026	-0.292	-0.020
-303.822	-103.227	0.212	0.050
-302.807	3.355	0.216	-0.157
-301.793	68.050	-0.193	0.197
-300.778	-163.567	0.126	0.006
-299.764	85.708	0.029	-0.032
-298.749	-30.571	-0.389	-0.220
-297.735	800.000	-0.094	-0.314
-296.720	-34.097	0.126	0.069
-295.705	-145.968	0.251	-0.022
-294.691	-14.575	0.341	0.218
-293.676	472.314	0.095	-0.214
-292.662	-104.129	-0.412	-0.095
-291.647	146.661	0.023	-0.030
-290.632	-60.668	0.250	0.105
-289.618	312.858	0.120	0.225
-288.603	-30.197	0.342	0.193
-287.589	89.758	-0.078	0.086
-286.574	190.821	-0.012	0.019
-285.559	-122.443	0.029	-0.005
-284.545	-19.860	0.491	-0.302
-283.530	800.000	-0.065	-0.223
-282.516	-75.814	0.255	0.090
-281.501	-102.545	0.388	-0.092
-280.486	-56.862	-0.247	-0.109
-279.472	-200.000	-0.033	-0.158
-278.457	298.457	-0.091	-0.167
-277.443	748.695	0.031	0.084
-276.428	55.488	-0.116	-0.112
-275.413	248.405	0.090	-0.151
-274.399	-68.896	0.296	-0.114
-273.384	-0.769	-0.173	-0.122
-272.370	-103.841	-0.294	-0.068
-271.355	800.000	0.077	0.308
-270.340	286.402	-0.099	-0.178
-269.326	-92.308	0.178	0.050
-268.311	236.875	0.198	-0.326
-267.297	800.000	-0.066	-0.226
-266.282	-83.406	-0.289	0.092
-265.267	350.265	-0.075	0.148
-264.253	-43.882	-0.207	-0.104
-263.238	36.637	-0.091	-0.080
-262.224	133.228	0.128	0.164
-261.209	-53.977	-0.254	-0.115
-260.195	-200.000	-0.019	-0.289
-259.180	91.608	-0.102	0.114
-258.165	-200.000	-0.027	0.135
-257.151	297.468	0.136	-0.248
-256.136	73.495	-0.214	-0.223
-255.122	-69.003	-0.157	-0.060
-254.107	33.663	-0.138	0.119
-253.092	-2.753	0.201	-0.140
-252.078	-156.948	0.117	-0.007
-251.063	-46.242	-0.237	0.116
-250.049	-200.000	0.095	0.507
-249.034	-29.911	-0.179	-0.101
-248.019	-107.495	0.176	0.038
-247.005	50.254	0.214	0.201
-245.990	-200.000	-0.008	-0.101
-244.976	740.232	0.071	0.189
-243.961	419.090	0.099	0.209
-242.946	-85.176	-0.427	-0.133
-241.932	-139.978	-0.294	-0.031
-240.917	800.000	-0.158	-0.467
-239.903	-187.000	0.152	0.002
-238.888	-200.000	0.003	-0.191
-237.873	-157.405	0.139	0.008
-236.859	800.000	-0.049	-0.173
-235.844	391.133	0.071	0.147
-234.830	17.810	-0.082	-0.065
-233.815	-200.000	0.034	0.300
-232.800	-84.287	-0.325	0.102
-231.786	79.992	-0.400	-0.428
-230.771	-80.255	0.360	0.119
-229.757	-200.000	-0.023	0.168
-228.742	38.656	0.059	-0.053
-227.727	8.897	-0.097	-0.073
-226.713	800.000	0.095	-0.343
-225.698	-18.316	-0.192	-0.119
-224.684	-151.936	-0.313	0.023
-223.669	159.884	0.232	0.322
-222.655	503.503	0.035	-0.080
-221.640	-200.000	-0.006	0.057
-220.625	116.626	0.141	-0.171
-219.611	-200.000	-0.016	-0.297
-218.596	87.473	-0.024	-0.026
-217.582	96.459	0.063	-0.071
-216.567	-200.000	0.030	-0.132
-215.552	-81.525	0.281	-0.092
-214.538	800.000	0.040	0.113
-213.523	-72.942	0.186	-0.068
-212.509	-119.704	0.310	-0.053
-211.494	800.000	0.104	0.302
-210.479	-200.000	-0.026	-0.153
-209.465	-200.000	-0.006	0.355
-208.450	-11.796	0.291	-0.189
-207.436	-200.000	0.037	0.191
-206.421	156.525	0.168	0.231
-205.406	77.993	-0.238	0.252
-204.392	636.552	-0.097	0.244
-203.377	645.130	-0.142	0.360
-202.363	128.427	-0.085	-0.108
-201.348	-200.000	-0.031	-0.228
-200.333	800.000	0.023	-0.092
-199.319	-39.687	0.233	0.121
-198.304	800.000	-0.026	-0.078
-197.290	290.326	-0.072	-0.130
-196.275	354.448	0.123	0.242
-195.260	-200.000	0.025	0.147
-194.246	-111.681	0.061	-0.012
-193.231	-111.645	-0.016	0.003
-192.217	20.145	-0.024	0.019
-191.202	-117.974	0.211	0.037
-190.187	58.972	0.184	-0.180
-189.173	-67.037	0.356	-0.139
-188.158	-200.000	-0.006	-0.154
-187.144	54.373	0.217	-0.207
-186.129	800.000	0.077	0.281
-185.114	633.965	0.074	-0.186
-184.100	-80.909	-0.131	-0.043
-183.085	-82.197	0.222	-0.072
-182.071	-200.000	0.030	0.193
-181.056	-99.499	-0.237	-0.059
-180.042	53.930	-0.300	-0.286
-179.027	-68.499	0.090	-0.035
-178.012	2.388	0.157	-0.113
-176.998	111.077	0.068	0.081
-175.983	483.457	-0.059	-0.133
-174.969	-54.552	-0.205	-0.092
-173.954	-48.919	-0.202	0.096
-172.939	337.036	-0.070	0.135
-171.925	23.988	0.074	-0.060
-170.910	-46.454	-0.131	-0.064
-169.896	-200.000	0.039	-0.213
-168.881	-200.000	0.027	0.129
-167.866	-200.000	0.011	-0.145
-166.852	-164.963	-0.158	-0.007
-165.837	800.000	0.149	-0.414
-164.823	-90.477	0.298	-0.086
-163.808	298.645	0.077	-0.141
-162.793	89.540	-0.146	0.161
-161.779	-200.000	-0.039	0.316
-160.764	-28.249	-0.241	0.138
-159.750	-200.000	0.000	-0.063
-158.735	35.777	-0.228	-0.199
-157.720	800.000	-0.012	0.045
-156.706	407.147	-0.056	-0.117
-155.691	800.000	0.034	0.122
-154.677	-3.073	-0.180	-0.124
-153.662	540.375	0.048	-0.114
-152.647	261.390	0.114	-0.195
-151.633	112.970	0.175	-0.210
-150.618	-60.315	0.101	0.042
-149.604	63.243	0.331	-0.328
-148.589	-124.859	-0.271	-0.041
-147.574	800.000	0.045	0.162
-146.560	-200.000	-0.021	0.252
-145.545	205.790	0.080	0.124
-144.531	-200.000	-0.032	-0.200
-143.516	245.892	0.069	0.114
-142.502	75.037	0.105	0.110
-141.487	537.869	-0.071	-0.167
-140.472	78.702	0.156	0.165
-139.458	-109.761	-0.390	-0.081
-138.443	-126.341	0.164	-0.024
-137.429	800.000	-0.030	0.096
-136.414	-194.949	-0.019	-0.000
-135.399	21.354	0.238	-0.191
-134.385	-200.000	0.016	-0.173
-133.370	-25.987	-0.115	-0.067
-132.356	40.034	-0.151	0.134
-131.341	-110.897	0.117	0.024
-130.326	-5.296	0.103	-0.070
-129.312	621.560	0.094	-0.235
-128.297	-192.921	0.233	0.002
-127.283	101.598	-0.142	0.163
-126.268	387.508	-0.162	-0.332
-125.253	155.207	-0.131	-0.179
-124.239	-67.904	0.241	0.093
-123.224	37.069	-0.055	-0.048
-122.210	-35.933	-0.236	0.126
