DTS Sentinel unit serial number:	SN413079Multiplexer serial number:	ORYXHardware model number:	OX4-SRSoftware version number:	ORYX F/W v4.00 Oryx Data Collector v3.7.2.0data status	okinstallation	princeton_trtdifferential loss correction	single-endedforward channel	channel 3reverse channel	N/Adate	2019/09/13time	21:24:35forward acquisition time	60.00reverse acquisition time	0.00gamma	496.2192k internal	0.2333k external	0.2333temperature offset calibration	1.0061default loss term (dB/km)	0.3790temperature slope calibration	1.0000multiplexer offset coefficient	1.0000multiplexer slope coefficient	1.0000fibre end	0.00T internal ref (°C)	28.34T ext. ref 1 (°C)	3.20T ext. ref 2 (°C)	23.00length (m)	temperature (°C)	Stokes	anti-Stokes-747.200	170.713	-0.098	-0.142
-746.185	130.968	-0.164	0.212
-745.171	-10.272	-0.247	0.165
-744.156	-72.430	0.118	0.044
-743.142	-17.270	-0.297	-0.188
-742.127	656.269	-0.221	0.571
-741.112	-33.132	0.077	-0.043
-740.098	-200.000	0.045	0.234
-739.083	-1.814	0.281	0.198
-738.069	685.061	-0.096	0.252
-737.054	-200.000	0.014	0.299
-736.039	341.756	-0.046	-0.091
-735.025	-85.382	0.335	0.105
-734.010	762.911	-0.045	-0.122
-732.996	1.318	0.123	-0.089
-731.981	-200.000	-0.003	-0.130
-730.966	15.135	-0.080	0.063
-729.952	-76.140	-0.324	-0.115
-728.937	185.629	-0.215	-0.321
-727.923	-110.403	-0.342	0.071
-726.908	527.633	-0.191	-0.453
-725.894	800.000	-0.047	0.197
-724.879	-200.000	0.009	-0.146
-723.864	300.935	0.099	0.184
-722.850	102.062	-0.049	-0.057
-721.835	-46.160	-0.169	-0.083
-720.821	-56.434	0.117	-0.052
-719.806	79.109	-0.163	-0.175
-718.791	-92.357	-0.428	-0.121
-717.777	28.267	-0.049	-0.041
-716.762	-26.821	-0.248	-0.146
-715.748	182.532	0.121	-0.180
-714.733	-78.299	-0.183	-0.063
-713.718	-200.000	0.033	-0.482
-712.704	32.027	0.234	0.203
-711.689	-152.483	0.131	0.009
-710.675	-164.659	0.199	-0.009
-709.660	-52.991	-0.191	-0.088
-708.645	-200.000	-0.005	0.106
-707.631	4.078	-0.191	0.140
-706.616	-60.166	-0.043	0.018
-705.602	395.948	0.107	0.225
-704.587	14.204	-0.260	-0.204
-703.572	-200.000	0.034	0.155
-702.558	-200.000	-0.013	0.155
-701.543	56.064	0.193	-0.188
-700.529	-150.943	-0.200	0.015
-699.514	-200.000	0.025	-0.142
-698.499	331.016	-0.076	-0.147
-697.485	-200.000	0.006	0.044
-696.470	-8.932	0.033	-0.022
-695.456	532.365	0.186	0.442
-694.441	-23.043	-0.104	-0.063
-693.426	192.723	-0.098	-0.148
-692.412	-136.796	-0.299	-0.035
-691.397	-110.187	0.037	0.008
-690.383	-76.920	-0.192	-0.067
-689.368	-84.737	-0.168	-0.053
-688.354	-200.000	0.013	-0.096
-687.339	-161.714	-0.117	-0.006
-686.324	220.269	-0.150	0.241
-685.310	-18.825	-0.158	0.099
-684.295	-200.000	-0.007	-0.129
-683.281	-129.846	-0.223	-0.031
-682.266	-124.521	0.317	0.049
-681.251	800.000	0.012	0.053
-680.237	747.338	0.080	0.216
-679.222	70.290	-0.309	-0.321
-678.208	278.386	-0.059	0.105
-677.193	-148.269	0.245	-0.020
-676.178	57.078	0.247	-0.241
-675.164	-145.565	0.258	0.023
-674.149	-47.307	0.265	-0.129
-673.135	-184.310	0.042	0.001
-672.120	-200.000	-0.003	-0.439
-671.105	-121.075	0.290	-0.049
-670.091	-117.945	0.287	0.051
-669.076	-11.095	0.188	0.125
-668.062	-84.489	-0.038	-0.012
-667.047	-86.445	-0.270	-0.083
-666.032	138.197	-0.034	0.045
-665.018	333.584	0.070	0.136
-664.003	-91.708	-0.209	0.060
-662.989	-200.000	-0.104	-0.616
-661.974	221.505	0.033	-0.053
-660.959	125.864	0.072	0.091
-659.945	526.359	-0.093	0.220
-658.930	351.782	0.098	0.194
-657.916	23.068	-0.252	-0.207
-656.901	-70.222	0.092	-0.035
-655.886	-200.000	0.040	-0.193
-654.872	58.506	0.209	-0.205
-653.857	-66.406	0.056	0.022
-652.843	-200.000	0.035	0.165
-651.828	241.343	0.127	0.212
-650.814	-200.000	-0.005	-0.158
-649.799	50.623	0.390	-0.370
-648.784	-31.406	-0.281	-0.158
-647.770	-2.056	-0.101	-0.071
-646.755	147.033	-0.059	-0.080
-645.741	-73.015	0.097	-0.036
-644.726	42.911	0.288	0.263
-643.711	120.652	-0.185	-0.230
-642.697	-16.970	0.293	0.185
-641.682	661.941	-0.122	-0.316
-640.668	-139.302	0.471	0.051
-639.653	131.864	-0.019	-0.025
-638.638	-45.048	-0.156	0.078
-637.624	706.304	0.042	0.110
-636.609	-134.488	0.070	0.009
-635.595	425.403	0.053	0.114
-634.580	-148.577	-0.166	0.014
-633.565	-200.000	-0.075	-0.451
-632.551	800.000	-0.163	-0.578
-631.536	-92.300	0.231	-0.065
-630.522	37.748	0.210	0.187
-629.507	-200.000	0.007	0.115
-628.492	255.955	0.151	-0.258
-627.478	184.326	0.108	-0.160
-626.463	74.027	-0.427	-0.448
-625.449	800.000	0.018	0.057
-624.434	-200.000	-0.014	0.146
-623.419	-200.000	0.016	0.082
-622.405	-2.254	-0.097	-0.068
-621.390	-200.000	-0.010	-0.110
-620.376	-79.103	-0.060	-0.020
-619.361	-82.605	-0.081	-0.026
-618.346	14.305	-0.224	0.174
-617.332	-45.915	0.157	0.077
-616.317	59.804	-0.077	0.076
-615.303	79.139	0.142	0.152
-614.288	-45.574	0.507	0.251
-613.273	-200.000	-0.003	0.184
-612.259	55.265	0.052	-0.051
-611.244	-55.548	-0.241	0.108
-610.230	-200.000	0.024	0.145
-609.215	129.430	-0.201	-0.256
-608.201	370.332	0.059	-0.119
-607.186	-71.152	0.137	-0.052
-606.171	20.404	0.116	-0.094
-605.157	-102.874	-0.175	0.042
-604.142	77.005	0.114	0.121
-603.128	-62.104	-0.141	-0.059
-602.113	800.000	-0.087	-0.253
-601.098	-53.497	-0.186	0.085
-600.084	167.301	0.057	-0.081
-599.069	-108.073	0.235	-0.051
-598.055	6.262	-0.016	0.012
-597.040	324.126	-0.147	-0.280
-596.025	-61.682	-0.281	-0.118
-595.011	152.904	0.104	-0.143
-593.996	339.711	-0.110	-0.214
-592.982	202.320	0.090	0.138
-591.967	-171.491	-0.140	-0.005
-590.952	-200.000	-0.060	-0.448
-589.938	89.941	0.183	0.204
-588.923	-200.000	0.021	0.251
-587.909	-38.864	0.235	0.124
-586.894	-66.666	-0.323	0.128
-585.879	-200.000	0.003	0.049
-584.865	800.000	-0.024	0.100
-583.850	-78.901	0.186	0.063
-582.836	-1.989	0.279	-0.196
-581.821	345.507	0.084	0.165
-580.806	-200.000	-0.001	-0.349
-579.792	-94.376	-0.319	0.087
-578.777	448.186	-0.053	0.116
-577.763	-80.985	-0.104	0.034
-576.748	800.000	0.113	-0.389
-575.733	70.206	0.059	-0.060
-574.719	447.255	-0.202	0.443
-573.704	85.434	0.145	0.159
-572.690	-173.840	-0.285	-0.008
-571.675	-87.135	0.177	-0.054
-570.661	-12.438	0.396	-0.258
-569.646	775.422	0.100	-0.273
-568.631	-113.952	0.195	-0.038
-567.617	-112.798	0.165	-0.033
-566.602	232.064	0.167	-0.273
-565.588	-80.344	-0.175	-0.058
-564.573	1.493	0.165	0.119
-563.558	-112.303	-0.215	0.043
-562.544	-12.625	-0.302	0.197
-561.529	-200.000	0.025	-0.193
-560.515	-200.000	-0.016	0.173
-559.500	-200.000	0.013	-0.161
-558.485	48.672	0.149	0.140
-557.471	6.385	-0.111	0.082
-556.456	61.276	0.036	-0.036
-555.442	254.785	-0.119	0.204
-554.427	-43.787	-0.273	-0.137
-553.412	-200.000	-0.047	0.291
-552.398	-21.185	0.174	-0.106
-551.383	-81.568	-0.286	-0.094
-550.369	107.525	0.147	-0.175
-549.354	800.000	0.043	-0.150
-548.339	-87.553	0.250	0.075
-547.325	12.146	-0.230	0.176
-546.310	163.393	-0.083	-0.117
-545.296	-139.627	0.219	-0.023
-544.281	-200.000	-0.038	-0.179
-543.266	-26.053	0.021	0.012
-542.252	-200.000	0.019	-0.327
-541.237	-10.309	-0.238	0.158
-540.223	-125.434	-0.162	0.025
-539.208	-200.000	-0.013	-0.150
-538.193	37.319	-0.232	-0.205
-537.179	-200.000	-0.031	0.300
-536.164	800.000	-0.037	-0.113
-535.150	-41.364	-0.164	0.084
-534.135	439.176	0.200	-0.436
-533.121	-200.000	-0.071	0.328
-532.106	-75.788	0.029	0.010
-531.091	-200.000	-0.031	-0.178
-530.077	-200.000	-0.004	-0.033
-529.062	-119.287	0.258	0.045
-528.048	-45.287	-0.199	-0.099
-527.033	14.803	0.337	0.262
-526.018	-169.970	0.242	0.009
-525.004	299.551	-0.089	-0.163
-523.989	68.470	-0.102	0.104
-522.975	73.527	-0.273	0.285
-521.960	-72.904	0.088	0.032
-520.945	-23.604	-0.193	0.116
-519.931	-51.938	0.307	-0.142
-518.916	210.706	0.020	0.031
-517.902	-170.520	0.183	-0.006
-516.887	84.072	-0.009	-0.010
-515.872	142.357	0.095	0.125
-514.858	551.070	0.148	-0.355
-513.843	391.585	-0.125	0.260
-512.829	106.293	0.206	-0.243
-511.814	800.000	-0.102	-0.327
-510.799	42.981	-0.295	-0.268
-509.785	789.695	-0.096	0.263
-508.770	-200.000	0.029	-0.286
-507.756	800.000	-0.114	0.390
-506.741	566.394	0.074	-0.178
-505.726	191.636	-0.106	0.160
-504.712	-11.023	-0.149	0.098
-503.697	-46.692	0.069	0.034
-502.683	-76.773	-0.279	0.097
-501.668	282.573	0.134	0.240
-500.653	-92.585	0.188	-0.053
-499.639	-131.124	-0.049	-0.006
-498.624	51.325	0.128	0.121
-497.610	-117.480	-0.115	0.021
-496.595	-174.818	-0.144	-0.004
-495.581	-94.340	-0.109	-0.030
-494.566	120.925	-0.049	-0.060
-493.551	-28.860	-0.236	-0.135
-492.537	519.496	0.075	0.176
-491.522	-50.278	0.117	0.055
-490.508	11.258	0.203	-0.155
-489.493	277.697	-0.053	0.095
-488.478	-200.000	-0.011	0.064
-487.464	-160.620	0.097	-0.005
-486.449	-160.554	0.200	0.011
-485.435	36.535	0.313	-0.275
-484.420	296.543	-0.183	-0.334
-483.405	36.025	-0.352	0.308
-482.391	-200.000	-0.020	0.334
-481.376	-117.330	-0.306	0.055
-480.362	783.234	0.150	0.410
-479.347	-135.404	-0.196	-0.023
-478.332	800.000	-0.121	-0.391
-477.318	40.061	0.229	0.205
-476.303	-200.000	-0.000	0.012
-475.289	29.575	0.243	0.205
-474.274	-116.723	0.261	-0.048
-473.259	204.258	0.084	0.129
-472.245	-40.283	0.338	-0.175
-471.230	-46.361	0.240	0.117
-470.216	800.000	-0.009	0.026
-469.201	-200.000	-0.021	-0.147
-468.186	344.115	0.091	-0.178
-467.172	-84.789	0.024	0.008
-466.157	-60.274	-0.177	-0.075
-465.143	713.491	-0.154	-0.407
-464.128	10.686	0.260	-0.197
-463.113	100.771	-0.162	-0.188
-462.099	800.000	0.051	-0.198
-461.084	117.390	-0.195	0.238
-460.070	-106.780	0.421	-0.093
-459.055	-55.733	-0.327	-0.145
-458.040	-200.000	-0.003	-0.086
-457.026	-86.656	0.128	-0.039
-456.011	80.878	0.292	0.314
-454.997	-103.371	0.184	0.043
-453.982	47.843	0.067	-0.062
-452.968	-73.293	0.086	-0.031
-451.953	204.411	-0.007	0.011
-450.938	431.016	-0.075	-0.162
-449.924	16.363	0.165	0.130
-448.909	-20.379	-0.169	0.103
-447.895	252.514	-0.148	-0.251
-446.880	-200.000	-0.013	0.249
-445.865	-76.751	0.142	-0.049
-444.851	-12.263	-0.148	-0.096
-443.836	50.187	-0.032	0.030
-442.822	576.218	-0.105	-0.254
-441.807	527.505	0.053	-0.123
-440.792	800.000	-0.039	0.123
-439.778	-37.143	0.141	0.075
-438.763	29.707	-0.227	-0.192
-437.749	-200.000	-0.057	0.292
-436.734	170.200	-0.152	0.216
-435.719	-26.138	0.193	-0.112
-434.705	-70.236	-0.310	0.117
-433.690	-122.467	0.397	-0.064
-432.676	-4.400	-0.146	0.100
-431.661	-50.494	-0.296	-0.139
-430.646	224.920	0.077	0.124
-429.632	-60.651	0.132	0.056
-428.617	-91.829	-0.354	0.100
-427.603	89.291	0.295	0.326
-426.588	-65.133	-0.277	-0.111
-425.573	-16.649	0.291	0.183
-424.559	800.000	0.099	-0.388
-423.544	-122.587	-0.220	0.035
-422.530	-37.957	0.147	0.078
-421.515	-95.464	0.127	-0.034
-420.500	800.000	0.050	0.184
-419.486	570.829	0.110	0.265
-418.471	103.156	-0.194	0.226
-417.457	133.099	-0.188	0.241
-416.442	0.433	0.140	0.099
-415.428	-200.000	-0.079	0.710
-414.413	-138.609	0.247	0.027
-413.398	-14.357	0.259	0.165
-412.384	572.873	-0.033	0.079
-411.369	177.504	0.183	0.264
-410.355	-200.000	-0.005	0.050
-409.340	-38.453	0.317	0.166
-408.325	148.558	-0.173	0.232
-407.311	-200.000	0.024	-0.295
-406.296	350.588	-0.052	0.101
-405.282	-75.479	0.217	0.077
-404.267	178.397	0.086	-0.125
-403.252	206.023	-0.074	-0.115
-402.238	148.130	-0.235	-0.314
-401.223	-33.937	-0.217	-0.118
-400.209	144.952	-0.102	0.135
-399.194	800.000	0.119	0.440
-398.179	-27.171	-0.162	0.093
-397.165	-11.786	-0.114	-0.074
-396.150	-55.002	-0.124	-0.055
-395.136	-200.000	0.035	0.194
-394.121	88.722	0.016	-0.017
-393.106	28.945	-0.196	-0.165
-392.092	-200.000	-0.002	0.121
-391.077	64.022	0.250	-0.249
-390.063	-42.003	-0.176	-0.089
-389.048	-68.195	-0.242	0.093
-388.033	-200.000	0.009	0.254
-387.019	-21.327	-0.432	-0.261
-386.004	132.794	-0.146	-0.187
-384.990	-107.958	-0.078	-0.017
-383.975	-13.088	-0.134	-0.086
-382.960	49.750	-0.423	-0.395
-381.946	-162.711	-0.077	0.004
-380.931	22.451	-0.313	0.253
-379.917	38.682	0.189	-0.167
-378.902	-41.038	0.120	0.061
-377.888	46.312	-0.463	0.425
-376.873	-18.697	-0.222	0.137
-375.858	54.422	0.118	-0.112
-374.844	72.752	-0.140	0.145
-373.829	241.329	-0.109	-0.180
-372.815	131.371	-0.345	-0.440
-371.800	-200.000	-0.016	0.117
-370.785	-153.214	-0.187	-0.013
-369.771	800.000	0.119	0.517
-368.756	117.048	0.129	-0.158
-367.742	100.025	-0.129	-0.149
-366.727	-0.713	-0.253	-0.178
-365.712	62.274	0.131	-0.130
-364.698	-8.759	0.148	0.098
-363.683	679.684	-0.110	0.284
-362.669	-30.949	0.398	0.222
-361.654	-87.544	0.415	0.124
-360.639	398.131	0.026	-0.053
-359.625	-41.880	0.046	-0.023
-358.610	800.000	0.042	-0.148
-357.596	-200.000	-0.041	-0.206
-356.581	160.976	-0.230	-0.318
-355.566	102.724	-0.132	-0.153
-354.552	138.612	0.126	0.164
-353.537	61.124	0.212	-0.208
-352.523	-188.131	-0.226	-0.003
-351.508	-200.000	0.009	0.294
-350.493	-95.906	-0.236	0.062
-349.479	-138.563	-0.195	0.021
-348.464	672.507	-0.139	-0.357
-347.450	-200.000	-0.025	0.127
-346.435	-26.800	0.260	-0.150
-345.420	-28.287	-0.316	-0.181
-344.406	-200.000	0.014	-0.082
-343.391	-109.141	-0.260	-0.055
-342.377	424.044	-0.074	0.158
-341.362	800.000	0.122	0.356
-340.348	26.566	0.252	-0.209
-339.333	-85.838	0.358	-0.110
-338.318	-182.662	0.178	0.003
-337.304	-200.000	0.021	0.175
-336.289	-92.938	-0.427	-0.118
-335.275	237.030	-0.159	0.260
-334.260	-87.826	0.059	0.017
-333.245	-200.000	-0.005	-0.049
-332.231	-1.584	0.065	-0.045
-331.216	-82.181	-0.043	0.014
-330.202	503.026	0.075	-0.172
-329.187	-200.000	0.009	0.237
-328.172	-143.873	0.207	-0.019
-327.158	-79.729	0.182	-0.061
-326.143	100.308	0.103	0.118
-325.129	87.359	-0.175	0.191
-324.114	-191.587	-0.065	-0.001
-323.099	442.189	-0.155	0.335
-322.085	-36.003	-0.085	-0.045
-321.070	140.824	0.031	-0.041
-320.056	21.699	-0.149	0.120
-319.041	44.592	-0.312	0.284
-318.026	-200.000	-0.020	0.188
-317.012	-200.000	0.072	0.432
-315.997	114.460	-0.133	-0.160
-314.983	59.100	0.107	0.104
-313.968	-139.064	-0.455	-0.049
-312.953	-81.464	-0.140	0.046
-311.939	-200.000	0.034	0.256
-310.924	108.344	-0.084	0.099
-309.910	-47.083	0.252	-0.122
-308.895	317.752	0.186	-0.348
-307.880	528.441	-0.097	0.227
-306.866	-147.986	-0.295	0.024
-305.851	-194.201	0.227	-0.002
-304.837	-54.953	0.247	0.110
-303.822	-200.000	0.011	-0.085
-302.807	-70.137	-0.132	-0.049
-301.793	33.982	-0.173	0.149
-300.778	210.978	0.214	0.332
-299.764	91.472	-0.246	0.273
-298.749	-47.045	0.256	-0.123
-297.735	-145.298	0.235	-0.021
-296.720	-79.755	0.268	-0.089
-295.705	67.447	-0.039	-0.040
-294.691	658.767	0.071	-0.180
-293.676	24.779	-0.188	0.154
-292.662	-59.198	0.187	0.080
-291.647	212.701	-0.085	0.132
-290.632	135.709	-0.123	-0.158
-289.618	110.838	0.179	0.213
-288.603	-200.000	-0.002	-0.089
-287.589	15.305	-0.290	-0.225
-286.574	-161.214	0.449	-0.023
-285.559	-200.000	-0.010	-0.100
-284.545	12.660	0.333	-0.254
-283.530	190.525	-0.078	0.115
-282.516	98.604	0.088	-0.100
-281.501	-200.000	-0.020	-0.088
-280.486	-200.000	0.037	0.308
-279.472	-86.916	-0.148	0.045
-278.457	-175.450	0.403	0.011
-277.443	800.000	-0.051	0.177
-276.428	-196.345	-0.290	0.002
-275.413	635.633	0.039	0.098
-274.399	238.784	0.175	-0.286
-273.384	-123.121	0.320	-0.051
-272.370	800.000	-0.118	-0.361
-271.355	-130.293	-0.231	0.031
-270.340	-79.883	0.207	-0.069
-269.326	-200.000	-0.008	0.227
-268.311	-121.622	0.264	-0.043
-267.297	-157.298	-0.152	-0.009
-266.282	25.763	-0.209	-0.172
-265.267	43.374	-0.033	-0.030
-264.253	496.369	-0.098	-0.222
-263.238	-200.000	-0.008	0.047
-262.224	68.814	-0.035	0.035
-261.209	-43.082	0.290	0.145
-260.195	-127.344	0.290	0.042
-259.180	119.365	-0.158	0.193
-258.165	88.168	-0.108	0.118
-257.151	59.059	0.154	-0.149
-256.136	-188.120	0.285	0.004
-255.122	-162.274	0.197	-0.010
-254.107	211.428	-0.152	-0.236
-253.092	-109.187	-0.477	-0.100
-252.078	-52.990	-0.072	0.033
-251.063	-142.213	-0.168	0.016
-250.049	-72.948	-0.120	0.043
-249.034	800.000	0.108	-0.391
-248.019	60.660	0.169	-0.165
-247.005	-200.000	-0.010	-0.136
-245.990	-200.000	0.061	0.000
-244.976	-162.238	0.221	-0.011
-243.961	-51.976	0.031	0.014
-242.946	-11.646	-0.227	0.147
-241.932	261.903	0.061	0.104
-240.917	-142.635	0.242	0.023
-239.903	12.815	-0.077	-0.059
-238.888	37.353	0.104	-0.091
-237.873	800.000	0.038	0.115
-236.859	149.628	0.152	0.202
-235.844	78.890	-0.165	0.174
-234.830	-68.381	-0.223	0.085
-233.815	-200.000	-0.012	-0.062
-232.800	-19.140	-0.325	-0.199
-231.786	-200.000	0.243	0.000
-230.771	41.636	-0.319	-0.284
-229.757	-200.000	0.014	0.082
-228.742	93.909	-0.038	-0.043
-227.727	65.356	-0.109	-0.109
-226.713	105.109	-0.048	-0.055
-225.698	800.000	-0.092	0.291
-224.684	-193.517	0.186	0.002
-223.669	-47.900	0.197	0.094
-222.655	800.000	-0.097	-0.307
-221.640	-84.786	-0.234	-0.073
-220.625	-83.167	0.104	-0.033
-219.611	800.000	0.020	0.055
-218.596	224.293	0.044	-0.070
-217.582	216.929	-0.144	0.226
-216.567	22.181	-0.328	-0.264
-215.552	-200.000	0.040	-0.295
-214.538	256.518	-0.132	0.223
-213.523	60.929	0.191	0.186
-212.509	-92.534	0.379	0.105
-211.494	-200.000	-0.027	-0.277
-210.479	800.000	-0.071	-0.243
-209.465	800.000	-0.059	0.196
-208.450	161.514	0.276	0.380
-207.436	131.779	-0.140	0.178
-206.421	-84.030	-0.437	0.137
-205.406	-34.295	-0.190	0.103
-204.392	132.694	-0.230	-0.292
-203.377	-134.859	0.132	0.016
-202.363	78.354	0.098	0.103
-201.348	800.000	0.067	-0.195
-200.333	448.022	-0.154	0.333
-199.319	-200.000	-0.035	0.227
-198.304	-200.000	-0.002	-0.177
-197.290	114.864	-0.187	-0.224
-196.275	-29.710	-0.105	0.059
-195.260	-154.447	-0.039	0.003
-194.246	700.652	0.058	0.151
-193.231	26.352	0.191	0.157
-192.217	524.023	-0.181	-0.418
-191.202	-43.976	-0.174	0.086
-190.187	4.589	0.237	0.171
-189.173	-200.000	-0.027	-0.289
-188.158	13.039	-0.182	-0.138
-187.144	-200.000	-0.027	0.291
-186.129	223.213	0.076	0.121
-185.114	800.000	-0.094	-0.298
-184.100	-56.144	-0.039	-0.017
-183.085	-157.303	-0.097	-0.006
-182.071	-41.856	0.307	-0.155
-181.056	-122.916	0.053	0.008
-180.042	-63.770	-0.193	-0.078
-179.027	800.000	-0.036	-0.122
-178.012	34.620	-0.148	0.127
-176.998	680.558	-0.096	0.245
-175.983	800.000	0.063	0.236
-174.969	758.133	-0.050	0.134
-173.954	78.190	-0.086	0.090
-172.939	70.254	0.152	-0.154
-171.925	49.639	0.434	-0.402
-170.910	-93.253	0.309	-0.084
-169.896	27.148	0.093	-0.077
-168.881	-200.000	-0.011	-0.209
-167.866	461.086	0.122	0.268
-166.852	0.703	0.128	0.090
-165.837	1.804	0.114	0.080
-164.823	-200.000	0.029	0.530
-163.808	-127.198	0.156	-0.022
-162.793	-50.634	0.179	-0.083
-161.779	-125.975	0.301	0.044
-160.764	-200.000	0.099	-0.000
-159.750	449.132	0.071	0.154
-158.735	-154.033	0.387	0.026
-157.720	615.773	0.124	-0.305
-156.706	8.828	0.107	0.080
-155.691	-200.000	-0.003	0.067
-154.677	-93.893	0.194	0.053
-153.662	-55.116	-0.180	0.080
-152.647	346.385	0.186	-0.359
-151.633	6.943	-0.088	-0.065
-150.618	-22.770	-0.112	-0.066
-149.604	218.760	0.137	0.215
-148.589	800.000	-0.045	-0.141
-147.574	467.840	0.085	0.188
-146.560	112.217	-0.127	0.151
-145.545	239.834	0.028	-0.046
-144.531	327.252	0.063	-0.119
-143.516	344.473	-0.100	0.193
-142.502	18.925	-0.178	-0.140
-141.487	666.210	-0.109	-0.275
-140.472	-15.840	0.178	-0.111
-139.458	-27.822	-0.188	0.107
-138.443	-117.945	-0.240	0.042
-137.429	142.888	-0.175	-0.228
-136.414	92.548	0.128	-0.142
-135.399	-78.573	-0.038	0.013
-134.385	-200.000	-0.038	0.262
-133.370	540.156	-0.175	0.408
-132.356	390.411	0.072	0.147
-131.341	-200.000	0.024	-0.140
-130.326	53.423	-0.070	0.066
-129.312	-74.404	0.207	0.073
-128.297	-200.000	0.019	-0.153
-127.283	-50.600	0.094	0.044
-126.268	-140.971	-0.168	0.017
-125.253	-15.646	0.271	-0.169
-124.239	-188.169	0.033	-0.000
-123.224	-200.000	-0.013	0.224
-122.210	-39.093	-0.191	0.099
-121.195	87.274	0.192	-0.209
