DTS Sentinel unit serial number:	SN413079Multiplexer serial number:	ORYXHardware model number:	OX4-SRSoftware version number:	ORYX F/W v4.00 Oryx Data Collector v3.7.2.0data status	okinstallation	princeton_trtdifferential loss correction	single-endedforward channel	channel 3reverse channel	N/Adate	2019/09/18time	03:32:35forward acquisition time	60.00reverse acquisition time	0.00gamma	496.2192k internal	0.2344k external	0.2344temperature offset calibration	0.9946default loss term (dB/km)	0.3790temperature slope calibration	1.0000multiplexer offset coefficient	1.0000multiplexer slope coefficient	1.0000fibre end	0.00T internal ref (°C)	22.81T ext. ref 1 (°C)	0.17T ext. ref 2 (°C)	17.60length (m)	temperature (°C)	Stokes	anti-Stokes-747.200	31.619	-0.084	0.072
-746.185	-69.449	-0.333	-0.128
-745.171	-109.394	0.125	0.026
-744.156	157.401	-0.216	0.299
-743.142	-21.086	0.288	0.176
-742.127	146.856	-0.308	0.414
-741.112	-126.543	0.194	-0.029
-740.098	-200.000	0.034	0.180
-739.083	595.563	-0.051	0.125
-738.069	-43.058	-0.121	0.061
-737.054	-200.000	0.020	0.116
-736.039	-124.804	-0.439	-0.068
-735.025	70.919	0.258	0.268
-734.010	680.983	0.033	-0.087
-732.996	49.964	-0.234	-0.221
-731.981	37.412	-0.361	0.321
-730.966	104.383	0.388	0.457
-729.952	800.000	0.034	0.098
-728.937	64.256	0.178	0.179
-727.923	-37.149	-0.168	0.090
-726.908	305.115	0.146	-0.271
-725.894	-23.475	-0.135	0.081
-724.879	273.243	-0.067	0.119
-723.864	-200.000	0.006	0.298
-722.850	800.000	-0.118	-0.340
-721.835	-98.473	0.068	0.017
-720.821	800.000	0.070	-0.194
-719.806	80.031	-0.223	0.239
-718.791	-11.282	-0.137	0.091
-717.777	800.000	0.067	0.209
-716.762	235.135	0.169	0.279
-715.748	765.032	0.035	-0.095
-714.733	183.886	-0.176	-0.260
-713.718	-200.000	0.026	0.124
-712.704	612.001	-0.026	0.064
-711.689	800.000	-0.148	-0.425
-710.675	546.589	-0.114	-0.272
-709.660	-160.427	0.112	-0.006
-708.645	310.983	0.176	-0.329
-707.631	-52.941	-0.223	-0.103
-706.616	-200.000	0.037	-0.488
-705.602	-43.356	0.359	-0.181
-704.587	-196.159	-0.077	0.001
-703.572	-200.000	0.071	0.392
-702.558	800.000	0.107	0.314
-701.543	800.000	-0.033	0.108
-700.529	-59.745	-0.269	0.115
-699.514	-14.425	0.042	-0.027
-698.499	-139.628	0.233	0.025
-697.485	70.870	0.191	0.198
-696.470	7.889	0.370	0.277
-695.456	31.058	0.336	-0.288
-694.441	-47.425	-0.148	-0.072
-693.426	-30.048	0.180	0.102
-692.412	-70.945	-0.184	0.069
-691.397	-72.811	-0.264	0.097
-690.383	-71.026	-0.299	0.112
-689.368	-200.000	-0.029	0.266
-688.354	-31.614	-0.162	-0.091
-687.339	22.913	-0.155	0.127
-686.324	-93.109	0.124	0.034
-685.310	184.745	0.099	-0.147
-684.295	49.063	-0.133	0.124
-683.281	-82.255	-0.089	0.029
-682.266	-200.000	0.008	-0.058
-681.251	-18.628	0.253	0.158
-680.237	552.384	-0.116	-0.279
-679.222	-200.000	0.041	-0.354
-678.208	240.978	0.175	-0.291
-677.193	7.501	-0.212	-0.158
-676.178	201.714	-0.058	0.090
-675.164	-200.000	-0.033	-0.170
-674.149	276.346	0.288	-0.511
-673.135	116.948	-0.252	0.309
-672.120	-200.000	0.034	0.277
-671.105	-69.689	-0.291	-0.111
-670.091	-200.000	-0.020	-0.132
-669.076	-150.494	-0.076	0.006
-668.062	-13.844	0.350	-0.226
-667.047	386.089	-0.100	0.205
-666.032	682.222	-0.076	-0.198
-665.018	800.000	-0.010	0.033
-664.003	-32.759	0.274	-0.152
-662.989	-133.715	-0.396	-0.049
-661.974	-89.681	0.356	0.104
-660.959	-73.328	-0.195	0.071
-659.945	800.000	0.066	-0.202
-658.930	401.392	0.004	0.008
-657.916	-6.772	0.419	0.284
-656.901	325.520	-0.277	-0.528
-655.886	188.049	0.094	-0.141
-654.872	-123.745	0.443	0.070
-653.857	800.000	0.098	-0.307
-652.843	-200.000	-0.011	-0.161
-651.828	-200.000	-0.009	-0.054
-650.814	748.555	0.063	0.168
-649.799	800.000	-0.025	-0.105
-648.784	-164.889	-0.168	-0.008
-647.770	651.559	0.073	-0.185
-646.755	-200.000	0.032	0.166
-645.741	800.000	-0.019	-0.061
-644.726	80.088	-0.186	0.200
-643.711	-57.752	-0.117	0.051
-642.697	285.714	-0.122	0.218
-641.682	-200.000	0.017	0.295
-640.668	-200.000	-0.358	0.001
-639.653	32.222	-0.034	-0.029
-638.638	360.395	0.081	-0.161
-637.624	-72.717	0.068	0.025
-636.609	-75.093	-0.125	-0.044
-635.595	-200.000	-0.003	0.038
-634.580	-95.843	0.020	0.005
-633.565	800.000	0.054	-0.169
-632.551	-151.962	-0.259	0.019
-631.536	163.263	-0.126	-0.177
-630.522	-172.225	-0.210	0.007
-629.507	-200.000	0.057	-0.313
-628.492	-36.120	-0.066	0.036
-627.478	-200.000	-0.016	0.212
-626.463	-71.323	-0.226	0.084
-625.449	-30.945	0.261	-0.147
-624.434	-122.210	0.216	0.035
-623.419	-117.955	0.165	-0.029
-622.405	267.739	0.111	-0.193
-621.390	208.096	0.101	-0.157
-620.376	-105.144	-0.220	-0.050
-619.361	800.000	0.023	-0.076
-618.346	-200.000	-0.037	-0.208
-617.332	270.270	0.102	0.178
-616.317	-77.248	0.195	0.068
-615.303	289.502	0.013	0.024
-614.288	375.729	-0.044	0.090
-613.273	-200.000	-0.013	-0.207
-612.259	22.102	0.116	0.094
-611.244	-102.954	0.189	0.045
-610.230	-200.000	0.036	-0.324
-609.215	-200.000	-0.029	-0.360
-608.201	-200.000	0.021	-0.271
-607.186	503.538	-0.057	-0.130
-606.171	26.132	-0.070	-0.058
-605.157	-70.992	0.117	-0.044
-604.142	-79.959	-0.215	0.072
-603.128	53.915	-0.166	-0.159
-602.113	767.504	0.120	-0.325
-601.098	800.000	0.017	-0.061
-600.084	36.949	0.186	0.164
-599.069	-19.739	0.377	0.232
-598.055	-200.000	-0.039	-0.281
-597.040	201.091	0.115	0.177
-596.025	-142.463	-0.526	0.052
-595.011	-69.126	0.212	-0.081
-593.996	2.588	-0.042	-0.030
-592.982	-200.000	0.030	-0.331
-591.967	800.000	-0.077	-0.255
-590.952	-107.994	0.157	0.034
-589.938	800.000	-0.075	-0.303
-588.923	155.349	-0.058	-0.079
-587.909	214.803	-0.128	-0.202
-586.894	800.000	0.138	-0.495
-585.879	-118.028	0.215	0.038
-584.865	-133.817	-0.109	0.013
-583.850	-57.283	0.070	0.031
-582.836	-6.262	0.336	0.228
-581.821	20.641	0.105	-0.084
-580.806	-129.681	-0.083	-0.011
-579.792	28.592	-0.080	-0.068
-578.777	378.618	-0.049	0.100
-577.763	247.974	-0.174	0.293
-576.748	800.000	-0.078	-0.236
-575.733	54.653	0.017	-0.017
-574.719	-52.737	-0.164	0.075
-573.704	-200.000	0.019	0.175
-572.690	-131.139	0.184	0.024
-571.675	-121.842	-0.300	-0.049
-570.661	-200.000	0.016	-0.254
-569.646	-111.355	0.146	0.030
-568.631	800.000	0.042	-0.142
-567.617	76.776	-0.114	-0.120
-566.602	12.962	-0.255	-0.196
-565.588	-63.646	0.155	-0.063
-564.573	-148.164	0.136	0.011
-563.558	800.000	-0.066	-0.273
-562.544	29.236	-0.153	-0.129
-561.529	153.320	0.123	0.167
-560.515	130.236	-0.109	-0.139
-559.500	-99.986	0.270	-0.067
-558.485	-70.482	-0.193	0.073
-557.471	274.542	-0.191	0.336
-556.456	215.829	-0.116	-0.182
-555.442	108.903	-0.075	-0.089
-554.427	-200.000	-0.046	-0.226
-553.412	800.000	-0.023	-0.079
-552.398	138.785	0.095	0.124
-551.383	800.000	-0.029	-0.100
-550.369	-110.788	0.019	0.004
-549.354	-155.632	0.139	-0.009
-548.339	-115.045	-0.125	0.024
-547.325	-200.000	0.026	0.221
-546.310	-200.000	0.014	0.227
-545.296	112.311	0.115	0.138
-544.281	-200.000	0.014	0.092
-543.266	56.080	0.075	0.072
-542.252	91.076	-0.137	-0.153
-541.237	-200.000	-0.016	0.123
-540.223	800.000	0.076	0.250
-539.208	98.711	0.047	0.053
-538.193	137.042	0.061	-0.079
-537.179	800.000	0.018	0.057
-536.164	129.983	0.130	-0.165
-535.150	-35.241	-0.211	0.114
-534.135	80.004	-0.049	-0.053
-533.121	-11.718	-0.073	-0.048
-532.106	417.324	-0.042	0.088
-531.091	-144.751	-0.122	0.011
-530.077	-200.000	0.032	0.314
-529.062	-59.219	0.434	-0.186
-528.048	-200.000	0.012	0.147
-527.033	-200.000	-0.040	0.249
-526.018	-27.495	0.193	-0.111
-525.004	-116.644	0.061	0.011
-523.989	-102.013	-0.228	-0.055
-522.975	261.212	0.092	-0.158
-521.960	-132.627	-0.140	-0.018
-520.945	-200.000	-0.037	0.216
-519.931	209.930	0.178	-0.277
-518.916	177.228	0.037	0.054
-517.902	53.155	-0.239	0.227
-516.887	-129.814	0.174	0.024
-515.872	-59.381	0.213	-0.091
-514.858	116.580	-0.119	-0.145
-513.843	607.477	0.087	-0.215
-512.829	575.707	0.102	-0.248
-511.814	-151.624	-0.283	0.021
-510.799	-48.098	-0.171	0.082
-509.785	800.000	-0.029	0.117
-508.770	-200.000	-0.010	0.093
-507.756	-38.066	-0.118	0.062
-506.741	4.059	0.245	0.178
-505.726	-84.790	0.318	0.099
-504.712	12.955	-0.254	-0.195
-503.697	80.544	-0.018	-0.019
-502.683	77.506	0.172	-0.182
-501.668	-103.645	0.120	-0.028
-500.653	-200.000	0.000	0.377
-499.639	210.061	0.146	-0.227
-498.624	273.186	0.108	0.190
-497.610	800.000	0.091	0.330
-496.595	-147.590	0.182	-0.015
-495.581	516.044	-0.109	-0.252
-494.566	-126.245	0.204	0.030
-493.551	-87.753	-0.114	-0.034
-492.537	-93.765	-0.083	0.023
-491.522	-59.244	-0.090	-0.039
-490.508	32.807	-0.188	0.161
-489.493	62.095	0.031	0.030
-488.478	546.865	0.153	-0.364
-487.464	86.493	-0.194	-0.212
-486.449	-200.000	-0.040	-0.271
-485.435	-41.928	-0.203	0.103
-484.420	16.446	-0.162	-0.127
-483.405	17.017	0.176	0.138
-482.391	-95.361	0.382	0.102
-481.376	620.357	0.028	-0.069
-480.362	-51.484	0.112	-0.052
-479.347	800.000	0.027	-0.093
-478.332	227.120	0.041	-0.066
-477.318	-200.000	0.232	-0.000
-476.303	-200.000	0.019	-0.269
-475.289	800.000	0.100	0.281
-474.274	-200.000	-0.079	0.587
-473.259	-34.420	-0.293	-0.159
-472.245	-70.649	0.298	0.112
-471.230	53.049	-0.244	-0.231
-470.216	147.078	-0.145	0.193
-469.201	16.448	0.205	-0.161
-468.186	-84.622	-0.225	0.070
-467.172	-200.000	0.027	0.224
-466.157	-200.000	-0.001	-0.157
-465.143	55.412	0.147	-0.141
-464.128	800.000	-0.103	-0.359
-463.113	75.441	0.216	-0.226
-462.099	800.000	-0.061	0.230
-461.084	-200.000	0.014	0.139
-460.070	208.192	-0.077	0.119
-459.055	61.464	-0.110	-0.109
-458.040	-200.000	-0.071	-0.344
-457.026	800.000	0.062	0.216
-456.011	-6.510	0.292	0.197
-454.997	-38.495	0.118	0.062
-453.982	-200.000	0.006	0.262
-452.968	-200.000	-0.011	-0.078
-451.953	-200.000	0.023	0.313
-450.938	-69.746	-0.269	0.102
-449.924	93.026	-0.047	0.053
-448.909	-145.673	-0.430	-0.038
-447.895	-200.000	-0.041	-0.203
-446.880	-200.000	-0.017	0.206
-445.865	-128.093	-0.353	0.050
-444.851	-110.448	-0.139	-0.029
-443.836	118.806	0.057	-0.070
-442.822	490.560	-0.107	-0.241
-441.807	-200.000	-0.013	-0.180
-440.792	-85.274	-0.269	-0.083
-439.778	-104.460	0.259	0.059
-438.763	-26.113	0.082	-0.048
-437.749	-200.000	-0.013	-0.188
-436.734	204.487	-0.191	0.294
-435.719	-4.588	-0.076	-0.052
-434.705	691.263	-0.082	0.213
-433.690	654.576	-0.021	-0.054
-432.676	-127.013	0.122	-0.018
-431.661	753.966	0.058	0.154
-430.646	-200.000	0.003	-0.123
-429.632	800.000	-0.012	0.048
-428.617	-77.463	-0.148	-0.051
-427.603	-200.000	0.011	-0.324
-426.588	120.426	-0.079	-0.097
-425.573	256.693	0.132	0.224
-424.559	-200.000	0.036	0.257
-423.544	715.620	-0.149	0.391
-422.530	248.661	0.079	0.132
-421.515	-12.958	0.179	-0.115
-420.500	-7.240	-0.215	0.144
-419.486	-200.000	-0.015	-0.236
-418.471	800.000	-0.059	0.239
-417.457	-200.000	-0.011	0.235
-416.442	-150.747	-0.147	-0.011
-415.428	-200.000	-0.044	-0.281
-414.413	-117.669	-0.322	0.057
-413.398	-32.011	0.116	0.064
-412.384	22.378	0.471	0.380
-411.369	-106.548	-0.409	0.090
-410.355	-48.699	-0.119	0.056
-409.340	371.562	0.081	-0.162
-408.325	800.000	-0.071	0.221
-407.311	14.034	0.094	-0.072
-406.296	-7.838	-0.184	0.122
-405.282	523.222	-0.030	-0.070
-404.267	-113.150	0.140	-0.027
-403.252	-65.645	-0.429	0.170
-402.238	90.193	0.291	0.321
-401.223	13.074	0.092	0.070
-400.209	67.659	-0.191	0.193
-399.194	15.992	-0.030	0.023
-398.179	88.076	-0.127	0.139
-397.165	-152.138	-0.059	-0.004
-396.150	207.770	0.073	0.112
-395.136	-17.207	-0.162	-0.101
-394.121	-63.183	0.075	0.030
-393.106	146.277	-0.087	0.115
-392.092	-149.996	0.484	-0.037
-391.077	800.000	-0.021	0.058
-390.063	-127.038	0.038	-0.006
-389.048	-60.747	0.415	-0.174
-388.033	287.657	-0.049	-0.087
-387.019	741.652	0.069	-0.182
-386.004	208.239	-0.221	-0.342
-384.990	6.695	0.032	-0.024
-383.975	-200.000	0.041	-0.199
-382.960	-171.311	0.218	-0.007
-381.946	58.549	0.220	0.213
-380.931	800.000	0.042	-0.144
-379.917	800.000	-0.044	0.131
-378.902	-27.682	-0.248	-0.142
-377.888	43.914	-0.328	-0.297
-376.873	-175.559	0.284	0.008
-375.858	800.000	-0.049	0.202
-374.844	-200.000	-0.010	0.109
-373.829	655.200	0.078	-0.198
-372.815	522.744	0.091	-0.210
-371.800	66.039	0.100	0.100
-370.785	216.830	-0.142	0.223
-369.771	57.689	-0.258	-0.248
-368.756	432.878	-0.045	0.096
-367.742	18.064	-0.146	0.115
-366.727	-12.425	-0.199	-0.128
-365.712	-200.000	-0.003	0.193
-364.698	-68.225	-0.296	0.113
-363.683	66.373	0.265	0.265
-362.669	372.274	-0.013	0.027
-361.654	-200.000	-0.042	0.243
-360.639	-21.932	-0.198	0.119
-359.625	-77.106	0.323	-0.111
-358.610	-22.414	-0.244	0.146
-357.596	77.440	-0.102	0.107
-356.581	-176.140	-0.113	-0.003
-355.566	800.000	0.167	0.509
-354.552	800.000	0.022	0.060
-353.537	-65.442	-0.442	0.175
-352.523	-27.436	-0.183	-0.105
-351.508	8.488	0.078	0.058
-350.493	-118.099	0.172	-0.030
-349.479	124.382	0.062	0.077
-348.464	199.062	0.104	-0.156
-347.450	203.865	-0.102	-0.156
-346.435	-83.023	0.293	0.093
-345.420	-200.000	0.008	0.462
-344.406	363.534	-0.102	-0.202
-343.391	-175.356	-0.172	-0.005
-342.377	-46.483	-0.050	-0.024
-341.362	-120.364	0.342	-0.057
-340.348	54.046	0.124	-0.117
-339.333	4.054	-0.164	-0.118
-338.318	341.540	-0.142	-0.274
-337.304	750.880	0.155	0.412
-336.289	160.331	0.125	-0.172
-335.275	-122.275	0.059	-0.010
-334.260	28.460	-0.298	-0.248
-333.245	59.864	0.165	0.160
-332.231	-132.749	-0.057	0.007
-331.216	726.465	0.089	0.233
-330.202	81.433	-0.051	-0.054
-329.187	-104.822	-0.054	0.012
-328.172	-200.000	0.055	0.265
-327.158	-37.061	-0.094	-0.050
-326.143	800.000	0.029	0.105
-325.129	574.953	0.125	-0.302
-324.114	-102.609	-0.291	-0.068
-323.099	3.535	-0.356	-0.255
-322.085	241.865	0.186	-0.306
-321.070	278.834	-0.055	0.096
-320.056	-200.000	-0.171	0.000
-319.041	-44.805	-0.155	0.076
-318.026	49.241	0.114	0.105
-317.012	59.585	0.100	-0.097
-315.997	-60.163	0.133	-0.056
-314.983	87.306	-0.337	0.367
-313.968	-59.960	0.262	0.110
-312.953	-155.122	0.204	0.013
-311.939	592.594	-0.104	0.254
-310.924	-40.963	-0.175	-0.089
-309.910	-146.014	0.224	-0.020
-308.895	-128.186	0.140	0.020
-307.880	-60.065	0.165	0.069
-306.866	-176.608	-0.280	0.007
-305.851	185.552	0.095	-0.138
-304.837	-200.000	0.038	0.222
-303.822	8.144	-0.157	-0.116
-302.807	34.269	-0.092	0.079
-301.793	-148.571	0.170	0.014
-300.778	-37.309	-0.126	-0.066
-299.764	77.845	-0.088	0.092
-298.749	-73.163	0.251	0.090
-297.735	457.872	0.096	-0.210
-296.720	-200.000	0.020	-0.141
-295.705	160.256	0.274	0.376
-294.691	-7.143	-0.246	0.164
-293.676	-168.126	0.346	0.013
-292.662	313.421	-0.055	0.103
-291.647	97.810	0.057	-0.064
-290.632	19.422	0.152	0.120
-289.618	709.554	-0.055	0.144
-288.603	-200.000	-0.044	0.272
-287.589	-200.000	0.006	0.521
-286.574	174.520	-0.105	0.150
-285.559	-86.746	-0.279	-0.084
-284.545	52.822	-0.170	-0.159
-283.530	-139.832	0.268	0.028
-282.516	56.206	0.182	0.173
-281.501	-116.091	0.299	-0.055
-280.486	-64.790	-0.404	-0.161
-279.472	46.061	0.135	0.123
-278.457	318.655	-0.085	-0.157
-277.443	274.262	0.119	0.207
-276.428	54.778	0.426	-0.404
-275.413	-61.287	0.031	0.013
-274.399	425.171	-0.156	0.329
-273.384	75.404	-0.087	0.091
-272.370	129.881	-0.236	-0.296
-271.355	800.000	-0.079	-0.237
-270.340	63.041	0.059	0.058
-269.326	30.486	-0.262	0.220
-268.311	-76.403	0.125	-0.043
-267.297	50.409	0.134	0.124
-266.282	-63.430	-0.134	-0.054
-265.267	196.294	-0.157	0.235
-264.253	-54.186	0.021	-0.009
-263.238	-200.000	-0.023	-0.336
-262.224	-142.401	-0.329	-0.032
-261.209	800.000	0.050	-0.209
-260.195	-200.000	0.140	-0.000
-259.180	-135.687	-0.188	-0.022
-258.165	-200.000	0.044	0.291
-257.151	-106.322	-0.369	0.081
-256.136	-134.530	-0.099	-0.012
-255.122	54.035	0.122	-0.115
-254.107	-193.617	0.081	0.001
-253.092	201.821	0.050	0.076
-252.078	-44.503	0.148	0.073
-251.063	26.878	0.181	0.149
-250.049	-15.268	0.163	0.102
-249.034	-94.562	-0.504	0.135
-248.019	-41.988	0.476	-0.239
-247.005	-80.477	0.147	0.048
-245.990	7.075	0.113	-0.083
-244.976	-81.648	-0.227	0.073
-243.961	272.406	-0.104	-0.180
-242.946	-158.613	0.729	-0.041
-241.932	800.000	-0.027	0.103
-240.917	-32.763	0.233	-0.127
-239.903	374.505	-0.069	-0.138
-238.888	-79.138	-0.147	-0.049
-237.873	-137.610	0.328	-0.036
-236.859	800.000	0.105	0.287
-235.844	-1.963	-0.149	0.103
-234.830	-200.000	-0.021	0.257
-233.815	-167.124	-0.508	0.020
-232.800	-200.000	-0.031	0.381
-231.786	105.323	0.168	0.195
-230.771	554.458	-0.122	0.288
-229.757	800.000	0.038	-0.149
-228.742	-200.000	0.002	-0.509
-227.727	-200.000	0.026	-0.389
-226.713	-168.575	0.241	-0.009
-225.698	-200.000	-0.004	0.274
-224.684	60.242	0.110	0.107
-223.669	-131.440	-0.280	0.036
-222.655	-92.448	-0.263	-0.073
-221.640	800.000	0.065	0.258
-220.625	-44.620	-0.075	-0.037
-219.611	-60.072	0.128	-0.053
-218.596	-112.665	0.279	-0.055
-217.582	225.240	0.095	0.151
-216.567	-200.000	-0.001	0.104
-215.552	-149.037	-0.144	-0.011
-214.538	-83.010	0.307	0.097
-213.523	-200.000	0.026	0.166
-212.509	603.812	0.070	0.170
-211.494	-66.018	0.175	0.069
-210.479	136.289	-0.123	-0.157
-209.465	-200.000	-0.009	-0.259
-208.450	800.000	-0.143	-0.454
-207.436	25.494	0.035	0.028
-206.421	-118.874	0.390	0.067
-205.406	-174.298	0.091	-0.003
-204.392	380.505	0.173	-0.348
-203.377	144.035	0.252	-0.330
-202.363	336.405	0.107	-0.203
-201.348	800.000	0.063	0.215
-200.333	-200.000	-0.018	0.086
-199.319	244.724	-0.147	-0.243
-198.304	-74.525	0.104	-0.037
-197.290	154.450	0.151	-0.202
-196.275	250.105	-0.105	0.174
-195.260	731.718	-0.079	0.208
-194.246	800.000	-0.042	-0.135
-193.231	-14.051	-0.147	-0.093
-192.217	5.395	0.059	0.043
-191.202	170.812	0.178	-0.250
-190.187	-38.457	-0.197	0.102
-189.173	-113.760	0.136	-0.026
-188.158	160.660	-0.084	0.115
-187.144	-41.468	0.115	0.058
-186.129	-135.174	-0.286	-0.034
-185.114	800.000	-0.045	-0.179
-184.100	37.302	0.186	0.162
-183.085	-68.336	-0.213	0.081
-182.071	233.373	0.048	-0.078
-181.056	84.781	-0.015	-0.016
-180.042	-51.055	0.093	-0.043
-179.027	223.285	-0.087	-0.138
-178.012	573.123	0.039	-0.092
-176.998	598.734	-0.047	-0.113
-175.983	91.573	-0.252	0.278
-174.969	-40.327	0.227	-0.116
-173.954	-200.000	-0.012	0.057
-172.939	-169.134	0.124	-0.005
-171.925	-46.623	-0.169	-0.081
-170.910	124.581	0.140	-0.173
-169.896	-95.807	-0.104	0.027
-168.881	349.356	0.113	-0.219
-167.866	-120.501	0.157	-0.026
-166.852	-200.000	-0.004	0.104
-165.837	-88.497	0.117	-0.034
-164.823	8.725	0.169	-0.124
-163.808	2.999	0.285	-0.203
-162.793	295.055	0.113	0.202
-161.779	72.374	-0.227	-0.232
-160.764	-121.428	-0.299	0.049
-159.750	58.298	-0.146	0.140
-158.735	-82.029	0.076	0.024
-157.720	-98.907	0.227	0.056
-156.706	800.000	-0.071	-0.230
-155.691	64.668	-0.296	-0.292
-154.677	343.344	0.115	-0.220
-153.662	-131.539	0.128	0.017
-152.647	800.000	-0.063	0.191
-151.633	-200.000	0.033	0.275
-150.618	-141.217	0.217	0.022
-149.604	34.756	-0.218	-0.186
-148.589	-119.421	-0.041	-0.007
-147.574	-200.000	0.018	0.278
-146.560	-200.000	-0.008	-0.081
-145.545	-159.433	0.138	-0.008
-144.531	68.053	0.141	0.141
-143.516	-111.756	0.262	0.052
-142.502	200.522	0.157	-0.236
-141.487	-200.000	-0.033	-0.226
-140.472	-200.000	0.018	0.132
-139.458	16.493	0.096	-0.074
-138.443	63.516	0.176	-0.173
-137.429	-40.787	0.361	0.183
-136.414	-200.000	0.028	0.218
-135.399	-200.000	0.005	-0.067
-134.385	117.406	0.205	0.246
-133.370	194.936	-0.301	0.447
-132.356	-30.009	0.009	0.005
-131.341	800.000	-0.045	-0.135
-130.326	800.000	0.073	0.199
-129.312	22.620	0.079	0.064
-128.297	-147.350	-0.149	-0.012
-127.283	-200.000	0.008	0.050
-126.268	94.879	0.090	0.100
-125.253	66.283	-0.093	-0.092
-124.239	-119.908	-0.254	-0.043
-123.224	-200.000	0.029	0.263
-122.210	800.000	-0.106	0.311
-121.195	-52.770	0.067	-0.030
-120.180	195.065	0.101	0.149
