DTS Sentinel unit serial number:	SN413079Multiplexer serial number:	ORYXHardware model number:	OX4-SRSoftware version number:	ORYX F/W v4.00 Oryx Data Collector v3.7.2.0data status	okinstallation	princeton_trtdifferential loss correction	single-endedforward channel	channel 3reverse channel	N/Adate	2019/09/11time	07:10:10forward acquisition time	60.00reverse acquisition time	0.00gamma	496.2192k internal	0.2328k external	0.2328temperature offset calibration	0.9903default loss term (dB/km)	0.3790temperature slope calibration	1.0000multiplexer offset coefficient	1.0000multiplexer slope coefficient	1.0000fibre end	0.00T internal ref (°C)	30.41T ext. ref 1 (°C)	-0.09T ext. ref 2 (°C)	26.40length (m)	temperature (°C)	Stokes	anti-Stokes-747.200	-48.065	-0.159	-0.077
-746.185	561.759	-0.115	0.281
-745.171	4.131	0.167	0.123
-744.156	-140.373	-0.333	-0.035
-743.142	72.843	0.253	0.266
-742.127	-200.000	0.008	0.081
-741.112	92.491	0.149	-0.170
-740.098	-20.173	0.171	0.106
-739.083	3.035	-0.213	-0.156
-738.069	-137.440	-0.213	0.024
-737.054	-71.979	-0.157	-0.059
-736.039	800.000	-0.046	0.178
-735.025	-51.582	0.291	-0.137
-734.010	-124.411	-0.484	0.076
-732.996	-74.820	0.123	-0.045
-731.981	540.491	0.047	-0.113
-730.966	-106.982	-0.365	0.081
-729.952	-110.155	-0.283	0.059
-728.937	-169.133	0.105	-0.004
-727.923	-142.828	-0.142	0.014
-726.908	42.273	0.078	-0.071
-725.894	52.905	-0.142	-0.137
-724.879	128.664	-0.174	-0.223
-723.864	-200.000	-0.028	-0.214
-722.850	100.414	0.171	0.199
-721.835	100.902	0.108	-0.126
-720.821	56.915	0.171	0.167
-719.806	332.714	-0.059	0.116
-718.791	-54.380	-0.095	-0.043
-717.777	219.604	-0.191	0.308
-716.762	382.524	0.135	-0.279
-715.748	-88.611	-0.198	0.059
-714.733	-31.148	-0.301	0.171
-713.718	35.219	-0.290	0.256
-712.704	13.112	0.203	-0.158
-711.689	135.045	-0.193	0.253
-710.675	-200.000	0.014	0.429
-709.660	10.465	-0.266	0.204
-708.645	571.432	-0.027	-0.065
-707.631	79.848	0.252	0.273
-706.616	-148.534	0.190	0.016
-705.602	-200.000	0.008	0.448
-704.587	-29.272	0.143	-0.082
-703.572	-88.141	-0.203	0.061
-702.558	-200.000	0.002	-0.316
-701.543	800.000	-0.056	0.188
-700.529	497.937	0.145	0.337
-699.514	451.984	-0.106	0.236
-698.499	-200.000	-0.051	-0.340
-697.485	-200.000	0.008	0.073
-696.470	137.491	-0.168	-0.221
-695.456	-14.939	-0.201	0.130
-694.441	429.222	0.107	-0.233
-693.426	-82.914	0.394	0.128
-692.412	-157.494	-0.055	-0.003
-691.397	800.000	-0.072	-0.216
-690.383	390.584	-0.146	-0.304
-689.368	800.000	0.128	0.389
-688.354	-172.082	-0.199	-0.006
-687.339	-35.109	-0.218	-0.119
-686.324	-83.698	-0.086	0.028
-685.310	131.955	0.075	-0.097
-684.295	20.593	-0.045	-0.037
-683.281	147.078	0.114	-0.154
-682.266	664.896	0.138	-0.359
-681.251	274.130	0.078	-0.140
-680.237	-173.132	0.315	-0.010
-679.222	258.067	0.114	0.197
-678.208	-170.445	-0.238	0.008
-677.193	28.901	0.260	0.222
-676.178	-74.548	0.277	0.100
-675.164	-200.000	-0.018	-0.092
-674.149	253.884	0.207	-0.356
-673.135	-200.000	0.006	0.113
-672.120	244.786	0.136	0.230
-671.105	198.783	-0.098	0.150
-670.091	200.058	-0.255	-0.394
-669.076	4.263	-0.118	-0.087
-668.062	263.287	-0.160	-0.279
-667.047	-200.000	-0.062	0.392
-666.032	-200.000	-0.006	-0.138
-665.018	-90.772	0.465	0.135
-664.003	-12.400	-0.324	0.213
-662.989	-200.000	-0.031	-0.289
-661.974	-106.437	0.244	-0.055
-660.959	-146.520	-0.124	-0.011
-659.945	697.376	0.038	-0.101
-658.930	-83.018	0.234	0.076
-657.916	-51.743	0.322	0.151
-656.901	800.000	0.078	-0.240
-655.886	219.477	-0.149	0.240
-654.872	-200.000	0.038	0.267
-653.857	37.085	-0.159	0.142
-652.843	-36.393	-0.354	-0.191
-651.828	131.538	0.036	-0.047
-650.814	-38.134	0.150	-0.080
-649.799	-132.658	-0.140	-0.018
-648.784	184.848	-0.180	0.269
-647.770	-200.000	-0.003	0.047
-646.755	-25.606	0.081	-0.048
-645.741	-17.573	0.122	-0.077
-644.726	-19.845	-0.256	-0.159
-643.711	-91.673	0.350	-0.100
-642.697	-200.000	-0.048	-0.346
-641.682	-200.000	0.025	-0.170
-640.668	18.957	0.198	0.159
-639.653	593.302	-0.114	0.282
-638.638	17.661	0.042	0.033
-637.624	-118.178	0.194	-0.035
-636.609	-74.402	0.242	0.088
-635.595	78.410	-0.084	-0.090
-634.580	357.298	-0.086	-0.173
-633.565	469.031	-0.063	-0.143
-632.551	-200.000	-0.007	-0.111
-631.536	-44.766	0.082	0.041
-630.522	-200.000	-0.033	0.304
-629.507	-50.704	0.097	0.046
-628.492	-148.728	0.309	-0.025
-627.478	-70.847	0.268	-0.101
-626.463	800.000	-0.039	0.117
-625.449	-126.581	-0.107	-0.016
-624.434	55.298	0.109	-0.106
-623.419	194.615	-0.093	-0.141
-622.405	800.000	0.061	-0.177
-621.390	-200.000	-0.005	0.124
-620.376	-25.292	-0.174	0.103
-619.361	108.623	-0.040	-0.048
-618.346	3.519	0.100	-0.073
-617.332	121.331	-0.208	-0.259
-616.317	182.452	-0.098	-0.145
-615.303	-79.774	0.284	-0.096
-614.288	175.050	0.137	-0.200
-613.273	340.688	0.105	0.205
-612.259	217.026	0.138	0.220
-611.244	-131.450	0.116	0.015
-610.230	-112.557	0.349	-0.070
-609.215	800.000	0.087	-0.253
-608.201	45.436	-0.290	-0.268
-607.186	-185.011	-0.259	-0.004
-606.171	25.603	0.387	-0.323
-605.157	-19.341	0.159	0.099
-604.142	-26.089	-0.416	-0.245
-603.128	56.777	-0.125	-0.122
-602.113	-200.000	0.022	0.198
-601.098	-200.000	0.049	0.275
-600.084	-200.000	-0.017	-0.360
-599.069	210.271	-0.119	0.188
-598.055	772.900	-0.132	0.362
-597.040	-172.730	0.192	-0.006
-596.025	-16.819	-0.313	0.198
-595.011	800.000	0.087	-0.367
-593.996	-139.348	-0.379	-0.041
-592.982	521.763	-0.082	-0.193
-591.967	167.534	-0.118	0.167
-590.952	-85.637	-0.074	-0.023
-589.938	-30.156	-0.099	0.057
-588.923	734.821	0.151	-0.405
-587.909	136.502	0.096	-0.125
-586.894	800.000	-0.057	-0.158
-585.879	234.027	-0.075	-0.123
-584.865	2.712	-0.419	-0.304
-583.850	-92.241	0.181	-0.051
-582.836	85.361	0.050	0.054
-581.821	100.205	-0.073	0.085
-580.806	-127.635	0.189	-0.027
-579.792	480.576	0.018	-0.041
-578.777	-41.543	-0.090	0.046
-577.763	404.625	-0.119	-0.250
-576.748	-129.768	0.392	-0.054
-575.733	-200.000	0.074	0.403
-574.719	-200.000	0.065	-0.397
-573.704	228.604	0.134	-0.218
-572.690	-200.000	-0.006	-0.152
-571.675	173.056	0.197	-0.284
-570.661	-87.386	0.166	0.050
-569.646	108.459	-0.230	-0.274
-568.631	-60.970	0.258	-0.109
-567.617	-165.572	0.351	-0.015
-566.602	-200.000	0.044	0.209
-565.588	800.000	-0.034	0.147
-564.573	-200.000	0.013	0.065
-563.558	-200.000	0.086	0.528
-562.544	-114.308	-0.211	-0.041
-561.529	-200.000	0.096	-0.460
-560.515	-12.791	-0.128	0.083
-559.500	-200.000	0.025	0.131
-558.485	303.588	-0.124	-0.230
-557.471	-200.000	0.012	-0.103
-556.456	-56.656	-0.285	0.126
-555.442	-44.452	0.148	0.074
-554.427	228.830	-0.147	0.239
-553.412	-27.321	-0.137	0.080
-552.398	534.878	-0.047	-0.111
-551.383	517.694	0.056	0.132
-550.369	-108.547	-0.198	0.043
-549.354	420.176	0.087	0.186
-548.339	94.529	-0.051	0.058
-547.325	-200.000	0.045	-0.367
-546.310	82.578	-0.025	-0.028
-545.296	137.835	-0.017	0.023
-544.281	317.851	-0.058	-0.109
-543.266	-56.026	0.206	0.092
-542.252	-144.256	-0.314	-0.029
-541.237	-113.621	-0.213	0.042
-540.223	-200.000	0.007	0.113
-539.208	405.673	-0.053	-0.111
-538.193	800.000	-0.037	-0.112
-537.179	336.389	-0.118	0.228
-536.164	-200.000	-0.038	0.425
-535.150	-124.198	0.160	0.025
-534.135	668.984	0.057	-0.147
-533.121	-200.000	-0.064	-0.383
-532.106	-114.506	-0.055	-0.010
-531.091	-35.215	-0.050	-0.027
-530.077	-30.975	0.317	-0.179
-529.062	-158.963	0.486	0.028
-528.048	-200.000	0.025	0.196
-527.033	-53.766	0.118	0.054
-526.018	-97.770	-0.187	0.048
-525.004	-112.700	0.194	0.039
-523.989	233.314	0.108	0.178
-522.975	493.397	0.040	-0.091
-521.960	6.261	0.314	-0.233
-520.945	-113.568	0.103	-0.020
-519.931	229.225	0.010	-0.016
-518.916	79.665	0.244	0.262
-517.902	79.021	0.101	0.108
-516.887	75.577	0.060	0.063
-515.872	16.068	-0.130	0.103
-514.858	71.263	-0.119	0.123
-513.843	-51.205	-0.465	-0.218
-512.829	-200.000	-0.011	-0.263
-511.814	-167.837	0.160	-0.006
-510.799	-200.000	-0.018	-0.390
-509.785	199.448	-0.114	-0.174
-508.770	13.491	-0.171	-0.133
-507.756	32.483	-0.118	-0.102
-506.741	106.497	-0.061	0.073
-505.726	200.674	0.098	-0.151
-504.712	298.894	0.255	-0.469
-503.697	-70.020	0.267	-0.102
-502.683	109.309	0.125	0.149
-501.668	-51.382	0.150	-0.070
-500.653	-200.000	0.019	-0.285
-499.639	108.830	0.142	0.170
-498.624	-100.676	-0.082	-0.020
-497.610	-153.032	-0.062	-0.004
-496.595	-51.990	0.092	-0.043
-495.581	572.690	-0.183	-0.444
-494.566	-32.958	0.276	-0.153
-493.551	-200.000	0.010	-0.316
-492.537	62.114	0.062	-0.062
-491.522	-62.845	0.021	-0.009
-490.508	-4.819	-0.160	0.110
-489.493	-176.741	0.330	-0.008
-488.478	433.483	0.018	-0.039
-487.464	-200.000	0.010	0.092
-486.449	55.066	-0.124	-0.119
-485.435	139.931	-0.085	-0.111
-484.420	-37.218	-0.066	-0.035
-483.405	128.717	-0.081	0.103
-482.391	-9.662	-0.181	0.121
-481.376	108.727	-0.105	-0.125
-480.362	-9.013	0.086	-0.058
-479.347	-23.865	0.176	0.105
-478.332	-200.000	0.023	0.117
-477.318	-200.000	-0.060	0.357
-476.303	-56.743	0.062	0.027
-475.289	74.038	0.065	0.068
-474.274	-75.802	0.172	0.061
-473.259	-4.443	-0.100	0.069
-472.245	215.476	0.163	0.258
-471.230	800.000	0.043	0.140
-470.216	-78.959	0.231	-0.078
-469.201	-200.000	0.016	0.107
-468.186	-17.230	0.108	0.068
-467.172	-122.903	0.122	0.020
-466.157	64.496	-0.221	0.222
-465.143	332.685	-0.141	-0.272
-464.128	318.027	-0.223	0.420
-463.113	-114.578	0.297	-0.057
-462.099	-113.568	-0.109	0.021
-461.084	-115.873	0.196	-0.037
-460.070	-110.441	0.157	0.032
-459.055	-200.000	-0.022	0.098
-458.040	-18.522	-0.160	0.100
-457.026	800.000	-0.073	0.263
-456.011	155.141	-0.268	0.368
-454.997	-89.379	0.040	-0.012
-453.982	800.000	0.079	0.289
-452.968	-99.241	-0.076	-0.019
-451.953	-62.191	-0.251	-0.104
-450.938	-92.881	-0.300	-0.084
-449.924	-200.000	0.004	0.128
-448.909	-138.355	0.219	0.024
-447.895	24.977	0.151	0.125
-446.880	-99.360	-0.354	0.089
-445.865	-16.419	0.270	-0.171
-444.851	215.299	-0.131	0.207
-443.836	44.492	-0.229	-0.210
-442.822	-107.699	-0.230	-0.050
-441.807	-90.758	0.251	-0.072
-440.792	-85.087	0.340	0.106
-439.778	-200.000	0.033	-0.355
-438.763	-200.000	0.037	0.235
-437.749	-98.243	0.191	0.049
-436.734	126.604	-0.110	-0.138
-435.719	800.000	-0.031	0.088
-434.705	19.483	-0.259	-0.208
-433.690	-171.127	0.493	0.017
-432.676	-200.000	0.009	-0.350
-431.661	-200.000	-0.062	-0.300
-430.646	270.686	-0.152	0.266
-429.632	-200.000	0.032	-0.205
-428.617	-10.438	0.277	0.183
-427.603	-16.659	-0.337	0.212
-426.588	-200.000	-0.073	-0.373
-425.573	800.000	-0.079	-0.285
-424.559	106.612	0.218	-0.257
-423.544	800.000	-0.069	-0.242
-422.530	276.168	-0.176	-0.312
-421.515	140.052	0.137	-0.180
-420.500	-27.511	0.117	0.068
-419.486	13.135	-0.377	-0.290
-418.471	800.000	-0.086	0.362
-417.457	-48.391	-0.162	-0.078
-416.442	15.533	0.180	-0.140
-415.428	110.766	-0.086	-0.104
-414.413	120.282	0.174	-0.215
-413.398	-73.758	0.070	0.025
-412.384	-200.000	0.022	-0.101
-411.369	59.835	0.281	0.276
-410.355	-68.050	-0.096	0.037
-409.340	48.253	0.169	0.157
-408.325	55.803	-0.200	0.193
-407.311	30.916	0.069	0.059
-406.296	-117.298	-0.050	0.009
-405.282	493.934	-0.066	-0.151
-404.267	-200.000	-0.033	0.282
-403.252	-146.180	0.276	0.024
-402.238	-58.617	0.391	-0.169
-401.223	6.386	-0.189	-0.139
-400.209	-23.151	0.017	-0.010
-399.194	-47.907	-0.210	0.101
-398.179	126.118	-0.412	-0.518
-397.165	183.121	0.067	0.098
-396.150	-120.105	0.170	0.029
-395.136	114.198	0.070	-0.085
-394.121	-83.381	-0.119	-0.038
-393.106	-3.850	0.183	-0.126
-392.092	-176.421	-0.274	-0.007
-391.077	-60.094	0.499	-0.211
-390.063	-200.000	0.009	0.067
-389.048	-94.009	-0.120	0.033
-388.033	-200.000	-0.023	0.185
-387.019	31.314	0.078	-0.066
-386.004	387.120	0.088	0.182
-384.990	-4.421	0.155	-0.107
-383.975	-73.295	0.012	0.004
-382.960	800.000	0.044	0.133
-381.946	-67.170	-0.067	0.026
-380.931	800.000	-0.087	0.375
-379.917	200.345	0.177	0.271
-378.902	110.732	-0.123	0.147
-377.888	148.084	-0.154	-0.207
-376.873	-193.339	-0.274	0.002
-375.858	-7.906	0.175	0.117
-374.844	800.000	0.047	0.136
-373.829	-65.702	0.349	-0.139
-372.815	-24.896	-0.128	-0.075
-371.800	800.000	-0.097	0.360
-370.785	118.577	0.099	-0.121
-369.771	113.775	-0.150	-0.181
-368.756	-78.594	-0.235	-0.080
-367.742	-45.924	0.181	0.088
-366.727	-191.464	-0.520	0.005
-365.712	-74.834	-0.262	-0.093
-364.698	-200.000	-0.005	0.412
-363.683	-84.255	0.355	0.112
-362.669	-33.301	-0.390	0.215
-361.654	388.957	0.072	0.147
-360.639	-90.853	0.141	-0.040
-359.625	-74.370	0.121	0.043
-358.610	-138.172	-0.260	-0.029
-357.596	80.576	0.169	0.181
-356.581	405.541	0.056	-0.116
-355.566	91.242	-0.229	-0.256
-354.552	-200.000	-0.005	0.235
-353.537	-200.000	-0.013	0.294
-352.523	-136.502	0.276	0.032
-351.508	12.804	-0.231	-0.177
-350.493	262.310	-0.153	0.263
-349.479	800.000	0.040	0.145
-348.464	610.071	-0.122	-0.303
-347.450	227.257	-0.075	-0.121
-346.435	201.844	0.181	-0.277
-345.420	25.838	-0.262	0.217
-344.406	21.749	-0.138	-0.111
-343.391	111.457	0.201	-0.241
-342.377	800.000	0.054	-0.188
-341.362	-56.803	-0.498	-0.219
-340.348	659.342	-0.015	-0.038
-339.333	-118.935	0.272	0.047
-338.318	-200.000	-0.020	-0.109
-337.304	190.202	0.082	0.122
-336.289	364.518	-0.079	-0.157
-335.275	-107.223	0.361	0.079
-334.260	-200.000	0.005	0.173
-333.245	643.266	0.083	-0.211
-332.231	-200.000	-0.030	-0.151
-331.216	800.000	0.150	-0.452
-330.202	-53.391	-0.143	0.065
-329.187	-200.000	0.016	-0.236
-328.172	-200.000	-0.017	0.231
-327.158	-159.949	-0.272	0.015
-326.143	-51.386	0.187	-0.087
-325.129	-200.000	0.164	-0.001
-324.114	-35.056	-0.394	0.213
-323.099	584.587	0.080	0.194
-322.085	800.000	-0.003	-0.013
-321.070	-200.000	0.010	0.063
-320.056	-80.645	-0.160	-0.053
-319.041	800.000	-0.138	-0.395
-318.026	-58.896	0.077	0.033
-317.012	800.000	0.006	0.018
-315.997	260.505	0.046	-0.078
-314.983	800.000	-0.046	0.134
-313.968	-26.106	-0.247	0.144
-312.953	-200.000	0.036	-0.317
-311.939	2.044	-0.206	0.147
-310.924	407.961	-0.132	-0.277
-309.910	-142.623	-0.017	0.002
-308.895	-17.116	-0.231	0.144
-307.880	54.830	0.121	0.116
-306.866	56.673	0.260	0.251
-305.851	26.479	-0.290	0.240
-304.837	-34.373	-0.436	0.237
-303.822	12.113	-0.181	-0.138
-302.807	311.501	0.182	-0.338
-301.793	-200.000	-0.003	0.130
-300.778	800.000	-0.112	-0.370
-299.764	-200.000	0.005	-0.213
-298.749	253.266	0.156	-0.263
-297.735	-72.956	0.273	-0.099
-296.720	-91.794	-0.345	0.097
-295.705	140.485	-0.035	-0.046
-294.691	-118.744	-0.215	0.038
-293.676	-29.333	-0.064	0.036
-292.662	-104.142	0.179	0.041
-291.647	800.000	-0.054	-0.157
-290.632	-107.679	0.307	0.066
-289.618	351.352	0.118	-0.230
-288.603	800.000	0.044	0.185
-287.589	-47.724	-0.168	-0.081
-286.574	408.671	-0.037	-0.079
-285.559	70.251	-0.079	0.081
-284.545	9.776	-0.214	0.161
-283.530	114.637	0.258	0.311
-282.516	68.283	0.024	0.024
-281.501	153.988	0.213	0.289
-280.486	116.980	-0.150	-0.182
-279.472	-53.691	-0.225	0.102
-278.457	-45.809	0.122	0.060
-277.443	-200.000	-0.020	0.164
-276.428	497.849	0.050	0.114
-275.413	7.744	-0.157	0.116
-274.399	96.181	0.128	-0.145
-273.384	-200.000	0.080	0.000
-272.370	647.008	-0.127	0.320
-271.355	303.187	-0.100	-0.184
-270.340	800.000	-0.132	-0.398
-269.326	325.928	-0.174	0.329
-268.311	800.000	0.101	0.292
-267.297	-83.133	-0.278	0.089
-266.282	76.457	-0.229	0.240
-265.267	266.320	0.075	-0.130
-264.253	372.178	0.088	-0.177
-263.238	-73.123	0.111	-0.040
-262.224	52.184	0.061	-0.058
-261.209	4.280	-0.210	0.152
-260.195	599.976	-0.036	-0.087
-259.180	71.614	0.082	0.085
-258.165	39.282	-0.136	0.120
-257.151	-200.000	-0.003	0.085
-256.136	-200.000	-0.012	0.068
-255.122	362.908	0.152	0.302
-254.107	142.069	0.124	0.163
-253.092	162.909	0.196	-0.272
-252.078	-90.740	0.469	-0.134
-251.063	24.051	-0.263	0.215
-250.049	-200.000	-0.022	0.137
-249.034	93.566	-0.304	-0.341
-248.019	-24.119	-0.449	0.265
-247.005	154.571	-0.212	-0.288
-245.990	800.000	-0.053	0.156
-244.976	-116.890	-0.298	-0.054
-243.961	-127.822	-0.142	-0.020
-242.946	-122.044	-0.236	0.038
-241.932	-200.000	0.014	-0.210
-240.917	7.356	0.164	-0.121
-239.903	-40.583	0.264	-0.135
-238.888	567.417	-0.039	-0.094
-237.873	-46.261	-0.199	-0.096
-236.859	-200.000	0.012	0.146
-235.844	-70.943	-0.257	0.096
-234.830	-200.000	0.002	-0.118
-233.815	67.841	0.197	-0.199
-232.800	59.198	-0.168	-0.163
-231.786	241.388	-0.049	0.081
-230.771	-143.684	0.225	-0.021
-229.757	-141.832	-0.203	-0.020
-228.742	-200.000	0.035	-0.333
-227.727	800.000	0.097	0.348
-226.713	800.000	0.084	0.234
-225.698	225.112	-0.040	0.063
-224.684	-5.573	0.144	-0.097
-223.669	-143.271	0.223	0.021
-222.655	800.000	0.117	-0.384
-221.640	199.326	0.192	0.291
-220.625	81.496	0.259	0.276
-219.611	-142.869	0.159	-0.015
-218.596	-200.000	-0.012	0.178
-217.582	-77.709	0.184	-0.063
-216.567	468.523	0.064	-0.142
-215.552	-89.076	-0.118	0.034
-214.538	232.747	-0.182	0.296
-213.523	800.000	0.074	0.231
-212.509	379.516	-0.012	-0.024
-211.494	-51.549	-0.455	-0.209
-210.479	-13.829	0.099	-0.063
-209.465	800.000	0.016	0.049
-208.450	-78.071	-0.315	0.107
-207.436	517.375	0.028	0.064
-206.421	171.426	-0.192	-0.272
-205.406	232.661	0.095	0.154
-204.392	-200.000	-0.022	-0.128
-203.377	289.833	-0.074	-0.133
-202.363	-23.272	-0.202	0.120
-201.348	-134.272	-0.240	0.029
-200.333	-75.700	0.206	0.072
-199.319	-200.000	0.016	0.249
-198.304	-35.360	0.310	-0.166
-197.290	-46.428	0.087	0.042
-196.275	150.853	0.290	-0.389
-195.260	-200.000	-0.019	0.092
-194.246	377.359	-0.095	0.191
-193.231	-136.281	0.419	0.048
-192.217	-170.045	-0.135	0.005
-191.202	-200.000	-0.006	-0.092
-190.187	-132.636	0.315	-0.040
-189.173	-66.410	0.279	0.110
-188.158	-128.657	0.166	0.023
-187.144	177.883	0.088	-0.126
-186.129	-200.000	0.038	-0.300
-185.114	180.949	0.242	0.350
-184.100	358.973	0.175	0.344
-183.085	-200.000	-0.063	0.326
-182.071	-113.414	0.126	-0.024
-181.056	28.179	0.217	0.181
-180.042	-46.527	-0.331	-0.160
-179.027	-138.432	-0.292	0.032
-178.012	-200.000	-0.068	0.306
-176.998	-163.004	0.225	-0.011
-175.983	800.000	0.120	0.336
-174.969	-74.825	-0.307	-0.109
-173.954	-143.075	0.377	-0.036
-172.939	-11.964	-0.253	-0.163
-171.925	264.625	0.233	0.401
-170.910	114.521	0.221	0.265
-169.896	469.050	-0.058	0.128
-168.881	117.516	0.250	-0.304
-167.866	546.651	0.101	-0.239
-166.852	10.737	-0.378	-0.284
-165.837	54.424	0.323	0.306
-164.823	791.356	0.101	0.274
-163.808	767.576	-0.059	0.159
-162.793	-97.234	0.207	0.053
-161.779	77.933	-0.183	0.192
-160.764	74.780	-0.260	0.270
-159.750	-200.000	0.020	0.370
-158.735	665.432	-0.143	0.363
-157.720	471.485	0.003	-0.006
-156.706	-54.108	-0.142	0.064
-155.691	37.184	-0.161	-0.141
-154.677	800.000	-0.063	0.189
-153.662	-200.000	0.018	-0.187
-152.647	-200.000	-0.050	0.457
-151.633	403.928	-0.247	0.512
-150.618	-115.967	-0.353	-0.065
-149.604	800.000	0.045	-0.131
-148.589	-178.456	-0.406	-0.009
-147.574	-178.021	0.380	-0.009
-146.560	-114.367	-0.197	0.037
-145.545	800.000	0.007	0.030
-144.531	800.000	-0.054	-0.180
-143.516	363.183	-0.140	0.276
-142.502	-78.916	0.147	-0.049
-141.487	800.000	-0.056	0.241
-140.472	-155.388	0.085	-0.005
-139.458	-101.279	-0.184	0.044
-138.443	182.041	0.035	0.051
-137.429	-32.774	-0.269	0.147
-136.414	-77.644	0.242	0.082
-135.399	-40.612	-0.093	0.047
-134.385	611.090	0.023	0.056
-133.370	21.339	-0.102	-0.082
-132.356	324.316	-0.078	-0.147
-131.341	463.490	-0.070	0.155
-130.326	6.992	0.159	-0.116
-129.312	-27.767	0.359	0.205
-128.297	58.010	0.124	-0.119
-127.283	-200.000	-0.002	0.046
-126.268	-200.000	0.025	-0.190
-125.253	-6.490	-0.075	-0.050
-124.239	67.212	0.158	0.159
-123.224	42.699	0.459	0.411
-122.210	-69.181	0.088	0.033
-121.195	-111.982	-0.127	-0.025
