DTS Sentinel unit serial number:	SN413079Multiplexer serial number:	ORYXHardware model number:	OX4-SRSoftware version number:	ORYX F/W v4.00 Oryx Data Collector v3.7.2.0data status	okinstallation	princeton_trtdifferential loss correction	single-endedforward channel	channel 3reverse channel	N/Adate	2019/09/12time	20:48:35forward acquisition time	60.00reverse acquisition time	0.00gamma	496.2192k internal	0.2324k external	0.2324temperature offset calibration	1.0125default loss term (dB/km)	0.3790temperature slope calibration	1.0000multiplexer offset coefficient	1.0000multiplexer slope coefficient	1.0000fibre end	0.00T internal ref (°C)	31.02T ext. ref 1 (°C)	3.56T ext. ref 2 (°C)	25.59length (m)	temperature (°C)	Stokes	anti-Stokes-747.200	190.281	-0.053	0.081
-746.185	-114.630	0.236	0.046
-745.171	-8.287	-0.371	-0.252
-744.156	-59.864	0.206	0.089
-743.142	14.399	0.140	0.110
-742.127	-91.339	-0.346	-0.100
-741.112	800.000	-0.132	0.397
-740.098	-121.203	-0.148	-0.025
-739.083	-28.548	-0.154	-0.089
-738.069	171.012	-0.126	-0.182
-737.054	-52.596	-0.417	0.194
-736.039	800.000	-0.098	-0.276
-735.025	25.525	0.031	0.026
-734.010	58.454	-0.330	-0.327
-732.996	164.186	-0.147	-0.210
-731.981	-166.049	-0.191	-0.008
-730.966	111.663	-0.253	-0.308
-729.952	800.000	-0.170	-0.617
-728.937	124.702	-0.105	0.133
-727.923	-200.000	-0.019	-0.216
-726.908	-200.000	0.025	-0.270
-725.894	800.000	-0.112	-0.375
-724.879	-94.683	-0.238	-0.065
-723.864	-157.857	-0.277	0.017
-722.850	220.818	0.152	-0.246
-721.835	-22.865	-0.442	-0.269
-720.821	-162.171	0.394	0.020
-719.806	-128.595	-0.427	-0.061
-718.791	-115.874	-0.227	-0.043
-717.777	-16.443	-0.193	0.123
-716.762	-18.722	0.162	-0.102
-715.748	-123.036	0.186	-0.030
-714.733	-47.309	-0.303	-0.148
-713.718	-200.000	-0.015	0.160
-712.704	434.995	0.154	0.337
-711.689	17.851	-0.285	0.229
-710.675	40.546	-0.126	-0.115
-709.660	641.493	0.195	-0.501
-708.645	1.993	-0.092	-0.067
-707.631	-200.000	-0.004	0.055
-706.616	-200.000	-0.028	0.514
-705.602	-200.000	0.038	-0.209
-704.587	2.805	0.296	0.216
-703.572	-200.000	-0.027	0.246
-702.558	800.000	0.093	-0.386
-701.543	-144.703	0.174	0.016
-700.529	-101.169	0.083	-0.020
-699.514	-125.493	-0.458	0.070
-698.499	135.705	-0.194	0.255
-697.485	-60.852	0.194	-0.083
-696.470	-15.546	-0.081	-0.052
-695.456	-97.820	0.239	-0.062
-694.441	329.873	0.160	-0.310
-693.426	-64.789	-0.251	0.102
-692.412	-200.000	-0.003	-0.160
-691.397	-31.619	-0.286	-0.162
-690.383	-86.354	0.266	0.082
-689.368	235.180	0.078	-0.130
-688.354	-160.983	0.252	-0.013
-687.339	143.864	-0.152	-0.204
-686.324	-189.596	0.041	0.000
-685.310	335.126	-0.113	0.220
-684.295	800.000	-0.056	0.208
-683.281	-129.306	-0.131	-0.018
-682.266	340.159	0.114	-0.224
-681.251	-128.571	0.418	-0.060
-680.237	246.108	0.129	-0.219
-679.222	278.721	-0.086	0.154
-678.208	298.594	-0.051	-0.095
-677.193	-200.000	0.029	-0.277
-676.178	245.269	-0.170	0.288
-675.164	-200.000	-0.037	-0.513
-674.149	-200.000	0.005	-0.086
-673.135	-8.017	-0.191	0.130
-672.120	786.970	0.032	0.088
-671.105	80.527	0.249	-0.269
-670.091	153.063	0.115	0.158
-669.076	-115.336	-0.187	-0.036
-668.062	217.296	0.089	-0.143
-667.047	541.660	-0.123	0.296
-666.032	800.000	-0.050	-0.174
-665.018	157.787	0.242	0.337
-664.003	-200.000	-0.020	0.135
-662.989	40.225	-0.125	-0.113
-661.974	-114.231	0.107	-0.021
-660.959	-152.592	0.096	-0.007
-659.945	-34.958	-0.400	0.219
-658.930	254.806	0.130	0.223
-657.916	125.345	0.140	0.178
-656.901	112.478	-0.122	0.149
-655.886	633.869	0.166	-0.423
-654.872	-47.884	0.077	-0.037
-653.857	-200.000	0.023	0.343
-652.843	-200.000	-0.022	-0.124
-651.828	-200.000	0.020	-0.694
-650.814	-200.000	0.027	0.151
-649.799	-200.000	-0.016	0.277
-648.784	800.000	0.017	-0.069
-647.770	-177.448	-0.260	0.006
-646.755	560.902	-0.068	0.166
-645.741	42.385	-0.115	0.106
-644.726	-161.845	0.136	0.007
-643.711	-3.284	0.125	0.087
-642.697	-113.200	0.226	-0.045
-641.682	35.999	0.145	0.129
-640.668	-128.353	-0.098	-0.014
-639.653	-200.000	-0.008	0.185
-638.638	800.000	0.053	-0.163
-637.624	27.227	-0.149	0.126
-636.609	-74.674	0.098	-0.036
-635.595	-200.000	-0.003	0.082
-634.580	-105.444	-0.090	0.021
-633.565	800.000	-0.071	0.202
-632.551	-200.000	-0.017	0.082
-631.536	166.841	0.135	0.193
-630.522	800.000	0.050	0.216
-629.507	-200.000	0.027	-0.173
-628.492	-104.526	0.255	0.059
-627.478	800.000	0.047	-0.133
-626.463	800.000	0.022	0.078
-625.449	-132.151	-0.123	-0.016
-624.434	-57.736	-0.040	0.018
-623.419	111.575	0.201	-0.243
-622.405	-95.435	-0.308	-0.083
-621.390	-173.858	0.081	0.002
-620.376	97.296	0.064	0.074
-619.361	-120.479	0.182	0.031
-618.346	43.401	-0.237	-0.218
-617.332	-97.178	-0.404	-0.106
-616.317	-200.000	0.023	-0.117
-615.303	20.096	-0.146	-0.119
-614.288	-200.000	-0.038	-0.262
-613.273	-150.701	-0.056	-0.004
-612.259	27.352	-0.075	0.063
-611.244	-200.000	0.003	-0.197
-610.230	-200.000	0.054	0.363
-609.215	-38.667	-0.249	-0.132
-608.201	72.001	-0.148	-0.155
-607.186	386.415	0.018	-0.037
-606.171	179.706	-0.188	0.277
-605.157	34.535	-0.071	-0.062
-604.142	296.048	0.057	-0.104
-603.128	-146.449	0.154	0.014
-602.113	-21.628	0.351	-0.214
-601.098	23.697	0.176	0.146
-600.084	-49.613	-0.066	-0.032
-599.069	-200.000	0.031	-0.308
-598.055	297.134	0.031	-0.057
-597.040	241.298	0.043	-0.072
-596.025	153.056	0.179	0.245
-595.011	800.000	-0.056	0.223
-593.996	-200.000	0.009	0.080
-592.982	3.285	-0.208	0.152
-591.967	132.101	0.077	0.100
-590.952	-43.133	-0.166	-0.084
-589.938	-154.723	0.043	-0.003
-588.923	-93.655	-0.141	-0.039
-587.909	-127.699	-0.217	-0.032
-586.894	-73.470	0.228	-0.083
-585.879	173.261	0.160	-0.232
-584.865	17.282	0.160	-0.128
-583.850	599.214	-0.130	0.324
-582.836	-136.787	0.065	-0.008
-581.821	-152.413	-0.213	0.015
-580.806	-43.397	-0.223	-0.113
-579.792	543.654	0.105	-0.252
-578.777	-49.289	-0.248	0.119
-577.763	-46.660	0.154	0.076
-576.748	-19.074	-0.179	-0.112
-575.733	-63.426	0.184	0.076
-574.719	-182.868	-0.224	0.004
-573.704	-71.004	0.194	-0.073
-572.690	463.556	0.033	0.073
-571.675	-163.575	0.111	-0.005
-570.661	343.058	0.081	0.159
-569.646	-69.223	0.117	0.045
-568.631	-200.000	-0.002	-0.109
-567.617	557.769	-0.049	-0.119
-566.602	-10.107	-0.212	-0.141
-565.588	-162.190	0.422	0.021
-564.573	-23.939	0.085	-0.051
-563.558	-2.048	0.155	-0.109
-562.544	-200.000	-0.024	-0.303
-561.529	-12.068	-0.073	-0.048
-560.515	8.974	-0.070	0.053
-559.500	10.881	-0.230	-0.176
-558.485	-200.000	-0.018	-0.084
-557.471	4.594	-0.114	0.084
-556.456	208.432	0.049	-0.077
-555.442	-106.523	-0.152	-0.034
-554.427	425.704	0.157	-0.339
-553.412	800.000	0.150	0.436
-552.398	-200.000	0.013	0.374
-551.383	-114.310	-0.071	0.014
-550.369	367.419	0.076	-0.154
-549.354	70.530	-0.127	-0.131
-548.339	-125.824	-0.066	-0.010
-547.325	107.651	-0.200	-0.238
-546.310	27.626	0.462	-0.390
-545.296	174.628	0.103	0.149
-544.281	-4.637	0.099	0.068
-543.266	-200.000	-0.021	-0.193
-542.252	800.000	-0.026	-0.087
-541.237	-82.960	0.140	0.045
-540.223	-71.105	-0.202	-0.076
-539.208	111.590	0.101	-0.122
-538.193	-109.480	-0.182	0.038
-537.179	433.743	0.122	-0.266
-536.164	-200.000	0.020	0.249
-535.150	-73.966	-0.276	0.100
-534.135	-47.273	0.213	0.104
-533.121	-32.241	0.159	0.089
-532.106	165.475	0.119	0.169
-531.091	-101.004	-0.613	-0.151
-530.077	-123.373	0.170	-0.027
-529.062	-31.706	0.292	0.164
-528.048	-49.821	0.114	0.054
-527.033	-200.000	0.007	0.099
-526.018	249.152	0.123	-0.208
-525.004	256.872	-0.048	-0.082
-523.989	800.000	0.017	0.048
-522.975	68.906	-0.096	0.098
-521.960	72.677	-0.206	0.215
-520.945	-200.000	0.068	-0.620
-519.931	474.642	0.034	0.077
-518.916	-109.633	-0.280	-0.059
-517.902	193.296	0.150	0.227
-516.887	-182.329	-0.171	-0.003
-515.872	-95.627	0.336	0.090
-514.858	182.881	-0.121	-0.178
-513.843	-82.082	-0.198	0.065
-512.829	-200.000	-0.013	-0.115
-511.814	385.011	-0.017	-0.034
-510.799	-34.088	0.125	0.069
-509.785	-153.270	0.248	-0.017
-508.770	791.278	0.102	0.280
-507.756	76.035	0.113	0.119
-506.741	-17.965	0.299	0.187
-505.726	-86.878	-0.135	0.041
-504.712	-200.000	-0.037	-0.356
-503.697	-103.648	0.105	-0.025
-502.683	-191.303	-0.311	-0.003
-501.668	-200.000	0.021	0.146
-500.653	650.559	-0.035	-0.090
-499.639	-83.925	0.171	0.054
-498.624	308.221	0.246	-0.460
-497.610	186.568	0.082	0.122
-496.595	78.753	-0.068	-0.073
-495.581	-200.000	-0.030	0.358
-494.566	-200.000	0.007	0.273
-493.551	-200.000	-0.024	-0.391
-492.537	-200.000	-0.049	0.492
-491.522	-12.517	0.319	-0.208
-490.508	-133.352	-0.362	-0.046
-489.493	800.000	-0.042	0.155
-488.478	-196.759	-0.193	0.001
-487.464	-132.543	-0.458	0.059
-486.449	177.633	0.291	0.424
-485.435	-180.285	0.289	-0.006
-484.420	45.778	-0.080	-0.074
-483.405	-23.277	0.164	-0.099
-482.391	-173.655	-0.236	0.007
-481.376	-200.000	0.020	0.319
-480.362	-178.720	-0.197	-0.005
-479.347	631.380	0.186	-0.469
-478.332	-103.005	-0.301	0.071
-477.318	164.224	0.138	0.194
-476.303	258.052	-0.156	-0.268
-475.289	-200.000	-0.003	-0.357
-474.274	-200.000	0.022	-0.172
-473.259	-132.432	-0.227	0.029
-472.245	-155.107	0.224	0.015
-471.230	-200.000	0.001	0.077
-470.216	-3.566	-0.096	-0.067
-469.201	-174.331	0.117	-0.003
-468.186	-200.000	0.018	-0.130
-467.172	-59.203	0.213	-0.092
-466.157	447.216	-0.138	0.303
-465.143	800.000	-0.045	-0.128
-464.128	-31.993	0.286	-0.160
-463.113	388.058	0.127	-0.261
-462.099	156.011	-0.097	0.133
-461.084	-145.325	-0.156	-0.014
-460.070	-28.852	-0.357	-0.205
-459.055	-85.637	-0.161	0.050
-458.040	305.437	-0.024	-0.044
-457.026	-144.335	-0.215	-0.020
-456.011	-90.987	-0.112	-0.032
-454.997	263.758	0.093	0.161
-453.982	208.951	0.204	-0.318
-452.968	381.214	0.076	-0.155
-451.953	2.313	-0.154	-0.111
-450.938	800.000	-0.029	0.103
-449.924	168.028	0.075	-0.106
-448.909	-31.612	-0.258	-0.144
-447.895	81.633	-0.116	0.125
-446.880	-65.816	-0.385	0.154
-445.865	127.992	-0.125	-0.158
-444.851	-200.000	0.006	-0.099
-443.836	-62.927	0.292	-0.121
-442.822	84.907	0.287	0.314
-441.807	800.000	-0.127	0.470
-440.792	-200.000	0.018	0.106
-439.778	554.956	0.031	-0.075
-438.763	146.336	0.214	-0.286
-437.749	6.548	-0.087	-0.065
-436.734	-200.000	-0.011	-0.215
-435.719	45.753	-0.116	-0.107
-434.705	-116.837	-0.168	0.031
-433.690	38.860	-0.102	-0.091
-432.676	-108.415	-0.120	-0.026
-431.661	-140.098	0.182	0.019
-430.646	800.000	-0.064	-0.192
-429.632	710.617	-0.163	-0.430
-428.617	157.449	0.136	-0.188
-427.603	-187.601	0.117	-0.002
-426.588	773.072	0.110	0.299
-425.573	800.000	-0.154	0.461
-424.559	486.943	-0.108	-0.245
-423.544	-39.942	-0.072	0.037
-422.530	154.965	-0.044	0.060
-421.515	157.045	0.188	0.259
-420.500	-200.000	-0.029	0.164
-419.486	-14.652	0.217	0.139
-418.471	-5.468	0.186	0.127
-417.457	385.243	0.078	0.161
-416.442	122.803	0.068	0.085
-415.428	800.000	0.033	-0.112
-414.413	-74.924	-0.136	0.049
-413.398	-109.160	-0.463	0.098
-412.384	-149.892	-0.055	-0.004
-411.369	69.922	0.125	0.128
-410.355	-200.000	-0.025	-0.161
-409.340	-180.153	0.109	-0.002
-408.325	-117.322	0.308	-0.056
-407.311	480.515	0.109	-0.245
-406.296	-200.000	-0.022	-0.154
-405.282	204.930	0.099	0.154
-404.267	-87.354	0.234	0.071
-403.252	196.616	0.088	-0.134
-402.238	444.862	0.054	0.118
-401.223	281.302	-0.174	0.311
-400.209	-105.317	-0.250	-0.057
-399.194	-55.942	0.272	-0.121
-398.179	41.137	-0.038	0.034
-397.165	-72.756	-0.190	0.070
-396.150	177.994	0.157	0.228
-395.136	105.061	0.142	0.167
-394.121	473.364	0.129	-0.289
-393.106	197.659	-0.111	-0.169
-392.092	459.383	0.065	-0.144
-391.077	800.000	-0.020	-0.055
-390.063	-43.424	-0.232	0.117
-389.048	-112.584	0.463	-0.092
-388.033	-200.000	-0.006	-0.218
-387.019	-7.398	0.044	-0.030
-386.004	-105.325	-0.215	-0.049
-384.990	672.671	-0.078	-0.202
-383.975	-112.154	-0.097	0.019
-382.960	267.808	0.052	-0.091
-381.946	331.396	-0.113	0.217
-380.931	-200.000	-0.052	0.333
-379.917	-39.129	0.209	0.110
-378.902	-95.911	-0.107	-0.028
-377.888	195.881	-0.229	-0.347
-376.873	18.157	0.349	0.277
-375.858	-200.000	-0.032	0.239
-374.844	155.267	0.026	0.035
-373.829	465.812	-0.078	-0.174
-372.815	-200.000	-0.034	0.155
-371.800	-200.000	0.012	0.155
-370.785	-116.805	-0.097	-0.018
-369.771	-200.000	0.043	-0.297
-368.756	179.475	-0.235	0.341
-367.742	151.132	0.128	-0.173
-366.727	-28.318	0.277	0.159
-365.712	151.804	-0.064	0.087
-364.698	-107.124	-0.296	-0.065
-363.683	800.000	-0.048	-0.168
-362.669	-146.464	-0.117	-0.010
-361.654	800.000	-0.168	0.520
-360.639	83.712	-0.059	0.064
-359.625	-24.837	-0.219	-0.129
-358.610	800.000	-0.025	-0.102
-357.596	-159.003	-0.178	-0.010
-356.581	412.999	0.078	0.166
-355.566	-65.691	0.110	-0.044
-354.552	-200.000	0.000	-0.329
-353.537	157.838	0.089	-0.123
-352.523	-65.062	0.107	0.043
-351.508	22.906	-0.267	0.218
-350.493	608.289	-0.058	0.143
-349.479	77.368	-0.172	0.182
-348.464	-166.557	-0.155	-0.006
-347.450	136.808	-0.179	0.233
-346.435	122.400	0.087	-0.108
-345.420	-39.664	0.248	-0.129
-344.406	800.000	0.070	-0.270
-343.391	-174.176	-0.083	0.002
-342.377	238.961	-0.067	0.110
-341.362	-200.000	0.089	-0.000
-340.348	594.103	0.050	0.123
-339.333	-37.012	0.028	0.015
-338.318	-80.194	0.303	0.101
-337.304	800.000	-0.116	0.415
-336.289	-127.058	0.084	-0.012
-335.275	-123.110	-0.156	0.025
-334.260	116.266	0.166	0.202
-333.245	800.000	-0.095	0.281
-332.231	-107.151	-0.271	-0.059
-331.216	-74.687	0.199	-0.071
-330.202	-200.000	0.008	0.198
-329.187	505.046	-0.096	0.221
-328.172	-200.000	0.002	-0.067
-327.158	-167.381	0.423	-0.017
-326.143	-93.945	-0.314	-0.086
-325.129	800.000	0.117	-0.369
-324.114	-153.420	0.098	0.007
-323.099	-138.649	0.168	0.018
-322.085	-100.605	0.184	-0.045
-321.070	-200.000	0.029	-0.199
-320.056	428.154	-0.073	-0.157
-319.041	800.000	0.041	-0.166
-318.026	-200.000	-0.010	-0.058
-317.012	-68.872	0.294	-0.113
-315.997	-200.000	0.045	0.226
-314.983	71.053	-0.167	0.171
-313.968	278.336	-0.049	0.087
-312.953	444.223	-0.119	-0.258
-311.939	-200.000	0.001	0.209
-310.924	800.000	0.114	0.365
-309.910	113.943	-0.057	0.069
-308.895	38.455	-0.176	0.155
-307.880	147.932	-0.244	-0.326
-306.866	-119.304	0.210	-0.036
-305.851	237.397	-0.214	-0.352
-304.837	162.348	-0.079	0.110
-303.822	595.846	-0.105	-0.259
-302.807	138.900	-0.161	-0.209
-301.793	33.347	0.072	0.062
-300.778	-200.000	-0.005	0.042
-299.764	-80.412	-0.223	0.074
-298.749	-195.367	0.285	0.002
-297.735	-103.225	-0.102	-0.024
-296.720	-71.640	0.383	-0.142
-295.705	800.000	0.076	0.275
-294.691	304.715	-0.102	-0.188
-293.676	530.257	0.056	-0.132
-292.662	-125.915	0.375	-0.056
-291.647	50.036	0.281	0.263
-290.632	-121.262	-0.307	0.051
-289.618	-176.983	-0.205	-0.005
-288.603	-34.982	0.364	0.197
-287.589	45.749	-0.219	0.201
-286.574	20.364	0.214	-0.171
-285.559	302.645	0.095	-0.174
-284.545	-200.000	0.050	0.263
-283.530	800.000	-0.009	0.040
-282.516	-147.538	-0.288	0.024
-281.501	146.083	0.047	0.062
-280.486	251.869	-0.065	0.110
-279.472	-200.000	-0.057	0.330
-278.457	16.399	0.143	-0.112
-277.443	-90.757	0.192	0.055
-276.428	-100.403	0.107	-0.026
-275.413	-58.891	-0.238	-0.102
-274.399	-2.881	-0.315	-0.218
-273.384	4.696	0.365	0.265
-272.370	-200.000	-0.004	0.540
-271.355	-121.582	0.147	0.024
-270.340	-200.000	0.075	0.355
-269.326	-17.703	-0.253	-0.157
-268.311	-145.658	-0.242	0.021
-267.297	-140.099	-0.153	0.016
-266.282	-62.343	0.199	-0.082
-265.267	-183.073	-0.056	0.001
-264.253	504.410	-0.045	0.104
-263.238	-156.438	0.357	0.022
-262.224	105.293	0.223	-0.261
-261.209	-98.855	0.255	-0.064
-260.195	5.539	-0.099	-0.072
-259.180	477.694	0.078	-0.175
-258.165	61.663	-0.178	-0.176
-257.151	-74.878	-0.154	0.055
-256.136	561.722	0.022	0.052
-255.122	10.003	-0.377	-0.284
-254.107	-131.764	0.352	0.046
-253.092	-88.379	0.258	0.076
-252.078	253.387	-0.062	0.104
-251.063	-200.000	0.004	0.047
-250.049	-80.313	0.114	0.038
-249.034	-115.121	-0.098	0.018
-248.019	258.963	-0.130	0.221
-247.005	-75.740	0.281	0.099
-245.990	-190.909	-0.359	0.004
-244.976	136.138	-0.056	0.072
-243.961	71.589	-0.159	0.164
-242.946	-32.517	-0.053	-0.029
-241.932	-18.690	0.227	0.140
-240.917	62.729	0.186	-0.184
-239.903	320.012	0.138	-0.260
-238.888	-200.000	0.098	0.555
-237.873	-29.829	0.035	0.020
-236.859	-66.181	0.206	-0.081
-235.844	339.689	-0.063	-0.122
-234.830	-46.108	0.065	0.032
-233.815	190.412	0.112	-0.166
-232.800	75.153	0.284	-0.296
-231.786	152.868	-0.131	-0.178
-230.771	346.872	-0.142	0.277
-229.757	208.288	0.148	-0.229
-228.742	-200.000	-0.024	-0.352
-227.727	-200.000	-0.003	-0.247
-226.713	152.741	0.191	-0.258
-225.698	-200.000	0.003	0.066
-224.684	-200.000	0.018	0.088
-223.669	-200.000	-0.047	0.399
-222.655	-65.123	0.072	-0.029
-221.640	126.705	0.027	-0.034
-220.625	17.944	-0.269	-0.212
-219.611	83.718	0.055	0.059
-218.596	-10.578	0.244	-0.160
-217.582	800.000	0.130	0.386
-216.567	-156.256	0.178	0.011
-215.552	35.913	0.163	-0.142
-214.538	75.357	0.083	-0.087
-213.523	-133.860	0.085	0.010
-212.509	591.526	-0.088	-0.214
-211.494	-23.419	-0.159	0.095
-210.479	800.000	-0.078	0.216
-209.465	-110.318	0.173	0.035
-208.450	-200.000	-0.001	-0.073
-207.436	800.000	-0.042	-0.136
-206.421	46.182	-0.127	0.116
-205.406	44.949	-0.315	-0.287
-204.392	-105.109	-0.084	0.019
-203.377	235.622	-0.092	-0.150
-202.363	-200.000	0.002	0.039
-201.348	214.550	-0.110	0.172
-200.333	800.000	0.098	-0.353
-199.319	39.370	-0.202	0.179
-198.304	-68.329	-0.171	-0.065
-197.290	-0.337	-0.093	-0.065
-196.275	-110.491	-0.118	0.024
-195.260	424.134	-0.088	0.188
-194.246	330.998	-0.154	0.293
-193.231	-200.000	0.034	0.213
-192.217	127.659	-0.180	-0.226
-191.202	754.438	-0.107	-0.286
-190.187	-117.201	0.468	0.084
-189.173	-11.390	-0.144	-0.094
-188.158	89.200	-0.081	0.089
-187.144	-200.000	-0.009	-0.219
-186.129	13.984	0.260	-0.199
-185.114	-85.513	-0.178	-0.055
-184.100	633.333	-0.060	-0.151
-183.085	-62.160	-0.038	0.015
-182.071	-45.376	-0.065	-0.032
-181.056	800.000	-0.044	0.151
-180.042	103.050	-0.181	0.209
-179.027	114.312	0.253	0.304
-178.012	-200.000	-0.025	0.332
-176.998	131.675	0.209	-0.265
-175.983	-169.772	-0.298	-0.011
-174.969	-118.853	-0.409	0.071
-173.954	109.008	-0.081	-0.096
-172.939	800.000	0.032	-0.115
-171.925	800.000	-0.021	-0.059
-170.910	-51.865	0.194	-0.089
-169.896	-13.396	0.227	0.145
-168.881	-44.401	-0.229	-0.113
-167.866	-105.931	0.266	0.059
-166.852	252.004	0.022	0.037
-165.837	37.168	-0.209	0.183
-164.823	-200.000	0.017	-0.145
-163.808	-91.116	-0.148	0.042
-162.793	-104.234	0.196	0.045
-161.779	-35.843	0.339	0.181
-160.764	-200.000	0.026	-0.137
-159.750	-28.680	0.317	-0.180
-158.735	48.325	-0.201	0.185
-157.720	-23.844	-0.187	-0.110
-156.706	52.464	0.238	0.225
-155.691	511.084	-0.027	-0.062
-154.677	-52.899	-0.380	0.172
-153.662	-134.257	0.404	0.049
-152.647	-200.000	-0.034	-0.252
-151.633	82.336	-0.127	0.136
-150.618	-200.000	0.035	0.158
-149.604	800.000	0.047	0.142
-148.589	800.000	-0.109	0.334
-147.574	79.595	0.028	-0.030
-146.560	151.025	0.110	0.147
-145.545	114.560	-0.018	0.022
-144.531	-40.179	-0.052	0.027
-143.516	-55.066	0.331	-0.147
-142.502	-19.709	-0.253	0.154
-141.487	88.105	-0.155	-0.169
-140.472	-18.228	-0.132	0.081
-139.458	-200.000	0.018	0.123
-138.443	27.735	-0.175	0.146
-137.429	-118.871	0.277	-0.048
-136.414	135.048	0.156	-0.200
-135.399	800.000	0.071	-0.213
-134.385	71.290	0.014	0.014
-133.370	743.447	0.068	-0.179
-132.356	-81.952	-0.145	-0.047
-131.341	-200.000	0.012	0.277
-130.326	197.068	0.055	0.082
-129.312	-200.000	0.056	-0.326
-128.297	-95.530	0.432	-0.114
-127.283	8.362	0.230	0.171
-126.268	-115.695	-0.238	-0.044
-125.253	553.792	-0.000	-0.001
-124.239	109.347	0.181	0.214
-123.224	-200.000	0.032	-0.196
