DTS Sentinel unit serial number:	SN413079Multiplexer serial number:	ORYXHardware model number:	OX4-SRSoftware version number:	ORYX F/W v4.00 Oryx Data Collector v3.7.2.0data status	okinstallation	princeton_trtdifferential loss correction	single-endedforward channel	channel 3reverse channel	N/Adate	2019/09/15time	14:08:35forward acquisition time	60.00reverse acquisition time	0.00gamma	496.2192k internal	0.2291k external	0.2291temperature offset calibration	0.9962default loss term (dB/km)	0.3790temperature slope calibration	1.0000multiplexer offset coefficient	1.0000multiplexer slope coefficient	1.0000fibre end	0.00T internal ref (°C)	38.69T ext. ref 1 (°C)	4.95T ext. ref 2 (°C)	36.06length (m)	temperature (°C)	Stokes	anti-Stokes-747.200	-200.000	-0.029	-0.202
-746.185	-89.460	-0.101	-0.031
-745.171	210.190	0.083	0.133
-744.156	-200.000	0.058	0.575
-743.142	-12.964	-0.200	0.133
-742.127	508.796	-0.065	0.155
-741.112	-147.339	-0.211	0.018
-740.098	18.870	0.337	0.276
-739.083	264.465	0.072	0.129
-738.069	800.000	0.072	0.206
-737.054	-142.060	-0.022	0.002
-736.039	-144.427	0.275	-0.026
-735.025	43.011	0.055	0.052
-734.010	-106.806	-0.271	-0.062
-732.996	227.913	-0.160	-0.266
-731.981	-18.185	-0.149	-0.096
-730.966	-200.000	-0.007	0.055
-729.952	174.675	0.074	-0.110
-728.937	-200.000	0.036	-0.232
-727.923	329.037	0.059	-0.116
-726.908	95.856	-0.283	-0.331
-725.894	-151.844	0.190	-0.014
-724.879	-117.047	-0.288	0.054
-723.864	-55.133	-0.228	0.105
-722.850	-102.139	0.274	0.067
-721.835	-123.569	-0.233	0.038
-720.821	-155.438	0.340	0.022
-719.806	800.000	-0.043	-0.181
-718.791	800.000	-0.059	-0.219
-717.777	184.265	-0.097	-0.146
-716.762	138.907	-0.166	-0.223
-715.748	-200.000	-0.026	-0.183
-714.733	800.000	0.092	-0.318
-713.718	-16.523	0.432	-0.280
-712.704	200.331	-0.242	0.380
-711.689	-67.202	-0.137	0.055
-710.675	49.905	-0.144	0.139
-709.660	683.321	0.105	-0.280
-708.645	-136.994	-0.073	0.009
-707.631	-120.670	-0.440	-0.076
-706.616	38.129	0.055	-0.050
-705.602	-0.355	-0.191	-0.139
-704.587	-200.000	0.015	-0.522
-703.572	-40.772	0.077	-0.041
-702.558	-200.000	0.005	-0.179
-701.543	298.206	-0.167	-0.314
-700.529	-200.000	0.020	-0.132
-699.514	71.525	-0.197	-0.209
-698.499	51.775	-0.153	-0.149
-697.485	-157.007	0.190	-0.012
-696.470	286.081	0.172	-0.317
-695.456	202.246	-0.051	-0.081
-694.441	51.895	0.343	-0.333
-693.426	-73.243	-0.147	0.055
-692.412	800.000	0.057	0.245
-691.397	4.071	-0.190	-0.142
-690.383	-200.000	0.034	-0.186
-689.368	49.103	-0.441	0.423
-688.354	-24.371	-0.153	0.093
-687.339	71.896	0.146	0.155
-686.324	3.176	0.085	-0.063
-685.310	645.049	-0.014	-0.036
-684.295	-132.737	-0.381	0.050
-683.281	84.929	-0.049	0.055
-682.266	17.638	0.167	-0.136
-681.251	800.000	-0.076	-0.219
-680.237	-200.000	-0.031	-0.194
-679.222	-74.035	0.416	-0.154
-678.208	-200.000	0.064	-0.454
-677.193	-145.666	-0.233	0.021
-676.178	-118.395	0.072	0.013
-675.164	-144.008	0.347	0.033
-674.149	-199.019	-0.063	0.000
-673.135	251.400	-0.163	-0.283
-672.120	-34.007	0.037	0.021
-671.105	13.425	0.104	-0.082
-670.091	50.600	-0.186	0.180
-669.076	81.328	0.198	0.218
-668.062	-83.222	-0.261	0.086
-667.047	40.375	-0.127	-0.117
-666.032	-200.000	0.007	0.154
-665.018	-146.306	0.132	-0.012
-664.003	-61.207	-0.110	0.047
-662.989	-1.518	0.177	0.128
-661.974	8.708	-0.259	-0.199
-660.959	143.413	0.055	0.074
-659.945	12.950	-0.198	-0.157
-658.930	-11.145	-0.348	0.234
-657.916	-200.000	-0.030	-0.273
-656.901	-200.000	0.013	0.184
-655.886	278.373	-0.071	-0.130
-654.872	-26.374	-0.351	-0.210
-653.857	-104.770	-0.278	-0.065
-652.843	106.386	0.317	-0.383
-651.828	800.000	0.020	-0.077
-650.814	47.178	0.125	-0.118
-649.799	156.166	0.168	-0.236
-648.784	-200.000	0.046	-0.284
-647.770	47.947	-0.046	0.044
-646.755	800.000	-0.050	0.219
-645.741	-37.863	-0.197	-0.107
-644.726	800.000	-0.106	-0.301
-643.711	43.268	-0.293	-0.273
-642.697	-200.000	-0.010	0.069
-641.682	48.450	-0.054	-0.051
-640.668	268.367	0.236	0.421
-639.653	-20.992	0.121	0.076
-638.638	-24.611	0.169	-0.103
-637.624	-167.599	-0.316	0.013
-636.609	-54.931	-0.208	-0.096
-635.595	800.000	-0.082	-0.269
-634.580	-16.827	-0.124	0.080
-633.565	138.488	-0.118	0.157
-632.551	-200.000	0.002	0.308
-631.536	-200.000	0.023	-0.121
-630.522	-79.218	-0.160	-0.055
-629.507	6.542	0.171	-0.130
-628.492	308.530	0.097	0.185
-627.478	-100.882	-0.360	-0.090
-626.463	800.000	-0.065	0.252
-625.449	-90.304	-0.313	-0.093
-624.434	-92.410	-0.174	-0.050
-623.419	-11.886	-0.207	-0.138
-622.405	-200.000	0.062	-0.397
-621.390	-200.000	-0.017	-0.083
-620.376	800.000	0.030	0.119
-619.361	-111.626	0.288	-0.060
-618.346	69.133	0.259	-0.271
-617.332	-96.394	-0.136	0.037
-616.317	-124.015	0.135	0.022
-615.303	475.160	0.037	-0.085
-614.288	-59.135	0.107	-0.047
-613.273	125.757	0.197	-0.253
-612.259	-117.920	-0.212	-0.039
-611.244	-200.000	-0.052	0.398
-610.230	-120.316	-0.093	-0.016
-609.215	-178.328	0.229	-0.005
-608.201	45.938	-0.285	-0.268
-607.186	53.936	0.139	0.136
-606.171	-167.239	0.268	0.011
-605.157	-200.000	0.017	0.251
-604.142	-96.457	0.209	0.056
-603.128	151.009	-0.179	-0.247
-602.113	-200.000	0.005	-0.305
-601.098	72.775	-0.058	-0.062
-600.084	44.211	-0.151	0.141
-599.069	132.827	0.153	-0.201
-598.055	-113.164	-0.112	-0.022
-597.040	77.117	0.089	0.097
-596.025	64.974	0.115	-0.118
-595.011	25.824	-0.205	-0.174
-593.996	-139.636	-0.211	-0.023
-592.982	-142.066	-0.021	0.002
-591.967	-200.000	0.052	-0.284
-590.952	-200.000	0.007	0.040
-589.938	-164.086	-0.127	0.006
-588.923	405.814	0.088	0.189
-587.909	-106.205	0.179	-0.041
-586.894	64.069	-0.098	-0.101
-585.879	800.000	-0.054	0.189
-584.865	64.438	0.190	0.194
-583.850	-171.932	0.048	-0.002
-582.836	-41.063	0.208	0.109
-581.821	-7.806	-0.393	0.270
-580.806	326.043	0.027	-0.053
-579.792	-4.100	-0.047	-0.033
-578.777	87.985	0.096	-0.108
-577.763	-200.000	-0.020	0.310
-576.748	-200.000	-0.041	-0.210
-575.733	218.469	0.079	-0.129
-574.719	35.255	-0.063	0.056
-573.704	25.815	0.341	-0.289
-572.690	800.000	0.100	-0.308
-571.675	-91.666	0.052	-0.015
-570.661	-132.839	-0.243	0.032
-569.646	-118.673	0.086	-0.015
-568.631	-200.000	-0.021	-0.267
-567.617	132.776	0.141	0.184
-566.602	-200.000	-0.003	0.042
-565.588	-57.337	-0.235	0.105
-564.573	66.830	0.230	0.238
-563.558	-139.205	-0.143	-0.016
-562.544	-141.682	-0.098	0.010
-561.529	273.615	0.093	0.167
-560.515	-47.717	-0.356	-0.176
-559.500	-200.000	0.050	-0.238
-558.485	27.815	0.289	0.247
-557.471	-200.000	0.074	0.340
-556.456	-18.271	0.106	-0.067
-555.442	-151.303	-0.174	-0.013
-554.427	-200.000	0.043	0.206
-553.412	171.430	-0.088	-0.128
-552.398	-200.000	-0.015	-0.166
-551.383	-179.396	-0.224	-0.005
-550.369	61.636	0.033	-0.034
-549.354	240.847	0.167	-0.282
-548.339	-107.488	0.467	-0.104
-547.325	469.162	0.111	-0.253
-546.310	-9.406	0.038	0.026
-545.296	-200.000	0.008	0.257
-544.281	-137.505	0.044	-0.005
-543.266	45.796	-0.145	-0.137
-542.252	800.000	-0.054	0.159
-541.237	100.961	0.133	-0.157
-540.223	800.000	-0.027	-0.084
-539.208	17.337	-0.080	0.064
-538.193	-109.774	-0.128	-0.027
-537.179	104.872	0.262	0.314
-536.164	-162.178	0.045	0.002
-535.150	-5.436	0.127	-0.088
-534.135	-1.824	-0.116	-0.083
-533.121	347.016	-0.077	-0.155
-532.106	-146.360	-0.346	-0.031
-531.091	63.392	-0.101	-0.103
-530.077	242.502	0.118	0.201
-529.062	91.349	0.038	-0.043
-528.048	-161.716	-0.205	-0.011
-527.033	54.178	-0.101	0.099
-526.018	492.158	0.140	0.326
-525.004	25.485	-0.303	-0.256
-523.989	-150.694	-0.224	0.017
-522.975	-53.423	0.272	-0.127
-521.960	-129.480	-0.226	-0.032
-520.945	-200.000	-0.051	-0.279
-519.931	248.429	0.098	0.168
-518.916	-27.807	0.065	-0.038
-517.902	-74.634	-0.285	-0.104
-516.887	-200.000	0.021	-0.116
-515.872	138.568	0.122	-0.163
-514.858	-200.000	0.042	-0.368
-513.843	192.620	0.139	0.214
-512.829	190.792	-0.088	0.134
-511.814	-81.042	0.249	-0.084
-510.799	354.830	-0.116	-0.234
-509.785	-200.000	0.016	0.123
-508.770	-37.070	-0.186	0.101
-507.756	-45.940	0.169	-0.084
-506.741	-116.429	-0.141	0.026
-505.726	-10.024	-0.111	-0.075
-504.712	-124.541	0.129	0.020
-503.697	-4.647	0.211	-0.148
-502.683	-111.537	0.499	0.103
-501.668	-200.000	-0.011	-0.190
-500.653	-200.000	-0.030	0.326
-499.639	-21.970	0.044	-0.027
-498.624	-162.504	0.239	-0.012
-497.610	233.985	0.119	0.199
-496.595	-134.857	0.064	-0.008
-495.581	178.633	0.096	-0.142
-494.566	-147.755	-0.144	0.012
-493.551	139.084	0.151	-0.201
-492.537	15.033	-0.089	0.070
-491.522	194.935	-0.059	0.091
-490.508	7.312	-0.072	0.055
-489.493	53.755	0.205	-0.199
-488.478	213.310	0.074	0.119
-487.464	27.161	0.084	0.071
-486.449	204.552	-0.051	-0.080
-485.435	-200.000	0.048	-0.226
-484.420	-11.297	0.166	0.111
-483.405	-50.323	0.176	-0.084
-482.391	-58.343	-0.171	-0.076
-481.376	114.593	0.134	0.165
-480.362	221.008	-0.088	0.142
-479.347	63.912	-0.226	0.230
-478.332	5.319	0.174	0.130
-477.318	-134.938	0.187	0.023
-476.303	675.849	0.080	-0.212
-475.289	235.684	0.211	-0.354
-474.274	-58.816	-0.335	0.147
-473.259	-127.983	-0.135	0.020
-472.245	-130.456	0.036	0.005
-471.230	-200.000	0.040	0.279
-470.216	37.303	-0.079	0.071
-469.201	-200.000	0.008	0.118
-468.186	227.497	0.101	-0.167
-467.172	-61.570	0.056	0.024
-466.157	-86.662	-0.054	0.017
-465.143	173.874	-0.231	-0.337
-464.128	-117.051	0.196	0.036
-463.113	-111.076	-0.093	-0.019
-462.099	54.051	0.100	0.098
-461.084	147.554	-0.116	-0.158
-460.070	14.782	0.081	-0.064
-459.055	366.389	0.067	0.138
-458.040	-109.686	-0.145	-0.031
-457.026	-200.000	-0.057	-0.324
-456.011	14.481	0.202	0.160
-454.997	22.903	-0.184	-0.153
-453.982	-200.000	0.031	-0.242
-452.968	44.726	0.040	-0.037
-451.953	800.000	0.080	0.228
-450.938	66.235	0.268	0.275
-449.924	206.394	0.070	-0.110
-448.909	-200.000	0.010	0.075
-447.895	800.000	-0.066	0.245
-446.880	-55.508	0.093	0.042
-445.865	800.000	0.120	-0.409
-444.851	-17.460	-0.242	-0.154
-443.836	160.208	0.151	-0.214
-442.822	201.074	-0.122	0.190
-441.807	38.208	0.068	0.062
-440.792	-50.589	-0.424	-0.202
-439.778	-200.000	-0.035	0.475
-438.763	-147.534	-0.412	-0.035
-437.749	-200.000	0.044	-0.363
-436.734	783.423	-0.150	0.417
-435.719	-41.255	0.112	0.059
-434.705	-93.458	0.337	-0.094
-433.690	-111.940	-0.170	0.035
-432.676	-200.000	-0.004	0.219
-431.661	485.477	0.100	-0.229
-430.646	-200.000	0.078	0.428
-429.632	-38.338	0.202	-0.108
-428.617	-80.689	0.114	0.038
-427.603	-137.791	0.216	-0.024
-426.588	-124.890	0.213	-0.033
-425.573	-124.452	-0.207	-0.033
-424.559	487.987	0.183	0.424
-423.544	222.475	-0.058	0.095
-422.530	800.000	0.055	-0.199
-421.515	800.000	0.090	-0.269
-420.500	22.447	0.253	0.209
-419.486	-34.069	0.231	0.128
-418.471	-200.000	-0.057	-0.288
-417.457	-18.655	-0.296	0.187
-416.442	-15.305	-0.064	-0.041
-415.428	-200.000	-0.008	-0.201
-414.413	-16.217	-0.042	-0.027
-413.398	-200.000	-0.023	-0.113
-412.384	-109.868	-0.222	0.047
-411.369	205.928	-0.141	0.221
-410.355	205.439	-0.024	0.038
-409.340	-200.000	0.039	0.217
-408.325	44.197	-0.086	-0.080
-407.311	-78.750	0.654	0.225
-406.296	800.000	-0.023	-0.084
-405.282	-69.811	0.341	-0.132
-404.267	-200.000	0.015	-0.296
-403.252	-92.648	0.293	0.083
-402.238	-200.000	-0.049	0.374
-401.223	-121.268	0.087	-0.015
-400.209	800.000	0.035	0.127
-399.194	-172.543	-0.134	-0.004
-398.179	-111.336	0.193	-0.040
-397.165	-200.000	-0.289	0.000
-396.150	-158.943	0.273	0.016
-395.136	-200.000	0.043	-0.499
-394.121	393.257	-0.005	0.011
-393.106	682.783	-0.071	-0.186
-392.092	146.280	-0.092	-0.124
-391.077	762.582	-0.091	-0.250
-390.063	241.063	0.118	0.199
-389.048	1.373	-0.168	0.122
-388.033	-200.000	0.024	0.126
-387.019	9.676	0.351	0.269
-386.004	75.382	0.296	0.315
-384.990	367.066	0.049	0.099
-383.975	51.921	-0.070	-0.067
-382.960	-200.000	-0.029	-0.213
-381.946	4.405	0.188	0.139
-380.931	-121.408	-0.204	0.034
-379.917	-102.217	-0.259	-0.063
-378.902	3.121	0.102	-0.075
-377.888	-153.003	0.139	0.010
-376.873	-200.000	0.022	0.136
-375.858	-119.029	0.046	-0.008
-374.844	405.469	0.089	-0.189
-373.829	255.528	-0.084	0.146
-372.815	11.750	-0.046	-0.035
-371.800	-8.282	0.190	0.129
-370.785	20.573	-0.179	0.146
-369.771	-62.369	-0.252	0.106
-368.756	272.509	0.191	0.340
-367.742	-200.000	-0.066	-0.292
-366.727	800.000	0.010	0.032
-365.712	-141.238	0.234	-0.024
-364.698	24.692	-0.185	-0.155
-363.683	-172.300	-0.201	-0.006
-362.669	161.594	-0.140	0.198
-361.654	-68.678	-0.208	-0.081
-360.639	24.471	0.295	0.246
-359.625	325.874	0.102	0.197
-358.610	-200.000	0.044	-0.200
-357.596	-60.428	0.293	0.125
-356.581	-145.993	-0.070	0.006
-355.566	-44.436	0.104	0.052
-354.552	311.931	0.130	0.247
-353.537	6.370	-0.148	0.111
-352.523	-126.471	-0.130	-0.020
-351.508	337.039	-0.223	-0.436
-350.493	-89.466	0.269	0.080
-349.479	306.138	0.056	0.105
-348.464	-66.874	-0.194	0.077
-347.450	-1.663	-0.031	0.022
-346.435	-67.609	-0.131	0.052
-345.420	800.000	0.088	-0.310
-344.406	84.032	0.210	-0.231
-343.391	-22.062	0.078	-0.048
-342.377	57.435	-0.214	-0.211
-341.362	-48.859	-0.429	0.207
-340.348	88.681	-0.252	0.282
-339.333	-130.086	0.132	-0.018
-338.318	-90.355	0.161	0.047
-337.304	370.142	-0.105	0.215
-336.289	-46.186	-0.142	-0.071
-335.275	-200.000	0.031	-0.208
-334.260	-200.000	0.066	0.363
-333.245	-82.433	0.347	-0.114
-332.231	800.000	0.047	0.200
-331.216	800.000	0.092	0.267
-330.202	29.504	0.315	0.270
-329.187	573.424	-0.089	-0.219
-328.172	-200.000	-0.078	0.387
-327.158	-137.383	-0.267	0.031
-326.143	-8.031	-0.162	0.110
-325.129	33.983	-0.104	-0.092
-324.114	77.589	0.400	-0.429
-323.099	-50.038	0.403	-0.192
-322.085	800.000	0.036	-0.105
-321.070	-200.000	-0.002	-0.367
-320.056	800.000	-0.045	0.170
-319.041	141.233	0.172	0.229
-318.026	-6.368	-0.056	-0.039
-317.012	-135.053	0.354	0.043
-315.997	-200.000	-0.016	0.119
-314.983	-200.000	0.039	0.337
-313.968	36.475	-0.058	0.052
-312.953	-200.000	0.026	0.292
-311.939	404.591	0.156	0.331
-310.924	-139.241	-0.165	0.018
-309.910	9.335	0.434	-0.331
-308.895	800.000	0.038	-0.121
-307.880	-200.000	-0.006	-0.219
-306.866	-93.922	0.120	-0.033
-305.851	-63.087	-0.123	0.051
-304.837	29.776	0.112	-0.096
-303.822	-92.715	0.321	-0.091
-302.807	430.288	-0.038	0.083
-301.793	287.635	0.070	-0.127
-300.778	370.830	-0.065	-0.133
-299.764	89.135	-0.172	0.193
-298.749	-200.000	-0.026	0.198
-297.735	110.935	-0.124	0.150
-296.720	43.687	-0.275	0.253
-295.705	-176.965	-0.166	0.004
-294.691	445.176	0.123	0.271
-293.676	-111.119	0.417	0.086
-292.662	-62.709	-0.094	0.039
-291.647	537.892	-0.071	-0.171
-290.632	-200.000	0.062	0.314
-289.618	-32.454	0.144	0.081
-288.603	-200.000	-0.003	0.019
-287.589	-59.083	-0.209	0.091
-286.574	273.429	-0.060	0.107
-285.559	-200.000	-0.073	0.344
-284.545	-107.310	0.223	0.049
-283.530	617.299	0.037	0.094
-282.516	155.689	-0.099	-0.138
-281.501	-155.679	-0.153	0.010
-280.486	-51.881	-0.453	0.212
-279.472	26.972	-0.368	0.310
-278.457	800.000	-0.119	-0.427
-277.443	800.000	-0.121	-0.452
-276.428	-69.064	-0.209	-0.081
-275.413	72.745	-0.368	0.386
-274.399	-96.115	-0.119	-0.032
-273.384	-133.325	0.473	0.060
-272.370	-121.831	0.100	-0.017
-271.355	261.155	-0.135	0.234
-270.340	-200.000	0.022	-0.181
-269.326	-200.000	-0.012	-0.072
-268.311	-0.379	-0.276	-0.197
-267.297	-200.000	0.022	-0.191
-266.282	-82.001	-0.140	-0.046
-265.267	-107.259	-0.169	-0.037
-264.253	6.120	-0.038	0.028
-263.238	-80.139	0.327	0.110
-262.224	168.743	-0.138	-0.197
-261.209	-103.990	-0.286	0.067
-260.195	45.352	-0.058	0.054
-259.180	27.315	-0.098	-0.082
-258.165	800.000	-0.052	0.225
-257.151	-60.890	0.094	-0.040
-256.136	-187.791	0.072	0.001
-255.122	-145.264	-0.214	-0.019
-254.107	-200.000	-0.014	-0.099
-253.092	-37.840	0.196	-0.105
-252.078	-110.163	0.044	-0.009
-251.063	637.927	-0.058	0.148
-250.049	800.000	-0.036	0.154
-249.034	-63.479	0.221	0.091
-248.019	-121.417	-0.301	0.050
-247.005	-200.000	-0.004	0.289
-245.990	-59.200	-0.045	-0.019
-244.976	54.113	-0.233	-0.225
-243.961	-200.000	0.036	0.185
-242.946	182.667	-0.093	0.138
-241.932	-200.000	-0.054	-0.257
-240.917	34.527	0.148	0.130
-239.903	315.298	0.170	-0.322
-238.888	6.329	-0.339	-0.253
-237.873	-60.863	0.322	0.137
-236.859	-94.064	0.059	0.016
-235.844	-175.806	0.208	-0.006
-234.830	-79.522	-0.112	-0.038
-233.815	800.000	0.058	0.232
-232.800	800.000	-0.118	-0.343
-231.786	15.844	-0.167	-0.132
-230.771	-196.471	0.408	-0.003
-229.757	-186.327	0.242	-0.004
-228.742	26.643	0.115	0.096
-227.727	44.598	0.089	0.083
-226.713	73.599	-0.115	-0.121
-225.698	-154.795	-0.133	-0.009
-224.684	347.463	0.076	-0.150
-223.669	-137.463	0.328	-0.037
-222.655	-15.821	-0.365	0.234
-221.640	-156.628	-0.335	0.021
-220.625	339.739	-0.042	-0.083
-219.611	32.974	-0.308	-0.267
-218.596	-56.208	-0.309	0.138
-217.582	-143.627	-0.381	0.036
-216.567	125.195	-0.067	-0.085
-215.552	96.874	-0.058	0.067
-214.538	674.334	0.035	0.092
-213.523	399.170	0.123	0.258
-212.509	-200.000	0.041	-0.234
-211.494	-155.358	-0.101	0.007
-210.479	106.836	0.152	0.181
-209.465	290.135	-0.137	0.250
-208.450	-46.768	0.028	-0.014
-207.436	163.418	0.047	-0.066
-206.421	159.511	0.115	-0.161
-205.406	-76.037	0.331	-0.117
-204.392	-94.093	0.216	-0.059
-203.377	54.218	-0.140	-0.135
-202.363	297.941	-0.097	0.178
-201.348	-200.000	-0.051	-0.263
-200.333	20.851	-0.317	-0.257
-199.319	-66.942	-0.238	0.094
-198.304	9.885	0.080	-0.061
-197.290	-104.602	-0.179	0.041
-196.275	-155.733	-0.128	0.008
-195.260	-53.983	0.154	0.070
-194.246	414.272	0.106	-0.225
-193.231	58.995	0.153	0.150
-192.217	-127.328	-0.170	0.025
-191.202	-112.216	-0.186	0.037
-190.187	800.000	-0.085	0.253
-189.173	220.592	-0.198	0.318
-188.158	-53.168	-0.407	-0.187
-187.144	-147.052	0.346	-0.030
-186.129	-24.501	-0.149	-0.089
-185.114	-81.631	0.344	-0.113
-184.100	165.906	0.201	-0.284
-183.085	106.145	-0.099	0.118
-182.071	131.108	0.030	-0.039
-181.056	-113.789	-0.161	0.031
-180.042	-200.000	-0.020	-0.173
-179.027	800.000	0.031	0.117
-178.012	-83.810	-0.425	0.136
-176.998	-56.632	0.245	0.109
-175.983	800.000	0.045	-0.189
-174.969	-200.000	0.002	-0.069
-173.954	-200.000	-0.004	0.265
-172.939	-124.917	0.336	0.052
-171.925	22.255	-0.162	-0.132
-170.910	-61.368	0.224	0.094
-169.896	131.067	-0.088	0.113
-168.881	356.954	0.127	-0.254
-167.866	-96.765	-0.149	0.039
-166.852	-200.000	0.062	-0.314
-165.837	-36.817	0.122	-0.066
-164.823	65.954	0.130	0.132
-163.808	22.722	-0.232	-0.190
-162.793	-42.917	-0.194	-0.099
-161.779	-200.000	0.062	0.282
-160.764	-33.836	0.143	-0.079
-159.750	-31.084	0.139	-0.078
-158.735	677.785	0.008	0.021
-157.720	-87.973	0.065	-0.020
-156.706	-154.424	-0.528	-0.035
-155.691	160.121	-0.047	-0.065
-154.677	800.000	0.020	-0.069
-153.662	237.345	-0.131	0.218
-152.647	-200.000	0.017	0.166
-151.633	-106.808	0.300	-0.067
-150.618	5.548	-0.154	0.114
-149.604	-80.558	-0.276	0.092
-148.589	155.847	-0.189	0.260
-147.574	-200.000	0.004	0.119
-146.560	167.700	-0.080	0.114
-145.545	-30.072	-0.212	-0.121
-144.531	-61.738	0.105	-0.044
-143.516	-42.846	-0.259	-0.132
-142.502	688.909	0.075	-0.195
-141.487	2.545	-0.114	-0.083
-140.472	218.907	-0.190	-0.303
-139.458	-200.000	-0.022	-0.370
-138.443	38.020	0.209	0.186
-137.429	-30.974	-0.218	0.123
-136.414	-181.324	0.357	0.007
-135.399	164.446	0.179	-0.253
-134.385	47.087	0.086	-0.080
-133.370	-154.773	-0.124	0.008
-132.356	470.737	-0.131	-0.295
-131.341	127.314	0.115	-0.146
-130.326	127.260	0.137	0.174
-129.312	-83.230	-0.457	0.147
-128.297	-138.362	-0.259	0.029
-127.283	-32.751	0.204	0.114
-126.268	600.634	0.091	-0.226
-125.253	-21.266	0.496	0.303
-124.239	-200.000	-0.060	-0.273
-123.224	-45.537	-0.113	-0.056
-122.210	-100.354	0.130	-0.032
