DTS Sentinel unit serial number:	SN413079Multiplexer serial number:	ORYXHardware model number:	OX4-SRSoftware version number:	ORYX F/W v4.00 Oryx Data Collector v3.7.2.0data status	okinstallation	princeton_trtdifferential loss correction	single-endedforward channel	channel 3reverse channel	N/Adate	2019/09/16time	20:40:34forward acquisition time	60.00reverse acquisition time	0.00gamma	496.2192k internal	0.2324k external	0.2324temperature offset calibration	0.9934default loss term (dB/km)	0.3790temperature slope calibration	1.0000multiplexer offset coefficient	1.0000multiplexer slope coefficient	1.0000fibre end	0.00T internal ref (°C)	32.44T ext. ref 1 (°C)	0.03T ext. ref 2 (°C)	26.17length (m)	temperature (°C)	Stokes	anti-Stokes-747.200	-114.960	-0.173	-0.033
-746.185	-85.383	0.222	-0.070
-745.171	-162.956	0.137	-0.007
-744.156	-67.825	-0.243	0.096
-743.142	87.653	0.046	0.052
-742.127	-99.374	0.366	0.093
-741.112	60.162	0.245	-0.244
-740.098	92.340	0.056	0.063
-739.083	33.277	0.150	0.132
-738.069	-153.542	0.157	0.011
-737.054	166.567	0.090	-0.129
-736.039	-200.000	0.032	0.264
-735.025	74.223	0.216	0.229
-734.010	-82.848	0.182	-0.059
-732.996	-10.093	-0.142	-0.095
-731.981	800.000	0.046	-0.201
-730.966	-154.646	-0.266	-0.018
-729.952	-26.716	-0.246	-0.145
-728.937	-98.816	-0.130	-0.033
-727.923	-47.004	-0.216	0.106
-726.908	40.433	-0.147	0.133
-725.894	-200.000	0.005	-0.162
-724.879	800.000	-0.041	-0.119
-723.864	-11.296	-0.270	0.180
-722.850	-155.636	-0.285	0.018
-721.835	-63.707	-0.257	-0.106
-720.821	-200.000	-0.006	-0.522
-719.806	281.699	-0.070	-0.126
-718.791	34.812	-0.143	0.126
-717.777	-200.000	-0.009	0.150
-716.762	757.060	-0.151	-0.412
-715.748	-200.000	-0.068	-0.313
-714.733	800.000	0.014	0.059
-713.718	-4.416	0.217	-0.151
-712.704	-46.212	-0.154	0.076
-711.689	-61.123	0.207	-0.088
-710.675	-200.000	0.000	0.042
-709.660	-200.000	-0.044	0.245
-708.645	-200.000	0.006	0.197
-707.631	23.330	-0.327	0.271
-706.616	115.135	0.179	-0.220
-705.602	328.419	-0.142	-0.275
-704.587	-200.000	-0.049	-0.329
-703.572	-58.712	0.232	0.101
-702.558	-200.000	-0.016	-0.322
-701.543	187.714	-0.127	-0.192
-700.529	-45.836	0.062	-0.031
-699.514	-57.490	-0.025	0.011
-698.499	137.808	0.085	0.112
-697.485	-111.851	-0.240	-0.049
-696.470	-200.000	-0.016	-0.165
-695.456	-74.813	-0.261	-0.095
-694.441	2.451	-0.067	0.049
-693.426	-100.765	-0.223	0.055
-692.412	-18.472	-0.128	-0.080
-691.397	63.456	0.100	-0.101
-690.383	-111.316	0.095	-0.020
-689.368	-200.000	0.015	-0.204
-688.354	-200.000	-0.091	-0.430
-687.339	300.033	0.074	-0.138
-686.324	26.546	0.066	0.056
-685.310	445.272	0.022	0.049
-684.295	26.504	0.071	0.060
-683.281	-59.546	-0.256	0.111
-682.266	-115.791	0.243	0.046
-681.251	-76.841	-0.102	-0.036
-680.237	406.917	-0.133	0.283
-679.222	-39.394	-0.107	0.056
-678.208	-200.000	0.014	-0.237
-677.193	641.675	0.060	0.153
-676.178	-53.193	0.208	-0.096
-675.164	-25.513	-0.126	-0.075
-674.149	734.165	-0.042	0.114
-673.135	171.501	-0.219	0.316
-672.120	679.048	-0.091	0.239
-671.105	41.040	-0.061	-0.056
-670.091	-120.255	-0.475	0.082
-669.076	70.444	0.163	0.170
-668.062	-78.412	-0.257	0.089
-667.047	578.140	0.204	-0.502
-666.032	5.545	-0.294	0.218
-665.018	-98.790	0.218	0.056
-664.003	503.112	0.082	-0.190
-662.989	-188.712	0.416	0.005
-661.974	800.000	-0.047	-0.165
-660.959	-107.769	-0.340	-0.075
-659.945	247.588	-0.141	0.240
-658.930	-59.187	0.206	0.089
-657.916	-158.196	-0.163	0.010
-656.901	-85.003	0.232	-0.073
-655.886	-102.601	-0.212	0.051
-654.872	-109.615	-0.348	-0.074
-653.857	-102.131	0.364	-0.088
-652.843	95.227	0.167	0.192
-651.828	-200.000	-0.044	0.273
-650.814	-91.779	-0.347	-0.099
-649.799	13.244	-0.133	0.103
-648.784	40.565	0.213	-0.193
-647.770	-123.775	-0.289	0.046
-646.755	72.782	-0.299	-0.314
-645.741	196.773	0.186	0.285
-644.726	-200.000	-0.003	0.054
-643.711	-86.771	-0.176	-0.054
-642.697	-33.090	-0.229	-0.128
-641.682	800.000	-0.149	0.428
-640.668	-200.000	-0.039	0.392
-639.653	800.000	-0.070	0.206
-638.638	156.893	-0.131	0.182
-637.624	68.733	-0.215	-0.222
-636.609	-93.630	0.168	-0.047
-635.595	-54.385	0.082	-0.037
-634.580	-200.000	-0.001	-0.157
-633.565	-70.823	0.032	-0.012
-632.551	240.637	0.110	0.185
-631.536	800.000	-0.060	0.191
-630.522	-10.244	-0.167	-0.111
-629.507	-200.000	-0.045	0.204
-628.492	-98.543	-0.061	-0.016
-627.478	200.159	-0.056	0.086
-626.463	584.557	0.178	0.439
-625.449	-4.102	0.198	0.138
-624.434	-35.650	-0.321	-0.175
-623.419	53.059	-0.104	-0.100
-622.405	208.626	-0.076	0.120
-621.390	-152.900	0.278	-0.020
-620.376	-82.413	-0.136	-0.045
-619.361	-139.240	0.212	0.023
-618.346	-79.157	-0.168	-0.057
-617.332	800.000	-0.009	0.036
-616.317	-106.149	0.214	0.048
-615.303	391.613	-0.040	0.083
-614.288	413.804	0.095	0.203
-613.273	-34.261	0.124	-0.069
-612.259	-46.746	-0.198	-0.097
-611.244	-200.000	-0.002	0.109
-610.230	27.080	0.033	-0.028
-609.215	411.813	-0.174	0.371
-608.201	164.178	-0.112	0.158
-607.186	271.376	-0.160	-0.284
-606.171	746.165	-0.008	0.020
-605.157	228.118	-0.231	-0.378
-604.142	754.261	0.074	-0.200
-603.128	-192.019	0.067	-0.001
-602.113	578.705	-0.091	-0.223
-601.098	-41.392	-0.142	-0.074
-600.084	800.000	-0.077	-0.289
-599.069	800.000	-0.119	0.501
-598.055	800.000	-0.033	0.107
-597.040	312.936	0.183	-0.346
-596.025	-144.435	-0.240	0.022
-595.011	6.325	0.034	0.026
-593.996	-200.000	-0.003	-0.059
-592.982	15.738	-0.212	-0.167
-591.967	57.549	-0.295	-0.289
-590.952	-200.000	-0.067	-0.330
-589.938	-98.986	0.317	0.081
-588.923	-200.000	0.033	0.156
-587.909	-200.000	-0.007	-0.440
-586.894	800.000	0.015	-0.053
-585.879	-104.404	-0.100	-0.023
-584.865	-133.715	-0.066	0.008
-583.850	-200.000	-0.032	-0.280
-582.836	53.379	0.156	-0.150
-581.821	800.000	0.043	-0.161
-580.806	-200.000	0.021	0.214
-579.792	105.424	0.314	0.372
-578.777	323.339	0.073	-0.140
-577.763	439.417	-0.042	-0.091
-576.748	-200.000	-0.002	0.085
-575.733	-200.000	-0.001	0.076
-574.719	-133.471	-0.227	-0.029
-573.704	-100.728	-0.417	0.103
-572.690	-200.000	-0.022	-0.195
-571.675	-200.000	0.001	0.016
-570.661	-31.617	-0.064	-0.036
-569.646	379.113	-0.058	0.120
-568.631	576.037	-0.134	-0.329
-567.617	11.863	-0.074	-0.057
-566.602	-35.304	0.093	-0.051
-565.588	58.605	0.092	-0.091
-564.573	-54.175	0.096	0.044
-563.558	800.000	0.021	-0.076
-562.544	-102.507	-0.180	-0.043
-561.529	80.275	-0.159	-0.172
-560.515	-99.639	-0.198	0.050
-559.500	-200.000	0.028	-0.188
-558.485	41.735	-0.129	-0.117
-557.471	28.490	-0.176	0.149
-556.456	76.079	0.152	-0.161
-555.442	800.000	0.114	0.412
-554.427	-195.060	-0.070	0.001
-553.412	155.355	-0.157	-0.217
-552.398	253.919	-0.223	0.382
-551.383	-49.791	-0.255	-0.121
-550.369	-48.832	-0.116	-0.056
-549.354	-200.000	0.041	-0.000
-548.339	-20.254	0.402	-0.248
-547.325	109.634	0.111	0.133
-546.310	-12.774	-0.302	-0.197
-545.296	-22.020	-0.210	0.128
-544.281	25.820	-0.340	0.283
-543.266	-200.000	0.020	-0.138
-542.252	138.345	0.158	-0.207
-541.237	86.293	-0.017	0.019
-540.223	-110.649	-0.314	0.065
-539.208	-200.000	-0.014	-0.171
-538.193	25.832	-0.172	0.143
-537.179	800.000	-0.015	0.053
-536.164	-200.000	-0.001	-0.225
-535.150	216.442	0.007	0.012
-534.135	70.328	0.209	-0.216
-533.121	800.000	-0.051	-0.178
-532.106	-200.000	-0.031	-0.282
-531.091	-200.000	0.006	-0.298
-530.077	-18.803	0.214	0.133
-529.062	-14.031	0.020	-0.013
-528.048	47.434	-0.159	-0.148
-527.033	254.865	-0.153	0.263
-526.018	-57.387	-0.132	-0.058
-525.004	800.000	0.071	0.203
-523.989	448.255	0.105	0.232
-522.975	235.883	0.049	0.080
-521.960	-14.877	-0.266	0.171
-520.945	149.460	-0.107	0.145
-519.931	-120.159	0.554	0.095
-518.916	-108.427	-0.108	-0.023
-517.902	107.646	-0.146	-0.174
-516.887	-200.000	-0.019	-0.515
-515.872	80.638	-0.192	-0.207
-514.858	536.104	-0.066	-0.156
-513.843	800.000	0.104	-0.361
-512.829	-200.000	0.005	0.160
-511.814	-200.000	-0.042	-0.188
-510.799	800.000	0.079	-0.255
-509.785	390.138	-0.052	-0.107
-508.770	-141.478	0.390	-0.039
-507.756	556.356	0.010	-0.025
-506.741	-200.000	0.067	-0.361
-505.726	800.000	0.077	-0.298
-504.712	800.000	0.046	-0.156
-503.697	-13.807	-0.384	-0.248
-502.683	565.778	0.057	-0.139
-501.668	266.495	0.055	0.096
-500.653	-200.000	0.030	-0.206
-499.639	60.550	0.078	0.078
-498.624	-120.692	0.307	-0.052
-497.610	-115.844	-0.032	0.006
-496.595	-200.000	-0.003	-0.063
-495.581	-200.000	0.022	-0.171
-494.566	85.388	0.185	0.203
-493.551	203.134	-0.100	-0.154
-492.537	111.058	-0.329	0.396
-491.522	312.658	0.084	0.159
-490.508	-100.357	-0.246	0.061
-489.493	-90.234	0.283	0.082
-488.478	129.898	0.145	-0.186
-487.464	-158.368	0.159	-0.009
-486.449	354.771	-0.074	-0.147
-485.435	800.000	-0.022	0.066
-484.420	128.425	0.211	0.269
-483.405	-200.000	0.004	-0.153
-482.391	509.595	-0.153	0.355
-481.376	800.000	-0.016	-0.047
-480.362	297.672	-0.087	0.159
-479.347	-200.000	-0.009	-0.229
-478.332	800.000	-0.053	0.174
-477.318	78.349	0.035	0.038
-476.303	748.808	-0.097	0.262
-475.289	-200.000	0.050	-0.273
-474.274	-81.112	0.097	0.032
-473.259	193.047	-0.149	0.225
-472.245	-200.000	0.020	0.096
-471.230	-200.000	-0.005	-0.113
-470.216	707.924	-0.060	-0.158
-469.201	-76.428	-0.304	-0.107
-468.186	448.557	-0.113	0.249
-467.172	800.000	-0.017	0.058
-466.157	-200.000	0.004	-0.056
-465.143	-136.611	0.238	0.028
-464.128	800.000	0.143	0.476
-463.113	-200.000	0.280	-0.001
-462.099	84.943	0.114	-0.124
-461.084	-174.961	-0.236	-0.007
-460.070	-12.018	-0.435	0.284
-459.055	256.691	0.126	0.216
-458.040	-200.000	0.019	0.453
-457.026	-200.000	-0.004	0.107
-456.011	9.837	0.005	-0.004
-454.997	80.910	-0.267	0.287
-453.982	332.244	0.162	-0.311
-452.968	-105.627	0.202	0.046
-451.953	77.883	-0.062	0.066
-450.938	74.724	0.136	0.142
-449.924	48.983	-0.121	0.113
-448.909	237.601	0.103	-0.170
-447.895	-69.754	0.234	0.089
-446.880	-88.662	-0.254	0.075
-445.865	257.705	0.183	-0.314
-444.851	253.483	-0.017	0.028
-443.836	-30.543	-0.174	-0.099
-442.822	-200.000	0.128	0.000
-441.807	-114.008	0.271	0.052
-440.792	235.565	0.139	-0.228
-439.778	-66.681	-0.335	-0.132
-438.763	118.899	0.157	0.193
-437.749	217.986	0.122	-0.194
-436.734	165.733	0.066	0.093
-435.719	-200.000	0.001	0.326
-434.705	-158.746	0.261	-0.015
-433.690	-171.180	-0.193	0.006
-432.676	419.127	-0.176	0.376
-431.661	-4.712	0.030	0.021
-430.646	-137.200	-0.311	-0.035
-429.632	373.893	-0.165	-0.334
-428.617	-42.057	0.274	-0.140
-427.603	207.695	0.107	-0.166
-426.588	3.698	0.109	0.079
-425.573	-200.000	0.014	0.194
-424.559	-54.784	-0.127	-0.057
-423.544	68.846	0.077	-0.078
-422.530	349.176	0.042	-0.082
-421.515	-23.828	-0.135	0.081
-420.500	203.264	0.068	-0.104
-419.486	685.116	0.135	-0.352
-418.471	151.436	-0.106	-0.144
-417.457	-138.642	0.013	-0.001
-416.442	-95.001	0.232	0.063
-415.428	-200.000	-0.056	0.276
-414.413	158.709	0.046	-0.064
-413.398	34.168	-0.171	-0.149
-412.384	-188.008	0.062	-0.001
-411.369	-200.000	-0.003	-0.148
-410.355	121.927	-0.078	0.096
-409.340	-200.000	0.090	-0.474
-408.325	-200.000	-0.017	-0.106
-407.311	284.945	0.112	0.201
-406.296	-117.829	-0.195	0.035
-405.282	-11.157	0.354	0.233
-404.267	242.940	-0.203	0.338
-403.252	-33.844	0.124	0.068
-402.238	-6.706	0.375	0.254
-401.223	-114.303	-0.035	0.007
-400.209	800.000	0.084	0.296
-399.194	67.775	-0.122	0.124
-398.179	330.774	0.191	0.367
-397.165	497.461	0.146	0.334
-396.150	-82.450	0.471	-0.152
-395.136	618.480	0.019	-0.048
-394.121	-35.215	0.126	0.068
-393.106	128.055	-0.003	0.003
-392.092	-200.000	-0.024	-0.144
-391.077	168.462	0.069	0.097
-390.063	-21.450	0.131	0.079
-389.048	-4.908	0.164	0.113
-388.033	-200.000	-0.008	0.181
-387.019	-152.129	0.226	-0.016
-386.004	3.336	0.164	-0.119
-384.990	-131.074	-0.235	-0.031
-383.975	80.535	-0.081	0.087
-382.960	-90.166	-0.216	-0.063
-381.946	1.330	0.208	-0.149
-380.931	-200.000	0.009	-0.211
-379.917	-200.000	-0.023	0.172
-378.902	-200.000	0.020	0.212
-377.888	134.348	-0.280	-0.361
-376.873	-141.043	0.209	-0.021
-375.858	-36.811	0.413	-0.221
-374.844	200.042	-0.042	-0.065
-373.829	-200.000	-0.051	0.373
-372.815	102.850	0.029	0.034
-371.800	689.540	-0.098	-0.255
-370.785	282.594	-0.018	-0.031
-369.771	-200.000	0.089	0.395
-368.756	31.412	-0.246	-0.211
-367.742	52.126	0.195	-0.185
-366.727	584.526	-0.003	0.007
-365.712	-177.221	-0.442	0.011
-364.698	-37.895	-0.071	-0.038
-363.683	17.032	-0.158	0.125
-362.669	-200.000	0.016	-0.096
-361.654	800.000	0.103	0.307
-360.639	-56.354	-0.264	0.117
-359.625	800.000	0.118	0.381
-358.610	22.128	-0.007	0.006
-357.596	-63.064	0.207	0.085
-356.581	89.021	0.130	0.144
-355.566	-23.477	0.041	0.024
-354.552	800.000	0.097	0.396
-353.537	469.946	-0.074	-0.165
-352.523	-101.260	-0.263	-0.064
-351.508	-74.773	-0.292	-0.104
-350.493	-97.702	0.252	0.065
-349.479	-200.000	0.025	0.267
-348.464	-34.078	0.218	-0.119
-347.450	-80.805	0.315	0.104
-346.435	-122.288	-0.219	-0.036
-345.420	-160.672	0.066	-0.003
-344.406	-200.000	0.019	-0.201
-343.391	370.343	0.096	-0.193
-342.377	46.114	-0.247	-0.227
-341.362	-115.005	-0.201	0.038
-340.348	-200.000	0.013	-0.177
-339.333	-74.405	-0.062	0.022
-338.318	392.069	0.067	-0.138
-337.304	-86.836	-0.218	0.066
-336.289	204.809	-0.146	0.225
-335.275	800.000	0.156	-0.431
-334.260	-200.000	0.002	0.288
-333.245	800.000	0.176	-0.489
-332.231	-162.337	0.281	0.014
-331.216	360.578	-0.067	0.134
-330.202	-200.000	-0.075	0.425
-329.187	-35.725	0.054	-0.029
-328.172	-200.000	0.031	0.238
-327.158	800.000	-0.155	0.503
-326.143	-150.632	0.400	-0.030
-325.129	-126.818	-0.185	0.027
-324.114	106.744	-0.093	-0.109
-323.099	-60.301	-0.170	0.072
-322.085	-139.535	0.258	-0.027
-321.070	-130.251	-0.072	-0.010
-320.056	-200.000	-0.007	0.309
-319.041	-116.198	0.358	-0.066
-318.026	707.996	-0.036	-0.095
-317.012	-103.133	-0.267	-0.063
-315.997	-21.349	0.165	0.100
-314.983	800.000	-0.125	0.353
-313.968	82.138	-0.258	-0.278
-312.953	250.092	0.176	-0.297
-311.939	-85.568	-0.485	0.150
-310.924	-7.439	0.063	-0.043
-309.910	-24.052	0.252	0.149
-308.895	10.526	-0.165	-0.125
-307.880	9.146	0.049	0.037
-306.866	-56.783	0.220	-0.097
-305.851	-200.000	-0.019	-0.129
-304.837	-122.074	0.158	-0.026
-303.822	384.569	0.150	-0.307
-302.807	-156.567	0.078	-0.005
-301.793	-74.689	0.084	-0.030
-300.778	800.000	-0.067	-0.290
-299.764	-200.000	-0.061	0.479
-298.749	0.023	0.127	0.090
-297.735	-120.208	-0.051	-0.009
-296.720	-200.000	0.044	0.240
-295.705	-200.000	0.001	-0.016
-294.691	61.019	0.135	0.133
-293.676	-200.000	-0.069	-0.448
-292.662	-200.000	-0.037	-0.199
-291.647	218.671	0.188	-0.298
-290.632	-114.005	0.148	-0.029
-289.618	-154.907	0.413	-0.027
-288.603	-85.432	-0.374	-0.116
-287.589	-64.931	-0.270	0.108
-286.574	51.109	-0.189	0.177
-285.559	15.717	-0.105	-0.082
-284.545	-58.986	0.054	0.023
-283.530	-14.661	0.027	0.017
-282.516	129.178	-0.123	0.155
-281.501	-200.000	-0.012	0.072
-280.486	102.940	-0.256	-0.297
-279.472	-3.554	-0.089	-0.061
-278.457	800.000	-0.022	-0.082
-277.443	-10.043	0.362	0.239
-276.428	395.989	-0.071	0.147
-275.413	800.000	0.069	0.227
-274.399	112.571	-0.131	-0.157
-273.384	31.798	0.066	0.056
-272.370	45.103	0.125	-0.114
-271.355	-88.813	-0.296	-0.087
-270.340	11.358	0.180	-0.136
-269.326	145.977	0.082	-0.109
-268.311	791.678	-0.091	0.247
-267.297	131.196	0.118	0.150
-266.282	-15.003	-0.346	0.220
-265.267	246.170	-0.053	-0.089
-264.253	49.715	-0.162	0.151
-263.238	413.364	-0.209	0.441
-262.224	800.000	0.092	-0.330
-261.209	800.000	0.074	0.272
-260.195	-53.005	0.265	-0.121
-259.180	-19.798	0.330	-0.202
-258.165	800.000	0.099	0.347
-257.151	-177.402	0.467	0.011
-256.136	800.000	0.066	-0.192
-255.122	-27.579	0.032	0.018
-254.107	-200.000	-0.014	0.429
-253.092	-200.000	0.004	0.027
-252.078	-200.000	0.039	-0.214
-251.063	-68.161	0.331	-0.128
-250.049	-36.807	0.290	-0.154
-249.034	-11.174	-0.120	-0.078
-248.019	-121.133	-0.285	0.047
-247.005	754.755	-0.144	0.385
-245.990	378.849	0.106	-0.215
-244.976	-93.294	-0.274	-0.075
-243.961	11.239	0.124	-0.094
-242.946	-200.000	0.023	-0.288
-241.932	-61.134	0.117	0.049
-240.917	308.444	-0.198	-0.366
-239.903	-160.375	-0.183	0.010
-238.888	489.929	-0.040	0.092
-237.873	-136.498	0.229	-0.026
-236.859	-200.000	0.007	0.110
-235.844	73.310	-0.161	0.167
-234.830	-49.324	0.098	0.046
-233.815	-140.687	-0.318	-0.033
-232.800	159.637	0.100	-0.138
-231.786	49.932	0.125	-0.117
-230.771	-57.770	-0.282	-0.122
-229.757	47.032	0.142	0.130
-228.742	800.000	0.094	0.374
-227.727	276.280	0.182	0.320
-226.713	-68.193	-0.088	-0.034
-225.698	-155.535	-0.127	0.008
-224.684	32.552	-0.074	-0.064
-223.669	-108.279	0.170	0.036
-222.655	223.897	-0.050	-0.079
-221.640	-200.000	-0.207	0.000
-220.625	-6.269	-0.218	-0.147
-219.611	-90.427	-0.255	0.073
-218.596	-25.058	0.218	0.128
-217.582	800.000	-0.081	0.222
-216.567	31.008	-0.145	-0.123
-215.552	106.194	0.214	0.250
-214.538	-200.000	-0.030	-0.237
-213.523	-12.146	0.115	-0.074
-212.509	800.000	0.042	-0.140
-211.494	-93.725	-0.184	0.050
-210.479	46.024	0.221	0.202
-209.465	-200.000	0.008	0.072
-208.450	-200.000	0.016	-0.087
-207.436	346.012	0.128	-0.249
-206.421	126.719	0.079	0.098
-205.406	-115.356	-0.151	0.028
-204.392	-101.100	-0.219	-0.053
-203.377	176.447	0.171	-0.246
-202.363	-42.389	0.076	0.039
-201.348	800.000	-0.168	0.476
-200.333	426.203	0.191	0.408
-199.319	-166.496	0.285	-0.012
-198.304	76.037	0.050	-0.052
-197.290	-200.000	0.028	-0.137
-196.275	800.000	-0.020	0.073
-195.260	45.546	0.268	-0.245
-194.246	38.082	0.103	-0.090
-193.231	-200.000	0.021	0.483
-192.217	-200.000	-0.039	-0.205
-191.202	97.815	-0.218	0.248
-190.187	346.379	-0.059	-0.114
-189.173	-93.814	-0.107	-0.029
-188.158	-83.325	0.296	0.094
-187.144	111.660	-0.262	-0.312
-186.129	800.000	0.095	-0.343
-185.114	-148.163	0.155	-0.013
-184.100	-100.015	-0.179	-0.044
-183.085	15.634	0.147	-0.114
-182.071	-200.000	-0.031	-0.140
-181.056	-200.000	-0.019	-0.278
-180.042	64.552	0.172	0.171
-179.027	-53.028	-0.219	-0.099
-178.012	350.653	-0.118	-0.230
-176.998	-200.000	0.000	-0.069
-175.983	72.377	0.060	0.062
-174.969	800.000	-0.185	0.546
-173.954	800.000	-0.048	-0.146
-172.939	-200.000	-0.013	-0.144
-171.925	703.171	-0.040	0.104
-170.910	-108.180	0.173	0.037
-169.896	24.457	0.226	0.185
-168.881	172.566	0.104	-0.148
-167.866	-200.000	-0.012	0.058
-166.852	87.949	0.270	0.296
-165.837	285.851	0.052	-0.092
-164.823	-50.945	0.233	-0.108
-163.808	222.113	-0.072	-0.114
-162.793	-49.535	0.170	-0.080
-161.779	800.000	0.027	0.095
-160.764	213.726	-0.154	-0.240
-159.750	800.000	0.035	-0.132
-158.735	112.158	0.188	-0.225
-157.720	-200.000	0.002	-0.047
-156.706	31.914	0.081	0.069
-155.691	800.000	-0.145	0.495
-154.677	-55.706	-0.115	0.051
-153.662	-108.410	-0.018	-0.004
-152.647	50.280	-0.220	-0.205
-151.633	-111.535	0.463	0.093
-150.618	-20.833	0.169	-0.102
-149.604	-167.108	0.101	-0.004
-148.589	87.965	-0.073	0.080
-147.574	50.598	-0.151	0.141
-146.560	43.670	-0.099	-0.089
-145.545	-12.948	-0.215	0.138
-144.531	87.521	0.269	0.293
-143.516	79.220	-0.085	-0.089
-142.502	12.459	-0.035	-0.027
-141.487	800.000	-0.025	0.072
-140.472	-200.000	0.041	0.210
-139.458	-96.555	0.221	-0.057
-138.443	60.842	-0.137	0.134
-137.429	-200.000	0.001	-0.039
-136.414	4.903	-0.315	0.229
-135.399	564.075	-0.028	-0.068
-134.385	-88.839	0.302	0.088
-133.370	-89.330	0.113	0.033
-132.356	-105.849	0.240	-0.053
-131.341	197.974	0.158	0.238
-130.326	-54.309	0.474	0.212
-129.312	-200.000	-0.072	-0.440
-128.297	-146.022	0.103	0.009
-127.283	-160.597	-0.310	0.016
-126.268	-106.498	-0.152	0.033
-125.253	-200.000	0.005	0.443
-124.239	69.400	0.154	-0.157
-123.224	-136.007	-0.191	-0.022
-122.210	-66.192	0.125	0.049
