DTS Sentinel unit serial number:	SN413079Multiplexer serial number:	ORYXHardware model number:	OX4-SRSoftware version number:	ORYX F/W v4.00 Oryx Data Collector v3.7.2.0data status	okinstallation	princeton_trtdifferential loss correction	single-endedforward channel	channel 3reverse channel	N/Adate	2019/09/14time	08:40:35forward acquisition time	60.00reverse acquisition time	0.00gamma	496.2192k internal	0.2327k external	0.2327temperature offset calibration	1.0047default loss term (dB/km)	0.3790temperature slope calibration	1.0000multiplexer offset coefficient	1.0000multiplexer slope coefficient	1.0000fibre end	0.00T internal ref (°C)	28.91T ext. ref 1 (°C)	3.67T ext. ref 2 (°C)	26.36length (m)	temperature (°C)	Stokes	anti-Stokes-747.200	-101.664	0.051	0.012
-746.185	35.133	-0.187	0.165
-745.171	-82.751	0.392	0.128
-744.156	-200.000	-0.061	0.316
-743.142	344.355	0.080	0.158
-742.127	0.262	0.087	0.063
-741.112	-200.000	-0.030	0.300
-740.098	-99.317	0.318	-0.081
-739.083	-200.000	0.020	0.119
-738.069	-133.199	-0.225	0.029
-737.054	-170.570	0.200	-0.007
-736.039	-200.000	-0.028	-0.187
-735.025	-200.000	-0.025	0.142
-734.010	16.500	-0.158	0.126
-732.996	39.197	-0.217	-0.195
-731.981	599.365	0.064	0.159
-730.966	89.864	-0.152	0.172
-729.952	402.433	0.133	-0.281
-728.937	-79.793	-0.102	-0.034
-727.923	186.023	-0.224	0.335
-726.908	-200.000	-0.011	0.075
-725.894	-200.000	0.022	-0.134
-724.879	22.203	-0.187	-0.154
-723.864	209.414	-0.175	0.277
-722.850	590.470	-0.150	0.372
-721.835	87.733	0.136	-0.152
-720.821	800.000	0.030	-0.122
-719.806	-200.000	0.035	-0.392
-718.791	-134.657	-0.523	0.064
-717.777	-65.386	0.284	0.115
-716.762	10.281	0.134	-0.103
-715.748	800.000	-0.033	-0.124
-714.733	-200.000	-0.022	0.193
-713.718	800.000	-0.067	-0.198
-712.704	455.513	-0.108	-0.241
-711.689	-39.694	0.272	0.143
-710.675	-139.720	0.154	-0.016
-709.660	-154.748	0.220	-0.015
-708.645	148.932	0.228	-0.310
-707.631	-77.144	-0.171	0.060
-706.616	474.410	0.052	-0.119
-705.602	-110.525	-0.366	-0.076
-704.587	-41.362	0.176	0.091
-703.572	-200.000	0.020	0.165
-702.558	-200.000	-0.015	0.119
-701.543	-68.301	0.317	-0.124
-700.529	-200.000	0.017	-0.127
-699.514	-143.355	0.079	-0.008
-698.499	-200.000	-0.065	-0.291
-697.485	-61.486	-0.308	-0.130
-696.470	800.000	0.057	0.211
-695.456	-152.598	-0.291	-0.021
-694.441	628.846	0.083	-0.211
-693.426	371.826	0.097	-0.198
-692.412	-200.000	-0.007	0.096
-691.397	43.263	0.292	0.269
-690.383	68.274	0.166	0.172
-689.368	11.905	0.197	0.152
-688.354	227.793	-0.144	-0.236
-687.339	-161.226	-0.217	0.011
-686.324	-128.248	0.075	-0.011
-685.310	241.544	0.084	0.142
-684.295	142.196	-0.237	0.316
-683.281	-122.366	0.133	-0.022
-682.266	-73.277	-0.391	-0.144
-681.251	-70.995	-0.186	-0.070
-680.237	-200.000	-0.032	0.229
-679.222	39.839	0.190	-0.171
-678.208	94.061	0.285	0.325
-677.193	68.449	0.147	-0.151
-676.178	-106.449	-0.045	0.010
-675.164	800.000	-0.020	-0.089
-674.149	800.000	0.055	-0.152
-673.135	800.000	-0.016	-0.070
-672.120	132.199	-0.211	-0.273
-671.105	192.326	0.129	0.195
-670.091	-13.485	0.110	0.072
-669.076	3.745	-0.253	-0.185
-668.062	1.054	-0.152	-0.109
-667.047	735.693	-0.104	-0.280
-666.032	541.101	-0.201	0.481
-665.018	399.768	-0.094	0.199
-664.003	-200.000	0.014	-0.150
-662.989	65.049	0.179	-0.182
-661.974	-49.405	-0.141	0.068
-660.959	-130.741	-0.202	0.027
-659.945	94.423	-0.162	0.185
-658.930	-48.597	0.269	-0.130
-657.916	187.557	0.095	-0.143
-656.901	800.000	-0.042	0.126
-655.886	-166.993	0.172	0.007
-654.872	186.552	-0.107	0.159
-653.857	66.292	-0.076	-0.078
-652.843	321.872	0.148	-0.284
-651.828	-1.131	-0.179	-0.127
-650.814	-200.000	0.033	0.341
-649.799	-200.000	-0.033	0.328
-648.784	-200.000	0.021	0.307
-647.770	800.000	0.101	-0.304
-646.755	-69.377	-0.243	0.094
-645.741	8.305	0.251	-0.189
-644.726	96.601	0.043	0.049
-643.711	-121.215	0.336	0.056
-642.697	-160.320	-0.227	0.012
-641.682	-68.656	-0.303	-0.118
-640.668	60.560	0.052	0.052
-639.653	106.843	0.150	-0.178
-638.638	-200.000	0.014	-0.076
-637.624	78.698	-0.025	-0.027
-636.609	-13.917	-0.087	0.057
-635.595	-70.167	-0.385	0.147
-634.580	135.082	-0.094	0.122
-633.565	-168.248	-0.268	-0.010
-632.551	800.000	-0.065	-0.252
-631.536	31.062	-0.180	-0.155
-630.522	79.072	0.135	-0.146
-629.507	18.382	-0.184	-0.148
-628.492	-110.157	0.273	0.057
-627.478	-200.000	-0.023	-0.229
-626.463	-106.161	0.200	-0.045
-625.449	-80.387	-0.218	-0.073
-624.434	-200.000	0.034	-0.313
-623.419	-42.216	0.209	0.107
-622.405	800.000	-0.118	0.386
-621.390	132.032	-0.224	-0.290
-620.376	-109.203	0.160	-0.034
-619.361	80.724	-0.169	0.183
-618.346	-143.162	0.267	0.026
-617.332	-81.114	0.130	0.043
-616.317	800.000	-0.054	-0.233
-615.303	-51.305	-0.348	-0.163
-614.288	-200.000	-0.008	0.126
-613.273	-200.000	-0.029	0.151
-612.259	-134.774	0.142	0.017
-611.244	-124.677	-0.321	0.050
-610.230	800.000	0.085	0.362
-609.215	-82.554	-0.089	0.029
-608.201	-114.699	-0.234	0.045
-607.186	-72.899	0.145	0.053
-606.171	196.098	-0.026	-0.040
-605.157	-200.000	0.050	0.288
-604.142	738.737	-0.023	-0.063
-603.128	-47.523	-0.430	0.210
-602.113	-78.100	0.240	-0.083
-601.098	800.000	0.085	-0.310
-600.084	-47.225	0.098	-0.048
-599.069	-35.727	0.414	-0.225
-598.055	-79.682	-0.244	0.083
-597.040	609.970	-0.032	-0.079
-596.025	39.452	0.078	-0.070
-595.011	-105.684	-0.149	0.034
-593.996	-160.796	0.318	0.017
-592.982	-200.000	0.007	-0.143
-591.967	-5.164	0.074	0.051
-590.952	45.811	0.219	-0.203
-589.938	-200.000	0.056	0.274
-588.923	800.000	-0.094	-0.303
-587.909	-156.885	-0.137	0.008
-586.894	320.735	0.140	-0.266
-585.879	93.549	-0.304	-0.345
-584.865	-200.000	0.041	-0.289
-583.850	-69.176	0.144	0.055
-582.836	-142.309	0.124	0.012
-581.821	-76.614	-0.218	-0.077
-580.806	-200.000	0.034	-0.290
-579.792	3.248	-0.174	0.127
-578.777	654.344	0.073	0.188
-577.763	81.910	-0.089	0.097
-576.748	-32.579	0.288	-0.161
-575.733	-200.000	0.049	-0.226
-574.719	382.622	-0.064	-0.133
-573.704	-48.277	0.303	0.146
-572.690	-96.082	-0.480	-0.128
-571.675	-50.019	0.138	-0.066
-570.661	-200.000	0.019	0.344
-569.646	-79.296	0.117	-0.040
-568.631	-200.000	-0.007	-0.080
-567.617	-88.903	0.401	-0.119
-566.602	-100.747	-0.212	0.052
-565.588	-149.227	0.166	0.013
-564.573	-200.000	0.042	-0.324
-563.558	198.234	0.119	-0.182
-562.544	291.778	-0.123	0.223
-561.529	118.646	-0.049	0.060
-560.515	-200.000	0.025	0.260
-559.500	495.357	0.079	-0.181
-558.485	-72.481	-0.505	-0.187
-557.471	-47.752	0.126	0.061
-556.456	-51.642	0.140	0.066
-555.442	-6.065	0.243	0.166
-554.427	-38.228	0.132	0.070
-553.412	-200.000	-0.017	-0.119
-552.398	-200.000	0.007	-0.100
-551.383	413.741	0.082	0.175
-550.369	18.924	0.278	0.223
-549.354	4.992	-0.124	0.091
-548.339	800.000	-0.075	0.277
-547.325	-200.000	0.018	0.096
-546.310	156.307	0.181	0.250
-545.296	132.686	-0.122	-0.157
-544.281	65.789	0.185	0.188
-543.266	-200.000	-0.032	0.172
-542.252	-200.000	0.037	0.161
-541.237	-200.000	0.004	-0.328
-540.223	800.000	0.185	0.564
-539.208	-28.746	0.086	-0.050
-538.193	-71.835	0.138	0.052
-537.179	194.343	-0.079	-0.120
-536.164	-90.613	-0.361	-0.104
-535.150	-26.818	-0.111	-0.065
-534.135	58.600	0.279	-0.274
-533.121	-130.864	-0.127	0.017
-532.106	-22.015	-0.080	-0.049
-531.091	-81.023	0.040	-0.013
-530.077	113.367	0.146	-0.177
-529.062	41.210	0.162	-0.147
-528.048	298.351	-0.064	0.118
-527.033	-164.530	0.156	0.007
-526.018	-172.679	0.356	-0.011
-525.004	23.569	-0.143	0.117
-523.989	-176.987	0.199	0.005
-522.975	255.016	-0.174	-0.297
-521.960	-82.899	0.102	0.033
-520.945	-48.183	-0.237	-0.114
-519.931	281.182	0.067	-0.120
-518.916	-129.820	-0.205	0.028
-517.902	-200.000	0.018	-0.274
-516.887	-200.000	-0.035	-0.391
-515.872	-79.823	-0.443	-0.149
-514.858	-83.146	0.372	0.120
-513.843	15.948	0.171	-0.135
-512.829	-200.000	0.076	-0.369
-511.814	-150.104	0.016	-0.001
-510.799	115.996	0.090	0.110
-509.785	-133.924	0.317	-0.039
-508.770	-13.458	-0.204	-0.132
-507.756	2.578	-0.235	-0.170
-506.741	114.976	-0.167	0.203
-505.726	-55.716	0.197	0.088
-504.712	524.994	-0.093	0.219
-503.697	-200.000	-0.009	-0.082
-502.683	-108.123	-0.302	-0.065
-501.668	-79.865	0.087	-0.029
-500.653	-200.000	0.017	0.094
-499.639	-145.609	-0.364	0.033
-498.624	-33.328	0.356	0.197
-497.610	387.510	-0.136	0.281
-496.595	149.633	0.157	-0.212
-495.581	-87.929	-0.235	-0.070
-494.566	300.756	-0.166	-0.305
-493.551	-182.644	-0.255	-0.005
-492.537	-144.525	-0.262	-0.024
-491.522	800.000	0.028	-0.098
-490.508	-98.119	-0.192	-0.049
-489.493	-88.951	0.278	-0.082
-488.478	177.290	0.020	0.029
-487.464	-46.606	0.124	-0.061
-486.449	-66.212	0.149	-0.059
-485.435	166.236	0.132	-0.186
-484.420	-102.166	-0.486	-0.117
-483.405	-21.684	-0.106	-0.064
-482.391	281.695	0.096	0.172
-481.376	-95.036	0.401	0.108
-480.362	118.045	0.037	0.045
-479.347	154.975	0.190	0.261
-478.332	-200.000	-0.012	-0.080
-477.318	454.368	-0.117	-0.258
-476.303	800.000	0.060	0.252
-475.289	326.806	0.101	0.193
-474.274	-30.987	-0.165	0.093
-473.259	-200.000	-0.057	0.513
-472.245	-200.000	0.040	-0.280
-471.230	-121.908	-0.023	0.004
-470.216	113.786	-0.097	0.117
-469.201	800.000	0.096	-0.302
-468.186	-5.975	0.164	-0.112
-467.172	131.036	-0.087	-0.111
-466.157	44.878	0.116	0.106
-465.143	-1.934	-0.230	-0.161
-464.128	52.994	0.315	0.300
-463.113	-140.409	0.191	0.020
-462.099	-75.124	0.321	-0.115
-461.084	-18.515	-0.171	0.107
-460.070	597.226	-0.057	0.141
-459.055	431.964	0.132	-0.285
-458.040	695.243	-0.073	0.191
-457.026	-59.746	0.109	0.046
-456.011	-200.000	0.044	0.429
-454.997	800.000	0.082	-0.231
-453.982	14.648	-0.048	-0.038
-452.968	-77.007	0.163	-0.057
-451.953	-200.000	-0.019	0.314
-450.938	-32.142	-0.168	-0.094
-449.924	-171.367	-0.034	0.001
-448.909	800.000	0.034	0.116
-447.895	-86.513	-0.127	-0.039
-446.880	24.356	0.137	-0.113
-445.865	-200.000	-0.029	-0.528
-444.851	97.457	-0.078	0.089
-443.836	-200.000	0.056	0.277
-442.822	-154.248	-0.266	0.018
-441.807	1.050	0.056	0.040
-440.792	-41.142	0.250	0.129
-439.778	200.668	0.092	-0.141
-438.763	-104.833	-0.244	0.056
-437.749	5.167	-0.121	0.089
-436.734	-69.944	0.118	-0.045
-435.719	72.344	-0.171	-0.177
-434.705	51.253	0.249	0.236
-433.690	107.083	0.131	-0.155
-432.676	131.196	-0.150	0.192
-431.661	394.403	0.051	-0.106
-430.646	-69.991	-0.287	-0.109
-429.632	-200.000	-0.026	-0.153
-428.617	314.297	0.098	-0.183
-427.603	-21.867	-0.178	-0.108
-426.588	800.000	-0.071	-0.276
-425.573	-89.803	0.146	0.043
-424.559	486.706	-0.042	0.095
-423.544	197.206	-0.113	0.172
-422.530	-200.000	0.042	-0.240
-421.515	-200.000	-0.013	-0.121
-420.500	69.403	0.111	0.113
-419.486	127.268	0.114	0.144
-418.471	146.202	-0.145	-0.194
-417.457	-200.000	0.031	0.244
-416.442	-200.000	0.221	-0.001
-415.428	7.041	0.146	-0.109
-414.413	-72.021	0.103	0.038
-413.398	-85.956	0.325	0.100
-412.384	-39.385	-0.224	-0.117
-411.369	219.838	0.258	-0.411
-410.355	-200.000	-0.019	0.165
-409.340	-77.009	0.391	-0.136
-408.325	-155.908	0.379	0.024
-407.311	-200.000	0.015	0.070
-406.296	-200.000	-0.028	-0.153
-405.282	518.485	0.165	0.385
-404.267	33.494	-0.144	0.125
-403.252	800.000	-0.063	0.180
-402.238	74.380	0.104	-0.109
-401.223	800.000	-0.070	0.260
-400.209	-70.935	-0.069	0.026
-399.194	297.465	0.096	-0.175
-398.179	752.609	0.082	0.222
-397.165	94.711	0.132	-0.149
-396.150	96.364	-0.161	0.184
-395.136	23.154	0.221	0.180
-394.121	-13.622	0.079	0.051
-393.106	20.528	-0.190	0.153
-392.092	800.000	0.064	0.218
-391.077	-77.330	-0.391	0.135
-390.063	-200.000	0.040	0.412
-389.048	800.000	-0.073	0.268
-388.033	-61.425	-0.202	-0.085
-387.019	-49.534	0.253	-0.120
-386.004	-144.373	0.171	0.016
-384.990	129.521	-0.185	0.235
-383.975	-200.000	-0.024	-0.210
-382.960	137.618	-0.162	0.211
-381.946	-36.312	0.274	0.147
-380.931	800.000	0.048	-0.150
-379.917	69.932	0.248	0.254
-378.902	-46.395	0.323	-0.158
-377.888	-200.000	-0.003	-0.244
-376.873	79.709	-0.125	-0.134
-375.858	-130.565	-0.224	-0.030
-374.844	-124.704	-0.207	0.032
-373.829	556.515	0.067	0.161
-372.815	-146.761	0.445	0.038
-371.800	-200.000	0.061	0.494
-370.785	10.217	0.072	0.055
-369.771	-54.637	0.312	-0.140
-368.756	367.237	0.112	0.224
-367.742	-103.497	0.159	-0.037
-366.727	-200.000	-0.078	-0.356
-365.712	-200.000	-0.030	0.199
-364.698	43.433	-0.119	0.108
-363.683	-86.404	0.132	0.040
-362.669	26.913	-0.228	0.190
-361.654	92.195	-0.191	0.213
-360.639	-162.781	-0.063	0.003
-359.625	-75.867	0.391	-0.138
-358.610	149.235	0.214	-0.288
-357.596	205.199	-0.037	0.058
-356.581	-108.432	-0.411	0.088
-355.566	-200.000	-0.003	-0.073
-354.552	-34.288	0.163	0.089
-353.537	-48.304	-0.239	-0.114
-352.523	133.336	-0.049	-0.062
-351.508	-200.000	-0.035	-0.212
-350.493	-18.125	-0.334	0.208
-349.479	-143.046	0.408	0.039
-348.464	-96.355	0.193	0.051
-347.450	800.000	-0.146	-0.543
-346.435	-141.827	0.154	-0.015
-345.420	-79.797	-0.128	-0.043
-344.406	-102.842	0.076	-0.018
-343.391	89.573	-0.142	-0.157
-342.377	-100.164	-0.139	-0.034
-341.362	517.415	-0.154	-0.357
-340.348	185.252	-0.121	-0.178
-339.333	343.285	-0.156	0.304
-338.318	196.539	-0.120	-0.182
-337.304	-48.112	0.348	0.167
-336.289	441.375	0.020	0.044
-335.275	288.372	0.172	-0.309
-334.260	-200.000	0.004	0.090
-333.245	-200.000	-0.036	0.192
-332.231	167.860	0.207	-0.292
-331.216	-112.598	-0.300	-0.059
-330.202	800.000	0.049	-0.146
-329.187	-200.000	-0.031	-0.243
-328.172	-128.491	-0.102	0.014
-327.158	175.340	-0.186	-0.268
-326.143	-86.737	0.128	0.039
-325.129	-68.614	-0.359	0.138
-324.114	800.000	0.015	-0.047
-323.099	-200.000	0.032	0.400
-322.085	-200.000	0.059	0.338
-321.070	81.529	0.117	0.126
-320.056	-200.000	0.024	0.144
-319.041	-200.000	0.036	0.201
-318.026	172.541	-0.042	0.061
-317.012	-51.401	0.167	0.077
-315.997	800.000	-0.011	-0.037
-314.983	6.905	0.182	0.135
-313.968	110.817	-0.188	0.224
-312.953	-200.000	0.046	0.308
-311.939	268.847	-0.016	-0.028
-310.924	54.871	0.079	-0.076
-309.910	34.353	0.187	0.161
-308.895	427.502	-0.101	-0.216
-307.880	122.305	0.170	0.210
-306.866	-117.127	0.225	0.041
-305.851	-59.837	0.197	-0.083
-304.837	120.253	-0.170	-0.209
-303.822	1.888	-0.120	0.086
-302.807	-200.000	0.030	0.390
-301.793	381.353	0.043	-0.088
-300.778	-5.511	0.021	0.014
-299.764	283.891	-0.082	0.146
-298.749	-21.395	0.340	0.206
-297.735	-200.000	-0.097	-0.449
-296.720	-136.368	-0.294	0.034
-295.705	64.599	0.124	0.124
-294.691	-89.899	0.258	0.075
-293.676	-38.031	-0.254	-0.134
-292.662	-200.000	0.343	-0.001
-291.647	-200.000	-0.028	-0.259
-290.632	110.131	0.172	-0.205
-289.618	315.522	-0.115	-0.216
-288.603	-78.239	-0.086	-0.029
-287.589	800.000	0.047	0.154
-286.574	-200.000	-0.022	0.104
-285.559	-19.176	-0.265	0.163
-284.545	-132.485	0.299	0.038
-283.530	-107.933	-0.317	0.068
-282.516	-3.574	-0.134	-0.092
-281.501	219.397	0.082	-0.131
-280.486	-24.780	-0.221	0.130
-279.472	-12.579	-0.111	-0.072
-278.457	-45.038	-0.226	-0.111
-277.443	-35.097	0.320	0.173
-276.428	-19.934	-0.148	-0.090
-275.413	-179.653	0.254	0.005
-274.399	-200.000	-0.018	0.077
-273.384	800.000	0.060	0.237
-272.370	800.000	-0.018	-0.074
-271.355	-65.124	-0.124	0.049
-270.340	112.789	-0.086	-0.103
-269.326	762.306	0.063	-0.168
-268.311	28.292	-0.135	0.113
-267.297	262.384	-0.103	0.176
-266.282	5.802	0.107	-0.079
-265.267	176.587	0.074	-0.106
-264.253	800.000	0.095	0.296
-263.238	-2.902	-0.177	-0.122
-262.224	-31.584	0.355	-0.197
-261.209	-10.037	-0.153	-0.101
-260.195	-75.576	0.347	-0.122
-259.180	172.764	0.110	-0.156
-258.165	241.634	-0.097	0.161
-257.151	-37.045	-0.248	-0.131
-256.136	212.343	-0.071	-0.111
-255.122	78.957	-0.108	-0.114
-254.107	-200.000	-0.011	0.212
-253.092	54.927	0.161	0.154
-252.078	-200.000	-0.067	-0.315
-251.063	-79.079	-0.188	-0.063
-250.049	-200.000	0.013	-0.115
-249.034	-62.915	-0.264	-0.108
-248.019	75.472	-0.196	0.205
-247.005	-88.639	-0.187	-0.055
-245.990	177.818	0.137	0.197
-244.976	19.671	-0.200	-0.159
-243.961	-200.000	-0.001	0.218
-242.946	-11.042	0.182	-0.119
-241.932	-200.000	-0.006	0.138
-240.917	-63.728	0.181	0.073
-239.903	157.952	-0.157	0.216
-238.888	166.367	0.138	-0.194
-237.873	-200.000	-0.049	-0.263
-236.859	-134.196	0.493	0.060
-235.844	-108.987	-0.396	0.083
-234.830	-39.268	-0.387	0.201
-233.815	12.160	-0.179	0.136
-232.800	-200.000	0.020	-0.277
-231.786	462.996	-0.057	-0.126
-230.771	-121.937	0.323	0.053
-229.757	-200.000	-0.026	-0.198
-228.742	-111.755	0.050	0.010
-227.727	134.427	0.223	0.286
-226.713	17.526	0.200	0.157
-225.698	-200.000	-0.035	0.244
-224.684	1.038	-0.263	0.186
-223.669	337.719	0.019	-0.037
-222.655	-50.995	-0.352	0.163
-221.640	-191.646	-0.147	0.001
-220.625	-115.146	-0.082	-0.015
-219.611	-200.000	-0.018	-0.342
-218.596	-200.000	-0.006	0.184
-217.582	11.327	-0.266	0.201
-216.567	59.824	-0.114	-0.111
-215.552	99.873	0.155	-0.178
-214.538	800.000	0.036	0.101
-213.523	-25.685	-0.135	0.079
-212.509	-20.976	-0.441	0.267
-211.494	-146.936	0.401	-0.034
-210.479	24.063	-0.132	0.107
-209.465	-142.064	0.288	0.028
-208.450	-168.767	-0.490	-0.018
-207.436	490.457	-0.156	0.352
-206.421	45.769	0.167	-0.153
-205.406	136.094	-0.078	0.101
-204.392	-200.000	-0.031	-0.191
-203.377	520.903	0.159	-0.369
-202.363	-2.523	-0.288	-0.199
-201.348	800.000	-0.070	0.226
-200.333	800.000	0.043	0.167
-199.319	800.000	-0.037	0.128
-198.304	36.272	0.074	0.064
-197.290	-200.000	-0.057	0.388
-196.275	-129.402	-0.339	-0.046
-195.260	800.000	-0.072	0.225
-194.246	285.462	0.099	-0.176
-193.231	-144.838	-0.314	-0.028
-192.217	-35.647	0.027	-0.015
-191.202	118.764	0.089	-0.108
-190.187	86.901	0.100	-0.109
-189.173	153.129	-0.076	0.103
-188.158	61.736	0.117	0.114
-187.144	74.824	-0.138	0.144
-186.129	-200.000	0.006	-0.078
-185.114	-16.368	0.160	0.100
-184.100	519.208	0.109	0.252
-183.085	800.000	0.055	-0.168
-182.071	47.496	-0.260	-0.239
-181.056	-27.341	0.069	-0.040
-180.042	-200.000	0.142	0.001
-179.027	-9.497	-0.090	-0.059
-178.012	-192.081	-0.301	-0.003
-176.998	-141.276	-0.215	0.022
-175.983	-200.000	0.006	-0.167
-174.969	-61.097	0.140	0.058
-173.954	-200.000	-0.030	-0.131
-172.939	175.285	-0.163	-0.233
-171.925	800.000	-0.058	0.208
-170.910	-50.256	-0.190	-0.088
-169.896	430.109	-0.038	-0.082
-168.881	373.676	-0.046	-0.093
-167.866	9.704	0.082	-0.062
-166.852	-122.222	0.237	-0.038
-165.837	-4.395	-0.238	-0.162
-164.823	7.840	0.091	0.067
-163.808	-116.889	0.185	-0.033
-162.793	-86.154	-0.518	-0.157
-161.779	-131.501	0.261	0.034
-160.764	287.453	0.113	0.202
-159.750	554.822	0.141	0.335
-158.735	-200.000	-0.032	-0.178
-157.720	241.437	0.117	-0.192
-156.706	-61.148	-0.179	0.074
-155.691	21.067	0.209	-0.167
-154.677	-200.000	-0.003	-0.224
-153.662	318.046	-0.091	0.170
-152.647	-141.727	0.068	-0.007
-151.633	-200.000	-0.012	0.060
-150.618	117.195	-0.175	0.211
-149.604	800.000	0.062	-0.174
-148.589	437.585	0.119	-0.256
-147.574	-151.830	0.091	-0.007
-146.560	-200.000	0.010	-0.248
-145.545	431.039	0.020	-0.043
-144.531	-71.148	-0.327	0.121
-143.516	800.000	-0.003	0.007
-142.502	177.047	0.214	0.306
-141.487	30.592	0.081	0.068
-140.472	42.613	-0.086	0.077
-139.458	191.225	-0.065	0.097
-138.443	-46.310	0.283	-0.137
-137.429	-0.862	0.213	-0.149
-136.414	120.468	-0.161	-0.197
-135.399	-193.874	-0.166	-0.001
-134.385	-32.847	-0.166	-0.091
-133.370	63.889	0.197	0.195
-132.356	279.824	-0.211	0.371
-131.341	-129.469	-0.207	-0.028
-130.326	-91.079	0.203	-0.057
-129.312	-112.983	0.241	-0.047
-128.297	-200.000	0.039	0.227
-127.283	-7.742	-0.131	0.087
-126.268	-200.000	0.041	0.211
-125.253	-82.264	-0.148	-0.047
-124.239	800.000	-0.032	0.089
-123.224	-52.089	-0.313	-0.143
-122.210	-200.000	0.052	0.358
-121.195	130.956	0.181	0.229
