DTS Sentinel unit serial number:	SN413079Multiplexer serial number:	ORYXHardware model number:	OX4-SRSoftware version number:	ORYX F/W v4.00 Oryx Data Collector v3.7.2.0data status	okinstallation	princeton_trtdifferential loss correction	single-endedforward channel	channel 3reverse channel	N/Adate	2019/09/14time	05:44:35forward acquisition time	60.00reverse acquisition time	0.00gamma	496.2192k internal	0.2337k external	0.2337temperature offset calibration	1.0055default loss term (dB/km)	0.3790temperature slope calibration	1.0000multiplexer offset coefficient	1.0000multiplexer slope coefficient	1.0000fibre end	0.00T internal ref (°C)	26.94T ext. ref 1 (°C)	3.41T ext. ref 2 (°C)	21.65length (m)	temperature (°C)	Stokes	anti-Stokes-747.200	327.954	0.144	-0.278
-746.185	149.766	0.109	0.148
-745.171	-73.362	0.307	0.113
-744.156	44.247	-0.113	-0.104
-743.142	-200.000	-0.005	-0.087
-742.127	-200.000	-0.027	0.229
-741.112	-110.206	0.080	0.017
-740.098	-170.135	0.120	0.004
-739.083	-200.000	0.011	-0.067
-738.069	98.248	-0.212	0.245
-737.054	39.925	0.195	0.176
-736.039	-104.309	-0.310	0.072
-735.025	-4.841	0.143	0.099
-734.010	-55.418	-0.393	0.177
-732.996	-10.513	-0.109	0.072
-731.981	-108.061	0.222	0.048
-730.966	800.000	0.092	-0.302
-729.952	-86.598	-0.401	0.123
-728.937	60.851	-0.259	-0.258
-727.923	-104.995	-0.196	-0.045
-726.908	800.000	-0.049	-0.177
-725.894	44.237	-0.139	0.128
-724.879	-141.400	-0.399	0.041
-723.864	-127.507	-0.380	-0.055
-722.850	800.000	-0.066	-0.256
-721.835	45.063	-0.090	-0.083
-720.821	191.441	0.048	0.073
-719.806	438.894	-0.050	-0.109
-718.791	-106.075	0.406	0.092
-717.777	-39.527	-0.184	0.096
-716.762	317.596	0.097	-0.183
-715.748	800.000	0.065	-0.240
-714.733	1.458	-0.105	0.076
-713.718	21.976	-0.246	-0.201
-712.704	800.000	-0.026	0.092
-711.689	-30.981	-0.149	-0.085
-710.675	203.302	-0.098	0.152
-709.660	-114.361	-0.480	0.093
-708.645	-62.750	0.234	-0.097
-707.631	-200.000	0.055	-0.252
-706.616	800.000	-0.094	0.278
-705.602	-15.927	0.144	-0.092
-704.587	-32.749	-0.160	0.089
-703.572	-82.258	-0.188	0.061
-702.558	-149.782	0.408	-0.032
-701.543	-158.437	0.189	-0.011
-700.529	208.524	-0.025	-0.039
-699.514	418.438	0.107	-0.230
-698.499	800.000	-0.065	-0.279
-697.485	800.000	-0.041	0.157
-696.470	-200.000	-0.021	-0.142
-695.456	-24.803	0.224	-0.133
-694.441	248.473	0.083	-0.141
-693.426	125.248	0.139	-0.176
-692.412	800.000	0.060	-0.179
-691.397	66.812	-0.080	0.081
-690.383	800.000	-0.060	0.252
-689.368	-200.000	0.041	0.257
-688.354	21.229	-0.150	0.122
-687.339	-94.599	0.285	-0.078
-686.324	-175.939	-0.215	-0.006
-685.310	204.429	0.063	-0.097
-684.295	100.040	0.227	-0.264
-683.281	-200.000	-0.058	-0.297
-682.266	-200.000	0.019	-0.122
-681.251	-133.269	0.046	-0.006
-680.237	-128.783	-0.114	-0.016
-679.222	0.561	-0.086	-0.062
-678.208	654.103	0.072	-0.185
-677.193	-154.610	-0.165	-0.011
-676.178	800.000	0.020	0.064
-675.164	-103.867	-0.476	0.111
-674.149	800.000	0.150	-0.532
-673.135	244.727	0.190	-0.320
-672.120	-70.349	-0.096	0.036
-671.105	21.001	-0.156	0.126
-670.091	60.134	0.195	-0.192
-669.076	800.000	-0.085	-0.284
-668.062	65.273	-0.148	0.150
-667.047	143.552	0.181	0.241
-666.032	800.000	-0.191	0.539
-665.018	-163.584	0.191	0.009
-664.003	-127.616	-0.148	-0.021
-662.989	105.255	-0.243	0.288
-661.974	-165.276	-0.207	0.009
-660.959	214.731	-0.158	-0.250
-659.945	-185.766	0.164	-0.002
-658.930	126.908	-0.117	-0.149
-657.916	-112.458	0.212	0.042
-656.901	-37.133	-0.396	-0.212
-655.886	-105.866	-0.315	-0.071
-654.872	-76.724	-0.211	-0.074
-653.857	-43.047	-0.151	-0.076
-652.843	-94.527	0.192	-0.052
-651.828	130.519	-0.059	-0.076
-650.814	-200.000	-0.011	-0.092
-649.799	155.485	-0.017	0.024
-648.784	223.408	-0.116	0.187
-647.770	82.028	-0.080	0.086
-646.755	-151.113	0.247	0.019
-645.741	641.808	0.053	-0.136
-644.726	-16.682	-0.374	0.237
-643.711	56.390	-0.142	0.138
-642.697	95.742	0.325	0.371
-641.682	-83.325	-0.563	-0.181
-640.668	-200.000	0.017	-0.163
-639.653	2.226	0.094	-0.068
-638.638	-188.739	0.156	0.002
-637.624	17.115	-0.134	0.106
-636.609	-143.949	0.336	-0.032
-635.595	-61.319	0.260	-0.109
-634.580	17.966	-0.187	0.149
-633.565	316.425	0.100	-0.190
-632.551	525.865	0.065	-0.152
-631.536	-24.515	-0.337	-0.200
-630.522	-107.862	-0.181	0.039
-629.507	-143.689	0.051	-0.005
-628.492	-200.000	-0.002	0.013
-627.478	800.000	0.025	0.094
-626.463	-121.065	0.232	0.039
-625.449	182.866	-0.150	-0.221
-624.434	-200.000	0.001	-0.042
-623.419	-58.014	0.327	-0.143
-622.405	-100.350	-0.180	-0.045
-621.390	-200.000	-0.015	0.093
-620.376	800.000	0.013	-0.045
-619.361	-200.000	-0.001	-0.126
-618.346	156.214	0.138	0.190
-617.332	-113.284	-0.267	-0.052
-616.317	800.000	0.043	-0.180
-615.303	199.441	-0.017	0.026
-614.288	-200.000	-0.035	0.474
-613.273	-128.238	-0.169	-0.024
-612.259	-21.128	0.271	0.165
-611.244	800.000	-0.117	0.359
-610.230	682.057	0.092	-0.240
-609.215	132.408	-0.152	-0.196
-608.201	-200.000	-0.001	-0.225
-607.186	-200.000	-0.017	0.131
-606.171	-200.000	0.018	-0.100
-605.157	-200.000	0.008	-0.132
-604.142	42.190	-0.313	-0.284
-603.128	-111.125	-0.371	0.076
-602.113	-67.771	0.164	0.064
-601.098	-91.442	-0.036	-0.010
-600.084	66.317	0.295	-0.299
-599.069	-144.137	0.425	-0.040
-598.055	-67.622	-0.483	-0.189
-597.040	23.854	-0.088	-0.072
-596.025	85.749	0.098	-0.108
-595.011	-200.000	0.013	-0.115
-593.996	800.000	0.089	-0.384
-592.982	-65.418	0.117	0.047
-591.967	-22.447	-0.063	-0.038
-590.952	38.869	0.212	-0.189
-589.938	510.813	-0.062	-0.143
-588.923	-33.484	-0.268	0.148
-587.909	-200.000	0.025	0.117
-586.894	-200.000	0.026	-0.119
-585.879	5.250	-0.228	0.168
-584.865	-200.000	-0.001	0.025
-583.850	-106.663	0.205	0.045
-582.836	-58.202	0.162	0.071
-581.821	-23.918	-0.052	0.031
-580.806	292.435	-0.139	0.253
-579.792	188.562	0.096	-0.144
-578.777	-200.000	-0.020	0.199
-577.763	-105.193	0.234	0.053
-576.748	-127.368	0.101	-0.015
-575.733	-109.115	0.252	-0.053
-574.719	-115.811	0.366	-0.068
-573.704	-187.735	-0.055	0.001
-572.690	-200.000	0.041	-0.191
-571.675	342.157	0.087	-0.169
-570.661	539.276	-0.053	-0.125
-569.646	-72.908	0.198	-0.073
-568.631	-65.483	-0.189	-0.076
-567.617	-62.218	-0.170	-0.071
-566.602	164.075	-0.206	-0.290
-565.588	-59.831	-0.061	0.026
-564.573	57.904	0.169	0.165
-563.558	800.000	-0.040	0.156
-562.544	-200.000	-0.031	-0.163
-561.529	-105.440	0.101	0.023
-560.515	-192.096	0.489	-0.005
-559.500	42.459	0.077	0.070
-558.485	476.106	0.053	-0.120
-557.471	226.018	0.078	0.126
-556.456	800.000	-0.045	0.135
-555.442	-200.000	0.005	0.201
-554.427	-200.000	0.009	-0.127
-553.412	-200.000	-0.310	0.001
-552.398	-171.135	-0.042	0.001
-551.383	487.244	0.149	0.339
-550.369	90.627	0.099	-0.110
-549.354	-137.972	-0.241	-0.027
-548.339	-106.359	-0.243	0.054
-547.325	431.049	-0.003	0.007
-546.310	-130.942	-0.124	-0.017
-545.296	143.508	-0.173	0.230
-544.281	141.077	-0.077	-0.102
-543.266	-118.866	0.271	-0.047
-542.252	136.242	-0.226	-0.293
-541.237	82.355	-0.038	0.041
-540.223	-50.051	-0.305	0.144
-539.208	-76.765	-0.501	0.175
-538.193	677.255	-0.105	0.270
-537.179	86.654	-0.212	-0.233
-536.164	-84.969	-0.315	0.098
-535.150	-90.824	0.196	0.056
-534.135	-200.000	0.005	-0.058
-533.121	74.693	0.058	-0.061
-532.106	69.685	0.116	-0.119
-531.091	-43.453	-0.156	-0.078
-530.077	-200.000	-0.052	-0.314
-529.062	800.000	0.007	-0.031
-528.048	-146.698	-0.288	-0.025
-527.033	35.843	-0.154	0.135
-526.018	-28.403	0.348	0.200
-525.004	-109.087	-0.422	-0.089
-523.989	-200.000	-0.043	0.287
-522.975	-100.189	-0.071	-0.018
-521.960	-64.741	-0.260	0.105
-520.945	278.350	-0.157	0.279
-519.931	-200.000	-0.066	-0.388
-518.916	-46.660	-0.172	-0.084
-517.902	-72.621	0.167	0.061
-516.887	25.408	-0.164	0.136
-515.872	-53.424	0.048	0.022
-514.858	-159.812	-0.144	-0.008
-513.843	118.060	-0.072	-0.088
-512.829	29.285	-0.175	-0.148
-511.814	575.170	0.025	0.061
-510.799	380.543	-0.019	0.039
-509.785	-90.834	-0.194	-0.056
-508.770	152.694	-0.107	-0.145
-507.756	-147.848	0.344	-0.029
-506.741	38.071	-0.053	0.047
-505.726	-29.470	-0.083	0.047
-504.712	-154.610	0.083	0.005
-503.697	-200.000	0.079	-0.368
-502.683	-130.802	-0.182	0.024
-501.668	119.683	0.055	-0.068
-500.653	66.934	-0.139	-0.141
-499.639	174.931	0.041	0.059
-498.624	-80.564	-0.206	-0.068
-497.610	-200.000	0.033	0.228
-496.595	153.601	-0.175	-0.238
-495.581	-83.715	0.117	0.037
-494.566	23.019	-0.319	0.260
-493.551	552.159	0.083	0.198
-492.537	-188.780	-0.099	-0.001
-491.522	290.219	-0.068	-0.123
-490.508	-200.000	0.020	-0.267
-489.493	800.000	-0.090	0.266
-488.478	-200.000	-0.008	0.362
-487.464	-200.000	0.003	-0.095
-486.449	-93.557	-0.293	-0.080
-485.435	800.000	-0.069	-0.247
-484.420	-124.326	0.149	0.023
-483.405	800.000	0.040	0.154
-482.391	156.221	-0.123	0.168
-481.376	-102.857	-0.243	-0.057
-480.362	577.312	-0.026	-0.064
-479.347	-200.000	0.011	-0.134
-478.332	133.628	0.027	0.034
-477.318	18.501	-0.205	0.163
-476.303	800.000	0.022	-0.090
-475.289	-168.882	0.256	0.010
-474.274	-155.166	0.157	0.010
-473.259	-86.732	-0.556	-0.169
-472.245	-6.880	-0.094	-0.063
-471.230	-155.081	-0.147	0.010
-470.216	-95.205	0.309	0.083
-469.201	-6.879	0.185	-0.125
-468.186	28.601	0.078	-0.065
-467.172	486.875	-0.248	-0.562
-466.157	107.727	-0.063	-0.074
-465.143	366.181	-0.114	0.228
-464.128	-200.000	0.020	-0.345
-463.113	-91.058	-0.164	0.047
-462.099	-200.000	0.008	0.248
-461.084	-111.959	0.115	0.023
-460.070	189.462	-0.115	-0.171
-459.055	800.000	0.044	0.152
-458.040	-65.994	-0.295	0.117
-457.026	-200.000	-0.033	0.153
-456.011	178.928	0.133	0.193
-454.997	-48.948	0.446	0.212
-453.982	247.286	0.186	0.312
-452.968	-200.000	0.037	-0.196
-451.953	-200.000	0.088	-0.397
-450.938	106.861	-0.149	-0.176
-449.924	-130.434	0.362	0.049
-448.909	-112.175	-0.385	0.077
-447.895	-200.000	0.006	-0.059
-446.880	95.596	0.089	0.101
-445.865	405.403	0.061	-0.127
-444.851	-86.591	-0.229	0.069
-443.836	-52.107	-0.176	0.081
-442.822	23.973	-0.166	0.136
-441.807	800.000	-0.044	0.173
-440.792	70.825	0.154	-0.159
-439.778	94.698	-0.222	0.251
-438.763	-128.117	0.195	0.028
-437.749	800.000	-0.029	0.124
-436.734	-66.787	0.277	-0.109
-435.719	134.381	-0.122	-0.157
-434.705	332.830	0.101	0.194
-433.690	-114.568	0.043	0.008
-432.676	-200.000	-0.012	-0.087
-431.661	298.499	0.210	-0.384
-430.646	-21.745	-0.135	-0.082
-429.632	49.834	0.272	0.254
-428.617	-82.072	-0.422	-0.137
-427.603	128.923	0.083	0.105
-426.588	-200.000	0.107	0.529
-425.573	-55.604	0.150	0.067
-424.559	800.000	0.106	0.407
-423.544	800.000	-0.022	0.078
-422.530	466.298	-0.183	-0.407
-421.515	217.377	0.183	-0.289
-420.500	-100.759	0.331	-0.081
-419.486	-48.564	-0.173	0.082
-418.471	26.715	0.141	0.117
-417.457	19.721	-0.143	0.114
-416.442	-200.000	0.059	-0.257
-415.428	121.156	-0.246	-0.304
-414.413	-200.000	-0.035	0.173
-413.398	584.136	-0.094	-0.229
-412.384	-61.299	0.071	0.030
-411.369	279.428	0.038	0.067
-410.355	319.151	0.122	-0.229
-409.340	190.518	0.144	0.214
-408.325	231.344	0.215	0.349
-407.311	226.795	-0.140	0.225
-406.296	-62.010	-0.219	0.091
-405.282	5.208	0.139	0.102
-404.267	-13.860	-0.085	-0.054
-403.252	23.518	-0.105	-0.086
-402.238	134.173	0.135	0.173
-401.223	-200.000	0.003	0.075
-400.209	52.790	-0.109	-0.103
-399.194	-1.094	0.205	0.144
-398.179	-26.261	-0.084	-0.049
-397.165	-26.243	0.140	-0.081
-396.150	-200.000	-0.023	0.281
-395.136	119.025	0.170	0.208
-394.121	-20.878	-0.027	-0.016
-393.106	91.608	-0.051	0.056
-392.092	-17.415	-0.138	0.086
-391.077	-136.334	0.331	-0.038
-390.063	62.684	-0.030	0.030
-389.048	-200.000	0.000	0.305
-388.033	-50.505	-0.203	-0.095
-387.019	80.288	0.254	-0.270
-386.004	800.000	0.051	-0.197
-384.990	800.000	-0.043	-0.155
-383.975	397.247	0.075	-0.155
-382.960	-97.849	-0.124	-0.032
-381.946	-76.318	-0.268	-0.093
-380.931	-66.418	0.195	-0.077
-379.917	70.557	-0.209	0.214
-378.902	221.083	0.071	-0.113
-377.888	-19.391	-0.217	-0.133
-376.873	-64.047	0.010	-0.004
-375.858	-66.127	0.025	0.010
-374.844	800.000	-0.037	0.119
-373.829	49.453	0.256	0.238
-372.815	2.953	-0.128	-0.092
-371.800	800.000	0.086	-0.329
-370.785	-86.983	0.150	-0.045
-369.771	74.317	0.160	-0.166
-368.756	25.704	-0.207	-0.171
-367.742	-200.000	-0.036	0.264
-366.727	111.123	-0.230	0.274
-365.712	-85.289	-0.353	0.109
-364.698	161.158	-0.200	-0.277
-363.683	-138.642	-0.120	0.013
-362.669	-87.375	0.470	-0.141
-361.654	-161.078	0.130	0.007
-360.639	54.775	-0.095	0.091
-359.625	800.000	0.049	0.200
-358.610	-12.814	0.087	0.056
-357.596	38.483	-0.049	-0.043
-356.581	-200.000	-0.013	-0.188
-355.566	-58.768	0.190	-0.081
-354.552	-51.538	-0.141	-0.065
-353.537	-32.143	-0.066	-0.036
-352.523	95.950	-0.160	-0.180
-351.508	-125.927	-0.114	-0.017
-350.493	-200.000	-0.046	0.281
-349.479	262.652	0.098	-0.168
-348.464	-10.570	-0.072	0.047
-347.450	800.000	-0.052	0.148
-346.435	-103.129	0.131	-0.031
-345.420	-200.000	-0.013	0.225
-344.406	800.000	0.057	-0.242
-343.391	-60.331	0.214	0.090
-342.377	-75.775	-0.267	-0.093
-341.362	-32.822	0.078	-0.043
-340.348	-200.000	0.002	-0.184
-339.333	78.074	0.209	0.221
-338.318	-167.549	-0.264	-0.010
-337.304	-70.281	0.083	-0.031
-336.289	-200.000	-0.002	-0.153
-335.275	185.004	0.146	-0.214
-334.260	-200.000	-0.006	-0.187
-333.245	258.699	-0.090	0.152
-332.231	684.518	-0.100	0.259
-331.216	800.000	-0.046	0.126
-330.202	-80.121	0.048	-0.016
-329.187	-90.132	-0.118	0.034
-328.172	-55.606	-0.110	0.048
-327.158	-28.032	-0.284	0.162
-326.143	167.007	0.250	0.351
-325.129	-8.039	-0.272	0.181
-324.114	-200.000	0.022	0.195
-323.099	-77.646	-0.170	-0.058
-322.085	800.000	-0.030	-0.087
-321.070	-200.000	0.004	-0.468
-320.056	-200.000	0.045	-0.338
-319.041	39.823	0.170	-0.151
-318.026	157.647	0.171	0.233
-317.012	800.000	0.079	0.279
-315.997	-160.391	-0.109	-0.006
-314.983	30.913	-0.116	0.098
-313.968	40.439	0.302	0.268
-312.953	-95.648	0.269	0.071
-311.939	-41.001	0.252	0.129
-310.924	300.513	0.100	-0.183
-309.910	-200.000	-0.011	0.130
-308.895	73.541	0.294	0.304
-307.880	-68.701	0.389	-0.149
-306.866	523.460	0.074	-0.171
-305.851	-66.092	-0.548	0.216
-304.837	800.000	0.068	0.252
-303.822	288.512	0.091	0.162
-302.807	460.693	-0.012	0.025
-301.793	579.031	-0.066	0.159
-300.778	-200.000	-0.012	0.323
-299.764	39.952	0.079	-0.070
-298.749	-5.931	0.119	-0.081
-297.735	96.937	0.147	-0.166
-296.720	-113.349	-0.318	-0.061
-295.705	-130.242	0.106	0.014
-294.691	-68.450	0.322	-0.123
-293.676	53.598	-0.092	0.088
-292.662	82.372	0.119	0.127
-291.647	-98.145	-0.105	0.027
-290.632	-200.000	-0.043	-0.246
-289.618	-200.000	-0.014	-0.288
-288.603	-12.654	0.170	0.110
-287.589	332.236	-0.081	-0.153
-286.574	136.777	0.127	-0.164
-285.559	342.141	0.121	-0.232
-284.545	-200.000	0.000	-0.174
-283.530	800.000	-0.070	-0.195
-282.516	-200.000	-0.005	-0.078
-281.501	-92.464	0.452	-0.125
-280.486	365.355	0.045	0.090
-279.472	800.000	0.057	0.225
-278.457	0.287	-0.126	-0.089
-277.443	-41.642	-0.433	-0.219
-276.428	102.004	0.314	0.361
-275.413	-200.000	-0.052	0.287
-274.399	-94.836	0.224	0.060
-273.384	169.836	0.042	-0.059
-272.370	-98.956	-0.341	-0.085
-271.355	345.264	-0.123	-0.237
-270.340	800.000	-0.053	-0.201
-269.326	-136.530	-0.395	0.045
-268.311	477.686	-0.127	-0.284
-267.297	-3.677	0.293	-0.201
-266.282	334.742	-0.088	0.168
-265.267	294.296	0.072	0.130
-264.253	172.051	0.186	-0.264
-263.238	-82.747	-0.587	-0.187
-262.224	361.311	0.037	-0.072
-261.209	-139.240	0.281	-0.030
-260.195	-200.000	0.065	-0.370
-259.180	800.000	0.058	0.164
-258.165	-104.696	-0.287	-0.065
-257.151	-112.973	0.182	-0.035
-256.136	-200.000	0.008	0.349
-255.122	56.083	-0.128	-0.123
-254.107	415.269	0.045	0.094
-253.092	-200.000	-0.039	0.208
-252.078	-149.872	0.155	-0.012
-251.063	204.209	-0.024	-0.037
-250.049	-26.445	0.122	-0.070
-249.034	37.833	-0.076	0.067
-248.019	-200.000	-0.012	0.205
-247.005	-35.620	0.228	-0.122
-245.990	800.000	-0.060	-0.180
-244.976	800.000	-0.053	-0.159
-243.961	800.000	-0.049	-0.163
-242.946	-72.244	0.024	0.009
-241.932	-200.000	-0.005	-0.061
-240.917	37.504	-0.101	0.088
-239.903	-11.828	0.126	0.081
-238.888	61.553	-0.053	0.052
-237.873	152.260	0.236	-0.317
-236.859	748.136	0.043	0.114
-235.844	800.000	0.032	-0.129
-234.830	-22.242	-0.136	0.081
-233.815	164.985	0.059	0.082
-232.800	-200.000	-0.049	0.317
-231.786	-200.000	-0.061	0.294
-230.771	-133.113	0.325	0.040
-229.757	-38.207	-0.164	-0.086
-228.742	270.279	-0.128	-0.221
-227.727	351.710	0.198	-0.385
-226.713	19.339	-0.252	-0.199
-225.698	421.682	0.052	0.110
-224.684	-200.000	0.011	-0.070
-223.669	-80.726	0.191	-0.063
-222.655	24.838	-0.456	-0.372
-221.640	-200.000	0.087	0.418
-220.625	800.000	-0.068	0.191
-219.611	20.672	0.211	-0.168
-218.596	113.790	0.079	-0.094
-217.582	-24.559	-0.087	-0.051
-216.567	503.649	0.071	0.162
-215.552	251.801	-0.095	-0.160
-214.538	576.230	0.153	-0.368
-213.523	-200.000	0.019	0.095
-212.509	-15.399	0.207	0.130
-211.494	-130.994	0.160	0.021
-210.479	426.151	0.078	0.166
-209.465	-200.000	-0.061	0.328
-208.450	-157.709	0.167	0.010
-207.436	-130.683	0.423	-0.056
-206.421	44.098	0.284	-0.256
-205.406	270.567	-0.127	0.220
-204.392	27.627	0.189	-0.157
-203.377	743.896	0.094	0.248
-202.363	379.875	0.019	-0.039
-201.348	-200.000	-0.014	0.159
-200.333	-168.768	0.052	-0.002
-199.319	-147.162	-0.095	0.008
-198.304	-200.000	0.003	0.094
-197.290	-30.490	-0.176	0.098
-196.275	800.000	-0.081	0.283
-195.260	-200.000	-0.007	-0.148
-194.246	-126.554	0.244	-0.036
-193.231	-175.679	0.159	0.004
-192.217	-200.000	-0.010	-0.056
-191.202	-200.000	0.012	0.391
-190.187	-21.933	-0.165	0.098
-189.173	-102.279	-0.315	-0.074
-188.158	-200.000	-0.004	0.024
-187.144	800.000	-0.014	-0.048
-186.129	272.328	0.072	0.125
-185.114	117.344	0.098	0.118
-184.100	-92.384	0.021	0.006
-183.085	-74.677	-0.200	0.071
-182.071	166.328	0.346	0.481
-181.056	55.437	0.203	0.192
-180.042	800.000	-0.027	-0.087
-179.027	-16.360	-0.073	-0.045
-178.012	631.582	-0.066	0.165
-176.998	-43.134	0.123	-0.061
-175.983	327.171	-0.193	-0.363
-174.969	426.282	-0.049	-0.104
-173.954	60.462	-0.091	-0.088
-172.939	261.043	-0.230	-0.391
-171.925	-36.456	0.170	0.090
-170.910	-17.045	0.208	-0.129
-169.896	-27.381	0.348	0.199
-168.881	-73.509	0.294	-0.105
-167.866	-106.260	-0.145	0.032
-166.852	553.970	0.152	0.358
-165.837	106.080	0.209	-0.242
-164.823	-96.406	-0.053	-0.014
-163.808	671.504	-0.180	0.458
-162.793	87.382	0.212	0.230
-161.779	-53.502	-0.061	-0.027
-160.764	-135.924	0.378	-0.044
-159.750	-50.618	0.230	0.106
-158.735	-200.000	0.007	0.130
-157.720	359.106	-0.059	-0.115
-156.706	546.498	-0.088	0.207
-155.691	62.079	0.134	0.131
-154.677	-46.028	0.106	0.051
-153.662	-64.521	0.261	-0.104
-152.647	-200.000	0.017	-0.113
-151.633	191.727	-0.129	-0.191
-150.618	800.000	-0.066	-0.189
-149.604	227.714	-0.078	-0.124
-148.589	-200.000	-0.026	0.138
-147.574	-83.763	0.063	-0.020
-146.560	247.045	0.139	-0.229
-145.545	321.169	-0.122	0.227
-144.531	-99.546	0.245	0.060
-143.516	-21.669	-0.340	0.203
-142.502	800.000	0.058	-0.180
-141.487	-200.000	-0.008	0.060
-140.472	-200.000	0.060	0.346
-139.458	-39.224	-0.179	-0.092
-138.443	-105.478	-0.288	-0.064
-137.429	102.296	0.099	-0.114
-136.414	-107.242	-0.128	0.028
-135.399	-45.968	0.084	0.041
-134.385	-81.810	-0.064	-0.021
-133.370	-74.461	0.209	-0.074
-132.356	-147.509	0.238	-0.020
-131.341	-155.679	-0.203	-0.013
-130.326	800.000	0.040	-0.137
-129.312	163.854	-0.114	0.158
-128.297	-196.252	0.273	0.002
-127.283	-67.183	0.474	-0.183
-126.268	-128.388	-0.437	-0.061
-125.253	36.091	0.255	0.220
-124.239	-20.376	0.322	0.194
-123.224	-200.000	-0.022	0.124
-122.210	13.461	0.246	-0.187
