DTS Sentinel unit serial number:	SN413079Multiplexer serial number:	ORYXHardware model number:	OX4-SRSoftware version number:	ORYX F/W v4.00 Oryx Data Collector v3.7.2.0data status	okinstallation	princeton_trtdifferential loss correction	single-endedforward channel	channel 3reverse channel	N/Adate	2019/09/14time	08:04:35forward acquisition time	60.00reverse acquisition time	0.00gamma	496.2192k internal	0.2335k external	0.2335temperature offset calibration	1.0050default loss term (dB/km)	0.3790temperature slope calibration	1.0000multiplexer offset coefficient	1.0000multiplexer slope coefficient	1.0000fibre end	0.00T internal ref (°C)	27.05T ext. ref 1 (°C)	3.55T ext. ref 2 (°C)	25.19length (m)	temperature (°C)	Stokes	anti-Stokes-747.200	-119.136	-0.164	-0.029
-746.185	800.000	-0.058	0.230
-745.171	-200.000	0.059	0.427
-744.156	-42.056	-0.286	0.147
-743.142	-200.000	0.078	-0.346
-742.127	93.812	-0.186	0.211
-741.112	92.263	0.190	-0.215
-740.098	800.000	0.005	-0.018
-739.083	-19.104	0.154	0.096
-738.069	-200.000	-0.026	-0.154
-737.054	65.793	-0.075	0.077
-736.039	212.999	-0.096	0.152
-735.025	160.144	0.081	0.114
-734.010	-129.504	-0.589	0.082
-732.996	146.182	-0.155	-0.208
-731.981	-106.498	0.170	-0.038
-730.966	-38.314	-0.125	0.067
-729.952	24.260	-0.167	-0.139
-728.937	62.104	0.113	0.113
-727.923	63.051	-0.266	-0.267
-726.908	41.708	-0.275	-0.250
-725.894	114.049	-0.075	0.092
-724.879	-87.623	0.153	0.046
-723.864	-82.720	-0.335	-0.109
-722.850	59.029	-0.224	0.222
-721.835	-200.000	0.011	0.141
-720.821	158.934	0.060	-0.083
-719.806	85.318	0.108	0.119
-718.791	9.777	0.170	0.130
-717.777	-140.213	0.117	0.012
-716.762	305.492	0.161	-0.299
-715.748	84.507	-0.095	-0.104
-714.733	-200.000	-0.056	0.275
-713.718	325.783	-0.227	-0.435
-712.704	800.000	-0.054	-0.164
-711.689	-80.188	0.125	0.042
-710.675	800.000	-0.045	0.158
-709.660	162.454	0.189	0.265
-708.645	-118.952	0.181	-0.032
-707.631	460.925	0.084	0.189
-706.616	651.531	0.027	0.069
-705.602	-200.000	0.004	0.061
-704.587	-200.000	0.106	-0.548
-703.572	-159.441	-0.273	-0.015
-702.558	-10.520	-0.098	-0.065
-701.543	-96.806	-0.178	-0.047
-700.529	-2.547	-0.123	-0.086
-699.514	-107.019	0.248	-0.055
-698.499	800.000	-0.068	0.283
-697.485	208.206	0.080	0.125
-696.470	-14.796	-0.327	-0.211
-695.456	-31.315	0.290	-0.164
-694.441	-27.067	0.362	-0.212
-693.426	-36.365	-0.283	-0.153
-692.412	-86.196	-0.345	-0.107
-691.397	800.000	0.051	-0.175
-690.383	578.801	-0.132	-0.323
-689.368	124.269	-0.041	0.052
-688.354	-133.144	-0.137	-0.017
-687.339	34.113	0.170	-0.148
-686.324	800.000	-0.037	-0.128
-685.310	729.339	-0.080	-0.213
-684.295	-200.000	-0.009	-0.292
-683.281	517.913	-0.099	-0.232
-682.266	-91.574	0.170	-0.049
-681.251	-86.106	0.449	-0.139
-680.237	-142.193	-0.487	0.048
-679.222	-200.000	0.007	-0.051
-678.208	37.285	-0.123	-0.109
-677.193	18.113	-0.373	-0.298
-676.178	19.997	-0.150	0.121
-675.164	-96.446	0.220	0.058
-674.149	8.876	0.099	-0.075
-673.135	723.728	0.041	-0.108
-672.120	800.000	-0.040	-0.140
-671.105	-49.970	0.437	-0.208
-670.091	-200.000	-0.009	-0.307
-669.076	800.000	0.030	0.109
-668.062	-0.704	-0.079	-0.056
-667.047	-146.513	-0.291	-0.025
-666.032	1.490	-0.107	0.077
-665.018	60.605	0.227	0.225
-664.003	122.806	0.036	-0.045
-662.989	800.000	0.065	-0.201
-661.974	-200.000	0.047	-0.294
-660.959	-1.705	0.122	-0.086
-659.945	9.851	0.204	-0.155
-658.930	-162.047	0.139	0.007
-657.916	420.443	-0.174	-0.374
-656.901	-62.374	-0.112	-0.047
-655.886	-109.638	-0.230	-0.048
-654.872	-52.884	0.159	-0.073
-653.857	-200.000	0.017	0.151
-652.843	161.297	0.206	0.288
-651.828	-103.322	0.142	0.034
-650.814	156.293	-0.024	0.033
-649.799	-200.000	0.019	0.093
-648.784	-150.140	-0.110	-0.009
-647.770	-200.000	0.008	-0.042
-646.755	800.000	-0.188	-0.559
-645.741	26.413	-0.125	-0.105
-644.726	-10.068	-0.239	0.159
-643.711	-185.518	-0.298	0.005
-642.697	-4.261	0.223	0.154
-641.682	800.000	0.104	-0.298
-640.668	-78.963	0.257	-0.087
-639.653	-200.000	0.014	0.223
-638.638	-12.543	0.296	0.193
-637.624	398.732	-0.177	0.370
-636.609	800.000	-0.071	0.272
-635.595	800.000	0.052	-0.197
-634.580	29.924	0.201	-0.171
-633.565	-104.686	0.247	0.057
-632.551	750.856	-0.039	-0.105
-631.536	175.512	0.020	-0.030
-630.522	667.470	0.058	-0.150
-629.507	-200.000	0.046	-0.207
-628.492	202.501	0.026	0.040
-627.478	-107.164	0.122	0.027
-626.463	-200.000	0.012	0.129
-625.449	-8.860	0.280	-0.188
-624.434	-200.000	-0.050	-0.521
-623.419	-13.503	-0.221	0.143
-622.405	-103.190	0.085	-0.020
-621.390	-169.198	-0.226	-0.008
-620.376	-200.000	-0.030	0.176
-619.361	44.134	0.211	0.193
-618.346	800.000	-0.107	0.379
-617.332	-99.162	0.126	0.032
-616.317	528.661	0.019	0.046
-615.303	-71.002	-0.159	-0.060
-614.288	270.779	-0.106	0.187
-613.273	157.092	-0.040	-0.055
-612.259	-200.000	-0.197	0.000
-611.244	800.000	-0.121	-0.417
-610.230	-200.000	0.066	-0.411
-609.215	-200.000	0.067	-0.443
-608.201	-56.804	-0.036	-0.016
-607.186	239.259	-0.186	0.309
-606.171	-158.570	-0.280	-0.016
-605.157	22.255	-0.147	0.120
-604.142	-35.444	-0.325	0.176
-603.128	138.115	0.271	-0.354
-602.113	124.330	0.123	-0.154
-601.098	-46.484	-0.049	0.024
-600.084	-200.000	0.026	0.327
-599.069	800.000	-0.070	-0.280
-598.055	-200.000	-0.017	-0.156
-597.040	-200.000	0.001	0.120
-596.025	-129.595	-0.194	0.027
-595.011	-99.330	-0.272	-0.069
-593.996	-41.482	-0.051	-0.026
-592.982	4.345	0.017	0.013
-591.967	800.000	0.025	0.105
-590.952	5.061	-0.299	-0.220
-589.938	154.838	-0.148	0.203
-588.923	328.466	-0.073	0.140
-587.909	18.970	-0.189	-0.151
-586.894	94.713	-0.111	0.126
-585.879	136.894	0.143	0.186
-584.865	-111.593	-0.238	0.048
-583.850	74.946	0.261	-0.274
-582.836	0.683	-0.142	0.101
-581.821	196.768	0.080	-0.122
-580.806	217.807	0.237	-0.377
-579.792	125.048	0.222	-0.279
-578.777	173.012	0.074	0.106
-577.763	-181.756	0.145	-0.003
-576.748	138.772	0.135	-0.178
-575.733	48.035	-0.112	0.105
-574.719	14.351	0.007	-0.005
-573.704	-86.935	0.081	0.025
-572.690	-200.000	-0.007	-0.038
-571.675	79.746	-0.244	-0.262
-570.661	-145.326	-0.078	-0.007
-569.646	-200.000	0.029	0.245
-568.631	-141.333	-0.143	-0.014
-567.617	-148.451	0.064	0.005
-566.602	63.213	0.114	-0.114
-565.588	-33.016	-0.196	0.109
-564.573	68.908	0.102	0.105
-563.558	107.254	0.095	-0.112
-562.544	85.197	0.086	-0.094
-561.529	-200.000	-0.009	0.394
-560.515	-40.844	0.076	0.039
-559.500	800.000	0.152	-0.430
-558.485	-104.552	-0.282	-0.065
-557.471	-200.000	0.008	-0.230
-556.456	800.000	0.071	-0.228
-555.442	-93.945	-0.076	-0.021
-554.427	59.611	0.145	-0.143
-553.412	-143.485	-0.378	0.036
-552.398	64.203	-0.206	0.207
-551.383	177.223	-0.086	-0.125
-550.369	-108.810	0.224	-0.048
-549.354	320.631	0.102	0.194
-548.339	-13.583	-0.039	0.025
-547.325	475.303	-0.101	0.228
-546.310	550.893	0.225	-0.539
-545.296	-106.101	0.244	0.055
-544.281	-173.073	0.428	-0.013
-543.266	-200.000	0.025	0.216
-542.252	12.846	0.249	0.192
-541.237	53.781	-0.091	-0.087
-540.223	-200.000	0.027	0.258
-539.208	-115.751	-0.060	-0.011
-538.193	-200.000	0.035	-0.256
-537.179	11.773	-0.232	0.178
-536.164	-40.395	0.101	-0.052
-535.150	175.428	0.152	-0.219
-534.135	800.000	-0.056	-0.219
-533.121	-200.000	0.091	-0.471
-532.106	-57.211	-0.293	0.128
-531.091	10.956	-0.187	-0.142
-530.077	-122.803	-0.225	0.036
-529.062	3.849	-0.036	0.026
-528.048	-55.073	-0.247	-0.111
-527.033	-148.183	0.100	0.008
-526.018	373.794	-0.114	0.230
-525.004	-200.000	-0.036	-0.198
-523.989	800.000	0.057	0.196
-522.975	-42.387	-0.259	0.132
-521.960	262.628	-0.095	0.164
-520.945	-65.515	0.126	-0.051
-519.931	-39.714	0.288	0.150
-518.916	85.151	0.151	-0.164
-517.902	-42.494	0.192	0.097
-516.887	800.000	-0.080	0.264
-515.872	-104.175	-0.179	-0.041
-514.858	258.824	0.133	-0.228
-513.843	800.000	0.119	0.432
-512.829	800.000	-0.030	-0.110
-511.814	-200.000	-0.007	0.230
-510.799	-200.000	0.018	0.156
-509.785	23.884	-0.031	-0.025
-508.770	215.447	-0.080	-0.126
-507.756	99.010	0.182	0.210
-506.741	-63.930	-0.217	-0.088
-505.726	-122.951	0.186	0.030
-504.712	282.257	-0.209	-0.373
-503.697	-55.865	-0.557	0.248
-502.683	-27.020	0.404	0.235
-501.668	-87.826	-0.432	0.130
-500.653	177.253	0.062	0.090
-499.639	-152.912	0.275	-0.019
-498.624	-39.151	-0.250	0.131
-497.610	800.000	0.069	-0.195
-496.595	93.533	0.308	0.346
-495.581	800.000	0.011	-0.034
-494.566	-68.357	0.126	-0.049
-493.551	-26.780	0.149	0.086
-492.537	-55.438	-0.267	-0.119
-491.522	165.556	0.215	0.303
-490.508	-42.259	-0.079	-0.040
-489.493	150.830	0.161	-0.217
-488.478	10.662	-0.248	-0.188
-487.464	206.031	-0.194	-0.300
-486.449	-126.763	0.126	-0.019
-485.435	-138.081	0.082	-0.009
-484.420	53.644	-0.206	-0.197
-483.405	800.000	-0.017	-0.066
-482.391	-136.557	-0.064	-0.007
-481.376	-90.636	0.460	0.132
-480.362	132.058	-0.047	-0.060
-479.347	-137.271	-0.135	0.015
-478.332	-21.000	0.209	0.127
-477.318	-101.889	0.185	0.044
-476.303	-114.076	0.222	-0.043
-475.289	-200.000	0.058	-0.462
-474.274	-114.470	0.282	0.054
-473.259	42.847	0.178	-0.162
-472.245	-140.358	-0.050	-0.005
-471.230	-53.110	0.141	0.064
-470.216	-148.695	0.102	-0.008
-469.201	800.000	0.009	0.033
-468.186	232.077	-0.226	-0.368
-467.172	-80.891	0.204	-0.067
-466.157	-101.263	0.072	-0.017
-465.143	-200.000	0.010	0.048
-464.128	92.476	-0.178	0.199
-463.113	-200.000	-0.014	-0.174
-462.099	800.000	-0.086	-0.238
-461.084	200.729	-0.110	-0.169
-460.070	-35.009	-0.180	-0.098
-459.055	51.178	-0.137	0.129
-458.040	-61.277	-0.168	0.070
-457.026	-200.000	-0.004	-0.123
-456.011	-74.319	0.286	0.103
-454.997	25.731	-0.150	0.124
-453.982	-83.994	0.362	0.114
-452.968	153.682	0.103	-0.140
-451.953	131.725	0.180	-0.231
-450.938	468.673	0.082	-0.184
-449.924	58.228	0.122	0.119
-448.909	-76.861	0.266	0.092
-447.895	251.976	-0.131	0.221
-446.880	800.000	-0.100	-0.359
-445.865	59.885	-0.277	-0.271
-444.851	-200.000	0.066	-0.302
-443.836	800.000	0.038	-0.116
-442.822	214.800	0.162	-0.254
-441.807	-94.332	-0.437	0.118
-440.792	-153.259	-0.496	0.034
-439.778	800.000	0.086	0.245
-438.763	439.599	-0.066	0.143
-437.749	127.477	-0.126	-0.159
-436.734	289.485	-0.030	0.054
-435.719	138.061	0.300	0.390
-434.705	-200.000	-0.028	0.243
-433.690	-43.717	0.235	-0.118
-432.676	355.555	-0.158	-0.312
-431.661	21.697	-0.089	-0.072
-430.646	522.180	0.091	0.212
-429.632	-200.000	0.048	0.212
-428.617	-174.294	0.111	0.003
-427.603	-89.084	0.153	0.045
-426.588	-199.557	0.161	0.001
-425.573	11.018	0.097	-0.073
-424.559	-40.029	-0.198	-0.103
-423.544	-58.678	-0.135	-0.058
-422.530	-35.618	-0.320	0.172
-421.515	-134.585	-0.191	-0.023
-420.500	-178.865	0.412	0.009
-419.486	655.137	0.091	-0.231
-418.471	-200.000	-0.044	-0.438
-417.457	800.000	0.074	-0.207
-416.442	800.000	-0.013	0.040
-415.428	800.000	-0.060	0.177
-414.413	295.406	-0.209	0.379
-413.398	38.716	-0.089	0.079
-412.384	-200.000	0.008	-0.223
-411.369	115.175	0.053	-0.065
-410.355	187.738	-0.134	0.199
-409.340	-121.527	-0.554	0.091
-408.325	521.339	-0.173	-0.403
-407.311	206.424	0.116	0.179
-406.296	-103.566	0.104	-0.024
-405.282	800.000	0.065	0.182
-404.267	-54.641	-0.068	0.031
-403.252	144.892	0.188	-0.249
-402.238	-200.000	-0.007	-0.043
-401.223	-80.625	-0.355	0.117
-400.209	-42.538	-0.098	0.050
-399.194	-63.232	-0.094	-0.039
-398.179	-43.472	0.044	-0.022
-397.165	-29.016	0.334	-0.190
-396.150	-132.475	0.323	-0.041
-395.136	18.372	0.277	-0.219
-394.121	-200.000	0.012	-0.110
-393.106	-200.000	-0.013	-0.112
-392.092	-200.000	0.002	0.226
-391.077	616.417	0.137	-0.341
-390.063	-200.000	-0.004	-0.271
-389.048	-34.455	0.325	0.177
-388.033	-6.244	-0.034	0.023
-387.019	124.349	0.249	-0.310
-386.004	-8.253	-0.200	0.134
-384.990	387.628	0.126	0.258
-383.975	-99.372	-0.152	0.038
-382.960	-95.219	0.221	0.059
-381.946	144.568	-0.093	0.123
-380.931	-200.000	-0.026	0.177
-379.917	-200.000	0.042	-0.253
-378.902	-120.673	-0.216	0.036
-377.888	-53.883	0.337	-0.152
-376.873	-200.000	-0.007	0.125
-375.858	631.266	0.024	-0.061
-374.844	-51.657	-0.189	0.087
-373.829	-164.941	0.132	-0.006
-372.815	98.460	-0.051	0.058
-371.800	-200.000	-0.020	-0.144
-370.785	315.780	-0.023	0.043
-369.771	35.402	0.097	-0.085
-368.756	-200.000	0.011	0.287
-367.742	-100.911	-0.161	0.039
-366.727	800.000	0.066	-0.232
-365.712	-4.615	-0.179	0.122
-364.698	165.889	0.022	0.031
-363.683	67.717	-0.130	0.132
-362.669	-59.692	-0.250	-0.106
-361.654	-200.000	-0.004	0.262
-360.639	-65.314	0.053	0.021
-359.625	196.159	0.252	0.379
-358.610	-21.997	-0.349	0.210
-357.596	-200.000	-0.054	-0.321
-356.581	477.987	0.046	0.103
-355.566	-129.225	-0.119	0.016
-354.552	580.456	0.146	0.354
-353.537	246.217	-0.128	0.214
-352.523	-200.000	-0.005	-0.112
-351.508	194.265	-0.039	0.058
-350.493	131.316	0.222	-0.282
-349.479	-86.451	-0.070	0.021
-348.464	-84.634	-0.230	-0.072
-347.450	-141.151	0.073	-0.007
-346.435	800.000	-0.061	-0.180
-345.420	111.143	0.099	0.118
-344.406	239.607	-0.148	-0.244
-343.391	-44.056	0.153	-0.076
-342.377	69.020	0.147	0.150
-341.362	-15.796	0.170	0.107
-340.348	-116.606	-0.176	0.032
-339.333	800.000	-0.092	0.376
-338.318	132.651	0.126	0.160
-337.304	-200.000	-0.018	0.244
-336.289	169.939	-0.119	0.168
-335.275	104.433	0.094	-0.109
-334.260	800.000	-0.043	-0.156
-333.245	68.301	-0.198	0.200
-332.231	593.826	0.060	0.145
-331.216	-135.092	-0.180	0.021
-330.202	283.746	-0.111	0.198
-329.187	-117.584	0.341	-0.061
-328.172	-41.296	-0.381	0.194
-327.158	132.468	0.219	-0.279
-326.143	-200.000	0.031	-0.262
-325.129	700.502	-0.058	0.152
-324.114	-15.729	0.113	-0.071
-323.099	-138.849	-0.421	0.045
-322.085	-126.837	-0.062	-0.009
-321.070	484.187	0.212	-0.476
-320.056	-108.113	-0.148	0.032
-319.041	129.930	0.258	-0.326
-318.026	-156.192	-0.222	0.014
-317.012	32.561	-0.346	0.295
-315.997	-123.518	0.231	-0.036
-314.983	39.706	0.020	0.017
-313.968	800.000	0.058	-0.187
-312.953	39.096	-0.206	0.182
-311.939	225.664	0.074	0.118
-310.924	-173.309	0.195	-0.006
-309.910	32.593	-0.256	0.218
-308.895	-70.424	0.055	-0.021
-307.880	-99.961	0.097	-0.024
-306.866	-168.416	0.092	-0.003
-305.851	555.570	0.096	0.228
-304.837	70.413	-0.201	0.205
-303.822	-33.584	0.088	-0.048
-302.807	66.286	0.052	0.053
-301.793	69.906	-0.107	0.109
-300.778	187.547	0.092	-0.135
-299.764	-120.503	0.247	-0.041
-298.749	-57.895	-0.328	0.142
-297.735	248.201	-0.130	-0.218
-296.720	-73.021	0.484	-0.176
-295.705	143.437	-0.146	0.192
-294.691	347.002	0.043	-0.084
-293.676	-200.000	-0.020	-0.090
-292.662	-92.460	0.316	0.088
-291.647	-200.000	-0.057	-0.000
-290.632	-121.735	0.214	0.035
-289.618	-116.953	0.331	-0.060
-288.603	195.254	-0.128	-0.191
-287.589	-62.267	0.079	-0.032
-286.574	66.559	-0.132	0.133
-285.559	-200.000	0.046	0.296
-284.545	534.065	-0.031	-0.072
-283.530	211.799	-0.165	-0.256
-282.516	663.098	-0.157	0.401
-281.501	-30.109	-0.063	-0.035
-280.486	54.506	-0.093	0.089
-279.472	-200.000	-0.001	0.268
-278.457	-200.000	-0.060	-0.301
-277.443	3.165	0.041	0.030
-276.428	-73.290	0.224	0.081
-275.413	800.000	-0.095	0.298
-274.399	270.127	0.167	-0.290
-273.384	-144.672	0.298	0.027
-272.370	-104.053	0.231	0.053
-271.355	165.867	-0.107	0.150
-270.340	-175.695	0.192	-0.005
-269.326	67.674	0.091	-0.092
-268.311	-39.856	-0.284	-0.146
-267.297	-47.910	0.267	0.127
-266.282	283.238	0.129	-0.229
-265.267	-200.000	0.001	0.043
-264.253	297.972	0.045	-0.082
-263.238	-35.696	0.313	0.167
-262.224	-200.000	0.063	0.323
-261.209	-3.145	0.278	-0.191
-260.195	90.121	-0.148	0.164
-259.180	661.051	-0.135	0.344
-258.165	-46.438	0.073	-0.035
-257.151	393.250	-0.083	0.169
-256.136	-122.069	0.219	0.035
-255.122	800.000	-0.061	-0.219
-254.107	-11.414	-0.220	-0.143
-253.092	800.000	0.034	0.131
-252.078	265.548	0.068	-0.117
-251.063	800.000	0.059	-0.163
-250.049	69.923	-0.298	0.303
-249.034	277.303	0.123	-0.216
-248.019	800.000	-0.055	-0.187
-247.005	52.198	0.170	-0.159
-245.990	198.302	0.089	-0.135
-244.976	800.000	-0.057	-0.213
-243.961	-10.381	0.072	-0.047
-242.946	-96.078	0.109	0.029
-241.932	-111.622	-0.234	-0.047
-240.917	187.309	0.033	0.049
-239.903	-138.072	-0.068	0.008
-238.888	-200.000	-0.012	-0.299
-237.873	23.215	-0.121	-0.098
-236.859	-166.593	-0.182	0.007
-235.844	-80.040	-0.358	-0.118
-234.830	86.720	0.240	0.260
-233.815	-51.280	-0.111	0.051
-232.800	-98.579	-0.305	0.077
-231.786	800.000	0.041	0.166
-230.771	293.901	0.124	0.222
-229.757	-107.073	0.323	0.070
-228.742	-75.461	0.176	-0.062
-227.727	301.685	-0.166	0.302
-226.713	-92.996	0.391	-0.107
-225.698	24.845	-0.172	-0.140
-224.684	22.734	-0.201	0.162
-223.669	383.836	-0.103	-0.208
-222.655	92.234	-0.254	-0.282
-221.640	48.096	0.339	0.312
-220.625	35.021	0.223	0.193
-219.611	-200.000	-0.056	0.350
-218.596	-106.264	0.308	-0.068
-217.582	-55.020	0.062	-0.028
-216.567	800.000	0.076	0.258
-215.552	-116.894	0.103	-0.019
-214.538	202.415	0.206	0.313
-213.523	322.620	-0.128	0.241
-212.509	-200.000	-0.056	-0.319
-211.494	2.407	-0.294	0.209
-210.479	-200.000	0.002	-0.211
-209.465	-200.000	-0.005	0.458
-208.450	67.423	0.132	-0.133
-207.436	-200.000	0.039	0.312
-206.421	6.530	0.179	0.131
-205.406	-45.445	-0.320	0.156
-204.392	-73.940	-0.263	0.094
-203.377	44.327	0.225	-0.203
-202.363	42.182	-0.301	-0.269
-201.348	50.372	0.190	0.176
-200.333	154.806	0.073	-0.099
-199.319	-32.234	0.103	0.057
-198.304	-32.111	0.210	-0.116
-197.290	144.548	-0.141	-0.185
-196.275	800.000	0.128	0.374
-195.260	800.000	-0.026	0.086
-194.246	-200.000	-0.009	-0.137
-193.231	800.000	-0.022	0.073
-192.217	87.415	-0.293	0.318
-191.202	24.529	0.021	0.017
-190.187	-122.411	-0.116	0.019
-189.173	3.676	-0.211	0.151
-188.158	37.885	-0.256	0.223
-187.144	198.085	-0.150	-0.226
-186.129	800.000	-0.047	-0.175
-185.114	-144.481	0.159	0.014
-184.100	58.083	-0.204	-0.196
-183.085	800.000	0.083	-0.275
-182.071	37.644	-0.051	-0.045
-181.056	-32.953	-0.196	0.107
-180.042	-149.717	0.055	-0.004
-179.027	-86.620	0.242	0.073
-178.012	-138.675	0.348	0.037
-176.998	800.000	0.054	0.212
-175.983	-200.000	0.048	0.261
-174.969	-82.476	-0.242	-0.077
-173.954	-11.342	-0.101	-0.066
-172.939	562.971	-0.135	0.320
-171.925	147.867	0.043	0.057
-170.910	181.602	-0.246	-0.355
-169.896	393.715	0.079	0.162
-168.881	-113.385	0.177	-0.034
-167.866	-200.000	0.043	-0.391
-166.852	10.242	0.192	-0.143
-165.837	-161.786	-0.491	0.025
-164.823	-127.485	0.187	0.027
-163.808	800.000	-0.051	0.159
-162.793	76.720	0.124	-0.129
-161.779	800.000	-0.074	-0.291
-160.764	-133.923	-0.177	0.022
-159.750	-164.609	0.194	0.009
-158.735	-134.008	0.386	-0.047
-157.720	-86.537	-0.146	-0.044
-156.706	-18.062	0.283	-0.174
-155.691	-5.589	-0.208	0.140
-154.677	-54.656	-0.222	0.098
-153.662	-170.608	0.278	-0.009
-152.647	83.933	-0.300	0.322
-151.633	772.842	-0.058	0.155
-150.618	-56.466	-0.264	0.115
-149.604	-200.000	0.071	0.323
-148.589	-128.207	-0.409	0.057
-147.574	-45.431	-0.118	-0.058
-146.560	40.578	0.144	-0.127
-145.545	42.830	0.130	0.117
-144.531	223.002	-0.101	-0.160
-143.516	-200.000	0.003	-0.111
-142.502	-200.000	0.010	-0.063
-141.487	-116.863	0.326	0.059
-140.472	-74.149	-0.111	0.040
-139.458	140.564	-0.286	0.370
-138.443	-12.099	-0.137	0.088
-137.429	26.487	0.182	-0.150
-136.414	-200.000	0.027	0.131
-135.399	-200.000	0.015	-0.257
-134.385	264.249	-0.080	0.136
-133.370	-8.518	0.094	0.062
-132.356	-200.000	-0.040	-0.189
-131.341	-12.826	-0.248	-0.159
-130.326	60.717	-0.192	0.186
-129.312	115.855	0.191	0.229
-128.297	-101.912	-0.359	0.085
-127.283	800.000	0.039	0.115
-126.268	376.944	-0.032	0.063
-125.253	-124.590	-0.090	0.014
-124.239	-109.883	0.302	-0.062
-123.224	475.643	-0.100	0.221
-122.210	5.471	0.299	0.217
-121.195	84.571	-0.352	0.378
-120.180	-12.804	0.246	0.157
