DTS Sentinel unit serial number:	SN413079Multiplexer serial number:	ORYXHardware model number:	OX4-SRSoftware version number:	ORYX F/W v4.00 Oryx Data Collector v3.7.2.0data status	okinstallation	princeton_trtdifferential loss correction	single-endedforward channel	channel 3reverse channel	N/Adate	2019/09/16time	13:48:35forward acquisition time	60.00reverse acquisition time	0.00gamma	496.2192k internal	0.2294k external	0.2294temperature offset calibration	0.9940default loss term (dB/km)	0.3790temperature slope calibration	1.0000multiplexer offset coefficient	1.0000multiplexer slope coefficient	1.0000fibre end	0.00T internal ref (°C)	42.31T ext. ref 1 (°C)	13.94T ext. ref 2 (°C)	38.26length (m)	temperature (°C)	Stokes	anti-Stokes-747.200	-31.783	0.067	-0.038
-746.185	-69.609	-0.292	0.114
-745.171	593.531	0.068	0.172
-744.156	800.000	0.062	0.200
-743.142	800.000	0.049	-0.139
-742.127	724.390	0.092	-0.251
-741.112	-125.843	0.192	-0.030
-740.098	276.351	0.038	0.069
-739.083	800.000	0.016	0.047
-738.069	-64.124	-0.195	0.081
-737.054	-79.511	0.226	0.078
-736.039	-94.477	-0.313	0.087
-735.025	108.577	0.096	0.117
-734.010	182.868	0.201	-0.303
-732.996	701.472	-0.041	0.112
-731.981	145.298	-0.280	-0.383
-730.966	-134.921	-0.217	0.027
-729.952	-64.406	-0.364	-0.151
-728.937	24.324	-0.206	-0.174
-727.923	-41.114	0.350	-0.185
-726.908	-87.775	-0.263	-0.081
-725.894	22.627	-0.185	-0.155
-724.879	410.539	-0.138	0.299
-723.864	-200.000	-0.004	0.176
-722.850	381.211	-0.137	-0.287
-721.835	126.559	-0.103	-0.133
-720.821	37.758	-0.097	0.088
-719.806	-35.262	-0.174	0.096
-718.791	-57.607	-0.215	0.096
-717.777	-168.383	0.488	-0.019
-716.762	24.193	0.160	-0.135
-715.748	-200.000	-0.012	-0.129
-714.733	-74.338	0.004	-0.002
-713.718	-115.658	0.182	0.035
-712.704	100.267	-0.265	-0.314
-711.689	-200.000	-0.022	0.254
-710.675	20.317	0.074	-0.061
-709.660	800.000	-0.066	0.195
-708.645	34.414	0.242	-0.215
-707.631	128.884	-0.146	-0.190
-706.616	800.000	-0.118	-0.432
-705.602	-28.304	0.100	0.059
-704.587	296.266	0.021	-0.040
-703.572	-200.000	-0.043	-0.400
-702.558	-141.952	0.140	-0.014
-701.543	-26.271	-0.259	-0.155
-700.529	-200.000	0.005	-0.162
-699.514	-36.327	0.219	-0.120
-698.499	48.216	0.131	-0.125
-697.485	800.000	-0.095	0.342
-696.470	-200.000	-0.015	0.103
-695.456	-11.397	-0.195	0.131
-694.441	-200.000	-0.007	-0.178
-693.426	-200.000	-0.013	0.072
-692.412	262.536	-0.104	-0.184
-691.397	-63.293	-0.278	-0.117
-690.383	-92.005	0.041	-0.012
-689.368	47.355	0.125	-0.119
-688.354	800.000	-0.114	-0.417
-687.339	-38.465	-0.269	0.145
-686.324	-119.244	0.362	-0.064
-685.310	450.385	-0.052	-0.118
-684.295	800.000	0.095	0.273
-683.281	-110.997	-0.171	0.036
-682.266	-184.663	-0.108	-0.002
-681.251	-200.000	-0.017	-0.092
-680.237	-68.857	-0.322	0.127
-679.222	516.859	0.054	-0.128
-678.208	299.840	-0.187	-0.351
-677.193	-51.333	-0.387	-0.185
-676.178	147.829	0.287	-0.395
-675.164	-200.000	-0.025	-0.148
-674.149	800.000	0.075	0.222
-673.135	119.027	0.032	-0.040
-672.120	270.304	-0.148	-0.266
-671.105	263.903	0.113	0.200
-670.091	-20.403	-0.046	-0.029
-669.076	-6.637	-0.103	0.072
-668.062	171.902	0.182	-0.266
-667.047	-43.702	-0.235	0.121
-666.032	-46.707	0.181	0.090
-665.018	39.436	-0.149	-0.136
-664.003	574.294	-0.058	-0.145
-662.989	26.012	-0.104	-0.089
-661.974	-9.502	-0.246	0.168
-660.959	328.567	0.049	0.096
-659.945	800.000	-0.088	-0.272
-658.930	-59.036	-0.080	-0.035
-657.916	-200.000	0.036	-0.422
-656.901	800.000	-0.059	0.183
-655.886	-200.000	0.036	0.236
-654.872	-85.340	0.164	-0.052
-653.857	-200.000	0.045	-0.237
-652.843	595.111	-0.097	-0.245
-651.828	13.073	0.109	0.086
-650.814	-41.036	-0.124	-0.065
-649.799	-74.966	0.236	0.086
-648.784	-200.000	-0.006	-0.081
-647.770	-94.041	0.180	-0.050
-646.755	-178.620	-0.242	-0.006
-645.741	-73.057	0.176	0.066
-644.726	-167.406	-0.374	-0.015
-643.711	8.737	0.124	0.095
-642.697	-157.647	0.252	-0.015
-641.682	-2.036	-0.188	0.135
-640.668	383.919	0.140	0.294
-639.653	-200.000	-0.029	-0.188
-638.638	186.761	0.173	-0.262
-637.624	27.445	-0.282	-0.242
-636.609	312.545	0.091	0.175
-635.595	-200.000	0.041	0.279
-634.580	-129.611	-0.264	0.037
-633.565	32.702	0.124	-0.109
-632.551	-159.268	-0.239	-0.014
-631.536	78.898	0.162	0.177
-630.522	134.172	-0.204	0.269
-629.507	185.029	0.245	-0.370
-628.492	524.197	-0.102	0.245
-627.478	72.905	-0.146	-0.156
-626.463	800.000	-0.105	0.306
-625.449	238.695	-0.140	0.237
-624.434	-200.000	-0.006	0.092
-623.419	179.776	-0.086	-0.129
-622.405	18.249	0.120	-0.097
-621.390	-200.000	-0.046	0.222
-620.376	800.000	-0.135	-0.391
-619.361	11.585	-0.168	-0.131
-618.346	-43.323	-0.137	-0.071
-617.332	147.838	0.069	0.095
-616.317	459.731	0.015	-0.034
-615.303	800.000	-0.089	-0.300
-614.288	-13.672	-0.371	-0.244
-613.273	500.845	-0.098	0.229
-612.259	456.067	-0.119	0.268
-611.244	-90.490	0.222	0.065
-610.230	192.933	0.165	-0.254
-609.215	39.664	0.191	0.174
-608.201	-200.000	0.055	0.323
-607.186	-200.000	-0.005	-0.149
-606.171	-126.384	-0.203	-0.031
-605.157	128.039	-0.151	0.195
-604.142	414.279	0.077	0.167
-603.128	124.805	-0.086	0.110
-602.113	457.529	0.071	0.161
-601.098	800.000	-0.055	0.156
-600.084	-43.062	-0.082	-0.042
-599.069	282.931	-0.160	0.291
-598.055	-200.000	-0.074	-0.350
-597.040	800.000	0.069	0.245
-596.025	685.377	-0.059	0.158
-595.011	-88.764	0.216	-0.065
-593.996	10.463	-0.229	0.177
-592.982	-131.973	0.196	0.026
-591.967	-2.739	-0.139	-0.098
-590.952	-48.332	0.290	-0.142
-589.938	72.650	0.202	0.215
-588.923	800.000	0.059	0.179
-587.909	-159.663	0.193	-0.011
-586.894	-200.000	0.023	-0.178
-585.879	188.947	-0.117	0.179
-584.865	800.000	-0.077	-0.236
-583.850	-166.209	0.070	-0.003
-582.836	-31.253	-0.333	-0.191
-581.821	-15.653	0.278	-0.180
-580.806	-200.000	0.010	-0.069
-579.792	800.000	-0.049	-0.199
-578.777	-81.705	0.152	-0.051
-577.763	226.599	-0.035	0.058
-576.748	-200.000	-0.028	-0.167
-575.733	-121.525	0.153	-0.026
-574.719	32.450	0.180	0.158
-573.704	-200.000	-0.018	-0.166
-572.690	800.000	0.185	-0.541
-571.675	-200.000	0.018	0.134
-570.661	44.518	0.287	0.267
-569.646	129.304	0.047	-0.061
-568.631	399.500	-0.101	-0.214
-567.617	-31.990	-0.067	-0.038
-566.602	150.401	0.178	0.246
-565.588	-11.738	0.190	0.127
-564.573	235.884	-0.130	-0.218
-563.558	-200.000	0.008	0.046
-562.544	-45.715	-0.027	0.014
-561.529	-200.000	0.053	0.000
-560.515	-0.885	-0.188	0.135
-559.500	-200.000	0.001	-0.294
-558.485	-200.000	0.109	0.504
-557.471	251.674	0.107	-0.184
-556.456	-170.488	-0.427	0.015
-555.442	180.418	-0.109	-0.162
-554.427	-140.997	0.151	0.016
-553.412	-73.311	-0.278	-0.103
-552.398	162.261	-0.108	0.153
-551.383	800.000	-0.143	0.469
-550.369	-200.000	-0.006	0.157
-549.354	140.088	0.132	-0.177
-548.339	-143.323	-0.396	0.039
-547.325	-19.066	-0.283	0.179
-546.310	357.925	-0.071	0.145
-545.296	-143.467	0.400	-0.039
-544.281	-25.709	0.108	-0.065
-543.266	-42.355	-0.183	-0.095
-542.252	155.687	-0.190	-0.266
-541.237	105.147	0.088	-0.106
-540.223	44.662	-0.113	0.106
-539.208	-110.677	-0.151	0.032
-538.193	-200.000	-0.014	-0.202
-537.179	-103.374	-0.133	-0.032
-536.164	-149.096	0.142	0.012
-535.150	800.000	0.086	-0.267
-534.135	36.324	-0.274	-0.245
-533.121	-66.321	-0.226	0.091
-532.106	-164.282	0.315	-0.015
-531.091	187.019	-0.199	0.301
-530.077	419.781	-0.050	0.108
-529.062	-200.000	-0.025	0.341
-528.048	256.284	0.147	-0.255
-527.033	49.716	-0.255	0.244
-526.018	760.513	-0.054	-0.150
-525.004	-80.608	-0.088	-0.030
-523.989	-145.294	0.103	-0.009
-522.975	-159.990	-0.089	-0.005
-521.960	253.449	-0.122	0.212
-520.945	450.775	0.083	-0.185
-519.931	-111.283	0.478	-0.099
-518.916	-200.000	0.061	-0.277
-517.902	-200.000	-0.057	0.312
-516.887	-147.898	-0.292	-0.025
-515.872	800.000	-0.014	-0.053
-514.858	-163.776	0.076	-0.004
-513.843	-200.000	0.019	0.106
-512.829	-119.060	0.223	-0.040
-511.814	647.737	0.040	-0.102
-510.799	800.000	-0.073	0.272
-509.785	368.051	0.070	-0.143
-508.770	-46.313	-0.273	-0.136
-507.756	8.112	-0.094	0.072
-506.741	-53.093	-0.034	-0.016
-505.726	-84.871	0.480	0.153
-504.712	-199.713	0.135	0.001
-503.697	-55.728	-0.039	-0.017
-502.683	36.881	0.148	0.133
-501.668	-126.076	0.154	-0.023
-500.653	115.188	0.048	0.060
-499.639	800.000	0.036	-0.107
-498.624	-131.643	-0.330	-0.044
-497.610	126.296	0.126	0.161
-496.595	40.610	0.118	-0.108
-495.581	78.664	0.065	-0.070
-494.566	-6.041	-0.084	0.058
-493.551	-200.000	0.061	0.290
-492.537	317.411	-0.168	0.321
-491.522	596.063	0.088	0.222
-490.508	-136.725	0.089	-0.010
-489.493	-175.814	0.115	0.003
-488.478	559.751	-0.055	-0.135
-487.464	473.482	-0.172	0.392
-486.449	269.655	0.160	0.284
-485.435	28.358	0.089	-0.076
-484.420	129.366	-0.080	-0.103
-483.405	-41.901	0.201	-0.104
-482.391	58.864	-0.047	0.047
-481.376	129.003	0.126	0.163
-480.362	800.000	0.117	0.343
-479.347	-2.455	-0.229	-0.162
-478.332	141.297	0.087	-0.117
-477.318	800.000	-0.067	-0.206
-476.303	254.435	-0.105	-0.182
-475.289	38.709	-0.330	0.298
-474.274	-157.001	0.351	-0.022
-473.259	800.000	0.084	-0.278
-472.245	-118.322	0.208	-0.037
-471.230	-200.000	0.002	-0.010
-470.216	-126.384	-0.303	-0.046
-469.201	-159.789	0.344	0.019
-468.186	299.717	-0.129	-0.241
-467.172	-126.111	-0.162	0.025
-466.157	-103.265	0.165	-0.039
-465.143	-168.131	-0.192	0.008
-464.128	88.475	0.131	-0.147
-463.113	114.750	0.123	0.152
-462.099	29.124	-0.226	-0.194
-461.084	800.000	-0.067	-0.206
-460.070	800.000	-0.027	0.085
-459.055	-47.271	-0.014	-0.007
-458.040	800.000	-0.024	-0.096
-457.026	-133.555	0.336	0.043
-456.011	-200.000	0.074	-0.388
-454.997	800.000	-0.005	0.021
-453.982	193.801	0.077	0.118
-452.968	264.407	-0.135	-0.237
-451.953	507.226	0.092	-0.217
-450.938	-200.000	0.010	-0.262
-449.924	-60.430	0.222	0.096
-448.909	134.613	0.119	0.156
-447.895	187.493	-0.033	-0.050
-446.880	-19.623	0.142	-0.089
-445.865	75.476	-0.097	-0.104
-444.851	-38.046	-0.102	-0.055
-443.836	184.386	-0.176	0.263
-442.822	-58.796	-0.318	-0.139
-441.807	-200.000	-0.050	-0.288
-440.792	-164.881	-0.190	0.009
-439.778	-200.000	-0.003	-0.210
-438.763	21.225	0.111	0.091
-437.749	3.766	0.154	0.114
-436.734	255.704	0.094	-0.163
-435.719	143.088	-0.083	0.111
-434.705	462.392	-0.176	-0.397
-433.690	470.525	0.076	0.174
-432.676	-24.663	-0.157	0.094
-431.661	-200.000	0.020	0.242
-430.646	800.000	-0.013	-0.042
-429.632	368.083	-0.054	0.110
-428.617	412.176	0.011	-0.023
-427.603	-95.054	0.198	0.054
-426.588	698.661	0.087	0.231
-425.573	-200.000	-0.075	0.332
-424.559	-200.000	-0.034	0.270
-423.544	176.989	0.139	0.205
-422.530	-54.118	0.249	0.114
-421.515	-200.000	0.012	0.085
-420.500	800.000	-0.058	-0.169
-419.486	-121.057	0.223	-0.038
-418.471	564.688	-0.135	-0.330
-417.457	-200.000	0.034	0.191
-416.442	519.080	0.056	-0.133
-415.428	-142.742	-0.159	-0.016
-414.413	-92.769	0.275	0.078
-413.398	474.719	0.089	-0.202
-412.384	433.569	0.100	-0.219
-411.369	30.833	0.055	0.047
-410.355	-105.523	-0.097	-0.022
-409.340	390.528	0.090	0.188
-408.325	87.461	-0.387	0.432
-407.311	757.818	-0.168	0.459
-406.296	-108.455	-0.089	0.019
-405.282	1.180	0.169	0.122
-404.267	432.044	0.059	-0.129
-403.252	-139.832	0.380	-0.041
-402.238	163.500	-0.176	0.250
-401.223	429.795	-0.149	0.326
-400.209	-33.101	-0.069	0.039
-399.194	263.894	-0.096	0.169
-398.179	172.156	-0.060	0.087
-397.165	145.706	-0.153	0.206
-396.150	319.577	0.097	-0.186
-395.136	-149.426	-0.202	-0.016
-394.121	-200.000	0.014	0.322
-393.106	-92.700	0.113	-0.032
-392.092	8.342	0.101	-0.077
-391.077	25.971	0.088	0.074
-390.063	93.289	-0.107	-0.122
-389.048	45.596	-0.106	-0.099
-388.033	-173.734	-0.187	-0.006
-387.019	-200.000	0.070	0.422
-386.004	-42.493	-0.319	-0.164
-384.990	-155.473	-0.210	-0.014
-383.975	-200.000	0.005	-0.025
-382.960	800.000	-0.140	0.427
-381.946	40.792	0.198	0.180
-380.931	-79.166	-0.181	-0.062
-379.917	-42.009	-0.286	0.148
-378.902	-79.730	0.214	0.073
-377.888	-31.975	-0.149	0.084
-376.873	-200.000	-0.037	-0.251
-375.858	-90.621	-0.308	-0.090
-374.844	-200.000	0.207	-0.001
-373.829	800.000	0.045	-0.190
-372.815	800.000	0.060	0.176
-371.800	-40.856	0.135	0.070
-370.785	-134.934	0.133	-0.016
-369.771	329.379	-0.139	-0.269
-368.756	43.063	0.080	-0.074
-367.742	-188.855	-0.205	-0.003
-366.727	53.459	0.091	-0.088
-365.712	110.731	0.271	-0.329
-364.698	-200.000	0.002	-0.119
-363.683	-148.876	-0.266	0.022
-362.669	91.312	0.077	0.087
-361.654	-95.032	-0.234	-0.064
-360.639	800.000	0.104	0.408
-359.625	158.957	-0.207	0.290
-358.610	75.579	-0.146	-0.156
-357.596	-200.000	0.038	-0.237
-356.581	-98.537	-0.098	0.025
-355.566	-20.166	-0.192	-0.119
-354.552	-200.000	-0.005	0.201
-353.537	4.868	-0.215	0.159
-352.523	409.122	0.139	-0.297
-351.508	135.605	-0.099	0.130
-350.493	-129.128	0.177	-0.025
-349.479	-200.000	-0.031	0.451
-348.464	189.651	0.168	-0.254
-347.450	186.552	-0.011	-0.016
-346.435	-72.753	-0.187	0.069
-345.420	800.000	0.145	0.422
-344.406	-200.000	0.027	-0.235
-343.391	800.000	-0.102	-0.285
-342.377	18.359	-0.375	-0.302
-341.362	-200.000	-0.020	-0.258
-340.348	-178.751	0.082	0.002
-339.333	117.187	0.179	-0.221
-338.318	133.356	-0.086	0.112
-337.304	-7.079	-0.082	0.056
-336.289	321.366	-0.175	-0.335
-335.275	-17.897	-0.023	0.015
-334.260	43.792	-0.263	-0.242
-333.245	800.000	-0.057	-0.224
-332.231	-153.669	0.198	0.014
-331.216	190.880	0.153	-0.231
-330.202	778.872	0.049	-0.135
-329.187	-108.814	-0.411	0.089
-328.172	21.376	-0.312	-0.255
-327.158	800.000	-0.061	-0.207
-326.143	42.053	-0.323	-0.295
-325.129	-48.019	-0.177	0.086
-324.114	-50.183	-0.177	0.084
-323.099	570.995	0.043	0.104
-322.085	-105.609	-0.253	-0.058
-321.070	-200.000	-0.006	-0.338
-320.056	243.113	0.027	0.045
-319.041	558.609	0.077	-0.187
-318.026	281.203	0.069	-0.124
-317.012	55.768	-0.055	0.054
-315.997	98.598	-0.292	-0.339
-314.983	543.515	0.025	0.059
-313.968	-97.059	-0.381	0.100
-312.953	52.705	-0.047	0.045
-311.939	800.000	0.022	0.093
-310.924	-104.522	0.142	-0.033
-309.910	-14.754	0.178	-0.115
-308.895	800.000	-0.055	-0.209
-307.880	-200.000	-0.007	0.094
-306.866	-46.266	-0.167	-0.083
-305.851	118.060	0.166	-0.206
-304.837	45.708	0.206	0.192
-303.822	800.000	0.007	-0.019
-302.807	174.660	0.018	0.026
-301.793	3.647	0.119	-0.087
-300.778	-56.369	-0.132	-0.059
-299.764	-164.496	-0.385	0.018
-298.749	-200.000	0.021	-0.126
-297.735	800.000	-0.067	-0.196
-296.720	-200.000	0.024	0.143
-295.705	-200.000	0.004	0.253
-294.691	-171.109	0.183	-0.006
-293.676	75.269	0.111	0.118
-292.662	120.347	-0.156	-0.195
-291.647	-126.401	-0.111	0.017
-290.632	800.000	-0.125	-0.360
-289.618	-200.000	-0.034	-0.401
-288.603	447.674	0.100	-0.221
-287.589	-90.124	-0.264	0.077
-286.574	-38.372	-0.132	-0.070
-285.559	-51.184	0.153	0.072
-284.545	233.180	0.041	0.068
-283.530	112.028	0.234	0.284
-282.516	-200.000	0.034	0.234
-281.501	800.000	0.083	0.248
-280.486	-64.055	0.124	-0.051
-279.472	157.594	0.372	-0.517
-278.457	344.371	0.307	-0.604
-277.443	-195.117	-0.208	0.002
-276.428	356.655	-0.045	0.091
-275.413	-200.000	-0.009	0.168
-274.399	360.554	-0.072	-0.145
-273.384	2.011	0.322	0.233
-272.370	-200.000	-0.110	0.000
-271.355	66.479	0.230	0.234
-270.340	800.000	-0.105	0.320
-269.326	557.070	0.107	-0.258
-268.311	-135.032	0.063	0.008
-267.297	-84.574	-0.133	0.042
-266.282	74.271	0.151	0.159
-265.267	87.898	0.139	-0.154
-264.253	-200.000	0.006	0.093
-263.238	126.904	-0.035	-0.044
-262.224	759.128	-0.074	0.203
-261.209	-15.184	0.370	0.238
-260.195	555.167	0.151	-0.364
-259.180	319.331	-0.126	-0.239
-258.165	25.632	-0.191	-0.160
-257.151	-50.812	-0.052	0.025
-256.136	-200.000	0.003	0.035
-255.122	200.889	0.097	0.150
-254.107	800.000	0.071	0.235
-253.092	169.598	-0.114	0.163
-252.078	139.354	0.122	0.162
-251.063	70.636	-0.322	0.334
-250.049	-200.000	-0.008	0.320
-249.034	170.040	0.026	-0.037
-248.019	123.052	-0.149	-0.187
-247.005	533.359	-0.137	-0.325
-245.990	-200.000	0.073	0.445
-244.976	-110.000	0.585	-0.123
-243.961	-58.889	0.127	0.055
-242.946	-44.293	-0.145	0.073
-241.932	-158.105	0.234	-0.014
-240.917	-103.222	0.111	0.026
-239.903	-17.232	0.243	0.154
-238.888	326.186	-0.100	0.191
-237.873	141.620	-0.021	0.027
-236.859	709.827	-0.095	-0.251
-235.844	-200.000	-0.001	-0.154
-234.830	-30.219	0.125	-0.071
-233.815	-86.800	0.089	0.027
-232.800	-200.000	0.019	0.172
-231.786	800.000	0.050	0.145
-230.771	93.559	0.170	-0.192
-229.757	-112.443	-0.226	-0.045
-228.742	-116.486	0.138	0.026
-227.727	-200.000	-0.127	-0.621
-226.713	-200.000	-0.013	-0.191
-225.698	2.531	0.060	-0.044
-224.684	-200.000	-0.006	-0.182
-223.669	262.089	-0.051	0.089
-222.655	244.885	0.039	0.066
-221.640	-200.000	0.020	-0.122
-220.625	29.296	-0.128	-0.109
-219.611	4.682	-0.129	0.095
-218.596	800.000	-0.082	0.330
-217.582	-95.395	0.048	-0.013
-216.567	-129.586	0.202	-0.028
-215.552	-108.303	-0.264	-0.057
-214.538	535.566	-0.135	-0.321
-213.523	617.237	0.004	0.010
-212.509	-200.000	-0.036	-0.165
-211.494	468.735	-0.055	-0.124
-210.479	-91.968	0.328	-0.093
-209.465	-200.000	-0.031	-0.373
-208.450	370.026	-0.009	-0.019
-207.436	800.000	0.123	0.502
-206.421	-37.662	-0.140	0.075
-205.406	-200.000	0.008	0.220
-204.392	123.058	0.306	0.383
-203.377	414.366	0.122	-0.260
-202.363	-5.042	0.169	-0.116
-201.348	242.191	-0.121	0.202
-200.333	-111.144	0.179	0.037
-199.319	-200.000	0.066	0.381
-198.304	-34.156	-0.156	-0.086
-197.290	-133.284	-0.132	0.017
-196.275	-200.000	0.004	-0.039
-195.260	32.171	0.280	0.242
-194.246	87.427	-0.072	-0.079
-193.231	-85.539	0.099	-0.031
-192.217	-24.980	-0.252	-0.150
-191.202	75.064	0.120	-0.126
-190.187	-131.190	-0.266	-0.035
-189.173	-124.452	0.184	0.029
-188.158	-200.000	-0.006	0.055
-187.144	800.000	0.083	0.320
-186.129	800.000	-0.011	0.037
-185.114	-25.056	0.232	-0.138
-184.100	-73.469	0.266	-0.097
-183.085	-200.000	0.011	-0.065
-182.071	-177.917	0.296	0.007
-181.056	-200.000	-0.013	0.183
-180.042	219.509	0.068	0.109
-179.027	41.078	-0.208	-0.188
-178.012	270.635	0.154	0.272
-176.998	-200.000	0.020	-0.286
-175.983	182.775	0.228	-0.337
-174.969	-47.367	-0.169	0.082
-173.954	759.593	-0.062	-0.167
-172.939	157.607	0.158	0.219
-171.925	-102.681	0.457	-0.109
-170.910	-39.884	0.138	-0.072
-169.896	800.000	-0.059	-0.235
-168.881	133.669	0.040	-0.052
-167.866	643.979	-0.024	-0.061
-166.852	214.405	0.160	0.253
-165.837	-200.000	-0.011	-0.128
-164.823	-129.029	-0.247	-0.035
-163.808	37.508	-0.085	-0.076
-162.793	213.721	0.147	0.232
-161.779	-200.000	-0.008	0.123
-160.764	548.010	-0.032	0.076
-159.750	800.000	0.057	0.230
-158.735	70.095	0.146	0.150
-157.720	-200.000	-0.024	0.175
-156.706	266.783	0.114	-0.199
-155.691	800.000	-0.081	0.310
-154.677	-200.000	-0.011	0.207
-153.662	-26.083	0.551	-0.324
-152.647	281.716	-0.098	-0.176
-151.633	-117.072	0.187	-0.034
-150.618	-200.000	0.035	0.228
-149.604	-146.701	0.217	0.019
-148.589	-98.429	-0.285	-0.073
-147.574	800.000	-0.062	-0.254
-146.560	652.583	-0.056	-0.143
-145.545	-114.703	0.183	0.035
-144.531	56.663	-0.163	-0.158
-143.516	359.063	0.011	-0.021
-142.502	-200.000	-0.023	0.251
-141.487	-148.735	0.361	0.029
-140.472	-13.361	0.166	-0.108
-139.458	-144.078	-0.229	0.021
-138.443	613.228	-0.083	0.208
-137.429	67.552	0.152	-0.155
-136.414	98.918	-0.278	0.321
-135.399	-51.396	0.036	-0.017
-134.385	-143.765	0.243	0.023
-133.370	-93.822	0.408	0.112
-132.356	140.327	-0.059	-0.077
-131.341	91.134	0.127	-0.143
-130.326	-105.952	-0.150	-0.034
-129.312	-200.000	0.012	-0.240
-128.297	536.657	0.080	-0.189
-127.283	467.392	0.291	0.652
-126.268	-102.779	0.358	-0.085
-125.253	800.000	0.072	-0.215
-124.239	603.629	0.011	-0.028
-123.224	800.000	-0.040	0.127
