DTS Sentinel unit serial number:	SN413079Multiplexer serial number:	ORYXHardware model number:	OX4-SRSoftware version number:	ORYX F/W v4.00 Oryx Data Collector v3.7.2.0data status	okinstallation	princeton_trtdifferential loss correction	single-endedforward channel	channel 3reverse channel	N/Adate	2019/09/16time	08:44:35forward acquisition time	60.00reverse acquisition time	0.00gamma	496.2192k internal	0.2324k external	0.2324temperature offset calibration	0.9957default loss term (dB/km)	0.3790temperature slope calibration	1.0000multiplexer offset coefficient	1.0000multiplexer slope coefficient	1.0000fibre end	0.00T internal ref (°C)	29.77T ext. ref 1 (°C)	11.97T ext. ref 2 (°C)	26.69length (m)	temperature (°C)	Stokes	anti-Stokes-747.200	307.718	0.023	-0.044
-746.185	-200.000	-0.027	0.246
-745.171	-60.224	0.229	0.098
-744.156	169.505	0.080	-0.116
-743.142	-28.631	0.325	0.189
-742.127	800.000	0.128	0.395
-741.112	557.488	0.060	0.146
-740.098	281.100	-0.224	0.405
-739.083	61.309	-0.061	-0.061
-738.069	165.922	0.219	0.312
-737.054	-71.087	-0.250	0.095
-736.039	-129.023	-0.178	0.025
-735.025	553.809	0.137	0.333
-734.010	-160.099	-0.373	0.020
-732.996	0.829	0.172	0.125
-731.981	156.848	0.052	-0.073
-730.966	-138.912	-0.231	0.025
-729.952	-82.880	-0.173	-0.056
-728.937	96.822	-0.167	-0.193
-727.923	-39.340	-0.284	-0.151
-726.908	43.538	-0.251	0.232
-725.894	274.670	0.089	-0.159
-724.879	-116.538	-0.212	-0.039
-723.864	800.000	0.100	0.407
-722.850	303.848	-0.066	0.123
-721.835	-52.795	0.083	0.039
-720.821	226.533	0.165	-0.270
-719.806	30.691	0.114	0.099
-718.791	57.419	-0.317	0.312
-717.777	66.021	-0.057	0.058
-716.762	-164.680	-0.164	-0.007
-715.748	57.058	-0.153	-0.150
-714.733	48.584	0.220	-0.207
-713.718	77.599	-0.086	0.093
-712.704	-83.743	0.156	-0.050
-711.689	-158.530	0.318	-0.019
-710.675	-5.349	0.205	-0.142
-709.660	-11.075	0.285	-0.190
-708.645	16.518	-0.117	0.093
-707.631	-87.254	0.247	0.076
-706.616	-162.115	-0.075	0.004
-705.602	-27.862	0.167	-0.097
-704.587	-107.997	0.312	0.068
-703.572	-80.686	-0.132	0.044
-702.558	-118.653	-0.368	-0.065
-701.543	-52.068	0.168	0.078
-700.529	-144.020	-0.145	0.014
-699.514	-118.289	0.223	0.040
-698.499	68.449	-0.159	-0.164
-697.485	503.569	0.006	0.013
-696.470	-7.852	0.126	-0.086
-695.456	420.161	-0.107	0.232
-694.441	-56.904	0.254	0.113
-693.426	-200.000	0.015	0.100
-692.412	485.880	-0.093	0.214
-691.397	-39.233	-0.154	-0.082
-690.383	27.865	0.342	0.290
-689.368	63.755	-0.195	-0.197
-688.354	0.433	-0.173	-0.124
-687.339	-8.650	-0.253	-0.171
-686.324	85.316	0.090	0.099
-685.310	96.303	0.210	0.242
-684.295	-48.712	0.268	-0.130
-683.281	-4.135	-0.246	0.171
-682.266	-96.368	0.162	0.043
-681.251	84.618	-0.246	0.271
-680.237	456.860	-0.150	-0.335
-679.222	-95.573	-0.368	-0.099
-678.208	307.775	-0.131	-0.246
-677.193	175.033	0.258	-0.376
-676.178	9.451	-0.050	0.038
-675.164	404.428	0.157	-0.332
-674.149	-200.000	-0.027	0.186
-673.135	-5.837	-0.067	0.046
-672.120	800.000	0.033	-0.114
-671.105	-200.000	-0.016	-0.130
-670.091	130.747	0.080	-0.103
-669.076	-200.000	-0.015	0.273
-668.062	217.094	0.185	0.296
-667.047	126.120	0.134	-0.171
-666.032	-162.298	0.114	0.006
-665.018	-76.035	0.355	0.126
-664.003	-84.861	0.137	-0.043
-662.989	83.420	-0.109	-0.119
-661.974	800.000	0.034	-0.127
-660.959	241.610	0.132	0.222
-659.945	-112.415	0.227	-0.046
-658.930	-0.062	0.412	-0.295
-657.916	800.000	-0.074	0.226
-656.901	199.717	0.134	0.206
-655.886	215.464	0.112	-0.178
-654.872	-127.878	0.144	0.021
-653.857	-200.000	-0.034	0.468
-652.843	113.636	-0.137	0.167
-651.828	11.459	0.135	-0.104
-650.814	53.282	-0.063	-0.061
-649.799	-73.430	-0.328	-0.121
-648.784	125.083	0.060	-0.076
-647.770	-200.000	0.056	0.272
-646.755	58.947	-0.203	0.200
-645.741	-139.189	0.274	0.030
-644.726	130.253	-0.089	-0.115
-643.711	-35.462	0.252	-0.138
-642.697	800.000	0.115	-0.380
-641.682	9.944	0.122	0.093
-640.668	-93.447	-0.106	-0.030
-639.653	-145.430	-0.110	-0.010
-638.638	-159.450	0.257	0.014
-637.624	509.356	0.086	-0.202
-636.609	33.764	-0.069	-0.060
-635.595	-32.890	-0.062	-0.034
-634.580	-116.934	-0.058	0.011
-633.565	198.424	-0.154	0.237
-632.551	64.892	-0.150	0.152
-631.536	-55.174	0.167	-0.076
-630.522	-110.078	0.071	-0.015
-629.507	-11.295	0.172	0.114
-628.492	-200.000	0.055	0.460
-627.478	800.000	-0.077	-0.236
-626.463	-200.000	-0.005	0.462
-625.449	62.872	0.095	-0.095
-624.434	39.968	-0.291	-0.263
-623.419	-20.476	0.181	-0.112
-622.405	383.490	0.083	0.172
-621.390	-141.294	-0.167	-0.017
-620.376	153.735	-0.130	-0.179
-619.361	567.281	0.047	0.115
-618.346	230.824	-0.091	0.150
-617.332	343.338	-0.064	-0.126
-616.317	118.832	0.057	0.071
-615.303	-105.373	-0.087	0.020
-614.288	113.135	-0.102	0.124
-613.273	-51.334	-0.088	0.041
-612.259	-62.132	0.330	0.138
-611.244	-200.000	0.004	0.264
-610.230	351.719	-0.125	0.248
-609.215	-130.101	-0.215	-0.029
-608.201	800.000	-0.091	0.276
-607.186	-93.165	-0.084	0.024
-606.171	36.681	-0.292	0.259
-605.157	71.131	0.054	0.056
-604.142	308.328	0.191	-0.358
-603.128	144.064	-0.267	-0.357
-602.113	800.000	-0.018	0.053
-601.098	-200.000	-0.051	0.445
-600.084	-138.052	0.118	0.013
-599.069	-83.681	-0.278	-0.089
-598.055	-56.013	-0.262	-0.117
-597.040	-76.941	-0.062	0.022
-596.025	-193.954	0.087	-0.001
-595.011	-21.122	0.203	-0.125
-593.996	-25.076	0.230	-0.137
-592.982	-200.000	-0.066	0.534
-591.967	-38.097	0.078	-0.042
-590.952	-200.000	-0.038	-0.199
-589.938	-135.852	0.206	0.024
-588.923	-45.882	0.066	-0.033
-587.909	-72.212	-0.254	-0.094
-586.894	6.676	-0.226	0.169
-585.879	-200.000	-0.042	0.628
-584.865	-7.868	-0.141	-0.096
-583.850	-200.000	0.059	-0.260
-582.836	-38.914	-0.207	0.109
-581.821	-200.000	0.031	-0.201
-580.806	-200.000	0.061	-0.284
-579.792	6.208	0.202	0.151
-578.777	188.582	-0.088	-0.132
-577.763	-56.001	0.112	-0.050
-576.748	357.021	0.093	-0.186
-575.733	-69.846	0.104	-0.040
-574.719	-62.503	0.196	-0.082
-573.704	-13.602	-0.293	0.190
-572.690	157.059	0.032	0.045
-571.675	-105.232	0.269	-0.062
-570.661	-139.697	-0.505	-0.054
-569.646	-200.000	-0.069	-0.403
-568.631	-64.047	-0.131	-0.054
-567.617	-82.922	0.122	0.039
-566.602	-28.329	-0.313	-0.181
-565.588	-113.941	-0.125	-0.024
-564.573	-29.654	-0.103	0.059
-563.558	-31.685	0.375	-0.211
-562.544	456.674	0.108	-0.240
-561.529	-132.975	-0.165	0.021
-560.515	-200.000	-0.020	-0.152
-559.500	-68.592	0.140	0.054
-558.485	1.346	-0.371	-0.267
-557.471	509.350	0.054	-0.126
-556.456	-148.529	-0.189	-0.015
-555.442	733.229	0.144	0.387
-554.427	204.980	0.046	-0.071
-553.412	42.413	-0.154	-0.140
-552.398	800.000	-0.105	-0.293
-551.383	116.860	0.118	-0.145
-550.369	98.724	-0.173	-0.200
-549.354	299.736	-0.152	-0.280
-548.339	-79.164	-0.126	0.043
-547.325	-200.000	0.002	-0.214
-546.310	-43.916	0.402	0.202
-545.296	373.027	-0.181	-0.369
-544.281	800.000	0.031	-0.105
-543.266	214.794	0.134	-0.213
-542.252	-37.203	0.155	0.083
-541.237	800.000	-0.026	0.081
-540.223	-126.424	0.284	0.042
-539.208	284.193	0.064	0.115
-538.193	-77.289	0.252	0.088
-537.179	-58.612	-0.129	-0.056
-536.164	-200.000	-0.015	-0.098
-535.150	186.288	0.336	0.501
-534.135	90.716	-0.193	-0.216
-533.121	54.938	0.159	-0.154
-532.106	-52.016	0.065	0.030
-531.091	25.089	0.282	-0.234
-530.077	153.768	-0.120	0.165
-529.062	386.293	0.017	-0.035
-528.048	-173.236	0.215	-0.007
-527.033	-129.702	-0.300	0.041
-526.018	800.000	-0.060	0.215
-525.004	-135.226	0.113	0.014
-523.989	575.458	-0.047	-0.115
-522.975	58.613	-0.191	-0.188
-521.960	-64.703	0.311	0.126
-520.945	281.871	0.068	-0.121
-519.931	-16.573	-0.187	-0.119
-518.916	444.752	0.103	0.225
-517.902	-38.411	0.304	0.161
-516.887	-60.793	-0.064	-0.027
-515.872	-83.979	-0.427	-0.136
-514.858	-145.363	0.117	-0.011
-513.843	-87.470	0.322	0.098
-512.829	-137.036	-0.123	-0.014
-511.814	42.859	-0.084	-0.076
-510.799	800.000	-0.033	0.106
-509.785	-132.011	0.318	0.041
-508.770	-53.214	0.089	-0.041
-507.756	179.238	-0.120	-0.176
-506.741	-44.520	0.073	-0.036
-505.726	-14.754	0.575	0.369
-504.712	-200.000	0.010	-0.088
-503.697	224.440	0.110	-0.178
-502.683	-35.345	0.087	-0.047
-501.668	-166.494	0.115	-0.005
-500.653	131.520	-0.138	0.178
-499.639	131.127	-0.202	0.259
-498.624	-200.000	-0.005	0.151
-497.610	-200.000	-0.006	0.163
-496.595	-44.165	-0.132	0.066
-495.581	351.399	0.106	0.210
-494.566	-56.254	-0.159	0.071
-493.551	-99.098	-0.473	0.120
-492.537	152.464	-0.121	0.165
-491.522	278.391	-0.020	0.036
-490.508	800.000	0.045	0.191
-489.493	800.000	-0.058	0.243
-488.478	73.871	0.084	-0.088
-487.464	2.927	0.071	-0.051
-486.449	-158.109	-0.091	-0.005
-485.435	219.902	-0.174	0.279
-484.420	-124.602	0.102	0.016
-483.405	800.000	-0.033	0.137
-482.391	-62.727	0.217	0.090
-481.376	-174.770	0.075	-0.002
-480.362	-9.538	0.277	-0.185
-479.347	165.018	0.068	0.096
-478.332	14.105	0.108	0.084
-477.318	187.515	0.066	0.098
-476.303	36.914	0.294	0.260
-475.289	339.469	0.063	-0.122
-474.274	-44.081	-0.163	-0.082
-473.259	-200.000	0.045	0.229
-472.245	-106.261	0.232	0.052
-471.230	60.765	0.263	-0.260
-470.216	-105.432	0.173	-0.039
-469.201	188.009	-0.073	0.109
-468.186	-200.000	-0.052	0.262
-467.172	691.686	-0.133	0.347
-466.157	21.897	-0.098	-0.080
-465.143	-94.134	0.209	0.057
-464.128	-22.195	-0.066	0.040
-463.113	-200.000	-0.003	0.070
-462.099	528.183	-0.027	0.064
-461.084	355.731	0.212	-0.421
-460.070	-200.000	-0.005	-0.184
-459.055	-15.707	-0.293	-0.187
-458.040	-200.000	0.025	-0.150
-457.026	110.338	-0.036	-0.043
-456.011	-147.512	0.090	0.008
-454.997	-13.853	-0.028	0.018
-453.982	-114.112	-0.094	-0.018
-452.968	-87.532	-0.035	0.010
-451.953	398.499	-0.074	-0.154
-450.938	-8.548	-0.186	0.125
-449.924	-28.257	0.107	0.062
-448.909	-200.000	0.031	-0.202
-447.895	-153.913	0.135	0.009
-446.880	-97.194	-0.039	-0.010
-445.865	32.314	0.137	0.118
-444.851	429.910	-0.107	0.231
-443.836	25.357	-0.158	-0.131
-442.822	-9.604	0.054	-0.036
-441.807	800.000	0.026	0.095
-440.792	95.218	0.181	0.206
-439.778	-100.016	0.098	0.024
-438.763	417.952	-0.049	0.104
-437.749	-19.863	0.330	-0.203
-436.734	-200.000	0.049	0.266
-435.719	-200.000	0.028	0.372
-434.705	-200.000	-0.078	0.356
-433.690	-200.000	-0.016	-0.109
-432.676	60.163	-0.114	-0.112
-431.661	-200.000	0.018	-0.238
-430.646	75.018	-0.224	-0.235
-429.632	-200.000	-0.011	-0.208
-428.617	-61.012	0.319	-0.134
-427.603	800.000	0.064	-0.190
-426.588	-48.933	0.340	-0.162
-425.573	800.000	0.033	-0.140
-424.559	-50.525	0.163	0.077
-423.544	648.200	-0.049	0.126
-422.530	-150.093	0.033	-0.003
-421.515	104.919	-0.143	-0.168
-420.500	800.000	0.081	0.244
-419.486	23.595	0.102	-0.084
-418.471	163.748	-0.252	0.353
-417.457	-200.000	0.002	-0.375
-416.442	800.000	-0.065	-0.227
-415.428	35.939	0.161	-0.141
-414.413	-24.420	-0.153	-0.091
-413.398	-200.000	0.004	0.188
-412.384	557.381	-0.088	-0.211
-411.369	203.885	-0.092	0.142
-410.355	-38.977	-0.076	0.040
-409.340	-200.000	-0.029	0.173
-408.325	-200.000	-0.023	0.132
-407.311	274.705	-0.082	-0.145
-406.296	-174.245	-0.171	-0.005
-405.282	800.000	0.125	-0.500
-404.267	-34.424	-0.362	-0.198
-403.252	-174.352	0.134	-0.004
-402.238	348.280	0.058	0.114
-401.223	-62.262	0.040	-0.017
-400.209	-136.119	0.391	-0.046
-399.194	-200.000	-0.005	0.152
-398.179	761.002	0.114	-0.308
-397.165	-115.401	0.229	-0.043
-396.150	-200.000	0.042	0.330
-395.136	-141.353	-0.257	-0.026
-394.121	800.000	0.074	-0.237
-393.106	3.748	-0.164	-0.119
-392.092	-87.717	0.248	0.075
-391.077	24.075	-0.112	0.092
-390.063	750.993	0.075	0.202
-389.048	800.000	-0.016	-0.052
-388.033	213.175	0.043	-0.068
-387.019	-174.452	-0.099	0.003
-386.004	-7.104	-0.010	-0.007
-384.990	-123.060	-0.348	0.056
-383.975	-97.624	-0.042	-0.011
-382.960	-86.671	-0.088	-0.027
-381.946	-73.202	0.116	0.042
-380.931	-200.000	0.078	-0.436
-379.917	452.335	-0.125	0.275
-378.902	-13.125	-0.229	0.148
-377.888	800.000	0.063	0.200
-376.873	105.530	0.200	-0.235
-375.858	-103.806	0.093	0.022
-374.844	-200.000	-0.079	0.353
-373.829	-200.000	-0.010	-0.088
-372.815	-127.943	-0.243	0.035
-371.800	142.145	-0.096	-0.126
-370.785	101.743	-0.095	-0.110
-369.771	-200.000	-0.004	-0.128
-368.756	305.109	-0.051	0.095
-367.742	-27.263	0.222	-0.128
-366.727	800.000	0.035	0.124
-365.712	290.900	0.145	0.263
-364.698	475.748	-0.090	0.202
-363.683	5.901	-0.203	0.149
-362.669	-6.872	0.133	0.090
-361.654	217.764	-0.119	-0.188
-360.639	-122.599	-0.190	-0.031
-359.625	-96.029	-0.229	0.060
-358.610	-181.429	0.205	-0.004
-357.596	800.000	0.147	-0.462
-356.581	633.214	0.045	0.113
-355.566	-48.288	0.257	-0.123
-354.552	165.024	0.210	0.295
-353.537	-200.000	0.071	0.419
-352.523	-12.238	-0.102	-0.067
-351.508	329.539	-0.057	0.108
-350.493	-200.000	0.016	0.106
-349.479	-200.000	-0.033	-0.216
-348.464	-27.535	-0.125	-0.072
-347.450	51.730	-0.084	-0.079
-346.435	-116.571	-0.336	-0.062
-345.420	-200.000	0.359	-0.001
-344.406	800.000	0.058	-0.201
-343.391	-200.000	-0.020	0.249
-342.377	86.922	-0.234	0.257
-341.362	-108.437	-0.351	0.075
-340.348	-200.000	0.009	-0.052
-339.333	-200.000	-0.067	0.321
-338.318	-99.070	-0.182	-0.046
-337.304	352.961	-0.242	-0.476
-336.289	800.000	-0.040	0.158
-335.275	800.000	0.009	-0.030
-334.260	-36.378	0.161	0.086
-333.245	-4.347	-0.322	0.221
-332.231	288.567	-0.147	0.265
-331.216	800.000	0.058	0.182
-330.202	-116.493	-0.343	-0.063
-329.187	-200.000	-0.006	-0.390
-328.172	93.814	-0.101	-0.114
-327.158	154.902	-0.164	-0.224
-326.143	-37.701	-0.270	0.143
-325.129	-200.000	-0.006	-0.137
-324.114	-89.169	-0.158	0.046
-323.099	23.052	-0.364	-0.297
-322.085	-68.241	0.058	0.022
-321.070	150.544	0.225	0.303
-320.056	67.099	0.165	-0.167
-319.041	69.019	0.084	-0.086
-318.026	149.873	-0.055	0.074
-317.012	283.853	0.221	0.395
-315.997	-7.477	0.147	-0.099
-314.983	-94.278	-0.302	-0.082
-313.968	35.802	-0.028	0.025
-312.953	608.098	0.084	-0.209
-311.939	-134.822	-0.165	0.020
-310.924	86.827	-0.295	-0.323
-309.910	90.845	-0.120	0.133
-308.895	-200.000	0.015	0.145
-307.880	-132.402	0.244	0.031
-306.866	-109.892	-0.118	0.025
-305.851	-200.000	0.007	0.244
-304.837	-21.479	0.241	0.146
-303.822	135.438	-0.205	-0.265
-302.807	-83.356	-0.085	-0.027
-301.793	-0.523	0.278	-0.196
-300.778	-35.777	-0.263	-0.141
-299.764	-200.000	-0.022	0.255
-298.749	-200.000	-0.013	0.154
-297.735	-200.000	-0.003	-0.055
-296.720	-200.000	-0.013	-0.060
-295.705	137.585	0.107	-0.140
-294.691	15.827	-0.209	-0.163
-293.676	-73.739	0.106	-0.038
-292.662	-62.991	0.328	0.134
-291.647	-200.000	-0.009	-0.100
-290.632	-200.000	-0.011	-0.187
-289.618	800.000	0.147	0.419
-288.603	8.512	-0.124	0.092
-287.589	-200.000	0.049	-0.294
-286.574	198.945	0.072	-0.109
-285.559	-84.803	-0.358	-0.112
-284.545	4.455	0.025	-0.018
-283.530	-83.688	-0.199	-0.063
-282.516	-15.227	0.272	0.172
-281.501	17.347	0.202	0.159
-280.486	293.703	0.333	-0.602
-279.472	32.802	-0.119	-0.102
-278.457	800.000	0.041	-0.113
-277.443	20.032	-0.212	-0.169
-276.428	-87.812	0.243	0.072
-275.413	25.240	0.115	-0.094
-274.399	27.028	0.081	-0.067
-273.384	-135.433	-0.218	-0.026
-272.370	121.924	-0.151	0.187
-271.355	-56.687	0.186	-0.082
-270.340	-92.189	0.204	-0.057
-269.326	-200.000	-0.028	-0.315
-268.311	309.939	-0.073	0.134
-267.297	-76.986	0.171	0.059
-266.282	-38.657	0.282	-0.148
-265.267	31.091	-0.262	-0.222
-264.253	-154.832	-0.134	-0.009
-263.238	-200.000	-0.007	-0.143
-262.224	800.000	-0.030	0.090
-261.209	315.929	-0.100	-0.186
-260.195	-152.208	0.202	0.014
-259.180	800.000	0.036	-0.150
-258.165	-21.056	0.379	0.230
-257.151	-99.461	-0.149	0.037
-256.136	-107.967	-0.028	-0.006
-255.122	800.000	-0.083	0.279
-254.107	6.345	-0.204	-0.150
-253.092	-200.000	0.060	0.283
-252.078	69.126	0.227	-0.231
-251.063	-116.848	-0.204	-0.037
-250.049	-200.000	-0.049	-0.215
-249.034	95.689	-0.111	0.125
-248.019	800.000	-0.065	0.184
-247.005	-95.698	0.236	0.062
-245.990	-39.311	-0.169	-0.088
-244.976	800.000	0.070	-0.221
-243.961	-200.000	-0.022	-0.286
-242.946	-54.825	0.395	0.177
-241.932	357.069	0.084	0.166
-240.917	-140.821	0.084	0.009
-239.903	119.753	-0.190	0.233
-238.888	329.141	-0.016	0.031
-237.873	-200.000	0.022	-0.236
-236.859	-200.000	0.018	-0.260
-235.844	-66.012	0.129	0.051
-234.830	260.556	0.090	-0.153
-233.815	-41.270	-0.320	-0.163
-232.800	-200.000	-0.012	-0.093
-231.786	335.950	0.177	0.340
-230.771	579.480	0.059	0.144
-229.757	-200.000	0.020	-0.233
-228.742	-38.119	-0.224	0.117
-227.727	-200.000	0.004	0.098
-226.713	64.732	0.271	-0.270
-225.698	177.847	-0.204	0.295
-224.684	-200.000	0.065	0.332
-223.669	-139.825	-0.176	-0.018
-222.655	-13.066	0.299	-0.192
-221.640	-108.937	0.219	-0.046
-220.625	-44.288	0.280	0.139
-219.611	-162.650	-0.152	0.007
-218.596	520.687	-0.042	0.096
-217.582	-58.053	-0.181	-0.078
-216.567	-61.608	-0.144	-0.060
-215.552	-200.000	-0.025	-0.186
-214.538	33.428	-0.011	0.009
-213.523	375.265	0.057	0.116
-212.509	-200.000	-0.021	0.157
-211.494	-200.000	-0.050	0.250
-210.479	669.554	-0.124	-0.317
-209.465	-53.720	0.386	-0.174
-208.450	-200.000	-0.020	-0.097
-207.436	-200.000	-0.041	-0.369
-206.421	614.875	-0.043	0.107
-205.406	40.566	0.126	0.112
-204.392	353.284	0.070	-0.138
-203.377	-7.353	-0.208	0.139
-202.363	465.666	0.118	0.261
-201.348	406.249	0.098	0.205
-200.333	-90.292	0.184	0.053
-199.319	169.038	0.073	-0.103
-198.304	-44.796	-0.270	0.133
-197.290	-5.220	-0.128	0.087
-196.275	-160.244	-0.514	0.027
-195.260	15.860	0.205	0.159
-194.246	-107.304	-0.257	0.056
-193.231	-19.822	-0.042	0.026
-192.217	-200.000	0.007	-0.093
-191.202	-115.221	-0.081	0.015
-190.187	-200.000	-0.004	-0.174
-189.173	534.861	-0.122	-0.287
-188.158	55.641	-0.255	-0.244
-187.144	800.000	-0.038	-0.153
-186.129	-161.870	-0.251	-0.013
-185.114	-200.000	-0.058	0.341
-184.100	14.989	0.163	-0.126
-183.085	250.216	-0.198	-0.332
-182.071	8.365	0.115	0.085
-181.056	-82.221	0.271	-0.087
-180.042	239.418	0.081	-0.133
-179.027	-20.825	-0.082	0.050
-178.012	800.000	0.062	0.261
-176.998	16.419	0.223	-0.174
-175.983	155.657	0.138	-0.188
-174.969	-69.917	-0.031	-0.012
-173.954	122.333	0.113	-0.140
-172.939	-92.236	-0.146	-0.041
-171.925	-108.790	0.218	0.046
-170.910	-78.733	-0.290	0.098
-169.896	80.645	0.271	0.288
-168.881	800.000	0.089	0.307
-167.866	24.128	-0.223	0.181
-166.852	255.319	0.099	0.168
-165.837	-200.000	0.296	-0.001
-164.823	-94.188	-0.035	-0.010
-163.808	-36.187	0.090	0.048
-162.793	800.000	0.068	0.228
-161.779	800.000	0.070	0.297
-160.764	-200.000	0.025	-0.158
-159.750	241.006	0.052	0.086
-158.735	-125.733	0.394	0.059
-157.720	-200.000	0.000	-0.042
-156.706	-7.367	-0.057	0.038
-155.691	-36.220	-0.225	0.120
-154.677	446.782	0.067	0.146
-153.662	63.803	-0.236	0.234
-152.647	-4.012	0.286	-0.196
-151.633	800.000	-0.046	0.136
-150.618	-200.000	0.035	-0.154
-149.604	-52.324	0.193	0.088
-148.589	-200.000	-0.002	-0.222
-147.574	204.277	-0.100	0.154
-146.560	125.113	0.094	-0.117
-145.545	800.000	-0.115	-0.413
-144.531	102.446	0.116	-0.134
-143.516	291.606	0.039	0.070
-142.502	375.706	0.026	0.053
-141.487	800.000	0.080	0.326
-140.472	-129.908	0.139	0.019
-139.458	-22.971	-0.186	-0.110
-138.443	567.275	0.049	0.118
-137.429	-57.167	0.186	0.081
-136.414	37.474	-0.115	-0.101
-135.399	-174.277	0.124	-0.004
-134.385	-200.000	-0.045	-0.218
-133.370	235.793	0.089	-0.144
-132.356	-37.652	-0.191	-0.100
-131.341	175.547	-0.218	0.311
-130.326	242.975	-0.109	-0.180
-129.312	22.624	-0.073	0.059
-128.297	276.549	-0.028	-0.050
-127.283	374.173	0.020	0.039
-126.268	67.550	0.259	0.261
-125.253	-75.065	0.254	-0.090
-124.239	-37.831	0.101	-0.053
-123.224	-200.000	-0.021	0.145
-122.210	340.486	-0.081	-0.155
-121.195	800.000	0.027	0.077
