DTS Sentinel unit serial number:	SN413079Multiplexer serial number:	ORYXHardware model number:	OX4-SRSoftware version number:	ORYX F/W v4.00 Oryx Data Collector v3.7.2.0data status	okinstallation	princeton_trtdifferential loss correction	single-endedforward channel	channel 3reverse channel	N/Adate	2019/09/14time	07:16:35forward acquisition time	60.00reverse acquisition time	0.00gamma	496.2192k internal	0.2340k external	0.2340temperature offset calibration	1.0051default loss term (dB/km)	0.3790temperature slope calibration	1.0000multiplexer offset coefficient	1.0000multiplexer slope coefficient	1.0000fibre end	0.00T internal ref (°C)	26.19T ext. ref 1 (°C)	3.44T ext. ref 2 (°C)	20.94length (m)	temperature (°C)	Stokes	anti-Stokes-747.200	-114.330	0.329	-0.063
-746.185	-72.095	-0.251	-0.093
-745.171	800.000	0.035	-0.100
-744.156	-200.000	0.027	-0.141
-743.142	-185.935	0.374	0.006
-742.127	-161.411	-0.239	0.012
-741.112	-200.000	0.011	-0.105
-740.098	85.611	-0.455	0.501
-739.083	159.890	0.094	0.131
-738.069	-106.297	0.193	-0.043
-737.054	49.632	0.122	-0.115
-736.039	-81.606	-0.325	0.107
-735.025	64.383	0.234	-0.237
-734.010	-30.023	-0.182	-0.104
-732.996	-50.404	-0.249	0.118
-731.981	-200.000	0.027	-0.278
-730.966	-28.336	-0.400	-0.232
-729.952	800.000	0.010	0.031
-728.937	50.002	0.198	0.188
-727.923	388.290	0.211	-0.438
-726.908	-81.875	0.108	-0.035
-725.894	28.557	-0.101	-0.085
-724.879	-200.000	0.037	0.239
-723.864	-99.558	-0.213	-0.054
-722.850	-1.587	0.049	-0.035
-721.835	477.066	0.166	0.376
-720.821	56.063	-0.296	0.287
-719.806	-75.673	-0.203	-0.072
-718.791	-200.000	0.025	0.162
-717.777	-200.000	0.004	0.151
-716.762	800.000	0.055	-0.186
-715.748	270.222	0.128	0.225
-714.733	-105.744	0.045	0.010
-713.718	112.409	0.151	0.182
-712.704	423.567	0.079	-0.169
-711.689	126.596	-0.191	0.242
-710.675	-200.000	-0.023	-0.180
-709.660	542.385	0.065	-0.154
-708.645	430.528	0.087	0.188
-707.631	-74.990	0.148	-0.053
-706.616	-77.845	0.052	0.018
-705.602	800.000	0.024	0.067
-704.587	381.116	0.027	0.055
-703.572	-89.105	0.332	-0.098
-702.558	34.925	0.249	-0.218
-701.543	-167.988	0.165	-0.006
-700.529	398.674	0.171	-0.358
-699.514	-68.558	0.256	0.099
-698.499	61.405	0.175	-0.174
-697.485	-200.000	-0.000	-0.063
-696.470	800.000	0.044	0.176
-695.456	-180.289	0.259	-0.005
-694.441	12.419	-0.215	-0.166
-693.426	276.253	-0.124	0.219
-692.412	-94.444	0.155	-0.042
-691.397	-17.363	-0.317	-0.200
-690.383	2.880	0.140	0.102
-689.368	-64.810	0.109	0.044
-688.354	800.000	0.056	-0.204
-687.339	800.000	-0.108	0.345
-686.324	272.196	-0.067	0.118
-685.310	100.255	0.170	0.197
-684.295	800.000	-0.059	0.202
-683.281	-124.327	-0.179	-0.028
-682.266	180.558	0.193	-0.283
-681.251	800.000	0.030	0.099
-680.237	595.662	0.090	-0.222
-679.222	-200.000	0.018	-0.190
-678.208	-10.906	0.226	-0.150
-677.193	23.232	-0.118	0.097
-676.178	-33.644	-0.096	-0.053
-675.164	-200.000	-0.000	-0.027
-674.149	-200.000	-0.013	0.062
-673.135	-200.000	-0.003	0.114
-672.120	-174.854	-0.383	-0.011
-671.105	123.549	-0.164	0.206
-670.091	367.921	0.006	-0.013
-669.076	63.220	-0.040	-0.040
-668.062	-114.302	0.146	0.028
-667.047	71.952	0.229	-0.238
-666.032	-200.000	-0.028	-0.192
-665.018	382.189	-0.114	0.234
-664.003	-55.224	-0.114	0.051
-662.989	252.253	-0.068	0.116
-661.974	-200.000	0.000	-0.361
-660.959	-38.927	-0.152	-0.080
-659.945	132.438	-0.178	-0.229
-658.930	-93.448	0.151	0.042
-657.916	-74.964	-0.284	0.102
-656.901	-64.602	0.176	0.071
-655.886	-26.735	-0.088	-0.052
-654.872	584.126	-0.076	-0.187
-653.857	-200.000	0.018	0.117
-652.843	-200.000	0.051	-0.282
-651.828	373.525	-0.042	-0.086
-650.814	152.069	0.251	-0.342
-649.799	-200.000	-0.025	-0.403
-648.784	-65.240	0.334	-0.134
-647.770	-11.242	0.186	-0.123
-646.755	-130.994	-0.299	-0.040
-645.741	-200.000	-0.025	0.173
-644.726	-200.000	-0.043	-0.363
-643.711	-136.244	0.177	0.021
-642.697	800.000	-0.060	-0.207
-641.682	354.746	-0.038	-0.076
-640.668	170.841	-0.190	0.271
-639.653	-138.025	0.244	-0.027
-638.638	183.365	0.069	-0.102
-637.624	51.533	-0.224	-0.213
-636.609	-27.275	0.227	-0.132
-635.595	-128.400	-0.582	-0.083
-634.580	-153.554	-0.147	-0.010
-633.565	800.000	0.060	-0.221
-632.551	-200.000	-0.052	-0.576
-631.536	31.752	0.171	0.147
-630.522	142.190	-0.218	0.289
-629.507	-145.896	-0.073	0.006
-628.492	800.000	0.058	-0.238
-627.478	425.824	0.112	0.242
-626.463	194.778	0.046	0.070
-625.449	59.589	0.083	-0.082
-624.434	-36.144	-0.139	0.075
-623.419	-52.120	-0.239	-0.111
-622.405	800.000	0.072	0.307
-621.390	800.000	-0.015	-0.047
-620.376	-17.397	0.064	0.040
-619.361	15.683	-0.170	0.134
-618.346	128.592	0.033	0.042
-617.332	53.439	-0.162	0.155
-616.317	-200.000	-0.020	-0.239
-615.303	14.750	-0.218	0.170
-614.288	193.875	0.267	0.403
-613.273	173.536	0.033	-0.047
-612.259	102.810	0.211	0.247
-611.244	-98.960	-0.326	-0.082
-610.230	-37.694	0.069	0.037
-609.215	-200.000	-0.015	-0.472
-608.201	-200.000	-0.020	-0.245
-607.186	104.012	-0.078	0.092
-606.171	-62.715	-0.081	-0.034
-605.157	-92.109	-0.119	-0.034
-604.142	-200.000	0.011	0.151
-603.128	-48.608	0.120	0.058
-602.113	-23.129	-0.439	-0.264
-601.098	74.336	-0.040	-0.042
-600.084	53.774	0.180	0.172
-599.069	68.868	-0.186	-0.191
-598.055	-200.000	0.020	-0.460
-597.040	24.038	-0.062	-0.051
-596.025	2.664	-0.135	0.097
-595.011	-102.563	-0.097	0.023
-593.996	-64.051	-0.049	-0.020
-592.982	-200.000	-0.001	-0.340
-591.967	-200.000	0.016	-0.150
-590.952	-140.559	0.415	0.043
-589.938	-29.677	0.161	-0.091
-588.923	-200.000	0.011	-0.103
-587.909	-139.571	-0.118	0.013
-586.894	10.762	-0.081	0.062
-585.879	316.284	-0.061	-0.114
-584.865	101.019	0.095	-0.111
-583.850	-72.266	-0.094	0.035
-582.836	199.830	-0.233	-0.356
-581.821	-26.843	-0.330	-0.192
-580.806	-200.000	-0.020	-0.407
-579.792	-160.125	-0.276	-0.015
-578.777	-200.000	0.046	0.487
-577.763	-84.391	0.292	-0.092
-576.748	559.888	-0.022	0.054
-575.733	83.601	-0.142	0.154
-574.719	32.912	-0.103	0.089
-573.704	340.379	-0.075	0.147
-572.690	251.158	0.283	-0.480
-571.675	800.000	-0.055	-0.233
-570.661	800.000	0.004	0.013
-569.646	250.060	0.197	0.332
-568.631	114.007	0.215	0.261
-567.617	-1.997	0.280	-0.196
-566.602	-74.644	-0.171	0.061
-565.588	-200.000	0.022	0.104
-564.573	628.573	0.157	0.395
-563.558	306.621	-0.191	0.354
-562.544	456.110	0.060	-0.132
-561.529	467.388	0.117	0.261
-560.515	112.707	0.058	-0.070
-559.500	-200.000	-0.003	0.038
-558.485	404.006	0.113	-0.236
-557.471	-193.807	0.311	-0.003
-556.456	242.874	0.075	0.124
-555.442	-200.000	0.004	0.156
-554.427	-106.220	-0.045	-0.010
-553.412	-200.000	0.023	-0.123
-552.398	-72.733	0.178	0.065
-551.383	-200.000	0.022	-0.306
-550.369	2.417	0.106	0.076
-549.354	-200.000	-0.060	-0.376
-548.339	562.846	-0.116	-0.279
-547.325	254.134	-0.238	-0.404
-546.310	-110.861	0.124	-0.025
-545.296	-53.693	-0.085	0.039
-544.281	505.446	-0.049	0.112
-543.266	666.282	0.106	-0.272
-542.252	-200.000	0.066	0.332
-541.237	364.800	0.032	0.064
-540.223	-110.198	0.529	0.110
-539.208	-200.000	0.001	-0.239
-538.193	-47.343	0.244	0.118
-537.179	208.086	0.038	0.060
-536.164	800.000	0.060	0.214
-535.150	6.051	0.192	0.142
-534.135	227.230	0.129	-0.208
-533.121	-200.000	0.014	-0.239
-532.106	800.000	-0.064	0.175
-531.091	115.149	0.229	-0.278
-530.077	-88.246	-0.284	-0.085
-529.062	-20.251	0.157	0.096
-528.048	120.023	-0.080	0.099
-527.033	624.533	-0.118	-0.295
-526.018	-200.000	0.038	-0.316
-525.004	-30.871	0.019	0.011
-523.989	-200.000	0.010	0.077
-522.975	-200.000	-0.015	0.347
-521.960	-156.886	0.249	0.015
-520.945	351.781	0.177	0.349
-519.931	100.112	-0.139	0.160
-518.916	108.032	0.128	-0.152
-517.902	-22.749	-0.184	0.110
-516.887	-200.000	-0.006	-0.034
-515.872	26.456	0.241	-0.200
-514.858	-200.000	-0.011	0.119
-513.843	-79.943	-0.434	-0.145
-512.829	294.777	0.156	0.284
-511.814	-120.439	-0.079	0.013
-510.799	-200.000	0.015	-0.119
-509.785	-26.423	0.289	0.168
-508.770	541.583	-0.069	-0.163
-507.756	356.245	0.140	-0.277
-506.741	800.000	0.113	0.314
-505.726	25.582	-0.054	0.045
-504.712	800.000	-0.046	0.194
-503.697	-126.077	-0.295	0.044
-502.683	-200.000	-0.010	0.071
-501.668	-141.546	-0.096	-0.010
-500.653	-200.000	0.012	-0.323
-499.639	111.259	0.114	-0.137
-498.624	-41.009	0.230	0.118
-497.610	127.421	-0.259	0.327
-496.595	74.473	0.117	-0.122
-495.581	-200.000	-0.017	-0.312
-494.566	84.253	0.194	-0.211
-493.551	-7.782	-0.233	-0.156
-492.537	107.940	0.183	-0.216
-491.522	-147.885	0.114	0.009
-490.508	-99.343	-0.186	0.047
-489.493	-131.430	0.218	0.029
-488.478	-95.573	0.276	0.073
-487.464	-200.000	-0.006	0.197
-486.449	800.000	-0.034	0.138
-485.435	56.001	0.088	-0.084
-484.420	-55.167	-0.316	-0.141
-483.405	401.225	0.078	-0.162
-482.391	678.813	0.046	-0.120
-481.376	800.000	-0.119	-0.355
-480.362	-124.729	0.252	0.039
-479.347	-200.000	-0.028	-0.158
-478.332	54.563	-0.101	0.096
-477.318	800.000	0.021	0.075
-476.303	800.000	-0.139	0.420
-475.289	26.908	-0.152	0.126
-474.274	-12.560	0.096	-0.062
-473.259	-79.149	0.173	0.058
-472.245	-200.000	-0.014	-0.131
-471.230	-72.862	-0.442	0.161
-470.216	-200.000	0.042	0.204
-469.201	62.683	0.177	-0.175
-468.186	800.000	0.024	-0.075
-467.172	800.000	-0.032	0.098
-466.157	-24.641	0.112	0.066
-465.143	800.000	0.041	-0.130
-464.128	-200.000	0.006	0.190
-463.113	-77.211	-0.302	0.104
-462.099	-101.926	0.238	0.057
-461.084	457.798	0.086	0.189
-460.070	-124.696	-0.245	-0.038
-459.055	-200.000	0.009	0.124
-458.040	800.000	0.112	0.412
-457.026	-90.643	-0.368	-0.105
-456.011	-200.000	0.046	0.204
-454.997	-200.000	0.032	-0.394
-453.982	121.789	-0.071	-0.088
-452.968	163.581	-0.236	0.328
-451.953	241.538	0.116	0.192
-450.938	-0.374	0.238	-0.168
-449.924	-168.579	0.403	0.015
-448.909	284.855	-0.075	0.134
-447.895	800.000	-0.065	-0.207
-446.880	-58.330	0.210	-0.091
-445.865	-191.236	-0.169	-0.002
-444.851	-0.839	-0.281	0.197
-443.836	-115.655	-0.239	-0.044
-442.822	-88.188	-0.478	0.142
-441.807	-92.801	-0.195	0.054
-440.792	56.907	0.068	-0.065
-439.778	534.292	-0.172	0.403
-438.763	16.435	0.064	0.050
-437.749	31.017	-0.465	-0.395
-436.734	523.497	-0.060	-0.140
-435.719	-111.225	-0.258	-0.052
-434.705	47.770	-0.119	0.110
-433.690	-200.000	-0.055	0.404
-432.676	-108.619	-0.101	-0.021
-431.661	-191.908	0.147	-0.001
-430.646	-200.000	-0.029	-0.175
-429.632	-24.808	0.275	0.162
-428.617	-49.517	-0.091	-0.043
-427.603	-5.522	-0.076	-0.051
-426.588	210.321	0.202	0.314
-425.573	-200.000	0.022	0.399
-424.559	87.269	0.153	-0.168
-423.544	-177.715	-0.202	-0.005
-422.530	393.675	-0.090	0.185
-421.515	411.362	0.142	-0.298
-420.500	800.000	-0.030	-0.115
-419.486	-45.154	-0.264	0.130
-418.471	-83.416	0.363	0.115
-417.457	568.717	0.054	0.131
-416.442	0.652	-0.241	-0.171
-415.428	72.520	-0.136	-0.141
-414.413	-141.760	-0.135	-0.013
-413.398	-84.414	0.233	-0.073
-412.384	489.988	0.158	0.357
-411.369	800.000	0.073	0.312
-410.355	-119.791	0.028	0.005
-409.340	-200.000	-0.052	-0.249
-408.325	138.964	0.071	-0.092
-407.311	-51.560	-0.234	0.108
-406.296	-196.108	0.248	-0.002
-405.282	431.243	-0.116	-0.248
-404.267	255.812	0.117	0.198
-403.252	-75.939	0.111	-0.039
-402.238	50.415	0.032	0.030
-401.223	245.923	-0.154	0.256
-400.209	106.896	0.238	0.280
-399.194	-46.032	-0.347	-0.169
-398.179	-71.357	0.246	-0.091
-397.165	-200.000	-0.048	-0.229
-396.150	56.183	0.120	-0.115
-395.136	231.769	0.181	-0.293
-394.121	-200.000	0.193	-0.001
-393.106	800.000	0.024	0.089
-392.092	800.000	0.040	-0.173
-391.077	88.381	-0.191	0.210
-390.063	-200.000	0.012	0.063
-389.048	373.247	0.159	0.319
-388.033	-19.660	0.299	0.183
-387.019	601.026	-0.153	-0.376
-386.004	-171.590	0.460	0.015
-384.990	-200.000	-0.016	-0.190
-383.975	426.089	-0.121	0.257
-382.960	-122.340	-0.138	-0.022
-381.946	-149.477	-0.408	0.032
-380.931	-131.241	0.243	-0.032
-379.917	-91.964	0.091	0.025
-378.902	800.000	-0.104	0.337
-377.888	35.195	0.157	-0.136
-376.873	800.000	0.047	-0.151
-375.858	8.871	0.090	0.067
-374.844	-27.724	0.102	0.059
-373.829	800.000	-0.030	0.095
-372.815	-145.359	-0.344	0.031
-371.800	-87.372	-0.235	0.070
-370.785	96.082	-0.199	0.225
-369.771	1.419	-0.164	-0.117
-368.756	-36.713	0.077	-0.041
-367.742	0.264	0.170	0.120
-366.727	18.057	-0.111	-0.088
-365.712	50.731	0.179	-0.167
-364.698	800.000	0.076	0.245
-363.683	327.216	-0.077	-0.145
-362.669	800.000	-0.073	0.215
-361.654	473.434	-0.117	0.261
-360.639	-70.377	-0.327	0.123
-359.625	-200.000	-0.025	0.431
-358.610	587.410	0.054	0.131
-357.596	-200.000	0.008	0.356
-356.581	-101.398	-0.184	0.044
-355.566	-25.532	0.176	-0.103
-354.552	-50.346	0.111	0.052
-353.537	-66.140	0.095	0.037
-352.523	-91.017	-0.158	0.045
-351.508	-200.000	0.033	0.183
-350.493	276.689	-0.058	-0.101
-349.479	409.293	-0.103	-0.216
-348.464	14.035	0.062	0.048
-347.450	-78.712	0.227	0.077
-346.435	6.159	-0.127	-0.093
-345.420	134.106	-0.121	0.155
-344.406	-31.062	0.159	0.089
-343.391	79.766	0.211	-0.223
-342.377	85.439	-0.233	-0.252
-341.362	800.000	-0.096	0.322
-340.348	800.000	-0.127	0.446
-339.333	-182.761	0.171	-0.003
-338.318	60.843	-0.282	-0.276
-337.304	50.390	0.161	-0.150
-336.289	-58.797	0.374	0.160
-335.275	800.000	-0.084	0.230
-334.260	68.553	0.106	0.107
-333.245	-68.652	-0.061	0.023
-332.231	148.748	-0.095	0.127
-331.216	-156.574	0.268	0.016
-330.202	-41.216	0.310	0.158
-329.187	131.550	-0.151	0.191
-328.172	-86.971	0.108	-0.033
-327.158	169.144	-0.097	0.137
-326.143	-191.897	0.115	0.001
-325.129	-29.744	-0.192	-0.108
-324.114	-200.000	-0.017	-0.132
-323.099	192.755	0.157	-0.234
-322.085	64.554	-0.219	0.217
-321.070	-200.000	-0.046	-0.255
-320.056	798.282	0.084	0.229
-319.041	209.390	0.138	0.213
-318.026	270.714	-0.258	0.448
-317.012	-85.946	-0.084	0.026
-315.997	59.379	-0.117	0.114
-314.983	447.736	-0.082	-0.178
-313.968	-68.623	-0.169	0.064
-312.953	70.985	-0.226	0.231
-311.939	137.242	0.036	-0.047
-310.924	-200.000	0.008	0.210
-309.910	-12.351	0.198	-0.127
-308.895	98.450	-0.352	-0.400
-307.880	-125.969	-0.153	0.023
-306.866	-135.181	-0.248	0.029
-305.851	-31.062	0.275	-0.153
-304.837	265.087	0.052	0.090
-303.822	-200.000	-0.028	0.187
-302.807	41.313	-0.127	0.113
-301.793	-200.000	0.014	-0.195
-300.778	-5.527	-0.101	-0.069
-299.764	800.000	0.006	0.025
-298.749	222.919	0.081	0.129
-297.735	-22.832	0.285	-0.170
-296.720	-157.675	-0.188	0.011
-295.705	800.000	-0.144	-0.396
-294.691	-200.000	-0.022	0.182
-293.676	-200.000	-0.003	0.040
-292.662	-200.000	0.020	-0.546
-291.647	-200.000	-0.010	0.176
-290.632	160.975	-0.198	0.273
-289.618	49.374	0.086	-0.080
-288.603	800.000	-0.034	0.105
-287.589	-44.424	0.191	0.094
-286.574	-200.000	0.012	0.196
-285.559	799.258	-0.012	-0.033
-284.545	-66.583	-0.101	0.039
-283.530	-109.788	-0.295	-0.061
-282.516	-87.558	-0.107	-0.032
-281.501	-3.568	0.045	0.031
-280.486	-128.948	0.064	0.009
-279.472	-95.551	0.254	-0.067
-278.457	-23.371	0.217	0.128
-277.443	110.725	0.099	0.118
-276.428	54.829	0.175	-0.166
-275.413	-148.094	-0.236	0.019
-274.399	-200.000	0.078	-0.411
-273.384	800.000	-0.056	0.173
-272.370	7.132	-0.107	0.078
-271.355	800.000	-0.054	-0.206
-270.340	-61.247	0.234	-0.097
-269.326	-21.706	-0.118	0.071
-268.311	800.000	0.047	-0.133
-267.297	-9.597	0.171	-0.112
-266.282	-200.000	-0.060	-0.325
-265.267	12.681	0.084	-0.064
-264.253	2.847	-0.221	0.158
-263.238	-121.010	-0.404	0.067
-262.224	-0.235	0.128	-0.090
-261.209	-10.483	0.095	0.062
-260.195	-103.815	0.135	0.031
-259.180	95.772	0.100	-0.112
-258.165	-19.552	-0.208	0.127
-257.151	354.598	-0.135	-0.263
-256.136	-200.000	-0.010	0.086
-255.122	273.427	-0.182	-0.316
-254.107	-152.345	0.173	0.012
-253.092	800.000	0.115	0.370
-252.078	-200.000	0.009	0.060
-251.063	-92.031	-0.198	0.055
-250.049	-144.001	0.382	-0.035
-249.034	80.234	-0.167	-0.177
-248.019	-81.965	-0.117	-0.038
-247.005	-58.168	-0.236	-0.101
-245.990	-200.000	-0.002	-0.127
-244.976	134.023	-0.149	-0.190
-243.961	449.604	0.130	0.281
-242.946	-34.464	0.046	-0.025
-241.932	-200.000	0.015	-0.226
-240.917	292.260	-0.131	0.235
-239.903	26.264	0.248	-0.204
-238.888	105.531	-0.065	-0.075
-237.873	-123.292	0.174	0.027
-236.859	9.352	0.235	-0.175
-235.844	404.152	-0.087	0.181
-234.830	800.000	0.044	-0.154
-233.815	800.000	0.039	0.113
-232.800	-153.324	0.164	-0.011
-231.786	-200.000	-0.032	-0.232
-230.771	224.883	-0.029	0.046
-229.757	-89.846	-0.058	-0.017
-228.742	460.357	-0.052	-0.114
-227.727	-117.619	-0.237	-0.042
-226.713	800.000	0.030	-0.117
-225.698	-52.535	-0.101	-0.046
-224.684	174.731	0.186	0.264
-223.669	-200.000	0.015	-0.105
-222.655	-58.019	-0.097	-0.041
-221.640	-30.628	0.159	-0.089
-220.625	290.582	0.089	0.160
-219.611	-68.830	-0.346	0.131
-218.596	-135.338	0.185	-0.022
-217.582	-98.409	0.045	-0.011
-216.567	-106.699	0.128	-0.028
-215.552	345.195	0.119	0.230
-214.538	200.905	-0.172	0.260
-213.523	40.332	-0.383	0.339
-212.509	106.407	0.072	-0.084
-211.494	76.231	-0.272	-0.283
-210.479	-87.099	0.080	0.024
-209.465	11.298	0.230	0.173
-208.450	-154.725	0.138	0.009
-207.436	190.098	-0.125	0.185
-206.421	74.700	0.250	-0.258
-205.406	233.826	-0.277	-0.448
-204.392	104.717	0.159	-0.183
-203.377	-120.306	0.161	0.027
-202.363	-128.816	0.174	-0.024
-201.348	77.128	0.011	-0.012
-200.333	-200.000	0.007	0.348
-199.319	-129.992	0.332	-0.045
-198.304	-200.000	-0.033	-0.340
-197.290	-9.676	-0.082	0.053
-196.275	588.747	0.031	0.074
-195.260	-200.000	-0.039	0.199
-194.246	-101.618	0.415	0.099
-193.231	-200.000	-0.055	-0.318
-192.217	139.976	-0.045	-0.059
-191.202	-111.390	0.213	-0.043
-190.187	17.143	-0.109	-0.085
-189.173	-131.837	0.250	-0.032
-188.158	267.625	0.140	0.241
-187.144	-52.355	0.199	0.090
-186.129	83.358	0.304	-0.325
-185.114	-93.806	-0.260	-0.070
-184.100	165.593	0.054	0.075
-183.085	-82.324	0.166	-0.053
-182.071	-39.507	0.177	-0.091
-181.056	5.624	-0.171	0.124
-180.042	607.257	0.076	-0.187
-179.027	-64.058	0.189	0.076
-178.012	-200.000	-0.001	0.442
-176.998	128.941	0.101	0.127
-175.983	130.952	-0.158	-0.199
-174.969	800.000	-0.027	-0.116
-173.954	-200.000	0.012	-0.138
-172.939	-200.000	-0.015	-0.067
-171.925	-124.043	0.193	0.030
-170.910	113.225	-0.171	0.203
-169.896	-200.000	0.071	-0.428
-168.881	-66.776	0.032	-0.012
-167.866	-17.830	-0.235	0.144
-166.852	-81.836	-0.142	0.045
-165.837	-163.231	-0.128	-0.006
-164.823	-21.077	0.048	-0.029
-163.808	-132.661	-0.146	0.018
-162.793	800.000	0.042	-0.119
-161.779	-103.774	-0.279	-0.064
-160.764	-200.000	0.013	-0.107
-159.750	19.090	-0.114	0.090
-158.735	800.000	0.026	0.108
-157.720	-100.055	0.340	-0.083
-156.706	-70.792	0.160	-0.059
-155.691	-36.224	-0.264	-0.140
-154.677	-88.684	-0.188	-0.055
-153.662	61.700	0.310	0.303
-152.647	-93.858	-0.135	-0.036
-151.633	-200.000	-0.014	0.066
-150.618	653.927	-0.054	0.135
-149.604	116.418	0.097	-0.117
-148.589	-45.584	0.204	0.099
-147.574	-200.000	-0.043	0.217
-146.560	-200.000	-0.035	0.184
-145.545	-200.000	-0.008	0.105
-144.531	-57.464	0.163	-0.070
-143.516	61.899	0.157	0.153
-142.502	-200.000	0.006	0.163
-141.487	197.676	-0.051	-0.076
-140.472	-76.973	0.030	-0.010
-139.458	0.677	0.104	-0.073
-138.443	-200.000	0.026	0.159
-137.429	-109.109	-0.083	0.017
-136.414	-193.992	0.192	-0.002
-135.399	-132.391	0.304	-0.038
-134.385	-31.903	0.095	-0.052
-133.370	-200.000	-0.018	-0.109
-132.356	-78.390	-0.149	-0.050
-131.341	-200.000	0.003	0.446
-130.326	800.000	0.034	-0.095
-129.312	-86.374	0.071	0.021
-128.297	-135.107	0.335	0.039
-127.283	-200.000	0.009	-0.045
-126.268	-114.302	-0.061	0.011
-125.253	585.322	0.118	0.284
-124.239	46.583	0.299	0.272
-123.224	125.892	-0.228	0.282
-122.210	313.687	0.092	-0.170
-121.195	-16.035	-0.234	0.146
