DTS Sentinel unit serial number:	SN413079Multiplexer serial number:	ORYXHardware model number:	OX4-SRSoftware version number:	ORYX F/W v4.00 Oryx Data Collector v3.7.2.0data status	okinstallation	princeton_trtdifferential loss correction	single-endedforward channel	channel 3reverse channel	N/Adate	2019/09/11time	20:26:11forward acquisition time	60.00reverse acquisition time	0.00gamma	496.2192k internal	0.2303k external	0.2303temperature offset calibration	1.0026default loss term (dB/km)	0.3790temperature slope calibration	1.0000multiplexer offset coefficient	1.0000multiplexer slope coefficient	1.0000fibre end	0.00T internal ref (°C)	37.77T ext. ref 1 (°C)	1.49T ext. ref 2 (°C)	31.56length (m)	temperature (°C)	Stokes	anti-Stokes-747.200	-168.120	-0.206	0.008
-746.185	-20.193	0.079	0.050
-745.171	-200.000	-0.016	0.186
-744.156	89.823	-0.276	0.314
-743.142	-53.286	-0.127	-0.060
-742.127	-113.674	0.072	-0.014
-741.112	80.026	-0.176	-0.193
-740.098	18.117	0.060	-0.049
-739.083	-8.451	0.261	-0.179
-738.069	-200.000	-0.002	0.279
-737.054	-139.475	-0.148	-0.016
-736.039	-41.172	-0.137	-0.072
-735.025	-82.291	0.065	0.022
-734.010	338.609	0.081	0.160
-732.996	621.927	-0.160	-0.409
-731.981	381.413	-0.050	-0.105
-730.966	800.000	-0.083	0.234
-729.952	26.952	-0.151	0.129
-728.937	117.868	-0.189	0.236
-727.923	283.203	-0.123	-0.225
-726.908	800.000	-0.060	0.207
-725.894	503.476	0.029	0.067
-724.879	532.152	-0.005	0.011
-723.864	-200.000	0.007	-0.183
-722.850	311.351	0.035	-0.067
-721.835	226.994	-0.067	-0.111
-720.821	-184.735	-0.164	-0.003
-719.806	-33.103	-0.069	0.039
-718.791	-93.798	-0.105	-0.029
-717.777	-47.093	-0.271	-0.134
-716.762	-164.445	-0.381	-0.018
-715.748	-117.808	0.458	0.084
-714.733	24.725	-0.148	-0.124
-713.718	-125.266	-0.256	0.040
-712.704	-84.688	0.082	0.026
-711.689	-30.149	-0.142	0.082
-710.675	-200.000	0.028	0.340
-709.660	-50.847	0.100	-0.048
-708.645	800.000	0.003	-0.010
-707.631	-72.698	0.252	0.094
-706.616	800.000	0.111	-0.334
-705.602	-119.204	0.345	0.061
-704.587	234.677	-0.189	0.318
-703.572	327.583	-0.124	0.242
-702.558	-177.096	-0.268	0.007
-701.543	-78.351	0.061	-0.021
-700.529	59.196	0.075	0.075
-699.514	800.000	0.031	-0.095
-698.499	-167.245	0.271	0.011
-697.485	47.582	0.096	0.091
-696.470	439.357	-0.142	-0.314
-695.456	-191.062	-0.231	-0.002
-694.441	-99.469	0.244	0.062
-693.426	170.604	0.103	0.149
-692.412	105.221	-0.115	-0.138
-691.397	-133.007	0.122	-0.016
-690.383	-200.000	-0.055	0.296
-689.368	-200.000	-0.027	-0.249
-688.354	-157.447	0.260	0.016
-687.339	-158.149	-0.509	-0.030
-686.324	-200.000	0.014	0.123
-685.310	-27.739	0.306	-0.180
-684.295	109.728	-0.294	-0.358
-683.281	49.029	0.112	0.107
-682.266	641.602	0.066	-0.172
-681.251	7.365	-0.208	-0.158
-680.237	-200.000	0.006	0.143
-679.222	-200.000	-0.027	-0.275
-678.208	119.305	-0.027	0.034
-677.193	-122.664	-0.173	-0.028
-676.178	126.796	-0.200	-0.258
-675.164	-82.193	-0.080	-0.026
-674.149	800.000	0.050	-0.162
-673.135	33.514	0.214	-0.189
-672.120	-115.280	-0.146	-0.028
-671.105	-200.000	-0.013	-0.113
-670.091	226.969	-0.088	0.145
-669.076	-129.867	0.190	0.026
-668.062	-47.956	-0.481	-0.237
-667.047	161.346	0.135	0.191
-666.032	-182.278	-0.275	-0.005
-665.018	800.000	-0.046	0.196
-664.003	-196.861	0.246	-0.002
-662.989	-54.699	-0.236	0.108
-661.974	264.190	-0.018	0.032
-660.959	106.813	-0.219	0.264
-659.945	-123.988	-0.119	-0.019
-658.930	-178.620	-0.219	-0.005
-657.916	-176.985	-0.186	-0.005
-656.901	95.821	-0.054	-0.062
-655.886	-200.000	-0.025	0.170
-654.872	99.491	-0.108	-0.126
-653.857	136.051	-0.107	0.142
-652.843	-136.844	-0.451	0.053
-651.828	800.000	0.051	0.148
-650.814	-133.987	-0.326	0.041
-649.799	113.218	-0.120	0.148
-648.784	-87.211	0.024	0.008
-647.770	110.481	0.059	0.072
-646.755	800.000	-0.006	-0.022
-645.741	25.846	0.162	0.137
-644.726	763.049	0.042	-0.114
-643.711	-200.000	0.032	0.187
-642.697	122.002	-0.043	0.055
-641.682	800.000	0.106	0.370
-640.668	-26.416	0.193	-0.115
-639.653	-80.073	0.047	0.016
-638.638	30.321	0.193	0.167
-637.624	188.546	0.076	0.115
-636.609	-200.000	0.018	0.093
-635.595	27.965	0.358	-0.306
-634.580	-23.517	0.198	-0.121
-633.565	-154.396	0.231	0.016
-632.551	-200.000	0.004	0.125
-631.536	-70.990	0.170	-0.065
-630.522	20.970	0.029	0.024
-629.507	-200.000	-0.029	-0.132
-628.492	57.091	0.338	-0.335
-627.478	-59.857	-0.123	0.053
-626.463	-51.870	-0.422	0.199
-625.449	-29.025	0.159	-0.093
-624.434	7.536	0.114	-0.086
-623.419	234.669	-0.138	-0.231
-622.405	54.273	-0.119	-0.117
-621.390	135.150	-0.137	-0.180
-620.376	233.875	-0.161	-0.269
-619.361	28.849	-0.178	-0.153
-618.346	406.592	0.084	-0.179
-617.332	129.505	-0.004	0.005
-616.317	-200.000	0.012	0.372
-615.303	-139.968	-0.276	-0.030
-614.288	250.697	-0.092	-0.158
-613.273	-200.000	-0.049	0.260
-612.259	348.364	0.211	0.422
-611.244	-160.966	0.312	0.017
-610.230	-200.000	-0.015	-0.118
-609.215	-200.000	-0.309	-0.000
-608.201	46.698	0.308	-0.290
-607.186	15.689	0.211	0.168
-606.171	155.755	0.153	-0.213
-605.157	-29.510	-0.047	-0.027
-604.142	44.874	0.131	-0.122
-603.128	-107.260	-0.301	0.067
-602.113	-159.335	0.253	0.014
-601.098	-4.657	0.124	0.086
-600.084	-79.855	-0.285	0.097
-599.069	-82.627	0.147	0.048
-598.055	-36.210	0.294	0.160
-597.040	-133.192	-0.029	-0.004
-596.025	-200.000	0.015	0.077
-595.011	122.949	-0.294	0.373
-593.996	-153.454	0.096	0.007
-592.982	449.153	0.138	0.308
-591.967	-20.815	-0.146	0.090
-590.952	155.499	0.248	0.346
-589.938	-200.000	0.083	0.407
-588.923	800.000	-0.051	-0.210
-587.909	-119.415	-0.150	0.026
-586.894	-114.688	0.150	-0.029
-585.879	-16.105	-0.046	-0.030
-584.865	288.721	-0.091	0.167
-583.850	-131.812	-0.240	0.032
-582.836	193.964	0.162	-0.248
-581.821	-27.285	0.181	0.107
-580.806	-200.000	-0.028	-0.180
-579.792	154.598	0.053	0.073
-578.777	117.096	-0.191	-0.238
-577.763	-124.021	-0.109	-0.017
-576.748	32.694	0.075	-0.066
-575.733	-200.000	-0.034	0.249
-574.719	50.936	0.251	0.241
-573.704	-200.000	-0.001	0.183
-572.690	-87.407	-0.290	-0.089
-571.675	-200.000	0.066	0.495
-570.661	-67.267	-0.080	0.032
-569.646	800.000	-0.044	0.131
-568.631	-75.004	0.375	0.136
-567.617	-56.557	0.319	0.143
-566.602	-176.158	-0.112	-0.003
-565.588	-192.330	-0.196	0.002
-564.573	-121.440	0.195	-0.033
-563.558	445.750	0.140	-0.312
-562.544	301.165	0.091	0.169
-561.529	518.038	0.103	0.243
-560.515	146.576	-0.138	-0.187
-559.500	-200.000	-0.047	-0.211
-558.485	-179.289	0.126	-0.003
-557.471	94.848	0.141	-0.163
-556.456	-122.584	-0.104	0.017
-555.442	-4.785	-0.226	-0.157
-554.427	-8.185	0.175	-0.119
-553.412	-200.000	0.007	-0.309
-552.398	-95.237	0.185	0.050
-551.383	108.499	-0.218	-0.264
-550.369	-200.000	-0.045	-0.318
-549.354	165.407	0.078	0.112
-548.339	295.040	0.097	0.180
-547.325	-200.000	-0.018	0.239
-546.310	-153.664	-0.494	0.034
-545.296	-200.000	0.035	-0.213
-544.281	-41.132	-0.135	-0.071
-543.266	134.411	0.114	0.149
-542.252	202.993	-0.116	-0.181
-541.237	-118.067	0.217	0.039
-540.223	209.885	-0.120	-0.190
-539.208	-127.651	-0.107	-0.016
-538.193	-44.031	-0.345	0.175
-537.179	-116.066	0.186	0.035
-536.164	-72.759	0.228	0.085
-535.150	35.883	-0.271	0.241
-534.135	2.289	-0.174	-0.127
-533.121	-133.542	0.043	0.005
-532.106	-200.000	0.057	-0.357
-531.091	800.000	-0.058	-0.173
-530.077	114.035	-0.122	0.150
-529.062	-20.854	-0.182	0.113
-528.048	-200.000	-0.031	-0.482
-527.033	-77.749	0.052	0.018
-526.018	-115.783	-0.320	0.061
-525.004	-60.651	0.239	0.102
-523.989	397.605	0.048	0.101
-522.975	-200.000	0.037	-0.202
-521.960	-34.326	-0.021	0.012
-520.945	-66.962	-0.198	-0.079
-519.931	69.951	0.087	0.091
-518.916	-55.896	-0.093	-0.042
-517.902	-129.477	-0.195	-0.027
-516.887	-151.276	0.060	-0.005
-515.872	273.622	0.081	0.144
-514.858	800.000	-0.031	-0.114
-513.843	348.762	-0.123	-0.245
-512.829	-39.182	-0.232	-0.123
-511.814	-159.935	0.121	-0.007
-510.799	-200.000	-0.027	0.187
-509.785	-106.587	0.086	-0.019
-508.770	114.242	0.052	0.063
-507.756	-200.000	0.376	-0.001
-506.741	-58.682	-0.140	0.061
-505.726	-117.716	-0.087	0.016
-504.712	-9.249	-0.179	0.121
-503.697	-79.779	0.660	-0.224
-502.683	372.921	0.085	-0.174
-501.668	-200.000	0.014	-0.146
-500.653	80.079	-0.246	-0.267
-499.639	102.645	-0.086	-0.101
-498.624	747.060	-0.068	-0.185
-497.610	17.870	-0.089	-0.071
-496.595	133.804	0.214	0.280
-495.581	-25.263	-0.227	-0.135
-494.566	800.000	-0.114	-0.384
-493.551	-137.865	0.214	0.024
-492.537	-108.259	-0.083	0.018
-491.522	563.753	0.043	0.105
-490.508	54.405	-0.127	-0.123
-489.493	-116.973	0.325	-0.060
-488.478	-104.458	-0.175	-0.041
-487.464	-36.548	0.130	-0.071
-486.449	-67.547	-0.408	0.161
-485.435	800.000	-0.052	-0.212
-484.420	-84.025	0.302	-0.097
-483.405	-166.682	-0.171	-0.007
-482.391	138.717	-0.066	-0.088
-481.376	-136.971	0.432	0.050
-480.362	93.875	0.289	-0.330
-479.347	27.951	-0.234	0.199
-478.332	-194.472	-0.228	-0.002
-477.318	-98.205	-0.272	-0.070
-476.303	800.000	0.070	-0.266
-475.289	39.823	-0.181	-0.164
-474.274	-200.000	-0.016	0.397
-473.259	102.582	-0.277	0.326
-472.245	-18.634	0.047	-0.029
-471.230	293.690	-0.095	-0.176
-470.216	51.576	-0.445	-0.427
-469.201	-200.000	0.002	-0.195
-468.186	800.000	0.021	-0.066
-467.172	-200.000	0.002	-0.068
-466.157	328.926	-0.142	0.275
-465.143	-109.768	0.117	0.025
-464.128	-59.900	0.112	0.048
-463.113	-126.670	-0.280	0.042
-462.099	-55.506	0.234	0.106
-461.084	206.135	0.100	0.156
-460.070	221.743	0.077	0.125
-459.055	-160.441	0.077	0.004
-458.040	-89.633	-0.427	0.126
-457.026	276.810	-0.060	0.108
-456.011	-91.429	0.089	0.026
-454.997	-54.864	-0.195	0.088
-453.982	122.269	-0.247	-0.311
-452.968	202.563	0.078	-0.122
-451.953	-200.000	0.042	-0.239
-450.938	226.627	-0.193	-0.315
-449.924	201.938	-0.145	-0.225
-448.909	413.273	-0.145	-0.311
-447.895	-200.000	0.007	-0.043
-446.880	259.804	0.134	0.234
-445.865	-96.220	0.193	-0.052
-444.851	-0.861	0.241	-0.172
-443.836	800.000	0.073	0.297
-442.822	278.490	0.046	0.083
-441.807	-97.344	-0.208	0.055
-440.792	-3.787	-0.135	0.094
-439.778	-200.000	-0.008	0.122
-438.763	-45.718	-0.351	-0.175
-437.749	-200.000	0.360	0.002
-436.734	800.000	-0.036	-0.114
-435.719	-0.562	0.250	-0.179
-434.705	70.108	0.148	-0.153
-433.690	-200.000	-0.005	-0.105
-432.676	-66.495	-0.051	-0.020
-431.661	20.760	-0.259	0.211
-430.646	-36.882	0.277	0.150
-429.632	339.922	0.089	0.174
-428.617	15.586	-0.169	0.134
-427.603	146.253	-0.121	0.163
-426.588	188.827	0.101	-0.152
-425.573	-200.000	0.022	-0.317
-424.559	5.439	0.148	0.110
-423.544	59.482	0.166	0.164
-422.530	447.589	0.103	0.227
-421.515	150.970	-0.132	-0.180
-420.500	-200.000	-0.001	0.054
-419.486	277.872	-0.101	0.180
-418.471	209.961	-0.140	0.221
-417.457	-200.000	0.027	0.243
-416.442	-65.867	-0.085	-0.034
-415.428	340.187	0.115	0.226
-414.413	-175.746	0.253	-0.007
-413.398	552.302	0.104	0.252
-412.384	-15.276	0.470	-0.302
-411.369	189.637	-0.148	-0.223
-410.355	18.268	-0.132	-0.106
-409.340	-200.000	-0.035	-0.214
-408.325	-83.490	0.195	-0.063
-407.311	18.743	0.287	0.231
-406.296	-200.000	0.037	0.167
-405.282	-102.011	0.200	0.048
-404.267	382.394	-0.016	-0.032
-403.252	-90.941	0.165	-0.048
-402.238	-34.974	-0.280	0.154
-401.223	284.878	-0.105	-0.190
-400.209	799.600	0.087	0.241
-399.194	94.634	-0.052	-0.059
-398.179	62.614	-0.218	0.219
-397.165	-200.000	-0.037	0.294
-396.150	800.000	-0.028	-0.120
-395.136	289.930	0.115	-0.210
-394.121	-13.669	-0.225	0.146
-393.106	116.650	0.178	0.220
-392.092	800.000	0.039	0.167
-391.077	324.556	0.052	0.101
-390.063	2.519	0.110	0.080
-389.048	-72.926	-0.153	0.056
-388.033	-200.000	-0.061	-0.366
-387.019	3.897	-0.176	-0.129
-386.004	-77.895	-0.237	-0.082
-384.990	35.024	-0.082	0.072
-383.975	-84.491	0.267	0.085
-382.960	52.714	-0.108	0.104
-381.946	251.391	-0.200	0.342
-380.931	320.243	0.087	-0.166
-379.917	559.907	-0.061	-0.148
-378.902	-51.180	-0.161	-0.076
-377.888	-184.399	0.344	-0.006
-376.873	-200.000	0.029	-0.237
-375.858	613.912	0.119	-0.298
-374.844	-171.862	-0.414	-0.014
-373.829	0.143	0.308	0.221
-372.815	-29.381	-0.333	-0.191
-371.800	187.632	0.061	0.092
-370.785	-163.743	0.404	-0.019
-369.771	-26.822	-0.204	0.120
-368.756	-200.000	-0.036	0.166
-367.742	-169.160	-0.159	0.006
-366.727	800.000	-0.135	-0.393
-365.712	-72.486	0.259	0.096
-364.698	163.516	-0.096	-0.136
-363.683	-200.000	-0.144	0.000
-362.669	-200.000	-0.035	0.188
-361.654	-38.080	-0.158	0.084
-360.639	-173.909	0.288	-0.009
-359.625	-4.191	0.303	0.211
-358.610	-29.624	-0.106	0.061
-357.596	37.953	0.042	-0.037
-356.581	477.955	0.119	0.270
-355.566	-140.703	-0.060	0.006
-354.552	-20.401	0.184	-0.113
-353.537	412.837	0.051	-0.108
-352.523	347.274	-0.199	-0.394
-351.508	254.103	0.144	0.246
-350.493	-115.679	-0.324	-0.061
-349.479	-78.416	-0.206	0.071
-348.464	-63.937	-0.341	0.140
-347.450	120.479	0.156	0.195
-346.435	642.464	-0.127	0.323
-345.420	61.292	0.230	0.230
-344.406	44.639	-0.071	-0.066
-343.391	-84.785	0.070	0.022
-342.377	-92.109	0.157	0.044
-341.362	64.777	0.147	-0.149
-340.348	-56.073	-0.176	0.079
-339.333	-142.493	0.137	-0.014
-338.318	132.946	-0.061	-0.079
-337.304	-87.541	-0.247	0.075
-336.289	267.624	-0.083	0.145
-335.275	122.589	-0.110	0.138
-334.260	363.100	0.015	0.031
-333.245	-82.965	0.080	-0.026
-332.231	-56.848	0.297	0.132
-331.216	16.550	-0.271	0.214
-330.202	800.000	-0.020	0.083
-329.187	584.366	0.047	-0.116
-328.172	-9.977	0.138	-0.092
-327.158	418.559	-0.166	-0.356
-326.143	151.634	0.096	-0.131
-325.129	-200.000	0.016	-0.103
-324.114	-101.716	-0.257	-0.062
-323.099	23.631	0.118	-0.097
-322.085	-34.630	0.177	0.097
-321.070	-88.371	-0.354	-0.106
-320.056	-47.507	0.151	0.074
-319.041	-82.559	-0.219	0.071
-318.026	-200.000	-0.017	0.250
-317.012	-131.847	0.326	0.043
-315.997	-176.638	0.165	0.004
-314.983	-177.046	-0.195	-0.005
-313.968	-126.283	-0.240	0.036
-312.953	800.000	-0.030	-0.126
-311.939	-61.902	0.295	-0.124
-310.924	451.818	-0.104	0.231
-309.910	-200.000	0.017	-0.177
-308.895	19.989	0.228	-0.184
-307.880	-200.000	0.020	0.138
-306.866	-172.996	0.273	0.008
-305.851	-200.000	0.077	-0.347
-304.837	-200.000	-0.027	0.354
-303.822	-90.282	0.310	0.090
-302.807	-63.647	-0.126	-0.052
-301.793	-37.624	0.164	0.088
-300.778	98.205	-0.171	0.197
-299.764	-121.516	-0.158	-0.026
-298.749	576.490	0.071	-0.174
-297.735	282.778	-0.152	0.272
-296.720	-29.541	0.194	0.111
-295.705	-82.853	0.308	-0.100
-294.691	107.404	0.039	-0.046
-293.676	-112.527	0.352	0.070
-292.662	11.073	-0.372	0.284
-291.647	-200.000	0.010	-0.141
-290.632	-200.000	-0.006	-0.036
-289.618	800.000	-0.104	0.325
-288.603	800.000	0.079	0.267
-287.589	-130.313	-0.415	-0.056
-286.574	-0.391	0.155	0.110
-285.559	-200.000	0.007	-0.281
-284.545	80.391	-0.163	0.175
-283.530	-92.819	0.380	-0.106
-282.516	53.186	0.122	-0.117
-281.501	-65.694	0.173	0.069
-280.486	-76.869	-0.299	-0.105
-279.472	800.000	-0.070	-0.305
-278.457	78.437	-0.094	-0.101
-277.443	800.000	-0.086	-0.332
-276.428	-34.375	-0.079	0.043
-275.413	800.000	-0.129	-0.453
-274.399	800.000	-0.048	-0.146
-273.384	-172.494	0.345	0.011
-272.370	-163.459	-0.178	0.008
-271.355	800.000	-0.035	-0.107
-270.340	176.383	0.156	-0.226
-269.326	54.705	0.028	-0.027
-268.311	160.895	0.100	-0.139
-267.297	-62.050	0.100	0.042
-266.282	-200.000	-0.027	0.211
-265.267	9.161	-0.098	-0.074
-264.253	-200.000	0.043	0.301
-263.238	457.124	-0.017	0.037
-262.224	221.886	0.023	-0.036
-261.209	-200.000	-0.035	0.174
-260.195	-200.000	0.034	0.171
-259.180	95.964	0.185	0.211
-258.165	-96.087	0.144	0.038
-257.151	-119.513	-0.055	0.010
-256.136	-55.931	-0.145	0.065
-255.122	-117.426	-0.034	-0.006
-254.107	-33.348	-0.239	-0.132
-253.092	-70.928	0.089	0.034
-252.078	-18.154	-0.162	0.101
-251.063	-159.033	-0.293	0.017
-250.049	-2.937	-0.120	-0.083
-249.034	-124.781	-0.358	0.055
-248.019	800.000	-0.063	0.195
-247.005	-200.000	0.002	-0.036
-245.990	-159.282	0.289	-0.016
-244.976	-200.000	-0.028	-0.225
-243.961	-155.859	-0.226	0.014
-242.946	38.179	-0.301	0.268
-241.932	106.188	-0.161	0.190
-240.917	1.209	-0.210	0.151
-239.903	-79.457	0.134	-0.045
-238.888	-44.333	0.195	-0.097
-237.873	-101.798	0.083	0.020
-236.859	-3.186	-0.156	0.109
-235.844	353.432	0.112	-0.223
-234.830	3.581	0.040	-0.029
-233.815	-51.627	0.139	-0.065
-232.800	-152.820	0.307	-0.022
-231.786	-46.490	-0.159	0.078
-230.771	337.527	0.042	0.081
-229.757	33.584	0.087	-0.075
-228.742	-48.406	-0.204	0.098
-227.727	82.375	0.083	-0.090
-226.713	191.345	-0.116	-0.174
-225.698	99.698	-0.271	-0.314
-224.684	-200.000	-0.020	0.398
-223.669	-20.218	-0.135	0.083
-222.655	-89.354	0.162	-0.048
-221.640	178.162	0.131	-0.191
-220.625	-119.858	-0.486	0.083
-219.611	800.000	0.062	-0.179
-218.596	800.000	-0.119	0.440
-217.582	-136.048	-0.158	0.019
-216.567	84.488	-0.074	-0.080
-215.552	800.000	0.079	-0.316
-214.538	-141.646	0.312	-0.031
-213.523	130.895	-0.101	0.130
-212.509	-76.384	-0.128	0.045
-211.494	70.286	-0.303	0.313
-210.479	742.809	-0.056	-0.150
-209.465	248.201	0.231	-0.390
-208.450	-200.000	-0.024	-0.137
-207.436	78.701	0.235	-0.251
-206.421	97.037	0.292	-0.334
-205.406	50.666	-0.200	-0.189
-204.392	800.000	0.054	0.232
-203.377	6.295	0.016	-0.012
-202.363	-67.147	-0.137	0.054
-201.348	-170.910	-0.213	0.007
-200.333	-82.509	0.012	0.004
-199.319	67.415	-0.130	0.132
-198.304	411.831	-0.027	-0.058
-197.290	37.909	-0.274	0.243
-196.275	-200.000	-0.017	-0.099
-195.260	369.431	-0.148	-0.300
-194.246	-122.955	0.339	-0.054
-193.231	601.272	0.147	-0.365
-192.217	169.029	-0.157	0.223
-191.202	-37.523	-0.423	0.225
-190.187	-49.869	-0.188	-0.089
-189.173	-200.000	-0.011	-0.168
-188.158	-20.419	0.180	-0.110
-187.144	-75.680	0.231	-0.082
-186.129	-200.000	-0.030	-0.263
-185.114	-65.900	-0.125	-0.050
-184.100	800.000	0.046	-0.153
-183.085	58.513	0.030	0.030
-182.071	800.000	0.118	0.398
-181.056	-138.975	0.232	-0.025
-180.042	-200.000	0.037	0.170
-179.027	23.187	-0.442	-0.362
-178.012	-66.805	0.127	0.050
-176.998	-85.358	0.437	0.136
-175.983	28.438	0.112	0.095
-174.969	-44.314	0.459	0.229
-173.954	113.870	0.149	-0.180
-172.939	-47.544	-0.318	-0.154
-171.925	-51.262	-0.238	-0.111
-170.910	25.737	0.255	-0.212
-169.896	-200.000	-0.007	-0.386
-168.881	420.710	-0.065	0.139
-167.866	106.059	0.086	0.101
-166.852	-200.000	-0.006	0.308
-165.837	-45.506	0.253	0.125
-164.823	-99.809	0.333	-0.083
-163.808	-47.847	-0.146	-0.071
-162.793	270.350	0.189	0.331
-161.779	-105.531	0.212	0.048
-160.764	-151.189	-0.264	0.020
-159.750	162.919	0.182	0.254
-158.735	-62.912	0.179	0.074
-157.720	-200.000	-0.019	0.207
-156.706	784.403	0.049	-0.133
-155.691	-149.660	-0.237	-0.019
-154.677	-129.045	0.119	0.017
-153.662	-168.328	-0.114	-0.004
-152.647	11.027	0.158	0.120
-151.633	-200.000	-0.014	0.089
-150.618	-100.418	-0.104	0.026
-149.604	-168.746	0.152	0.006
-148.589	198.056	-0.082	0.125
-147.574	258.070	-0.156	0.267
-146.560	-200.000	-0.005	0.080
-145.545	800.000	-0.067	0.263
-144.531	-87.127	0.213	-0.065
-143.516	106.382	-0.077	-0.091
-142.502	-12.775	0.141	-0.092
-141.487	-117.908	0.330	-0.059
-140.472	-100.103	0.071	-0.018
-139.458	-200.000	-0.005	0.166
-138.443	-200.000	0.370	0.000
-137.429	372.932	-0.086	-0.174
-136.414	57.482	-0.175	-0.170
-135.399	800.000	0.016	0.063
-134.385	103.776	0.109	0.127
-133.370	27.309	0.078	0.065
-132.356	159.025	-0.239	-0.330
-131.341	426.230	-0.035	-0.075
-130.326	222.388	-0.070	0.112
-129.312	-200.000	-0.024	0.199
-128.297	-121.119	0.070	-0.012
-127.283	800.000	0.031	-0.128
-126.268	225.031	0.239	-0.384
-125.253	-200.000	-0.004	-0.223
-124.239	-31.597	-0.265	0.148
-123.224	-85.427	-0.249	-0.077
-122.210	-111.238	-0.298	-0.061
