DTS Sentinel unit serial number:	SN413079Multiplexer serial number:	ORYXHardware model number:	OX4-SRSoftware version number:	ORYX F/W v4.00 Oryx Data Collector v3.7.2.0data status	okinstallation	princeton_trtdifferential loss correction	single-endedforward channel	channel 3reverse channel	N/Adate	2019/09/17time	17:00:35forward acquisition time	60.00reverse acquisition time	0.00gamma	496.2192k internal	0.2291k external	0.2291temperature offset calibration	0.9950default loss term (dB/km)	0.3790temperature slope calibration	1.0000multiplexer offset coefficient	1.0000multiplexer slope coefficient	1.0000fibre end	0.00T internal ref (°C)	42.55T ext. ref 1 (°C)	0.35T ext. ref 2 (°C)	39.04length (m)	temperature (°C)	Stokes	anti-Stokes-747.200	800.000	-0.094	0.304
-746.185	-58.325	-0.127	0.057
-745.171	-113.848	0.150	0.030
-744.156	28.586	-0.303	0.263
-743.142	-109.732	-0.087	-0.019
-742.127	187.740	0.252	0.385
-741.112	-200.000	-0.002	-0.271
-740.098	-200.000	-0.078	0.390
-739.083	396.601	-0.084	0.180
-738.069	800.000	-0.161	0.561
-737.054	180.189	-0.064	0.096
-736.039	203.451	-0.160	-0.253
-735.025	-6.644	-0.160	0.111
-734.010	-105.890	0.249	-0.057
-732.996	-149.485	-0.243	0.020
-731.981	111.042	-0.097	-0.119
-730.966	-59.931	0.399	-0.175
-729.952	-16.663	0.168	0.109
-728.937	-29.480	0.030	0.018
-727.923	182.789	-0.035	0.052
-726.908	-28.067	0.079	-0.047
-725.894	184.354	-0.063	-0.096
-724.879	32.723	0.209	0.185
-723.864	-4.869	-0.199	0.140
-722.850	177.556	-0.089	0.132
-721.835	-22.525	-0.201	-0.124
-720.821	458.895	-0.037	-0.085
-719.806	-134.700	-0.116	-0.014
-718.791	-200.000	-0.008	-0.414
-717.777	-105.717	-0.212	-0.049
-716.762	59.540	0.080	0.081
-715.748	183.398	0.066	-0.099
-714.733	27.023	0.226	0.194
-713.718	-26.791	-0.166	-0.099
-712.704	53.065	0.095	0.093
-711.689	-27.244	0.081	0.048
-710.675	185.905	0.149	-0.227
-709.660	-111.823	-0.089	-0.018
-708.645	800.000	0.128	0.404
-707.631	-200.000	0.046	-0.259
-706.616	-200.000	-0.003	0.152
-705.602	92.858	0.129	-0.149
-704.587	124.569	0.117	-0.150
-703.572	-200.000	-0.050	-0.300
-702.558	79.535	-0.089	-0.098
-701.543	800.000	0.018	0.075
-700.529	445.692	0.097	0.217
-699.514	-200.000	0.025	0.162
-698.499	-161.052	-0.260	0.014
-697.485	-200.000	0.030	0.177
-696.470	-200.000	-0.032	0.210
-695.456	-200.000	-0.016	-0.303
-694.441	-103.238	-0.167	-0.040
-693.426	800.000	-0.098	-0.402
-692.412	2.499	-0.265	-0.196
-691.397	36.345	-0.219	0.198
-690.383	-35.976	-0.212	0.117
-689.368	578.569	0.047	0.118
-688.354	-150.680	-0.354	-0.028
-687.339	-130.729	0.032	-0.004
-686.324	7.915	0.211	0.161
-685.310	547.323	0.066	-0.162
-684.295	-82.854	-0.185	0.061
-683.281	28.398	0.110	-0.095
-682.266	-200.000	-0.061	-0.295
-681.251	-200.000	-0.059	-0.389
-680.237	-11.127	0.095	0.064
-679.222	442.316	0.108	0.243
-678.208	-86.043	-0.118	0.037
-677.193	-33.771	0.278	0.156
-676.178	-104.756	-0.100	-0.024
-675.164	-66.823	-0.313	-0.127
-674.149	-134.742	0.416	-0.052
-673.135	25.743	-0.267	-0.227
-672.120	800.000	-0.014	0.042
-671.105	-86.303	-0.234	0.074
-670.091	112.766	-0.065	-0.080
-669.076	-27.700	-0.037	-0.022
-668.062	-76.494	-0.162	0.058
-667.047	-200.000	0.011	0.083
-666.032	-5.558	-0.283	0.198
-665.018	800.000	-0.046	-0.162
-664.003	14.444	-0.330	0.263
-662.989	-99.842	-0.368	-0.094
-661.974	311.199	0.073	0.140
-660.959	-110.108	-0.128	0.027
-659.945	-83.284	0.091	0.030
-658.930	-61.962	0.128	-0.055
-657.916	332.021	0.062	-0.123
-656.901	14.916	-0.248	-0.198
-655.886	25.812	-0.081	-0.069
-654.872	235.987	-0.186	-0.314
-653.857	22.469	0.130	-0.109
-652.843	-98.058	0.329	-0.087
-651.828	-135.241	-0.232	-0.028
-650.814	-106.944	0.355	-0.080
-649.799	-127.556	-0.197	0.029
-648.784	87.432	-0.339	0.383
-647.770	-200.000	-0.059	0.439
-646.755	-90.087	0.248	-0.074
-645.741	7.213	0.113	-0.086
-644.726	-78.479	-0.247	0.086
-643.711	5.975	0.171	0.129
-642.697	-200.000	-0.042	0.462
-641.682	18.003	-0.134	0.109
-640.668	-26.922	0.262	0.156
-639.653	-200.000	-0.008	-0.179
-638.638	-78.762	0.301	-0.105
-637.624	-117.977	-0.015	0.003
-636.609	-91.193	-0.131	-0.038
-635.595	-200.000	-0.033	-0.466
-634.580	-96.863	-0.276	0.074
-633.565	20.634	-0.163	0.135
-632.551	-85.262	0.113	-0.036
-631.536	-200.000	-0.054	0.274
-630.522	-97.800	-0.062	-0.016
-629.507	53.048	-0.237	0.231
-628.492	-49.352	0.248	-0.121
-627.478	148.794	0.151	0.209
-626.463	241.716	-0.042	-0.071
-625.449	-53.031	0.468	-0.219
-624.434	524.712	0.070	-0.169
-623.419	-200.000	0.024	-0.128
-622.405	800.000	0.121	-0.379
-621.390	800.000	0.091	0.315
-620.376	-141.877	0.187	-0.019
-619.361	-200.000	-0.001	0.042
-618.346	800.000	-0.026	-0.086
-617.332	800.000	-0.041	0.144
-616.317	-200.000	-0.006	-0.091
-615.303	440.549	0.075	0.166
-614.288	221.025	0.093	-0.152
-613.273	-127.820	-0.103	0.015
-612.259	-139.934	0.307	-0.033
-611.244	224.790	-0.226	-0.372
-610.230	311.536	-0.083	0.158
-609.215	-58.144	-0.186	0.083
-608.201	79.591	-0.092	0.101
-607.186	53.339	0.071	0.069
-606.171	-200.000	0.032	0.173
-605.157	244.033	0.184	-0.315
-604.142	-107.186	-0.341	0.077
-603.128	-44.109	0.228	-0.116
-602.113	-59.097	-0.367	-0.161
-601.098	-23.835	0.286	-0.175
-600.084	47.707	0.363	-0.345
-599.069	800.000	0.120	-0.409
-598.055	800.000	0.041	-0.151
-597.040	-89.761	-0.215	-0.064
-596.025	-139.204	0.042	-0.005
-595.011	-97.798	-0.113	0.030
-593.996	-114.202	0.055	0.011
-592.982	52.426	-0.175	-0.170
-591.967	162.079	-0.048	0.068
-590.952	-200.000	-0.010	0.186
-589.938	8.355	-0.073	0.056
-588.923	-200.000	-0.022	-0.295
-587.909	83.249	-0.316	-0.350
-586.894	-194.880	-0.283	0.002
-585.879	-69.693	-0.157	0.061
-584.865	-91.497	0.276	-0.080
-583.850	800.000	-0.120	-0.471
-582.836	9.540	0.057	-0.044
-581.821	-102.749	-0.139	0.034
-580.806	-106.787	-0.305	0.069
-579.792	-200.000	-0.078	0.569
-578.777	-200.000	-0.001	-0.101
-577.763	798.217	0.063	0.177
-576.748	-200.000	-0.023	0.195
-575.733	28.547	-0.168	0.145
-574.719	800.000	-0.027	-0.121
-573.704	-200.000	0.040	-0.303
-572.690	-124.727	0.103	-0.016
-571.675	573.961	0.047	-0.117
-570.661	-32.778	-0.361	-0.204
-569.646	800.000	0.125	0.366
-568.631	-3.474	-0.113	0.080
-567.617	-137.959	0.151	-0.017
-566.602	-26.909	-0.289	0.172
-565.588	121.989	-0.145	0.184
-564.573	21.205	0.121	0.100
-563.558	-123.367	0.093	-0.015
-562.544	-200.000	0.015	-0.198
-561.529	-200.000	-0.022	-0.159
-560.515	2.798	-0.111	-0.082
-559.500	-92.349	-0.153	0.044
-558.485	2.096	0.085	-0.062
-557.471	-75.662	-0.264	0.095
-556.456	-200.000	0.033	0.156
-555.442	-140.911	-0.036	0.004
-554.427	125.366	-0.162	-0.208
-553.412	-176.876	-0.268	-0.007
-552.398	-200.000	-0.010	0.287
-551.383	-200.000	-0.006	-0.063
-550.369	129.855	-0.223	0.290
-549.354	13.078	-0.100	-0.078
-548.339	-130.626	-0.207	-0.028
-547.325	-200.000	0.004	-0.390
-546.310	-30.821	-0.425	-0.244
-545.296	250.239	0.120	-0.208
-544.281	180.912	-0.139	0.208
-543.266	304.475	-0.177	-0.333
-542.252	23.259	0.103	0.086
-541.237	-77.728	-0.267	-0.094
-540.223	-124.613	0.269	-0.042
-539.208	174.304	0.046	-0.068
-538.193	-200.000	-0.025	0.137
-537.179	-57.357	0.091	-0.040
-536.164	-1.031	-0.197	-0.142
-535.150	34.188	-0.244	-0.216
-534.135	316.057	-0.077	-0.148
-533.121	60.399	0.007	-0.007
-532.106	800.000	0.034	-0.151
-531.091	40.847	0.060	0.055
-530.077	-100.479	-0.011	0.003
-529.062	-137.142	0.369	-0.043
-528.048	-47.663	0.064	-0.032
-527.033	34.806	-0.145	-0.129
-526.018	61.521	0.247	0.250
-525.004	14.797	-0.287	-0.228
-523.989	17.358	-0.124	-0.100
-522.975	-137.882	0.269	0.030
-521.960	-200.000	0.048	0.293
-520.945	-153.729	0.171	0.012
-519.931	321.732	-0.059	0.114
-518.916	800.000	-0.058	0.218
-517.902	-86.511	-0.103	-0.032
-516.887	-109.051	0.135	-0.029
-515.872	272.867	0.047	-0.084
-514.858	-38.456	0.130	-0.070
-513.843	800.000	0.085	0.265
-512.829	147.177	0.087	0.119
-511.814	-28.199	0.217	-0.127
-510.799	22.863	-0.295	0.246
-509.785	800.000	-0.029	-0.118
-508.770	-129.194	-0.324	-0.046
-507.756	-143.284	-0.049	0.005
-506.741	271.490	0.165	-0.294
-505.726	87.991	0.287	-0.323
-504.712	230.775	0.065	0.109
-503.697	800.000	0.022	-0.068
-502.683	800.000	0.013	-0.040
-501.668	-152.058	0.163	0.012
-500.653	12.804	-0.161	0.126
-499.639	269.563	-0.023	-0.041
-498.624	800.000	0.104	0.397
-497.610	-141.421	0.230	-0.024
-496.595	301.709	0.036	0.068
-495.581	800.000	-0.071	0.202
-494.566	-200.000	0.000	0.141
-493.551	50.290	-0.062	0.060
-492.537	323.775	0.136	0.264
-491.522	-55.628	0.158	-0.072
-490.508	-66.069	-0.068	-0.028
-489.493	-200.000	0.044	-0.204
-488.478	-74.905	0.317	0.115
-487.464	38.827	-0.117	-0.106
-486.449	-141.695	-0.322	-0.033
-485.435	-161.007	-0.393	-0.021
-484.420	-200.000	-0.040	-0.182
-483.405	-85.915	-0.135	-0.042
-482.391	-167.402	0.308	-0.013
-481.376	-64.501	-0.181	0.075
-480.362	-93.564	0.397	-0.111
-479.347	-45.754	0.053	0.027
-478.332	-147.042	-0.307	0.027
-477.318	35.011	0.363	0.322
-476.303	-31.300	0.200	-0.114
-475.289	-2.721	-0.218	0.155
-474.274	-17.533	0.067	-0.043
-473.259	-88.603	0.406	0.122
-472.245	-31.683	0.090	-0.051
-471.230	123.860	-0.288	-0.366
-470.216	9.608	-0.160	0.123
-469.201	104.536	0.074	0.089
-468.186	224.850	-0.039	-0.063
-467.172	-97.174	0.354	0.094
-466.157	-78.943	-0.338	-0.117
-465.143	199.526	-0.138	0.214
-464.128	-15.927	-0.195	-0.126
-463.113	461.314	0.121	-0.273
-462.099	465.336	-0.098	-0.222
-461.084	-22.474	-0.167	-0.102
-460.070	101.453	0.126	0.148
-459.055	-107.404	-0.224	0.050
-458.040	-127.149	-0.616	-0.091
-457.026	-124.068	-0.278	-0.044
-456.011	166.023	0.143	0.205
-454.997	-86.937	0.114	-0.035
-453.982	-6.103	-0.131	-0.090
-452.968	800.000	0.048	0.133
-451.953	-62.627	0.218	0.092
-450.938	-113.443	-0.163	-0.032
-449.924	618.829	-0.097	0.246
-448.909	116.747	-0.082	0.102
-447.895	115.902	0.065	0.080
-446.880	-59.406	0.102	-0.045
-445.865	800.000	0.063	-0.200
-444.851	800.000	0.030	-0.124
-443.836	529.650	0.010	0.024
-442.822	-3.772	-0.115	-0.081
-441.807	-60.383	-0.128	-0.055
-440.792	221.375	0.068	0.111
-439.778	-200.000	-0.298	0.001
-438.763	-200.000	0.041	-0.276
-437.749	-58.426	0.060	0.026
-436.734	-42.310	-0.140	0.072
-435.719	603.869	0.075	-0.190
-434.705	70.749	0.018	0.019
-433.690	106.505	0.161	-0.193
-432.676	-81.556	0.278	-0.092
-431.661	-20.016	0.139	0.087
-430.646	-200.000	-0.073	-0.383
-429.632	-155.455	-0.409	-0.027
-428.617	64.371	0.304	-0.310
-427.603	-200.000	0.050	0.273
-426.588	-151.952	-0.193	-0.014
-425.573	-116.168	-0.141	0.026
-424.559	800.000	-0.089	-0.273
-423.544	-200.000	-0.013	0.209
-422.530	-200.000	-0.004	0.089
-421.515	-43.481	-0.209	-0.107
-420.500	104.654	-0.106	-0.126
-419.486	-128.461	0.363	0.052
-418.471	-80.228	0.006	-0.002
-417.457	-117.948	0.217	0.039
-416.442	102.508	-0.117	0.138
-415.428	559.731	0.110	0.268
-414.413	-200.000	-0.015	-0.132
-413.398	90.480	-0.093	-0.105
-412.384	92.468	0.204	0.233
-411.369	-200.000	0.079	-0.382
-410.355	53.615	-0.191	0.185
-409.340	144.991	-0.164	-0.222
-408.325	-200.000	0.006	-0.347
-407.311	-104.803	0.256	0.059
-406.296	253.222	0.283	-0.488
-405.282	-200.000	0.030	-0.295
-404.267	37.866	-0.087	-0.078
-403.252	-200.000	0.011	0.055
-402.238	-200.000	-0.058	0.427
-401.223	641.447	-0.082	0.211
-400.209	381.628	-0.055	0.114
-399.194	-19.458	-0.162	-0.102
-398.179	776.022	-0.070	-0.193
-397.165	-128.473	-0.367	-0.053
-396.150	272.606	0.272	0.485
-395.136	50.527	0.182	-0.174
-394.121	-171.258	-0.183	-0.006
-393.106	215.370	0.148	0.237
-392.092	103.825	-0.031	0.036
-391.077	95.593	0.092	-0.106
-390.063	-185.530	0.290	0.004
-389.048	47.820	0.145	0.136
-388.033	-115.920	0.264	-0.050
-387.019	-167.514	-0.149	0.006
-386.004	228.586	-0.043	0.070
-384.990	278.545	-0.036	-0.064
-383.975	-5.866	-0.190	0.131
-382.960	183.006	0.265	0.395
-381.946	171.938	-0.087	0.127
-380.931	-200.000	-0.007	0.079
-379.917	165.574	-0.174	0.248
-378.902	9.083	0.149	0.114
-377.888	248.867	-0.039	0.067
-376.873	136.626	-0.178	0.235
-375.858	-174.230	-0.207	0.006
-374.844	628.517	-0.038	-0.096
-373.829	-93.782	0.211	-0.059
-372.815	69.864	-0.134	0.139
-371.800	228.158	0.070	-0.115
-370.785	417.366	-0.127	-0.273
-369.771	171.914	-0.090	-0.131
-368.756	-154.505	-0.544	0.037
-367.742	-200.000	-0.020	0.120
-366.727	-200.000	-0.014	-0.228
-365.712	-42.462	-0.125	0.064
-364.698	-199.571	-0.268	-0.001
-363.683	-168.933	-0.286	0.011
-362.669	3.891	0.073	0.054
-361.654	-115.179	0.131	-0.025
-360.639	-123.021	-0.293	-0.048
-359.625	-121.538	-0.160	-0.027
-358.610	-200.000	-0.012	0.092
-357.596	-123.613	0.371	0.059
-356.581	-82.469	-0.110	0.036
-355.566	159.815	-0.134	0.188
-354.552	-200.000	-0.056	-0.293
-353.537	-200.000	0.022	-0.107
-352.523	-57.679	0.313	-0.138
-351.508	38.291	-0.098	0.088
-350.493	-200.000	0.004	0.109
-349.479	53.863	-0.122	0.118
-348.464	-38.186	0.121	-0.065
-347.450	-42.917	0.322	0.165
-346.435	117.988	0.017	0.022
-345.420	-51.781	-0.340	0.160
-344.406	-75.336	-0.196	0.071
-343.391	-103.927	-0.231	0.054
-342.377	-32.254	0.309	0.174
-341.362	-105.735	-0.174	-0.040
-340.348	-9.680	-0.115	-0.077
-339.333	-53.373	0.456	0.211
-338.318	-200.000	0.023	-0.304
-337.304	-186.741	0.252	0.004
-336.289	-200.000	-0.022	0.202
-335.275	30.209	0.061	0.052
-334.260	800.000	0.018	0.062
-333.245	-57.184	0.214	0.095
-332.231	53.254	-0.143	0.138
-331.216	600.018	-0.057	0.143
-330.202	88.297	0.126	0.140
-329.187	-35.091	-0.235	0.129
-328.172	91.151	0.176	-0.199
-327.158	182.274	0.098	0.146
-326.143	7.005	0.121	-0.091
-325.129	-200.000	-0.009	0.145
-324.114	-115.347	-0.166	0.032
-323.099	163.264	0.180	0.254
-322.085	693.701	-0.030	-0.080
-321.070	-1.900	0.193	0.137
-320.056	-183.766	-0.230	0.004
-319.041	54.972	-0.432	-0.420
-318.026	-200.000	0.042	0.267
-317.012	-25.133	-0.172	-0.103
-315.997	-7.959	0.190	0.129
-314.983	-6.932	-0.296	0.203
-313.968	-200.000	0.016	-0.217
-312.953	66.498	-0.159	-0.163
-311.939	353.089	-0.121	0.241
-310.924	68.260	-0.054	0.056
-309.910	-64.228	-0.267	0.109
-308.895	800.000	0.062	-0.267
-307.880	800.000	-0.038	0.164
-306.866	-110.394	0.233	-0.049
-305.851	26.177	-0.088	0.074
-304.837	-19.161	-0.081	-0.051
-303.822	-143.600	0.377	-0.036
-302.807	-104.766	0.117	-0.027
-301.793	42.319	0.059	-0.054
-300.778	-7.800	-0.243	0.165
-299.764	-121.781	-0.185	0.031
-298.749	25.651	0.138	-0.116
-297.735	18.353	-0.240	0.193
-296.720	-200.000	-0.020	0.333
-295.705	-61.824	-0.236	0.099
-294.691	-200.000	-0.053	-0.432
-293.676	-150.495	0.384	0.030
-292.662	756.001	-0.066	-0.180
-291.647	-58.351	-0.186	-0.082
-290.632	800.000	-0.075	-0.316
-289.618	-200.000	0.029	-0.182
-288.603	-200.000	0.010	0.072
-287.589	8.070	-0.151	0.114
-286.574	-93.546	0.137	0.038
-285.559	-36.130	-0.155	-0.084
-284.545	101.103	0.117	0.137
-283.530	-70.482	0.163	-0.062
-282.516	-67.008	-0.041	0.016
-281.501	456.201	0.137	-0.306
-280.486	-200.000	-0.013	0.321
-279.472	-200.000	-0.052	-0.244
-278.457	-33.969	0.120	-0.067
-277.443	-125.746	0.299	0.045
-276.428	-200.000	-0.004	0.046
-275.413	55.191	0.114	0.111
-274.399	-92.562	0.486	0.137
-273.384	19.179	-0.143	0.115
-272.370	-200.000	0.036	-0.205
-271.355	29.464	-0.134	-0.115
-270.340	-67.009	-0.354	-0.141
-269.326	-83.053	0.069	0.022
-268.311	800.000	0.025	0.078
-267.297	-115.688	0.193	-0.036
-266.282	-200.000	0.008	0.109
-265.267	477.520	0.107	0.244
-264.253	196.519	-0.113	0.173
-263.238	-122.488	0.374	-0.061
-262.224	231.921	0.146	-0.241
-261.209	317.143	-0.203	-0.385
-260.195	-160.296	0.052	-0.003
-259.180	417.375	0.104	0.223
-258.165	-46.257	-0.136	-0.067
-257.151	-140.783	0.439	-0.045
-256.136	-80.341	0.243	-0.082
-255.122	-132.972	0.439	0.056
-254.107	-8.520	0.283	-0.191
-253.092	250.332	0.073	0.125
-252.078	-35.409	-0.156	0.085
-251.063	-94.319	-0.054	0.015
-250.049	262.112	0.064	-0.112
-249.034	-200.000	-0.003	0.126
-248.019	-105.577	0.346	0.079
-247.005	73.711	-0.104	-0.109
-245.990	-91.621	0.191	0.055
-244.976	-200.000	0.290	-0.001
-243.961	800.000	-0.067	-0.191
-242.946	108.061	-0.141	0.169
-241.932	300.030	0.108	0.201
-240.917	-65.866	0.221	0.089
-239.903	-20.205	-0.281	-0.174
-238.888	-44.511	0.127	-0.064
-237.873	-12.123	-0.207	-0.136
-236.859	-200.000	0.034	0.241
-235.844	-90.821	0.119	-0.035
-234.830	8.528	-0.229	0.173
-233.815	183.750	0.155	-0.230
-232.800	-76.996	0.153	-0.054
-231.786	-14.655	0.118	0.076
-230.771	-68.800	-0.204	0.079
-229.757	-31.110	0.128	-0.072
-228.742	40.631	0.057	0.051
-227.727	92.750	0.156	-0.177
-226.713	-200.000	-0.012	0.213
-225.698	-155.533	0.117	0.008
-224.684	-176.305	-0.354	-0.009
-223.669	417.717	0.060	0.129
-222.655	183.637	0.214	0.317
-221.640	-200.000	0.040	-0.196
-220.625	-200.000	0.052	-0.285
-219.611	-200.000	-0.018	0.225
-218.596	800.000	0.029	0.123
-217.582	98.652	0.051	0.059
-216.567	-200.000	0.019	0.126
-215.552	347.616	0.067	-0.132
-214.538	-2.623	0.100	0.070
-213.523	-200.000	0.040	0.519
-212.509	159.487	-0.122	-0.170
-211.494	29.829	0.039	-0.033
-210.479	406.390	-0.111	0.236
-209.465	-200.000	-0.024	0.315
-208.450	-109.763	0.387	0.082
-207.436	-20.140	-0.108	-0.067
-206.421	2.948	0.346	0.252
-205.406	-200.000	0.006	0.158
-204.392	-42.352	0.227	0.116
-203.377	17.125	-0.321	0.255
-202.363	-37.596	-0.054	-0.029
-201.348	-43.675	-0.199	0.100
-200.333	-148.982	-0.477	-0.038
-199.319	-137.108	0.146	-0.017
-198.304	115.290	0.242	0.296
-197.290	13.775	0.083	0.065
-196.275	46.173	0.147	-0.136
-195.260	195.577	0.050	-0.076
-194.246	-200.000	-0.019	0.138
-193.231	-144.629	-0.048	0.004
-192.217	-38.502	-0.170	0.090
-191.202	-5.690	0.215	0.147
-190.187	32.595	0.263	0.228
-189.173	-52.505	0.092	-0.042
-188.158	-200.000	-0.044	-0.246
-187.144	-200.000	-0.017	0.118
-186.129	190.837	0.093	-0.140
-185.114	14.164	0.014	-0.011
-184.100	402.641	0.208	0.438
-183.085	-200.000	0.026	0.315
-182.071	-200.000	-0.003	-0.401
-181.056	153.168	-0.099	-0.136
-180.042	12.214	0.067	-0.051
-179.027	-109.574	0.167	-0.035
-178.012	114.623	0.178	-0.218
-176.998	255.978	0.015	-0.025
-175.983	338.403	0.182	-0.354
-174.969	39.562	0.157	-0.141
-173.954	800.000	0.045	-0.131
-172.939	74.151	0.132	0.139
-171.925	39.632	-0.153	0.137
-170.910	-31.486	0.425	0.239
-169.896	-73.368	-0.093	-0.034
-168.881	-4.885	-0.197	-0.136
-167.866	-179.827	-0.211	0.005
-166.852	68.305	-0.285	0.293
-165.837	-200.000	-0.018	-0.246
-164.823	-200.000	0.014	-0.175
-163.808	713.094	-0.096	-0.253
-162.793	-157.881	-0.138	-0.008
-161.779	38.065	0.230	-0.205
-160.764	565.689	-0.083	-0.201
-159.750	538.228	0.165	-0.393
-158.735	96.168	0.230	-0.263
-157.720	800.000	-0.061	0.233
-156.706	-69.899	0.239	-0.091
-155.691	22.027	0.030	-0.024
-154.677	800.000	-0.123	-0.422
-153.662	29.785	-0.306	0.261
-152.647	800.000	-0.074	-0.253
-151.633	-107.487	0.121	-0.027
-150.618	-92.581	-0.117	0.033
-149.604	76.953	-0.071	0.075
-148.589	-100.847	0.440	-0.108
-147.574	-122.333	0.172	0.028
-146.560	-155.571	-0.327	-0.021
-145.545	800.000	-0.094	-0.306
-144.531	-71.709	0.104	0.039
-143.516	800.000	-0.071	0.243
-142.502	390.131	-0.148	0.306
-141.487	-74.203	0.091	0.033
-140.472	163.806	0.129	-0.182
-139.458	-16.451	0.046	-0.029
-138.443	161.707	0.111	0.156
-137.429	51.716	0.178	0.169
-136.414	-200.000	-0.016	0.152
-135.399	631.685	-0.068	0.172
-134.385	-200.000	-0.020	0.291
-133.370	-99.037	0.309	-0.078
-132.356	185.278	-0.037	-0.055
-131.341	-39.110	0.213	-0.112
-130.326	11.351	-0.337	0.258
-129.312	72.057	-0.120	0.125
-128.297	-99.860	0.345	0.086
-127.283	-200.000	-0.007	0.055
-126.268	388.147	-0.100	0.206
-125.253	-103.971	0.342	-0.080
-124.239	-43.120	0.122	0.062
-123.224	-101.490	-0.099	-0.024
-122.210	-200.000	0.029	-0.315
-121.195	142.142	0.074	-0.099
