DTS Sentinel unit serial number:	SN413079Multiplexer serial number:	ORYXHardware model number:	OX4-SRSoftware version number:	ORYX F/W v4.00 Oryx Data Collector v3.7.2.0data status	okinstallation	princeton_trtdifferential loss correction	single-endedforward channel	channel 3reverse channel	N/Adate	2019/09/16time	18:44:35forward acquisition time	60.00reverse acquisition time	0.00gamma	496.2192k internal	0.2307k external	0.2307temperature offset calibration	0.9935default loss term (dB/km)	0.3790temperature slope calibration	1.0000multiplexer offset coefficient	1.0000multiplexer slope coefficient	1.0000fibre end	0.00T internal ref (°C)	36.12T ext. ref 1 (°C)	0.06T ext. ref 2 (°C)	29.48length (m)	temperature (°C)	Stokes	anti-Stokes-747.200	26.113	0.061	0.052
-746.185	-92.123	0.490	-0.141
-745.171	800.000	-0.090	-0.343
-744.156	230.327	-0.258	0.428
-743.142	33.927	0.135	0.119
-742.127	40.760	0.168	0.154
-741.112	186.289	0.106	0.160
-740.098	63.166	0.125	0.128
-739.083	-82.938	-0.014	0.005
-738.069	-200.000	-0.013	0.759
-737.054	-54.867	-0.038	0.017
-736.039	-38.683	0.210	0.113
-735.025	-200.000	0.017	0.245
-734.010	35.223	-0.236	-0.210
-732.996	-4.193	0.147	-0.104
-731.981	-100.115	0.103	0.026
-730.966	-37.598	0.080	-0.043
-729.952	-200.000	0.009	0.109
-728.937	-45.363	-0.161	-0.081
-727.923	481.011	0.052	-0.120
-726.908	-105.303	-0.209	-0.048
-725.894	-119.159	0.310	-0.055
-724.879	-2.306	-0.074	-0.052
-723.864	-170.693	0.216	-0.008
-722.850	-99.708	-0.143	0.036
-721.835	-200.000	-0.049	-0.389
-720.821	-97.209	0.085	-0.023
-719.806	800.000	0.074	-0.302
-718.791	-55.870	-0.219	0.099
-717.777	-200.000	-0.076	-0.339
-716.762	359.257	0.066	0.134
-715.748	800.000	0.038	0.117
-714.733	258.986	0.033	-0.058
-713.718	339.300	-0.188	-0.373
-712.704	-98.243	-0.417	-0.109
-711.689	214.499	0.152	-0.245
-710.675	32.000	0.060	0.052
-709.660	-200.000	-0.011	0.131
-708.645	799.738	-0.039	0.108
-707.631	-62.396	-0.126	-0.053
-706.616	66.777	-0.078	-0.080
-705.602	800.000	0.010	-0.030
-704.587	79.588	0.097	0.106
-703.572	-54.242	0.073	0.034
-702.558	216.878	-0.149	0.241
-701.543	85.497	0.143	0.159
-700.529	178.628	0.025	0.038
-699.514	362.883	-0.075	0.152
-698.499	-118.326	-0.190	0.034
-697.485	-76.116	0.189	0.068
-696.470	-60.432	0.143	-0.062
-695.456	-200.000	0.002	-0.121
-694.441	104.071	0.181	-0.216
-693.426	-200.000	-0.013	-0.153
-692.412	-92.201	-0.134	0.038
-691.397	-41.201	-0.149	0.078
-690.383	-53.009	-0.134	-0.062
-689.368	-53.488	-0.349	-0.162
-688.354	167.665	-0.096	0.139
-687.339	-200.000	0.022	-0.266
-686.324	800.000	-0.123	-0.484
-685.310	6.136	-0.218	-0.164
-684.295	770.040	0.023	0.063
-683.281	24.388	-0.135	-0.113
-682.266	-28.893	0.201	0.117
-681.251	-151.953	-0.282	-0.021
-680.237	-197.945	-0.110	-0.001
-679.222	56.988	0.249	0.246
-678.208	56.903	-0.144	-0.142
-677.193	-200.000	0.023	0.303
-676.178	-46.237	-0.200	-0.100
-675.164	-61.179	-0.379	-0.162
-674.149	-112.709	-0.175	-0.035
-673.135	-200.000	0.133	0.000
-672.120	46.431	0.175	-0.165
-671.105	-200.000	0.049	-0.255
-670.091	-90.176	-0.314	0.093
-669.076	-41.923	-0.164	0.085
-668.062	83.746	0.148	-0.163
-667.047	-116.468	-0.293	-0.055
-666.032	296.902	-0.106	-0.198
-665.018	515.586	-0.125	-0.297
-664.003	23.156	0.121	-0.101
-662.989	-142.798	0.149	-0.015
-661.974	44.536	0.258	-0.240
-660.959	-192.285	0.354	0.003
-659.945	-125.820	-0.208	0.032
-658.930	16.752	0.115	0.092
-657.916	305.082	-0.132	-0.248
-656.901	-141.514	0.154	-0.016
-655.886	-94.240	-0.248	0.069
-654.872	-200.000	0.045	-0.268
-653.857	-111.829	0.388	-0.079
-652.843	-200.000	-0.009	0.176
-651.828	195.784	0.202	0.312
-650.814	-74.898	0.146	0.053
-649.799	-132.952	0.327	0.042
-648.784	-101.481	0.255	-0.063
-647.770	117.495	0.142	-0.177
-646.755	167.351	-0.209	0.301
-645.741	800.000	-0.045	0.144
-644.726	-71.813	-0.053	0.020
-643.711	-200.000	-0.029	0.174
-642.697	-200.000	0.015	-0.199
-641.682	-125.789	0.116	-0.018
-640.668	5.814	-0.183	-0.137
-639.653	-200.000	0.012	-0.301
-638.638	273.615	-0.082	0.147
-637.624	-91.598	0.153	0.044
-636.609	17.507	-0.200	-0.161
-635.595	-65.124	-0.281	-0.115
-634.580	2.855	0.133	-0.097
-633.565	42.554	0.136	-0.126
-632.551	-117.885	-0.131	0.024
-631.536	571.818	-0.116	0.287
-630.522	32.421	-0.222	-0.194
-629.507	236.738	0.078	0.131
-628.492	3.804	-0.157	0.116
-627.478	800.000	-0.050	0.211
-626.463	-200.000	0.002	-0.065
-625.449	-126.140	-0.297	0.045
-624.434	326.061	0.010	-0.020
-623.419	800.000	-0.097	-0.425
-622.405	-47.446	-0.158	0.078
-621.390	405.340	0.086	0.184
-620.376	-80.579	0.041	-0.014
-619.361	-42.302	-0.320	-0.165
-618.346	-106.620	-0.182	-0.041
-617.332	105.760	-0.156	-0.187
-616.317	609.466	-0.044	0.111
-615.303	507.450	0.045	-0.105
-614.288	-54.441	0.176	0.081
-613.273	-109.462	0.282	-0.060
-612.259	-200.000	-0.012	-0.167
-611.244	-89.460	0.209	-0.062
-610.230	-51.321	-0.046	-0.022
-609.215	-39.132	-0.079	-0.042
-608.201	30.839	0.085	0.073
-607.186	87.127	-0.153	0.171
-606.171	800.000	-0.020	-0.061
-605.157	-68.169	0.190	-0.075
-604.142	-200.000	-0.024	0.118
-603.128	595.835	0.054	0.135
-602.113	730.283	0.089	-0.241
-601.098	-200.000	-0.055	0.289
-600.084	78.259	0.183	-0.198
-599.069	78.914	-0.201	-0.218
-598.055	31.584	-0.237	0.206
-597.040	-200.000	-0.079	0.398
-596.025	-103.599	0.232	0.055
-595.011	-101.971	-0.099	-0.024
-593.996	243.085	-0.174	-0.294
-592.982	-130.748	0.227	0.031
-591.967	-153.645	-0.290	-0.020
-590.952	395.814	0.065	0.136
-589.938	-200.000	-0.015	0.169
-588.923	-154.695	0.357	0.024
-587.909	-117.250	0.338	-0.062
-586.894	-200.000	-0.032	-0.410
-585.879	437.374	-0.138	-0.304
-584.865	241.270	0.156	-0.264
-583.850	-18.916	0.388	0.244
-582.836	-22.071	0.235	0.144
-581.821	102.553	-0.146	-0.173
-580.806	200.365	-0.207	-0.321
-579.792	-69.534	0.166	-0.064
-578.777	13.881	0.204	-0.160
-577.763	278.809	0.041	0.073
-576.748	-131.948	0.205	-0.027
-575.733	49.305	0.113	-0.107
-574.719	-56.146	0.296	0.133
-573.704	210.024	0.050	-0.080
-572.690	-200.000	-0.035	0.323
-571.675	322.815	-0.054	-0.104
-570.661	85.122	0.115	-0.127
-569.646	-4.775	-0.342	0.238
-568.631	-200.000	-0.005	-0.244
-567.617	-67.012	0.273	0.109
-566.602	-185.236	-0.109	-0.002
-565.588	-25.157	0.213	-0.127
-564.573	-200.000	-0.030	-0.169
-563.558	800.000	0.038	0.124
-562.544	-122.500	-0.256	0.042
-561.529	-39.513	-0.063	-0.033
-560.515	349.053	-0.090	-0.179
-559.500	115.940	0.278	-0.344
-558.485	91.380	-0.223	-0.253
-557.471	486.251	-0.066	-0.152
-556.456	-120.608	0.327	-0.056
-555.442	-44.840	0.107	0.054
-554.427	-200.000	0.001	0.338
-553.412	28.271	0.107	0.091
-552.398	98.321	-0.071	-0.082
-551.383	800.000	-0.128	-0.519
-550.369	-159.615	-0.123	0.007
-549.354	-200.000	0.054	-0.334
-548.339	-44.185	0.084	-0.042
-547.325	190.026	-0.081	-0.123
-546.310	59.856	0.213	0.212
-545.296	423.326	-0.055	-0.120
-544.281	191.088	0.174	0.265
-543.266	-107.357	-0.177	0.039
-542.252	-200.000	-0.070	0.419
-541.237	-38.336	0.274	-0.146
-540.223	-200.000	0.036	-0.239
-539.208	-35.368	0.213	-0.117
-538.193	185.506	0.213	0.319
-537.179	11.639	-0.115	-0.089
-536.164	317.499	0.151	-0.289
-535.150	202.641	-0.169	0.263
-534.135	-14.205	-0.026	0.017
-533.121	-200.000	-0.045	-0.223
-532.106	-10.797	-0.244	-0.162
-531.091	81.484	0.146	0.159
-530.077	120.465	0.131	0.164
-529.062	-126.204	-0.171	-0.026
-528.048	348.088	-0.160	-0.319
-527.033	-40.733	0.176	-0.092
-526.018	59.971	0.236	-0.235
-525.004	-200.000	0.027	0.332
-523.989	-16.809	-0.440	0.281
-522.975	72.009	-0.165	-0.173
-521.960	705.246	-0.090	-0.241
-520.945	-200.000	0.024	0.180
-519.931	800.000	-0.077	-0.284
-518.916	251.672	0.199	0.341
-517.902	385.203	0.100	0.207
-516.887	-88.594	-0.307	0.092
-515.872	-14.706	0.165	0.107
-514.858	-200.000	-0.011	0.095
-513.843	344.855	0.165	0.326
-512.829	-152.998	-0.079	0.006
-511.814	604.877	0.044	0.110
-510.799	-62.449	0.044	0.019
-509.785	800.000	0.094	0.379
-508.770	-14.020	-0.236	-0.153
-507.756	480.550	-0.160	-0.365
-506.741	-200.000	0.027	0.229
-505.726	62.045	-0.084	0.085
-504.712	-174.646	-0.208	-0.006
-503.697	-82.637	0.200	-0.065
-502.683	192.269	-0.089	0.134
-501.668	-200.000	-0.000	-0.176
-500.653	274.437	0.062	-0.110
-499.639	-200.000	-0.013	0.135
-498.624	684.285	0.105	0.277
-497.610	-200.000	0.029	-0.187
-496.595	40.945	-0.208	0.189
-495.581	-200.000	0.032	-0.255
-494.566	-200.000	0.019	-0.103
-493.551	-200.000	-0.006	0.098
-492.537	-23.530	-0.021	0.013
-491.522	49.870	-0.244	0.232
-490.508	37.315	0.253	-0.226
-489.493	-147.949	0.058	0.005
-488.478	-200.000	-0.015	0.075
-487.464	-23.574	-0.257	0.156
-486.449	-54.831	0.120	-0.055
-485.435	216.954	0.164	0.263
-484.420	-70.694	-0.096	0.036
-483.405	265.647	-0.115	0.202
-482.391	238.542	0.113	-0.189
-481.376	-200.000	0.018	0.160
-480.362	-200.000	0.034	0.256
-479.347	228.027	-0.093	-0.153
-478.332	-200.000	-0.029	-0.151
-477.318	-9.329	-0.148	-0.099
-476.303	21.239	-0.115	0.094
-475.289	-115.640	0.249	-0.047
-474.274	230.333	0.143	-0.235
-473.259	-67.947	-0.348	-0.137
-472.245	-115.317	-0.117	-0.022
-471.230	235.467	-0.094	0.156
-470.216	213.471	-0.108	0.171
-469.201	331.587	0.110	-0.213
-468.186	-50.926	-0.232	0.110
-467.172	-200.000	-0.042	0.190
-466.157	-200.000	-0.004	0.255
-465.143	17.539	0.111	0.089
-464.128	800.000	-0.096	-0.336
-463.113	74.261	-0.017	0.018
-462.099	152.328	-0.053	0.073
-461.084	-101.040	0.248	-0.061
-460.070	-171.490	-0.395	-0.013
-459.055	-155.331	0.142	-0.009
-458.040	800.000	0.009	0.032
-457.026	163.616	-0.128	0.181
-456.011	-200.000	0.026	0.127
-454.997	-200.000	0.032	-0.198
-453.982	800.000	-0.060	-0.209
-452.968	-20.627	0.035	0.022
-451.953	-9.298	0.173	0.116
-450.938	51.301	-0.105	0.101
-449.924	-144.041	-0.099	0.009
-448.909	-200.000	0.010	-0.123
-447.895	-54.352	-0.039	0.018
-446.880	-90.768	-0.140	0.041
-445.865	-200.000	-0.004	0.050
-444.851	529.164	-0.109	-0.259
-443.836	71.860	0.098	0.102
-442.822	-141.534	-0.252	0.026
-441.807	-200.000	-0.004	0.025
-440.792	-115.680	-0.060	0.011
-439.778	114.851	-0.117	0.143
-438.763	185.217	0.082	0.123
-437.749	-200.000	-0.010	-0.115
-436.734	9.390	0.191	0.145
-435.719	-42.861	-0.180	0.092
-434.705	152.900	0.196	0.269
-433.690	800.000	-0.095	-0.310
-432.676	-76.851	0.122	-0.043
-431.661	-200.000	-0.026	-0.186
-430.646	-124.345	-0.150	0.024
-429.632	173.512	0.143	0.208
-428.617	800.000	0.096	-0.332
-427.603	-200.000	0.042	-0.255
-426.588	-65.694	0.304	0.122
-425.573	104.905	0.228	-0.270
-424.559	94.388	-0.159	-0.181
-423.544	-45.410	-0.317	0.158
-422.530	796.994	-0.042	-0.117
-421.515	-117.054	0.302	-0.055
-420.500	-200.000	0.019	-0.227
-419.486	-102.869	-0.152	-0.036
-418.471	-55.813	-0.197	0.088
-417.457	800.000	-0.061	-0.251
-416.442	166.565	-0.083	-0.118
-415.428	-122.142	0.191	0.031
-414.413	367.816	-0.119	0.242
-413.398	-74.803	0.324	-0.117
-412.384	-159.447	-0.319	-0.018
-411.369	800.000	0.046	-0.169
-410.355	-200.000	-0.070	-0.410
-409.340	-200.000	-0.028	0.239
-408.325	-12.326	0.086	-0.056
-407.311	-200.000	-0.047	-0.333
-406.296	-70.861	-0.119	0.045
-405.282	-63.888	0.139	0.057
-404.267	-68.842	0.298	-0.115
-403.252	588.118	0.079	0.196
-402.238	-27.915	0.298	-0.173
-401.223	-1.619	-0.176	-0.125
-400.209	625.225	-0.078	0.199
-399.194	800.000	0.105	0.341
-398.179	104.217	0.045	0.053
-397.165	-34.948	-0.216	0.118
-396.150	584.522	-0.098	-0.241
-395.136	20.496	-0.170	0.138
-394.121	-9.124	0.088	0.059
-393.106	-34.618	0.176	0.096
-392.092	159.385	0.168	0.235
-391.077	119.070	-0.105	0.130
-390.063	-200.000	-0.003	0.199
-389.048	-200.000	0.052	0.289
-388.033	-75.022	0.176	-0.063
-387.019	-25.700	-0.086	0.051
-386.004	-158.239	0.125	0.007
-384.990	228.172	-0.125	-0.203
-383.975	21.070	0.204	0.166
-382.960	-200.000	0.011	0.169
-381.946	800.000	-0.056	0.191
-380.931	-109.814	-0.431	-0.091
-379.917	429.303	-0.140	0.303
-378.902	352.985	-0.072	0.144
-377.888	800.000	0.047	0.172
-376.873	-54.312	-0.233	0.106
-375.858	198.130	-0.078	-0.119
-374.844	74.850	0.080	-0.085
-373.829	8.617	-0.279	-0.211
-372.815	-26.629	0.220	0.129
-371.800	106.637	-0.205	-0.244
-370.785	229.486	-0.209	-0.342
-369.771	-200.000	0.019	0.088
-368.756	-158.685	-0.248	-0.014
-367.742	-160.983	0.190	0.010
-366.727	-200.000	0.037	0.208
-365.712	-164.122	0.130	-0.006
-364.698	183.507	0.103	0.153
-363.683	-128.972	0.490	-0.069
-362.669	-54.629	-0.213	-0.096
-361.654	-66.892	0.289	-0.114
-360.639	-200.000	-0.010	-0.138
-359.625	652.332	0.054	0.139
-358.610	604.062	0.071	0.176
-357.596	165.147	-0.152	0.215
-356.581	142.750	0.098	0.130
-355.566	58.488	-0.116	-0.114
-354.552	-125.637	0.313	0.047
-353.537	724.786	-0.057	-0.151
-352.523	186.359	0.215	0.321
-351.508	-128.610	-0.221	-0.031
-350.493	30.227	0.091	-0.078
-349.479	-178.395	0.251	-0.006
-348.464	-37.179	0.202	-0.108
-347.450	-146.685	0.480	-0.042
-346.435	62.658	0.166	-0.166
-345.420	3.176	-0.234	0.170
-344.406	-9.007	-0.135	-0.091
-343.391	242.051	-0.049	0.083
-342.377	-30.047	0.142	0.081
-341.362	483.443	-0.071	-0.161
-340.348	55.077	0.356	0.345
-339.333	-40.593	0.054	0.028
-338.318	-47.747	0.255	-0.124
-337.304	138.945	-0.065	-0.085
-336.289	2.794	0.169	0.122
-335.275	6.904	0.194	-0.144
-334.260	91.151	0.043	-0.049
-333.245	800.000	-0.019	0.071
-332.231	-199.578	-0.319	-0.002
-331.216	-94.785	0.178	-0.048
-330.202	-134.063	0.523	-0.065
-329.187	-150.082	-0.087	-0.007
-328.172	-200.000	0.034	0.273
-327.158	-200.000	0.009	0.303
-326.143	-74.021	-0.256	0.093
-325.129	-200.000	0.033	-0.294
-324.114	-46.402	0.212	-0.104
-323.099	255.618	-0.081	-0.139
-322.085	5.882	0.440	-0.326
-321.070	251.587	-0.196	0.333
-320.056	-200.000	-0.001	-0.109
-319.041	358.133	-0.067	-0.133
-318.026	84.218	-0.069	0.075
-317.012	-34.329	0.333	0.183
-315.997	-96.042	0.387	-0.103
-314.983	459.407	-0.063	0.141
-313.968	-200.000	0.037	-0.259
-312.953	43.582	0.219	0.200
-311.939	800.000	-0.108	-0.350
-310.924	-168.217	-0.320	-0.012
-309.910	31.330	-0.058	0.049
-308.895	124.927	0.166	-0.209
-307.880	-189.896	-0.248	0.003
-306.866	-200.000	-0.004	0.038
-305.851	800.000	0.030	0.121
-304.837	-200.000	0.005	-0.112
-303.822	-105.376	-0.342	0.078
-302.807	-200.000	0.004	0.053
-301.793	217.197	0.132	-0.209
-300.778	-121.464	-0.204	0.034
-299.764	220.562	-0.152	0.244
-298.749	-92.697	-0.199	0.056
-297.735	-48.053	-0.143	0.069
-296.720	-89.412	-0.157	-0.046
-295.705	-200.000	0.046	0.284
-294.691	-122.979	-0.402	-0.065
-293.676	6.324	0.126	0.093
-292.662	-200.000	-0.013	0.148
-291.647	-200.000	0.062	0.343
-290.632	-59.877	-0.092	-0.039
-289.618	-112.159	-0.031	0.006
-288.603	283.698	-0.097	0.175
-287.589	-200.000	0.005	-0.143
-286.574	-90.073	-0.204	-0.059
-285.559	-112.578	0.114	0.023
-284.545	242.485	0.069	0.115
-283.530	800.000	-0.087	-0.267
-282.516	-135.525	-0.103	0.012
-281.501	-89.475	0.213	0.063
-280.486	697.636	0.090	0.235
-279.472	50.213	0.131	0.123
-278.457	-41.671	-0.243	0.125
-277.443	-200.000	-0.007	0.150
-276.428	800.000	-0.051	0.146
-275.413	-67.845	0.126	0.049
-274.399	-115.977	0.086	-0.016
-273.384	30.023	-0.093	-0.080
-272.370	9.248	-0.233	0.176
-271.355	-24.167	0.331	-0.197
-270.340	21.158	-0.159	0.129
-269.326	-162.134	0.071	-0.004
-268.311	-32.516	-0.059	-0.033
-267.297	-68.581	0.239	-0.093
-266.282	-70.332	-0.200	0.076
-265.267	33.812	0.164	-0.143
-264.253	-16.469	-0.149	0.094
-263.238	800.000	-0.062	0.231
-262.224	156.250	0.004	-0.006
-261.209	44.273	-0.135	0.124
-260.195	-200.000	-0.031	0.267
-259.180	46.656	-0.374	0.347
-258.165	233.585	-0.071	-0.117
-257.151	800.000	-0.044	0.155
-256.136	-120.749	-0.067	-0.011
-255.122	-200.000	-0.071	-0.472
-254.107	117.352	0.274	0.336
-253.092	-142.413	0.068	-0.007
-252.078	-9.519	-0.210	-0.140
-251.063	-117.524	-0.146	0.026
-250.049	-200.000	-0.014	0.067
-249.034	418.964	-0.076	0.162
-248.019	0.663	0.062	-0.044
-247.005	-86.378	0.068	-0.021
-245.990	-124.231	0.102	0.016
-244.976	-200.000	-0.060	-0.374
-243.961	-200.000	-0.006	0.095
-242.946	282.996	0.148	-0.266
-241.932	209.518	0.113	-0.176
-240.917	407.627	-0.070	-0.147
-239.903	-89.057	-0.209	0.062
-238.888	1.932	-0.136	-0.098
-237.873	-200.000	0.012	-0.055
-236.859	800.000	-0.035	0.112
-235.844	-115.467	0.369	-0.069
-234.830	-171.672	-0.140	0.005
-233.815	109.729	0.234	0.280
-232.800	527.708	-0.124	0.292
-231.786	-33.116	-0.205	-0.113
-230.771	601.282	0.097	-0.239
-229.757	161.991	-0.232	-0.324
-228.742	77.930	-0.141	-0.150
-227.727	120.986	-0.162	-0.201
-226.713	-27.039	-0.189	-0.110
-225.698	-20.862	0.265	0.162
-224.684	126.224	-0.279	0.352
-223.669	3.540	0.092	-0.067
-222.655	-95.114	0.313	-0.084
-221.640	800.000	-0.022	-0.092
-220.625	800.000	0.073	0.262
-219.611	-63.293	-0.306	0.125
-218.596	160.484	-0.018	0.025
-217.582	-104.934	0.094	0.022
-216.567	-200.000	0.010	0.064
-215.552	800.000	0.101	-0.363
-214.538	-165.891	-0.108	-0.005
-213.523	39.300	-0.222	-0.198
-212.509	209.490	-0.070	0.109
-211.494	232.833	-0.214	0.349
-210.479	39.917	-0.273	0.244
-209.465	-200.000	0.025	-0.250
-208.450	-70.536	0.293	0.110
-207.436	-149.559	0.240	0.019
-206.421	-117.567	-0.151	-0.027
-205.406	101.683	0.160	-0.186
-204.392	-131.653	0.125	0.016
-203.377	-200.000	-0.019	-0.153
-202.363	-107.813	-0.240	-0.052
-201.348	-97.526	-0.281	-0.073
-200.333	-130.020	-0.131	0.018
-199.319	-200.000	0.031	0.508
-198.304	-200.000	-0.048	0.290
-197.290	-200.000	0.009	-0.157
-196.275	-200.000	0.017	0.096
-195.260	101.462	-0.221	-0.256
-194.246	-200.000	-0.041	-0.287
-193.231	800.000	-0.032	-0.125
-192.217	104.596	0.159	-0.187
-191.202	80.600	-0.104	-0.111
-190.187	800.000	0.066	0.191
-189.173	394.915	0.151	0.313
-188.158	-200.000	-0.027	-0.174
-187.144	412.793	0.045	0.095
-186.129	-200.000	0.044	-0.204
-185.114	-33.595	0.032	0.017
-184.100	23.510	0.045	-0.037
-183.085	-6.947	0.211	0.142
-182.071	-200.000	-0.011	-0.229
-181.056	70.627	-0.105	-0.108
-180.042	107.916	0.202	0.239
-179.027	121.221	-0.086	0.106
-178.012	437.043	0.036	0.078
-176.998	37.538	-0.237	-0.209
-175.983	800.000	0.121	0.415
-174.969	-141.943	-0.096	0.010
-173.954	-47.864	0.084	-0.041
-172.939	-95.387	0.388	0.104
-171.925	396.830	0.116	0.242
-170.910	800.000	0.029	-0.085
-169.896	-200.000	0.009	-0.135
-168.881	-88.440	0.222	-0.066
-167.866	72.401	-0.211	-0.218
-166.852	800.000	-0.096	-0.269
-165.837	-39.880	-0.285	0.148
-164.823	-21.986	0.193	-0.116
-163.808	800.000	-0.083	-0.270
-162.793	800.000	0.030	-0.116
-161.779	-184.966	-0.105	-0.002
-160.764	554.333	0.028	0.068
-159.750	-197.973	0.228	-0.001
-158.735	-200.000	-0.033	-0.225
-157.720	-6.446	0.107	0.073
-156.706	-17.190	-0.156	-0.098
-155.691	-24.151	0.023	-0.014
-154.677	-101.633	-0.118	-0.029
-153.662	125.979	0.096	0.120
-152.647	20.860	0.222	0.178
-151.633	-120.834	0.197	-0.033
-150.618	241.003	-0.056	0.093
-149.604	-137.493	0.087	0.010
-148.589	-115.379	0.117	-0.022
-147.574	-32.038	0.079	0.044
-146.560	-66.315	0.064	0.025
-145.545	-157.307	-0.192	0.012
-144.531	248.922	-0.131	0.221
-143.516	-67.094	0.063	-0.025
-142.502	-31.723	0.077	-0.043
-141.487	800.000	-0.104	-0.290
-140.472	-118.683	0.218	-0.038
-139.458	162.699	0.073	0.102
-138.443	-110.655	0.060	0.012
-137.429	-76.919	-0.137	0.048
-136.414	55.235	0.187	-0.180
-135.399	-36.144	0.266	0.143
-134.385	-130.342	0.347	0.047
-133.370	557.558	0.143	0.342
-132.356	95.705	0.178	-0.202
-131.341	-5.799	-0.315	-0.214
-130.326	800.000	0.043	0.141
-129.312	-200.000	0.010	0.158
-128.297	-164.423	-0.322	-0.015
-127.283	396.034	0.099	-0.204
-126.268	-13.165	0.207	0.133
-125.253	347.307	0.086	0.168
-124.239	-125.234	0.185	-0.028
-123.224	92.892	0.070	0.078
-122.210	-200.000	0.022	-0.382
