DTS Sentinel unit serial number:	SN413079Multiplexer serial number:	ORYXHardware model number:	OX4-SRSoftware version number:	ORYX F/W v4.00 Oryx Data Collector v3.7.2.0data status	okinstallation	princeton_trtdifferential loss correction	single-endedforward channel	channel 3reverse channel	N/Adate	2019/09/18time	23:44:35forward acquisition time	60.00reverse acquisition time	0.00gamma	496.2192k internal	0.2346k external	0.2346temperature offset calibration	0.9993default loss term (dB/km)	0.3790temperature slope calibration	1.0000multiplexer offset coefficient	1.0000multiplexer slope coefficient	1.0000fibre end	0.00T internal ref (°C)	23.42T ext. ref 1 (°C)	0.77T ext. ref 2 (°C)	16.25length (m)	temperature (°C)	Stokes	anti-Stokes-747.200	-61.105	-0.289	0.122
-746.185	-89.329	0.282	0.083
-745.171	336.314	0.075	0.147
-744.156	800.000	-0.119	0.475
-743.142	-200.000	-0.045	0.286
-742.127	715.185	-0.163	0.431
-741.112	-112.308	0.295	-0.059
-740.098	407.006	0.044	0.093
-739.083	-53.506	0.108	-0.050
-738.069	-81.485	-0.035	0.012
-737.054	214.037	0.177	0.280
-736.039	292.871	-0.113	0.206
-735.025	15.104	-0.193	0.151
-734.010	22.331	0.040	-0.032
-732.996	36.988	-0.382	-0.338
-731.981	-200.000	0.006	-0.385
-730.966	-200.000	0.265	-0.000
-729.952	800.000	0.054	-0.170
-728.937	-200.000	0.017	0.320
-727.923	-200.000	-0.037	0.255
-726.908	48.873	-0.133	-0.125
-725.894	800.000	-0.064	-0.248
-724.879	55.979	-0.299	0.290
-723.864	-134.010	0.047	-0.006
-722.850	-200.000	0.033	0.214
-721.835	-113.672	-0.360	-0.070
-720.821	-200.000	0.005	-0.165
-719.806	-200.000	0.014	-0.150
-718.791	-134.822	-0.367	-0.044
-717.777	-161.530	-0.175	0.009
-716.762	-200.000	-0.016	-0.127
-715.748	-53.023	-0.129	-0.059
-714.733	-200.000	-0.035	0.224
-713.718	-70.078	0.091	0.034
-712.704	-200.000	0.008	-0.286
-711.689	-200.000	-0.015	-0.073
-710.675	800.000	0.067	-0.282
-709.660	-47.438	0.261	-0.127
-708.645	-17.501	0.223	-0.140
-707.631	-138.956	-0.299	-0.032
-706.616	0.782	-0.247	0.177
-705.602	-102.438	-0.237	-0.057
-704.587	-67.806	0.189	0.074
-703.572	64.603	0.240	-0.242
-702.558	-97.042	-0.142	-0.037
-701.543	-6.373	0.268	-0.182
-700.529	-50.282	0.122	0.058
-699.514	98.477	-0.249	0.286
-698.499	-200.000	-0.015	0.212
-697.485	-200.000	-0.039	-0.405
-696.470	800.000	0.089	-0.256
-695.456	800.000	-0.052	0.158
-694.441	-151.842	0.130	0.010
-693.426	-74.358	-0.368	0.132
-692.412	-200.000	-0.022	-0.159
-691.397	403.903	0.043	0.091
-690.383	-92.094	-0.278	-0.078
-689.368	-74.902	0.103	0.037
-688.354	-17.255	0.262	0.165
-687.339	-105.644	-0.360	0.081
-686.324	-200.000	0.002	0.014
-685.310	800.000	0.039	0.148
-684.295	-166.412	0.155	-0.006
-683.281	-93.751	-0.295	0.081
-682.266	800.000	0.040	-0.134
-681.251	194.678	0.041	0.062
-680.237	-44.328	0.349	-0.174
-679.222	82.060	0.086	0.093
-678.208	-85.022	-0.213	-0.067
-677.193	168.926	0.304	-0.433
-676.178	-155.314	-0.200	0.013
-675.164	-170.628	0.363	0.013
-674.149	335.136	-0.135	-0.262
-673.135	15.242	-0.180	-0.141
-672.120	-6.249	0.284	-0.194
-671.105	800.000	0.120	0.402
-670.091	-200.000	0.018	-0.085
-669.076	673.782	-0.046	-0.118
-668.062	496.593	0.064	0.147
-667.047	-200.000	0.001	0.043
-666.032	50.962	-0.306	0.289
-665.018	237.272	-0.150	0.248
-664.003	294.953	0.132	-0.242
-662.989	429.796	-0.103	0.222
-661.974	-200.000	0.000	-0.183
-660.959	166.322	0.181	0.256
-659.945	-200.000	-0.000	0.174
-658.930	-12.084	-0.187	0.122
-657.916	52.899	-0.039	0.037
-656.901	78.764	0.123	-0.132
-655.886	493.238	0.086	-0.197
-654.872	-154.992	-0.466	-0.031
-653.857	800.000	-0.043	0.120
-652.843	312.824	0.250	0.469
-651.828	75.452	-0.254	0.267
-650.814	-19.133	0.197	-0.122
-649.799	-23.396	0.082	-0.049
-648.784	95.982	-0.147	0.167
-647.770	-84.513	-0.218	0.068
-646.755	143.164	0.269	-0.356
-645.741	390.600	-0.056	0.115
-644.726	170.794	-0.166	0.237
-643.711	-200.000	-0.012	0.148
-642.697	-95.546	-0.190	0.051
-641.682	160.934	-0.135	-0.187
-640.668	-130.809	0.066	-0.009
-639.653	800.000	-0.028	-0.095
-638.638	-62.030	0.099	-0.041
-637.624	-83.949	0.339	-0.108
-636.609	-185.169	-0.148	0.002
-635.595	-76.101	0.132	-0.046
-634.580	800.000	-0.088	0.247
-633.565	-200.000	-0.080	0.000
-632.551	-200.000	-0.023	-0.309
-631.536	-143.969	0.305	-0.029
-630.522	-200.000	0.045	0.338
-629.507	-21.967	0.215	-0.130
-628.492	75.545	0.217	0.228
-627.478	-200.000	-0.037	-0.201
-626.463	204.090	-0.128	-0.197
-625.449	-36.972	-0.312	-0.166
-624.434	-107.936	0.045	0.010
-623.419	-118.201	-0.150	0.027
-622.405	143.493	0.129	-0.171
-621.390	-200.000	-0.081	-0.386
-620.376	-150.353	-0.247	-0.019
-619.361	-169.130	-0.069	0.003
-618.346	78.925	-0.166	-0.177
-617.332	-89.711	-0.147	0.043
-616.317	-181.883	0.278	-0.005
-615.303	141.444	-0.243	-0.321
-614.288	-100.169	-0.262	-0.065
-613.273	-49.574	0.218	0.103
-612.259	-200.000	-0.010	-0.136
-611.244	119.634	0.028	-0.035
-610.230	7.483	-0.183	-0.136
-609.215	156.853	0.071	0.098
-608.201	-73.220	0.199	0.073
-607.186	392.704	0.162	0.336
-606.171	-131.523	0.122	0.016
-605.157	-97.849	0.165	0.042
-604.142	-180.725	0.471	0.010
-603.128	98.585	0.238	-0.272
-602.113	800.000	-0.020	-0.084
-601.098	42.012	0.131	-0.118
-600.084	-200.000	0.006	-0.055
-599.069	-50.705	-0.340	-0.159
-598.055	80.766	0.220	0.236
-597.040	-200.000	0.060	0.365
-596.025	490.394	-0.107	0.244
-595.011	151.381	-0.254	0.344
-593.996	569.392	0.058	0.140
-592.982	24.303	0.233	0.191
-591.967	35.606	0.218	0.190
-590.952	-2.331	-0.410	0.286
-589.938	279.270	-0.088	-0.155
-588.923	-125.488	-0.246	-0.037
-587.909	396.438	-0.032	0.067
-586.894	-200.000	-0.028	-0.143
-585.879	172.929	0.147	-0.211
-584.865	-200.000	-0.016	0.117
-583.850	346.153	-0.144	0.282
-582.836	-77.815	-0.064	-0.022
-581.821	311.739	0.079	-0.148
-580.806	111.576	-0.256	-0.307
-579.792	38.385	0.175	0.155
-578.777	800.000	-0.045	-0.138
-577.763	657.322	0.169	-0.432
-576.748	9.749	0.114	-0.086
-575.733	-71.331	0.042	0.016
-574.719	-142.585	-0.181	-0.018
-573.704	800.000	-0.047	0.136
-572.690	129.226	0.097	-0.123
-571.675	62.661	0.153	0.152
-570.661	-152.396	-0.437	0.031
-569.646	-25.713	-0.272	-0.159
-568.631	384.818	-0.072	-0.147
-567.617	-128.962	0.408	-0.057
-566.602	-103.653	0.146	-0.034
-565.588	139.159	-0.131	-0.172
-564.573	780.504	-0.114	-0.310
-563.558	230.893	0.154	-0.250
-562.544	430.603	0.071	0.152
-561.529	-81.340	0.132	-0.043
-560.515	398.323	0.139	0.290
-559.500	-90.698	-0.182	0.052
-558.485	62.089	0.215	0.213
-557.471	-186.092	-0.118	-0.002
-556.456	-150.697	-0.316	-0.024
-555.442	16.512	0.070	0.055
-554.427	483.345	-0.083	0.188
-553.412	235.813	-0.293	-0.481
-552.398	800.000	0.044	0.190
-551.383	510.593	-0.076	0.175
-550.369	-200.000	-0.022	-0.245
-549.354	63.341	0.155	-0.155
-548.339	-45.975	-0.274	-0.134
-547.325	800.000	-0.071	0.246
-546.310	-75.614	0.174	0.061
-545.296	-200.000	-0.049	-0.281
-544.281	800.000	-0.052	0.184
-543.266	-128.339	-0.522	-0.074
-542.252	-174.183	0.278	0.008
-541.237	-18.884	0.219	0.135
-540.223	-200.000	0.009	0.260
-539.208	-69.618	0.350	-0.133
-538.193	375.534	-0.073	0.147
-537.179	158.547	-0.158	-0.217
-536.164	403.286	0.162	0.338
-535.150	-200.000	-0.020	-0.233
-534.135	245.484	0.122	0.204
-533.121	-12.523	0.107	0.070
-532.106	-200.000	0.001	-0.106
-531.091	-61.364	0.070	-0.029
-530.077	215.394	-0.156	0.245
-529.062	800.000	-0.075	-0.237
-528.048	308.957	-0.170	-0.316
-527.033	-96.281	0.473	-0.124
-526.018	-150.822	-0.365	0.027
-525.004	291.378	0.088	0.159
-523.989	-93.328	-0.171	-0.047
-522.975	208.483	0.093	-0.145
-521.960	800.000	0.087	-0.260
-520.945	176.785	0.054	0.078
-519.931	-71.966	0.141	0.052
-518.916	-200.000	-0.058	-0.398
-517.902	-95.041	-0.193	-0.052
-516.887	21.415	-0.265	-0.214
-515.872	91.474	0.289	0.322
-514.858	-35.895	-0.062	-0.033
-513.843	-200.000	0.061	-0.486
-512.829	-10.200	-0.235	-0.154
-511.814	-127.453	-0.105	-0.015
-510.799	-200.000	-0.004	-0.115
-509.785	-200.000	-0.005	0.298
-508.770	-79.051	0.115	-0.039
-507.756	800.000	-0.089	0.273
-506.741	21.244	0.204	0.165
-505.726	-162.896	-0.369	-0.018
-504.712	-36.257	0.283	-0.151
-503.697	-200.000	-0.011	0.272
-502.683	-200.000	0.043	0.392
-501.668	135.196	-0.171	0.220
-500.653	27.934	0.189	0.158
-499.639	-57.069	0.109	0.048
-498.624	-7.652	0.212	-0.142
-497.610	-86.668	-0.169	0.051
-496.595	-32.064	-0.030	-0.016
-495.581	-7.115	0.189	0.127
-494.566	-175.846	-0.395	0.010
-493.551	-200.000	-0.002	0.016
-492.537	229.389	-0.058	0.094
-491.522	-105.642	0.078	0.017
-490.508	585.474	-0.082	-0.199
-489.493	-117.771	0.235	0.042
-488.478	800.000	-0.191	-0.689
-487.464	-68.054	0.167	0.065
-486.449	79.576	-0.047	0.050
-485.435	-200.000	0.014	0.231
-484.420	509.139	0.077	0.177
-483.405	-200.000	-0.028	0.206
-482.391	-152.686	-0.243	-0.017
-481.376	800.000	0.022	0.069
-480.362	-128.407	-0.303	-0.043
-479.347	292.516	-0.141	-0.254
-478.332	124.195	-0.120	0.150
-477.318	34.648	-0.329	0.285
-476.303	800.000	0.044	-0.157
-475.289	-19.549	-0.307	-0.188
-474.274	800.000	-0.035	0.146
-473.259	300.493	0.150	-0.274
-472.245	-8.954	-0.170	-0.113
-471.230	100.733	0.053	-0.061
-470.216	-37.247	-0.185	0.098
-469.201	-9.585	0.161	-0.106
-468.186	-130.979	-0.051	-0.007
-467.172	-113.886	0.189	0.036
-466.157	-200.000	0.010	0.088
-465.143	-181.917	0.388	0.007
-464.128	243.703	-0.083	0.138
-463.113	-143.841	0.129	0.012
-462.099	144.365	0.130	0.171
-461.084	88.620	-0.065	0.072
-460.070	-10.548	0.352	-0.231
-459.055	732.747	-0.033	-0.086
-458.040	33.258	0.052	0.045
-457.026	-200.000	-0.007	-0.212
-456.011	-65.459	0.104	-0.041
-454.997	-200.000	-0.042	0.221
-453.982	-31.383	0.123	-0.068
-452.968	7.170	0.353	0.260
-451.953	133.946	0.074	0.094
-450.938	-55.724	0.283	-0.125
-449.924	78.022	-0.106	-0.112
-448.909	-10.278	0.371	0.243
-447.895	27.887	0.112	-0.093
-446.880	-44.507	0.174	0.086
-445.865	-4.872	-0.171	-0.117
-444.851	-139.754	0.082	0.009
-443.836	-88.732	-0.136	-0.040
-442.822	-140.883	0.242	-0.025
-441.807	482.181	0.158	0.354
-440.792	-200.000	0.007	-0.103
-439.778	27.373	0.270	-0.224
-438.763	-137.982	-0.168	-0.019
-437.749	-57.752	-0.263	0.114
-436.734	169.065	0.029	-0.040
-435.719	-200.000	-0.052	-0.264
-434.705	-31.113	0.074	-0.041
-433.690	621.346	0.167	0.415
-432.676	2.622	0.084	0.060
-431.661	-200.000	-0.005	-0.276
-430.646	-4.599	0.212	-0.145
-429.632	-34.032	-0.104	-0.056
-428.617	-200.000	0.007	0.044
-427.603	476.087	-0.148	-0.331
-426.588	-156.956	0.100	-0.006
-425.573	800.000	0.068	-0.204
-424.559	-116.511	0.187	-0.034
-423.544	579.825	0.117	0.284
-422.530	502.137	-0.102	-0.232
-421.515	800.000	0.068	-0.189
-420.500	484.182	0.075	0.168
-419.486	-200.000	-0.002	-0.047
-418.471	-198.779	0.184	-0.001
-417.457	800.000	0.111	0.476
-416.442	-10.753	-0.245	0.160
-415.428	800.000	-0.136	-0.470
-414.413	-200.000	0.011	-0.234
-413.398	642.140	0.190	-0.477
-412.384	-200.000	-0.002	0.024
-411.369	-86.200	-0.128	-0.039
-410.355	372.139	0.119	-0.239
-409.340	-47.264	-0.245	-0.118
-408.325	-46.616	0.279	-0.135
-407.311	800.000	-0.082	0.238
-406.296	-10.853	-0.107	0.070
-405.282	-59.663	0.247	0.104
-404.267	15.014	0.097	-0.075
-403.252	-63.202	0.283	0.115
-402.238	20.061	-0.162	-0.129
-401.223	-102.215	-0.152	-0.036
-400.209	25.151	0.178	0.145
-399.194	25.217	0.240	-0.197
-398.179	-129.886	0.227	-0.031
-397.165	27.811	0.076	-0.063
-396.150	-200.000	-0.003	-0.081
-395.136	32.237	-0.155	0.132
-394.121	41.013	0.140	-0.124
-393.106	-200.000	0.073	0.448
-392.092	-78.559	0.118	-0.040
-391.077	-109.913	-0.350	0.072
-390.063	-89.304	0.049	-0.014
-389.048	-113.759	-0.180	-0.035
-388.033	-200.000	-0.086	-0.454
-387.019	249.661	0.114	0.190
-386.004	-75.948	0.250	-0.087
-384.990	97.933	-0.281	0.319
-383.975	244.245	0.083	0.137
-382.960	273.805	0.157	-0.273
-381.946	23.232	-0.166	0.134
-380.931	-200.000	-0.021	-0.161
-379.917	400.784	0.143	0.295
-378.902	314.082	0.013	-0.024
-377.888	93.576	0.133	0.149
-376.873	42.512	-0.042	0.037
-375.858	42.887	0.106	0.095
-374.844	108.760	0.258	-0.304
-373.829	234.965	0.060	0.098
-372.815	-95.794	0.052	0.014
-371.800	98.807	-0.074	0.084
-370.785	455.045	-0.053	0.115
-369.771	-169.291	-0.156	0.006
-368.756	331.862	0.094	0.179
-367.742	266.904	-0.098	0.169
-366.727	-200.000	-0.076	0.464
-365.712	182.568	0.110	0.160
-364.698	32.361	-0.123	0.105
-363.683	-102.531	0.166	0.039
-362.669	194.481	0.269	0.402
-361.654	496.922	0.166	-0.377
-360.639	-139.397	-0.322	0.034
-359.625	89.701	0.092	0.101
-358.610	244.035	-0.064	-0.106
-357.596	65.381	-0.206	-0.206
-356.581	0.289	0.401	-0.282
-355.566	-109.328	-0.345	-0.072
-354.552	-200.000	0.013	-0.110
-353.537	300.073	-0.087	0.158
-352.523	60.502	-0.222	-0.216
-351.508	-103.710	-0.128	-0.030
-350.493	-144.875	-0.078	0.007
-349.479	800.000	-0.058	-0.221
-348.464	800.000	-0.063	-0.236
-347.450	800.000	-0.024	-0.075
-346.435	-56.234	-0.064	-0.028
-345.420	175.078	-0.110	-0.157
-344.406	487.163	0.103	-0.231
-343.391	800.000	-0.020	-0.079
-342.377	134.883	-0.128	-0.164
-341.362	242.258	0.066	-0.109
-340.348	-101.658	-0.331	-0.079
-339.333	412.354	0.073	0.153
-338.318	-162.304	-0.177	-0.009
-337.304	800.000	0.022	0.089
-336.289	213.159	-0.062	0.096
-335.275	-141.051	-0.181	-0.018
-334.260	-19.405	0.118	-0.072
-333.245	529.943	-0.050	0.117
-332.231	-200.000	0.029	0.170
-331.216	-26.776	0.410	-0.236
-330.202	-30.428	-0.221	-0.124
-329.187	-200.000	0.045	-0.237
-328.172	-38.718	-0.388	0.201
-327.158	366.165	0.164	0.325
-326.143	-200.000	0.068	0.366
-325.129	148.267	0.197	0.262
-324.114	-200.000	0.507	-0.001
-323.099	-153.869	-0.317	-0.021
-322.085	800.000	-0.029	0.102
-321.070	111.110	-0.137	0.162
-320.056	-200.000	0.003	-0.117
-319.041	122.476	-0.229	-0.282
-318.026	-42.882	0.226	-0.113
-317.012	-66.683	-0.403	0.157
-315.997	-161.699	0.291	-0.015
-314.983	689.926	0.082	-0.211
-313.968	-101.360	0.202	-0.048
-312.953	-200.000	-0.019	0.256
-311.939	56.951	-0.050	-0.048
-310.924	-102.060	0.095	-0.023
-309.910	-170.894	0.284	0.010
-308.895	-200.000	-0.007	-0.235
-307.880	530.104	0.098	0.228
-306.866	-6.420	-0.250	0.168
-305.851	-128.850	-0.282	-0.039
-304.837	85.248	-0.361	0.390
-303.822	-100.824	0.333	0.081
-302.807	-200.000	0.118	-0.570
-301.793	-200.000	-0.007	0.083
-300.778	-200.000	0.013	-0.180
-299.764	56.284	-0.142	0.135
-298.749	49.020	-0.090	-0.083
-297.735	-2.062	0.071	0.049
-296.720	-200.000	0.033	0.322
-295.705	800.000	0.056	0.160
-294.691	215.616	0.069	0.108
-293.676	-200.000	0.006	0.071
-292.662	32.717	0.184	-0.156
-291.647	-119.790	-0.197	0.033
-290.632	45.926	-0.042	-0.038
-289.618	-200.000	0.022	0.331
-288.603	-138.753	-0.121	-0.013
-287.589	48.769	-0.093	-0.085
-286.574	-200.000	-0.088	-0.389
-285.559	800.000	0.048	-0.157
-284.545	-200.000	-0.033	0.366
-283.530	-200.000	-0.015	0.200
-282.516	409.229	-0.098	-0.204
-281.501	35.710	0.184	0.159
-280.486	115.693	-0.240	0.289
-279.472	310.228	0.042	0.077
-278.457	-69.653	-0.143	-0.054
-277.443	287.149	-0.043	-0.077
-276.428	-63.225	-0.094	-0.038
-275.413	-108.575	-0.106	-0.022
-274.399	-148.400	0.049	-0.004
-273.384	-122.563	-0.384	-0.061
-272.370	-121.845	0.250	-0.040
-271.355	-25.719	-0.202	0.117
-270.340	70.444	0.202	-0.205
-269.326	7.123	0.125	0.092
-268.311	3.939	0.195	-0.140
-267.297	-14.300	0.147	0.093
-266.282	800.000	-0.025	0.104
-265.267	57.349	-0.142	-0.136
-264.253	196.674	-0.139	0.207
-263.238	-80.211	-0.175	0.058
-262.224	134.739	-0.092	0.117
-261.209	172.958	0.237	0.336
-260.195	235.166	0.132	0.214
-259.180	-200.000	-0.019	0.357
-258.165	800.000	0.047	-0.166
-257.151	284.216	0.208	-0.367
-256.136	139.008	-0.047	-0.061
-255.122	3.032	0.143	-0.102
-254.107	26.858	0.174	-0.143
-253.092	223.720	-0.096	0.153
-252.078	-188.211	0.259	-0.003
-251.063	-200.000	0.034	0.222
-250.049	117.609	-0.185	-0.223
-249.034	230.285	-0.184	-0.295
-248.019	-128.625	-0.189	-0.026
-247.005	-15.517	0.105	0.066
-245.990	18.915	-0.294	0.231
-244.976	32.240	-0.182	-0.154
-243.961	-200.000	-0.007	0.031
-242.946	-200.000	-0.068	0.428
-241.932	-184.222	-0.108	-0.002
-240.917	800.000	0.056	-0.181
-239.903	-120.317	-0.336	-0.056
-238.888	29.085	-0.165	0.137
-237.873	-78.117	0.258	0.087
-236.859	-124.616	0.239	-0.036
-235.844	120.652	-0.290	-0.353
-234.830	41.714	0.136	-0.120
-233.815	-99.550	0.089	0.022
-232.800	146.056	-0.090	0.119
-231.786	225.842	-0.093	0.148
-230.771	296.341	-0.070	0.125
-229.757	93.207	-0.031	0.034
-228.742	-200.000	-0.065	0.442
-227.727	-148.654	0.077	0.006
-226.713	159.153	-0.020	-0.027
-225.698	-200.000	-0.007	-0.082
-224.684	-49.514	0.196	-0.091
-223.669	800.000	-0.054	-0.199
-222.655	-70.736	-0.151	-0.056
-221.640	-200.000	-0.109	-0.470
-220.625	419.438	0.091	-0.191
-219.611	-61.758	-0.186	-0.077
-218.596	-200.000	0.020	0.238
-217.582	800.000	0.063	0.194
-216.567	189.597	-0.173	-0.254
-215.552	-49.303	0.328	-0.154
-214.538	-33.342	0.158	0.086
-213.523	409.900	-0.094	-0.195
-212.509	352.154	-0.230	0.446
-211.494	6.470	-0.255	0.186
-210.479	-157.314	0.106	0.006
-209.465	-200.000	-0.021	-0.111
-208.450	-95.337	-0.175	0.046
-207.436	-200.000	0.005	0.088
-206.421	-26.576	0.235	0.135
-205.406	-123.955	0.151	0.023
-204.392	-200.000	0.015	-0.119
-203.377	-76.041	-0.194	-0.067
-202.363	800.000	0.054	-0.178
-201.348	800.000	0.062	0.200
-200.333	51.545	-0.299	-0.278
-199.319	-200.000	-0.028	-0.317
-198.304	152.593	-0.081	0.108
-197.290	-82.289	0.306	-0.098
-196.275	63.431	0.050	0.049
-195.260	77.479	0.122	-0.127
-194.246	-68.274	0.095	-0.036
-193.231	66.461	0.268	0.267
-192.217	411.597	-0.142	0.296
-191.202	77.286	0.165	-0.172
-190.187	42.345	-0.074	0.066
-189.173	-98.237	-0.335	-0.084
-188.158	-200.000	-0.009	0.046
-187.144	-170.430	0.164	-0.006
-186.129	-33.004	-0.149	-0.081
-185.114	-124.148	-0.271	0.042
-184.100	491.723	-0.123	-0.276
-183.085	-149.834	0.311	-0.024
-182.071	-51.358	-0.037	-0.017
-181.056	800.000	-0.059	-0.173
-180.042	-200.000	0.003	0.351
-179.027	-133.400	0.121	0.015
-178.012	-19.105	-0.148	0.090
-176.998	800.000	-0.026	0.073
-175.983	800.000	0.074	0.242
-174.969	-139.351	-0.381	-0.040
-173.954	18.237	0.157	0.123
-172.939	-52.469	0.162	-0.073
-171.925	-138.997	0.047	0.005
-170.910	-26.781	0.094	-0.054
-169.896	101.289	0.163	-0.185
-168.881	137.992	-0.030	-0.039
-167.866	800.000	0.012	-0.049
-166.852	800.000	0.084	0.270
-165.837	-200.000	-0.021	-0.100
-164.823	16.000	-0.314	-0.241
-163.808	-200.000	-0.015	-0.135
-162.793	-200.000	0.053	0.263
-161.779	-120.591	-0.090	0.015
-160.764	-8.207	-0.055	0.036
-159.750	-80.949	-0.295	-0.096
-158.735	200.993	0.282	0.424
-157.720	-200.000	-0.032	0.345
-156.706	3.559	-0.223	0.159
-155.691	-91.646	0.231	0.064
-154.677	19.693	-0.100	0.078
-153.662	295.252	0.073	-0.130
-152.647	65.496	0.155	0.153
-151.633	-124.353	-0.060	-0.009
-150.618	132.162	-0.027	0.034
-149.604	-86.215	0.341	-0.103
-148.589	-176.512	0.164	-0.004
-147.574	506.981	0.150	-0.339
-146.560	-169.789	-0.296	0.010
-145.545	111.985	0.082	-0.096
-144.531	-200.000	-0.017	0.299
-143.516	-162.703	0.123	-0.006
-142.502	782.444	0.062	-0.166
-141.487	-84.435	-0.024	-0.007
-140.472	-48.032	-0.382	0.180
-139.458	502.827	-0.070	-0.158
-138.443	172.303	0.121	-0.170
-137.429	-77.864	0.115	0.039
-136.414	-167.130	-0.242	-0.010
-135.399	-112.109	0.444	-0.087
-134.385	-15.332	0.094	-0.059
-133.370	64.364	-0.081	-0.079
-132.356	81.753	-0.196	-0.207
-131.341	800.000	-0.059	0.203
-130.326	-118.328	-0.200	-0.035
-129.312	-20.769	-0.246	0.147
-128.297	-200.000	0.017	-0.141
-127.283	213.335	-0.319	0.492
-126.268	85.119	0.201	0.215
-125.253	137.970	-0.070	0.090
-124.239	800.000	0.038	-0.110
-123.224	-12.352	0.554	-0.354
-122.210	262.888	0.233	-0.395
