DTS Sentinel unit serial number:	SN413079Multiplexer serial number:	ORYXHardware model number:	OX4-SRSoftware version number:	ORYX F/W v4.00 Oryx Data Collector v3.7.2.0data status	okinstallation	princeton_trtdifferential loss correction	single-endedforward channel	channel 3reverse channel	N/Adate	2019/09/18time	09:04:35forward acquisition time	60.00reverse acquisition time	0.00gamma	496.2192k internal	0.2339k external	0.2339temperature offset calibration	0.9942default loss term (dB/km)	0.3790temperature slope calibration	1.0000multiplexer offset coefficient	1.0000multiplexer slope coefficient	1.0000fibre end	0.00T internal ref (°C)	25.25T ext. ref 1 (°C)	0.23T ext. ref 2 (°C)	22.30length (m)	temperature (°C)	Stokes	anti-Stokes-747.200	-200.000	-0.008	0.095
-746.185	800.000	0.080	0.305
-745.171	-200.000	-0.019	0.143
-744.156	-49.306	-0.414	0.198
-743.142	187.428	0.169	-0.254
-742.127	688.820	-0.057	0.151
-741.112	-200.000	-0.015	-0.212
-740.098	120.442	0.167	0.208
-739.083	-43.427	-0.186	-0.094
-738.069	-200.000	-0.002	0.183
-737.054	800.000	0.102	-0.325
-736.039	-62.911	-0.267	-0.111
-735.025	41.751	0.486	0.442
-734.010	-53.782	-0.203	-0.093
-732.996	740.131	-0.018	0.048
-731.981	106.140	-0.036	-0.042
-730.966	263.290	0.108	-0.189
-729.952	-165.459	-0.240	0.010
-728.937	-88.797	0.169	-0.050
-727.923	603.343	-0.062	-0.154
-726.908	243.502	-0.179	-0.301
-725.894	-55.518	0.197	0.088
-724.879	59.673	-0.055	-0.055
-723.864	-200.000	0.016	0.366
-722.850	-200.000	-0.007	-0.273
-721.835	131.288	-0.165	-0.213
-720.821	-200.000	0.028	-0.206
-719.806	-71.235	-0.192	-0.072
-718.791	-200.000	-0.000	-0.305
-717.777	-159.415	0.079	0.004
-716.762	102.844	0.215	-0.253
-715.748	-81.196	0.270	0.089
-714.733	-200.000	0.034	-0.342
-713.718	163.154	-0.146	-0.205
-712.704	151.511	0.186	-0.254
-711.689	443.728	-0.118	-0.260
-710.675	119.123	-0.157	0.195
-709.660	-144.388	0.201	-0.019
-708.645	-37.677	-0.180	0.096
-707.631	-79.529	-0.256	-0.087
-706.616	-184.345	-0.080	-0.001
-705.602	243.037	-0.135	0.227
-704.587	-34.789	-0.193	-0.106
-703.572	-63.220	-0.284	0.117
-702.558	287.001	0.196	-0.354
-701.543	201.983	-0.052	0.081
-700.529	-27.472	-0.275	-0.160
-699.514	-200.000	0.039	-0.321
-698.499	77.913	-0.046	-0.049
-697.485	-6.977	-0.015	-0.010
-696.470	-88.702	0.243	0.072
-695.456	-19.521	-0.026	0.016
-694.441	103.112	-0.181	0.212
-693.426	149.878	-0.058	-0.078
-692.412	-162.081	0.086	0.004
-691.397	2.373	-0.059	-0.042
-690.383	-58.804	-0.244	-0.106
-689.368	258.754	0.063	0.109
-688.354	-200.000	-0.032	0.251
-687.339	596.559	-0.192	-0.475
-686.324	-187.545	0.043	-0.001
-685.310	-48.299	-0.172	-0.083
-684.295	176.217	0.084	-0.122
-683.281	-106.549	-0.314	0.070
-682.266	-104.299	-0.417	0.097
-681.251	-170.331	0.227	0.008
-680.237	-154.109	0.207	-0.014
-679.222	246.431	0.122	-0.206
-678.208	621.545	-0.067	-0.169
-677.193	-200.000	-0.010	-0.059
-676.178	-91.146	0.178	0.051
-675.164	57.517	-0.061	0.060
-674.149	-19.554	0.416	0.258
-673.135	40.381	0.046	0.041
-672.120	-3.010	-0.175	-0.122
-671.105	-13.348	0.177	0.115
-670.091	113.712	0.139	-0.168
-669.076	-117.407	0.184	-0.033
-668.062	-200.000	-0.046	0.305
-667.047	17.085	0.071	-0.056
-666.032	146.957	0.155	-0.208
-665.018	-109.153	-0.163	-0.035
-664.003	89.050	0.027	-0.031
-662.989	11.738	0.286	0.219
-661.974	-66.482	-0.195	0.077
-660.959	188.397	0.145	0.217
-659.945	-6.079	0.119	0.081
-658.930	596.333	-0.097	0.239
-657.916	-27.015	0.136	0.079
-656.901	175.732	0.218	-0.316
-655.886	-200.000	0.032	-0.414
-654.872	-87.629	0.115	-0.035
-653.857	189.839	0.191	-0.286
-652.843	27.648	-0.184	-0.155
-651.828	421.123	0.097	0.208
-650.814	800.000	0.087	0.335
-649.799	32.700	0.105	-0.091
-648.784	85.750	0.292	-0.320
-647.770	-200.000	-0.025	0.139
-646.755	118.229	-0.118	-0.145
-645.741	53.131	0.115	0.110
-644.726	800.000	0.044	-0.156
-643.711	-80.464	0.184	-0.061
-642.697	48.384	0.145	-0.136
-641.682	116.081	0.126	-0.154
-640.668	800.000	-0.036	-0.116
-639.653	-135.997	-0.418	0.049
-638.638	800.000	0.082	-0.290
-637.624	-200.000	0.007	-0.257
-636.609	-98.264	0.230	-0.059
-635.595	-18.308	-0.099	0.062
-634.580	111.898	-0.148	-0.179
-633.565	66.849	-0.365	-0.371
-632.551	97.971	-0.117	-0.135
-631.536	363.632	0.094	0.189
-630.522	237.593	-0.102	-0.169
-629.507	18.450	0.400	-0.319
-628.492	-157.798	-0.150	0.009
-627.478	-112.549	0.160	0.032
-626.463	-200.000	-0.062	-0.335
-625.449	-200.000	-0.011	0.126
-624.434	-200.000	0.007	-0.157
-623.419	-81.199	0.209	-0.069
-622.405	-113.695	-0.013	0.002
-621.390	-200.000	0.008	-0.099
-620.376	-82.294	0.066	0.021
-619.361	546.872	0.081	0.192
-618.346	-200.000	-0.026	-0.242
-617.332	-146.235	-0.226	-0.020
-616.317	-200.000	0.005	0.122
-615.303	-55.539	-0.223	-0.100
-614.288	70.512	-0.264	0.273
-613.273	104.757	-0.084	-0.099
-612.259	-200.000	-0.034	-0.185
-611.244	124.195	0.279	-0.350
-610.230	-47.622	0.249	0.121
-609.215	-134.180	-0.116	0.014
-608.201	407.293	-0.016	-0.034
-607.186	20.507	0.082	0.066
-606.171	-200.000	-0.004	0.171
-605.157	53.513	0.209	-0.200
-604.142	800.000	-0.135	0.558
-603.128	-23.398	-0.042	-0.025
-602.113	-187.779	-0.168	0.002
-601.098	-200.000	0.045	-0.221
-600.084	104.129	-0.132	-0.155
-599.069	800.000	0.038	-0.117
-598.055	106.827	-0.046	0.055
-597.040	-39.153	-0.097	-0.051
-596.025	800.000	-0.148	-0.409
-595.011	459.279	-0.064	0.142
-593.996	86.001	-0.233	0.255
-592.982	23.363	-0.229	0.188
-591.967	-101.169	-0.261	0.064
-590.952	35.866	-0.011	-0.010
-589.938	800.000	0.080	0.229
-588.923	95.092	-0.117	0.132
-587.909	-200.000	0.016	-0.209
-586.894	-95.033	0.205	0.055
-585.879	-145.657	0.137	-0.012
-584.865	122.509	-0.171	-0.213
-583.850	-158.155	0.472	0.028
-582.836	-76.994	-0.117	0.041
-581.821	108.554	-0.061	0.072
-580.806	-143.708	0.126	0.012
-579.792	22.983	-0.133	0.108
-578.777	121.503	0.063	-0.078
-577.763	-200.000	0.050	-0.265
-576.748	6.945	-0.312	0.232
-575.733	-73.140	-0.063	-0.023
-574.719	-123.482	0.385	-0.061
-573.704	-200.000	-0.022	-0.327
-572.690	-76.882	-0.064	0.022
-571.675	-61.999	0.188	-0.078
-570.661	12.869	0.143	-0.110
-569.646	-80.382	0.280	-0.093
-568.631	82.434	-0.207	0.224
-567.617	-200.000	0.007	0.088
-566.602	-14.591	0.210	-0.135
-565.588	-105.591	0.229	-0.052
-564.573	-115.280	-0.560	-0.105
-563.558	-74.791	0.239	-0.085
-562.544	-200.000	-0.044	-0.247
-561.529	800.000	0.018	0.051
-560.515	-153.811	0.302	-0.021
-559.500	-200.000	-0.011	0.307
-558.485	227.163	0.150	-0.243
-557.471	-200.000	0.163	0.000
-556.456	-44.175	-0.192	-0.096
-555.442	-86.416	0.115	-0.035
-554.427	391.059	0.092	-0.190
-553.412	39.035	-0.102	-0.091
-552.398	-58.327	0.168	0.073
-551.383	162.074	-0.134	-0.187
-550.369	800.000	0.048	0.154
-549.354	-200.000	-0.006	0.171
-548.339	-135.178	0.284	0.034
-547.325	-18.426	-0.097	0.060
-546.310	-144.340	0.221	-0.020
-545.296	-59.191	-0.167	0.072
-544.281	-200.000	-0.024	0.128
-543.266	-130.393	-0.335	0.045
-542.252	-200.000	0.067	-0.329
-541.237	-107.440	0.236	0.052
-540.223	800.000	-0.038	0.129
-539.208	43.010	0.052	-0.047
-538.193	-109.744	0.349	0.073
-537.179	-81.372	0.227	0.074
-536.164	600.565	0.120	-0.297
-535.150	-33.072	-0.249	0.137
-534.135	126.315	-0.255	0.321
-533.121	200.861	0.088	-0.134
-532.106	-200.000	-0.019	0.261
-531.091	-125.401	-0.603	-0.091
-530.077	-105.929	-0.237	-0.053
-529.062	-200.000	-0.025	0.242
-528.048	521.314	-0.175	-0.408
-527.033	-200.000	0.001	-0.049
-526.018	711.358	-0.104	0.272
-525.004	-200.000	0.013	-0.096
-523.989	-61.293	0.211	0.088
-522.975	-75.745	-0.217	0.077
-521.960	-160.557	-0.257	0.014
-520.945	-49.146	-0.438	-0.208
-519.931	162.845	-0.159	0.222
-518.916	13.728	0.270	0.209
-517.902	241.025	0.086	-0.143
-516.887	-200.000	-0.004	-0.156
-515.872	-191.736	0.224	-0.002
-514.858	-200.000	-0.025	-0.162
-513.843	-28.014	-0.242	0.139
-512.829	-89.199	-0.316	-0.093
-511.814	-132.857	-0.036	0.005
-510.799	274.978	-0.028	0.050
-509.785	-200.000	-0.011	-0.076
-508.770	-9.931	-0.411	0.272
-507.756	-200.000	0.023	0.322
-506.741	-21.372	0.049	0.029
-505.726	76.553	0.144	-0.152
-504.712	80.089	-0.058	0.062
-503.697	-111.014	-0.095	0.019
-502.683	800.000	-0.080	-0.257
-501.668	125.801	0.134	0.168
-500.653	-127.587	-0.238	0.034
-499.639	-200.000	0.013	-0.106
-498.624	-58.186	0.115	-0.050
-497.610	-140.719	0.320	-0.033
-496.595	-22.892	-0.261	-0.156
-495.581	-70.581	0.257	-0.096
-494.566	633.551	0.132	-0.333
-493.551	800.000	-0.077	-0.308
-492.537	83.504	-0.081	-0.088
-491.522	-200.000	-0.007	0.115
-490.508	-86.404	-0.152	0.047
-489.493	-66.506	-0.209	0.082
-488.478	-11.003	0.195	-0.128
-487.464	164.710	0.123	0.172
-486.449	-42.547	0.395	-0.200
-485.435	-24.649	-0.173	0.102
-484.420	-125.187	-0.349	0.053
-483.405	-71.675	-0.090	0.033
-482.391	701.160	-0.032	-0.084
-481.376	132.012	0.050	-0.064
-480.362	-11.793	-0.209	-0.136
-479.347	800.000	0.070	-0.195
-478.332	-57.224	-0.174	0.076
-477.318	465.552	0.044	0.099
-476.303	207.754	0.221	0.343
-475.289	-10.956	0.401	0.263
-474.274	-142.442	0.247	0.024
-473.259	763.938	-0.100	0.269
-472.245	11.254	-0.355	0.270
-471.230	486.937	0.118	0.267
-470.216	800.000	-0.064	0.183
-469.201	-11.061	0.176	-0.115
-468.186	-195.301	0.064	-0.000
-467.172	-123.914	0.223	-0.035
-466.157	181.525	-0.148	0.216
-465.143	-200.000	0.048	-0.368
-464.128	-164.353	-0.386	-0.018
-463.113	286.877	-0.102	-0.183
-462.099	-95.494	0.249	-0.066
-461.084	28.065	0.236	0.197
-460.070	383.913	-0.091	-0.185
-459.055	243.827	-0.035	-0.059
-458.040	-142.737	-0.033	-0.003
-457.026	-83.364	0.227	-0.072
-456.011	-62.593	-0.298	-0.123
-454.997	204.765	0.074	-0.113
-453.982	236.991	-0.234	-0.384
-452.968	57.055	0.018	-0.018
-451.953	-200.000	-0.006	-0.077
-450.938	0.440	0.237	-0.168
-449.924	255.848	0.105	0.178
-448.909	103.455	-0.127	0.147
-447.895	800.000	0.051	0.177
-446.880	-26.821	-0.135	-0.078
-445.865	24.232	0.227	0.186
-444.851	-76.143	0.313	0.110
-443.836	800.000	0.081	-0.237
-442.822	-47.621	-0.182	-0.087
-441.807	290.566	-0.128	-0.231
-440.792	27.640	0.197	-0.164
-439.778	-200.000	-0.021	0.201
-438.763	-92.534	0.107	0.030
-437.749	0.214	0.111	0.078
-436.734	-80.283	-0.261	-0.086
-435.719	-48.981	0.265	0.126
-434.705	123.417	0.190	-0.236
-433.690	800.000	0.066	-0.189
-432.676	-200.000	-0.007	0.138
-431.661	609.537	0.214	0.529
-430.646	155.205	0.231	-0.315
-429.632	49.774	0.200	-0.187
-428.617	81.092	-0.128	-0.137
-427.603	20.454	-0.164	0.131
-426.588	570.293	-0.114	0.275
-425.573	45.187	-0.267	0.243
-424.559	-71.455	0.303	0.112
-423.544	-200.000	-0.070	-0.453
-422.530	175.039	0.250	0.358
-421.515	123.112	0.086	0.106
-420.500	-92.752	0.347	-0.096
-419.486	-103.845	0.271	0.063
-418.471	-19.140	-0.309	0.190
-417.457	326.460	0.020	0.037
-416.442	-200.000	-0.023	-0.117
-415.428	800.000	-0.047	-0.187
-414.413	-64.731	0.197	-0.079
-413.398	-200.000	0.021	0.245
-412.384	-200.000	-0.014	0.130
-411.369	109.262	-0.228	-0.270
-410.355	-200.000	-0.067	0.483
-409.340	800.000	0.028	0.112
-408.325	-59.222	-0.411	0.175
-407.311	-47.740	0.405	0.194
-406.296	-135.920	0.149	0.017
-405.282	-97.155	-0.328	0.085
-404.267	-145.155	0.111	0.010
-403.252	49.282	0.260	0.242
-402.238	-200.000	-0.033	-0.334
-401.223	-62.100	-0.193	0.080
-400.209	200.195	-0.091	0.139
-399.194	-200.000	-0.037	0.328
-398.179	211.073	-0.191	-0.297
-397.165	524.784	-0.111	-0.258
-396.150	-80.144	0.423	-0.140
-395.136	-200.000	0.027	0.330
-394.121	180.059	-0.212	0.308
-393.106	522.781	-0.116	-0.269
-392.092	54.158	-0.191	-0.181
-391.077	800.000	-0.050	0.171
-390.063	-200.000	0.052	0.359
-389.048	-111.613	0.199	0.040
-388.033	-75.497	0.347	-0.122
-387.019	-122.211	-0.176	0.028
-386.004	447.290	-0.174	-0.379
-384.990	-67.290	-0.192	0.075
-383.975	254.848	-0.061	-0.103
-382.960	11.099	0.206	-0.156
-381.946	-32.837	-0.312	0.172
-380.931	-8.769	0.097	0.064
-379.917	447.817	0.091	-0.198
-378.902	-200.000	0.037	0.244
-377.888	-9.111	-0.201	0.133
-376.873	91.072	0.210	0.233
-375.858	29.427	-0.147	0.124
-374.844	314.246	0.018	0.033
-373.829	33.718	-0.142	-0.122
-372.815	121.931	0.122	-0.150
-371.800	59.164	-0.263	-0.256
-370.785	-47.261	-0.098	0.047
-369.771	-160.137	-0.257	-0.014
-368.756	34.331	-0.243	-0.210
-367.742	-7.224	0.115	0.077
-366.727	43.179	0.143	-0.129
-365.712	58.264	-0.146	0.142
-364.698	-45.595	-0.235	0.115
-363.683	356.191	-0.092	0.180
-362.669	278.528	-0.147	0.260
-361.654	-37.582	-0.324	0.170
-360.639	800.000	-0.016	-0.052
-359.625	422.302	-0.065	-0.137
-358.610	121.690	0.045	0.056
-357.596	122.486	-0.167	0.206
-356.581	-24.795	0.208	-0.122
-355.566	114.202	-0.100	-0.121
-354.552	-42.688	-0.213	-0.107
-353.537	-61.529	0.079	-0.033
-352.523	75.907	-0.187	-0.196
-351.508	-24.330	-0.253	0.149
-350.493	-69.996	0.201	-0.076
-349.479	248.653	0.208	0.348
-348.464	30.103	0.259	0.218
-347.450	-200.000	-0.311	0.002
-346.435	93.929	0.118	0.132
-345.420	160.341	0.086	0.118
-344.406	210.003	0.151	0.234
-343.391	286.622	-0.120	-0.214
-342.377	40.490	0.126	-0.112
-341.362	-39.991	0.153	-0.079
-340.348	-183.229	0.280	0.005
-339.333	-178.874	0.098	-0.002
-338.318	-162.243	0.356	-0.018
-337.304	800.000	0.107	0.337
-336.289	23.687	-0.342	0.278
-335.275	-200.000	-0.006	0.187
-334.260	-200.000	0.068	-0.401
-333.245	-200.000	-0.003	0.069
-332.231	-200.000	-0.010	0.305
-331.216	-200.000	0.064	0.288
-330.202	155.857	-0.094	-0.128
-329.187	-109.137	-0.120	0.025
-328.172	-200.000	0.017	0.096
-327.158	423.153	-0.045	0.095
-326.143	-200.000	0.016	-0.181
-325.129	459.307	0.083	-0.183
-324.114	-96.809	0.121	-0.031
-323.099	-17.113	0.097	0.061
-322.085	-130.275	-0.045	0.006
-321.070	-19.210	0.279	-0.171
-320.056	0.574	0.300	0.211
-319.041	-105.231	-0.271	-0.061
-318.026	-200.000	-0.084	0.441
-317.012	188.826	-0.148	0.219
-315.997	76.978	-0.078	-0.082
-314.983	327.239	-0.068	0.128
-313.968	-75.286	0.210	-0.074
-312.953	-135.795	-0.219	-0.025
-311.939	-185.109	0.175	-0.003
-310.924	271.814	0.098	0.170
-309.910	-26.864	0.421	0.243
-308.895	461.539	-0.078	0.171
-307.880	-115.255	0.034	-0.006
-306.866	196.289	0.073	-0.109
-305.851	-95.758	-0.257	-0.068
-304.837	288.583	0.021	-0.037
-303.822	800.000	-0.059	0.199
-302.807	194.169	0.104	-0.155
-301.793	4.208	-0.236	-0.170
-300.778	-164.015	0.233	-0.011
-299.764	-158.602	-0.373	0.021
-298.749	800.000	-0.031	-0.131
-297.735	-164.514	-0.136	-0.006
-296.720	-103.908	0.269	-0.062
-295.705	125.980	-0.217	0.270
-294.691	40.689	0.253	0.225
-293.676	109.533	-0.062	-0.073
-292.662	-200.000	0.015	-0.173
-291.647	-164.743	0.317	0.014
-290.632	-121.966	-0.087	-0.014
-289.618	77.203	0.105	-0.110
-288.603	368.063	-0.064	0.127
-287.589	22.092	-0.177	0.142
-286.574	-200.000	0.017	-0.084
-285.559	155.131	-0.233	0.316
-284.545	113.959	-0.233	-0.279
-283.530	-51.607	0.117	0.054
-282.516	-24.161	-0.170	-0.100
-281.501	239.569	-0.124	-0.204
-280.486	352.546	-0.076	-0.148
-279.472	-200.000	-0.000	-0.040
-278.457	-163.316	-0.365	-0.017
-277.443	800.000	0.071	0.217
-276.428	171.471	0.228	-0.323
-275.413	152.616	-0.129	-0.174
-274.399	-79.938	0.218	-0.072
-273.384	-200.000	0.006	0.236
-272.370	-103.231	-0.273	0.063
-271.355	1.795	0.181	-0.128
-270.340	800.000	-0.032	-0.114
-269.326	426.353	0.119	-0.253
-268.311	-200.000	-0.015	0.114
-267.297	146.920	-0.154	0.204
-266.282	51.687	0.148	0.138
-265.267	1.655	-0.064	0.046
-264.253	-13.863	-0.033	0.021
-263.238	-102.451	0.153	0.036
-262.224	800.000	-0.048	-0.169
-261.209	-152.153	-0.075	-0.005
-260.195	286.342	-0.241	-0.427
-259.180	246.250	-0.154	-0.256
-258.165	-200.000	0.019	-0.326
-257.151	-126.648	-0.318	0.046
-256.136	-200.000	-0.020	0.324
-255.122	-49.743	0.122	-0.057
-254.107	149.607	0.111	-0.148
-253.092	147.890	0.032	0.043
-252.078	231.986	0.079	-0.127
-251.063	308.489	0.141	-0.258
-250.049	-106.218	-0.123	0.027
-249.034	71.117	0.230	-0.234
-248.019	-15.160	-0.228	0.143
-247.005	370.113	-0.112	0.224
-245.990	77.632	0.100	-0.105
-244.976	116.272	0.178	-0.214
-243.961	800.000	-0.059	0.248
-242.946	-128.623	0.225	-0.031
-241.932	-78.236	-0.116	0.039
-240.917	19.824	-0.056	0.044
-239.903	-122.048	-0.090	0.015
-238.888	17.359	0.133	0.104
-237.873	800.000	-0.030	0.128
-236.859	483.146	-0.085	0.189
-235.844	122.752	-0.105	0.129
-234.830	-119.553	0.247	0.042
-233.815	800.000	-0.074	0.203
-232.800	36.194	0.221	-0.191
-231.786	800.000	-0.193	0.532
-230.771	-115.019	-0.258	-0.048
-229.757	-200.000	-0.051	-0.254
-228.742	-45.279	-0.354	0.173
-227.727	-153.072	0.043	-0.003
-226.713	-178.880	0.347	-0.008
-225.698	-200.000	0.051	0.310
-224.684	312.320	-0.145	0.267
-223.669	-63.162	0.299	0.121
-222.655	-200.000	-0.025	0.196
-221.640	800.000	-0.026	0.090
-220.625	800.000	-0.037	0.111
-219.611	14.534	-0.045	0.034
-218.596	28.237	0.165	0.137
-217.582	-10.864	-0.192	0.125
-216.567	-200.000	0.005	-0.130
-215.552	-96.012	0.260	0.068
-214.538	800.000	0.065	-0.267
-213.523	800.000	0.097	-0.385
-212.509	410.289	0.046	0.095
-211.494	-92.755	0.070	0.019
-210.479	800.000	0.067	0.273
-209.465	-137.108	0.008	-0.001
-208.450	41.953	0.192	0.171
-207.436	27.627	0.222	0.183
-206.421	537.083	-0.085	-0.198
-205.406	144.123	0.224	-0.293
-204.392	-200.000	-0.001	-0.077
-203.377	-87.695	-0.189	-0.056
-202.363	-101.964	-0.161	-0.038
-201.348	-39.954	0.178	0.091
-200.333	5.078	-0.149	-0.108
-199.319	-75.872	0.312	-0.108
-198.304	800.000	-0.055	-0.191
-197.290	122.487	-0.081	-0.099
-196.275	-200.000	-0.050	-0.373
-195.260	-200.000	-0.000	-0.090
-194.246	-6.180	0.134	0.090
-193.231	725.092	0.141	0.368
-192.217	-70.920	0.285	0.105
-191.202	800.000	0.058	0.158
-190.187	800.000	0.093	-0.398
-189.173	171.036	0.029	-0.040
-188.158	-200.000	-0.017	-0.301
-187.144	-128.868	-0.380	0.052
-186.129	800.000	0.037	0.144
-185.114	36.357	-0.086	-0.074
-184.100	-119.671	-0.191	-0.032
-183.085	75.293	0.196	-0.203
-182.071	61.617	-0.028	0.027
-181.056	109.148	-0.043	-0.051
-180.042	167.219	-0.061	-0.085
-179.027	800.000	0.046	0.153
-178.012	728.128	-0.009	0.023
-176.998	118.029	-0.080	0.097
-175.983	-76.761	0.130	0.045
-174.969	-149.113	-0.379	-0.030
-173.954	-104.161	-0.096	0.022
-172.939	778.685	0.060	0.161
-171.925	-96.044	0.347	-0.090
-170.910	-200.000	-0.004	-0.022
-169.896	800.000	-0.065	0.253
-168.881	7.186	-0.312	-0.228
-167.866	20.995	0.180	-0.143
-166.852	-34.313	-0.169	-0.091
-165.837	377.512	0.055	0.110
-164.823	-124.915	0.130	0.020
-163.808	137.700	0.218	0.279
-162.793	27.964	0.032	-0.026
-161.779	-187.264	-0.147	-0.002
-160.764	-39.322	-0.506	0.260
-159.750	-200.000	0.002	0.499
-158.735	-5.188	-0.171	0.115
-157.720	-200.000	-0.029	-0.324
-156.706	43.085	0.193	0.172
-155.691	-35.431	0.194	0.103
-154.677	79.444	0.229	-0.241
-153.662	234.916	0.193	-0.312
-152.647	38.512	0.174	-0.152
-151.633	-177.334	0.219	0.005
-150.618	-57.275	-0.323	0.139
-149.604	149.353	0.140	0.185
-148.589	800.000	0.065	0.178
-147.574	-200.000	0.056	0.251
-146.560	91.206	-0.126	-0.139
-145.545	-107.803	0.133	-0.028
-144.531	800.000	0.061	0.236
-143.516	-128.525	-0.495	0.069
-142.502	800.000	0.120	-0.394
-141.487	800.000	-0.116	0.378
-140.472	-123.209	0.220	-0.035
-139.458	90.933	-0.224	0.246
-138.443	26.425	-0.176	0.144
-137.429	-119.299	0.298	-0.051
-136.414	-104.074	-0.287	0.065
-135.399	-153.829	0.087	-0.006
-134.385	69.707	0.249	0.251
-133.370	-200.000	0.048	0.317
-132.356	318.588	-0.113	-0.209
-131.341	19.239	0.150	0.118
-130.326	-152.106	0.225	-0.016
-129.312	-65.509	0.304	0.119
-128.297	800.000	0.030	-0.117
-127.283	800.000	0.090	-0.284
-126.268	-188.681	0.121	-0.001
-125.253	800.000	0.030	0.110
-124.239	461.057	0.124	0.269
-123.224	800.000	-0.056	0.208
-122.210	-123.070	0.172	-0.027
