DTS Sentinel unit serial number:	SN413079Multiplexer serial number:	ORYXHardware model number:	OX4-SRSoftware version number:	ORYX F/W v4.00 Oryx Data Collector v3.7.2.0data status	okinstallation	princeton_trtdifferential loss correction	single-endedforward channel	channel 3reverse channel	N/Adate	2019/09/10time	22:02:10forward acquisition time	60.00reverse acquisition time	0.00gamma	496.2192k internal	0.2330k external	0.2330temperature offset calibration	0.9917default loss term (dB/km)	0.3790temperature slope calibration	1.0000multiplexer offset coefficient	1.0000multiplexer slope coefficient	1.0000fibre end	0.00T internal ref (°C)	30.67T ext. ref 1 (°C)	-0.31T ext. ref 2 (°C)	23.97length (m)	temperature (°C)	Stokes	anti-Stokes-747.200	-186.652	-0.203	0.003
-746.185	-43.973	-0.201	0.102
-745.171	39.490	0.039	-0.035
-744.156	-137.582	0.172	-0.019
-743.142	800.000	0.112	-0.446
-742.127	800.000	-0.095	0.350
-741.112	103.650	0.300	0.355
-740.098	185.117	-0.149	0.222
-739.083	190.614	0.116	-0.176
-738.069	-200.000	-0.058	0.314
-737.054	29.889	0.064	0.055
-736.039	-116.507	0.132	0.025
-735.025	111.370	-0.148	0.180
-734.010	332.730	-0.287	0.558
-732.996	179.305	0.088	0.130
-731.981	193.120	-0.159	-0.241
-730.966	-26.691	-0.249	0.147
-729.952	-66.506	-0.152	0.061
-728.937	-59.891	0.060	-0.026
-727.923	533.426	0.100	0.238
-726.908	-200.000	-0.024	-0.550
-725.894	-200.000	-0.017	-0.209
-724.879	-46.683	-0.469	0.231
-723.864	-148.756	-0.329	-0.027
-722.850	-200.000	0.022	0.290
-721.835	800.000	-0.065	-0.196
-720.821	-103.960	-0.458	-0.108
-719.806	-116.571	-0.277	-0.051
-718.791	112.683	-0.214	0.260
-717.777	800.000	-0.060	-0.255
-716.762	800.000	-0.049	-0.210
-715.748	66.865	-0.118	0.121
-714.733	-171.975	-0.107	-0.003
-713.718	-92.272	0.122	-0.035
-712.704	39.251	0.127	-0.114
-711.689	800.000	0.049	0.160
-710.675	-68.247	0.432	0.169
-709.660	185.563	-0.156	0.232
-708.645	23.132	-0.118	0.098
-707.631	-34.504	0.378	-0.208
-706.616	-102.546	-0.211	-0.051
-705.602	800.000	-0.061	0.175
-704.587	-59.227	-0.208	0.090
-703.572	-200.000	0.004	-0.033
-702.558	295.304	0.102	0.187
-701.543	-200.000	-0.038	-0.176
-700.529	528.924	-0.081	-0.193
-699.514	-159.543	0.100	0.006
-698.499	-105.790	0.126	0.029
-697.485	-4.432	-0.027	0.018
-696.470	-0.434	-0.239	0.171
-695.456	-97.428	0.275	0.072
-694.441	365.763	-0.149	0.302
-693.426	-200.000	0.042	0.450
-692.412	-59.402	0.217	-0.094
-691.397	800.000	0.034	0.141
-690.383	498.166	-0.108	0.249
-689.368	-200.000	0.013	-0.142
-688.354	-20.999	0.222	-0.137
-687.339	347.635	-0.147	0.291
-686.324	800.000	-0.058	-0.190
-685.310	-174.835	-0.211	-0.006
-684.295	-67.311	-0.189	0.075
-683.281	-200.000	-0.012	-0.188
-682.266	7.279	-0.293	-0.220
-681.251	-108.208	-0.203	0.044
-680.237	-44.891	0.252	0.126
-679.222	-155.921	-0.143	0.009
-678.208	39.404	-0.171	0.153
-677.193	353.030	-0.073	-0.145
-676.178	-143.911	-0.194	-0.018
-675.164	-68.750	-0.148	0.057
-674.149	800.000	-0.062	0.204
-673.135	-200.000	-0.004	0.163
-672.120	800.000	-0.032	0.139
-671.105	52.791	0.112	-0.108
-670.091	-22.574	-0.223	0.136
-669.076	427.540	0.094	-0.203
-668.062	-200.000	-0.041	-0.240
-667.047	-49.636	-0.140	-0.067
-666.032	228.642	0.121	-0.197
-665.018	-200.000	-0.012	0.056
-664.003	-46.893	-0.543	0.266
-662.989	-200.000	0.011	0.242
-661.974	-23.715	0.244	-0.147
-660.959	-57.442	0.150	0.066
-659.945	461.451	0.077	0.172
-658.930	241.421	-0.098	0.165
-657.916	-7.800	0.176	-0.119
-656.901	-200.000	-0.016	-0.173
-655.886	-200.000	0.046	-0.206
-654.872	1.360	-0.065	-0.047
-653.857	-148.991	-0.414	0.033
-652.843	-200.000	0.027	0.149
-651.828	800.000	-0.136	0.470
-650.814	800.000	0.042	-0.148
-649.799	-34.879	0.558	0.306
-648.784	289.887	0.100	-0.182
-647.770	33.316	-0.062	-0.054
-646.755	-200.000	0.003	0.014
-645.741	-145.572	-0.327	0.029
-644.726	309.800	0.104	-0.195
-643.711	-63.259	0.074	-0.031
-642.697	533.101	0.139	0.331
-641.682	173.151	0.197	0.285
-640.668	-13.391	0.117	-0.076
-639.653	-200.000	0.016	0.149
-638.638	-100.964	0.231	0.057
-637.624	-200.000	0.003	-0.127
-636.609	32.082	-0.145	-0.125
-635.595	-152.764	0.161	0.011
-634.580	71.340	-0.109	-0.113
-633.565	501.870	0.083	-0.192
-632.551	38.543	-0.043	0.039
-631.536	66.269	0.174	-0.177
-630.522	-200.000	-0.009	0.057
-629.507	635.260	0.048	-0.123
-628.492	255.994	0.074	-0.127
-627.478	267.800	0.212	-0.372
-626.463	11.271	-0.380	-0.292
-625.449	78.465	0.363	0.388
-624.434	578.304	-0.012	0.030
-623.419	-4.767	-0.244	-0.169
-622.405	-51.490	-0.070	0.033
-621.390	800.000	0.116	0.326
-620.376	233.436	-0.098	0.161
-619.361	76.816	-0.111	-0.118
-618.346	307.670	0.114	-0.212
-617.332	-118.266	0.336	-0.060
-616.317	72.353	-0.085	0.088
-615.303	-16.097	0.196	-0.125
-614.288	57.489	-0.166	0.163
-613.273	800.000	0.087	0.259
-612.259	-150.217	-0.309	-0.024
-611.244	-67.561	-0.080	-0.032
-610.230	-127.815	0.158	0.023
-609.215	108.904	-0.025	0.030
-608.201	-51.837	-0.319	0.149
-607.186	223.005	-0.089	0.144
-606.171	-107.291	0.056	0.012
-605.157	541.942	0.140	-0.334
-604.142	-42.435	0.351	0.179
-603.128	-0.669	-0.328	0.233
-602.113	-119.917	-0.212	0.036
-601.098	99.114	0.034	0.040
-600.084	800.000	0.079	-0.292
-599.069	43.771	0.067	-0.061
-598.055	30.740	0.152	-0.130
-597.040	-111.499	0.315	0.064
-596.025	20.442	-0.123	0.099
-595.011	-6.212	-0.133	-0.091
-593.996	665.935	-0.077	-0.198
-592.982	68.835	-0.295	-0.303
-591.967	-115.179	-0.240	-0.046
-590.952	-21.535	0.210	-0.128
-589.938	-117.686	-0.034	0.006
-588.923	57.342	0.147	-0.143
-587.909	625.308	-0.049	0.123
-586.894	-40.114	0.076	0.040
-585.879	-200.000	-0.009	-0.273
-584.865	-70.685	-0.255	-0.096
-583.850	-56.241	0.090	-0.040
-582.836	-0.429	-0.128	-0.091
-581.821	256.632	0.116	0.199
-580.806	111.129	0.096	0.115
-579.792	-200.000	-0.058	0.402
-578.777	31.669	-0.429	0.369
-577.763	800.000	0.038	-0.124
-576.748	372.471	-0.089	-0.182
-575.733	-27.507	-0.046	-0.027
-574.719	-200.000	0.034	0.283
-573.704	-115.846	0.070	0.013
-572.690	24.190	-0.479	0.395
-571.675	231.373	0.275	0.451
-570.661	-200.000	-0.022	-0.164
-569.646	-44.671	-0.278	0.139
-568.631	800.000	0.039	-0.162
-567.617	800.000	-0.009	-0.025
-566.602	800.000	-0.156	0.481
-565.588	-116.200	0.214	0.040
-564.573	-158.124	-0.383	-0.022
-563.558	-13.595	0.047	-0.031
-562.544	800.000	-0.023	0.100
-561.529	281.101	-0.231	-0.413
-560.515	-200.000	-0.023	-0.377
-559.500	-42.235	0.417	0.213
-558.485	-165.357	-0.238	0.010
-557.471	236.047	-0.140	-0.232
-556.456	128.716	-0.117	0.149
-555.442	-112.205	-0.217	-0.044
-554.427	355.830	-0.094	-0.186
-553.412	85.717	0.117	0.129
-552.398	67.957	0.175	0.179
-551.383	-74.699	0.109	-0.039
-550.369	-200.000	-0.022	0.135
-549.354	800.000	-0.106	0.343
-548.339	178.018	0.181	0.264
-547.325	-85.108	0.291	-0.091
-546.310	63.589	0.212	-0.212
-545.296	-93.584	-0.312	0.086
-544.281	-123.534	0.136	-0.022
-543.266	63.834	-0.139	-0.139
-542.252	-135.124	0.117	-0.014
-541.237	-136.131	0.205	0.024
-540.223	182.637	-0.087	0.128
-539.208	-200.000	0.061	0.399
-538.193	331.180	0.057	0.110
-537.179	-200.000	0.003	-0.098
-536.164	102.802	0.098	-0.115
-535.150	336.943	-0.055	0.107
-534.135	82.964	-0.161	-0.175
-533.121	-8.796	-0.264	0.177
-532.106	55.075	0.096	-0.092
-531.091	-200.000	-0.006	-0.147
-530.077	89.876	0.042	-0.046
-529.062	281.663	0.180	-0.323
-528.048	367.364	0.040	-0.080
-527.033	-200.000	0.023	-0.181
-526.018	22.083	0.059	0.048
-525.004	-20.539	0.394	0.242
-523.989	800.000	0.066	0.195
-522.975	11.520	0.160	0.122
-521.960	-43.344	0.153	0.077
-520.945	-68.373	-0.225	0.087
-519.931	-149.785	-0.304	0.024
-518.916	24.931	-0.093	0.077
-517.902	-93.428	-0.052	-0.014
-516.887	-46.935	-0.332	-0.162
-515.872	-55.743	-0.222	0.099
-514.858	-23.975	0.239	0.143
-513.843	116.028	-0.259	0.317
-512.829	155.123	-0.244	-0.335
-511.814	800.000	-0.065	-0.196
-510.799	-6.628	0.209	-0.142
-509.785	84.600	-0.139	0.152
-508.770	116.899	-0.110	0.134
-507.756	778.121	0.170	-0.463
-506.741	301.929	-0.039	0.073
-505.726	-83.278	-0.131	-0.042
-504.712	463.164	0.049	0.108
-503.697	800.000	0.027	0.110
-502.683	292.198	0.119	0.217
-501.668	800.000	0.078	-0.329
-500.653	192.297	-0.059	0.089
-499.639	-200.000	-0.077	0.416
-498.624	-47.944	0.132	0.064
-497.610	800.000	-0.083	-0.294
-496.595	-108.762	0.166	0.036
-495.581	576.000	0.033	0.080
-494.566	-118.870	0.170	0.030
-493.551	-81.449	-0.054	-0.018
-492.537	-200.000	0.002	0.300
-491.522	294.151	0.092	-0.168
-490.508	-121.233	-0.185	0.031
-489.493	-93.767	0.055	0.015
-488.478	800.000	-0.064	-0.260
-487.464	17.440	-0.074	0.059
-486.449	49.984	-0.168	-0.158
-485.435	800.000	0.001	-0.003
-484.420	-102.145	-0.237	0.057
-483.405	-200.000	0.027	-0.327
-482.391	49.604	-0.149	0.140
-481.376	-165.103	-0.223	0.010
-480.362	30.677	-0.144	0.123
-479.347	-129.191	0.226	0.031
-478.332	-200.000	0.007	-0.231
-477.318	-200.000	0.033	-0.163
-476.303	800.000	0.053	-0.202
-475.289	118.938	0.190	-0.235
-474.274	800.000	0.062	0.196
-473.259	-57.217	-0.173	-0.076
-472.245	73.651	-0.091	-0.095
-471.230	48.759	-0.123	0.115
-470.216	-106.679	-0.209	-0.046
-469.201	-152.058	0.388	0.028
-468.186	-117.901	0.042	-0.007
-467.172	800.000	-0.116	-0.370
-466.157	626.106	-0.098	-0.247
-465.143	58.192	-0.165	-0.161
-464.128	-33.590	0.419	-0.230
-463.113	-1.010	0.124	-0.087
-462.099	-200.000	0.097	0.435
-461.084	575.190	-0.177	0.429
-460.070	-29.887	-0.108	-0.061
-459.055	5.631	0.266	-0.196
-458.040	197.402	0.070	0.107
-457.026	-200.000	-0.018	-0.161
-456.011	-200.000	-0.048	-0.243
-454.997	-85.658	-0.186	0.057
-453.982	-112.684	0.123	-0.024
-452.968	-200.000	-0.014	0.070
-451.953	-144.527	0.313	-0.029
-450.938	-147.701	-0.123	-0.010
-449.924	55.043	-0.166	0.159
-448.909	141.369	0.068	-0.090
-447.895	-88.626	0.182	0.054
-446.880	-189.842	-0.138	0.002
-445.865	-139.406	0.132	0.014
-444.851	-161.045	-0.172	-0.009
-443.836	-133.157	0.092	-0.012
-442.822	423.270	-0.036	0.077
-441.807	-12.965	-0.253	0.164
-440.792	251.488	0.030	-0.050
-439.778	-59.453	0.098	0.042
-438.763	-200.000	0.098	-0.663
-437.749	800.000	-0.022	0.081
-436.734	-55.436	-0.044	0.020
-435.719	239.092	0.031	0.051
-434.705	-200.000	-0.017	-0.143
-433.690	63.454	0.096	-0.096
-432.676	-200.000	-0.036	0.221
-431.661	-200.000	0.079	-0.603
-430.646	-64.694	0.113	-0.046
-429.632	-200.000	0.055	0.322
-428.617	532.466	0.036	-0.084
-427.603	33.741	-0.215	0.186
-426.588	73.522	-0.152	0.159
-425.573	-3.579	0.217	0.150
-424.559	14.253	-0.389	0.301
-423.544	-166.786	0.342	0.014
-422.530	800.000	0.034	-0.116
-421.515	800.000	0.113	-0.371
-420.500	9.425	0.158	0.119
-419.486	-123.294	0.235	-0.037
-418.471	59.522	0.132	-0.130
-417.457	-198.969	-0.144	-0.001
-416.442	800.000	-0.040	-0.152
-415.428	800.000	-0.024	0.085
-414.413	6.950	-0.160	0.118
-413.398	31.056	-0.285	0.243
-412.384	-54.420	0.126	-0.057
-411.369	-200.000	-0.004	-0.195
-410.355	-142.634	-0.231	-0.022
-409.340	800.000	-0.041	-0.162
-408.325	134.495	-0.123	0.159
-407.311	17.014	0.184	-0.145
-406.296	-40.998	-0.120	-0.062
-405.282	71.009	0.141	0.145
-404.267	-200.000	0.041	0.339
-403.252	-136.671	-0.481	-0.055
-402.238	-200.000	-0.018	-0.147
-401.223	79.005	0.026	0.028
-400.209	-200.000	0.004	0.177
-399.194	744.533	-0.068	0.183
-398.179	204.298	0.028	-0.042
-397.165	15.068	-0.222	0.173
-396.150	-200.000	0.009	-0.077
-395.136	-110.700	-0.275	0.056
-394.121	14.374	-0.078	0.060
-393.106	65.623	0.105	0.105
-392.092	201.643	-0.066	0.102
-391.077	-34.210	-0.300	0.164
-390.063	731.353	-0.039	-0.104
-389.048	22.691	-0.161	-0.131
-388.033	-200.000	0.008	0.067
-387.019	94.209	0.231	-0.260
-386.004	-47.977	0.204	0.098
-384.990	-76.950	-0.145	0.050
-383.975	-142.963	-0.309	-0.030
-382.960	-104.339	-0.170	-0.039
-381.946	-29.815	0.083	-0.047
-380.931	-75.866	0.092	-0.033
-379.917	43.541	-0.252	0.228
-378.902	50.775	-0.111	0.104
-377.888	-68.429	0.171	-0.066
-376.873	-2.101	-0.264	-0.184
-375.858	-80.781	0.295	0.097
-374.844	22.036	-0.053	-0.043
-373.829	800.000	-0.048	0.162
-372.815	-135.438	-0.104	0.012
-371.800	-17.784	-0.124	-0.077
-370.785	800.000	-0.071	0.256
-369.771	800.000	-0.038	0.155
-368.756	89.303	-0.100	0.110
-367.742	-183.556	-0.022	0.000
-366.727	-48.692	0.174	0.083
-365.712	-121.254	0.331	-0.055
-364.698	-200.000	0.002	0.283
-363.683	70.262	-0.051	-0.052
-362.669	-200.000	0.027	-0.130
-361.654	-16.384	-0.126	0.079
-360.639	800.000	-0.071	-0.255
-359.625	-91.989	-0.214	-0.060
-358.610	340.286	0.135	-0.262
-357.596	-164.022	-0.182	0.008
-356.581	59.688	-0.175	-0.171
-355.566	705.467	-0.081	0.212
-354.552	800.000	-0.226	0.683
-353.537	17.588	-0.148	0.116
-352.523	21.401	-0.144	0.116
-351.508	-71.887	0.304	-0.112
-350.493	-159.932	0.316	0.017
-349.479	-200.000	-0.028	-0.150
-348.464	800.000	0.065	-0.230
-347.450	-200.000	0.007	0.075
-346.435	105.262	0.088	-0.103
-345.420	758.631	0.073	-0.196
-344.406	355.930	0.095	-0.187
-343.391	-153.663	-0.199	-0.014
-342.377	-200.000	0.007	0.175
-341.362	222.532	-0.107	0.170
-340.348	-200.000	-0.005	0.186
-339.333	-46.815	0.192	-0.093
-338.318	-200.000	0.043	-0.201
-337.304	-64.960	0.081	0.032
-336.289	-26.036	0.211	0.123
-335.275	800.000	0.129	-0.393
-334.260	-18.030	-0.068	-0.042
-333.245	-149.928	-0.198	-0.015
-332.231	209.166	-0.056	0.086
-331.216	-156.582	0.245	-0.015
-330.202	85.572	0.132	-0.143
-329.187	508.233	-0.075	0.173
-328.172	-31.139	0.080	-0.045
-327.158	-200.000	0.049	-0.394
-326.143	-200.000	0.011	0.066
-325.129	-125.717	0.083	0.012
-324.114	-87.857	-0.112	-0.033
-323.099	163.329	0.146	0.203
-322.085	76.308	-0.040	0.042
-321.070	-164.640	0.114	0.005
-320.056	800.000	-0.022	0.087
-319.041	-109.332	-0.206	-0.043
-318.026	800.000	-0.093	0.268
-317.012	-23.155	0.386	0.230
-315.997	677.748	-0.211	-0.543
-314.983	12.255	0.173	-0.132
-313.968	800.000	0.053	-0.224
-312.953	358.854	-0.086	0.170
-311.939	-16.181	-0.200	-0.126
-310.924	-116.905	0.152	0.028
-309.910	-200.000	0.018	-0.249
-308.895	556.966	0.126	0.300
-307.880	-46.018	0.255	0.124
-306.866	-118.857	0.044	0.008
-305.851	96.789	0.025	0.028
-304.837	106.475	0.299	-0.351
-303.822	-128.542	-0.158	0.022
-302.807	195.170	0.158	-0.237
-301.793	-65.603	0.385	-0.153
-300.778	-78.390	-0.499	0.169
-299.764	-42.584	-0.093	-0.047
-298.749	90.008	-0.147	-0.162
-297.735	-100.785	0.197	0.048
-296.720	-64.285	0.063	-0.025
-295.705	152.710	-0.272	0.367
-294.691	-79.438	-0.446	-0.149
-293.676	291.872	0.079	-0.142
-292.662	-118.975	0.316	-0.055
-291.647	-125.268	0.284	-0.043
-290.632	800.000	-0.143	-0.400
-289.618	-70.180	-0.364	-0.137
-288.603	412.611	0.031	0.065
-287.589	-200.000	-0.156	0.001
-286.574	101.979	-0.168	0.194
-285.559	72.735	0.196	-0.202
-284.545	269.849	-0.026	0.045
-283.530	-16.984	0.162	0.101
-282.516	-200.000	-0.057	0.271
-281.501	-115.873	0.344	0.064
-280.486	800.000	-0.034	0.125
-279.472	-52.335	-0.333	0.153
-278.457	-62.374	0.034	-0.014
-277.443	16.199	0.225	-0.175
-276.428	-8.315	0.092	0.061
-275.413	-200.000	0.042	0.236
-274.399	116.592	-0.100	-0.121
-273.384	-70.688	0.077	-0.029
-272.370	-75.998	-0.172	0.060
-271.355	-46.300	0.138	-0.067
-270.340	-185.934	0.258	0.004
-269.326	142.085	0.034	-0.044
-268.311	17.360	0.107	-0.084
-267.297	159.435	-0.179	-0.246
-266.282	800.000	0.161	0.450
-265.267	-200.000	-0.005	0.032
-264.253	-64.350	0.252	0.101
-263.238	230.703	0.023	-0.037
-262.224	-25.377	-0.221	-0.129
-261.209	-35.980	0.069	-0.037
-260.195	-10.990	-0.221	0.144
-259.180	225.051	-0.082	-0.131
-258.165	97.132	0.073	-0.082
-257.151	-160.702	0.255	-0.013
-256.136	-29.967	0.237	0.133
-255.122	-200.000	-0.023	-0.118
-254.107	101.084	0.163	-0.188
-253.092	-200.000	-0.049	-0.400
-252.078	302.562	0.093	-0.170
-251.063	67.776	0.080	0.081
-250.049	-140.913	0.192	-0.019
-249.034	307.442	-0.098	0.181
-248.019	524.858	-0.015	0.036
-247.005	800.000	-0.051	-0.142
-245.990	-34.054	-0.091	0.050
-244.976	27.128	0.203	0.168
-243.961	530.848	0.056	-0.131
-242.946	-130.772	0.286	0.038
-241.932	129.726	-0.007	0.009
-240.917	-115.903	-0.491	-0.091
-239.903	-70.249	-0.351	0.132
-238.888	-54.765	-0.314	0.140
-237.873	-130.007	0.145	0.020
-236.859	-200.000	0.192	-0.001
-235.844	4.341	-0.209	-0.151
-234.830	12.596	-0.105	0.080
-233.815	-69.300	-0.218	-0.083
-232.800	-33.909	0.256	-0.139
-231.786	115.005	-0.107	-0.129
-230.771	-93.662	-0.123	0.033
-229.757	-151.233	-0.260	0.019
-228.742	187.029	-0.074	-0.109
-227.727	4.625	0.268	0.194
-226.713	24.548	0.112	-0.091
-225.698	-200.000	-0.004	0.070
-224.684	33.666	0.208	-0.178
-223.669	615.343	0.079	0.195
-222.655	-30.493	0.271	0.152
-221.640	-130.011	-0.281	-0.038
-220.625	367.364	0.185	-0.368
-219.611	419.993	-0.115	-0.243
-218.596	-200.000	0.020	0.182
-217.582	-163.070	0.465	0.022
-216.567	79.417	0.045	-0.048
-215.552	-200.000	0.073	0.380
-214.538	395.439	-0.078	-0.161
-213.523	-110.346	-0.155	0.032
-212.509	-153.727	0.190	0.013
-211.494	119.894	0.086	-0.105
-210.479	17.299	0.171	0.134
-209.465	-200.000	0.008	-0.184
-208.450	188.832	-0.059	-0.086
-207.436	800.000	0.128	0.550
-206.421	-61.731	0.200	-0.083
-205.406	-200.000	0.040	-0.206
-204.392	181.690	-0.082	0.119
-203.377	3.399	0.126	-0.091
-202.363	-20.654	0.068	0.041
-201.348	37.899	-0.278	0.244
-200.333	243.038	-0.044	0.073
-199.319	-23.834	-0.049	0.029
-198.304	37.458	-0.209	0.183
-197.290	390.979	0.127	0.260
-196.275	-106.960	-0.074	-0.016
-195.260	340.002	0.156	0.301
-194.246	11.890	0.123	0.093
-193.231	92.746	0.074	-0.083
-192.217	59.254	-0.350	0.340
-191.202	-156.149	0.152	0.009
-190.187	-171.902	0.142	0.005
-189.173	-51.466	0.225	0.103
-188.158	800.000	0.029	0.086
-187.144	490.220	-0.086	0.193
-186.129	-200.000	0.055	0.267
-185.114	-200.000	-0.019	0.166
-184.100	66.400	-0.239	-0.239
-183.085	-75.725	0.059	0.021
-182.071	-100.901	0.285	0.069
-181.056	800.000	-0.008	0.032
-180.042	-200.000	0.046	0.335
-179.027	96.562	-0.178	-0.201
-178.012	-43.665	-0.409	-0.203
-176.998	-200.000	0.020	-0.246
-175.983	359.035	0.244	-0.479
-174.969	48.254	0.326	0.300
-173.954	-200.000	-0.013	0.089
-172.939	-81.500	-0.124	-0.040
-171.925	-200.000	-0.018	0.337
-170.910	172.442	-0.240	-0.341
-169.896	-20.947	0.224	-0.135
-168.881	800.000	0.020	-0.068
-167.866	-118.885	0.197	-0.034
-166.852	201.941	-0.158	-0.239
-165.837	53.130	-0.443	-0.418
-164.823	800.000	0.068	0.259
-163.808	453.853	0.108	0.235
-162.793	-200.000	0.042	0.219
-161.779	-63.075	-0.208	0.084
-160.764	26.439	0.270	-0.223
-159.750	39.803	0.085	0.075
-158.735	800.000	0.128	-0.459
-157.720	-113.178	-0.161	-0.031
-156.706	203.096	-0.155	0.235
-155.691	183.696	0.068	-0.099
-154.677	800.000	0.059	-0.240
-153.662	-27.939	-0.136	0.077
-152.647	800.000	-0.043	-0.123
-151.633	61.155	-0.005	0.005
-150.618	72.585	-0.099	-0.102
-149.604	-89.215	-0.023	-0.007
-148.589	64.808	-0.155	-0.154
-147.574	525.434	-0.103	-0.237
-146.560	53.873	0.113	-0.106
-145.545	-61.963	0.504	0.207
-144.531	800.000	-0.117	0.329
-143.516	-6.341	0.381	-0.255
-142.502	-17.207	0.186	-0.116
-141.487	10.246	0.256	0.192
-140.472	13.643	0.110	0.084
-139.458	66.316	-0.328	-0.328
-138.443	124.470	-0.142	0.176
-137.429	800.000	0.018	-0.072
-136.414	295.681	0.091	-0.163
-135.399	-200.000	0.001	0.176
-134.385	-200.000	0.228	0.000
-133.370	-146.664	0.295	-0.025
-132.356	-78.545	0.184	0.062
-131.341	11.168	0.149	-0.112
-130.326	8.739	-0.259	0.192
-129.312	-88.122	-0.159	-0.047
-128.297	-200.000	-0.029	-0.162
-127.283	-127.292	0.056	0.008
-126.268	-127.540	-0.045	-0.006
-125.253	-57.688	0.116	0.050
-124.239	29.909	-0.360	0.302
-123.224	-26.418	-0.224	0.129
-122.210	-109.759	-0.317	0.065
-121.195	800.000	-0.097	-0.332
-120.180	-139.142	-0.157	0.017
