DTS Sentinel unit serial number:	SN413079Multiplexer serial number:	ORYXHardware model number:	OX4-SRSoftware version number:	ORYX F/W v4.00 Oryx Data Collector v3.7.2.0data status	okinstallation	princeton_trtdifferential loss correction	single-endedforward channel	channel 3reverse channel	N/Adate	2019/09/12time	19:41:04forward acquisition time	15.00reverse acquisition time	0.00gamma	496.2192k internal	0.2322k external	0.2322temperature offset calibration	1.0121default loss term (dB/km)	0.3790temperature slope calibration	1.0000multiplexer offset coefficient	1.0000multiplexer slope coefficient	1.0000fibre end	0.00T internal ref (°C)	32.06T ext. ref 1 (°C)	3.41T ext. ref 2 (°C)	26.70length (m)	temperature (°C)	Stokes	anti-Stokes-747.200	-200.000	-0.030	-0.540
-746.185	39.614	0.710	-0.644
-745.171	-28.773	0.561	0.326
-744.156	-200.000	-0.013	-0.068
-743.142	111.748	-0.587	-0.716
-742.127	313.221	-0.764	-1.451
-741.112	0.535	-0.544	-0.393
-740.098	-18.931	0.378	-0.238
-739.083	42.087	-0.446	-0.409
-738.069	730.832	-0.200	0.539
-737.054	-29.628	0.299	-0.173
-736.039	-25.576	-0.867	-0.517
-735.025	272.041	-0.178	0.317
-734.010	800.000	0.271	-0.907
-732.996	25.542	0.594	-0.500
-731.981	-112.607	-0.965	-0.194
-730.966	-27.786	-0.343	0.201
-729.952	-200.000	-0.048	0.541
-728.937	-200.000	-0.299	-1.588
-727.923	478.509	-0.365	-0.835
-726.908	-200.000	-0.075	-1.234
-725.894	-144.362	0.423	-0.040
-724.879	-105.175	0.849	0.196
-723.864	-11.857	-0.562	-0.373
-722.850	-135.774	-0.384	0.046
-721.835	800.000	-0.138	-0.392
-720.821	800.000	0.041	-0.156
-719.806	-50.599	-0.447	0.213
-718.791	663.256	0.400	-1.043
-717.777	-130.749	0.283	-0.038
-716.762	8.676	0.324	-0.246
-715.748	-200.000	-0.003	0.325
-714.733	32.610	-0.277	0.242
-713.718	-100.369	-0.464	-0.116
-712.704	-200.000	0.037	-0.217
-711.689	377.746	0.169	-0.349
-710.675	763.614	0.310	-0.850
-709.660	74.967	0.425	0.452
-708.645	71.178	0.446	0.466
-707.631	-162.818	-0.413	-0.020
-706.616	655.210	-0.102	0.264
-705.602	-33.198	-0.238	0.133
-704.587	-200.000	0.146	0.760
-703.572	182.098	-0.244	-0.362
-702.558	800.000	-0.144	-0.419
-701.543	-30.355	0.177	0.101
-700.529	222.850	-0.183	-0.297
-699.514	7.643	0.461	-0.348
-698.499	482.566	0.287	0.657
-697.485	-61.356	-0.573	-0.243
-696.470	432.267	0.126	-0.276
-695.456	-200.000	-0.032	0.435
-694.441	800.000	0.061	0.252
-693.426	-75.598	-0.593	-0.212
-692.412	-15.976	0.197	0.127
-691.397	175.215	-0.320	-0.467
-690.383	-191.465	0.314	-0.003
-689.368	164.297	0.256	-0.363
-688.354	180.535	-0.150	0.222
-687.339	-9.801	-0.787	-0.528
-686.324	-63.620	-0.587	-0.243
-685.310	311.989	0.355	-0.672
-684.295	-129.705	0.848	-0.118
-683.281	-141.765	-0.865	-0.088
-682.266	-31.904	-0.385	0.218
-681.251	-200.000	0.018	0.439
-680.237	103.922	-0.249	-0.295
-679.222	800.000	0.117	-0.447
-678.208	81.022	0.358	-0.389
-677.193	800.000	-0.030	0.127
-676.178	-15.614	0.497	-0.320
-675.164	-79.406	-0.647	0.221
-674.149	-12.308	0.428	-0.282
-673.135	60.891	-0.730	0.729
-672.120	-87.965	-0.251	0.076
-671.105	5.422	0.320	-0.238
-670.091	-200.000	0.011	-0.614
-669.076	150.120	-0.519	-0.709
-668.062	-99.746	0.223	0.056
-667.047	62.788	0.478	-0.481
-666.032	516.725	-0.393	-0.925
-665.018	386.282	-0.136	-0.282
-664.003	-200.000	0.066	0.304
-662.989	-148.470	0.333	0.027
-661.974	183.062	-0.608	0.904
-660.959	111.979	0.255	0.310
-659.945	167.659	0.239	-0.342
-658.930	10.176	0.496	-0.380
-657.916	37.820	-0.547	0.489
-656.901	-117.814	0.658	-0.119
-655.886	248.813	-0.104	-0.178
-654.872	-200.000	-0.054	-0.292
-653.857	-111.610	0.691	-0.141
-652.843	610.027	0.270	0.680
-651.828	-117.635	-0.416	-0.075
-650.814	2.060	-0.068	-0.049
-649.799	-105.903	0.348	-0.079
-648.784	-11.231	-0.310	0.206
-647.770	-200.000	-0.155	0.716
-646.755	-138.373	0.963	-0.107
-645.741	334.171	-0.175	-0.341
-644.726	800.000	-0.092	0.274
-643.711	-76.218	-0.579	-0.205
-642.697	17.283	-0.302	0.241
-641.682	6.956	0.570	0.427
-640.668	279.537	0.441	0.792
-639.653	-114.409	-0.528	0.102
-638.638	-56.498	-0.492	0.219
-637.624	-200.000	-0.010	0.215
-636.609	-120.909	-0.550	-0.093
-635.595	-52.753	-0.812	-0.377
-634.580	26.872	-0.164	0.138
-633.565	3.545	0.522	0.383
-632.551	-153.420	0.499	0.035
-631.536	41.086	0.532	-0.483
-630.522	764.604	0.015	-0.041
-629.507	15.554	-0.243	0.192
-628.492	-61.682	-0.275	-0.116
-627.478	144.300	0.248	-0.333
-626.463	-79.395	-0.032	0.011
-625.449	-200.000	0.011	0.183
-624.434	-102.608	0.122	-0.029
-623.419	74.782	0.298	0.315
-622.405	-200.000	-0.025	-0.321
-621.390	-200.000	0.014	-0.231
-620.376	-200.000	0.049	0.378
-619.361	-200.000	0.019	0.438
-618.346	-200.000	-0.072	-0.539
-617.332	511.962	0.294	-0.688
-616.317	687.873	-0.236	-0.619
-615.303	-200.000	0.005	0.169
-614.288	130.274	0.658	0.848
-613.273	361.901	-0.296	0.596
-612.259	-34.735	0.432	-0.237
-611.244	800.000	-0.104	-0.351
-610.230	-126.470	-0.105	0.016
-609.215	-119.375	-0.145	-0.025
-608.201	-200.000	-0.109	-0.616
-607.186	-110.606	-0.439	-0.091
-606.171	33.254	0.727	0.634
-605.157	-184.046	-0.264	-0.004
-604.142	213.917	-0.228	-0.362
-603.128	604.902	0.169	-0.422
-602.113	-183.162	0.483	-0.009
-601.098	172.666	0.494	-0.715
-600.084	275.811	0.045	-0.080
-599.069	-103.294	-0.554	-0.131
-598.055	-22.394	0.583	0.355
-597.040	212.863	-0.215	0.340
-596.025	-150.469	0.940	0.072
-595.011	-200.000	0.176	-0.815
-593.996	-200.000	0.070	0.551
-592.982	-191.678	0.130	0.001
-591.967	455.530	-0.096	-0.214
-590.952	2.967	-0.194	0.141
-589.938	-53.124	0.164	-0.075
-588.923	-69.943	0.266	0.102
-587.909	236.247	-0.571	0.948
-586.894	-200.000	0.009	-0.187
-585.879	-200.000	0.067	0.544
-584.865	-200.000	-0.069	0.814
-583.850	572.331	0.129	0.315
-582.836	800.000	-0.120	-0.426
-581.821	-200.000	0.113	-0.615
-580.806	800.000	-0.326	-1.033
-579.792	3.285	-0.386	0.282
-578.777	-200.000	0.052	-0.484
-577.763	-138.218	-0.392	0.044
-576.748	522.340	-0.052	0.122
-575.733	-200.000	0.004	0.273
-574.719	160.343	0.272	0.381
-573.704	-12.573	-0.096	0.063
-572.690	293.705	0.422	0.774
-571.675	-138.200	0.727	0.081
-570.661	-129.405	0.754	-0.105
-569.646	800.000	0.139	-0.485
-568.631	-126.809	0.799	-0.118
-567.617	800.000	0.119	-0.424
-566.602	518.873	0.310	0.729
-565.588	-6.637	0.579	-0.396
-564.573	800.000	-0.238	0.852
-563.558	-80.956	-0.416	-0.138
-562.544	72.651	-0.437	-0.457
-561.529	-80.221	-0.197	0.066
-560.515	-200.000	0.028	0.378
-559.500	96.094	-0.111	-0.127
-558.485	192.753	0.517	-0.783
-557.471	-20.418	0.320	0.197
-556.456	800.000	0.054	0.194
-555.442	235.005	-0.231	0.383
-554.427	17.867	-0.676	-0.540
-553.412	221.720	0.518	-0.835
-552.398	36.277	0.785	-0.694
-551.383	-169.276	-0.666	-0.025
-550.369	128.969	0.374	-0.478
-549.354	10.864	-0.720	-0.551
-548.339	-94.025	0.440	0.121
-547.325	-99.055	-0.792	-0.201
-546.310	-15.121	-0.558	-0.358
-545.296	91.997	0.426	-0.480
-544.281	59.444	-0.176	-0.174
-543.266	-200.000	-0.001	0.889
-542.252	470.333	0.197	0.443
-541.237	382.680	0.382	0.787
-540.223	51.014	-0.540	-0.514
-539.208	34.562	-0.069	0.060
-538.193	-89.435	0.709	-0.209
-537.179	-134.302	0.341	0.042
-536.164	-200.000	-0.020	-0.818
-535.150	-200.000	-0.018	0.406
-534.135	83.821	-0.083	0.091
-533.121	-99.083	0.421	0.107
-532.106	-169.916	-0.746	0.027
-531.091	-155.921	0.376	0.024
-530.077	-102.436	-0.433	0.104
-529.062	163.352	0.251	0.354
-528.048	557.292	-0.157	0.380
-527.033	459.322	-0.099	-0.222
-526.018	-37.981	0.957	-0.510
-525.004	452.662	0.344	0.763
-523.989	76.063	-0.495	0.524
-522.975	800.000	0.243	-0.992
-521.960	-173.196	-1.563	0.048
-520.945	-13.788	-0.554	0.359
-519.931	172.930	-0.184	0.265
-518.916	760.206	-0.087	-0.237
-517.902	50.308	0.181	0.172
-516.887	-64.186	-1.008	-0.412
-515.872	54.833	0.487	-0.470
-514.858	86.573	0.298	0.329
-513.843	46.514	0.390	-0.362
-512.829	-136.023	-0.267	-0.031
-511.814	-58.325	0.209	0.091
-510.799	-112.459	-0.740	0.148
-509.785	121.487	0.116	0.144
-508.770	-78.711	-0.242	-0.083
-507.756	504.260	0.268	-0.622
-506.741	-141.934	-0.804	-0.080
-505.726	4.445	-0.117	-0.086
-504.712	100.429	0.337	-0.391
-503.697	-200.000	-0.155	-0.890
-502.683	-57.408	0.472	-0.207
-501.668	-200.000	-0.089	-0.459
-500.653	800.000	0.210	0.726
-499.639	514.647	0.313	0.731
-498.624	-74.424	0.132	0.048
-497.610	259.075	0.566	0.977
-496.595	62.435	-0.152	-0.152
-495.581	474.092	-0.277	0.624
-494.566	-141.775	-0.669	-0.067
-493.551	-200.000	0.127	-0.673
-492.537	-87.712	0.691	0.208
-491.522	-13.070	0.383	0.249
-490.508	-27.976	0.190	-0.110
-489.493	19.861	-0.426	-0.343
-488.478	-112.822	0.460	-0.091
-487.464	-200.000	-0.016	0.235
-486.449	-174.035	0.770	-0.023
-485.435	800.000	0.177	0.626
-484.420	-138.148	-0.634	-0.070
-483.405	321.131	-0.205	0.389
-482.391	-89.417	-0.728	-0.214
-481.376	-110.655	1.112	0.230
-480.362	577.615	-0.667	-1.632
-479.347	145.944	-0.051	-0.069
-478.332	800.000	0.203	0.774
-477.318	205.671	-0.429	0.667
-476.303	517.666	0.309	0.723
-475.289	-200.000	0.084	-0.631
-474.274	-200.000	-0.174	-0.924
-473.259	-200.000	-0.003	0.330
-472.245	232.033	-0.224	-0.368
-471.230	-114.453	-0.707	-0.136
-470.216	120.479	0.466	0.579
-469.201	-20.151	-0.853	-0.526
-468.186	263.475	0.250	0.435
-467.172	97.682	0.578	-0.664
-466.157	800.000	-0.307	-0.900
-465.143	-132.555	-0.318	0.041
-464.128	756.104	0.306	0.826
-463.113	-200.000	0.002	0.254
-462.099	457.818	0.315	0.701
-461.084	-95.472	-0.909	0.244
-460.070	-58.391	-1.610	0.700
-459.055	53.380	0.151	-0.145
-458.040	316.664	0.309	-0.583
-457.026	-119.874	0.625	-0.107
-456.011	-200.000	-0.097	-0.885
-454.997	286.713	-0.259	-0.468
-453.982	-46.364	0.843	-0.414
-452.968	-32.674	0.340	0.189
-451.953	-161.816	0.262	0.013
-450.938	146.158	0.199	-0.266
-449.924	-122.428	0.241	0.039
-448.909	-151.610	-0.907	-0.067
-447.895	-145.666	-1.077	0.096
-446.880	800.000	0.141	0.485
-445.865	484.580	-0.129	-0.294
-444.851	-32.265	-0.761	-0.424
-443.836	-173.082	0.178	0.005
-442.822	214.361	-0.258	-0.407
-441.807	-57.320	-0.691	0.303
-440.792	-104.205	0.265	0.061
-439.778	619.875	-0.193	-0.485
-438.763	173.185	0.533	0.767
-437.749	-200.000	-0.024	-0.145
-436.734	-100.519	-0.374	0.092
-435.719	-200.000	-0.084	1.201
-434.705	800.000	-0.164	-0.678
-433.690	31.573	0.364	0.312
-432.676	-94.359	0.814	-0.222
-431.661	-73.862	-0.463	-0.168
-430.646	-139.879	-0.877	0.093
-429.632	-131.639	1.032	-0.135
-428.617	800.000	0.028	-0.097
-427.603	193.457	0.271	0.410
-426.588	575.914	-0.266	-0.648
-425.573	800.000	0.182	-0.537
-424.559	-200.000	-0.048	0.362
-423.544	226.668	-0.251	0.407
-422.530	124.171	-0.319	0.400
-421.515	800.000	0.031	0.127
-420.500	-5.471	0.385	-0.263
-419.486	-79.325	-0.400	-0.135
-418.471	506.128	0.228	0.528
-417.457	800.000	-0.303	1.090
-416.442	74.682	0.792	-0.831
-415.428	-50.180	-0.308	0.145
-414.413	-0.684	0.412	0.292
-413.398	-200.000	0.211	-0.001
-412.384	489.174	-0.175	0.400
-411.369	800.000	0.057	0.201
-410.355	-178.315	0.738	-0.017
-409.340	-200.000	-0.014	-0.352
-408.325	-84.229	0.517	0.163
-407.311	800.000	0.106	-0.302
-406.296	-45.266	0.704	-0.349
-405.282	-200.000	-0.088	-0.960
-404.267	-200.000	-0.152	0.733
-403.252	-200.000	-0.018	-0.626
-402.238	-73.616	-0.859	-0.312
-401.223	-87.014	-0.555	-0.169
-400.209	321.232	0.173	-0.328
-399.194	186.084	-0.381	-0.565
-398.179	390.197	-0.269	0.556
-397.165	11.571	0.076	0.058
-396.150	-200.000	0.283	1.439
-395.136	-112.752	-0.330	-0.065
-394.121	1.940	0.061	-0.044
-393.106	-200.000	-0.014	-1.060
-392.092	-173.629	-0.619	-0.018
-391.077	-200.000	-0.069	-0.310
-390.063	800.000	-0.071	0.211
-389.048	-21.078	-0.163	0.099
-388.033	-200.000	0.017	-0.127
-387.019	-14.956	-0.634	-0.405
-386.004	136.105	-0.724	-0.940
-384.990	28.969	-0.325	0.275
-383.975	-41.935	0.501	0.256
-382.960	-23.016	0.632	-0.380
-381.946	6.029	0.825	-0.609
-380.931	29.122	-0.872	-0.737
-379.917	-88.782	-0.475	0.141
-378.902	70.199	-0.159	0.163
-377.888	-103.210	-0.461	0.109
-376.873	332.487	0.248	-0.477
-375.858	182.195	-0.456	0.669
-374.844	15.125	0.710	-0.554
-373.829	30.079	-0.484	-0.411
-372.815	-74.240	0.300	-0.108
-371.800	189.856	-0.357	0.533
-370.785	338.562	0.304	0.590
-369.771	-78.850	0.930	0.316
-368.756	800.000	0.028	0.094
-367.742	-200.000	0.306	-0.001
-366.727	-28.751	0.458	-0.262
-365.712	-32.045	-0.076	-0.042
-364.698	-82.927	-1.056	-0.339
-363.683	-69.821	-0.238	-0.091
-362.669	298.610	-0.182	-0.334
-361.654	107.934	0.202	-0.240
-360.639	42.221	0.062	-0.056
-359.625	2.403	0.167	-0.120
-358.610	-167.635	0.499	0.020
-357.596	339.082	0.077	-0.150
-356.581	-200.000	0.011	-0.598
-355.566	-89.972	0.572	-0.166
-354.552	62.578	-0.510	0.508
-353.537	185.807	0.490	0.725
-352.523	-152.522	0.289	0.021
-351.508	384.628	-0.179	-0.366
-350.493	800.000	0.109	0.319
-349.479	-84.439	1.115	-0.351
-348.464	790.613	-0.099	0.272
-347.450	800.000	0.262	0.777
-346.435	40.372	-0.260	-0.232
-345.420	12.110	-0.375	-0.287
-344.406	-50.066	-0.261	-0.123
-343.391	12.565	-1.190	-0.913
-342.377	-167.046	0.256	-0.010
-341.362	800.000	-0.134	0.504
-340.348	11.775	0.892	0.681
-339.333	472.161	0.083	0.185
-338.318	-147.830	0.895	0.074
-337.304	57.248	-0.650	-0.631
-336.289	21.439	0.403	0.326
-335.275	800.000	-0.429	-1.274
-334.260	-26.945	0.636	0.369
-333.245	-18.112	0.543	0.338
-332.231	-200.000	-0.102	-0.607
-331.216	-66.168	0.274	0.109
-330.202	567.317	0.195	0.472
-329.187	-37.606	-0.565	-0.299
-328.172	800.000	0.114	-0.459
-327.158	-105.322	-0.596	-0.135
-326.143	-126.862	-0.452	0.066
-325.129	279.641	0.523	0.928
-324.114	-90.609	0.597	-0.172
-323.099	-200.000	0.078	-0.474
-322.085	359.236	0.314	-0.624
-321.070	800.000	-0.048	-0.158
-320.056	157.610	-0.230	-0.316
-319.041	-144.729	0.857	-0.078
-318.026	-200.000	0.000	-0.355
-317.012	-36.802	0.221	0.118
-315.997	-200.000	-0.013	0.491
-314.983	-200.000	0.044	-0.720
-313.968	-43.114	-0.305	0.153
-312.953	-46.161	-0.363	-0.178
-311.939	-190.113	-0.697	0.008
-310.924	-54.280	-0.330	-0.149
-309.910	257.736	-0.518	0.885
-308.895	102.745	-0.454	0.528
-307.880	331.031	0.406	0.777
-306.866	-54.579	0.472	0.212
-305.851	91.369	-0.155	-0.173
-304.837	-200.000	0.010	-0.714
-303.822	645.571	0.203	0.515
-302.807	-16.606	-0.056	0.035
-301.793	10.235	-0.646	-0.488
-300.778	330.997	0.271	-0.519
-299.764	-187.833	-0.456	0.006
-298.749	-200.000	-0.019	-0.260
-297.735	-67.457	0.347	0.135
-296.720	-28.941	0.168	0.096
-295.705	-109.662	0.238	-0.050
-294.691	-109.845	0.528	0.110
-293.676	493.656	0.103	-0.235
-292.662	800.000	-0.091	-0.394
-291.647	42.819	-0.222	0.200
-290.632	96.063	-0.252	0.286
-289.618	107.203	0.552	0.652
-288.603	206.134	-0.304	-0.469
-287.589	800.000	0.204	0.778
-286.574	-32.534	-0.400	-0.221
-285.559	299.877	0.202	0.369
-284.545	-107.381	-0.600	0.131
-283.530	202.695	-0.323	0.495
-282.516	800.000	-0.213	0.663
-281.501	-44.093	-0.652	0.325
-280.486	-130.792	1.129	-0.150
-279.472	-131.672	-0.810	-0.106
-278.457	-200.000	-0.167	-0.903
-277.443	-126.606	0.682	0.100
-276.428	14.130	-0.668	0.516
-275.413	145.831	-0.354	0.471
-274.399	1.897	0.172	0.123
-273.384	-41.034	-0.186	-0.096
-272.370	-113.082	0.769	0.151
-271.355	-200.000	-0.016	0.568
-270.340	-140.667	0.186	0.019
-269.326	98.334	-0.795	-0.908
-268.311	-133.230	0.312	0.039
-267.297	61.044	-0.244	-0.240
-266.282	55.670	0.335	-0.322
-265.267	-124.564	-0.112	-0.017
-264.253	-37.505	-1.175	0.622
-263.238	51.708	0.368	-0.347
-262.224	65.319	-0.062	0.062
-261.209	-91.040	-0.210	-0.060
-260.195	89.721	-0.134	0.148
-259.180	11.750	-0.269	0.205
-258.165	88.483	0.566	0.624
-257.151	-81.831	-1.120	0.364
-256.136	-134.381	-0.167	0.020
-255.122	-200.000	0.039	0.855
-254.107	-28.058	0.747	-0.428
-253.092	-200.000	0.012	0.596
-252.078	634.448	-0.038	0.096
-251.063	-200.000	0.062	0.345
-250.049	-79.485	-0.154	0.051
-249.034	454.702	0.076	0.168
-248.019	410.332	-0.093	0.195
-247.005	76.673	0.240	0.252
-245.990	127.841	0.199	-0.250
-244.976	-53.685	-0.439	-0.199
-243.961	-117.827	-0.686	-0.122
-242.946	-138.787	0.212	0.023
-241.932	19.058	0.169	0.134
-240.917	22.815	-0.057	0.047
-239.903	-200.000	0.005	0.357
-238.888	240.768	-0.284	0.470
-237.873	262.915	-0.204	-0.351
-236.859	-200.000	0.014	0.599
-235.844	24.367	0.858	0.702
-234.830	-61.683	0.109	-0.045
-233.815	-170.599	0.302	-0.010
-232.800	-51.303	0.818	-0.379
-231.786	-19.221	-0.405	-0.249
-230.771	13.622	-0.345	0.265
-229.757	258.508	0.258	-0.441
-228.742	-200.000	-0.070	-0.948
-227.727	-200.000	0.021	-0.490
-226.713	180.519	-0.521	-0.758
-225.698	-200.000	0.052	0.595
-224.684	-200.000	0.009	-0.228
-223.669	-167.434	0.409	0.016
-222.655	79.201	0.428	0.454
-221.640	-70.622	-0.128	0.048
-220.625	-200.000	0.027	0.261
-219.611	-200.000	0.061	0.687
-218.596	-200.000	-0.218	-1.060
-217.582	-68.798	-0.750	-0.287
-216.567	557.604	0.185	0.442
-215.552	-15.674	0.413	-0.261
-214.538	374.651	0.080	0.161
-213.523	-36.011	-0.274	-0.146
-212.509	-60.982	-0.317	-0.133
-211.494	-165.326	-0.257	0.011
-210.479	377.279	-0.319	0.645
-209.465	-200.000	0.021	0.388
-208.450	-102.906	-0.735	0.173
-207.436	800.000	-0.216	-0.722
-206.421	-94.380	0.907	0.245
-205.406	193.819	0.161	-0.241
-204.392	-200.000	0.027	0.558
-203.377	139.632	0.481	0.627
-202.363	-180.257	-0.577	0.012
-201.348	-200.000	0.009	0.621
-200.333	-31.894	0.642	-0.356
-199.319	64.691	-0.531	0.530
-198.304	107.820	0.564	-0.664
-197.290	-59.981	-0.896	0.379
-196.275	342.144	-0.185	0.357
-195.260	82.157	-0.673	0.722
-194.246	800.000	0.285	-0.808
-193.231	800.000	0.138	-0.532
-192.217	108.303	0.297	-0.351
-191.202	-42.108	-0.324	-0.164
-190.187	47.574	0.482	-0.444
-189.173	-167.277	-0.302	-0.012
-188.158	272.976	-0.296	-0.518
-187.144	-15.930	-0.450	0.283
-186.129	116.174	0.673	-0.815
-185.114	-127.798	-0.278	-0.040
-184.100	-200.000	-0.037	-0.530
-183.085	-62.531	0.671	-0.276
-182.071	-105.929	0.352	-0.079
-181.056	146.668	0.243	0.323
-180.042	75.154	0.698	-0.727
-179.027	106.954	0.403	0.473
-178.012	-74.999	-0.335	0.119
-176.998	12.916	0.239	0.183
-175.983	115.132	-0.510	-0.616
-174.969	-200.000	0.068	-0.648
-173.954	-144.331	-0.742	0.068
-172.939	-200.000	-0.069	0.532
-171.925	106.642	0.470	-0.551
-170.910	800.000	0.198	-0.557
-169.896	-9.536	-0.414	0.273
-168.881	800.000	0.058	0.239
-167.866	187.373	0.366	0.540
-166.852	-200.000	-0.096	0.601
-165.837	241.609	-0.141	-0.233
-164.823	-37.680	-0.637	0.335
-163.808	222.962	0.352	0.561
-162.793	33.665	0.397	-0.341
-161.779	250.116	0.140	0.236
-160.764	291.049	0.590	1.059
-159.750	536.180	-0.160	0.375
-158.735	480.526	0.108	-0.241
-157.720	3.211	0.836	0.601
-156.706	-111.937	-0.249	0.050
-155.691	339.541	0.442	-0.851
-154.677	-44.375	0.348	0.172
-153.662	550.767	-0.200	0.473
-152.647	53.062	-0.666	0.630
-151.633	-30.269	0.156	-0.087
-150.618	-62.511	-0.561	0.230
-149.604	-200.000	0.036	-0.503
-148.589	128.838	-0.257	-0.324
-147.574	-12.764	-0.524	-0.337
-146.560	800.000	-0.071	-0.298
-145.545	-66.570	-0.350	-0.137
-144.531	96.196	-0.702	-0.792
-143.516	-200.000	-0.004	0.018
-142.502	-88.235	0.106	0.031
-141.487	-8.830	0.218	0.144
-140.472	-145.617	0.285	0.025
-139.458	-100.417	-0.866	0.212
-138.443	-89.149	-0.232	-0.068
-137.429	-145.118	-1.241	-0.111
-136.414	153.516	0.041	-0.056
-135.399	492.071	0.140	0.317
-134.385	-32.166	-0.688	0.379
-133.370	-160.165	-0.392	0.021
-132.356	-200.000	0.084	0.663
-131.341	587.970	-0.043	-0.104
-130.326	-33.485	-0.709	0.387
-129.312	800.000	-0.266	0.771
-128.297	515.458	0.053	0.123
-127.283	-56.011	0.300	-0.132
-126.268	606.901	0.064	-0.158
-125.253	-200.000	-0.060	-0.462
-124.239	800.000	0.060	0.208
-123.224	-157.978	0.599	-0.035
-122.210	-200.000	-0.162	0.834
