DTS Sentinel unit serial number:	SN413079Multiplexer serial number:	ORYXHardware model number:	OX4-SRSoftware version number:	ORYX F/W v4.00 Oryx Data Collector v3.7.2.0data status	okinstallation	princeton_trtdifferential loss correction	single-endedforward channel	channel 3reverse channel	N/Adate	2019/09/13time	06:04:35forward acquisition time	60.00reverse acquisition time	0.00gamma	496.2192k internal	0.2339k external	0.2339temperature offset calibration	1.0135default loss term (dB/km)	0.3790temperature slope calibration	1.0000multiplexer offset coefficient	1.0000multiplexer slope coefficient	1.0000fibre end	0.00T internal ref (°C)	26.12T ext. ref 1 (°C)	4.07T ext. ref 2 (°C)	20.94length (m)	temperature (°C)	Stokes	anti-Stokes-747.200	4.897	0.214	0.158
-746.185	396.991	-0.130	0.273
-745.171	-151.833	0.257	-0.019
-744.156	-84.285	-0.108	0.034
-743.142	372.777	0.101	0.206
-742.127	311.292	-0.201	0.379
-741.112	-97.228	0.394	0.103
-740.098	35.501	-0.181	0.159
-739.083	187.573	0.085	-0.127
-738.069	375.434	0.072	0.147
-737.054	-130.722	-0.146	0.020
-736.039	800.000	-0.042	-0.167
-735.025	-200.000	0.025	0.180
-734.010	-168.745	-0.321	0.012
-732.996	505.678	0.051	-0.119
-731.981	800.000	0.022	-0.066
-730.966	-200.000	0.036	0.158
-729.952	-144.935	-0.148	0.014
-728.937	58.825	-0.172	0.170
-727.923	86.884	0.066	0.073
-726.908	-96.514	0.059	0.016
-725.894	490.407	0.103	-0.236
-724.879	225.554	-0.133	-0.215
-723.864	-200.000	0.066	-0.397
-722.850	-200.000	-0.007	0.241
-721.835	6.549	0.143	-0.106
-720.821	355.303	0.064	0.128
-719.806	-85.766	-0.311	0.097
-718.791	-44.669	-0.249	-0.125
-717.777	-78.864	0.031	0.011
-716.762	-32.725	-0.221	-0.123
-715.748	-54.662	0.286	0.130
-714.733	-36.397	-0.195	-0.105
-713.718	23.179	-0.112	0.092
-712.704	79.900	-0.110	-0.119
-711.689	471.528	-0.046	0.103
-710.675	-106.373	-0.407	0.091
-709.660	-56.898	-0.128	-0.056
-708.645	-156.917	-0.257	0.016
-707.631	82.650	-0.058	0.063
-706.616	-35.785	-0.217	-0.118
-705.602	66.679	-0.290	0.296
-704.587	-200.000	-0.024	-0.307
-703.572	-200.000	0.012	-0.319
-702.558	-49.724	0.201	-0.096
-701.543	387.374	-0.140	-0.290
-700.529	36.587	0.118	0.104
-699.514	800.000	-0.037	0.130
-698.499	-194.540	-0.196	-0.002
-697.485	144.287	0.088	-0.117
-696.470	-68.335	-0.204	-0.079
-695.456	-187.425	0.112	0.002
-694.441	800.000	-0.128	0.360
-693.426	43.895	-0.189	-0.174
-692.412	80.147	-0.106	-0.114
-691.397	57.822	-0.137	-0.134
-690.383	133.881	0.044	0.056
-689.368	623.389	0.061	0.155
-688.354	187.407	0.041	0.061
-687.339	-33.566	0.292	0.162
-686.324	-29.216	-0.094	0.054
-685.310	276.994	-0.116	0.206
-684.295	-200.000	0.002	-0.136
-683.281	-34.606	-0.124	-0.068
-682.266	-66.528	0.246	-0.098
-681.251	-66.771	-0.173	-0.069
-680.237	-68.651	0.330	0.128
-679.222	61.422	-0.378	-0.376
-678.208	-200.000	-0.031	-0.186
-677.193	240.508	0.037	-0.061
-676.178	-101.741	0.243	-0.059
-675.164	-15.481	-0.321	-0.205
-674.149	-154.674	-0.324	0.022
-673.135	49.645	-0.213	-0.201
-672.120	-88.776	-0.135	-0.040
-671.105	-182.135	-0.551	-0.010
-670.091	1.483	0.181	-0.130
-669.076	-58.000	0.019	-0.008
-668.062	800.000	0.132	-0.491
-667.047	631.888	-0.118	-0.298
-666.032	44.503	-0.331	0.304
-665.018	9.462	-0.358	-0.271
-664.003	9.341	0.116	0.088
-662.989	315.561	0.127	0.239
-661.974	800.000	-0.127	-0.397
-660.959	69.536	-0.161	0.166
-659.945	-108.927	-0.282	-0.060
-658.930	42.990	-0.139	-0.127
-657.916	-11.750	-0.164	-0.108
-656.901	-22.894	-0.128	0.077
-655.886	-184.794	-0.302	0.005
-654.872	800.000	0.053	-0.185
-653.857	800.000	0.026	-0.087
-652.843	-128.443	0.152	0.022
-651.828	-96.140	0.035	-0.009
-650.814	800.000	0.041	0.139
-649.799	33.171	-0.121	-0.105
-648.784	800.000	0.165	0.460
-647.770	64.214	0.049	-0.049
-646.755	63.151	0.072	-0.072
-645.741	47.757	-0.102	0.095
-644.726	-12.968	-0.243	-0.158
-643.711	800.000	-0.073	-0.217
-642.697	-145.863	-0.184	-0.016
-641.682	489.590	-0.099	0.227
-640.668	14.898	-0.340	-0.266
-639.653	-25.113	0.098	-0.058
-638.638	-200.000	0.053	-0.461
-637.624	800.000	-0.094	-0.296
-636.609	-200.000	-0.012	0.157
-635.595	-200.000	-0.041	-0.200
-634.580	145.073	-0.196	0.262
-633.565	-200.000	-0.005	0.190
-632.551	-200.000	-0.071	0.490
-631.536	-94.491	-0.290	-0.079
-630.522	431.241	0.161	-0.348
-629.507	25.169	-0.097	-0.081
-628.492	55.474	0.189	-0.182
-627.478	-200.000	-0.054	0.278
-626.463	-5.048	-0.208	-0.143
-625.449	-153.997	0.274	-0.019
-624.434	126.096	-0.083	-0.104
-623.419	587.211	0.097	-0.239
-622.405	3.293	0.168	-0.122
-621.390	115.020	0.190	-0.232
-620.376	-86.590	0.105	0.032
-619.361	20.453	0.329	0.266
-618.346	-72.586	0.150	-0.055
-617.332	38.863	0.090	0.081
-616.317	83.883	0.143	-0.156
-615.303	-200.000	0.008	-0.158
-614.288	-119.904	-0.395	0.068
-613.273	361.976	0.031	-0.061
-612.259	-56.838	-0.293	0.129
-611.244	276.461	0.021	0.038
-610.230	10.813	-0.208	-0.159
-609.215	-108.184	-0.221	-0.048
-608.201	77.076	0.221	-0.234
-607.186	-2.320	-0.105	0.074
-606.171	-200.000	-0.002	-0.234
-605.157	-200.000	-0.014	-0.095
-604.142	800.000	0.075	-0.239
-603.128	-166.595	-0.231	-0.010
-602.113	-200.000	0.045	0.352
-601.098	-200.000	-0.012	-0.119
-600.084	-80.012	0.108	0.036
-599.069	-178.559	-0.197	-0.005
-598.055	-108.315	0.323	-0.070
-597.040	153.284	-0.074	-0.102
-596.025	-45.435	0.080	0.039
-595.011	10.419	0.115	-0.088
-593.996	-42.443	0.173	0.088
-592.982	-2.818	0.149	-0.104
-591.967	-25.716	-0.487	-0.286
-590.952	800.000	-0.077	-0.223
-589.938	800.000	-0.034	0.132
-588.923	116.421	-0.087	-0.107
-587.909	-114.922	0.108	-0.020
-586.894	-200.000	0.032	-0.150
-585.879	114.541	-0.212	0.258
-584.865	256.039	0.006	0.011
-583.850	-154.500	-0.204	-0.014
-582.836	-112.621	-0.157	-0.031
-581.821	-130.211	0.273	-0.037
-580.806	-85.166	-0.140	-0.044
-579.792	800.000	0.071	0.260
-578.777	-95.099	-0.368	0.099
-577.763	-64.004	-0.243	-0.099
-576.748	60.695	0.182	-0.180
-575.733	800.000	-0.039	0.127
-574.719	397.551	0.061	-0.127
-573.704	89.189	-0.094	-0.105
-572.690	-135.290	-0.173	0.021
-571.675	-103.219	-0.039	-0.009
-570.661	-69.205	-0.285	0.109
-569.646	800.000	0.077	0.221
-568.631	-18.238	0.284	-0.177
-567.617	800.000	-0.035	0.112
-566.602	702.187	-0.107	0.281
-565.588	-62.273	-0.370	0.154
-564.573	-41.819	-0.288	-0.147
-563.558	-200.000	0.030	0.152
-562.544	-117.177	0.310	-0.056
-561.529	-46.427	0.214	-0.105
-560.515	42.521	0.253	-0.229
-559.500	16.862	0.222	0.175
-558.485	-200.000	-0.023	-0.145
-557.471	59.009	-0.150	0.147
-556.456	65.277	0.209	0.211
-555.442	-110.448	0.187	-0.039
-554.427	-174.228	0.397	0.011
-553.412	75.255	-0.175	-0.184
-552.398	-81.346	0.184	-0.060
-551.383	-200.000	0.032	-0.254
-550.369	6.034	0.232	-0.171
-549.354	-158.065	0.213	0.012
-548.339	53.660	0.438	-0.418
-547.325	-110.533	-0.135	-0.028
-546.310	800.000	-0.016	0.046
-545.296	-175.471	0.316	-0.009
-544.281	800.000	-0.078	-0.293
-543.266	-181.911	-0.140	-0.003
-542.252	800.000	0.125	-0.512
-541.237	14.790	0.148	0.115
-540.223	425.246	-0.081	-0.173
-539.208	57.864	-0.117	0.114
-538.193	-85.605	0.192	-0.059
-537.179	-128.142	0.339	-0.048
-536.164	123.947	0.086	0.107
-535.150	135.723	0.048	0.062
-534.135	-200.000	0.012	0.184
-533.121	800.000	-0.055	-0.162
-532.106	76.770	-0.091	-0.096
-531.091	-200.000	0.031	-0.167
-530.077	-39.515	-0.040	0.021
-529.062	799.861	0.154	-0.423
-528.048	-48.474	0.268	-0.128
-527.033	139.881	-0.160	0.210
-526.018	58.101	0.180	-0.175
-525.004	800.000	-0.110	0.330
-523.989	14.477	-0.200	0.155
-522.975	-113.366	-0.261	0.051
-521.960	-45.347	-0.175	0.086
-520.945	800.000	-0.126	-0.363
-519.931	-200.000	0.013	0.139
-518.916	-73.623	0.181	-0.066
-517.902	-33.402	0.298	-0.164
-516.887	-35.501	-0.252	0.136
-515.872	-200.000	-0.000	-0.272
-514.858	-36.575	-0.202	-0.108
-513.843	16.749	0.118	-0.093
-512.829	582.434	0.089	-0.218
-511.814	758.603	-0.070	-0.188
-510.799	333.447	-0.039	0.075
-509.785	-13.600	0.431	-0.277
-508.770	-88.552	0.080	0.024
-507.756	165.602	0.053	-0.075
-506.741	-91.896	-0.562	-0.158
-505.726	19.459	-0.247	0.197
-504.712	99.608	-0.150	0.173
-503.697	81.762	0.129	-0.139
-502.683	-59.752	0.100	0.042
-501.668	800.000	-0.073	0.293
-500.653	245.104	-0.199	0.332
-499.639	800.000	-0.047	0.165
-498.624	6.904	-0.056	-0.041
-497.610	105.608	-0.085	-0.100
-496.595	116.666	0.059	-0.072
-495.581	-1.832	0.056	-0.039
-494.566	-49.109	0.238	-0.113
-493.551	-19.485	0.228	-0.141
-492.537	-135.878	0.235	-0.028
-491.522	-200.000	-0.006	-0.213
-490.508	-78.765	-0.113	0.038
-489.493	342.991	0.104	0.203
-488.478	403.599	0.172	0.359
-487.464	800.000	-0.089	0.336
-486.449	-91.451	-0.228	0.065
-485.435	786.118	0.036	0.097
-484.420	684.346	0.096	-0.249
-483.405	-2.381	0.111	0.077
-482.391	-200.000	-0.020	-0.088
-481.376	208.689	0.184	0.285
-480.362	-169.938	-0.339	0.012
-479.347	128.193	0.155	0.196
-478.332	409.421	0.102	-0.214
-477.318	289.800	0.151	0.273
-476.303	591.587	0.020	-0.050
-475.289	-155.272	0.093	0.006
-474.274	800.000	-0.057	-0.166
-473.259	91.390	-0.083	-0.092
-472.245	21.672	-0.386	0.312
-471.230	241.899	0.139	0.231
-470.216	-101.740	0.358	-0.086
-469.201	-99.717	-0.129	-0.032
-468.186	800.000	0.042	-0.126
-467.172	1.903	-0.157	-0.112
-466.157	158.396	0.251	0.346
-465.143	78.723	0.196	-0.208
-464.128	-164.100	0.381	0.018
-463.113	372.810	0.084	0.169
-462.099	-130.901	-0.048	-0.006
-461.084	-99.263	-0.390	-0.098
-460.070	146.025	-0.142	0.189
-459.055	800.000	-0.055	0.207
-458.040	-18.824	0.174	0.107
-457.026	32.828	0.047	-0.041
-456.011	318.300	-0.071	-0.134
-454.997	280.958	-0.151	0.268
-453.982	-39.394	0.217	0.113
-452.968	-200.000	0.022	0.161
-451.953	-200.000	-0.001	0.030
-450.938	-200.000	-0.007	-0.283
-449.924	-200.000	-0.005	-0.200
-448.909	-111.454	-0.171	-0.034
-447.895	-173.679	-0.275	-0.008
-446.880	435.724	0.141	-0.303
-445.865	5.192	0.142	-0.104
-444.851	-200.000	0.039	0.183
-443.836	-76.438	0.395	-0.138
-442.822	-85.916	-0.222	0.068
-441.807	-113.667	-0.264	0.051
-440.792	-200.000	0.064	0.305
-439.778	87.999	0.030	0.033
-438.763	-200.000	-0.057	0.419
-437.749	91.514	-0.143	-0.160
-436.734	-153.975	-0.177	-0.012
-435.719	206.467	-0.103	0.159
-434.705	136.967	-0.119	-0.154
-433.690	800.000	0.131	0.514
-432.676	-68.976	-0.398	0.152
-431.661	-142.718	0.142	-0.014
-430.646	-61.755	-0.290	0.120
-429.632	90.357	-0.058	0.064
-428.617	33.509	-0.017	-0.015
-427.603	800.000	0.062	0.240
-426.588	256.555	-0.085	-0.144
-425.573	800.000	-0.083	-0.290
-424.559	-56.229	-0.317	0.140
-423.544	42.545	0.201	-0.181
-422.530	0.977	-0.087	-0.062
-421.515	-82.626	-0.237	0.076
-420.500	-200.000	-0.217	0.000
-419.486	800.000	0.096	0.291
-418.471	177.790	0.058	-0.083
-417.457	-44.746	-0.225	0.111
-416.442	-110.651	-0.318	-0.065
-415.428	-133.431	0.353	-0.044
-414.413	-41.397	-0.212	0.108
-413.398	-200.000	-0.019	-0.117
-412.384	589.886	-0.130	-0.317
-411.369	-110.084	-0.137	0.028
-410.355	-90.626	-0.553	0.158
-409.340	-99.157	0.343	0.086
-408.325	-115.787	0.248	-0.046
-407.311	-25.339	-0.281	0.164
-406.296	-160.817	0.149	-0.008
-405.282	-195.228	-0.236	-0.002
-404.267	-14.679	0.222	0.141
-403.252	23.827	0.104	-0.085
-402.238	-95.518	0.052	-0.014
-401.223	-82.246	-0.501	0.162
-400.209	98.822	0.171	-0.195
-399.194	167.516	-0.046	-0.065
-398.179	-200.000	-0.001	0.047
-397.165	642.421	-0.121	-0.305
-396.150	-68.834	-0.357	0.136
-395.136	-77.818	0.216	0.074
-394.121	332.516	0.059	-0.113
-393.106	-200.000	0.017	-0.124
-392.092	-120.117	0.281	-0.048
-391.077	93.461	0.096	-0.107
-390.063	-27.655	-0.164	0.094
-389.048	85.464	0.156	0.169
-388.033	-73.279	0.058	0.021
-387.019	-40.852	-0.006	-0.003
-386.004	-7.510	0.338	-0.226
-384.990	1.783	0.197	0.141
-383.975	-123.505	0.419	-0.066
-382.960	422.274	-0.051	-0.108
-381.946	348.129	-0.087	0.170
-380.931	-200.000	-0.017	0.111
-379.917	510.995	-0.145	0.335
-378.902	158.135	-0.197	-0.271
-377.888	-141.256	-0.085	-0.009
-376.873	-105.876	-0.219	-0.049
-375.858	-168.848	0.337	0.013
-374.844	-200.000	0.009	0.193
-373.829	573.571	0.043	-0.104
-372.815	-150.979	-0.241	0.018
-371.800	800.000	0.102	-0.284
-370.785	-87.499	-0.353	-0.106
-369.771	-30.030	0.338	0.190
-368.756	-28.632	0.105	-0.060
-367.742	-53.874	-0.417	0.188
-366.727	-43.705	0.181	-0.090
-365.712	-4.807	0.287	-0.196
-364.698	53.440	0.058	-0.055
-363.683	-144.501	-0.396	-0.036
-362.669	-134.150	-0.361	0.044
-361.654	-200.000	0.095	0.413
-360.639	-80.265	-0.219	0.072
-359.625	-200.000	-0.064	0.336
-358.610	-200.000	0.006	0.101
-357.596	-12.005	0.104	-0.068
-356.581	10.205	0.203	0.152
-355.566	160.888	-0.066	-0.092
-354.552	-115.356	0.061	0.011
-353.537	-200.000	-0.015	0.183
-352.523	-164.512	-0.367	0.016
-351.508	218.673	-0.051	0.080
-350.493	-10.008	0.065	0.043
-349.479	-114.865	0.104	-0.020
-348.464	-143.014	0.180	0.017
-347.450	-200.000	0.018	0.340
-346.435	-200.000	-0.002	0.024
-345.420	-102.442	-0.240	-0.057
-344.406	-103.014	-0.132	0.031
-343.391	-113.405	0.235	-0.046
-342.377	-200.000	0.021	0.306
-341.362	-200.000	0.025	0.288
-340.348	-37.266	-0.197	-0.104
-339.333	-87.782	-0.216	0.064
-338.318	337.519	-0.121	0.232
-337.304	800.000	-0.030	0.116
-336.289	193.307	0.043	-0.064
-335.275	10.103	0.144	0.108
-334.260	-69.474	0.137	0.052
-333.245	434.171	-0.010	-0.021
-332.231	-103.163	0.284	-0.066
-331.216	346.776	-0.032	0.062
-330.202	-23.672	0.247	-0.146
-329.187	164.900	0.109	-0.152
-328.172	800.000	0.019	0.081
-327.158	-27.204	0.190	-0.109
-326.143	-200.000	-0.002	-0.128
-325.129	-120.927	-0.128	-0.021
-324.114	-33.854	-0.244	0.133
-323.099	89.990	-0.116	-0.128
-322.085	-73.284	-0.324	-0.117
-321.070	-123.719	-0.327	0.051
-320.056	-200.000	-0.041	-0.593
-319.041	528.830	0.126	-0.293
-318.026	-199.658	0.327	0.002
-317.012	106.259	0.117	-0.137
-315.997	491.274	-0.094	0.213
-314.983	40.071	-0.140	-0.124
-313.968	-25.619	-0.041	0.024
-312.953	-200.000	0.003	0.254
-311.939	-98.655	0.218	-0.055
-310.924	501.895	0.072	0.164
-309.910	800.000	-0.071	-0.226
-308.895	141.371	-0.140	0.183
-307.880	-200.000	0.021	-0.175
-306.866	99.736	0.111	-0.126
-305.851	-23.394	-0.143	-0.085
-304.837	-200.000	-0.007	-0.055
-303.822	25.173	0.246	0.202
-302.807	-121.850	-0.600	-0.098
-301.793	-137.038	0.376	0.042
-300.778	-111.290	-0.402	0.081
-299.764	8.481	0.095	0.071
-298.749	780.534	-0.098	-0.265
-297.735	800.000	0.070	-0.204
-296.720	800.000	0.057	0.211
-295.705	-73.563	-0.092	0.033
-294.691	55.928	0.048	0.045
-293.676	-14.756	-0.183	-0.116
-292.662	-42.709	0.184	0.092
-291.647	-123.153	0.169	0.027
-290.632	-74.844	-0.112	-0.040
-289.618	116.072	-0.185	0.224
-288.603	-90.003	0.256	0.073
-287.589	100.354	-0.394	-0.450
-286.574	-41.735	-0.083	0.042
-285.559	526.752	0.197	-0.456
-284.545	-116.936	0.410	-0.074
-283.530	-33.124	0.271	0.148
-282.516	-127.317	0.249	0.036
-281.501	-170.124	0.349	0.012
-280.486	-57.070	-0.116	-0.050
-279.472	-200.000	0.004	0.084
-278.457	800.000	0.097	-0.333
-277.443	653.541	0.132	-0.335
-276.428	-200.000	0.014	0.163
-275.413	150.163	-0.226	0.302
-274.399	-97.538	-0.158	-0.040
-273.384	58.571	-0.106	0.102
-272.370	66.114	0.311	-0.311
-271.355	91.697	0.117	0.130
-270.340	68.881	-0.236	0.239
-269.326	83.351	0.048	-0.052
-268.311	75.066	-0.091	0.094
-267.297	-7.674	-0.166	-0.110
-266.282	-30.327	0.156	0.087
-265.267	542.357	-0.025	-0.059
-264.253	800.000	0.057	0.174
-263.238	800.000	0.060	-0.204
-262.224	650.243	-0.054	-0.136
-261.209	113.559	0.158	-0.188
-260.195	49.677	-0.114	0.106
-259.180	-59.297	0.285	-0.121
-258.165	-173.810	0.338	0.010
-257.151	-40.684	0.442	-0.225
-256.136	-170.536	-0.197	-0.007
-255.122	131.190	-0.063	0.080
-254.107	-200.000	-0.005	0.122
-253.092	156.707	-0.160	0.218
-252.078	-149.959	-0.277	0.021
-251.063	399.674	0.118	-0.243
-250.049	-60.838	0.127	0.053
-249.034	130.489	-0.162	0.204
-248.019	607.360	-0.118	-0.288
-247.005	-32.380	0.164	0.090
-245.990	-69.601	-0.166	-0.063
-244.976	-16.007	0.171	-0.107
-243.961	-10.506	-0.126	-0.082
-242.946	470.740	0.051	0.114
-241.932	-136.305	0.167	0.019
-240.917	11.423	-0.124	0.094
-239.903	30.147	-0.062	-0.052
-238.888	-97.936	0.178	-0.045
-237.873	157.495	0.073	0.099
-236.859	-200.000	0.008	0.057
-235.844	800.000	-0.033	0.106
-234.830	-200.000	-0.024	0.145
-233.815	229.508	-0.095	0.153
-232.800	-70.230	-0.117	-0.044
-231.786	-83.588	-0.015	-0.005
-230.771	-140.960	0.097	0.010
-229.757	148.532	-0.040	-0.053
-228.742	-167.382	-0.199	0.008
-227.727	-157.730	0.202	-0.012
-226.713	800.000	0.056	-0.182
-225.698	-200.000	0.033	-0.165
-224.684	-17.870	-0.167	0.103
-223.669	-200.000	0.007	-0.044
-222.655	-200.000	-0.013	0.160
-221.640	-71.430	0.047	0.017
-220.625	181.131	0.146	0.211
-219.611	26.314	0.116	0.095
-218.596	-5.460	-0.332	-0.224
-217.582	-200.000	-0.011	0.266
-216.567	800.000	-0.032	0.099
-215.552	-154.661	0.419	-0.027
-214.538	176.885	-0.164	-0.235
-213.523	-200.000	0.034	-0.346
-212.509	-9.843	-0.117	0.076
-211.494	-78.210	-0.139	-0.047
-210.479	67.357	-0.145	0.145
-209.465	158.144	-0.203	0.276
-208.450	-118.272	-0.172	-0.030
-207.436	-192.071	0.149	0.001
-206.421	2.094	0.378	0.268
-205.406	-99.664	-0.231	-0.057
-204.392	-200.000	-0.001	-0.156
-203.377	195.726	0.201	-0.300
-202.363	17.567	0.325	-0.254
-201.348	48.406	-0.083	0.076
-200.333	10.279	0.267	-0.200
-199.319	-83.655	-0.196	-0.061
-198.304	173.116	0.262	-0.370
-197.290	153.750	0.078	0.104
-196.275	204.924	0.033	0.050
-195.260	434.732	-0.098	0.209
-194.246	-163.908	0.148	-0.007
-193.231	-137.855	-0.036	-0.004
-192.217	-96.289	0.456	0.119
-191.202	-67.328	-0.096	-0.037
-190.187	123.956	-0.052	0.065
-189.173	79.647	0.278	0.293
-188.158	-200.000	0.017	0.104
-187.144	-89.408	0.291	0.084
-186.129	-174.216	-0.140	-0.004
-185.114	112.947	0.217	0.258
-184.100	-151.828	0.128	0.009
-183.085	-126.683	0.302	-0.044
-182.071	120.204	0.162	-0.198
-181.056	-104.844	-0.223	0.050
-180.042	-67.746	-0.234	0.090
-179.027	-200.000	-0.009	-0.047
-178.012	520.667	-0.033	-0.076
-176.998	-200.000	-0.042	0.287
-175.983	220.648	0.138	0.218
-174.969	-79.579	0.090	-0.030
-173.954	-81.166	-0.163	-0.053
-172.939	-112.072	0.302	0.060
-171.925	800.000	-0.047	-0.178
-170.910	800.000	-0.063	0.248
-169.896	-200.000	-0.051	0.306
-168.881	-89.784	-0.354	0.102
-167.866	414.782	-0.059	0.124
-166.852	342.935	-0.049	0.095
-165.837	800.000	0.083	0.257
-164.823	-200.000	0.002	-0.175
-163.808	47.856	-0.084	0.077
-162.793	-31.466	0.206	-0.113
-161.779	61.985	-0.190	-0.186
-160.764	119.923	-0.078	0.095
-159.750	-18.702	0.245	0.150
-158.735	170.915	-0.165	-0.231
-157.720	152.094	0.186	0.249
-156.706	-40.333	-0.163	0.083
-155.691	-23.065	0.221	0.131
-154.677	-200.000	0.009	-0.117
-153.662	28.226	-0.285	0.236
-152.647	146.533	-0.087	0.115
-151.633	-97.541	-0.243	0.062
-150.618	-56.585	0.065	0.028
-149.604	-200.000	0.037	0.393
-148.589	-17.486	0.037	0.023
-147.574	-33.780	0.255	-0.138
-146.560	525.390	-0.112	-0.259
-145.545	297.966	0.035	-0.063
-144.531	-6.046	0.130	-0.087
-143.516	800.000	0.059	0.207
-142.502	-24.972	-0.194	-0.113
-141.487	-115.455	-0.049	-0.009
-140.472	217.741	-0.029	0.046
-139.458	-68.336	0.390	-0.148
-138.443	-155.804	-0.350	-0.022
-137.429	-200.000	-0.002	0.098
-136.414	-142.261	0.194	0.019
-135.399	-180.712	-0.216	0.004
-134.385	551.687	0.055	0.130
-133.370	40.516	-0.238	0.210
-132.356	84.813	0.065	0.070
-131.341	-11.161	-0.139	-0.090
-130.326	800.000	-0.010	-0.029
-129.312	403.917	0.003	-0.007
-128.297	197.976	0.147	-0.220
-127.283	-6.934	-0.551	0.367
-126.268	212.617	-0.118	0.183
-125.253	-80.622	0.495	0.161
-124.239	-76.078	0.192	0.067
-123.224	-48.219	0.062	0.029
-122.210	-63.759	0.258	-0.103
-121.195	353.176	-0.133	-0.259
