DTS Sentinel unit serial number:	SN413079Multiplexer serial number:	ORYXHardware model number:	OX4-SRSoftware version number:	ORYX F/W v4.00 Oryx Data Collector v3.7.2.0data status	okinstallation	princeton_trtdifferential loss correction	single-endedforward channel	channel 3reverse channel	N/Adate	2019/09/14time	18:28:35forward acquisition time	60.00reverse acquisition time	0.00gamma	496.2192k internal	0.2302k external	0.2302temperature offset calibration	1.0019default loss term (dB/km)	0.3790temperature slope calibration	1.0000multiplexer offset coefficient	1.0000multiplexer slope coefficient	1.0000fibre end	0.00T internal ref (°C)	36.66T ext. ref 1 (°C)	4.93T ext. ref 2 (°C)	30.49length (m)	temperature (°C)	Stokes	anti-Stokes-747.200	800.000	-0.055	-0.200
-746.185	222.850	0.100	0.164
-745.171	-68.616	0.240	-0.095
-744.156	-18.523	0.149	0.094
-743.142	29.046	0.092	-0.080
-742.127	800.000	-0.037	0.156
-741.112	228.011	-0.081	0.135
-740.098	-130.168	-0.108	-0.015
-739.083	317.690	-0.154	-0.297
-738.069	-96.716	0.054	0.015
-737.054	-64.302	-0.147	0.061
-736.039	53.806	-0.313	0.306
-735.025	526.861	-0.110	-0.264
-734.010	-87.703	-0.162	-0.050
-732.996	493.644	-0.155	-0.361
-731.981	-139.477	0.269	0.029
-730.966	374.796	0.015	0.030
-729.952	-200.000	0.022	0.168
-728.937	-78.931	-0.359	-0.125
-727.923	-133.762	-0.181	-0.023
-726.908	520.823	-0.022	0.053
-725.894	419.993	-0.168	0.366
-724.879	-107.584	-0.321	0.072
-723.864	393.959	0.130	-0.276
-722.850	387.787	0.151	0.317
-721.835	54.928	0.075	-0.074
-720.821	130.711	0.206	-0.269
-719.806	-200.000	-0.016	0.224
-718.791	-12.180	0.212	0.141
-717.777	591.838	-0.051	0.128
-716.762	-75.950	-0.611	0.220
-715.748	204.918	0.084	-0.133
-714.733	750.339	0.009	-0.026
-713.718	19.756	-0.045	-0.037
-712.704	133.496	-0.061	0.080
-711.689	-124.283	-0.171	0.027
-710.675	800.000	0.058	-0.201
-709.660	-62.249	0.148	0.063
-708.645	8.778	-0.294	-0.225
-707.631	233.635	0.177	-0.297
-706.616	379.710	0.090	0.187
-705.602	671.550	0.054	0.142
-704.587	800.000	0.056	-0.208
-703.572	54.975	0.209	-0.205
-702.558	-19.661	-0.173	0.109
-701.543	800.000	-0.061	0.209
-700.529	-176.116	-0.104	-0.003
-699.514	-200.000	0.025	0.268
-698.499	-112.637	-0.089	-0.018
-697.485	248.730	-0.068	-0.117
-696.470	-135.010	0.052	-0.006
-695.456	-200.000	0.030	0.155
-694.441	-200.000	-0.070	-0.322
-693.426	-11.523	-0.101	-0.068
-692.412	800.000	0.090	-0.360
-691.397	800.000	0.142	-0.605
-690.383	24.360	0.281	-0.236
-689.368	-114.106	0.287	-0.057
-688.354	-174.779	0.200	-0.006
-687.339	613.127	0.026	-0.067
-686.324	-116.346	-0.106	-0.020
-685.310	-200.000	-0.051	-0.307
-684.295	185.338	0.189	-0.285
-683.281	-200.000	0.019	-0.263
-682.266	146.305	-0.120	0.164
-681.251	-149.353	0.099	0.008
-680.237	-173.799	-0.419	0.013
-679.222	800.000	-0.050	-0.150
-678.208	47.829	-0.033	-0.031
-677.193	-41.922	-0.191	-0.100
-676.178	-142.550	0.215	-0.021
-675.164	5.614	-0.162	-0.122
-674.149	-130.913	-0.318	0.043
-673.135	-200.000	-0.010	0.107
-672.120	-38.949	0.225	0.121
-671.105	-200.000	-0.002	0.344
-670.091	68.069	0.114	-0.119
-669.076	435.277	-0.097	0.214
-668.062	-100.156	-0.320	0.081
-667.047	-22.307	0.323	-0.199
-666.032	-194.931	-0.184	-0.001
-665.018	-71.284	0.339	-0.129
-664.003	-186.089	-0.127	-0.002
-662.989	759.320	-0.058	0.160
-661.974	-153.063	0.141	-0.010
-660.959	-76.133	0.314	-0.113
-659.945	277.226	0.105	-0.190
-658.930	420.009	-0.068	0.148
-657.916	-0.445	0.107	0.077
-656.901	-60.945	-0.107	-0.046
-655.886	-200.000	0.058	0.316
-654.872	83.478	-0.151	-0.167
-653.857	638.147	-0.107	-0.277
-652.843	-200.000	0.047	0.303
-651.828	249.804	0.050	-0.086
-650.814	-32.753	0.073	0.041
-649.799	-138.854	-0.649	-0.072
-648.784	-6.413	-0.265	-0.184
-647.770	-134.628	-0.149	-0.018
-646.755	93.480	0.024	-0.028
-645.741	296.592	0.111	-0.206
-644.726	-200.000	-0.028	-0.224
-643.711	800.000	-0.026	0.091
-642.697	343.471	0.016	0.031
-641.682	381.043	0.112	-0.234
-640.668	694.361	-0.051	0.135
-639.653	-14.660	-0.210	-0.137
-638.638	-39.988	0.077	-0.041
-637.624	-18.646	0.399	-0.253
-636.609	-200.000	-0.035	-0.164
-635.595	800.000	0.142	0.444
-634.580	-66.718	-0.170	0.068
-633.565	39.999	0.136	-0.124
-632.551	-4.640	0.116	-0.081
-631.536	205.108	-0.058	0.091
-630.522	94.330	0.066	0.076
-629.507	200.702	-0.095	0.148
-628.492	800.000	0.050	-0.218
-627.478	405.488	-0.103	-0.220
-626.463	-87.727	0.008	0.003
-625.449	-200.000	-0.011	-0.455
-624.434	117.683	-0.096	-0.120
-623.419	554.163	0.064	0.156
-622.405	-94.345	-0.179	0.050
-621.390	-9.342	-0.110	0.075
-620.376	278.512	-0.110	0.199
-619.361	-200.000	-0.001	0.144
-618.346	800.000	0.085	0.242
-617.332	68.533	-0.096	-0.100
-616.317	191.136	0.148	-0.225
-615.303	-149.071	-0.503	0.041
-614.288	494.589	-0.084	-0.195
-613.273	-147.223	0.224	0.019
-612.259	46.662	0.289	-0.272
-611.244	54.412	-0.071	-0.070
-610.230	51.060	-0.074	-0.071
-609.215	800.000	0.104	0.314
-608.201	-162.390	0.209	-0.011
-607.186	-100.023	0.483	-0.122
-606.171	-109.005	-0.071	0.015
-605.157	-149.024	-0.501	0.041
-604.142	186.634	0.222	0.335
-603.128	-14.901	-0.321	0.209
-602.113	157.814	0.074	-0.104
-601.098	800.000	-0.136	-0.385
-600.084	-118.080	-0.224	-0.040
-599.069	77.553	0.133	0.143
-598.055	245.118	0.107	0.182
-597.040	414.446	0.074	-0.160
-596.025	-151.961	-0.152	-0.011
-595.011	-64.281	-0.313	-0.129
-593.996	573.054	0.029	0.072
-592.982	-124.374	-0.278	0.044
-591.967	241.591	0.145	-0.245
-590.952	62.060	0.279	-0.281
-589.938	236.132	0.082	-0.138
-588.923	254.012	-0.062	-0.107
-587.909	-89.954	0.296	0.087
-586.894	32.048	0.126	0.110
-585.879	800.000	0.051	-0.221
-584.865	664.687	-0.108	0.283
-583.850	-200.000	-0.003	0.126
-582.836	-125.572	-0.089	-0.014
-581.821	62.375	0.153	-0.155
-580.806	185.944	-0.160	-0.240
-579.792	-200.000	0.018	0.349
-578.777	-21.148	-0.228	-0.141
-577.763	-55.466	0.090	-0.041
-576.748	-171.728	0.188	0.006
-575.733	287.201	-0.161	0.294
-574.719	-200.000	0.020	0.390
-573.704	142.249	-0.199	-0.267
-572.690	-77.030	0.221	0.078
-571.675	-200.000	0.000	0.006
-570.661	-48.883	-0.038	-0.018
-569.646	-59.626	-0.207	0.090
-568.631	-60.754	-0.132	0.056
-567.617	110.578	-0.157	0.191
-566.602	43.617	-0.195	0.181
-565.588	478.219	0.109	-0.250
-564.573	207.092	0.089	0.141
-563.558	800.000	0.049	-0.184
-562.544	-14.523	0.252	-0.164
-561.529	-127.813	0.271	-0.040
-560.515	91.021	0.128	-0.146
-559.500	-29.082	-0.174	-0.101
-558.485	220.220	-0.143	0.232
-557.471	16.307	0.139	0.111
-556.456	-31.404	-0.135	0.077
-555.442	-20.309	-0.248	-0.155
-554.427	-124.229	-0.259	-0.041
-553.412	378.920	0.073	-0.152
-552.398	-49.091	-0.213	0.103
-551.383	112.380	-0.082	-0.100
-550.369	-57.196	0.384	-0.171
-549.354	251.711	-0.260	-0.447
-548.339	-33.082	-0.213	0.119
-547.325	-37.606	0.574	0.309
-546.310	-111.083	-0.316	0.066
-545.296	31.405	-0.025	0.022
-544.281	116.522	-0.110	-0.137
-543.266	-117.175	-0.517	-0.095
-542.252	417.507	0.062	0.133
-541.237	-129.892	0.130	-0.018
-540.223	182.254	0.185	-0.276
-539.208	101.640	-0.134	-0.158
-538.193	-7.336	-0.406	-0.278
-537.179	800.000	-0.121	-0.348
-536.164	-200.000	-0.031	0.227
-535.150	-90.946	-0.043	0.013
-534.135	130.834	0.084	-0.109
-533.121	-146.658	-0.364	0.032
-532.106	-94.187	-0.252	0.070
-531.091	-55.296	-0.213	-0.097
-530.077	555.953	-0.050	0.121
-529.062	-32.034	0.142	0.080
-528.048	800.000	0.028	-0.103
-527.033	-26.497	-0.203	0.120
-526.018	150.414	0.166	-0.227
-525.004	-18.165	-0.148	0.093
-523.989	195.801	0.174	0.268
-522.975	-3.814	0.145	0.102
-521.960	-200.000	-0.014	-0.117
-520.945	12.590	0.123	0.096
-519.931	-200.000	0.020	0.165
-518.916	-129.314	0.059	0.008
-517.902	-189.909	-0.160	0.002
-516.887	-57.710	0.210	0.093
-515.872	106.265	0.020	-0.024
-514.858	-125.971	-0.316	-0.048
-513.843	-200.000	-0.063	0.286
-512.829	-200.000	-0.002	-0.308
-511.814	116.811	0.123	-0.153
-510.799	1.522	-0.202	-0.147
-509.785	671.589	-0.087	0.227
-508.770	616.477	-0.066	0.167
-507.756	-5.536	-0.139	-0.096
-506.741	-200.000	-0.022	0.247
-505.726	-24.811	0.291	0.175
-504.712	110.378	0.065	-0.079
-503.697	16.149	-0.257	-0.205
-502.683	237.572	-0.102	-0.170
-501.668	-156.085	0.153	-0.010
-500.653	-165.474	0.252	0.011
-499.639	241.285	-0.065	0.109
-498.624	-200.000	0.023	0.497
-497.610	-200.000	0.036	0.309
-496.595	52.261	-0.104	0.100
-495.581	800.000	-0.071	-0.201
-494.566	84.181	0.252	-0.278
-493.551	46.493	-0.113	0.106
-492.537	-76.044	-0.154	0.055
-491.522	-200.000	-0.021	0.425
-490.508	-92.070	0.126	0.036
-489.493	-200.000	-0.013	-0.149
-488.478	267.257	0.035	0.061
-487.464	-114.960	0.329	0.063
-486.449	-94.286	0.372	0.102
-485.435	800.000	0.070	-0.231
-484.420	352.530	0.088	0.176
-483.405	-200.000	0.001	0.053
-482.391	800.000	0.025	-0.110
-481.376	-94.303	0.034	0.009
-480.362	-200.000	-0.021	-0.147
-479.347	83.155	0.297	-0.326
-478.332	-104.591	0.198	0.046
-477.318	-103.725	-0.057	-0.013
-476.303	145.351	-0.341	0.460
-475.289	-86.998	0.118	0.036
-474.274	800.000	-0.042	0.172
-473.259	764.728	0.050	-0.136
-472.245	-112.889	0.304	-0.061
-471.230	-35.583	-0.329	0.180
-470.216	800.000	-0.079	-0.273
-469.201	-123.612	0.200	0.032
-468.186	800.000	0.062	-0.178
-467.172	284.630	0.067	-0.122
-466.157	-156.347	-0.315	-0.020
-465.143	42.916	-0.226	0.208
-464.128	-200.000	-0.014	0.105
-463.113	351.751	-0.065	0.130
-462.099	-49.869	0.308	-0.148
-461.084	-17.690	0.236	-0.149
-460.070	685.544	-0.048	-0.126
-459.055	-200.000	-0.007	0.039
-458.040	-27.044	0.220	-0.129
-457.026	-113.594	-0.370	-0.073
-456.011	18.288	0.065	-0.052
-454.997	-123.640	0.165	0.026
-453.982	64.259	-0.265	-0.269
-452.968	10.540	-0.046	-0.035
-451.953	-88.837	0.140	-0.042
-450.938	800.000	-0.022	0.069
-449.924	65.059	-0.047	-0.048
-448.909	-84.074	0.404	-0.129
-447.895	-32.997	-0.163	-0.091
-446.880	258.318	-0.201	0.348
-445.865	-36.121	-0.153	0.083
-444.851	-108.965	0.003	0.001
-443.836	130.603	0.137	0.177
-442.822	-165.444	-0.112	0.005
-441.807	41.926	-0.294	0.268
-440.792	70.567	-0.222	0.232
-439.778	106.689	0.172	0.206
-438.763	61.133	-0.317	-0.317
-437.749	-99.363	0.071	-0.018
-436.734	-200.000	-0.022	0.148
-435.719	263.910	-0.114	-0.199
-434.705	-64.799	0.229	0.093
-433.690	-38.032	-0.221	0.118
-432.676	-71.549	0.091	0.034
-431.661	-200.000	0.003	-0.209
-430.646	-200.000	-0.012	-0.079
-429.632	-138.379	0.289	0.032
-428.617	-165.616	0.162	-0.007
-427.603	129.300	0.083	0.107
-426.588	77.985	-0.187	0.201
-425.573	556.993	0.116	0.282
-424.559	-94.499	0.180	-0.049
-423.544	-3.836	0.099	0.069
-422.530	-47.017	0.124	-0.061
-421.515	-30.247	0.068	0.039
-420.500	-200.000	-0.003	0.141
-419.486	105.637	0.261	-0.310
-418.471	-113.920	0.432	-0.084
-417.457	-200.000	-0.001	-0.086
-416.442	-93.449	-0.066	-0.018
-415.428	-29.423	0.272	0.156
-414.413	35.787	0.348	-0.308
-413.398	-147.753	-0.382	-0.032
-412.384	195.205	0.205	-0.313
-411.369	-98.393	-0.334	0.086
-410.355	-200.000	-0.034	0.334
-409.340	627.672	-0.099	0.253
-408.325	11.396	-0.190	-0.146
-407.311	-200.000	0.013	0.148
-406.296	417.998	0.035	0.076
-405.282	182.502	0.129	0.191
-404.267	-200.000	-0.088	0.000
-403.252	110.588	-0.127	-0.154
-402.238	185.037	0.250	0.373
-401.223	330.401	-0.122	0.237
-400.209	-108.010	-0.205	0.045
-399.194	-68.358	0.147	0.058
-398.179	-71.454	0.356	-0.134
-397.165	-20.336	-0.123	0.076
-396.150	-90.469	-0.247	0.072
-395.136	-200.000	-0.010	-0.243
-394.121	-93.802	0.194	0.054
-393.106	184.841	0.045	0.066
-392.092	-143.471	-0.143	0.014
-391.077	-200.000	0.034	-0.176
-390.063	-125.393	0.317	-0.049
-389.048	-123.107	0.271	0.044
-388.033	-78.565	0.224	-0.077
-387.019	5.489	-0.214	0.159
-386.004	16.698	0.092	0.073
-384.990	-65.628	0.029	0.012
-383.975	12.000	0.077	-0.060
-382.960	800.000	-0.075	-0.235
-381.946	-94.272	0.270	-0.074
-380.931	-10.456	-0.242	-0.161
-379.917	-72.076	-0.142	-0.053
-378.902	-145.082	-0.015	-0.001
-377.888	-4.946	-0.168	0.116
-376.873	263.798	0.159	-0.277
-375.858	800.000	-0.097	-0.394
-374.844	800.000	-0.104	-0.318
-373.829	429.592	-0.030	0.066
-372.815	9.025	0.192	0.145
-371.800	51.640	0.096	-0.092
-370.785	61.294	0.185	-0.185
-369.771	647.542	-0.118	-0.303
-368.756	-200.000	-0.033	-0.225
-367.742	-155.187	0.135	-0.009
-366.727	-200.000	-0.055	0.269
-365.712	-200.000	0.022	-0.130
-364.698	80.477	-0.236	0.256
-363.683	455.921	0.090	0.201
-362.669	-113.564	-0.404	-0.079
-361.654	60.082	-0.071	0.070
-360.639	227.796	0.140	0.228
-359.625	-52.300	-0.353	0.164
-358.610	203.065	-0.046	-0.071
-357.596	-1.198	-0.227	0.161
-356.581	41.654	0.164	0.149
-355.566	-33.266	-0.069	0.038
-354.552	-60.843	0.126	0.053
-353.537	-171.693	0.250	-0.008
-352.523	-26.886	0.047	0.027
-351.508	17.785	0.174	0.139
-350.493	800.000	0.009	-0.028
-349.479	-175.327	0.117	-0.003
-348.464	412.839	-0.075	-0.160
-347.450	-81.615	-0.172	0.057
-346.435	-200.000	-0.038	0.188
-345.420	179.631	0.217	0.319
-344.406	90.541	-0.007	-0.008
-343.391	67.665	-0.016	-0.016
-342.377	-120.728	0.242	0.041
-341.362	-54.149	-0.211	0.096
-340.348	176.238	0.269	-0.392
-339.333	107.758	-0.067	0.080
-338.318	800.000	0.040	0.170
-337.304	706.249	-0.034	-0.090
-336.289	-200.000	0.023	0.225
-335.275	-41.747	0.214	-0.110
-334.260	-200.000	0.000	-0.026
-333.245	-200.000	-0.003	0.072
-332.231	-200.000	0.013	0.216
-331.216	-34.285	0.082	0.045
-330.202	-200.000	0.030	-0.231
-329.187	-125.177	-0.191	0.029
-328.172	800.000	-0.032	-0.109
-327.158	-73.591	0.126	-0.046
-326.143	-7.056	0.135	0.092
-325.129	5.544	-0.288	-0.213
-324.114	-20.678	0.365	0.225
-323.099	290.200	-0.115	0.210
-322.085	-128.591	0.056	-0.008
-321.070	-51.426	0.187	-0.088
-320.056	-51.153	-0.194	-0.091
-319.041	-7.315	0.284	-0.193
-318.026	225.379	0.164	-0.266
-317.012	-200.000	0.003	-0.308
-315.997	-200.000	0.001	-0.077
-314.983	-1.701	-0.264	-0.186
-313.968	800.000	0.084	0.262
-312.953	-77.398	-0.162	-0.056
-311.939	-200.000	0.033	0.338
-310.924	112.506	0.088	-0.106
-309.910	143.239	-0.140	-0.186
-308.895	-200.000	-0.022	0.196
-307.880	-200.000	-0.043	0.190
-306.866	800.000	-0.049	0.142
-305.851	70.444	-0.153	0.158
-304.837	147.862	0.177	-0.239
-303.822	-69.870	0.037	-0.014
-302.807	61.080	-0.228	0.226
-301.793	9.339	-0.176	-0.133
-300.778	-148.490	0.440	0.036
-299.764	-66.297	0.084	-0.033
-298.749	380.858	-0.088	0.180
-297.735	-174.005	0.116	-0.003
-296.720	228.423	0.057	0.094
-295.705	225.425	-0.029	-0.046
-294.691	734.707	0.129	0.345
-293.676	294.705	-0.073	-0.133
-292.662	-42.571	-0.176	0.090
-291.647	24.107	-0.130	-0.108
-290.632	-97.365	-0.129	0.034
-289.618	-92.229	-0.277	-0.078
-288.603	-162.162	-0.223	0.011
-287.589	-200.000	0.012	0.190
-286.574	-41.331	0.323	-0.167
-285.559	201.660	-0.073	-0.113
-284.545	-200.000	0.005	-0.094
-283.530	191.937	0.197	0.297
-282.516	312.891	-0.046	0.086
-281.501	307.959	0.196	-0.366
-280.486	107.345	-0.126	-0.150
-279.472	-200.000	0.057	-0.280
-278.457	88.383	-0.062	0.069
-277.443	-3.851	-0.159	0.110
-276.428	-200.000	0.014	0.292
-275.413	-200.000	-0.029	0.154
-274.399	-118.125	-0.238	-0.043
-273.384	800.000	0.086	0.362
-272.370	-59.805	0.058	-0.025
-271.355	655.389	-0.081	-0.209
-270.340	233.360	0.121	-0.198
-269.326	359.263	0.111	-0.222
-268.311	-86.557	-0.154	-0.047
-267.297	-71.589	-0.329	0.123
-266.282	357.407	-0.154	-0.307
-265.267	274.970	0.115	0.204
-264.253	800.000	0.093	-0.305
-263.238	-136.144	-0.248	0.029
-262.224	-15.669	0.210	0.134
-261.209	-200.000	-0.049	0.223
-260.195	57.405	0.262	0.256
-259.180	-168.854	-0.315	0.012
-258.165	-0.266	-0.340	-0.242
-257.151	-94.435	-0.388	0.106
-256.136	-10.316	-0.099	0.066
-255.122	-151.157	0.221	-0.017
-254.107	-125.683	-0.271	0.041
-253.092	-156.736	-0.099	-0.006
-252.078	109.813	0.238	0.285
-251.063	-200.000	0.044	0.237
-250.049	720.625	0.136	0.363
-249.034	-57.686	0.195	-0.085
-248.019	-27.950	0.044	0.025
-247.005	-46.924	0.169	0.083
-245.990	-0.967	-0.139	0.098
-244.976	-182.032	0.133	-0.003
-243.961	-86.637	0.165	0.051
-242.946	-21.396	0.273	0.166
-241.932	-89.896	0.286	-0.084
-240.917	629.889	0.159	0.402
-239.903	-200.000	0.016	0.086
-238.888	12.040	-0.155	0.119
-237.873	-68.139	0.288	-0.112
-236.859	153.340	-0.149	0.203
-235.844	366.636	-0.119	0.240
-234.830	242.260	-0.054	-0.091
-233.815	321.863	0.096	-0.183
-232.800	-95.051	0.130	-0.035
-231.786	-82.331	0.223	0.072
-230.771	15.237	0.083	-0.065
-229.757	113.047	-0.084	0.102
-228.742	134.982	-0.087	-0.113
-227.727	-200.000	0.007	-0.131
-226.713	-43.418	0.103	-0.052
-225.698	-109.580	0.139	-0.029
-224.684	45.758	0.078	-0.072
-223.669	555.009	-0.054	-0.130
-222.655	717.510	0.094	0.249
-221.640	-45.995	-0.198	-0.097
-220.625	-106.900	-0.280	0.062
-219.611	1.515	-0.085	0.061
-218.596	800.000	0.019	0.053
-217.582	103.260	0.062	-0.073
-216.567	310.854	0.070	-0.131
-215.552	611.924	-0.138	0.345
-214.538	-200.000	0.002	-0.051
-213.523	-200.000	-0.018	-0.251
-212.509	146.184	-0.138	-0.185
-211.494	-83.636	-0.072	0.023
-210.479	5.807	0.295	0.218
-209.465	800.000	-0.052	-0.154
-208.450	3.284	0.191	-0.138
-207.436	383.861	-0.089	-0.183
-206.421	-138.849	0.111	0.012
-205.406	-200.000	0.031	0.376
-204.392	-180.121	-0.098	-0.002
-203.377	33.670	-0.080	0.070
-202.363	48.549	-0.101	0.094
-201.348	608.918	0.118	0.293
-200.333	-200.000	0.009	-0.089
-199.319	-200.000	0.080	-0.372
-198.304	-200.000	-0.068	-0.504
-197.290	204.493	0.092	0.142
-196.275	-24.233	-0.202	0.120
-195.260	110.840	0.256	-0.307
-194.246	-200.000	0.004	-0.031
-193.231	77.658	0.160	-0.169
-192.217	-200.000	0.019	0.131
-191.202	782.637	-0.037	0.100
-190.187	-200.000	-0.015	0.377
-189.173	169.262	0.239	-0.340
-188.158	53.624	0.202	-0.193
-187.144	322.146	-0.154	0.292
-186.129	-19.591	-0.178	-0.110
-185.114	-200.000	-0.008	0.149
-184.100	-70.285	-0.237	0.090
-183.085	50.449	0.161	-0.152
-182.071	-10.224	0.158	0.105
-181.056	358.879	0.096	-0.191
-180.042	-99.607	0.049	-0.012
-179.027	-113.369	0.234	-0.046
-178.012	-200.000	-0.015	-0.113
-176.998	343.152	0.177	-0.346
-175.983	77.081	0.099	-0.105
-174.969	93.485	-0.133	0.151
-173.954	-32.628	0.109	-0.060
-172.939	-106.936	0.066	-0.014
-171.925	-124.343	0.173	-0.027
-170.910	-86.373	0.024	-0.007
-169.896	-139.477	-0.214	0.023
-168.881	40.082	-0.036	-0.032
-167.866	-97.167	-0.121	0.032
-166.852	-200.000	-0.021	-0.112
-165.837	-175.888	0.335	-0.009
-164.823	-139.394	0.322	0.034
-163.808	-200.000	0.004	-0.290
-162.793	-99.578	-0.133	-0.033
-161.779	-66.959	-0.075	-0.029
-160.764	800.000	-0.123	-0.406
-159.750	57.460	-0.209	0.204
-158.735	-66.479	0.344	0.136
-157.720	-200.000	0.002	0.286
-156.706	-134.389	-0.246	-0.030
-155.691	397.859	-0.086	-0.180
-154.677	-75.645	-0.417	0.147
-153.662	-58.327	-0.238	0.103
-152.647	-84.460	-0.065	-0.021
-151.633	-13.371	0.193	-0.125
-150.618	-31.173	-0.106	-0.059
-149.604	-200.000	-0.002	-0.053
-148.589	800.000	-0.070	-0.260
-147.574	-76.704	0.313	-0.109
-146.560	-200.000	0.004	0.197
-145.545	-92.891	0.100	0.028
-144.531	64.484	0.160	0.160
-143.516	18.776	0.211	-0.168
-142.502	476.965	-0.046	-0.103
-141.487	402.696	0.025	0.053
-140.472	-46.674	0.057	-0.028
-139.458	-28.918	0.046	-0.026
-138.443	-200.000	0.017	-0.227
-137.429	800.000	0.057	-0.176
-136.414	194.558	-0.077	-0.115
-135.399	-192.878	0.214	0.002
-134.385	243.006	0.172	0.287
-133.370	7.334	-0.191	-0.142
-132.356	126.759	0.181	-0.228
-131.341	-65.622	0.150	0.060
-130.326	-75.983	-0.275	0.097
-129.312	-172.736	-0.257	-0.008
-128.297	-200.000	-0.008	0.522
-127.283	-156.255	0.209	0.013
-126.268	257.699	-0.103	0.176
-125.253	800.000	0.029	-0.085
-124.239	137.096	0.093	-0.121
-123.224	-167.432	0.167	0.007
-122.210	120.922	0.341	0.422
-121.195	-94.376	0.106	0.029
