DTS Sentinel unit serial number:	SN413079Multiplexer serial number:	ORYXHardware model number:	OX4-SRSoftware version number:	ORYX F/W v4.00 Oryx Data Collector v3.7.2.0data status	okinstallation	princeton_trtdifferential loss correction	single-endedforward channel	channel 3reverse channel	N/Adate	2019/09/12time	05:50:11forward acquisition time	60.00reverse acquisition time	0.00gamma	496.2192k internal	0.2321k external	0.2321temperature offset calibration	1.0033default loss term (dB/km)	0.3790temperature slope calibration	1.0000multiplexer offset coefficient	1.0000multiplexer slope coefficient	1.0000fibre end	0.00T internal ref (°C)	32.06T ext. ref 1 (°C)	1.58T ext. ref 2 (°C)	27.54length (m)	temperature (°C)	Stokes	anti-Stokes-747.200	-139.835	-0.426	-0.046
-746.185	132.333	-0.158	0.206
-745.171	50.424	-0.351	0.335
-744.156	338.374	-0.073	0.143
-743.142	61.117	-0.248	0.249
-742.127	-21.374	-0.167	0.103
-741.112	-30.251	-0.112	0.065
-740.098	-200.000	-0.035	0.303
-739.083	800.000	0.064	-0.220
-738.069	129.372	0.191	0.247
-737.054	268.538	-0.128	-0.226
-736.039	800.000	-0.061	-0.258
-735.025	-200.000	-0.008	0.326
-734.010	59.361	-0.100	-0.099
-732.996	118.789	-0.157	0.196
-731.981	-9.568	-0.166	-0.112
-730.966	23.351	-0.074	0.062
-729.952	-90.758	-0.265	0.077
-728.937	617.850	-0.185	-0.469
-727.923	800.000	-0.165	-0.516
-726.908	129.375	0.163	-0.210
-725.894	168.619	-0.109	0.156
-724.879	-118.139	0.190	0.034
-723.864	-10.651	-0.143	-0.095
-722.850	-24.942	0.056	-0.034
-721.835	-200.000	0.062	-0.362
-720.821	40.989	-0.398	-0.363
-719.806	-74.280	0.097	0.035
-718.791	-57.278	-0.193	0.086
-717.777	-167.288	-0.037	0.001
-716.762	44.448	-0.208	-0.193
-715.748	-200.000	0.182	0.000
-714.733	-63.580	0.040	-0.017
-713.718	-51.493	-0.441	0.208
-712.704	77.340	0.152	-0.164
-711.689	-197.268	-0.300	-0.002
-710.675	-200.000	-0.022	-0.399
-709.660	181.133	-0.155	-0.230
-708.645	-200.000	0.035	-0.223
-707.631	-91.946	0.305	-0.087
-706.616	-87.560	-0.274	0.084
-705.602	-107.349	0.237	-0.052
-704.587	-189.011	-0.370	0.004
-703.572	-200.000	0.036	-0.294
-702.558	-88.663	0.070	-0.021
-701.543	31.661	0.207	-0.180
-700.529	-66.658	-0.265	-0.106
-699.514	41.238	0.252	-0.230
-698.499	144.329	-0.256	0.344
-697.485	-169.976	-0.128	0.005
-696.470	-152.204	0.074	-0.005
-695.456	4.468	-0.297	-0.220
-694.441	-200.000	0.013	0.273
-693.426	-149.949	0.386	0.030
-692.412	156.793	0.160	-0.223
-691.397	581.846	0.099	0.245
-690.383	-200.000	0.006	0.066
-689.368	-52.741	0.136	0.063
-688.354	680.986	0.178	-0.467
-687.339	106.079	-0.198	0.236
-686.324	-144.066	-0.145	0.014
-685.310	-13.860	-0.224	0.146
-684.295	240.195	-0.102	0.172
-683.281	-200.000	-0.021	0.130
-682.266	-84.623	-0.125	0.040
-681.251	333.913	-0.079	-0.154
-680.237	-200.000	0.019	0.226
-679.222	-12.756	-0.418	-0.274
-678.208	-200.000	0.051	-0.332
-677.193	-200.000	0.030	0.171
-676.178	-98.175	0.178	-0.046
-675.164	-68.897	-0.328	0.128
-674.149	-49.661	-0.234	0.112
-673.135	800.000	0.097	0.384
-672.120	49.048	-0.099	-0.094
-671.105	16.994	-0.301	-0.241
-670.091	187.600	0.055	0.083
-669.076	527.537	0.058	-0.138
-668.062	-200.000	0.003	0.097
-667.047	-28.489	-0.296	-0.172
-666.032	800.000	-0.033	0.136
-665.018	-50.495	0.145	-0.069
-664.003	41.040	-0.194	-0.176
-662.989	-129.143	-0.025	0.004
-661.974	800.000	0.093	-0.264
-660.959	-3.875	0.161	-0.112
-659.945	-178.109	-0.265	-0.006
-658.930	62.623	-0.086	0.086
-657.916	-200.000	-0.015	0.136
-656.901	800.000	-0.061	-0.252
-655.886	69.230	-0.268	0.278
-654.872	-34.494	0.264	-0.146
-653.857	56.772	-0.120	-0.118
-652.843	225.922	-0.124	0.202
-651.828	-11.841	0.106	0.070
-650.814	-11.400	0.037	0.024
-649.799	292.860	-0.080	0.147
-648.784	-200.000	-0.070	-0.424
-647.770	-133.823	-0.284	0.036
-646.755	474.866	0.093	-0.212
-645.741	261.141	-0.104	-0.182
-644.726	66.002	-0.124	-0.127
-643.711	800.000	0.104	-0.325
-642.697	800.000	0.059	0.241
-641.682	-44.990	-0.268	0.134
-640.668	-188.499	0.342	-0.004
-639.653	6.884	-0.235	-0.176
-638.638	-200.000	-0.048	-0.586
-637.624	265.088	-0.164	-0.288
-636.609	-127.452	0.252	-0.037
-635.595	-200.000	-0.019	0.129
-634.580	-78.082	-0.117	0.041
-633.565	-200.000	-0.005	0.146
-632.551	-87.573	0.331	0.101
-631.536	800.000	0.094	-0.314
-630.522	-200.000	-0.039	-0.174
-629.507	95.987	0.299	0.344
-628.492	800.000	0.050	-0.188
-627.478	454.555	-0.206	0.460
-626.463	78.581	0.239	-0.257
-625.449	-120.822	-0.536	-0.091
-624.434	-110.887	0.103	-0.021
-623.419	48.353	0.159	0.150
-622.405	61.297	0.053	-0.053
-621.390	-69.052	0.129	0.050
-620.376	800.000	-0.004	-0.013
-619.361	800.000	0.023	-0.081
-618.346	295.761	-0.207	-0.381
-617.332	800.000	0.085	-0.357
-616.317	28.349	0.218	-0.186
-615.303	-82.289	-0.332	0.109
-614.288	655.361	-0.186	0.479
-613.273	-200.000	0.023	-0.177
-612.259	-21.775	0.317	-0.194
-611.244	-121.328	-0.065	-0.011
-610.230	-200.000	-0.015	-0.099
-609.215	68.500	-0.039	0.040
-608.201	-55.096	-0.125	0.057
-607.186	-49.979	-0.232	0.111
-606.171	211.402	-0.155	0.245
-605.157	-200.000	0.044	0.316
-604.142	91.297	0.040	0.046
-603.128	-64.786	0.251	-0.102
-602.113	415.623	-0.117	-0.251
-601.098	25.498	0.279	0.233
-600.084	477.721	0.097	0.221
-599.069	668.347	-0.026	-0.068
-598.055	-76.782	0.163	0.057
-597.040	-200.000	0.007	0.237
-596.025	-28.752	0.181	0.105
-595.011	-200.000	-0.022	0.465
-593.996	-150.143	-0.169	-0.013
-592.982	-94.505	-0.238	-0.065
-591.967	109.804	-0.212	-0.255
-590.952	176.111	-0.092	0.134
-589.938	-200.000	-0.031	-0.220
-588.923	233.880	0.097	-0.161
-587.909	78.484	-0.109	0.117
-586.894	-6.975	0.278	-0.190
-585.879	-35.317	0.136	0.074
-584.865	-107.299	0.273	-0.060
-583.850	262.775	-0.107	-0.187
-582.836	-200.000	0.025	0.284
-581.821	-87.309	-0.301	-0.092
-580.806	-200.000	-0.078	0.565
-579.792	-36.225	-0.331	-0.179
-578.777	-200.000	-0.029	0.290
-577.763	800.000	0.022	-0.084
-576.748	232.509	0.017	-0.029
-575.733	151.446	-0.096	0.131
-574.719	-200.000	-0.051	-0.392
-573.704	256.252	-0.023	0.040
-572.690	-113.976	0.195	-0.038
-571.675	-30.454	-0.152	0.086
-570.661	-29.428	0.045	0.026
-569.646	800.000	0.059	-0.169
-568.631	-113.341	-0.151	0.030
-567.617	-71.963	-0.406	0.152
-566.602	800.000	0.063	-0.197
-565.588	32.371	-0.100	-0.087
-564.573	-200.000	-0.008	0.171
-563.558	-200.000	-0.001	-0.228
-562.544	619.537	-0.104	-0.262
-561.529	274.290	-0.053	-0.094
-560.515	-25.457	-0.297	0.176
-559.500	-200.000	0.027	-0.129
-558.485	-177.370	-0.308	0.008
-557.471	-84.403	-0.131	0.042
-556.456	-169.173	-0.058	-0.002
-555.442	582.524	0.076	0.187
-554.427	-200.000	-0.009	-0.103
-553.412	-200.000	0.036	0.297
-552.398	43.808	-0.112	-0.103
-551.383	-30.367	0.244	-0.139
-550.369	800.000	-0.091	0.267
-549.354	32.865	-0.247	-0.215
-548.339	-200.000	0.008	-0.165
-547.325	-31.468	-0.124	0.070
-546.310	-200.000	-0.051	-0.258
-545.296	-143.808	0.102	-0.010
-544.281	-143.806	-0.435	0.041
-543.266	-103.777	0.168	-0.039
-542.252	541.100	0.049	0.117
-541.237	-200.000	0.035	0.160
-540.223	313.768	-0.244	-0.461
-539.208	23.755	0.263	-0.217
-538.193	-135.215	0.252	0.030
-537.179	36.032	0.171	0.151
-536.164	-15.811	-0.201	-0.128
-535.150	-90.428	0.118	0.034
-534.135	-95.062	0.169	-0.046
-533.121	-16.969	-0.160	0.102
-532.106	-75.603	-0.178	0.064
-531.091	383.964	-0.060	0.125
-530.077	222.694	-0.075	-0.121
-529.062	3.975	0.006	0.004
-528.048	-151.549	0.139	-0.010
-527.033	79.640	0.125	-0.134
-526.018	-44.449	0.184	0.092
-525.004	9.674	-0.159	0.120
-523.989	187.875	0.062	0.093
-522.975	-200.000	0.004	0.053
-521.960	-139.796	0.399	0.042
-520.945	81.657	-0.171	0.185
-519.931	-111.264	-0.059	0.012
-518.916	-166.508	-0.188	-0.008
-517.902	105.539	0.258	0.306
-516.887	313.771	-0.079	-0.148
-515.872	-69.211	-0.360	-0.139
-514.858	-98.706	0.439	-0.112
-513.843	485.256	0.149	-0.340
-512.829	70.145	0.065	-0.067
-511.814	-94.846	0.213	0.058
-510.799	142.899	0.037	-0.049
-509.785	800.000	-0.104	0.426
-508.770	43.883	-0.133	0.122
-507.756	-43.221	-0.332	0.168
-506.741	-33.749	-0.203	0.112
-505.726	12.462	-0.149	-0.115
-504.712	800.000	0.093	-0.331
-503.697	-59.533	0.284	-0.122
-502.683	-200.000	-0.085	0.375
-501.668	800.000	-0.062	-0.195
-500.653	-200.000	0.024	-0.131
-499.639	-36.095	0.290	0.157
-498.624	800.000	0.059	0.209
-497.610	150.765	-0.112	-0.153
-496.595	91.863	-0.124	-0.140
-495.581	54.606	0.142	0.137
-494.566	108.757	-0.187	-0.224
-493.551	-77.748	-0.364	-0.126
-492.537	-200.000	-0.033	-0.234
-491.522	-200.000	0.005	0.289
-490.508	-133.153	0.261	-0.033
-489.493	157.911	0.128	-0.177
-488.478	800.000	0.038	0.106
-487.464	-3.357	-0.287	-0.200
-486.449	-91.398	0.268	-0.077
-485.435	-200.000	-0.009	-0.501
-484.420	800.000	0.092	0.371
-483.405	-200.000	0.037	0.205
-482.391	-14.989	-0.183	0.117
-481.376	25.355	-0.084	-0.070
-480.362	-91.935	0.006	0.002
-479.347	-118.719	-0.148	-0.026
-478.332	-33.496	-0.091	0.051
-477.318	-200.000	0.013	0.268
-476.303	40.676	-0.077	0.069
-475.289	124.685	0.319	0.402
-474.274	800.000	-0.017	0.049
-473.259	-200.000	0.005	-0.028
-472.245	68.373	0.071	-0.073
-471.230	800.000	-0.006	0.028
-470.216	-200.000	0.060	0.323
-469.201	-33.781	0.073	-0.040
-468.186	-200.000	0.015	0.382
-467.172	-200.000	-0.059	-0.455
-466.157	717.502	0.069	-0.184
-465.143	-93.310	0.333	-0.092
-464.128	79.759	0.044	-0.047
-463.113	-32.856	0.081	-0.045
-462.099	-200.000	0.006	-0.093
-461.084	800.000	0.036	0.105
-460.070	-24.560	-0.064	0.038
-459.055	-200.000	0.033	0.186
-458.040	-116.875	-0.027	-0.005
-457.026	-44.446	-0.172	0.086
-456.011	-200.000	-0.008	0.195
-454.997	96.041	-0.179	-0.204
-453.982	-93.849	-0.164	0.045
-452.968	106.825	-0.252	-0.299
-451.953	51.351	-0.006	-0.006
-450.938	800.000	-0.081	-0.300
-449.924	800.000	0.010	-0.036
-448.909	-57.071	-0.431	0.190
-447.895	56.814	-0.243	-0.237
-446.880	92.872	-0.043	0.048
-445.865	9.149	-0.117	0.089
-444.851	800.000	0.050	0.169
-443.836	441.113	0.106	0.233
-442.822	36.589	0.323	0.285
-441.807	-46.753	-0.053	0.026
-440.792	-121.085	-0.207	0.035
-439.778	800.000	0.070	0.252
-438.763	800.000	0.089	-0.277
-437.749	157.681	-0.071	-0.098
-436.734	69.811	-0.260	0.268
-435.719	800.000	-0.048	0.151
-434.705	45.659	0.276	0.254
-433.690	-200.000	0.017	-0.117
-432.676	800.000	0.012	0.038
-431.661	-87.716	-0.158	0.048
-430.646	-98.466	-0.205	0.052
-429.632	800.000	-0.036	0.120
-428.617	-50.920	-0.069	-0.032
-427.603	-148.472	-0.064	0.005
-426.588	-200.000	-0.004	0.184
-425.573	145.129	0.131	0.175
-424.559	40.762	-0.053	-0.048
-423.544	17.157	0.023	-0.018
-422.530	-200.000	-0.023	-0.239
-421.515	184.892	-0.230	-0.340
-420.500	276.886	-0.094	-0.166
-419.486	800.000	-0.045	-0.193
-418.471	-22.989	0.162	-0.098
-417.457	-57.747	0.299	-0.131
-416.442	800.000	-0.069	-0.225
-415.428	781.666	-0.119	-0.326
-414.413	-10.413	0.157	0.104
-413.398	-200.000	-0.008	0.371
-412.384	229.851	0.114	0.186
-411.369	800.000	-0.083	-0.249
-410.355	49.052	-0.202	-0.189
-409.340	-200.000	-0.012	-0.096
-408.325	-55.320	0.054	0.024
-407.311	32.019	-0.083	0.072
-406.296	-8.728	0.104	0.069
-405.282	-200.000	-0.001	0.111
-404.267	-139.006	-0.457	0.049
-403.252	-80.302	0.067	0.022
-402.238	-16.853	0.137	0.087
-401.223	-105.948	-0.250	0.056
-400.209	549.416	0.107	-0.257
-399.194	215.471	-0.101	0.159
-398.179	-21.053	-0.145	-0.089
-397.165	122.805	-0.105	-0.131
-396.150	169.489	-0.262	-0.373
-395.136	-164.589	-0.436	0.020
-394.121	92.554	-0.205	0.230
-393.106	107.104	0.118	0.140
-392.092	-200.000	0.034	-0.215
-391.077	-40.477	0.413	-0.214
-390.063	-200.000	0.010	0.233
-389.048	-31.455	-0.057	-0.032
-388.033	254.534	-0.174	-0.297
-387.019	-200.000	0.000	-0.155
-386.004	-161.800	0.385	-0.020
-384.990	289.113	-0.150	-0.271
-383.975	-200.000	0.010	-0.127
-382.960	-77.979	-0.188	-0.064
-381.946	-42.139	-0.085	-0.044
-380.931	-200.000	-0.035	-0.362
-379.917	-200.000	0.025	-0.364
-378.902	-200.000	-0.220	0.000
-377.888	38.173	0.327	0.290
-376.873	83.213	0.093	-0.100
-375.858	-23.995	0.233	0.139
-374.844	800.000	0.159	0.485
-373.829	-50.331	-0.314	0.148
-372.815	-200.000	0.002	-0.074
-371.800	200.332	0.116	-0.178
-370.785	-0.745	0.250	0.176
-369.771	800.000	0.052	-0.206
-368.756	-200.000	0.006	0.054
-367.742	800.000	-0.037	0.149
-366.727	613.351	0.126	0.313
-365.712	-200.000	0.010	0.344
-364.698	-200.000	-0.009	0.231
-363.683	-80.794	0.111	0.037
-362.669	-42.266	0.325	0.166
-361.654	-200.000	-0.005	-0.206
-360.639	800.000	-0.058	-0.172
-359.625	35.906	0.250	0.219
-358.610	-200.000	-0.005	0.246
-357.596	152.755	0.195	0.265
-356.581	-3.602	-0.273	-0.189
-355.566	-121.835	0.560	-0.092
-354.552	235.198	0.225	-0.369
-353.537	-200.000	-0.043	0.238
-352.523	-200.000	-0.000	-0.084
-351.508	-150.335	-0.090	-0.007
-350.493	-161.633	-0.120	0.006
-349.479	-122.840	-0.099	-0.016
-348.464	143.965	0.056	0.074
-347.450	-46.709	0.177	0.086
-346.435	202.819	-0.040	0.062
-345.420	-200.000	-0.000	0.027
-344.406	-116.278	0.090	-0.017
-343.391	26.664	0.013	-0.011
-342.377	159.874	0.120	0.166
-341.362	-152.271	0.160	0.011
-340.348	55.650	-0.279	0.269
-339.333	671.576	0.074	-0.191
-338.318	245.145	0.063	-0.105
-337.304	98.328	0.351	-0.402
-336.289	-23.577	0.064	0.038
-335.275	151.035	0.142	-0.192
-334.260	254.474	0.180	-0.306
-333.245	392.819	-0.112	0.231
-332.231	59.136	-0.092	-0.090
-331.216	309.985	-0.073	-0.136
-330.202	78.197	-0.171	0.182
-329.187	-80.570	-0.199	0.066
-328.172	103.275	-0.113	0.131
-327.158	800.000	0.179	0.501
-326.143	-124.093	0.432	0.067
-325.129	0.218	-0.173	-0.123
-324.114	-72.111	0.272	0.100
-323.099	-73.187	0.166	-0.061
-322.085	281.875	-0.130	0.231
-321.070	-113.615	0.139	0.027
-320.056	-40.620	-0.147	-0.076
-319.041	-25.636	0.071	0.042
-318.026	-39.973	-0.275	0.143
-317.012	800.000	0.059	0.181
-315.997	-28.498	0.046	-0.026
-314.983	15.969	-0.035	-0.028
-313.968	44.112	0.091	-0.083
-312.953	534.350	-0.053	0.124
-311.939	16.341	-0.146	0.114
-310.924	-200.000	0.001	0.141
-309.910	-15.326	-0.134	0.085
-308.895	35.697	0.144	-0.126
-307.880	800.000	0.025	-0.072
-306.866	386.657	-0.148	-0.304
-305.851	-200.000	-0.032	-0.473
-304.837	154.582	0.138	0.189
-303.822	178.571	-0.079	0.114
-302.807	-12.846	0.188	-0.122
-301.793	800.000	-0.072	0.234
-300.778	-23.804	-0.171	0.101
-299.764	800.000	-0.015	-0.043
-298.749	216.439	0.186	-0.294
-297.735	800.000	0.105	0.323
-296.720	-78.211	-0.134	0.046
-295.705	-179.314	0.277	0.006
-294.691	-105.966	0.127	-0.028
-293.676	116.734	-0.005	0.007
-292.662	-200.000	-0.012	-0.086
-291.647	800.000	0.089	-0.326
-290.632	-118.668	0.162	-0.028
-289.618	705.940	-0.043	0.113
-288.603	-200.000	-0.021	-0.173
-287.589	-200.000	0.005	0.044
-286.574	151.679	-0.137	0.185
-285.559	800.000	-0.070	0.282
-284.545	41.458	-0.365	-0.328
-283.530	-200.000	0.037	0.218
-282.516	74.329	0.143	0.149
-281.501	-35.348	0.144	0.078
-280.486	-200.000	-0.023	0.281
-279.472	-200.000	-0.057	0.295
-278.457	-200.000	-0.031	-0.247
-277.443	-63.398	-0.085	-0.035
-276.428	260.678	0.105	0.180
-275.413	676.508	0.035	-0.089
-274.399	800.000	0.078	-0.262
-273.384	375.286	0.071	0.144
-272.370	-19.146	0.165	0.102
-271.355	57.642	0.144	-0.140
-270.340	-4.364	-0.155	0.107
-269.326	161.663	0.165	-0.229
-268.311	341.000	-0.155	-0.300
-267.297	-68.165	-0.202	-0.078
-266.282	20.107	0.162	0.129
-265.267	-131.230	-0.222	-0.029
-264.253	601.193	-0.073	0.180
-263.238	-200.000	0.025	0.206
-262.224	34.621	-0.273	0.236
-261.209	198.147	-0.013	-0.020
-260.195	56.859	0.317	-0.306
-259.180	-169.584	0.222	-0.008
-258.165	-139.119	0.105	-0.011
-257.151	429.052	0.118	-0.252
-256.136	221.507	0.041	0.065
-255.122	-5.752	0.308	-0.209
-254.107	-130.614	0.153	-0.020
-253.092	519.024	0.042	-0.098
-252.078	160.552	-0.052	0.072
-251.063	72.642	-0.194	0.201
-250.049	800.000	-0.059	0.179
-249.034	226.212	-0.049	0.078
-248.019	-200.000	-0.051	-0.256
-247.005	250.409	-0.093	-0.156
-245.990	3.647	0.284	0.206
-244.976	302.297	0.190	0.348
-243.961	-8.169	-0.289	-0.193
-242.946	27.933	0.119	0.100
-241.932	417.116	-0.084	0.178
-240.917	655.689	0.076	-0.194
-239.903	-49.137	0.303	-0.144
-238.888	-0.003	0.275	-0.194
-237.873	478.136	0.031	-0.070
-236.859	-200.000	0.031	-0.167
-235.844	-67.980	0.193	0.075
-234.830	548.414	-0.154	0.365
-233.815	-37.980	-0.242	-0.128
-232.800	2.596	-0.206	-0.148
-231.786	-31.420	0.327	-0.182
-230.771	-200.000	-0.034	0.162
-229.757	-114.332	-0.381	-0.073
-228.742	42.791	-0.104	-0.093
-227.727	-121.736	-0.224	0.037
-226.713	-40.466	0.148	-0.076
-225.698	103.809	-0.149	0.173
-224.684	375.884	0.036	0.073
-223.669	78.670	-0.081	0.085
-222.655	-91.628	-0.083	0.023
-221.640	-200.000	-0.025	0.128
-220.625	358.361	0.121	-0.239
-219.611	-200.000	-0.003	0.161
-218.596	-109.752	0.277	-0.058
-217.582	159.327	0.064	-0.088
-216.567	-21.260	-0.174	-0.105
-215.552	782.714	0.154	0.419
-214.538	159.261	-0.163	-0.224
-213.523	-112.926	-0.026	0.005
-212.509	-127.605	-0.173	-0.025
-211.494	-200.000	0.014	-0.243
-210.479	-200.000	-0.035	-0.189
-209.465	199.942	0.208	-0.317
-208.450	-200.000	-0.018	0.323
-207.436	-58.413	0.133	0.057
-206.421	-35.976	0.124	-0.066
-205.406	-200.000	-0.001	-0.357
-204.392	-169.858	-0.213	-0.008
-203.377	-200.000	0.013	-0.057
-202.363	-54.343	-0.309	0.139
-201.348	800.000	0.042	-0.118
-200.333	-116.491	0.207	0.038
-199.319	800.000	0.073	-0.217
-198.304	-131.175	0.402	0.053
-197.290	-123.020	0.195	-0.031
-196.275	-200.000	-0.077	0.381
-195.260	800.000	-0.043	-0.141
-194.246	-175.515	0.292	-0.008
-193.231	-200.000	-0.011	0.080
-192.217	800.000	-0.059	-0.246
-191.202	124.259	0.060	-0.074
-190.187	-36.833	0.272	0.144
-189.173	191.312	0.086	0.128
-188.158	42.087	0.212	0.190
-187.144	-118.405	-0.033	0.006
-186.129	-90.193	0.303	0.087
-185.114	-43.380	-0.474	0.237
-184.100	-148.215	-0.340	-0.028
-183.085	-90.931	0.076	0.022
-182.071	-200.000	-0.111	-0.594
-181.056	800.000	-0.086	0.282
-180.042	239.427	0.038	-0.063
-179.027	353.066	-0.141	-0.277
-178.012	121.164	-0.214	-0.263
-176.998	-200.000	0.051	-0.334
-175.983	-200.000	-0.004	-0.066
-174.969	151.945	-0.095	-0.128
-173.954	398.891	0.112	0.233
-172.939	82.890	-0.140	-0.150
-171.925	170.124	-0.216	0.306
-170.910	30.331	0.260	0.220
-169.896	290.379	-0.054	0.096
-168.881	-19.088	0.404	0.248
-167.866	114.747	-0.057	0.069
-166.852	96.711	-0.244	0.276
-165.837	111.636	0.105	0.125
-164.823	-176.803	0.061	0.002
-163.808	-5.860	0.095	-0.064
-162.793	-200.000	-0.046	0.311
-161.779	-29.669	0.237	0.134
-160.764	-146.865	0.394	0.034
-159.750	-159.264	-0.534	-0.030
-158.735	-200.000	-0.063	-0.383
-157.720	800.000	-0.012	-0.041
-156.706	-200.000	-0.006	0.279
-155.691	259.894	0.151	0.258
-154.677	-136.357	0.260	-0.030
-153.662	-200.000	0.019	0.109
-152.647	-47.228	-0.275	0.132
-151.633	-65.355	0.219	0.087
-150.618	-95.816	0.076	-0.020
-149.604	-7.377	-0.206	0.137
-148.589	189.547	-0.047	-0.069
-147.574	19.120	-0.069	-0.055
-146.560	-82.468	0.221	0.071
-145.545	-200.000	0.011	-0.247
-144.531	28.902	-0.154	-0.129
-143.516	-121.208	-0.371	-0.061
-142.502	509.608	0.179	0.410
-141.487	-73.398	0.331	-0.120
-140.472	364.703	-0.054	-0.107
-139.458	800.000	0.057	0.185
-138.443	-184.517	0.105	0.002
-137.429	-200.000	-0.001	-0.178
-136.414	110.822	0.285	0.338
-135.399	97.745	-0.062	0.070
-134.385	-160.311	-0.361	-0.019
-133.370	56.498	-0.173	0.166
-132.356	483.788	-0.128	0.288
-131.341	-37.111	0.131	-0.069
-130.326	-200.000	0.114	0.545
-129.312	93.294	-0.079	0.088
-128.297	-68.242	0.079	-0.030
-127.283	633.210	-0.026	0.064
-126.268	158.940	0.155	-0.213
-125.253	-15.695	0.212	-0.134
-124.239	334.385	-0.186	-0.355
-123.224	30.326	0.251	-0.211
-122.210	-200.000	-0.003	-0.256
