DTS Sentinel unit serial number:	SN413079Multiplexer serial number:	ORYXHardware model number:	OX4-SRSoftware version number:	ORYX F/W v4.00 Oryx Data Collector v3.7.2.0data status	okinstallation	princeton_trtdifferential loss correction	single-endedforward channel	channel 3reverse channel	N/Adate	2019/09/17time	16:24:35forward acquisition time	60.00reverse acquisition time	0.00gamma	496.2192k internal	0.2291k external	0.2291temperature offset calibration	0.9949default loss term (dB/km)	0.3790temperature slope calibration	1.0000multiplexer offset coefficient	1.0000multiplexer slope coefficient	1.0000fibre end	0.00T internal ref (°C)	41.31T ext. ref 1 (°C)	0.37T ext. ref 2 (°C)	38.69length (m)	temperature (°C)	Stokes	anti-Stokes-747.200	366.555	0.050	0.103
-746.185	800.000	-0.095	0.295
-745.171	800.000	-0.094	0.303
-744.156	-200.000	-0.079	0.380
-743.142	541.294	0.112	0.273
-742.127	45.302	-0.086	-0.081
-741.112	314.198	0.083	0.161
-740.098	270.482	-0.057	0.103
-739.083	322.722	0.152	-0.297
-738.069	232.286	0.061	-0.102
-737.054	177.401	0.064	0.096
-736.039	-98.325	0.109	-0.029
-735.025	255.655	0.162	0.284
-734.010	800.000	0.037	-0.114
-732.996	-44.998	-0.313	-0.160
-731.981	-14.999	0.087	-0.057
-730.966	-200.000	-0.008	0.046
-729.952	114.952	0.064	-0.080
-728.937	33.756	-0.348	-0.310
-727.923	-93.883	-0.443	-0.125
-726.908	-24.860	-0.331	-0.201
-725.894	166.524	-0.156	-0.226
-724.879	623.828	-0.094	0.243
-723.864	20.241	0.174	0.143
-722.850	-4.140	0.056	-0.040
-721.835	-81.185	-0.147	0.050
-720.821	-38.642	-0.039	-0.021
-719.806	-200.000	0.007	-0.329
-718.791	-200.000	0.000	-0.006
-717.777	-200.000	-0.043	0.205
-716.762	-200.000	-0.007	-0.154
-715.748	42.076	0.132	-0.122
-714.733	-200.000	-0.048	-0.324
-713.718	-115.527	-0.348	-0.067
-712.704	-8.711	-0.285	-0.195
-711.689	107.709	0.156	0.190
-710.675	800.000	0.101	0.397
-709.660	49.545	0.181	0.174
-708.645	800.000	-0.041	-0.117
-707.631	-40.511	0.465	-0.247
-706.616	800.000	-0.043	-0.154
-705.602	-200.000	0.027	-0.287
-704.587	-129.628	0.133	0.019
-703.572	306.501	0.070	-0.133
-702.558	357.792	-0.063	-0.129
-701.543	67.709	-0.042	0.044
-700.529	-73.268	-0.398	0.149
-699.514	-50.888	-0.342	-0.164
-698.499	84.165	-0.104	-0.116
-697.485	-102.887	-0.258	0.063
-696.470	800.000	-0.087	0.251
-695.456	-84.898	0.276	-0.088
-694.441	-200.000	0.024	-0.310
-693.426	-3.184	-0.052	0.037
-692.412	247.840	0.123	0.213
-691.397	-200.000	0.004	-0.209
-690.383	191.558	-0.124	-0.191
-689.368	54.710	-0.198	-0.195
-688.354	-83.073	-0.294	-0.097
-687.339	-200.000	0.023	-0.370
-686.324	160.625	-0.195	-0.278
-685.310	74.472	-0.242	-0.260
-684.295	-200.000	0.001	-0.281
-683.281	-82.478	-0.402	0.133
-682.266	33.650	0.143	-0.127
-681.251	-98.127	0.149	0.039
-680.237	-71.831	0.065	0.025
-679.222	-200.000	-0.500	-0.001
-678.208	-44.995	0.221	-0.112
-677.193	-200.000	0.040	0.459
-676.178	185.549	0.147	0.223
-675.164	-200.000	0.040	-0.191
-674.149	-52.756	-0.277	0.130
-673.135	-58.347	0.098	0.044
-672.120	-14.008	0.079	0.052
-671.105	-6.815	-0.336	0.233
-670.091	34.295	0.118	-0.105
-669.076	-8.728	-0.100	0.069
-668.062	-200.000	0.019	0.120
-667.047	-200.000	0.059	-0.285
-666.032	-35.626	-0.171	0.095
-665.018	-200.000	-0.027	0.222
-664.003	-87.609	0.121	-0.037
-662.989	-38.519	-0.250	0.135
-661.974	800.000	-0.128	-0.412
-660.959	-102.374	0.251	-0.061
-659.945	-200.000	0.101	-0.546
-658.930	5.401	-0.197	0.148
-657.916	169.266	-0.077	-0.112
-656.901	0.720	-0.206	0.150
-655.886	59.198	-0.199	-0.200
-654.872	17.664	-0.280	-0.227
-653.857	-11.157	-0.216	0.146
-652.843	3.585	-0.194	0.145
-651.828	-86.536	0.213	0.067
-650.814	-39.396	0.148	-0.079
-649.799	-200.000	-0.049	-0.228
-648.784	-83.796	-0.155	-0.050
-647.770	-85.156	0.156	0.050
-646.755	218.117	-0.096	-0.156
-645.741	161.529	-0.121	-0.172
-644.726	96.592	-0.039	-0.046
-643.711	-40.572	-0.331	0.175
-642.697	-67.992	-0.234	0.093
-641.682	155.079	0.220	-0.308
-640.668	-68.239	0.155	0.061
-639.653	-200.000	0.038	-0.173
-638.638	-200.000	-0.014	-0.154
-637.624	63.498	-0.238	0.243
-636.609	800.000	0.066	-0.268
-635.595	800.000	0.093	-0.366
-634.580	542.147	-0.027	-0.066
-633.565	-142.978	-0.096	-0.009
-632.551	689.835	0.100	0.267
-631.536	276.263	0.138	0.250
-630.522	-51.935	-0.134	-0.063
-629.507	-200.000	-0.024	0.159
-628.492	-200.000	-0.000	-0.083
-627.478	89.484	-0.102	-0.116
-626.463	-162.510	0.187	-0.009
-625.449	-200.000	-0.006	0.372
-624.434	-58.955	-0.089	0.039
-623.419	124.184	0.164	-0.210
-622.405	-200.000	-0.001	0.165
-621.390	-47.486	-0.263	0.130
-620.376	-190.507	-0.316	-0.003
-619.361	-175.122	-0.157	0.004
-618.346	-200.000	0.032	-0.339
-617.332	-14.439	0.145	-0.095
-616.317	-82.224	-0.118	-0.039
-615.303	-200.000	0.069	-0.336
-614.288	-154.054	-0.222	-0.015
-613.273	-200.000	-0.062	0.436
-612.259	-62.014	0.085	-0.036
-611.244	-80.165	0.406	-0.138
-610.230	66.537	0.194	0.201
-609.215	13.781	0.035	0.028
-608.201	-200.000	0.011	-0.104
-607.186	800.000	0.103	0.338
-606.171	464.665	0.110	0.250
-605.157	-42.752	-0.255	0.132
-604.142	-200.000	-0.018	-0.261
-603.128	800.000	0.046	-0.168
-602.113	-49.362	0.183	0.089
-601.098	-104.456	-0.069	0.016
-600.084	278.947	-0.032	0.057
-599.069	-123.261	-0.095	0.015
-598.055	96.227	0.154	0.179
-597.040	-129.123	0.254	-0.036
-596.025	-200.000	0.007	-0.206
-595.011	-66.377	-0.075	-0.031
-593.996	-79.075	-0.132	-0.046
-592.982	273.990	0.054	0.098
-591.967	229.670	0.092	-0.152
-590.952	-200.000	0.039	-0.310
-589.938	-28.616	0.255	0.149
-588.923	197.760	-0.175	-0.273
-587.909	328.378	-0.085	0.165
-586.894	-1.378	-0.050	0.036
-585.879	-61.856	0.288	-0.123
-584.865	-200.000	0.006	-0.038
-583.850	19.872	-0.267	-0.219
-582.836	800.000	0.028	-0.084
-581.821	-182.397	-0.052	0.001
-580.806	-200.000	0.008	-0.048
-579.792	-134.389	-0.323	0.040
-578.777	800.000	-0.031	-0.110
-577.763	22.579	-0.129	0.108
-576.748	49.548	0.161	0.154
-575.733	800.000	-0.064	0.181
-574.719	45.077	-0.189	-0.177
-573.704	179.774	-0.158	0.236
-572.690	108.320	-0.154	-0.187
-571.675	146.862	-0.277	0.379
-570.661	-200.000	0.029	0.128
-569.646	-122.472	0.220	0.036
-568.631	-174.862	-0.151	0.004
-567.617	22.178	-0.245	-0.203
-566.602	-200.000	-0.028	-0.485
-565.588	602.739	-0.083	-0.211
-564.573	800.000	0.065	0.183
-563.558	-13.394	-0.159	-0.105
-562.544	-200.000	-0.018	0.087
-561.529	241.374	0.061	-0.104
-560.515	-89.462	-0.152	-0.046
-559.500	-28.752	0.130	-0.076
-558.485	-200.000	0.069	0.364
-557.471	658.823	-0.136	0.356
-556.456	-200.000	-0.068	-0.000
-555.442	363.393	0.099	0.203
-554.427	-200.000	-0.004	-0.083
-553.412	800.000	0.046	-0.186
-552.398	-134.244	-0.050	0.006
-551.383	-200.000	-0.018	0.182
-550.369	345.043	0.121	0.241
-549.354	-108.848	0.199	0.043
-548.339	-200.000	0.026	-0.294
-547.325	-141.739	0.203	0.021
-546.310	-83.737	0.162	-0.052
-545.296	90.225	-0.310	-0.352
-544.281	106.667	0.159	0.192
-543.266	-68.921	0.092	-0.036
-542.252	800.000	-0.023	0.067
-541.237	46.356	0.294	0.277
-540.223	496.475	-0.043	-0.101
-539.208	201.136	0.022	0.034
-538.193	-105.868	0.082	0.019
-537.179	800.000	-0.035	-0.151
-536.164	800.000	-0.070	-0.228
-535.150	-130.718	-0.311	-0.042
-534.135	469.341	-0.016	0.036
-533.121	1.091	-0.255	0.186
-532.106	-146.598	0.140	-0.012
-531.091	290.646	-0.173	-0.320
-530.077	-200.000	0.025	-0.144
-529.062	800.000	0.087	0.265
-528.048	-200.000	0.042	0.314
-527.033	24.093	0.206	0.173
-526.018	-14.428	0.429	0.280
-525.004	-128.986	0.196	-0.028
-523.989	644.005	-0.006	-0.015
-522.975	-94.390	0.230	-0.064
-521.960	-64.575	0.104	0.043
-520.945	163.538	-0.050	-0.071
-519.931	-13.993	-0.092	0.060
-518.916	51.114	-0.180	-0.173
-517.902	-200.000	-0.006	-0.033
-516.887	-200.000	-0.027	-0.291
-515.872	784.031	-0.110	-0.306
-514.858	-165.499	-0.470	-0.021
-513.843	-47.147	0.226	0.112
-512.829	5.822	-0.261	0.196
-511.814	-98.371	-0.187	0.048
-510.799	-118.996	0.101	-0.018
-509.785	-130.339	-0.295	-0.041
-508.770	-194.119	0.150	-0.001
-507.756	800.000	-0.061	-0.189
-506.741	423.765	0.063	0.136
-505.726	-20.166	0.290	-0.181
-504.712	-200.000	0.005	0.108
-503.697	-15.148	-0.217	-0.141
-502.683	-115.845	0.156	-0.030
-501.668	184.233	0.136	0.204
-500.653	-123.324	0.208	0.034
-499.639	11.693	-0.124	-0.097
-498.624	-61.166	0.196	0.084
-497.610	-200.000	0.003	0.056
-496.595	158.165	-0.103	-0.145
-495.581	519.945	-0.052	-0.123
-494.566	-105.828	0.088	-0.020
-493.551	53.215	0.165	-0.160
-492.537	800.000	-0.066	0.206
-491.522	-3.523	0.144	0.101
-490.508	193.185	0.306	0.470
-489.493	-78.706	-0.194	0.067
-488.478	-132.322	-0.138	0.018
-487.464	5.633	-0.189	-0.142
-486.449	-128.607	-0.390	0.056
-485.435	-93.282	-0.153	-0.043
-484.420	-200.000	-0.035	-0.332
-483.405	-38.715	0.316	0.169
-482.391	194.539	0.082	-0.125
-481.376	-200.000	0.025	0.232
-480.362	800.000	-0.101	0.347
-479.347	-5.749	0.209	0.145
-478.332	590.655	-0.077	-0.193
-477.318	-28.049	-0.168	-0.099
-476.303	-200.000	-0.048	-0.297
-475.289	800.000	0.035	0.139
-474.274	-200.000	-0.035	-0.191
-473.259	-75.346	0.149	0.054
-472.245	-116.179	-0.177	0.033
-471.230	-200.000	-0.054	0.362
-470.216	-113.035	-0.232	0.046
-469.201	-200.000	0.013	-0.179
-468.186	96.851	-0.141	0.163
-467.172	-115.297	0.327	0.063
-466.157	161.162	-0.097	-0.138
-465.143	9.779	-0.188	-0.144
-464.128	18.524	-0.326	0.264
-463.113	-66.361	-0.255	-0.103
-462.099	-172.825	0.223	-0.007
-461.084	-187.582	-0.110	-0.001
-460.070	800.000	-0.109	-0.311
-459.055	58.259	-0.258	0.256
-458.040	468.452	-0.108	0.246
-457.026	-148.165	-0.445	0.037
-456.011	247.957	0.158	0.271
-454.997	800.000	-0.055	0.212
-453.982	-118.456	0.074	0.013
-452.968	-69.018	0.211	-0.082
-451.953	-45.065	0.183	-0.092
-450.938	522.269	0.181	0.430
-449.924	-66.577	-0.205	0.082
-448.909	-24.395	-0.391	0.236
-447.895	-77.643	-0.170	0.060
-446.880	-117.566	0.185	-0.034
-445.865	17.267	-0.090	0.072
-444.851	-188.304	-0.418	0.005
-443.836	6.382	-0.063	-0.047
-442.822	-49.305	0.350	0.169
-441.807	121.489	-0.068	0.086
-440.792	800.000	0.048	0.166
-439.778	-71.126	0.084	-0.032
-438.763	-200.000	0.003	-0.018
-437.749	-132.294	0.183	-0.024
-436.734	-56.269	-0.329	0.148
-435.719	38.942	0.274	-0.248
-434.705	-162.674	0.158	-0.008
-433.690	684.886	-0.023	0.061
-432.676	-45.964	-0.462	-0.230
-431.661	-115.932	-0.104	-0.020
-430.646	58.225	-0.222	-0.220
-429.632	462.242	-0.149	-0.337
-428.617	800.000	0.026	-0.081
-427.603	-76.824	-0.207	0.073
-426.588	-114.707	-0.191	0.037
-425.573	-2.736	0.207	0.146
-424.559	-24.701	-0.094	-0.057
-423.544	132.551	-0.186	0.242
-422.530	-28.970	0.395	-0.229
-421.515	406.226	0.176	-0.376
-420.500	32.665	0.050	0.043
-419.486	-53.044	-0.196	-0.091
-418.471	-53.900	-0.373	0.172
-417.457	236.279	0.162	0.271
-416.442	452.484	-0.035	0.078
-415.428	446.776	0.144	-0.321
-414.413	451.298	0.119	-0.265
-413.398	162.718	0.071	-0.101
-412.384	83.725	-0.095	-0.105
-411.369	398.996	0.112	-0.238
-410.355	35.311	0.172	0.152
-409.340	-25.278	-0.313	-0.187
-408.325	-200.000	0.014	-0.165
-407.311	-48.297	0.204	-0.099
-406.296	800.000	-0.088	-0.283
-405.282	-200.000	0.018	-0.489
-404.267	-54.849	0.178	0.081
-403.252	-95.989	-0.279	0.075
-402.238	800.000	-0.054	-0.190
-401.223	175.835	0.094	-0.138
-400.209	-200.000	0.051	-0.227
-399.194	-187.644	0.183	-0.002
-398.179	800.000	0.164	0.543
-397.165	-200.000	-0.014	-0.085
-396.150	-200.000	-0.022	-0.210
-395.136	735.411	-0.093	-0.252
-394.121	194.397	0.040	-0.062
-393.106	-200.000	0.034	0.372
-392.092	800.000	-0.037	-0.148
-391.077	23.700	0.144	0.120
-390.063	-172.000	0.122	0.004
-389.048	-48.515	0.032	-0.016
-388.033	562.313	0.076	-0.187
-387.019	-96.282	-0.366	-0.098
-386.004	-32.608	0.149	-0.084
-384.990	-17.392	0.114	0.072
-383.975	-200.000	0.010	-0.054
-382.960	15.256	0.254	-0.201
-381.946	-98.831	-0.309	-0.079
-380.931	15.334	0.047	0.037
-379.917	55.427	0.243	-0.237
-378.902	534.005	0.230	-0.550
-377.888	436.399	-0.129	-0.284
-376.873	437.388	-0.053	0.116
-375.858	800.000	0.058	-0.167
-374.844	-200.000	-0.026	0.177
-373.829	269.740	-0.138	-0.244
-372.815	-89.257	-0.175	0.052
-371.800	-200.000	-0.019	0.170
-370.785	-77.271	-0.203	0.071
-369.771	800.000	0.050	-0.183
-368.756	-71.092	-0.369	0.140
-367.742	-82.874	0.260	0.085
-366.727	-118.773	0.258	0.046
-365.712	-112.361	0.201	-0.041
-364.698	-132.400	-0.158	0.021
-363.683	79.795	-0.298	-0.323
-362.669	-109.629	0.268	0.057
-361.654	9.000	0.078	-0.060
-360.639	398.479	-0.069	0.146
-359.625	-21.857	0.199	0.122
-358.610	43.116	-0.172	-0.158
-357.596	-107.249	-0.406	-0.090
-356.581	-148.114	-0.322	-0.027
-355.566	191.130	0.222	-0.337
-354.552	-72.509	0.163	-0.061
-353.537	-200.000	-0.025	-0.193
-352.523	-95.548	0.320	-0.086
-351.508	474.689	0.037	-0.083
-350.493	-51.779	0.097	0.046
-349.479	233.074	-0.102	0.169
-348.464	-83.626	-0.029	-0.009
-347.450	-131.444	0.194	0.026
-346.435	63.836	-0.133	0.135
-345.420	458.859	-0.101	-0.226
-344.406	-55.763	0.264	-0.119
-343.391	-200.000	-0.019	0.151
-342.377	800.000	0.020	0.083
-341.362	-81.929	-0.241	-0.079
-340.348	-46.483	-0.559	0.276
-339.333	-64.504	-0.137	0.056
-338.318	175.655	-0.123	-0.179
-337.304	52.554	-0.173	0.166
-336.289	40.288	0.117	-0.106
-335.275	-149.917	0.128	0.010
-334.260	61.163	-0.389	0.389
-333.245	-91.064	0.090	0.026
-332.231	-200.000	0.035	-0.275
-331.216	800.000	0.153	0.459
-330.202	96.736	-0.154	0.177
-329.187	305.161	0.047	-0.089
-328.172	155.525	0.177	-0.245
-327.158	28.405	0.354	-0.302
-326.143	-200.000	-0.037	-0.214
-325.129	800.000	0.031	-0.113
-324.114	-130.185	0.274	0.038
-323.099	16.760	-0.131	-0.105
-322.085	-68.577	0.208	-0.081
-321.070	245.259	0.124	-0.210
-320.056	-157.237	0.030	-0.002
-319.041	89.215	-0.156	0.175
-318.026	781.748	-0.085	0.235
-317.012	-156.197	0.154	-0.010
-315.997	693.309	-0.066	0.173
-314.983	-87.316	-0.482	0.147
-313.968	339.766	-0.106	-0.208
-312.953	83.751	0.131	-0.144
-311.939	800.000	0.009	0.041
-310.924	-200.000	0.000	0.157
-309.910	637.435	0.084	0.216
-308.895	-63.888	0.202	-0.083
-307.880	-142.689	0.355	-0.035
-306.866	168.259	-0.063	-0.090
-305.851	-141.464	-0.069	0.007
-304.837	571.280	-0.028	-0.069
-303.822	-107.621	-0.246	0.054
-302.807	22.622	-0.113	-0.093
-301.793	225.713	0.045	0.074
-300.778	179.016	0.174	-0.255
-299.764	32.812	0.137	0.120
-298.749	26.134	0.150	-0.126
-297.735	-32.183	0.217	0.122
-296.720	77.919	0.161	-0.173
-295.705	-107.338	0.161	-0.036
-294.691	-48.852	0.101	-0.049
-293.676	-72.871	-0.078	-0.029
-292.662	-105.481	-0.238	-0.054
-291.647	-200.000	0.005	-0.116
-290.632	-200.000	-0.010	-0.120
-289.618	0.128	0.416	0.299
-288.603	800.000	0.040	0.132
-287.589	438.327	-0.059	-0.130
-286.574	-200.000	0.032	-0.220
-285.559	388.934	-0.046	0.097
-284.545	-156.007	-0.161	0.010
-283.530	32.730	-0.218	-0.190
-282.516	-184.645	0.156	0.003
-281.501	-200.000	0.003	0.074
-280.486	571.202	0.078	0.191
-279.472	-87.778	0.279	0.085
-278.457	192.936	0.117	0.177
-277.443	316.612	-0.059	-0.112
-276.428	-92.364	-0.057	-0.016
-275.413	800.000	-0.072	0.219
-274.399	-108.293	-0.031	0.007
-273.384	-20.158	0.205	-0.127
-272.370	-0.784	-0.224	0.159
-271.355	-173.980	-0.048	0.001
-270.340	-144.225	-0.280	0.026
-269.326	-69.655	0.036	-0.014
-268.311	800.000	-0.027	0.111
-267.297	-47.379	0.108	-0.053
-266.282	310.237	0.147	-0.276
-265.267	-200.000	0.045	0.471
-264.253	-200.000	0.008	0.508
-263.238	-48.022	0.282	0.137
-262.224	-200.000	-0.049	0.234
-261.209	88.871	-0.106	-0.119
-260.195	-179.667	0.286	-0.006
-259.180	71.274	0.343	0.357
-258.165	267.559	0.161	0.282
-257.151	348.807	0.047	0.093
-256.136	16.544	-0.259	0.205
-255.122	-133.022	0.216	-0.027
-254.107	94.379	0.047	0.054
-253.092	89.396	0.264	0.296
-252.078	-100.199	0.382	0.095
-251.063	126.977	0.066	-0.084
-250.049	800.000	0.076	0.222
-249.034	-200.000	0.000	-0.100
-248.019	-111.262	-0.238	-0.049
-247.005	92.511	-0.109	0.124
-245.990	-200.000	-0.022	0.214
-244.976	-84.914	0.368	0.116
-243.961	212.440	0.098	-0.155
-242.946	17.311	-0.132	0.105
-241.932	326.697	0.027	-0.052
-240.917	-74.087	0.175	0.064
-239.903	-141.588	-0.107	-0.011
-238.888	8.413	0.064	-0.048
-237.873	127.786	0.337	-0.430
-236.859	634.041	-0.075	-0.191
-235.844	3.738	0.171	-0.126
-234.830	155.912	0.175	0.242
-233.815	-10.297	0.434	0.289
-232.800	328.528	-0.123	-0.238
-231.786	507.974	0.090	0.209
-230.771	-34.630	-0.156	-0.085
-229.757	-200.000	0.014	-0.093
-228.742	12.062	0.323	0.249
-227.727	141.636	0.035	-0.047
-226.713	-12.550	-0.285	-0.187
-225.698	32.531	-0.182	0.158
-224.684	-28.125	0.397	-0.230
-223.669	-35.694	-0.113	0.062
-222.655	-26.221	0.258	-0.152
-221.640	315.011	0.069	-0.131
-220.625	-200.000	0.029	0.250
-219.611	-123.986	-0.190	0.030
-218.596	-48.360	0.241	-0.116
-217.582	-139.477	-0.047	0.005
-216.567	-127.101	0.169	-0.025
-215.552	10.308	-0.026	0.020
-214.538	85.492	0.142	0.157
-213.523	65.373	0.082	-0.083
-212.509	56.012	-0.035	-0.034
-211.494	-69.021	-0.140	0.054
-210.479	-12.685	-0.227	-0.148
-209.465	-200.000	0.009	0.255
-208.450	211.304	0.088	0.139
-207.436	96.918	-0.166	-0.191
-206.421	-200.000	-0.022	-0.500
-205.406	-172.850	0.019	0.001
-204.392	119.320	-0.192	0.238
-203.377	-200.000	-0.005	0.056
-202.363	800.000	-0.059	0.192
-201.348	-51.864	0.099	0.046
-200.333	-116.348	0.343	0.064
-199.319	-200.000	-0.022	0.282
-198.304	-103.709	0.205	0.048
-197.290	28.615	-0.237	0.201
-196.275	-200.000	-0.020	0.190
-195.260	-106.623	-0.252	-0.056
-194.246	2.007	-0.138	-0.100
-193.231	-200.000	-0.029	0.508
-192.217	418.239	-0.068	0.145
-191.202	135.234	-0.182	0.238
-190.187	-49.136	0.207	-0.099
-189.173	-119.001	0.203	-0.036
-188.158	35.918	-0.174	-0.154
-187.144	15.455	-0.191	-0.150
-186.129	-90.048	0.054	-0.016
-185.114	397.699	0.045	-0.095
-184.100	-31.731	-0.271	-0.152
-183.085	81.933	0.089	-0.097
-182.071	800.000	-0.044	-0.138
-181.056	-135.466	0.170	-0.020
-180.042	316.384	-0.082	-0.155
-179.027	-135.274	-0.220	-0.026
-178.012	-28.960	0.150	-0.086
-176.998	36.384	-0.043	-0.038
-175.983	239.660	0.113	0.188
-174.969	-30.293	0.142	0.081
-173.954	-39.112	-0.202	0.107
-172.939	-70.522	0.230	0.087
-171.925	196.072	0.039	-0.060
-170.910	-106.150	-0.222	-0.050
-169.896	117.103	0.206	0.253
-168.881	-200.000	0.011	-0.152
-167.866	-124.668	-0.378	0.059
-166.852	-76.573	0.414	0.145
-165.837	-118.927	-0.273	0.048
-164.823	562.781	-0.090	0.217
-163.808	-68.419	0.178	-0.069
-162.793	-23.959	-0.150	0.090
-161.779	-63.475	-0.101	-0.042
-160.764	735.004	0.123	0.331
-159.750	-105.899	-0.228	-0.052
-158.735	-4.326	0.263	0.182
-157.720	-56.621	-0.184	0.081
-156.706	256.720	-0.055	0.095
-155.691	376.822	0.148	-0.303
-154.677	-42.983	-0.126	-0.064
-153.662	-57.541	-0.181	-0.079
-152.647	-186.762	0.053	0.001
-151.633	-200.000	0.000	0.038
-150.618	-88.055	0.285	-0.086
-149.604	-44.940	0.135	-0.067
-148.589	337.785	0.190	-0.370
-147.574	800.000	-0.162	-0.490
-146.560	571.419	-0.063	-0.153
-145.545	57.516	0.063	-0.061
-144.531	-24.601	0.036	0.021
-143.516	523.210	-0.118	0.278
-142.502	787.634	-0.041	0.112
-141.487	172.084	0.121	-0.175
-140.472	-75.812	-0.189	-0.067
-139.458	14.860	0.131	-0.102
-138.443	-200.000	-0.004	-0.091
-137.429	800.000	0.081	-0.281
-136.414	557.225	0.012	-0.028
-135.399	7.845	-0.036	-0.027
-134.385	-57.278	0.151	-0.067
-133.370	800.000	0.022	0.088
-132.356	-200.000	0.028	-0.210
-131.341	800.000	0.100	-0.345
-130.326	-83.723	0.114	-0.036
-129.312	82.823	0.193	-0.209
-128.297	-9.525	0.133	0.088
-127.283	-144.369	-0.124	-0.011
-126.268	120.691	-0.095	-0.118
-125.253	-32.489	-0.208	0.116
-124.239	-115.906	-0.271	0.051
-123.224	-44.817	-0.209	0.104
-122.210	251.822	0.104	0.177
-121.195	60.190	0.157	-0.155
