DTS Sentinel unit serial number:	SN413079Multiplexer serial number:	ORYXHardware model number:	OX4-SRSoftware version number:	ORYX F/W v4.00 Oryx Data Collector v3.7.2.0data status	okinstallation	princeton_trtdifferential loss correction	single-endedforward channel	channel 3reverse channel	N/Adate	2019/09/19time	04:16:34forward acquisition time	60.00reverse acquisition time	0.00gamma	496.2192k internal	0.2347k external	0.2347temperature offset calibration	0.9986default loss term (dB/km)	0.3790temperature slope calibration	1.0000multiplexer offset coefficient	1.0000multiplexer slope coefficient	1.0000fibre end	0.00T internal ref (°C)	20.31T ext. ref 1 (°C)	0.63T ext. ref 2 (°C)	13.62length (m)	temperature (°C)	Stokes	anti-Stokes-747.200	-200.000	0.064	0.305
-746.185	-200.000	-0.002	0.145
-745.171	-200.000	-0.049	0.344
-744.156	286.022	-0.074	0.134
-743.142	-200.000	-0.004	-0.304
-742.127	800.000	-0.117	0.398
-741.112	95.358	0.256	0.291
-740.098	489.788	-0.021	-0.048
-739.083	557.011	-0.144	-0.346
-738.069	-200.000	0.001	0.184
-737.054	-12.537	-0.227	-0.148
-736.039	-100.943	-0.465	0.114
-735.025	-65.323	-0.186	0.075
-734.010	-200.000	0.063	-0.397
-732.996	578.825	-0.077	0.188
-731.981	-200.000	0.003	-0.019
-730.966	460.912	-0.092	0.205
-729.952	12.238	0.425	-0.327
-728.937	227.304	-0.231	-0.376
-727.923	72.502	0.205	-0.214
-726.908	-200.000	-0.015	-0.276
-725.894	326.712	-0.154	-0.295
-724.879	-35.989	-0.362	-0.195
-723.864	323.340	0.085	0.163
-722.850	-7.624	-0.334	0.226
-721.835	429.483	-0.078	-0.169
-720.821	-45.978	0.244	-0.120
-719.806	-200.000	0.031	-0.230
-718.791	27.099	0.050	-0.042
-717.777	-157.612	-0.221	0.013
-716.762	-31.053	-0.076	-0.043
-715.748	-174.604	-0.317	-0.009
-714.733	316.705	-0.021	-0.040
-713.718	3.314	-0.143	-0.104
-712.704	-50.762	-0.066	0.031
-711.689	-87.298	0.170	-0.052
-710.675	298.169	0.202	-0.371
-709.660	155.871	-0.193	-0.265
-708.645	-80.376	-0.031	-0.010
-707.631	-94.924	0.092	0.025
-706.616	-200.000	-0.034	0.166
-705.602	432.180	-0.307	-0.664
-704.587	-200.000	-0.032	0.179
-703.572	-200.000	0.014	0.076
-702.558	-166.850	0.185	0.008
-701.543	8.868	-0.060	0.045
-700.529	117.808	0.107	-0.131
-699.514	-36.618	-0.310	-0.166
-698.499	-158.690	0.220	-0.013
-697.485	188.476	-0.199	-0.297
-696.470	341.806	0.133	-0.258
-695.456	-200.000	0.022	-0.288
-694.441	800.000	-0.058	-0.164
-693.426	72.242	0.085	-0.088
-692.412	259.900	0.111	-0.191
-691.397	-45.604	0.109	0.054
-690.383	-13.846	0.082	0.053
-689.368	100.263	0.083	-0.097
-688.354	-200.000	-0.050	0.246
-687.339	654.602	-0.050	0.128
-686.324	106.999	-0.240	-0.284
-685.310	-4.370	0.163	-0.112
-684.295	-200.000	0.064	0.334
-683.281	-36.853	0.202	-0.108
-682.266	-170.780	-0.094	-0.003
-681.251	800.000	-0.165	-0.484
-680.237	31.135	-0.133	-0.114
-679.222	278.705	-0.131	-0.232
-678.208	800.000	0.072	0.295
-677.193	-200.000	-0.082	-0.362
-676.178	-65.696	-0.299	-0.120
-675.164	3.118	-0.289	-0.209
-674.149	-63.948	-0.175	0.071
-673.135	32.195	-0.469	-0.403
-672.120	-200.000	-0.002	0.087
-671.105	-11.650	-0.221	0.145
-670.091	76.158	0.268	-0.283
-669.076	-200.000	-0.042	0.295
-668.062	-72.407	-0.220	-0.081
-667.047	182.086	0.090	-0.132
-666.032	61.452	-0.415	-0.412
-665.018	114.078	-0.194	-0.235
-664.003	-48.834	-0.352	0.168
-662.989	800.000	0.016	0.055
-661.974	-110.489	-0.255	-0.053
-660.959	118.136	0.217	-0.266
-659.945	-148.595	-0.256	0.021
-658.930	-113.604	0.315	-0.061
-657.916	-141.893	-0.158	0.016
-656.901	3.470	-0.279	0.203
-655.886	-132.214	-0.410	0.053
-654.872	112.898	0.188	0.226
-653.857	89.709	-0.120	-0.133
-652.843	-200.000	0.009	0.051
-651.828	219.293	0.153	0.244
-650.814	30.020	0.062	0.053
-649.799	-124.204	-0.317	-0.049
-648.784	2.845	-0.218	0.158
-647.770	-54.015	0.254	0.115
-646.755	-38.327	0.461	-0.243
-645.741	800.000	0.087	-0.374
-644.726	-127.838	0.173	-0.025
-643.711	-118.862	0.130	-0.023
-642.697	800.000	-0.041	0.145
-641.682	506.331	-0.002	0.004
-640.668	235.401	0.088	0.144
-639.653	69.093	-0.075	0.077
-638.638	-200.000	-0.042	0.192
-637.624	619.358	-0.067	0.167
-636.609	615.997	-0.035	0.087
-635.595	-200.000	-0.057	-0.437
-634.580	10.090	0.277	-0.210
-633.565	194.028	-0.123	-0.185
-632.551	-72.680	-0.101	-0.037
-631.536	-29.434	-0.263	-0.150
-630.522	217.533	0.057	0.090
-629.507	-200.000	-0.020	-0.124
-628.492	-200.000	0.018	-0.191
-627.478	-89.132	0.094	-0.028
-626.463	-200.000	-0.020	-0.237
-625.449	-72.418	-0.273	-0.100
-624.434	-200.000	0.050	0.292
-623.419	-118.057	0.295	-0.052
-622.405	-9.667	0.057	-0.038
-621.390	160.145	0.065	-0.091
-620.376	42.030	0.214	-0.194
-619.361	-200.000	-0.037	-0.176
-618.346	306.460	-0.092	0.171
-617.332	343.412	0.067	-0.130
-616.317	-158.296	-0.523	0.030
-615.303	-47.857	-0.169	0.082
-614.288	800.000	0.006	-0.021
-613.273	-161.214	0.055	0.003
-612.259	-148.005	0.284	0.023
-611.244	784.909	-0.154	0.420
-610.230	-45.995	-0.351	0.172
-609.215	-35.494	-0.286	0.154
-608.201	17.172	0.128	0.101
-607.186	-200.000	0.004	0.096
-606.171	800.000	0.043	0.136
-605.157	-174.943	-0.356	-0.010
-604.142	-115.958	0.148	0.027
-603.128	-200.000	-0.001	0.079
-602.113	-195.343	-0.399	-0.003
-601.098	243.453	-0.270	0.450
-600.084	-79.689	0.174	0.058
-599.069	-186.653	0.547	-0.008
-598.055	52.252	-0.236	0.224
-597.040	486.833	0.049	-0.111
-596.025	800.000	0.044	-0.166
-595.011	-200.000	0.297	0.001
-593.996	-200.000	-0.003	0.308
-592.982	-200.000	-0.007	-0.218
-591.967	293.598	-0.144	-0.261
-590.952	-96.346	-0.206	0.054
-589.938	-200.000	-0.026	-0.132
-588.923	-69.817	0.341	0.129
-587.909	-61.478	-0.145	-0.061
-586.894	-200.000	0.022	0.212
-585.879	-200.000	0.008	-0.128
-584.865	-70.625	0.069	0.026
-583.850	200.120	0.124	-0.189
-582.836	185.442	-0.085	0.126
-581.821	36.346	-0.174	-0.152
-580.806	-69.094	0.408	0.156
-579.792	-63.754	-0.215	0.088
-578.777	291.786	0.024	0.043
-577.763	608.081	-0.069	0.172
-576.748	800.000	0.015	0.049
-575.733	-93.522	0.071	-0.019
-574.719	-28.745	-0.251	-0.144
-573.704	-200.000	-0.008	0.221
-572.690	-94.900	0.088	-0.024
-571.675	-13.002	0.297	0.192
-570.661	-29.444	-0.053	-0.030
-569.646	-109.100	-0.156	0.033
-568.631	51.687	0.042	-0.039
-567.617	626.895	-0.209	-0.525
-566.602	-200.000	0.002	-0.109
-565.588	368.549	0.060	-0.120
-564.573	96.628	-0.350	-0.398
-563.558	2.270	0.119	-0.085
-562.544	90.759	0.042	0.047
-561.529	291.115	-0.036	-0.064
-560.515	32.614	-0.269	0.230
-559.500	-99.000	-0.157	0.040
-558.485	-153.104	-0.175	0.012
-557.471	51.828	-0.320	0.302
-556.456	586.800	0.067	-0.163
-555.442	85.810	0.320	0.349
-554.427	47.538	-0.107	0.099
-553.412	22.048	0.214	0.173
-552.398	-200.000	-0.003	-0.326
-551.383	281.211	-0.145	-0.257
-550.369	-175.892	0.035	0.001
-549.354	-200.000	0.063	-0.284
-548.339	252.010	0.318	-0.538
-547.325	39.144	0.236	-0.209
-546.310	367.722	-0.169	-0.339
-545.296	-77.650	-0.140	-0.048
-544.281	-89.653	0.101	0.029
-543.266	-26.088	-0.082	0.048
-542.252	15.397	-0.270	0.210
-541.237	800.000	-0.014	0.042
-540.223	48.499	-0.055	0.051
-539.208	-23.818	-0.146	-0.087
-538.193	-53.826	-0.297	-0.134
-537.179	-26.651	-0.288	0.167
-536.164	-46.580	-0.096	0.047
-535.150	-131.864	0.560	0.073
-534.135	-200.000	0.002	-0.274
-533.121	-200.000	0.035	-0.304
-532.106	116.499	0.206	0.250
-531.091	-155.135	-0.117	0.008
-530.077	800.000	0.044	0.185
-529.062	-200.000	-0.015	-0.155
-528.048	106.458	-0.026	-0.030
-527.033	274.112	-0.120	-0.210
-526.018	749.822	-0.066	-0.177
-525.004	67.054	0.069	0.070
-523.989	73.930	0.123	0.128
-522.975	-129.316	-0.290	0.040
-521.960	-84.832	0.200	0.062
-520.945	-40.973	0.123	-0.063
-519.931	283.190	-0.126	-0.224
-518.916	-179.564	-0.440	0.010
-517.902	-56.105	-0.226	0.100
-516.887	226.765	0.079	-0.128
-515.872	-68.304	-0.194	0.075
-514.858	266.590	-0.064	-0.112
-513.843	-52.074	-0.265	0.122
-512.829	114.533	0.099	-0.119
-511.814	-171.001	-0.056	-0.002
-510.799	-139.338	-0.194	0.021
-509.785	41.749	0.111	-0.100
-508.770	-200.000	-0.001	-0.075
-507.756	-111.137	-0.245	-0.050
-506.741	54.896	0.029	-0.028
-505.726	-44.373	0.195	-0.097
-504.712	575.844	0.190	-0.460
-503.697	800.000	-0.015	-0.058
-502.683	-200.000	0.012	0.182
-501.668	435.610	0.060	-0.128
-500.653	258.171	0.124	0.211
-499.639	-200.000	0.011	0.141
-498.624	-89.271	-0.358	-0.104
-497.610	-165.215	-0.318	-0.014
-496.595	-141.374	0.161	0.016
-495.581	-90.674	0.235	-0.067
-494.566	-60.044	-0.214	0.090
-493.551	-186.376	-0.186	-0.003
-492.537	770.530	0.039	0.106
-491.522	7.074	-0.206	0.152
-490.508	800.000	0.016	-0.047
-489.493	218.571	0.211	0.333
-488.478	-69.421	0.324	0.123
-487.464	584.633	0.011	0.027
-486.449	-92.971	-0.289	0.080
-485.435	9.877	-0.079	-0.059
-484.420	-90.896	0.135	-0.039
-483.405	88.959	0.121	0.133
-482.391	74.264	0.051	-0.053
-481.376	98.764	-0.190	-0.217
-480.362	-101.734	-0.155	-0.037
-479.347	800.000	-0.037	0.139
-478.332	111.502	0.235	-0.280
-477.318	-94.521	-0.348	0.094
-476.303	36.921	0.254	0.222
-475.289	800.000	0.045	0.192
-474.274	57.984	-0.236	-0.229
-473.259	-33.828	0.050	-0.027
-472.245	132.463	0.128	0.163
-471.230	1.362	0.077	-0.055
-470.216	62.924	-0.134	0.133
-469.201	800.000	0.052	0.143
-468.186	35.119	-0.095	-0.082
-467.172	22.760	-0.075	0.061
-466.157	116.324	0.039	-0.047
-465.143	755.942	0.052	-0.140
-464.128	118.616	0.147	-0.180
-463.113	-112.976	-0.240	-0.047
-462.099	-63.463	0.411	0.167
-461.084	-200.000	-0.005	0.299
-460.070	-96.256	-0.399	0.104
-459.055	-200.000	-0.037	0.205
-458.040	-46.104	-0.328	0.159
-457.026	-39.523	-0.087	0.045
-456.011	-2.590	0.242	0.168
-454.997	96.143	0.173	-0.196
-453.982	-116.843	0.292	-0.053
-452.968	-52.740	-0.282	0.128
-451.953	-121.331	-0.384	-0.063
-450.938	116.232	-0.227	-0.275
-449.924	177.936	-0.197	-0.283
-448.909	-198.617	-0.245	0.001
-447.895	204.968	-0.147	0.225
-446.880	800.000	0.138	0.477
-445.865	-200.000	-0.066	-0.437
-444.851	89.368	-0.182	-0.201
-443.836	-200.000	-0.066	-0.357
-442.822	-41.810	0.165	0.084
-441.807	-96.319	-0.083	0.022
-440.792	-200.000	0.020	-0.110
-439.778	800.000	0.037	-0.126
-438.763	800.000	0.050	-0.148
-437.749	36.081	0.115	0.100
-436.734	-78.223	-0.207	-0.070
-435.719	201.326	-0.082	-0.124
-434.705	-133.206	0.083	-0.010
-433.690	-200.000	-0.004	0.192
-432.676	-19.924	0.137	0.083
-431.661	244.811	0.191	-0.318
-430.646	-136.884	-0.131	0.015
-429.632	800.000	0.071	0.270
-428.617	31.365	0.264	-0.224
-427.603	-200.000	-0.055	0.445
-426.588	-74.292	-0.112	-0.040
-425.573	-88.267	0.242	-0.071
-424.559	137.241	-0.071	0.092
-423.544	138.709	-0.111	-0.144
-422.530	-26.902	-0.084	-0.048
-421.515	95.012	-0.074	0.083
-420.500	-200.000	0.012	0.169
-419.486	-4.166	-0.088	-0.060
-418.471	567.215	0.044	0.104
-417.457	-127.777	0.512	0.073
-416.442	156.128	0.202	-0.275
-415.428	-135.572	0.333	0.039
-414.413	-116.002	-0.021	-0.004
-413.398	55.111	0.113	0.108
-412.384	-158.360	0.161	0.009
-411.369	800.000	-0.112	-0.340
-410.355	-200.000	-0.028	0.141
-409.340	-200.000	-0.000	0.001
-408.325	83.801	0.170	-0.183
-407.311	141.876	-0.132	0.173
-406.296	800.000	0.029	0.082
-405.282	168.449	0.218	-0.306
-404.267	-62.375	-0.140	0.057
-403.252	199.761	0.227	0.344
-402.238	543.807	-0.070	-0.165
-401.223	-200.000	0.023	-0.131
-400.209	-108.056	0.112	0.024
-399.194	-27.566	-0.091	0.052
-398.179	-22.036	-0.059	-0.036
-397.165	-200.000	-0.055	0.404
-396.150	284.422	-0.072	-0.128
-395.136	-29.414	-0.329	0.185
-394.121	151.822	0.063	0.085
-393.106	120.179	-0.279	0.341
-392.092	-200.000	-0.284	-0.001
-391.077	496.790	-0.096	0.217
-390.063	-145.537	-0.057	-0.005
-389.048	-200.000	-0.023	-0.162
-388.033	228.422	0.087	-0.140
-387.019	-200.000	-0.036	0.241
-386.004	47.355	-0.140	0.129
-384.990	201.827	-0.108	0.165
-383.975	9.308	0.073	-0.054
-382.960	87.695	0.156	-0.170
-381.946	245.819	-0.152	-0.252
-380.931	-200.000	0.003	-0.190
-379.917	800.000	0.071	-0.247
-378.902	36.195	-0.149	-0.129
-377.888	240.267	0.168	-0.276
-376.873	1.536	-0.041	0.029
-375.858	800.000	0.088	0.303
-374.844	263.228	0.065	0.111
-373.829	800.000	-0.039	-0.122
-372.815	-84.125	-0.131	0.041
-371.800	-200.000	-0.034	0.263
-370.785	-54.214	-0.239	0.107
-369.771	226.893	0.144	-0.231
-368.756	-41.571	0.143	-0.073
-367.742	-200.000	-0.027	-0.305
-366.727	7.183	0.209	0.154
-365.712	-192.296	0.458	-0.004
-364.698	126.561	-0.171	0.213
-363.683	-77.666	0.106	0.036
-362.669	359.446	0.043	0.085
-361.654	-108.813	0.113	-0.024
-360.639	-125.875	0.502	-0.075
-359.625	-105.097	-0.267	0.060
-358.610	-74.568	-0.031	-0.011
-357.596	-143.043	0.217	0.021
-356.581	-115.774	0.155	0.028
-355.566	58.898	-0.172	0.166
-354.552	2.174	-0.088	0.063
-353.537	-82.294	0.198	0.063
-352.523	325.588	0.064	-0.120
-351.508	-178.485	0.274	0.006
-350.493	-82.744	0.192	0.061
-349.479	76.193	-0.175	-0.182
-348.464	-28.909	-0.122	0.069
-347.450	28.115	0.109	-0.091
-346.435	-200.000	0.043	-0.281
-345.420	43.631	-0.087	-0.078
-344.406	-12.918	0.020	-0.013
-343.391	310.223	0.022	-0.040
-342.377	153.956	0.127	0.171
-341.362	32.154	-0.029	0.024
-340.348	25.576	-0.111	0.091
-339.333	-165.841	-0.225	0.010
-338.318	-128.383	0.229	0.032
-337.304	357.982	-0.110	-0.216
-336.289	168.930	-0.186	-0.262
-335.275	45.886	0.217	-0.197
-334.260	-200.000	0.036	0.203
-333.245	-200.000	-0.012	0.142
-332.231	-125.093	-0.277	-0.042
-331.216	182.422	0.114	0.166
-330.202	-102.387	-0.088	0.021
-329.187	-200.000	0.058	-0.398
-328.172	-200.000	-0.038	0.267
-327.158	142.021	-0.058	-0.075
-326.143	-104.366	0.383	-0.087
-325.129	58.804	-0.218	-0.211
-324.114	-156.739	0.347	-0.021
-323.099	-18.042	-0.300	0.185
-322.085	50.620	0.257	-0.239
-321.070	-200.000	-0.041	0.214
-320.056	-79.919	-0.208	-0.069
-319.041	43.014	-0.112	0.101
-318.026	-82.409	-0.319	0.102
-317.012	-171.343	-0.190	0.006
-315.997	65.660	0.188	-0.187
-314.983	-85.835	0.130	-0.040
-313.968	-36.084	-0.045	0.024
-312.953	322.808	-0.091	-0.170
-311.939	800.000	-0.150	-0.542
-310.924	-78.042	0.319	0.108
-309.910	47.451	0.165	0.151
-308.895	-200.000	0.052	-0.261
-307.880	22.133	-0.176	-0.141
-306.866	10.727	0.111	-0.083
-305.851	294.336	0.196	-0.352
-304.837	-196.382	0.350	-0.002
-303.822	-61.079	0.284	0.118
-302.807	588.019	-0.104	0.253
-301.793	-50.228	0.107	-0.050
-300.778	800.000	-0.011	0.043
-299.764	-0.985	-0.247	-0.172
-298.749	120.403	-0.210	0.256
-297.735	416.320	0.115	0.241
-296.720	17.447	-0.076	-0.059
-295.705	-99.751	-0.138	-0.034
-294.691	-161.472	-0.302	0.015
-293.676	-143.616	0.081	0.008
-292.662	-145.570	0.286	-0.025
-291.647	-81.842	0.156	0.050
-290.632	334.177	0.138	0.263
-289.618	13.898	-0.236	0.180
-288.603	-69.545	-0.149	-0.056
-287.589	46.718	-0.250	-0.228
-286.574	-16.415	-0.145	-0.090
-285.559	-13.741	0.169	0.107
-284.545	-148.337	0.154	-0.012
-283.530	519.873	0.103	0.237
-282.516	17.058	0.249	0.194
-281.501	62.265	0.157	-0.154
-280.486	547.866	-0.103	-0.241
-279.472	-17.064	-0.196	0.121
-278.457	-91.483	0.296	-0.083
-277.443	149.852	0.146	-0.195
-276.428	-90.115	0.199	-0.057
-275.413	-29.523	0.305	-0.171
-274.399	800.000	0.040	-0.166
-273.384	6.609	-0.259	-0.189
-272.370	91.569	-0.230	0.254
-271.355	22.058	-0.170	0.136
-270.340	-200.000	-0.034	-0.193
-269.326	-18.389	-0.127	0.078
-268.311	43.319	0.038	0.034
-267.297	346.966	-0.141	0.273
-266.282	58.712	0.185	0.178
-265.267	62.988	0.171	-0.168
-264.253	4.492	0.136	0.098
-263.238	-148.497	0.237	0.019
-262.224	800.000	-0.110	0.416
-261.209	164.945	-0.169	0.234
-260.195	61.350	0.026	0.025
-259.180	800.000	-0.117	-0.326
-258.165	-99.886	0.203	0.050
-257.151	47.867	0.140	0.128
-256.136	-200.000	-0.078	-0.486
-255.122	800.000	0.069	0.251
-254.107	-96.774	0.407	0.105
-253.092	334.980	-0.016	0.030
-252.078	-200.000	0.000	0.340
-251.063	-74.258	-0.315	-0.112
-250.049	-97.606	-0.240	-0.061
-249.034	-183.842	-0.171	0.003
-248.019	800.000	0.046	0.160
-247.005	-38.925	0.231	0.119
-245.990	-200.000	-0.007	0.165
-244.976	-145.365	-0.114	0.010
-243.961	7.572	0.289	-0.212
-242.946	-85.616	0.352	-0.107
-241.932	-118.736	-0.249	0.043
-240.917	800.000	0.046	-0.164
-239.903	-15.961	0.184	-0.115
-238.888	-200.000	0.042	-0.222
-237.873	-63.914	-0.164	0.066
-236.859	-118.325	0.321	-0.056
-235.844	452.030	-0.053	-0.114
-234.830	-200.000	0.020	0.134
-233.815	800.000	-0.077	0.295
-232.800	-75.851	-0.036	0.012
-231.786	554.215	0.056	0.132
-230.771	-200.000	-0.015	-0.108
-229.757	-50.899	-0.117	-0.054
-228.742	800.000	-0.084	-0.310
-227.727	41.658	0.181	-0.161
-226.713	88.352	0.067	0.073
-225.698	-166.053	0.270	-0.011
-224.684	288.601	0.106	-0.189
-223.669	112.542	0.068	-0.081
-222.655	443.951	-0.017	0.037
-221.640	-7.890	-0.114	-0.075
-220.625	-112.065	0.296	0.058
-219.611	-200.000	0.066	0.318
-218.596	249.828	-0.014	-0.023
-217.582	-170.207	-0.074	0.003
-216.567	-200.000	-0.004	-0.034
-215.552	-66.843	0.131	0.051
-214.538	-200.000	-0.028	0.147
-213.523	-29.789	0.219	0.122
-212.509	800.000	0.040	-0.110
-211.494	-200.000	-0.008	-0.326
-210.479	800.000	-0.084	0.324
-209.465	283.053	0.003	-0.006
-208.450	63.195	-0.043	-0.042
-207.436	-200.000	0.031	0.191
-206.421	-200.000	0.015	-0.553
-205.406	-39.641	-0.251	0.128
-204.392	-59.550	0.199	0.084
-203.377	4.641	-0.354	-0.255
-202.363	-95.744	-0.317	0.083
-201.348	187.658	-0.092	-0.134
-200.333	-96.378	0.134	0.035
-199.319	-200.000	-0.002	-0.047
-198.304	3.796	0.325	-0.233
-197.290	-200.000	-0.013	0.243
-196.275	-43.419	0.109	0.054
-195.260	-116.748	0.367	-0.066
-194.246	-30.216	-0.155	0.086
-193.231	800.000	0.021	0.060
-192.217	-200.000	-0.028	-0.155
-191.202	-35.215	-0.123	0.066
-190.187	54.807	0.178	0.168
-189.173	-75.143	-0.228	0.080
-188.158	463.851	0.050	-0.110
-187.144	800.000	0.052	0.169
-186.129	-9.894	-0.134	0.087
-185.114	-79.182	0.064	0.021
-184.100	295.676	-0.110	0.196
-183.085	-125.003	0.429	-0.064
-182.071	5.255	-0.038	0.027
-181.056	-164.264	0.364	0.016
-180.042	460.074	0.057	-0.124
-179.027	86.984	-0.080	-0.087
-178.012	-109.697	-0.083	-0.017
-176.998	-200.000	-0.048	0.256
-175.983	-200.000	0.021	-0.092
-174.969	-200.000	0.008	0.090
-173.954	289.436	-0.085	0.151
-172.939	-69.014	0.315	0.119
-171.925	-132.681	-0.270	0.034
-170.910	-77.821	0.221	-0.075
-169.896	744.231	-0.128	0.337
-168.881	-46.689	-0.049	0.023
-167.866	-72.123	-0.054	0.019
-166.852	-62.648	0.321	0.130
-165.837	-200.000	0.013	0.089
-164.823	-149.111	-0.093	0.007
-163.808	79.893	0.022	0.024
-162.793	38.014	0.057	-0.050
-161.779	-17.434	-0.178	-0.110
-160.764	530.914	0.156	0.360
-159.750	-134.403	-0.266	0.032
-158.735	-127.636	0.237	0.034
-157.720	26.829	-0.115	-0.094
-156.706	-29.534	-0.093	-0.052
-155.691	-42.980	0.341	0.169
-154.677	-190.487	-0.283	0.003
-153.662	-200.000	-0.033	0.444
-152.647	43.214	-0.134	0.120
-151.633	-62.026	-0.205	0.084
-150.618	-67.071	0.205	0.079
-149.604	502.945	0.113	-0.255
-148.589	28.045	0.325	0.268
-147.574	276.581	-0.028	0.049
-146.560	-100.890	-0.333	0.080
-145.545	-103.838	-0.216	0.049
-144.531	-126.161	-0.258	-0.038
-143.516	-128.236	0.363	-0.051
-142.502	217.766	0.124	-0.194
-141.487	800.000	-0.045	0.162
-140.472	800.000	0.028	-0.098
-139.458	-200.000	0.009	0.078
-138.443	201.916	0.230	0.346
-137.429	124.335	0.225	0.276
-136.414	194.528	0.261	0.386
-135.399	-200.000	0.030	0.429
-134.385	32.511	0.249	-0.210
-133.370	11.577	-0.183	0.137
-132.356	800.000	0.018	-0.070
-131.341	-200.000	-0.012	-0.349
-130.326	29.463	-0.074	-0.061
-129.312	198.709	0.091	-0.136
-128.297	-200.000	0.007	-0.158
-127.283	-12.106	-0.145	0.092
-126.268	-71.062	0.167	0.061
-125.253	222.592	0.062	0.098
-124.239	-13.490	0.362	-0.229
-123.224	-20.463	-0.113	-0.068
-122.210	470.144	-0.070	0.154
-121.195	-3.918	-0.180	0.122
