DTS Sentinel unit serial number:	SN413079Multiplexer serial number:	ORYXHardware model number:	OX4-SRSoftware version number:	ORYX F/W v4.00 Oryx Data Collector v3.7.2.0data status	okinstallation	princeton_trtdifferential loss correction	single-endedforward channel	channel 3reverse channel	N/Adate	2019/09/18time	14:48:34forward acquisition time	60.00reverse acquisition time	0.00gamma	496.2192k internal	0.2306k external	0.2306temperature offset calibration	0.9977default loss term (dB/km)	0.3790temperature slope calibration	1.0000multiplexer offset coefficient	1.0000multiplexer slope coefficient	1.0000fibre end	0.00T internal ref (°C)	35.05T ext. ref 1 (°C)	0.72T ext. ref 2 (°C)	31.91length (m)	temperature (°C)	Stokes	anti-Stokes-747.200	130.279	0.039	-0.051
-746.185	455.656	-0.058	-0.132
-745.171	66.782	-0.036	0.038
-744.156	479.003	-0.126	0.290
-743.142	-73.460	0.217	0.081
-742.127	151.225	0.164	0.227
-741.112	-200.000	-0.036	-0.342
-740.098	19.782	0.195	0.160
-739.083	-113.657	-0.188	-0.037
-738.069	-200.000	-0.053	0.259
-737.054	-200.000	0.072	-0.346
-736.039	27.004	0.155	0.133
-735.025	-200.000	0.024	0.123
-734.010	-89.882	0.131	-0.039
-732.996	-200.000	0.006	0.091
-731.981	70.637	-0.204	-0.215
-730.966	23.305	-0.153	-0.128
-729.952	35.097	-0.113	-0.101
-728.937	-200.000	-0.011	0.296
-727.923	-31.970	-0.232	0.132
-726.908	-200.000	-0.076	-0.379
-725.894	439.967	-0.158	-0.350
-724.879	251.239	-0.105	-0.181
-723.864	-63.803	-0.201	-0.084
-722.850	-135.000	0.087	0.011
-721.835	41.534	-0.319	0.293
-720.821	-83.647	0.027	0.009
-719.806	-200.000	-0.002	-0.258
-718.791	310.892	0.119	0.226
-717.777	-113.971	0.133	-0.026
-716.762	79.303	0.027	-0.029
-715.748	-139.564	-0.127	-0.014
-714.733	-200.000	0.025	-0.211
-713.718	57.181	-0.278	-0.276
-712.704	-200.000	0.025	-0.129
-711.689	-200.000	-0.021	0.096
-710.675	-200.000	-0.013	0.273
-709.660	-113.039	0.295	0.059
-708.645	-147.561	-0.095	0.008
-707.631	800.000	-0.035	0.105
-706.616	-53.832	-0.385	0.178
-705.602	800.000	-0.076	0.300
-704.587	-150.605	-0.178	0.014
-703.572	55.223	-0.176	0.173
-702.558	-191.919	0.405	0.004
-701.543	202.401	0.127	0.200
-700.529	759.874	0.063	0.172
-699.514	-41.966	-0.042	-0.022
-698.499	134.298	-0.035	-0.047
-697.485	-5.831	-0.309	-0.215
-696.470	84.973	0.172	-0.192
-695.456	-97.729	-0.182	-0.048
-694.441	800.000	-0.031	0.108
-693.426	-12.786	0.398	0.264
-692.412	-137.183	-0.265	0.031
-691.397	390.285	-0.217	0.458
-690.383	-68.651	-0.253	-0.099
-689.368	-200.000	0.004	-0.206
-688.354	-57.038	0.081	0.036
-687.339	64.313	0.188	-0.192
-686.324	701.156	-0.063	0.169
-685.310	-70.900	0.291	-0.111
-684.295	26.770	-0.017	-0.015
-683.281	430.187	0.126	-0.277
-682.266	169.758	-0.067	-0.097
-681.251	31.467	-0.164	-0.143
-680.237	800.000	0.036	-0.143
-679.222	25.618	0.197	-0.166
-678.208	13.814	-0.215	0.169
-677.193	-200.000	0.026	-0.412
-676.178	-49.604	-0.145	0.070
-675.164	-200.000	-0.001	0.040
-674.149	332.863	-0.257	-0.503
-673.135	-200.000	-0.021	-0.196
-672.120	335.665	-0.025	-0.050
-671.105	146.875	-0.223	0.305
-670.091	-46.288	0.173	0.086
-669.076	48.726	0.350	0.333
-668.062	-200.000	-0.001	0.257
-667.047	-31.273	-0.397	0.227
-666.032	-47.097	-0.321	0.159
-665.018	29.177	0.223	-0.192
-664.003	-95.574	-0.093	-0.025
-662.989	-22.949	-0.363	-0.222
-661.974	210.703	-0.128	-0.204
-660.959	-129.698	-0.299	0.042
-659.945	216.108	0.034	-0.054
-658.930	133.416	-0.005	-0.007
-657.916	-23.896	-0.153	0.093
-656.901	-46.357	0.097	0.048
-655.886	268.036	-0.047	0.084
-654.872	89.416	0.059	0.067
-653.857	-37.013	0.129	-0.070
-652.843	265.633	0.026	-0.047
-651.828	70.219	-0.204	-0.214
-650.814	-87.774	0.378	-0.116
-649.799	31.188	0.036	-0.031
-648.784	-54.166	-0.114	-0.053
-647.770	666.490	0.115	0.302
-646.755	-10.675	-0.167	-0.112
-645.741	64.292	0.117	0.120
-644.726	-4.938	0.055	-0.038
-643.711	-77.429	-0.197	0.069
-642.697	39.364	0.250	-0.227
-641.682	8.938	-0.270	-0.206
-640.668	141.329	-0.146	-0.195
-639.653	130.536	0.020	0.026
-638.638	169.179	0.164	0.238
-637.624	159.884	0.025	0.036
-636.609	-45.176	-0.112	-0.057
-635.595	61.977	-0.132	-0.134
-634.580	-106.745	-0.273	-0.061
-633.565	-35.346	-0.116	-0.064
-632.551	166.937	-0.178	-0.255
-631.536	-115.306	-0.418	-0.080
-630.522	-200.000	-0.004	-0.086
-629.507	311.343	0.256	-0.486
-628.492	-29.824	0.188	-0.109
-627.478	55.990	0.075	-0.073
-626.463	-136.237	-0.132	-0.016
-625.449	331.913	-0.131	-0.256
-624.434	-200.000	0.062	-0.297
-623.419	-50.780	0.206	-0.098
-622.405	-78.601	0.086	-0.030
-621.390	-109.483	0.043	0.009
-620.376	800.000	0.096	-0.328
-619.361	121.697	-0.071	-0.089
-618.346	-21.727	0.175	-0.108
-617.332	-25.168	-0.088	0.053
-616.317	183.460	0.077	0.115
-615.303	-138.329	-0.207	-0.023
-614.288	355.527	-0.042	-0.085
-613.273	468.646	0.028	0.063
-612.259	181.344	0.108	-0.161
-611.244	48.665	-0.033	-0.031
-610.230	-200.000	-0.003	-0.172
-609.215	178.322	0.047	-0.069
-608.201	453.943	0.002	-0.004
-607.186	-4.885	-0.221	-0.154
-606.171	306.877	-0.185	-0.349
-605.157	-79.465	-0.083	0.028
-604.142	207.502	-0.207	-0.327
-603.128	-200.000	0.011	-0.145
-602.113	292.579	-0.122	-0.225
-601.098	-39.783	-0.226	-0.120
-600.084	272.218	0.129	-0.230
-599.069	-182.036	0.435	0.008
-598.055	-102.331	0.300	-0.073
-597.040	-174.297	-0.415	0.012
-596.025	-96.544	0.249	0.067
-595.011	201.748	0.107	0.166
-593.996	-43.737	-0.080	-0.041
-592.982	19.878	-0.268	-0.218
-591.967	-200.000	-0.100	0.546
-590.952	-200.000	-0.009	0.281
-589.938	6.519	0.224	-0.168
-588.923	800.000	-0.016	-0.056
-587.909	-13.463	-0.183	0.120
-586.894	-66.419	0.204	0.082
-585.879	-200.000	0.016	0.205
-584.865	800.000	-0.042	-0.161
-583.850	-200.000	-0.008	-0.146
-582.836	-35.111	-0.418	0.230
-581.821	-200.000	-0.000	-0.031
-580.806	-76.383	0.173	0.061
-579.792	58.266	0.079	-0.078
-578.777	-59.055	0.113	-0.049
-577.763	800.000	-0.076	0.304
-576.748	-87.909	-0.081	0.025
-575.733	800.000	0.020	0.086
-574.719	102.347	-0.338	-0.399
-573.704	-175.848	-0.085	-0.002
-572.690	-94.491	-0.067	-0.018
-571.675	47.989	0.167	-0.158
-570.661	183.947	0.114	-0.170
-569.646	-29.838	0.162	0.093
-568.631	-132.598	-0.288	-0.037
-567.617	-89.108	-0.133	-0.040
-566.602	-200.000	-0.092	-0.424
-565.588	49.590	0.216	0.206
-564.573	-141.088	-0.159	-0.016
-563.558	800.000	-0.034	0.126
-562.544	-86.023	-0.178	-0.056
-561.529	153.106	0.117	-0.161
-560.515	800.000	-0.041	-0.161
-559.500	800.000	-0.031	-0.099
-558.485	-139.499	-0.236	-0.026
-557.471	-200.000	0.052	-0.246
-556.456	-97.621	-0.136	-0.036
-555.442	152.393	0.067	0.092
-554.427	531.359	-0.110	-0.262
-553.412	-80.328	-0.129	-0.044
-552.398	-200.000	-0.008	-0.078
-551.383	-200.000	-0.010	0.069
-550.369	-27.426	-0.211	0.124
-549.354	26.487	-0.231	-0.195
-548.339	800.000	-0.091	-0.299
-547.325	480.839	0.080	0.182
-546.310	-38.093	-0.053	-0.029
-545.296	-70.392	0.401	0.153
-544.281	-200.000	-0.079	0.468
-543.266	-55.825	-0.048	-0.022
-542.252	-96.564	-0.269	-0.072
-541.237	101.681	0.048	0.056
-540.223	338.012	-0.251	-0.493
-539.208	-7.923	-0.201	0.137
-538.193	-200.000	-0.012	-0.057
-537.179	-200.000	0.021	0.111
-536.164	120.225	0.049	0.061
-535.150	-200.000	0.002	0.129
-534.135	-200.000	-0.029	-0.160
-533.121	230.980	0.027	-0.044
-532.106	-200.000	-0.033	0.253
-531.091	4.257	-0.420	0.311
-530.077	165.238	-0.220	0.314
-529.062	-47.337	0.069	0.034
-528.048	391.530	0.083	-0.175
-527.033	398.613	-0.101	-0.213
-526.018	34.695	0.021	0.019
-525.004	-200.000	-0.010	0.313
-523.989	-167.047	-0.325	0.013
-522.975	682.274	0.099	-0.259
-521.960	113.487	-0.199	-0.243
-520.945	-31.525	-0.075	-0.042
-519.931	76.032	0.102	-0.109
-518.916	63.533	0.113	0.114
-517.902	282.953	0.067	-0.121
-516.887	-113.751	-0.278	-0.055
-515.872	-5.066	0.133	0.092
-514.858	100.679	-0.075	0.088
-513.843	204.868	0.155	-0.242
-512.829	800.000	0.014	-0.039
-511.814	206.769	-0.191	-0.300
-510.799	-59.505	0.200	0.086
-509.785	256.023	-0.063	-0.109
-508.770	434.933	-0.067	0.146
-507.756	800.000	-0.065	-0.212
-506.741	800.000	-0.031	0.129
-505.726	190.085	0.061	-0.092
-504.712	299.937	-0.116	-0.215
-503.697	-48.415	-0.307	0.149
-502.683	-127.999	0.213	0.031
-501.668	-107.970	-0.330	-0.072
-500.653	291.360	0.045	-0.083
-499.639	264.997	-0.100	-0.176
-498.624	337.257	-0.078	0.154
-497.610	-200.000	-0.000	0.053
-496.595	-24.879	0.146	0.087
-495.581	-200.000	0.016	-0.100
-494.566	11.159	0.072	0.055
-493.551	355.401	0.115	-0.230
-492.537	800.000	0.061	0.201
-491.522	-55.914	-0.346	-0.156
-490.508	800.000	0.021	0.077
-489.493	-27.295	0.367	0.215
-488.478	800.000	0.059	0.175
-487.464	37.801	-0.215	-0.192
-486.449	-89.803	0.114	-0.033
-485.435	-113.466	0.319	0.063
-484.420	533.044	-0.039	0.093
-483.405	-162.003	0.210	-0.011
-482.391	-200.000	0.025	-0.152
-481.376	-9.903	0.129	-0.087
-480.362	-200.000	-0.011	0.264
-479.347	-73.130	-0.200	0.074
-478.332	-200.000	0.032	0.145
-477.318	330.585	-0.141	0.273
-476.303	496.267	0.091	-0.212
-475.289	107.743	-0.016	0.019
-474.274	-134.455	-0.101	-0.012
-473.259	800.000	0.020	0.072
-472.245	331.213	0.083	-0.160
-471.230	-72.213	-0.189	0.071
-470.216	-32.781	-0.019	0.011
-469.201	767.738	0.121	0.331
-468.186	-200.000	-0.053	0.324
-467.172	5.306	-0.179	0.133
-466.157	197.386	0.120	-0.184
-465.143	-15.602	0.148	0.095
-464.128	-58.123	-0.190	-0.083
-463.113	800.000	-0.043	-0.121
-462.099	-200.000	0.041	0.248
-461.084	-142.356	0.248	0.025
-460.070	574.516	0.082	0.201
-459.055	-158.537	0.194	-0.011
-458.040	61.260	-0.082	-0.082
-457.026	-84.459	0.053	-0.017
-456.011	539.959	-0.124	0.297
-454.997	-104.537	0.188	-0.044
-453.982	-53.938	0.150	-0.069
-452.968	144.291	-0.053	0.071
-451.953	526.268	0.161	0.381
-450.938	-117.205	0.142	0.026
-449.924	-6.673	-0.249	-0.170
-448.909	-200.000	0.029	0.173
-447.895	12.039	-0.210	0.162
-446.880	-0.781	0.189	0.135
-445.865	-5.118	-0.231	0.160
-444.851	-16.965	0.142	0.090
-443.836	-200.000	-0.035	0.197
-442.822	-21.974	-0.138	0.084
-441.807	-9.937	-0.072	0.048
-440.792	361.741	0.069	0.138
-439.778	7.883	-0.080	0.060
-438.763	-150.375	0.201	0.016
-437.749	101.514	0.124	-0.145
-436.734	-154.495	0.121	0.008
-435.719	89.549	0.064	0.072
-434.705	218.630	-0.218	0.350
-433.690	800.000	0.065	0.182
-432.676	-106.925	0.241	0.054
-431.661	-83.677	-0.120	-0.039
-430.646	800.000	-0.046	0.194
-429.632	-64.036	0.131	-0.054
-428.617	119.015	-0.113	-0.141
-427.603	-22.230	0.074	0.045
-426.588	-122.589	0.122	-0.020
-425.573	211.320	-0.098	-0.155
-424.559	-129.626	-0.228	0.032
-423.544	-200.000	0.025	-0.154
-422.530	701.633	0.103	-0.272
-421.515	-69.849	-0.210	-0.081
-420.500	307.574	0.131	-0.246
-419.486	693.885	0.023	-0.060
-418.471	-141.971	0.347	0.035
-417.457	553.081	0.038	-0.093
-416.442	800.000	-0.053	-0.161
-415.428	800.000	-0.063	-0.174
-414.413	-66.587	-0.295	0.118
-413.398	130.646	0.241	0.311
-412.384	-67.214	0.145	0.057
-411.369	68.327	0.294	-0.302
-410.355	-130.918	0.206	-0.028
-409.340	-65.388	-0.257	0.104
-408.325	443.090	-0.144	0.316
-407.311	-128.313	-0.395	0.056
-406.296	151.803	-0.164	-0.225
-405.282	208.955	-0.109	0.172
-404.267	800.000	0.031	-0.129
-403.252	-200.000	-0.029	0.143
-402.238	-132.421	-0.549	0.071
-401.223	73.969	-0.323	0.341
-400.209	750.079	-0.153	0.416
-399.194	254.586	-0.116	-0.198
-398.179	-104.910	-0.423	0.097
-397.165	-97.361	0.077	0.020
-396.150	386.353	-0.173	-0.359
-395.136	-200.000	0.033	0.201
-394.121	-162.074	-0.341	0.017
-393.106	800.000	0.086	-0.377
-392.092	-38.387	0.213	-0.113
-391.077	-200.000	0.011	-0.074
-390.063	123.782	0.110	0.139
-389.048	72.243	-0.160	-0.168
-388.033	-200.000	-0.003	0.400
-387.019	-149.498	0.232	0.018
-386.004	-76.483	-0.017	0.006
-384.990	-110.958	-0.223	0.046
-383.975	-191.271	0.174	-0.002
-382.960	-126.364	-0.147	0.022
-381.946	-200.000	0.044	0.350
-380.931	414.572	-0.184	0.394
-379.917	430.599	0.039	-0.086
-378.902	309.831	-0.069	-0.130
-377.888	452.280	0.119	0.264
-376.873	-91.187	-0.332	-0.095
-375.858	-121.511	-0.099	-0.016
-374.844	232.534	0.201	-0.331
-373.829	230.694	0.106	-0.173
-372.815	-95.778	0.075	-0.020
-371.800	-139.860	0.212	-0.023
-370.785	-50.144	-0.216	-0.103
-369.771	75.403	0.121	-0.128
-368.756	-200.000	0.035	-0.249
-367.742	-155.784	0.215	0.014
-366.727	-139.220	0.318	0.034
-365.712	8.856	-0.063	-0.048
-364.698	-128.457	-0.124	-0.018
-363.683	-166.979	0.112	0.005
-362.669	320.557	0.187	-0.356
-361.654	-120.288	0.372	-0.064
-360.639	709.715	0.040	0.105
-359.625	-200.000	-0.033	-0.279
-358.610	-158.768	-0.519	-0.030
-357.596	800.000	-0.100	0.362
-356.581	-191.897	-0.266	-0.003
-355.566	-47.226	-0.286	-0.140
-354.552	800.000	0.063	0.224
-353.537	-59.172	0.223	-0.096
-352.523	-57.165	0.158	-0.070
-351.508	111.348	0.155	-0.187
-350.493	-68.326	-0.297	-0.116
-349.479	-73.290	0.166	0.061
-348.464	-152.142	0.230	0.017
-347.450	-116.305	-0.228	-0.042
-346.435	-8.171	0.198	-0.133
-345.420	-70.198	0.151	-0.057
-344.406	287.066	0.092	0.167
-343.391	163.822	0.170	-0.239
-342.377	611.597	0.025	0.063
-341.362	405.373	0.153	0.323
-340.348	800.000	0.055	0.156
-339.333	-173.737	0.269	0.008
-338.318	-17.377	-0.228	-0.144
-337.304	133.294	0.081	-0.105
-336.289	-32.939	0.114	0.063
-335.275	34.390	-0.147	0.129
-334.260	800.000	-0.072	-0.229
-333.245	-119.575	-0.077	-0.013
-332.231	-24.378	0.108	0.064
-331.216	-174.403	0.118	0.003
-330.202	180.401	-0.114	0.168
-329.187	460.285	0.097	0.215
-328.172	22.590	0.208	-0.171
-327.158	73.974	-0.127	0.133
-326.143	800.000	0.054	0.178
-325.129	96.609	-0.201	-0.230
-324.114	-126.399	0.143	0.021
-323.099	-116.595	-0.108	-0.020
-322.085	-147.036	-0.129	0.011
-321.070	-200.000	-0.003	-0.105
-320.056	-200.000	0.030	-0.219
-319.041	254.831	0.206	0.354
-318.026	-8.848	0.232	0.156
-317.012	-9.080	-0.026	-0.017
-315.997	800.000	0.099	0.395
-314.983	125.593	0.290	0.366
-313.968	48.119	0.004	-0.004
-312.953	-114.404	0.101	0.019
-311.939	132.161	-0.188	0.242
-310.924	-128.497	0.525	0.074
-309.910	70.995	-0.089	0.092
-308.895	81.548	-0.121	0.131
-307.880	666.958	-0.090	0.233
-306.866	-64.670	0.369	-0.150
-305.851	-107.422	-0.167	0.037
-304.837	38.625	0.191	-0.170
-303.822	327.669	-0.104	-0.199
-302.807	128.650	-0.135	0.172
-301.793	800.000	0.032	-0.109
-300.778	42.542	-0.242	0.220
-299.764	363.024	0.052	0.104
-298.749	800.000	0.070	0.257
-297.735	-66.066	0.137	-0.055
-296.720	-51.701	0.322	-0.150
-295.705	121.265	-0.186	0.231
-294.691	132.072	-0.128	0.165
-293.676	95.574	-0.126	-0.143
-292.662	-200.000	0.004	-0.116
-291.647	391.604	0.027	-0.056
-290.632	84.045	-0.064	0.070
-289.618	700.125	-0.093	-0.243
-288.603	800.000	0.045	-0.138
-287.589	4.236	0.273	0.200
-286.574	-10.346	-0.208	0.138
-285.559	35.786	0.298	-0.262
-284.545	-103.424	0.219	0.051
-283.530	-200.000	-0.015	0.127
-282.516	15.270	0.183	0.143
-281.501	-200.000	0.023	0.156
-280.486	-46.767	-0.117	0.057
-279.472	-95.663	0.121	0.032
-278.457	29.473	0.116	0.099
-277.443	170.008	-0.257	-0.367
-276.428	77.255	0.325	-0.346
-275.413	800.000	-0.040	0.144
-274.399	-200.000	0.012	-0.262
-273.384	-200.000	-0.056	0.328
-272.370	-123.214	0.163	0.026
-271.355	800.000	-0.066	-0.277
-270.340	394.673	-0.039	0.081
-269.326	800.000	0.105	-0.370
-268.311	800.000	0.073	-0.204
-267.297	-51.249	-0.260	0.122
-266.282	-133.533	0.152	-0.019
-265.267	119.475	-0.018	0.022
-264.253	-19.885	0.339	-0.209
-263.238	-200.000	-0.021	-0.260
-262.224	-113.259	-0.175	-0.034
-261.209	-200.000	0.052	0.418
-260.195	337.847	0.062	0.121
-259.180	-1.457	0.267	0.188
-258.165	80.443	0.234	0.251
-257.151	-59.855	-0.177	-0.075
-256.136	-92.510	0.311	-0.087
-255.122	-17.812	-0.112	0.070
-254.107	67.854	-0.150	0.153
-253.092	-115.841	-0.228	-0.043
-252.078	366.240	-0.029	0.059
-251.063	-102.394	-0.222	0.053
-250.049	-200.000	0.016	-0.071
-249.034	489.324	-0.090	-0.205
-248.019	316.327	-0.071	-0.134
-247.005	800.000	0.117	0.340
-245.990	-29.388	-0.048	0.027
-244.976	-200.000	0.003	-0.153
-243.961	-200.000	0.032	0.258
-242.946	101.035	0.037	0.043
-241.932	-49.848	-0.179	-0.085
-240.917	-97.041	0.102	0.027
-239.903	-95.122	0.130	-0.035
-238.888	-200.000	-0.037	0.268
-237.873	-91.812	-0.166	0.047
-236.859	-57.348	0.158	0.069
-235.844	142.381	-0.148	-0.196
-234.830	-129.058	0.168	0.024
-233.815	-200.000	-0.014	-0.160
-232.800	250.347	0.198	-0.334
-231.786	-14.091	0.362	0.233
-230.771	-137.502	0.205	0.023
-229.757	389.737	-0.065	0.135
-228.742	301.080	-0.057	0.105
-227.727	-140.339	0.222	-0.023
-226.713	800.000	-0.032	-0.101
-225.698	-111.039	0.451	-0.092
-224.684	-40.195	0.295	0.153
-223.669	-67.970	0.123	-0.048
-222.655	40.834	-0.037	0.033
-221.640	48.812	-0.049	0.046
-220.625	15.189	0.122	0.095
-219.611	-131.665	0.213	0.028
-218.596	347.543	0.183	-0.358
-217.582	83.319	-0.140	-0.152
-216.567	85.013	-0.145	0.159
-215.552	414.844	0.066	0.140
-214.538	127.887	0.047	-0.060
-213.523	52.867	0.192	0.183
-212.509	369.108	-0.046	0.092
-211.494	281.854	0.049	-0.087
-210.479	-200.000	0.021	0.184
-209.465	-50.557	-0.121	0.057
-208.450	155.183	0.113	-0.155
-207.436	118.191	0.229	0.282
-206.421	-200.000	-0.006	-0.046
-205.406	89.496	-0.332	0.369
-204.392	-42.883	-0.079	-0.040
-203.377	-200.000	0.051	0.320
-202.363	-200.000	0.002	-0.051
-201.348	-200.000	-0.013	0.405
-200.333	800.000	-0.054	-0.212
-199.319	36.760	-0.244	-0.215
-198.304	-200.000	0.018	-0.116
-197.290	-71.188	-0.376	-0.141
-196.275	-125.360	0.160	-0.024
-195.260	81.030	0.300	0.322
-194.246	72.375	0.080	-0.083
-193.231	800.000	-0.033	0.138
-192.217	349.859	0.082	0.161
-191.202	-18.110	0.042	-0.026
-190.187	149.886	0.138	0.187
-189.173	800.000	-0.058	0.225
-188.158	291.270	0.156	0.283
-187.144	185.656	0.054	-0.079
-186.129	-67.266	-0.203	0.080
-185.114	35.386	0.275	0.240
-184.100	-147.464	0.123	-0.010
-183.085	124.219	-0.097	-0.121
-182.071	-25.312	-0.165	-0.097
-181.056	800.000	0.131	-0.368
-180.042	-43.358	0.158	-0.079
-179.027	-22.524	0.124	0.074
-178.012	235.381	-0.015	-0.025
-176.998	-200.000	0.008	-0.130
-175.983	-23.554	0.013	-0.008
-174.969	-188.449	-0.107	0.001
-173.954	-24.704	0.440	-0.260
-172.939	169.071	0.110	0.156
-171.925	302.787	0.105	0.194
-170.910	-171.956	-0.395	-0.013
-169.896	-104.612	-0.465	-0.107
-168.881	-149.155	-0.302	-0.024
-167.866	-105.719	-0.353	0.079
-166.852	235.302	-0.092	-0.152
-165.837	800.000	-0.022	0.087
-164.823	-120.142	-0.395	0.067
-163.808	121.886	0.067	-0.083
-162.793	-129.237	0.343	-0.047
-161.779	394.804	-0.049	-0.101
-160.764	-167.967	0.293	-0.011
-159.750	-25.482	-0.152	-0.089
-158.735	-114.852	0.387	-0.073
-157.720	-70.168	0.267	0.101
-156.706	137.786	-0.086	-0.112
-155.691	29.653	0.160	-0.135
-154.677	-133.289	-0.133	-0.017
-153.662	-188.707	-0.225	-0.003
-152.647	280.020	-0.143	0.254
-151.633	-71.625	0.372	-0.138
-150.618	706.868	0.052	0.137
-149.604	-183.251	-0.115	-0.002
-148.589	-124.874	-0.097	-0.015
-147.574	-200.000	0.003	-0.084
-146.560	76.149	0.195	-0.205
-145.545	289.818	-0.073	-0.132
-144.531	240.681	0.138	-0.229
-143.516	173.121	0.083	0.119
-142.502	-18.905	-0.277	0.172
-141.487	-200.000	0.057	0.338
-140.472	-193.038	0.350	0.003
-139.458	209.261	0.080	0.125
-138.443	-129.196	-0.231	0.032
-137.429	662.368	0.106	-0.271
-136.414	-200.000	-0.029	-0.478
-135.399	77.506	-0.012	-0.013
-134.385	-119.358	-0.411	0.071
-133.370	46.732	-0.100	0.093
-132.356	-200.000	0.013	-0.122
-131.341	429.170	-0.140	-0.301
-130.326	800.000	-0.039	-0.128
-129.312	21.602	0.127	-0.103
-128.297	800.000	0.112	-0.332
-127.283	100.358	-0.060	0.069
-126.268	-88.162	0.496	0.147
-125.253	676.090	-0.032	-0.083
-124.239	800.000	-0.018	-0.060
-123.224	191.824	0.083	-0.124
-122.210	-99.936	0.161	0.040
