DTS Sentinel unit serial number:	SN413079Multiplexer serial number:	ORYXHardware model number:	OX4-SRSoftware version number:	ORYX F/W v4.00 Oryx Data Collector v3.7.2.0data status	okinstallation	princeton_trtdifferential loss correction	single-endedforward channel	channel 3reverse channel	N/Adate	2019/09/12time	01:14:11forward acquisition time	60.00reverse acquisition time	0.00gamma	496.2192k internal	0.2320k external	0.2320temperature offset calibration	1.0067default loss term (dB/km)	0.3790temperature slope calibration	1.0000multiplexer offset coefficient	1.0000multiplexer slope coefficient	1.0000fibre end	0.00T internal ref (°C)	33.05T ext. ref 1 (°C)	2.07T ext. ref 2 (°C)	27.90length (m)	temperature (°C)	Stokes	anti-Stokes-747.200	-95.848	0.297	0.080
-746.185	362.890	-0.138	0.279
-745.171	330.291	-0.028	-0.055
-744.156	202.386	0.175	0.274
-743.142	-200.000	0.029	-0.496
-742.127	-33.428	0.306	0.171
-741.112	68.699	-0.093	0.096
-740.098	255.036	-0.180	0.311
-739.083	-82.392	0.266	-0.087
-738.069	317.912	-0.083	0.158
-737.054	74.797	0.117	0.125
-736.039	-200.000	-0.075	0.342
-735.025	-18.293	0.481	0.304
-734.010	-38.060	-0.372	-0.200
-732.996	-200.000	0.056	-0.299
-731.981	-43.393	0.129	-0.066
-730.966	340.511	0.103	-0.203
-729.952	0.727	-0.270	0.196
-728.937	-130.933	0.274	-0.037
-727.923	-10.330	-0.193	-0.129
-726.908	40.036	-0.259	0.235
-725.894	65.069	-0.269	0.275
-724.879	71.596	-0.067	0.070
-723.864	-200.000	0.033	-0.313
-722.850	87.688	-0.069	0.077
-721.835	267.799	-0.035	0.062
-720.821	435.283	-0.108	0.236
-719.806	7.755	0.155	0.117
-718.791	89.477	-0.192	0.216
-717.777	243.671	-0.029	-0.048
-716.762	-200.000	0.000	-0.215
-715.748	-200.000	-0.000	-0.281
-714.733	-122.206	-0.154	-0.026
-713.718	432.146	-0.151	-0.331
-712.704	800.000	-0.095	-0.301
-711.689	-112.728	-0.408	0.082
-710.675	289.602	0.204	-0.374
-709.660	-200.000	-0.012	0.056
-708.645	-200.000	0.010	0.187
-707.631	-168.182	-0.243	0.010
-706.616	-200.000	-0.039	-0.308
-705.602	-200.000	0.038	-0.254
-704.587	-37.802	0.205	0.110
-703.572	177.522	-0.203	0.298
-702.558	101.957	0.091	-0.107
-701.543	655.372	0.077	-0.198
-700.529	-200.000	-0.059	-0.365
-699.514	47.184	-0.259	-0.244
-698.499	112.748	0.061	-0.075
-697.485	156.859	0.041	0.057
-696.470	-94.592	-0.038	0.011
-695.456	266.604	0.168	-0.296
-694.441	151.479	-0.155	0.213
-693.426	-113.171	0.379	-0.075
-692.412	353.035	-0.229	-0.459
-691.397	-115.888	-0.186	-0.035
-690.383	-75.433	-0.141	-0.051
-689.368	469.327	0.170	0.386
-688.354	-175.150	-0.403	0.011
-687.339	-96.563	0.089	-0.024
-686.324	-200.000	-0.025	-0.315
-685.310	19.053	-0.065	0.053
-684.295	-184.138	-0.018	0.000
-683.281	39.150	0.191	0.172
-682.266	800.000	0.026	0.112
-681.251	13.323	-0.180	0.141
-680.237	-70.401	0.324	0.124
-679.222	-94.322	-0.015	0.004
-678.208	-132.563	0.202	-0.026
-677.193	-16.119	0.095	-0.061
-676.178	-200.000	-0.009	0.227
-675.164	-50.837	0.133	0.063
-674.149	773.275	0.020	-0.056
-673.135	-24.819	-0.054	-0.032
-672.120	425.614	-0.155	-0.337
-671.105	-80.308	-0.309	0.104
-670.091	247.793	0.096	0.163
-669.076	-200.000	0.071	-0.390
-668.062	81.772	0.175	-0.191
-667.047	-94.036	0.115	0.032
-666.032	762.713	-0.063	-0.173
-665.018	318.898	-0.063	-0.119
-664.003	6.274	-0.209	-0.157
-662.989	-110.914	-0.289	-0.060
-661.974	629.996	0.078	0.198
-660.959	-58.604	-0.187	0.082
-659.945	800.000	-0.063	-0.183
-658.930	800.000	0.040	0.148
-657.916	-200.000	0.070	0.329
-656.901	-200.000	0.005	-0.157
-655.886	-111.175	0.219	-0.045
-654.872	800.000	-0.088	-0.285
-653.857	79.274	-0.132	-0.143
-652.843	-7.411	0.168	0.115
-651.828	-107.299	0.376	0.083
-650.814	-133.606	0.209	0.026
-649.799	-200.000	-0.012	-0.087
-648.784	66.906	0.023	-0.024
-647.770	23.429	-0.102	-0.085
-646.755	-28.927	-0.286	0.165
-645.741	-27.243	-0.158	0.093
-644.726	280.464	-0.136	-0.245
-643.711	-200.000	-0.005	0.104
-642.697	547.698	-0.039	0.095
-641.682	58.054	0.125	0.123
-640.668	108.738	-0.073	0.088
-639.653	-200.000	-0.009	-0.138
-638.638	-100.296	-0.291	-0.073
-637.624	-50.455	0.142	0.068
-636.609	-126.843	-0.196	0.029
-635.595	68.451	-0.048	-0.050
-634.580	-131.974	0.174	0.023
-633.565	131.479	-0.148	0.192
-632.551	-70.157	0.266	-0.102
-631.536	-200.000	-0.007	-0.248
-630.522	-200.000	0.015	-0.150
-629.507	800.000	0.054	0.202
-628.492	44.954	-0.096	0.089
-627.478	-200.000	0.009	-0.241
-626.463	279.501	0.071	-0.128
-625.449	-25.700	0.091	0.054
-624.434	107.102	-0.070	0.084
-623.419	-72.634	0.071	-0.026
-622.405	800.000	-0.033	-0.110
-621.390	115.608	0.159	-0.196
-620.376	-178.052	0.355	0.008
-619.361	-200.000	0.010	0.113
-618.346	85.770	0.211	0.234
-617.332	800.000	-0.037	0.115
-616.317	255.676	0.063	-0.109
-615.303	-49.203	0.122	0.058
-614.288	395.548	0.028	-0.058
-613.273	-151.115	-0.306	0.023
-612.259	76.259	0.069	0.074
-611.244	-103.129	0.247	0.059
-610.230	-200.000	-0.011	-0.195
-609.215	-200.000	0.004	-0.092
-608.201	7.887	-0.215	0.162
-607.186	800.000	-0.011	0.040
-606.171	800.000	0.085	-0.281
-605.157	-200.000	0.001	-0.137
-604.142	654.137	0.075	-0.193
-603.128	-147.892	0.407	-0.034
-602.113	-82.024	-0.334	-0.110
-601.098	266.293	0.091	0.159
-600.084	-189.061	-0.298	0.004
-599.069	332.741	-0.173	-0.335
-598.055	305.883	-0.240	-0.449
-597.040	13.587	-0.043	0.034
-596.025	239.299	0.196	-0.327
-595.011	-200.000	0.057	-0.312
-593.996	305.685	-0.123	0.229
-592.982	-200.000	-0.000	-0.324
-591.967	-200.000	0.057	-0.356
-590.952	49.309	0.045	0.042
-589.938	-93.214	-0.240	-0.067
-588.923	800.000	-0.064	-0.220
-587.909	-42.505	-0.196	-0.101
-586.894	419.838	0.073	0.158
-585.879	168.986	-0.152	0.218
-584.865	479.983	0.153	0.349
-583.850	258.329	0.125	0.216
-582.836	800.000	-0.074	-0.232
-581.821	596.916	-0.019	-0.046
-580.806	-200.000	-0.026	0.160
-579.792	253.736	0.034	0.058
-578.777	-136.238	-0.269	0.032
-577.763	68.086	-0.194	0.199
-576.748	-73.396	0.336	-0.123
-575.733	15.220	0.198	0.156
-574.719	-19.081	-0.046	-0.028
-573.704	81.824	0.351	-0.381
-572.690	246.219	-0.101	-0.170
-571.675	800.000	-0.034	0.114
-570.661	6.504	-0.427	0.318
-569.646	-154.312	0.379	-0.026
-568.631	43.753	-0.207	-0.190
-567.617	38.492	-0.099	0.089
-566.602	-111.325	-0.127	-0.026
-565.588	-98.064	-0.119	0.031
-564.573	353.921	0.174	0.347
-563.558	-141.739	-0.067	0.007
-562.544	-200.000	-0.258	0.000
-561.529	530.839	0.172	-0.408
-560.515	-26.076	0.060	0.035
-559.500	-94.645	-0.401	-0.109
-558.485	100.094	-0.162	-0.189
-557.471	-49.117	0.071	-0.034
-556.456	-72.123	0.096	-0.036
-555.442	113.498	0.203	0.247
-554.427	-146.712	0.384	0.033
-553.412	800.000	0.123	-0.359
-552.398	193.248	0.155	-0.235
-551.383	-131.022	-0.150	0.020
-550.369	74.502	-0.152	-0.160
-549.354	379.528	0.061	0.124
-548.339	-145.269	-0.343	0.031
-547.325	-200.000	-0.002	0.083
-546.310	-200.000	0.012	0.142
-545.296	-123.591	0.013	-0.002
-544.281	-200.000	0.007	-0.078
-543.266	180.890	0.047	0.070
-542.252	-49.858	0.368	0.175
-541.237	-133.142	-0.225	-0.029
-540.223	800.000	0.134	0.411
-539.208	94.809	0.053	0.061
-538.193	38.569	0.198	0.177
-537.179	-117.382	0.247	0.045
-536.164	-143.396	0.200	0.019
-535.150	-110.973	0.109	-0.022
-534.135	142.285	-0.148	0.197
-533.121	-111.678	0.339	-0.069
-532.106	-200.000	0.032	0.179
-531.091	647.329	-0.090	-0.231
-530.077	800.000	-0.035	0.148
-529.062	297.812	0.162	0.299
-528.048	9.518	0.251	0.190
-527.033	-148.000	-0.255	0.021
-526.018	8.762	0.050	-0.038
-525.004	241.105	-0.029	0.049
-523.989	800.000	-0.040	0.162
-522.975	30.849	-0.137	0.117
-521.960	-123.240	0.068	0.011
-520.945	39.591	-0.269	-0.241
-519.931	549.914	0.162	-0.388
-518.916	-85.234	-0.140	-0.044
-517.902	81.696	-0.062	-0.067
-516.887	96.218	0.134	0.153
-515.872	-151.758	-0.371	0.027
-514.858	-200.000	-0.004	0.074
-513.843	217.094	-0.129	0.206
-512.829	26.693	0.135	0.113
-511.814	800.000	-0.098	-0.272
-510.799	-57.547	-0.028	0.012
-509.785	-63.163	0.388	-0.160
-508.770	-38.023	0.199	-0.106
-507.756	-12.181	-0.081	-0.053
-506.741	-34.790	-0.091	-0.050
-505.726	164.374	-0.158	0.222
-504.712	800.000	-0.041	-0.118
-503.697	-200.000	0.015	-0.385
-502.683	155.887	0.061	0.085
-501.668	-200.000	0.010	-0.102
-500.653	15.222	0.103	0.081
-499.639	-31.664	-0.224	0.126
-498.624	800.000	0.084	-0.294
-497.610	800.000	0.064	0.225
-496.595	-146.449	0.044	0.004
-495.581	-54.265	-0.256	-0.116
-494.566	428.190	-0.111	-0.239
-493.551	150.909	-0.152	0.208
-492.537	222.733	-0.020	0.032
-491.522	-200.000	-0.004	-0.340
-490.508	-200.000	0.025	0.287
-489.493	123.760	-0.216	-0.271
-488.478	664.852	0.035	-0.091
-487.464	132.790	-0.154	-0.199
-486.449	302.159	0.077	-0.142
-485.435	-25.537	-0.245	0.145
-484.420	-200.000	-0.023	0.122
-483.405	482.901	-0.047	0.108
-482.391	445.472	-0.043	0.095
-481.376	93.120	-0.064	0.072
-480.362	-73.361	0.115	-0.042
-479.347	-67.861	0.046	0.018
-478.332	206.077	-0.141	-0.219
-477.318	-114.944	-0.241	-0.046
-476.303	-141.943	0.211	0.021
-475.289	-82.873	0.214	0.069
-474.274	-117.356	-0.331	0.060
-473.259	-160.267	-0.129	-0.007
-472.245	115.260	0.096	0.117
-471.230	599.599	0.146	-0.363
-470.216	24.759	-0.109	0.091
-469.201	-6.694	0.288	0.196
-468.186	-200.000	-0.004	-0.036
-467.172	-100.453	-0.057	-0.014
-466.157	800.000	0.075	0.253
-465.143	-148.464	0.109	-0.009
-464.128	-136.908	-0.320	0.037
-463.113	12.917	0.060	-0.046
-462.099	-200.000	-0.029	-0.218
-461.084	396.810	0.052	0.108
-460.070	362.125	-0.099	-0.199
-459.055	276.570	0.120	-0.212
-458.040	-27.379	-0.101	0.059
-457.026	144.288	0.048	-0.064
-456.011	800.000	0.041	-0.168
-454.997	227.471	-0.105	-0.171
-453.982	0.634	0.210	0.150
-452.968	-130.496	-0.081	0.011
-451.953	-98.671	-0.057	0.014
-450.938	-139.494	-0.262	0.028
-449.924	800.000	0.060	0.202
-448.909	-97.837	0.265	-0.068
-447.895	-134.170	-0.221	-0.027
-446.880	5.325	-0.472	-0.348
-445.865	-200.000	0.062	-0.605
-444.851	293.828	0.159	-0.291
-443.836	-200.000	-0.031	0.177
-442.822	227.763	0.112	0.183
-441.807	-200.000	-0.310	0.001
-440.792	-33.995	0.075	-0.041
-439.778	-160.855	-0.223	0.012
-438.763	-34.711	0.172	0.094
-437.749	-122.651	-0.377	0.061
-436.734	72.369	0.265	0.276
-435.719	95.668	0.038	-0.044
-434.705	-200.000	0.016	0.198
-433.690	-85.004	0.158	-0.049
-432.676	-66.690	0.103	0.041
-431.661	-33.288	0.225	-0.125
-430.646	-200.000	0.035	-0.240
-429.632	4.725	0.069	-0.050
-428.617	-200.000	-0.016	0.327
-427.603	48.279	0.237	0.222
-426.588	146.598	0.137	0.184
-425.573	55.567	-0.235	0.227
-424.559	-90.948	0.375	0.108
-423.544	18.798	0.058	-0.046
-422.530	76.299	0.249	0.263
-421.515	11.324	0.096	0.073
-420.500	165.131	-0.120	-0.170
-419.486	96.514	0.054	-0.062
-418.471	-70.119	0.080	-0.031
-417.457	800.000	0.066	0.254
-416.442	800.000	-0.024	-0.081
-415.428	523.197	-0.107	0.250
-414.413	48.020	0.196	0.183
-413.398	-117.316	0.180	-0.033
-412.384	-200.000	-0.022	-0.124
-411.369	800.000	0.115	-0.343
-410.355	-20.962	-0.088	0.054
-409.340	-93.749	0.224	0.062
-408.325	30.444	-0.057	-0.049
-407.311	-17.724	-0.157	-0.099
-406.296	800.000	0.061	-0.258
-405.282	70.199	-0.114	-0.118
-404.267	-85.995	-0.335	0.103
-403.252	-133.210	0.420	0.053
-402.238	800.000	0.045	-0.138
-401.223	-200.000	0.008	-0.111
-400.209	-200.000	0.003	0.090
-399.194	-66.981	-0.277	-0.109
-398.179	225.159	-0.264	-0.426
-397.165	213.513	-0.093	0.147
-396.150	478.858	0.155	0.349
-395.136	-17.161	-0.234	-0.147
-394.121	342.625	-0.056	-0.110
-393.106	-200.000	0.019	-0.097
-392.092	410.767	-0.056	-0.119
-391.077	-200.000	0.040	0.378
-390.063	-124.819	0.067	-0.010
-389.048	-57.513	0.404	-0.177
-388.033	127.559	-0.223	-0.282
-387.019	425.120	-0.149	0.321
-386.004	-193.077	-0.150	0.001
-384.990	-54.925	-0.173	-0.078
-383.975	53.506	-0.315	-0.301
-382.960	-118.670	0.140	0.025
-381.946	792.566	0.014	0.038
-380.931	-200.000	-0.010	0.145
-379.917	-200.000	0.009	-0.132
-378.902	-39.048	0.279	-0.146
-377.888	15.963	-0.056	0.044
-376.873	-53.250	0.173	0.079
-375.858	721.881	0.206	0.546
-374.844	46.305	-0.110	-0.102
-373.829	-152.811	-0.294	0.021
-372.815	-200.000	-0.009	-0.445
-371.800	73.129	-0.083	-0.087
-370.785	250.836	-0.108	-0.183
-369.771	-90.417	-0.172	0.050
-368.756	718.447	-0.095	0.251
-367.742	-200.000	0.050	-0.257
-366.727	217.255	-0.132	-0.209
-365.712	-4.666	0.439	-0.302
-364.698	-200.000	0.028	0.532
-363.683	-200.000	0.022	0.247
-362.669	243.680	-0.288	-0.482
-361.654	-36.354	0.190	-0.102
-360.639	-80.740	0.116	-0.038
-359.625	-200.000	0.058	0.313
-358.610	-35.071	-0.232	0.126
-357.596	41.647	0.113	0.102
-356.581	15.718	0.160	-0.125
-355.566	-200.000	-0.005	0.265
-354.552	-200.000	-0.027	-0.254
-353.537	-67.251	-0.151	-0.059
-352.523	13.094	0.256	0.197
-351.508	-79.471	0.069	0.023
-350.493	-200.000	0.001	-0.065
-349.479	-200.000	-0.007	0.245
-348.464	212.641	0.116	-0.182
-347.450	354.045	-0.159	-0.315
-346.435	785.841	0.077	-0.209
-345.420	-200.000	0.049	0.360
-344.406	-81.165	-0.224	0.074
-343.391	-33.199	0.378	-0.209
-342.377	800.000	-0.100	0.284
-341.362	800.000	-0.051	0.193
-340.348	-78.266	0.144	-0.049
-339.333	-200.000	0.044	-0.263
-338.318	83.388	0.270	-0.292
-337.304	-27.557	-0.329	-0.190
-336.289	482.237	-0.030	-0.069
-335.275	713.976	-0.079	0.208
-334.260	-126.387	0.117	-0.017
-333.245	483.847	0.060	-0.135
-332.231	-23.052	0.362	-0.217
-331.216	616.227	-0.125	0.312
-330.202	51.794	-0.129	-0.123
-329.187	-200.000	0.047	0.000
-328.172	-200.000	0.048	0.318
-327.158	482.739	-0.102	0.231
-326.143	47.152	-0.078	0.072
-325.129	152.224	-0.125	0.169
-324.114	71.191	0.313	0.323
-323.099	57.241	0.068	0.066
-322.085	-200.000	-0.061	0.271
-321.070	-109.653	-0.161	0.034
-320.056	70.454	-0.226	0.232
-319.041	-200.000	-0.018	-0.228
-318.026	-200.000	-0.016	-0.205
-317.012	-85.576	0.237	0.073
-315.997	-58.429	-0.291	-0.126
-314.983	-200.000	0.010	-0.065
-313.968	68.311	-0.139	-0.142
-312.953	800.000	-0.090	0.257
-311.939	-152.665	-0.284	-0.020
-310.924	-117.753	0.261	0.047
-309.910	-139.572	-0.322	0.034
-308.895	104.690	0.135	0.158
-307.880	-200.000	-0.013	0.095
-306.866	-93.373	0.078	-0.021
-305.851	-117.760	0.175	0.031
-304.837	1.453	0.029	0.021
-303.822	342.407	0.104	-0.202
-302.807	-200.000	-0.018	-0.211
-301.793	-200.000	-0.019	-0.357
-300.778	800.000	0.085	-0.240
-299.764	134.515	0.325	0.418
-298.749	-200.000	-0.003	-0.191
-297.735	-142.703	0.471	0.046
-296.720	103.303	0.122	-0.142
-295.705	-200.000	0.002	0.344
-294.691	53.034	-0.092	-0.088
-293.676	18.116	-0.172	0.136
-292.662	800.000	0.040	0.135
-291.647	5.139	0.293	-0.215
-290.632	-123.376	-0.188	0.030
-289.618	-23.763	-0.114	-0.068
-288.603	-124.056	0.176	0.027
-287.589	-128.612	0.564	0.079
-286.574	-116.481	-0.081	-0.015
-285.559	114.514	0.044	-0.053
-284.545	159.888	0.045	-0.063
-283.530	-103.382	0.107	0.025
-282.516	158.571	0.189	-0.261
-281.501	-200.000	-0.045	-0.248
-280.486	671.846	-0.108	-0.278
-279.472	-141.044	-0.199	0.020
-278.457	-200.000	0.060	0.342
-277.443	0.180	-0.163	-0.116
-276.428	800.000	-0.062	0.218
-275.413	-140.847	0.372	0.038
-274.399	-25.109	-0.157	0.093
-273.384	-67.316	0.113	0.044
-272.370	44.559	0.111	-0.101
-271.355	-200.000	-0.050	-0.253
-270.340	13.871	0.099	0.077
-269.326	-200.000	0.046	-0.234
-268.311	-40.323	-0.227	0.117
-267.297	-200.000	0.014	0.070
-266.282	4.072	0.230	0.167
-265.267	236.348	-0.078	0.127
-264.253	133.582	-0.042	-0.054
-263.238	-154.951	0.195	-0.013
-262.224	306.708	0.083	-0.153
-261.209	62.204	0.162	-0.161
-260.195	-38.572	0.234	0.123
-259.180	34.991	0.160	0.139
-258.165	545.196	-0.057	0.136
-257.151	32.619	0.186	0.160
-256.136	-200.000	-0.015	0.250
-255.122	26.184	0.028	-0.024
-254.107	-200.000	0.003	-0.485
-253.092	41.821	-0.080	0.072
-252.078	231.416	-0.029	-0.046
-251.063	-7.687	-0.149	0.100
-250.049	-200.000	0.008	0.287
-249.034	-50.703	0.171	0.080
-248.019	-200.000	-0.041	0.313
-247.005	-8.020	-0.097	-0.065
-245.990	800.000	0.057	-0.163
-244.976	48.910	0.155	0.145
-243.961	-200.000	0.031	0.352
-242.946	-200.000	0.017	0.227
-241.932	-200.000	-0.013	0.296
-240.917	800.000	-0.083	0.331
-239.903	-20.292	-0.084	-0.051
-238.888	75.976	-0.221	-0.232
-237.873	800.000	-0.055	-0.162
-236.859	-128.742	0.215	-0.030
-235.844	178.659	0.044	-0.063
-234.830	800.000	-0.140	0.411
-233.815	-99.565	-0.178	0.044
-232.800	-200.000	0.044	0.236
-231.786	-70.373	-0.052	-0.019
-230.771	-71.186	-0.222	-0.083
-229.757	-49.257	0.363	-0.172
-228.742	559.806	-0.037	0.088
-227.727	20.138	-0.186	0.149
-226.713	-72.432	0.212	-0.078
-225.698	554.164	-0.042	0.100
-224.684	-200.000	0.008	0.340
-223.669	-65.390	0.393	0.156
-222.655	23.346	-0.243	-0.198
-221.640	-200.000	0.047	-0.471
-220.625	-200.000	0.015	-0.282
-219.611	42.989	0.148	-0.134
-218.596	697.724	0.146	0.380
-217.582	270.241	0.049	0.085
-216.567	84.063	-0.147	0.159
-215.552	104.210	-0.283	0.330
-214.538	2.453	0.133	-0.095
-213.523	17.831	0.220	0.173
-212.509	-92.847	0.062	0.017
-211.494	-113.873	0.219	0.042
-210.479	-200.000	0.013	-0.200
-209.465	84.254	0.195	-0.211
-208.450	-200.000	0.005	0.132
-207.436	-65.861	0.290	-0.115
-206.421	-61.974	-0.147	-0.061
-205.406	800.000	-0.105	-0.434
-204.392	-76.908	0.127	-0.044
-203.377	-78.424	-0.427	0.145
-202.363	40.004	0.086	-0.076
-201.348	736.380	0.065	0.172
-200.333	-53.693	-0.372	0.168
-199.319	246.468	0.057	0.095
-198.304	205.820	0.055	0.085
-197.290	361.036	-0.098	0.194
-196.275	-69.716	-0.427	0.162
-195.260	-179.124	-0.268	-0.006
-194.246	65.835	-0.118	-0.118
-193.231	800.000	-0.054	-0.162
-192.217	165.795	-0.177	0.248
-191.202	-52.873	-0.058	-0.026
-190.187	-90.044	-0.224	-0.065
-189.173	-200.000	-0.040	-0.250
-188.158	384.971	0.128	-0.262
-187.144	525.242	0.074	-0.172
-186.129	-200.000	0.010	-0.066
-185.114	-15.833	-0.026	-0.016
-184.100	800.000	0.072	-0.247
-183.085	21.862	-0.157	0.127
-182.071	-200.000	0.072	0.551
-181.056	-45.177	0.259	0.127
-180.042	-100.161	0.109	-0.027
-179.027	284.789	0.141	-0.251
-178.012	-146.793	-0.391	-0.033
-176.998	-200.000	-0.019	0.104
-175.983	-125.224	-0.380	0.057
-174.969	-3.910	-0.112	-0.077
-173.954	673.073	0.049	0.126
-172.939	800.000	-0.025	-0.097
-171.925	-200.000	-0.005	-0.037
-170.910	-200.000	-0.027	0.185
-169.896	33.674	-0.067	-0.058
-168.881	206.902	-0.090	0.138
-167.866	-97.323	0.085	-0.022
-166.852	14.415	-0.138	-0.106
-165.837	800.000	0.054	-0.172
-164.823	-21.679	-0.177	-0.107
-163.808	-200.000	0.013	0.144
-162.793	32.602	-0.035	0.030
-161.779	-18.362	0.139	-0.086
-160.764	-88.376	-0.084	-0.025
-159.750	-51.878	0.233	0.107
-158.735	407.989	0.060	0.125
-157.720	-91.614	-0.138	-0.039
-156.706	-99.588	-0.655	-0.162
-155.691	475.507	0.104	0.233
-154.677	259.448	-0.085	0.144
-153.662	800.000	0.076	0.286
-152.647	-35.235	0.139	-0.074
-151.633	-200.000	0.017	0.214
-150.618	73.116	0.111	-0.115
-149.604	-86.818	-0.226	-0.068
-148.589	399.189	0.114	-0.235
-147.574	-169.929	-0.211	0.007
-146.560	-159.122	0.258	0.014
-145.545	255.550	0.093	0.158
-144.531	380.019	0.194	0.392
-143.516	659.167	-0.056	-0.142
-142.502	508.267	-0.026	-0.059
-141.487	52.615	0.036	-0.034
-140.472	-42.488	-0.423	-0.213
-139.458	800.000	0.133	0.436
-138.443	800.000	0.061	-0.202
-137.429	-31.957	0.231	0.128
-136.414	-98.383	-0.245	0.062
-135.399	-200.000	0.002	-0.043
-134.385	35.795	0.134	-0.117
-133.370	83.994	-0.239	0.258
-132.356	-33.026	-0.342	0.188
-131.341	588.490	-0.119	0.289
-130.326	13.753	-0.225	-0.173
-129.312	167.108	-0.233	0.327
-128.297	320.202	-0.070	0.131
-127.283	-200.000	-0.042	0.302
-126.268	-183.451	0.303	-0.005
-125.253	-68.041	-0.271	0.104
-124.239	-125.406	-0.094	-0.014
-123.224	-200.000	0.017	-0.090
-122.210	91.281	0.142	-0.158
-121.195	121.534	-0.180	0.221
