DTS Sentinel unit serial number:	SN413079Multiplexer serial number:	ORYXHardware model number:	OX4-SRSoftware version number:	ORYX F/W v4.00 Oryx Data Collector v3.7.2.0data status	okinstallation	princeton_trtdifferential loss correction	single-endedforward channel	channel 3reverse channel	N/Adate	2019/09/12time	18:24:03forward acquisition time	15.00reverse acquisition time	0.00gamma	496.2192k internal	0.2317k external	0.2317temperature offset calibration	1.0099default loss term (dB/km)	0.3790temperature slope calibration	1.0000multiplexer offset coefficient	1.0000multiplexer slope coefficient	1.0000fibre end	0.00T internal ref (°C)	33.37T ext. ref 1 (°C)	2.98T ext. ref 2 (°C)	27.96length (m)	temperature (°C)	Stokes	anti-Stokes-747.200	23.327	0.887	-0.738
-746.185	800.000	-0.149	0.586
-745.171	-36.296	-0.210	0.115
-744.156	305.472	-0.386	0.726
-743.142	-88.767	0.820	0.247
-742.127	363.801	0.337	-0.685
-741.112	-81.722	-0.573	-0.190
-740.098	-82.057	-0.086	-0.029
-739.083	353.362	-0.219	0.441
-738.069	193.235	-0.268	0.411
-737.054	-200.000	0.140	0.782
-736.039	168.493	0.312	0.450
-735.025	-138.929	-0.561	-0.062
-734.010	-59.241	-0.810	-0.353
-732.996	89.249	-0.238	0.269
-731.981	-148.531	-0.710	-0.059
-730.966	800.000	0.253	-1.101
-729.952	-89.588	-0.222	0.066
-728.937	-200.000	0.045	0.264
-727.923	-136.892	0.532	-0.062
-726.908	-200.000	-0.054	-0.275
-725.894	-140.842	0.399	0.042
-724.879	-22.182	0.381	0.234
-723.864	146.675	-0.342	-0.465
-722.850	-85.316	-0.174	0.055
-721.835	-200.000	-0.060	-1.155
-720.821	-200.000	0.227	0.001
-719.806	-200.000	-0.132	-0.705
-718.791	-121.852	-0.315	-0.053
-717.777	800.000	0.096	0.346
-716.762	-13.596	0.192	0.126
-715.748	-114.545	0.390	-0.076
-714.733	-78.976	-0.570	-0.196
-713.718	62.258	-0.366	0.369
-712.704	-96.656	-0.103	0.028
-711.689	800.000	0.122	-0.435
-710.675	-114.516	-0.395	-0.077
-709.660	-30.761	0.314	-0.180
-708.645	-9.707	0.696	0.469
-707.631	-140.140	0.527	0.056
-706.616	123.017	-0.394	-0.498
-705.602	203.291	0.461	-0.721
-704.587	-200.000	-0.025	0.247
-703.572	-5.938	-0.410	0.283
-702.558	-95.657	-0.440	0.119
-701.543	511.688	0.128	-0.301
-700.529	483.005	0.162	0.372
-699.514	-200.000	0.166	-0.812
-698.499	-86.633	-0.470	0.145
-697.485	-78.476	1.037	-0.359
-696.470	80.979	0.325	-0.354
-695.456	-1.099	0.068	0.048
-694.441	684.157	-0.127	0.335
-693.426	34.036	-0.271	-0.239
-692.412	55.125	0.306	0.299
-691.397	5.867	-0.130	-0.097
-690.383	800.000	-0.271	-0.853
-689.368	-200.000	0.127	-0.880
-688.354	122.415	-0.057	-0.072
-687.339	23.131	-0.511	-0.423
-686.324	-131.425	-0.766	-0.102
-685.310	-171.837	0.648	0.021
-684.295	315.806	-0.375	-0.715
-683.281	-91.614	0.425	-0.122
-682.266	82.365	-0.047	0.051
-681.251	800.000	-0.217	0.644
-680.237	-200.000	0.192	-1.005
-679.222	-43.062	-0.705	-0.361
-678.208	-70.769	0.353	0.135
-677.193	45.644	-0.315	0.294
-676.178	-112.621	-0.898	-0.181
-675.164	65.003	-0.074	-0.076
-674.149	-11.924	-0.567	-0.376
-673.135	-21.618	-0.312	-0.192
-672.120	37.418	-0.093	0.083
-671.105	245.424	-0.402	-0.682
-670.091	800.000	-0.175	0.525
-669.076	-200.000	-0.080	-0.613
-668.062	800.000	0.054	-0.159
-667.047	800.000	0.145	-0.412
-666.032	-112.234	0.458	-0.093
-665.018	442.000	-0.250	-0.551
-664.003	715.986	-0.199	0.532
-662.989	7.534	-0.129	-0.098
-661.974	-116.298	-0.420	-0.078
-660.959	-3.134	-0.664	-0.467
-659.945	-85.839	0.198	-0.062
-658.930	800.000	-0.126	0.361
-657.916	332.047	0.285	0.554
-656.901	800.000	0.207	-0.721
-655.886	28.798	0.276	-0.236
-654.872	-84.562	0.496	-0.158
-653.857	148.786	-0.186	-0.253
-652.843	78.572	0.508	-0.548
-651.828	800.000	0.151	-0.530
-650.814	-99.461	-0.144	0.037
-649.799	187.424	-0.149	-0.224
-648.784	800.000	-0.073	-0.220
-647.770	86.865	-0.240	-0.267
-646.755	-200.000	0.231	-1.047
-645.741	31.017	-0.690	0.597
-644.726	-200.000	-0.030	-0.413
-643.711	260.507	-0.215	-0.375
-642.697	-200.000	-0.147	0.861
-641.682	800.000	-0.172	0.684
-640.668	800.000	0.203	-0.585
-639.653	-171.917	-0.108	-0.004
-638.638	-18.381	-0.592	0.373
-637.624	28.657	-0.163	-0.139
-636.609	-144.789	-0.401	0.037
-635.595	-39.694	-0.330	-0.174
-634.580	-87.856	0.289	-0.088
-633.565	184.538	-0.212	-0.317
-632.551	38.080	0.136	0.122
-631.536	193.538	-0.119	-0.182
-630.522	304.385	0.374	0.699
-629.507	-73.299	0.691	0.255
-628.492	-61.934	0.589	-0.248
-627.478	-144.052	0.465	-0.044
-626.463	-97.660	0.383	-0.100
-625.449	199.844	0.133	0.206
-624.434	-143.201	0.360	-0.035
-623.419	-90.597	0.273	-0.080
-622.405	-46.385	0.302	-0.149
-621.390	555.982	-0.029	-0.070
-620.376	-49.345	0.308	-0.148
-619.361	800.000	0.198	-0.723
-618.346	60.726	-0.699	0.698
-617.332	800.000	0.063	0.236
-616.317	122.675	0.309	0.389
-615.303	158.620	0.591	0.827
-614.288	96.450	-0.245	-0.283
-613.273	78.752	0.138	0.149
-612.259	0.167	0.853	0.613
-611.244	55.598	-0.592	0.578
-610.230	131.569	-0.377	0.489
-609.215	-200.000	0.094	0.481
-608.201	55.537	-0.409	-0.399
-607.186	-94.612	-0.365	-0.100
-606.171	-125.123	-0.156	-0.024
-605.157	173.402	0.173	0.251
-604.142	-103.421	0.258	0.061
-603.128	-79.250	0.096	-0.033
-602.113	-46.773	0.494	0.244
-601.098	-133.197	1.046	0.133
-600.084	24.409	-0.299	-0.249
-599.069	20.816	-0.327	0.267
-598.055	-102.292	0.121	-0.029
-597.040	-126.467	0.222	0.033
-596.025	85.561	0.246	-0.272
-595.011	-71.694	0.720	0.270
-593.996	-200.000	-0.137	0.692
-592.982	-200.000	0.067	-0.562
-591.967	-107.199	-0.514	0.114
-590.952	79.278	-0.241	0.260
-589.938	-6.091	-0.367	0.253
-588.923	-59.693	-0.372	0.161
-587.909	-17.610	0.218	-0.138
-586.894	-200.000	-0.040	-0.481
-585.879	116.647	0.258	-0.318
-584.865	-50.540	-0.191	0.091
-583.850	-200.000	-0.014	0.411
-582.836	-25.645	-0.898	0.533
-581.821	-200.000	0.021	-0.814
-580.806	-200.000	0.126	-0.659
-579.792	105.002	-0.636	0.755
-578.777	-200.000	-0.067	-0.377
-577.763	-125.323	-0.833	-0.128
-576.748	398.489	-0.138	-0.290
-575.733	-33.272	0.432	-0.241
-574.719	638.646	0.108	-0.276
-573.704	20.062	0.391	-0.317
-572.690	681.283	-0.295	-0.772
-571.675	-200.000	-0.126	-1.030
-570.661	12.674	-0.363	-0.282
-569.646	-93.213	-0.619	0.173
-568.631	-200.000	0.123	-0.751
-567.617	-43.058	-0.717	-0.365
-566.602	156.016	-0.130	-0.180
-565.588	284.782	0.213	0.385
-564.573	677.507	0.381	-0.995
-563.558	-200.000	-0.044	0.423
-562.544	144.988	-0.455	0.611
-561.529	-161.283	-0.368	0.019
-560.515	143.249	0.311	0.416
-559.500	800.000	0.067	-0.242
-558.485	80.326	-0.453	-0.490
-557.471	-98.371	0.218	-0.056
-556.456	-19.058	0.756	0.472
-555.442	-47.415	-0.402	-0.196
-554.427	281.819	-0.112	-0.202
-553.412	-200.000	-0.026	0.667
-552.398	553.218	-0.270	0.652
-551.383	-55.976	-0.849	-0.380
-550.369	177.911	-0.280	0.410
-549.354	-63.200	-0.272	0.112
-548.339	36.373	-0.704	-0.623
-547.325	15.998	0.284	-0.224
-546.310	800.000	0.069	0.232
-545.296	304.450	-0.159	-0.297
-544.281	-200.000	-0.110	0.561
-543.266	53.760	-0.238	-0.230
-542.252	-192.191	0.590	-0.006
-541.237	-173.002	-0.792	-0.025
-540.223	127.375	-0.415	-0.529
-539.208	-200.000	0.006	-0.363
-538.193	138.564	0.304	-0.401
-537.179	74.781	0.289	-0.306
-536.164	-99.888	-0.639	-0.160
-535.150	10.462	0.624	0.478
-534.135	60.797	0.635	-0.633
-533.121	225.240	-0.074	0.120
-532.106	-114.932	0.432	0.082
-531.091	111.079	-0.320	-0.387
-530.077	-200.000	0.020	-0.259
-529.062	9.817	-0.396	-0.301
-528.048	-83.054	0.536	-0.173
-527.033	28.887	-0.382	-0.325
-526.018	-200.000	-0.063	0.932
-525.004	135.212	-0.314	-0.409
-523.989	99.721	0.274	0.318
-522.975	-141.065	0.894	-0.092
-521.960	800.000	0.206	0.744
-520.945	196.956	-0.183	0.280
-519.931	-67.296	-0.407	-0.161
-518.916	-130.130	0.506	-0.069
-517.902	-10.740	-0.723	0.479
-516.887	-200.000	0.039	0.209
-515.872	52.970	-0.356	0.342
-514.858	-69.893	0.478	0.183
-513.843	-200.000	-0.017	-0.422
-512.829	-200.000	-0.003	0.593
-511.814	-122.909	0.427	-0.069
-510.799	-108.549	0.365	-0.079
-509.785	-74.381	0.101	-0.037
-508.770	272.126	0.675	-1.194
-507.756	109.860	-0.294	0.354
-506.741	146.320	0.478	0.644
-505.726	-99.014	0.907	-0.231
-504.712	125.319	-0.581	-0.735
-503.697	-200.000	0.117	0.582
-502.683	-161.490	0.436	0.023
-501.668	-59.381	-0.646	0.279
-500.653	-19.015	0.128	0.080
-499.639	-35.851	-0.831	-0.451
-498.624	-43.744	-0.182	-0.092
-497.610	10.329	0.152	-0.116
-496.595	-200.000	-0.103	-0.713
-495.581	347.716	-0.320	0.632
-494.566	-200.000	-0.029	-0.256
-493.551	800.000	0.306	-1.055
-492.537	309.914	0.158	0.296
-491.522	800.000	0.163	0.485
-490.508	171.026	0.399	0.573
-489.493	31.047	-0.195	-0.168
-488.478	-67.832	-0.558	-0.219
-487.464	641.526	0.246	0.628
-486.449	-200.000	0.029	0.679
-485.435	-167.846	0.428	-0.017
-484.420	129.551	-0.594	0.761
-483.405	-168.821	-0.422	0.016
-482.391	1.268	-0.259	0.186
-481.376	9.969	-0.200	-0.152
-480.362	-200.000	0.173	-1.054
-479.347	-161.756	-0.506	0.026
-478.332	68.412	-0.369	-0.379
-477.318	-114.916	0.602	-0.115
-476.303	-33.194	-0.180	0.100
-475.289	534.313	-0.305	0.723
-474.274	-88.195	0.388	-0.116
-473.259	-86.473	-0.268	-0.083
-472.245	-200.000	0.064	-0.504
-471.230	-200.000	0.029	-0.245
-470.216	-1.971	-0.240	-0.169
-469.201	-120.490	0.914	0.155
-468.186	-88.978	-0.546	-0.162
-467.172	-80.723	1.217	0.405
-466.157	-51.777	-0.139	0.065
-465.143	38.621	0.204	0.183
-464.128	-200.000	0.233	1.289
-463.113	-16.820	0.370	0.234
-462.099	269.276	0.162	-0.284
-461.084	-167.672	-0.283	-0.011
-460.070	-109.974	-0.433	0.091
-459.055	-200.000	0.012	0.156
-458.040	36.760	0.388	-0.343
-457.026	-74.494	0.822	0.296
-456.011	-135.710	-1.086	-0.129
-454.997	-161.444	0.356	0.018
-453.982	161.489	0.523	-0.733
-452.968	800.000	-0.053	0.212
-451.953	-200.000	0.038	-0.565
-450.938	-119.353	-0.890	0.155
-449.924	-87.860	0.515	0.155
-448.909	12.703	-0.499	0.386
-447.895	-200.000	0.010	0.065
-446.880	-124.115	0.263	-0.041
-445.865	800.000	-0.151	0.495
-444.851	-200.000	-0.044	-0.280
-443.836	483.203	0.256	0.583
-442.822	79.309	-0.247	0.265
-441.807	-200.000	-0.066	0.613
-440.792	120.523	-0.361	-0.449
-439.778	172.335	-0.389	-0.559
-438.763	144.099	-0.426	-0.568
-437.749	-87.209	0.222	-0.067
-436.734	-77.947	0.519	-0.179
-435.719	-93.268	0.342	-0.095
-434.705	266.601	-0.286	0.500
-433.690	-200.000	0.063	-0.367
-432.676	-90.077	0.420	-0.122
-431.661	-61.730	0.890	0.373
-430.646	-110.903	-0.483	-0.099
-429.632	157.377	-0.669	0.925
-428.617	-200.000	-0.065	-0.774
-427.603	617.466	-0.109	-0.274
-426.588	-120.017	-0.461	-0.079
-425.573	273.978	-0.158	-0.279
-424.559	235.018	-0.178	-0.294
-423.544	-67.247	0.650	-0.256
-422.530	271.062	0.332	0.584
-421.515	82.686	-0.120	-0.131
-420.500	-147.325	-0.703	-0.060
-419.486	191.101	-0.214	0.322
-418.471	157.380	0.280	0.387
-417.457	-93.997	-0.467	0.128
-416.442	-20.736	0.332	0.204
-415.428	-200.000	-0.038	0.343
-414.413	-77.223	0.740	-0.258
-413.398	-200.000	-0.047	0.486
-412.384	236.540	-0.296	0.490
-411.369	800.000	0.114	-0.435
-410.355	-59.212	-0.733	0.315
-409.340	800.000	-0.150	0.531
-408.325	-125.757	-0.603	0.091
-407.311	-143.555	0.249	0.024
-406.296	-52.535	0.386	-0.178
-405.282	448.680	-0.152	-0.335
-404.267	-3.935	-0.331	0.229
-403.252	-18.845	-0.581	-0.361
-402.238	-200.000	0.064	-0.588
-401.223	-58.435	-0.157	0.068
-400.209	800.000	0.206	-0.894
-399.194	-15.729	-0.746	-0.475
-398.179	230.015	0.176	0.287
-397.165	-37.901	0.677	-0.359
-396.150	171.949	0.415	-0.595
-395.136	-200.000	0.050	0.742
-394.121	800.000	-0.060	0.209
-393.106	-3.490	-0.210	0.146
-392.092	-62.356	-0.128	0.053
-391.077	-2.354	-0.250	-0.175
-390.063	800.000	0.214	-0.661
-389.048	111.650	-0.222	-0.268
-388.033	50.329	0.325	-0.307
-387.019	183.865	0.776	1.147
-386.004	-45.152	0.719	0.357
-384.990	-40.924	-0.354	0.183
-383.975	-35.941	1.126	0.608
-382.960	76.613	-0.069	-0.073
-381.946	-8.881	0.563	-0.377
-380.931	-200.000	0.142	1.137
-379.917	-28.795	-0.319	0.183
-378.902	-200.000	0.028	-0.294
-377.888	-200.000	0.083	0.933
-376.873	-84.946	-0.849	0.266
-375.858	-140.260	0.687	-0.072
-374.844	281.069	0.262	-0.468
-373.829	348.454	-0.145	0.285
-372.815	-151.353	0.239	-0.018
-371.800	168.031	-0.195	-0.277
-370.785	-144.640	-0.353	-0.032
-369.771	-147.686	0.618	-0.052
-368.756	225.047	-0.229	0.369
-367.742	114.309	0.187	0.228
-366.727	-23.853	0.148	-0.088
-365.712	-184.447	0.268	0.004
-364.698	-44.949	0.774	0.384
-363.683	239.541	-0.211	0.350
-362.669	721.625	-0.178	0.473
-361.654	320.045	-0.268	-0.507
-360.639	-74.941	0.671	0.240
-359.625	290.897	-0.177	-0.320
-358.610	-131.710	0.882	0.115
-357.596	63.595	0.233	0.233
-356.581	-200.000	0.026	-0.221
-355.566	-200.000	-0.007	-0.034
-354.552	-114.332	0.579	-0.111
-353.537	-194.794	-0.662	0.005
-352.523	-36.339	-0.581	0.312
-351.508	123.960	0.293	0.367
-350.493	191.853	-0.473	-0.711
-349.479	55.724	-0.301	0.291
-348.464	234.515	-0.377	0.619
-347.450	259.573	-0.542	-0.933
-346.435	-200.000	0.009	-0.126
-345.420	-59.147	-0.627	-0.269
-344.406	800.000	-0.260	-1.003
-343.391	800.000	0.183	0.521
-342.377	-200.000	-0.005	-0.470
-341.362	106.351	-0.400	-0.473
-340.348	315.235	-0.199	-0.374
-339.333	716.138	-0.230	0.607
-338.318	60.960	-0.651	0.643
-337.304	-200.000	0.011	-0.649
-336.289	114.481	0.510	0.619
-335.275	48.797	-0.211	0.197
-334.260	-49.569	-0.684	0.324
-333.245	104.035	-0.500	0.586
-332.231	17.434	-0.204	-0.162
-331.216	79.419	-0.380	0.406
-330.202	-129.466	0.985	0.136
-329.187	329.271	-0.279	0.534
-328.172	-200.000	0.009	0.324
-327.158	37.318	0.231	-0.203
-326.143	800.000	0.217	-0.597
-325.129	-177.025	0.544	0.014
-324.114	78.456	0.774	0.824
-323.099	-88.020	-0.486	-0.145
-322.085	-143.852	0.095	-0.009
-321.070	506.175	-0.049	-0.113
-320.056	800.000	0.202	0.745
-319.041	-35.074	-0.434	0.236
-318.026	99.632	0.432	-0.498
-317.012	-200.000	0.003	0.050
-315.997	800.000	0.167	-0.468
-314.983	-200.000	0.128	0.565
-313.968	800.000	-0.046	-0.182
-312.953	219.796	0.051	-0.081
-311.939	-145.587	1.024	-0.091
-310.924	800.000	0.213	0.738
-309.910	-142.544	-1.000	0.098
-308.895	19.726	0.520	0.416
-307.880	-200.000	-0.054	-0.277
-306.866	441.312	0.009	-0.019
-305.851	22.416	0.265	-0.216
-304.837	-200.000	-0.338	0.001
-303.822	205.663	0.447	-0.692
-302.807	-102.012	-1.207	0.290
-301.793	800.000	-0.199	-0.758
-300.778	800.000	0.189	-0.608
-299.764	-143.625	0.572	-0.054
-298.749	-51.044	-0.631	-0.294
-297.735	140.682	0.182	0.239
-296.720	-200.000	-0.020	-0.592
-295.705	447.331	0.316	-0.692
-294.691	10.708	0.371	0.282
-293.676	262.764	0.189	-0.326
-292.662	164.241	-0.137	-0.193
-291.647	-55.771	0.457	0.203
-290.632	-40.459	-0.765	-0.395
-289.618	23.147	0.678	0.554
-288.603	69.367	-0.248	0.254
-287.589	112.568	0.204	-0.245
-286.574	-36.976	-0.208	0.111
-285.559	415.877	0.222	0.471
-284.545	9.965	-0.174	0.132
-283.530	800.000	0.200	0.809
-282.516	26.108	0.672	0.557
-281.501	31.551	0.376	-0.322
-280.486	43.079	-0.215	0.195
-279.472	587.347	-0.126	0.309
-278.457	-15.354	-0.459	-0.292
-277.443	-44.183	-0.522	-0.261
-276.428	59.206	-0.265	0.259
-275.413	-67.067	0.477	0.187
-274.399	-200.000	0.025	-0.319
-273.384	-200.000	0.057	-0.261
-272.370	800.000	-0.081	0.285
-271.355	143.945	-0.298	-0.395
-270.340	-86.419	0.753	-0.230
-269.326	-200.000	0.009	0.488
-268.311	219.879	-0.294	0.467
-267.297	-200.000	-0.055	0.250
-266.282	181.694	-0.668	0.977
-265.267	-200.000	-0.061	0.286
-264.253	130.868	0.305	-0.389
-263.238	-200.000	-0.007	-0.234
-262.224	800.000	0.119	-0.425
-261.209	247.745	-0.448	-0.752
-260.195	6.734	1.400	-1.035
-259.180	65.322	0.351	0.353
-258.165	-200.000	-0.077	-1.160
-257.151	-200.000	0.034	-0.374
-256.136	-200.000	-0.139	0.705
-255.122	-129.165	0.797	-0.110
-254.107	-200.000	0.179	-0.928
-253.092	-192.788	-1.037	0.009
-252.078	-152.669	1.213	0.086
-251.063	-109.233	-0.440	-0.093
-250.049	23.025	-0.773	-0.630
-249.034	-165.131	0.943	-0.041
-248.019	-82.753	-0.412	0.132
-247.005	33.430	-0.696	0.600
-245.990	-101.719	0.324	-0.078
-244.976	-13.985	-0.624	-0.400
-243.961	-13.897	0.614	0.394
-242.946	-77.511	-0.167	-0.058
-241.932	-38.525	0.596	-0.313
-240.917	-69.123	0.414	-0.158
-239.903	677.046	0.215	-0.555
-238.888	-95.383	-0.117	0.031
-237.873	-33.183	-0.322	-0.177
-236.859	-175.346	-0.390	0.011
-235.844	-53.076	0.498	0.227
-234.830	-200.000	-0.016	0.129
-233.815	-171.722	-0.617	-0.020
-232.800	800.000	-0.010	0.035
-231.786	480.618	0.156	-0.351
-230.771	265.461	0.060	0.104
-229.757	-93.987	0.446	0.121
-228.742	-32.211	0.870	0.482
-227.727	-157.217	-0.663	0.040
-226.713	800.000	0.179	-0.675
-225.698	800.000	0.146	-0.432
-224.684	258.747	-0.561	-0.960
-223.669	110.431	-0.027	-0.032
-222.655	95.703	0.061	0.070
-221.640	95.925	0.220	0.250
-220.625	-180.050	-0.050	0.001
-219.611	-145.042	-0.415	-0.037
-218.596	-152.033	0.475	0.034
-217.582	-83.875	0.200	-0.063
-216.567	-112.944	-0.443	-0.087
-215.552	-41.902	-0.444	-0.225
-214.538	800.000	-0.315	-1.059
-213.523	800.000	-0.032	-0.136
-212.509	108.629	0.419	-0.496
-211.494	-52.639	0.266	-0.122
-210.479	-118.231	0.382	-0.067
-209.465	-200.000	0.028	0.318
-208.450	-53.478	0.566	-0.257
-207.436	-200.000	-0.003	-0.920
-206.421	-51.775	-0.565	-0.261
-205.406	-50.431	0.253	0.118
-204.392	-149.513	0.691	0.054
-203.377	-136.100	0.883	-0.103
-202.363	-11.932	-0.808	0.525
-201.348	10.535	-0.231	0.175
-200.333	29.617	-0.123	-0.103
-199.319	217.691	0.486	0.768
-198.304	441.266	-0.144	0.313
-197.290	263.855	0.216	0.372
-196.275	-200.000	-0.108	0.923
-195.260	38.444	0.237	-0.210
-194.246	637.429	-0.136	0.343
-193.231	800.000	-0.048	0.168
-192.217	750.537	0.308	0.823
-191.202	173.554	-0.102	0.146
-190.187	142.074	-0.302	0.397
-189.173	-69.157	-0.176	-0.067
-188.158	-6.372	0.380	0.257
-187.144	71.556	-0.452	-0.465
-186.129	800.000	0.242	0.680
-185.114	149.787	-0.034	0.046
-184.100	-51.647	-0.433	0.200
-183.085	-14.751	0.270	0.172
-182.071	121.276	-0.572	-0.706
-181.056	-166.942	-0.404	0.016
-180.042	-200.000	0.062	0.376
-179.027	38.432	-0.627	-0.554
-178.012	128.288	0.130	0.164
-176.998	-38.651	0.794	0.415
-175.983	-182.953	-0.280	-0.005
-174.969	-149.239	-0.281	-0.022
-173.954	164.238	-0.027	-0.037
-172.939	195.398	0.113	-0.170
-171.925	62.104	-0.488	-0.482
-170.910	298.659	0.194	0.354
-169.896	-100.164	0.390	-0.096
-168.881	7.486	-0.375	-0.277
-167.866	97.562	-0.222	-0.252
-166.852	800.000	-0.136	-0.394
-165.837	449.290	-0.330	-0.720
-164.823	800.000	-0.239	-0.769
-163.808	-200.000	-0.037	0.408
-162.793	-133.446	0.266	-0.033
-161.779	617.899	0.140	0.347
-160.764	800.000	0.046	0.152
-159.750	31.634	0.549	0.468
-158.735	-73.028	0.246	0.090
-157.720	-162.784	-0.264	-0.013
-156.706	127.241	0.144	0.181
-155.691	-125.650	-0.412	0.062
-154.677	-59.748	0.178	0.075
-153.662	-200.000	-0.102	0.491
-152.647	800.000	-0.095	0.282
-151.633	-155.734	-0.205	0.013
-150.618	-0.507	-0.327	0.230
-149.604	-200.000	0.094	0.838
-148.589	-200.000	0.626	-0.001
-147.574	-18.791	0.899	0.554
-146.560	-116.239	0.771	-0.141
-145.545	16.563	-0.177	0.138
-144.531	-87.531	-0.438	-0.131
-143.516	117.619	-0.725	-0.882
-142.502	639.136	0.073	-0.184
-141.487	-200.000	-0.040	-0.479
-140.472	800.000	-0.081	-0.270
-139.458	-29.914	-0.466	-0.263
-138.443	-200.000	0.074	1.172
-137.429	-154.348	-0.528	0.035
-136.414	-91.945	-0.458	-0.128
-135.399	238.802	-0.146	-0.239
-134.385	-144.502	-0.648	-0.059
-133.370	-0.270	0.153	0.107
-132.356	186.379	0.267	-0.393
-131.341	-200.000	0.194	-1.184
-130.326	77.978	-0.679	-0.716
-129.312	800.000	0.148	-0.427
-128.297	162.060	0.329	0.456
-127.283	-200.000	0.098	0.458
-126.268	40.165	0.136	-0.121
-125.253	471.656	0.340	-0.756
-124.239	-200.000	0.003	-0.095
-123.224	175.796	-0.434	0.622
-122.210	-200.000	0.075	0.374
