DTS Sentinel unit serial number:	SN413079Multiplexer serial number:	ORYXHardware model number:	OX4-SRSoftware version number:	ORYX F/W v4.00 Oryx Data Collector v3.7.2.0data status	okinstallation	princeton_trtdifferential loss correction	single-endedforward channel	channel 3reverse channel	N/Adate	2019/09/12time	17:02:11forward acquisition time	60.00reverse acquisition time	0.00gamma	496.2192k internal	0.2312k external	0.2312temperature offset calibration	1.0088default loss term (dB/km)	0.3790temperature slope calibration	1.0000multiplexer offset coefficient	1.0000multiplexer slope coefficient	1.0000fibre end	0.00T internal ref (°C)	35.66T ext. ref 1 (°C)	2.83T ext. ref 2 (°C)	28.87length (m)	temperature (°C)	Stokes	anti-Stokes-747.200	-20.335	-0.073	-0.045
-746.185	110.986	-0.171	0.209
-745.171	-200.000	0.006	-0.065
-744.156	-200.000	0.061	0.482
-743.142	-13.122	-0.390	0.257
-742.127	554.529	0.028	0.068
-741.112	800.000	0.021	0.068
-740.098	-200.000	-0.032	0.398
-739.083	253.024	0.098	0.170
-738.069	800.000	-0.082	0.295
-737.054	163.175	0.119	-0.170
-736.039	-126.174	0.237	-0.036
-735.025	431.920	0.074	0.162
-734.010	-39.908	-0.121	-0.064
-732.996	-20.744	-0.029	-0.018
-731.981	64.777	0.127	0.130
-730.966	800.000	0.057	0.241
-729.952	-48.374	-0.352	-0.172
-728.937	-156.204	-0.354	-0.023
-727.923	33.715	0.087	-0.077
-726.908	-62.219	-0.241	-0.102
-725.894	-53.241	0.173	-0.080
-724.879	800.000	0.029	-0.089
-723.864	-95.258	0.152	-0.041
-722.850	31.342	-0.253	-0.220
-721.835	-156.839	-0.009	-0.001
-720.821	-124.449	-0.054	-0.008
-719.806	217.914	-0.060	-0.098
-718.791	-165.139	-0.277	0.012
-717.777	-200.000	-0.039	-0.353
-716.762	3.307	-0.340	-0.251
-715.748	-200.000	0.010	0.182
-714.733	-200.000	-0.053	0.235
-713.718	-41.958	-0.379	-0.197
-712.704	751.135	0.130	-0.355
-711.689	-61.284	0.278	-0.119
-710.675	-50.281	-0.166	0.079
-709.660	-78.018	-0.387	0.135
-708.645	-72.874	-0.048	-0.018
-707.631	-37.036	0.139	0.076
-706.616	18.050	-0.208	-0.168
-705.602	-59.952	0.123	-0.053
-704.587	800.000	-0.019	-0.056
-703.572	-200.000	0.119	-0.546
-702.558	-200.000	0.018	-0.185
-701.543	20.629	-0.187	-0.153
-700.529	-68.622	0.367	0.144
-699.514	-59.687	-0.410	-0.178
-698.499	103.970	0.069	0.082
-697.485	239.775	0.173	0.292
-696.470	-146.211	-0.152	-0.014
-695.456	33.035	0.209	0.183
-694.441	390.602	-0.004	0.008
-693.426	404.020	-0.108	0.230
-692.412	-7.589	0.415	-0.284
-691.397	-92.974	0.241	0.068
-690.383	666.353	-0.019	-0.050
-689.368	150.322	-0.114	-0.157
-688.354	-151.970	-0.453	0.033
-687.339	47.968	0.087	-0.082
-686.324	800.000	0.081	0.308
-685.310	-134.153	0.119	0.015
-684.295	-200.000	0.233	0.000
-683.281	800.000	-0.075	-0.253
-682.266	492.333	-0.131	0.303
-681.251	-200.000	-0.018	0.303
-680.237	139.106	0.166	0.221
-679.222	-87.094	-0.290	-0.089
-678.208	1.095	-0.255	0.185
-677.193	20.291	0.084	-0.069
-676.178	-109.783	0.323	0.069
-675.164	-200.000	0.050	-0.230
-674.149	800.000	-0.055	-0.206
-673.135	-105.722	0.237	0.054
-672.120	-183.433	0.027	-0.000
-671.105	576.236	0.073	-0.181
-670.091	665.147	-0.144	0.376
-669.076	77.723	0.109	-0.118
-668.062	77.498	-0.129	-0.139
-667.047	31.557	-0.110	-0.095
-666.032	225.970	-0.168	-0.275
-665.018	-200.000	-0.003	0.162
-664.003	800.000	-0.028	-0.096
-662.989	-52.341	0.102	0.048
-661.974	-48.236	0.126	0.062
-660.959	8.347	-0.223	-0.170
-659.945	-34.076	-0.211	-0.118
-658.930	18.983	-0.180	-0.146
-657.916	385.740	0.144	-0.300
-656.901	-116.227	0.268	-0.050
-655.886	92.557	-0.074	-0.084
-654.872	57.947	-0.033	-0.033
-653.857	-57.976	-0.240	0.106
-652.843	-69.169	0.278	0.108
-651.828	-200.000	0.032	-0.173
-650.814	800.000	-0.093	0.267
-649.799	87.956	0.130	0.145
-648.784	-135.154	-0.309	-0.038
-647.770	-28.903	0.253	0.147
-646.755	-126.175	0.185	-0.028
-645.741	254.682	0.115	0.199
-644.726	-18.973	-0.175	-0.110
-643.711	-58.179	0.251	-0.111
-642.697	-200.000	-0.027	-0.263
-641.682	-200.000	-0.016	-0.161
-640.668	249.083	-0.072	-0.123
-639.653	-55.146	0.243	-0.111
-638.638	-133.254	0.104	0.013
-637.624	800.000	0.088	-0.314
-636.609	12.468	0.149	0.116
-635.595	25.934	-0.207	-0.175
-634.580	-13.880	0.129	-0.084
-633.565	1.641	0.153	-0.111
-632.551	800.000	0.128	0.463
-631.536	-140.573	-0.313	-0.033
-630.522	800.000	-0.022	-0.083
-629.507	-109.933	-0.197	0.042
-628.492	800.000	-0.016	0.055
-627.478	-96.739	0.141	-0.037
-626.463	28.286	0.132	0.113
-625.449	-117.964	-0.031	-0.006
-624.434	-11.897	-0.056	0.037
-623.419	21.488	-0.311	-0.256
-622.405	-146.206	-0.186	0.017
-621.390	-122.895	0.121	-0.020
-620.376	-47.308	-0.490	-0.241
-619.361	-161.396	-0.096	0.005
-618.346	-42.694	-0.374	0.192
-617.332	180.120	-0.069	-0.102
-616.317	212.252	-0.087	-0.138
-615.303	27.048	0.186	0.157
-614.288	-200.000	0.011	0.261
-613.273	-76.497	-0.284	-0.101
-612.259	-44.129	-0.114	-0.058
-611.244	-29.503	-0.051	-0.030
-610.230	143.364	-0.276	-0.371
-609.215	52.032	-0.128	-0.123
-608.201	800.000	-0.062	-0.210
-607.186	302.261	0.076	-0.141
-606.171	203.508	-0.074	-0.116
-605.157	-65.478	-0.387	-0.157
-604.142	484.188	0.074	0.171
-603.128	190.152	0.133	-0.202
-602.113	-51.754	-0.331	0.156
-601.098	35.894	-0.258	-0.229
-600.084	540.871	0.158	-0.380
-599.069	16.475	0.314	0.251
-598.055	68.913	-0.193	0.200
-597.040	434.762	0.188	0.413
-596.025	-184.709	-0.131	0.002
-595.011	26.087	0.095	-0.080
-593.996	-200.000	0.001	-0.047
-592.982	34.827	0.120	0.106
-591.967	414.215	0.117	0.250
-590.952	53.115	0.069	-0.066
-589.938	-110.168	-0.169	0.036
-588.923	-160.531	0.207	-0.011
-587.909	9.110	0.195	0.149
-586.894	-158.758	-0.121	-0.007
-585.879	-110.040	0.174	-0.037
-584.865	800.000	0.039	-0.155
-583.850	-200.000	-0.039	-0.439
-582.836	-49.526	-0.157	0.075
-581.821	-190.972	-0.291	-0.003
-580.806	159.177	0.246	-0.345
-579.792	800.000	-0.034	0.142
-578.777	672.694	0.055	0.144
-577.763	-128.315	-0.199	0.029
-576.748	86.067	0.189	-0.210
-575.733	13.349	0.145	0.113
-574.719	26.200	-0.338	-0.284
-573.704	-151.282	-0.068	0.005
-572.690	693.289	-0.115	-0.305
-571.675	-200.000	0.022	-0.168
-570.661	10.578	0.359	-0.276
-569.646	40.313	-0.254	-0.230
-568.631	697.179	0.111	-0.293
-567.617	-38.396	0.105	0.056
-566.602	-163.777	0.056	0.003
-565.588	-200.000	0.023	-0.125
-564.573	644.974	-0.094	0.241
-563.558	71.652	0.162	-0.170
-562.544	-200.000	-0.083	-0.393
-561.529	-200.000	-0.056	-0.341
-560.515	321.290	0.105	-0.202
-559.500	0.042	-0.257	-0.184
-558.485	45.987	-0.088	-0.082
-557.471	97.225	-0.135	0.156
-556.456	-69.438	-0.244	0.094
-555.442	-104.839	0.198	0.046
-554.427	73.612	0.110	0.116
-553.412	-200.000	0.044	-0.271
-552.398	-88.094	-0.133	-0.040
-551.383	-200.000	0.018	0.415
-550.369	-22.192	-0.139	-0.085
-549.354	-43.324	-0.429	-0.219
-548.339	201.678	-0.202	0.313
-547.325	25.694	-0.068	0.057
-546.310	295.888	0.025	-0.047
-545.296	800.000	0.019	-0.059
-544.281	10.735	0.145	0.111
-543.266	11.635	0.056	-0.044
-542.252	566.270	0.127	0.311
-541.237	-168.119	-0.047	0.002
-540.223	800.000	-0.056	0.199
-539.208	-63.579	0.138	-0.057
-538.193	-46.276	-0.173	0.086
-537.179	-75.082	0.370	0.133
-536.164	-22.324	-0.239	0.146
-535.150	-162.909	0.074	0.004
-534.135	800.000	-0.058	-0.251
-533.121	131.200	0.074	-0.095
-532.106	-6.027	-0.327	0.225
-531.091	4.109	-0.365	-0.269
-530.077	-0.060	-0.314	-0.225
-529.062	-98.569	0.322	0.083
-528.048	-84.025	-0.108	0.035
-527.033	13.579	-0.085	0.066
-526.018	-110.412	-0.055	-0.012
-525.004	180.547	0.169	0.250
-523.989	-95.255	0.373	-0.101
-522.975	-200.000	-0.010	0.073
-521.960	197.185	-0.119	-0.183
-520.945	-137.699	-0.171	0.019
-519.931	-17.599	-0.046	0.029
-518.916	57.226	-0.373	-0.366
-517.902	377.921	-0.010	0.020
-516.887	-80.285	0.128	-0.043
-515.872	-30.460	-0.173	-0.099
-514.858	800.000	0.005	-0.014
-513.843	-12.570	0.050	0.033
-512.829	-2.488	0.173	0.122
-511.814	-200.000	0.004	0.297
-510.799	136.199	0.139	0.183
-509.785	104.409	0.034	0.040
-508.770	416.071	-0.132	0.282
-507.756	-65.379	0.338	0.137
-506.741	684.892	0.032	-0.084
-505.726	109.639	-0.067	0.081
-504.712	-93.104	-0.262	0.073
-503.697	439.846	0.085	0.186
-502.683	-200.000	-0.019	-0.306
-501.668	-200.000	0.054	0.255
-500.653	-28.012	-0.478	-0.278
-499.639	-200.000	0.016	-0.166
-498.624	-41.183	0.192	-0.099
-497.610	95.946	-0.096	0.110
-496.595	-23.243	0.097	0.058
-495.581	75.026	-0.125	0.132
-494.566	-200.000	-0.042	0.273
-493.551	800.000	-0.082	0.275
-492.537	-48.935	-0.282	0.136
-491.522	76.797	0.018	0.019
-490.508	800.000	-0.042	-0.180
-489.493	800.000	-0.049	-0.136
-488.478	277.566	-0.086	0.153
-487.464	-75.222	0.112	-0.040
-486.449	166.201	-0.109	-0.155
-485.435	89.777	0.150	0.168
-484.420	-40.802	-0.065	0.034
-483.405	-33.772	0.189	-0.105
-482.391	258.101	0.139	-0.241
-481.376	-200.000	-0.044	0.390
-480.362	31.240	-0.223	0.193
-479.347	17.443	0.195	0.155
-478.332	800.000	0.132	0.380
-477.318	668.541	-0.070	0.181
-476.303	-34.602	0.190	-0.104
-475.289	800.000	0.087	0.250
-474.274	58.879	-0.130	-0.129
-473.259	-159.648	-0.203	-0.011
-472.245	0.815	-0.342	0.246
-471.230	-200.000	0.041	-0.283
-470.216	-200.000	0.024	0.260
-469.201	277.218	-0.044	-0.078
-468.186	-60.377	0.329	-0.141
-467.172	621.269	0.026	0.066
-466.157	-152.310	0.226	0.016
-465.143	624.328	0.173	0.437
-464.128	80.129	-0.052	-0.056
-463.113	-84.547	0.257	0.081
-462.099	-200.000	-0.068	0.352
-461.084	-13.225	0.038	0.025
-460.070	-86.722	0.130	-0.040
-459.055	53.553	-0.137	0.132
-458.040	155.474	-0.168	0.232
-457.026	50.951	-0.082	-0.078
-456.011	-98.003	-0.105	0.027
-454.997	-137.263	0.137	-0.016
-453.982	800.000	-0.063	0.272
-452.968	-25.722	-0.253	-0.150
-451.953	-87.270	-0.187	-0.057
-450.938	-70.289	0.151	0.058
-449.924	191.805	-0.140	-0.211
-448.909	-119.804	0.567	-0.098
-447.895	-121.754	0.146	-0.024
-446.880	-190.991	0.224	0.002
-445.865	800.000	0.061	-0.206
-444.851	-200.000	0.005	-0.086
-443.836	-69.646	-0.300	0.115
-442.822	-17.734	0.081	0.051
-441.807	-9.745	0.175	-0.117
-440.792	-200.000	-0.012	0.240
-439.778	109.792	-0.072	0.087
-438.763	151.503	-0.171	0.233
-437.749	800.000	0.038	-0.147
-436.734	125.283	0.146	0.185
-435.719	610.179	-0.098	-0.245
-434.705	175.414	-0.096	0.140
-433.690	-83.210	-0.115	-0.037
-432.676	318.954	0.104	0.198
-431.661	-15.736	0.368	0.235
-430.646	250.501	0.117	-0.199
-429.632	-147.084	0.116	0.010
-428.617	-196.614	0.195	0.001
-427.603	-60.011	0.084	-0.036
-426.588	788.111	0.035	-0.096
-425.573	-86.016	0.284	0.088
-424.559	-200.000	-0.027	-0.118
-423.544	91.123	0.043	-0.049
-422.530	-51.533	0.057	-0.027
-421.515	231.251	0.219	0.359
-420.500	10.566	0.216	0.165
-419.486	364.015	-0.126	-0.253
-418.471	397.759	-0.057	0.119
-417.457	800.000	-0.041	0.162
-416.442	-23.530	0.261	0.157
-415.428	-111.061	0.184	0.038
-414.413	-91.314	-0.189	-0.054
-413.398	800.000	-0.116	-0.434
-412.384	21.479	-0.149	0.121
-411.369	108.389	-0.280	0.335
-410.355	265.432	-0.129	-0.226
-409.340	-44.703	0.218	-0.109
-408.325	-94.933	0.189	0.051
-407.311	430.318	-0.135	0.292
-406.296	-14.813	0.161	-0.103
-405.282	17.964	0.136	0.108
-404.267	-81.704	0.212	0.070
-403.252	-77.854	0.285	-0.099
-402.238	-106.784	-0.065	0.015
-401.223	-200.000	-0.020	-0.086
-400.209	-70.935	0.049	-0.019
-399.194	-126.495	0.121	0.018
-398.179	81.867	0.160	0.173
-397.165	506.432	-0.099	-0.230
-396.150	20.681	0.208	-0.168
-395.136	55.413	0.364	-0.352
-394.121	3.813	0.171	-0.125
-393.106	267.227	-0.008	0.014
-392.092	-36.137	0.056	0.030
-391.077	259.024	0.012	0.021
-390.063	-166.413	0.107	-0.004
-389.048	289.448	-0.028	0.052
-388.033	102.244	-0.142	0.166
-387.019	800.000	0.055	0.240
-386.004	-200.000	-0.010	0.069
-384.990	-118.620	-0.240	0.042
-383.975	-200.000	0.064	-0.341
-382.960	129.279	0.078	-0.099
-381.946	42.019	0.139	0.126
-380.931	-97.623	0.119	-0.031
-379.917	31.744	0.225	0.194
-378.902	-27.197	-0.291	0.170
-377.888	-200.000	0.031	-0.411
-376.873	147.322	0.127	0.171
-375.858	218.543	0.043	0.069
-374.844	-44.297	0.254	0.127
-373.829	-91.927	-0.305	0.087
-372.815	800.000	-0.044	-0.156
-371.800	24.562	-0.142	-0.117
-370.785	-74.547	-0.244	-0.088
-369.771	-149.823	0.190	-0.015
-368.756	-63.614	-0.144	-0.059
-367.742	57.139	0.103	0.101
-366.727	475.454	0.229	0.516
-365.712	67.785	-0.181	-0.185
-364.698	222.076	0.133	0.213
-363.683	-106.521	-0.224	-0.050
-362.669	-112.538	-0.133	-0.026
-361.654	-71.101	0.179	0.067
-360.639	-87.121	-0.088	0.027
-359.625	6.601	-0.440	0.327
-358.610	-56.096	-0.222	-0.099
-357.596	800.000	0.046	-0.159
-356.581	112.047	-0.106	-0.128
-355.566	504.787	0.225	-0.520
-354.552	-97.276	0.563	0.147
-353.537	-200.000	0.088	0.388
-352.523	-52.132	-0.341	-0.158
-351.508	292.003	-0.024	-0.043
-350.493	390.685	0.107	0.221
-349.479	179.325	-0.137	0.201
-348.464	425.047	0.065	-0.140
-347.450	196.661	-0.111	-0.169
-346.435	-200.000	0.033	0.260
-345.420	-46.624	-0.306	0.150
-344.406	800.000	0.100	-0.307
-343.391	-125.193	0.157	-0.024
-342.377	165.760	0.031	0.043
-341.362	800.000	0.060	0.203
-340.348	-200.000	-0.038	-0.423
-339.333	-40.140	0.387	-0.202
-338.318	638.912	0.097	0.248
-337.304	27.351	-0.236	0.198
-336.289	109.604	0.021	0.025
-335.275	800.000	-0.034	-0.109
-334.260	-132.668	-0.237	0.030
-333.245	370.737	-0.096	-0.193
-332.231	-19.725	-0.152	0.094
-331.216	-200.000	0.029	0.299
-330.202	176.749	0.083	0.121
-329.187	190.242	0.062	-0.094
-328.172	-200.000	0.043	-0.246
-327.158	-16.355	0.150	0.095
-326.143	69.557	-0.322	0.331
-325.129	35.400	-0.184	0.162
-324.114	-167.137	-0.257	0.010
-323.099	-73.284	-0.214	-0.078
-322.085	-192.863	0.202	0.002
-321.070	-114.799	0.166	-0.032
-320.056	-200.000	-0.083	0.490
-319.041	23.642	-0.088	-0.072
-318.026	-200.000	0.016	0.121
-317.012	-105.979	0.134	0.030
-315.997	505.815	-0.186	0.429
-314.983	-47.116	-0.520	0.253
-313.968	-13.553	0.227	-0.147
-312.953	128.230	-0.180	-0.228
-311.939	165.575	0.117	-0.166
-310.924	-200.000	-0.004	-0.098
-309.910	-200.000	0.056	-0.318
-308.895	800.000	-0.013	0.037
-307.880	-41.564	0.335	0.172
-306.866	-200.000	0.031	-0.184
-305.851	-36.141	0.300	0.162
-304.837	-66.965	-0.371	0.146
-303.822	-30.604	-0.203	0.115
-302.807	800.000	-0.053	0.215
-301.793	-200.000	0.029	-0.167
-300.778	-122.769	-0.096	0.016
-299.764	646.441	-0.064	0.163
-298.749	-200.000	-0.016	-0.605
-297.735	153.941	0.120	-0.164
-296.720	-74.899	0.172	-0.062
-295.705	-200.000	0.040	0.268
-294.691	0.010	0.143	-0.102
-293.676	36.158	-0.111	-0.098
-292.662	511.408	-0.111	0.257
-291.647	-8.340	0.286	0.192
-290.632	232.571	0.056	-0.092
-289.618	41.271	0.108	-0.097
-288.603	71.550	-0.113	-0.117
-287.589	-31.907	0.206	-0.115
-286.574	-126.391	-0.131	-0.019
-285.559	800.000	-0.021	-0.089
-284.545	-200.000	0.055	0.272
-283.530	-200.000	0.016	0.345
-282.516	-200.000	0.041	0.219
-281.501	34.334	0.068	-0.059
-280.486	-50.027	-0.101	-0.048
-279.472	33.474	0.260	0.225
-278.457	10.743	0.174	-0.133
-277.443	-200.000	-0.005	-0.088
-276.428	215.850	-0.075	-0.119
-275.413	-50.252	0.196	-0.092
-274.399	-21.374	0.157	-0.096
-273.384	-200.000	-0.022	-0.125
-272.370	65.364	0.229	-0.231
-271.355	379.317	0.051	0.105
-270.340	800.000	-0.095	-0.296
-269.326	18.187	-0.034	0.027
-268.311	-93.216	0.105	-0.029
-267.297	-53.668	-0.229	-0.104
-266.282	-97.163	0.142	0.037
-265.267	-156.577	0.334	0.021
-264.253	-24.526	-0.228	0.135
-263.238	8.926	-0.146	0.110
-262.224	460.036	0.084	0.187
-261.209	-38.826	-0.307	-0.161
-260.195	50.301	0.116	0.109
-259.180	2.102	0.220	0.158
-258.165	-200.000	0.010	-0.060
-257.151	-14.019	0.256	-0.165
-256.136	-33.356	-0.296	-0.163
-255.122	-114.521	-0.134	0.026
-254.107	103.918	0.273	-0.320
-253.092	26.468	0.309	-0.257
-252.078	106.695	-0.234	0.276
-251.063	74.439	0.245	-0.256
-250.049	-143.738	-0.088	0.008
-249.034	-131.677	0.179	-0.023
-248.019	800.000	-0.073	0.247
-247.005	-115.012	0.160	0.030
-245.990	31.723	-0.196	0.168
-244.976	33.168	0.052	0.045
-243.961	-24.289	-0.215	-0.128
-242.946	-200.000	0.015	-0.113
-241.932	-37.690	0.246	-0.130
-240.917	675.118	-0.112	-0.288
-239.903	-68.666	-0.042	-0.016
-238.888	-200.000	-0.011	-0.156
-237.873	-127.688	-0.362	-0.052
-236.859	572.705	-0.053	0.128
-235.844	-97.339	0.476	0.124
-234.830	-119.571	-0.199	0.034
-233.815	-200.000	0.017	-0.292
-232.800	27.502	0.206	0.172
-231.786	-12.295	-0.088	0.057
-230.771	-200.000	-0.044	-0.230
-229.757	-200.000	-0.004	0.409
-228.742	-49.619	0.442	0.209
-227.727	74.734	-0.092	-0.097
-226.713	41.383	-0.237	-0.213
-225.698	88.543	-0.127	0.140
-224.684	-94.707	-0.177	-0.048
-223.669	112.289	0.169	0.203
-222.655	800.000	-0.047	0.143
-221.640	333.902	0.092	0.176
-220.625	-164.680	-0.358	0.016
-219.611	104.659	0.228	-0.267
-218.596	-89.950	0.177	0.051
-217.582	158.683	-0.101	-0.139
-216.567	146.104	-0.278	0.371
-215.552	5.789	0.086	-0.063
-214.538	-156.580	0.134	-0.008
-213.523	-166.761	-0.181	-0.007
-212.509	422.116	-0.013	0.027
-211.494	722.323	-0.073	-0.194
-210.479	-179.770	-0.189	0.004
-209.465	-16.828	-0.148	-0.093
-208.450	-200.000	-0.031	0.152
-207.436	-200.000	0.034	-0.399
-206.421	800.000	-0.120	-0.462
-205.406	-51.477	0.305	0.142
-204.392	-57.435	-0.136	-0.059
-203.377	30.250	0.131	-0.111
-202.363	-200.000	-0.023	0.109
-201.348	74.554	0.133	-0.139
-200.333	-200.000	-0.007	-0.233
-199.319	-154.457	-0.292	-0.019
-198.304	525.513	0.038	-0.090
-197.290	0.080	-0.102	-0.072
-196.275	18.824	0.318	0.253
-195.260	276.754	0.118	0.208
-194.246	585.931	-0.142	-0.348
-193.231	479.228	0.114	-0.256
-192.217	478.473	0.050	-0.113
-191.202	339.343	0.081	0.156
-190.187	-140.492	-0.116	-0.012
-189.173	143.398	-0.043	-0.057
-188.158	-53.052	0.269	0.123
-187.144	-15.703	-0.150	0.095
-186.129	-200.000	-0.012	-0.072
-185.114	-131.284	-0.243	0.032
-184.100	187.343	-0.118	-0.175
-183.085	-69.507	-0.199	0.076
-182.071	-4.124	0.102	-0.070
-181.056	-127.459	-0.075	-0.011
-180.042	800.000	-0.067	-0.223
-179.027	31.808	-0.156	-0.133
-178.012	-200.000	0.004	0.081
-176.998	39.426	-0.042	0.037
-175.983	-121.012	-0.193	-0.032
-174.969	-200.000	-0.004	0.196
-173.954	498.375	0.072	-0.164
-172.939	-200.000	0.026	0.157
-171.925	89.137	-0.185	0.205
-170.910	-178.406	0.097	-0.002
-169.896	-165.105	0.285	-0.013
-168.881	83.634	0.109	-0.118
-167.866	800.000	0.042	-0.143
-166.852	549.850	-0.077	-0.182
-165.837	800.000	-0.094	0.361
-164.823	-142.027	-0.181	0.018
-163.808	-200.000	0.025	0.212
-162.793	491.454	-0.051	-0.117
-161.779	800.000	0.026	-0.086
-160.764	639.690	-0.122	0.307
-159.750	-55.445	0.167	0.074
-158.735	-98.055	0.145	0.037
-157.720	-61.976	0.139	0.058
-156.706	287.681	-0.097	0.175
-155.691	-1.533	0.253	-0.177
-154.677	-15.172	-0.060	-0.038
-153.662	-131.856	0.116	-0.015
-152.647	376.479	-0.089	0.181
-151.633	-150.061	0.147	-0.011
-150.618	-104.116	0.201	0.046
-149.604	-58.974	0.138	-0.059
-148.589	189.022	-0.077	-0.115
-147.574	800.000	0.062	-0.266
-146.560	-67.282	-0.131	0.051
-145.545	-200.000	-0.042	0.402
-144.531	-113.433	0.251	0.049
-143.516	-23.533	0.200	0.119
-142.502	-119.447	-0.319	-0.055
-141.487	-47.721	0.310	-0.149
-140.472	315.556	-0.071	0.133
-139.458	93.959	-0.191	-0.215
-138.443	-94.901	0.276	-0.074
-137.429	-62.335	0.178	0.073
-136.414	1.068	0.286	0.204
-135.399	800.000	-0.057	0.200
-134.385	-34.969	-0.192	-0.104
-133.370	132.502	0.118	-0.150
-132.356	-196.620	-0.175	0.001
-131.341	417.333	0.084	-0.177
-130.326	264.148	-0.057	-0.098
-129.312	800.000	0.035	0.148
-128.297	-84.113	0.195	0.061
-127.283	-200.000	0.058	0.446
-126.268	531.384	0.064	0.150
-125.253	-200.000	-0.004	0.029
-124.239	-118.677	0.187	-0.033
-123.224	-39.636	-0.297	-0.154
-122.210	304.667	0.167	0.306
-121.195	-10.735	0.243	-0.159
-120.180	-135.141	0.234	0.028
