DTS Sentinel unit serial number:	SN413079Multiplexer serial number:	ORYXHardware model number:	OX4-SRSoftware version number:	ORYX F/W v4.00 Oryx Data Collector v3.7.2.0data status	okinstallation	princeton_trtdifferential loss correction	single-endedforward channel	channel 3reverse channel	N/Adate	2019/09/16time	22:28:35forward acquisition time	60.00reverse acquisition time	0.00gamma	496.2192k internal	0.2324k external	0.2324temperature offset calibration	0.9940default loss term (dB/km)	0.3790temperature slope calibration	1.0000multiplexer offset coefficient	1.0000multiplexer slope coefficient	1.0000fibre end	0.00T internal ref (°C)	30.81T ext. ref 1 (°C)	0.07T ext. ref 2 (°C)	24.61length (m)	temperature (°C)	Stokes	anti-Stokes-747.200	-93.535	-0.062	0.017
-746.185	-104.390	0.144	-0.034
-745.171	97.102	0.047	-0.054
-744.156	564.430	0.037	0.091
-743.142	-109.342	0.232	0.050
-742.127	23.674	0.037	-0.031
-741.112	-200.000	0.059	0.270
-740.098	138.396	-0.209	0.277
-739.083	13.803	-0.266	-0.209
-738.069	10.458	-0.156	0.120
-737.054	-29.804	0.080	0.046
-736.039	128.688	0.275	-0.354
-735.025	-23.411	0.133	-0.081
-734.010	-56.477	-0.144	-0.064
-732.996	-42.343	-0.336	-0.173
-731.981	93.510	0.106	0.121
-730.966	52.279	0.141	0.135
-729.952	-36.695	0.198	-0.107
-728.937	-200.000	-0.024	-0.190
-727.923	-200.000	-0.021	-0.210
-726.908	315.279	-0.019	0.037
-725.894	-80.459	0.133	-0.045
-724.879	800.000	-0.055	0.174
-723.864	-200.000	0.052	0.314
-722.850	-200.000	0.006	0.240
-721.835	-70.190	-0.231	-0.089
-720.821	-16.206	-0.097	-0.062
-719.806	-99.214	0.220	0.056
-718.791	74.043	-0.104	-0.110
-717.777	-200.000	0.045	-0.369
-716.762	196.188	0.237	-0.363
-715.748	303.226	-0.164	-0.307
-714.733	65.865	-0.270	0.276
-713.718	-22.321	0.084	0.052
-712.704	-75.980	-0.425	0.152
-711.689	42.061	0.103	-0.094
-710.675	162.298	-0.142	0.200
-709.660	-7.318	-0.088	-0.060
-708.645	-8.089	0.215	0.146
-707.631	113.312	-0.359	-0.439
-706.616	-8.231	0.191	0.130
-705.602	-119.345	-0.352	-0.062
-704.587	-200.000	0.009	0.284
-703.572	-131.418	0.311	0.041
-702.558	-68.406	-0.094	-0.037
-701.543	-15.151	-0.181	0.117
-700.529	-200.000	-0.034	0.156
-699.514	800.000	-0.020	0.071
-698.499	535.917	0.115	-0.275
-697.485	116.493	-0.118	-0.146
-696.470	166.711	-0.080	-0.114
-695.456	332.067	-0.045	0.088
-694.441	245.259	-0.097	0.165
-693.426	77.966	-0.069	-0.074
-692.412	-33.735	0.324	-0.180
-691.397	-8.188	-0.110	-0.075
-690.383	34.319	0.237	0.208
-689.368	-188.732	0.561	0.007
-688.354	-122.290	-0.191	0.031
-687.339	-200.000	-0.084	-0.475
-686.324	-17.203	-0.149	0.094
-685.310	200.045	-0.202	-0.312
-684.295	800.000	0.065	0.204
-683.281	-103.904	-0.162	0.038
-682.266	-200.000	0.015	-0.270
-681.251	-180.325	-0.227	-0.005
-680.237	-200.000	-0.048	0.272
-679.222	-18.024	-0.133	0.084
-678.208	576.707	-0.115	-0.283
-677.193	-200.000	-0.005	0.119
-676.178	-138.925	-0.054	-0.006
-675.164	237.413	-0.076	-0.127
-674.149	800.000	-0.089	-0.387
-673.135	-99.648	0.369	-0.093
-672.120	-42.031	-0.141	-0.073
-671.105	-148.340	-0.233	0.019
-670.091	770.158	-0.144	-0.394
-669.076	508.737	0.181	-0.423
-668.062	156.092	-0.129	0.179
-667.047	514.845	-0.057	0.135
-666.032	8.246	0.232	-0.175
-665.018	-127.067	-0.251	0.037
-664.003	-200.000	-0.028	-0.182
-662.989	800.000	0.057	0.176
-661.974	158.639	0.046	0.064
-660.959	5.559	-0.203	-0.151
-659.945	-90.496	-0.120	0.035
-658.930	40.949	0.122	0.111
-657.916	800.000	-0.034	-0.107
-656.901	163.151	0.124	0.176
-655.886	-73.573	-0.067	0.024
-654.872	-129.063	0.066	-0.009
-653.857	800.000	-0.054	-0.177
-652.843	800.000	0.065	0.262
-651.828	405.030	-0.118	-0.250
-650.814	25.947	0.320	0.269
-649.799	-85.624	0.162	0.051
-648.784	3.419	0.121	0.088
-647.770	-24.652	-0.184	-0.110
-646.755	72.677	0.294	0.308
-645.741	-138.785	-0.093	0.010
-644.726	800.000	0.008	0.026
-643.711	219.026	0.015	-0.024
-642.697	697.324	-0.090	-0.238
-641.682	-200.000	0.022	0.295
-640.668	182.271	-0.207	0.306
-639.653	-123.659	0.309	-0.049
-638.638	-113.853	-0.246	-0.048
-637.624	-200.000	-0.020	0.277
-636.609	800.000	-0.061	-0.226
-635.595	36.865	0.193	0.171
-634.580	800.000	-0.020	0.065
-633.565	-152.577	-0.153	-0.011
-632.551	353.647	-0.091	0.182
-631.536	800.000	0.027	-0.099
-630.522	81.513	-0.136	-0.147
-629.507	-200.000	-0.020	-0.114
-628.492	-67.927	0.430	-0.169
-627.478	-200.000	-0.017	0.129
-626.463	800.000	0.090	0.256
-625.449	322.158	0.231	0.441
-624.434	126.940	-0.106	-0.136
-623.419	423.875	-0.052	0.112
-622.405	-124.563	0.190	-0.030
-621.390	180.097	0.102	0.150
-620.376	-200.000	0.004	-0.023
-619.361	-39.285	-0.174	-0.092
-618.346	-63.023	-0.345	-0.143
-617.332	-163.498	-0.396	-0.019
-616.317	-128.611	0.233	-0.033
-615.303	-43.369	0.124	0.063
-614.288	-11.303	0.029	0.019
-613.273	53.147	-0.126	0.121
-612.259	56.943	0.010	0.010
-611.244	-92.416	-0.220	0.062
-610.230	53.940	-0.073	0.070
-609.215	-74.522	-0.295	0.107
-608.201	16.842	0.120	0.095
-607.186	-132.164	-0.180	-0.023
-606.171	-0.084	-0.048	0.034
-605.157	-200.000	0.025	-0.354
-604.142	-157.494	-0.243	0.015
-603.128	-90.834	-0.189	-0.055
-602.113	-200.000	-0.018	0.269
-601.098	-86.203	-0.248	0.077
-600.084	82.938	-0.091	-0.100
-599.069	800.000	-0.084	-0.242
-598.055	-163.708	0.254	0.012
-597.040	503.116	0.086	0.199
-596.025	7.122	-0.125	0.093
-595.011	-69.460	-0.071	0.027
-593.996	-200.000	-0.077	0.353
-592.982	700.009	-0.198	0.522
-591.967	37.202	0.195	0.173
-590.952	245.825	-0.068	-0.114
-589.938	-74.463	-0.161	0.058
-588.923	800.000	0.122	-0.360
-587.909	82.092	-0.048	-0.052
-586.894	254.571	-0.155	-0.266
-585.879	170.173	-0.073	0.105
-584.865	-200.000	0.063	-0.279
-583.850	615.949	0.061	-0.153
-582.836	-63.686	-0.058	-0.024
-581.821	61.289	-0.117	-0.117
-580.806	-200.000	-0.005	0.037
-579.792	1.782	0.225	0.163
-578.777	275.978	-0.181	-0.322
-577.763	-93.189	-0.156	0.043
-576.748	-115.721	-0.533	0.100
-575.733	185.229	0.280	-0.417
-574.719	-98.613	0.182	-0.047
-573.704	-43.432	0.160	0.081
-572.690	-200.000	-0.016	-0.167
-571.675	-89.909	0.326	-0.095
-570.661	529.915	-0.006	-0.014
-569.646	151.964	-0.107	0.146
-568.631	-110.695	-0.282	-0.058
-567.617	-200.000	-0.021	-0.259
-566.602	800.000	-0.079	-0.233
-565.588	19.192	0.286	0.230
-564.573	-89.015	-0.283	-0.084
-563.558	-190.046	0.281	-0.003
-562.544	-39.643	0.029	-0.015
-561.529	202.949	0.058	-0.090
-560.515	28.875	0.088	-0.075
-559.500	-200.000	0.044	0.350
-558.485	391.037	-0.152	0.316
-557.471	-64.125	-0.156	-0.064
-556.456	-134.153	0.191	0.024
-555.442	16.756	-0.343	0.272
-554.427	-200.000	-0.031	0.215
-553.412	17.996	-0.101	-0.081
-552.398	-157.170	0.281	-0.017
-551.383	36.113	0.203	0.179
-550.369	0.150	-0.341	-0.244
-549.354	-200.000	-0.012	-0.136
-548.339	-26.541	0.387	-0.227
-547.325	14.717	-0.157	-0.123
-546.310	106.908	-0.243	0.289
-545.296	-200.000	0.002	-0.206
-544.281	40.932	0.164	0.148
-543.266	120.177	-0.274	0.340
-542.252	-59.716	0.143	0.062
-541.237	229.469	-0.140	0.229
-540.223	83.734	0.414	0.452
-539.208	42.774	0.182	-0.166
-538.193	-200.000	-0.053	-0.345
-537.179	-200.000	0.050	0.332
-536.164	129.450	0.307	0.393
-535.150	127.186	-0.237	0.301
-534.135	172.243	0.123	-0.177
-533.121	23.620	-0.116	0.096
-532.106	-8.825	-0.163	0.109
-531.091	35.492	-0.085	-0.075
-530.077	-200.000	0.011	-0.194
-529.062	136.580	0.125	-0.163
-528.048	800.000	0.037	0.114
-527.033	490.981	0.025	-0.057
-526.018	-200.000	-0.034	-0.186
-525.004	-86.908	0.335	-0.102
-523.989	-90.242	-0.269	0.078
-522.975	-200.000	-0.058	0.343
-521.960	-105.193	-0.107	0.024
-520.945	-68.870	0.141	-0.055
-519.931	-149.687	0.024	0.002
-518.916	-92.735	-0.272	0.076
-517.902	-25.053	-0.220	-0.131
-516.887	-200.000	-0.009	0.241
-515.872	800.000	0.055	0.182
-514.858	1.338	-0.152	-0.109
-513.843	-91.698	0.215	-0.061
-512.829	-34.473	0.176	-0.097
-511.814	-132.375	0.162	-0.021
-510.799	-70.274	-0.185	-0.070
-509.785	45.178	-0.192	-0.177
-508.770	52.384	0.141	0.135
-507.756	-200.000	0.014	0.099
-506.741	542.270	-0.092	0.220
-505.726	-21.864	0.152	0.093
-504.712	195.017	0.090	-0.136
-503.697	-44.540	0.109	0.054
-502.683	98.270	0.053	-0.061
-501.668	784.000	0.022	0.060
-500.653	-60.212	0.187	-0.080
-499.639	-24.522	-0.288	0.171
-498.624	-200.000	0.001	-0.078
-497.610	-3.874	-0.403	0.279
-496.595	-200.000	-0.024	0.316
-495.581	155.372	0.068	-0.094
-494.566	-169.278	-0.278	-0.010
-493.551	-200.000	-0.037	0.240
-492.537	-136.384	-0.186	0.022
-491.522	-57.203	0.061	0.027
-490.508	747.257	-0.151	-0.407
-489.493	122.608	0.109	-0.136
-488.478	187.789	-0.315	-0.470
-487.464	-83.096	0.068	-0.022
-486.449	-12.070	-0.119	0.078
-485.435	-28.375	-0.022	0.012
-484.420	-200.000	0.003	0.034
-483.405	-200.000	0.018	-0.123
-482.391	-41.788	0.202	0.103
-481.376	-200.000	-0.032	0.179
-480.362	-179.786	-0.584	0.013
-479.347	-4.532	0.297	0.205
-478.332	800.000	-0.074	-0.292
-477.318	-54.225	0.436	-0.198
-476.303	800.000	-0.020	0.087
-475.289	-132.911	0.185	0.024
-474.274	391.143	0.043	0.090
-473.259	800.000	0.181	0.651
-472.245	296.135	0.220	-0.403
-471.230	-101.114	0.453	0.111
-470.216	273.036	-0.218	-0.384
-469.201	-142.234	-0.401	-0.040
-468.186	-103.128	-0.363	-0.086
-467.172	-102.279	-0.115	-0.027
-466.157	454.970	-0.195	0.431
-465.143	-200.000	-0.003	0.166
-464.128	-200.000	0.008	-0.124
-463.113	69.620	-0.160	-0.165
-462.099	-5.047	0.138	-0.095
-461.084	800.000	0.076	-0.277
-460.070	58.000	0.171	-0.167
-459.055	186.318	-0.151	-0.224
-458.040	-38.889	-0.071	-0.037
-457.026	798.249	0.091	-0.250
-456.011	258.088	0.061	0.106
-454.997	-16.569	-0.316	0.200
-453.982	800.000	-0.104	-0.317
-452.968	-200.000	-0.014	-0.217
-451.953	25.135	0.078	-0.064
-450.938	-19.399	-0.232	-0.143
-449.924	800.000	-0.134	-0.423
-448.909	-32.518	-0.250	0.139
-447.895	800.000	-0.075	-0.233
-446.880	-46.182	-0.225	-0.110
-445.865	-56.347	0.053	0.024
-444.851	-103.487	0.093	0.022
-443.836	138.717	-0.197	-0.258
-442.822	212.632	-0.120	0.189
-441.807	-24.614	-0.184	0.109
-440.792	-200.000	0.006	-0.032
-439.778	30.776	0.179	-0.153
-438.763	-200.000	0.038	-0.184
-437.749	218.793	0.104	0.165
-436.734	144.722	-0.092	0.123
-435.719	485.144	-0.058	-0.132
-434.705	7.518	-0.206	-0.154
-433.690	27.980	0.044	0.037
-432.676	-3.849	-0.099	0.068
-431.661	239.225	0.042	0.069
-430.646	356.713	-0.110	-0.219
-429.632	-2.430	0.103	0.072
-428.617	60.999	0.393	0.389
-427.603	-200.000	0.013	-0.073
-426.588	-127.242	0.202	-0.029
-425.573	800.000	-0.093	-0.304
-424.559	-7.709	-0.326	0.219
-423.544	800.000	-0.055	0.177
-422.530	-80.988	0.301	-0.099
-421.515	-110.327	0.223	-0.046
-420.500	800.000	0.056	0.193
-419.486	-93.492	0.163	0.045
-418.471	33.628	-0.144	0.125
-417.457	-146.586	-0.024	0.002
-416.442	-51.020	-0.302	0.141
-415.428	21.802	-0.202	-0.164
-414.413	293.195	-0.222	0.404
-413.398	-92.440	0.239	-0.067
-412.384	-48.893	0.119	0.057
-411.369	2.753	0.006	0.004
-410.355	52.332	-0.099	-0.094
-409.340	220.470	0.132	-0.211
-408.325	24.859	0.135	0.112
-407.311	10.343	-0.160	0.121
-406.296	-102.864	-0.054	0.013
-405.282	-91.141	0.242	0.069
-404.267	43.719	-0.061	-0.055
-403.252	85.239	0.205	0.224
-402.238	111.448	0.172	0.207
-401.223	-3.063	0.263	-0.182
-400.209	-92.287	0.197	-0.055
-399.194	-141.807	0.186	-0.019
-398.179	-42.149	0.078	-0.040
-397.165	-140.261	-0.096	0.010
-396.150	-27.855	-0.325	-0.188
-395.136	-34.904	-0.122	-0.066
-394.121	372.256	-0.127	0.256
-393.106	-65.169	0.392	0.157
-392.092	800.000	-0.016	0.056
-391.077	227.849	0.081	0.132
-390.063	-200.000	0.018	0.111
-389.048	262.220	-0.119	0.206
-388.033	158.739	0.151	-0.208
-387.019	477.856	-0.063	-0.142
-386.004	152.185	0.197	-0.267
-384.990	-138.170	0.176	0.019
-383.975	83.545	-0.103	-0.111
-382.960	-200.000	0.119	0.564
-381.946	618.478	0.145	-0.361
-380.931	252.763	-0.110	0.186
-379.917	19.782	0.242	-0.194
-378.902	-69.925	0.416	-0.158
-377.888	201.634	0.225	0.345
-376.873	-113.979	-0.481	-0.093
-375.858	52.611	-0.216	-0.205
-374.844	-130.261	0.256	-0.035
-373.829	128.887	-0.147	0.187
-372.815	359.648	0.193	-0.385
-371.800	-200.000	-0.061	-0.336
-370.785	-4.876	0.204	0.140
-369.771	151.737	-0.107	-0.145
-368.756	-200.000	0.001	-0.218
-367.742	431.275	-0.115	-0.247
-366.727	83.323	0.116	-0.126
-365.712	36.707	0.310	-0.272
-364.698	-172.756	-0.171	0.005
-363.683	-12.783	-0.278	0.180
-362.669	-82.879	0.099	-0.032
-361.654	-200.000	0.011	-0.084
-360.639	43.057	0.191	-0.174
-359.625	25.213	0.140	0.115
-358.610	708.247	-0.086	-0.226
-357.596	-94.661	0.239	0.065
-356.581	-200.000	0.014	0.177
-355.566	14.817	0.156	-0.121
-354.552	-200.000	0.016	0.109
-353.537	-63.342	-0.343	-0.140
-352.523	26.275	0.142	-0.118
-351.508	-108.805	-0.156	-0.033
-350.493	-200.000	0.028	-0.183
-349.479	333.753	0.160	-0.307
-348.464	-200.000	-0.023	-0.221
-347.450	-90.561	0.290	-0.084
-346.435	-200.000	0.006	0.225
-345.420	-58.912	0.080	0.034
-344.406	675.819	-0.158	0.408
-343.391	142.374	0.091	0.120
-342.377	598.153	0.110	-0.272
-341.362	94.115	-0.156	-0.176
-340.348	-164.681	-0.192	-0.009
-339.333	609.526	0.059	-0.147
-338.318	607.235	-0.072	0.178
-337.304	-13.905	0.124	-0.079
-336.289	183.596	-0.131	0.192
-335.275	21.492	-0.532	-0.430
-334.260	-48.466	-0.083	0.040
-333.245	-200.000	0.467	0.000
-332.231	-119.034	-0.111	-0.019
-331.216	391.503	0.045	-0.092
-330.202	-143.665	0.635	0.060
-329.187	91.567	0.137	-0.153
-328.172	-200.000	0.004	-0.078
-327.158	-96.195	0.326	0.086
-326.143	800.000	0.084	-0.343
-325.129	-26.179	0.347	0.203
-324.114	800.000	0.049	0.158
-323.099	709.568	-0.049	-0.128
-322.085	800.000	-0.041	-0.149
-321.070	-139.825	-0.059	0.006
-320.056	-200.000	-0.041	0.309
-319.041	-96.174	-0.107	0.028
-318.026	-42.910	0.189	-0.095
-317.012	-29.069	0.364	-0.208
-315.997	-13.799	0.105	-0.068
-314.983	350.595	-0.064	0.125
-313.968	224.511	-0.145	-0.233
-312.953	-200.000	0.016	0.340
-311.939	211.483	-0.200	-0.312
-310.924	-119.576	0.146	-0.025
-309.910	324.362	-0.035	0.067
-308.895	44.025	-0.163	-0.148
-307.880	296.570	0.072	0.131
-306.866	-200.000	0.026	0.582
-305.851	-135.320	-0.211	0.025
-304.837	-200.000	-0.021	-0.327
-303.822	-80.073	0.114	-0.038
-302.807	-200.000	-0.026	0.137
-301.793	-34.485	-0.122	-0.066
-300.778	-200.000	0.003	-0.058
-299.764	-200.000	-0.042	-0.312
-298.749	-56.218	-0.160	-0.071
-297.735	177.219	0.086	0.125
-296.720	282.860	-0.038	-0.068
-295.705	48.488	0.220	-0.204
-294.691	-114.839	0.338	0.064
-293.676	800.000	0.040	-0.112
-292.662	-184.365	-0.062	0.001
-291.647	-4.514	-0.132	0.091
-290.632	11.175	-0.185	0.140
-289.618	-69.813	0.278	0.105
-288.603	-14.405	-0.189	0.121
-287.589	125.454	-0.190	0.237
-286.574	52.813	-0.127	0.120
-285.559	194.888	-0.093	0.140
-284.545	-75.118	0.326	0.116
-283.530	-12.601	0.269	0.174
-282.516	-200.000	0.004	0.109
-281.501	65.991	-0.278	-0.279
-280.486	-38.767	-0.131	0.068
-279.472	-87.740	0.173	-0.052
-278.457	-100.968	0.249	-0.061
-277.443	320.521	-0.054	0.102
-276.428	-16.073	0.047	0.030
-275.413	20.717	0.215	-0.172
-274.399	-191.136	-0.148	-0.002
-273.384	552.401	-0.014	0.033
-272.370	-90.902	0.090	-0.026
-271.355	-74.026	-0.316	-0.114
-270.340	800.000	-0.019	-0.064
-269.326	53.216	0.147	0.140
-268.311	-96.436	-0.143	0.037
-267.297	261.257	0.146	0.250
-266.282	-8.898	0.138	0.091
-265.267	-11.628	-0.089	0.058
-264.253	76.383	-0.179	-0.188
-263.238	800.000	-0.081	0.289
-262.224	800.000	-0.022	-0.069
-261.209	-86.356	-0.073	0.022
-260.195	728.003	0.080	0.210
-259.180	128.454	-0.071	0.089
-258.165	-200.000	-0.029	0.239
-257.151	-118.588	-0.108	0.019
-256.136	-63.212	-0.376	0.154
-255.122	87.476	-0.178	0.195
-254.107	4.786	0.252	0.183
-253.092	-3.023	-0.141	-0.098
-252.078	-135.990	0.352	-0.041
-251.063	800.000	-0.082	0.267
-250.049	-162.368	-0.439	0.022
-249.034	-200.000	-0.043	-0.361
-248.019	-200.000	-0.005	0.214
-247.005	263.275	-0.167	-0.286
-245.990	-38.635	0.110	-0.057
-244.976	-14.939	-0.201	0.127
-243.961	-113.328	0.132	-0.026
-242.946	-159.882	0.100	0.005
-241.932	213.046	-0.143	-0.224
-240.917	-23.199	-0.107	0.064
-239.903	277.711	-0.134	-0.236
-238.888	-24.773	-0.214	0.126
-237.873	349.993	0.027	-0.053
-236.859	16.855	-0.319	0.250
-235.844	-200.000	-0.045	0.277
-234.830	43.105	0.293	-0.265
-233.815	-58.116	-0.191	-0.082
-232.800	-29.913	0.239	0.135
-231.786	117.592	0.115	0.140
-230.771	6.015	-0.181	-0.132
-229.757	-147.715	-0.121	0.010
-228.742	677.316	-0.058	-0.150
-227.727	-166.460	-0.137	-0.006
-226.713	789.183	-0.033	-0.089
-225.698	-200.000	-0.013	0.079
-224.684	49.335	0.235	0.219
-223.669	68.854	0.157	-0.159
-222.655	-200.000	0.016	-0.304
-221.640	-116.632	0.175	-0.032
-220.625	-125.384	0.126	0.019
-219.611	-200.000	0.017	-0.152
-218.596	-200.000	-0.022	0.143
-217.582	-200.000	0.009	0.164
-216.567	318.813	-0.134	-0.252
-215.552	-200.000	0.023	0.138
-214.538	170.644	-0.205	0.291
-213.523	-97.511	0.289	0.074
-212.509	-128.659	0.295	0.041
-211.494	254.962	0.154	-0.261
-210.479	398.760	-0.115	0.238
-209.465	-188.472	0.118	0.001
-208.450	-141.899	0.276	0.027
-207.436	-133.169	0.355	-0.044
-206.421	192.471	-0.092	0.137
-205.406	-200.000	-0.006	-0.141
-204.392	157.224	-0.341	0.466
-203.377	-112.802	-0.232	0.046
-202.363	51.888	0.077	-0.073
-201.348	28.204	0.114	-0.095
-200.333	773.032	0.100	-0.270
-199.319	-71.293	0.389	0.144
-198.304	800.000	0.039	-0.162
-197.290	35.730	0.146	0.127
-196.275	-200.000	-0.010	-0.050
-195.260	-200.000	0.001	0.176
-194.246	641.298	0.036	-0.090
-193.231	375.741	-0.065	-0.131
-192.217	360.002	0.202	0.399
-191.202	192.837	-0.045	-0.067
-190.187	-200.000	-0.362	-0.002
-189.173	10.235	0.365	-0.274
-188.158	-90.456	-0.287	0.082
-187.144	199.262	-0.061	-0.092
-186.129	-104.632	-0.169	-0.039
-185.114	687.434	0.089	0.229
-184.100	729.265	-0.087	0.231
-183.085	-27.713	0.065	-0.037
-182.071	-200.000	0.031	-0.261
-181.056	326.504	0.011	-0.021
-180.042	203.887	-0.110	0.169
-179.027	394.502	-0.128	-0.263
-178.012	26.132	0.160	-0.132
-176.998	456.828	-0.026	-0.057
-175.983	-101.896	0.140	0.033
-174.969	-93.373	-0.175	0.048
-173.954	-179.216	0.143	-0.003
-172.939	-200.000	-0.024	0.139
-171.925	28.162	0.085	-0.071
-170.910	182.310	0.170	-0.247
-169.896	-57.691	-0.102	0.044
-168.881	368.323	0.127	-0.253
-167.866	800.000	0.083	-0.352
-166.852	163.414	0.145	0.201
-165.837	-76.046	0.276	0.096
-164.823	-200.000	-0.070	0.000
-163.808	-130.700	0.160	-0.021
-162.793	165.543	-0.093	-0.130
-161.779	177.926	-0.123	-0.177
-160.764	-129.354	0.267	-0.037
-159.750	-200.000	-0.015	-0.194
-158.735	-4.060	-0.408	-0.279
-157.720	66.791	-0.247	0.248
-156.706	40.606	-0.153	0.136
-155.691	116.966	0.124	0.150
-154.677	-2.265	-0.159	0.110
-153.662	-183.589	0.107	-0.002
-152.647	48.090	0.142	-0.131
-151.633	-19.626	0.175	0.107
-150.618	287.744	0.160	0.285
-149.604	800.000	0.039	-0.124
-148.589	-200.000	-0.018	-0.094
-147.574	-110.156	0.595	-0.123
-146.560	-150.284	-0.155	0.012
-145.545	-164.016	0.184	0.008
-144.531	-200.000	-0.030	0.243
-143.516	-200.000	-0.030	0.241
-142.502	-145.432	0.023	0.002
-141.487	90.774	0.164	-0.181
-140.472	382.712	0.156	0.316
-139.458	340.915	0.160	0.308
-138.443	-200.000	-0.001	-0.499
-137.429	183.847	0.155	0.225
-136.414	160.690	-0.096	0.132
-135.399	-6.730	0.024	0.016
-134.385	-96.159	-0.232	0.061
-133.370	-200.000	-0.033	0.165
-132.356	17.088	0.286	0.223
-131.341	-200.000	0.008	-0.124
-130.326	125.650	-0.077	-0.096
-129.312	-11.864	0.311	-0.201
-128.297	400.891	0.183	-0.379
-127.283	-13.424	-0.038	0.024
-126.268	74.279	-0.210	0.217
-125.253	120.248	0.349	-0.426
-124.239	-200.000	0.033	0.401
-123.224	-200.000	0.210	0.001
-122.210	-106.665	0.128	0.028
-121.195	622.848	0.079	-0.196
