DTS Sentinel unit serial number:	SN413079Multiplexer serial number:	ORYXHardware model number:	OX4-SRSoftware version number:	ORYX F/W v4.00 Oryx Data Collector v3.7.2.0data status	okinstallation	princeton_trtdifferential loss correction	single-endedforward channel	channel 3reverse channel	N/Adate	2019/09/12time	19:09:04forward acquisition time	15.00reverse acquisition time	0.00gamma	496.2192k internal	0.2320k external	0.2320temperature offset calibration	1.0096default loss term (dB/km)	0.3790temperature slope calibration	1.0000multiplexer offset coefficient	1.0000multiplexer slope coefficient	1.0000fibre end	0.00T internal ref (°C)	32.62T ext. ref 1 (°C)	3.17T ext. ref 2 (°C)	27.21length (m)	temperature (°C)	Stokes	anti-Stokes-747.200	116.288	0.190	0.235
-746.185	-23.968	-0.924	0.559
-745.171	800.000	0.158	-0.454
-744.156	10.787	0.528	-0.408
-743.142	-58.409	0.473	-0.208
-742.127	535.510	-0.077	-0.184
-741.112	51.250	-0.279	0.268
-740.098	363.076	-0.306	-0.621
-739.083	-19.972	-0.814	0.508
-738.069	19.285	0.421	-0.342
-737.054	-157.464	0.404	0.025
-736.039	-192.358	-0.847	-0.008
-735.025	73.926	0.123	-0.131
-734.010	-200.000	0.120	-0.633
-732.996	51.659	0.607	-0.583
-731.981	332.375	-0.161	0.313
-730.966	-39.888	-0.349	-0.184
-729.952	154.958	-0.341	0.474
-728.937	55.687	-0.736	-0.720
-727.923	-16.042	0.425	0.273
-726.908	-83.841	0.423	0.136
-725.894	-200.000	0.055	-0.814
-724.879	-129.111	0.246	-0.035
-723.864	29.089	-0.329	-0.282
-722.850	-107.046	0.129	0.029
-721.835	-111.366	-0.406	0.084
-720.821	92.404	-0.099	0.113
-719.806	-138.747	-0.670	-0.074
-718.791	-4.213	0.091	-0.064
-717.777	436.154	-0.152	-0.335
-716.762	134.175	-0.542	0.709
-715.748	238.521	-0.405	0.679
-714.733	59.314	-0.572	0.569
-713.718	145.514	-0.269	0.364
-712.704	-200.000	-0.038	0.284
-711.689	-75.688	0.638	-0.229
-710.675	800.000	-0.261	-0.986
-709.660	651.632	-0.073	0.188
-708.645	-60.849	-1.117	-0.478
-707.631	-36.243	-0.214	0.117
-706.616	-22.248	-0.574	0.352
-705.602	7.571	0.483	0.365
-704.587	-111.018	0.364	-0.075
-703.572	-131.645	0.991	0.132
-702.558	-49.646	0.799	0.384
-701.543	-94.093	0.487	-0.135
-700.529	-21.836	0.253	0.155
-699.514	284.381	-0.497	0.903
-698.499	-34.628	-0.288	-0.159
-697.485	-150.748	-0.287	0.022
-696.470	26.820	0.179	0.152
-695.456	-200.000	-0.070	0.654
-694.441	-33.914	0.385	0.214
-693.426	800.000	0.106	-0.388
-692.412	-61.801	-0.387	-0.164
-691.397	-140.653	0.809	0.085
-690.383	-200.000	-0.007	-0.105
-689.368	-13.195	0.929	-0.609
-688.354	-59.174	-0.452	-0.197
-687.339	-200.000	0.132	-0.860
-686.324	800.000	0.273	-1.153
-685.310	266.213	0.148	-0.260
-684.295	-85.223	-0.469	0.148
-683.281	485.761	-0.286	-0.657
-682.266	83.877	0.226	-0.249
-681.251	-19.375	0.314	-0.197
-680.237	-106.502	0.447	0.101
-679.222	-98.189	-0.563	0.146
-678.208	-47.930	-0.738	-0.360
-677.193	800.000	-0.056	0.157
-676.178	-200.000	0.021	0.220
-675.164	-115.768	-1.383	-0.261
-674.149	-16.896	0.795	0.507
-673.135	-200.000	-0.055	0.513
-672.120	-200.000	0.057	-0.432
-671.105	78.286	-0.283	-0.305
-670.091	-200.000	0.141	0.823
-669.076	-84.734	-0.336	-0.107
-668.062	33.653	0.464	-0.407
-667.047	800.000	-0.065	0.248
-666.032	107.188	-0.461	0.553
-665.018	-51.651	0.385	-0.181
-664.003	-88.950	-1.036	0.310
-662.989	466.990	0.115	0.259
-661.974	-200.000	-0.038	0.318
-660.959	-200.000	-0.180	0.918
-659.945	-28.923	-0.461	-0.267
-658.930	800.000	-0.143	-0.495
-657.916	-200.000	-0.022	-1.558
-656.901	-200.000	-0.037	1.080
-655.886	-69.083	0.513	-0.199
-654.872	-97.610	0.401	-0.105
-653.857	98.256	-0.355	-0.412
-652.843	-126.043	-0.435	0.066
-651.828	-200.000	0.090	-0.663
-650.814	-77.544	-0.213	-0.075
-649.799	78.797	0.557	0.600
-648.784	-38.644	0.193	0.103
-647.770	542.781	-0.290	0.696
-646.755	19.991	-0.766	-0.622
-645.741	-200.000	-0.004	-0.310
-644.726	-200.000	-0.047	-0.552
-643.711	800.000	0.308	-0.930
-642.697	154.571	-0.295	0.408
-641.682	310.938	-0.185	-0.349
-640.668	-94.684	0.679	-0.186
-639.653	-188.878	-0.387	0.005
-638.638	623.419	-0.423	-1.074
-637.624	536.772	0.098	-0.234
-636.609	800.000	0.330	1.100
-635.595	-121.510	-0.761	0.127
-634.580	-55.557	-0.735	0.332
-633.565	-135.988	-0.391	-0.046
-632.551	-135.896	0.792	-0.094
-631.536	99.926	0.573	-0.669
-630.522	62.198	-0.200	-0.201
-629.507	-110.131	0.829	0.174
-628.492	57.782	-0.315	-0.311
-627.478	-87.367	-0.282	0.086
-626.463	-140.202	0.895	-0.094
-625.449	-200.000	0.086	0.704
-624.434	36.327	0.342	-0.304
-623.419	83.885	-0.483	-0.531
-622.405	-103.863	0.619	-0.146
-621.390	-135.089	0.768	0.093
-620.376	-19.562	0.407	-0.254
-619.361	-37.352	-0.241	-0.130
-618.346	606.487	0.033	-0.082
-617.332	79.914	-0.549	-0.593
-616.317	137.008	0.651	0.856
-615.303	-68.324	0.714	0.279
-614.288	509.849	0.164	0.383
-613.273	167.533	0.199	0.285
-612.259	-200.000	0.002	-0.175
-611.244	-120.246	0.777	0.133
-610.230	-45.403	0.673	-0.336
-609.215	800.000	0.149	-0.608
-608.201	800.000	0.350	1.169
-607.186	94.828	-0.275	-0.314
-606.171	390.408	0.224	0.467
-605.157	-49.545	0.314	-0.150
-604.142	-200.000	0.091	0.408
-603.128	-200.000	0.033	0.674
-602.113	387.233	0.277	0.576
-601.098	-67.655	-0.173	0.068
-600.084	-118.543	-0.202	-0.036
-599.069	-15.112	0.578	0.372
-598.055	32.031	0.680	0.590
-597.040	800.000	0.128	0.389
-596.025	179.080	0.073	-0.107
-595.011	42.878	-0.361	-0.331
-593.996	-177.176	0.932	0.023
-592.982	-71.113	-0.356	-0.134
-591.967	204.246	0.343	-0.534
-590.952	-27.674	-0.469	-0.274
-589.938	-85.230	-0.424	-0.133
-588.923	800.000	-0.180	0.534
-587.909	-70.654	0.376	0.143
-586.894	414.369	-0.146	0.313
-585.879	79.055	-0.359	-0.386
-584.865	0.731	-0.155	0.111
-583.850	310.736	-0.100	0.189
-582.836	48.264	0.699	-0.658
-581.821	-200.000	-0.071	-0.487
-580.806	13.193	-0.261	-0.203
-579.792	-200.000	-0.007	0.053
-578.777	42.944	-0.805	-0.737
-577.763	-12.600	-0.336	-0.220
-576.748	-200.000	-0.073	0.384
-575.733	-7.262	0.707	-0.481
-574.719	9.969	0.388	-0.296
-573.704	98.731	0.299	0.347
-572.690	-43.598	0.930	-0.471
-571.675	800.000	-0.059	0.253
-570.661	182.173	-0.402	-0.596
-569.646	215.141	-0.209	-0.333
-568.631	-33.504	-0.337	0.187
-567.617	-200.000	0.006	-0.174
-566.602	-51.544	-0.223	0.105
-565.588	-132.492	0.319	-0.041
-564.573	103.542	-0.132	-0.155
-563.558	105.046	-0.263	-0.312
-562.544	101.167	0.807	-0.944
-561.529	2.708	0.630	-0.459
-560.515	57.748	-0.600	-0.589
-559.500	800.000	-0.037	0.105
-558.485	232.180	-0.249	-0.411
-557.471	-200.000	-0.172	-0.818
-556.456	195.956	-0.044	0.067
-555.442	194.508	-0.370	0.562
-554.427	-200.000	0.084	-0.632
-553.412	-91.829	0.933	-0.266
-552.398	135.160	0.165	0.216
-551.383	-119.400	0.765	-0.133
-550.369	162.063	0.426	-0.599
-549.354	60.281	-0.176	0.175
-548.339	534.925	-0.174	0.414
-547.325	-174.544	0.566	-0.016
-546.310	-200.000	-0.064	-0.467
-545.296	522.322	-0.196	-0.463
-544.281	-200.000	-0.170	-0.788
-543.266	-36.455	-1.109	-0.599
-542.252	186.957	-0.508	0.760
-541.237	108.302	-0.390	0.467
-540.223	5.104	0.442	0.327
-539.208	-77.450	-0.482	0.168
-538.193	-200.000	-0.036	0.845
-537.179	27.186	-0.615	0.518
-536.164	65.843	-0.574	-0.583
-535.150	-91.073	-0.191	-0.055
-534.135	-131.736	-0.779	0.102
-533.121	-200.000	-0.160	0.780
-532.106	118.384	0.640	-0.792
-531.091	-121.119	0.531	0.089
-530.077	-129.867	0.847	0.117
-529.062	262.137	-0.228	-0.397
-528.048	-67.499	0.577	0.227
-527.033	-81.942	-0.122	0.040
-526.018	21.491	0.355	0.289
-525.004	800.000	-0.184	-0.586
-523.989	431.664	0.573	1.245
-522.975	-200.000	-0.058	0.900
-521.960	147.565	0.185	0.249
-520.945	165.992	0.423	-0.600
-519.931	-116.459	1.061	0.196
-518.916	-200.000	-0.019	0.204
-517.902	-86.750	-0.483	-0.148
-516.887	15.488	-0.656	-0.516
-515.872	99.072	-0.496	-0.574
-514.858	-108.396	0.252	-0.054
-513.843	52.789	-0.399	-0.382
-512.829	-159.825	-1.177	-0.065
-511.814	81.684	0.424	0.460
-510.799	-77.583	0.726	0.252
-509.785	-156.287	-0.242	0.015
-508.770	590.793	-0.465	1.150
-507.756	-38.868	0.411	0.217
-506.741	25.263	-0.485	-0.404
-505.726	224.506	0.205	-0.332
-504.712	-147.286	-0.476	0.041
-503.697	800.000	0.047	-0.183
-502.683	47.190	-0.514	0.480
-501.668	66.673	-0.284	-0.289
-500.653	-96.569	-0.595	-0.157
-499.639	-77.303	0.592	0.206
-498.624	289.428	0.157	0.285
-497.610	-142.725	0.356	-0.035
-496.595	-154.064	-0.719	0.049
-495.581	-141.453	-0.661	-0.067
-494.566	41.021	-0.882	0.798
-493.551	30.755	0.445	-0.382
-492.537	631.191	0.307	0.778
-491.522	81.732	-0.218	-0.236
-490.508	800.000	-0.205	0.775
-489.493	-160.885	0.619	-0.033
-488.478	-164.941	0.262	0.012
-487.464	211.260	0.220	-0.347
-486.449	191.732	0.630	-0.950
-485.435	-200.000	0.050	0.503
-484.420	-132.579	0.290	0.037
-483.405	634.409	-0.135	-0.344
-482.391	-130.723	-0.381	-0.051
-481.376	-70.412	0.373	0.142
-480.362	171.322	-0.180	0.258
-479.347	8.507	-0.720	0.542
-478.332	-21.464	-0.636	0.389
-477.318	-56.519	0.219	0.097
-476.303	36.477	-0.327	0.289
-475.289	150.117	-0.114	-0.155
-474.274	110.870	-0.254	-0.306
-473.259	-84.138	-0.116	-0.037
-472.245	-2.105	0.561	-0.394
-471.230	31.466	-0.725	0.624
-470.216	800.000	-0.151	0.479
-469.201	38.836	0.466	-0.417
-468.186	30.613	-0.397	-0.340
-467.172	-14.030	-0.124	-0.080
-466.157	-93.590	0.397	0.110
-465.143	-82.126	0.884	0.288
-464.128	91.583	-0.483	0.543
-463.113	-43.703	0.196	-0.099
-462.099	278.587	-0.102	-0.182
-461.084	14.341	0.543	0.424
-460.070	-66.375	0.721	0.287
-459.055	-200.000	-0.086	-0.934
-458.040	-112.940	0.323	-0.064
-457.026	177.753	-0.363	0.530
-456.011	-34.189	-0.182	0.100
-454.997	86.189	0.381	-0.419
-453.982	83.804	-0.414	0.452
-452.968	-75.954	-0.325	0.115
-451.953	800.000	-0.210	0.580
-450.938	22.261	1.051	0.858
-449.924	-57.358	-0.687	-0.302
-448.909	46.039	0.314	0.291
-447.895	-48.792	-0.356	0.171
-446.880	-48.001	-0.137	-0.066
-445.865	-200.000	0.021	1.244
-444.851	410.687	-0.208	0.442
-443.836	-107.561	0.445	-0.097
-442.822	72.012	0.267	0.277
-441.807	32.507	-0.556	-0.480
-440.792	-126.872	-0.386	0.057
-439.778	50.464	0.743	-0.702
-438.763	-124.763	-1.047	-0.162
-437.749	-29.521	0.692	-0.395
-436.734	38.565	0.250	-0.223
-435.719	-200.000	0.070	-0.344
-434.705	350.815	-0.367	-0.726
-433.690	800.000	0.115	-0.442
-432.676	-200.000	0.084	0.517
-431.661	800.000	0.266	0.853
-430.646	800.000	0.053	0.168
-429.632	-120.063	-0.463	-0.079
-428.617	800.000	-0.169	0.683
-427.603	-45.833	-0.797	-0.393
-426.588	161.421	-0.240	0.336
-425.573	-62.670	0.966	0.400
-424.559	10.906	-0.350	-0.267
-423.544	673.907	0.199	-0.517
-422.530	-78.565	0.405	-0.138
-421.515	-200.000	0.102	-0.501
-420.500	-102.407	1.280	0.306
-419.486	-39.847	0.248	-0.129
-418.471	326.428	-0.206	-0.393
-417.457	463.988	-0.314	0.700
-416.442	-200.000	0.002	-0.460
-415.428	-200.000	-0.059	0.408
-414.413	-200.000	0.001	0.045
-413.398	40.835	0.179	0.161
-412.384	42.254	-0.534	0.485
-411.369	-62.796	0.591	-0.244
-410.355	-200.000	0.033	-0.482
-409.340	-115.673	-0.471	-0.088
-408.325	800.000	-0.183	0.563
-407.311	16.999	0.619	-0.490
-406.296	800.000	0.103	-0.374
-405.282	-200.000	-0.200	-1.042
-404.267	-200.000	-0.041	0.582
-403.252	89.330	-0.357	0.397
-402.238	43.660	0.674	-0.615
-401.223	-200.000	0.103	0.816
-400.209	-27.928	0.408	-0.236
-399.194	130.703	-0.378	-0.483
-398.179	-28.330	0.105	-0.060
-397.165	-33.046	0.468	-0.259
-396.150	-39.982	-0.624	-0.325
-395.136	6.798	0.386	0.286
-394.121	-157.072	0.473	0.029
-393.106	326.767	-0.346	-0.662
-392.092	-200.000	0.006	0.850
-391.077	-71.137	0.175	0.066
-390.063	415.706	0.114	0.241
-389.048	35.273	0.288	-0.252
-388.033	800.000	-0.274	0.961
-387.019	-105.594	-0.876	0.198
-386.004	15.505	-0.638	-0.500
-384.990	-200.000	-0.132	-0.593
-383.975	-97.397	-0.168	-0.044
-382.960	-4.683	-0.273	0.188
-381.946	-145.163	-0.522	0.047
-380.931	130.051	-0.319	0.406
-379.917	31.846	0.303	0.260
-378.902	-200.000	-0.049	0.426
-377.888	-200.000	0.128	-0.594
-376.873	-62.507	-0.375	0.155
-375.858	800.000	-0.153	-0.635
-374.844	570.333	0.055	0.134
-373.829	800.000	-0.013	0.055
-372.815	-200.000	-0.004	0.443
-371.800	384.752	0.253	0.520
-370.785	-70.411	0.721	-0.272
-369.771	122.363	0.336	-0.418
-368.756	-70.280	-0.666	0.252
-367.742	-200.000	0.057	-0.275
-366.727	-200.000	0.013	0.272
-365.712	-112.806	-0.868	0.172
-364.698	-58.262	0.431	-0.187
-363.683	-200.000	-0.046	1.265
-362.669	72.967	0.101	0.105
-361.654	-48.937	-0.725	-0.346
-360.639	-166.553	0.847	0.035
-359.625	-200.000	-0.014	-0.060
-358.610	-107.732	-0.815	-0.177
-357.596	-0.358	0.291	0.206
-356.581	-164.561	0.228	-0.010
-355.566	-136.662	1.308	0.150
-354.552	-200.000	-0.080	0.373
-353.537	-58.853	-0.518	-0.223
-352.523	-200.000	-0.130	0.857
-351.508	81.603	-0.106	-0.115
-350.493	-12.608	1.242	-0.807
-349.479	-30.681	0.304	0.172
-348.464	-54.560	-0.624	-0.281
-347.450	677.537	0.235	-0.609
-346.435	-156.464	-0.566	-0.035
-345.420	-146.768	0.520	0.045
-344.406	800.000	-0.254	0.736
-343.391	-200.000	0.042	0.482
-342.377	-78.322	0.353	-0.121
-341.362	-200.000	0.284	-0.000
-340.348	-32.966	0.181	0.100
-339.333	16.328	0.265	0.208
-338.318	-200.000	-0.123	0.931
-337.304	67.358	-0.519	0.527
-336.289	204.731	0.531	-0.820
-335.275	382.638	0.340	-0.697
-334.260	170.688	-0.554	-0.790
-333.245	-46.739	0.450	0.219
-332.231	-200.000	-0.051	-0.543
-331.216	17.882	0.134	0.107
-330.202	348.049	0.401	-0.787
-329.187	603.279	0.167	-0.412
-328.172	52.950	0.517	-0.493
-327.158	-77.759	1.026	0.353
-326.143	12.527	0.537	0.412
-325.129	181.021	-0.549	0.803
-324.114	35.024	0.324	0.283
-323.099	-200.000	-0.127	0.726
-322.085	-104.131	-0.687	0.159
-321.070	68.991	-0.581	0.593
-320.056	-35.117	0.241	-0.130
-319.041	-29.777	-0.242	-0.137
-318.026	-76.803	-0.531	0.185
-317.012	-90.396	0.174	0.050
-315.997	-45.565	0.245	0.121
-314.983	-138.097	-1.178	-0.130
-313.968	400.689	0.347	-0.725
-312.953	-200.000	0.016	-0.812
-311.939	-156.219	0.220	-0.014
-310.924	-72.639	0.376	0.138
-309.910	118.451	0.333	0.409
-308.895	-90.158	0.549	-0.159
-307.880	-105.379	0.316	0.072
-306.866	-200.000	0.125	0.782
-305.851	-200.000	-0.076	-0.458
-304.837	-200.000	-0.060	0.646
-303.822	201.386	-0.240	-0.368
-302.807	19.604	-0.656	-0.525
-301.793	484.159	0.058	0.130
-300.778	-167.996	-1.120	-0.044
-299.764	185.354	0.229	-0.338
-298.749	-99.762	0.523	-0.130
-297.735	452.390	-0.129	-0.282
-296.720	-149.279	-0.955	0.076
-295.705	-175.668	0.583	0.016
-294.691	-72.033	0.316	0.117
-293.676	-118.264	0.455	-0.080
-292.662	-180.791	-0.070	-0.001
-291.647	387.847	0.343	-0.704
-290.632	800.000	0.167	-0.540
-289.618	-63.937	-0.679	-0.276
-288.603	81.153	0.504	-0.541
-287.589	-200.000	0.198	0.880
-286.574	-200.000	-0.021	0.213
-285.559	800.000	0.376	-1.449
-284.545	86.239	-0.116	0.126
-283.530	775.710	-0.192	-0.521
-282.516	-57.790	-0.388	-0.169
-281.501	267.157	-0.176	-0.306
-280.486	232.417	-0.462	0.753
-279.472	29.189	0.592	0.499
-278.457	35.672	-0.452	0.394
-277.443	-46.948	0.487	-0.236
-276.428	-200.000	-0.239	-1.056
-275.413	800.000	-0.132	-0.423
-274.399	-79.497	0.567	-0.190
-273.384	-111.362	0.283	-0.057
-272.370	66.068	-0.417	-0.420
-271.355	-55.520	0.772	-0.343
-270.340	-36.820	-0.318	0.169
-269.326	-200.000	-0.913	-0.002
-268.311	800.000	0.191	0.578
-267.297	-64.973	-0.249	0.100
-266.282	-40.805	0.868	0.446
-265.267	40.763	0.553	0.495
-264.253	800.000	-0.224	-0.846
-263.238	-64.340	0.482	-0.195
-262.224	-114.269	0.280	-0.054
-261.209	-200.000	0.062	-0.359
-260.195	143.341	0.143	0.188
-259.180	800.000	0.223	-0.653
-258.165	115.288	-0.718	0.870
-257.151	-140.850	0.386	-0.039
-256.136	502.504	-0.079	0.182
-255.122	297.861	0.433	0.789
-254.107	173.376	-0.184	0.264
-253.092	-57.744	-1.295	0.562
-252.078	-33.993	0.534	0.291
-251.063	380.114	0.190	0.387
-250.049	-200.000	0.017	0.935
-249.034	800.000	-0.199	0.561
-248.019	-164.169	-0.487	-0.022
-247.005	-200.000	-0.097	-0.448
-245.990	-200.000	-0.075	-0.580
-244.976	155.509	-0.357	0.487
-243.961	2.691	-0.098	-0.070
-242.946	-200.000	0.090	-0.723
-241.932	600.325	0.134	-0.330
-240.917	313.492	-0.376	-0.701
-239.903	-49.496	0.506	0.239
-238.888	102.435	-0.165	-0.191
-237.873	-103.505	0.292	0.068
-236.859	306.565	-0.085	-0.156
-235.844	-135.519	-0.762	-0.090
-234.830	225.103	-0.264	0.424
-233.815	-95.154	-0.554	0.148
-232.800	-188.400	1.031	0.013
-231.786	-66.043	-0.642	0.254
-230.771	-19.151	0.193	0.119
-229.757	-200.000	0.042	0.396
-228.742	800.000	-0.223	-0.627
-227.727	-12.826	0.169	-0.109
-226.713	-200.000	-0.088	0.624
-225.698	800.000	-0.278	0.948
-224.684	-40.025	-0.316	0.163
-223.669	-130.296	0.328	-0.044
-222.655	-200.000	0.103	1.043
-221.640	-54.828	0.662	-0.296
-220.625	-200.000	-0.045	-0.482
-219.611	519.560	0.354	0.821
-218.596	-39.730	-0.395	-0.205
-217.582	35.207	-0.505	-0.439
-216.567	18.229	0.307	0.243
-215.552	-122.146	-0.353	-0.057
-214.538	14.933	0.331	0.257
-213.523	117.309	0.476	0.580
-212.509	507.134	-0.157	0.361
-211.494	-135.186	-0.347	-0.041
-210.479	-31.985	0.511	0.283
-209.465	-200.000	0.018	-0.400
-208.450	-93.275	-0.608	-0.167
-207.436	272.924	-0.189	-0.330
-206.421	-200.000	-0.728	-0.003
-205.406	-58.798	-0.602	0.258
-204.392	77.241	0.505	0.531
-203.377	-187.654	-0.986	0.013
-202.363	-69.323	0.166	0.063
-201.348	-65.375	-0.410	0.163
-200.333	800.000	-0.173	-0.567
-199.319	-107.573	0.423	0.092
-198.304	-156.822	-1.118	-0.068
-197.290	245.282	-0.135	-0.226
-196.275	-176.137	0.378	-0.010
-195.260	24.480	0.654	0.536
-194.246	192.789	0.204	0.305
-193.231	-168.354	-1.105	0.042
-192.217	-200.000	-0.030	-0.297
-191.202	-34.022	-0.698	-0.380
-190.187	-23.241	-0.457	-0.272
-189.173	58.006	-0.773	-0.749
-188.158	-200.000	-0.017	-0.363
-187.144	-49.835	0.298	0.140
-186.129	513.695	-0.359	0.827
-185.114	-35.628	-0.161	0.086
-184.100	-22.221	-0.610	-0.366
-183.085	-200.000	0.136	-0.631
-182.071	9.053	-0.677	0.506
-181.056	15.222	0.328	-0.255
-180.042	36.541	-0.937	-0.818
-179.027	-200.000	-0.128	-0.738
-178.012	26.914	0.150	0.124
-176.998	-39.315	0.308	-0.160
-175.983	105.332	-0.241	0.282
-174.969	144.684	-0.145	0.192
-173.954	-85.377	-0.334	-0.103
-172.939	-200.000	0.027	-0.792
-171.925	-200.000	-0.188	-0.865
-170.910	-9.031	0.388	-0.257
-169.896	-63.096	-1.084	0.443
-168.881	157.088	-0.571	-0.781
-167.866	-200.000	-0.014	0.986
-166.852	607.750	-0.259	0.638
-165.837	90.970	0.278	0.309
-164.823	-200.000	0.051	-0.541
-163.808	-58.395	-0.315	-0.135
-162.793	601.060	0.361	0.886
-161.779	800.000	-0.012	-0.034
-160.764	-106.189	0.861	-0.191
-159.750	479.178	0.283	-0.634
-158.735	-81.706	-0.271	-0.088
-157.720	11.923	0.647	-0.491
-156.706	-200.000	0.099	-0.661
-155.691	-200.000	0.020	0.982
-154.677	800.000	-0.194	0.618
-153.662	73.977	0.170	0.176
-152.647	-182.328	0.502	0.009
-151.633	98.853	0.190	-0.217
-150.618	-200.000	-0.009	-0.082
-149.604	-200.000	0.016	0.570
-148.589	-29.726	0.506	0.285
-147.574	800.000	-0.096	0.373
-146.560	-200.000	-0.027	0.358
-145.545	-33.264	-0.319	0.175
-144.531	156.178	-0.242	-0.329
-143.516	338.768	-0.615	1.184
-142.502	800.000	0.171	-0.707
-141.487	-200.000	0.078	0.560
-140.472	70.027	0.739	0.754
-139.458	-54.045	0.477	0.214
-138.443	379.017	-0.084	-0.170
-137.429	-12.769	0.446	0.287
-136.414	488.719	-0.510	-1.150
-135.399	-200.000	0.079	-0.452
-134.385	800.000	-0.034	0.108
-133.370	51.243	-0.358	0.335
-132.356	-28.490	0.473	0.269
-131.341	-11.361	0.173	0.112
-130.326	56.897	-0.416	0.400
-129.312	389.129	0.476	0.973
-128.297	-200.000	0.001	-0.030
-127.283	-164.342	1.074	0.049
-126.268	74.341	-0.209	-0.217
-125.253	800.000	0.138	-0.524
-124.239	-151.515	-0.537	0.039
-123.224	-200.000	0.070	-0.343
-122.210	-117.284	-0.182	0.033
-121.195	800.000	-0.054	-0.222
