DTS Sentinel unit serial number:	SN413079Multiplexer serial number:	ORYXHardware model number:	OX4-SRSoftware version number:	ORYX F/W v4.00 Oryx Data Collector v3.7.2.0data status	okinstallation	princeton_trtdifferential loss correction	single-endedforward channel	channel 3reverse channel	N/Adate	2019/09/16time	03:56:35forward acquisition time	60.00reverse acquisition time	0.00gamma	496.2192k internal	0.2335k external	0.2335temperature offset calibration	0.9958default loss term (dB/km)	0.3790temperature slope calibration	1.0000multiplexer offset coefficient	1.0000multiplexer slope coefficient	1.0000fibre end	0.00T internal ref (°C)	27.50T ext. ref 1 (°C)	10.70T ext. ref 2 (°C)	21.60length (m)	temperature (°C)	Stokes	anti-Stokes-747.200	800.000	-0.083	-0.316
-746.185	-21.334	-0.128	0.078
-745.171	-2.428	-0.160	0.113
-744.156	442.117	0.181	0.399
-743.142	474.884	0.137	0.311
-742.127	42.088	-0.084	0.077
-741.112	6.454	-0.084	-0.063
-740.098	302.829	-0.112	-0.208
-739.083	-200.000	-0.042	0.234
-738.069	15.500	0.065	0.051
-737.054	-41.812	0.089	0.046
-736.039	-53.722	-0.321	0.147
-735.025	-200.000	0.007	0.048
-734.010	-21.786	-0.200	-0.122
-732.996	560.394	0.038	-0.092
-731.981	-9.005	-0.344	0.232
-730.966	74.554	0.166	-0.175
-729.952	306.813	-0.192	0.359
-728.937	610.471	-0.095	-0.238
-727.923	-29.269	-0.142	-0.082
-726.908	-29.515	-0.120	-0.069
-725.894	-200.000	0.000	0.083
-724.879	-59.942	-0.367	-0.157
-723.864	-126.396	-0.334	0.050
-722.850	-200.000	-0.014	-0.150
-721.835	143.819	0.099	0.132
-720.821	-200.000	-0.006	0.277
-719.806	-200.000	0.040	-0.479
-718.791	30.191	-0.094	0.081
-717.777	-38.662	0.295	-0.157
-716.762	152.130	0.113	0.155
-715.748	-106.059	-0.161	0.036
-714.733	800.000	0.099	-0.333
-713.718	-200.000	0.006	-0.220
-712.704	-200.000	-0.017	-0.168
-711.689	-200.000	-0.021	-0.097
-710.675	91.654	0.121	-0.137
-709.660	327.820	-0.185	0.357
-708.645	-170.965	0.095	0.003
-707.631	118.950	-0.088	0.110
-706.616	-164.006	-0.229	0.011
-705.602	-21.049	-0.115	-0.071
-704.587	162.210	0.126	0.177
-703.572	-200.000	-0.041	0.184
-702.558	-109.785	0.371	0.078
-701.543	19.702	-0.361	-0.292
-700.529	78.368	-0.111	0.119
-699.514	78.805	0.156	-0.167
-698.499	-138.507	-0.143	-0.016
-697.485	193.679	-0.039	-0.060
-696.470	-35.625	0.301	0.164
-695.456	-51.156	0.213	0.100
-694.441	-70.575	0.188	-0.071
-693.426	-74.785	-0.267	0.096
-692.412	115.454	-0.183	-0.225
-691.397	-72.709	-0.150	-0.055
-690.383	-116.756	-0.125	0.023
-689.368	115.875	-0.123	-0.151
-688.354	40.537	-0.174	0.157
-687.339	-51.740	0.058	-0.027
-686.324	-1.098	-0.088	-0.062
-685.310	800.000	-0.066	0.227
-684.295	20.648	0.087	0.070
-683.281	-107.496	0.292	0.064
-682.266	-200.000	0.066	0.455
-681.251	-28.850	-0.153	0.088
-680.237	513.858	0.103	-0.240
-679.222	367.692	-0.088	-0.178
-678.208	770.306	0.024	0.064
-677.193	81.215	-0.084	-0.091
-676.178	-128.237	0.325	-0.046
-675.164	-200.000	-0.091	-0.407
-674.149	800.000	-0.099	-0.420
-673.135	800.000	-0.056	-0.175
-672.120	800.000	-0.096	0.276
-671.105	-65.461	0.069	0.028
-670.091	20.703	-0.318	-0.258
-669.076	-34.342	0.050	0.028
-668.062	-86.010	0.279	-0.086
-667.047	6.630	-0.218	-0.162
-666.032	-90.184	0.342	-0.100
-665.018	-200.000	0.047	0.226
-664.003	-103.549	0.108	0.025
-662.989	356.925	-0.107	-0.213
-661.974	-33.945	-0.029	0.016
-660.959	332.007	-0.021	-0.040
-659.945	170.193	0.139	-0.199
-658.930	-26.821	-0.222	0.130
-657.916	-31.650	0.177	0.099
-656.901	-153.608	0.072	0.005
-655.886	800.000	-0.032	0.109
-654.872	1.789	-0.238	0.172
-653.857	-44.627	-0.418	0.209
-652.843	-150.086	-0.344	-0.027
-651.828	-87.158	0.299	0.091
-650.814	23.921	0.252	-0.208
-649.799	-79.816	-0.183	0.062
-648.784	111.855	0.087	0.105
-647.770	-200.000	0.030	0.206
-646.755	800.000	0.067	0.187
-645.741	82.351	-0.031	0.034
-644.726	351.395	0.062	-0.123
-643.711	-200.000	0.041	-0.180
-642.697	438.376	0.095	-0.207
-641.682	717.137	-0.158	-0.421
-640.668	5.525	0.028	0.021
-639.653	800.000	0.045	-0.140
-638.638	-17.821	-0.147	-0.093
-637.624	-13.093	-0.201	-0.131
-636.609	431.381	0.040	-0.087
-635.595	-200.000	0.022	-0.171
-634.580	86.936	-0.023	0.025
-633.565	800.000	0.164	-0.561
-632.551	-137.386	-0.066	-0.007
-631.536	-125.022	0.275	0.042
-630.522	-39.398	0.306	0.161
-629.507	20.678	-0.177	0.143
-628.492	-96.861	0.223	0.059
-627.478	60.777	0.203	0.202
-626.463	800.000	0.058	0.216
-625.449	196.517	0.031	0.047
-624.434	-200.000	-0.012	-0.427
-623.419	-170.497	-0.280	0.010
-622.405	-130.140	-0.221	-0.030
-621.390	375.251	-0.091	0.186
-620.376	-62.890	0.328	0.135
-619.361	-56.390	-0.465	0.206
-618.346	-200.000	-0.026	-0.204
-617.332	-200.000	0.026	0.129
-616.317	-32.187	-0.207	0.116
-615.303	455.181	0.093	-0.206
-614.288	-200.000	-0.050	-0.278
-613.273	-147.932	-0.018	-0.002
-612.259	12.174	0.316	0.243
-611.244	-200.000	-0.010	0.162
-610.230	-26.457	-0.340	0.199
-609.215	429.196	0.092	-0.198
-608.201	-200.000	0.040	-0.214
-607.186	-200.000	-0.025	-0.386
-606.171	-39.425	-0.403	-0.211
-605.157	-124.123	-0.419	-0.066
-604.142	93.134	0.054	0.061
-603.128	561.677	-0.032	-0.077
-602.113	-25.316	-0.216	0.128
-601.098	40.815	-0.219	-0.197
-600.084	112.100	0.145	-0.175
-599.069	189.073	-0.104	0.155
-598.055	-42.553	-0.289	0.147
-597.040	30.141	0.305	-0.260
-596.025	-200.000	0.002	-0.238
-595.011	-200.000	0.008	-0.197
-593.996	-171.063	-0.204	0.007
-592.982	90.222	0.072	-0.080
-591.967	195.210	0.333	0.506
-590.952	-108.310	-0.271	-0.058
-589.938	97.053	0.108	-0.124
-588.923	-5.393	-0.256	-0.175
-587.909	-65.726	-0.350	0.140
-586.894	-36.568	-0.187	-0.100
-585.879	-200.000	0.025	-0.125
-584.865	-110.799	-0.091	-0.019
-583.850	47.550	0.166	-0.155
-582.836	-40.836	0.236	0.122
-581.821	89.915	-0.241	0.269
-580.806	-200.000	-0.021	-0.116
-579.792	64.791	-0.159	-0.161
-578.777	126.439	0.148	-0.187
-577.763	-200.000	0.012	0.088
-576.748	-40.869	0.233	-0.120
-575.733	-200.000	-0.000	0.028
-574.719	661.883	0.103	-0.265
-573.704	800.000	0.029	0.116
-572.690	-40.543	0.276	-0.143
-571.675	800.000	0.133	-0.490
-570.661	-91.395	-0.307	0.087
-569.646	-77.871	0.188	0.065
-568.631	-200.000	0.014	0.364
-567.617	-156.260	0.136	-0.009
-566.602	-163.210	0.319	-0.015
-565.588	-162.125	0.398	-0.020
-564.573	29.626	0.228	-0.194
-563.558	-121.231	0.040	0.007
-562.544	200.494	-0.079	-0.120
-561.529	22.849	-0.203	0.166
-560.515	-25.560	0.395	-0.232
-559.500	800.000	0.024	-0.092
-558.485	622.106	0.120	-0.301
-557.471	-82.725	-0.110	0.035
-556.456	36.946	0.224	-0.198
-555.442	52.367	-0.175	-0.166
-554.427	168.438	-0.147	-0.209
-553.412	-49.242	-0.123	0.059
-552.398	-89.617	-0.428	0.125
-551.383	152.786	-0.038	-0.051
-550.369	-85.762	0.279	0.086
-549.354	-86.197	-0.056	0.017
-548.339	-135.290	0.035	0.004
-547.325	-52.268	-0.297	0.137
-546.310	-200.000	-0.003	0.102
-545.296	-116.010	-0.017	0.003
-544.281	-49.990	-0.329	0.155
-543.266	315.352	-0.086	-0.161
-542.252	-200.000	0.058	0.265
-541.237	317.441	0.186	-0.350
-540.223	34.543	-0.293	0.255
-539.208	-200.000	-0.015	0.141
-538.193	-200.000	-0.016	0.124
-537.179	-200.000	-0.053	0.338
-536.164	-200.000	0.081	0.564
-535.150	-29.765	-0.150	-0.085
-534.135	-25.574	0.208	-0.122
-533.121	282.246	0.105	-0.188
-532.106	64.430	-0.130	-0.130
-531.091	216.282	-0.066	-0.104
-530.077	-200.000	0.054	-0.431
-529.062	-200.000	0.047	-0.266
-528.048	196.688	0.139	-0.211
-527.033	-200.000	-0.003	0.075
-526.018	-200.000	-0.040	0.216
-525.004	209.320	0.059	0.092
-523.989	-93.008	0.098	-0.027
-522.975	773.271	-0.087	-0.237
-521.960	-136.005	-0.177	-0.021
-520.945	145.609	-0.070	-0.093
-519.931	55.669	-0.150	-0.145
-518.916	-20.749	-0.115	0.071
-517.902	439.662	0.097	0.210
-516.887	-30.920	0.253	0.142
-515.872	615.793	0.175	-0.437
-514.858	-113.888	-0.097	0.019
-513.843	-157.862	-0.237	-0.014
-512.829	-57.697	0.045	-0.020
-511.814	495.080	-0.100	-0.229
-510.799	-200.000	-0.005	-0.285
-509.785	-107.768	-0.329	0.071
-508.770	-200.000	0.060	0.287
-507.756	800.000	-0.141	0.462
-506.741	800.000	-0.055	0.223
-505.726	-200.000	0.027	0.285
-504.712	-171.702	0.111	0.004
-503.697	450.404	-0.090	0.198
-502.683	6.170	-0.114	0.084
-501.668	-200.000	0.002	-0.151
-500.653	557.775	-0.079	-0.189
-499.639	304.694	-0.107	0.199
-498.624	-200.000	0.046	0.226
-497.610	149.868	-0.050	0.067
-496.595	-79.365	0.400	0.135
-495.581	-47.594	-0.217	-0.105
-494.566	-76.650	-0.218	-0.076
-493.551	-141.842	-0.217	0.022
-492.537	605.436	0.147	-0.364
-491.522	-32.453	0.330	0.183
-490.508	-63.509	0.285	-0.116
-489.493	800.000	0.094	0.279
-488.478	175.718	0.146	-0.210
-487.464	214.136	-0.249	-0.392
-486.449	-129.703	-0.216	-0.030
-485.435	24.129	0.221	-0.182
-484.420	-98.445	-0.197	0.050
-483.405	117.136	0.056	-0.068
-482.391	-200.000	-0.023	-0.194
-481.376	-104.469	0.318	0.073
-480.362	-56.370	-0.149	0.066
-479.347	-200.000	-0.027	-0.152
-478.332	632.366	0.112	0.281
-477.318	-60.597	0.067	0.028
-476.303	122.888	0.050	0.063
-475.289	28.736	-0.175	0.148
-474.274	-88.929	-0.125	0.037
-473.259	800.000	-0.164	-0.492
-472.245	499.797	0.094	-0.215
-471.230	66.784	-0.115	0.117
-470.216	800.000	-0.018	0.075
-469.201	63.596	-0.124	0.124
-468.186	520.940	-0.053	0.123
-467.172	786.040	-0.093	0.253
-466.157	-110.719	0.412	0.084
-465.143	-48.604	0.247	-0.118
-464.128	-87.370	-0.207	-0.062
-463.113	218.022	0.074	0.118
-462.099	27.004	0.094	0.078
-461.084	-200.000	0.030	0.238
-460.070	-5.778	0.091	0.062
-459.055	-19.788	-0.074	0.046
-458.040	-123.949	-0.330	-0.052
-457.026	-200.000	-0.070	0.521
-456.011	-8.678	-0.214	-0.143
-454.997	800.000	-0.064	-0.186
-453.982	-200.000	-0.092	-0.000
-452.968	131.531	0.064	-0.082
-451.953	161.150	0.195	-0.271
-450.938	800.000	0.037	0.129
-449.924	30.881	-0.336	0.286
-448.909	169.634	-0.017	-0.024
-447.895	800.000	-0.033	-0.093
-446.880	-200.000	-0.010	-0.108
-445.865	-12.811	-0.178	0.115
-444.851	47.598	0.019	0.018
-443.836	800.000	0.054	0.176
-442.822	449.461	-0.081	-0.178
-441.807	-111.931	-0.134	0.027
-440.792	-200.000	0.009	0.115
-439.778	-200.000	-0.017	0.117
-438.763	359.553	-0.087	0.174
-437.749	-136.671	0.119	-0.014
-436.734	-87.859	-0.059	-0.018
-435.719	-200.000	-0.027	-0.150
-434.705	-112.157	0.363	-0.072
-433.690	3.455	-0.114	0.082
-432.676	755.801	-0.105	-0.281
-431.661	-104.866	-0.297	0.068
-430.646	-1.021	-0.224	0.158
-429.632	771.626	0.149	0.403
-428.617	-67.697	-0.252	-0.098
-427.603	108.182	0.040	0.048
-426.588	-91.787	0.291	-0.082
-425.573	506.463	0.088	-0.202
-424.559	-66.470	-0.285	0.112
-423.544	800.000	0.013	-0.046
-422.530	800.000	-0.043	-0.126
-421.515	42.079	0.141	-0.127
-420.500	237.439	0.113	0.187
-419.486	-27.527	-0.095	0.055
-418.471	208.425	-0.085	0.132
-417.457	84.833	0.174	-0.189
-416.442	800.000	0.038	0.126
-415.428	-200.000	0.004	-0.051
-414.413	464.705	-0.047	-0.105
-413.398	-63.408	-0.277	0.113
-412.384	355.564	0.118	0.232
-411.369	800.000	-0.017	-0.073
-410.355	24.140	-0.087	-0.071
-409.340	-34.688	-0.475	-0.258
-408.325	-68.284	0.294	0.113
-407.311	-200.000	0.004	-0.313
-406.296	254.173	0.091	0.154
-405.282	-29.728	0.164	0.093
-404.267	-200.000	0.036	0.256
-403.252	480.747	-0.067	0.151
-402.238	-87.227	0.035	0.011
-401.223	65.509	-0.083	-0.083
-400.209	-200.000	0.017	-0.393
-399.194	-79.170	-0.232	0.078
-398.179	634.817	-0.159	0.400
-397.165	-47.767	-0.296	0.142
-396.150	-76.486	0.459	0.160
-395.136	83.903	-0.105	0.114
-394.121	49.002	0.103	-0.096
-393.106	563.154	-0.133	-0.320
-392.092	-200.000	0.010	0.222
-391.077	-179.975	-0.262	-0.006
-390.063	-160.257	0.257	0.014
-389.048	-34.267	-0.574	0.312
-388.033	-53.733	0.235	-0.106
-387.019	-76.630	-0.262	0.091
-386.004	-200.000	-0.010	0.137
-384.990	-5.455	-0.197	-0.134
-383.975	-88.002	0.143	0.043
-382.960	-7.101	-0.194	0.131
-381.946	100.075	-0.198	0.227
-380.931	-167.871	-0.504	-0.020
-379.917	-200.000	0.012	0.105
-378.902	24.782	0.205	0.168
-377.888	7.332	0.520	-0.385
-376.873	23.978	-0.166	0.135
-375.858	123.790	0.169	-0.210
-374.844	800.000	-0.054	-0.189
-373.829	-65.637	0.075	0.030
-372.815	-200.000	0.053	0.420
-371.800	-60.443	0.220	-0.092
-370.785	132.900	-0.040	-0.051
-369.771	-200.000	-0.013	-0.241
-368.756	-71.138	-0.186	0.069
-367.742	800.000	0.026	-0.102
-366.727	88.078	-0.149	-0.164
-365.712	95.654	0.236	0.267
-364.698	195.491	0.073	0.110
-363.683	-39.931	0.211	0.109
-362.669	-139.159	0.105	0.011
-361.654	-200.000	-0.009	0.336
-360.639	-82.283	0.601	0.194
-359.625	800.000	-0.083	0.253
-358.610	-200.000	0.018	0.348
-357.596	-50.790	-0.156	-0.073
-356.581	-200.000	-0.004	-0.039
-355.566	-34.356	0.204	-0.111
-354.552	-200.000	0.045	-0.342
-353.537	182.171	-0.213	-0.311
-352.523	-69.653	0.156	-0.059
-351.508	800.000	0.059	-0.186
-350.493	59.542	-0.296	0.289
-349.479	-34.901	0.169	0.091
-348.464	-200.000	0.003	-0.224
-347.450	780.156	-0.041	-0.112
-346.435	-147.914	0.098	-0.008
-345.420	592.524	-0.110	-0.269
-344.406	-87.247	-0.060	-0.018
-343.391	67.347	0.122	0.123
-342.377	-49.139	-0.198	0.094
-341.362	79.262	-0.144	0.152
-340.348	475.601	-0.162	0.361
-339.333	482.375	0.126	0.282
-338.318	279.188	0.192	-0.339
-337.304	-177.339	-0.141	-0.003
-336.289	795.088	0.048	-0.130
-335.275	-200.000	-0.001	-0.129
-334.260	656.598	-0.112	0.283
-333.245	344.818	0.155	0.301
-332.231	-69.060	0.222	-0.085
-331.216	800.000	-0.104	-0.341
-330.202	45.404	0.217	-0.198
-329.187	-200.000	-0.033	-0.371
-328.172	-51.117	-0.038	-0.018
-327.158	343.798	0.151	-0.294
-326.143	-35.814	0.234	-0.125
-325.129	-189.035	0.189	-0.002
-324.114	90.469	0.227	-0.251
-323.099	387.507	-0.143	-0.292
-322.085	-200.000	-0.049	0.299
-321.070	-11.617	-0.257	0.167
-320.056	-19.975	0.177	0.108
-319.041	-200.000	0.017	-0.076
-318.026	228.791	0.070	-0.113
-317.012	711.318	-0.025	-0.065
-315.997	-200.000	0.044	-0.318
-314.983	-42.698	-0.269	-0.135
-313.968	-54.160	0.133	0.060
-312.953	-200.000	0.035	0.334
-311.939	-200.000	-0.014	-0.249
-310.924	36.770	-0.024	0.021
-309.910	800.000	-0.045	0.177
-308.895	497.200	0.033	-0.076
-307.880	-200.000	-0.002	0.148
-306.866	-158.851	-0.073	0.004
-305.851	-126.577	0.200	0.029
-304.837	37.360	0.178	-0.155
-303.822	-83.544	0.013	0.004
-302.807	-200.000	0.008	0.338
-301.793	800.000	-0.099	0.356
-300.778	98.972	0.251	0.286
-299.764	564.938	0.143	0.342
-298.749	-40.424	-0.055	-0.028
-297.735	100.628	0.395	-0.453
-296.720	-68.678	0.210	-0.080
-295.705	-200.000	0.047	-0.216
-294.691	800.000	-0.023	0.090
-293.676	175.462	0.181	0.259
-292.662	-161.391	-0.436	-0.022
-291.647	-53.082	0.079	0.036
-290.632	-73.628	-0.082	-0.030
-289.618	-135.800	0.273	0.032
-288.603	-200.000	0.018	0.393
-287.589	-44.070	0.100	-0.050
-286.574	155.709	-0.246	0.335
-285.559	4.652	-0.222	0.161
-284.545	502.944	0.126	0.286
-283.530	800.000	0.029	0.113
-282.516	800.000	0.039	0.168
-281.501	-200.000	-0.002	-0.140
-280.486	372.585	0.098	0.196
-279.472	41.188	0.327	0.292
-278.457	-200.000	0.015	0.103
-277.443	-63.830	-0.310	0.125
-276.428	27.090	0.177	-0.146
-275.413	-57.633	-0.080	0.035
-274.399	800.000	-0.078	0.234
-273.384	12.485	0.234	-0.178
-272.370	5.871	-0.253	-0.185
-271.355	-200.000	0.024	0.144
-270.340	-66.195	-0.318	-0.125
-269.326	234.346	0.159	0.258
-268.311	1.333	0.266	0.188
-267.297	51.608	-0.212	-0.198
-266.282	-96.970	-0.258	-0.067
-265.267	-161.409	0.272	-0.014
-264.253	-143.490	-0.476	-0.045
-263.238	226.502	0.198	0.316
-262.224	191.652	0.032	0.047
-261.209	-200.000	-0.029	0.158
-260.195	-122.500	0.111	-0.018
-259.180	800.000	-0.040	-0.118
-258.165	14.820	0.172	-0.132
-257.151	-8.066	0.290	-0.192
-256.136	233.260	-0.201	-0.326
-255.122	-15.081	-0.210	0.133
-254.107	-55.616	0.312	-0.138
-253.092	24.788	0.390	0.318
-252.078	-81.288	0.210	0.068
-251.063	11.873	-0.278	0.211
-250.049	-50.512	-0.219	0.102
-249.034	-87.607	-0.091	0.027
-248.019	800.000	0.070	0.211
-247.005	112.077	0.269	-0.320
-245.990	-177.473	-0.147	0.004
-244.976	259.761	-0.169	-0.288
-243.961	-47.569	-0.163	-0.078
-242.946	-200.000	-0.088	-0.450
-241.932	800.000	0.077	-0.266
-240.917	16.567	0.212	-0.165
-239.903	84.208	-0.204	-0.220
-238.888	181.476	-0.122	-0.176
-237.873	-176.457	0.284	0.007
-236.859	-50.122	-0.257	0.120
-235.844	-200.000	-0.034	0.221
-234.830	-63.481	-0.064	0.026
-233.815	241.764	-0.060	-0.100
-232.800	130.145	0.191	0.240
-231.786	-200.000	0.028	0.170
-230.771	-117.299	-0.109	0.020
-229.757	-134.792	-0.305	-0.037
-228.742	603.122	0.161	-0.393
-227.727	-173.477	0.379	0.011
-226.713	-16.443	0.219	0.137
-225.698	-200.000	0.008	-0.053
-224.684	-144.967	0.049	0.004
-223.669	-86.091	0.116	0.035
-222.655	61.541	-0.259	-0.254
-221.640	800.000	-0.027	0.113
-220.625	15.967	0.145	-0.113
-219.611	-132.421	0.222	-0.028
-218.596	-54.440	0.091	-0.040
-217.582	684.284	-0.098	0.252
-216.567	-8.376	-0.167	0.110
-215.552	43.492	-0.137	0.124
-214.538	90.935	0.056	-0.061
-213.523	629.575	-0.075	0.188
-212.509	73.297	0.086	0.088
-211.494	-110.098	0.245	0.050
-210.479	-82.107	0.257	0.082
-209.465	367.119	0.159	0.316
-208.450	-200.000	0.012	-0.133
-207.436	-18.867	0.037	0.022
-206.421	24.399	-0.185	0.150
-205.406	-137.331	-0.294	-0.033
-204.392	150.504	-0.026	-0.035
-203.377	-62.731	0.054	-0.022
-202.363	-8.914	-0.039	0.025
-201.348	506.598	0.085	-0.193
-200.333	-25.153	-0.174	-0.101
-199.319	121.101	0.135	-0.165
-198.304	27.190	0.328	-0.271
-197.290	187.615	-0.099	-0.145
-196.275	222.895	-0.208	-0.330
-195.260	278.108	-0.180	-0.315
-194.246	800.000	0.047	-0.190
-193.231	261.114	-0.116	-0.198
-192.217	83.567	0.190	0.203
-191.202	668.984	0.156	0.397
-190.187	-68.418	0.165	0.063
-189.173	-44.384	0.459	0.226
-188.158	-135.477	-0.219	-0.026
-187.144	-65.329	0.135	-0.053
-186.129	435.151	0.144	0.307
-185.114	-200.000	0.016	0.423
-184.100	-200.000	0.045	-0.311
-183.085	-13.276	0.170	-0.109
-182.071	189.595	0.021	0.031
-181.056	-200.000	0.021	-0.110
-180.042	92.141	0.086	0.095
-179.027	-122.084	-0.061	0.010
-178.012	-189.524	0.070	-0.001
-176.998	800.000	-0.069	0.202
-175.983	400.564	0.204	0.420
-174.969	592.936	0.040	0.097
-173.954	-69.273	0.481	0.182
-172.939	35.549	-0.196	-0.169
-171.925	-97.807	-0.248	-0.063
-170.910	157.100	-0.137	-0.186
-169.896	95.170	-0.061	-0.068
-168.881	-200.000	0.047	-0.344
-167.866	-200.000	-0.005	0.208
-166.852	800.000	0.095	-0.282
-165.837	800.000	-0.080	-0.294
-164.823	39.734	-0.063	0.056
-163.808	-97.593	0.114	0.029
-162.793	679.109	0.124	0.317
-161.779	569.865	0.113	0.270
-160.764	64.653	0.189	-0.187
-159.750	800.000	-0.078	0.238
-158.735	-156.750	-0.350	-0.021
-157.720	38.637	0.223	-0.195
-156.706	40.181	-0.131	0.116
-155.691	-26.131	-0.182	-0.105
-154.677	-23.449	-0.209	0.123
-153.662	-151.671	0.057	0.004
-152.647	38.313	-0.055	-0.048
-151.633	-200.000	-0.029	-0.139
-150.618	-200.000	-0.009	-0.104
-149.604	109.899	0.107	-0.126
-148.589	158.920	-0.103	0.141
-147.574	-139.043	0.238	-0.025
-146.560	428.779	-0.079	0.168
-145.545	-200.000	-0.029	-0.245
-144.531	-94.459	0.462	-0.124
-143.516	-143.753	-0.489	0.045
-142.502	610.163	0.079	-0.194
-141.487	-200.000	-0.024	-0.215
-140.472	-200.000	0.008	-0.245
-139.458	66.301	-0.091	-0.091
-138.443	274.332	-0.170	-0.296
-137.429	521.985	-0.130	-0.299
-136.414	89.185	-0.154	-0.168
-135.399	-140.360	0.166	-0.017
-134.385	800.000	0.092	-0.306
-133.370	-93.909	-0.130	0.035
-132.356	-101.514	-0.160	0.038
-131.341	-13.001	0.147	-0.094
-130.326	-200.000	-0.020	0.229
-129.312	541.371	0.155	0.362
-128.297	-145.263	-0.194	-0.017
-127.283	-200.000	0.045	0.211
-126.268	47.247	0.138	0.126
-125.253	224.824	-0.147	0.233
-124.239	-200.000	0.066	0.531
-123.224	376.645	-0.124	0.248
-122.210	800.000	0.015	-0.061
-121.195	-123.584	-0.132	0.021
