DTS Sentinel unit serial number:	SN413079Multiplexer serial number:	ORYXHardware model number:	OX4-SRSoftware version number:	ORYX F/W v4.00 Oryx Data Collector v3.7.2.0data status	okinstallation	princeton_trtdifferential loss correction	single-endedforward channel	channel 3reverse channel	N/Adate	2019/09/12time	23:20:35forward acquisition time	60.00reverse acquisition time	0.00gamma	496.2192k internal	0.2328k external	0.2328temperature offset calibration	1.0127default loss term (dB/km)	0.3790temperature slope calibration	1.0000multiplexer offset coefficient	1.0000multiplexer slope coefficient	1.0000fibre end	0.00T internal ref (°C)	29.08T ext. ref 1 (°C)	3.75T ext. ref 2 (°C)	23.69length (m)	temperature (°C)	Stokes	anti-Stokes-747.200	-113.732	-0.235	-0.046
-746.185	561.228	-0.128	0.312
-745.171	285.646	0.075	-0.136
-744.156	167.915	-0.295	0.423
-743.142	800.000	0.008	0.022
-742.127	800.000	0.042	-0.134
-741.112	256.675	0.063	-0.110
-740.098	73.106	-0.098	0.103
-739.083	-56.811	-0.210	0.094
-738.069	800.000	-0.157	0.506
-737.054	-135.808	0.064	-0.008
-736.039	739.698	0.165	-0.445
-735.025	5.951	0.089	0.066
-734.010	-126.997	-0.377	0.056
-732.996	561.748	0.150	-0.366
-731.981	211.306	-0.124	-0.197
-730.966	-116.892	-0.390	0.072
-729.952	60.235	0.098	0.098
-728.937	35.230	-0.154	-0.136
-727.923	-200.000	-0.002	-0.311
-726.908	-45.915	-0.306	0.152
-725.894	-65.527	0.091	0.037
-724.879	490.654	0.093	-0.214
-723.864	-164.369	-0.365	-0.017
-722.850	128.437	0.148	0.190
-721.835	-200.000	0.035	-0.460
-720.821	78.505	-0.121	-0.130
-719.806	-81.506	-0.158	-0.052
-718.791	130.815	0.061	-0.079
-717.777	383.562	0.149	0.309
-716.762	-200.000	0.038	-0.184
-715.748	-41.275	-0.317	-0.165
-714.733	-200.000	-0.009	0.132
-713.718	136.714	-0.124	-0.163
-712.704	-200.000	0.034	-0.450
-711.689	-27.508	0.091	0.053
-710.675	800.000	-0.110	0.315
-709.660	-128.429	0.082	-0.012
-708.645	-200.000	-0.044	-0.268
-707.631	-200.000	0.067	0.392
-706.616	-8.887	-0.392	0.264
-705.602	-200.000	0.054	-0.277
-704.587	-200.000	-0.018	0.219
-703.572	337.920	-0.042	-0.082
-702.558	-200.000	0.027	-0.183
-701.543	800.000	-0.084	0.247
-700.529	-196.117	0.242	-0.002
-699.514	-181.125	-0.239	-0.005
-698.499	482.060	0.126	-0.288
-697.485	55.327	0.157	0.153
-696.470	-200.000	0.014	0.217
-695.456	800.000	-0.002	-0.008
-694.441	550.350	0.098	-0.236
-693.426	-112.986	0.148	0.029
-692.412	800.000	-0.055	0.225
-691.397	232.174	-0.193	0.319
-690.383	43.468	-0.189	0.174
-689.368	-200.000	0.008	0.362
-688.354	-42.313	0.203	-0.104
-687.339	235.917	-0.227	-0.378
-686.324	-200.000	-0.002	0.255
-685.310	-163.991	-0.187	0.009
-684.295	-167.422	-0.410	-0.017
-683.281	-114.076	0.439	0.085
-682.266	-142.091	-0.158	-0.016
-681.251	-67.382	0.286	-0.113
-680.237	15.210	0.014	0.011
-679.222	-76.702	-0.286	0.101
-678.208	23.544	0.212	0.175
-677.193	228.550	0.129	0.212
-676.178	54.942	-0.237	0.230
-675.164	396.284	-0.198	-0.414
-674.149	-146.953	-0.298	-0.026
-673.135	-88.931	-0.512	0.152
-672.120	126.518	-0.204	0.259
-671.105	-11.427	-0.033	-0.022
-670.091	760.656	-0.102	-0.278
-669.076	800.000	0.093	0.344
-668.062	-156.236	0.229	-0.014
-667.047	-73.572	-0.182	-0.067
-666.032	-87.477	-0.071	-0.022
-665.018	94.643	0.112	0.128
-664.003	12.432	0.378	0.293
-662.989	129.496	-0.120	0.155
-661.974	-48.765	-0.065	0.031
-660.959	-200.000	0.009	-0.099
-659.945	260.614	-0.068	-0.119
-658.930	84.185	-0.104	-0.114
-657.916	24.367	0.050	0.041
-656.901	-64.181	-0.062	-0.026
-655.886	284.162	-0.139	0.252
-654.872	-104.719	-0.262	0.061
-653.857	-103.134	-0.137	0.032
-652.843	-200.000	0.019	-0.165
-651.828	-200.000	0.039	0.296
-650.814	-80.604	0.480	-0.160
-649.799	136.825	-0.095	0.124
-648.784	-200.000	0.001	0.044
-647.770	-77.603	0.193	0.067
-646.755	101.232	0.128	0.150
-645.741	124.437	-0.076	0.096
-644.726	800.000	0.071	0.286
-643.711	-103.961	-0.151	0.035
-642.697	-148.048	-0.235	0.020
-641.682	76.598	0.037	0.040
-640.668	-108.721	0.087	0.019
-639.653	442.246	0.102	-0.224
-638.638	111.928	0.183	-0.221
-637.624	-51.201	0.135	0.063
-636.609	236.784	-0.183	-0.304
-635.595	-138.869	0.183	-0.020
-634.580	552.899	-0.056	-0.135
-633.565	800.000	-0.067	0.261
-632.551	252.896	0.190	-0.325
-631.536	-30.160	0.365	-0.208
-630.522	763.645	0.123	0.334
-629.507	545.462	-0.035	-0.084
-628.492	800.000	0.014	0.046
-627.478	-51.175	-0.056	-0.026
-626.463	-22.058	0.120	0.073
-625.449	-70.823	0.465	0.176
-624.434	60.059	0.179	0.177
-623.419	128.928	-0.230	0.294
-622.405	95.973	0.136	-0.156
-621.390	-124.035	-0.059	0.009
-620.376	-200.000	-0.010	-0.132
-619.361	-200.000	0.004	-0.087
-618.346	-200.000	0.020	-0.169
-617.332	-186.215	0.045	-0.001
-616.317	41.080	0.273	0.247
-615.303	262.293	-0.012	0.022
-614.288	-108.156	0.097	-0.021
-613.273	-96.932	-0.515	-0.135
-612.259	-200.000	0.049	0.222
-611.244	58.203	0.126	-0.124
-610.230	-72.804	-0.309	-0.114
-609.215	135.088	0.197	-0.257
-608.201	-28.513	-0.199	0.115
-607.186	23.354	-0.141	0.116
-606.171	800.000	-0.077	0.259
-605.157	-23.585	0.246	0.148
-604.142	106.128	-0.142	-0.168
-603.128	48.071	0.373	0.350
-602.113	20.775	0.236	0.192
-601.098	-86.153	-0.297	-0.092
-600.084	-143.185	-0.290	-0.028
-599.069	-200.000	0.025	0.363
-598.055	800.000	0.044	-0.168
-597.040	-200.000	0.006	0.028
-596.025	-200.000	-0.033	-0.204
-595.011	70.799	-0.266	-0.276
-593.996	13.718	0.071	0.055
-592.982	-200.000	0.002	-0.064
-591.967	167.696	0.258	-0.367
-590.952	628.244	-0.114	-0.288
-589.938	44.357	0.165	0.152
-588.923	-63.114	0.345	0.143
-587.909	-127.272	-0.236	0.035
-586.894	13.617	-0.164	0.127
-585.879	21.101	0.277	-0.225
-584.865	-93.073	0.254	0.071
-583.850	-15.147	-0.360	-0.231
-582.836	99.220	0.045	0.053
-581.821	-47.808	-0.116	0.056
-580.806	-200.000	-0.020	0.116
-579.792	-200.000	-0.008	-0.124
-578.777	-113.202	0.143	0.028
-577.763	-200.000	-0.007	0.090
-576.748	179.578	0.172	-0.252
-575.733	-27.994	0.091	-0.053
-574.719	347.731	0.194	-0.384
-573.704	-44.148	0.321	-0.161
-572.690	-67.746	-0.461	-0.181
-571.675	-52.334	0.073	0.034
-570.661	63.883	0.104	0.105
-569.646	-111.603	-0.055	0.011
-568.631	-200.000	0.047	0.355
-567.617	292.548	0.015	-0.028
-566.602	-186.280	-0.128	0.002
-565.588	800.000	-0.022	-0.067
-564.573	530.477	-0.033	-0.077
-563.558	-200.000	0.049	-0.288
-562.544	-94.417	-0.210	-0.057
-561.529	-85.551	0.308	-0.096
-560.515	592.909	-0.136	-0.335
-559.500	217.067	0.162	-0.259
-558.485	800.000	0.067	-0.209
-557.471	800.000	0.058	0.164
-556.456	-24.039	0.082	-0.049
-555.442	190.113	-0.152	0.228
-554.427	-23.568	0.119	0.071
-553.412	98.281	-0.021	-0.024
-552.398	-200.000	0.026	0.213
-551.383	-200.000	-0.002	-0.094
-550.369	71.266	0.048	0.050
-549.354	3.139	0.143	-0.104
-548.339	800.000	0.034	-0.095
-547.325	-110.969	-0.224	-0.046
-546.310	56.028	0.159	-0.155
-545.296	-12.285	-0.211	-0.138
-544.281	-71.655	-0.453	0.169
-543.266	-88.047	0.513	-0.154
-542.252	-200.000	-0.042	0.210
-541.237	-115.652	-0.184	0.035
-540.223	180.734	0.206	0.302
-539.208	800.000	0.102	0.424
-538.193	800.000	-0.082	-0.238
-537.179	388.037	-0.105	-0.217
-536.164	-138.032	0.427	-0.048
-535.150	-59.407	-0.312	-0.134
-534.135	-124.676	-0.098	-0.015
-533.121	61.883	0.299	0.298
-532.106	-34.123	-0.099	0.054
-531.091	12.887	-0.136	0.105
-530.077	-133.484	-0.117	0.015
-529.062	219.713	-0.116	0.186
-528.048	599.146	-0.141	0.351
-527.033	-200.000	-0.019	0.250
-526.018	-125.581	0.113	-0.017
-525.004	-200.000	0.027	0.354
-523.989	235.323	-0.245	-0.404
-522.975	-63.016	0.115	0.047
-521.960	-129.750	-0.091	0.013
-520.945	57.528	-0.248	0.242
-519.931	-177.564	-0.265	-0.006
-518.916	22.154	0.163	0.133
-517.902	326.362	-0.231	-0.442
-516.887	226.101	0.117	-0.189
-515.872	260.850	-0.148	-0.255
-514.858	-95.010	0.116	0.031
-513.843	-39.023	0.220	-0.116
-512.829	80.776	-0.036	-0.039
-511.814	67.982	0.084	0.086
-510.799	125.447	0.136	0.172
-509.785	800.000	-0.026	0.076
-508.770	-25.278	-0.281	-0.166
-507.756	37.553	-0.284	0.251
-506.741	-61.699	-0.219	-0.092
-505.726	170.547	0.270	-0.386
-504.712	-68.694	0.055	-0.021
-503.697	-200.000	-0.014	-0.145
-502.683	446.023	0.076	0.166
-501.668	-200.000	0.019	0.117
-500.653	-97.119	0.276	0.072
-499.639	-134.335	-0.026	0.003
-498.624	-52.214	-0.188	0.087
-497.610	406.155	0.102	0.214
-496.595	800.000	-0.004	-0.013
-495.581	184.785	0.152	0.225
-494.566	225.522	0.168	0.271
-493.551	-159.866	0.183	-0.010
-492.537	800.000	-0.056	-0.164
-491.522	-82.517	0.211	-0.068
-490.508	-4.132	-0.135	0.093
-489.493	665.036	0.129	-0.333
-488.478	-200.000	0.006	0.130
-487.464	-24.213	-0.382	0.227
-486.449	-200.000	-0.034	-0.174
-485.435	-28.354	0.106	0.061
-484.420	-78.306	0.079	-0.027
-483.405	-20.533	-0.206	-0.127
-482.391	-154.603	-0.043	-0.003
-481.376	138.787	-0.136	-0.178
-480.362	-143.531	0.358	-0.034
-479.347	-5.060	-0.278	-0.191
-478.332	323.347	0.062	0.118
-477.318	-84.647	-0.083	0.026
-476.303	28.502	0.183	-0.154
-475.289	-41.134	0.160	0.082
-474.274	-105.876	0.132	-0.030
-473.259	39.891	-0.190	0.170
-472.245	-135.915	0.112	0.013
-471.230	144.939	-0.041	0.055
-470.216	-39.111	-0.352	0.184
-469.201	526.133	0.171	0.403
-468.186	800.000	-0.037	0.125
-467.172	-118.999	-0.088	0.015
-466.157	-138.698	0.078	-0.008
-465.143	-200.000	0.006	0.187
-464.128	-200.000	-0.034	0.151
-463.113	-9.077	-0.192	0.128
-462.099	-93.015	0.207	-0.058
-461.084	62.594	-0.310	-0.309
-460.070	11.766	-0.044	-0.034
-459.055	-200.000	0.056	0.274
-458.040	-115.318	0.167	-0.031
-457.026	138.454	-0.128	-0.168
-456.011	-113.912	-0.034	-0.007
-454.997	9.862	-0.140	0.106
-453.982	800.000	0.008	-0.025
-452.968	-169.579	-0.223	-0.008
-451.953	800.000	-0.072	-0.294
-450.938	-76.055	-0.222	-0.078
-449.924	-43.716	-0.180	0.091
-448.909	-105.150	-0.087	0.020
-447.895	271.086	0.079	-0.138
-446.880	-136.581	0.201	0.023
-445.865	-200.000	0.005	0.084
-444.851	147.641	-0.160	0.214
-443.836	-28.437	0.281	-0.162
-442.822	-34.561	0.050	-0.027
-441.807	-6.754	-0.188	0.127
-440.792	-102.553	-0.521	0.124
-439.778	-88.382	-0.044	-0.013
-438.763	-154.207	-0.339	0.023
-437.749	-163.894	-0.280	0.013
-436.734	-200.000	-0.026	0.180
-435.719	-153.478	0.087	-0.006
-434.705	800.000	-0.044	0.125
-433.690	-112.973	0.198	0.039
-432.676	303.528	-0.070	0.129
-431.661	-94.565	-0.130	0.035
-430.646	800.000	-0.020	0.068
-429.632	-113.108	-0.302	0.059
-428.617	-109.305	-0.355	-0.075
-427.603	-22.100	0.385	-0.232
-426.588	593.940	0.140	-0.346
-425.573	87.330	0.280	0.309
-424.559	-8.228	0.267	0.179
-423.544	-200.000	0.015	-0.162
-422.530	-126.778	0.281	0.041
-421.515	-82.742	-0.140	0.045
-420.500	-46.874	-0.152	-0.074
-419.486	-200.000	-0.000	0.074
-418.471	461.129	0.078	0.174
-417.457	-56.961	-0.042	-0.018
-416.442	233.987	-0.146	0.239
-415.428	-29.390	0.227	-0.129
-414.413	800.000	0.024	-0.084
-413.398	-200.000	-0.093	-0.440
-412.384	580.656	-0.124	-0.302
-411.369	-9.261	-0.108	0.072
-410.355	-169.803	0.139	0.005
-409.340	-20.414	-0.047	0.029
-408.325	800.000	0.075	0.211
-407.311	18.177	-0.136	0.108
-406.296	-170.266	-0.227	0.008
-405.282	219.159	-0.245	-0.389
-404.267	-105.567	-0.096	0.022
-403.252	-99.107	0.143	-0.036
-402.238	338.084	-0.168	0.324
-401.223	-200.000	-0.003	0.324
-400.209	-131.470	0.163	0.021
-399.194	-200.000	-0.057	0.272
-398.179	800.000	-0.136	-0.374
-397.165	-44.099	-0.187	0.093
-396.150	800.000	0.089	0.289
-395.136	58.747	0.165	-0.162
-394.121	365.450	-0.132	0.264
-393.106	-200.000	-0.004	0.289
-392.092	-200.000	-0.026	-0.180
-391.077	81.545	0.093	-0.100
-390.063	-39.755	-0.169	0.088
-389.048	-97.360	-0.422	-0.109
-388.033	800.000	-0.023	0.069
-387.019	-66.023	-0.055	-0.022
-386.004	-81.527	-0.099	0.032
-384.990	543.202	-0.122	0.290
-383.975	104.587	-0.056	0.065
-382.960	800.000	-0.082	0.306
-381.946	-161.217	0.246	0.013
-380.931	800.000	-0.073	0.220
-379.917	800.000	0.130	0.457
-378.902	-46.887	-0.358	0.174
-377.888	-135.000	-0.100	0.012
-376.873	124.798	0.067	0.083
-375.858	-200.000	-0.033	0.300
-374.844	-33.024	0.282	-0.155
-373.829	-50.851	0.308	-0.144
-372.815	-155.067	-0.257	0.017
-371.800	-200.000	-0.050	0.318
-370.785	83.818	0.159	0.172
-369.771	50.942	0.279	0.263
-368.756	94.198	-0.308	-0.347
-367.742	-200.000	0.005	-0.174
-366.727	800.000	0.074	-0.212
-365.712	221.634	0.222	-0.353
-364.698	-101.882	-0.315	0.076
-363.683	-200.000	-0.007	0.232
-362.669	332.003	0.191	-0.366
-361.654	232.459	0.179	0.292
-360.639	-53.424	0.198	-0.090
-359.625	-200.000	-0.023	0.126
-358.610	151.200	0.149	-0.202
-357.596	-200.000	0.029	-0.194
-356.581	-19.929	0.146	0.089
-355.566	408.290	-0.033	0.069
-354.552	334.947	-0.232	0.447
-353.537	251.675	-0.077	0.130
-352.523	-64.037	0.094	-0.038
-351.508	-121.360	-0.076	-0.013
-350.493	-157.697	0.223	0.013
-349.479	287.769	0.090	0.161
-348.464	-200.000	0.026	0.247
-347.450	-200.000	-0.065	-0.307
-346.435	27.897	-0.033	0.028
-345.420	-200.000	0.053	-0.448
-344.406	-200.000	-0.004	0.088
-343.391	518.562	0.071	0.166
-342.377	170.127	-0.098	-0.139
-341.362	800.000	0.075	0.316
-340.348	-200.000	-0.011	0.188
-339.333	-51.753	-0.148	0.068
-338.318	-46.401	-0.238	0.116
-337.304	95.704	-0.250	-0.283
-336.289	151.309	0.043	-0.058
-335.275	-121.644	-0.290	-0.048
-334.260	177.848	-0.307	0.444
-333.245	800.000	-0.090	-0.288
-332.231	-72.865	0.265	-0.097
-331.216	214.715	-0.023	-0.036
-330.202	-200.000	0.036	0.344
-329.187	78.782	-0.181	0.192
-328.172	-38.011	0.255	0.134
-327.158	314.983	0.165	-0.308
-326.143	-25.635	-0.195	0.114
-325.129	800.000	0.086	0.347
-324.114	-77.016	0.121	0.042
-323.099	-102.444	-0.457	-0.108
-322.085	84.878	-0.156	-0.170
-321.070	250.077	-0.082	-0.138
-320.056	-6.039	0.193	0.131
-319.041	585.269	-0.035	-0.086
-318.026	-23.583	-0.229	-0.136
-317.012	-76.616	0.277	0.096
-315.997	-31.348	-0.231	-0.129
-314.983	-200.000	0.067	0.387
-313.968	-29.712	0.188	0.107
-312.953	45.512	0.338	0.309
-311.939	63.274	0.198	-0.197
-310.924	98.117	0.146	-0.166
-309.910	231.921	0.186	-0.302
-308.895	651.720	0.057	-0.144
-307.880	-200.000	0.009	-0.066
-306.866	-24.325	0.121	-0.072
-305.851	800.000	-0.036	0.146
-304.837	-31.392	-0.032	0.018
-303.822	-200.000	0.031	-0.244
-302.807	32.213	-0.240	0.205
-301.793	660.456	-0.072	0.184
-300.778	800.000	-0.076	-0.211
-299.764	52.415	-0.112	-0.106
-298.749	-200.000	0.011	-0.195
-297.735	-59.672	0.376	-0.160
-296.720	-200.000	-0.006	-0.053
-295.705	94.897	-0.161	-0.182
-294.691	-167.309	0.124	-0.005
-293.676	-138.081	-0.277	0.031
-292.662	-8.538	-0.156	-0.104
-291.647	-104.815	-0.023	0.005
-290.632	226.790	0.028	0.044
-289.618	800.000	-0.034	0.146
-288.603	71.482	0.113	0.116
-287.589	-102.609	-0.195	-0.046
-286.574	57.763	0.125	-0.121
-285.559	-71.679	-0.259	-0.096
-284.545	-32.464	-0.106	-0.059
-283.530	-20.882	-0.370	0.224
-282.516	39.119	-0.138	0.123
-281.501	194.028	0.189	-0.283
-280.486	105.948	0.311	-0.364
-279.472	-35.079	0.159	-0.086
-278.457	102.176	0.144	-0.166
-277.443	-111.564	-0.072	-0.014
-276.428	-77.197	0.226	0.078
-275.413	59.969	0.184	-0.180
-274.399	-200.000	-0.025	0.234
-273.384	80.557	-0.095	0.101
-272.370	170.810	-0.137	0.194
-271.355	404.298	-0.109	0.227
-270.340	-160.523	-0.150	-0.008
-269.326	239.970	-0.129	0.213
-268.311	-84.640	0.365	-0.114
-267.297	-142.463	-0.195	0.019
-266.282	-46.093	0.205	-0.100
-265.267	112.442	0.109	-0.130
-264.253	334.040	0.122	-0.234
-263.238	-110.642	-0.350	0.072
-262.224	-200.000	-0.042	0.419
-261.209	-200.000	-0.041	0.219
-260.195	-130.189	-0.247	-0.033
-259.180	-25.103	0.136	0.080
-258.165	225.343	0.082	-0.132
-257.151	-63.453	-0.168	0.068
-256.136	-120.388	-0.158	-0.027
-255.122	35.803	0.129	0.112
-254.107	31.707	-0.175	-0.149
-253.092	25.011	-0.307	-0.252
-252.078	-3.405	0.129	0.089
-251.063	-64.806	0.134	-0.053
-250.049	43.410	-0.147	0.133
-249.034	-200.000	0.046	-0.218
-248.019	800.000	0.038	0.109
-247.005	-86.728	-0.243	-0.073
-245.990	-200.000	-0.040	-0.209
-244.976	-78.864	0.028	0.009
-243.961	-200.000	0.013	0.383
-242.946	-195.717	0.140	0.001
-241.932	648.253	0.065	-0.164
-240.917	800.000	-0.016	-0.050
-239.903	470.245	0.109	0.242
-238.888	-0.976	-0.259	-0.181
-237.873	-151.048	-0.111	0.008
-236.859	132.192	0.047	-0.060
-235.844	-66.713	0.257	-0.101
-234.830	265.152	-0.142	0.244
-233.815	-153.902	0.219	-0.015
-232.800	-88.198	0.181	0.054
-231.786	21.031	0.266	-0.213
-230.771	-153.765	-0.108	-0.007
-229.757	-99.332	-0.201	-0.050
-228.742	-39.895	0.196	0.101
-227.727	-57.210	0.332	-0.144
-226.713	119.785	-0.174	0.213
-225.698	-114.639	0.474	0.090
-224.684	-200.000	0.065	-0.323
-223.669	67.921	0.272	-0.275
-222.655	499.699	0.051	-0.116
-221.640	404.158	-0.060	0.125
-220.625	-200.000	0.022	0.107
-219.611	461.985	-0.159	0.351
-218.596	198.517	0.152	0.229
-217.582	206.585	0.083	0.128
-216.567	-69.919	0.654	0.246
-215.552	311.176	-0.087	0.161
-214.538	-129.994	0.217	-0.029
-213.523	-157.811	0.232	-0.014
-212.509	-34.067	-0.182	-0.099
-211.494	-200.000	-0.016	-0.217
-210.479	-52.177	-0.095	0.044
-209.465	-158.268	0.282	-0.016
-208.450	49.945	-0.168	-0.157
-207.436	25.693	0.299	0.245
-206.421	-200.000	0.025	-0.108
-205.406	-68.723	-0.367	-0.140
-204.392	-159.532	0.076	-0.004
-203.377	256.179	0.020	-0.035
-202.363	70.560	0.116	-0.118
-201.348	-200.000	0.008	-0.133
-200.333	782.807	-0.102	-0.275
-199.319	-93.406	-0.483	-0.132
-198.304	626.690	-0.089	0.221
-197.290	-66.466	-0.201	-0.079
-196.275	-76.417	-0.067	0.023
-195.260	-74.124	-0.135	0.048
-194.246	218.949	-0.130	-0.206
-193.231	-174.077	0.331	-0.010
-192.217	-200.000	0.014	-0.151
-191.202	-59.386	0.219	-0.093
-190.187	-126.769	0.261	-0.038
-189.173	0.052	-0.167	0.117
-188.158	-200.000	0.008	0.120
-187.144	-33.463	0.110	-0.060
-186.129	800.000	-0.013	0.047
-185.114	-12.456	0.130	0.084
-184.100	-169.512	0.158	-0.006
-183.085	399.681	0.105	-0.218
-182.071	5.117	0.113	0.082
-181.056	45.598	0.156	0.142
-180.042	800.000	-0.114	-0.323
-179.027	-200.000	-0.058	-0.304
-178.012	-121.619	-0.548	-0.090
-176.998	122.279	0.150	-0.184
-175.983	136.100	-0.128	-0.164
-174.969	800.000	0.076	-0.227
-173.954	-200.000	0.286	0.001
-172.939	800.000	0.058	0.229
-171.925	38.483	0.248	-0.218
-170.910	162.188	0.087	-0.121
-169.896	-117.923	0.270	0.048
-168.881	492.885	-0.228	-0.515
-167.866	58.937	-0.259	-0.251
-166.852	-77.584	-0.048	-0.016
-165.837	383.335	-0.145	0.293
-164.823	-78.220	-0.114	0.039
-163.808	-20.234	-0.055	0.034
-162.793	57.361	-0.059	-0.057
-161.779	-200.000	0.003	-0.097
-160.764	31.395	-0.113	-0.096
-159.750	31.787	0.107	-0.091
-158.735	-91.282	0.140	-0.040
-157.720	20.901	-0.167	0.133
-156.706	687.461	0.195	-0.503
-155.691	-40.855	0.272	-0.138
-154.677	-200.000	-0.002	-0.022
-153.662	64.778	0.059	0.059
-152.647	79.829	-0.208	-0.220
-151.633	-80.940	-0.063	-0.021
-150.618	-134.872	-0.312	-0.037
-149.604	-72.617	-0.483	-0.175
-148.589	54.797	-0.134	0.127
-147.574	113.467	0.080	0.096
-146.560	-200.000	-0.017	-0.125
-145.545	-200.000	-0.017	0.105
-144.531	37.084	-0.253	0.220
-143.516	-200.000	0.000	-0.279
-142.502	52.764	0.077	-0.073
-141.487	16.389	-0.173	0.134
-140.472	-200.000	-0.022	-0.186
-139.458	40.090	0.218	0.193
-138.443	-5.220	0.428	0.289
-137.429	66.350	0.318	0.317
-136.414	-200.000	-0.010	-0.096
-135.399	83.827	0.022	-0.024
-134.385	44.212	-0.121	0.109
-133.370	107.943	-0.135	0.158
-132.356	-29.734	0.326	-0.183
-131.341	-123.804	0.385	-0.060
-130.326	-200.000	0.002	0.234
-129.312	-143.403	-0.056	-0.005
-128.297	-38.670	0.153	0.079
-127.283	309.373	-0.135	-0.249
-126.268	-165.933	0.136	-0.006
-125.253	-181.126	0.233	0.005
-124.239	-101.823	-0.479	-0.114
-123.224	800.000	0.033	0.099
-122.210	102.847	-0.097	0.112
