DTS Sentinel unit serial number:	SN413079Multiplexer serial number:	ORYXHardware model number:	OX4-SRSoftware version number:	ORYX F/W v4.00 Oryx Data Collector v3.7.2.0data status	okinstallation	princeton_trtdifferential loss correction	single-endedforward channel	channel 3reverse channel	N/Adate	2019/09/13time	21:28:35forward acquisition time	60.00reverse acquisition time	0.00gamma	496.2192k internal	0.2334k external	0.2334temperature offset calibration	1.0053default loss term (dB/km)	0.3790temperature slope calibration	1.0000multiplexer offset coefficient	1.0000multiplexer slope coefficient	1.0000fibre end	0.00T internal ref (°C)	28.31T ext. ref 1 (°C)	3.14T ext. ref 2 (°C)	22.97length (m)	temperature (°C)	Stokes	anti-Stokes-747.200	800.000	0.083	0.306
-746.185	357.510	-0.150	0.301
-745.171	-200.000	0.007	0.267
-744.156	445.108	0.057	-0.127
-743.142	-27.235	-0.390	-0.228
-742.127	-200.000	-0.012	0.227
-741.112	-110.663	-0.104	0.022
-740.098	-200.000	0.016	0.350
-739.083	-200.000	-0.025	0.175
-738.069	620.924	-0.023	0.059
-737.054	83.458	0.212	-0.233
-736.039	-157.338	-0.087	-0.005
-735.025	39.341	-0.123	0.111
-734.010	-75.035	0.222	0.080
-732.996	-131.764	-0.368	-0.049
-731.981	-106.140	0.137	0.031
-730.966	-31.561	-0.118	0.067
-729.952	116.878	-0.198	-0.245
-728.937	181.979	0.238	0.353
-727.923	-110.091	-0.130	0.027
-726.908	-200.000	-0.029	-0.218
-725.894	560.998	0.041	0.099
-724.879	-12.288	0.087	-0.057
-723.864	11.436	-0.114	-0.088
-722.850	-98.423	0.362	-0.093
-721.835	800.000	-0.034	-0.142
-720.821	-96.526	0.191	-0.051
-719.806	23.883	0.306	-0.253
-718.791	-12.514	-0.321	0.210
-717.777	-18.762	0.087	-0.055
-716.762	197.394	-0.151	-0.231
-715.748	110.095	-0.147	0.178
-714.733	46.634	-0.300	0.280
-713.718	142.138	0.191	-0.255
-712.704	-182.867	-0.435	0.008
-711.689	-200.000	-0.059	0.303
-710.675	-200.000	0.013	0.185
-709.660	109.858	0.177	-0.213
-708.645	-200.000	-0.049	-0.413
-707.631	800.000	-0.057	0.171
-706.616	-46.751	-0.244	0.120
-705.602	-200.000	0.197	0.001
-704.587	-20.121	-0.110	0.068
-703.572	800.000	0.102	-0.290
-702.558	426.827	-0.082	0.177
-701.543	564.498	0.073	0.178
-700.529	12.060	-0.213	-0.164
-699.514	155.312	0.147	-0.203
-698.499	-23.441	0.133	-0.080
-697.485	213.122	-0.224	-0.355
-696.470	68.387	0.080	-0.083
-695.456	17.747	-0.052	0.041
-694.441	134.223	0.087	-0.113
-693.426	-200.000	0.033	-0.339
-692.412	75.148	0.171	-0.181
-691.397	-200.000	0.026	0.197
-690.383	-200.000	-0.003	-0.078
-689.368	48.040	-0.185	0.174
-688.354	63.134	0.161	-0.162
-687.339	-200.000	-0.006	-0.362
-686.324	800.000	0.040	0.127
-685.310	-178.861	-0.224	0.005
-684.295	-85.417	-0.259	0.081
-683.281	-83.984	-0.317	-0.101
-682.266	-67.930	-0.195	-0.077
-681.251	800.000	-0.092	0.300
-680.237	-23.543	0.251	-0.151
-679.222	-76.384	-0.290	-0.102
-678.208	-200.000	-0.021	-0.176
-677.193	360.351	-0.074	0.149
-676.178	64.474	-0.110	0.111
-675.164	447.734	0.099	-0.219
-674.149	-13.631	0.268	-0.174
-673.135	-9.476	-0.225	0.150
-672.120	-200.000	0.002	0.110
-671.105	26.213	-0.204	0.171
-670.091	-28.328	-0.134	0.077
-669.076	270.578	-0.135	0.238
-668.062	-49.565	-0.083	0.040
-667.047	800.000	0.106	0.382
-666.032	270.763	0.025	-0.044
-665.018	-20.761	0.326	-0.200
-664.003	4.075	0.103	0.075
-662.989	800.000	-0.015	-0.057
-661.974	800.000	-0.069	-0.264
-660.959	-60.621	0.179	0.076
-659.945	762.410	-0.084	0.229
-658.930	-200.000	-0.001	0.065
-657.916	-36.443	-0.082	-0.045
-656.901	63.873	0.102	0.102
-655.886	334.195	0.045	0.088
-654.872	-1.407	-0.476	0.337
-653.857	55.954	0.146	0.142
-652.843	-75.469	-0.139	-0.050
-651.828	-119.518	0.195	-0.034
-650.814	-14.648	-0.309	-0.199
-649.799	-10.650	-0.316	-0.209
-648.784	-156.834	-0.197	-0.012
-647.770	800.000	0.037	0.155
-646.755	646.615	-0.042	-0.109
-645.741	-176.413	-0.194	0.005
-644.726	-75.855	0.068	-0.024
-643.711	327.981	-0.071	0.137
-642.697	233.816	0.183	-0.302
-641.682	-11.043	-0.149	-0.098
-640.668	308.267	-0.159	0.298
-639.653	-200.000	-0.008	-0.095
-638.638	-123.633	0.197	-0.031
-637.624	-56.795	0.299	-0.132
-636.609	176.659	-0.190	0.277
-635.595	-113.844	0.091	0.018
-634.580	223.807	-0.204	-0.330
-633.565	129.483	0.166	-0.212
-632.551	-200.000	0.016	-0.208
-631.536	100.775	-0.187	-0.218
-630.522	-115.927	-0.279	0.052
-629.507	17.649	0.180	-0.143
-628.492	635.132	-0.060	0.153
-627.478	-200.000	0.021	-0.128
-626.463	-47.387	0.106	0.052
-625.449	161.677	-0.171	0.239
-624.434	-183.137	-0.188	0.003
-623.419	141.897	0.117	-0.156
-622.405	314.328	-0.124	0.234
-621.390	285.367	-0.045	-0.082
-620.376	-200.000	0.010	0.114
-619.361	-167.035	-0.181	0.007
-618.346	-10.826	-0.158	-0.104
-617.332	397.464	-0.027	0.056
-616.317	-97.816	-0.048	0.012
-615.303	-200.000	-0.032	-0.201
-614.288	800.000	0.037	0.124
-613.273	-200.000	0.071	-0.354
-612.259	-111.491	0.171	0.035
-611.244	18.693	-0.187	0.150
-610.230	-146.122	-0.351	-0.031
-609.215	-156.884	0.425	-0.026
-608.201	-200.000	-0.000	0.104
-607.186	22.836	-0.256	-0.210
-606.171	277.643	-0.092	-0.163
-605.157	-200.000	0.038	-0.250
-604.142	275.762	0.067	0.119
-603.128	148.391	0.087	-0.118
-602.113	-116.767	-0.323	0.059
-601.098	100.254	-0.199	0.231
-600.084	318.346	-0.150	-0.283
-599.069	502.171	0.035	-0.081
-598.055	500.860	-0.055	0.127
-597.040	25.274	0.137	0.114
-596.025	89.404	-0.068	-0.076
-595.011	-30.965	0.240	-0.136
-593.996	60.288	0.043	0.042
-592.982	-174.933	0.121	0.003
-591.967	-75.390	0.166	0.059
-590.952	800.000	0.037	0.113
-589.938	-105.143	-0.032	-0.007
-588.923	-102.916	0.237	0.056
-587.909	285.265	-0.169	0.304
-586.894	778.002	-0.113	0.309
-585.879	-13.438	-0.096	0.062
-584.865	-85.372	0.210	-0.065
-583.850	-48.556	0.328	-0.157
-582.836	684.510	-0.049	0.128
-581.821	787.309	0.190	-0.522
-580.806	-67.940	0.156	-0.061
-579.792	-124.921	-0.483	-0.074
-578.777	422.875	0.063	-0.135
-577.763	57.332	-0.113	0.110
-576.748	157.879	-0.186	0.257
-575.733	139.560	0.047	-0.062
-574.719	800.000	0.063	-0.275
-573.704	499.511	-0.075	0.173
-572.690	-15.439	-0.166	0.106
-571.675	-40.206	-0.157	-0.082
-570.661	-200.000	0.006	0.071
-569.646	187.255	0.068	0.101
-568.631	-200.000	-0.025	-0.188
-567.617	-200.000	-0.019	0.532
-566.602	-97.309	0.169	-0.044
-565.588	244.679	0.039	-0.066
-564.573	258.971	0.076	-0.131
-563.558	-88.277	-0.180	0.054
-562.544	283.247	0.111	0.200
-561.529	267.947	0.107	-0.187
-560.515	128.231	0.166	-0.211
-559.500	-200.000	-0.010	-0.215
-558.485	-200.000	-0.008	0.105
-557.471	-95.060	0.212	0.057
-556.456	-95.561	-0.111	-0.030
-555.442	800.000	0.035	0.133
-554.427	201.797	-0.131	0.202
-553.412	-200.000	0.029	-0.229
-552.398	-200.000	0.003	-0.146
-551.383	-10.024	-0.308	-0.204
-550.369	17.062	0.204	0.161
-549.354	250.855	-0.061	-0.104
-548.339	-71.870	0.053	0.020
-547.325	82.454	-0.232	-0.251
-546.310	73.121	0.163	0.170
-545.296	-200.000	-0.058	-0.299
-544.281	312.955	0.181	0.340
-543.266	-42.578	0.178	0.090
-542.252	-29.566	0.144	0.082
-541.237	-104.050	-0.188	-0.044
-540.223	-200.000	0.017	0.211
-539.208	-200.000	-0.014	0.242
-538.193	-1.655	-0.127	0.089
-537.179	68.949	0.023	0.023
-536.164	-130.482	-0.124	0.017
-535.150	800.000	0.013	0.043
-534.135	18.875	0.081	-0.065
-533.121	505.525	0.058	-0.133
-532.106	-200.000	0.082	-0.456
-531.091	132.226	-0.073	0.094
-530.077	-200.000	0.039	0.427
-529.062	602.952	-0.071	0.176
-528.048	-24.242	-0.158	-0.094
-527.033	-10.700	-0.423	-0.279
-526.018	-39.683	0.102	-0.053
-525.004	293.818	0.211	-0.383
-523.989	-200.000	-0.032	-0.313
-522.975	132.055	0.242	-0.311
-521.960	23.619	0.262	0.215
-520.945	230.839	0.151	-0.246
-519.931	-200.000	-0.004	0.078
-518.916	117.535	-0.129	0.158
-517.902	-138.300	0.236	-0.026
-516.887	-200.000	-0.014	0.190
-515.872	522.429	0.049	0.115
-514.858	-24.667	-0.151	-0.090
-513.843	-135.685	-0.447	0.053
-512.829	-79.703	0.215	-0.072
-511.814	287.143	-0.051	0.092
-510.799	800.000	-0.042	0.152
-509.785	567.257	0.124	-0.300
-508.770	-29.925	-0.142	-0.080
-507.756	753.634	0.055	0.147
-506.741	-167.729	-0.043	0.002
-505.726	-132.862	0.089	0.011
-504.712	273.528	-0.116	0.204
-503.697	-51.020	0.029	0.014
-502.683	3.361	0.192	0.139
-501.668	-44.575	-0.130	-0.065
-500.653	310.323	-0.140	0.261
-499.639	-54.083	-0.242	0.109
-498.624	7.463	-0.096	0.071
-497.610	-24.433	0.092	-0.054
-496.595	-200.000	-0.007	-0.033
-495.581	220.074	-0.167	-0.267
-494.566	76.428	0.222	-0.234
-493.551	241.608	0.124	0.206
-492.537	-34.809	0.080	0.043
-491.522	161.579	0.161	0.224
-490.508	-162.610	0.247	-0.012
-489.493	15.032	-0.145	0.113
-488.478	233.863	0.217	-0.355
-487.464	698.520	0.026	-0.067
-486.449	-70.864	0.169	-0.064
-485.435	167.011	0.104	0.147
-484.420	800.000	0.088	0.275
-483.405	96.768	0.063	-0.072
-482.391	24.239	-0.232	0.191
-481.376	-76.317	-0.044	-0.015
-480.362	156.110	-0.032	-0.044
-479.347	-42.358	0.291	-0.148
-478.332	-200.000	-0.048	-0.255
-477.318	-200.000	-0.047	-0.332
-476.303	-200.000	-0.013	0.163
-475.289	30.736	0.174	0.148
-474.274	-80.189	0.254	0.084
-473.259	-3.473	-0.297	-0.205
-472.245	110.705	-0.189	-0.226
-471.230	-177.717	-0.184	0.004
-470.216	354.532	0.120	0.237
-469.201	-200.000	0.078	0.509
-468.186	-100.081	0.431	-0.107
-467.172	-78.509	-0.164	0.056
-466.157	-44.702	0.267	0.132
-465.143	58.349	0.111	-0.109
-464.128	800.000	-0.037	-0.129
-463.113	206.127	0.094	0.145
-462.099	-200.000	0.006	0.149
-461.084	800.000	-0.060	-0.233
-460.070	-103.128	0.111	0.026
-459.055	673.212	0.108	0.278
-458.040	-36.381	-0.080	0.043
-457.026	21.456	-0.042	-0.034
-456.011	800.000	-0.080	-0.260
-454.997	-25.103	0.212	-0.125
-453.982	-200.000	0.022	0.107
-452.968	800.000	0.088	-0.353
-451.953	281.959	0.044	0.078
-450.938	-76.360	0.243	0.085
-449.924	385.384	0.154	-0.315
-448.909	-87.335	0.115	-0.035
-447.895	-23.781	-0.299	0.178
-446.880	-200.000	0.003	0.210
-445.865	533.517	0.150	0.353
-444.851	-19.123	0.134	-0.083
-443.836	-22.688	0.122	-0.073
-442.822	203.440	-0.191	-0.293
-441.807	154.441	0.202	0.275
-440.792	120.822	-0.077	0.095
-439.778	454.428	-0.034	0.076
-438.763	-3.477	0.325	0.225
-437.749	-150.516	0.123	0.009
-436.734	800.000	0.043	-0.173
-435.719	800.000	-0.147	0.473
-434.705	-69.616	-0.343	0.130
-433.690	-200.000	-0.045	-0.293
-432.676	-71.915	-0.246	-0.091
-431.661	800.000	0.117	0.498
-430.646	705.991	-0.055	0.145
-429.632	-81.750	0.062	-0.020
-428.617	48.204	-0.317	0.295
-427.603	800.000	0.049	0.188
-426.588	154.419	0.175	-0.239
-425.573	-200.000	-0.022	-0.139
-424.559	207.188	-0.182	0.281
-423.544	41.248	-0.045	0.040
-422.530	78.222	-0.092	-0.097
-421.515	-34.203	-0.395	-0.216
-420.500	-129.889	0.284	0.039
-419.486	397.113	0.051	-0.105
-418.471	-154.431	0.189	0.013
-417.457	724.152	0.044	0.115
-416.442	-65.435	0.160	-0.064
-415.428	-140.174	-0.146	-0.015
-414.413	-200.000	0.002	-0.128
-413.398	783.041	-0.099	0.270
-412.384	-62.809	-0.098	-0.040
-411.369	-16.816	0.077	-0.048
-410.355	800.000	0.054	-0.192
-409.340	-18.791	-0.206	0.127
-408.325	17.782	-0.119	-0.094
-407.311	-200.000	-0.023	-0.218
-406.296	-127.822	-0.345	0.049
-405.282	-87.371	0.372	0.112
-404.267	48.407	0.093	-0.086
-403.252	800.000	-0.044	-0.123
-402.238	48.591	-0.121	0.112
-401.223	-200.000	0.035	0.589
-400.209	-200.000	-0.016	-0.113
-399.194	370.177	0.164	-0.329
-398.179	37.279	-0.138	-0.121
-397.165	-26.796	0.079	0.046
-396.150	222.372	0.115	0.184
-395.136	-200.000	0.009	0.097
-394.121	-200.000	-0.053	0.487
-393.106	800.000	-0.122	0.487
-392.092	-27.889	-0.143	0.082
-391.077	-200.000	0.007	-0.309
-390.063	-14.318	0.130	0.083
-389.048	78.779	-0.238	0.252
-388.033	-43.318	0.128	-0.064
-387.019	28.674	-0.266	0.223
-386.004	363.244	0.204	0.407
-384.990	302.411	-0.087	0.159
-383.975	-42.636	-0.114	-0.057
-382.960	194.075	-0.154	-0.232
-381.946	-0.955	-0.341	0.239
-380.931	-21.779	0.201	-0.121
-379.917	417.740	-0.094	0.199
-378.902	119.907	-0.108	0.133
-377.888	-75.941	-0.298	0.104
-376.873	-200.000	-0.107	-0.617
-375.858	-26.543	-0.384	-0.223
-374.844	366.261	0.066	0.132
-373.829	212.510	0.055	-0.087
-372.815	-7.737	0.272	-0.182
-371.800	178.632	0.102	-0.147
-370.785	206.251	-0.091	-0.140
-369.771	196.135	0.037	-0.056
-368.756	-4.442	-0.119	0.081
-367.742	363.727	0.181	0.361
-366.727	474.692	0.149	0.333
-365.712	800.000	0.079	-0.337
-364.698	302.449	-0.043	-0.078
-363.683	-200.000	0.056	0.248
-362.669	-200.000	-0.009	-0.305
-361.654	130.536	-0.131	0.167
-360.639	-200.000	0.046	-0.244
-359.625	1.281	-0.469	-0.333
-358.610	30.923	0.242	0.205
-357.596	-200.000	-0.039	0.255
-356.581	-77.331	-0.162	-0.056
-355.566	-135.559	-0.373	-0.044
-354.552	800.000	0.086	0.329
-353.537	281.268	-0.159	0.281
-352.523	-43.970	0.123	0.061
-351.508	-200.000	-0.038	-0.326
-350.493	-107.354	-0.289	0.063
-349.479	-83.466	-0.132	0.042
-348.464	-58.479	0.294	-0.126
-347.450	-52.636	-0.317	-0.145
-346.435	-124.591	-0.312	-0.048
-345.420	-43.960	0.109	-0.054
-344.406	259.855	-0.171	0.292
-343.391	-28.378	-0.308	0.176
-342.377	50.438	-0.456	0.427
-341.362	-68.299	0.209	-0.080
-340.348	-59.870	-0.426	0.180
-339.333	-97.620	0.312	-0.080
-338.318	539.622	-0.065	0.152
-337.304	-116.205	0.489	-0.090
-336.289	-122.256	-0.146	0.024
-335.275	-200.000	0.006	0.083
-334.260	233.068	-0.132	0.215
-333.245	-157.567	-0.203	0.012
-332.231	123.816	0.182	-0.226
-331.216	106.465	0.028	0.033
-330.202	478.900	-0.126	-0.283
-329.187	88.779	-0.286	-0.314
-328.172	-36.178	0.159	-0.085
-327.158	76.938	0.140	-0.147
-326.143	-79.435	0.155	0.052
-325.129	-79.619	-0.082	0.027
-324.114	-119.450	0.226	0.039
-323.099	-149.522	-0.216	0.017
-322.085	-27.579	0.254	-0.146
-321.070	50.463	0.109	-0.102
-320.056	-87.802	0.294	-0.087
-319.041	158.350	-0.142	0.194
-318.026	800.000	-0.093	0.337
-317.012	610.253	-0.100	0.247
-315.997	-58.845	0.184	-0.079
-314.983	96.465	-0.112	-0.126
-313.968	13.114	-0.172	-0.131
-312.953	-111.186	0.370	-0.075
-311.939	360.245	0.061	0.121
-310.924	202.180	-0.073	0.111
-309.910	5.305	-0.295	0.215
-308.895	312.968	-0.096	-0.178
-307.880	-200.000	0.017	-0.509
-306.866	501.480	-0.048	-0.110
-305.851	49.183	0.144	0.134
-304.837	-185.867	-0.273	-0.004
-303.822	-200.000	0.002	0.150
-302.807	800.000	0.055	-0.166
-301.793	-0.104	0.180	-0.127
-300.778	147.493	-0.241	0.320
-299.764	-65.926	0.035	-0.014
-298.749	-143.205	-0.345	0.033
-297.735	800.000	0.013	-0.050
-296.720	-5.771	0.029	-0.019
-295.705	-65.566	-0.205	0.081
-294.691	66.914	0.104	0.104
-293.676	-200.000	-0.070	-0.328
-292.662	-128.514	0.256	-0.036
-291.647	510.301	0.020	-0.045
-290.632	-200.000	-0.057	0.299
-289.618	-63.891	0.224	-0.091
-288.603	-132.812	0.177	-0.022
-287.589	148.479	-0.255	-0.340
-286.574	-200.000	0.015	-0.152
-285.559	-183.938	0.354	-0.006
-284.545	39.722	0.122	-0.108
-283.530	112.637	-0.059	0.071
-282.516	284.896	-0.105	-0.187
-281.501	-200.000	0.009	-0.068
-280.486	800.000	-0.047	0.161
-279.472	122.915	-0.128	0.158
-278.457	59.287	0.047	0.046
-277.443	-139.645	0.211	0.022
-276.428	-200.000	-0.066	0.328
-275.413	800.000	-0.148	0.557
-274.399	800.000	-0.072	0.236
-273.384	17.519	0.090	0.071
-272.370	-200.000	0.042	-0.240
-271.355	719.110	0.070	-0.185
-270.340	-66.166	0.251	0.099
-269.326	800.000	0.121	0.396
-268.311	-71.027	0.338	0.125
-267.297	354.239	-0.207	0.405
-266.282	-37.978	-0.223	0.117
-265.267	-67.342	0.345	0.134
-264.253	128.335	0.097	0.122
-263.238	-4.084	-0.165	0.112
-262.224	95.970	-0.105	-0.118
-261.209	-16.921	-0.538	-0.335
-260.195	348.841	-0.150	-0.292
-259.180	414.392	0.085	-0.179
-258.165	-200.000	-0.006	-0.096
-257.151	88.435	-0.173	-0.189
-256.136	-69.421	-0.543	-0.206
-255.122	741.288	-0.089	-0.237
-254.107	800.000	-0.042	-0.134
-253.092	177.819	0.143	0.206
-252.078	-200.000	0.029	-0.265
-251.063	800.000	0.025	0.099
-250.049	-72.399	-0.119	0.043
-249.034	-55.077	-0.082	-0.036
-248.019	-200.000	-0.017	0.195
-247.005	106.097	0.095	0.111
-245.990	800.000	-0.085	0.254
-244.976	-66.962	0.224	-0.087
-243.961	800.000	0.146	0.486
-242.946	80.388	-0.168	-0.178
-241.932	800.000	-0.066	-0.269
-240.917	-100.891	-0.090	-0.022
-239.903	-200.000	0.014	0.176
-238.888	-79.135	0.087	-0.029
-237.873	-66.367	-0.167	-0.066
-236.859	369.581	0.090	0.179
-235.844	-155.207	-0.127	-0.008
-234.830	800.000	0.021	0.075
-233.815	-96.378	0.446	-0.116
-232.800	-85.681	0.101	-0.031
-231.786	-200.000	-0.023	0.128
-230.771	244.312	-0.069	0.115
-229.757	-69.908	0.148	-0.055
-228.742	-145.279	0.115	0.010
-227.727	34.816	0.193	0.166
-226.713	-54.002	-0.044	0.020
-225.698	446.893	-0.160	0.346
-224.684	-23.752	0.157	0.093
-223.669	39.117	0.133	-0.117
-222.655	-0.655	0.142	-0.099
-221.640	10.389	-0.070	-0.053
-220.625	-87.918	-0.279	0.083
-219.611	216.127	0.130	-0.203
-218.596	-135.410	0.357	0.042
-217.582	391.020	-0.214	-0.438
-216.567	63.204	0.270	-0.266
-215.552	-126.119	-0.219	-0.032
-214.538	-200.000	-0.093	-0.409
-213.523	45.333	0.182	-0.166
-212.509	93.987	0.160	0.179
-211.494	701.080	0.089	0.229
-210.479	-2.131	-0.105	-0.072
-209.465	111.347	0.138	-0.164
-208.450	-96.726	-0.264	0.068
-207.436	10.625	0.090	0.067
-206.421	253.863	-0.026	-0.043
-205.406	-49.012	0.142	0.067
-204.392	668.399	-0.014	0.036
-203.377	-46.691	-0.109	0.053
-202.363	275.732	0.095	0.166
-201.348	166.634	0.194	-0.271
-200.333	171.057	0.059	-0.083
-199.319	143.066	-0.069	0.090
-198.304	-93.681	0.488	0.133
-197.290	-72.126	0.317	0.116
-196.275	-200.000	0.052	0.515
-195.260	-200.000	0.037	-0.195
-194.246	-200.000	-0.016	-0.096
-193.231	800.000	-0.020	-0.082
-192.217	126.594	0.266	-0.331
-191.202	72.801	0.045	0.046
-190.187	800.000	-0.075	-0.246
-189.173	-14.295	-0.202	-0.128
-188.158	800.000	-0.087	-0.254
-187.144	-92.798	-0.158	0.044
-186.129	-73.523	-0.220	-0.079
-185.114	-131.926	-0.342	0.044
-184.100	-200.000	0.067	-0.296
-183.085	-200.000	0.027	0.201
-182.071	-80.047	0.207	0.068
-181.056	-200.000	0.035	0.325
-180.042	-200.000	-0.016	0.255
-179.027	800.000	-0.060	-0.168
-178.012	-120.039	0.106	-0.018
-176.998	-200.000	0.055	-0.273
-175.983	-50.965	0.242	-0.112
-174.969	-62.775	0.041	0.017
-173.954	-76.558	-0.165	-0.057
-172.939	-130.782	0.538	0.071
-171.925	-200.000	0.103	-0.593
-170.910	242.142	-0.043	0.070
-169.896	-108.494	0.275	-0.058
-168.881	2.718	0.099	-0.071
-167.866	-32.833	-0.261	-0.143
-166.852	-90.941	-0.122	0.034
-165.837	-153.521	0.225	0.015
-164.823	268.825	0.101	-0.174
-163.808	150.986	0.038	-0.051
-162.793	-135.349	0.165	0.019
-161.779	-90.159	0.175	-0.050
-160.764	409.562	-0.058	-0.120
-159.750	-200.000	0.029	-0.136
-158.735	800.000	0.082	-0.279
-157.720	-187.222	-0.315	0.004
-156.706	-70.894	0.206	-0.076
-155.691	800.000	-0.059	-0.193
-154.677	617.050	-0.109	0.268
-153.662	54.717	0.045	-0.043
-152.647	-173.682	0.166	0.005
-151.633	-22.154	0.355	0.212
-150.618	-78.660	0.087	0.029
-149.604	132.727	0.197	-0.250
-148.589	-72.624	0.224	-0.081
-147.574	-200.000	-0.020	-0.111
-146.560	-200.000	0.023	-0.107
-145.545	800.000	0.031	-0.099
-144.531	-200.000	0.031	0.262
-143.516	-107.073	0.151	-0.033
-142.502	-47.625	0.253	0.121
-141.487	-77.022	0.160	-0.055
-140.472	24.919	-0.172	-0.140
-139.458	-78.025	-0.208	-0.070
-138.443	190.986	-0.102	0.150
-137.429	-57.268	0.243	0.105
-136.414	-16.424	-0.298	0.185
-135.399	-113.759	-0.194	0.037
-134.385	71.327	0.162	0.165
-133.370	800.000	-0.046	0.183
-132.356	102.515	-0.179	0.206
-131.341	-200.000	0.005	-0.103
-130.326	27.374	0.091	-0.075
-129.312	-33.293	-0.232	0.126
-128.297	-200.000	-0.036	0.315
-127.283	800.000	0.070	0.282
-126.268	800.000	0.183	0.507
-125.253	12.241	0.084	0.063
-124.239	-128.114	0.171	0.024
-123.224	-86.170	0.078	-0.024
-122.210	800.000	-0.031	0.107
-121.195	-64.301	-0.296	-0.118
