DTS Sentinel unit serial number:	SN413079Multiplexer serial number:	ORYXHardware model number:	OX4-SRSoftware version number:	ORYX F/W v4.00 Oryx Data Collector v3.7.2.0data status	okinstallation	princeton_trtdifferential loss correction	single-endedforward channel	channel 3reverse channel	N/Adate	2019/09/15time	07:52:35forward acquisition time	60.00reverse acquisition time	0.00gamma	496.2192k internal	0.2324k external	0.2324temperature offset calibration	0.9983default loss term (dB/km)	0.3790temperature slope calibration	1.0000multiplexer offset coefficient	1.0000multiplexer slope coefficient	1.0000fibre end	0.00T internal ref (°C)	30.69T ext. ref 1 (°C)	4.97T ext. ref 2 (°C)	25.93length (m)	temperature (°C)	Stokes	anti-Stokes-747.200	-19.533	-0.074	0.046
-746.185	53.479	-0.247	0.239
-745.171	800.000	0.062	-0.174
-744.156	-200.000	-0.004	0.099
-743.142	-90.783	0.226	-0.066
-742.127	272.217	0.087	0.154
-741.112	97.278	-0.191	0.221
-740.098	97.391	-0.083	-0.097
-739.083	741.636	0.046	0.126
-738.069	-160.714	-0.251	-0.013
-737.054	-54.758	-0.150	-0.068
-736.039	-88.653	-0.386	0.116
-735.025	-43.751	0.285	-0.145
-734.010	-162.049	-0.455	-0.023
-732.996	-26.295	0.112	-0.066
-731.981	-49.255	0.378	0.182
-730.966	61.878	0.142	-0.142
-729.952	66.998	-0.108	0.111
-728.937	-129.182	-0.330	0.046
-727.923	401.351	-0.062	0.130
-726.908	-71.715	-0.467	0.176
-725.894	-101.339	-0.111	0.027
-724.879	-147.909	0.171	-0.014
-723.864	97.277	0.127	-0.147
-722.850	3.951	-0.166	-0.123
-721.835	-200.000	-0.002	-0.233
-720.821	-5.185	0.206	0.143
-719.806	373.014	-0.080	-0.164
-718.791	-93.996	0.117	0.032
-717.777	-200.000	-0.005	-0.094
-716.762	-118.719	-0.293	-0.052
-715.748	-200.000	-0.020	-0.318
-714.733	-200.000	-0.038	-0.167
-713.718	-25.086	0.311	0.186
-712.704	557.768	-0.152	0.370
-711.689	-104.228	-0.163	0.038
-710.675	-83.585	-0.131	0.042
-709.660	-44.008	-0.265	0.134
-708.645	-124.637	0.288	0.045
-707.631	58.881	-0.129	0.128
-706.616	-71.322	0.037	0.014
-705.602	5.606	-0.099	0.074
-704.587	-120.599	-0.290	0.049
-703.572	-97.448	-0.239	-0.063
-702.558	-37.930	-0.184	0.098
-701.543	692.748	0.058	-0.154
-700.529	-200.000	-0.005	0.131
-699.514	43.317	0.254	-0.234
-698.499	-200.000	-0.028	0.164
-697.485	-102.884	-0.204	-0.049
-696.470	-115.388	-0.245	-0.046
-695.456	-33.982	0.091	0.051
-694.441	656.872	-0.051	0.132
-693.426	88.836	-0.115	0.128
-692.412	-200.000	-0.038	0.370
-691.397	-118.280	-0.066	-0.012
-690.383	800.000	-0.093	-0.405
-689.368	37.189	0.039	0.035
-688.354	-41.927	0.161	-0.083
-687.339	37.954	-0.279	-0.250
-686.324	-137.667	-0.469	-0.053
-685.310	-55.639	0.204	-0.092
-684.295	-10.035	-0.074	0.049
-683.281	244.858	-0.087	-0.148
-682.266	104.269	-0.063	0.074
-681.251	-200.000	0.027	0.384
-680.237	-89.261	0.242	0.072
-679.222	33.461	0.136	-0.119
-678.208	-158.147	0.247	-0.015
-677.193	-8.388	0.035	-0.023
-676.178	-35.097	-0.237	0.130
-675.164	-121.949	-0.342	-0.057
-674.149	-200.000	0.101	-0.466
-673.135	-80.556	-0.191	0.064
-672.120	116.407	-0.141	0.174
-671.105	45.777	0.225	-0.209
-670.091	-91.477	-0.282	-0.081
-669.076	-200.000	-0.039	-0.271
-668.062	-52.720	-0.129	0.060
-667.047	-37.952	-0.134	0.071
-666.032	-71.137	0.129	0.049
-665.018	-200.000	0.002	-0.362
-664.003	82.196	0.221	-0.242
-662.989	236.752	-0.033	-0.055
-661.974	181.377	-0.106	-0.157
-660.959	-99.479	0.112	-0.028
-659.945	-142.844	0.367	-0.036
-658.930	99.355	-0.126	0.146
-657.916	-95.521	0.283	0.076
-656.901	775.525	-0.100	0.274
-655.886	-51.000	-0.208	-0.098
-654.872	119.457	-0.021	0.026
-653.857	-49.674	-0.200	0.096
-652.843	-94.899	-0.364	0.099
-651.828	-200.000	-0.016	0.336
-650.814	9.467	-0.325	0.248
-649.799	-200.000	-0.020	-0.167
-648.784	-200.000	0.019	-0.280
-647.770	130.342	-0.115	-0.148
-646.755	-53.774	0.132	0.060
-645.741	-87.187	0.186	0.057
-644.726	33.014	-0.191	0.167
-643.711	-200.000	0.007	-0.212
-642.697	-74.192	0.332	-0.121
-641.682	-115.208	0.093	0.018
-640.668	-200.000	-0.027	-0.188
-639.653	-50.191	0.034	0.016
-638.638	294.390	0.071	0.131
-637.624	-97.936	-0.343	0.089
-636.609	800.000	-0.030	-0.109
-635.595	30.503	-0.039	0.034
-634.580	-75.363	-0.154	-0.055
-633.565	111.998	0.233	-0.283
-632.551	407.410	0.047	-0.099
-631.536	800.000	-0.135	-0.416
-630.522	254.956	-0.127	0.219
-629.507	66.762	0.143	-0.147
-628.492	-67.099	-0.368	-0.146
-627.478	-200.000	-0.020	0.171
-626.463	-200.000	0.026	-0.211
-625.449	715.014	0.102	-0.271
-624.434	-46.419	0.356	-0.175
-623.419	-5.537	0.109	-0.075
-622.405	309.693	0.204	-0.382
-621.390	331.476	0.093	-0.180
-620.376	-24.704	0.182	0.108
-619.361	-200.000	0.006	-0.149
-618.346	-32.391	-0.090	-0.050
-617.332	-73.462	0.265	-0.097
-616.317	77.432	-0.290	0.310
-615.303	-200.000	-0.014	0.105
-614.288	308.583	0.204	-0.382
-613.273	-200.000	0.034	0.176
-612.259	70.655	-0.278	0.289
-611.244	-107.791	-0.421	0.092
-610.230	401.276	0.097	0.205
-609.215	118.658	-0.143	-0.177
-608.201	800.000	0.108	-0.302
-607.186	217.895	0.190	-0.304
-606.171	-200.000	-0.005	0.195
-605.157	32.013	0.140	-0.121
-604.142	-101.034	-0.193	-0.047
-603.128	198.986	-0.140	-0.215
-602.113	800.000	0.057	0.171
-601.098	-82.366	-0.077	-0.025
-600.084	-200.000	-0.021	-0.174
-599.069	59.005	-0.069	-0.068
-598.055	-11.322	-0.253	0.168
-597.040	-147.530	-0.165	0.014
-596.025	-44.848	0.225	0.113
-595.011	-71.039	-0.103	0.039
-593.996	-1.445	-0.129	0.091
-592.982	120.130	-0.095	-0.118
-591.967	-17.810	-0.279	0.176
-590.952	-171.367	0.279	-0.009
-589.938	-136.989	-0.135	-0.016
-588.923	26.436	0.136	-0.114
-587.909	705.682	-0.066	-0.175
-586.894	6.811	-0.070	-0.052
-585.879	122.700	0.058	0.073
-584.865	800.000	-0.055	-0.194
-583.850	795.789	-0.023	0.063
-582.836	-16.741	-0.054	0.034
-581.821	184.679	0.209	-0.311
-580.806	-39.669	-0.069	-0.036
-579.792	57.786	0.214	-0.210
-578.777	800.000	-0.027	0.083
-577.763	-152.779	-0.032	0.002
-576.748	-85.666	-0.120	0.037
-575.733	-13.664	-0.485	0.315
-574.719	4.757	-0.279	-0.206
-573.704	800.000	0.105	-0.346
-572.690	175.160	0.132	0.191
-571.675	800.000	0.073	-0.269
-570.661	-47.198	0.204	0.100
-569.646	431.304	-0.153	-0.332
-568.631	-94.288	0.225	0.062
-567.617	171.441	-0.057	0.082
-566.602	-10.189	-0.125	-0.083
-565.588	-200.000	-0.001	0.167
-564.573	510.789	-0.073	-0.171
-563.558	-156.127	-0.088	0.006
-562.544	132.540	0.107	0.138
-561.529	-44.012	-0.101	-0.051
-560.515	483.159	0.065	0.149
-559.500	172.794	-0.049	-0.071
-558.485	12.380	-0.033	0.026
-557.471	136.133	-0.117	-0.153
-556.456	-38.493	0.099	-0.053
-555.442	49.510	-0.191	0.180
-554.427	-34.748	-0.114	0.062
-553.412	-93.944	0.241	-0.066
-552.398	778.709	0.087	0.237
-551.383	-186.860	0.347	-0.005
-550.369	800.000	0.042	0.163
-549.354	800.000	-0.040	0.160
-548.339	46.013	0.151	-0.140
-547.325	308.655	0.075	-0.139
-546.310	535.206	0.041	-0.097
-545.296	108.010	-0.099	0.118
-544.281	107.027	0.178	-0.212
-543.266	800.000	0.058	0.210
-542.252	126.840	0.160	0.203
-541.237	-21.970	-0.108	0.066
-540.223	297.395	-0.096	0.176
-539.208	187.506	-0.071	-0.106
-538.193	800.000	0.118	-0.340
-537.179	241.936	0.126	0.211
-536.164	800.000	-0.026	0.100
-535.150	-200.000	-0.034	0.385
-534.135	25.267	-0.199	-0.165
-533.121	-44.431	0.166	-0.083
-532.106	-75.009	0.399	-0.143
-531.091	-59.084	-0.201	-0.087
-530.077	221.603	-0.113	-0.181
-529.062	263.123	0.065	0.113
-528.048	800.000	-0.060	0.246
-527.033	-129.078	-0.143	-0.020
-526.018	800.000	0.050	-0.164
-525.004	-88.620	-0.317	-0.094
-523.989	87.482	0.102	-0.113
-522.975	7.700	0.249	-0.187
-521.960	262.395	-0.177	0.308
-520.945	-200.000	-0.011	0.414
-519.931	800.000	0.064	0.201
-518.916	-54.937	0.390	0.176
-517.902	121.591	-0.132	0.165
-516.887	-16.323	0.127	0.081
-515.872	-48.266	-0.162	0.078
-514.858	7.833	-0.229	0.172
-513.843	115.678	-0.128	0.157
-512.829	800.000	0.049	0.205
-511.814	437.970	0.140	0.305
-510.799	-99.466	0.187	0.047
-509.785	12.001	0.109	-0.084
-508.770	206.741	-0.078	-0.122
-507.756	148.677	-0.308	0.416
-506.741	-100.881	0.255	-0.063
-505.726	-50.018	0.252	0.120
-504.712	1.763	-0.032	0.023
-503.697	363.448	0.107	-0.215
-502.683	148.438	0.348	-0.470
-501.668	18.806	-0.057	-0.046
-500.653	-74.529	0.053	-0.019
-499.639	-92.940	0.122	0.034
-498.624	29.438	-0.336	-0.285
-497.610	-200.000	-0.030	-0.206
-496.595	109.375	-0.129	-0.155
-495.581	-200.000	0.002	-0.148
-494.566	107.393	0.093	-0.111
-493.551	800.000	-0.039	-0.111
-492.537	-52.823	-0.119	-0.055
-491.522	326.281	0.071	-0.136
-490.508	14.538	0.164	0.128
-489.493	-200.000	-0.253	-0.001
-488.478	-200.000	-0.003	-0.150
-487.464	-20.297	-0.135	-0.083
-486.449	-33.209	-0.131	0.073
-485.435	-64.636	0.249	0.101
-484.420	-125.023	-0.185	-0.028
-483.405	-59.803	-0.273	-0.117
-482.391	48.311	-0.123	-0.115
-481.376	-55.933	-0.036	0.016
-480.362	613.728	-0.125	-0.312
-479.347	-115.689	0.255	-0.048
-478.332	38.154	-0.125	-0.111
-477.318	224.565	0.062	0.100
-476.303	800.000	-0.158	0.505
-475.289	-110.939	-0.144	-0.030
-474.274	191.517	0.167	-0.252
-473.259	240.074	0.069	0.114
-472.245	-68.109	-0.192	-0.075
-471.230	-200.000	0.052	0.257
-470.216	800.000	0.020	0.071
-469.201	341.872	-0.144	0.282
-468.186	212.892	-0.191	0.301
-467.172	122.272	-0.377	0.470
-466.157	-92.419	-0.373	-0.105
-465.143	800.000	0.046	0.167
-464.128	-13.823	0.158	0.102
-463.113	-9.469	-0.106	-0.071
-462.099	-200.000	-0.026	-0.362
-461.084	507.466	0.101	-0.235
-460.070	800.000	0.052	-0.171
-459.055	800.000	-0.053	0.199
-458.040	78.065	0.134	0.143
-457.026	-200.000	-0.013	-0.225
-456.011	-104.639	-0.132	0.030
-454.997	800.000	0.033	-0.113
-453.982	51.652	0.086	0.081
-452.968	-200.000	0.031	0.290
-451.953	800.000	0.050	0.179
-450.938	-148.149	-0.336	0.028
-449.924	-200.000	0.017	0.104
-448.909	654.760	0.052	-0.133
-447.895	323.075	-0.190	0.361
-446.880	800.000	-0.030	-0.105
-445.865	-93.453	-0.123	0.034
-444.851	-200.000	-0.007	-0.241
-443.836	26.800	0.044	0.037
-442.822	141.019	-0.249	-0.329
-441.807	-99.438	-0.068	-0.017
-440.792	-200.000	0.035	-0.251
-439.778	-22.975	0.189	-0.114
-438.763	-69.345	0.174	0.067
-437.749	-66.308	-0.127	-0.051
-436.734	66.728	-0.249	0.252
-435.719	-126.237	0.176	0.026
-434.705	291.883	0.161	0.291
-433.690	112.485	-0.139	0.167
-432.676	-13.389	0.393	0.254
-431.661	156.029	-0.131	0.180
-430.646	88.398	-0.188	-0.208
-429.632	461.489	0.065	-0.145
-428.617	-1.800	-0.048	-0.034
-427.603	412.867	0.076	0.160
-426.588	738.939	0.038	-0.101
-425.573	800.000	-0.037	0.155
-424.559	462.660	0.070	0.157
-423.544	-200.000	0.021	0.152
-422.530	548.001	-0.118	-0.281
-421.515	800.000	-0.031	0.097
-420.500	181.347	0.074	-0.108
-419.486	-146.245	0.101	0.009
-418.471	-153.803	0.417	-0.029
-417.457	15.172	-0.288	-0.225
-416.442	-31.316	0.243	0.136
-415.428	124.342	-0.255	-0.320
-414.413	-200.000	0.028	-0.362
-413.398	293.622	-0.037	0.067
-412.384	18.904	-0.066	-0.053
-411.369	-47.773	0.313	0.151
-410.355	108.519	-0.140	0.167
-409.340	-200.000	0.031	0.326
-408.325	60.903	-0.165	0.163
-407.311	154.650	0.259	0.354
-406.296	-74.129	0.049	0.018
-405.282	800.000	-0.094	-0.270
-404.267	20.026	-0.165	-0.132
-403.252	-86.056	0.112	-0.034
-402.238	800.000	-0.026	-0.096
-401.223	800.000	0.074	0.252
-400.209	118.430	-0.100	-0.123
-399.194	609.593	-0.114	0.283
-398.179	-115.835	-0.392	0.073
-397.165	-200.000	-0.253	0.001
-396.150	-146.988	0.109	0.009
-395.136	-94.795	-0.078	0.021
-394.121	3.760	0.326	0.237
-393.106	217.766	0.184	-0.293
-392.092	-49.003	-0.358	0.171
-391.077	-200.000	-0.015	-0.121
-390.063	164.716	0.231	0.325
-389.048	-28.089	0.143	0.082
-388.033	-200.000	-0.012	-0.085
-387.019	8.914	-0.071	0.054
-386.004	-200.000	0.008	0.135
-384.990	-63.032	-0.151	0.062
-383.975	4.665	-0.109	-0.079
-382.960	800.000	0.051	0.173
-381.946	623.389	0.172	-0.431
-380.931	-36.551	-0.090	-0.048
-379.917	-121.507	-0.372	-0.061
-378.902	-128.782	-0.132	0.018
-377.888	41.355	0.046	0.042
-376.873	36.599	-0.276	-0.242
-375.858	-200.000	-0.004	0.253
-374.844	-79.062	0.494	-0.167
-373.829	-28.219	-0.390	-0.224
-372.815	-46.754	0.165	0.081
-371.800	260.682	0.186	0.319
-370.785	-97.071	-0.286	0.074
-369.771	189.104	0.075	0.112
-368.756	173.798	-0.072	0.103
-367.742	-45.206	0.219	0.108
-366.727	105.582	0.189	0.222
-365.712	-135.340	-0.245	0.029
-364.698	52.240	-0.218	-0.206
-363.683	800.000	-0.075	-0.219
-362.669	800.000	0.012	-0.037
-361.654	189.780	0.128	0.191
-360.639	-200.000	0.012	-0.087
-359.625	-200.000	-0.003	0.016
-358.610	101.232	0.180	0.208
-357.596	-29.117	-0.108	0.061
-356.581	-92.291	0.301	-0.084
-355.566	-200.000	0.001	0.317
-354.552	198.875	-0.155	0.237
-353.537	395.792	0.064	-0.132
-352.523	-4.384	-0.179	-0.123
-351.508	-106.241	-0.227	0.050
-350.493	-14.730	-0.112	-0.071
-349.479	178.321	-0.168	0.244
-348.464	-200.000	0.028	0.362
-347.450	800.000	-0.081	0.298
-346.435	198.092	0.048	0.073
-345.420	-9.868	0.187	0.124
-344.406	-68.571	-0.154	0.059
-343.391	800.000	-0.038	0.134
-342.377	-200.000	0.009	0.109
-341.362	-113.685	0.416	0.081
-340.348	-30.798	0.497	-0.279
-339.333	-135.458	-0.211	-0.025
-338.318	176.658	0.109	0.158
-337.304	-119.555	0.282	0.049
-336.289	475.195	-0.072	-0.162
-335.275	-200.000	-0.030	0.381
-334.260	-126.247	0.197	-0.029
-333.245	80.133	-0.211	-0.225
-332.231	-62.788	-0.394	0.162
-331.216	-149.766	0.367	0.029
-330.202	-50.691	0.619	-0.290
-329.187	-200.000	0.025	0.258
-328.172	55.900	0.183	0.176
-327.158	25.631	-0.165	0.136
-326.143	340.193	-0.040	-0.078
-325.129	800.000	-0.036	0.129
-324.114	-45.354	-0.101	-0.050
-323.099	146.338	-0.147	0.196
-322.085	800.000	-0.043	0.165
-321.070	156.586	0.154	0.212
-320.056	283.329	-0.081	-0.144
-319.041	86.942	-0.072	0.079
-318.026	-200.000	-0.002	0.102
-317.012	-157.245	0.202	0.012
-315.997	-129.092	-0.264	-0.037
-314.983	-129.153	-0.482	0.067
-313.968	58.005	-0.174	0.169
-312.953	800.000	0.034	0.127
-311.939	-6.231	0.073	-0.050
-310.924	-200.000	-0.016	0.270
-309.910	70.975	-0.075	-0.078
-308.895	-0.210	0.335	-0.237
-307.880	-58.043	-0.248	-0.107
-306.866	-133.148	0.115	0.014
-305.851	-200.000	0.049	-0.260
-304.837	-200.000	0.014	0.155
-303.822	159.624	0.023	0.032
-302.807	43.822	-0.214	0.195
-301.793	800.000	0.090	-0.353
-300.778	-200.000	-0.063	-0.338
-299.764	-57.655	0.353	-0.153
-298.749	139.651	0.087	0.114
-297.735	422.185	-0.106	-0.225
-296.720	800.000	-0.178	-0.536
-295.705	-105.447	-0.322	0.073
-294.691	-137.277	0.161	0.018
-293.676	71.497	-0.234	0.241
-292.662	800.000	0.149	0.418
-291.647	800.000	-0.105	-0.389
-290.632	-82.980	-0.316	-0.101
-289.618	778.511	0.076	0.207
-288.603	-82.879	0.331	0.106
-287.589	-200.000	-0.021	0.121
-286.574	-86.579	0.105	-0.032
-285.559	-65.693	0.449	-0.179
-284.545	315.583	0.049	0.092
-283.530	-200.000	0.007	0.104
-282.516	219.724	-0.072	0.114
-281.501	-200.000	-0.012	-0.143
-280.486	13.739	-0.243	0.187
-279.472	565.009	-0.045	-0.108
-278.457	-144.777	-0.103	0.009
-277.443	85.705	0.139	-0.151
-276.428	-51.617	0.152	-0.070
-275.413	157.993	0.071	-0.097
-274.399	-172.347	-0.296	0.009
-273.384	-200.000	0.026	-0.234
-272.370	-1.138	-0.028	0.019
-271.355	-200.000	0.003	-0.083
-270.340	800.000	0.084	0.267
-269.326	800.000	-0.030	0.086
-268.311	-109.310	0.107	-0.022
-267.297	-200.000	0.031	0.198
-266.282	-182.257	0.104	0.002
-265.267	-104.414	0.321	0.074
-264.253	582.029	-0.068	-0.166
-263.238	-130.957	0.366	0.048
-262.224	514.844	0.147	-0.340
-261.209	532.899	0.079	0.186
-260.195	-46.385	0.293	-0.143
-259.180	-107.396	0.314	0.068
-258.165	-42.731	-0.261	-0.132
-257.151	-115.288	0.060	0.011
-256.136	-83.237	0.102	0.032
-255.122	153.248	-0.149	-0.202
-254.107	-110.000	-0.218	-0.045
-253.092	188.515	0.036	-0.053
-252.078	-200.000	-0.003	0.056
-251.063	44.843	0.116	0.106
-250.049	12.618	0.175	-0.134
-249.034	-23.459	0.150	-0.089
-248.019	800.000	-0.066	-0.244
-247.005	800.000	-0.099	-0.374
-245.990	-71.418	0.087	0.032
-244.976	-120.707	0.182	-0.030
-243.961	-127.498	-0.053	-0.008
-242.946	-5.305	0.232	-0.158
-241.932	-66.316	-0.417	0.164
-240.917	800.000	0.030	-0.097
-239.903	88.034	0.041	-0.045
-238.888	-200.000	0.009	0.050
-237.873	-66.986	0.093	0.036
-236.859	26.518	0.165	0.137
-235.844	127.854	0.260	-0.327
-234.830	67.672	0.143	0.145
-233.815	-200.000	-0.000	-0.172
-232.800	-36.244	-0.154	-0.082
-231.786	-200.000	0.023	-0.131
-230.771	568.108	0.084	-0.203
-229.757	3.333	-0.091	0.066
-228.742	-200.000	0.015	0.183
-227.727	-200.000	0.001	0.019
-226.713	-60.874	-0.091	0.038
-225.698	-200.000	0.002	-0.076
-224.684	-36.215	0.321	0.171
-223.669	143.921	0.157	0.208
-222.655	37.572	0.070	0.061
-221.640	192.696	0.142	0.212
-220.625	-200.000	-0.041	0.190
-219.611	-200.000	-0.024	-0.207
-218.596	-111.560	-0.207	-0.042
-217.582	-33.060	0.168	-0.092
-216.567	142.973	0.172	-0.226
-215.552	310.093	0.061	-0.112
-214.538	114.618	-0.207	0.250
-213.523	55.404	0.131	0.125
-212.509	218.600	0.063	0.100
-211.494	-200.000	-0.011	-0.069
-210.479	-200.000	0.017	0.244
-209.465	28.079	0.030	-0.025
-208.450	-143.702	0.148	-0.014
-207.436	353.575	-0.102	-0.200
-206.421	413.477	0.101	0.213
-205.406	-119.184	0.190	-0.033
-204.392	10.465	-0.142	0.107
-203.377	69.854	0.123	0.126
-202.363	800.000	-0.024	0.096
-201.348	363.027	-0.118	0.234
-200.333	-20.228	0.264	0.161
-199.319	-86.941	-0.211	0.064
-198.304	13.454	-0.222	-0.170
-197.290	684.292	0.042	0.109
-196.275	362.836	-0.186	-0.368
-195.260	796.728	0.086	-0.233
-194.246	-200.000	0.018	0.286
-193.231	233.421	0.084	-0.137
-192.217	-55.201	-0.350	-0.155
-191.202	186.910	0.114	-0.168
-190.187	114.540	0.046	-0.055
-189.173	14.083	-0.141	0.109
-188.158	800.000	-0.011	-0.034
-187.144	-21.497	0.294	-0.177
-186.129	221.002	0.149	-0.236
-185.114	-64.080	0.143	-0.057
-184.100	167.840	0.037	0.052
-183.085	-179.658	0.152	0.003
-182.071	105.710	-0.154	0.180
-181.056	-32.806	0.193	0.106
-180.042	183.407	-0.086	-0.126
-179.027	274.411	-0.143	-0.250
-178.012	122.780	0.263	-0.325
-176.998	-54.304	0.073	-0.033
-175.983	362.102	-0.024	0.047
-174.969	-32.101	-0.225	0.124
-173.954	-110.017	-0.213	-0.044
-172.939	-138.705	0.069	0.007
-171.925	331.657	-0.173	0.330
-170.910	562.282	-0.085	0.204
-169.896	-66.082	-0.150	-0.059
-168.881	-78.413	-0.201	-0.068
-167.866	56.415	-0.117	0.112
-166.852	800.000	-0.038	-0.126
-165.837	-159.305	0.057	0.003
-164.823	-53.713	-0.279	-0.126
-163.808	-137.017	0.078	-0.009
-162.793	105.177	0.083	0.097
-161.779	6.052	0.072	-0.053
-160.764	-138.669	-0.417	0.045
-159.750	-78.303	-0.209	-0.071
-158.735	217.554	0.043	0.067
-157.720	14.059	0.039	-0.030
-156.706	588.588	0.084	0.205
-155.691	376.572	0.127	0.255
-154.677	-200.000	0.033	-0.280
-153.662	-154.389	-0.324	-0.021
-152.647	-200.000	0.048	-0.302
-151.633	-130.934	0.208	0.027
-150.618	-200.000	0.029	0.208
-149.604	141.636	0.077	0.100
-148.589	-89.495	0.139	-0.040
-147.574	255.210	0.177	-0.299
-146.560	0.367	-0.338	-0.238
-145.545	346.345	-0.189	0.367
-144.531	-98.341	0.028	-0.007
-143.516	15.172	0.056	0.043
-142.502	-86.607	0.299	0.090
-141.487	-55.713	-0.162	-0.072
-140.472	24.683	0.263	-0.215
-139.458	-26.819	0.092	0.053
-138.443	800.000	0.027	0.107
-137.429	800.000	-0.057	0.169
-136.414	-200.000	0.002	-0.071
-135.399	-200.000	0.047	0.220
-134.385	163.070	-0.102	-0.141
-133.370	-200.000	-0.011	-0.051
-132.356	-81.701	-0.283	0.091
-131.341	-200.000	0.022	0.320
-130.326	800.000	-0.012	-0.051
-129.312	800.000	0.058	0.240
-128.297	105.262	0.048	-0.056
-127.283	50.261	-0.231	-0.215
-126.268	357.857	-0.088	-0.173
-125.253	-139.094	0.269	0.029
-124.239	78.135	0.061	0.064
-123.224	-169.384	-0.089	-0.003
-122.210	-200.000	-0.003	-0.258
-121.195	-58.962	0.100	-0.043
-120.180	8.185	0.034	0.025
