DTS Sentinel unit serial number:	SN413079Multiplexer serial number:	ORYXHardware model number:	OX4-SRSoftware version number:	ORYX F/W v4.00 Oryx Data Collector v3.7.2.0data status	okinstallation	princeton_trtdifferential loss correction	single-endedforward channel	channel 3reverse channel	N/Adate	2019/09/14time	06:20:35forward acquisition time	60.00reverse acquisition time	0.00gamma	496.2192k internal	0.2339k external	0.2339temperature offset calibration	1.0058default loss term (dB/km)	0.3790temperature slope calibration	1.0000multiplexer offset coefficient	1.0000multiplexer slope coefficient	1.0000fibre end	0.00T internal ref (°C)	26.62T ext. ref 1 (°C)	3.42T ext. ref 2 (°C)	20.59length (m)	temperature (°C)	Stokes	anti-Stokes-747.200	141.838	0.085	-0.112
-746.185	-90.208	-0.315	0.092
-745.171	101.139	0.037	-0.043
-744.156	135.644	-0.134	0.175
-743.142	162.495	-0.109	0.153
-742.127	800.000	-0.033	0.146
-741.112	-173.311	0.084	-0.003
-740.098	-200.000	0.021	-0.253
-739.083	-54.640	-0.150	-0.068
-738.069	32.594	-0.119	0.103
-737.054	312.035	-0.074	0.140
-736.039	-61.306	-0.212	-0.089
-735.025	320.984	0.180	-0.343
-734.010	171.768	-0.065	-0.093
-732.996	800.000	-0.054	-0.201
-731.981	-48.537	0.231	-0.112
-730.966	-113.844	-0.218	-0.042
-729.952	-142.939	-0.433	-0.042
-728.937	-89.144	-0.236	-0.070
-727.923	-200.000	-0.011	-0.090
-726.908	-186.810	-0.336	0.005
-725.894	-160.469	-0.182	0.010
-724.879	-133.951	0.272	0.034
-723.864	800.000	0.069	-0.242
-722.850	-82.865	0.150	-0.049
-721.835	-200.000	-0.019	-0.292
-720.821	590.728	0.075	-0.186
-719.806	-52.317	0.100	0.047
-718.791	-58.424	0.190	0.083
-717.777	42.005	0.169	-0.154
-716.762	187.167	-0.039	0.058
-715.748	-20.627	-0.072	-0.044
-714.733	-200.000	-0.013	0.243
-713.718	200.226	-0.126	-0.194
-712.704	46.911	-0.083	-0.077
-711.689	-8.967	-0.120	0.081
-710.675	-76.777	0.173	0.061
-709.660	-91.040	0.204	-0.059
-708.645	7.369	-0.294	0.220
-707.631	11.558	-0.136	-0.104
-706.616	-6.990	-0.203	0.138
-705.602	670.135	-0.078	0.202
-704.587	706.836	-0.070	0.184
-703.572	800.000	-0.094	-0.274
-702.558	-185.497	0.007	0.000
-701.543	-145.813	0.330	0.029
-700.529	-76.363	0.315	-0.111
-699.514	-33.739	-0.160	-0.089
-698.499	-50.736	-0.144	0.068
-697.485	145.133	0.138	0.185
-696.470	791.486	-0.044	0.122
-695.456	166.109	0.079	-0.113
-694.441	-153.365	-0.207	-0.014
-693.426	-200.000	-0.031	-0.307
-692.412	-156.538	-0.169	0.010
-691.397	-200.000	0.018	-0.271
-690.383	-200.000	-0.005	-0.198
-689.368	484.891	-0.034	0.077
-688.354	155.414	-0.021	-0.029
-687.339	-75.001	-0.355	-0.127
-686.324	-8.924	-0.417	0.280
-685.310	580.537	-0.086	-0.211
-684.295	-200.000	0.004	-0.100
-683.281	129.950	0.147	0.188
-682.266	-17.139	-0.119	0.075
-681.251	-200.000	-0.009	-0.299
-680.237	502.451	-0.092	0.212
-679.222	147.154	-0.204	-0.274
-678.208	-109.252	0.097	-0.021
-677.193	-20.835	0.140	-0.086
-676.178	26.799	0.143	0.120
-675.164	409.561	0.199	-0.421
-674.149	40.978	-0.210	-0.189
-673.135	-72.073	-0.139	0.052
-672.120	511.550	0.069	-0.160
-671.105	-200.000	0.027	-0.369
-670.091	800.000	-0.097	-0.354
-669.076	-64.335	0.484	-0.197
-668.062	58.001	0.192	-0.188
-667.047	-200.000	-0.034	-0.211
-666.032	-200.000	0.075	-0.397
-665.018	44.147	-0.137	-0.125
-664.003	-77.408	0.262	-0.091
-662.989	40.359	-0.177	0.159
-661.974	-54.535	0.188	-0.085
-660.959	3.253	-0.290	-0.211
-659.945	-200.000	0.011	-0.188
-658.930	-2.434	-0.356	-0.249
-657.916	-200.000	-0.040	-0.336
-656.901	-25.555	-0.256	0.151
-655.886	51.825	-0.159	-0.151
-654.872	62.952	-0.189	0.189
-653.857	301.088	0.031	-0.058
-652.843	43.656	-0.224	-0.205
-651.828	18.087	-0.223	-0.178
-650.814	-22.330	0.327	-0.198
-649.799	350.874	-0.098	0.194
-648.784	800.000	-0.027	-0.114
-647.770	779.059	-0.013	0.036
-646.755	-200.000	0.051	0.281
-645.741	51.530	-0.288	-0.274
-644.726	-169.444	0.049	0.002
-643.711	800.000	-0.083	-0.268
-642.697	232.986	-0.109	0.179
-641.682	78.807	0.220	-0.235
-640.668	-67.373	0.350	0.137
-639.653	-200.000	0.005	-0.284
-638.638	-84.461	-0.314	-0.099
-637.624	30.494	0.261	0.223
-636.609	800.000	0.099	0.286
-635.595	241.797	-0.097	0.162
-634.580	-56.284	-0.175	-0.078
-633.565	-46.342	-0.121	0.059
-632.551	-200.000	0.009	-0.159
-631.536	30.228	-0.282	-0.240
-630.522	210.864	0.050	-0.078
-629.507	-30.266	-0.252	-0.143
-628.492	700.249	0.165	-0.435
-627.478	-200.000	0.043	-0.522
-626.463	111.153	-0.062	-0.074
-625.449	386.071	-0.280	-0.577
-624.434	210.092	-0.024	-0.038
-623.419	-143.368	0.170	-0.016
-622.405	14.130	0.222	-0.173
-621.390	94.538	0.114	-0.129
-620.376	800.000	-0.052	0.180
-619.361	-67.982	-0.327	-0.127
-618.346	251.370	-0.057	-0.097
-617.332	-37.238	-0.108	0.058
-616.317	33.486	0.043	0.037
-615.303	-200.000	-0.033	0.235
-614.288	800.000	0.057	0.187
-613.273	-200.000	0.075	0.411
-612.259	-168.254	-0.169	0.007
-611.244	-72.425	0.231	-0.085
-610.230	800.000	-0.052	-0.191
-609.215	42.738	0.089	0.081
-608.201	102.597	-0.074	0.087
-607.186	9.921	-0.113	0.086
-606.171	-38.960	-0.190	-0.100
-605.157	79.127	0.121	-0.129
-604.142	-60.003	0.082	0.035
-603.128	-200.000	0.078	0.432
-602.113	-81.194	0.095	-0.031
-601.098	-19.269	0.164	-0.101
-600.084	214.158	0.131	0.207
-599.069	-147.495	-0.170	0.014
-598.055	696.956	0.111	-0.291
-597.040	-142.360	0.192	-0.019
-596.025	800.000	0.039	-0.129
-595.011	800.000	0.100	-0.298
-593.996	40.649	0.077	0.069
-592.982	-10.098	0.201	0.133
-591.967	-165.792	-0.121	0.005
-590.952	-162.424	0.142	-0.007
-589.938	37.209	0.092	0.081
-588.923	166.834	-0.200	0.283
-587.909	32.552	-0.352	0.303
-586.894	66.799	0.217	0.220
-585.879	423.583	-0.149	-0.319
-584.865	-20.240	-0.076	-0.047
-583.850	72.486	0.119	0.124
-582.836	643.379	-0.044	0.113
-581.821	800.000	0.091	0.306
-580.806	-133.931	0.234	-0.029
-579.792	-151.034	0.041	0.003
-578.777	-111.171	-0.267	0.055
-577.763	-159.714	-0.103	-0.006
-576.748	574.424	-0.080	0.195
-575.733	800.000	-0.071	0.252
-574.719	370.276	-0.115	0.233
-573.704	-133.393	0.273	-0.034
-572.690	202.235	0.109	0.167
-571.675	-98.496	0.271	-0.069
-570.661	131.783	0.106	0.135
-569.646	48.924	0.177	-0.165
-568.631	-200.000	-0.005	0.143
-567.617	-97.313	-0.187	0.049
-566.602	800.000	0.121	0.356
-565.588	-200.000	-0.022	0.201
-564.573	-9.078	0.203	-0.135
-563.558	-200.000	-0.005	0.302
-562.544	-19.639	0.215	-0.132
-561.529	-29.275	-0.202	-0.115
-560.515	-80.708	0.231	-0.077
-559.500	45.815	-0.175	0.161
-558.485	-197.184	-0.367	0.002
-557.471	-195.605	0.081	0.001
-556.456	-42.976	0.174	-0.088
-555.442	-30.856	-0.275	0.155
-554.427	-200.000	0.241	0.000
-553.412	594.427	0.077	-0.190
-552.398	-10.837	-0.156	0.102
-551.383	508.503	0.131	-0.304
-550.369	-10.933	0.287	0.189
-549.354	-200.000	0.163	0.000
-548.339	-99.707	-0.195	0.049
-547.325	800.000	0.014	-0.050
-546.310	-25.863	0.150	0.088
-545.296	44.546	-0.122	-0.112
-544.281	-200.000	0.048	-0.257
-543.266	-112.844	-0.127	0.025
-542.252	-59.799	0.058	0.025
-541.237	-200.000	0.050	0.361
-540.223	-70.396	0.068	-0.026
-539.208	38.837	-0.074	0.066
-538.193	-57.884	0.231	-0.100
-537.179	-200.000	0.029	-0.174
-536.164	473.236	0.196	-0.439
-535.150	-72.086	0.092	0.034
-534.135	-200.000	0.019	-0.114
-533.121	-200.000	-0.025	0.230
-532.106	-200.000	0.003	-0.346
-531.091	-75.906	-0.162	-0.057
-530.077	-200.000	-0.003	0.116
-529.062	52.858	-0.195	-0.186
-528.048	-200.000	-0.029	0.367
-527.033	800.000	0.031	0.120
-526.018	800.000	-0.029	0.092
-525.004	-200.000	-0.103	0.503
-523.989	-87.746	0.065	0.020
-522.975	397.743	-0.157	-0.327
-521.960	-200.000	0.000	-0.181
-520.945	-19.461	-0.257	-0.158
-519.931	-200.000	0.052	0.249
-518.916	-9.876	-0.180	0.119
-517.902	-36.244	-0.164	-0.088
-516.887	247.282	0.168	-0.281
-515.872	3.165	-0.413	0.299
-514.858	-180.505	-0.390	-0.008
-513.843	-93.317	0.318	-0.088
-512.829	-132.041	-0.040	0.005
-511.814	800.000	0.094	-0.396
-510.799	52.328	-0.247	0.234
-509.785	-200.000	-0.031	-0.191
-508.770	161.099	0.060	0.084
-507.756	229.253	-0.090	0.145
-506.741	161.952	0.118	0.165
-505.726	140.917	-0.234	-0.307
-504.712	-190.230	-0.095	-0.001
-503.697	800.000	0.105	0.316
-502.683	-156.754	0.131	-0.008
-501.668	256.842	-0.075	-0.128
-500.653	72.945	-0.215	-0.223
-499.639	89.259	-0.113	-0.126
-498.624	800.000	-0.045	0.174
-497.610	327.390	0.071	-0.135
-496.595	609.500	0.147	0.364
-495.581	-189.433	0.316	0.004
-494.566	-200.000	-0.003	0.098
-493.551	-200.000	-0.002	-0.127
-492.537	-200.000	0.015	0.201
-491.522	39.118	-0.341	-0.303
-490.508	800.000	0.063	-0.246
-489.493	67.630	-0.142	-0.144
-488.478	-158.860	-0.134	0.008
-487.464	800.000	-0.010	0.040
-486.449	29.539	-0.268	-0.226
-485.435	-200.000	0.039	-0.205
-484.420	-81.680	-0.173	-0.056
-483.405	105.170	-0.050	0.059
-482.391	-200.000	-0.027	-0.247
-481.376	77.267	-0.188	0.198
-480.362	-37.443	-0.211	-0.112
-479.347	-174.579	-0.072	0.002
-478.332	94.654	-0.156	-0.175
-477.318	-69.363	-0.216	0.082
-476.303	37.069	0.220	-0.193
-475.289	19.171	0.211	0.168
-474.274	161.895	0.084	0.117
-473.259	-138.169	-0.242	0.027
-472.245	-200.000	-0.040	-0.217
-471.230	800.000	-0.061	0.196
-470.216	-186.584	0.021	0.000
-469.201	-200.000	-0.010	-0.121
-468.186	-145.068	-0.276	0.025
-467.172	-45.912	-0.192	-0.094
-466.157	214.734	-0.263	0.414
-465.143	145.596	-0.226	0.301
-464.128	-44.955	0.168	0.083
-463.113	800.000	-0.106	0.305
-462.099	-42.918	0.092	0.046
-461.084	-23.407	0.136	-0.081
-460.070	-144.883	-0.211	-0.019
-459.055	-23.248	-0.091	-0.054
-458.040	2.128	0.044	-0.031
-457.026	81.922	0.188	-0.202
-456.011	-114.005	0.021	-0.004
-454.997	-20.390	-0.298	0.182
-453.982	135.156	-0.036	-0.047
-452.968	-200.000	-0.024	-0.110
-451.953	-98.346	0.300	-0.076
-450.938	-27.674	-0.115	0.066
-449.924	-59.239	-0.206	-0.088
-448.909	-92.806	-0.208	0.058
-447.895	-85.242	0.353	-0.109
-446.880	-182.987	0.296	-0.005
-445.865	369.548	-0.089	0.179
-444.851	-200.000	0.024	0.350
-443.836	654.932	0.009	0.022
-442.822	380.613	-0.079	0.161
-441.807	-4.026	-0.275	-0.189
-440.792	125.373	0.172	0.214
-439.778	800.000	0.067	-0.218
-438.763	118.774	-0.215	-0.263
-437.749	-18.963	0.337	-0.208
-436.734	-29.850	-0.257	-0.145
-435.719	-200.000	0.006	-0.424
-434.705	800.000	-0.010	0.039
-433.690	-200.000	-0.017	0.300
-432.676	137.176	-0.158	0.204
-431.661	169.663	0.106	-0.150
-430.646	800.000	-0.021	0.066
-429.632	1.583	0.339	-0.242
-428.617	178.807	0.105	-0.151
-427.603	-6.661	0.110	-0.074
-426.588	-85.066	0.084	0.026
-425.573	-117.094	0.040	-0.007
-424.559	800.000	0.028	-0.106
-423.544	234.538	-0.226	0.369
-422.530	789.851	-0.065	0.178
-421.515	158.582	0.179	-0.246
-420.500	800.000	-0.087	-0.269
-419.486	-200.000	-0.094	0.000
-418.471	128.967	-0.025	0.032
-417.457	-82.304	0.162	-0.052
-416.442	-200.000	0.022	0.184
-415.428	1.676	-0.167	0.119
-414.413	-71.080	-0.070	-0.026
-413.398	155.995	-0.060	-0.082
-412.384	-200.000	-0.032	-0.189
-411.369	-200.000	0.007	-0.119
-410.355	11.908	-0.365	-0.278
-409.340	-54.459	-0.171	0.077
-408.325	-16.042	0.269	-0.169
-407.311	497.150	0.126	-0.286
-406.296	57.606	0.101	-0.097
-405.282	-200.000	0.037	0.385
-404.267	-122.153	0.525	0.085
-403.252	-121.609	-0.733	-0.120
-402.238	-200.000	-0.026	-0.381
-401.223	-23.256	0.240	0.143
-400.209	725.710	0.054	-0.144
-399.194	66.622	0.196	0.197
-398.179	-92.995	-0.115	0.032
-397.165	800.000	-0.070	-0.233
-396.150	359.782	-0.113	-0.224
-395.136	-162.452	0.118	0.006
-394.121	-86.109	-0.499	-0.152
-393.106	136.513	-0.091	0.117
-392.092	800.000	-0.073	-0.222
-391.077	-27.061	-0.423	0.244
-390.063	-47.526	0.091	0.044
-389.048	196.719	0.257	-0.388
-388.033	-21.771	-0.071	-0.043
-387.019	353.775	-0.146	-0.288
-386.004	-145.349	0.084	0.008
-384.990	-128.735	-0.190	-0.027
-383.975	209.193	-0.115	-0.179
-382.960	-54.765	0.159	-0.071
-381.946	136.056	0.101	0.130
-380.931	-67.575	0.173	-0.067
-379.917	-200.000	0.011	0.048
-378.902	65.010	-0.151	-0.151
-377.888	-97.586	0.088	0.023
-376.873	235.804	-0.107	-0.175
-375.858	85.825	0.104	0.113
-374.844	121.504	-0.092	0.114
-373.829	84.202	-0.090	-0.097
-372.815	-169.712	-0.407	0.015
-371.800	-65.853	-0.181	0.072
-370.785	-118.520	-0.259	0.045
-369.771	800.000	-0.078	0.231
-368.756	108.234	0.069	0.082
-367.742	800.000	-0.090	0.340
-366.727	323.589	0.133	0.251
-365.712	-45.425	-0.331	-0.162
-364.698	800.000	-0.097	0.270
-363.683	-200.000	0.023	0.123
-362.669	-31.032	-0.242	-0.135
-361.654	157.148	-0.081	0.110
-360.639	168.264	-0.118	-0.166
-359.625	-157.305	-0.040	-0.002
-358.610	-200.000	-0.019	-0.226
-357.596	-200.000	0.001	-0.084
-356.581	24.051	-0.064	-0.052
-355.566	-200.000	-0.003	-0.264
-354.552	-52.943	-0.167	0.076
-353.537	-200.000	-0.028	0.245
-352.523	-101.754	-0.099	0.024
-351.508	-108.811	0.279	0.059
-350.493	800.000	-0.032	-0.136
-349.479	-81.768	-0.059	0.019
-348.464	800.000	0.027	0.109
-347.450	-200.000	0.055	-0.292
-346.435	27.951	0.183	0.152
-345.420	-69.693	-0.038	0.014
-344.406	800.000	0.076	-0.260
-343.391	-63.216	0.156	-0.064
-342.377	-51.127	0.372	-0.172
-341.362	-122.784	-0.129	0.021
-340.348	79.198	-0.130	0.137
-339.333	50.967	-0.170	0.159
-338.318	-200.000	-0.016	0.149
-337.304	-200.000	-0.006	-0.054
-336.289	3.440	-0.227	-0.163
-335.275	-54.504	0.341	0.153
-334.260	800.000	0.049	0.204
-333.245	141.271	0.096	0.126
-332.231	206.958	-0.199	0.306
-331.216	134.355	0.193	-0.246
-330.202	-200.000	0.010	-0.240
-329.187	147.023	-0.122	0.163
-328.172	-97.251	-0.227	0.058
-327.158	164.260	0.182	0.253
-326.143	-200.000	-0.042	-0.232
-325.129	-119.925	0.265	0.045
-324.114	-200.000	0.008	-0.223
-323.099	800.000	0.067	0.256
-322.085	-83.445	-0.227	-0.072
-321.070	296.974	0.225	-0.408
-320.056	-147.318	0.251	-0.021
-319.041	142.464	-0.271	0.355
-318.026	-122.788	-0.097	0.015
-317.012	-136.227	0.250	-0.029
-315.997	-11.168	0.060	-0.039
-314.983	20.236	0.216	-0.172
-313.968	-154.054	-0.472	-0.032
-312.953	-84.807	0.282	0.087
-311.939	-1.289	0.285	-0.198
-310.924	20.446	-0.191	0.152
-309.910	-200.000	0.006	-0.194
-308.895	-163.377	0.286	0.013
-307.880	-20.831	0.182	-0.110
-306.866	-63.555	-0.224	0.091
-305.851	-200.000	-0.030	-0.249
-304.837	-64.174	-0.052	0.021
-303.822	800.000	-0.048	-0.187
-302.807	-72.066	0.183	0.067
-301.793	199.034	0.181	0.273
-300.778	12.343	0.289	0.219
-299.764	48.374	-0.118	0.109
-298.749	186.955	-0.039	0.057
-297.735	-75.231	-0.225	-0.079
-296.720	800.000	0.031	-0.118
-295.705	-200.000	-0.001	0.040
-294.691	-131.705	-0.445	-0.058
-293.676	9.963	-0.030	0.022
-292.662	183.211	-0.225	0.328
-291.647	800.000	0.059	-0.228
-290.632	800.000	0.045	-0.151
-289.618	-5.214	0.059	0.040
-288.603	-61.162	0.154	-0.064
-287.589	-19.670	-0.121	0.074
-286.574	-180.118	0.440	0.009
-285.559	-55.834	-0.087	-0.038
-284.545	529.102	0.035	0.080
-283.530	-199.484	0.290	-0.001
-282.516	-66.002	0.173	0.068
-281.501	21.947	0.250	0.201
-280.486	800.000	-0.171	0.487
-279.472	22.234	0.413	0.332
-278.457	146.160	-0.030	0.039
-277.443	153.713	-0.178	-0.240
-276.428	39.855	-0.265	-0.234
-275.413	-64.931	-0.121	0.048
-274.399	-121.956	-0.329	-0.053
-273.384	135.707	-0.118	0.151
-272.370	-26.861	0.329	0.189
-271.355	-4.717	-0.197	0.134
-270.340	-200.000	-0.046	0.257
-269.326	173.349	-0.077	0.109
-268.311	526.382	-0.103	-0.239
-267.297	800.000	0.040	0.169
-266.282	-47.810	-0.173	-0.083
-265.267	-131.789	0.353	0.046
-264.253	345.266	0.116	-0.225
-263.238	327.723	-0.046	0.088
-262.224	-164.494	-0.213	-0.010
-261.209	-159.615	0.079	0.004
-260.195	-142.052	0.115	0.011
-259.180	169.914	-0.025	0.035
-258.165	137.984	0.132	-0.170
-257.151	800.000	-0.030	-0.097
-256.136	-142.328	-0.320	0.031
-255.122	-200.000	-0.002	0.253
-254.107	15.498	0.221	0.171
-253.092	226.171	0.065	0.104
-252.078	311.147	-0.124	-0.229
-251.063	-130.746	0.110	-0.015
-250.049	-200.000	-0.011	-0.088
-249.034	174.233	-0.034	-0.049
-248.019	-117.033	0.208	0.037
-247.005	-89.167	-0.076	0.022
-245.990	-108.806	0.463	-0.097
-244.976	-34.547	-0.203	-0.109
-243.961	-13.698	0.167	-0.106
-242.946	-200.000	-0.068	0.353
-241.932	9.521	-0.137	-0.102
-240.917	448.405	0.052	0.112
-239.903	-119.831	-0.389	0.066
-238.888	110.101	0.252	0.298
-237.873	382.740	0.075	0.151
-236.859	49.801	-0.041	0.038
-235.844	-62.296	-0.249	-0.102
-234.830	3.873	0.053	0.038
-233.815	305.703	0.094	0.172
-232.800	380.369	0.216	-0.435
-231.786	800.000	0.039	-0.126
-230.771	800.000	0.067	-0.251
-229.757	42.653	0.059	0.053
-228.742	50.196	0.168	-0.156
-227.727	66.974	0.040	0.040
-226.713	-38.730	-0.086	-0.045
-225.698	108.783	0.068	0.080
-224.684	27.050	-0.109	-0.090
-223.669	-90.928	0.256	-0.072
-222.655	-200.000	-0.015	-0.350
-221.640	-104.066	-0.129	-0.029
-220.625	-200.000	0.001	-0.077
-219.611	-200.000	-0.209	-0.000
-218.596	-109.680	0.548	0.113
-217.582	-159.664	0.290	-0.016
-216.567	-200.000	0.009	0.286
-215.552	-200.000	-0.007	-0.166
-214.538	694.590	0.035	0.089
-213.523	-168.798	0.147	0.005
-212.509	375.124	0.154	0.308
-211.494	-200.000	-0.407	0.000
-210.479	-200.000	-0.025	0.411
-209.465	-134.269	0.206	0.025
-208.450	-42.868	0.227	0.113
-207.436	-30.780	0.280	-0.155
-206.421	-200.000	0.023	0.147
-205.406	-54.985	0.155	-0.068
-204.392	48.779	0.236	-0.217
-203.377	-49.339	-0.305	0.143
-202.363	-71.916	0.181	0.066
-201.348	-18.331	-0.101	-0.062
-200.333	607.064	0.184	0.450
-199.319	800.000	0.042	0.123
-198.304	-171.414	0.199	0.007
-197.290	-0.951	0.235	-0.163
-196.275	52.958	-0.230	0.216
-195.260	83.243	-0.074	0.079
-194.246	-148.798	-0.080	0.006
-193.231	-116.345	0.124	-0.023
-192.217	-52.913	0.183	-0.082
-191.202	0.817	-0.163	-0.115
-190.187	17.252	0.094	-0.073
-189.173	-59.523	-0.346	0.146
-188.158	-200.000	-0.026	0.154
-187.144	258.118	0.145	0.245
-186.129	-70.355	0.160	-0.059
-185.114	351.861	-0.143	0.278
-184.100	-200.000	-0.005	0.102
-183.085	-13.038	0.147	-0.094
-182.071	-200.000	0.076	0.373
-181.056	30.318	-0.084	0.070
-180.042	-110.262	0.280	-0.057
-179.027	-40.920	-0.373	-0.189
-178.012	-63.846	-0.061	0.025
-176.998	-200.000	-0.040	-0.274
-175.983	-111.648	0.398	-0.079
-174.969	361.918	0.084	-0.166
-173.954	-93.012	0.268	0.073
-172.939	-200.000	-0.059	0.262
-171.925	-114.617	0.208	-0.039
-170.910	46.457	0.123	-0.112
-169.896	-12.399	0.316	-0.202
-168.881	-63.838	0.232	-0.093
-167.866	800.000	0.083	-0.252
-166.852	-3.329	-0.243	0.166
-165.837	27.885	-0.270	-0.223
-164.823	125.154	0.066	0.082
-163.808	-16.923	-0.208	-0.129
-162.793	517.421	-0.077	0.177
-161.779	2.789	-0.146	-0.104
-160.764	51.653	-0.132	-0.123
-159.750	-146.147	-0.045	-0.004
-158.735	198.487	0.203	0.304
-157.720	94.910	0.157	0.176
-156.706	94.395	0.090	-0.100
-155.691	-148.732	0.134	0.011
-154.677	-1.043	0.097	-0.067
-153.662	-114.043	0.329	0.062
-152.647	-33.297	0.105	0.057
-151.633	110.099	-0.111	-0.130
-150.618	170.856	0.181	0.254
-149.604	23.618	-0.207	-0.167
-148.589	-157.624	-0.096	0.006
-147.574	-19.390	0.292	0.178
-146.560	-2.682	0.367	-0.251
-145.545	111.551	0.181	-0.214
-144.531	2.458	-0.033	-0.024
-143.516	800.000	0.046	-0.186
-142.502	800.000	-0.125	-0.459
-141.487	48.350	0.153	-0.140
-140.472	-35.216	0.409	0.218
-139.458	221.535	0.079	-0.124
-138.443	641.119	-0.053	-0.133
-137.429	-93.296	0.366	-0.099
-136.414	13.944	0.167	0.127
-135.399	-10.476	-0.132	-0.086
-134.385	764.992	0.051	-0.135
-133.370	70.372	-0.081	-0.082
-132.356	420.307	0.104	-0.218
-131.341	-102.507	0.297	0.070
-130.326	-200.000	0.029	-0.202
-129.312	-53.898	0.179	-0.080
-128.297	-15.051	0.157	-0.098
-127.283	800.000	-0.069	0.191
-126.268	72.091	0.077	-0.078
-125.253	-141.748	-0.442	-0.043
-124.239	-29.208	0.114	0.064
-123.224	301.788	0.231	-0.418
-122.210	-95.090	-0.277	0.073
-121.195	-74.436	0.227	-0.080
