DTS Sentinel unit serial number:	SN413079Multiplexer serial number:	ORYXHardware model number:	OX4-SRSoftware version number:	ORYX F/W v4.00 Oryx Data Collector v3.7.2.0data status	okinstallation	princeton_trtdifferential loss correction	single-endedforward channel	channel 3reverse channel	N/Adate	2019/09/11time	18:14:11forward acquisition time	60.00reverse acquisition time	0.00gamma	496.2192k internal	0.2287k external	0.2287temperature offset calibration	0.9998default loss term (dB/km)	0.3790temperature slope calibration	1.0000multiplexer offset coefficient	1.0000multiplexer slope coefficient	1.0000fibre end	0.00T internal ref (°C)	44.02T ext. ref 1 (°C)	1.13T ext. ref 2 (°C)	38.84length (m)	temperature (°C)	Stokes	anti-Stokes-747.200	-60.959	-0.176	0.076
-746.185	-200.000	-0.005	0.254
-745.171	437.906	-0.146	0.326
-744.156	-200.000	-0.009	-0.196
-743.142	95.415	-0.199	0.233
-742.127	302.569	0.175	0.333
-741.112	800.000	0.154	0.493
-740.098	71.298	-0.160	0.170
-739.083	455.262	-0.083	0.188
-738.069	224.318	-0.158	0.262
-737.054	145.831	-0.242	-0.332
-736.039	-200.000	0.007	-0.097
-735.025	80.514	0.065	-0.072
-734.010	-122.306	0.195	-0.033
-732.996	-73.870	-0.260	0.097
-731.981	-122.412	0.451	-0.075
-730.966	-21.855	0.285	-0.177
-729.952	358.228	-0.089	0.182
-728.937	24.141	-0.240	-0.203
-727.923	3.856	-0.161	0.121
-726.908	419.998	-0.148	0.324
-725.894	-33.545	0.257	0.145
-724.879	8.681	0.228	-0.176
-723.864	148.083	-0.110	0.152
-722.850	-123.341	-0.114	0.019
-721.835	800.000	-0.024	0.068
-720.821	-43.060	0.192	-0.100
-719.806	-81.209	-0.221	-0.075
-718.791	274.231	-0.093	-0.169
-717.777	47.812	0.190	-0.182
-716.762	-34.409	-0.485	-0.272
-715.748	253.568	-0.032	-0.055
-714.733	-106.167	0.190	-0.044
-713.718	800.000	0.051	0.187
-712.704	-200.000	-0.012	-0.115
-711.689	-99.479	0.388	-0.100
-710.675	388.114	0.068	0.144
-709.660	3.109	-0.154	0.114
-708.645	-89.064	0.100	0.030
-707.631	-200.000	0.045	-0.230
-706.616	-200.000	0.019	-0.134
-705.602	-84.782	0.226	0.073
-704.587	278.987	0.146	-0.266
-703.572	88.056	0.304	0.345
-702.558	36.373	-0.361	-0.326
-701.543	106.538	0.149	-0.181
-700.529	176.767	0.217	0.323
-699.514	-35.802	-0.242	-0.134
-698.499	-43.584	0.125	0.065
-697.485	20.400	0.126	-0.104
-696.470	138.252	-0.252	0.338
-695.456	41.656	0.293	0.271
-694.441	-5.592	0.267	0.187
-693.426	204.062	0.108	0.172
-692.412	-0.587	-0.192	0.140
-691.397	721.812	-0.101	0.275
-690.383	-65.438	-0.266	0.109
-689.368	303.352	-0.075	-0.142
-688.354	44.094	0.253	0.238
-687.339	-124.667	0.462	-0.073
-686.324	-76.354	-0.134	-0.048
-685.310	-147.297	-0.390	0.034
-684.295	223.841	-0.077	-0.128
-683.281	-200.000	0.005	0.157
-682.266	55.022	-0.200	-0.198
-681.251	-200.000	-0.027	-0.410
-680.237	-94.715	0.151	0.042
-679.222	87.880	-0.093	-0.106
-678.208	13.134	0.296	0.234
-677.193	349.609	0.040	-0.080
-676.178	800.000	-0.045	0.129
-675.164	800.000	-0.026	0.109
-674.149	180.669	0.079	0.119
-673.135	800.000	0.022	0.084
-672.120	4.336	0.183	-0.138
-671.105	800.000	-0.036	-0.122
-670.091	-200.000	0.001	0.038
-669.076	-200.000	-0.006	-0.208
-668.062	94.202	0.259	0.300
-667.047	-156.499	0.110	-0.007
-666.032	98.674	0.050	0.059
-665.018	-89.890	-0.245	0.073
-664.003	800.000	-0.056	0.239
-662.989	-108.283	0.154	0.034
-661.974	-14.344	-0.288	-0.190
-660.959	-40.801	-0.171	0.090
-659.945	-103.320	0.150	-0.036
-658.930	-86.504	-0.197	0.062
-657.916	800.000	0.053	-0.176
-656.901	-40.383	-0.231	0.123
-655.886	-80.820	-0.317	-0.108
-654.872	-95.995	0.404	-0.110
-653.857	-20.245	0.170	-0.107
-652.843	-116.389	0.029	0.005
-651.828	426.182	0.078	0.172
-650.814	176.861	-0.043	-0.063
-649.799	-122.366	-0.003	0.001
-648.784	-200.000	-0.002	-0.122
-647.770	165.868	-0.096	-0.138
-646.755	173.618	-0.122	-0.181
-645.741	-154.746	0.217	-0.015
-644.726	23.051	-0.130	-0.109
-643.711	147.233	-0.125	-0.172
-642.697	135.391	-0.149	-0.198
-641.682	-44.278	0.043	-0.022
-640.668	124.326	0.085	0.109
-639.653	-59.812	-0.273	-0.119
-638.638	109.526	0.053	0.064
-637.624	-106.714	-0.085	-0.019
-636.609	122.637	0.053	0.067
-635.595	800.000	-0.070	0.253
-634.580	-53.370	0.074	-0.035
-633.565	3.664	-0.254	0.189
-632.551	-200.000	-0.136	-0.000
-631.536	-200.000	0.004	-0.055
-630.522	-108.618	-0.500	0.110
-629.507	-3.794	-0.224	-0.159
-628.492	-137.676	-0.053	0.006
-627.478	800.000	0.050	0.169
-626.463	800.000	0.060	0.248
-625.449	237.198	0.229	-0.388
-624.434	-88.788	-0.327	-0.099
-623.419	-200.000	0.006	0.341
-622.405	713.917	0.180	0.486
-621.390	-22.632	0.234	-0.145
-620.376	-200.000	-0.016	0.314
-619.361	-36.702	-0.318	0.174
-618.346	-200.000	0.041	-0.278
-617.332	-0.359	-0.202	0.147
-616.317	-200.000	-0.024	0.307
-615.303	322.011	-0.065	-0.126
-614.288	199.731	0.103	-0.161
-613.273	-8.261	0.106	0.073
-612.259	-1.554	0.083	0.060
-611.244	-104.867	0.336	0.079
-610.230	593.985	-0.109	-0.275
-609.215	242.248	-0.024	0.040
-608.201	47.186	-0.074	0.070
-607.186	182.063	-0.132	-0.199
-606.171	-200.000	0.018	-0.277
-605.157	-163.068	0.142	-0.007
-604.142	-200.000	0.017	-0.201
-603.128	800.000	0.020	0.077
-602.113	-61.569	-0.311	-0.133
-601.098	3.506	0.253	-0.188
-600.084	-200.000	-0.012	0.188
-599.069	800.000	-0.059	-0.254
-598.055	-200.000	-0.003	0.054
-597.040	-196.923	-0.184	-0.001
-596.025	-200.000	-0.012	-0.371
-595.011	33.689	-0.199	-0.176
-593.996	-132.608	-0.235	0.031
-592.982	800.000	-0.127	-0.359
-591.967	4.316	0.110	0.082
-590.952	85.960	-0.223	0.250
-589.938	-200.000	-0.008	-0.163
-588.923	-108.118	-0.130	-0.029
-587.909	-200.000	0.031	-0.262
-586.894	-176.994	0.360	-0.009
-585.879	102.904	0.165	0.197
-584.865	467.349	-0.142	-0.324
-583.850	800.000	-0.116	-0.346
-582.836	-31.499	0.277	0.159
-581.821	-96.752	-0.091	0.024
-580.806	-200.000	0.025	0.183
-579.792	-136.408	-0.192	-0.023
-578.777	18.815	-0.098	0.080
-577.763	23.915	0.175	-0.147
-576.748	-66.598	-0.171	-0.069
-575.733	-200.000	-0.005	-0.088
-574.719	-117.601	-0.429	0.079
-573.704	-62.477	-0.098	-0.042
-572.690	-200.000	-0.023	-0.147
-571.675	56.566	0.052	-0.052
-570.661	-200.000	0.082	-0.385
-569.646	-200.000	0.047	0.232
-568.631	-4.516	-0.114	0.080
-567.617	-185.456	0.074	0.001
-566.602	188.225	-0.129	-0.197
-565.588	13.185	0.216	0.170
-564.573	-45.277	-0.267	-0.135
-563.558	48.189	-0.145	0.138
-562.544	355.741	0.171	0.347
-561.529	428.054	0.071	-0.157
-560.515	-200.000	-0.032	-0.244
-559.500	-130.409	0.285	-0.039
-558.485	181.191	0.074	-0.111
-557.471	-200.000	0.011	0.147
-556.456	-200.000	0.047	0.456
-555.442	-73.902	0.179	0.066
-554.427	180.526	-0.168	-0.252
-553.412	602.131	-0.110	-0.279
-552.398	-167.572	-0.187	-0.008
-551.383	61.049	-0.119	-0.120
-550.369	17.174	-0.145	-0.117
-549.354	-200.000	0.015	-0.090
-548.339	-200.000	0.055	-0.522
-547.325	800.000	-0.070	0.296
-546.310	-82.562	0.319	-0.105
-545.296	321.461	-0.121	-0.235
-544.281	-80.564	-0.266	-0.090
-543.266	-161.806	-0.101	-0.005
-542.252	82.019	0.349	0.385
-541.237	800.000	0.093	0.316
-540.223	475.358	-0.080	0.184
-539.208	-86.008	0.219	0.069
-538.193	311.799	0.112	-0.214
-537.179	800.000	0.073	-0.290
-536.164	-4.667	-0.225	0.158
-535.150	-16.609	-0.156	0.101
-534.135	-52.958	0.147	-0.069
-533.121	-200.000	0.012	0.189
-532.106	-86.260	0.216	0.068
-531.091	-200.000	0.010	-0.263
-530.077	-3.263	-0.102	0.072
-529.062	200.347	0.110	0.172
-528.048	-101.055	0.080	0.020
-527.033	147.221	0.252	0.345
-526.018	-131.695	-0.173	-0.023
-525.004	2.815	-0.206	-0.152
-523.989	102.672	-0.074	0.088
-522.975	800.000	0.105	0.319
-521.960	-110.779	-0.393	0.082
-520.945	257.564	0.093	0.163
-519.931	651.631	0.080	0.209
-518.916	-165.287	-0.390	0.017
-517.902	800.000	0.120	0.365
-516.887	-2.739	0.077	0.055
-515.872	800.000	-0.053	0.192
-514.858	-107.680	-0.098	-0.022
-513.843	-71.923	-0.295	0.112
-512.829	800.000	-0.058	-0.173
-511.814	-58.588	-0.016	0.007
-510.799	80.155	-0.149	-0.162
-509.785	415.123	-0.172	-0.372
-508.770	-42.016	0.131	0.068
-507.756	-164.038	0.290	-0.014
-506.741	54.866	0.162	0.159
-505.726	59.965	0.283	-0.285
-504.712	-133.745	-0.266	-0.034
-503.697	-37.376	-0.194	0.105
-502.683	-200.000	0.020	0.130
-501.668	460.669	0.139	-0.314
-500.653	225.091	-0.069	-0.113
-499.639	-88.137	0.295	0.090
-498.624	800.000	-0.053	-0.154
-497.610	71.315	0.082	-0.086
-496.595	31.027	-0.210	0.183
-495.581	54.923	0.060	0.059
-494.566	138.544	-0.141	-0.188
-493.551	-163.897	0.369	0.017
-492.537	150.446	-0.080	-0.111
-491.522	-200.000	0.088	0.000
-490.508	-29.442	0.104	0.060
-489.493	-200.000	0.014	-0.106
-488.478	32.441	0.203	0.178
-487.464	-200.000	0.033	-0.278
-486.449	-111.916	-0.300	-0.062
-485.435	800.000	0.069	-0.218
-484.420	800.000	-0.031	0.087
-483.405	-200.000	-0.011	0.125
-482.391	16.735	0.312	-0.251
-481.376	-200.000	0.009	-0.154
-480.362	-200.000	-0.021	-0.212
-479.347	7.194	0.113	-0.086
-478.332	-23.947	-0.066	-0.040
-477.318	96.651	-0.160	-0.186
-476.303	688.151	0.137	-0.363
-475.289	-50.346	0.036	0.017
-474.274	800.000	0.055	0.176
-473.259	-6.707	-0.167	0.115
-472.245	517.746	-0.148	0.351
-471.230	-16.176	-0.140	-0.090
-470.216	-53.328	0.222	0.103
-469.201	-187.530	0.409	-0.006
-468.186	-43.927	0.180	-0.092
-467.172	-74.741	0.433	-0.158
-466.157	-63.493	0.206	-0.086
-465.143	-91.130	0.085	0.025
-464.128	-101.747	-0.214	0.053
-463.113	-144.584	0.410	0.038
-462.099	-61.090	0.219	-0.094
-461.084	800.000	0.093	0.350
-460.070	-99.094	-0.318	0.082
-459.055	-76.509	-0.236	-0.084
-458.040	800.000	-0.028	-0.108
-457.026	-116.034	-0.205	-0.039
-456.011	349.484	0.049	0.097
-454.997	-143.227	0.361	-0.035
-453.982	408.530	-0.201	0.432
-452.968	19.234	0.169	0.138
-451.953	37.119	0.110	0.099
-450.938	479.322	-0.123	-0.283
-449.924	182.963	-0.146	-0.219
-448.909	800.000	0.016	0.056
-447.895	800.000	0.034	0.118
-446.880	800.000	-0.151	0.424
-445.865	-200.000	0.017	0.254
-444.851	-166.577	0.066	0.003
-443.836	39.293	-0.148	0.134
-442.822	83.572	0.159	-0.176
-441.807	53.710	-0.179	0.174
-440.792	22.633	0.118	0.098
-439.778	-200.000	-0.056	-0.276
-438.763	-200.000	0.013	0.117
-437.749	-68.627	-0.174	0.068
-436.734	800.000	0.026	-0.108
-435.719	199.344	0.150	-0.232
-434.705	227.224	0.112	-0.184
-433.690	-75.932	-0.139	0.050
-432.676	-200.000	-0.032	-0.147
-431.661	-90.536	0.098	-0.029
-430.646	-136.440	-0.055	0.006
-429.632	-200.000	-0.025	0.238
-428.617	-200.000	0.011	0.058
-427.603	-68.047	-0.221	0.087
-426.588	-200.000	-0.014	0.230
-425.573	88.453	-0.213	0.240
-424.559	19.997	-0.031	0.025
-423.544	-35.128	-0.354	-0.195
-422.530	800.000	-0.036	-0.120
-421.515	-137.441	-0.384	-0.044
-420.500	72.731	0.286	0.302
-419.486	-41.556	0.278	0.145
-418.471	429.297	-0.093	0.205
-417.457	-21.026	-0.190	-0.118
-416.442	-188.579	-0.381	-0.005
-415.428	800.000	-0.037	0.138
-414.413	-89.496	-0.155	-0.046
-413.398	24.524	0.195	0.163
-412.384	733.748	-0.059	0.160
-411.369	-3.931	-0.232	0.163
-410.355	53.770	0.257	0.250
-409.340	247.046	0.100	-0.171
-408.325	-194.764	0.108	0.001
-407.311	-61.519	0.347	0.148
-406.296	2.007	0.186	0.136
-405.282	800.000	0.133	0.402
-404.267	-200.000	-0.013	-0.272
-403.252	-136.462	0.140	-0.017
-402.238	-200.000	0.034	-0.209
-401.223	-200.000	-0.001	-0.067
-400.209	131.832	-0.059	0.077
-399.194	702.449	0.052	-0.139
-398.179	404.198	-0.097	-0.207
-397.165	490.557	0.031	0.072
-396.150	-84.693	-0.166	0.053
-395.136	-119.128	0.097	0.017
-394.121	316.009	0.072	-0.137
-393.106	-200.000	0.021	-0.097
-392.092	-154.314	0.232	-0.016
-391.077	-161.261	0.533	0.028
-390.063	166.837	-0.232	-0.333
-389.048	285.783	0.113	-0.206
-388.033	-80.868	-0.360	-0.121
-387.019	-200.000	-0.031	-0.216
-386.004	55.638	-0.281	0.275
-384.990	800.000	-0.073	0.242
-383.975	-91.960	0.263	-0.075
-382.960	-200.000	-0.061	0.312
-381.946	81.357	0.142	0.156
-380.931	-179.220	-0.147	-0.003
-379.917	-147.253	-0.128	-0.011
-378.902	25.871	-0.206	0.174
-377.888	557.645	-0.088	0.213
-376.873	-145.405	0.397	0.036
-375.858	-4.659	0.189	-0.132
-374.844	-148.973	0.184	0.015
-373.829	-188.293	-0.072	-0.001
-372.815	80.655	-0.208	0.227
-371.800	-57.934	0.141	0.062
-370.785	-61.035	0.123	-0.052
-369.771	-10.897	-0.135	0.090
-368.756	-30.245	0.310	0.178
-367.742	137.049	-0.077	-0.101
-366.727	16.720	0.076	-0.061
-365.712	112.727	-0.046	0.056
-364.698	-200.000	-0.027	-0.252
-363.683	285.989	0.055	0.100
-362.669	393.490	0.031	-0.065
-361.654	-149.970	-0.247	-0.019
-360.639	-85.129	0.242	-0.077
-359.625	-2.530	0.180	-0.128
-358.610	163.527	0.118	-0.168
-357.596	-155.064	0.143	0.009
-356.581	-164.315	-0.175	0.008
-355.566	64.634	-0.056	0.057
-354.552	56.795	0.182	0.179
-353.537	-47.233	-0.193	-0.095
-352.523	81.771	-0.071	-0.077
-351.508	800.000	0.038	-0.114
-350.493	-33.398	0.264	0.148
-349.479	-20.635	0.119	0.074
-348.464	-97.788	0.127	-0.033
-347.450	-26.627	0.098	0.058
-346.435	-113.555	-0.255	0.050
-345.420	-200.000	0.025	-0.204
-344.406	54.170	0.108	0.105
-343.391	187.824	-0.134	0.202
-342.377	87.478	-0.051	-0.057
-341.362	290.823	0.198	-0.363
-340.348	208.095	0.027	-0.043
-339.333	-144.073	0.164	0.016
-338.318	182.468	0.170	-0.254
-337.304	65.562	-0.197	-0.201
-336.289	-200.000	-0.017	0.305
-335.275	101.008	-0.103	0.121
-334.260	-194.421	0.115	-0.001
-333.245	453.320	-0.145	-0.323
-332.231	-200.000	-0.019	0.175
-331.216	373.700	0.115	0.237
-330.202	163.451	0.082	-0.117
-329.187	86.278	-0.074	-0.082
-328.172	-25.925	0.092	-0.054
-327.158	-34.743	0.101	0.055
-326.143	-200.000	0.007	-0.119
-325.129	-55.063	-0.173	-0.079
-324.114	164.409	0.041	-0.058
-323.099	-114.208	0.142	0.028
-322.085	800.000	-0.063	-0.217
-321.070	71.113	-0.099	-0.103
-320.056	30.789	0.090	-0.077
-319.041	-86.017	0.180	0.056
-318.026	37.934	-0.055	-0.050
-317.012	-114.525	0.346	0.067
-315.997	2.248	-0.258	0.188
-314.983	800.000	-0.033	-0.104
-313.968	67.350	0.167	-0.172
-312.953	-22.165	0.376	-0.230
-311.939	-200.000	0.072	-0.379
-310.924	-200.000	-0.005	0.082
-309.910	-200.000	0.015	-0.145
-308.895	112.918	-0.246	0.301
-307.880	5.079	0.060	-0.045
-306.866	-200.000	0.023	-0.231
-305.851	800.000	0.060	-0.201
-304.837	-93.393	0.189	-0.053
-303.822	-85.629	0.147	-0.046
-302.807	-72.475	-0.306	-0.114
-301.793	118.273	0.096	-0.119
-300.778	57.852	-0.104	-0.102
-299.764	-24.491	-0.033	0.020
-298.749	636.649	-0.093	-0.237
-297.735	18.467	0.272	0.220
-296.720	663.836	0.168	0.436
-295.705	-122.415	0.169	-0.028
-294.691	800.000	-0.059	-0.184
-293.676	5.186	-0.046	-0.034
-292.662	-200.000	-0.077	0.366
-291.647	-34.047	-0.295	-0.164
-290.632	213.942	-0.085	0.136
-289.618	147.125	0.117	-0.158
-288.603	-200.000	-0.071	0.356
-287.589	-148.741	0.089	-0.007
-286.574	-99.788	0.286	0.072
-285.559	309.448	-0.037	0.069
-284.545	-200.000	0.004	0.030
-283.530	-122.577	0.279	0.046
-282.516	-158.046	-0.319	-0.019
-281.501	187.414	0.134	-0.201
-280.486	-88.300	-0.318	-0.096
-279.472	-119.098	0.251	-0.044
-278.457	-152.913	0.290	-0.021
-277.443	-125.126	0.238	0.037
-276.428	120.935	0.169	-0.212
-275.413	-200.000	0.013	0.217
-274.399	-20.741	0.252	-0.156
-273.384	-139.947	-0.270	-0.029
-272.370	19.256	0.218	0.176
-271.355	592.674	0.062	0.155
-270.340	-84.891	0.109	-0.034
-269.326	99.658	-0.218	0.255
-268.311	420.164	0.107	0.230
-267.297	156.506	-0.149	0.207
-266.282	380.112	0.038	-0.078
-265.267	-157.623	0.291	0.017
-264.253	221.675	0.204	0.330
-263.238	-28.486	-0.168	0.097
-262.224	39.497	-0.380	-0.343
-261.209	56.594	0.160	-0.156
-260.195	-60.572	-0.328	-0.140
-259.180	112.994	-0.114	-0.139
-258.165	-113.376	-0.179	0.035
-257.151	248.959	-0.094	0.160
-256.136	114.154	0.134	-0.164
-255.122	4.973	0.051	-0.038
-254.107	423.421	-0.035	-0.075
-253.092	-100.162	-0.114	0.029
-252.078	-97.906	-0.304	0.079
-251.063	-55.744	-0.214	0.096
-250.049	-28.210	-0.327	0.190
-249.034	60.772	-0.248	0.248
-248.019	-69.663	0.105	-0.040
-247.005	162.531	-0.059	0.084
-245.990	800.000	-0.026	0.093
-244.976	79.821	-0.027	-0.029
-243.961	118.078	0.249	-0.309
-242.946	-171.073	0.106	-0.004
-241.932	800.000	0.041	-0.162
-240.917	42.973	0.199	-0.183
-239.903	126.061	-0.094	-0.120
-238.888	-200.000	0.018	0.090
-237.873	4.029	-0.082	0.060
-236.859	800.000	0.065	-0.285
-235.844	6.828	0.108	-0.081
-234.830	20.680	0.026	0.021
-233.815	80.458	-0.073	-0.079
-232.800	-133.644	0.121	0.015
-231.786	-27.364	0.043	0.025
-230.771	308.480	-0.047	0.088
-229.757	-117.632	0.246	-0.045
-228.742	214.836	0.172	0.274
-227.727	-85.686	0.141	0.044
-226.713	800.000	0.078	-0.220
-225.698	274.887	0.139	0.248
-224.684	800.000	-0.050	-0.196
-223.669	-69.394	-0.337	-0.130
-222.655	-157.051	-0.376	-0.023
-221.640	582.496	0.196	0.485
-220.625	463.260	0.043	-0.097
-219.611	-200.000	0.018	0.088
-218.596	35.398	-0.180	0.158
-217.582	211.993	0.125	0.198
-216.567	-176.839	-0.243	0.006
-215.552	-25.147	-0.230	-0.137
-214.538	-200.000	0.042	-0.264
-213.523	19.376	-0.121	-0.098
-212.509	489.232	0.132	-0.303
-211.494	-200.000	-0.029	0.430
-210.479	-200.000	0.019	-0.087
-209.465	7.255	0.259	0.194
-208.450	61.088	0.326	0.325
-207.436	-117.431	-0.210	-0.038
-206.421	-153.069	-0.086	0.006
-205.406	320.828	0.119	0.227
-204.392	-23.154	0.304	-0.184
-203.377	249.306	0.013	-0.023
-202.363	-80.321	-0.107	-0.036
-201.348	-105.381	-0.403	0.092
-200.333	-118.759	0.078	-0.014
-199.319	348.269	0.035	-0.068
-198.304	-106.594	0.113	0.025
-197.290	122.251	0.059	0.073
-196.275	56.460	-0.170	0.166
-195.260	-27.426	-0.076	0.044
-194.246	3.594	-0.258	-0.189
-193.231	120.893	-0.092	-0.115
-192.217	223.114	0.082	0.132
-191.202	18.818	-0.281	-0.226
-190.187	-132.352	0.291	-0.038
-189.173	-99.477	-0.248	0.063
-188.158	25.792	-0.265	0.222
-187.144	-200.000	0.010	0.278
-186.129	131.024	0.069	-0.089
-185.114	-99.145	0.316	0.080
-184.100	-31.929	-0.260	-0.146
-183.085	17.179	0.208	-0.165
-182.071	800.000	-0.085	-0.262
-181.056	211.146	0.161	0.255
-180.042	800.000	-0.079	-0.245
-179.027	800.000	0.022	0.076
-178.012	45.340	-0.074	0.068
-176.998	477.852	0.149	-0.338
-175.983	10.709	0.014	0.011
-174.969	-200.000	0.028	-0.220
-173.954	-19.293	0.178	0.111
-172.939	181.837	-0.198	0.293
-171.925	-23.121	-0.163	0.099
-170.910	-66.792	-0.349	0.139
-169.896	800.000	0.053	0.164
-168.881	-200.000	0.056	0.276
-167.866	435.025	-0.089	-0.195
-166.852	699.816	0.031	0.081
-165.837	-200.000	0.026	-0.249
-164.823	-200.000	-0.011	0.343
-163.808	-200.000	-0.018	0.207
-162.793	-13.901	0.204	0.132
-161.779	190.755	0.072	0.109
-160.764	294.658	0.154	-0.282
-159.750	-109.339	0.064	-0.014
-158.735	701.021	0.061	0.162
-157.720	-126.516	-0.157	-0.023
-156.706	-75.466	-0.157	-0.056
-155.691	-107.005	-0.142	-0.032
-154.677	-98.878	0.137	0.035
-153.662	-74.451	0.143	-0.052
-152.647	300.540	-0.084	0.156
-151.633	-34.022	-0.314	0.173
-150.618	-200.000	-0.003	-0.089
-149.604	-102.034	0.064	0.016
-148.589	278.085	-0.113	-0.201
-147.574	67.928	0.144	0.148
-146.560	11.516	0.171	-0.132
-145.545	-80.114	0.068	-0.023
-144.531	-108.503	0.024	-0.005
-143.516	-136.280	0.054	0.006
-142.502	88.268	-0.142	0.157
-141.487	-24.449	0.123	0.074
-140.472	-65.840	-0.058	0.023
-139.458	-96.310	0.115	-0.031
-138.443	-59.929	0.235	0.101
-137.429	-60.608	0.362	0.154
-136.414	-200.000	-0.020	0.308
-135.399	-103.207	-0.123	0.029
-134.385	-101.750	-0.212	-0.051
-133.370	0.633	0.249	0.178
-132.356	-160.890	0.185	0.010
-131.341	800.000	-0.064	0.240
-130.326	-21.355	0.220	-0.135
-129.312	192.811	0.130	-0.196
-128.297	800.000	0.047	0.145
-127.283	-50.657	-0.276	0.130
-126.268	-200.000	0.000	-0.132
-125.253	15.937	0.107	0.084
-124.239	220.872	-0.071	-0.113
-123.224	29.920	-0.293	-0.250
-122.210	22.634	0.082	0.067
-121.195	-200.000	0.008	0.034
-120.180	36.558	-0.165	-0.146
