DTS Sentinel unit serial number:	SN413079Multiplexer serial number:	ORYXHardware model number:	OX4-SRSoftware version number:	ORYX F/W v4.00 Oryx Data Collector v3.7.2.0data status	okinstallation	princeton_trtdifferential loss correction	single-endedforward channel	channel 3reverse channel	N/Adate	2019/09/18time	10:28:34forward acquisition time	60.00reverse acquisition time	0.00gamma	496.2192k internal	0.2330k external	0.2330temperature offset calibration	0.9957default loss term (dB/km)	0.3790temperature slope calibration	1.0000multiplexer offset coefficient	1.0000multiplexer slope coefficient	1.0000fibre end	0.00T internal ref (°C)	28.30T ext. ref 1 (°C)	0.35T ext. ref 2 (°C)	24.87length (m)	temperature (°C)	Stokes	anti-Stokes-747.200	-200.000	-0.062	-0.282
-746.185	-25.375	-0.261	0.156
-745.171	800.000	-0.073	0.262
-744.156	213.471	-0.122	0.194
-743.142	-109.419	0.391	-0.083
-742.127	-200.000	0.032	0.191
-741.112	800.000	0.089	0.321
-740.098	179.188	0.143	-0.211
-739.083	19.479	0.287	-0.232
-738.069	90.400	-0.223	0.251
-737.054	134.587	-0.178	0.233
-736.039	-13.450	-0.132	0.086
-735.025	800.000	0.120	-0.377
-734.010	-53.441	0.088	-0.041
-732.996	-30.459	0.189	-0.108
-731.981	-163.191	-0.042	0.002
-730.966	-200.000	0.042	-0.324
-729.952	-134.032	-0.341	-0.042
-728.937	277.178	-0.080	0.143
-727.923	606.674	0.052	-0.130
-726.908	-200.000	-0.012	-0.185
-725.894	-91.369	0.120	-0.035
-724.879	22.059	-0.256	0.210
-723.864	-96.802	-0.285	-0.075
-722.850	386.978	-0.115	-0.238
-721.835	-85.865	0.239	-0.074
-720.821	800.000	-0.038	0.130
-719.806	-122.775	0.126	0.020
-718.791	-4.855	-0.148	0.103
-717.777	-45.613	-0.211	0.105
-716.762	-67.841	0.057	-0.022
-715.748	-165.153	-0.435	0.019
-714.733	-18.055	-0.157	-0.099
-713.718	-200.000	-0.067	-0.526
-712.704	-103.149	-0.288	0.069
-711.689	-132.971	-0.237	-0.030
-710.675	-18.850	-0.184	0.115
-709.660	-141.441	-0.155	-0.016
-708.645	-45.378	0.357	0.178
-707.631	-54.003	-0.383	0.175
-706.616	-200.000	0.005	-0.442
-705.602	170.677	0.185	-0.267
-704.587	-161.791	0.069	0.004
-703.572	-91.055	0.061	-0.018
-702.558	800.000	0.086	-0.336
-701.543	-124.536	0.250	-0.039
-700.529	-135.436	-0.063	0.008
-699.514	152.600	-0.031	0.043
-698.499	-20.680	-0.053	-0.033
-697.485	45.796	0.128	-0.119
-696.470	-200.000	-0.077	-0.346
-695.456	-200.000	0.005	-0.177
-694.441	-95.696	-0.180	0.048
-693.426	-33.252	0.033	0.018
-692.412	372.455	0.114	-0.232
-691.397	800.000	-0.061	0.195
-690.383	200.418	0.147	-0.228
-689.368	113.591	-0.136	-0.166
-688.354	348.352	0.108	0.213
-687.339	90.785	-0.073	0.082
-686.324	800.000	-0.055	-0.196
-685.310	89.467	-0.264	0.296
-684.295	19.849	0.173	0.140
-683.281	79.840	-0.084	0.091
-682.266	376.290	0.020	-0.041
-681.251	-86.053	0.198	-0.061
-680.237	-72.180	-0.286	-0.106
-679.222	19.320	0.271	0.219
-678.208	800.000	0.079	0.233
-677.193	-200.000	-0.032	0.255
-676.178	-46.170	-0.127	-0.063
-675.164	372.592	0.110	-0.225
-674.149	800.000	-0.073	-0.234
-673.135	-58.315	0.366	0.160
-672.120	41.126	0.102	0.093
-671.105	-149.244	-0.146	0.012
-670.091	-66.093	0.225	0.090
-669.076	638.349	0.024	0.061
-668.062	-139.676	0.273	0.029
-667.047	11.129	-0.135	-0.104
-666.032	90.566	-0.125	0.141
-665.018	16.869	0.288	0.229
-664.003	441.849	-0.092	-0.201
-662.989	800.000	-0.098	-0.409
-661.974	-149.973	-0.453	-0.035
-660.959	-85.349	-0.403	-0.126
-659.945	747.297	0.042	-0.114
-658.930	-200.000	-0.054	-0.439
-657.916	268.802	-0.061	-0.108
-656.901	148.451	0.176	-0.238
-655.886	61.130	0.062	-0.062
-654.872	800.000	-0.055	0.162
-653.857	800.000	0.029	0.103
-652.843	118.870	-0.169	-0.210
-651.828	800.000	-0.032	-0.134
-650.814	51.280	0.191	0.182
-649.799	-188.578	-0.349	-0.004
-648.784	-134.601	-0.382	0.047
-647.770	66.042	0.185	0.188
-646.755	140.574	0.086	0.114
-645.741	-132.053	-0.218	-0.029
-644.726	-80.295	0.500	0.168
-643.711	-29.814	0.348	0.199
-642.697	262.952	-0.055	-0.095
-641.682	303.795	-0.079	-0.147
-640.668	7.332	-0.130	-0.097
-639.653	-125.453	0.339	-0.052
-638.638	279.195	0.025	-0.044
-637.624	241.908	0.109	0.183
-636.609	-200.000	0.054	0.268
-635.595	417.905	-0.095	0.204
-634.580	-200.000	-0.013	-0.377
-633.565	309.424	0.093	-0.175
-632.551	79.702	-0.193	-0.208
-631.536	-50.907	-0.140	-0.066
-630.522	764.249	-0.107	0.292
-629.507	446.309	-0.019	0.042
-628.492	800.000	0.044	-0.133
-627.478	6.100	-0.127	0.094
-626.463	67.448	0.288	0.294
-625.449	215.184	0.037	-0.058
-624.434	434.376	-0.117	0.255
-623.419	-8.557	-0.138	0.093
-622.405	665.441	-0.122	-0.316
-621.390	-200.000	-0.022	0.233
-620.376	800.000	0.038	-0.166
-619.361	632.762	-0.030	0.075
-618.346	800.000	-0.029	-0.104
-617.332	-162.690	-0.393	-0.019
-616.317	86.605	0.242	0.268
-615.303	191.420	0.116	-0.175
-614.288	107.119	-0.127	0.151
-613.273	50.893	0.143	0.136
-612.259	-200.000	-0.026	0.214
-611.244	-144.706	-0.175	0.016
-610.230	-16.498	-0.163	-0.103
-609.215	-35.547	0.112	0.061
-608.201	-29.970	0.234	-0.133
-607.186	84.483	-0.181	0.198
-606.171	-137.063	0.046	-0.005
-605.157	-200.000	0.029	-0.177
-604.142	149.709	0.237	0.322
-603.128	-18.920	0.101	0.063
-602.113	-145.546	-0.525	0.047
-601.098	-176.549	-0.344	0.009
-600.084	-94.276	0.192	0.052
-599.069	159.412	-0.191	0.266
-598.055	-170.691	-0.123	0.004
-597.040	-25.379	0.226	-0.134
-596.025	-200.000	-0.059	0.260
-595.011	163.745	-0.104	0.146
-593.996	157.644	0.123	-0.170
-592.982	739.430	0.049	-0.131
-591.967	328.222	0.113	-0.218
-590.952	20.207	-0.123	0.099
-589.938	335.486	0.040	-0.077
-588.923	-200.000	-0.010	-0.158
-587.909	-42.391	0.164	0.084
-586.894	-200.000	0.014	-0.249
-585.879	40.943	-0.284	-0.257
-584.865	82.789	-0.186	-0.203
-583.850	35.973	0.054	-0.048
-582.836	-18.375	0.037	0.023
-581.821	773.830	-0.087	-0.236
-580.806	-120.976	0.231	-0.039
-579.792	672.845	-0.129	-0.334
-578.777	-200.000	0.071	-0.354
-577.763	-47.624	0.126	-0.061
-576.748	150.068	-0.183	0.249
-575.733	-48.878	0.198	0.095
-574.719	177.221	-0.081	0.119
-573.704	790.044	-0.072	-0.199
-572.690	-0.691	-0.138	0.098
-571.675	-15.899	-0.405	0.258
-570.661	-46.132	0.247	0.122
-569.646	179.550	0.236	0.345
-568.631	-95.908	-0.161	0.043
-567.617	-200.000	-0.007	-0.138
-566.602	289.434	-0.163	-0.296
-565.588	-39.330	-0.053	-0.028
-564.573	9.218	-0.159	0.120
-563.558	800.000	0.064	-0.255
-562.544	45.790	0.167	0.154
-561.529	-200.000	-0.027	-0.328
-560.515	-99.033	-0.194	-0.049
-559.500	-200.000	-0.018	-0.260
-558.485	-47.969	-0.390	0.188
-557.471	800.000	-0.100	-0.315
-556.456	4.389	0.253	-0.186
-555.442	-200.000	-0.025	-0.195
-554.427	394.560	0.145	-0.302
-553.412	-171.334	0.139	-0.005
-552.398	-134.968	0.371	-0.045
-551.383	-18.783	-0.320	0.199
-550.369	387.630	-0.218	0.451
-549.354	800.000	0.069	0.225
-548.339	470.930	0.050	0.112
-547.325	-60.683	-0.321	-0.136
-546.310	138.942	-0.210	-0.276
-545.296	59.975	-0.097	-0.096
-544.281	-160.482	-0.171	0.009
-543.266	606.525	0.113	-0.280
-542.252	-200.000	0.517	-0.002
-541.237	-28.385	-0.291	-0.168
-540.223	-22.640	0.313	0.189
-539.208	-200.000	-0.025	-0.261
-538.193	-89.699	0.202	-0.059
-537.179	-200.000	0.071	0.325
-536.164	800.000	0.014	0.058
-535.150	-186.718	0.235	-0.003
-534.135	-33.398	-0.216	-0.119
-533.121	329.811	0.105	0.201
-532.106	-200.000	0.008	0.250
-531.091	-147.357	0.184	-0.016
-530.077	-52.248	-0.033	-0.015
-529.062	159.919	-0.156	-0.217
-528.048	80.047	-0.101	-0.108
-527.033	286.278	0.039	0.071
-526.018	9.663	0.374	0.283
-525.004	211.508	-0.080	0.126
-523.989	383.497	0.042	0.086
-522.975	-184.559	0.177	-0.003
-521.960	800.000	0.095	-0.273
-520.945	-61.487	-0.198	-0.083
-519.931	-15.989	0.214	0.136
-518.916	-43.896	0.196	-0.099
-517.902	66.289	-0.060	0.061
-516.887	184.898	-0.074	0.110
-515.872	-15.767	-0.229	0.145
-514.858	-31.050	-0.064	-0.036
-513.843	-200.000	-0.229	-0.001
-512.829	102.333	-0.061	0.071
-511.814	202.488	0.102	-0.157
-510.799	800.000	0.027	-0.093
-509.785	-63.200	0.227	0.093
-508.770	-126.409	-0.163	-0.024
-507.756	279.928	-0.108	0.192
-506.741	-47.347	-0.135	0.065
-505.726	800.000	-0.070	0.219
-504.712	252.384	0.074	-0.126
-503.697	54.305	-0.179	-0.172
-502.683	140.915	-0.122	0.161
-501.668	82.068	-0.344	0.372
-500.653	-35.961	0.121	-0.065
-499.639	800.000	0.019	-0.071
-498.624	186.362	0.227	0.337
-497.610	199.886	-0.209	-0.320
-496.595	95.654	-0.107	-0.122
-495.581	406.779	0.060	-0.126
-494.566	-26.505	-0.173	0.101
-493.551	8.263	0.213	0.159
-492.537	-146.007	-0.290	-0.026
-491.522	-33.630	0.236	0.130
-490.508	-144.565	-0.227	0.021
-489.493	55.016	0.298	-0.287
-488.478	-200.000	0.007	-0.345
-487.464	-85.315	0.327	-0.102
-486.449	165.467	0.102	0.143
-485.435	534.693	0.087	0.206
-484.420	-64.271	-0.118	-0.048
-483.405	-103.688	-0.333	-0.078
-482.391	-152.216	-0.110	0.008
-481.376	721.898	0.115	-0.304
-480.362	-88.187	-0.189	-0.056
-479.347	-116.965	-0.207	-0.038
-478.332	167.543	-0.144	-0.204
-477.318	800.000	0.107	-0.310
-476.303	12.944	0.126	-0.097
-475.289	110.508	0.128	-0.153
-474.274	-53.899	0.283	-0.129
-473.259	0.407	-0.235	-0.167
-472.245	247.800	-0.109	-0.183
-471.230	800.000	0.048	0.158
-470.216	-168.441	0.205	0.008
-469.201	58.501	0.040	0.039
-468.186	-162.356	0.412	0.020
-467.172	-200.000	-0.002	-0.187
-466.157	-191.581	0.302	-0.003
-465.143	39.833	-0.551	0.493
-464.128	-25.119	0.268	-0.158
-463.113	705.650	-0.121	0.319
-462.099	92.217	0.172	0.193
-461.084	6.595	0.281	-0.208
-460.070	800.000	-0.093	0.353
-459.055	800.000	0.039	0.109
-458.040	-95.692	0.068	0.018
-457.026	284.506	-0.112	0.200
-456.011	512.151	0.073	-0.168
-454.997	-104.224	-0.516	0.119
-453.982	-113.502	0.231	-0.045
-452.968	-66.810	0.362	-0.143
-451.953	58.967	-0.169	0.166
-450.938	128.914	-0.040	-0.050
-449.924	87.568	-0.154	0.170
-448.909	-25.370	-0.271	0.159
-447.895	-121.079	0.249	0.041
-446.880	-51.435	-0.140	0.065
-445.865	97.134	0.143	-0.163
-444.851	-14.246	-0.264	0.170
-443.836	-55.486	0.191	-0.085
-442.822	98.237	-0.043	0.049
-441.807	477.594	0.118	0.265
-440.792	165.596	-0.053	0.074
-439.778	800.000	0.052	-0.147
-438.763	73.899	-0.217	0.227
-437.749	409.527	0.107	0.226
-436.734	19.988	-0.178	-0.142
-435.719	222.415	-0.155	0.248
-434.705	800.000	0.007	-0.024
-433.690	13.742	-0.157	0.122
-432.676	800.000	-0.030	-0.107
-431.661	1.329	-0.141	0.101
-430.646	800.000	-0.031	-0.119
-429.632	-49.158	-0.246	-0.117
-428.617	-27.737	-0.296	0.171
-427.603	-200.000	0.004	0.142
-426.588	51.332	0.299	-0.282
-425.573	800.000	-0.020	-0.057
-424.559	60.845	-0.176	0.173
-423.544	130.128	0.178	-0.226
-422.530	748.209	-0.078	-0.208
-421.515	-127.525	0.295	0.043
-420.500	-98.459	-0.135	0.034
-419.486	-38.924	-0.197	0.103
-418.471	-6.169	0.192	0.130
-417.457	-200.000	-0.065	0.419
-416.442	662.746	0.069	0.177
-415.428	686.789	-0.090	-0.234
-414.413	439.489	-0.090	-0.196
-413.398	-200.000	0.001	0.031
-412.384	-11.478	-0.113	-0.074
-411.369	10.647	-0.145	-0.110
-410.355	-31.976	0.292	0.162
-409.340	-123.424	-0.190	-0.030
-408.325	-145.000	0.148	-0.013
-407.311	-200.000	-0.040	0.279
-406.296	-60.404	0.294	-0.124
-405.282	800.000	0.014	0.060
-404.267	-200.000	-0.009	-0.067
-403.252	-1.062	-0.099	-0.070
-402.238	278.400	-0.112	-0.198
-401.223	-8.719	-0.222	-0.148
-400.209	33.795	-0.319	-0.276
-399.194	62.256	-0.146	-0.145
-398.179	-200.000	-0.010	0.061
-397.165	632.164	0.074	0.187
-396.150	-200.000	0.013	0.152
-395.136	800.000	0.057	-0.218
-394.121	-200.000	0.047	-0.266
-393.106	-200.000	0.051	0.496
-392.092	-158.254	0.303	-0.018
-391.077	800.000	0.084	-0.241
-390.063	-134.240	0.111	0.014
-389.048	-11.825	-0.221	-0.144
-388.033	416.658	0.036	0.077
-387.019	-80.122	-0.212	0.071
-386.004	-70.958	0.100	-0.037
-384.990	-86.885	0.182	-0.055
-383.975	-200.000	0.005	-0.591
-382.960	54.713	-0.241	0.231
-381.946	-200.000	0.014	-0.193
-380.931	47.130	-0.180	-0.166
-379.917	788.770	0.027	-0.072
-378.902	-54.621	0.043	-0.019
-377.888	-174.707	0.194	0.005
-376.873	-17.588	-0.439	-0.274
-375.858	-200.000	-0.127	0.000
-374.844	-24.078	-0.140	0.083
-373.829	146.897	0.224	0.298
-372.815	-200.000	0.080	0.392
-371.800	-25.802	-0.201	0.117
-370.785	-63.356	0.111	0.045
-369.771	-51.155	0.267	0.124
-368.756	126.294	-0.192	0.241
-367.742	-139.276	0.052	-0.006
-366.727	-28.711	0.180	-0.103
-365.712	-200.000	0.006	0.278
-364.698	-14.816	0.120	-0.076
-363.683	138.986	-0.195	0.255
-362.669	-200.000	-0.025	-0.202
-361.654	-48.624	0.179	0.085
-360.639	-135.325	-0.231	-0.027
-359.625	325.540	0.066	0.125
-358.610	-70.662	-0.281	0.105
-357.596	-200.000	0.005	-0.128
-356.581	800.000	-0.057	-0.161
-355.566	-200.000	0.013	0.264
-354.552	-200.000	0.039	-0.191
-353.537	800.000	-0.065	-0.193
-352.523	-110.203	-0.056	0.012
-351.508	23.789	0.158	-0.129
-350.493	-3.854	-0.338	0.233
-349.479	-8.765	0.147	0.098
-348.464	-168.337	-0.292	-0.011
-347.450	259.075	-0.122	-0.209
-346.435	105.877	0.085	0.099
-345.420	-200.000	-0.002	-0.174
-344.406	-117.641	-0.245	-0.044
-343.391	-33.038	-0.073	0.040
-342.377	730.616	0.146	-0.386
-341.362	-200.000	-0.003	0.339
-340.348	-131.737	-0.177	-0.023
-339.333	349.300	0.122	0.239
-338.318	-49.979	-0.176	-0.083
-337.304	-167.980	-0.102	0.004
-336.289	800.000	-0.016	0.045
-335.275	-107.340	-0.174	-0.038
-334.260	-142.852	-0.198	-0.019
-333.245	-200.000	-0.004	-0.079
-332.231	235.680	0.104	0.171
-331.216	800.000	-0.125	0.500
-330.202	332.852	-0.064	-0.123
-329.187	636.803	0.027	0.067
-328.172	-200.000	0.024	0.137
-327.158	800.000	-0.012	-0.045
-326.143	-200.000	0.065	0.322
-325.129	0.170	-0.167	0.118
-324.114	-180.077	0.154	0.003
-323.099	-200.000	-0.019	0.137
-322.085	-148.773	0.322	-0.026
-321.070	800.000	0.084	0.308
-320.056	-200.000	0.021	-0.251
-319.041	310.985	0.207	-0.385
-318.026	521.986	0.088	0.205
-317.012	-178.126	-0.258	0.006
-315.997	-120.614	-0.183	0.031
-314.983	-200.000	-0.016	-0.136
-313.968	5.088	-0.141	0.103
-312.953	800.000	-0.131	-0.399
-311.939	-122.247	-0.188	0.030
-310.924	-75.557	0.091	0.032
-309.910	-108.616	-0.201	0.043
-308.895	-200.000	0.011	-0.084
-307.880	-74.415	-0.096	-0.034
-306.866	-200.000	0.041	-0.238
-305.851	-200.000	0.033	0.152
-304.837	74.946	-0.082	0.086
-303.822	-93.607	0.487	0.133
-302.807	-200.000	-0.037	-0.225
-301.793	-62.554	-0.075	-0.031
-300.778	152.612	0.033	0.044
-299.764	421.562	0.132	-0.280
-298.749	163.197	-0.300	-0.418
-297.735	-100.410	-0.281	-0.069
-296.720	800.000	0.045	-0.188
-295.705	510.252	-0.036	0.083
-294.691	-86.869	-0.196	0.059
-293.676	435.969	-0.049	-0.106
-292.662	-82.439	-0.060	-0.019
-291.647	78.820	0.140	-0.148
-290.632	44.074	-0.114	0.103
-289.618	54.209	0.097	0.092
-288.603	-144.253	-0.164	0.015
-287.589	-200.000	0.023	-0.306
-286.574	694.654	0.064	-0.165
-285.559	67.672	-0.141	0.143
-284.545	-133.247	-0.139	0.017
-283.530	-200.000	0.646	0.003
-282.516	800.000	-0.039	0.154
-281.501	55.503	-0.059	0.057
-280.486	-88.699	0.210	-0.062
-279.472	145.826	0.127	0.168
-278.457	-61.553	-0.223	-0.092
-277.443	-67.477	0.274	0.106
-276.428	-92.177	-0.302	-0.084
-275.413	-200.000	-0.027	-0.125
-274.399	651.316	0.080	-0.202
-273.384	-82.877	0.416	-0.133
-272.370	-137.357	0.175	-0.020
-271.355	800.000	-0.035	0.145
-270.340	-36.738	0.384	-0.204
-269.326	144.528	-0.117	-0.154
-268.311	426.545	0.202	0.431
-267.297	-66.744	0.313	-0.123
-266.282	65.557	-0.164	0.164
-265.267	-200.000	-0.009	0.341
-264.253	-200.000	0.006	0.060
-263.238	659.047	0.063	-0.159
-262.224	-78.132	-0.136	0.046
-261.209	800.000	0.117	-0.419
-260.195	800.000	0.118	-0.322
-259.180	399.042	0.075	-0.156
-258.165	-52.330	0.117	-0.054
-257.151	146.964	-0.103	0.137
-256.136	-119.551	-0.203	0.035
-255.122	159.846	-0.254	0.350
-254.107	-42.904	0.231	-0.116
-253.092	-40.641	-0.040	0.021
-252.078	-142.129	0.296	0.029
-251.063	-165.505	-0.240	0.010
-250.049	103.277	-0.051	0.059
-249.034	83.902	-0.150	0.162
-248.019	-68.593	-0.174	0.067
-247.005	139.654	0.127	-0.166
-245.990	515.290	-0.050	-0.115
-244.976	-200.000	0.017	-0.084
-243.961	447.275	-0.130	-0.282
-242.946	141.636	-0.142	-0.186
-241.932	559.711	0.065	0.156
-240.917	146.503	0.171	-0.227
-239.903	-120.731	0.391	-0.065
-238.888	-200.000	0.036	0.249
-237.873	-62.788	0.365	-0.149
-236.859	211.964	-0.039	-0.061
-235.844	-200.000	0.027	0.124
-234.830	-40.556	0.130	0.067
-233.815	-96.517	-0.126	0.033
-232.800	0.241	0.104	-0.073
-231.786	-73.785	-0.291	-0.105
-230.771	-66.934	0.406	-0.158
-229.757	-100.524	-0.082	0.020
-228.742	-64.601	0.182	0.073
-227.727	-200.000	0.040	-0.176
-226.713	-115.252	0.033	-0.006
-225.698	5.815	-0.121	0.088
-224.684	61.115	-0.113	-0.111
-223.669	38.338	-0.153	-0.134
-222.655	-10.849	-0.145	0.094
-221.640	134.859	0.095	0.122
-220.625	78.998	-0.203	0.215
-219.611	800.000	0.055	0.154
-218.596	140.144	0.235	0.306
-217.582	-142.662	0.281	0.027
-216.567	22.617	0.029	0.023
-215.552	-128.986	0.264	-0.037
-214.538	-200.000	0.008	-0.256
-213.523	736.413	0.134	0.353
-212.509	7.561	-0.073	-0.054
-211.494	800.000	0.040	-0.168
-210.479	-82.430	-0.376	-0.120
-209.465	-200.000	-0.000	0.088
-208.450	800.000	-0.108	0.329
-207.436	161.254	0.309	-0.426
-206.421	-122.058	0.393	-0.064
-205.406	240.263	-0.100	-0.164
-204.392	800.000	-0.070	0.297
-203.377	-200.000	-0.010	0.162
-202.363	-200.000	0.050	-0.237
-201.348	-35.554	0.470	0.251
-200.333	130.341	0.175	0.221
-199.319	13.539	0.195	-0.149
-198.304	-121.757	-0.159	0.026
-197.290	-126.784	0.461	-0.067
-196.275	80.975	0.152	-0.162
-195.260	800.000	-0.042	0.123
-194.246	13.096	0.083	0.063
-193.231	-200.000	-0.035	0.237
-192.217	-67.081	-0.112	-0.043
-191.202	-143.972	-0.278	0.026
-190.187	-69.156	0.296	0.112
-189.173	-63.395	-0.195	-0.079
-188.158	79.714	0.036	-0.038
-187.144	102.771	0.149	-0.171
-186.129	-200.000	0.071	-0.487
-185.114	-200.000	0.010	0.193
-184.100	188.697	-0.060	0.088
-183.085	-200.000	0.004	-0.213
-182.071	-200.000	0.023	0.195
-181.056	74.877	0.160	0.166
-180.042	-58.894	0.259	0.110
-179.027	800.000	0.036	-0.110
-178.012	108.054	-0.029	0.034
-176.998	18.241	-0.145	-0.114
-175.983	130.093	0.123	-0.154
-174.969	-5.983	-0.068	-0.046
-173.954	-109.838	-0.261	0.054
-172.939	3.176	0.122	0.087
-171.925	-50.929	0.104	0.048
-170.910	-75.718	-0.288	-0.101
-169.896	800.000	-0.105	0.334
-168.881	800.000	0.049	0.148
-167.866	44.705	0.009	-0.008
-166.852	109.469	-0.233	-0.274
-165.837	-200.000	0.010	0.121
-164.823	70.411	-0.056	0.057
-163.808	-19.921	0.251	0.152
-162.793	-125.563	0.300	0.045
-161.779	93.818	0.127	0.141
-160.764	-200.000	0.014	-0.113
-159.750	-108.836	0.149	0.031
-158.735	800.000	-0.061	0.206
-157.720	-108.042	-0.151	0.032
-156.706	15.666	0.104	-0.080
-155.691	87.166	-0.021	-0.023
-154.677	-155.719	0.209	0.013
-153.662	35.891	0.233	-0.202
-152.647	-200.000	-0.005	-0.061
-151.633	113.197	0.185	0.220
-150.618	-41.299	0.220	0.112
-149.604	-108.456	-0.220	0.047
-148.589	-200.000	0.047	-0.208
-147.574	132.040	0.138	0.175
-146.560	-96.655	-0.338	-0.088
-145.545	-75.275	-0.174	0.061
-144.531	800.000	-0.046	0.138
-143.516	405.214	0.207	0.429
-142.502	-165.336	0.265	-0.011
-141.487	-10.313	0.204	-0.133
-140.472	20.893	0.309	-0.246
-139.458	800.000	-0.036	0.141
-138.443	46.508	-0.201	-0.183
-137.429	-59.132	0.196	-0.083
-136.414	167.882	0.148	-0.207
-135.399	-200.000	-0.006	-0.201
-134.385	-159.128	-0.301	0.017
-133.370	800.000	0.039	-0.156
-132.356	800.000	0.033	-0.135
-131.341	162.678	0.122	0.168
-130.326	43.168	-0.144	-0.129
-129.312	-134.832	-0.149	0.018
-128.297	-200.000	0.000	0.352
-127.283	-34.718	-0.087	0.047
-126.268	-161.649	-0.095	-0.005
-125.253	-200.000	0.017	-0.173
-124.239	-200.000	-0.011	-0.266
-123.224	800.000	0.018	-0.062
-122.210	-36.615	-0.257	0.136
-121.195	305.569	-0.031	-0.057
