DTS Sentinel unit serial number:	SN413079Multiplexer serial number:	ORYXHardware model number:	OX4-SRSoftware version number:	ORYX F/W v4.00 Oryx Data Collector v3.7.2.0data status	okinstallation	princeton_trtdifferential loss correction	single-endedforward channel	channel 3reverse channel	N/Adate	2019/09/16time	12:16:35forward acquisition time	60.00reverse acquisition time	0.00gamma	496.2192k internal	0.2296k external	0.2296temperature offset calibration	0.9947default loss term (dB/km)	0.3790temperature slope calibration	1.0000multiplexer offset coefficient	1.0000multiplexer slope coefficient	1.0000fibre end	0.00T internal ref (°C)	39.17T ext. ref 1 (°C)	13.27T ext. ref 2 (°C)	36.56length (m)	temperature (°C)	Stokes	anti-Stokes-747.200	800.000	-0.090	0.298
-746.185	436.866	-0.105	0.233
-745.171	-200.000	0.005	0.085
-744.156	800.000	-0.114	0.487
-743.142	-38.042	0.070	0.038
-742.127	211.717	-0.073	-0.117
-741.112	222.926	-0.120	-0.198
-740.098	516.898	0.178	0.425
-739.083	289.900	0.128	-0.238
-738.069	95.089	-0.098	0.114
-737.054	-93.888	-0.141	0.040
-736.039	-57.325	-0.424	-0.190
-735.025	-180.597	0.409	0.009
-734.010	1.198	0.291	0.213
-732.996	800.000	-0.042	-0.167
-731.981	29.425	0.126	0.109
-730.966	-200.000	0.042	0.263
-729.952	78.777	-0.138	-0.150
-728.937	124.428	0.261	0.336
-727.923	-200.000	0.038	-0.308
-726.908	-200.000	0.004	0.100
-725.894	64.665	0.101	-0.104
-724.879	-200.000	0.018	-0.237
-723.864	31.243	-0.059	0.052
-722.850	631.437	-0.164	-0.425
-721.835	-76.612	-0.259	0.093
-720.821	-142.819	-0.217	-0.022
-719.806	205.935	-0.144	-0.228
-718.791	31.254	-0.104	-0.091
-717.777	-27.387	-0.215	-0.127
-716.762	-200.000	-0.016	0.425
-715.748	800.000	-0.093	0.296
-714.733	-200.000	-0.008	0.181
-713.718	-120.287	-0.549	0.096
-712.704	-200.000	-0.003	0.345
-711.689	-200.000	-0.017	0.135
-710.675	-81.755	-0.075	0.025
-709.660	800.000	0.104	-0.327
-708.645	3.653	-0.096	0.071
-707.631	-200.000	0.016	0.085
-706.616	800.000	0.067	-0.273
-705.602	-125.950	0.184	-0.028
-704.587	680.911	0.053	-0.142
-703.572	-130.772	-0.587	0.080
-702.558	108.974	0.172	0.210
-701.543	-156.942	0.168	-0.010
-700.529	-13.684	0.163	0.108
-699.514	-139.735	-0.249	-0.027
-698.499	-167.359	0.047	0.002
-697.485	366.614	-0.192	0.396
-696.470	-49.341	-0.297	-0.145
-695.456	-111.179	-0.072	-0.015
-694.441	-81.745	-0.372	-0.124
-693.426	9.542	-0.110	-0.085
-692.412	-200.000	-0.020	-0.242
-691.397	-200.000	-0.008	0.353
-690.383	-55.726	-0.022	-0.010
-689.368	-57.196	0.121	-0.054
-688.354	310.851	0.238	0.454
-687.339	-96.497	-0.202	0.054
-686.324	669.236	-0.074	-0.195
-685.310	-189.133	0.212	0.003
-684.295	27.057	-0.196	0.168
-683.281	120.135	0.416	-0.526
-682.266	-170.757	0.275	0.010
-681.251	-7.737	0.100	0.069
-680.237	-200.000	0.024	-0.539
-679.222	133.718	0.222	-0.292
-678.208	800.000	0.028	-0.101
-677.193	-151.492	-0.283	0.021
-676.178	-200.000	0.120	-0.541
-675.164	800.000	-0.004	-0.017
-674.149	-170.324	0.170	0.006
-673.135	73.157	0.161	0.172
-672.120	-59.034	-0.492	-0.216
-671.105	-200.000	0.012	-0.087
-670.091	174.882	-0.009	-0.013
-669.076	-117.907	0.108	-0.020
-668.062	-98.157	-0.289	-0.076
-667.047	800.000	-0.072	-0.221
-666.032	-163.133	-0.094	0.005
-665.018	40.583	0.238	-0.218
-664.003	167.432	-0.093	0.134
-662.989	22.967	-0.125	0.104
-661.974	-34.323	-0.194	0.108
-660.959	152.543	-0.227	0.315
-659.945	-98.978	0.260	0.067
-658.930	500.616	0.055	0.129
-657.916	-150.143	0.278	-0.022
-656.901	-103.921	-0.191	-0.045
-655.886	-200.000	-0.017	0.230
-654.872	167.177	-0.128	0.185
-653.857	-148.250	0.087	-0.007
-652.843	-200.000	-0.045	-0.276
-651.828	60.969	0.172	0.174
-650.814	378.430	0.096	0.201
-649.799	117.739	-0.159	0.200
-648.784	-104.923	-0.057	-0.013
-647.770	323.987	-0.240	0.467
-646.755	26.651	-0.061	-0.052
-645.741	-11.779	0.245	-0.164
-644.726	59.968	-0.129	-0.130
-643.711	-200.000	-0.013	0.222
-642.697	189.352	-0.234	-0.358
-641.682	478.588	0.112	-0.258
-640.668	598.751	0.076	0.191
-639.653	-200.000	0.019	-0.113
-638.638	254.106	-0.102	0.178
-637.624	133.058	0.262	-0.344
-636.609	2.388	0.063	0.046
-635.595	-134.103	0.100	0.013
-634.580	-77.569	-0.105	-0.037
-633.565	-21.144	0.320	-0.199
-632.551	65.844	-0.127	-0.131
-631.536	-70.269	0.127	-0.049
-630.522	156.313	0.099	-0.139
-629.507	-69.934	0.034	0.013
-628.492	63.781	-0.220	0.225
-627.478	-200.000	-0.019	-0.168
-626.463	-21.094	-0.154	-0.096
-625.449	149.634	-0.263	-0.362
-624.434	-151.400	-0.246	0.019
-623.419	-15.449	-0.123	0.080
-622.405	-200.000	0.014	-0.461
-621.390	338.510	0.022	-0.043
-620.376	42.835	0.253	0.234
-619.361	800.000	0.071	-0.301
-618.346	115.856	0.113	-0.141
-617.332	474.664	0.018	-0.041
-616.317	-141.022	-0.244	0.025
-615.303	-129.693	0.241	-0.034
-614.288	-63.616	0.199	0.083
-613.273	42.826	0.107	0.099
-612.259	82.497	-0.158	0.175
-611.244	-46.453	-0.162	0.081
-610.230	-200.000	-0.001	-0.183
-609.215	-111.430	0.264	-0.055
-608.201	496.167	0.157	0.367
-607.186	800.000	0.130	0.480
-606.171	10.592	0.159	-0.123
-605.157	523.769	0.110	0.262
-604.142	-153.049	-0.063	0.005
-603.128	-0.222	-0.323	-0.234
-602.113	177.022	-0.088	-0.130
-601.098	-200.000	-0.008	0.077
-600.084	79.188	-0.205	0.223
-599.069	-200.000	-0.013	-0.119
-598.055	-63.573	0.149	-0.062
-597.040	800.000	-0.086	-0.252
-596.025	-112.324	0.238	-0.048
-595.011	0.196	-0.452	0.327
-593.996	20.126	0.230	0.189
-592.982	-110.024	-0.258	0.055
-591.967	510.455	0.043	0.101
-590.952	800.000	-0.069	0.237
-589.938	-85.966	-0.154	0.048
-588.923	-200.000	-0.023	0.211
-587.909	158.644	-0.118	-0.167
-586.894	-145.542	-0.248	0.023
-585.879	-200.000	-0.023	-0.110
-584.865	-200.000	-0.043	0.205
-583.850	-14.334	0.187	-0.123
-582.836	9.005	0.022	0.017
-581.821	318.802	0.162	-0.311
-580.806	-107.093	0.133	-0.030
-579.792	536.303	-0.158	-0.380
-578.777	-98.944	-0.057	0.015
-577.763	25.252	-0.129	0.109
-576.748	-200.000	0.017	0.094
-575.733	2.997	-0.071	0.052
-574.719	191.655	0.182	0.278
-573.704	324.259	0.081	-0.157
-572.690	-200.000	-0.019	0.120
-571.675	800.000	0.134	0.445
-570.661	-95.111	0.183	-0.050
-569.646	-200.000	0.012	0.153
-568.631	536.280	0.048	-0.115
-567.617	186.574	-0.128	-0.193
-566.602	233.147	-0.176	-0.294
-565.588	-54.628	0.063	-0.029
-564.573	129.243	-0.094	-0.122
-563.558	64.290	0.234	0.239
-562.544	38.047	0.199	-0.180
-561.529	-64.301	0.151	-0.062
-560.515	113.021	0.206	-0.253
-559.500	-98.593	-0.118	0.031
-558.485	-90.017	-0.236	-0.070
-557.471	79.153	0.134	-0.146
-556.456	42.398	-0.439	-0.405
-555.442	-102.744	-0.263	0.064
-554.427	227.916	-0.122	-0.201
-553.412	30.203	-0.185	0.160
-552.398	-125.470	-0.351	-0.054
-551.383	-106.210	0.077	-0.017
-550.369	-133.145	0.282	-0.036
-549.354	360.859	-0.029	-0.058
-548.339	-170.392	0.163	0.006
-547.325	-66.023	0.281	0.114
-546.310	-200.000	0.008	-0.109
-545.296	608.397	0.104	0.263
-544.281	-11.957	-0.093	-0.062
-543.266	10.563	0.176	-0.136
-542.252	-72.005	0.101	-0.038
-541.237	-108.947	-0.126	-0.027
-540.223	-136.924	0.082	0.009
-539.208	-113.087	-0.168	-0.034
-538.193	67.877	-0.251	0.261
-537.179	800.000	0.029	0.100
-536.164	-143.979	-0.134	0.013
-535.150	-57.369	0.093	0.041
-534.135	8.167	-0.063	0.048
-533.121	304.699	-0.104	-0.195
-532.106	524.400	0.171	-0.407
-531.091	-25.139	-0.166	0.100
-530.077	-119.974	-0.075	-0.013
-529.062	-128.682	-0.223	-0.032
-528.048	-151.763	-0.315	-0.023
-527.033	-200.000	-0.004	-0.129
-526.018	-200.000	-0.014	-0.167
-525.004	160.692	-0.113	-0.159
-523.989	800.000	0.083	0.335
-522.975	800.000	-0.014	0.047
-521.960	531.033	0.039	-0.093
-520.945	-200.000	0.003	0.058
-519.931	484.748	0.143	0.331
-518.916	102.642	0.160	0.189
-517.902	-128.910	0.208	-0.030
-516.887	7.528	-0.100	0.076
-515.872	-200.000	0.011	-0.134
-514.858	85.233	-0.111	-0.123
-513.843	-104.645	-0.168	0.039
-512.829	794.249	0.064	-0.177
-511.814	45.807	-0.203	0.190
-510.799	-132.826	0.069	0.009
-509.785	-25.813	-0.259	-0.154
-508.770	-11.811	-0.467	-0.311
-507.756	800.000	-0.070	-0.278
-506.741	-200.000	-0.023	0.112
-505.726	-147.265	0.055	-0.005
-504.712	-127.364	0.057	0.008
-503.697	464.539	-0.032	0.073
-502.683	-200.000	-0.052	0.360
-501.668	800.000	-0.073	0.258
-500.653	339.562	-0.139	0.275
-499.639	604.670	0.138	0.348
-498.624	670.424	-0.123	0.321
-497.610	338.426	0.039	-0.077
-496.595	15.376	-0.152	-0.121
-495.581	88.990	-0.053	-0.060
-494.566	-200.000	0.016	-0.188
-493.551	23.631	-0.264	-0.220
-492.537	479.528	0.179	0.411
-491.522	171.886	-0.165	0.241
-490.508	-200.000	-0.171	0.824
-489.493	-73.159	0.094	0.035
-488.478	251.226	0.003	-0.004
-487.464	800.000	0.012	-0.036
-486.449	599.607	0.080	-0.202
-485.435	545.924	-0.053	0.128
-484.420	-134.481	-0.321	-0.040
-483.405	-83.523	0.328	-0.106
-482.391	-10.289	-0.254	-0.170
-481.376	169.716	0.155	0.223
-480.362	-200.000	0.020	-0.254
-479.347	-26.952	0.202	-0.119
-478.332	-83.635	0.064	0.021
-477.318	-96.086	-0.532	-0.143
-476.303	800.000	0.015	-0.060
-475.289	-99.596	0.112	0.028
-474.274	-40.207	0.205	-0.108
-473.259	-8.853	-0.269	-0.183
-472.245	-6.546	0.099	-0.068
-471.230	218.994	-0.112	-0.181
-470.216	-152.336	-0.164	0.012
-469.201	-170.575	-0.245	-0.009
-468.186	666.080	-0.175	-0.458
-467.172	402.359	-0.055	-0.116
-466.157	756.524	-0.066	-0.181
-465.143	18.456	0.269	0.217
-464.128	34.291	0.213	-0.188
-463.113	256.222	0.069	-0.119
-462.099	211.317	0.038	-0.060
-461.084	351.361	0.014	-0.028
-460.070	21.201	-0.046	-0.038
-459.055	-200.000	-0.005	-0.022
-458.040	101.178	-0.231	-0.271
-457.026	307.139	-0.139	0.262
-456.011	-24.419	0.130	-0.078
-454.997	-67.595	0.165	0.065
-453.982	-105.560	0.194	0.044
-452.968	-35.812	-0.225	0.123
-451.953	48.643	-0.140	-0.133
-450.938	91.946	0.295	-0.335
-449.924	-53.277	0.226	0.105
-448.909	29.786	0.115	0.099
-447.895	115.487	0.248	0.306
-446.880	800.000	0.074	0.307
-445.865	88.323	-0.057	-0.064
-444.851	123.682	-0.176	-0.223
-443.836	-63.302	0.166	-0.069
-442.822	-200.000	0.008	0.066
-441.807	113.277	0.133	0.162
-440.792	620.003	-0.031	0.078
-439.778	-29.918	-0.341	-0.196
-438.763	-37.640	-0.164	-0.088
-437.749	108.704	0.200	0.241
-436.734	73.345	0.134	0.142
-435.719	32.252	-0.107	0.093
-434.705	-200.000	0.008	-0.104
-433.690	71.608	-0.245	0.257
-432.676	-33.920	0.124	0.069
-431.661	-30.058	-0.405	0.233
-430.646	-141.456	-0.112	-0.011
-429.632	40.411	0.040	-0.036
-428.617	63.567	-0.124	0.126
-427.603	4.174	0.247	-0.182
-426.588	800.000	0.028	0.093
-425.573	246.227	0.159	0.270
-424.559	-200.000	0.041	0.193
-423.544	-200.000	-0.002	0.082
-422.530	-29.343	0.162	-0.093
-421.515	-71.261	-0.124	0.047
-420.500	-150.602	-0.166	-0.013
-419.486	54.065	-0.161	-0.156
-418.471	-73.456	0.209	0.077
-417.457	83.004	0.133	0.146
-416.442	342.668	-0.170	-0.336
-415.428	21.206	-0.305	0.249
-414.413	622.014	0.066	0.168
-413.398	-2.674	-0.194	0.137
-412.384	63.379	-0.076	0.077
-411.369	800.000	-0.087	-0.303
-410.355	-200.000	-0.005	-0.215
-409.340	513.912	-0.120	0.283
-408.325	626.755	0.052	0.131
-407.311	-32.298	-0.103	-0.058
-406.296	-200.000	0.037	-0.254
-405.282	-200.000	-0.051	0.297
-404.267	-80.327	0.055	-0.019
-403.252	-93.061	-0.054	-0.015
-402.238	-200.000	-0.003	0.134
-401.223	-111.923	-0.020	-0.004
-400.209	-101.940	0.272	-0.066
-399.194	800.000	-0.084	-0.277
-398.179	-46.436	-0.149	0.074
-397.165	-21.831	0.032	0.019
-396.150	-14.252	-0.175	0.114
-395.136	-35.711	0.340	0.186
-394.121	-200.000	-0.011	0.116
-393.106	-200.000	0.010	-0.243
-392.092	102.742	-0.144	-0.170
-391.077	-63.142	-0.407	0.169
-390.063	217.142	-0.106	0.170
-389.048	31.273	0.131	0.113
-388.033	97.684	0.346	0.400
-387.019	503.543	-0.049	-0.115
-386.004	152.249	0.044	-0.060
-384.990	-18.809	0.059	-0.037
-383.975	-9.014	0.063	-0.043
-382.960	-200.000	-0.011	-0.141
-381.946	701.454	-0.088	0.234
-380.931	-135.247	-0.181	0.022
-379.917	-200.000	0.005	-0.096
-378.902	41.010	-0.034	0.030
-377.888	-169.770	-0.372	-0.014
-376.873	-106.755	0.100	0.022
-375.858	-200.000	0.018	-0.370
-374.844	422.892	-0.064	-0.138
-373.829	-20.923	0.141	0.087
-372.815	-200.000	0.013	-0.108
-371.800	-116.082	0.337	-0.063
-370.785	497.484	-0.055	0.126
-369.771	236.406	0.104	-0.173
-368.756	-34.041	-0.091	0.050
-367.742	354.080	0.072	-0.145
-366.727	-118.255	0.141	-0.025
-365.712	-200.000	-0.153	-0.000
-364.698	-85.478	0.098	0.031
-363.683	169.567	0.168	-0.241
-362.669	-200.000	0.012	-0.079
-361.654	82.050	0.152	0.165
-360.639	800.000	0.128	0.520
-359.625	58.578	0.101	0.100
-358.610	800.000	0.056	-0.171
-357.596	800.000	0.064	0.228
-356.581	-86.957	-0.131	-0.040
-355.566	800.000	-0.080	0.328
-354.552	-19.615	0.290	-0.181
-353.537	71.855	0.207	-0.217
-352.523	-63.075	0.191	0.079
-351.508	-77.631	0.226	-0.079
-350.493	-200.000	0.029	0.190
-349.479	-5.088	0.054	0.037
-348.464	73.199	0.195	-0.205
-347.450	82.109	0.260	-0.284
-346.435	-112.970	0.580	0.115
-345.420	-110.166	0.066	-0.014
-344.406	-100.586	-0.184	-0.046
-343.391	-200.000	0.004	0.319
-342.377	-116.134	0.407	-0.076
-341.362	-5.675	0.148	-0.102
-340.348	106.962	-0.239	-0.285
-339.333	-29.352	-0.095	-0.055
-338.318	491.923	-0.024	-0.056
-337.304	-200.000	-0.050	0.272
-336.289	-200.000	0.010	-0.199
-335.275	-107.395	-0.337	-0.074
-334.260	-91.611	-0.126	0.036
-333.245	-87.177	0.195	-0.060
-332.231	800.000	-0.019	0.078
-331.216	276.370	0.054	-0.096
-330.202	204.906	0.015	0.023
-329.187	-64.276	-0.029	-0.012
-328.172	66.774	-0.240	0.245
-327.158	-200.000	0.035	0.160
-326.143	214.076	0.035	0.056
-325.129	316.229	0.215	0.408
-324.114	52.197	-0.228	-0.219
-323.099	281.941	0.063	-0.113
-322.085	655.227	0.057	0.146
-321.070	800.000	0.124	0.367
-320.056	-150.619	-0.443	0.034
-319.041	79.315	-0.080	0.087
-318.026	-134.634	-0.086	-0.010
-317.012	-104.318	-0.270	-0.063
-315.997	800.000	-0.066	0.207
-314.983	-200.000	0.014	0.178
-313.968	-23.923	0.331	-0.199
-312.953	800.000	0.050	-0.160
-311.939	508.089	0.042	-0.098
-310.924	-154.337	-0.167	-0.011
-309.910	800.000	-0.039	0.118
-308.895	-135.328	0.059	0.007
-307.880	-149.343	-0.196	-0.016
-306.866	-133.672	0.271	0.034
-305.851	-200.000	-0.007	-0.296
-304.837	-200.000	-0.041	-0.212
-303.822	-83.277	0.197	0.064
-302.807	82.237	0.243	-0.264
-301.793	-200.000	0.056	-0.385
-300.778	188.798	-0.191	0.286
-299.764	-200.000	0.016	-0.191
-298.749	-200.000	0.003	-0.178
-297.735	-9.477	0.123	-0.082
-296.720	257.444	-0.092	0.159
-295.705	-108.799	-0.144	0.031
-294.691	800.000	0.018	0.056
-293.676	800.000	-0.034	0.144
-292.662	226.010	-0.143	-0.232
-291.647	43.553	-0.176	-0.162
-290.632	-81.631	0.296	-0.097
-289.618	800.000	-0.038	0.135
-288.603	0.694	0.174	-0.125
-287.589	436.371	-0.086	-0.189
-286.574	0.533	0.373	0.268
-285.559	-26.430	-0.332	0.195
-284.545	0.898	-0.105	-0.075
-283.530	-141.251	0.178	-0.018
-282.516	84.375	0.034	-0.037
-281.501	84.500	-0.189	-0.208
-280.486	206.962	-0.140	-0.219
-279.472	674.207	-0.044	-0.114
-278.457	49.974	-0.005	-0.005
-277.443	-15.554	-0.035	0.022
-276.428	-163.125	0.245	0.012
-275.413	-200.000	-0.009	0.214
-274.399	217.523	-0.124	0.198
-273.384	289.401	-0.120	0.219
-272.370	800.000	0.100	-0.367
-271.355	-52.967	-0.169	-0.078
-270.340	800.000	-0.074	0.252
-269.326	-77.993	0.207	-0.071
-268.311	306.609	-0.032	0.061
-267.297	520.145	-0.094	0.220
-266.282	-168.994	0.408	0.015
-265.267	-55.569	-0.042	0.019
-264.253	800.000	-0.065	-0.249
-263.238	-35.403	-0.173	0.094
-262.224	457.683	0.060	0.133
-261.209	-148.032	-0.054	0.005
-260.195	81.544	-0.035	-0.038
-259.180	-200.000	0.185	0.000
-258.165	-10.647	0.244	-0.162
-257.151	57.928	-0.163	0.160
-256.136	-44.232	-0.138	-0.069
-255.122	93.119	0.038	0.043
-254.107	-200.000	-0.023	0.361
-253.092	238.866	0.045	-0.075
-252.078	-65.489	0.066	0.027
-251.063	-200.000	0.006	0.077
-250.049	-93.369	0.142	0.039
-249.034	-200.000	0.004	0.071
-248.019	-65.447	-0.207	-0.083
-247.005	112.439	0.122	0.148
-245.990	-200.000	-0.053	-0.248
-244.976	98.010	0.116	-0.133
-243.961	-0.806	-0.048	-0.034
-242.946	-135.963	0.119	0.014
-241.932	-87.601	-0.134	0.041
-240.917	42.190	-0.112	-0.102
-239.903	-10.620	0.193	-0.128
-238.888	-138.248	-0.194	0.022
-237.873	-148.096	-0.168	0.014
-236.859	217.285	0.085	0.136
-235.844	219.212	-0.113	-0.182
-234.830	283.440	0.069	-0.124
-233.815	-57.054	0.162	0.071
-232.800	24.745	-0.150	-0.124
-231.786	800.000	-0.043	0.171
-230.771	-61.313	0.410	0.173
-229.757	-150.086	-0.170	-0.013
-228.742	369.293	0.094	0.190
-227.727	340.657	0.162	-0.316
-226.713	-82.097	0.265	0.087
-225.698	-91.329	-0.163	-0.047
-224.684	289.035	-0.103	0.187
-223.669	800.000	-0.021	0.078
-222.655	122.205	0.264	0.330
-221.640	3.563	0.272	0.198
-220.625	-178.227	-0.307	-0.007
-219.611	-67.147	-0.263	0.104
-218.596	-82.463	0.181	-0.059
-217.582	-40.968	0.165	0.085
-216.567	-200.000	0.031	0.234
-215.552	-36.110	0.188	0.102
-214.538	-38.585	-0.231	-0.122
-213.523	138.013	0.197	-0.259
-212.509	11.976	0.202	0.155
-211.494	-123.665	0.289	0.046
-210.479	-84.348	-0.212	0.067
-209.465	391.794	-0.107	-0.223
-208.450	76.745	-0.134	-0.143
-207.436	-137.870	-0.355	-0.040
-206.421	-144.760	0.468	-0.043
-205.406	431.942	-0.210	0.455
-204.392	346.812	-0.182	-0.358
-203.377	363.152	-0.091	-0.183
-202.363	158.307	-0.141	0.195
-201.348	208.401	0.260	0.407
-200.333	800.000	0.021	-0.082
-199.319	94.751	-0.208	0.237
-198.304	272.260	0.092	-0.162
-197.290	123.394	0.133	-0.167
-196.275	-13.431	0.334	0.217
-195.260	800.000	0.065	-0.283
-194.246	-95.082	-0.173	-0.047
-193.231	-52.193	-0.047	-0.022
-192.217	309.128	-0.099	-0.186
-191.202	-94.090	-0.193	-0.053
-190.187	800.000	0.061	-0.183
-189.173	59.940	-0.277	0.274
-188.158	1.524	-0.035	-0.025
-187.144	800.000	0.042	0.137
-186.129	-79.128	0.238	-0.081
-185.114	103.678	-0.098	0.115
-184.100	800.000	0.096	-0.364
-183.085	-8.727	-0.163	-0.109
-182.071	-5.064	-0.112	-0.077
-181.056	282.344	-0.235	-0.422
-180.042	-80.174	0.526	0.176
-179.027	41.839	-0.165	0.149
-178.012	-107.139	0.506	0.112
-176.998	268.896	-0.211	0.370
-175.983	-140.102	0.317	-0.033
-174.969	-62.257	-0.317	0.132
-173.954	-121.360	-0.137	0.023
-172.939	-37.013	0.140	0.075
-171.925	138.689	0.113	-0.148
-170.910	-12.244	0.173	-0.113
-169.896	-2.029	0.104	-0.073
-168.881	43.780	0.304	-0.278
-167.866	-38.182	-0.278	-0.147
-166.852	-67.466	-0.193	-0.076
-165.837	44.947	0.094	-0.086
-164.823	90.364	-0.115	-0.128
-163.808	5.961	0.145	0.107
-162.793	-119.042	-0.394	0.069
-161.779	-200.000	0.044	-0.218
-160.764	-81.231	0.335	0.110
-159.750	800.000	0.074	0.267
-158.735	58.161	-0.062	-0.061
-157.720	-105.104	0.274	-0.063
-156.706	-135.908	0.243	-0.029
-155.691	-63.234	0.179	-0.074
-154.677	-7.655	0.047	0.032
-153.662	-173.200	0.144	-0.004
-152.647	-200.000	0.000	-0.011
-151.633	264.621	0.092	0.160
-150.618	-122.411	0.304	0.049
-149.604	800.000	-0.037	0.109
-148.589	-200.000	0.007	-0.065
-147.574	799.050	-0.092	0.254
-146.560	-33.452	-0.087	-0.048
-145.545	27.480	-0.082	0.069
-144.531	800.000	0.081	0.245
-143.516	-34.744	0.333	0.182
-142.502	-74.099	0.079	0.028
-141.487	88.755	-0.094	0.104
-140.472	-89.880	0.204	-0.060
-139.458	800.000	0.090	0.270
-138.443	-60.487	-0.271	0.115
-137.429	-18.154	-0.174	0.109
-136.414	308.544	0.050	0.093
-135.399	-147.367	-0.280	0.024
-134.385	-174.022	-0.238	-0.007
-133.370	39.285	0.329	0.294
-132.356	-200.000	-0.002	-0.144
-131.341	-200.000	0.009	-0.072
-130.326	28.838	-0.081	0.068
-129.312	-200.000	0.011	-0.053
-128.297	-78.072	-0.166	0.057
-127.283	238.469	0.118	0.195
-126.268	-124.685	0.280	-0.043
-125.253	109.426	-0.092	0.110
-124.239	66.630	0.052	-0.052
-123.224	-41.103	0.065	-0.033
-122.210	-55.219	0.339	0.152
-121.195	-200.000	-0.008	0.106
