DTS Sentinel unit serial number:	SN413079Multiplexer serial number:	ORYXHardware model number:	OX4-SRSoftware version number:	ORYX F/W v4.00 Oryx Data Collector v3.7.2.0data status	okinstallation	princeton_trtdifferential loss correction	single-endedforward channel	channel 3reverse channel	N/Adate	2019/09/16time	11:08:35forward acquisition time	60.00reverse acquisition time	0.00gamma	496.2192k internal	0.2299k external	0.2299temperature offset calibration	0.9948default loss term (dB/km)	0.3790temperature slope calibration	1.0000multiplexer offset coefficient	1.0000multiplexer slope coefficient	1.0000fibre end	0.00T internal ref (°C)	37.06T ext. ref 1 (°C)	12.80T ext. ref 2 (°C)	33.43length (m)	temperature (°C)	Stokes	anti-Stokes-747.200	-134.169	-0.380	-0.048
-746.185	-200.000	-0.171	-0.000
-745.171	377.982	-0.131	0.273
-744.156	-2.992	-0.052	0.037
-743.142	341.785	-0.052	0.104
-742.127	14.413	-0.269	0.214
-741.112	1.477	-0.092	0.068
-740.098	114.502	-0.023	0.028
-739.083	-69.859	0.219	0.085
-738.069	634.002	-0.064	0.164
-737.054	365.100	0.132	0.270
-736.039	800.000	0.027	-0.104
-735.025	-19.235	0.177	-0.112
-734.010	130.456	0.138	-0.180
-732.996	-97.432	0.144	0.038
-731.981	45.732	0.295	-0.278
-730.966	800.000	-0.056	-0.243
-729.952	531.482	-0.141	-0.341
-728.937	140.030	0.069	-0.093
-727.923	109.016	-0.261	0.318
-726.908	4.940	0.160	-0.120
-725.894	41.991	-0.081	-0.075
-724.879	-8.140	-0.197	0.135
-723.864	147.341	0.126	0.173
-722.850	800.000	0.074	0.265
-721.835	657.427	-0.029	-0.077
-720.821	323.451	-0.125	0.242
-719.806	-46.721	-0.375	-0.187
-718.791	143.419	0.036	-0.049
-717.777	105.469	-0.193	0.233
-716.762	-80.793	-0.164	-0.056
-715.748	-71.064	0.255	-0.098
-714.733	-200.000	0.014	0.117
-713.718	-35.656	-0.265	-0.146
-712.704	-89.142	0.287	0.086
-711.689	9.835	-0.160	0.124
-710.675	800.000	0.009	-0.031
-709.660	-57.269	-0.195	0.088
-708.645	-33.346	0.370	0.209
-707.631	-57.511	-0.227	-0.101
-706.616	-109.555	-0.340	-0.073
-705.602	-28.347	-0.240	-0.141
-704.587	739.965	0.075	-0.206
-703.572	-56.001	-0.200	0.091
-702.558	359.244	0.167	-0.340
-701.543	163.287	-0.148	-0.212
-700.529	268.553	0.105	0.187
-699.514	146.288	0.136	-0.185
-698.499	-67.694	-0.279	0.111
-697.485	19.512	-0.172	-0.141
-696.470	245.256	0.105	-0.180
-695.456	57.907	-0.259	-0.258
-694.441	800.000	-0.051	0.216
-693.426	-42.754	-0.187	0.097
-692.412	-200.000	-0.021	0.585
-691.397	-96.692	-0.197	0.053
-690.383	-200.000	0.014	-0.112
-689.368	-72.036	-0.252	0.095
-688.354	436.421	-0.233	0.517
-687.339	-44.834	0.396	-0.201
-686.324	407.989	0.058	0.125
-685.310	12.184	-0.125	-0.098
-684.295	197.608	0.036	-0.055
-683.281	230.104	-0.156	0.260
-682.266	-200.000	-0.022	0.101
-681.251	-119.851	0.267	-0.047
-680.237	-153.532	-0.235	-0.017
-679.222	-101.257	-0.196	-0.049
-678.208	372.060	0.040	-0.083
-677.193	-15.625	-0.097	0.063
-676.178	-200.000	-0.005	-0.063
-675.164	109.016	-0.118	0.144
-674.149	-16.850	-0.289	0.186
-673.135	124.916	-0.030	0.038
-672.120	293.545	0.156	-0.290
-671.105	221.970	-0.100	0.163
-670.091	-200.000	0.076	0.352
-669.076	-200.000	-0.020	-0.147
-668.062	-51.513	0.233	0.111
-667.047	-166.113	0.213	0.009
-666.032	-200.000	0.076	0.363
-665.018	735.204	-0.108	0.294
-664.003	105.273	-0.103	-0.123
-662.989	-160.382	0.231	-0.013
-661.974	800.000	0.066	0.258
-660.959	316.158	-0.170	-0.326
-659.945	-70.737	-0.141	-0.054
-658.930	-7.682	-0.139	0.095
-657.916	264.505	0.090	0.159
-656.901	-158.350	0.360	-0.021
-655.886	69.236	-0.188	0.196
-654.872	-52.431	-0.127	-0.060
-653.857	-102.608	-0.164	0.040
-652.843	800.000	-0.043	-0.122
-651.828	800.000	-0.066	-0.273
-650.814	90.237	-0.098	-0.111
-649.799	-85.612	-0.109	0.035
-648.784	-91.094	-0.085	-0.025
-647.770	521.989	-0.044	0.105
-646.755	17.722	0.144	0.116
-645.741	-37.015	0.188	-0.102
-644.726	-200.000	-0.012	-0.120
-643.711	129.127	0.244	0.316
-642.697	-130.410	-0.380	-0.052
-641.682	436.494	0.045	0.100
-640.668	-108.347	0.148	-0.032
-639.653	-52.612	-0.271	-0.127
-638.638	65.112	0.017	-0.018
-637.624	-200.000	0.009	0.080
-636.609	6.274	0.210	-0.158
-635.595	43.552	-0.319	0.296
-634.580	22.568	0.071	0.059
-633.565	-6.672	0.304	-0.210
-632.551	-60.040	-0.062	0.027
-631.536	-200.000	0.018	-0.389
-630.522	-200.000	-0.051	-0.327
-629.507	-61.354	0.169	-0.072
-628.492	588.992	0.032	-0.081
-627.478	10.968	-0.163	0.126
-626.463	648.218	0.188	0.487
-625.449	800.000	0.059	-0.211
-624.434	64.214	-0.026	0.027
-623.419	-123.104	-0.260	-0.042
-622.405	-200.000	0.078	-0.383
-621.390	-130.682	-0.153	0.021
-620.376	215.399	-0.206	-0.332
-619.361	4.690	0.162	-0.121
-618.346	-132.039	-0.273	0.036
-617.332	-55.951	-0.121	-0.055
-616.317	-107.368	0.212	0.047
-615.303	233.931	0.143	0.239
-614.288	532.675	-0.145	-0.349
-613.273	13.839	-0.085	-0.067
-612.259	-200.000	0.055	0.415
-611.244	-79.024	0.218	0.075
-610.230	-200.000	-0.028	0.324
-609.215	-13.210	0.082	0.054
-608.201	-125.270	0.114	-0.018
-607.186	-152.493	0.403	-0.029
-606.171	11.916	-0.061	-0.047
-605.157	-56.404	-0.273	0.123
-604.142	10.340	0.284	-0.220
-603.128	800.000	-0.072	0.258
-602.113	67.690	0.150	-0.156
-601.098	-200.000	0.002	0.028
-600.084	-35.938	-0.052	-0.029
-599.069	-200.000	-0.103	-0.472
-598.055	-80.540	-0.237	0.080
-597.040	20.023	0.118	0.097
-596.025	-200.000	0.090	0.431
-595.011	-118.000	0.166	-0.030
-593.996	46.288	0.183	-0.172
-592.982	259.080	0.212	-0.370
-591.967	141.589	0.083	0.111
-590.952	111.053	0.230	0.281
-589.938	-12.886	0.165	0.109
-588.923	-48.863	0.240	0.117
-587.909	577.653	-0.053	-0.131
-586.894	-200.000	-0.012	0.388
-585.879	-94.715	0.109	0.030
-584.865	1.460	-0.231	0.169
-583.850	284.882	-0.212	0.388
-582.836	-135.524	0.215	-0.026
-581.821	-44.953	-0.391	0.197
-580.806	-200.000	-0.080	-0.430
-579.792	21.311	-0.071	-0.058
-578.777	339.767	0.141	0.280
-577.763	-200.000	-0.031	0.219
-576.748	-200.000	-0.006	-0.179
-575.733	-127.015	-0.227	-0.034
-574.719	-167.319	-0.202	-0.008
-573.704	15.200	-0.046	0.037
-572.690	62.876	-0.198	0.200
-571.675	800.000	-0.052	-0.147
-570.661	-76.354	-0.079	-0.028
-569.646	-200.000	0.002	-0.025
-568.631	-200.000	-0.039	0.299
-567.617	191.614	0.106	0.162
-566.602	47.863	0.091	-0.086
-565.588	-90.544	0.082	0.024
-564.573	-200.000	-0.020	-0.093
-563.558	-73.274	-0.422	-0.156
-562.544	-56.275	0.088	0.039
-561.529	800.000	0.042	0.123
-560.515	-166.462	0.184	-0.008
-559.500	-200.000	-0.012	-0.305
-558.485	-115.876	-0.230	-0.044
-557.471	123.131	0.130	0.165
-556.456	800.000	-0.056	-0.193
-555.442	-18.038	-0.154	-0.098
-554.427	-66.919	0.165	0.066
-553.412	-126.370	-0.146	0.022
-552.398	-42.969	0.214	-0.110
-551.383	-200.000	-0.079	-0.389
-550.369	76.237	0.074	0.080
-549.354	282.364	-0.089	0.161
-548.339	-200.000	0.028	-0.334
-547.325	386.522	0.093	-0.195
-546.310	346.261	-0.244	0.485
-545.296	-200.000	-0.045	0.251
-544.281	49.715	-0.113	0.108
-543.266	-107.217	-0.294	0.066
-542.252	-200.000	0.057	0.332
-541.237	800.000	0.057	0.209
-540.223	800.000	0.058	0.182
-539.208	-3.862	0.127	-0.089
-538.193	0.801	0.157	-0.114
-537.179	-200.000	0.051	0.246
-536.164	-75.220	0.098	-0.035
-535.150	-93.815	0.422	-0.118
-534.135	578.125	0.080	-0.197
-533.121	41.700	-0.293	0.269
-532.106	-17.964	-0.045	-0.029
-531.091	-200.000	0.030	0.141
-530.077	-189.205	0.327	0.004
-529.062	14.679	0.115	-0.091
-528.048	-10.807	0.076	-0.051
-527.033	-67.364	0.249	-0.099
-526.018	16.199	-0.071	0.056
-525.004	64.573	0.211	-0.216
-523.989	15.416	-0.120	0.095
-522.975	77.526	-0.111	-0.119
-521.960	-56.043	-0.095	0.043
-520.945	101.414	0.136	0.160
-519.931	-200.000	-0.001	-0.168
-518.916	800.000	0.070	-0.302
-517.902	-58.343	0.206	-0.091
-516.887	-47.858	0.218	0.107
-515.872	296.285	0.039	0.072
-514.858	-200.000	0.020	-0.089
-513.843	-200.000	0.035	0.225
-512.829	158.456	0.048	0.067
-511.814	84.858	-0.189	0.209
-510.799	-112.048	-0.270	0.055
-509.785	317.319	0.039	-0.074
-508.770	-118.129	0.059	-0.011
-507.756	136.052	0.054	-0.072
-506.741	-142.814	0.177	-0.017
-505.726	394.916	0.061	-0.128
-504.712	691.677	0.092	0.243
-503.697	-123.460	0.210	-0.034
-502.683	-87.882	0.070	-0.021
-501.668	-11.557	-0.183	-0.122
-500.653	-80.978	0.119	0.040
-499.639	-129.809	-0.531	0.074
-498.624	66.043	0.325	-0.333
-497.610	34.136	0.066	-0.058
-496.595	-81.411	-0.047	-0.016
-495.581	-3.250	-0.213	-0.150
-494.566	244.930	-0.094	-0.159
-493.551	170.307	-0.057	-0.083
-492.537	-200.000	-0.007	0.209
-491.522	-200.000	-0.047	0.246
-490.508	800.000	0.026	0.079
-489.493	-135.867	-0.192	0.023
-488.478	-87.357	0.246	0.075
-487.464	-162.711	0.206	-0.010
-486.449	-5.018	0.121	-0.084
-485.435	-200.000	-0.026	0.164
-484.420	6.021	0.307	-0.229
-483.405	46.230	0.203	-0.190
-482.391	13.779	-0.271	0.213
-481.376	-10.517	0.024	-0.016
-480.362	1.066	0.269	0.195
-479.347	472.957	0.051	0.116
-478.332	-1.162	-0.026	-0.018
-477.318	-200.000	0.025	0.371
-476.303	89.011	0.068	-0.077
-475.289	-63.473	-0.357	-0.148
-474.274	-200.000	0.028	-0.159
-473.259	-147.719	-0.390	0.033
-472.245	-36.108	-0.124	-0.067
-471.230	372.378	0.097	-0.198
-470.216	0.913	0.143	-0.103
-469.201	-200.000	0.105	0.523
-468.186	-175.556	0.184	0.005
-467.172	-10.839	0.324	0.216
-466.157	59.372	-0.047	-0.047
-465.143	153.729	-0.189	0.261
-464.128	3.488	0.065	-0.048
-463.113	-148.706	0.216	0.018
-462.099	-84.789	0.214	-0.068
-461.084	800.000	-0.056	0.187
-460.070	130.912	-0.031	0.040
-459.055	115.683	-0.112	-0.139
-458.040	-58.076	-0.065	-0.029
-457.026	-80.026	-0.269	-0.091
-456.011	-41.943	0.087	0.045
-454.997	-107.783	-0.153	0.034
-453.982	-83.922	0.219	0.070
-452.968	157.709	0.124	0.174
-451.953	342.321	0.100	-0.198
-450.938	397.555	-0.059	-0.125
-449.924	-124.251	0.128	-0.020
-448.909	252.672	0.239	-0.410
-447.895	508.376	-0.021	-0.050
-446.880	-69.841	0.131	0.050
-445.865	800.000	0.016	-0.046
-444.851	-200.000	-0.004	0.243
-443.836	32.850	0.168	-0.147
-442.822	378.438	0.111	-0.228
-441.807	-32.684	0.049	0.028
-440.792	-41.663	0.131	0.068
-439.778	-200.000	-0.004	-0.053
-438.763	485.185	0.034	-0.078
-437.749	-64.499	-0.107	0.044
-436.734	-64.570	0.201	-0.082
-435.719	-178.092	0.179	0.004
-434.705	-72.325	0.183	-0.068
-433.690	234.468	-0.081	0.134
-432.676	13.298	-0.212	-0.165
-431.661	-139.108	-0.281	-0.031
-430.646	67.221	0.301	0.309
-429.632	-200.000	0.028	0.241
-428.617	51.982	0.062	0.060
-427.603	240.478	0.125	0.210
-426.588	-47.295	-0.099	-0.049
-425.573	166.085	-0.163	-0.233
-424.559	-80.695	-0.288	-0.096
-423.544	412.160	-0.020	0.043
-422.530	102.188	0.276	-0.324
-421.515	800.000	0.078	0.236
-420.500	-30.734	-0.241	0.137
-419.486	138.118	-0.033	0.043
-418.471	84.256	0.106	-0.117
-417.457	38.493	-0.283	0.254
-416.442	-18.877	-0.239	0.150
-415.428	800.000	-0.069	-0.271
-414.413	-76.022	-0.292	-0.104
-413.398	-114.244	-0.080	-0.015
-412.384	-156.538	-0.300	-0.019
-411.369	-21.925	-0.158	-0.097
-410.355	20.047	-0.075	0.061
-409.340	-70.083	0.239	-0.092
-408.325	-200.000	0.057	-0.258
-407.311	75.562	0.123	-0.130
-406.296	-71.159	0.261	-0.099
-405.282	426.929	0.216	0.470
-404.267	-200.000	0.002	-0.212
-403.252	208.762	-0.124	-0.195
-402.238	-52.308	0.199	-0.093
-401.223	-63.183	0.312	0.129
-400.209	-52.788	0.145	-0.067
-399.194	476.204	0.043	0.097
-398.179	183.615	-0.093	-0.138
-397.165	-52.149	0.312	-0.146
-396.150	-200.000	-0.005	-0.092
-395.136	-99.203	-0.353	-0.090
-394.121	103.071	-0.329	0.388
-393.106	-60.873	-0.180	-0.077
-392.092	-19.539	0.196	0.122
-391.077	696.701	-0.057	0.152
-390.063	-103.122	-0.255	-0.061
-389.048	-89.733	-0.043	-0.013
-388.033	-200.000	-0.014	-0.178
-387.019	-43.781	-0.198	0.100
-386.004	-200.000	0.027	-0.143
-384.990	-144.130	0.330	-0.031
-383.975	-100.247	-0.187	-0.047
-382.960	-143.012	0.114	0.011
-381.946	235.995	-0.124	0.206
-380.931	353.354	0.072	-0.145
-379.917	800.000	-0.080	-0.288
-378.902	-39.097	0.117	0.062
-377.888	-109.657	0.251	0.053
-376.873	800.000	-0.094	0.402
-375.858	-200.000	-0.021	0.267
-374.844	800.000	-0.061	0.200
-373.829	-92.072	-0.132	-0.038
-372.815	-200.000	-0.015	0.218
-371.800	-123.420	-0.108	0.017
-370.785	-145.278	0.258	0.023
-369.771	719.226	0.085	-0.228
-368.756	-90.913	-0.136	-0.039
-367.742	354.233	0.179	0.358
-366.727	-6.363	0.097	0.067
-365.712	176.854	-0.071	0.104
-364.698	-65.422	-0.126	0.051
-363.683	-41.683	-0.157	0.081
-362.669	162.175	-0.027	-0.038
-361.654	-200.000	-0.010	-0.149
-360.639	39.023	0.252	0.226
-359.625	-200.000	0.052	-0.250
-358.610	79.395	-0.182	-0.196
-357.596	-85.341	-0.240	-0.075
-356.581	188.672	-0.122	0.184
-355.566	-200.000	0.023	0.389
-354.552	509.727	0.046	0.108
-353.537	-61.965	-0.222	-0.093
-352.523	-150.538	-0.394	-0.030
-351.508	-124.071	0.078	0.012
-350.493	-200.000	-0.016	-0.240
-349.479	-138.446	-0.179	-0.020
-348.464	-15.428	-0.037	-0.024
-347.450	800.000	0.070	0.248
-346.435	560.507	-0.103	0.250
-345.420	54.303	-0.077	-0.074
-344.406	152.945	0.156	-0.215
-343.391	764.401	-0.186	-0.507
-342.377	344.083	0.152	0.300
-341.362	-200.000	-0.005	-0.201
-340.348	-200.000	-0.001	-0.100
-339.333	86.201	-0.101	-0.111
-338.318	-200.000	-0.001	0.368
-337.304	-178.364	0.283	-0.007
-336.289	-200.000	0.009	0.044
-335.275	47.682	-0.132	0.124
-334.260	115.664	-0.236	0.290
-333.245	-69.908	-0.262	0.100
-332.231	-200.000	0.017	-0.170
-331.216	-200.000	0.016	0.100
-330.202	-93.874	0.252	-0.070
-329.187	88.612	-0.212	-0.236
-328.172	118.943	-0.084	-0.104
-327.158	-200.000	0.039	-0.349
-326.143	-72.494	0.053	-0.020
-325.129	-14.632	0.275	-0.177
-324.114	156.289	0.045	0.062
-323.099	-200.000	-0.002	-0.136
-322.085	338.642	0.085	0.165
-321.070	-20.733	-0.289	-0.178
-320.056	401.665	0.041	0.087
-319.041	-15.173	-0.286	-0.184
-318.026	-200.000	-0.034	-0.152
-317.012	117.590	-0.244	-0.302
-315.997	-41.468	-0.085	0.044
-314.983	302.596	0.072	0.133
-313.968	208.952	-0.221	-0.347
-312.953	-120.273	-0.171	-0.029
-311.939	-51.463	-0.042	-0.020
-310.924	-200.000	0.005	0.169
-309.910	-84.478	0.321	0.102
-308.895	-22.283	-0.145	-0.088
-307.880	-101.211	-0.229	0.056
-306.866	181.590	-0.132	0.194
-305.851	-92.609	-0.073	0.020
-304.837	-186.239	-0.412	0.006
-303.822	-65.446	-0.217	-0.088
-302.807	-34.236	0.086	0.047
-301.793	465.766	0.133	0.299
-300.778	-77.938	0.087	0.030
-299.764	800.000	-0.105	0.455
-298.749	259.316	-0.065	-0.113
-297.735	-200.000	-0.010	-0.144
-296.720	-73.355	-0.187	0.069
-295.705	-24.152	-0.248	0.149
-294.691	-171.502	0.145	0.005
-293.676	-161.364	0.111	0.006
-292.662	-33.597	0.184	0.102
-291.647	46.237	-0.190	0.176
-290.632	1.629	-0.091	-0.066
-289.618	-89.742	0.106	-0.031
-288.603	783.247	-0.020	0.054
-287.589	-200.000	0.003	-0.173
-286.574	-89.627	0.088	0.026
-285.559	31.147	-0.152	0.130
-284.545	-200.000	-0.027	0.255
-283.530	-42.637	-0.271	0.138
-282.516	-10.384	0.154	0.102
-281.501	-200.000	-0.069	-0.351
-280.486	87.127	0.289	0.320
-279.472	110.257	-0.036	-0.043
-278.457	-69.529	0.056	-0.022
-277.443	-200.000	0.032	-0.262
-276.428	-169.253	-0.588	0.022
-275.413	-200.000	0.031	0.162
-274.399	24.617	0.266	-0.220
-273.384	39.975	-0.209	0.188
-272.370	800.000	-0.048	0.163
-271.355	-200.000	-0.035	-0.271
-270.340	800.000	-0.114	0.500
-269.326	800.000	-0.073	-0.309
-268.311	394.289	0.222	-0.463
-267.297	800.000	0.061	-0.254
-266.282	-92.770	0.195	-0.055
-265.267	144.636	-0.074	-0.099
-264.253	78.924	0.446	-0.478
-263.238	-136.754	-0.141	-0.016
-262.224	-200.000	0.002	0.182
-261.209	-21.816	0.100	-0.061
-260.195	27.600	-0.209	-0.176
-259.180	33.634	-0.060	-0.053
-258.165	-161.121	0.237	-0.012
-257.151	-70.050	0.225	-0.086
-256.136	-200.000	0.015	0.110
-255.122	282.910	0.134	0.240
-254.107	207.152	0.049	-0.077
-253.092	-200.000	0.012	0.184
-252.078	43.067	-0.094	0.086
-251.063	-108.758	0.039	-0.008
-250.049	-200.000	-0.023	-0.126
-249.034	182.503	-0.102	-0.151
-248.019	161.279	0.209	-0.292
-247.005	135.342	-0.154	0.201
-245.990	-200.000	-0.008	0.185
-244.976	-200.000	0.023	0.257
-243.961	-22.131	-0.125	0.076
-242.946	23.432	-0.244	-0.201
-241.932	-200.000	0.016	0.119
-240.917	-169.883	0.206	0.007
-239.903	-200.000	0.032	-0.432
-238.888	394.024	-0.165	-0.343
-237.873	104.222	0.087	0.102
-236.859	-9.800	-0.279	-0.186
-235.844	-185.418	0.246	0.004
-234.830	800.000	0.029	0.116
-233.815	-97.161	-0.181	0.047
-232.800	-77.059	0.241	0.084
-231.786	5.434	-0.121	0.090
-230.771	-200.000	-0.045	0.280
-229.757	-67.603	-0.169	0.066
-228.742	81.601	-0.093	0.100
-227.727	-151.394	0.113	0.008
-226.713	97.833	0.401	-0.461
-225.698	179.875	-0.098	0.143
-224.684	-200.000	0.027	-0.253
-223.669	-200.000	0.019	-0.106
-222.655	88.400	0.111	-0.123
-221.640	102.972	-0.089	0.105
-220.625	-58.418	-0.404	0.176
-219.611	34.463	0.261	-0.228
-218.596	101.028	0.244	-0.284
-217.582	280.978	0.152	0.272
-216.567	-200.000	-0.044	-0.400
-215.552	-31.218	-0.037	-0.021
-214.538	-54.367	-0.339	-0.154
-213.523	-200.000	0.053	0.378
-212.509	130.857	-0.231	-0.296
-211.494	7.173	-0.056	-0.042
-210.479	-91.455	-0.295	-0.084
-209.465	-34.191	0.197	0.108
-208.450	63.284	0.108	-0.108
-207.436	61.573	-0.129	0.128
-206.421	117.336	0.202	0.248
-205.406	552.665	-0.061	-0.146
-204.392	544.222	-0.045	0.107
-203.377	-200.000	0.015	0.320
-202.363	-60.410	-0.093	-0.040
-201.348	-80.215	0.202	0.068
-200.333	-154.351	-0.089	-0.006
-199.319	-139.972	-0.402	0.042
-198.304	-69.837	-0.220	0.084
-197.290	-85.044	0.156	-0.049
-196.275	800.000	0.025	0.086
-195.260	-54.422	-0.042	-0.019
-194.246	-200.000	0.001	0.068
-193.231	-173.909	0.143	0.004
-192.217	164.571	-0.075	0.106
-191.202	-30.387	0.339	-0.192
-190.187	6.052	-0.067	0.049
-189.173	-95.704	0.211	0.056
-188.158	45.338	-0.288	0.265
-187.144	-144.148	0.241	0.022
-186.129	270.978	0.117	-0.206
-185.114	293.394	0.245	0.446
-184.100	508.351	0.072	-0.167
-183.085	415.768	0.089	-0.190
-182.071	-148.660	0.271	-0.022
-181.056	551.303	-0.109	-0.260
-180.042	800.000	0.053	-0.159
-179.027	-122.448	-0.242	-0.039
-178.012	-135.992	-0.224	0.026
-176.998	115.576	-0.097	-0.119
-175.983	-29.825	-0.288	-0.164
-174.969	-84.516	-0.235	0.074
-173.954	800.000	0.050	0.216
-172.939	-200.000	-0.114	0.000
-171.925	-180.797	0.228	-0.005
-170.910	-78.333	0.237	0.081
-169.896	-137.847	-0.082	0.009
-168.881	-200.000	0.007	0.103
-167.866	656.366	0.171	-0.438
-166.852	-200.000	0.012	-0.188
-165.837	-1.536	0.196	0.138
-164.823	-197.858	0.138	-0.001
-163.808	166.437	-0.093	0.131
-162.793	14.656	-0.064	-0.050
-161.779	-69.519	0.206	-0.079
-160.764	-200.000	-0.044	-0.304
-159.750	69.779	0.011	-0.012
-158.735	-200.000	0.005	0.108
-157.720	99.971	-0.182	0.211
-156.706	86.839	0.092	-0.101
-155.691	-200.000	-0.017	-0.089
-154.677	21.586	-0.041	0.033
-153.662	239.220	0.082	-0.136
-152.647	-46.716	0.122	0.060
-151.633	-200.000	-0.003	0.124
-150.618	-75.430	0.269	0.095
-149.604	338.643	0.126	0.244
-148.589	35.140	0.143	-0.125
-147.574	-200.000	-0.044	-0.211
-146.560	2.118	0.216	-0.155
-145.545	186.704	-0.072	0.107
-144.531	331.727	0.063	-0.122
-143.516	-166.307	0.141	0.006
-142.502	24.369	0.047	-0.039
-141.487	800.000	0.009	-0.037
-140.472	166.822	-0.154	0.218
-139.458	-57.169	0.066	-0.029
-138.443	142.413	0.124	-0.164
-137.429	-87.215	-0.125	-0.038
-136.414	111.157	-0.211	0.254
-135.399	-26.523	-0.012	0.007
-134.385	226.587	0.115	-0.186
-133.370	-200.000	0.013	-0.306
-132.356	127.767	0.146	-0.185
-131.341	239.689	0.137	-0.226
-130.326	800.000	-0.018	-0.059
-129.312	-84.209	0.226	-0.071
-128.297	15.694	-0.103	-0.080
-127.283	-200.000	0.017	0.127
-126.268	65.978	0.178	0.179
-125.253	-92.886	-0.081	-0.023
-124.239	-182.703	-0.309	-0.006
-123.224	148.817	-0.064	-0.087
-122.210	-200.000	0.068	0.425
-121.195	-200.000	-0.026	0.175
