DTS Sentinel unit serial number:	SN413079Multiplexer serial number:	ORYXHardware model number:	OX4-SRSoftware version number:	ORYX F/W v4.00 Oryx Data Collector v3.7.2.0data status	okinstallation	princeton_trtdifferential loss correction	single-endedforward channel	channel 3reverse channel	N/Adate	2019/09/15time	23:12:35forward acquisition time	60.00reverse acquisition time	0.00gamma	496.2192k internal	0.2335k external	0.2335temperature offset calibration	0.9945default loss term (dB/km)	0.3790temperature slope calibration	1.0000multiplexer offset coefficient	1.0000multiplexer slope coefficient	1.0000fibre end	0.00T internal ref (°C)	28.39T ext. ref 1 (°C)	9.04T ext. ref 2 (°C)	22.17length (m)	temperature (°C)	Stokes	anti-Stokes-747.200	-98.297	-0.409	0.106
-746.185	800.000	0.035	0.143
-745.171	333.153	0.027	0.052
-744.156	387.416	-0.066	-0.138
-743.142	26.079	-0.038	-0.032
-742.127	800.000	0.120	-0.512
-741.112	-16.741	0.269	0.171
-740.098	-51.310	-0.113	0.053
-739.083	118.495	-0.100	0.124
-738.069	-96.128	-0.089	-0.024
-737.054	-200.000	0.018	0.340
-736.039	-169.039	-0.047	0.002
-735.025	19.937	-0.059	-0.047
-734.010	79.222	-0.120	-0.129
-732.996	242.595	-0.289	-0.486
-731.981	-103.796	-0.383	0.090
-730.966	146.754	-0.205	0.277
-729.952	-120.062	-0.403	-0.069
-728.937	284.180	-0.065	0.117
-727.923	284.587	-0.123	0.223
-726.908	-200.000	0.006	-0.042
-725.894	-177.779	-0.069	-0.002
-724.879	800.000	0.055	0.215
-723.864	800.000	-0.097	-0.311
-722.850	177.578	0.175	-0.257
-721.835	106.828	0.053	-0.063
-720.821	-41.789	0.111	-0.057
-719.806	-128.922	-0.278	0.039
-718.791	800.000	-0.073	0.229
-717.777	-139.354	0.105	-0.011
-716.762	800.000	-0.050	-0.196
-715.748	299.897	0.166	-0.306
-714.733	-109.286	-0.080	0.017
-713.718	178.246	-0.149	-0.219
-712.704	-200.000	0.016	0.214
-711.689	442.058	-0.101	0.222
-710.675	535.852	-0.131	-0.312
-709.660	367.464	0.121	-0.245
-708.645	-27.246	-0.263	0.154
-707.631	113.915	0.079	-0.097
-706.616	-200.000	-0.035	0.390
-705.602	244.555	0.161	0.271
-704.587	330.679	0.118	0.228
-703.572	800.000	0.061	-0.223
-702.558	87.563	0.175	0.195
-701.543	81.625	0.127	-0.138
-700.529	-102.970	-0.120	-0.029
-699.514	-14.826	-0.195	0.126
-698.499	-16.115	-0.110	-0.070
-697.485	-71.249	-0.091	-0.034
-696.470	-98.195	-0.150	0.039
-695.456	394.266	0.086	-0.179
-694.441	156.456	0.194	0.269
-693.426	-58.969	0.150	-0.065
-692.412	800.000	0.033	0.147
-691.397	-58.555	-0.098	-0.043
-690.383	507.515	-0.107	-0.249
-689.368	-107.433	-0.161	-0.035
-688.354	800.000	-0.031	0.101
-687.339	31.538	0.049	0.043
-686.324	-35.427	0.107	-0.058
-685.310	-51.464	-0.135	0.063
-684.295	-84.851	-0.143	0.045
-683.281	-200.000	-0.004	0.259
-682.266	-200.000	0.028	-0.183
-681.251	-74.202	-0.233	0.085
-680.237	-21.739	-0.242	-0.148
-679.222	800.000	-0.016	0.066
-678.208	31.805	-0.267	0.231
-677.193	246.593	-0.094	0.159
-676.178	-103.165	-0.245	-0.058
-675.164	-200.000	-0.000	-0.209
-674.149	11.855	0.022	-0.017
-673.135	-200.000	0.031	-0.222
-672.120	-200.000	0.002	-0.286
-671.105	362.572	0.043	0.086
-670.091	800.000	-0.077	-0.285
-669.076	281.670	0.075	-0.135
-668.062	-60.037	-0.092	-0.039
-667.047	-200.000	-0.012	0.094
-666.032	-123.237	-0.103	-0.017
-665.018	-156.966	-0.268	0.016
-664.003	90.477	0.076	-0.085
-662.989	111.713	0.090	-0.109
-661.974	-96.338	-0.284	0.075
-660.959	-37.356	0.505	0.270
-659.945	800.000	-0.056	0.222
-658.930	-37.323	0.061	0.033
-657.916	153.203	0.058	0.080
-656.901	-112.644	0.220	-0.044
-655.886	38.422	-0.466	0.416
-654.872	55.039	0.177	0.171
-653.857	220.092	-0.092	0.148
-652.843	800.000	0.070	-0.230
-651.828	141.064	0.221	-0.293
-650.814	142.298	0.060	0.079
-649.799	732.525	0.047	-0.126
-648.784	-91.742	0.207	-0.059
-647.770	63.509	0.195	0.196
-646.755	-72.924	-0.143	-0.053
-645.741	-102.822	-0.074	0.018
-644.726	800.000	0.040	0.113
-643.711	-157.985	-0.363	0.021
-642.697	33.025	0.197	-0.171
-641.682	-90.750	-0.149	0.043
-640.668	0.691	-0.190	0.136
-639.653	140.294	-0.123	0.162
-638.638	83.958	-0.267	-0.292
-637.624	-56.260	-0.216	-0.096
-636.609	-115.295	0.234	-0.044
-635.595	9.920	0.326	0.247
-634.580	299.657	0.060	-0.111
-633.565	-200.000	0.001	0.059
-632.551	-200.000	0.012	-0.253
-631.536	-72.181	-0.191	-0.071
-630.522	53.106	0.238	-0.228
-629.507	97.578	0.089	-0.103
-628.492	-134.347	-0.369	0.045
-627.478	353.768	0.166	-0.329
-626.463	-152.594	-0.238	0.017
-625.449	-25.226	0.386	0.229
-624.434	-134.599	-0.319	-0.039
-623.419	-154.430	0.079	0.005
-622.405	800.000	-0.150	0.421
-621.390	154.129	0.195	-0.267
-620.376	-141.240	0.194	-0.020
-619.361	-31.805	0.127	-0.071
-618.346	-156.580	-0.093	0.006
-617.332	595.489	-0.146	0.362
-616.317	-200.000	-0.027	-0.173
-615.303	800.000	0.031	-0.123
-614.288	372.485	0.046	-0.094
-613.273	-23.929	-0.347	-0.208
-612.259	-200.000	-0.010	0.217
-611.244	329.928	0.162	-0.312
-610.230	-200.000	-0.029	-0.166
-609.215	-1.767	-0.165	0.116
-608.201	-68.574	-0.328	-0.127
-607.186	-7.297	-0.172	0.117
-606.171	23.457	0.317	0.261
-605.157	-98.168	0.185	0.048
-604.142	-99.304	-0.176	-0.044
-603.128	117.156	-0.140	-0.172
-602.113	4.824	0.199	-0.146
-601.098	-48.797	-0.121	0.058
-600.084	73.554	-0.241	0.252
-599.069	301.515	-0.127	-0.235
-598.055	-172.482	-0.065	0.002
-597.040	-200.000	0.028	0.248
-596.025	319.605	0.104	0.198
-595.011	218.236	0.205	0.327
-593.996	162.794	-0.088	0.123
-592.982	716.210	-0.035	-0.093
-591.967	146.945	-0.154	0.207
-590.952	138.952	0.196	-0.258
-589.938	232.939	-0.030	0.049
-588.923	-200.000	0.002	0.018
-587.909	109.949	-0.119	0.142
-586.894	63.964	0.248	0.249
-585.879	60.710	-0.036	0.036
-584.865	595.203	0.190	-0.470
-583.850	800.000	0.047	-0.155
-582.836	-27.494	-0.481	-0.279
-581.821	-200.000	-0.008	-0.187
-580.806	670.895	-0.042	0.109
-579.792	19.391	-0.143	-0.114
-578.777	-43.908	-0.216	0.108
-577.763	-200.000	-0.036	0.240
-576.748	42.187	0.134	0.121
-575.733	249.612	0.071	0.120
-574.719	17.093	-0.324	-0.256
-573.704	124.030	0.267	0.335
-572.690	136.461	0.197	-0.256
-571.675	800.000	-0.070	0.298
-570.661	-34.231	0.197	-0.108
-569.646	-34.068	-0.098	0.054
-568.631	133.018	0.214	0.275
-567.617	-104.399	-0.347	-0.080
-566.602	126.656	0.093	-0.117
-565.588	-97.192	0.358	0.093
-564.573	-66.914	0.301	0.119
-563.558	45.539	0.165	-0.152
-562.544	128.372	-0.172	-0.219
-561.529	586.898	0.027	-0.066
-560.515	330.333	-0.035	0.067
-559.500	142.670	-0.048	0.064
-558.485	-200.000	0.001	0.068
-557.471	800.000	-0.059	0.225
-556.456	45.523	-0.109	-0.101
-555.442	800.000	0.103	-0.378
-554.427	-200.000	0.009	0.224
-553.412	-103.016	-0.077	0.018
-552.398	-81.314	-0.046	-0.015
-551.383	-139.707	-0.176	0.019
-550.369	235.989	0.069	-0.113
-549.354	-172.239	-0.310	0.010
-548.339	-54.252	-0.091	-0.041
-547.325	128.383	-0.235	-0.299
-546.310	480.158	0.084	-0.190
-545.296	-159.333	0.199	0.011
-544.281	-200.000	0.013	-0.384
-543.266	64.347	0.052	-0.052
-542.252	800.000	-0.015	0.046
-541.237	-44.448	0.144	0.072
-540.223	243.585	-0.042	0.070
-539.208	800.000	0.071	-0.288
-538.193	36.516	0.142	-0.125
-537.179	-15.392	0.252	-0.160
-536.164	-44.400	0.033	-0.016
-535.150	-200.000	-0.007	0.282
-534.135	6.259	-0.263	-0.194
-533.121	-3.919	0.424	-0.293
-532.106	-58.857	-0.221	-0.095
-531.091	547.809	0.018	0.043
-530.077	-9.526	-0.199	-0.132
-529.062	800.000	0.055	0.161
-528.048	567.062	0.163	-0.394
-527.033	-200.000	0.041	-0.281
-526.018	537.912	0.072	0.172
-525.004	-200.000	-0.047	0.368
-523.989	-97.449	-0.311	0.081
-522.975	-67.250	-0.103	0.040
-521.960	201.674	-0.136	0.208
-520.945	-78.971	-0.326	0.111
-519.931	-200.000	-0.202	-0.001
-518.916	19.000	0.181	-0.145
-517.902	-7.207	0.184	-0.124
-516.887	-102.844	-0.239	-0.057
-515.872	-108.474	0.155	-0.033
-514.858	-130.112	0.271	0.037
-513.843	265.975	0.009	-0.016
-512.829	-27.658	0.483	0.279
-511.814	548.367	-0.088	0.211
-510.799	-200.000	0.051	-0.371
-509.785	128.905	-0.283	0.359
-508.770	800.000	-0.095	-0.303
-507.756	800.000	-0.019	-0.063
-506.741	-200.000	-0.135	0.000
-505.726	800.000	0.074	-0.226
-504.712	197.318	-0.179	-0.272
-503.697	17.618	0.185	0.146
-502.683	28.916	0.046	-0.039
-501.668	106.922	-0.157	-0.186
-500.653	-75.713	-0.414	0.146
-499.639	-200.000	0.095	0.416
-498.624	-75.875	-0.346	-0.122
-497.610	7.691	0.192	-0.143
-496.595	-122.096	-0.074	-0.012
-495.581	12.804	-0.284	-0.218
-494.566	800.000	-0.055	0.203
-493.551	-12.997	-0.217	0.140
-492.537	30.645	0.283	-0.241
-491.522	-115.261	-0.128	0.024
-490.508	39.013	0.091	-0.081
-489.493	271.977	0.189	-0.331
-488.478	-129.903	-0.093	-0.013
-487.464	-156.305	-0.270	0.017
-486.449	-200.000	-0.036	-0.246
-485.435	-33.287	0.390	0.215
-484.420	-33.369	-0.068	-0.037
-483.405	-61.644	-0.062	0.026
-482.391	777.721	-0.086	-0.234
-481.376	-200.000	-0.001	0.011
-480.362	-139.715	-0.247	-0.026
-479.347	-200.000	0.029	0.153
-478.332	336.660	0.130	-0.251
-477.318	-165.198	-0.248	0.011
-476.303	-200.000	-0.121	0.673
-475.289	800.000	0.059	0.173
-474.274	-24.234	-0.108	0.064
-473.259	-48.434	0.131	0.063
-472.245	223.490	0.140	0.224
-471.230	-73.113	0.154	0.056
-470.216	-200.000	-0.050	-0.234
-469.201	-164.968	0.336	0.015
-468.186	60.375	0.156	0.153
-467.172	-32.315	0.226	0.126
-466.157	-174.188	-0.342	0.010
-465.143	15.411	0.181	0.142
-464.128	81.847	-0.146	-0.157
-463.113	-82.139	0.113	-0.037
-462.099	153.318	0.065	-0.089
-461.084	24.699	-0.300	0.247
-460.070	-6.514	-0.367	-0.248
-459.055	-200.000	0.067	-0.336
-458.040	46.848	-0.179	-0.165
-457.026	-200.000	-0.011	0.289
-456.011	16.422	0.150	0.118
-454.997	-64.331	-0.424	-0.172
-453.982	-47.577	0.192	-0.093
-452.968	390.664	0.060	0.123
-451.953	-135.760	0.120	-0.014
-450.938	-200.000	-0.010	0.084
-449.924	167.918	0.335	0.473
-448.909	-179.811	-0.184	-0.004
-447.895	158.435	-0.109	-0.150
-446.880	300.138	0.116	-0.213
-445.865	128.724	-0.183	-0.232
-444.851	428.516	0.056	-0.119
-443.836	800.000	-0.095	-0.263
-442.822	313.223	0.104	-0.194
-441.807	-200.000	0.009	0.087
-440.792	20.737	-0.224	0.180
-439.778	108.851	0.108	0.128
-438.763	-87.991	0.215	0.064
-437.749	-106.455	0.098	0.022
-436.734	-200.000	0.066	-0.299
-435.719	-95.062	-0.168	-0.045
-434.705	544.795	0.103	0.244
-433.690	61.904	0.255	-0.253
-432.676	-29.250	-0.296	-0.168
-431.661	45.577	-0.068	-0.062
-430.646	-200.000	-0.005	-0.102
-429.632	-120.641	-0.307	-0.052
-428.617	-200.000	0.043	0.306
-427.603	31.889	0.091	0.078
-426.588	-143.925	-0.299	0.028
-425.573	-88.199	0.501	0.149
-424.559	169.231	-0.151	-0.213
-423.544	144.907	-0.257	-0.341
-422.530	800.000	0.037	0.120
-421.515	-200.000	0.021	0.102
-420.500	62.033	0.290	0.286
-419.486	-44.853	-0.275	-0.136
-418.471	800.000	-0.126	-0.398
-417.457	-11.109	-0.153	0.100
-416.442	228.928	-0.097	-0.157
-415.428	90.044	0.163	-0.181
-414.413	-123.726	-0.099	0.015
-413.398	12.452	0.180	0.137
-412.384	-100.908	0.062	0.015
-411.369	53.200	-0.199	-0.189
-410.355	-3.772	0.212	0.146
-409.340	-200.000	0.054	0.248
-408.325	83.867	-0.162	0.175
-407.311	26.637	-0.144	-0.120
-406.296	-200.000	-0.026	-0.124
-405.282	169.634	-0.245	-0.348
-404.267	-31.482	-0.123	0.069
-403.252	-138.608	-0.204	0.022
-402.238	-33.954	0.176	0.096
-401.223	-159.888	-0.114	0.006
-400.209	-200.000	-0.023	-0.333
-399.194	-29.438	0.177	0.100
-398.179	-200.000	-0.016	-0.173
-397.165	-57.535	-0.317	-0.138
-396.150	800.000	0.103	0.298
-395.136	-200.000	-0.041	0.215
-394.121	-37.426	-0.098	0.052
-393.106	46.812	0.052	-0.048
-392.092	147.190	-0.119	0.159
-391.077	664.729	-0.129	-0.331
-390.063	-167.242	-0.438	-0.018
-389.048	800.000	-0.129	0.500
-388.033	-92.873	-0.307	-0.085
-387.019	203.576	-0.115	-0.176
-386.004	-200.000	0.023	-0.120
-384.990	339.040	0.057	0.110
-383.975	-200.000	-0.026	0.190
-382.960	-49.380	0.148	-0.070
-381.946	421.674	-0.191	-0.405
-380.931	112.005	0.177	0.212
-379.917	-161.968	-0.105	0.005
-378.902	371.404	0.093	0.188
-377.888	123.028	-0.066	-0.082
-376.873	-51.444	0.059	-0.027
-375.858	8.960	-0.130	-0.097
-374.844	40.773	0.203	0.181
-373.829	535.341	-0.228	-0.536
-372.815	-5.539	0.112	0.076
-371.800	-95.676	0.173	0.046
-370.785	-70.235	0.037	-0.014
-369.771	-200.000	0.032	0.206
-368.756	33.316	0.299	-0.257
-367.742	-200.000	-0.029	0.153
-366.727	248.483	0.064	0.107
-365.712	-92.066	0.237	-0.067
-364.698	800.000	-0.067	0.200
-363.683	63.103	-0.056	-0.055
-362.669	-200.000	0.000	0.233
-361.654	-200.000	0.020	0.200
-360.639	-18.454	0.352	0.218
-359.625	-200.000	0.009	0.064
-358.610	-123.537	0.174	-0.027
-357.596	-200.000	0.040	0.328
-356.581	-79.456	0.065	0.022
-355.566	435.080	0.132	-0.285
-354.552	56.413	0.047	0.045
-353.537	-131.704	-0.062	-0.008
-352.523	-94.460	0.122	-0.033
-351.508	296.154	0.032	0.058
-350.493	56.881	-0.310	-0.299
-349.479	54.440	0.057	-0.054
-348.464	-200.000	0.008	0.183
-347.450	83.404	-0.078	0.084
-346.435	119.675	0.187	0.230
-345.420	-99.230	0.494	0.124
-344.406	546.478	0.064	0.151
-343.391	800.000	0.054	0.154
-342.377	58.458	0.171	0.166
-341.362	429.892	0.048	-0.104
-340.348	64.371	-0.126	-0.125
-339.333	-200.000	0.006	-0.073
-338.318	108.491	-0.271	-0.319
-337.304	-166.887	0.265	-0.011
-336.289	178.158	0.228	0.329
-335.275	499.517	0.204	0.465
-334.260	-182.179	-0.458	-0.008
-333.245	-200.000	-0.019	-0.139
-332.231	-200.000	-0.051	0.401
-331.216	124.599	-0.104	0.130
-330.202	-9.805	0.276	-0.182
-329.187	33.059	0.087	0.075
-328.172	-200.000	-0.008	0.150
-327.158	48.901	-0.076	0.071
-326.143	-65.949	-0.229	-0.090
-325.129	38.946	-0.135	-0.119
-324.114	800.000	0.125	-0.408
-323.099	800.000	0.138	0.451
-322.085	-58.217	0.286	0.123
-321.070	-200.000	0.003	-0.117
-320.056	-3.480	-0.080	-0.055
-319.041	-155.818	0.170	-0.011
-318.026	370.234	0.043	-0.087
-317.012	246.426	-0.170	0.283
-315.997	-38.504	-0.074	0.039
-314.983	-98.879	-0.080	-0.020
-313.968	29.736	-0.175	0.147
-312.953	449.917	0.067	-0.147
-311.939	-134.249	0.208	0.025
-310.924	469.377	-0.070	-0.155
-309.910	800.000	0.082	0.256
-308.895	-200.000	-0.004	0.592
-307.880	-70.632	0.271	-0.101
-306.866	132.047	0.155	-0.197
-305.851	-200.000	0.044	-0.443
-304.837	17.776	0.173	-0.136
-303.822	207.303	-0.039	-0.060
-302.807	-19.635	0.318	0.194
-301.793	250.552	-0.098	-0.165
-300.778	315.161	0.152	-0.282
-299.764	-200.000	-0.023	0.102
-298.749	496.226	-0.018	0.040
-297.735	-2.000	-0.137	0.095
-296.720	-152.972	0.110	0.008
-295.705	-19.730	0.206	-0.126
-294.691	799.634	0.076	0.206
-293.676	250.748	-0.036	-0.061
-292.662	-193.871	-0.045	0.000
-291.647	133.469	0.169	0.216
-290.632	-161.110	-0.128	0.007
-289.618	800.000	0.054	0.212
-288.603	-200.000	-0.013	-0.079
-287.589	10.788	-0.278	0.209
-286.574	33.427	-0.096	0.082
-285.559	-48.838	0.171	-0.081
-284.545	73.710	0.199	-0.206
-283.530	-200.000	0.005	0.040
-282.516	-139.536	-0.096	-0.010
-281.501	-200.000	-0.042	0.184
-280.486	-200.000	-0.012	0.430
-279.472	-20.907	-0.141	0.085
-278.457	44.139	-0.127	-0.115
-277.443	45.512	0.309	-0.282
-276.428	-143.183	-0.360	-0.034
-275.413	-55.705	0.017	-0.007
-274.399	9.605	0.169	-0.126
-273.384	67.638	-0.161	0.163
-272.370	621.210	-0.086	0.213
-271.355	-11.175	0.236	0.153
-270.340	-27.240	-0.289	-0.166
-269.326	-82.497	-0.141	-0.045
-268.311	146.185	0.204	-0.271
-267.297	19.608	0.150	-0.119
-266.282	-170.519	-0.227	-0.008
-265.267	101.943	0.218	-0.251
-264.253	181.043	-0.241	-0.349
-263.238	-200.000	0.008	-0.153
-262.224	-111.083	0.174	0.035
-261.209	-165.275	0.062	-0.003
-260.195	679.381	-0.086	0.221
-259.180	14.177	-0.048	0.037
-258.165	97.774	0.202	0.229
-257.151	-200.000	0.013	-0.156
-256.136	-200.000	0.013	0.150
-255.122	-200.000	-0.009	-0.190
-254.107	-200.000	-0.010	0.123
-253.092	84.102	0.149	0.160
-252.078	-54.643	-0.305	0.136
-251.063	-200.000	0.345	0.001
-250.049	-91.183	-0.097	0.028
-249.034	192.887	0.204	-0.303
-248.019	-169.529	-0.175	0.006
-247.005	-39.341	0.172	-0.089
-245.990	414.726	0.085	0.178
-244.976	273.385	-0.041	-0.071
-243.961	-200.000	0.315	0.000
-242.946	-49.591	-0.203	0.095
-241.932	84.077	0.152	0.163
-240.917	-97.186	-0.237	0.061
-239.903	-113.732	0.104	0.020
-238.888	-27.829	0.378	-0.216
-237.873	182.914	0.047	0.069
-236.859	-48.666	-0.103	-0.049
-235.844	194.166	0.267	-0.399
-234.830	800.000	-0.027	0.117
-233.815	-200.000	0.052	-0.325
-232.800	80.612	-0.147	-0.156
-231.786	6.185	0.190	0.139
-230.771	168.444	0.173	0.243
-229.757	-37.155	-0.070	-0.037
-228.742	253.476	0.240	0.403
-227.727	-52.130	-0.291	0.133
-226.713	95.387	-0.130	0.146
-225.698	14.702	0.198	-0.152
-224.684	800.000	0.091	-0.319
-223.669	-26.314	-0.135	-0.078
-222.655	229.629	0.105	-0.168
-221.640	-9.342	-0.146	0.096
-220.625	80.884	-0.104	0.110
-219.611	800.000	0.036	-0.152
-218.596	-11.854	0.094	-0.061
-217.582	-40.496	0.190	0.097
-216.567	-54.737	0.287	0.128
-215.552	-110.230	-0.133	0.027
-214.538	-200.000	0.002	-0.102
-213.523	-6.907	0.083	-0.056
-212.509	703.616	0.077	-0.200
-211.494	280.343	-0.043	-0.076
-210.479	-200.000	-0.029	0.281
-209.465	-1.426	0.055	0.038
-208.450	403.151	-0.115	-0.239
-207.436	-54.210	0.094	-0.042
-206.421	-54.550	-0.269	0.120
-205.406	800.000	0.030	-0.113
-204.392	-200.000	0.056	0.307
-203.377	-177.903	-0.236	0.006
-202.363	108.988	0.112	0.132
-201.348	-200.000	0.019	-0.147
-200.333	-121.861	-0.135	0.022
-199.319	319.751	-0.072	-0.134
-198.304	-97.987	-0.261	-0.066
-197.290	18.797	0.103	0.081
-196.275	-200.000	-0.002	0.170
-195.260	-200.000	0.023	-0.171
-194.246	89.003	-0.081	-0.089
-193.231	150.864	-0.174	0.232
-192.217	632.801	-0.036	-0.090
-191.202	-85.633	-0.086	-0.026
-190.187	-200.000	-0.022	0.234
-189.173	-43.741	0.216	0.107
-188.158	-200.000	0.000	0.099
-187.144	123.248	0.025	0.031
-186.129	-200.000	-0.026	-0.143
-185.114	-153.899	-0.237	-0.016
-184.100	77.787	0.240	0.252
-183.085	-95.056	0.163	-0.043
-182.071	140.467	0.202	-0.262
-181.056	-86.028	-0.135	0.041
-180.042	-133.023	0.219	-0.027
-179.027	-200.000	0.004	0.149
-178.012	20.973	-0.070	-0.056
-176.998	-26.105	0.175	0.101
-175.983	800.000	-0.043	-0.182
-174.969	-141.894	0.396	0.039
-173.954	213.419	0.083	0.129
-172.939	61.893	0.099	-0.097
-171.925	-159.291	-0.201	0.011
-170.910	-78.126	-0.218	0.074
-169.896	568.355	0.063	0.149
-168.881	-68.165	-0.030	-0.011
-167.866	-126.352	-0.225	-0.033
-166.852	-200.000	0.029	-0.206
-165.837	-137.127	-0.207	-0.023
-164.823	-194.889	0.322	-0.002
-163.808	-116.503	0.206	-0.037
-162.793	187.959	-0.038	-0.056
-161.779	-200.000	0.006	-0.252
-160.764	-22.736	0.264	0.156
-159.750	-111.064	0.163	-0.033
-158.735	-22.786	0.482	-0.286
-157.720	349.833	-0.223	0.433
-156.706	487.987	-0.193	0.433
-155.691	50.361	-0.160	0.148
-154.677	-41.908	-0.303	-0.153
-153.662	199.053	0.126	0.190
-152.647	-57.379	-0.291	0.125
-151.633	25.831	-0.068	0.056
-150.618	-200.000	-0.002	0.044
-149.604	-50.125	-0.080	-0.037
-148.589	-118.367	0.189	0.033
-147.574	52.164	-0.201	-0.188
-146.560	-30.978	-0.354	0.196
-145.545	-117.880	0.085	-0.015
-144.531	-200.000	-0.017	0.203
-143.516	-116.134	-0.213	0.039
-142.502	800.000	0.069	-0.296
-141.487	-200.000	0.041	-0.198
-140.472	30.344	-0.104	0.087
-139.458	800.000	0.024	0.083
-138.443	341.398	-0.072	0.137
-137.429	1.894	-0.248	0.176
-136.414	-26.319	0.131	-0.076
-135.399	-109.311	0.172	0.036
-134.385	-14.863	0.138	0.087
-133.370	-117.490	0.114	-0.020
-132.356	53.936	0.114	-0.108
-131.341	800.000	-0.102	0.353
-130.326	-138.388	-0.401	-0.043
-129.312	-54.786	0.225	0.100
-128.297	597.641	0.092	-0.223
-127.283	-119.210	0.161	0.028
-126.268	-22.382	0.145	0.086
-125.253	0.543	0.070	-0.049
-124.239	187.655	0.228	0.333
-123.224	-200.000	0.037	0.200
-122.210	89.933	-0.208	0.228
-121.195	800.000	0.160	0.476
-120.180	36.413	-0.300	0.259
