DTS Sentinel unit serial number:	SN413079Multiplexer serial number:	ORYXHardware model number:	OX4-SRSoftware version number:	ORYX F/W v4.00 Oryx Data Collector v3.7.2.0data status	okinstallation	princeton_trtdifferential loss correction	single-endedforward channel	channel 3reverse channel	N/Adate	2019/09/17time	23:56:35forward acquisition time	60.00reverse acquisition time	0.00gamma	496.2192k internal	0.2344k external	0.2344temperature offset calibration	0.9952default loss term (dB/km)	0.3790temperature slope calibration	1.0000multiplexer offset coefficient	1.0000multiplexer slope coefficient	1.0000fibre end	0.00T internal ref (°C)	23.92T ext. ref 1 (°C)	0.16T ext. ref 2 (°C)	17.28length (m)	temperature (°C)	Stokes	anti-Stokes-747.200	12.356	-0.206	-0.159
-746.185	128.913	-0.215	-0.275
-745.171	-151.188	0.250	-0.019
-744.156	-200.000	-0.002	0.211
-743.142	-129.465	0.395	-0.055
-742.127	-189.784	-0.130	-0.001
-741.112	-200.000	0.043	-0.251
-740.098	403.697	-0.096	0.202
-739.083	145.134	0.289	0.387
-738.069	-119.572	-0.319	0.055
-737.054	-84.298	-0.206	-0.065
-736.039	142.206	-0.186	0.247
-735.025	800.000	0.065	0.185
-734.010	800.000	-0.013	0.054
-732.996	-121.947	-0.354	-0.058
-731.981	0.490	-0.072	0.051
-730.966	800.000	0.022	0.072
-729.952	-63.623	0.207	-0.085
-728.937	-200.000	-0.063	0.289
-727.923	-115.797	-0.454	-0.085
-726.908	33.135	-0.301	-0.261
-725.894	-200.000	0.032	-0.279
-724.879	-35.345	-0.199	0.108
-723.864	-72.984	0.232	0.085
-722.850	219.589	0.080	0.128
-721.835	120.982	-0.217	-0.270
-720.821	566.234	-0.101	0.244
-719.806	-39.352	-0.204	0.107
-718.791	164.605	-0.068	-0.097
-717.777	-80.015	-0.170	0.057
-716.762	-200.000	-0.006	0.107
-715.748	-91.141	-0.050	-0.014
-714.733	-7.666	0.356	-0.240
-713.718	157.622	-0.129	-0.178
-712.704	209.879	-0.069	-0.108
-711.689	797.711	-0.143	-0.395
-710.675	140.668	-0.060	0.079
-709.660	-146.550	0.439	-0.038
-708.645	35.292	0.145	-0.127
-707.631	-29.101	0.387	0.222
-706.616	-187.802	-0.064	0.001
-705.602	-124.987	0.443	-0.068
-704.587	-199.204	-0.316	-0.002
-703.572	0.031	0.089	0.064
-702.558	-145.294	-0.335	0.030
-701.543	357.676	-0.146	-0.291
-700.529	-134.986	0.229	-0.028
-699.514	71.369	0.120	0.125
-698.499	-158.873	-0.106	0.006
-697.485	18.989	-0.249	-0.199
-696.470	-200.000	-0.053	0.348
-695.456	310.040	-0.294	-0.549
-694.441	800.000	0.044	-0.161
-693.426	274.543	-0.041	0.072
-692.412	-200.000	-0.008	0.072
-691.397	-46.940	0.434	-0.212
-690.383	-73.446	-0.191	-0.070
-689.368	-57.812	-0.342	0.149
-688.354	-200.000	-0.034	-0.297
-687.339	-200.000	0.022	-0.132
-686.324	116.839	0.121	-0.149
-685.310	-103.067	-0.225	0.053
-684.295	216.554	0.058	-0.093
-683.281	-35.804	-0.189	0.102
-682.266	782.255	-0.076	-0.209
-681.251	-72.629	-0.031	-0.012
-680.237	516.113	-0.152	-0.355
-679.222	-76.596	0.344	0.120
-678.208	-3.921	0.035	-0.025
-677.193	-200.000	-0.030	-0.311
-676.178	-25.206	-0.254	0.150
-675.164	229.851	-0.128	-0.209
-674.149	-200.000	0.020	-0.184
-673.135	-74.367	0.227	0.082
-672.120	-34.672	-0.192	-0.105
-671.105	-12.308	0.367	-0.239
-670.091	-43.289	-0.186	0.094
-669.076	-85.972	0.241	-0.074
-668.062	4.485	0.141	0.103
-667.047	516.103	0.054	-0.127
-666.032	-52.161	-0.183	-0.085
-665.018	-39.286	-0.355	0.186
-664.003	83.881	-0.067	-0.073
-662.989	-107.214	-0.274	-0.060
-661.974	-200.000	-0.015	0.201
-660.959	208.219	0.053	0.083
-659.945	206.874	-0.256	0.398
-658.930	213.488	-0.225	0.355
-657.916	77.014	-0.259	0.274
-656.901	112.036	-0.184	0.222
-655.886	-200.000	-0.011	0.107
-654.872	-39.974	-0.206	-0.107
-653.857	-156.243	0.148	-0.009
-652.843	264.208	0.040	0.070
-651.828	289.753	0.166	-0.301
-650.814	-134.342	-0.273	-0.033
-649.799	35.047	-0.146	0.127
-648.784	-200.000	-0.006	0.446
-647.770	-200.000	-0.032	0.332
-646.755	-200.000	0.051	-0.495
-645.741	301.747	0.106	-0.195
-644.726	-200.000	-0.085	-0.556
-643.711	74.520	-0.125	0.131
-642.697	800.000	-0.078	0.327
-641.682	800.000	0.097	0.311
-640.668	409.598	-0.035	-0.075
-639.653	320.585	-0.034	0.065
-638.638	-200.000	-0.055	-0.402
-637.624	124.758	-0.106	0.133
-636.609	18.528	0.241	0.192
-635.595	800.000	-0.063	0.200
-634.580	-200.000	-0.008	-0.295
-633.565	-120.659	-0.139	-0.023
-632.551	479.641	0.067	-0.152
-631.536	200.215	-0.122	0.186
-630.522	48.592	0.189	0.176
-629.507	-119.900	-0.249	0.043
-628.492	24.187	0.093	0.077
-627.478	-200.000	-0.016	0.295
-626.463	-60.107	0.090	-0.038
-625.449	-13.054	0.369	-0.239
-624.434	117.955	-0.230	-0.282
-623.419	800.000	-0.150	-0.416
-622.405	-91.085	-0.380	-0.109
-621.390	140.301	0.047	-0.061
-620.376	-39.822	0.215	0.112
-619.361	249.179	-0.194	-0.328
-618.346	-20.663	-0.512	-0.313
-617.332	185.147	-0.113	-0.167
-616.317	117.189	0.132	0.161
-615.303	-39.940	0.471	0.245
-614.288	-124.973	-0.355	0.054
-613.273	-46.193	-0.110	0.054
-612.259	-43.499	-0.198	-0.100
-611.244	800.000	0.057	0.240
-610.230	-33.102	0.142	-0.079
-609.215	-83.736	-0.098	-0.031
-608.201	19.890	-0.091	0.073
-607.186	85.973	0.279	0.305
-606.171	30.500	0.364	0.310
-605.157	-200.000	-0.004	0.284
-604.142	59.954	-0.032	0.032
-603.128	76.016	0.274	-0.289
-602.113	-120.787	-0.139	-0.023
-601.098	-31.182	0.380	0.213
-600.084	2.837	-0.354	0.255
-599.069	142.682	0.105	-0.139
-598.055	-200.000	0.015	-0.193
-597.040	-115.742	0.122	-0.023
-596.025	-133.857	-0.160	0.020
-595.011	-90.816	-0.143	-0.041
-593.996	-143.631	0.083	-0.008
-592.982	-200.000	-0.014	0.453
-591.967	-99.342	0.276	-0.069
-590.952	-101.178	0.231	-0.056
-589.938	-148.758	-0.090	-0.007
-588.923	-77.408	-0.151	-0.052
-587.909	634.128	0.052	0.132
-586.894	-84.274	-0.448	-0.141
-585.879	80.650	-0.166	0.178
-584.865	-62.605	-0.417	-0.172
-583.850	-13.365	-0.111	0.072
-582.836	-200.000	-0.005	-0.262
-581.821	18.340	0.118	-0.094
-580.806	340.401	-0.145	-0.282
-579.792	-55.998	-0.167	-0.074
-578.777	-129.464	-0.096	-0.013
-577.763	221.608	0.235	-0.376
-576.748	-200.000	0.013	-0.169
-575.733	100.932	-0.152	0.175
-574.719	-109.996	0.234	0.049
-573.704	125.259	-0.077	-0.096
-572.690	199.808	-0.035	-0.053
-571.675	33.194	-0.165	-0.143
-570.661	800.000	-0.039	-0.153
-569.646	46.410	-0.161	-0.148
-568.631	168.880	-0.186	-0.264
-567.617	733.065	0.160	-0.425
-566.602	-115.195	-0.161	0.030
-565.588	670.493	0.163	0.419
-564.573	-200.000	0.032	0.207
-563.558	-29.291	-0.269	-0.153
-562.544	722.669	0.113	-0.300
-561.529	394.338	-0.173	-0.358
-560.515	800.000	0.102	-0.282
-559.500	252.096	-0.153	0.258
-558.485	-200.000	0.028	0.336
-557.471	-136.427	-0.252	-0.029
-556.456	208.358	0.066	-0.103
-555.442	8.235	-0.150	-0.112
-554.427	800.000	0.016	0.057
-553.412	9.225	-0.035	-0.026
-552.398	182.119	0.121	0.178
-551.383	-147.168	0.371	0.031
-550.369	-128.663	-0.175	-0.025
-549.354	-18.323	0.173	0.107
-548.339	127.861	-0.168	0.212
-547.325	-200.000	-0.018	0.128
-546.310	-200.000	0.017	0.161
-545.296	130.219	-0.112	0.142
-544.281	-147.659	-0.120	-0.010
-543.266	-200.000	0.023	0.263
-542.252	-139.549	-0.241	-0.026
-541.237	21.745	0.075	-0.060
-540.223	-200.000	0.013	-0.106
-539.208	-67.877	-0.143	-0.055
-538.193	32.064	-0.043	0.037
-537.179	-81.617	-0.481	-0.157
-536.164	-81.518	0.092	-0.030
-535.150	-101.453	0.346	-0.084
-534.135	-129.694	0.390	0.053
-533.121	-130.189	0.080	0.011
-532.106	21.275	-0.157	0.127
-531.091	-200.000	0.006	-0.036
-530.077	146.384	0.273	-0.363
-529.062	-109.367	-0.160	0.034
-528.048	-123.602	-0.173	0.027
-527.033	800.000	0.019	0.070
-526.018	-11.281	-0.225	0.147
-525.004	105.430	0.158	0.186
-523.989	195.778	-0.022	0.034
-522.975	347.311	0.060	0.116
-521.960	-147.752	0.257	0.021
-520.945	67.277	0.084	0.085
-519.931	158.637	-0.097	-0.133
-518.916	295.323	-0.177	-0.322
-517.902	800.000	0.053	-0.152
-516.887	700.361	0.067	-0.176
-515.872	-107.259	-0.023	0.005
-514.858	-165.410	-0.089	-0.004
-513.843	800.000	-0.043	-0.146
-512.829	-137.009	0.281	0.032
-511.814	112.598	-0.162	-0.194
-510.799	-99.551	-0.217	0.054
-509.785	192.346	-0.107	0.160
-508.770	800.000	0.040	0.156
-507.756	148.085	-0.093	0.125
-506.741	-142.866	0.376	-0.036
-505.726	-64.447	-0.329	-0.132
-504.712	-200.000	-0.031	-0.324
-503.697	152.732	0.076	0.103
-502.683	-193.914	-0.323	0.003
-501.668	773.881	0.077	0.207
-500.653	-200.000	0.002	-0.279
-499.639	-200.000	-0.036	0.241
-498.624	60.352	0.381	0.374
-497.610	119.832	0.041	-0.050
-496.595	130.812	-0.199	-0.253
-495.581	73.496	0.022	-0.023
-494.566	800.000	-0.039	-0.107
-493.551	138.378	0.079	-0.103
-492.537	-200.000	0.007	-0.048
-491.522	320.137	-0.104	-0.195
-490.508	-77.162	0.153	-0.053
-489.493	192.017	0.192	-0.288
-488.478	-200.000	0.020	-0.135
-487.464	-200.000	-0.042	0.259
-486.449	-200.000	-0.006	0.181
-485.435	-156.745	-0.220	0.013
-484.420	-200.000	0.032	0.232
-483.405	40.825	0.135	0.121
-482.391	-88.300	0.338	-0.100
-481.376	203.045	0.055	0.085
-480.362	800.000	-0.097	-0.327
-479.347	-55.712	-0.174	-0.077
-478.332	-200.000	-0.008	-0.200
-477.318	800.000	-0.081	0.282
-476.303	283.273	-0.096	0.171
-475.289	113.201	0.176	0.211
-474.274	-50.657	0.177	0.083
-473.259	194.133	-0.200	0.300
-472.245	146.798	-0.097	0.129
-471.230	-200.000	-0.031	0.139
-470.216	80.554	-0.177	0.189
-469.201	-200.000	0.027	-0.252
-468.186	-119.117	-0.254	0.044
-467.172	-18.633	-0.326	0.202
-466.157	-158.344	0.059	0.003
-465.143	-149.864	-0.151	0.012
-464.128	581.919	0.090	-0.218
-463.113	-71.817	-0.332	-0.122
-462.099	-4.532	-0.062	-0.043
-461.084	16.232	-0.195	-0.152
-460.070	-54.983	-0.284	0.127
-459.055	49.914	0.175	-0.163
-458.040	109.268	-0.302	0.358
-457.026	800.000	-0.037	0.155
-456.011	458.233	0.043	0.094
-454.997	-29.171	0.324	0.184
-453.982	69.676	0.180	0.184
-452.968	569.434	-0.052	-0.126
-451.953	208.501	-0.292	0.452
-450.938	800.000	-0.004	-0.018
-449.924	672.328	-0.054	0.137
-448.909	-23.250	-0.291	0.173
-447.895	-51.858	-0.100	0.046
-446.880	34.052	-0.075	0.064
-445.865	112.885	-0.038	0.046
-444.851	-47.907	0.036	0.017
-443.836	6.495	-0.103	0.076
-442.822	-88.103	0.074	0.022
-441.807	-75.002	-0.086	-0.030
-440.792	-16.179	-0.102	0.064
-439.778	-82.699	0.255	-0.082
-438.763	371.407	0.111	-0.223
-437.749	101.091	-0.100	-0.115
-436.734	65.084	0.171	0.171
-435.719	-8.442	-0.104	0.069
-434.705	79.661	0.295	0.313
-433.690	36.941	-0.097	-0.084
-432.676	50.125	-0.110	0.103
-431.661	-51.745	-0.148	0.068
-430.646	-139.842	-0.346	-0.036
-429.632	-200.000	0.030	0.144
-428.617	-72.239	0.231	0.085
-427.603	-30.715	-0.171	0.095
-426.588	-103.391	0.126	-0.029
-425.573	127.148	0.169	0.212
-424.559	800.000	-0.066	0.216
-423.544	75.488	-0.183	0.191
-422.530	-200.000	0.015	-0.191
-421.515	-200.000	0.029	0.215
-420.500	-70.656	-0.122	0.046
-419.486	-81.375	0.187	0.061
-418.471	-200.000	-0.011	0.086
-417.457	-200.000	0.055	-0.502
-416.442	143.001	-0.119	-0.156
-415.428	-83.719	-0.355	0.112
-414.413	-97.944	0.118	-0.030
-413.398	-200.000	-0.006	0.154
-412.384	-59.957	-0.020	0.008
-411.369	-200.000	0.015	0.118
-410.355	-19.717	-0.207	0.126
-409.340	-21.544	0.246	0.148
-408.325	-122.110	0.109	-0.018
-407.311	702.674	0.087	0.227
-406.296	-29.785	-0.384	-0.216
-405.282	800.000	-0.043	-0.128
-404.267	800.000	0.071	-0.267
-403.252	238.493	0.146	0.239
-402.238	-61.444	-0.196	0.081
-401.223	62.395	-0.071	-0.070
-400.209	-69.908	-0.185	-0.070
-399.194	250.079	-0.183	0.306
-398.179	100.764	0.182	-0.209
-397.165	-61.159	0.168	0.070
-396.150	4.503	0.234	0.170
-395.136	-38.153	0.090	-0.047
-394.121	454.798	0.035	-0.078
-393.106	57.835	-0.311	0.300
-392.092	-200.000	0.026	0.419
-391.077	-80.888	0.370	-0.121
-390.063	-200.000	-0.041	-0.194
-389.048	-20.308	-0.146	0.089
-388.033	-200.000	0.026	-0.152
-387.019	103.554	0.067	0.078
-386.004	224.927	-0.279	-0.445
-384.990	148.898	-0.116	-0.154
-383.975	800.000	0.066	0.195
-382.960	29.619	0.205	-0.172
-381.946	-153.849	0.225	-0.015
-380.931	-126.155	0.070	-0.010
-379.917	800.000	0.038	-0.158
-378.902	-200.000	0.016	0.081
-377.888	-9.457	-0.456	0.300
-376.873	-45.649	-0.123	-0.060
-375.858	-200.000	0.007	-0.172
-374.844	-56.675	0.140	0.061
-373.829	234.254	-0.104	-0.169
-372.815	-158.497	0.237	-0.014
-371.800	800.000	0.066	-0.227
-370.785	-200.000	-0.038	-0.528
-369.771	320.496	0.179	-0.336
-368.756	137.590	0.061	-0.079
-367.742	-18.374	-0.142	-0.087
-366.727	-200.000	-0.026	0.278
-365.712	-159.312	-0.289	0.016
-364.698	428.968	0.079	0.168
-363.683	800.000	0.048	-0.148
-362.669	793.220	0.062	-0.168
-361.654	56.643	-0.058	-0.056
-360.639	-200.000	0.046	0.220
-359.625	800.000	0.059	0.223
-358.610	296.290	-0.045	-0.081
-357.596	298.865	-0.006	-0.010
-356.581	800.000	0.047	0.202
-355.566	72.997	0.223	0.230
-354.552	-156.229	0.098	0.006
-353.537	281.019	0.109	0.192
-352.523	-107.355	-0.317	-0.069
-351.508	480.274	0.129	-0.288
-350.493	-107.022	0.250	0.054
-349.479	-6.186	-0.067	0.045
-348.464	180.782	0.049	-0.071
-347.450	84.173	0.193	-0.207
-346.435	9.237	0.286	-0.213
-345.420	94.305	-0.039	-0.044
-344.406	31.163	0.062	0.052
-343.391	-68.843	-0.295	-0.112
-342.377	-107.248	0.110	-0.024
-341.362	69.952	0.045	0.045
-340.348	536.969	-0.067	-0.157
-339.333	40.206	-0.149	0.132
-338.318	751.307	-0.118	-0.315
-337.304	800.000	0.128	0.366
-336.289	-200.000	-0.053	-0.250
-335.275	-152.125	0.205	0.015
-334.260	59.058	0.025	0.024
-333.245	-56.204	-0.204	0.089
-332.231	-91.195	0.105	0.030
-331.216	213.481	0.095	0.148
-330.202	65.952	0.028	0.028
-329.187	-99.305	0.276	-0.068
-328.172	-0.932	-0.321	-0.224
-327.158	241.494	0.115	0.190
-326.143	419.514	0.153	0.322
-325.129	-83.960	0.210	-0.066
-324.114	800.000	-0.076	0.307
-323.099	-36.900	0.231	-0.122
-322.085	-42.849	-0.267	-0.133
-321.070	148.535	0.329	0.437
-320.056	243.869	-0.157	-0.259
-319.041	-25.073	0.212	0.124
-318.026	-105.724	0.086	-0.019
-317.012	-84.793	0.449	-0.139
-315.997	-52.658	0.049	0.022
-314.983	-21.071	-0.108	-0.065
-313.968	192.791	0.109	-0.162
-312.953	-82.955	-0.075	-0.024
-311.939	800.000	-0.018	0.072
-310.924	8.957	0.177	-0.132
-309.910	-187.135	0.132	-0.002
-308.895	274.220	0.118	-0.206
-307.880	800.000	-0.031	-0.102
-306.866	-162.449	-0.304	0.015
-305.851	-81.467	-0.113	-0.037
-304.837	431.422	-0.107	0.227
-303.822	-200.000	-0.019	-0.106
-302.807	23.881	0.217	0.176
-301.793	-52.818	-0.146	-0.066
-300.778	800.000	-0.030	-0.114
-299.764	-84.436	-0.085	0.026
-298.749	95.674	0.192	0.215
-297.735	-108.542	0.291	0.061
-296.720	42.117	0.028	-0.025
-295.705	-128.920	0.196	0.027
-294.691	800.000	0.040	-0.166
-293.676	800.000	-0.091	-0.261
-292.662	-19.303	0.166	0.101
-291.647	131.165	-0.179	0.227
-290.632	800.000	0.101	-0.322
-289.618	36.891	0.286	0.249
-288.603	103.352	0.189	-0.218
-287.589	-200.000	-0.021	-0.150
-286.574	77.456	0.433	0.452
-285.559	800.000	-0.055	0.207
-284.545	167.208	-0.223	0.312
-283.530	-136.463	-0.334	0.038
-282.516	77.114	0.166	-0.173
-281.501	-200.000	-0.027	0.158
-280.486	800.000	0.008	0.027
-279.472	59.609	0.136	0.132
-278.457	-13.083	-0.223	0.142
-277.443	-95.099	0.420	-0.111
-276.428	-24.421	-0.141	0.082
-275.413	324.548	0.128	0.241
-274.399	-104.849	-0.346	0.078
-273.384	69.624	0.180	0.182
-272.370	195.372	0.108	-0.161
-271.355	31.346	0.032	-0.027
-270.340	53.863	0.188	0.177
-269.326	60.434	0.185	-0.180
-268.311	-185.995	-0.065	-0.001
-267.297	105.658	0.133	0.155
-266.282	-94.257	-0.236	0.063
-265.267	-200.000	-0.023	0.258
-264.253	215.680	0.184	-0.287
-263.238	-200.000	0.031	0.184
-262.224	79.803	-0.117	-0.123
-261.209	381.271	-0.157	0.316
-260.195	87.866	-0.115	0.125
-259.180	-90.430	0.085	0.024
-258.165	-37.626	0.117	0.061
-257.151	234.050	0.134	0.216
-256.136	-98.429	-0.311	-0.078
-255.122	0.772	0.068	0.048
-254.107	-193.804	0.509	-0.004
-253.092	494.317	-0.110	-0.248
-252.078	-165.479	0.027	0.001
-251.063	800.000	0.056	-0.200
-250.049	-63.543	0.049	-0.020
-249.034	-154.520	0.267	0.018
-248.019	-200.000	0.037	0.225
-247.005	-136.027	-0.242	0.028
-245.990	-140.405	-0.301	0.031
-244.976	397.686	-0.207	0.424
-243.961	-129.434	-0.091	-0.012
-242.946	-200.000	-0.013	0.246
-241.932	-200.000	-0.063	-0.342
-240.917	-75.689	-0.080	-0.028
-239.903	99.098	0.114	-0.129
-238.888	1.315	0.296	-0.209
-237.873	196.934	-0.055	-0.082
-236.859	-41.544	0.391	-0.197
-235.844	47.593	0.137	-0.125
-234.830	-200.000	0.005	-0.245
-233.815	800.000	-0.099	0.365
-232.800	800.000	0.082	-0.282
-231.786	-99.951	-0.259	0.063
-230.771	365.857	-0.118	-0.234
-229.757	-4.097	0.408	-0.277
-228.742	-167.412	0.105	-0.004
-227.727	-200.000	0.020	0.113
-226.713	68.201	-0.118	0.118
-225.698	783.323	0.037	0.100
-224.684	-71.302	-0.189	0.070
-223.669	-25.575	-0.267	0.155
-222.655	800.000	-0.018	-0.050
-221.640	395.270	-0.050	0.103
-220.625	-149.207	-0.331	0.026
-219.611	-136.059	0.287	-0.033
-218.596	-200.000	-0.019	-0.190
-217.582	14.310	0.078	0.060
-216.567	-67.661	0.280	-0.108
-215.552	-59.039	-0.366	-0.155
-214.538	786.359	-0.070	-0.189
-213.523	-76.384	-0.132	0.045
-212.509	526.356	0.117	0.269
-211.494	230.620	0.085	-0.136
-210.479	-200.000	0.196	0.000
-209.465	-138.057	0.359	0.039
-208.450	-74.617	0.234	-0.083
-207.436	112.526	0.061	-0.072
-206.421	28.412	-0.283	-0.235
-205.406	-200.000	-0.040	-0.284
-204.392	65.887	0.166	-0.165
-203.377	-200.000	0.043	-0.215
-202.363	66.922	-0.178	0.178
-201.348	264.193	-0.089	0.152
-200.333	800.000	-0.119	-0.401
-199.319	326.192	0.214	-0.401
-198.304	800.000	-0.039	-0.115
-197.290	291.261	-0.031	-0.056
-196.275	800.000	0.067	-0.281
-195.260	130.559	0.098	-0.123
-194.246	800.000	0.029	0.115
-193.231	216.019	0.190	-0.295
-192.217	3.346	0.112	0.080
-191.202	34.840	0.152	0.131
-190.187	-90.233	-0.014	-0.004
-189.173	-200.000	-0.008	0.135
-188.158	348.457	0.038	-0.073
-187.144	-200.000	-0.050	-0.223
-186.129	-68.634	0.308	-0.117
-185.114	-177.547	0.437	-0.010
-184.100	-200.000	0.006	-0.066
-183.085	644.339	0.112	0.280
-182.071	133.219	-0.074	0.093
-181.056	-200.000	-0.022	-0.130
-180.042	16.003	-0.169	-0.130
-179.027	22.353	-0.138	-0.110
-178.012	660.422	-0.081	-0.205
-176.998	-182.772	0.173	0.003
-175.983	0.628	0.263	0.184
-174.969	27.775	-0.227	-0.187
-173.954	-139.432	0.193	0.020
-172.939	800.000	0.077	0.250
-171.925	800.000	-0.022	0.059
-170.910	-200.000	-0.008	-0.102
-169.896	-164.536	-0.107	-0.005
-168.881	-28.941	-0.095	0.053
-167.866	-200.000	-0.000	-0.061
-166.852	-31.627	-0.038	0.021
-165.837	-200.000	-0.046	-0.455
-164.823	734.959	0.002	-0.006
-163.808	800.000	0.110	-0.317
-162.793	-9.020	-0.187	-0.122
-161.779	-200.000	0.021	0.102
-160.764	-50.002	-0.203	0.094
-159.750	11.653	0.252	0.189
-158.735	61.909	-0.081	-0.079
-157.720	710.145	-0.182	0.471
-156.706	-42.475	-0.255	0.127
-155.691	693.758	-0.062	0.160
-154.677	-62.475	0.073	0.029
-153.662	237.811	0.097	0.157
-152.647	8.603	0.178	-0.131
-151.633	800.000	-0.032	0.132
-150.618	-71.054	0.233	-0.086
-149.604	46.538	-0.078	0.071
-148.589	-110.219	-0.087	0.018
-147.574	203.677	0.279	0.423
-146.560	-69.152	-0.301	-0.113
-145.545	-14.698	0.067	0.042
-144.531	-110.309	-0.280	0.057
-143.516	-76.499	0.306	-0.105
-142.502	-200.000	-0.008	-0.117
-141.487	260.568	-0.142	0.241
-140.472	73.917	0.029	0.030
-139.458	242.215	-0.138	0.226
-138.443	-58.020	0.324	0.138
-137.429	27.096	-0.085	0.069
-136.414	800.000	0.070	-0.242
-135.399	144.841	-0.219	-0.286
-134.385	-200.000	-0.033	0.286
-133.370	10.666	0.290	0.216
-132.356	-200.000	-0.062	-0.333
-131.341	-200.000	-0.015	0.239
-130.326	23.991	0.064	-0.051
-129.312	105.991	0.090	-0.104
-128.297	-120.139	0.224	0.038
-127.283	716.238	0.049	-0.128
-126.268	-51.290	-0.115	-0.053
-125.253	-200.000	-0.007	-0.168
-124.239	-200.000	-0.001	-0.008
-123.224	-189.168	0.255	-0.003
-122.210	25.151	-0.091	0.074
-121.195	19.287	0.099	-0.077
