DTS Sentinel unit serial number:	SN413079Multiplexer serial number:	ORYXHardware model number:	OX4-SRSoftware version number:	ORYX F/W v4.00 Oryx Data Collector v3.7.2.0data status	okinstallation	princeton_trtdifferential loss correction	single-endedforward channel	channel 3reverse channel	N/Adate	2019/09/15time	20:00:35forward acquisition time	60.00reverse acquisition time	0.00gamma	496.2192k internal	0.2314k external	0.2314temperature offset calibration	0.9936default loss term (dB/km)	0.3790temperature slope calibration	1.0000multiplexer offset coefficient	1.0000multiplexer slope coefficient	1.0000fibre end	0.00T internal ref (°C)	35.70T ext. ref 1 (°C)	7.56T ext. ref 2 (°C)	26.33length (m)	temperature (°C)	Stokes	anti-Stokes-747.200	-48.729	0.432	-0.210
-746.185	-20.363	-0.096	-0.060
-745.171	-147.933	0.397	-0.033
-744.156	-130.379	-0.361	0.050
-743.142	-166.333	0.117	-0.005
-742.127	-112.018	-0.378	0.077
-741.112	-83.038	0.198	0.065
-740.098	144.492	0.085	0.115
-739.083	115.489	-0.267	-0.331
-738.069	-62.172	-0.204	0.086
-737.054	800.000	-0.045	0.130
-736.039	-200.000	-0.007	0.391
-735.025	44.293	0.091	0.085
-734.010	54.710	-0.081	-0.079
-732.996	64.063	-0.091	0.093
-731.981	8.888	-0.271	0.207
-730.966	-200.000	-0.034	-0.271
-729.952	45.401	-0.193	-0.180
-728.937	54.266	-0.188	-0.183
-727.923	-200.000	-0.009	0.382
-726.908	-200.000	0.039	0.387
-725.894	-63.966	-0.279	0.115
-724.879	183.521	-0.023	-0.035
-723.864	-35.695	0.645	-0.354
-722.850	34.588	-0.062	0.055
-721.835	-143.762	-0.256	0.025
-720.821	-20.398	-0.191	-0.119
-719.806	-24.648	0.072	-0.043
-718.791	-200.000	-0.035	0.271
-717.777	597.559	-0.103	0.258
-716.762	-71.300	-0.239	-0.091
-715.748	156.466	0.060	0.085
-714.733	-11.328	-0.346	-0.230
-713.718	560.620	-0.077	-0.190
-712.704	92.270	-0.254	-0.290
-711.689	800.000	-0.022	0.094
-710.675	126.028	-0.213	0.273
-709.660	292.046	-0.137	-0.252
-708.645	-200.000	-0.015	0.167
-707.631	-68.535	-0.197	-0.077
-706.616	-29.250	-0.100	-0.058
-705.602	800.000	0.058	0.173
-704.587	800.000	-0.052	0.224
-703.572	-66.460	-0.251	0.101
-702.558	214.927	-0.036	0.058
-701.543	78.929	0.071	-0.077
-700.529	-104.296	-0.367	-0.086
-699.514	-65.079	0.284	0.116
-698.499	-148.322	0.095	0.008
-697.485	-200.000	-0.018	0.381
-696.470	-14.937	0.306	0.198
-695.456	429.112	0.192	0.421
-694.441	195.704	-0.029	0.045
-693.426	-200.000	0.045	-0.286
-692.412	-114.394	-0.380	0.074
-691.397	-200.000	0.004	-0.146
-690.383	20.754	-0.131	-0.107
-689.368	-158.308	-0.243	-0.014
-688.354	226.838	-0.068	-0.112
-687.339	195.250	0.372	-0.572
-686.324	-96.594	-0.065	-0.017
-685.310	-167.048	0.261	-0.011
-684.295	-35.916	-0.368	0.201
-683.281	-16.658	0.229	0.147
-682.266	-61.244	-0.233	-0.099
-681.251	174.101	-0.034	-0.050
-680.237	800.000	-0.036	-0.126
-679.222	697.447	0.178	0.472
-678.208	-107.222	-0.220	-0.049
-677.193	752.379	-0.065	0.177
-676.178	-81.489	0.150	-0.050
-675.164	-64.639	-0.205	-0.084
-674.149	249.533	0.142	0.244
-673.135	-200.000	-0.004	0.086
-672.120	-108.065	-0.020	-0.004
-671.105	367.875	-0.011	0.023
-670.091	-74.793	-0.195	0.071
-669.076	800.000	-0.035	0.126
-668.062	-50.926	0.184	-0.088
-667.047	-200.000	0.002	-0.066
-666.032	-87.771	-0.318	-0.097
-665.018	-200.000	0.000	0.011
-664.003	-179.637	0.145	-0.003
-662.989	-115.068	0.039	0.008
-661.974	191.582	0.056	-0.085
-660.959	207.636	-0.072	0.114
-659.945	-78.914	0.230	0.079
-658.930	197.944	0.203	0.313
-657.916	149.978	-0.136	0.187
-656.901	-87.130	-0.294	0.090
-655.886	-129.207	-0.155	0.022
-654.872	-0.908	0.136	0.097
-653.857	176.155	-0.178	-0.261
-652.843	-179.825	0.160	-0.003
-651.828	15.698	-0.041	0.033
-650.814	-177.758	-0.162	0.004
-649.799	-82.363	0.191	-0.063
-648.784	399.168	0.063	0.132
-647.770	76.838	-0.232	-0.249
-646.755	131.901	-0.298	-0.388
-645.741	16.404	-0.208	0.166
-644.726	177.218	-0.080	0.117
-643.711	11.950	-0.222	0.172
-642.697	-200.000	0.015	0.207
-641.682	360.371	-0.118	0.239
-640.668	-200.000	0.004	-0.022
-639.653	800.000	0.100	0.287
-638.638	147.059	0.032	0.043
-637.624	101.359	-0.194	0.228
-636.609	-89.830	-0.134	0.040
-635.595	10.759	-0.046	-0.035
-634.580	-200.000	0.063	0.331
-633.565	-177.189	-0.092	0.002
-632.551	-170.911	-0.209	-0.007
-631.536	-89.959	-0.375	0.111
-630.522	74.212	0.146	0.155
-629.507	-92.351	0.035	0.010
-628.492	143.371	-0.140	0.188
-627.478	-87.004	0.084	-0.026
-626.463	223.422	0.240	0.390
-625.449	-166.040	0.344	-0.015
-624.434	71.126	-0.019	0.020
-623.419	166.809	-0.231	0.331
-622.405	344.640	0.123	-0.243
-621.390	-155.810	-0.229	0.015
-620.376	-170.491	0.302	0.011
-619.361	50.357	-0.064	-0.061
-618.346	-139.951	-0.125	-0.013
-617.332	246.076	-0.169	-0.287
-616.317	582.616	0.153	-0.379
-615.303	-161.053	0.201	-0.011
-614.288	-29.368	-0.280	-0.161
-613.273	-40.439	-0.178	-0.093
-612.259	-200.000	0.031	-0.164
-611.244	0.782	0.108	-0.078
-610.230	506.713	0.053	0.124
-609.215	-159.179	0.101	0.006
-608.201	-77.601	-0.243	-0.085
-607.186	551.265	0.030	-0.072
-606.171	23.616	0.202	0.167
-605.157	-59.384	0.252	-0.109
-604.142	117.159	-0.182	-0.225
-603.128	-84.828	0.138	-0.044
-602.113	-98.007	0.224	-0.058
-601.098	43.771	0.220	-0.203
-600.084	70.207	0.217	0.226
-599.069	312.020	0.136	-0.258
-598.055	-176.101	0.249	0.007
-597.040	467.356	0.064	-0.145
-596.025	-111.074	-0.198	0.041
-595.011	-48.905	0.086	0.041
-593.996	182.931	-0.036	-0.054
-592.982	-200.000	-0.015	-0.105
-591.967	800.000	-0.033	0.095
-590.952	305.454	0.031	-0.058
-589.938	-200.000	-0.000	-0.119
-588.923	-200.000	-0.001	0.491
-587.909	112.090	-0.178	-0.217
-586.894	111.545	-0.067	0.081
-585.879	188.568	-0.053	0.079
-584.865	-200.000	0.008	0.100
-583.850	239.926	-0.116	0.195
-582.836	141.333	-0.103	0.138
-581.821	-200.000	0.085	-0.462
-580.806	15.637	-0.188	-0.149
-579.792	-200.000	0.005	-0.096
-578.777	800.000	-0.030	0.108
-577.763	-200.000	-0.019	0.136
-576.748	3.186	-0.261	-0.191
-575.733	22.130	0.164	-0.134
-574.719	800.000	-0.016	0.067
-573.704	800.000	-0.035	-0.144
-572.690	602.856	-0.068	-0.171
-571.675	800.000	-0.138	-0.399
-570.661	-86.850	0.165	-0.051
-569.646	-200.000	-0.010	0.105
-568.631	-76.736	-0.163	-0.058
-567.617	-200.000	0.020	-0.255
-566.602	430.271	0.072	-0.157
-565.588	-69.775	0.171	0.066
-564.573	1.953	-0.288	-0.209
-563.558	800.000	-0.034	-0.101
-562.544	3.836	0.165	-0.122
-561.529	133.759	0.096	-0.125
-560.515	119.392	-0.083	0.104
-559.500	-36.252	-0.042	-0.023
-558.485	800.000	0.125	-0.360
-557.471	-200.000	0.003	-0.193
-556.456	107.456	-0.192	-0.230
-555.442	-128.271	-0.192	0.028
-554.427	378.864	0.096	0.197
-553.412	40.358	0.119	0.108
-552.398	-64.391	-0.249	0.102
-551.383	0.126	0.204	0.146
-550.369	55.927	0.160	-0.157
-549.354	-39.918	-0.163	0.086
-548.339	49.244	0.178	0.169
-547.325	-200.000	-0.005	0.151
-546.310	262.064	0.168	-0.293
-545.296	24.035	-0.105	0.087
-544.281	-182.909	0.227	-0.004
-543.266	39.873	0.270	0.243
-542.252	-167.362	-0.387	-0.016
-541.237	-200.000	0.009	0.164
-540.223	-200.000	-0.001	-0.310
-539.208	134.039	-0.208	0.271
-538.193	800.000	-0.073	-0.279
-537.179	377.832	-0.003	0.007
-536.164	139.503	-0.094	0.124
-535.150	94.256	-0.271	-0.310
-534.135	-31.850	0.387	-0.218
-533.121	175.298	0.054	-0.079
-532.106	-163.478	0.456	0.022
-531.091	-113.227	-0.127	0.025
-530.077	-168.541	0.347	-0.013
-529.062	-40.934	-0.147	0.076
-528.048	243.850	0.125	0.211
-527.033	-200.000	0.010	0.123
-526.018	-64.842	-0.373	0.152
-525.004	185.632	-0.157	-0.235
-523.989	-127.205	0.037	-0.005
-522.975	800.000	0.077	-0.297
-521.960	731.777	0.038	-0.102
-520.945	-200.000	-0.043	-0.204
-519.931	79.994	-0.170	-0.183
-518.916	80.197	-0.161	-0.174
-517.902	-102.767	0.234	0.056
-516.887	-101.865	0.278	-0.068
-515.872	-36.780	-0.108	0.058
-514.858	800.000	0.079	-0.291
-513.843	66.408	-0.359	0.366
-512.829	-40.015	0.392	0.205
-511.814	111.496	-0.118	0.144
-510.799	69.814	0.170	0.177
-509.785	190.877	-0.124	0.188
-508.770	54.899	-0.247	0.239
-507.756	76.476	-0.147	0.156
-506.741	-37.988	-0.171	-0.091
-505.726	45.654	0.035	0.032
-504.712	-200.000	-0.032	-0.534
-503.697	461.787	0.118	0.265
-502.683	800.000	0.153	0.467
-501.668	259.319	-0.068	-0.117
-500.653	93.419	0.097	-0.110
-499.639	-114.441	-0.290	-0.056
-498.624	-8.131	0.170	0.115
-497.610	-81.929	0.404	0.133
-496.595	-97.087	0.347	-0.091
-495.581	59.537	0.043	0.043
-494.566	-7.299	0.269	-0.183
-493.551	-88.282	-0.137	-0.041
-492.537	-167.309	0.115	-0.005
-491.522	800.000	-0.018	0.065
-490.508	555.095	-0.042	-0.101
-489.493	-200.000	-0.016	0.276
-488.478	-200.000	-0.065	0.304
-487.464	13.283	-0.295	0.229
-486.449	-148.671	-0.068	0.006
-485.435	-60.187	-0.159	0.068
-484.420	-113.281	-0.304	-0.060
-483.405	52.108	-0.058	-0.056
-482.391	-44.737	-0.217	0.108
-481.376	413.596	-0.072	-0.154
-480.362	-114.887	-0.236	0.045
-479.347	-53.559	-0.097	0.044
-478.332	800.000	0.066	0.285
-477.318	-200.000	0.012	0.178
-476.303	28.256	-0.214	-0.182
-475.289	227.464	-0.084	0.137
-474.274	-110.454	0.302	0.063
-473.259	-112.637	0.104	0.021
-472.245	-74.003	0.189	0.069
-471.230	-87.793	0.126	-0.038
-470.216	360.936	0.151	0.304
-469.201	139.779	-0.112	-0.148
-468.186	215.844	0.067	-0.107
-467.172	800.000	0.024	0.069
-466.157	800.000	0.055	0.163
-465.143	-176.402	-0.202	0.005
-464.128	721.522	0.086	0.230
-463.113	199.090	-0.047	0.073
-462.099	-200.000	-0.016	0.086
-461.084	27.049	-0.094	-0.079
-460.070	800.000	-0.029	0.104
-459.055	-33.189	-0.188	-0.104
-458.040	59.052	-0.154	0.152
-457.026	-93.360	0.354	-0.099
-456.011	-131.883	-0.263	0.034
-454.997	-200.000	0.003	-0.120
-453.982	1.678	0.448	-0.323
-452.968	-200.000	0.004	-0.066
-451.953	414.589	-0.077	-0.165
-450.938	-138.766	0.375	0.041
-449.924	800.000	0.059	-0.208
-448.909	741.634	0.004	-0.011
-447.895	800.000	0.055	0.200
-446.880	-200.000	0.047	0.304
-445.865	-143.543	0.068	-0.006
-444.851	800.000	-0.011	0.033
-443.836	-93.988	-0.234	-0.065
-442.822	246.391	-0.182	0.308
-441.807	-94.874	-0.115	0.031
-440.792	263.827	-0.138	0.240
-439.778	-18.078	0.204	-0.128
-438.763	28.557	0.106	0.090
-437.749	63.174	-0.110	-0.110
-436.734	-200.000	-0.005	-0.190
-435.719	-110.856	-0.170	0.035
-434.705	-117.484	-0.170	0.031
-433.690	-25.111	0.081	0.048
-432.676	-87.374	-0.095	0.029
-431.661	32.688	-0.125	0.108
-430.646	-29.179	-0.160	0.092
-429.632	800.000	0.017	0.050
-428.617	-200.000	-0.029	0.134
-427.603	471.166	-0.059	0.134
-426.588	-80.276	0.068	-0.023
-425.573	-176.086	0.104	0.003
-424.559	-21.288	-0.306	-0.187
-423.544	-170.807	0.166	0.006
-422.530	-63.325	0.111	0.046
-421.515	-98.854	0.088	0.023
-420.500	800.000	0.101	-0.281
-419.486	800.000	-0.140	-0.416
-418.471	108.969	-0.203	-0.243
-417.457	-200.000	0.032	0.270
-416.442	371.331	-0.160	0.326
-415.428	800.000	-0.037	-0.147
-414.413	-104.548	-0.149	0.034
-413.398	-200.000	-0.059	0.327
-412.384	212.628	0.065	0.102
-411.369	-155.194	0.083	-0.005
-410.355	434.802	0.131	0.285
-409.340	269.803	-0.085	-0.150
-408.325	-113.540	-0.274	0.054
-407.311	-200.000	-0.033	-0.211
-406.296	73.618	-0.077	-0.081
-405.282	-200.000	0.016	0.239
-404.267	-16.789	0.076	0.048
-403.252	248.466	-0.058	-0.099
-402.238	176.171	-0.113	-0.164
-401.223	24.404	-0.180	-0.149
-400.209	-43.761	0.069	-0.035
-399.194	72.777	0.212	0.221
-398.179	384.020	0.084	-0.172
-397.165	129.499	-0.227	0.290
-396.150	-200.000	0.055	-0.281
-395.136	-134.867	-0.395	0.048
-394.121	800.000	0.145	-0.609
-393.106	99.042	0.081	-0.094
-392.092	627.002	-0.063	-0.159
-391.077	-173.863	0.088	-0.003
-390.063	50.365	0.154	-0.145
-389.048	-64.578	0.157	0.064
-388.033	-200.000	-0.025	-0.265
-387.019	-27.419	0.184	-0.107
-386.004	-29.888	-0.133	-0.076
-384.990	-200.000	0.026	0.142
-383.975	-5.842	-0.110	0.075
-382.960	-200.000	0.027	-0.146
-381.946	800.000	0.052	0.176
-380.931	-200.000	-0.010	-0.080
-379.917	-37.451	-0.107	0.057
-378.902	-53.199	-0.171	-0.078
-377.888	434.938	0.069	-0.151
-376.873	674.594	0.084	-0.219
-375.858	-10.051	0.223	-0.148
-374.844	-123.976	0.210	-0.033
-373.829	-134.879	0.057	-0.007
-372.815	443.000	-0.022	-0.048
-371.800	30.120	-0.320	-0.273
-370.785	800.000	0.091	0.389
-369.771	-154.570	0.257	0.017
-368.756	-111.822	0.466	-0.094
-367.742	-36.960	0.195	0.105
-366.727	800.000	0.056	-0.214
-365.712	5.262	0.132	0.097
-364.698	800.000	0.062	-0.218
-363.683	-200.000	0.065	0.379
-362.669	-127.087	0.261	0.038
-361.654	-66.044	0.332	-0.132
-360.639	-100.353	-0.208	-0.051
-359.625	-110.260	0.122	0.025
-358.610	48.191	0.239	-0.223
-357.596	395.785	0.088	-0.183
-356.581	238.556	-0.190	-0.316
-355.566	800.000	-0.137	0.494
-354.552	52.235	0.189	0.180
-353.537	587.240	-0.028	0.069
-352.523	800.000	-0.017	0.065
-351.508	-200.000	0.008	-0.053
-350.493	-43.269	0.264	-0.133
-349.479	-76.192	0.116	0.041
-348.464	-104.749	0.109	-0.025
-347.450	-56.547	0.202	0.089
-346.435	576.983	-0.103	0.251
-345.420	32.021	0.350	0.301
-344.406	-200.000	-0.022	0.183
-343.391	202.798	0.065	0.101
-342.377	695.862	0.064	-0.168
-341.362	17.998	0.182	-0.145
-340.348	-168.329	0.075	-0.003
-339.333	800.000	-0.041	0.171
-338.318	168.381	-0.128	0.182
-337.304	568.417	0.061	-0.148
-336.289	29.630	-0.137	0.116
-335.275	-142.617	0.302	0.029
-334.260	93.218	-0.252	0.284
-333.245	637.449	0.108	0.273
-332.231	410.257	-0.168	0.356
-331.216	588.427	0.117	0.288
-330.202	-100.468	-0.119	-0.029
-329.187	678.450	-0.168	-0.437
-328.172	-134.493	-0.178	-0.022
-327.158	88.895	0.332	-0.369
-326.143	391.420	-0.088	-0.182
-325.129	170.506	0.125	0.179
-324.114	68.552	-0.136	0.139
-323.099	800.000	0.063	-0.220
-322.085	81.871	-0.206	0.222
-321.070	232.507	0.028	0.047
-320.056	-146.711	0.118	-0.010
-319.041	-153.139	0.243	-0.017
-318.026	-129.966	-0.101	0.014
-317.012	540.981	0.078	0.185
-315.997	-200.000	0.001	-0.164
-314.983	-137.292	-0.130	-0.015
-313.968	-42.155	0.256	0.130
-312.953	-200.000	0.010	0.297
-311.939	-200.000	0.008	0.269
-310.924	-157.194	-0.306	0.018
-309.910	91.026	-0.127	-0.142
-308.895	-30.453	-0.262	-0.148
-307.880	-97.129	-0.229	-0.060
-306.866	800.000	0.034	-0.141
-305.851	317.722	0.067	-0.126
-304.837	16.495	-0.184	0.145
-303.822	-49.477	0.090	0.043
-302.807	26.902	0.059	-0.050
-301.793	-200.000	0.025	-0.123
-300.778	185.712	0.170	0.251
-299.764	31.368	0.202	0.173
-298.749	-56.493	-0.464	0.205
-297.735	-200.000	0.020	-0.385
-296.720	800.000	-0.092	-0.332
-295.705	-44.392	0.272	0.136
-294.691	666.475	-0.038	-0.098
-293.676	-157.813	-0.180	0.011
-292.662	-96.666	0.155	-0.041
-291.647	245.413	0.039	-0.065
-290.632	411.920	-0.034	-0.072
-289.618	25.777	-0.182	0.151
-288.603	54.042	-0.222	0.212
-287.589	-124.789	-0.429	-0.066
-286.574	63.162	-0.074	-0.074
-285.559	800.000	0.079	0.239
-284.545	146.215	0.078	0.104
-283.530	-151.484	0.087	-0.006
-282.516	100.729	-0.151	0.175
-281.501	511.254	0.161	-0.373
-280.486	19.245	0.009	0.007
-279.472	800.000	-0.086	-0.291
-278.457	18.624	0.141	0.112
-277.443	-176.960	0.092	0.002
-276.428	-42.777	0.069	-0.035
-275.413	108.348	-0.231	0.274
-274.399	800.000	-0.120	0.370
-273.384	527.182	-0.123	-0.289
-272.370	-22.098	-0.160	-0.097
-271.355	-10.476	0.208	-0.137
-270.340	-96.141	0.196	-0.052
-269.326	-200.000	-0.010	-0.158
-268.311	-151.110	-0.287	0.021
-267.297	140.703	-0.111	0.146
-266.282	-200.000	-0.054	0.325
-265.267	-38.294	0.352	-0.186
-264.253	355.334	0.163	0.322
-263.238	119.724	0.119	-0.147
-262.224	800.000	0.043	-0.136
-261.209	-200.000	0.056	-0.257
-260.195	171.792	-0.021	0.030
-259.180	-200.000	-0.010	0.064
-258.165	131.563	-0.050	-0.064
-257.151	800.000	0.110	-0.368
-256.136	-200.000	0.037	-0.178
-255.122	-86.241	0.095	0.029
-254.107	-68.787	0.235	-0.090
-253.092	800.000	-0.060	-0.213
-252.078	800.000	0.071	-0.207
-251.063	-2.743	0.315	-0.219
-250.049	298.800	0.078	0.143
-249.034	800.000	-0.118	0.448
-248.019	37.907	-0.161	-0.142
-247.005	523.731	0.143	0.335
-245.990	-119.507	0.287	0.050
-244.976	-150.547	-0.261	0.020
-243.961	95.883	0.065	-0.074
-242.946	-200.000	-0.095	-0.000
-241.932	-4.240	-0.199	0.137
-240.917	135.064	-0.068	0.087
-239.903	-166.814	0.169	-0.007
-238.888	45.970	-0.217	0.200
-237.873	-147.118	0.160	-0.014
-236.859	-104.767	0.098	0.022
-235.844	238.003	-0.065	-0.107
-234.830	-56.765	-0.161	-0.071
-233.815	-129.649	0.129	-0.018
-232.800	86.276	0.204	-0.223
-231.786	611.554	-0.084	0.209
-230.771	-88.567	0.288	-0.085
-229.757	-200.000	-0.001	0.032
-228.742	162.042	0.098	0.136
-227.727	177.645	-0.048	0.070
-226.713	360.859	-0.134	0.267
-225.698	-200.000	-0.018	-0.724
-224.684	-200.000	0.033	-0.147
-223.669	333.331	0.163	-0.314
-222.655	164.534	-0.182	0.255
-221.640	-96.714	0.292	-0.076
-220.625	-56.908	-0.119	0.052
-219.611	800.000	-0.030	0.109
-218.596	800.000	-0.149	-0.518
-217.582	107.972	0.205	-0.243
-216.567	-71.051	0.283	-0.106
-215.552	-151.880	0.197	-0.014
-214.538	-104.440	-0.236	0.054
-213.523	-200.000	-0.043	-0.296
-212.509	-97.784	0.214	-0.055
-211.494	-115.708	-0.201	0.037
-210.479	-95.608	0.216	-0.057
-209.465	-46.989	-0.244	-0.118
-208.450	-200.000	-0.033	-0.188
-207.436	512.845	0.075	0.173
-206.421	-128.162	-0.055	-0.008
-205.406	-200.000	-0.004	0.060
-204.392	-152.809	-0.128	0.009
-203.377	-57.870	0.080	0.035
-202.363	-200.000	0.052	0.260
-201.348	-200.000	0.071	-0.333
-200.333	-124.854	-0.240	-0.037
-199.319	-200.000	-0.003	-0.271
-198.304	53.384	0.064	-0.061
-197.290	51.952	0.127	-0.120
-196.275	305.100	-0.052	0.096
-195.260	134.431	-0.036	0.047
-194.246	110.263	-0.190	0.226
-193.231	-107.067	-0.424	-0.093
-192.217	195.656	-0.044	-0.066
-191.202	624.085	-0.009	-0.023
-190.187	-200.000	0.015	0.345
-189.173	800.000	-0.043	0.120
-188.158	559.684	-0.047	0.113
-187.144	404.325	-0.044	0.091
-186.129	64.540	-0.249	0.249
-185.114	-22.100	0.126	0.076
-184.100	-81.883	0.266	0.086
-183.085	-200.000	0.002	-0.105
-182.071	129.207	-0.250	-0.317
-181.056	800.000	-0.045	-0.172
-180.042	-3.499	-0.151	-0.104
-179.027	681.262	-0.080	-0.207
-178.012	123.686	-0.061	-0.076
-176.998	-168.571	-0.159	0.006
-175.983	-200.000	-0.059	0.292
-174.969	800.000	-0.026	0.100
-173.954	-200.000	0.017	0.182
-172.939	-58.407	-0.143	0.061
-171.925	-162.817	0.051	-0.002
-170.910	800.000	-0.062	0.181
-169.896	-53.392	-0.037	-0.017
-168.881	344.642	-0.146	0.284
-167.866	-13.055	-0.295	-0.190
-166.852	34.258	0.097	0.084
-165.837	-84.378	0.401	-0.126
-164.823	-200.000	-0.010	0.057
-163.808	-200.000	-0.016	0.360
-162.793	-200.000	0.014	0.105
-161.779	-37.298	-0.219	0.116
-160.764	78.653	-0.119	0.126
-159.750	800.000	0.074	-0.226
-158.735	-71.013	0.281	0.105
-157.720	-200.000	0.006	0.232
-156.706	178.405	0.130	-0.188
-155.691	159.088	0.228	0.314
-154.677	-12.069	-0.186	-0.121
-153.662	133.338	-0.140	-0.179
-152.647	48.511	0.341	0.316
-151.633	105.939	0.109	-0.127
-150.618	-79.562	0.272	-0.091
-149.604	239.882	0.279	0.460
-148.589	-182.122	-0.291	-0.005
-147.574	-200.000	0.049	-0.223
-146.560	479.628	0.114	-0.256
-145.545	-20.572	-0.101	0.061
-144.531	-86.215	-0.280	-0.085
-143.516	800.000	-0.014	0.039
-142.502	-118.340	-0.212	-0.037
-141.487	-142.551	-0.252	-0.024
-140.472	-200.000	0.032	-0.289
-139.458	136.971	0.109	-0.141
-138.443	-105.717	0.220	0.049
-137.429	-16.831	0.046	0.029
-136.414	79.163	0.074	-0.078
-135.399	-43.019	0.088	-0.044
-134.385	-57.400	0.132	-0.057
-133.370	800.000	-0.040	-0.152
-132.356	13.874	0.059	0.046
-131.341	-134.618	-0.231	-0.028
-130.326	-42.360	0.369	-0.186
-129.312	58.236	0.179	-0.174
-128.297	-200.000	-0.008	0.229
-127.283	800.000	0.047	0.191
-126.268	-200.000	0.040	0.187
-125.253	-200.000	-0.032	-0.351
-124.239	68.595	0.375	0.381
-123.224	447.599	0.120	0.261
-122.210	191.112	0.122	0.182
