DTS Sentinel unit serial number:	SN413079Multiplexer serial number:	ORYXHardware model number:	OX4-SRSoftware version number:	ORYX F/W v4.00 Oryx Data Collector v3.7.2.0data status	okinstallation	princeton_trtdifferential loss correction	single-endedforward channel	channel 3reverse channel	N/Adate	2019/09/13time	06:08:34forward acquisition time	60.00reverse acquisition time	0.00gamma	496.2192k internal	0.2338k external	0.2338temperature offset calibration	1.0137default loss term (dB/km)	0.3790temperature slope calibration	1.0000multiplexer offset coefficient	1.0000multiplexer slope coefficient	1.0000fibre end	0.00T internal ref (°C)	26.12T ext. ref 1 (°C)	4.09T ext. ref 2 (°C)	20.89length (m)	temperature (°C)	Stokes	anti-Stokes-747.200	-5.871	-0.357	0.245
-746.185	68.487	0.094	0.097
-745.171	800.000	-0.089	0.266
-744.156	215.741	-0.129	0.205
-743.142	-181.227	-0.181	-0.004
-742.127	125.854	0.200	0.253
-741.112	-200.000	-0.022	0.390
-740.098	-126.176	0.116	0.017
-739.083	485.796	0.045	-0.103
-738.069	800.000	0.025	0.072
-737.054	800.000	0.081	0.306
-736.039	-139.095	-0.309	0.033
-735.025	800.000	-0.104	0.336
-734.010	107.953	-0.131	-0.156
-732.996	291.258	-0.137	-0.250
-731.981	-192.497	0.391	0.004
-730.966	86.157	-0.182	-0.201
-729.952	58.846	0.100	0.099
-728.937	267.861	0.045	-0.080
-727.923	-200.000	0.032	-0.417
-726.908	268.651	-0.047	0.083
-725.894	322.228	0.038	0.072
-724.879	-200.000	0.006	0.095
-723.864	-64.355	0.193	0.079
-722.850	-200.000	-0.084	0.489
-721.835	239.253	0.152	-0.254
-720.821	800.000	-0.052	-0.179
-719.806	800.000	-0.059	-0.196
-718.791	-41.955	-0.259	-0.133
-717.777	163.190	-0.124	-0.174
-716.762	-200.000	0.048	0.267
-715.748	120.085	-0.212	0.263
-714.733	-200.000	0.036	-0.233
-713.718	-29.810	-0.148	0.085
-712.704	-105.652	0.313	-0.071
-711.689	-200.000	-0.004	-0.086
-710.675	37.591	-0.204	-0.181
-709.660	-109.551	-0.272	0.057
-708.645	-51.918	-0.248	0.116
-707.631	11.212	-0.084	-0.064
-706.616	-10.334	-0.139	-0.092
-705.602	-70.914	-0.140	-0.053
-704.587	382.517	-0.113	-0.233
-703.572	125.704	-0.090	0.113
-702.558	80.765	0.123	0.133
-701.543	800.000	-0.029	0.125
-700.529	1.781	-0.125	0.090
-699.514	46.674	0.068	-0.063
-698.499	-200.000	-0.040	-0.432
-697.485	-64.800	0.092	-0.037
-696.470	-101.311	-0.336	-0.082
-695.456	241.085	-0.122	-0.204
-694.441	-200.000	-0.024	-0.227
-693.426	395.907	0.199	-0.416
-692.412	62.702	-0.087	-0.087
-691.397	17.397	-0.204	-0.162
-690.383	61.317	0.064	-0.064
-689.368	204.105	-0.186	0.289
-688.354	-39.976	0.147	-0.077
-687.339	-32.411	-0.103	0.057
-686.324	-34.256	0.381	-0.209
-685.310	168.745	-0.075	-0.107
-684.295	-200.000	0.020	0.115
-683.281	-54.626	0.152	-0.069
-682.266	-97.627	-0.328	0.085
-681.251	-92.648	-0.218	-0.061
-680.237	76.048	0.195	0.207
-679.222	-83.958	0.156	-0.050
-678.208	-200.000	0.002	-0.051
-677.193	365.934	0.048	-0.096
-676.178	-97.167	-0.352	-0.092
-675.164	-200.000	-0.035	0.259
-674.149	-200.000	0.031	0.139
-673.135	800.000	-0.014	0.054
-672.120	57.351	-0.257	-0.251
-671.105	200.949	-0.209	-0.322
-670.091	187.433	-0.090	0.134
-669.076	800.000	-0.073	-0.221
-668.062	-125.005	-0.064	-0.010
-667.047	-40.248	0.098	-0.051
-666.032	-72.650	0.061	0.023
-665.018	530.171	-0.114	0.270
-664.003	30.201	0.139	0.119
-662.989	800.000	-0.071	-0.211
-661.974	145.442	0.292	-0.391
-660.959	-200.000	-0.010	-0.254
-659.945	735.883	-0.040	-0.106
-658.930	75.302	-0.094	-0.099
-657.916	31.862	0.053	0.046
-656.901	-25.080	-0.264	-0.157
-655.886	-200.000	0.005	0.058
-654.872	-42.025	0.259	-0.132
-653.857	249.248	0.074	0.125
-652.843	800.000	-0.112	0.375
-651.828	-200.000	-0.025	0.115
-650.814	15.012	0.054	0.042
-649.799	-107.916	-0.102	-0.022
-648.784	-77.513	-0.076	-0.026
-647.770	133.167	-0.212	-0.274
-646.755	-118.950	0.210	-0.037
-645.741	-19.226	-0.197	-0.122
-644.726	-10.789	0.130	-0.086
-643.711	-20.944	-0.241	-0.147
-642.697	-200.000	0.010	-0.090
-641.682	-51.529	0.206	0.096
-640.668	-168.615	0.099	-0.004
-639.653	-200.000	-0.010	-0.078
-638.638	-84.314	0.319	-0.101
-637.624	246.762	-0.136	-0.230
-636.609	-200.000	0.079	-0.407
-635.595	49.513	0.085	-0.080
-634.580	800.000	-0.080	0.286
-633.565	-77.088	0.166	-0.058
-632.551	8.163	-0.068	0.051
-631.536	-88.764	0.066	0.020
-630.522	-93.156	0.277	-0.077
-629.507	-8.541	0.068	-0.046
-628.492	309.839	-0.184	-0.344
-627.478	-200.000	-0.037	0.326
-626.463	251.438	0.064	0.108
-625.449	-137.368	-0.167	0.019
-624.434	19.693	-0.075	-0.060
-623.419	372.865	-0.066	-0.134
-622.405	45.797	-0.204	0.189
-621.390	450.033	0.071	-0.155
-620.376	-142.130	-0.345	0.034
-619.361	264.330	0.195	0.339
-618.346	-17.064	0.057	-0.036
-617.332	7.638	-0.035	-0.026
-616.317	-200.000	-0.015	-0.464
-615.303	679.678	-0.010	0.025
-614.288	555.908	-0.131	0.316
-613.273	800.000	0.044	0.123
-612.259	-98.558	-0.238	-0.061
-611.244	53.982	-0.200	0.192
-610.230	-70.794	0.285	-0.107
-609.215	-12.660	-0.386	0.251
-608.201	-72.135	-0.073	-0.027
-607.186	661.120	0.148	0.381
-606.171	-107.042	0.232	-0.051
-605.157	-200.000	-0.015	-0.287
-604.142	20.599	-0.029	0.024
-603.128	620.463	0.019	-0.049
-602.113	191.146	0.059	0.088
-601.098	-200.000	0.012	0.147
-600.084	451.381	0.119	-0.262
-599.069	141.248	-0.073	0.097
-598.055	-2.237	0.123	0.086
-597.040	-52.762	0.302	-0.139
-596.025	-200.000	-0.024	-0.110
-595.011	473.356	0.056	0.125
-593.996	49.845	0.077	-0.073
-592.982	-70.878	-0.367	0.138
-591.967	-73.147	-0.100	0.037
-590.952	719.377	0.017	-0.046
-589.938	290.192	-0.149	0.270
-588.923	-70.759	-0.224	0.084
-587.909	-200.000	0.052	0.456
-586.894	-200.000	0.025	0.146
-585.879	-72.261	-0.199	0.074
-584.865	-22.656	0.033	-0.020
-583.850	-80.915	-0.260	0.086
-582.836	132.845	0.197	0.253
-581.821	-61.515	0.132	-0.055
-580.806	-167.825	-0.407	0.016
-579.792	-160.585	0.178	0.009
-578.777	-200.000	-0.014	-0.154
-577.763	-190.099	0.223	0.002
-576.748	-200.000	-0.022	0.366
-575.733	-200.000	-0.004	-0.080
-574.719	800.000	0.038	-0.146
-573.704	-200.000	0.018	0.215
-572.690	-200.000	0.061	0.274
-571.675	-14.063	-0.261	0.168
-570.661	-84.566	0.303	-0.095
-569.646	391.191	0.031	-0.065
-568.631	219.158	0.144	-0.229
-567.617	-20.275	0.077	0.047
-566.602	480.961	-0.051	-0.116
-565.588	800.000	-0.115	-0.343
-564.573	-131.744	0.422	0.055
-563.558	-200.000	-0.022	-0.233
-562.544	800.000	-0.090	-0.266
-561.529	-112.680	-0.286	-0.057
-560.515	399.064	0.138	0.287
-559.500	295.412	0.046	0.084
-558.485	-14.470	0.087	0.056
-557.471	165.887	-0.142	-0.201
-556.456	623.252	0.097	-0.244
-555.442	79.256	0.031	0.033
-554.427	800.000	-0.007	-0.022
-553.412	-151.578	-0.377	-0.028
-552.398	-28.993	-0.132	-0.076
-551.383	-83.702	0.324	0.103
-550.369	800.000	0.033	0.103
-549.354	32.208	-0.340	0.292
-548.339	53.449	-0.378	-0.360
-547.325	67.516	-0.061	-0.062
-546.310	-68.503	-0.163	-0.063
-545.296	375.503	-0.056	-0.114
-544.281	32.666	-0.022	0.019
-543.266	174.821	0.141	0.203
-542.252	130.827	0.197	-0.252
-541.237	-200.000	0.049	0.341
-540.223	11.153	-0.142	0.108
-539.208	-114.064	0.227	-0.044
-538.193	-23.969	-0.103	-0.061
-537.179	-130.879	0.197	-0.026
-536.164	-130.192	-0.056	0.008
-535.150	-200.000	0.017	0.167
-534.135	-12.029	-0.233	0.152
-533.121	-70.811	0.254	0.095
-532.106	118.095	-0.158	0.194
-531.091	-200.000	0.009	-0.294
-530.077	-200.000	0.002	0.049
-529.062	800.000	-0.087	-0.282
-528.048	800.000	-0.005	0.014
-527.033	-108.219	0.127	0.027
-526.018	10.217	-0.076	0.058
-525.004	-122.375	0.295	-0.048
-523.989	-200.000	-0.019	-0.155
-522.975	-147.397	-0.342	-0.029
-521.960	-58.903	-0.214	0.092
-520.945	-200.000	-0.053	-0.283
-519.931	-200.000	-0.012	-0.115
-518.916	-105.276	0.158	-0.036
-517.902	-200.000	-0.075	0.384
-516.887	93.923	-0.203	-0.229
-515.872	-200.000	-0.009	-0.441
-514.858	-200.000	0.007	-0.124
-513.843	-75.019	0.050	0.018
-512.829	-2.156	-0.200	-0.140
-511.814	-114.301	-0.335	0.064
-510.799	-141.004	0.161	-0.016
-509.785	800.000	-0.094	-0.330
-508.770	34.133	0.102	-0.089
-507.756	342.304	-0.076	0.148
-506.741	-200.000	0.001	0.242
-505.726	-124.808	-0.644	0.099
-504.712	-51.456	-0.279	-0.130
-503.697	-200.000	-0.026	-0.178
-502.683	-200.000	0.001	0.090
-501.668	-200.000	0.003	0.242
-500.653	88.991	-0.109	-0.120
-499.639	141.403	0.157	-0.206
-498.624	248.470	-0.024	0.040
-497.610	51.533	-0.050	0.047
-496.595	265.675	-0.187	0.324
-495.581	-200.000	0.005	0.033
-494.566	618.218	0.050	-0.125
-493.551	-57.554	0.167	-0.073
-492.537	276.108	-0.300	-0.530
-491.522	-200.000	0.053	-0.316
-490.508	7.832	-0.143	0.107
-489.493	800.000	0.060	0.217
-488.478	-81.057	0.282	0.093
-487.464	-149.929	0.217	0.017
-486.449	676.284	-0.059	0.151
-485.435	203.006	0.113	-0.174
-484.420	-81.835	0.258	0.084
-483.405	-136.699	-0.064	-0.007
-482.391	-30.312	0.029	-0.017
-481.376	-200.000	-0.037	-0.253
-480.362	334.605	-0.215	-0.414
-479.347	773.547	-0.132	-0.357
-478.332	-74.016	0.127	-0.046
-477.318	-200.000	0.064	-0.281
-476.303	800.000	0.037	0.111
-475.289	-77.088	0.059	-0.020
-474.274	-200.000	-0.023	0.176
-473.259	70.352	0.226	0.232
-472.245	11.774	-0.148	-0.113
-471.230	103.686	0.117	0.136
-470.216	29.182	-0.076	0.064
-469.201	-200.000	-0.039	-0.216
-468.186	-91.040	0.238	0.068
-467.172	16.131	-0.055	-0.043
-466.157	208.077	-0.121	0.188
-465.143	418.871	0.107	-0.227
-464.128	5.804	-0.095	0.070
-463.113	-139.478	-0.206	-0.022
-462.099	-8.942	-0.245	0.163
-461.084	100.235	0.172	0.198
-460.070	-200.000	0.092	-0.665
-459.055	-110.087	-0.263	-0.054
-458.040	800.000	0.106	0.304
-457.026	774.534	0.093	0.253
-456.011	-200.000	0.003	-0.054
-454.997	297.998	0.141	-0.256
-453.982	-200.000	0.048	0.232
-452.968	359.209	0.144	-0.285
-451.953	-85.727	-0.533	-0.164
-450.938	-200.000	-0.020	0.287
-449.924	-54.025	0.093	-0.042
-448.909	-138.814	-0.233	0.025
-447.895	162.912	-0.117	0.163
-446.880	347.157	0.111	-0.217
-445.865	800.000	0.060	-0.230
-444.851	67.154	0.032	0.032
-443.836	-200.000	-0.006	0.082
-442.822	260.603	-0.124	-0.212
-441.807	223.928	-0.038	-0.061
-440.792	-40.315	-0.157	0.081
-439.778	-194.442	0.330	0.003
-438.763	800.000	0.071	-0.268
-437.749	-97.734	-0.230	0.059
-436.734	54.051	-0.223	-0.212
-435.719	-1.342	-0.351	0.246
-434.705	-3.755	0.037	0.026
-433.690	47.263	0.183	-0.169
-432.676	-71.656	-0.126	-0.046
-431.661	-166.328	-0.143	-0.006
-430.646	-149.115	0.123	0.010
-429.632	-108.952	0.145	-0.031
-428.617	565.240	-0.107	-0.258
-427.603	-150.978	-0.152	0.011
-426.588	-23.414	0.176	-0.105
-425.573	286.784	0.100	-0.180
-424.559	-116.139	0.494	0.091
-423.544	92.332	0.204	-0.228
-422.530	441.463	0.090	-0.194
-421.515	-200.000	-0.079	-0.358
-420.500	-200.000	0.019	-0.089
-419.486	127.715	-0.237	-0.298
-418.471	-200.000	0.018	0.198
-417.457	-90.554	0.228	-0.065
-416.442	230.199	0.154	0.250
-415.428	-108.730	-0.133	0.028
-414.413	800.000	0.010	-0.036
-413.398	36.577	-0.345	-0.301
-412.384	-138.420	0.208	-0.023
-411.369	42.324	0.077	-0.070
-410.355	396.341	-0.133	0.275
-409.340	199.476	-0.193	0.292
-408.325	-200.000	0.006	0.263
-407.311	66.191	0.408	0.410
-406.296	158.681	0.088	-0.121
-405.282	57.274	0.259	-0.251
-404.267	-200.000	-0.012	-0.055
-403.252	-36.483	0.136	-0.072
-402.238	800.000	-0.100	-0.296
-401.223	481.045	-0.158	-0.355
-400.209	172.959	-0.158	0.226
-399.194	800.000	-0.021	-0.083
-398.179	-13.210	0.284	-0.183
-397.165	800.000	0.060	0.170
-396.150	10.547	0.236	0.178
-395.136	22.494	-0.082	0.067
-394.121	-200.000	0.041	0.269
-393.106	-26.472	0.053	-0.031
-392.092	-8.403	0.268	-0.178
-391.077	234.906	-0.136	0.222
-390.063	-200.000	-0.015	0.118
-389.048	25.978	-0.082	-0.067
-388.033	-200.000	0.023	0.186
-387.019	-111.796	0.228	-0.046
-386.004	57.154	-0.137	-0.132
-384.990	203.468	-0.146	0.223
-383.975	-12.610	0.298	0.192
-382.960	104.101	0.099	0.115
-381.946	92.015	0.185	-0.206
-380.931	78.035	-0.170	0.180
-379.917	-80.135	0.120	-0.040
-378.902	253.327	0.088	-0.148
-377.888	185.839	-0.055	0.080
-376.873	-76.136	-0.142	-0.050
-375.858	-43.422	0.208	0.104
-374.844	68.258	-0.140	0.142
-373.829	251.245	-0.243	0.408
-372.815	452.973	0.041	-0.089
-371.800	134.042	0.130	0.167
-370.785	-200.000	0.045	-0.236
-369.771	-121.172	-0.084	-0.014
-368.756	216.295	0.043	-0.067
-367.742	-200.000	-0.103	-0.460
-366.727	207.711	0.127	0.196
-365.712	68.975	-0.135	0.137
-364.698	-200.000	0.004	-0.233
-363.683	573.936	0.070	0.170
-362.669	800.000	-0.038	0.123
-361.654	741.507	0.080	0.213
-360.639	120.912	0.106	0.131
-359.625	-150.060	-0.308	0.024
-358.610	-106.483	0.289	0.064
-357.596	106.775	-0.339	0.398
-356.581	155.316	-0.268	0.365
-355.566	800.000	-0.111	-0.376
-354.552	800.000	-0.008	0.028
-353.537	529.606	-0.074	-0.173
-352.523	-200.000	0.002	-0.070
-351.508	800.000	-0.052	0.152
-350.493	123.255	0.073	-0.091
-349.479	-25.957	-0.212	-0.123
-348.464	34.946	0.218	0.188
-347.450	-147.080	-0.459	0.039
-346.435	206.332	0.277	-0.426
-345.420	-67.192	0.252	-0.098
-344.406	31.426	0.118	0.100
-343.391	431.267	-0.167	0.356
-342.377	80.418	0.160	0.170
-341.362	101.516	0.054	-0.062
-340.348	-50.372	0.338	0.158
-339.333	58.151	0.170	-0.164
-338.318	-200.000	0.033	-0.256
-337.304	-18.266	0.227	-0.140
-336.289	-11.264	0.048	0.031
-335.275	-61.704	-0.266	0.110
-334.260	-132.448	-0.194	0.025
-333.245	800.000	-0.076	-0.256
-332.231	413.148	-0.127	0.266
-331.216	411.408	-0.193	-0.405
-330.202	497.213	0.119	-0.271
-329.187	-200.000	-0.086	0.491
-328.172	800.000	-0.095	0.296
-327.158	38.867	-0.166	-0.146
-326.143	-59.340	0.003	0.001
-325.129	-151.335	-0.121	-0.009
-324.114	-200.000	0.005	-0.079
-323.099	-200.000	0.074	-0.355
-322.085	418.564	0.110	-0.231
-321.070	-158.915	0.171	0.010
-320.056	-11.300	-0.141	0.092
-319.041	102.066	0.279	0.322
-318.026	800.000	0.043	0.149
-317.012	33.530	-0.126	-0.108
-315.997	71.194	-0.078	0.080
-314.983	81.381	0.038	-0.040
-313.968	-103.492	0.374	0.087
-312.953	800.000	0.082	0.227
-311.939	240.713	0.171	0.282
-310.924	-200.000	0.048	-0.357
-309.910	800.000	-0.116	-0.342
-308.895	-200.000	0.054	-0.240
-307.880	-169.109	-0.236	-0.009
-306.866	335.682	0.197	0.377
-305.851	-130.044	0.083	0.011
-304.837	-55.759	-0.041	-0.018
-303.822	185.482	0.077	0.113
-302.807	-162.296	-0.298	0.015
-301.793	20.927	0.296	-0.237
-300.778	238.876	0.052	0.085
-299.764	800.000	0.037	-0.134
-298.749	62.397	0.140	0.138
-297.735	-200.000	0.005	0.101
-296.720	-200.000	-0.024	-0.308
-295.705	107.897	0.161	0.189
-294.691	-200.000	-0.021	-0.138
-293.676	-56.622	0.126	-0.055
-292.662	-63.926	0.166	0.067
-291.647	152.873	0.223	0.300
-290.632	-200.000	-0.006	-0.189
-289.618	-17.771	-0.305	0.189
-288.603	95.492	0.139	0.157
-287.589	-139.848	0.282	0.029
-286.574	208.634	0.157	-0.243
-285.559	179.795	0.093	0.135
-284.545	-126.570	0.126	0.018
-283.530	373.792	0.085	0.170
-282.516	452.915	0.097	0.212
-281.501	82.886	-0.049	-0.053
-280.486	156.097	0.202	0.275
-279.472	-200.000	-0.022	0.216
-278.457	-118.265	-0.298	0.052
-277.443	-120.220	-0.134	0.022
-276.428	-200.000	0.040	-0.536
-275.413	-200.000	-0.004	0.246
-274.399	-200.000	0.071	0.372
-273.384	81.524	-0.171	0.182
-272.370	-200.000	0.000	0.326
-271.355	-200.000	0.024	0.107
-270.340	-174.669	-0.298	-0.008
-269.326	-74.407	0.150	0.053
-268.311	-67.079	0.046	0.018
-267.297	-125.206	-0.314	0.047
-266.282	12.363	-0.170	-0.129
-265.267	124.687	-0.176	-0.219
-264.253	10.549	0.305	0.229
-263.238	-42.509	-0.384	-0.193
-262.224	-66.330	0.246	-0.096
-261.209	-138.398	0.266	-0.029
-260.195	32.650	0.167	-0.142
-259.180	245.950	0.101	-0.167
-258.165	17.888	-0.236	0.185
-257.151	129.951	-0.087	0.110
-256.136	130.317	0.145	0.183
-255.122	82.382	0.236	0.252
-254.107	-125.449	-0.406	0.061
-253.092	-83.395	-0.356	0.112
-252.078	270.380	-0.068	0.118
-251.063	-7.237	0.016	0.011
-250.049	471.654	0.066	-0.146
-249.034	-95.909	0.046	0.012
-248.019	-154.698	-0.075	-0.005
-247.005	-200.000	0.001	-0.262
-245.990	-66.563	0.092	0.036
-244.976	-149.187	-0.205	0.016
-243.961	-200.000	-0.029	0.190
-242.946	-13.803	0.040	0.026
-241.932	800.000	-0.093	0.263
-240.917	214.370	-0.033	-0.052
-239.903	150.197	0.202	-0.269
-238.888	288.606	-0.184	0.327
-237.873	-154.023	0.348	0.023
-236.859	-39.292	0.182	0.094
-235.844	-96.579	-0.382	0.099
-234.830	-200.000	0.010	-0.187
-233.815	320.366	0.145	0.270
-232.800	105.709	0.161	0.188
-231.786	-92.099	-0.191	0.053
-230.771	-200.000	0.013	-0.231
-229.757	119.846	0.186	-0.226
-228.742	53.089	0.180	-0.169
-227.727	-35.403	-0.276	-0.148
-226.713	110.860	-0.112	-0.133
-225.698	-82.626	0.124	0.039
-224.684	58.012	0.171	-0.165
-223.669	-87.825	-0.165	0.049
-222.655	-200.000	0.018	-0.161
-221.640	-200.000	-0.045	-0.207
-220.625	-173.578	0.223	-0.007
-219.611	17.597	0.250	0.195
-218.596	138.136	0.086	0.111
-217.582	72.683	0.173	-0.178
-216.567	-151.618	0.322	0.023
-215.552	-97.597	0.259	0.066
-214.538	-43.912	0.255	-0.126
-213.523	800.000	-0.166	-0.490
-212.509	-29.121	-0.380	0.214
-211.494	679.549	-0.084	0.214
-210.479	150.377	0.106	0.142
-209.465	38.093	0.298	0.260
-208.450	-200.000	0.001	-0.042
-207.436	-68.037	-0.282	0.108
-206.421	800.000	0.063	0.172
-205.406	-200.000	-0.004	-0.052
-204.392	-126.747	0.122	0.018
-203.377	-38.232	-0.245	0.128
-202.363	800.000	0.022	0.068
-201.348	45.950	0.299	0.271
-200.333	-93.263	-0.293	-0.080
-199.319	42.148	0.182	0.162
-198.304	-200.000	0.005	-0.153
-197.290	337.986	-0.145	0.276
-196.275	-105.836	-0.384	0.085
-195.260	-126.687	-0.225	-0.033
-194.246	55.332	0.172	-0.163
-193.231	8.700	0.156	-0.116
-192.217	-131.771	-0.326	0.042
-191.202	-200.000	0.011	-0.105
-190.187	-68.452	-0.228	0.087
-189.173	-2.537	0.209	-0.144
-188.158	-22.624	-0.074	0.044
-187.144	-148.379	0.110	0.009
-186.129	-4.084	-0.194	0.132
-185.114	-200.000	-0.026	-0.230
-184.100	347.725	0.021	-0.041
-183.085	-79.136	-0.120	0.040
-182.071	218.190	0.100	0.156
-181.056	-200.000	-0.013	-0.074
-180.042	-59.688	0.234	-0.099
-179.027	-38.440	0.078	-0.040
-178.012	35.570	0.335	0.289
-176.998	-111.768	0.113	-0.022
-175.983	-200.000	-0.003	-0.126
-174.969	-132.663	0.090	-0.011
-173.954	-108.490	-0.229	-0.048
-172.939	-63.555	0.265	-0.107
-171.925	-33.120	-0.142	-0.077
-170.910	441.292	-0.155	0.332
-169.896	-133.672	0.119	0.015
-168.881	-200.000	0.022	0.162
-167.866	-200.000	-0.009	-0.119
-166.852	33.840	0.118	-0.100
-165.837	186.846	0.147	-0.214
-164.823	24.472	-0.258	-0.209
-163.808	800.000	-0.095	0.258
-162.793	40.053	0.205	-0.181
-161.779	167.890	-0.214	0.298
-160.764	710.202	-0.102	0.263
-159.750	19.871	-0.077	0.061
-158.735	-132.499	0.204	0.026
-157.720	800.000	0.076	-0.272
-156.706	-59.686	0.124	-0.052
-155.691	-12.857	-0.168	-0.107
-154.677	800.000	0.050	0.180
-153.662	-165.419	-0.068	0.003
-152.647	-54.824	-0.128	-0.057
-151.633	800.000	-0.083	0.224
-150.618	-146.700	-0.278	-0.024
-149.604	293.452	-0.165	0.295
-148.589	43.815	-0.057	-0.051
-147.574	-72.754	-0.101	0.036
-146.560	33.105	0.087	0.074
-145.545	800.000	-0.047	0.177
-144.531	94.653	-0.161	0.180
-143.516	-154.335	-0.085	0.006
-142.502	-156.016	-0.196	-0.012
-141.487	-200.000	-0.038	-0.195
-140.472	-87.212	0.102	-0.030
-139.458	-128.128	0.105	-0.015
-138.443	64.156	0.081	0.080
-137.429	676.812	0.049	0.124
-136.414	-81.043	-0.381	-0.124
-135.399	800.000	0.038	-0.155
-134.385	543.869	-0.096	-0.226
-133.370	204.519	-0.172	0.262
-132.356	-200.000	0.019	0.160
-131.341	-200.000	0.007	0.062
-130.326	-118.038	0.411	-0.072
-129.312	-45.051	-0.211	0.103
-128.297	65.297	0.072	0.072
-127.283	104.728	0.154	-0.178
-126.268	0.817	-0.182	-0.128
-125.253	602.930	0.096	-0.233
-124.239	-14.263	-0.156	-0.099
-123.224	-200.000	0.184	-0.001
-122.210	-94.456	-0.169	0.045
-121.195	-75.963	-0.487	-0.169
