DTS Sentinel unit serial number:	SN413079Multiplexer serial number:	ORYXHardware model number:	OX4-SRSoftware version number:	ORYX F/W v4.00 Oryx Data Collector v3.7.2.0data status	okinstallation	princeton_trtdifferential loss correction	single-endedforward channel	channel 3reverse channel	N/Adate	2019/09/13time	13:08:35forward acquisition time	60.00reverse acquisition time	0.00gamma	496.2192k internal	0.2303k external	0.2303temperature offset calibration	1.0148default loss term (dB/km)	0.3790temperature slope calibration	1.0000multiplexer offset coefficient	1.0000multiplexer slope coefficient	1.0000fibre end	0.00T internal ref (°C)	34.84T ext. ref 1 (°C)	4.57T ext. ref 2 (°C)	31.40length (m)	temperature (°C)	Stokes	anti-Stokes-747.200	-100.026	0.112	-0.028
-746.185	-200.000	0.010	0.246
-745.171	-200.000	-0.018	0.081
-744.156	176.403	-0.070	-0.103
-743.142	293.335	0.098	0.182
-742.127	-200.000	0.038	-0.247
-741.112	800.000	0.088	-0.247
-740.098	34.789	0.044	-0.039
-739.083	3.182	-0.248	0.183
-738.069	65.086	0.115	-0.118
-737.054	-52.680	0.242	0.114
-736.039	124.657	0.329	-0.422
-735.025	125.004	-0.026	-0.034
-734.010	-178.330	-0.223	0.005
-732.996	-47.385	0.100	0.049
-731.981	-103.209	-0.387	-0.093
-730.966	-17.098	-0.146	-0.094
-729.952	-200.000	-0.004	-0.095
-728.937	6.248	-0.405	-0.306
-727.923	-200.000	0.082	-0.473
-726.908	-200.000	-0.011	-0.339
-725.894	-34.983	-0.070	-0.039
-724.879	-124.677	0.146	-0.023
-723.864	-89.595	0.122	0.036
-722.850	135.527	-0.199	0.264
-721.835	295.708	-0.090	-0.168
-720.821	-119.877	-0.256	0.045
-719.806	-200.000	0.020	-0.097
-718.791	-200.000	-0.009	0.220
-717.777	15.219	-0.045	0.036
-716.762	214.086	0.109	-0.175
-715.748	235.354	0.248	-0.416
-714.733	287.287	0.152	-0.279
-713.718	-7.075	0.064	-0.044
-712.704	-75.446	-0.241	0.087
-711.689	201.038	0.070	0.110
-710.675	-139.463	0.319	-0.035
-709.660	37.723	-0.089	-0.080
-708.645	178.171	-0.107	-0.158
-707.631	262.500	-0.059	-0.103
-706.616	-80.875	-0.167	-0.056
-705.602	-18.449	-0.217	-0.138
-704.587	121.005	0.141	-0.178
-703.572	202.218	0.094	0.147
-702.558	42.560	-0.205	-0.189
-701.543	-176.256	0.247	-0.007
-700.529	81.275	0.215	0.237
-699.514	-44.647	-0.156	0.079
-698.499	-200.000	-0.075	0.506
-697.485	-200.000	-0.010	-0.308
-696.470	800.000	-0.056	0.159
-695.456	455.082	0.040	-0.090
-694.441	-37.739	0.237	0.128
-693.426	800.000	-0.055	0.197
-692.412	10.182	-0.154	-0.119
-691.397	628.701	-0.037	0.094
-690.383	-143.982	-0.165	-0.016
-689.368	-45.906	0.120	-0.060
-688.354	-59.117	-0.047	0.021
-687.339	-200.000	-0.003	-0.108
-686.324	107.559	-0.064	-0.077
-685.310	11.525	-0.029	-0.022
-684.295	-200.000	0.052	-0.502
-683.281	486.899	-0.098	0.228
-682.266	-23.892	0.181	-0.110
-681.251	54.732	0.020	-0.020
-680.237	-102.914	-0.398	0.096
-679.222	44.090	-0.197	-0.183
-678.208	-7.156	0.363	0.250
-677.193	114.525	-0.256	-0.317
-676.178	-200.000	-0.062	-0.300
-675.164	276.733	-0.064	-0.115
-674.149	76.598	0.073	-0.079
-673.135	-200.000	-0.012	-0.319
-672.120	800.000	0.096	0.317
-671.105	-200.000	-0.292	0.001
-670.091	-53.851	-0.270	-0.125
-669.076	-200.000	-0.079	0.000
-668.062	800.000	-0.017	0.064
-667.047	-200.000	-0.002	-0.029
-666.032	248.411	-0.118	-0.202
-665.018	443.232	-0.099	-0.220
-664.003	303.611	0.135	-0.254
-662.989	55.945	0.148	0.146
-661.974	267.022	-0.221	-0.392
-660.959	-0.519	-0.070	0.050
-659.945	-92.425	0.190	-0.054
-658.930	622.376	-0.162	-0.415
-657.916	-66.850	0.152	0.061
-656.901	-200.000	-0.147	-0.000
-655.886	491.034	0.162	0.376
-654.872	-117.579	-0.513	-0.094
-653.857	-26.301	-0.079	-0.047
-652.843	-200.000	0.032	-0.151
-651.828	800.000	0.037	-0.108
-650.814	800.000	-0.025	-0.075
-649.799	10.363	0.102	-0.079
-648.784	348.591	-0.055	0.110
-647.770	-69.897	0.027	-0.011
-646.755	-188.930	0.244	-0.003
-645.741	107.259	0.133	-0.160
-644.726	-26.709	-0.130	0.077
-643.711	800.000	0.042	-0.150
-642.697	-119.202	0.245	0.043
-641.682	-92.754	0.239	0.068
-640.668	-200.000	-0.054	0.310
-639.653	-86.704	-0.373	0.116
-638.638	-155.171	0.370	-0.025
-637.624	800.000	0.049	0.159
-636.609	-116.212	0.253	-0.048
-635.595	453.350	0.082	-0.184
-634.580	-200.000	0.016	0.173
-633.565	171.778	-0.093	0.135
-632.551	-93.467	0.040	0.011
-631.536	40.260	-0.020	-0.019
-630.522	-23.486	-0.314	0.191
-629.507	75.213	-0.053	-0.057
-628.492	-28.430	-0.348	-0.204
-627.478	-1.819	-0.144	-0.103
-626.463	448.332	0.159	-0.354
-625.449	-61.261	-0.267	-0.114
-624.434	-61.444	-0.142	0.061
-623.419	-200.000	0.040	0.208
-622.405	19.171	0.257	-0.209
-621.390	188.331	-0.153	0.231
-620.376	-61.261	0.124	-0.053
-619.361	338.540	-0.125	-0.247
-618.346	151.256	0.071	-0.098
-617.332	122.382	0.119	0.150
-616.317	-139.841	0.294	0.032
-615.303	-64.268	-0.325	-0.134
-614.288	-105.536	0.166	0.038
-613.273	800.000	0.047	0.158
-612.259	-200.000	0.061	0.460
-611.244	-54.693	0.027	0.012
-610.230	72.389	-0.236	-0.249
-609.215	-118.829	-0.290	0.052
-608.201	-115.747	0.301	0.057
-607.186	42.084	0.155	-0.143
-606.171	-37.842	-0.085	0.046
-605.157	31.275	0.114	0.099
-604.142	-151.822	-0.213	0.016
-603.128	69.171	-0.215	0.224
-602.113	-160.871	-0.175	-0.009
-601.098	4.954	0.164	0.122
-600.084	-127.704	-0.141	-0.021
-599.069	800.000	-0.006	-0.020
-598.055	172.482	0.070	-0.102
-597.040	-33.862	-0.176	-0.098
-596.025	-15.951	0.290	-0.187
-595.011	-107.229	0.236	-0.053
-593.996	-200.000	0.008	0.048
-592.982	800.000	0.077	0.250
-591.967	800.000	0.078	0.281
-590.952	123.138	-0.070	-0.088
-589.938	-89.581	0.092	-0.027
-588.923	-200.000	0.027	0.467
-587.909	170.894	-0.199	-0.289
-586.894	153.920	-0.110	-0.153
-585.879	349.242	0.052	-0.104
-584.865	-200.000	-0.018	0.309
-583.850	-135.569	0.419	0.050
-582.836	-75.303	0.220	-0.080
-581.821	80.627	0.072	0.078
-580.806	390.830	0.072	-0.150
-579.792	190.501	0.179	-0.272
-578.777	-200.000	0.012	-0.180
-577.763	-1.242	-0.074	0.053
-576.748	-85.843	-0.236	0.074
-575.733	-200.000	0.001	0.249
-574.719	185.877	0.042	-0.063
-573.704	138.160	-0.186	0.247
-572.690	-200.000	0.032	-0.181
-571.675	21.597	-0.258	-0.212
-570.661	800.000	-0.064	0.233
-569.646	800.000	-0.089	0.378
-568.631	-27.534	-0.324	0.191
-567.617	-89.141	-0.288	0.086
-566.602	800.000	0.103	-0.383
-565.588	28.170	-0.096	-0.082
-564.573	-134.128	0.225	0.028
-563.558	-56.792	0.105	-0.047
-562.544	-200.000	0.000	-0.358
-561.529	-175.470	0.166	0.005
-560.515	26.556	0.166	-0.140
-559.500	-43.884	-0.309	-0.157
-558.485	-13.233	0.280	-0.184
-557.471	67.373	-0.241	0.249
-556.456	-200.000	0.018	-0.134
-555.442	-14.510	0.260	0.169
-554.427	-76.596	0.396	-0.140
-553.412	-136.690	0.159	-0.019
-552.398	-8.074	-0.181	0.124
-551.383	-9.699	0.113	0.076
-550.369	-101.462	-0.495	0.122
-549.354	255.440	-0.108	-0.187
-548.339	41.388	-0.137	0.125
-547.325	-15.439	-0.060	-0.039
-546.310	-200.000	0.023	-0.143
-545.296	-171.985	-0.354	-0.012
-544.281	471.377	0.042	-0.095
-543.266	33.602	0.242	-0.213
-542.252	-155.461	0.217	0.014
-541.237	-22.409	-0.196	0.120
-540.223	-73.763	0.295	0.109
-539.208	318.673	-0.170	0.326
-538.193	-114.341	-0.211	0.041
-537.179	14.576	-0.185	-0.146
-536.164	-200.000	-0.041	0.247
-535.150	-71.615	0.293	-0.111
-534.135	2.253	0.129	0.094
-533.121	800.000	0.077	0.291
-532.106	-200.000	-0.037	-0.178
-531.091	18.167	-0.141	0.113
-530.077	771.738	0.084	0.233
-529.062	24.209	-0.324	0.270
-528.048	398.919	-0.082	-0.173
-527.033	-200.000	0.026	0.135
-526.018	-124.343	-0.274	-0.043
-525.004	-200.000	0.046	-0.411
-523.989	-200.000	0.028	-0.180
-522.975	32.325	0.012	0.010
-521.960	-66.251	-0.207	0.083
-520.945	23.472	-0.170	-0.141
-519.931	3.853	0.063	0.047
-518.916	-49.139	-0.278	0.134
-517.902	402.196	0.036	-0.076
-516.887	-54.933	-0.153	0.070
-515.872	800.000	-0.077	0.241
-514.858	24.621	-0.241	-0.201
-513.843	-19.404	0.153	0.095
-512.829	101.095	-0.098	0.116
-511.814	244.703	-0.114	0.193
-510.799	800.000	-0.017	-0.062
-509.785	217.715	0.016	-0.025
-508.770	-200.000	-0.002	-0.139
-507.756	104.745	-0.320	0.381
-506.741	-200.000	-0.002	-0.167
-505.726	-73.176	-0.068	-0.025
-504.712	-200.000	0.017	0.098
-503.697	517.115	-0.124	-0.293
-502.683	407.031	0.070	-0.150
-501.668	73.864	-0.135	-0.143
-500.653	-200.000	0.013	-0.065
-499.639	241.987	-0.166	0.281
-498.624	28.670	0.242	-0.207
-497.610	-200.000	0.016	-0.191
-496.595	800.000	-0.032	0.121
-495.581	158.185	-0.058	-0.082
-494.566	35.393	-0.111	0.098
-493.551	-200.000	0.005	-0.052
-492.537	-191.225	-0.269	0.003
-491.522	-200.000	-0.037	0.201
-490.508	34.379	0.210	0.185
-489.493	800.000	0.068	-0.202
-488.478	120.586	0.232	-0.290
-487.464	172.778	-0.071	-0.102
-486.449	-104.959	-0.162	-0.037
-485.435	-100.565	-0.096	0.024
-484.420	-200.000	-0.013	0.000
-483.405	676.671	-0.091	-0.237
-482.391	317.909	-0.097	-0.184
-481.376	696.047	0.028	-0.074
-480.362	800.000	-0.081	-0.229
-479.347	-29.476	0.192	-0.110
-478.332	207.142	0.094	-0.147
-477.318	-35.518	-0.087	-0.048
-476.303	261.081	-0.171	0.299
-475.289	43.824	-0.231	-0.213
-474.274	-200.000	0.032	-0.196
-473.259	162.370	-0.150	0.213
-472.245	-104.076	0.089	-0.021
-471.230	800.000	0.119	0.336
-470.216	-88.548	0.206	0.062
-469.201	-61.962	-0.378	0.159
-468.186	-125.076	0.083	0.013
-467.172	-10.028	-0.168	-0.112
-466.157	800.000	0.022	-0.062
-465.143	93.885	-0.137	0.156
-464.128	-133.476	-0.078	0.010
-463.113	-60.417	0.326	0.140
-462.099	800.000	-0.061	-0.232
-461.084	709.916	-0.126	0.335
-460.070	1.414	0.226	-0.163
-459.055	-131.657	0.148	-0.020
-458.040	286.017	0.051	-0.092
-457.026	-87.967	-0.147	-0.045
-456.011	-200.000	0.005	-0.029
-454.997	-30.958	-0.138	0.078
-453.982	117.544	0.181	0.224
-452.968	-200.000	0.031	-0.462
-451.953	325.921	-0.100	-0.192
-450.938	-105.002	0.209	0.048
-449.924	127.748	0.043	-0.055
-448.909	98.237	0.116	0.135
-447.895	6.938	-0.193	0.144
-446.880	-200.000	0.005	-0.189
-445.865	260.076	-0.061	0.106
-444.851	-4.895	0.220	-0.153
-443.836	-85.062	-0.191	0.060
-442.822	-17.000	-0.099	0.063
-441.807	-160.093	0.170	0.009
-440.792	-68.717	-0.125	0.049
-439.778	-88.370	-0.259	0.078
-438.763	16.785	0.042	-0.033
-437.749	-200.000	0.000	0.048
-436.734	-200.000	0.038	-0.237
-435.719	-200.000	0.052	0.295
-434.705	64.678	0.219	0.223
-433.690	-80.414	-0.185	-0.062
-432.676	-200.000	-0.034	-0.154
-431.661	-1.462	-0.167	-0.119
-430.646	-200.000	0.009	-0.164
-429.632	165.028	-0.083	0.118
-428.617	12.611	0.244	-0.190
-427.603	-160.696	-0.039	-0.002
-426.588	351.669	-0.156	0.312
-425.573	-16.676	0.133	0.085
-424.559	566.113	-0.072	0.176
-423.544	-86.995	0.087	-0.027
-422.530	126.908	0.128	-0.164
-421.515	282.371	0.061	0.109
-420.500	170.982	-0.102	0.147
-419.486	-134.841	0.305	-0.037
-418.471	-159.791	-0.288	0.016
-417.457	-91.916	0.144	0.041
-416.442	-200.000	0.008	-0.223
-415.428	-14.529	-0.079	0.051
-414.413	-200.000	0.075	-0.461
-413.398	-200.000	-0.032	-0.318
-412.384	-200.000	0.013	0.260
-411.369	-80.431	0.168	0.056
-410.355	91.649	-0.160	0.180
-409.340	99.956	-0.147	0.171
-408.325	52.587	0.096	0.092
-407.311	-110.255	-0.193	0.040
-406.296	96.925	0.289	0.334
-405.282	-200.000	0.072	0.508
-404.267	662.191	0.086	-0.223
-403.252	-116.890	-0.249	-0.046
-402.238	-149.556	0.298	0.024
-401.223	-127.444	0.075	0.011
-400.209	777.860	-0.111	-0.305
-399.194	81.789	0.190	-0.206
-398.179	-112.849	0.211	-0.042
-397.165	-200.000	-0.020	-0.089
-396.150	121.552	-0.065	0.081
-395.136	25.940	-0.204	-0.171
-394.121	511.194	-0.064	0.149
-393.106	25.948	-0.068	0.057
-392.092	124.887	-0.134	-0.169
-391.077	-63.651	0.269	-0.111
-390.063	-172.220	0.237	-0.008
-389.048	-160.774	0.129	-0.007
-388.033	800.000	-0.079	0.227
-387.019	295.129	-0.061	-0.113
-386.004	-200.000	-0.015	-0.309
-384.990	-200.000	0.013	-0.076
-383.975	-121.255	0.088	-0.015
-382.960	55.786	0.328	-0.319
-381.946	-200.000	0.042	0.331
-380.931	-18.465	-0.127	0.080
-379.917	-43.564	0.225	-0.114
-378.902	-111.555	0.096	-0.020
-377.888	-111.178	0.104	0.021
-376.873	-200.000	-0.002	-0.019
-375.858	-200.000	0.066	-0.365
-374.844	-200.000	-0.012	0.206
-373.829	-200.000	-0.052	-0.386
-372.815	-144.649	0.097	-0.009
-371.800	-92.183	-0.275	0.078
-370.785	-27.887	-0.084	-0.049
-369.771	263.036	-0.129	0.225
-368.756	-137.861	0.156	-0.018
-367.742	-6.432	-0.297	0.203
-366.727	-102.749	-0.139	0.033
-365.712	67.062	0.177	0.181
-364.698	800.000	0.066	-0.190
-363.683	343.372	-0.067	0.132
-362.669	-39.097	0.251	0.132
-361.654	-41.536	0.156	0.080
-360.639	607.566	-0.055	-0.137
-359.625	-22.706	-0.331	-0.200
-358.610	76.853	-0.082	-0.088
-357.596	68.455	-0.048	0.049
-356.581	277.169	0.090	0.161
-355.566	154.232	-0.281	-0.387
-354.552	-44.994	0.056	-0.028
-353.537	-128.617	0.008	0.001
-352.523	-138.261	0.267	0.030
-351.508	800.000	0.070	0.287
-350.493	-84.820	0.170	-0.054
-349.479	194.601	0.166	-0.252
-348.464	800.000	-0.025	-0.106
-347.450	-89.895	-0.262	0.077
-346.435	612.253	0.026	0.065
-345.420	-113.037	0.148	-0.029
-344.406	21.303	0.226	0.184
-343.391	800.000	0.047	0.155
-342.377	109.505	-0.065	-0.078
-341.362	164.211	0.109	0.154
-340.348	-144.359	0.262	0.024
-339.333	-103.679	-0.094	-0.022
-338.318	-111.287	-0.025	-0.005
-337.304	124.702	0.153	-0.193
-336.289	525.530	0.190	-0.449
-335.275	-94.325	-0.143	0.039
-334.260	528.327	0.114	0.269
-333.245	273.001	-0.103	-0.182
-332.231	800.000	-0.054	-0.182
-331.216	-37.976	0.086	0.046
-330.202	-158.492	-0.272	-0.016
-329.187	130.875	0.076	-0.097
-328.172	-179.499	0.357	0.008
-327.158	91.918	0.065	-0.073
-326.143	-39.471	0.152	-0.080
-325.129	-85.967	0.145	0.045
-324.114	-200.000	-0.036	-0.247
-323.099	298.132	0.129	-0.238
-322.085	-2.976	0.062	-0.043
-321.070	223.833	-0.117	0.189
-320.056	-174.107	-0.214	-0.006
-319.041	-47.587	-0.138	0.067
-318.026	-200.000	-0.042	-0.348
-317.012	-46.055	0.287	-0.142
-315.997	9.802	0.198	0.151
-314.983	800.000	0.087	0.326
-313.968	-109.345	-0.212	0.045
-312.953	105.008	0.107	-0.126
-311.939	368.579	0.073	-0.149
-310.924	-33.198	-0.280	0.155
-309.910	-6.491	0.134	-0.092
-308.895	-200.000	-0.010	-0.097
-307.880	800.000	0.025	-0.099
-306.866	207.727	-0.144	-0.224
-305.851	800.000	-0.098	-0.292
-304.837	117.210	-0.156	0.192
-303.822	-200.000	-0.080	0.389
-302.807	-200.000	-0.017	0.200
-301.793	49.029	-0.095	0.089
-300.778	320.204	0.057	0.109
-299.764	68.870	-0.293	-0.301
-298.749	-107.129	0.085	-0.019
-297.735	-200.000	-0.067	-0.491
-296.720	94.689	0.349	-0.397
-295.705	535.903	0.030	-0.072
-294.691	24.109	0.061	-0.051
-293.676	260.039	-0.196	0.339
-292.662	-200.000	0.003	0.120
-291.647	800.000	-0.056	-0.204
-290.632	-77.045	0.265	-0.093
-289.618	800.000	-0.047	0.180
-288.603	458.085	-0.024	0.054
-287.589	-63.378	-0.099	0.041
-286.574	60.711	0.179	-0.177
-285.559	294.074	-0.080	0.145
-284.545	8.653	-0.131	-0.098
-283.530	55.666	-0.182	-0.176
-282.516	-37.412	0.173	0.093
-281.501	-200.000	-0.019	-0.089
-280.486	800.000	-0.055	-0.177
-279.472	-14.801	-0.326	-0.209
-278.457	27.654	-0.115	-0.097
-277.443	94.083	0.089	0.101
-276.428	-115.895	0.086	0.016
-275.413	68.353	0.266	-0.273
-274.399	-142.154	0.101	-0.010
-273.384	51.062	-0.113	0.107
-272.370	-137.194	0.137	-0.016
-271.355	84.667	-0.100	-0.110
-270.340	281.426	-0.128	0.230
-269.326	-200.000	-0.025	-0.206
-268.311	103.327	0.205	0.240
-267.297	158.808	-0.135	-0.188
-266.282	-84.758	0.122	0.039
-265.267	251.617	-0.124	-0.211
-264.253	-200.000	-0.063	0.342
-263.238	-139.336	0.248	-0.027
-262.224	25.352	0.286	0.237
-261.209	14.594	0.234	-0.182
-260.195	570.895	0.044	0.108
-259.180	-83.948	-0.070	0.022
-258.165	-141.049	0.386	-0.040
-257.151	-92.097	0.347	0.098
-256.136	186.194	0.130	-0.193
-255.122	78.819	0.147	-0.157
-254.107	-121.321	-0.145	0.024
-253.092	-31.632	0.153	-0.086
-252.078	76.078	0.210	0.222
-251.063	791.905	-0.091	0.251
-250.049	-146.237	-0.403	-0.035
-249.034	187.645	0.219	-0.327
-248.019	592.904	-0.101	-0.249
-247.005	800.000	0.111	-0.388
-245.990	461.963	-0.097	-0.216
-244.976	207.898	-0.131	0.205
-243.961	-200.000	-0.044	0.291
-242.946	-200.000	-0.031	0.205
-241.932	-49.800	-0.050	0.024
-240.917	-1.942	0.297	0.209
-239.903	-71.522	0.140	0.052
-238.888	-44.793	-0.137	0.068
-237.873	-179.106	-0.342	0.008
-236.859	127.236	-0.060	-0.076
-235.844	560.573	0.122	-0.294
-234.830	12.219	-0.200	0.153
-233.815	800.000	0.061	-0.183
-232.800	-148.471	-0.407	-0.033
-231.786	-200.000	-0.029	0.167
-230.771	1.711	0.256	-0.184
-229.757	-77.470	-0.157	0.054
-228.742	153.049	0.084	-0.114
-227.727	-86.317	0.094	0.029
-226.713	-200.000	0.038	0.263
-225.698	-125.802	-0.144	0.022
-224.684	304.543	-0.102	0.189
-223.669	800.000	-0.016	0.050
-222.655	434.443	-0.132	0.285
-221.640	37.055	-0.254	-0.224
-220.625	-200.000	0.009	0.106
-219.611	-13.599	-0.089	-0.057
-218.596	800.000	0.047	0.155
-217.582	-141.164	0.279	0.028
-216.567	-200.000	-0.020	0.135
-215.552	636.379	-0.057	0.146
-214.538	10.208	0.258	0.195
-213.523	-42.272	0.204	-0.104
-212.509	-29.540	0.271	0.154
-211.494	40.434	0.067	-0.060
-210.479	-200.000	-0.047	0.293
-209.465	-32.152	-0.018	-0.010
-208.450	69.966	0.089	-0.091
-207.436	-200.000	-0.042	-0.201
-206.421	121.049	0.125	0.156
-205.406	-28.750	0.122	0.070
-204.392	800.000	0.047	0.133
-203.377	-200.000	-0.033	0.198
-202.363	337.346	-0.098	-0.191
-201.348	-200.000	0.015	-0.322
-200.333	-145.878	-0.253	0.022
-199.319	-200.000	0.030	-0.160
-198.304	800.000	-0.055	-0.173
-197.290	300.522	0.078	0.143
-196.275	192.857	0.218	0.328
-195.260	-200.000	-0.001	-0.095
-194.246	-55.827	-0.291	-0.130
-193.231	17.256	0.072	-0.057
-192.217	-78.130	0.111	0.038
-191.202	800.000	0.056	-0.188
-190.187	800.000	-0.108	0.399
-189.173	-153.900	0.347	-0.024
-188.158	800.000	0.083	0.298
-187.144	12.260	0.110	-0.085
-186.129	42.472	-0.113	0.102
-185.114	91.302	-0.186	-0.208
-184.100	-55.638	-0.167	-0.074
-183.085	-69.790	-0.438	-0.167
-182.071	-48.210	-0.087	0.042
-181.056	735.514	0.031	0.084
-180.042	174.837	0.127	-0.183
-179.027	-106.417	-0.202	0.045
-178.012	-109.356	-0.162	-0.034
-176.998	-157.487	-0.227	0.014
-175.983	37.858	-0.145	0.128
-174.969	-51.714	-0.134	-0.062
-173.954	800.000	-0.052	0.202
-172.939	-138.032	0.314	-0.035
-171.925	-136.659	0.129	-0.015
-170.910	120.360	0.083	0.103
-169.896	419.675	0.027	-0.058
-168.881	-200.000	-0.014	0.192
-167.866	19.770	-0.171	-0.137
-166.852	186.974	0.206	0.305
-165.837	-85.037	-0.206	0.064
-164.823	75.498	0.067	0.070
-163.808	-93.181	-0.270	-0.075
-162.793	154.060	-0.106	0.145
-161.779	52.061	-0.197	0.187
-160.764	634.136	0.132	0.334
-159.750	182.123	0.047	0.069
-158.735	-200.000	0.032	0.376
-157.720	800.000	0.049	0.166
-156.706	54.455	0.227	0.218
-155.691	338.911	0.128	0.249
-154.677	-200.000	-0.008	-0.147
-153.662	-138.343	0.188	-0.021
-152.647	183.775	-0.177	-0.260
-151.633	-200.000	0.008	0.107
-150.618	311.425	0.250	0.467
-149.604	199.904	-0.022	0.034
-148.589	-86.088	0.231	-0.071
-147.574	-58.551	0.237	0.102
-146.560	-200.000	0.010	0.196
-145.545	21.916	0.068	0.055
-144.531	105.001	-0.115	0.134
-143.516	96.456	0.096	-0.109
-142.502	800.000	0.090	0.341
-141.487	7.726	-0.045	0.033
-140.472	-83.267	-0.141	0.045
-139.458	-40.628	-0.105	0.054
-138.443	559.727	-0.050	-0.119
-137.429	-56.698	-0.146	0.064
-136.414	800.000	0.142	0.578
-135.399	566.097	0.168	0.405
-134.385	800.000	0.062	-0.173
-133.370	-200.000	-0.021	-0.168
-132.356	-62.278	0.136	-0.056
-131.341	-200.000	0.015	-0.101
-130.326	-45.400	-0.089	0.044
-129.312	201.147	-0.030	-0.045
-128.297	-200.000	0.022	-0.355
-127.283	30.568	-0.127	0.108
-126.268	359.233	-0.126	-0.250
-125.253	-200.000	0.020	0.180
-124.239	-62.200	-0.171	-0.071
-123.224	-88.707	0.337	0.100
-122.210	114.329	-0.198	0.239
-121.195	246.297	0.167	0.280
