DTS Sentinel unit serial number:	SN413079Multiplexer serial number:	ORYXHardware model number:	OX4-SRSoftware version number:	ORYX F/W v4.00 Oryx Data Collector v3.7.2.0data status	okinstallation	princeton_trtdifferential loss correction	single-endedforward channel	channel 3reverse channel	N/Adate	2019/09/19time	03:08:34forward acquisition time	60.00reverse acquisition time	0.00gamma	496.2192k internal	0.2348k external	0.2348temperature offset calibration	0.9992default loss term (dB/km)	0.3790temperature slope calibration	1.0000multiplexer offset coefficient	1.0000multiplexer slope coefficient	1.0000fibre end	0.00T internal ref (°C)	20.81T ext. ref 1 (°C)	0.65T ext. ref 2 (°C)	14.38length (m)	temperature (°C)	Stokes	anti-Stokes-747.200	-122.933	0.089	0.014
-746.185	800.000	-0.079	-0.309
-745.171	-140.066	0.386	-0.041
-744.156	269.419	-0.170	-0.298
-743.142	-113.147	-0.239	-0.047
-742.127	800.000	0.096	0.368
-741.112	23.733	-0.267	0.220
-740.098	-200.000	-0.003	0.341
-739.083	800.000	-0.060	0.247
-738.069	161.857	0.172	0.240
-737.054	-112.272	0.187	-0.038
-736.039	-144.182	-0.566	-0.053
-735.025	-188.344	0.178	-0.002
-734.010	800.000	0.067	-0.289
-732.996	30.854	-0.230	0.197
-731.981	-159.447	-0.287	0.016
-730.966	-200.000	-0.027	-0.221
-729.952	-80.789	0.057	0.019
-728.937	-40.188	-0.198	-0.103
-727.923	-200.000	0.009	-0.135
-726.908	54.809	0.147	0.141
-725.894	748.622	0.030	-0.081
-724.879	185.684	0.148	0.219
-723.864	800.000	-0.081	0.267
-722.850	492.358	-0.140	0.319
-721.835	-122.371	-0.193	0.031
-720.821	-152.847	-0.115	0.008
-719.806	-33.244	-0.183	-0.101
-718.791	247.973	-0.043	0.072
-717.777	-200.000	0.085	0.418
-716.762	107.392	0.192	0.228
-715.748	-127.588	0.448	0.065
-714.733	-117.307	-0.065	0.012
-713.718	47.915	0.476	0.443
-712.704	-8.211	-0.342	0.230
-711.689	135.984	-0.156	0.203
-710.675	44.790	0.098	0.090
-709.660	800.000	0.041	-0.127
-708.645	82.489	-0.034	0.036
-707.631	41.850	0.113	-0.102
-706.616	-80.206	-0.353	0.118
-705.602	-18.620	-0.377	0.235
-704.587	275.554	-0.156	0.276
-703.572	-124.228	-0.286	-0.045
-702.558	26.218	0.104	-0.086
-701.543	155.584	0.061	0.083
-700.529	5.141	0.315	-0.231
-699.514	-15.019	-0.226	-0.144
-698.499	132.844	-0.223	-0.288
-697.485	-200.000	0.019	0.187
-696.470	-3.178	0.310	0.215
-695.456	231.142	-0.087	-0.143
-694.441	98.476	-0.263	-0.302
-693.426	800.000	0.130	-0.378
-692.412	199.625	-0.118	-0.180
-691.397	-157.584	-0.136	0.008
-690.383	-200.000	0.067	-0.383
-689.368	373.128	-0.131	-0.266
-688.354	-52.034	-0.194	0.090
-687.339	10.719	-0.249	-0.189
-686.324	-200.000	0.003	0.261
-685.310	-138.779	-0.077	-0.008
-684.295	-114.922	-0.306	-0.058
-683.281	-200.000	-0.000	0.140
-682.266	-70.156	-0.064	-0.024
-681.251	-200.000	-0.034	-0.373
-680.237	-57.315	0.393	0.172
-679.222	-43.215	0.218	0.110
-678.208	292.339	0.105	0.191
-677.193	434.406	0.133	0.289
-676.178	-200.000	-0.020	-0.105
-675.164	-132.688	-0.179	0.023
-674.149	-134.626	0.161	-0.020
-673.135	297.521	-0.120	-0.220
-672.120	248.738	0.157	-0.265
-671.105	-200.000	0.014	-0.075
-670.091	-22.129	0.063	-0.038
-669.076	800.000	0.077	-0.229
-668.062	-200.000	-0.120	0.555
-667.047	404.999	-0.138	-0.290
-666.032	-113.302	-0.200	-0.039
-665.018	-21.979	-0.168	0.102
-664.003	-75.807	0.146	-0.052
-662.989	-45.843	-0.086	-0.042
-661.974	-200.000	0.075	-0.373
-660.959	-58.595	0.087	-0.038
-659.945	20.058	0.316	0.254
-658.930	165.392	-0.103	-0.145
-657.916	767.168	-0.090	-0.245
-656.901	-110.207	0.173	0.036
-655.886	279.297	0.100	-0.178
-654.872	800.000	0.078	0.310
-653.857	376.399	-0.105	0.213
-652.843	-61.530	0.241	0.101
-651.828	422.225	-0.148	-0.317
-650.814	48.951	-0.144	0.135
-649.799	-200.000	-0.014	-0.149
-648.784	340.431	0.149	-0.289
-647.770	-200.000	-0.015	-0.109
-646.755	-21.182	0.052	-0.032
-645.741	-200.000	0.026	0.241
-644.726	102.217	0.150	0.175
-643.711	-139.681	0.120	0.013
-642.697	-11.016	-0.348	0.228
-641.682	-8.858	-0.217	0.145
-640.668	136.413	0.151	-0.196
-639.653	114.618	-0.195	-0.236
-638.638	800.000	0.067	0.252
-637.624	-90.927	-0.327	0.094
-636.609	800.000	0.056	0.174
-635.595	-200.000	-0.055	-0.279
-634.580	-82.950	-0.334	-0.107
-633.565	-200.000	0.017	-0.152
-632.551	-73.698	0.196	-0.071
-631.536	35.020	-0.191	0.167
-630.522	-200.000	0.036	-0.263
-629.507	188.452	0.194	-0.288
-628.492	35.367	0.175	-0.153
-627.478	-30.434	-0.380	-0.215
-626.463	-109.831	0.225	-0.047
-625.449	-37.926	-0.139	0.074
-624.434	-47.795	-0.141	-0.068
-623.419	-12.996	0.323	0.209
-622.405	-47.615	-0.165	-0.080
-621.390	-93.609	0.115	0.032
-620.376	-169.259	0.329	-0.012
-619.361	-54.472	-0.174	0.078
-618.346	-146.012	-0.227	-0.020
-617.332	-54.008	0.055	0.025
-616.317	-200.000	-0.025	-0.128
-615.303	273.446	-0.155	0.272
-614.288	-171.397	0.240	0.008
-613.273	5.990	0.192	-0.141
-612.259	-200.000	-0.107	-0.465
-611.244	90.484	0.153	0.170
-610.230	-161.364	-0.186	0.010
-609.215	161.462	-0.246	0.343
-608.201	-20.108	-0.034	0.021
-607.186	-4.487	-0.126	-0.086
-606.171	20.035	-0.308	-0.247
-605.157	-200.000	0.019	-0.131
-604.142	235.363	0.099	0.162
-603.128	586.880	0.064	-0.157
-602.113	26.666	-0.149	-0.124
-601.098	420.336	-0.076	-0.162
-600.084	-51.793	0.157	-0.073
-599.069	-83.499	-0.199	0.063
-598.055	800.000	0.046	-0.166
-597.040	-166.365	0.214	-0.009
-596.025	800.000	-0.114	0.349
-595.011	229.857	0.182	0.296
-593.996	278.085	0.044	0.077
-592.982	19.998	0.192	0.154
-591.967	-200.000	-0.049	-0.256
-590.952	800.000	0.073	0.290
-589.938	-53.912	0.096	0.044
-588.923	-120.754	-0.221	0.037
-587.909	155.341	-0.095	0.130
-586.894	-44.846	0.123	0.061
-585.879	8.615	-0.080	0.060
-584.865	215.231	-0.147	0.231
-583.850	-35.544	-0.168	-0.091
-582.836	-63.849	-0.216	0.088
-581.821	632.441	-0.052	0.131
-580.806	-18.829	0.171	-0.106
-579.792	337.893	-0.097	-0.187
-578.777	800.000	0.095	0.369
-577.763	800.000	-0.037	-0.113
-576.748	180.221	-0.221	-0.322
-575.733	-200.000	0.057	-0.272
-574.719	-47.608	-0.391	-0.189
-573.704	-144.530	-0.180	0.017
-572.690	-30.742	0.159	0.089
-571.675	56.880	-0.163	0.158
-570.661	-109.588	0.098	-0.020
-569.646	-51.741	0.088	0.041
-568.631	-35.844	0.204	-0.109
-567.617	-60.268	-0.238	0.101
-566.602	114.092	0.430	-0.519
-565.588	-91.066	0.266	-0.076
-564.573	-61.941	-0.222	0.092
-563.558	206.359	-0.132	-0.204
-562.544	135.015	-0.064	0.083
-561.529	93.502	0.162	-0.182
-560.515	-200.000	0.048	-0.430
-559.500	49.214	-0.205	0.191
-558.485	185.593	0.030	-0.043
-557.471	-57.124	0.488	0.213
-556.456	-175.556	-0.220	0.006
-555.442	800.000	0.032	-0.130
-554.427	12.001	-0.116	0.088
-553.412	-88.264	0.101	-0.030
-552.398	-200.000	-0.064	0.580
-551.383	-200.000	0.058	0.470
-550.369	-68.639	-0.191	-0.073
-549.354	-53.816	-0.244	0.110
-548.339	-200.000	0.030	-0.245
-547.325	-200.000	-0.022	-0.147
-546.310	-137.244	0.129	0.015
-545.296	-200.000	-0.007	0.079
-544.281	-30.291	-0.320	0.180
-543.266	-69.970	0.164	-0.062
-542.252	-200.000	-0.027	-0.425
-541.237	-200.000	0.146	-0.000
-540.223	-14.914	-0.443	-0.281
-539.208	76.255	-0.072	-0.076
-538.193	244.664	0.166	-0.277
-537.179	7.968	-0.143	0.106
-536.164	42.446	0.064	-0.058
-535.150	-88.987	-0.102	0.030
-534.135	491.978	-0.075	-0.171
-533.121	-89.691	-0.091	0.026
-532.106	-200.000	0.026	0.208
-531.091	-200.000	0.018	-0.140
-530.077	546.066	-0.170	-0.403
-529.062	-76.846	0.206	-0.071
-528.048	613.335	-0.070	0.174
-527.033	-29.468	0.172	0.098
-526.018	-90.574	0.075	-0.021
-525.004	141.973	-0.089	0.117
-523.989	-114.810	0.287	-0.054
-522.975	-23.200	0.295	-0.176
-521.960	0.760	-0.105	-0.074
-520.945	557.365	0.015	0.035
-519.931	800.000	0.018	0.062
-518.916	52.399	0.079	0.075
-517.902	-12.963	-0.128	0.082
-516.887	126.919	0.162	-0.204
-515.872	27.317	-0.190	-0.158
-514.858	505.116	-0.152	-0.349
-513.843	800.000	-0.050	-0.136
-512.829	-0.744	0.297	-0.209
-511.814	111.395	-0.047	-0.056
-510.799	95.884	-0.078	0.088
-509.785	389.103	0.054	-0.110
-508.770	-194.909	-0.615	0.005
-507.756	-31.521	0.185	0.103
-506.741	-200.000	-0.004	-0.108
-505.726	569.515	-0.172	-0.413
-504.712	-35.593	0.375	0.201
-503.697	-18.977	0.231	0.142
-502.683	184.067	0.008	-0.012
-501.668	-133.754	0.292	0.036
-500.653	-89.289	0.227	0.066
-499.639	169.476	0.116	-0.164
-498.624	92.998	0.133	0.148
-497.610	5.448	0.248	0.181
-496.595	-6.472	-0.245	0.165
-495.581	6.038	-0.181	0.133
-494.566	-119.506	0.107	-0.018
-493.551	8.683	0.202	-0.151
-492.537	-200.000	-0.003	0.093
-491.522	26.256	0.087	0.072
-490.508	-200.000	0.025	0.241
-489.493	-160.788	-0.196	-0.010
-488.478	800.000	-0.069	0.239
-487.464	580.872	0.073	-0.176
-486.449	67.895	-0.246	-0.249
-485.435	-94.939	0.295	-0.079
-484.420	-35.080	0.158	0.085
-483.405	-73.244	-0.200	-0.072
-482.391	-200.000	0.005	-0.071
-481.376	-200.000	-0.061	-0.405
-480.362	202.137	-0.254	0.387
-479.347	-154.625	-0.052	-0.003
-478.332	-122.746	0.201	-0.032
-477.318	800.000	-0.113	0.310
-476.303	-14.813	-0.109	0.069
-475.289	138.977	0.076	0.099
-474.274	210.558	0.119	-0.185
-473.259	800.000	-0.078	-0.261
-472.245	-17.402	-0.032	0.020
-471.230	-89.543	-0.301	-0.087
-470.216	-158.970	-0.179	0.010
-469.201	11.455	0.107	-0.081
-468.186	-44.176	-0.270	0.134
-467.172	-142.389	-0.050	-0.005
-466.157	77.112	0.235	-0.247
-465.143	16.798	0.135	-0.105
-464.128	-200.000	-0.037	-0.349
-463.113	-133.861	-0.171	0.021
-462.099	-99.650	-0.283	0.070
-461.084	70.714	0.073	-0.075
-460.070	35.062	-0.224	-0.193
-459.055	-127.964	0.186	-0.026
-458.040	75.291	0.157	-0.163
-457.026	-120.580	0.200	0.033
-456.011	-45.527	-0.163	-0.080
-454.997	-14.117	-0.182	-0.116
-453.982	249.800	-0.151	-0.254
-452.968	-90.507	0.134	-0.038
-451.953	65.728	0.087	-0.087
-450.938	-18.970	-0.174	-0.107
-449.924	21.502	0.254	-0.204
-448.909	800.000	0.063	-0.191
-447.895	309.777	-0.096	-0.178
-446.880	-36.311	-0.294	0.156
-445.865	-100.848	-0.103	-0.025
-444.851	178.348	0.078	-0.113
-443.836	-89.012	-0.239	0.070
-442.822	-39.101	0.161	0.084
-441.807	-200.000	-0.025	0.128
-440.792	800.000	0.084	-0.282
-439.778	-167.330	0.174	0.007
-438.763	-37.918	0.305	0.160
-437.749	-117.332	-0.066	-0.012
-436.734	105.861	0.087	0.102
-435.719	-95.004	-0.211	-0.056
-434.705	4.925	0.262	0.190
-433.690	23.919	0.284	0.231
-432.676	-52.759	0.127	-0.058
-431.661	-89.188	-0.462	0.135
-430.646	-200.000	0.021	0.092
-429.632	-17.574	0.286	0.178
-428.617	-61.670	-0.261	0.108
-427.603	172.209	-0.114	0.161
-426.588	-200.000	0.031	0.233
-425.573	-200.000	0.043	-0.216
-424.559	-11.412	-0.096	0.062
-423.544	-200.000	-0.043	-0.236
-422.530	800.000	0.027	-0.094
-421.515	371.352	-0.087	-0.175
-420.500	168.221	-0.198	0.278
-419.486	174.467	-0.119	0.170
-418.471	135.469	0.174	-0.224
-417.457	-27.738	-0.101	0.058
-416.442	37.523	-0.193	0.168
-415.428	295.240	-0.070	-0.126
-414.413	106.342	-0.143	-0.167
-413.398	-157.476	0.296	-0.018
-412.384	-40.662	0.169	0.087
-411.369	800.000	-0.103	0.352
-410.355	245.241	0.072	0.120
-409.340	-58.508	0.236	0.101
-408.325	800.000	-0.095	-0.284
-407.311	-178.962	0.182	-0.004
-406.296	250.907	0.103	-0.172
-405.282	-29.670	0.240	0.135
-404.267	-200.000	0.036	-0.182
-403.252	-200.000	-0.049	0.319
-402.238	309.853	0.136	0.251
-401.223	-73.921	-0.386	0.138
-400.209	64.066	0.143	0.142
-399.194	4.140	-0.273	0.197
-398.179	800.000	-0.088	0.252
-397.165	322.145	0.095	-0.179
-396.150	-49.664	0.172	0.081
-395.136	107.788	0.145	-0.170
-394.121	-125.593	-0.164	0.025
-393.106	-141.710	-0.178	0.018
-392.092	20.894	0.095	-0.076
-391.077	90.424	-0.112	0.123
-390.063	-27.060	-0.230	0.132
-389.048	-26.695	0.196	-0.113
-388.033	-200.000	-0.014	-0.071
-387.019	-71.127	0.079	0.029
-386.004	-200.000	-0.064	-0.434
-384.990	8.349	0.369	-0.273
-383.975	707.863	-0.075	-0.195
-382.960	-9.189	0.048	-0.031
-381.946	-78.060	0.188	-0.064
-380.931	-200.000	-0.033	0.150
-379.917	800.000	-0.048	-0.155
-378.902	642.831	-0.083	-0.208
-377.888	128.938	0.141	-0.177
-376.873	-162.153	0.139	-0.007
-375.858	-40.828	-0.187	0.095
-374.844	-15.464	-0.020	0.013
-373.829	800.000	0.044	0.130
-372.815	-124.076	-0.261	-0.040
-371.800	134.401	-0.066	0.085
-370.785	-25.363	-0.089	-0.052
-369.771	-96.008	0.054	0.014
-368.756	-62.051	0.382	-0.157
-367.742	321.291	-0.092	0.172
-366.727	254.042	-0.061	0.103
-365.712	608.264	-0.030	0.074
-364.698	231.636	-0.220	0.356
-363.683	-200.000	-0.049	0.475
-362.669	351.508	0.076	-0.149
-361.654	-78.102	-0.278	0.094
-360.639	-96.024	-0.073	-0.019
-359.625	-95.278	-0.291	-0.077
-358.610	-152.580	-0.269	0.019
-357.596	39.268	0.128	0.113
-356.581	-105.528	-0.142	-0.032
-355.566	-200.000	-0.026	0.177
-354.552	-200.000	0.018	-0.511
-353.537	10.023	0.180	0.135
-352.523	37.556	0.138	0.121
-351.508	-70.058	0.189	-0.071
-350.493	800.000	0.047	-0.175
-349.479	800.000	-0.079	0.223
-348.464	282.278	0.152	-0.269
-347.450	-200.000	0.025	-0.113
-346.435	634.116	-0.055	-0.136
-345.420	-3.240	0.210	-0.144
-344.406	49.600	0.151	0.140
-343.391	589.638	-0.094	-0.228
-342.377	322.729	0.173	0.325
-341.362	-69.537	-0.127	0.048
-340.348	-200.000	-0.007	0.147
-339.333	-105.416	-0.364	0.081
-338.318	-53.209	0.082	0.037
-337.304	2.170	0.094	0.067
-336.289	-9.365	-0.225	-0.147
-335.275	82.775	0.329	-0.351
-334.260	-200.000	0.017	-0.162
-333.245	12.201	0.228	0.173
-332.231	800.000	-0.061	0.194
-331.216	503.638	-0.041	-0.093
-330.202	-148.616	0.302	-0.024
-329.187	-200.000	-0.011	-0.152
-328.172	-5.707	0.187	0.126
-327.158	46.966	-0.064	-0.058
-326.143	-70.329	-0.083	0.031
-325.129	236.296	-0.194	0.316
-324.114	-26.702	0.160	0.092
-323.099	-193.813	-0.625	0.005
-322.085	-168.817	0.246	-0.009
-321.070	800.000	-0.105	0.329
-320.056	-24.010	0.357	0.210
-319.041	-200.000	0.036	0.157
-318.026	-30.336	0.163	0.091
-317.012	152.116	-0.092	0.124
-315.997	-18.533	0.075	-0.046
-314.983	245.548	-0.101	-0.167
-313.968	553.885	-0.208	-0.491
-312.953	-91.915	-0.250	0.070
-311.939	397.089	0.042	0.086
-310.924	-55.260	-0.138	0.061
-309.910	45.973	-0.251	-0.228
-308.895	77.743	0.150	0.157
-307.880	-113.779	0.099	-0.019
-306.866	13.184	-0.091	0.069
-305.851	187.677	-0.172	-0.253
-304.837	278.855	-0.099	-0.174
-303.822	-35.005	0.110	-0.059
-302.807	-200.000	0.035	0.191
-301.793	-26.528	-0.189	-0.108
-300.778	-200.000	-0.012	-0.206
-299.764	-120.684	-0.335	0.056
-298.749	53.318	0.309	-0.291
-297.735	-80.301	-0.244	-0.080
-296.720	99.954	0.095	-0.108
-295.705	-76.897	0.281	-0.097
-294.691	-48.715	-0.189	-0.089
-293.676	127.859	-0.280	0.350
-292.662	570.770	-0.124	0.297
-291.647	-200.000	0.013	0.402
-290.632	800.000	0.005	0.015
-289.618	139.029	-0.188	0.243
-288.603	-29.667	-0.071	-0.040
-287.589	538.469	0.070	-0.164
-286.574	-33.536	-0.115	-0.062
-285.559	-139.455	0.290	0.030
-284.545	800.000	-0.039	0.116
-283.530	-91.215	0.372	-0.105
-282.516	-87.685	-0.173	0.051
-281.501	-158.822	0.406	-0.023
-280.486	800.000	0.038	0.104
-279.472	85.407	0.135	-0.146
-278.457	-200.000	-0.039	-0.204
-277.443	496.305	-0.054	0.122
-276.428	-200.000	0.066	0.417
-275.413	800.000	0.075	-0.249
-274.399	-200.000	0.011	-0.177
-273.384	303.056	-0.051	0.094
-272.370	-145.969	-0.152	-0.013
-271.355	188.614	-0.075	0.111
-270.340	-32.922	0.108	-0.059
-269.326	401.524	0.136	-0.280
-268.311	-70.381	-0.207	0.077
-267.297	800.000	-0.047	0.132
-266.282	235.497	0.072	0.116
-265.267	-86.002	0.162	-0.049
-264.253	800.000	-0.017	-0.071
-263.238	-55.151	0.233	-0.103
-262.224	-73.308	0.136	0.049
-261.209	-112.971	0.157	-0.030
-260.195	-71.834	0.254	0.093
-259.180	174.401	0.090	-0.127
-258.165	-82.924	0.260	-0.082
-257.151	-200.000	0.068	0.334
-256.136	-200.000	0.008	0.398
-255.122	78.206	0.125	0.130
-254.107	-200.000	-0.012	0.062
-253.092	18.991	0.160	0.126
-252.078	21.134	0.066	-0.052
-251.063	-200.000	-0.015	0.155
-250.049	-200.000	0.035	0.249
-249.034	800.000	-0.100	-0.353
-248.019	58.820	-0.266	0.256
-247.005	238.616	0.137	0.223
-245.990	800.000	0.042	0.128
-244.976	31.124	0.137	0.115
-243.961	77.482	0.229	0.239
-242.946	-200.000	0.000	-0.221
-241.932	51.318	-0.144	-0.134
-240.917	-200.000	0.051	-0.387
-239.903	-92.115	0.201	0.056
-238.888	663.255	-0.046	0.116
-237.873	-83.090	0.271	-0.085
-236.859	6.998	0.030	0.022
-235.844	800.000	-0.189	0.529
-234.830	174.520	0.063	0.090
-233.815	-43.110	0.247	0.123
-232.800	800.000	0.172	0.470
-231.786	-129.137	-0.301	0.041
-230.771	296.294	-0.129	0.232
-229.757	37.694	0.342	0.297
-228.742	-92.316	0.204	-0.056
-227.727	-110.329	0.295	0.060
-226.713	22.527	-0.079	0.063
-225.698	100.642	-0.124	-0.141
-224.684	4.403	-0.222	0.159
-223.669	57.740	-0.234	0.225
-222.655	346.747	0.102	-0.196
-221.640	348.424	0.072	-0.139
-220.625	270.978	0.027	-0.046
-219.611	-62.074	-0.309	-0.126
-218.596	72.661	0.061	0.063
-217.582	-148.813	-0.187	0.015
-216.567	33.784	0.047	-0.040
-215.552	792.536	0.064	-0.173
-214.538	141.719	0.184	0.238
-213.523	-105.738	-0.039	0.009
-212.509	-193.140	-0.096	0.001
-211.494	-200.000	-0.018	-0.135
-210.479	-200.000	-0.006	-0.079
-209.465	579.818	0.036	-0.086
-208.450	-189.852	-0.169	0.002
-207.436	-200.000	-0.087	0.396
-206.421	-52.715	-0.281	-0.127
-205.406	-54.351	-0.206	-0.091
-204.392	-82.707	-0.178	0.056
-203.377	-189.700	0.160	-0.002
-202.363	460.454	-0.133	0.291
-201.348	114.472	0.059	-0.070
-200.333	800.000	-0.026	0.089
-199.319	-200.000	-0.039	-0.595
-198.304	190.653	-0.033	0.048
-197.290	100.117	0.069	-0.078
-196.275	-23.071	0.121	0.071
-195.260	-93.688	0.201	0.054
-194.246	5.132	-0.295	-0.212
-193.231	-158.995	0.380	-0.021
-192.217	-200.000	0.048	0.294
-191.202	97.437	-0.113	0.127
-190.187	35.265	-0.110	-0.094
-189.173	-200.000	-0.084	-0.421
-188.158	-108.519	-0.202	0.043
-187.144	-192.852	0.165	0.001
-186.129	-51.882	-0.306	-0.139
-185.114	-200.000	-0.039	-0.214
-184.100	-146.245	-0.167	0.014
-183.085	392.527	0.087	0.177
-182.071	92.713	-0.117	-0.129
-181.056	10.828	0.118	-0.088
-180.042	-89.631	-0.203	0.058
-179.027	-98.786	0.246	-0.061
-178.012	-178.709	-0.303	0.007
-176.998	-90.163	0.350	0.099
-175.983	-137.219	0.136	0.015
-174.969	-6.104	0.254	-0.170
-173.954	189.887	-0.072	-0.105
-172.939	-138.239	-0.170	0.018
-171.925	-130.456	-0.053	-0.007
-170.910	800.000	0.021	0.082
-169.896	53.589	0.086	0.080
-168.881	323.680	0.103	-0.192
-167.866	16.012	0.133	-0.102
-166.852	-34.783	0.039	0.021
-165.837	800.000	0.051	0.204
-164.823	237.677	0.122	0.198
-163.808	109.143	0.134	0.157
-162.793	8.497	-0.078	0.057
-161.779	21.939	-0.347	0.276
-160.764	8.668	0.367	-0.270
-159.750	-200.000	0.004	0.093
-158.735	-28.884	0.131	0.073
-157.720	-200.000	0.013	0.185
-156.706	71.992	0.185	0.188
-155.691	127.591	0.044	0.055
-154.677	135.623	-0.104	0.132
-153.662	-167.400	-0.105	0.004
-152.647	-200.000	-0.004	-0.160
-151.633	-167.147	0.212	0.008
-150.618	-136.875	0.382	0.043
-149.604	-200.000	-0.003	0.223
-148.589	512.681	-0.111	0.253
-147.574	-96.938	0.178	-0.046
-146.560	44.571	-0.121	0.109
-145.545	700.745	-0.042	0.109
-144.531	-112.506	0.338	-0.066
-143.516	-164.287	0.039	0.002
-142.502	800.000	0.039	-0.123
-141.487	800.000	0.086	-0.253
-140.472	-15.393	-0.170	-0.106
-139.458	-200.000	0.043	-0.313
-138.443	-78.443	0.186	0.062
-137.429	-29.880	0.230	0.128
-136.414	-200.000	0.004	-0.077
-135.399	-159.873	0.220	-0.012
-134.385	636.384	-0.057	0.142
-133.370	33.571	-0.229	0.195
-132.356	40.240	0.103	0.090
-131.341	-170.880	0.216	0.007
-130.326	147.576	-0.050	0.066
-129.312	-21.112	0.066	0.040
-128.297	800.000	0.016	0.063
-127.283	-63.424	-0.095	-0.038
-126.268	-200.000	0.031	0.202
-125.253	307.428	-0.142	-0.257
-124.239	-92.678	0.254	-0.069
-123.224	800.000	0.167	0.461
-122.210	800.000	-0.034	0.121
-121.195	695.703	0.101	-0.257
-120.180	9.537	0.316	-0.233
