DTS Sentinel unit serial number:	SN413079Multiplexer serial number:	ORYXHardware model number:	OX4-SRSoftware version number:	ORYX F/W v4.00 Oryx Data Collector v3.7.2.0data status	okinstallation	princeton_trtdifferential loss correction	single-endedforward channel	channel 3reverse channel	N/Adate	2019/09/16time	01:20:34forward acquisition time	60.00reverse acquisition time	0.00gamma	496.2192k internal	0.2338k external	0.2338temperature offset calibration	0.9948default loss term (dB/km)	0.3790temperature slope calibration	1.0000multiplexer offset coefficient	1.0000multiplexer slope coefficient	1.0000fibre end	0.00T internal ref (°C)	27.28T ext. ref 1 (°C)	9.85T ext. ref 2 (°C)	21.85length (m)	temperature (°C)	Stokes	anti-Stokes-747.200	-27.073	0.212	-0.124
-746.185	193.468	-0.130	0.198
-745.171	73.391	0.107	-0.112
-744.156	199.128	-0.111	0.170
-743.142	-145.090	0.166	0.015
-742.127	138.060	-0.165	-0.218
-741.112	-161.214	0.200	0.010
-740.098	-28.210	0.146	0.085
-739.083	-200.000	-0.024	0.186
-738.069	-162.752	0.175	0.009
-737.054	289.110	0.223	0.406
-736.039	73.221	-0.192	-0.202
-735.025	-102.817	-0.103	0.025
-734.010	-41.671	0.142	0.073
-732.996	175.360	-0.122	-0.177
-731.981	800.000	-0.048	0.203
-730.966	178.730	0.037	-0.055
-729.952	-200.000	0.025	-0.417
-728.937	-24.438	0.289	-0.173
-727.923	-200.000	0.045	0.265
-726.908	220.335	-0.241	0.387
-725.894	-1.115	0.020	0.014
-724.879	328.601	0.136	-0.261
-723.864	-200.000	-0.016	0.155
-722.850	-200.000	-0.011	0.190
-721.835	-200.000	-0.011	0.245
-720.821	-107.649	-0.176	-0.039
-719.806	-0.588	-0.204	-0.145
-718.791	505.965	0.130	-0.302
-717.777	-10.178	-0.220	0.146
-716.762	-200.000	0.010	0.401
-715.748	-195.105	-0.215	-0.002
-714.733	-12.354	-0.082	0.054
-713.718	-145.317	-0.139	-0.013
-712.704	-168.491	0.243	-0.009
-711.689	-163.781	0.076	0.004
-710.675	-74.668	0.247	0.089
-709.660	238.592	-0.046	0.077
-708.645	252.518	-0.267	-0.456
-707.631	-139.307	0.476	0.051
-706.616	420.643	-0.131	0.282
-705.602	131.500	0.102	-0.131
-704.587	-200.000	-0.017	-0.194
-703.572	800.000	-0.051	-0.176
-702.558	147.178	-0.093	0.126
-701.543	602.346	-0.104	-0.259
-700.529	214.560	-0.027	0.044
-699.514	-200.000	-0.016	-0.111
-698.499	800.000	0.079	0.327
-697.485	-21.639	-0.378	-0.231
-696.470	-200.000	0.002	-0.020
-695.456	-107.202	0.220	0.048
-694.441	154.990	-0.095	-0.131
-693.426	-8.632	-0.031	-0.021
-692.412	111.878	-0.044	-0.053
-691.397	294.662	-0.177	0.324
-690.383	72.793	0.214	0.224
-689.368	-200.000	-0.014	0.248
-688.354	800.000	0.015	-0.058
-687.339	-200.000	0.016	-0.432
-686.324	-36.697	0.263	0.142
-685.310	-54.261	0.181	0.082
-684.295	-25.275	-0.299	-0.177
-683.281	800.000	0.035	0.131
-682.266	-24.403	-0.150	-0.090
-681.251	70.805	-0.186	0.193
-680.237	65.446	0.247	0.250
-679.222	-103.413	0.478	0.113
-678.208	-80.136	0.272	0.091
-677.193	-17.402	-0.206	0.130
-676.178	-200.000	0.042	-0.322
-675.164	-21.988	0.256	-0.156
-674.149	-18.519	0.312	0.195
-673.135	-147.813	0.246	-0.021
-672.120	-27.481	-0.279	0.163
-671.105	-200.000	0.040	-0.367
-670.091	-200.000	-0.030	-0.185
-669.076	-200.000	0.070	0.365
-668.062	-50.013	0.179	0.085
-667.047	-41.619	0.605	-0.311
-666.032	-200.000	0.102	-0.496
-665.018	81.691	-0.225	0.244
-664.003	-199.471	0.235	0.001
-662.989	86.892	-0.110	0.122
-661.974	-87.308	0.419	0.127
-660.959	-40.340	0.174	0.090
-659.945	-48.548	0.177	-0.085
-658.930	-200.000	0.440	-0.000
-657.916	91.899	0.321	-0.362
-656.901	-200.000	0.000	-0.148
-655.886	-123.991	0.209	0.033
-654.872	317.868	-0.016	0.030
-653.857	800.000	0.034	-0.105
-652.843	114.343	-0.198	-0.241
-651.828	-101.072	0.265	0.065
-650.814	51.583	-0.067	0.063
-649.799	800.000	0.063	0.182
-648.784	-90.094	-0.091	-0.026
-647.770	-162.798	-0.335	0.016
-646.755	-29.069	-0.140	-0.080
-645.741	17.798	-0.220	-0.175
-644.726	-110.504	0.266	0.055
-643.711	49.621	-0.296	-0.278
-642.697	-160.175	0.123	0.007
-641.682	-139.301	-0.369	0.040
-640.668	-1.991	-0.087	0.061
-639.653	-200.000	-0.044	0.359
-638.638	181.828	0.138	0.203
-637.624	67.658	0.139	0.142
-636.609	17.094	0.190	-0.151
-635.595	470.792	0.163	0.367
-634.580	45.000	-0.218	0.201
-633.565	-27.409	0.153	-0.089
-632.551	70.562	-0.176	0.182
-631.536	-8.187	-0.162	-0.109
-630.522	-111.609	0.160	-0.032
-629.507	-200.000	0.004	-0.086
-628.492	800.000	0.023	0.064
-627.478	537.424	-0.014	-0.033
-626.463	-85.387	0.230	0.072
-625.449	-200.000	-0.028	-0.373
-624.434	-18.947	-0.245	0.152
-623.419	-183.225	0.116	-0.002
-622.405	-48.609	0.044	-0.021
-621.390	-200.000	0.048	-0.229
-620.376	-61.309	0.414	0.174
-619.361	795.772	-0.109	-0.300
-618.346	-3.564	0.115	-0.080
-617.332	-103.976	-0.318	-0.074
-616.317	83.240	-0.294	0.319
-615.303	800.000	-0.029	0.086
-614.288	142.100	-0.219	-0.290
-613.273	-122.941	-0.272	0.044
-612.259	38.170	0.154	-0.137
-611.244	-123.735	0.200	-0.032
-610.230	800.000	0.123	-0.407
-609.215	-200.000	-0.004	0.022
-608.201	-127.302	0.472	0.069
-607.186	800.000	-0.022	-0.063
-606.171	24.190	0.169	0.139
-605.157	477.435	-0.094	-0.213
-604.142	-190.400	-0.232	-0.003
-603.128	-33.188	-0.221	0.122
-602.113	151.287	0.258	0.351
-601.098	124.924	-0.124	-0.155
-600.084	-88.851	0.302	-0.089
-599.069	62.245	-0.025	-0.025
-598.055	50.818	0.175	0.165
-597.040	-200.000	0.041	-0.359
-596.025	-200.000	0.016	-0.301
-595.011	-71.936	-0.120	-0.044
-593.996	570.389	-0.075	-0.182
-592.982	38.402	-0.184	-0.164
-591.967	-200.000	-0.007	0.069
-590.952	29.143	-0.150	-0.127
-589.938	-21.649	0.254	-0.155
-588.923	329.828	-0.049	0.094
-587.909	549.150	-0.022	0.052
-586.894	95.178	0.134	0.152
-585.879	-169.338	0.457	0.017
-584.865	-77.689	-0.500	-0.172
-583.850	259.987	-0.124	0.213
-582.836	158.066	0.108	0.149
-581.821	-200.000	-0.008	-0.274
-580.806	652.318	-0.080	-0.204
-579.792	-200.000	-0.003	-0.113
-578.777	150.959	0.256	-0.347
-577.763	758.733	0.157	0.425
-576.748	174.937	0.079	0.114
-575.733	74.011	0.175	-0.183
-574.719	-200.000	-0.055	0.297
-573.704	-8.282	-0.356	0.239
-572.690	800.000	0.117	0.338
-571.675	-72.545	0.343	0.126
-570.661	314.354	0.055	-0.103
-569.646	241.372	-0.111	-0.184
-568.631	-8.990	0.250	0.167
-567.617	-200.000	0.019	-0.159
-566.602	-150.712	0.065	0.005
-565.588	82.360	0.021	-0.022
-564.573	-192.536	0.212	0.002
-563.558	800.000	0.111	-0.398
-562.544	187.177	-0.103	-0.153
-561.529	-200.000	-0.008	-0.044
-560.515	-24.792	0.143	0.084
-559.500	67.231	-0.146	-0.148
-558.485	286.667	0.131	0.236
-557.471	-56.628	-0.408	-0.180
-556.456	-98.962	-0.247	0.062
-555.442	-200.000	0.030	-0.194
-554.427	341.217	-0.057	0.110
-553.412	-200.000	-0.020	0.130
-552.398	-200.000	-0.007	-0.081
-551.383	-160.448	-0.247	0.013
-550.369	-200.000	-0.043	0.195
-549.354	40.418	0.251	-0.225
-548.339	341.342	-0.105	-0.204
-547.325	800.000	0.089	0.262
-546.310	-114.163	0.314	-0.060
-545.296	156.782	0.097	-0.133
-544.281	-55.851	-0.126	0.056
-543.266	-144.228	0.324	-0.030
-542.252	-200.000	0.041	-0.205
-541.237	-165.595	-0.158	-0.007
-540.223	-57.064	-0.243	-0.107
-539.208	76.756	-0.344	0.363
-538.193	92.675	-0.089	-0.100
-537.179	-159.388	0.282	0.016
-536.164	-200.000	-0.011	-0.180
-535.150	800.000	0.037	-0.134
-534.135	-96.311	0.317	0.084
-533.121	377.522	-0.076	-0.155
-532.106	-97.721	0.040	-0.010
-531.091	-100.540	0.234	0.058
-530.077	166.529	-0.057	0.080
-529.062	-200.000	-0.019	-0.241
-528.048	14.628	0.244	0.190
-527.033	800.000	-0.092	-0.265
-526.018	-183.970	-0.131	-0.002
-525.004	-10.476	0.097	0.064
-523.989	-122.820	-0.237	0.038
-522.975	-62.729	-0.222	0.091
-521.960	800.000	-0.025	0.093
-520.945	160.258	-0.083	-0.115
-519.931	13.348	-0.309	-0.238
-518.916	-70.381	0.316	-0.119
-517.902	-124.184	0.162	-0.025
-516.887	342.604	-0.141	-0.274
-515.872	800.000	-0.007	0.029
-514.858	-15.806	-0.106	0.067
-513.843	791.218	-0.067	-0.182
-512.829	-128.130	0.191	0.027
-511.814	-56.793	-0.081	0.036
-510.799	-200.000	-0.021	-0.241
-509.785	-138.996	-0.161	0.017
-508.770	-88.107	-0.060	0.018
-507.756	-103.254	-0.114	-0.027
-506.741	-94.215	0.550	0.150
-505.726	11.071	-0.163	-0.124
-504.712	800.000	-0.032	-0.128
-503.697	-23.413	-0.281	0.168
-502.683	-135.893	-0.063	0.007
-501.668	27.540	-0.136	-0.113
-500.653	-80.803	-0.311	0.103
-499.639	485.624	-0.202	-0.458
-498.624	800.000	0.035	0.139
-497.610	-66.477	0.237	-0.094
-496.595	800.000	0.054	-0.187
-495.581	800.000	0.090	0.247
-494.566	-75.247	-0.262	-0.093
-493.551	266.384	-0.104	-0.181
-492.537	-95.492	-0.071	-0.019
-491.522	-200.000	0.001	0.130
-490.508	-200.000	-0.011	0.116
-489.493	-23.948	0.243	-0.145
-488.478	130.195	0.162	0.207
-487.464	-79.410	-0.078	0.026
-486.449	-200.000	-0.049	0.220
-485.435	30.743	-0.090	0.077
-484.420	-1.325	-0.063	0.044
-483.405	-156.060	-0.324	0.020
-482.391	-76.423	-0.064	0.022
-481.376	102.834	-0.192	0.223
-480.362	361.293	-0.039	-0.079
-479.347	-200.000	-0.290	0.000
-478.332	-156.382	0.284	0.018
-477.318	467.957	-0.078	0.173
-476.303	-65.099	-0.161	-0.064
-475.289	586.566	0.098	0.240
-474.274	8.016	-0.180	-0.134
-473.259	-162.126	0.178	-0.009
-472.245	-25.554	0.262	0.154
-471.230	83.967	0.199	0.215
-470.216	-139.373	0.294	0.031
-469.201	18.528	0.017	-0.014
-468.186	-97.885	-0.294	0.075
-467.172	-95.450	-0.183	-0.049
-466.157	-200.000	-0.024	0.246
-465.143	735.727	0.118	0.315
-464.128	52.837	-0.047	0.045
-463.113	631.880	0.053	0.134
-462.099	-200.000	0.039	0.291
-461.084	-191.654	0.350	0.003
-460.070	-86.715	-0.132	0.040
-459.055	800.000	0.038	-0.114
-458.040	-200.000	0.016	0.099
-457.026	-50.267	0.123	0.058
-456.011	-88.623	-0.262	-0.077
-454.997	478.975	0.084	-0.188
-453.982	25.247	0.091	-0.075
-452.968	-78.284	0.339	0.116
-451.953	488.714	-0.182	-0.413
-450.938	800.000	0.067	0.214
-449.924	132.227	0.186	0.238
-448.909	20.343	-0.195	0.156
-447.895	-80.676	0.275	-0.091
-446.880	-30.770	-0.130	-0.073
-445.865	-94.195	-0.187	0.051
-444.851	8.508	-0.207	0.155
-443.836	220.059	-0.210	-0.334
-442.822	-81.547	-0.147	0.048
-441.807	-200.000	-0.025	-0.255
-440.792	-50.565	0.156	-0.073
-439.778	100.095	0.059	-0.067
-438.763	-7.860	0.407	-0.272
-437.749	260.943	0.154	-0.265
-436.734	110.343	0.175	-0.209
-435.719	800.000	0.075	-0.208
-434.705	-200.000	0.052	0.294
-433.690	-131.031	-0.351	-0.046
-432.676	-41.950	0.450	-0.229
-431.661	-90.862	-0.139	-0.040
-430.646	-68.780	0.485	-0.186
-429.632	800.000	0.053	0.165
-428.617	88.179	-0.187	0.205
-427.603	345.205	0.076	-0.149
-426.588	130.913	0.092	0.117
-425.573	44.658	-0.086	0.078
-424.559	800.000	0.082	0.257
-423.544	-167.782	0.250	-0.010
-422.530	-21.037	0.061	0.037
-421.515	-95.388	-0.364	-0.097
-420.500	-22.768	-0.528	0.316
-419.486	28.237	0.079	0.066
-418.471	221.344	0.137	-0.219
-417.457	385.266	-0.074	-0.151
-416.442	370.010	-0.232	-0.465
-415.428	795.789	0.107	-0.293
-414.413	273.051	-0.059	-0.104
-413.398	-44.541	-0.193	-0.095
-412.384	800.000	-0.072	-0.237
-411.369	-118.407	0.031	-0.005
-410.355	-95.173	-0.080	0.021
-409.340	56.713	-0.117	-0.113
-408.325	223.452	-0.081	0.129
-407.311	158.587	-0.015	0.021
-406.296	-163.729	0.279	-0.013
-405.282	23.533	-0.188	0.153
-404.267	226.581	-0.068	-0.109
-403.252	-200.000	0.047	0.208
-402.238	152.147	-0.104	0.140
-401.223	-200.000	-0.008	-0.226
-400.209	-88.397	-0.219	-0.065
-399.194	800.000	0.043	-0.139
-398.179	-84.180	-0.395	0.124
-397.165	103.061	-0.091	-0.105
-396.150	-150.670	-0.164	0.012
-395.136	-137.520	0.073	0.008
-394.121	389.966	-0.071	-0.145
-393.106	6.312	-0.036	0.026
-392.092	245.890	0.030	-0.049
-391.077	-200.000	0.141	0.000
-390.063	729.611	0.047	0.125
-389.048	800.000	-0.015	0.060
-388.033	-91.657	0.251	-0.071
-387.019	502.699	-0.173	0.396
-386.004	90.632	0.026	0.028
-384.990	-200.000	0.000	0.117
-383.975	28.575	-0.254	0.213
-382.960	-200.000	0.022	0.120
-381.946	-59.508	0.294	0.125
-380.931	234.637	0.005	0.009
-379.917	139.146	0.225	-0.293
-378.902	-153.592	0.313	-0.021
-377.888	-93.826	0.345	-0.094
-376.873	-128.621	-0.119	0.017
-375.858	-150.945	-0.191	0.014
-374.844	30.360	0.206	-0.174
-373.829	-200.000	0.005	0.219
-372.815	520.253	0.095	-0.221
-371.800	-35.497	-0.120	0.065
-370.785	-29.795	-0.387	-0.218
-369.771	72.956	0.012	0.012
-368.756	-6.977	-0.419	0.281
-367.742	-138.615	-0.217	0.023
-366.727	320.626	-0.089	0.166
-365.712	800.000	-0.052	-0.204
-364.698	83.603	-0.127	-0.137
-363.683	91.794	-0.178	0.198
-362.669	800.000	0.083	-0.350
-361.654	-176.956	-0.135	-0.003
-360.639	5.063	0.239	0.174
-359.625	800.000	-0.098	0.387
-358.610	43.003	0.223	0.201
-357.596	-130.269	-0.133	-0.018
-356.581	800.000	-0.095	0.395
-355.566	84.053	0.096	0.104
-354.552	103.064	0.177	0.204
-353.537	-151.714	-0.504	0.037
-352.523	-6.198	-0.320	0.216
-351.508	403.327	0.066	0.136
-350.493	-200.000	0.021	0.336
-349.479	484.295	0.069	-0.156
-348.464	451.079	-0.209	-0.456
-347.450	800.000	0.067	0.197
-346.435	640.902	0.125	-0.314
-345.420	-200.000	0.001	-0.221
-344.406	572.250	-0.063	0.152
-343.391	-151.935	-0.352	0.025
-342.377	-45.067	-0.045	-0.022
-341.362	32.133	0.258	-0.220
-340.348	45.668	-0.074	0.067
-339.333	-200.000	0.015	-0.152
-338.318	-200.000	-0.069	-0.449
-337.304	295.497	-0.101	0.183
-336.289	800.000	-0.039	0.155
-335.275	9.745	0.271	-0.203
-334.260	-200.000	0.006	-0.225
-333.245	81.154	0.297	-0.317
-332.231	-23.726	-0.150	-0.089
-331.216	-200.000	-0.054	0.234
-330.202	188.952	-0.263	0.389
-329.187	-55.415	0.187	0.083
-328.172	-51.720	0.048	0.022
-327.158	-40.724	-0.270	0.138
-326.143	289.433	0.233	-0.418
-325.129	35.370	0.344	0.298
-324.114	-115.319	0.286	-0.053
-323.099	-163.832	-0.140	-0.006
-322.085	-99.181	-0.222	0.055
-321.070	-74.862	0.301	-0.107
-320.056	-132.613	-0.426	0.054
-319.041	-186.778	0.222	-0.003
-318.026	193.137	0.114	0.170
-317.012	-74.285	-0.158	0.056
-315.997	126.222	-0.085	-0.106
-314.983	800.000	0.050	-0.212
-313.968	332.020	0.216	0.412
-312.953	95.103	0.144	-0.162
-311.939	-98.664	-0.197	0.050
-310.924	106.757	-0.042	-0.049
-309.910	-200.000	0.033	0.164
-308.895	-69.028	-0.152	-0.058
-307.880	728.337	0.075	-0.198
-306.866	-200.000	-0.137	0.000
-305.851	2.610	-0.124	0.089
-304.837	-125.295	0.101	0.015
-303.822	-200.000	-0.002	-0.231
-302.807	112.467	-0.291	-0.348
-301.793	-95.851	-0.161	-0.042
-300.778	-116.613	-0.269	-0.049
-299.764	-100.767	0.208	-0.050
-298.749	-200.000	-0.052	0.237
-297.735	800.000	-0.040	0.131
-296.720	37.760	0.091	0.080
-295.705	-35.908	-0.377	0.201
-294.691	-160.495	-0.165	-0.009
-293.676	59.784	-0.279	-0.271
-292.662	-60.346	0.044	0.019
-291.647	19.957	0.152	-0.121
-290.632	-200.000	0.037	-0.223
-289.618	97.009	0.142	0.161
-288.603	-200.000	-0.060	0.306
-287.589	28.288	-0.058	0.048
-286.574	-200.000	-0.022	0.136
-285.559	-14.595	-0.163	0.103
-284.545	-108.704	-0.087	0.018
-283.530	-145.037	-0.211	0.019
-282.516	-200.000	-0.038	-0.226
-281.501	618.896	0.135	0.334
-280.486	-114.379	-0.146	0.028
-279.472	800.000	-0.090	0.245
-278.457	-34.906	0.154	-0.083
-277.443	800.000	-0.070	0.256
-276.428	-88.830	0.211	-0.062
-275.413	53.967	-0.256	-0.242
-274.399	-69.829	-0.182	-0.069
-273.384	129.833	0.141	-0.178
-272.370	-200.000	0.005	0.065
-271.355	327.380	-0.054	-0.102
-270.340	25.518	0.128	0.105
-269.326	-163.132	0.172	-0.008
-268.311	-167.031	0.436	0.018
-267.297	-200.000	-0.034	-0.236
-266.282	-200.000	0.058	-0.260
-265.267	68.516	0.182	0.184
-264.253	374.789	0.072	0.145
-263.238	-76.897	-0.329	-0.113
-262.224	800.000	-0.035	0.098
-261.209	-200.000	0.024	0.416
-260.195	-83.981	0.143	-0.045
-259.180	-137.225	-0.094	0.011
-258.165	-200.000	-0.029	-0.129
-257.151	-200.000	0.012	-0.195
-256.136	-47.630	0.328	0.157
-255.122	345.465	0.134	0.260
-254.107	481.358	-0.121	0.270
-253.092	-77.771	0.357	0.122
-252.078	-200.000	0.019	0.269
-251.063	24.804	-0.010	-0.008
-250.049	610.447	0.049	-0.119
-249.034	-109.817	0.064	-0.013
-248.019	541.129	0.192	-0.450
-247.005	-2.965	-0.047	0.032
-245.990	88.013	-0.115	0.125
-244.976	449.577	-0.148	0.322
-243.961	800.000	0.057	0.214
-242.946	161.409	-0.159	0.219
-241.932	674.976	-0.110	0.282
-240.917	-200.000	0.059	0.373
-239.903	-78.538	0.185	-0.062
-238.888	800.000	0.083	0.297
-237.873	800.000	0.064	-0.273
-236.859	800.000	-0.073	0.227
-235.844	108.677	-0.151	0.178
-234.830	-200.000	-0.011	0.274
-233.815	462.875	-0.140	-0.308
-232.800	141.506	-0.159	0.207
-231.786	-133.282	0.478	-0.059
-230.771	-200.000	-0.138	0.000
-229.757	-163.178	0.647	0.031
-228.742	800.000	0.043	-0.143
-227.727	800.000	-0.073	-0.203
-226.713	-89.903	-0.123	0.035
-225.698	61.731	0.063	-0.062
-224.684	800.000	0.080	-0.220
-223.669	495.278	-0.084	-0.190
-222.655	-200.000	0.063	-0.295
-221.640	-98.076	0.217	-0.055
-220.625	131.674	0.032	-0.040
-219.611	231.953	-0.099	0.159
-218.596	57.611	0.223	-0.214
-217.582	18.566	-0.203	-0.160
-216.567	352.391	0.099	0.194
-215.552	-46.102	0.211	0.102
-214.538	73.716	0.174	-0.179
-213.523	-55.559	0.078	-0.035
-212.509	304.966	-0.158	-0.289
-211.494	72.895	-0.209	-0.214
-210.479	800.000	-0.052	0.166
-209.465	800.000	0.048	0.169
-208.450	-129.031	0.390	0.054
-207.436	-200.000	0.029	0.146
-206.421	-200.000	0.040	0.250
-205.406	89.467	0.164	-0.180
-204.392	3.012	0.114	0.082
-203.377	37.691	0.194	0.170
-202.363	497.518	-0.122	-0.277
-201.348	302.498	0.022	-0.041
-200.333	-148.651	0.104	0.008
-199.319	369.893	0.107	-0.212
-198.304	-200.000	0.051	-0.430
-197.290	231.904	-0.095	-0.153
-196.275	-152.664	0.220	0.015
-195.260	800.000	0.111	-0.423
-194.246	-200.000	-0.009	0.062
-193.231	-200.000	0.003	0.026
-192.217	274.760	-0.014	0.024
-191.202	-200.000	0.077	0.450
-190.187	-33.614	-0.153	0.083
-189.173	4.341	-0.130	-0.094
-188.158	451.972	0.127	0.277
-187.144	-159.840	0.317	0.017
-186.129	120.358	-0.214	-0.261
-185.114	143.890	-0.127	-0.166
-184.100	-200.000	-0.019	-0.127
-183.085	72.837	0.347	0.355
-182.071	190.485	-0.127	0.188
-181.056	800.000	0.025	0.067
-180.042	242.686	0.068	0.113
-179.027	402.062	-0.066	-0.136
-178.012	263.370	0.176	-0.299
-176.998	198.260	-0.163	0.244
-175.983	-123.569	-0.118	0.018
-174.969	-127.107	0.180	0.026
-173.954	46.202	-0.102	-0.092
-172.939	-200.000	0.063	0.275
-171.925	230.781	-0.104	0.167
-170.910	213.102	0.273	0.423
-169.896	484.674	0.048	0.107
-168.881	-140.933	-0.431	0.043
-167.866	-18.965	-0.156	-0.096
-166.852	-89.068	-0.014	0.004
-165.837	39.021	-0.166	0.145
-164.823	635.583	0.054	0.134
-163.808	-0.936	-0.225	-0.156
-162.793	-101.060	0.197	-0.047
-161.779	-143.349	0.364	0.034
-160.764	169.941	0.196	0.275
-159.750	-28.801	0.005	-0.003
-158.735	-51.915	-0.123	0.056
-157.720	132.274	0.144	-0.182
-156.706	493.314	-0.036	0.081
-155.691	-91.042	0.181	-0.051
-154.677	-200.000	0.008	-0.293
-153.662	-200.000	-0.031	-0.231
-152.647	9.050	-0.063	-0.047
-151.633	-200.000	0.025	0.175
-150.618	-11.525	0.324	-0.209
-149.604	209.580	0.156	0.240
-148.589	-50.782	0.216	0.100
-147.574	-54.186	-0.121	0.054
-146.560	-3.359	0.117	-0.080
-145.545	386.822	0.086	-0.173
-144.531	-200.000	-0.018	-0.146
-143.516	13.037	-0.089	-0.068
-142.502	-200.000	-0.008	-0.675
-141.487	148.309	-0.093	0.122
-140.472	-200.000	-0.001	-0.042
-139.458	-140.298	-0.172	-0.018
-138.443	230.474	0.246	-0.394
-137.429	73.506	-0.061	0.062
-136.414	199.849	0.052	-0.078
-135.399	-68.144	0.255	-0.097
-134.385	649.394	0.047	0.119
-133.370	800.000	-0.150	-0.409
-132.356	456.384	-0.058	-0.127
-131.341	-127.798	0.196	-0.028
-130.326	53.263	-0.188	-0.176
-129.312	-152.443	-0.247	-0.017
-128.297	800.000	0.033	0.101
-127.283	-192.758	-0.150	-0.001
-126.268	-61.662	0.241	0.099
-125.253	-107.572	0.368	0.079
-124.239	-72.705	-0.142	0.051
-123.224	-161.936	0.395	-0.020
-122.210	-8.219	-0.196	-0.129
-121.195	-53.916	0.267	0.119
