DTS Sentinel unit serial number:	SN413079Multiplexer serial number:	ORYXHardware model number:	OX4-SRSoftware version number:	ORYX F/W v4.00 Oryx Data Collector v3.7.2.0data status	okinstallation	princeton_trtdifferential loss correction	single-endedforward channel	channel 3reverse channel	N/Adate	2019/09/19time	01:24:35forward acquisition time	60.00reverse acquisition time	0.00gamma	496.2192k internal	0.2348k external	0.2348temperature offset calibration	0.9990default loss term (dB/km)	0.3790temperature slope calibration	1.0000multiplexer offset coefficient	1.0000multiplexer slope coefficient	1.0000fibre end	0.00T internal ref (°C)	21.64T ext. ref 1 (°C)	0.70T ext. ref 2 (°C)	15.02length (m)	temperature (°C)	Stokes	anti-Stokes-747.200	-119.053	0.265	-0.046
-746.185	63.185	-0.190	0.190
-745.171	-200.000	0.016	-0.159
-744.156	-99.579	-0.265	0.067
-743.142	764.304	-0.046	0.124
-742.127	-200.000	-0.050	-0.318
-741.112	54.340	-0.279	-0.268
-740.098	139.852	-0.100	0.132
-739.083	282.414	0.112	0.200
-738.069	-36.989	-0.218	0.117
-737.054	-72.654	0.218	-0.080
-736.039	-28.479	-0.368	0.212
-735.025	-54.684	0.357	0.161
-734.010	-37.961	0.103	0.055
-732.996	102.907	-0.185	-0.217
-731.981	800.000	-0.076	-0.264
-730.966	800.000	-0.127	-0.409
-729.952	25.214	0.143	-0.119
-728.937	-200.000	0.067	0.468
-727.923	256.528	-0.144	0.247
-726.908	-64.791	-0.344	-0.139
-725.894	-44.948	-0.216	-0.108
-724.879	800.000	-0.052	-0.196
-723.864	-142.748	-0.321	-0.031
-722.850	-200.000	-0.034	0.197
-721.835	-95.998	-0.184	-0.049
-720.821	-200.000	0.037	-0.325
-719.806	42.143	0.284	-0.258
-718.791	-200.000	-0.011	0.124
-717.777	525.915	0.080	0.188
-716.762	189.772	-0.103	-0.154
-715.748	500.559	-0.105	-0.241
-714.733	800.000	0.102	0.414
-713.718	279.834	0.065	-0.116
-712.704	-0.603	0.400	-0.284
-711.689	-200.000	0.004	-0.286
-710.675	800.000	-0.038	-0.124
-709.660	-200.000	0.020	0.104
-708.645	167.452	-0.094	-0.134
-707.631	30.769	0.190	-0.163
-706.616	-78.899	0.060	-0.021
-705.602	10.564	0.012	-0.009
-704.587	-72.720	0.088	0.032
-703.572	-82.299	-0.165	-0.054
-702.558	195.417	0.193	0.292
-701.543	-200.000	0.014	0.323
-700.529	800.000	-0.023	0.095
-699.514	484.476	-0.159	-0.361
-698.499	-200.000	0.004	-0.381
-697.485	133.259	0.125	-0.162
-696.470	-132.445	0.275	-0.035
-695.456	238.589	-0.233	-0.385
-694.441	-97.880	-0.105	-0.027
-693.426	-200.000	0.019	0.153
-692.412	40.885	-0.016	0.014
-691.397	-131.029	0.246	0.033
-690.383	106.614	0.089	0.105
-689.368	103.466	-0.227	0.265
-688.354	65.500	-0.135	0.136
-687.339	4.704	-0.247	-0.181
-686.324	-138.497	0.050	0.005
-685.310	800.000	0.105	0.413
-684.295	153.022	-0.063	-0.086
-683.281	-58.288	-0.175	0.076
-682.266	-73.584	0.312	0.113
-681.251	81.914	-0.270	0.291
-680.237	-131.397	0.073	-0.010
-679.222	-200.000	-0.025	-0.286
-678.208	-55.636	0.212	0.095
-677.193	585.211	-0.110	-0.269
-676.178	170.378	0.013	-0.018
-675.164	800.000	0.044	-0.186
-674.149	54.134	-0.092	0.088
-673.135	66.111	-0.128	0.130
-672.120	800.000	-0.035	-0.132
-671.105	321.450	-0.147	-0.279
-670.091	-87.511	-0.238	-0.072
-669.076	-74.248	-0.331	-0.119
-668.062	108.318	-0.024	0.028
-667.047	26.147	-0.262	-0.218
-666.032	800.000	0.113	-0.399
-665.018	8.558	-0.098	0.074
-664.003	20.594	0.141	0.113
-662.989	-40.913	0.174	0.090
-661.974	-200.000	-0.018	0.100
-660.959	-7.411	0.331	-0.223
-659.945	175.193	0.281	0.406
-658.930	19.471	-0.178	-0.143
-657.916	180.311	-0.051	-0.074
-656.901	-20.009	-0.133	-0.082
-655.886	-54.941	-0.421	0.189
-654.872	-169.974	-0.170	-0.006
-653.857	513.963	-0.080	0.185
-652.843	78.456	-0.057	-0.061
-651.828	283.977	-0.062	-0.111
-650.814	206.982	0.069	-0.108
-649.799	14.143	-0.248	-0.192
-648.784	-106.266	0.212	0.047
-647.770	-80.945	-0.278	0.092
-646.755	-200.000	-0.003	-0.058
-645.741	-200.000	-0.024	-0.201
-644.726	229.267	0.033	-0.053
-643.711	637.418	-0.073	-0.186
-642.697	-68.851	-0.250	-0.096
-641.682	-200.000	-0.123	0.000
-640.668	122.921	-0.058	-0.073
-639.653	800.000	0.062	-0.199
-638.638	-200.000	0.018	0.083
-637.624	-90.575	-0.197	-0.057
-636.609	440.594	0.085	0.186
-635.595	47.707	0.141	0.131
-634.580	427.390	-0.053	-0.113
-633.565	-97.776	0.268	0.069
-632.551	-26.466	0.085	-0.049
-631.536	210.548	-0.193	-0.302
-630.522	-131.814	0.288	-0.038
-629.507	-35.373	0.245	0.133
-628.492	-83.138	-0.230	-0.074
-627.478	-108.359	-0.040	0.009
-626.463	268.353	-0.034	-0.059
-625.449	324.434	-0.128	-0.243
-624.434	-38.578	-0.495	0.260
-623.419	512.006	-0.040	-0.093
-622.405	634.613	-0.003	-0.007
-621.390	-87.208	-0.219	-0.066
-620.376	-105.521	-0.290	0.065
-619.361	-200.000	-0.018	0.169
-618.346	-55.797	-0.097	0.043
-617.332	135.870	0.198	0.257
-616.317	800.000	-0.074	0.210
-615.303	-44.334	0.323	-0.161
-614.288	9.670	0.261	-0.197
-613.273	-2.633	0.216	-0.151
-612.259	-112.777	-0.151	-0.030
-611.244	-200.000	0.022	0.123
-610.230	11.295	0.174	0.132
-609.215	-128.536	0.195	-0.027
-608.201	-33.956	0.206	-0.113
-607.186	100.116	-0.196	-0.226
-606.171	-28.970	0.297	-0.169
-605.157	-28.507	-0.307	0.176
-604.142	-10.885	-0.201	0.132
-603.128	-15.606	-0.130	0.082
-602.113	-123.174	-0.559	0.089
-601.098	-120.438	-0.092	0.016
-600.084	-200.000	-0.026	0.361
-599.069	-143.981	-0.123	-0.011
-598.055	352.295	0.073	0.143
-597.040	99.986	-0.178	0.205
-596.025	48.516	-0.123	-0.115
-595.011	-11.508	-0.213	0.139
-593.996	-134.645	-0.120	0.015
-592.982	-14.328	0.188	-0.120
-591.967	135.111	0.203	0.262
-590.952	-164.438	-0.098	0.004
-589.938	-200.000	0.082	-0.368
-588.923	-123.232	0.287	0.046
-587.909	-200.000	0.020	0.123
-586.894	-42.262	0.129	-0.065
-585.879	-128.552	-0.447	-0.063
-584.865	-11.197	-0.037	-0.024
-583.850	-35.981	-0.191	-0.103
-582.836	-200.000	0.052	0.422
-581.821	-160.218	-0.149	-0.008
-580.806	489.938	0.108	0.246
-579.792	257.863	0.106	-0.181
-578.777	-200.000	0.045	0.207
-577.763	-40.583	0.279	0.144
-576.748	50.934	0.139	-0.131
-575.733	0.300	-0.346	0.245
-574.719	-200.000	-0.030	0.325
-573.704	0.649	-0.098	-0.069
-572.690	-41.798	-0.089	-0.045
-571.675	-32.064	-0.240	0.133
-570.661	603.354	0.023	0.057
-569.646	22.291	0.081	-0.065
-568.631	78.719	0.310	0.329
-567.617	-31.605	-0.091	0.050
-566.602	-81.755	-0.080	0.026
-565.588	-122.844	-0.414	0.066
-564.573	87.540	-0.067	0.074
-563.558	8.157	0.275	-0.205
-562.544	149.308	0.125	0.167
-561.529	-113.210	0.080	-0.016
-560.515	-144.786	-0.383	0.035
-559.500	-170.703	0.244	0.008
-558.485	-66.092	-0.136	0.054
-557.471	594.179	-0.013	-0.031
-556.456	326.048	0.251	-0.477
-555.442	68.278	0.171	0.174
-554.427	800.000	-0.083	0.359
-553.412	-200.000	-0.040	0.252
-552.398	-56.739	-0.185	-0.081
-551.383	148.457	-0.213	-0.285
-550.369	800.000	0.047	-0.158
-549.354	-87.167	-0.107	0.032
-548.339	399.819	0.032	-0.066
-547.325	-32.442	0.257	0.142
-546.310	-171.451	-0.368	0.012
-545.296	75.297	0.237	-0.248
-544.281	-200.000	0.015	-0.243
-543.266	-165.539	-0.066	0.003
-542.252	-200.000	-0.050	-0.284
-541.237	-200.000	-0.012	0.194
-540.223	800.000	-0.054	0.150
-539.208	25.571	-0.067	-0.056
-538.193	-106.011	-0.369	-0.082
-537.179	32.630	0.252	-0.216
-536.164	800.000	0.070	-0.201
-535.150	208.214	0.088	0.137
-534.135	4.645	0.066	0.048
-533.121	-200.000	-0.022	0.178
-532.106	800.000	-0.058	-0.216
-531.091	800.000	0.027	-0.115
-530.077	-200.000	0.039	-0.425
-529.062	-80.499	0.594	0.196
-528.048	-126.527	-0.148	0.022
-527.033	260.582	0.209	-0.357
-526.018	100.154	0.111	0.127
-525.004	-42.754	0.367	0.185
-523.989	71.850	0.140	-0.144
-522.975	-200.000	0.032	0.301
-521.960	-2.285	-0.033	-0.023
-520.945	800.000	0.085	0.236
-519.931	23.752	0.378	-0.308
-518.916	-79.249	0.078	0.026
-517.902	357.287	-0.132	0.261
-516.887	800.000	-0.038	-0.134
-515.872	536.314	0.088	-0.206
-514.858	175.674	0.086	0.123
-513.843	-59.408	0.140	-0.060
-512.829	-200.000	0.028	0.163
-511.814	148.070	-0.098	0.131
-510.799	-200.000	-0.026	-0.192
-509.785	-16.705	0.243	0.152
-508.770	210.146	0.279	-0.434
-507.756	-41.108	0.197	-0.101
-506.741	-66.176	0.170	-0.067
-505.726	204.976	0.131	-0.201
-504.712	-55.458	-0.161	-0.072
-503.697	-21.284	0.136	0.082
-502.683	434.617	-0.021	-0.045
-501.668	-73.553	-0.237	-0.085
-500.653	-200.000	0.023	-0.552
-499.639	-200.000	-0.027	0.127
-498.624	-115.126	0.317	-0.059
-497.610	198.289	0.013	-0.020
-496.595	82.219	0.185	0.199
-495.581	417.232	-0.097	0.205
-494.566	800.000	-0.113	0.331
-493.551	-61.401	-0.118	0.049
-492.537	800.000	0.037	-0.120
-491.522	-200.000	0.002	-0.024
-490.508	-79.356	-0.124	-0.042
-489.493	9.023	-0.275	0.205
-488.478	-200.000	0.107	-0.525
-487.464	-200.000	-0.051	0.239
-486.449	43.080	0.145	0.131
-485.435	-106.840	-0.148	-0.033
-484.420	272.138	0.099	-0.173
-483.405	-200.000	0.000	0.071
-482.391	800.000	0.071	0.250
-481.376	-11.385	-0.063	-0.041
-480.362	76.536	-0.035	-0.037
-479.347	697.586	0.056	-0.146
-478.332	-37.853	-0.104	-0.055
-477.318	-129.967	0.377	-0.051
-476.303	-69.648	0.043	0.016
-475.289	-200.000	0.003	-0.236
-474.274	-145.709	0.435	-0.038
-473.259	19.371	0.245	0.195
-472.245	716.138	-0.022	-0.058
-471.230	-177.054	0.397	-0.010
-470.216	-134.178	-0.321	-0.039
-469.201	586.530	-0.022	-0.054
-468.186	174.218	-0.051	-0.073
-467.172	-79.493	0.259	0.087
-466.157	-163.656	-0.239	0.011
-465.143	95.618	-0.241	0.272
-464.128	-51.060	-0.210	-0.097
-463.113	-200.000	0.034	-0.357
-462.099	800.000	-0.007	-0.023
-461.084	800.000	0.055	0.211
-460.070	-49.860	0.123	-0.058
-459.055	328.131	-0.108	0.205
-458.040	342.272	-0.079	0.153
-457.026	-200.000	0.077	0.528
-456.011	-48.262	0.194	0.093
-454.997	-200.000	0.022	0.206
-453.982	-200.000	0.030	0.178
-452.968	-127.082	0.293	0.042
-451.953	162.394	-0.164	0.227
-450.938	363.941	-0.148	-0.294
-449.924	800.000	0.037	0.110
-448.909	800.000	0.046	-0.189
-447.895	-200.000	-0.070	-0.305
-446.880	-39.487	-0.055	-0.029
-445.865	800.000	-0.075	-0.237
-444.851	-200.000	0.090	0.438
-443.836	182.250	-0.193	0.281
-442.822	45.717	0.079	-0.072
-441.807	252.510	0.133	0.224
-440.792	-200.000	-0.005	-0.326
-439.778	152.332	-0.058	-0.078
-438.763	-200.000	-0.012	0.083
-437.749	-200.000	-0.017	-0.221
-436.734	35.472	-0.068	-0.059
-435.719	45.169	0.062	0.056
-434.705	-200.000	-0.011	-0.116
-433.690	520.841	0.100	-0.232
-432.676	207.200	0.252	-0.388
-431.661	-124.518	-0.237	0.036
-430.646	206.989	-0.064	0.099
-429.632	136.404	-0.013	0.017
-428.617	685.412	-0.053	-0.136
-427.603	-200.000	-0.014	0.215
-426.588	-147.153	-0.219	-0.018
-425.573	60.490	-0.151	0.148
-424.559	-79.603	-0.143	0.048
-423.544	699.962	-0.033	0.085
-422.530	210.713	0.046	0.072
-421.515	-12.989	-0.180	0.116
-420.500	-137.913	-0.346	-0.038
-419.486	16.610	0.194	-0.151
-418.471	-67.075	0.159	0.062
-417.457	54.510	-0.074	-0.070
-416.442	294.037	0.094	-0.169
-415.428	-56.427	-0.226	0.099
-414.413	800.000	0.038	0.114
-413.398	20.270	-0.118	0.094
-412.384	800.000	-0.067	-0.283
-411.369	-113.686	-0.021	-0.004
-410.355	-49.153	0.131	-0.062
-409.340	-200.000	0.001	0.014
-408.325	800.000	-0.022	-0.071
-407.311	76.283	0.045	0.047
-406.296	401.659	-0.059	-0.123
-405.282	400.313	0.108	-0.223
-404.267	-200.000	0.002	-0.128
-403.252	86.457	-0.103	-0.112
-402.238	129.463	0.080	0.101
-401.223	800.000	0.018	-0.059
-400.209	800.000	0.056	0.219
-399.194	-187.087	-0.342	0.005
-398.179	-200.000	0.004	0.137
-397.165	-200.000	-0.011	0.118
-396.150	800.000	-0.037	0.154
-395.136	88.885	0.133	0.146
-394.121	272.950	-0.087	-0.152
-393.106	-10.035	0.316	0.207
-392.092	-200.000	-0.007	0.063
-391.077	140.083	-0.100	-0.130
-390.063	282.548	0.238	-0.421
-389.048	144.454	-0.242	-0.319
-388.033	-91.172	0.317	-0.090
-387.019	629.425	0.059	-0.148
-386.004	7.842	0.196	-0.145
-384.990	-132.783	0.231	-0.029
-383.975	-48.286	-0.403	-0.192
-382.960	-200.000	0.052	-0.316
-381.946	646.291	0.023	-0.058
-380.931	-200.000	0.010	0.063
-379.917	-15.688	-0.206	0.130
-378.902	-200.000	-0.008	-0.138
-377.888	-78.170	0.493	0.167
-376.873	219.521	0.219	-0.346
-375.858	99.890	0.192	0.220
-374.844	-143.469	-0.284	0.027
-373.829	-114.702	-0.329	0.062
-372.815	-46.230	-0.321	0.156
-371.800	-76.413	-0.204	0.071
-370.785	-122.330	0.291	-0.047
-369.771	325.845	-0.126	0.237
-368.756	-85.697	0.070	0.021
-367.742	157.469	-0.264	0.360
-366.727	-200.000	-0.095	0.767
-365.712	123.370	-0.244	0.301
-364.698	385.474	0.075	-0.152
-363.683	585.289	-0.075	-0.183
-362.669	99.827	0.004	-0.005
-361.654	-200.000	-0.001	0.009
-360.639	-180.456	-0.333	-0.007
-359.625	-48.856	0.223	0.105
-358.610	27.918	-0.083	-0.069
-357.596	-200.000	0.001	-0.048
-356.581	-200.000	-0.012	0.099
-355.566	202.177	-0.136	-0.206
-354.552	489.122	0.062	-0.140
-353.537	-200.000	0.020	-0.345
-352.523	-53.862	0.288	-0.129
-351.508	117.701	0.024	-0.029
-350.493	-200.000	0.016	-0.456
-349.479	-200.000	-0.000	0.136
-348.464	-6.035	0.305	-0.205
-347.450	345.296	0.077	-0.149
-346.435	-43.913	-0.505	0.250
-345.420	213.463	-0.068	-0.106
-344.406	800.000	-0.086	0.264
-343.391	800.000	0.017	0.071
-342.377	-200.000	-0.045	-0.276
-341.362	-200.000	0.014	-0.216
-340.348	-27.959	-0.138	0.078
-339.333	-80.298	0.466	0.153
-338.318	328.565	-0.229	0.432
-337.304	-40.126	-0.210	-0.108
-336.289	-200.000	0.001	0.040
-335.275	-80.922	0.177	-0.058
-334.260	208.999	-0.066	0.102
-333.245	-80.824	-0.279	-0.091
-332.231	-129.376	-0.271	0.037
-331.216	-107.287	-0.233	-0.050
-330.202	-38.534	0.222	-0.115
-329.187	-47.751	0.321	-0.153
-328.172	800.000	0.059	0.221
-327.158	73.887	-0.050	0.052
-326.143	171.786	-0.180	0.254
-325.129	-200.000	-0.004	-0.068
-324.114	800.000	-0.062	0.168
-323.099	70.975	-0.132	0.135
-322.085	387.425	0.111	0.225
-321.070	-200.000	0.068	0.420
-320.056	-170.758	0.271	-0.009
-319.041	-115.633	0.219	0.040
-318.026	-200.000	0.035	-0.300
-317.012	-200.000	0.021	-0.108
-315.997	-127.129	-0.252	0.036
-314.983	800.000	0.045	0.160
-313.968	-85.676	-0.156	-0.048
-312.953	-19.505	0.329	0.200
-311.939	-200.000	0.038	-0.187
-310.924	800.000	0.065	-0.258
-309.910	800.000	-0.037	0.120
-308.895	107.540	-0.168	0.197
-307.880	-200.000	-0.003	0.175
-306.866	199.798	-0.136	0.204
-305.851	75.336	-0.080	-0.083
-304.837	-122.679	0.162	-0.026
-303.822	800.000	0.036	-0.136
-302.807	166.241	0.263	0.366
-301.793	-123.274	-0.234	0.037
-300.778	-31.945	-0.283	0.155
-299.764	-166.757	0.142	-0.006
-298.749	303.014	-0.157	-0.285
-297.735	-200.000	0.023	-0.146
-296.720	-159.298	0.219	-0.012
-295.705	800.000	0.098	-0.338
-294.691	88.055	0.150	0.164
-293.676	207.669	-0.049	-0.075
-292.662	-172.719	0.187	0.006
-291.647	44.013	-0.119	0.107
-290.632	-200.000	-0.034	-0.290
-289.618	-177.129	-0.126	-0.003
-288.603	-118.690	-0.289	0.050
-287.589	56.749	0.441	0.421
-286.574	119.797	0.059	-0.072
-285.559	-71.740	0.119	0.044
-284.545	800.000	-0.031	0.087
-283.530	-110.119	0.230	0.047
-282.516	-176.478	0.259	-0.007
-281.501	-3.956	-0.063	0.043
-280.486	-133.976	-0.426	-0.052
-279.472	800.000	-0.026	-0.097
-278.457	-2.028	0.294	0.203
-277.443	-173.781	0.218	-0.006
-276.428	-94.482	-0.333	-0.089
-275.413	-153.926	-0.151	0.010
-274.399	182.762	0.158	0.229
-273.384	-105.138	-0.163	-0.036
-272.370	-97.097	0.142	-0.036
-271.355	-87.836	0.505	0.149
-270.340	559.723	0.085	0.201
-269.326	-87.031	0.149	0.045
-268.311	-200.000	-0.041	-0.205
-267.297	-90.099	0.312	0.089
-266.282	-1.598	0.220	-0.152
-265.267	40.381	-0.394	-0.348
-264.253	-200.000	-0.005	0.020
-263.238	-200.000	0.001	-0.149
-262.224	-174.574	-0.118	-0.003
-261.209	800.000	-0.153	0.425
-260.195	165.991	0.053	0.074
-259.180	69.841	-0.226	0.228
-258.165	800.000	0.049	-0.161
-257.151	453.790	-0.071	0.154
-256.136	26.368	-0.112	0.092
-255.122	571.555	-0.042	-0.101
-254.107	90.432	-0.109	0.120
-253.092	-96.968	-0.069	-0.018
-252.078	-117.644	0.443	0.078
-251.063	165.028	-0.195	-0.270
-250.049	-16.333	0.167	0.104
-249.034	-119.488	-0.273	0.046
-248.019	-34.330	-0.260	-0.140
-247.005	-143.301	0.361	-0.034
-245.990	60.495	0.335	0.326
-244.976	77.642	-0.233	-0.244
-243.961	-200.000	-0.034	-0.274
-242.946	-200.000	0.034	0.211
-241.932	-112.353	-0.372	-0.073
-240.917	-200.000	-0.021	-0.199
-239.903	90.055	-0.065	0.071
-238.888	-139.751	-0.402	-0.042
-237.873	-104.045	-0.256	-0.059
-236.859	105.423	0.190	-0.220
-235.844	-5.094	-0.204	0.137
-234.830	-130.964	0.335	0.044
-233.815	31.629	0.147	0.124
-232.800	-200.000	0.001	-0.225
-231.786	174.693	-0.096	0.136
-230.771	-64.060	0.330	0.132
-229.757	40.090	0.130	0.114
-228.742	-200.000	0.004	0.278
-227.727	248.041	0.101	-0.167
-226.713	740.272	0.020	0.051
-225.698	800.000	-0.025	-0.082
-224.684	-121.900	0.285	0.046
-223.669	687.286	0.108	0.277
-222.655	-94.115	0.392	0.105
-221.640	195.465	-0.107	0.159
-220.625	800.000	-0.018	0.067
-219.611	6.142	-0.249	-0.180
-218.596	1.067	0.217	0.152
-217.582	-61.420	-0.186	-0.077
-216.567	612.485	0.144	-0.353
-215.552	8.480	0.266	-0.196
-214.538	136.028	0.180	-0.229
-213.523	82.162	0.032	0.034
-212.509	168.178	-0.196	0.273
-211.494	291.620	0.104	-0.185
-210.479	13.557	-0.114	0.087
-209.465	-200.000	-0.646	-0.001
-208.450	-200.000	0.081	0.381
-207.436	-141.218	-0.222	-0.022
-206.421	64.868	-0.220	0.217
-205.406	-44.508	0.301	0.147
-204.392	800.000	-0.071	-0.266
-203.377	800.000	0.042	0.175
-202.363	34.371	-0.169	0.144
-201.348	21.744	-0.076	0.061
-200.333	77.692	0.122	0.127
-199.319	13.955	-0.193	-0.147
-198.304	102.552	0.150	-0.171
-197.290	67.132	0.145	0.145
-196.275	800.000	-0.047	-0.142
-195.260	224.479	-0.064	0.101
-194.246	85.650	-0.197	-0.212
-193.231	-200.000	0.013	0.195
-192.217	14.201	-0.124	-0.094
-191.202	-200.000	0.059	0.305
-190.187	-78.681	0.290	0.097
-189.173	-200.000	0.034	0.214
-188.158	171.232	0.224	-0.315
-187.144	-200.000	-0.001	0.089
-186.129	487.267	-0.136	-0.304
-185.114	800.000	-0.070	-0.215
-184.100	430.958	-0.091	0.192
-183.085	39.861	-0.285	-0.250
-182.071	100.101	-0.253	-0.287
-181.056	33.482	0.043	0.037
-180.042	-200.000	0.005	-0.050
-179.027	217.652	-0.116	-0.181
-178.012	-200.000	-0.015	0.146
-176.998	-70.233	0.352	-0.131
-175.983	-200.000	-0.002	-0.167
-174.969	2.483	0.188	-0.133
-173.954	-26.702	0.144	-0.082
-172.939	-145.187	0.126	-0.011
-171.925	472.450	0.114	-0.251
-170.910	-121.309	-0.325	0.053
-169.896	144.787	-0.123	0.160
-168.881	-3.763	-0.100	-0.068
-167.866	-127.557	-0.249	-0.035
-166.852	-200.000	-0.010	-0.159
-165.837	207.025	0.147	0.223
-164.823	-200.000	-0.038	-0.194
-163.808	-200.000	0.193	-0.001
-162.793	-7.784	0.176	-0.116
-161.779	148.948	-0.271	0.357
-160.764	114.367	-0.081	-0.096
-159.750	-80.622	0.116	-0.038
-158.735	800.000	-0.133	-0.373
-157.720	800.000	-0.030	0.091
-156.706	-163.563	0.166	0.008
-155.691	106.864	0.141	0.164
-154.677	-200.000	-0.143	0.000
-153.662	-200.000	0.033	-0.146
-152.647	-130.350	0.270	0.036
-151.633	248.876	-0.104	-0.171
-150.618	-82.769	-0.081	0.026
-149.604	-200.000	-0.012	-0.278
-148.589	-113.040	0.298	0.057
-147.574	-98.583	-0.108	-0.027
-146.560	16.126	-0.245	-0.189
-145.545	156.945	-0.152	-0.206
-144.531	383.368	0.025	0.051
-143.516	-200.000	-0.003	-0.074
-142.502	-200.000	0.031	-0.242
-141.487	225.560	-0.047	0.074
-140.472	34.002	0.100	-0.085
-139.458	-95.589	-0.155	-0.041
-138.443	32.244	0.232	0.195
-137.429	246.336	-0.085	0.140
-136.414	90.008	-0.139	0.151
-135.399	-200.000	0.028	-0.157
-134.385	-88.877	0.094	0.027
-133.370	21.618	-0.057	-0.045
-132.356	-137.255	-0.353	-0.039
-131.341	17.592	0.272	-0.211
-130.326	572.001	0.110	-0.262
-129.312	-97.481	-0.242	0.061
-128.297	-121.374	0.069	-0.011
-127.283	-170.378	0.425	-0.015
-126.268	-103.898	0.298	0.068
-125.253	-73.908	0.209	-0.074
-124.239	93.453	-0.151	-0.167
-123.224	175.426	0.074	0.105
-122.210	71.131	0.162	0.164
