DTS Sentinel unit serial number:	SN413079Multiplexer serial number:	ORYXHardware model number:	OX4-SRSoftware version number:	ORYX F/W v4.00 Oryx Data Collector v3.7.2.0data status	okinstallation	princeton_trtdifferential loss correction	single-endedforward channel	channel 3reverse channel	N/Adate	2019/09/18time	08:08:35forward acquisition time	60.00reverse acquisition time	0.00gamma	496.2192k internal	0.2341k external	0.2341temperature offset calibration	0.9945default loss term (dB/km)	0.3790temperature slope calibration	1.0000multiplexer offset coefficient	1.0000multiplexer slope coefficient	1.0000fibre end	0.00T internal ref (°C)	23.78T ext. ref 1 (°C)	0.20T ext. ref 2 (°C)	19.51length (m)	temperature (°C)	Stokes	anti-Stokes-747.200	121.933	-0.074	0.092
-746.185	-122.453	-0.287	0.047
-745.171	-200.000	-0.001	-0.020
-744.156	609.461	-0.009	-0.024
-743.142	-200.000	-0.005	0.044
-742.127	-74.898	-0.325	-0.117
-741.112	-43.737	-0.179	-0.090
-740.098	-86.477	-0.416	0.128
-739.083	-200.000	0.019	-0.140
-738.069	91.795	0.114	0.128
-737.054	-200.000	-0.081	-0.482
-736.039	-54.478	-0.314	-0.143
-735.025	-79.159	0.191	-0.065
-734.010	238.662	0.062	-0.103
-732.996	-68.728	-0.334	0.129
-731.981	-200.000	-0.027	0.124
-730.966	-126.273	0.105	-0.016
-729.952	-61.718	-0.203	0.085
-728.937	-138.561	-0.415	0.046
-727.923	-37.853	0.188	0.100
-726.908	596.240	0.104	-0.258
-725.894	800.000	0.033	0.102
-724.879	-28.700	-0.195	-0.112
-723.864	-26.140	0.095	-0.056
-722.850	-200.000	-0.026	0.300
-721.835	-143.842	0.119	-0.011
-720.821	-200.000	-0.020	0.254
-719.806	-126.933	-0.167	-0.025
-718.791	25.375	-0.277	-0.230
-717.777	-124.126	-0.242	-0.038
-716.762	257.895	-0.080	0.138
-715.748	800.000	-0.124	0.459
-714.733	-115.850	-0.205	0.038
-713.718	-45.635	0.111	-0.055
-712.704	39.190	0.157	-0.140
-711.689	-64.072	-0.365	-0.149
-710.675	800.000	-0.055	-0.197
-709.660	-56.215	-0.086	-0.038
-708.645	-200.000	-0.002	0.069
-707.631	119.997	-0.157	0.195
-706.616	39.680	-0.266	-0.239
-705.602	800.000	0.075	0.305
-704.587	-200.000	0.020	-0.476
-703.572	162.585	0.060	0.084
-702.558	800.000	0.062	-0.218
-701.543	-200.000	-0.013	-0.202
-700.529	-123.048	0.459	0.074
-699.514	95.169	0.038	-0.043
-698.499	-8.469	-0.179	-0.121
-697.485	145.091	0.169	0.227
-696.470	115.065	0.337	0.411
-695.456	73.831	-0.188	0.197
-694.441	-83.094	0.310	0.100
-693.426	757.142	-0.124	-0.336
-692.412	-112.509	-0.245	-0.049
-691.397	-13.958	0.327	-0.211
-690.383	-80.983	-0.282	-0.094
-689.368	-64.978	-0.094	0.038
-688.354	30.933	0.207	0.178
-687.339	-66.483	0.082	0.033
-686.324	-135.502	-0.328	-0.039
-685.310	-0.695	0.130	0.092
-684.295	711.233	-0.088	0.232
-683.281	-200.000	-0.042	-0.327
-682.266	795.292	-0.120	0.329
-681.251	175.164	0.091	0.132
-680.237	-145.914	-0.050	-0.004
-679.222	116.093	-0.115	-0.141
-678.208	296.605	-0.094	0.172
-677.193	-200.000	0.003	-0.471
-676.178	6.835	-0.151	-0.113
-675.164	520.022	0.084	0.198
-674.149	-200.000	-0.019	0.137
-673.135	-200.000	-0.199	-0.001
-672.120	-200.000	0.013	0.219
-671.105	165.174	0.176	0.248
-670.091	-79.620	-0.226	0.076
-669.076	126.923	0.060	0.076
-668.062	-200.000	0.012	0.220
-667.047	124.459	-0.019	-0.024
-666.032	-39.823	-0.206	0.107
-665.018	234.004	-0.068	-0.112
-664.003	-9.228	-0.413	0.276
-662.989	-53.287	0.135	-0.062
-661.974	-200.000	-0.060	0.610
-660.959	-11.707	0.148	0.097
-659.945	-200.000	-0.045	-0.200
-658.930	26.373	0.220	0.184
-657.916	-25.787	-0.288	0.169
-656.901	800.000	-0.143	-0.408
-655.886	-133.714	0.079	-0.010
-654.872	157.377	-0.208	0.288
-653.857	-79.631	-0.358	-0.121
-652.843	800.000	0.062	0.241
-651.828	7.743	0.022	0.017
-650.814	-13.933	-0.130	-0.084
-649.799	-150.531	-0.115	0.009
-648.784	406.707	0.040	-0.084
-647.770	-131.940	0.291	0.038
-646.755	-3.183	0.192	0.133
-645.741	-15.222	0.157	-0.100
-644.726	-118.469	-0.314	-0.056
-643.711	37.668	-0.252	-0.223
-642.697	-20.463	0.314	-0.193
-641.682	49.954	-0.180	-0.170
-640.668	-200.000	-0.227	0.001
-639.653	-64.803	-0.072	-0.029
-638.638	171.227	-0.134	0.191
-637.624	-200.000	0.031	0.228
-636.609	-53.253	-0.104	0.047
-635.595	-200.000	0.073	-0.367
-634.580	-40.984	-0.250	0.129
-633.565	-89.218	0.200	-0.059
-632.551	-200.000	0.022	-0.104
-631.536	14.920	0.124	-0.097
-630.522	86.748	0.269	0.296
-629.507	-200.000	0.039	0.208
-628.492	-147.916	-0.069	-0.006
-627.478	16.229	-0.078	-0.061
-626.463	-200.000	0.070	0.353
-625.449	-200.000	-0.004	-0.113
-624.434	348.353	-0.089	-0.176
-623.419	-68.009	0.176	-0.068
-622.405	-88.384	-0.300	0.089
-621.390	44.739	0.089	-0.082
-620.376	-200.000	-0.025	-0.429
-619.361	800.000	0.032	0.138
-618.346	800.000	0.041	-0.155
-617.332	-200.000	-0.043	-0.297
-616.317	401.508	-0.148	0.311
-615.303	800.000	-0.104	-0.388
-614.288	99.771	-0.075	0.087
-613.273	-125.973	0.217	0.033
-612.259	740.283	0.087	0.234
-611.244	0.552	0.152	-0.108
-610.230	-200.000	0.083	0.411
-609.215	33.451	-0.234	0.202
-608.201	74.229	-0.139	-0.145
-607.186	101.861	0.188	-0.219
-606.171	150.921	0.087	0.117
-605.157	-161.366	0.140	-0.007
-604.142	-200.000	-0.018	0.132
-603.128	92.660	-0.039	0.044
-602.113	-22.101	0.255	0.154
-601.098	-34.725	-0.363	-0.198
-600.084	97.607	-0.225	-0.257
-599.069	800.000	0.080	-0.277
-598.055	652.874	-0.048	0.122
-597.040	-12.891	0.199	0.129
-596.025	123.368	0.174	-0.217
-595.011	22.765	0.132	0.108
-593.996	-30.909	-0.325	-0.183
-592.982	-18.118	0.219	0.137
-591.967	513.142	0.088	-0.205
-590.952	-200.000	0.022	0.254
-589.938	-10.047	0.103	-0.068
-588.923	91.848	-0.153	0.172
-587.909	124.678	0.131	-0.164
-586.894	-95.094	0.270	-0.073
-585.879	800.000	-0.070	0.256
-584.865	81.382	-0.116	0.124
-583.850	190.844	0.144	0.215
-582.836	293.494	-0.097	0.176
-581.821	800.000	0.033	0.093
-580.806	141.565	0.134	-0.177
-579.792	266.939	-0.113	-0.196
-578.777	9.425	-0.046	-0.035
-577.763	-200.000	-0.032	-0.187
-576.748	76.021	0.067	0.071
-575.733	334.541	-0.023	-0.043
-574.719	-200.000	0.057	-0.471
-573.704	421.815	-0.067	0.142
-572.690	-200.000	0.022	-0.105
-571.675	-147.886	-0.205	-0.017
-570.661	-166.175	0.513	-0.022
-569.646	786.101	0.084	-0.228
-568.631	147.236	-0.030	0.041
-567.617	204.466	-0.131	-0.202
-566.602	-200.000	-0.038	0.265
-565.588	-200.000	-0.143	0.001
-564.573	-19.029	0.203	0.126
-563.558	-200.000	-0.001	0.187
-562.544	-119.262	-0.239	0.041
-561.529	-155.610	-0.416	-0.027
-560.515	800.000	-0.035	0.116
-559.500	466.398	0.084	-0.188
-558.485	152.435	0.135	-0.183
-557.471	800.000	0.122	-0.350
-556.456	136.167	0.357	-0.463
-555.442	-200.000	0.011	0.055
-554.427	119.203	0.110	0.135
-553.412	-200.000	0.015	0.084
-552.398	42.034	-0.307	0.277
-551.383	-200.000	0.006	-0.113
-550.369	791.525	0.020	-0.055
-549.354	48.537	-0.283	-0.264
-548.339	52.795	-0.036	-0.035
-547.325	-200.000	-0.016	-0.247
-546.310	21.418	-0.094	0.076
-545.296	-35.551	0.243	-0.131
-544.281	-2.461	-0.225	-0.157
-543.266	369.114	0.026	-0.052
-542.252	-166.140	0.213	-0.009
-541.237	-200.000	-0.025	-0.181
-540.223	145.539	0.081	0.108
-539.208	430.024	0.084	-0.180
-538.193	-102.683	-0.368	0.087
-537.179	-200.000	0.053	-0.294
-536.164	160.631	0.229	-0.317
-535.150	-91.229	-0.071	0.020
-534.135	50.936	0.048	0.045
-533.121	-200.000	0.039	-0.180
-532.106	187.546	0.194	-0.288
-531.091	-152.071	0.161	0.012
-530.077	-82.810	-0.315	-0.101
-529.062	655.272	0.073	-0.187
-528.048	800.000	-0.094	0.328
-527.033	131.466	-0.337	-0.430
-526.018	47.612	-0.191	-0.177
-525.004	-162.386	0.272	-0.013
-523.989	-200.000	0.036	0.276
-522.975	16.306	-0.136	0.107
-521.960	161.975	0.158	-0.220
-520.945	-55.928	0.237	-0.105
-519.931	201.371	-0.068	0.104
-518.916	-200.000	0.012	-0.140
-517.902	-70.367	0.209	-0.079
-516.887	-200.000	-0.016	-0.122
-515.872	-39.568	-0.395	0.205
-514.858	64.386	0.070	0.070
-513.843	-59.938	-0.126	0.053
-512.829	6.032	0.109	0.080
-511.814	108.085	-0.181	-0.215
-510.799	-200.000	0.022	0.267
-509.785	-166.436	-0.204	0.009
-508.770	800.000	0.036	0.149
-507.756	8.375	0.195	0.146
-506.741	311.266	0.021	0.040
-505.726	-136.866	-0.230	-0.026
-504.712	159.026	0.118	0.163
-503.697	-16.204	0.075	-0.047
-502.683	47.536	0.107	0.099
-501.668	-138.001	0.181	0.020
-500.653	800.000	0.100	0.280
-499.639	-21.336	-0.266	0.161
-498.624	-29.089	0.345	0.197
-497.610	-83.827	0.398	-0.126
-496.595	472.086	-0.013	-0.030
-495.581	359.256	0.085	0.168
-494.566	240.459	0.061	0.102
-493.551	117.765	-0.242	0.295
-492.537	-154.070	0.215	0.014
-491.522	-51.182	0.097	-0.045
-490.508	-113.034	0.369	-0.072
-489.493	800.000	0.026	-0.102
-488.478	-158.266	-0.191	0.011
-487.464	-51.623	0.135	-0.063
-486.449	-200.000	0.027	0.191
-485.435	101.452	-0.103	0.119
-484.420	65.367	0.055	-0.056
-483.405	104.554	-0.172	0.201
-482.391	-5.373	0.081	0.055
-481.376	-34.277	0.161	0.088
-480.362	211.801	-0.106	0.166
-479.347	800.000	0.030	-0.104
-478.332	-200.000	0.003	-0.126
-477.318	273.128	0.160	-0.279
-476.303	-82.796	-0.214	0.069
-475.289	-119.172	0.076	-0.013
-474.274	191.724	-0.068	0.101
-473.259	411.804	-0.014	-0.030
-472.245	-15.707	0.195	-0.123
-471.230	-200.000	-0.025	-0.276
-470.216	246.998	0.078	-0.130
-469.201	-29.120	-0.147	0.084
-468.186	-40.663	0.009	0.005
-467.172	317.955	-0.142	0.266
-466.157	118.847	0.175	-0.214
-465.143	800.000	0.144	0.443
-464.128	281.850	0.051	0.091
-463.113	381.338	-0.210	-0.427
-462.099	49.314	0.076	0.071
-461.084	33.172	-0.148	-0.127
-460.070	423.266	-0.032	0.068
-459.055	800.000	0.068	0.237
-458.040	-200.000	-0.019	0.199
-457.026	347.007	0.194	-0.379
-456.011	-74.726	0.299	-0.106
-454.997	-156.314	0.123	-0.008
-453.982	-4.038	-0.297	0.204
-452.968	219.508	0.127	-0.202
-451.953	800.000	-0.096	-0.271
-450.938	-200.000	0.008	-0.139
-449.924	-157.984	0.192	0.011
-448.909	-200.000	0.012	0.304
-447.895	26.940	-0.058	-0.048
-446.880	-35.067	-0.191	-0.103
-445.865	260.934	0.140	0.239
-444.851	800.000	0.094	-0.294
-443.836	120.208	-0.258	-0.317
-442.822	-106.008	-0.081	0.018
-441.807	-152.454	-0.147	0.010
-440.792	-23.005	-0.217	-0.130
-439.778	59.412	-0.327	0.319
-438.763	105.494	-0.104	0.122
-437.749	-7.340	-0.074	-0.049
-436.734	-97.164	0.066	-0.017
-435.719	647.801	0.064	0.161
-434.705	-200.000	0.036	0.226
-433.690	-81.350	-0.348	-0.113
-432.676	168.428	-0.068	0.096
-431.661	-34.678	0.146	0.079
-430.646	-200.000	-0.009	-0.462
-429.632	-200.000	-0.001	-0.131
-428.617	-42.343	0.514	-0.260
-427.603	101.308	-0.171	0.197
-426.588	126.506	-0.156	0.195
-425.573	-16.502	-0.162	-0.101
-424.559	-122.192	0.219	0.036
-423.544	171.318	0.277	0.394
-422.530	-60.296	0.175	-0.074
-421.515	73.463	-0.098	-0.102
-420.500	-14.332	0.121	0.077
-419.486	7.081	0.161	-0.119
-418.471	-157.367	-0.307	0.018
-417.457	-131.395	-0.361	-0.047
-416.442	196.949	-0.124	0.187
-415.428	29.588	0.100	0.084
-414.413	-162.190	0.382	0.019
-413.398	49.538	0.170	-0.158
-412.384	-200.000	-0.024	0.355
-411.369	119.898	-0.067	0.083
-410.355	-200.000	0.013	-0.117
-409.340	-200.000	-0.022	0.107
-408.325	631.632	-0.030	0.074
-407.311	574.571	-0.048	-0.117
-406.296	434.626	-0.206	-0.442
-405.282	-85.924	-0.070	0.021
-404.267	54.643	0.252	0.240
-403.252	-200.000	-0.011	0.126
-402.238	-86.008	0.147	0.045
-401.223	-200.000	0.070	-0.405
-400.209	241.881	-0.050	-0.083
-399.194	-200.000	0.035	0.228
-398.179	-200.000	0.005	-0.067
-397.165	47.329	0.105	0.096
-396.150	-200.000	-0.051	-0.276
-395.136	53.918	0.340	-0.323
-394.121	162.661	0.117	0.162
-393.106	-97.635	-0.201	0.051
-392.092	-200.000	-0.037	-0.285
-391.077	800.000	-0.009	0.027
-390.063	-173.304	0.169	0.005
-389.048	-191.250	-0.270	0.003
-388.033	-77.728	-0.142	-0.049
-387.019	87.556	0.226	-0.247
-386.004	800.000	-0.117	-0.362
-384.990	40.774	0.102	-0.091
-383.975	800.000	0.087	-0.273
-382.960	-83.080	0.386	-0.123
-381.946	-103.361	-0.100	-0.023
-380.931	-200.000	0.010	-0.312
-379.917	-101.002	-0.412	0.100
-378.902	-35.052	0.380	0.205
-377.888	-70.947	-0.364	-0.135
-376.873	124.421	0.022	0.027
-375.858	-48.862	0.154	-0.073
-374.844	-129.892	0.122	-0.017
-373.829	10.415	0.357	-0.269
-372.815	-34.191	-0.170	-0.092
-371.800	29.200	-0.248	0.208
-370.785	-180.831	-0.359	0.007
-369.771	800.000	-0.054	0.190
-368.756	84.977	0.121	-0.131
-367.742	-84.241	0.177	0.055
-366.727	98.019	0.033	-0.037
-365.712	392.084	0.088	0.181
-364.698	261.903	-0.085	0.145
-363.683	69.893	-0.308	-0.313
-362.669	-200.000	0.021	-0.261
-361.654	710.901	-0.008	0.020
-360.639	-200.000	-0.022	-0.227
-359.625	-20.389	0.077	0.047
-358.610	-32.626	-0.074	0.040
-357.596	-200.000	0.037	0.324
-356.581	-139.579	-0.116	0.012
-355.566	-0.077	-0.273	-0.192
-354.552	-200.000	-0.000	-0.600
-353.537	69.508	-0.081	-0.083
-352.523	193.908	0.062	-0.093
-351.508	90.841	-0.170	0.188
-350.493	189.739	-0.236	0.350
-349.479	309.092	-0.102	-0.189
-348.464	-66.282	0.044	-0.017
-347.450	-44.253	-0.423	-0.209
-346.435	800.000	-0.040	-0.166
-345.420	38.737	0.135	-0.119
-344.406	-62.231	0.120	-0.049
-343.391	-144.622	0.198	0.018
-342.377	-1.624	-0.039	-0.027
-341.362	-85.526	0.332	-0.102
-340.348	107.272	-0.120	0.141
-339.333	36.328	0.134	-0.116
-338.318	-41.481	-0.142	-0.072
-337.304	-45.966	0.295	-0.143
-336.289	-9.721	0.076	-0.050
-335.275	-123.046	-0.219	-0.035
-334.260	460.522	0.137	0.301
-333.245	166.576	0.195	0.273
-332.231	649.104	-0.079	0.198
-331.216	-200.000	-0.019	-0.273
-330.202	459.229	-0.073	-0.161
-329.187	800.000	-0.099	0.313
-328.172	-17.029	0.062	-0.039
-327.158	800.000	-0.036	-0.149
-326.143	-146.406	-0.053	-0.005
-325.129	-62.991	-0.173	0.071
-324.114	-200.000	-0.013	0.091
-323.099	-200.000	0.058	0.335
-322.085	55.848	-0.165	-0.158
-321.070	-107.418	-0.074	0.016
-320.056	-141.675	0.218	0.022
-319.041	624.502	-0.102	0.255
-318.026	468.665	-0.132	-0.291
-317.012	579.766	-0.065	0.156
-315.997	-112.991	-0.179	-0.035
-314.983	-200.000	-0.025	-0.369
-313.968	-200.000	-0.005	-0.091
-312.953	313.594	0.029	0.055
-311.939	-1.842	0.216	0.149
-310.924	-171.974	0.530	0.017
-309.910	207.206	-0.217	0.333
-308.895	-200.000	-0.044	0.262
-307.880	-142.190	0.448	-0.044
-306.866	274.113	-0.023	0.041
-305.851	-74.181	-0.122	-0.043
-304.837	-61.141	-0.153	0.064
-303.822	-101.500	0.242	0.058
-302.807	-103.924	0.234	0.054
-301.793	17.400	0.158	0.124
-300.778	508.378	-0.183	-0.419
-299.764	-115.805	0.243	0.045
-298.749	-67.756	-0.105	-0.040
-297.735	800.000	0.038	0.119
-296.720	-0.685	-0.090	-0.063
-295.705	-102.397	0.386	-0.091
-294.691	-37.104	-0.207	0.109
-293.676	-91.008	-0.182	-0.051
-292.662	419.164	0.044	0.094
-291.647	-200.000	-0.231	0.001
-290.632	-85.067	0.402	-0.124
-289.618	-94.911	0.119	-0.032
-288.603	-200.000	0.024	0.307
-287.589	314.235	-0.031	-0.058
-286.574	149.969	-0.154	-0.206
-285.559	-200.000	0.034	0.280
-284.545	-85.479	0.314	-0.096
-283.530	-96.213	-0.240	-0.063
-282.516	103.114	0.158	-0.182
-281.501	800.000	-0.075	0.319
-280.486	-134.725	0.248	-0.030
-279.472	272.890	0.092	-0.160
-278.457	704.562	0.008	-0.021
-277.443	89.740	-0.202	0.221
-276.428	-200.000	0.008	0.035
-275.413	163.037	-0.209	-0.289
-274.399	481.466	0.063	-0.141
-273.384	171.397	0.198	0.279
-272.370	32.511	0.227	0.193
-271.355	9.718	-0.112	0.083
-270.340	13.718	0.086	-0.066
-269.326	-73.303	-0.311	0.112
-268.311	-42.686	-0.136	0.068
-267.297	-13.532	0.059	0.038
-266.282	36.015	-0.130	0.112
-265.267	-78.821	-0.090	0.030
-264.253	-200.000	0.019	0.094
-263.238	800.000	-0.034	0.139
-262.224	-83.774	-0.167	-0.052
-261.209	-200.000	-0.016	-0.207
-260.195	29.286	-0.218	0.182
-259.180	800.000	0.060	-0.194
-258.165	407.059	0.084	0.175
-257.151	-143.570	-0.255	-0.024
-256.136	-0.238	0.197	-0.138
-255.122	-200.000	-0.061	0.349
-254.107	-50.247	-0.181	-0.084
-253.092	-61.816	0.318	-0.131
-252.078	-200.000	-0.005	-0.086
-251.063	-200.000	-0.057	0.326
-250.049	-98.318	-0.125	-0.031
-249.034	216.818	0.149	-0.234
-248.019	65.422	-0.067	0.067
-247.005	-200.000	0.025	-0.152
-245.990	507.061	0.009	-0.020
-244.976	-0.990	0.055	-0.039
-243.961	-75.780	-0.321	0.112
-242.946	-163.067	0.267	0.013
-241.932	-200.000	0.014	0.116
-240.917	-44.834	0.214	-0.105
-239.903	-66.780	-0.230	0.090
-238.888	-152.603	-0.157	0.011
-237.873	800.000	-0.098	0.353
-236.859	800.000	-0.117	0.355
-235.844	-127.900	0.089	-0.013
-234.830	800.000	0.041	0.146
-233.815	800.000	-0.076	0.304
-232.800	290.395	0.133	0.238
-231.786	800.000	0.149	-0.416
-230.771	73.653	0.181	-0.186
-229.757	-200.000	-0.029	-0.162
-228.742	800.000	0.074	0.220
-227.727	20.028	0.141	0.112
-226.713	-200.000	-0.027	0.250
-225.698	153.746	-0.225	0.302
-224.684	-8.235	0.168	0.111
-223.669	-200.000	-0.025	0.135
-222.655	65.281	-0.278	0.276
-221.640	-200.000	0.042	0.250
-220.625	-151.384	-0.374	0.027
-219.611	-47.096	-0.128	-0.062
-218.596	-44.715	-0.131	-0.064
-217.582	342.959	0.183	0.353
-216.567	-53.777	-0.132	0.059
-215.552	63.048	-0.053	-0.052
-214.538	-200.000	-0.008	-0.160
-213.523	800.000	-0.055	-0.163
-212.509	-81.291	0.252	-0.082
-211.494	-200.000	-0.037	-0.233
-210.479	-123.280	0.222	-0.035
-209.465	206.665	0.129	-0.197
-208.450	6.436	-0.179	-0.131
-207.436	-200.000	-0.018	0.494
-206.421	77.443	0.061	0.064
-205.406	-15.432	-0.104	0.065
-204.392	-103.502	-0.090	0.021
-203.377	-200.000	0.012	0.178
-202.363	263.173	-0.101	-0.173
-201.348	800.000	-0.057	0.158
-200.333	-86.820	-0.319	0.095
-199.319	-183.400	0.067	-0.001
-198.304	-200.000	-0.002	0.189
-197.290	-200.000	0.029	0.345
-196.275	-25.591	0.211	-0.122
-195.260	-36.239	-0.219	0.116
-194.246	-200.000	0.024	0.284
-193.231	-60.664	-0.267	-0.111
-192.217	611.881	-0.058	-0.141
-191.202	223.485	0.174	0.275
-190.187	54.837	0.129	-0.122
-189.173	32.957	0.131	0.111
-188.158	-17.882	-0.025	-0.015
-187.144	330.018	-0.306	-0.578
-186.129	734.294	-0.097	0.255
-185.114	-52.547	0.150	-0.068
-184.100	-118.054	-0.478	0.084
-183.085	110.538	0.108	-0.127
-182.071	-128.234	0.270	-0.038
-181.056	-200.000	0.068	0.316
-180.042	-104.320	-0.172	-0.039
-179.027	-200.000	-0.050	0.421
-178.012	-29.796	0.199	-0.111
-176.998	-24.947	0.229	0.133
-175.983	113.120	0.130	-0.155
-174.969	153.296	-0.080	-0.107
-173.954	757.211	0.051	-0.135
-172.939	174.867	0.177	-0.251
-171.925	-47.097	-0.226	0.108
-170.910	800.000	-0.086	0.275
-169.896	-90.061	0.432	-0.123
-168.881	-131.903	-0.143	0.018
-167.866	64.043	-0.197	0.194
-166.852	45.432	-0.210	0.190
-165.837	-98.132	0.167	-0.042
-164.823	697.736	-0.006	0.014
-163.808	130.821	0.240	-0.301
-162.793	79.208	-0.119	-0.125
-161.779	222.736	-0.171	0.270
-160.764	-200.000	0.031	0.266
-159.750	129.973	0.076	0.095
-158.735	-88.364	-0.193	-0.056
-157.720	93.122	-0.027	-0.030
-156.706	-121.341	-0.205	0.033
-155.691	92.324	-0.325	0.359
-154.677	493.936	0.037	-0.084
-153.662	59.870	0.169	-0.163
-152.647	800.000	-0.047	0.137
-151.633	24.317	-0.216	0.174
-150.618	800.000	0.037	-0.104
-149.604	105.134	0.329	0.380
-148.589	92.635	0.345	-0.381
-147.574	-200.000	-0.088	-0.407
-146.560	70.333	0.220	0.223
-145.545	241.326	-0.080	0.131
-144.531	163.924	-0.217	0.299
-143.516	-46.368	-0.057	-0.027
-142.502	-94.546	0.256	0.068
-141.487	-200.000	0.073	-0.356
-140.472	-100.152	-0.193	0.047
-139.458	188.789	-0.032	-0.047
-138.443	-40.196	-0.155	0.079
-137.429	273.876	0.123	-0.214
-136.414	-69.427	-0.131	0.049
-135.399	800.000	0.077	0.215
-134.385	8.399	0.261	-0.192
-133.370	-200.000	0.033	-0.240
-132.356	202.131	-0.132	0.199
-131.341	-88.147	-0.257	0.075
-130.326	-200.000	0.018	-0.101
-129.312	19.547	0.367	-0.289
-128.297	37.417	-0.138	-0.119
-127.283	142.488	0.116	0.150
-126.268	800.000	0.030	-0.130
-125.253	71.398	0.188	-0.191
-124.239	-200.000	0.014	-0.162
-123.224	-85.610	0.418	0.127
-122.210	-47.930	0.283	-0.134
-121.195	800.000	0.083	0.268
