DTS Sentinel unit serial number:	SN413079Multiplexer serial number:	ORYXHardware model number:	OX4-SRSoftware version number:	ORYX F/W v4.00 Oryx Data Collector v3.7.2.0data status	okinstallation	princeton_trtdifferential loss correction	single-endedforward channel	channel 3reverse channel	N/Adate	2019/09/15time	15:56:35forward acquisition time	60.00reverse acquisition time	0.00gamma	496.2192k internal	0.2290k external	0.2290temperature offset calibration	0.9936default loss term (dB/km)	0.3790temperature slope calibration	1.0000multiplexer offset coefficient	1.0000multiplexer slope coefficient	1.0000fibre end	0.00T internal ref (°C)	42.52T ext. ref 1 (°C)	5.30T ext. ref 2 (°C)	40.28length (m)	temperature (°C)	Stokes	anti-Stokes-747.200	-34.151	0.081	-0.046
-746.185	-200.000	0.087	0.547
-745.171	-200.000	0.005	-0.166
-744.156	-34.244	0.354	-0.199
-743.142	800.000	-0.071	0.235
-742.127	248.037	-0.071	0.122
-741.112	-200.000	0.066	0.353
-740.098	-85.486	-0.126	0.040
-739.083	-200.000	-0.039	0.195
-738.069	106.812	-0.250	0.304
-737.054	-101.996	0.354	0.087
-736.039	-200.000	-0.002	0.285
-735.025	-43.940	-0.301	0.155
-734.010	-40.919	-0.273	0.145
-732.996	-63.905	0.160	0.067
-731.981	50.517	-0.108	-0.105
-730.966	-96.515	-0.234	0.063
-729.952	-43.968	0.268	-0.138
-728.937	-39.213	0.185	-0.100
-727.923	800.000	-0.040	0.140
-726.908	-153.965	0.165	0.012
-725.894	22.531	-0.319	0.267
-724.879	-200.000	0.021	-0.158
-723.864	-200.000	-0.012	0.075
-722.850	-119.493	-0.326	0.058
-721.835	-123.011	0.049	0.008
-720.821	800.000	-0.017	-0.055
-719.806	9.968	-0.214	-0.166
-718.791	-95.513	0.222	0.061
-717.777	-30.953	0.162	-0.094
-716.762	800.000	0.057	-0.176
-715.748	-200.000	0.009	0.041
-714.733	-200.000	-0.014	0.247
-713.718	-121.499	0.183	-0.031
-712.704	-120.019	-0.256	-0.045
-711.689	-146.278	0.289	-0.026
-710.675	-129.291	-0.437	-0.062
-709.660	134.992	-0.010	0.014
-708.645	-200.000	-0.055	0.312
-707.631	-111.957	0.135	-0.028
-706.616	-73.036	0.110	-0.041
-705.602	-157.653	-0.197	-0.012
-704.587	-200.000	-0.030	0.189
-703.572	-29.517	0.114	0.067
-702.558	-200.000	-0.011	0.178
-701.543	800.000	-0.024	-0.077
-700.529	3.679	0.084	-0.063
-699.514	-41.805	0.248	0.130
-698.499	18.398	0.251	-0.205
-697.485	213.781	0.026	0.043
-696.470	-200.000	0.015	0.083
-695.456	101.225	-0.061	-0.072
-694.441	-200.000	-0.068	-0.382
-693.426	800.000	-0.049	-0.181
-692.412	-105.567	-0.206	0.048
-691.397	-23.332	0.115	-0.071
-690.383	247.818	-0.039	0.067
-689.368	99.375	-0.072	-0.085
-688.354	1.901	0.365	-0.269
-687.339	-130.005	-0.232	-0.033
-686.324	-152.464	-0.272	0.020
-685.310	-200.000	0.001	-0.031
-684.295	-25.218	0.066	0.040
-683.281	800.000	0.041	0.121
-682.266	800.000	-0.090	-0.266
-681.251	-176.393	-0.150	0.004
-680.237	753.573	-0.162	-0.448
-679.222	-35.023	0.197	-0.110
-678.208	-200.000	-0.066	0.299
-677.193	-5.781	-0.258	0.180
-676.178	278.896	0.186	-0.339
-675.164	590.714	0.116	0.293
-674.149	-47.304	-0.074	-0.037
-673.135	-72.377	0.272	-0.103
-672.120	318.696	-0.145	-0.282
-671.105	295.883	-0.088	0.165
-670.091	-191.460	-0.053	0.001
-669.076	147.271	0.188	0.258
-668.062	385.692	-0.103	-0.218
-667.047	-126.444	0.059	-0.009
-666.032	800.000	0.076	0.227
-665.018	800.000	-0.099	0.376
-664.003	-123.632	0.333	0.054
-662.989	-22.143	0.219	-0.136
-661.974	-23.720	0.156	0.096
-660.959	-200.000	0.008	-0.178
-659.945	-158.271	0.290	-0.017
-658.930	800.000	-0.003	0.008
-657.916	-149.675	0.080	0.006
-656.901	-200.000	0.001	0.181
-655.886	-200.000	-0.006	-0.152
-654.872	70.523	0.157	-0.166
-653.857	168.221	-0.164	-0.238
-652.843	24.599	0.059	0.050
-651.828	-43.500	-0.108	-0.056
-650.814	-168.702	0.249	0.010
-649.799	-82.387	0.224	0.074
-648.784	731.115	-0.119	0.325
-647.770	308.673	-0.339	0.647
-646.755	-40.334	0.307	-0.163
-645.741	-165.499	0.272	0.012
-644.726	-21.296	-0.395	-0.246
-643.711	-42.888	-0.261	-0.135
-642.697	-200.000	-0.023	0.106
-641.682	-91.869	-0.279	-0.081
-640.668	74.460	0.137	-0.147
-639.653	-200.000	0.016	-0.074
-638.638	20.288	0.209	0.172
-637.624	91.942	-0.170	-0.195
-636.609	-200.000	0.012	-0.185
-635.595	84.668	-0.202	0.226
-634.580	-200.000	-0.023	0.144
-633.565	436.853	-0.138	0.306
-632.551	169.169	-0.045	-0.065
-631.536	-200.000	-0.036	-0.434
-630.522	800.000	-0.053	0.185
-629.507	800.000	-0.041	0.157
-628.492	215.758	-0.097	-0.157
-627.478	-72.489	-0.123	0.047
-626.463	-97.617	-0.155	-0.041
-625.449	102.044	0.267	0.318
-624.434	-108.662	-0.112	-0.024
-623.419	-60.416	0.272	0.118
-622.405	165.956	0.085	0.123
-621.390	-24.305	-0.191	-0.116
-620.376	368.952	-0.039	0.081
-619.361	800.000	-0.063	0.213
-618.346	22.475	0.294	0.245
-617.332	800.000	0.070	-0.217
-616.317	-124.293	0.290	0.046
-615.303	-200.000	-0.029	0.213
-614.288	-200.000	0.048	-0.380
-613.273	-146.844	-0.070	0.006
-612.259	800.000	0.040	0.145
-611.244	-21.469	-0.080	0.050
-610.230	54.524	-0.178	0.175
-609.215	800.000	0.111	-0.354
-608.201	29.801	0.277	-0.241
-607.186	87.098	-0.156	-0.176
-606.171	-116.908	-0.282	-0.053
-605.157	467.069	-0.029	-0.067
-604.142	-172.794	-0.271	-0.009
-603.128	-106.437	-0.190	-0.043
-602.113	640.088	0.060	0.157
-601.098	-3.072	0.234	-0.166
-600.084	-200.000	0.025	-0.152
-599.069	-4.214	-0.191	-0.135
-598.055	38.717	0.095	0.086
-597.040	-106.577	-0.114	-0.026
-596.025	-41.671	0.212	-0.111
-595.011	-200.000	-0.030	-0.382
-593.996	63.132	0.139	-0.142
-592.982	-88.020	-0.234	0.072
-591.967	-143.393	0.255	0.025
-590.952	737.051	0.027	-0.072
-589.938	-83.119	0.304	-0.100
-588.923	-117.764	-0.280	-0.051
-587.909	151.560	0.145	0.201
-586.894	-200.000	-0.009	-0.235
-585.879	-200.000	-0.015	0.250
-584.865	74.430	0.164	0.176
-583.850	-168.299	0.337	-0.013
-582.836	3.301	0.270	-0.200
-581.821	800.000	-0.015	0.045
-580.806	147.702	-0.078	0.107
-579.792	177.928	0.069	0.103
-578.777	800.000	-0.074	-0.229
-577.763	-200.000	-0.011	-0.203
-576.748	4.032	0.202	0.150
-575.733	-72.298	-0.421	-0.159
-574.719	-200.000	-0.090	-0.498
-573.704	97.036	-0.104	0.121
-572.690	-97.848	-0.167	0.044
-571.675	800.000	0.083	0.344
-570.661	-14.266	-0.189	0.124
-569.646	-142.706	-0.275	-0.027
-568.631	-87.493	0.342	0.105
-567.617	709.402	0.076	0.204
-566.602	644.467	-0.089	-0.232
-565.588	-200.000	0.062	-0.300
-564.573	-110.140	-0.226	-0.048
-563.558	100.740	0.067	0.079
-562.544	-200.000	-0.020	0.135
-561.529	800.000	0.085	-0.371
-560.515	198.082	0.103	0.161
-559.500	-176.248	-0.397	-0.011
-558.485	-151.167	-0.168	0.013
-557.471	-200.000	-0.006	-0.210
-556.456	-200.000	-0.001	-0.080
-555.442	102.530	0.095	-0.113
-554.427	800.000	0.061	-0.258
-553.412	-107.344	0.130	-0.029
-552.398	-19.575	-0.042	0.026
-551.383	-12.882	0.156	0.103
-550.369	-104.450	-0.054	0.013
-549.354	198.597	0.114	-0.178
-548.339	57.822	-0.196	-0.195
-547.325	800.000	-0.102	-0.432
-546.310	-50.298	0.201	0.097
-545.296	11.723	0.113	-0.088
-544.281	800.000	-0.067	0.265
-543.266	-200.000	0.021	-0.102
-542.252	561.612	-0.040	0.098
-541.237	-165.202	0.227	0.010
-540.223	-135.997	0.112	-0.013
-539.208	-200.000	-0.058	0.406
-538.193	-18.665	-0.090	0.057
-537.179	117.140	0.115	0.144
-536.164	-200.000	-0.041	0.265
-535.150	-15.121	0.235	0.153
-534.135	-66.530	-0.030	-0.012
-533.121	800.000	-0.040	0.171
-532.106	30.429	-0.125	-0.108
-531.091	201.272	0.252	-0.394
-530.077	168.993	-0.145	0.210
-529.062	34.297	0.008	0.007
-528.048	224.839	-0.021	0.035
-527.033	-104.163	0.124	-0.029
-526.018	59.304	0.119	-0.119
-525.004	-131.161	-0.298	-0.040
-523.989	-97.728	-0.226	0.060
-522.975	-200.000	0.007	-0.124
-521.960	777.149	-0.041	0.115
-520.945	-25.301	-0.220	0.133
-519.931	193.946	0.115	-0.177
-518.916	800.000	0.111	0.414
-517.902	1.109	0.037	-0.027
-516.887	-136.843	0.190	0.022
-515.872	-200.000	-0.018	-0.266
-514.858	16.865	0.190	-0.152
-513.843	-75.791	-0.148	0.053
-512.829	-42.291	-0.333	-0.173
-511.814	127.088	-0.086	0.111
-510.799	-10.840	-0.305	0.205
-509.785	-59.707	0.166	-0.072
-508.770	-77.590	-0.135	0.048
-507.756	-42.153	-0.130	-0.068
-506.741	-129.849	-0.193	0.027
-505.726	306.435	0.117	0.220
-504.712	-47.007	0.180	-0.089
-503.697	195.113	-0.131	-0.202
-502.683	11.897	0.108	-0.084
-501.668	141.888	0.257	0.346
-500.653	134.408	0.334	-0.439
-499.639	-13.811	0.259	-0.170
-498.624	175.109	0.150	0.221
-497.610	-90.812	0.247	0.072
-496.595	-71.496	-0.276	-0.105
-495.581	-7.593	0.178	0.122
-494.566	252.297	-0.094	-0.162
-493.551	712.602	0.101	-0.272
-492.537	-65.120	0.052	0.021
-491.522	58.070	-0.107	0.106
-490.508	15.962	-0.196	-0.157
-489.493	-26.619	-0.184	-0.109
-488.478	64.083	0.074	-0.076
-487.464	-200.000	-0.006	-0.171
-486.449	-200.000	-0.037	-0.296
-485.435	40.075	-0.221	0.201
-484.420	450.357	-0.100	0.224
-483.405	155.154	0.086	-0.120
-482.391	294.052	0.185	0.343
-481.376	-117.172	0.154	-0.028
-480.362	-200.000	-0.021	-0.140
-479.347	221.574	-0.199	0.324
-478.332	414.096	0.057	0.123
-477.318	-200.000	-0.010	-0.085
-476.303	-155.900	-0.317	0.020
-475.289	-71.137	0.188	-0.072
-474.274	-56.059	-0.381	-0.172
-473.259	39.480	-0.163	0.148
-472.245	-200.000	0.000	0.006
-471.230	-121.155	-0.047	0.008
-470.216	180.096	-0.245	0.364
-469.201	-132.193	-0.194	0.025
-468.186	800.000	0.049	0.145
-467.172	334.402	-0.109	0.214
-466.157	184.346	-0.140	-0.210
-465.143	80.397	0.118	-0.129
-464.128	-126.512	-0.349	0.053
-463.113	-104.029	0.108	-0.026
-462.099	-200.000	-0.043	-0.221
-461.084	548.969	0.119	-0.289
-460.070	-200.000	0.042	-0.378
-459.055	-41.907	-0.294	-0.153
-458.040	425.485	-0.102	0.223
-457.026	800.000	0.074	-0.239
-456.011	202.256	-0.106	-0.166
-454.997	-200.000	-0.069	-0.365
-453.982	-41.508	-0.212	-0.110
-452.968	-136.877	-0.147	-0.017
-451.953	-96.933	0.333	0.088
-450.938	-111.506	0.198	0.041
-449.924	-156.773	-0.274	-0.017
-448.909	-200.000	0.006	-0.254
-447.895	-87.619	-0.127	-0.039
-446.880	-52.033	0.257	0.121
-445.865	59.566	0.126	0.126
-444.851	45.248	0.180	-0.168
-443.836	-131.485	-0.302	-0.040
-442.822	-166.798	0.134	0.006
-441.807	-89.542	-0.155	0.046
-440.792	-124.184	-0.299	0.047
-439.778	-127.338	0.218	0.032
-438.763	-200.000	-0.044	0.277
-437.749	307.955	-0.084	-0.158
-436.734	104.765	-0.190	-0.227
-435.719	-162.978	0.475	-0.023
-434.705	800.000	-0.031	-0.119
-433.690	-70.977	-0.099	0.038
-432.676	-200.000	0.002	-0.134
-431.661	126.896	-0.077	-0.099
-430.646	-113.426	0.079	-0.016
-429.632	800.000	-0.053	-0.163
-428.617	6.742	0.401	0.302
-427.603	-200.000	-0.040	0.280
-426.588	-59.177	-0.198	0.087
-425.573	150.486	-0.223	-0.307
-424.559	13.551	0.050	-0.039
-423.544	-200.000	0.012	-0.160
-422.530	-108.860	-0.156	-0.034
-421.515	-46.939	-0.154	-0.076
-420.500	-83.247	0.509	-0.166
-419.486	-109.893	0.378	-0.080
-418.471	53.965	-0.326	0.317
-417.457	-200.000	0.008	0.126
-416.442	-200.000	0.246	-0.000
-415.428	-94.707	0.101	0.028
-414.413	12.030	0.174	-0.135
-413.398	39.173	0.179	-0.162
-412.384	367.888	0.057	-0.116
-411.369	194.033	-0.163	-0.249
-410.355	-83.506	-0.299	-0.097
-409.340	99.962	-0.085	0.100
-408.325	161.686	0.177	0.251
-407.311	-55.024	-0.151	-0.069
-406.296	-87.047	-0.438	-0.135
-405.282	-22.882	0.341	-0.208
-404.267	-200.000	0.032	0.197
-403.252	-12.589	0.244	0.161
-402.238	19.621	0.068	0.056
-401.223	766.219	-0.038	-0.105
-400.209	4.615	0.228	-0.169
-399.194	305.229	-0.142	-0.267
-398.179	-200.000	-0.034	-0.326
-397.165	60.065	0.168	0.167
-396.150	64.002	0.113	-0.114
-395.136	760.307	0.165	-0.451
-394.121	-200.000	0.021	-0.198
-393.106	-69.877	0.420	-0.162
-392.092	211.128	0.146	0.232
-391.077	104.000	-0.134	0.159
-390.063	-200.000	0.006	0.253
-389.048	-111.074	0.213	-0.044
-388.033	-200.000	-0.040	-0.247
-387.019	-30.107	0.121	-0.069
-386.004	-84.758	0.650	0.207
-384.990	46.767	0.136	0.127
-383.975	-200.000	-0.015	-0.115
-382.960	-80.256	-0.261	0.088
-381.946	800.000	-0.068	-0.269
-380.931	41.194	-0.295	0.270
-379.917	0.174	-0.135	0.097
-378.902	192.765	-0.114	0.174
-377.888	72.536	-0.156	-0.164
-376.873	-200.000	0.054	-0.266
-375.858	524.914	0.053	-0.126
-374.844	-200.000	0.007	-0.231
-373.829	516.802	0.036	-0.085
-372.815	19.518	0.023	0.019
-371.800	-15.709	0.246	0.158
-370.785	124.692	0.068	0.086
-369.771	139.594	-0.062	0.082
-368.756	800.000	0.024	-0.073
-367.742	-200.000	0.043	0.415
-366.727	-47.999	-0.130	-0.064
-365.712	800.000	-0.038	0.159
-364.698	113.235	0.105	-0.129
-363.683	-78.121	0.244	0.085
-362.669	-81.599	-0.136	0.045
-361.654	5.190	0.101	0.075
-360.639	50.840	-0.052	0.049
-359.625	175.149	0.156	-0.228
-358.610	-200.000	-0.035	0.311
-357.596	156.136	0.131	0.183
-356.581	-200.000	-0.006	-0.152
-355.566	-66.328	-0.598	0.240
-354.552	-164.821	0.223	-0.010
-353.537	-200.000	0.041	0.239
-352.523	-160.558	-0.231	0.012
-351.508	-148.850	-0.180	-0.015
-350.493	-200.000	0.031	0.217
-349.479	-66.689	0.172	-0.069
-348.464	800.000	0.080	0.313
-347.450	4.807	0.185	-0.137
-346.435	-143.190	0.076	0.007
-345.420	-200.000	-0.013	0.190
-344.406	170.517	-0.122	0.176
-343.391	-200.000	-0.031	0.159
-342.377	-38.030	-0.145	0.078
-341.362	-200.000	0.016	0.220
-340.348	-49.806	0.228	0.109
-339.333	-80.263	0.113	0.038
-338.318	-90.735	-0.114	0.033
-337.304	-200.000	0.019	0.134
-336.289	800.000	-0.037	-0.141
-335.275	-108.690	0.224	0.048
-334.260	287.101	-0.046	0.084
-333.245	-200.000	-0.032	-0.281
-332.231	-200.000	0.039	-0.446
-331.216	-112.215	-0.153	0.031
-330.202	-40.483	-0.162	-0.085
-329.187	-200.000	0.034	-0.238
-328.172	800.000	-0.085	0.240
-327.158	-200.000	0.073	-0.383
-326.143	218.427	-0.061	0.097
-325.129	99.885	0.131	0.153
-324.114	331.085	-0.099	0.193
-323.099	-46.541	0.134	-0.066
-322.085	-122.921	0.218	-0.035
-321.070	80.037	0.065	0.071
-320.056	41.634	-0.200	-0.183
-319.041	-46.272	0.354	-0.176
-318.026	-20.911	0.133	0.082
-317.012	57.754	0.105	0.103
-315.997	800.000	-0.031	-0.092
-314.983	-93.801	0.169	-0.047
-313.968	10.448	0.188	-0.144
-312.953	-200.000	0.005	-0.232
-311.939	-1.914	0.384	0.272
-310.924	-200.000	0.011	-0.269
-309.910	-62.213	0.337	-0.141
-308.895	223.734	-0.227	0.368
-307.880	-120.034	0.254	-0.044
-306.866	-86.466	0.347	-0.107
-305.851	-137.252	-0.157	-0.018
-304.837	56.250	0.209	-0.205
-303.822	-32.016	0.224	-0.126
-302.807	401.464	-0.090	-0.191
-301.793	39.637	0.130	0.118
-300.778	-74.309	-0.250	-0.091
-299.764	-200.000	0.031	-0.281
-298.749	75.759	-0.172	0.183
-297.735	60.093	-0.070	0.070
-296.720	-21.573	-0.207	0.127
-295.705	230.790	-0.214	0.352
-294.691	800.000	0.104	0.329
-293.676	800.000	-0.077	-0.247
-292.662	-51.516	-0.257	-0.121
-291.647	-99.213	-0.183	-0.046
-290.632	30.771	0.238	0.205
-289.618	-41.507	-0.072	-0.037
-288.603	400.067	-0.172	-0.363
-287.589	-101.880	0.187	0.045
-286.574	-200.000	-0.048	0.257
-285.559	-22.272	0.130	0.079
-284.545	65.482	0.116	-0.118
-283.530	173.915	0.192	-0.280
-282.516	-143.468	0.525	-0.050
-281.501	-2.251	-0.171	0.121
-280.486	-14.696	0.216	-0.140
-279.472	60.481	0.163	0.163
-278.457	27.164	-0.366	0.309
-277.443	-200.000	0.048	0.386
-276.428	143.515	-0.094	-0.126
-275.413	-24.022	-0.220	-0.132
-274.399	-113.215	0.351	-0.070
-273.384	144.953	-0.098	-0.131
-272.370	-200.000	0.005	-0.282
-271.355	-101.387	0.345	0.084
-270.340	48.745	0.067	-0.063
-269.326	800.000	0.074	0.281
-268.311	-200.000	-0.002	-0.079
-267.297	-73.837	0.359	0.131
-266.282	800.000	-0.074	0.302
-265.267	88.715	-0.016	-0.018
-264.253	130.152	-0.192	-0.247
-263.238	70.150	-0.065	0.067
-262.224	389.129	0.068	-0.141
-261.209	-165.419	-0.041	-0.002
-260.195	-28.660	0.092	-0.053
-259.180	186.684	0.087	0.131
-258.165	384.252	-0.172	0.357
-257.151	-200.000	-0.031	-0.153
-256.136	-109.432	-0.141	0.030
-255.122	149.120	-0.175	-0.238
-254.107	141.269	0.170	0.226
-253.092	-111.742	-0.316	-0.064
-252.078	410.959	0.085	0.182
-251.063	-86.289	-0.220	0.068
-250.049	-200.000	0.003	0.098
-249.034	-135.602	-0.241	0.029
-248.019	-17.936	-0.114	-0.072
-247.005	-200.000	-0.030	-0.199
-245.990	411.931	-0.063	0.135
-244.976	-13.724	-0.194	0.126
-243.961	6.391	-0.237	-0.177
-242.946	-39.659	0.215	-0.113
-241.932	-200.000	-0.027	0.201
-240.917	-79.739	-0.482	0.163
-239.903	-200.000	0.031	0.224
-238.888	528.862	0.164	0.389
-237.873	11.513	-0.129	0.100
-236.859	282.890	-0.130	0.234
-235.844	131.228	0.205	-0.265
-234.830	-95.445	-0.124	-0.033
-233.815	-163.787	0.171	-0.008
-232.800	-97.704	0.210	0.055
-231.786	85.955	-0.108	0.119
-230.771	22.110	0.349	0.286
-229.757	-41.340	0.136	-0.070
-228.742	-200.000	-0.049	-0.264
-227.727	229.579	-0.062	0.102
-226.713	-200.000	-0.031	-0.163
-225.698	46.181	0.069	-0.064
-224.684	74.054	0.083	0.087
-223.669	413.330	0.094	-0.201
-222.655	-200.000	-0.014	0.190
-221.640	-74.219	0.346	0.126
-220.625	182.178	-0.183	0.271
-219.611	-13.035	-0.204	-0.134
-218.596	16.396	-0.301	-0.238
-217.582	39.854	0.112	-0.101
-216.567	60.168	0.093	-0.092
-215.552	345.149	-0.077	-0.151
-214.538	-200.000	-0.036	0.304
-213.523	-200.000	-0.046	0.254
-212.509	-69.271	0.239	0.092
-211.494	164.020	-0.057	0.080
-210.479	53.742	0.204	0.197
-209.465	-200.000	0.012	0.110
-208.450	-0.959	0.367	-0.260
-207.436	-70.530	0.138	-0.052
-206.421	182.234	0.066	0.098
-205.406	242.243	-0.114	-0.191
-204.392	161.214	-0.163	-0.228
-203.377	-51.216	0.096	-0.045
-202.363	-148.186	-0.230	0.019
-201.348	150.220	0.204	0.278
-200.333	-136.151	0.318	-0.037
-199.319	166.929	-0.138	-0.196
-198.304	149.416	-0.120	0.163
-197.290	466.850	-0.060	-0.135
-196.275	0.802	0.222	0.160
-195.260	344.869	-0.027	0.053
-194.246	10.676	-0.175	0.134
-193.231	156.715	0.247	0.343
-192.217	-137.117	-0.154	0.018
-191.202	-109.723	-0.055	0.012
-190.187	-200.000	0.007	0.257
-189.173	-200.000	-0.015	0.076
-188.158	-200.000	0.045	0.223
-187.144	-200.000	-0.014	0.210
-186.129	-98.230	0.240	0.062
-185.114	-200.000	-0.027	0.129
-184.100	55.046	-0.029	0.028
-183.085	800.000	-0.109	0.369
-182.071	-31.487	-0.384	-0.217
-181.056	-200.000	0.024	0.130
-180.042	-40.806	-0.026	0.013
-179.027	115.548	-0.270	-0.331
-178.012	-92.707	-0.303	0.085
-176.998	-167.763	-0.275	-0.011
-175.983	-128.546	-0.114	-0.016
-174.969	-152.311	-0.147	0.011
-173.954	82.227	-0.213	0.232
-172.939	10.617	-0.173	-0.132
-171.925	-11.100	-0.344	-0.227
-170.910	82.476	0.150	0.163
-169.896	800.000	0.024	0.079
-168.881	-200.000	-0.007	-0.109
-167.866	428.634	-0.093	-0.201
-166.852	39.383	-0.212	-0.190
-165.837	-166.117	0.121	0.005
-164.823	-158.935	0.148	0.008
-163.808	190.563	0.125	0.188
-162.793	-17.158	0.050	0.032
-161.779	-92.119	0.235	-0.067
-160.764	-173.232	0.255	0.008
-159.750	171.169	0.175	-0.252
-158.735	-97.891	-0.334	0.086
-157.720	800.000	0.045	0.191
-156.706	-200.000	-0.029	0.248
-155.691	51.433	-0.207	0.197
-154.677	-103.818	-0.229	-0.054
-153.662	375.776	-0.109	-0.223
-152.647	-200.000	0.032	0.219
-151.633	285.781	-0.052	-0.093
-150.618	-47.274	0.174	-0.085
-149.604	-200.000	-0.041	0.233
-148.589	-2.773	-0.099	-0.069
-147.574	-107.812	-0.259	0.056
-146.560	25.444	0.054	-0.045
-145.545	-200.000	0.005	0.084
-144.531	-17.920	-0.292	0.184
-143.516	-157.823	0.378	-0.022
-142.502	21.136	0.254	0.207
-141.487	-45.930	0.206	0.102
-140.472	-87.039	-0.288	0.088
-139.458	1.925	-0.036	-0.026
-138.443	800.000	0.049	-0.156
-137.429	62.492	-0.096	0.096
-136.414	-51.135	-0.243	-0.114
-135.399	-86.858	-0.214	-0.065
-134.385	800.000	0.077	-0.325
-133.370	-200.000	-0.009	0.227
-132.356	-40.368	0.135	0.070
-131.341	-200.000	-0.043	0.230
-130.326	536.127	0.066	0.156
-129.312	-98.326	-0.050	-0.013
-128.297	178.862	-0.027	-0.039
-127.283	-100.588	-0.399	-0.099
-126.268	-101.122	-0.236	0.058
-125.253	3.639	0.073	-0.053
-124.239	20.746	-0.089	0.072
-123.224	-40.095	-0.240	-0.125
-122.210	-200.000	-0.038	0.330
