DTS Sentinel unit serial number:	SN413079Multiplexer serial number:	ORYXHardware model number:	OX4-SRSoftware version number:	ORYX F/W v4.00 Oryx Data Collector v3.7.2.0data status	okinstallation	princeton_trtdifferential loss correction	single-endedforward channel	channel 3reverse channel	N/Adate	2019/09/12time	22:08:35forward acquisition time	60.00reverse acquisition time	0.00gamma	496.2192k internal	0.2326k external	0.2326temperature offset calibration	1.0136default loss term (dB/km)	0.3790temperature slope calibration	1.0000multiplexer offset coefficient	1.0000multiplexer slope coefficient	1.0000fibre end	0.00T internal ref (°C)	29.98T ext. ref 1 (°C)	3.76T ext. ref 2 (°C)	24.49length (m)	temperature (°C)	Stokes	anti-Stokes-747.200	-200.000	0.023	0.346
-746.185	-165.369	-0.103	-0.005
-745.171	-130.893	0.328	-0.044
-744.156	-144.404	-0.223	-0.021
-743.142	326.918	0.040	0.078
-742.127	493.943	0.170	0.393
-741.112	-33.888	-0.219	-0.122
-740.098	800.000	0.018	-0.056
-739.083	33.481	-0.009	0.008
-738.069	174.429	0.164	-0.239
-737.054	-39.442	0.190	0.101
-736.039	282.829	-0.191	-0.346
-735.025	-52.823	-0.376	-0.175
-734.010	-61.956	-0.305	-0.128
-732.996	-200.000	0.016	0.144
-731.981	-193.194	-0.279	-0.002
-730.966	-109.123	-0.233	-0.050
-729.952	104.063	-0.203	-0.241
-728.937	289.956	0.025	0.045
-727.923	5.431	-0.263	0.195
-726.908	48.347	0.209	-0.197
-725.894	-62.155	-0.153	-0.064
-724.879	-154.766	-0.050	-0.003
-723.864	-165.097	0.205	-0.009
-722.850	516.694	0.048	-0.114
-721.835	-37.922	0.031	0.016
-720.821	685.530	0.139	-0.367
-719.806	800.000	-0.072	0.233
-718.791	-200.000	0.014	-0.116
-717.777	281.236	-0.177	-0.320
-716.762	207.601	-0.199	-0.313
-715.748	-139.241	0.323	0.035
-714.733	-200.000	0.007	-0.185
-713.718	-38.997	-0.366	0.194
-712.704	-200.000	-0.028	0.152
-711.689	-45.193	-0.051	-0.025
-710.675	800.000	0.055	0.203
-709.660	32.348	0.152	0.132
-708.645	-33.848	0.230	0.128
-707.631	800.000	0.117	0.330
-706.616	71.282	0.302	-0.316
-705.602	158.482	-0.115	0.161
-704.587	148.186	0.066	0.090
-703.572	800.000	-0.045	-0.196
-702.558	45.567	0.198	-0.185
-701.543	-79.225	-0.256	-0.087
-700.529	661.512	0.049	0.127
-699.514	-14.927	0.134	0.087
-698.499	-91.832	-0.033	-0.010
-697.485	-191.770	0.251	-0.002
-696.470	139.679	0.113	-0.150
-695.456	-200.000	0.003	-0.239
-694.441	-200.000	0.002	0.139
-693.426	-200.000	0.034	0.155
-692.412	62.726	-0.173	0.174
-691.397	26.940	-0.304	0.257
-690.383	8.828	-0.247	-0.187
-689.368	-200.000	0.001	0.028
-688.354	-51.879	-0.375	0.176
-687.339	800.000	0.022	-0.079
-686.324	153.255	-0.090	-0.124
-685.310	37.131	-0.165	-0.147
-684.295	-117.458	0.168	0.031
-683.281	-200.000	0.023	-0.102
-682.266	32.103	-0.186	0.162
-681.251	-92.513	-0.150	0.042
-680.237	89.416	-0.104	0.117
-679.222	-112.884	-0.264	0.053
-678.208	-40.316	0.184	-0.096
-677.193	3.143	-0.051	-0.037
-676.178	-113.833	-0.202	-0.039
-675.164	-108.640	0.295	-0.064
-674.149	-200.000	-0.018	-0.179
-673.135	-112.977	-0.203	-0.040
-672.120	-29.001	-0.049	0.028
-671.105	134.893	-0.138	0.180
-670.091	594.503	0.009	0.022
-669.076	77.038	-0.044	0.047
-668.062	-115.499	-0.079	0.015
-667.047	516.604	-0.095	-0.224
-666.032	111.922	-0.141	-0.171
-665.018	-8.035	0.257	0.174
-664.003	-200.000	0.015	-0.329
-662.989	-200.000	0.005	0.077
-661.974	-158.345	-0.217	0.013
-660.959	-101.790	-0.147	-0.036
-659.945	221.473	-0.022	0.036
-658.930	-40.501	-0.140	0.073
-657.916	166.409	0.109	0.156
-656.901	-88.771	-0.331	-0.099
-655.886	389.638	-0.124	-0.258
-654.872	-4.521	0.140	-0.097
-653.857	800.000	0.020	-0.058
-652.843	-20.237	0.208	0.129
-651.828	292.536	0.068	-0.125
-650.814	27.177	0.272	-0.230
-649.799	36.300	-0.109	-0.096
-648.784	190.405	-0.195	-0.295
-647.770	143.536	-0.079	-0.106
-646.755	44.041	-0.116	0.107
-645.741	-200.000	-0.002	-0.064
-644.726	-91.752	0.257	-0.073
-643.711	-64.730	0.061	0.025
-642.697	598.857	0.015	-0.037
-641.682	78.100	0.145	-0.156
-640.668	696.095	-0.070	-0.185
-639.653	-21.060	-0.291	-0.179
-638.638	800.000	0.051	-0.220
-637.624	22.478	0.033	0.027
-636.609	100.677	-0.132	0.154
-635.595	800.000	0.020	0.056
-634.580	27.038	0.076	0.064
-633.565	39.829	0.142	-0.128
-632.551	35.111	-0.124	0.109
-631.536	40.305	0.171	0.154
-630.522	-200.000	-0.015	-0.214
-629.507	152.648	-0.130	0.178
-628.492	165.560	0.080	-0.114
-627.478	-76.061	0.127	-0.045
-626.463	-16.712	0.432	-0.275
-625.449	2.408	0.381	-0.276
-624.434	800.000	-0.009	0.031
-623.419	-85.835	-0.120	0.037
-622.405	91.008	0.224	-0.252
-621.390	-81.492	-0.303	0.100
-620.376	-200.000	0.006	0.029
-619.361	-34.363	-0.237	-0.131
-618.346	-200.000	0.014	0.251
-617.332	-116.597	-0.248	-0.046
-616.317	-17.606	0.203	-0.128
-615.303	-107.749	-0.180	-0.039
-614.288	474.242	-0.062	-0.139
-613.273	-83.563	-0.008	0.002
-612.259	-193.742	0.170	-0.001
-611.244	14.073	0.083	0.065
-610.230	-57.465	-0.275	0.121
-609.215	-200.000	-0.013	0.233
-608.201	800.000	0.016	0.045
-607.186	-200.000	0.035	-0.254
-606.171	36.919	-0.144	-0.128
-605.157	387.931	0.155	-0.322
-604.142	99.480	0.022	0.025
-603.128	-43.046	-0.160	-0.081
-602.113	-200.000	-0.031	-0.175
-601.098	-35.291	-0.197	0.108
-600.084	-200.000	0.036	0.212
-599.069	-35.991	0.136	-0.074
-598.055	68.020	-0.046	0.047
-597.040	-37.703	0.097	0.052
-596.025	319.864	0.149	0.283
-595.011	-168.421	-0.091	0.004
-593.996	800.000	0.032	-0.128
-592.982	-172.585	-0.344	-0.011
-591.967	-12.866	-0.432	-0.282
-590.952	33.933	-0.077	-0.067
-589.938	-75.716	0.116	0.041
-588.923	-27.271	0.163	-0.095
-587.909	224.864	0.144	-0.233
-586.894	-200.000	-0.031	0.312
-585.879	34.196	-0.160	0.140
-584.865	295.443	0.046	-0.085
-583.850	-200.000	0.042	-0.309
-582.836	-77.768	-0.120	-0.042
-581.821	20.630	-0.043	-0.035
-580.806	-102.599	-0.095	0.023
-579.792	15.529	-0.263	0.207
-578.777	-129.552	0.100	0.014
-577.763	-48.596	0.075	0.036
-576.748	760.831	0.018	0.049
-575.733	144.228	0.124	0.166
-574.719	-31.074	0.072	0.041
-573.704	14.918	-0.239	0.187
-572.690	743.516	-0.089	0.240
-571.675	-200.000	-0.021	0.243
-570.661	-30.107	0.203	-0.115
-569.646	75.742	-0.081	0.086
-568.631	220.580	-0.061	-0.098
-567.617	800.000	-0.033	-0.106
-566.602	-200.000	0.084	0.470
-565.588	300.491	-0.221	0.409
-564.573	-200.000	0.079	-0.390
-563.558	606.845	-0.077	-0.191
-562.544	720.493	-0.042	0.112
-561.529	580.358	0.209	-0.513
-560.515	-79.495	-0.244	-0.083
-559.500	376.853	-0.087	-0.179
-558.485	-120.127	0.128	0.022
-557.471	-133.426	0.334	0.042
-556.456	-28.326	0.110	0.063
-555.442	-128.295	-0.111	-0.016
-554.427	-8.555	-0.222	-0.149
-553.412	43.312	0.077	0.071
-552.398	73.259	-0.128	0.134
-551.383	25.309	0.090	-0.075
-550.369	-149.665	0.335	-0.026
-549.354	152.420	-0.227	0.311
-548.339	362.148	-0.121	0.242
-547.325	637.627	0.079	-0.202
-546.310	-200.000	-0.018	-0.170
-545.296	156.549	-0.061	-0.084
-544.281	96.548	0.070	0.080
-543.266	683.076	0.124	-0.324
-542.252	-200.000	-0.217	0.001
-541.237	167.073	0.165	0.234
-540.223	-200.000	0.007	0.044
-539.208	153.505	-0.079	-0.108
-538.193	800.000	-0.043	-0.131
-537.179	94.666	0.201	-0.228
-536.164	647.953	-0.064	-0.163
-535.150	-200.000	-0.012	-0.135
-534.135	-144.358	-0.216	0.020
-533.121	336.072	0.215	0.417
-532.106	34.148	0.174	-0.152
-531.091	196.442	-0.086	-0.131
-530.077	-164.389	-0.223	0.010
-529.062	-105.839	0.333	0.075
-528.048	361.133	-0.060	0.121
-527.033	-200.000	-0.002	-0.224
-526.018	-17.283	-0.162	-0.102
-525.004	-200.000	0.061	-0.314
-523.989	-200.000	-0.006	-0.076
-522.975	177.894	-0.060	0.088
-521.960	-20.079	-0.092	0.057
-520.945	-67.140	-0.539	-0.212
-519.931	-200.000	0.002	-0.122
-518.916	185.893	0.134	0.199
-517.902	443.902	0.021	-0.046
-516.887	-135.094	0.156	0.019
-515.872	-39.836	-0.106	-0.055
-514.858	164.118	-0.111	0.157
-513.843	-200.000	0.073	0.363
-512.829	57.427	-0.183	-0.178
-511.814	800.000	0.022	0.071
-510.799	-67.120	0.253	-0.099
-509.785	99.272	0.194	-0.224
-508.770	-197.422	-0.113	-0.001
-507.756	680.604	0.095	0.248
-506.741	-24.409	0.163	0.097
-505.726	-200.000	0.016	-0.256
-504.712	-200.000	0.011	-0.261
-503.697	238.995	0.094	-0.155
-502.683	-126.667	0.219	-0.032
-501.668	800.000	0.051	0.140
-500.653	26.235	0.165	0.138
-499.639	391.436	0.156	-0.323
-498.624	745.865	0.060	0.162
-497.610	-128.495	0.107	-0.015
-496.595	133.192	0.130	-0.167
-495.581	31.857	-0.142	-0.122
-494.566	-68.657	0.063	0.024
-493.551	-58.780	-0.097	-0.042
-492.537	116.217	-0.281	0.343
-491.522	0.226	0.149	0.106
-490.508	-51.879	-0.211	-0.098
-489.493	465.375	0.072	-0.160
-488.478	800.000	-0.089	0.278
-487.464	800.000	-0.152	-0.459
-486.449	110.619	-0.101	0.121
-485.435	11.586	-0.149	-0.114
-484.420	265.384	0.194	-0.338
-483.405	-156.075	0.447	-0.028
-482.391	-200.000	0.010	-0.102
-481.376	-200.000	0.046	0.381
-480.362	-6.696	0.081	-0.055
-479.347	-132.599	-0.301	-0.039
-478.332	800.000	0.015	-0.066
-477.318	709.283	-0.122	-0.323
-476.303	319.633	0.111	-0.211
-475.289	663.606	0.055	-0.142
-474.274	-200.000	0.031	-0.148
-473.259	-200.000	-0.016	-0.094
-472.245	-70.250	-0.549	0.208
-471.230	-47.391	0.180	-0.087
-470.216	42.160	-0.280	-0.254
-469.201	800.000	-0.028	-0.105
-468.186	-200.000	-0.031	0.164
-467.172	6.839	-0.293	-0.218
-466.157	549.307	-0.077	-0.184
-465.143	23.024	-0.197	0.161
-464.128	61.124	0.104	0.103
-463.113	-200.000	0.020	0.130
-462.099	-144.744	-0.092	-0.008
-461.084	-117.930	-0.089	0.016
-460.070	127.538	0.086	-0.109
-459.055	72.730	0.158	0.165
-458.040	271.064	-0.088	-0.154
-457.026	-98.632	0.085	-0.022
-456.011	255.151	0.095	0.162
-454.997	422.601	0.125	0.267
-453.982	73.342	0.230	0.240
-452.968	-158.000	-0.276	-0.016
-451.953	-200.000	0.025	0.254
-450.938	-176.621	0.166	0.004
-449.924	-24.129	-0.145	-0.087
-448.909	211.014	0.162	-0.254
-447.895	-36.596	0.307	-0.165
-446.880	276.310	-0.089	-0.158
-445.865	-93.654	0.131	0.036
-444.851	172.722	0.092	0.132
-443.836	2.350	-0.058	0.042
-442.822	-123.957	0.195	0.031
-441.807	-92.841	0.201	-0.056
-440.792	-100.538	0.278	-0.069
-439.778	-157.404	-0.078	-0.005
-438.763	-137.447	-0.315	0.036
-437.749	12.847	-0.094	-0.073
-436.734	-133.764	-0.348	-0.043
-435.719	-187.891	0.203	-0.003
-434.705	366.568	0.123	-0.247
-433.690	-123.114	0.335	0.054
-432.676	19.645	0.130	0.104
-431.661	800.000	0.128	0.368
-430.646	25.531	-0.050	0.041
-429.632	-200.000	0.007	-0.072
-428.617	156.515	-0.211	-0.291
-427.603	83.836	0.156	0.169
-426.588	677.315	-0.104	0.269
-425.573	-97.126	0.461	-0.120
-424.559	-200.000	-0.015	-0.134
-423.544	-200.000	0.016	-0.082
-422.530	-84.649	-0.172	-0.054
-421.515	100.740	-0.324	-0.375
-420.500	282.391	-0.160	0.287
-419.486	280.053	-0.139	0.247
-418.471	-37.364	-0.129	0.068
-417.457	-187.811	-0.088	-0.001
-416.442	43.608	-0.126	-0.115
-415.428	-60.171	-0.205	-0.087
-414.413	115.600	0.250	-0.304
-413.398	-170.174	-0.340	-0.012
-412.384	-14.671	0.379	-0.243
-411.369	61.781	-0.275	0.273
-410.355	113.761	-0.123	-0.149
-409.340	800.000	-0.052	-0.171
-408.325	117.402	-0.156	-0.191
-407.311	389.672	-0.138	-0.284
-406.296	199.007	-0.152	-0.232
-405.282	-110.596	0.096	0.020
-404.267	-155.721	-0.113	0.007
-403.252	800.000	-0.037	0.123
-402.238	800.000	0.025	-0.092
-401.223	107.593	0.190	0.225
-400.209	50.528	0.155	0.146
-399.194	-200.000	-0.005	-0.162
-398.179	-138.809	0.294	-0.032
-397.165	45.539	-0.273	-0.251
-396.150	800.000	0.057	-0.230
-395.136	22.389	-0.200	-0.162
-394.121	118.966	0.082	0.101
-393.106	20.289	0.235	-0.189
-392.092	-200.000	-0.065	0.316
-391.077	-200.000	0.003	0.050
-390.063	696.308	-0.128	0.333
-389.048	-119.601	0.311	0.054
-388.033	-200.000	-0.028	-0.146
-387.019	-1.566	0.269	0.188
-386.004	-64.941	-0.349	0.140
-384.990	-165.979	-0.123	0.005
-383.975	196.175	-0.160	-0.242
-382.960	-7.764	0.173	-0.117
-381.946	-128.145	-0.132	-0.019
-380.931	24.777	-0.302	-0.249
-379.917	68.033	-0.108	0.110
-378.902	-200.000	0.015	0.142
-377.888	-97.826	-0.139	-0.036
-376.873	-167.006	-0.302	-0.012
-375.858	663.094	-0.092	0.236
-374.844	307.498	-0.010	-0.018
-373.829	800.000	0.106	0.323
-372.815	440.374	0.035	0.076
-371.800	-15.995	0.255	0.161
-370.785	-48.203	-0.284	0.136
-369.771	-114.836	-0.288	-0.055
-368.756	-200.000	-0.003	-0.029
-367.742	-200.000	0.012	0.355
-366.727	-20.044	-0.390	0.239
-365.712	-74.153	-0.246	0.088
-364.698	159.697	-0.093	-0.129
-363.683	800.000	0.042	0.133
-362.669	-200.000	-0.073	0.439
-361.654	800.000	0.064	-0.189
-360.639	800.000	-0.090	0.345
-359.625	-200.000	-0.012	0.097
-358.610	-85.407	0.175	-0.054
-357.596	-165.279	0.072	-0.003
-356.581	800.000	0.050	0.148
-355.566	143.988	-0.167	-0.221
-354.552	122.498	-0.165	-0.205
-353.537	-36.800	-0.146	0.078
-352.523	-116.990	-0.056	0.010
-351.508	-135.407	0.147	-0.017
-350.493	-200.000	-0.025	-0.287
-349.479	-200.000	-0.080	0.368
-348.464	-160.691	-0.258	-0.014
-347.450	268.515	-0.078	0.136
-346.435	-105.898	-0.174	0.039
-345.420	-200.000	-0.020	-0.307
-344.406	-15.491	0.144	0.091
-343.391	-12.172	0.387	-0.251
-342.377	-71.067	-0.363	0.135
-341.362	133.014	-0.136	0.174
-340.348	-90.972	0.337	0.096
-339.333	-200.000	-0.014	0.065
-338.318	-161.305	-0.161	-0.008
-337.304	-102.244	-0.133	0.032
-336.289	-200.000	-0.030	-0.132
-335.275	-200.000	-0.045	-0.201
-334.260	287.333	-0.132	-0.237
-333.245	-32.905	0.132	0.073
-332.231	-110.494	-0.149	0.031
-331.216	-200.000	-0.029	0.245
-330.202	-19.328	0.287	0.177
-329.187	219.001	0.049	-0.077
-328.172	800.000	-0.148	0.425
-327.158	181.717	0.152	-0.223
-326.143	170.720	-0.104	0.148
-325.129	-4.933	0.370	0.253
-324.114	800.000	0.063	0.221
-323.099	-33.483	0.099	0.054
-322.085	47.572	0.026	-0.024
-321.070	-42.822	0.243	0.122
-320.056	-1.639	-0.266	0.186
-319.041	457.524	0.167	0.368
-318.026	-200.000	0.012	-0.148
-317.012	-55.481	0.178	0.079
-315.997	-54.946	-0.095	0.042
-314.983	799.919	0.099	-0.271
-313.968	-10.113	-0.132	-0.087
-312.953	0.621	-0.299	-0.212
-311.939	800.000	-0.034	0.115
-310.924	91.472	-0.106	-0.118
-309.910	800.000	0.109	0.368
-308.895	-200.000	-0.031	-0.233
-307.880	134.223	-0.217	0.279
-306.866	-80.193	0.144	-0.048
-305.851	800.000	0.044	-0.173
-304.837	-132.239	0.217	0.028
-303.822	800.000	-0.146	0.467
-302.807	331.818	0.100	-0.190
-301.793	55.102	-0.186	0.178
-300.778	110.917	0.071	-0.085
-299.764	71.656	-0.157	-0.161
-298.749	-48.105	0.223	0.107
-297.735	-10.585	0.049	-0.032
-296.720	-62.162	0.245	0.101
-295.705	112.062	0.062	-0.075
-294.691	800.000	0.084	0.256
-293.676	295.600	0.091	0.165
-292.662	154.254	-0.024	-0.033
-291.647	-129.317	-0.084	-0.012
-290.632	-35.813	0.222	-0.119
-289.618	800.000	0.077	-0.210
-288.603	-7.433	-0.254	0.170
-287.589	83.480	-0.249	0.269
-286.574	394.756	-0.088	0.182
-285.559	-200.000	0.003	-0.090
-284.545	-200.000	-0.059	0.330
-283.530	444.514	0.043	0.094
-282.516	41.722	-0.396	0.355
-281.501	-132.510	0.404	-0.051
-280.486	69.569	0.142	-0.145
-279.472	33.894	0.150	-0.129
-278.457	-16.060	-0.285	0.180
-277.443	-200.000	-0.019	-0.095
-276.428	-76.317	0.275	-0.096
-275.413	30.902	-0.082	-0.069
-274.399	800.000	0.050	0.183
-273.384	97.311	-0.319	0.363
-272.370	44.137	0.190	-0.172
-271.355	102.120	-0.085	0.098
-270.340	358.715	-0.178	0.352
-269.326	361.479	-0.156	0.310
-268.311	268.456	0.120	-0.208
-267.297	459.164	-0.098	-0.215
-266.282	800.000	-0.055	-0.210
-265.267	-200.000	-0.005	-0.065
-264.253	56.231	0.182	0.175
-263.238	-200.000	-0.002	-0.079
-262.224	-9.142	0.139	-0.092
-261.209	-200.000	-0.031	-0.330
-260.195	41.482	-0.160	-0.144
-259.180	3.967	-0.059	0.043
-258.165	144.232	-0.187	-0.246
-257.151	-200.000	-0.043	-0.221
-256.136	74.895	0.211	0.220
-255.122	-200.000	-0.020	-0.143
-254.107	11.552	-0.222	-0.169
-253.092	-149.399	0.443	-0.035
-252.078	666.762	-0.088	0.224
-251.063	547.540	0.124	0.294
-250.049	-93.032	-0.115	0.032
-249.034	5.208	0.054	0.039
-248.019	-200.000	0.009	-0.202
-247.005	264.100	-0.068	-0.117
-245.990	-77.904	-0.056	0.019
-244.976	708.430	0.091	-0.237
-243.961	-200.000	0.014	-0.210
-242.946	-200.000	0.045	0.443
-241.932	-200.000	-0.043	0.255
-240.917	55.942	0.241	-0.231
-239.903	167.658	0.165	0.232
-238.888	293.623	-0.110	-0.199
-237.873	-50.328	0.090	0.042
-236.859	-31.067	-0.108	-0.060
-235.844	-35.771	-0.261	0.140
-234.830	-200.000	0.075	0.359
-233.815	36.722	0.166	-0.145
-232.800	91.694	0.255	0.284
-231.786	-75.849	0.243	0.085
-230.771	-140.720	-0.249	-0.025
-229.757	13.439	0.117	0.090
-228.742	-2.399	0.353	0.245
-227.727	-28.959	0.209	-0.119
-226.713	47.658	0.133	0.122
-225.698	214.070	-0.125	-0.195
-224.684	-40.330	0.131	0.068
-223.669	-200.000	0.025	0.341
-222.655	-35.188	0.237	0.127
-221.640	-177.487	0.323	0.008
-220.625	11.323	0.159	0.120
-219.611	47.128	-0.123	-0.113
-218.596	800.000	0.051	-0.211
-217.582	800.000	0.064	0.194
-216.567	-37.028	0.250	0.132
-215.552	61.556	0.274	-0.270
-214.538	800.000	0.085	0.243
-213.523	-200.000	0.081	0.383
-212.509	-88.270	0.342	0.101
-211.494	-200.000	0.004	0.297
-210.479	114.137	-0.295	-0.355
-209.465	12.523	-0.428	-0.326
-208.450	42.834	-0.037	0.033
-207.436	-104.700	-0.330	-0.075
-206.421	-83.271	-0.276	0.088
-205.406	-200.000	-0.026	-0.139
-204.392	134.624	-0.131	0.168
-203.377	17.706	0.071	-0.056
-202.363	-191.229	0.165	0.002
-201.348	29.398	-0.320	-0.268
-200.333	20.042	0.065	0.052
-199.319	26.391	0.101	0.084
-198.304	95.912	0.163	-0.183
-197.290	-19.129	0.262	0.161
-196.275	528.661	-0.044	0.103
-195.260	-88.363	0.357	0.105
-194.246	-200.000	-0.023	0.248
-193.231	-136.230	-0.187	0.022
-192.217	800.000	-0.127	-0.429
-191.202	574.212	0.147	0.353
-190.187	409.303	0.055	0.116
-189.173	-44.825	0.304	-0.150
-188.158	-200.000	-0.002	-0.247
-187.144	800.000	-0.005	0.016
-186.129	-33.281	-0.101	-0.055
-185.114	-62.695	0.116	0.047
-184.100	52.189	0.123	-0.115
-183.085	155.358	0.110	-0.150
-182.071	110.018	-0.070	0.083
-181.056	-200.000	-0.026	-0.186
-180.042	37.104	0.298	-0.261
-179.027	125.038	-0.129	-0.161
-178.012	-182.178	0.303	-0.006
-176.998	-127.336	-0.199	0.029
-175.983	-200.000	0.027	0.131
-174.969	-71.521	-0.337	-0.124
-173.954	-2.453	0.262	-0.181
-172.939	225.682	0.215	0.343
-171.925	-200.000	-0.040	0.307
-170.910	76.619	0.140	-0.147
-169.896	-17.140	-0.135	-0.084
-168.881	70.167	0.136	0.138
-167.866	-26.588	-0.199	-0.115
-166.852	167.994	-0.138	-0.193
-165.837	-130.765	0.023	0.003
-164.823	-200.000	0.006	0.154
-163.808	95.726	-0.105	-0.118
-162.793	-116.439	0.412	-0.075
-161.779	-153.238	0.145	0.010
-160.764	325.664	-0.155	0.293
-159.750	255.581	-0.151	-0.255
-158.735	-200.000	-0.005	0.175
-157.720	-86.366	0.290	-0.088
-156.706	285.266	-0.065	0.116
-155.691	-124.345	0.290	-0.045
-154.677	31.257	0.061	0.052
-153.662	-5.789	-0.241	0.163
-152.647	-200.000	0.030	0.262
-151.633	451.412	-0.035	-0.076
-150.618	234.642	-0.152	0.247
-149.604	-149.150	0.188	0.015
-148.589	-120.945	-0.314	-0.052
-147.574	206.453	0.026	-0.040
-146.560	-58.269	0.238	0.102
-145.545	-102.460	0.217	-0.051
-144.531	127.820	0.096	0.121
-143.516	133.030	-0.167	-0.212
-142.502	2.164	-0.196	-0.139
-141.487	-200.000	0.016	0.264
-140.472	62.626	-0.109	0.108
-139.458	800.000	-0.089	-0.324
-138.443	-67.733	0.141	-0.054
-137.429	31.210	0.260	0.220
-136.414	113.783	-0.025	0.030
-135.399	122.650	0.161	0.198
-134.385	-112.020	0.193	0.038
-133.370	-102.738	0.402	-0.094
-132.356	-86.891	-0.318	-0.096
-131.341	800.000	0.022	-0.073
-130.326	686.691	-0.045	-0.117
-129.312	245.222	-0.068	0.112
-128.297	-103.971	0.506	-0.116
-127.283	53.898	-0.081	-0.076
-126.268	28.450	0.269	0.224
-125.253	-24.154	-0.133	0.078
-124.239	800.000	-0.104	-0.376
-123.224	-23.771	-0.248	0.146
-122.210	-85.662	-0.181	-0.055
-121.195	-64.889	-0.002	0.001
