DTS Sentinel unit serial number:	SN413079Multiplexer serial number:	ORYXHardware model number:	OX4-SRSoftware version number:	ORYX F/W v4.00 Oryx Data Collector v3.7.2.0data status	okinstallation	princeton_trtdifferential loss correction	single-endedforward channel	channel 3reverse channel	N/Adate	2019/09/17time	23:28:35forward acquisition time	60.00reverse acquisition time	0.00gamma	496.2192k internal	0.2344k external	0.2344temperature offset calibration	0.9951default loss term (dB/km)	0.3790temperature slope calibration	1.0000multiplexer offset coefficient	1.0000multiplexer slope coefficient	1.0000fibre end	0.00T internal ref (°C)	24.28T ext. ref 1 (°C)	0.17T ext. ref 2 (°C)	17.62length (m)	temperature (°C)	Stokes	anti-Stokes-747.200	-15.013	0.305	0.196
-746.185	41.671	-0.100	-0.091
-745.171	537.411	0.033	0.078
-744.156	-121.093	0.340	-0.057
-743.142	32.476	-0.165	0.142
-742.127	601.010	-0.093	0.231
-741.112	-200.000	-0.008	-0.267
-740.098	78.406	-0.333	0.356
-739.083	-200.000	-0.010	-0.191
-738.069	-70.466	-0.025	-0.010
-737.054	-8.440	-0.377	-0.253
-736.039	-196.735	0.083	-0.001
-735.025	-54.547	0.144	0.065
-734.010	800.000	0.049	-0.167
-732.996	209.388	-0.198	0.310
-731.981	-200.000	0.040	-0.300
-730.966	-200.000	0.039	-0.193
-729.952	-122.035	0.301	-0.049
-728.937	211.216	-0.044	-0.069
-727.923	146.963	0.167	-0.224
-726.908	88.723	0.130	-0.145
-725.894	-200.000	-0.038	0.186
-724.879	109.926	-0.167	-0.201
-723.864	800.000	0.080	0.224
-722.850	68.077	-0.258	0.264
-721.835	6.710	0.103	-0.076
-720.821	51.615	-0.205	0.195
-719.806	202.751	0.129	0.199
-718.791	-91.798	-0.236	0.067
-717.777	-80.863	-0.150	0.050
-716.762	-15.660	0.330	0.210
-715.748	-13.452	-0.206	-0.134
-714.733	21.460	0.174	0.141
-713.718	673.610	0.071	0.185
-712.704	-56.778	0.260	-0.115
-711.689	28.933	0.217	-0.184
-710.675	-200.000	0.024	0.337
-709.660	311.944	0.170	0.319
-708.645	391.571	-0.063	-0.131
-707.631	-200.000	0.039	0.260
-706.616	143.517	-0.200	-0.266
-705.602	625.795	-0.157	-0.397
-704.587	-55.936	-0.209	-0.093
-703.572	-200.000	0.013	0.294
-702.558	-84.841	0.263	-0.082
-701.543	451.109	0.051	-0.113
-700.529	540.729	-0.156	0.372
-699.514	-200.000	-0.026	-0.245
-698.499	-60.159	0.365	0.156
-697.485	-1.321	-0.094	0.066
-696.470	266.124	0.163	-0.284
-695.456	800.000	0.027	-0.117
-694.441	800.000	-0.081	0.341
-693.426	-120.962	-0.079	0.013
-692.412	748.630	-0.111	0.298
-691.397	-200.000	0.029	0.168
-690.383	321.512	0.088	-0.167
-689.368	-178.794	-0.093	0.002
-688.354	-86.074	0.202	-0.062
-687.339	2.250	-0.028	-0.020
-686.324	23.964	0.153	-0.126
-685.310	45.382	0.154	0.142
-684.295	70.915	-0.107	0.111
-683.281	-200.000	0.026	0.156
-682.266	-70.572	0.153	0.058
-681.251	-40.463	-0.320	-0.166
-680.237	521.629	0.079	-0.185
-679.222	720.646	0.077	-0.204
-678.208	-200.000	-0.029	0.134
-677.193	107.741	-0.206	0.244
-676.178	372.704	0.070	-0.142
-675.164	800.000	-0.058	0.192
-674.149	-137.252	-0.390	0.044
-673.135	-85.748	0.206	-0.064
-672.120	120.535	0.144	-0.178
-671.105	155.307	-0.209	0.287
-670.091	800.000	-0.099	-0.276
-669.076	-144.025	0.235	-0.022
-668.062	-200.000	-0.041	-0.194
-667.047	-200.000	0.012	0.103
-666.032	361.083	-0.133	-0.266
-665.018	171.912	0.243	-0.349
-664.003	388.787	-0.109	-0.225
-662.989	-57.951	0.279	0.121
-661.974	181.300	0.213	0.312
-660.959	-7.683	-0.333	0.224
-659.945	-200.000	0.019	-0.106
-658.930	207.397	0.088	-0.137
-657.916	800.000	-0.069	0.216
-656.901	40.240	-0.089	-0.080
-655.886	-200.000	0.070	-0.319
-654.872	-135.376	-0.054	-0.006
-653.857	-38.991	-0.156	-0.082
-652.843	-43.272	-0.062	0.031
-651.828	-188.061	0.223	-0.003
-650.814	800.000	0.054	-0.165
-649.799	-200.000	0.029	0.134
-648.784	149.746	0.111	-0.150
-647.770	-164.839	0.215	0.010
-646.755	-200.000	0.025	-0.325
-645.741	223.205	0.088	0.142
-644.726	106.164	0.138	0.163
-643.711	4.615	0.212	-0.155
-642.697	-200.000	0.077	-0.353
-641.682	-104.241	-0.154	0.036
-640.668	-134.055	-0.263	0.032
-639.653	-138.214	-0.108	0.012
-638.638	-166.947	0.328	0.013
-637.624	-3.747	-0.146	0.101
-636.609	800.000	0.036	0.112
-635.595	172.577	-0.108	0.155
-634.580	290.421	-0.034	0.061
-633.565	-93.939	0.247	-0.068
-632.551	-12.559	0.203	0.132
-631.536	202.340	0.084	0.129
-630.522	93.318	-0.152	0.172
-629.507	186.397	0.105	0.156
-628.492	-44.658	-0.221	-0.110
-627.478	33.251	-0.298	-0.257
-626.463	64.630	0.049	-0.049
-625.449	112.639	0.187	-0.225
-624.434	59.770	-0.118	0.116
-623.419	-22.769	0.112	-0.067
-622.405	-200.000	0.053	-0.365
-621.390	-96.354	0.035	0.009
-620.376	-97.012	-0.168	-0.044
-619.361	800.000	0.071	0.230
-618.346	-65.585	0.187	-0.075
-617.332	-200.000	0.045	-0.276
-616.317	800.000	0.036	0.121
-615.303	591.269	-0.128	-0.314
-614.288	-200.000	-0.015	0.102
-613.273	215.545	0.165	0.260
-612.259	-115.260	-0.110	0.021
-611.244	800.000	0.073	-0.299
-610.230	-122.487	-0.200	-0.032
-609.215	-193.043	-0.171	-0.002
-608.201	230.765	-0.121	-0.197
-607.186	-200.000	-0.032	0.234
-606.171	-200.000	0.082	0.408
-605.157	207.983	-0.135	-0.209
-604.142	800.000	-0.028	0.098
-603.128	310.572	-0.180	-0.336
-602.113	39.283	-0.132	-0.117
-601.098	14.719	0.115	-0.089
-600.084	800.000	0.056	0.227
-599.069	800.000	-0.008	0.025
-598.055	-117.236	-0.237	0.043
-597.040	-200.000	-0.034	0.248
-596.025	3.932	-0.465	-0.338
-595.011	-125.009	0.236	0.036
-593.996	-81.318	0.227	-0.075
-592.982	-48.254	-0.175	0.084
-591.967	156.897	0.146	0.201
-590.952	-200.000	0.019	-0.182
-589.938	800.000	0.128	-0.416
-588.923	572.308	-0.121	-0.292
-587.909	110.377	-0.139	-0.166
-586.894	68.659	-0.114	0.116
-585.879	449.941	-0.118	-0.259
-584.865	326.441	-0.116	0.220
-583.850	-20.631	0.108	-0.066
-582.836	-123.057	-0.233	-0.037
-581.821	-85.951	0.152	0.047
-580.806	-26.403	-0.223	-0.130
-579.792	85.229	0.290	0.317
-578.777	-77.177	0.216	-0.075
-577.763	-35.516	0.353	0.190
-576.748	-67.156	0.362	-0.142
-575.733	-200.000	-0.041	0.277
-574.719	-89.150	-0.029	-0.008
-573.704	-119.770	-0.104	0.018
-572.690	-200.000	-0.037	-0.425
-571.675	800.000	-0.035	-0.134
-570.661	800.000	-0.081	-0.346
-569.646	-131.587	0.282	-0.037
-568.631	21.754	-0.242	0.196
-567.617	-200.000	0.005	0.078
-566.602	-126.775	0.033	0.005
-565.588	-200.000	0.022	-0.317
-564.573	-103.981	-0.063	0.015
-563.558	357.500	-0.128	0.253
-562.544	-200.000	0.219	0.000
-561.529	120.521	-0.225	-0.277
-560.515	51.159	-0.056	-0.053
-559.500	93.887	-0.212	0.239
-558.485	101.714	0.160	0.185
-557.471	800.000	0.034	0.107
-556.456	-73.325	0.127	0.046
-555.442	-48.573	-0.157	0.075
-554.427	800.000	0.064	-0.251
-553.412	98.624	-0.144	-0.164
-552.398	-38.929	-0.191	-0.100
-551.383	-51.962	-0.173	-0.080
-550.369	-128.830	0.158	-0.022
-549.354	-200.000	-0.042	-0.296
-548.339	54.946	-0.171	0.164
-547.325	284.245	-0.147	-0.263
-546.310	35.516	-0.173	-0.151
-545.296	137.535	-0.276	0.359
-544.281	19.904	-0.265	0.212
-543.266	-200.000	0.020	0.143
-542.252	47.463	-0.183	-0.169
-541.237	800.000	0.082	-0.315
-540.223	402.291	0.144	-0.301
-539.208	-66.544	-0.113	0.044
-538.193	265.501	0.212	0.367
-537.179	800.000	-0.091	0.313
-536.164	-43.251	-0.234	-0.118
-535.150	23.072	0.067	-0.054
-534.135	271.264	-0.131	-0.229
-533.121	275.993	0.055	0.098
-532.106	505.908	-0.128	-0.295
-531.091	170.535	0.261	0.371
-530.077	8.879	-0.277	0.207
-529.062	3.732	0.098	-0.071
-528.048	800.000	-0.018	-0.066
-527.033	10.164	0.438	-0.331
-526.018	-5.085	-0.201	-0.137
-525.004	-83.049	0.376	0.120
-523.989	-115.150	0.178	-0.033
-522.975	-123.037	0.176	0.028
-521.960	-113.691	0.280	0.054
-520.945	-35.381	0.101	0.054
-519.931	-152.068	0.176	0.013
-518.916	6.934	-0.103	-0.076
-517.902	2.245	0.175	0.125
-516.887	-17.903	-0.081	-0.051
-515.872	74.315	-0.179	0.187
-514.858	800.000	0.144	-0.505
-513.843	-30.641	0.191	-0.107
-512.829	312.450	0.063	-0.118
-511.814	307.369	-0.104	0.192
-510.799	-18.896	-0.287	0.177
-509.785	800.000	0.055	-0.199
-508.770	-200.000	-0.046	-0.259
-507.756	1.833	0.072	-0.051
-506.741	800.000	0.043	0.128
-505.726	98.302	-0.287	0.327
-504.712	19.087	-0.212	0.169
-503.697	-135.672	-0.292	-0.034
-502.683	165.118	-0.073	0.103
-501.668	-106.522	0.361	-0.080
-500.653	-63.169	-0.304	-0.124
-499.639	-82.806	0.157	-0.050
-498.624	-65.731	-0.189	0.075
-497.610	208.104	0.101	0.157
-496.595	318.159	0.055	0.104
-495.581	359.021	0.094	0.187
-494.566	-19.194	-0.161	0.099
-493.551	-200.000	0.023	-0.105
-492.537	-200.000	-0.014	-0.124
-491.522	-200.000	0.019	-0.245
-490.508	-153.564	-0.139	0.010
-489.493	104.610	0.162	0.189
-488.478	83.801	0.231	-0.250
-487.464	-146.411	0.173	0.015
-486.449	-200.000	-0.006	-0.202
-485.435	33.239	-0.386	0.332
-484.420	65.446	-0.091	0.091
-483.405	800.000	0.067	-0.254
-482.391	-200.000	-0.040	-0.442
-481.376	-200.000	-0.004	-0.063
-480.362	800.000	-0.026	-0.091
-479.347	-149.025	0.215	-0.017
-478.332	185.636	-0.023	-0.034
-477.318	110.833	-0.142	0.169
-476.303	-105.910	-0.112	0.025
-475.289	-40.293	-0.179	0.092
-474.274	-200.000	0.003	0.234
-473.259	-151.688	0.036	0.003
-472.245	-5.374	-0.220	-0.150
-471.230	-81.035	0.176	0.058
-470.216	-200.000	0.016	-0.154
-469.201	-200.000	-0.012	-0.104
-468.186	-2.040	-0.123	0.086
-467.172	-41.007	0.374	0.191
-466.157	-86.284	0.104	-0.032
-465.143	-200.000	-0.053	-0.385
-464.128	-57.884	-0.146	-0.063
-463.113	318.374	0.085	0.160
-462.099	-65.241	-0.273	0.109
-461.084	-10.933	0.031	-0.020
-460.070	276.426	0.129	0.226
-459.055	800.000	-0.132	0.527
-458.040	125.933	-0.091	0.114
-457.026	360.242	-0.049	0.097
-456.011	-200.000	-0.042	0.427
-454.997	65.430	0.270	-0.271
-453.982	800.000	-0.089	0.301
-452.968	-46.706	0.175	0.085
-451.953	-78.412	-0.103	0.035
-450.938	-200.000	0.040	-0.240
-449.924	557.401	-0.090	0.216
-448.909	97.274	0.111	-0.126
-447.895	48.220	0.296	0.274
-446.880	187.580	-0.208	0.307
-445.865	171.525	0.118	-0.167
-444.851	-38.753	-0.339	-0.177
-443.836	-35.677	0.166	-0.089
-442.822	21.159	0.069	-0.055
-441.807	-10.122	-0.079	0.052
-440.792	-120.384	-0.190	-0.032
-439.778	-6.732	-0.359	-0.242
-438.763	290.951	0.112	-0.201
-437.749	-92.903	-0.207	-0.057
-436.734	-200.000	0.007	0.099
-435.719	143.333	-0.243	-0.320
-434.705	15.143	0.238	-0.185
-433.690	-171.431	-0.152	-0.005
-432.676	-154.126	-0.032	-0.002
-431.661	-126.935	0.396	-0.058
-430.646	-200.000	0.046	-0.305
-429.632	-41.113	-0.177	-0.090
-428.617	406.779	-0.099	0.207
-427.603	800.000	-0.058	-0.234
-426.588	800.000	-0.049	0.209
-425.573	-200.000	-0.010	-0.200
-424.559	-129.345	0.140	-0.019
-423.544	-21.063	0.066	0.040
-422.530	234.834	0.083	-0.135
-421.515	142.917	0.248	0.325
-420.500	-20.310	0.178	0.108
-419.486	800.000	0.024	-0.096
-418.471	133.976	0.192	-0.245
-417.457	-111.329	-0.348	0.070
-416.442	57.492	0.095	0.091
-415.428	-57.879	0.337	0.145
-414.413	-60.297	-0.435	-0.183
-413.398	-42.716	0.070	0.035
-412.384	332.548	-0.025	-0.048
-411.369	800.000	-0.032	-0.094
-410.355	800.000	-0.082	-0.238
-409.340	-13.344	0.404	0.259
-408.325	12.543	0.105	0.080
-407.311	10.473	0.210	-0.158
-406.296	-200.000	-0.039	-0.607
-405.282	118.808	0.107	0.130
-404.267	139.196	-0.139	0.180
-403.252	427.496	0.024	-0.051
-402.238	-96.456	-0.091	0.024
-401.223	-30.471	0.173	0.097
-400.209	310.156	0.090	0.166
-399.194	-73.378	0.208	0.075
-398.179	-70.246	-0.095	0.036
-397.165	-200.000	0.030	0.238
-396.150	800.000	0.074	0.251
-395.136	-173.807	-0.290	0.008
-394.121	468.854	0.079	0.176
-393.106	-174.517	0.190	0.005
-392.092	457.169	0.069	0.152
-391.077	800.000	0.024	0.103
-390.063	800.000	-0.019	0.082
-389.048	110.249	0.194	0.230
-388.033	549.089	0.050	-0.119
-387.019	-67.519	-0.176	0.068
-386.004	-147.072	-0.286	0.024
-384.990	-3.616	0.140	-0.096
-383.975	-53.371	-0.108	-0.049
-382.960	800.000	-0.091	-0.292
-381.946	41.429	0.194	0.173
-380.931	-193.802	-0.191	-0.002
-379.917	191.934	0.120	0.178
-378.902	125.981	0.156	-0.195
-377.888	-95.135	-0.211	-0.056
-376.873	-11.787	0.161	0.104
-375.858	-106.095	0.303	-0.067
-374.844	231.592	-0.232	0.375
-373.829	-162.373	0.273	-0.013
-372.815	-100.016	0.087	-0.021
-371.800	-200.000	0.058	0.344
-370.785	800.000	-0.052	0.151
-369.771	185.510	-0.165	-0.241
-368.756	-109.927	0.134	0.028
-367.742	-172.490	-0.414	-0.013
-366.727	-200.000	-0.026	0.262
-365.712	-103.716	-0.312	0.072
-364.698	-84.018	-0.197	-0.062
-363.683	172.519	-0.166	0.235
-362.669	596.446	0.036	0.088
-361.654	223.072	0.070	-0.111
-360.639	-53.387	0.257	0.116
-359.625	800.000	0.083	0.333
-358.610	-151.449	-0.173	0.013
-357.596	-191.985	0.253	-0.002
-356.581	169.406	0.160	-0.226
-355.566	341.739	-0.032	-0.062
-354.552	-101.316	-0.211	-0.051
-353.537	-200.000	-0.041	0.259
-352.523	-126.273	-0.310	-0.046
-351.508	800.000	0.026	-0.084
-350.493	111.873	0.130	0.155
-349.479	-45.419	-0.413	0.202
-348.464	-48.005	-0.344	0.164
-347.450	-200.000	0.036	-0.232
-346.435	-3.992	0.118	0.081
-345.420	-200.000	0.009	0.063
-344.406	60.961	-0.126	-0.123
-343.391	99.997	-0.261	-0.298
-342.377	800.000	0.013	0.047
-341.362	-200.000	-0.025	-0.168
-340.348	-98.933	0.248	-0.062
-339.333	-200.000	0.016	-0.148
-338.318	80.377	-0.189	-0.200
-337.304	-60.451	-0.141	0.059
-336.289	4.821	0.065	0.047
-335.275	604.046	-0.089	-0.217
-334.260	498.186	0.070	-0.160
-333.245	76.170	-0.364	-0.380
-332.231	142.416	0.209	0.273
-331.216	395.375	-0.104	0.213
-330.202	177.499	0.081	0.116
-329.187	-200.000	-0.004	0.184
-328.172	-200.000	-0.009	-0.133
-327.158	426.368	-0.111	0.236
-326.143	78.309	-0.145	-0.152
-325.129	564.783	0.038	0.091
-324.114	190.460	0.131	0.194
-323.099	-31.775	0.350	-0.193
-322.085	775.187	-0.074	-0.199
-321.070	-200.000	-0.009	0.161
-320.056	-200.000	0.013	-0.181
-319.041	800.000	0.093	0.341
-318.026	-73.547	0.267	0.096
-317.012	-70.975	-0.071	0.026
-315.997	-81.277	0.127	-0.041
-314.983	541.121	-0.014	0.032
-313.968	800.000	0.113	0.348
-312.953	-77.837	-0.365	-0.124
-311.939	-200.000	0.013	-0.094
-310.924	-200.000	-0.024	0.204
-309.910	61.690	0.162	-0.159
-308.895	-200.000	-0.056	-0.282
-307.880	-77.375	0.226	0.077
-306.866	62.632	-0.042	-0.042
-305.851	-200.000	0.022	-0.155
-304.837	-64.326	-0.170	-0.068
-303.822	-64.794	-0.087	0.035
-302.807	-1.807	0.155	0.107
-301.793	-77.809	0.196	0.067
-300.778	103.569	0.138	-0.159
-299.764	-163.668	0.190	0.009
-298.749	635.666	-0.032	0.079
-297.735	635.159	-0.022	-0.055
-296.720	252.308	0.048	-0.081
-295.705	149.343	0.120	0.159
-294.691	30.750	-0.080	0.067
-293.676	800.000	-0.071	-0.296
-292.662	-48.554	0.212	-0.100
-291.647	299.147	-0.143	-0.258
-290.632	-71.087	0.233	0.086
-289.618	-200.000	-0.012	-0.177
-288.603	-102.325	0.252	0.059
-287.589	-63.798	-0.279	0.112
-286.574	161.073	-0.126	-0.173
-285.559	51.952	-0.192	-0.180
-284.545	116.466	0.220	0.265
-283.530	-25.999	0.301	0.174
-282.516	-130.958	0.101	0.013
-281.501	-200.000	-0.006	0.239
-280.486	-29.069	0.256	0.144
-279.472	71.951	-0.143	0.146
-278.457	-17.817	0.190	-0.117
-277.443	-37.657	0.184	-0.096
-276.428	-39.126	-0.369	-0.191
-275.413	47.571	-0.105	-0.096
-274.399	-105.878	-0.210	-0.047
-273.384	-124.709	-0.177	0.027
-272.370	-99.643	-0.085	-0.021
-271.355	399.141	-0.118	0.242
-270.340	360.075	0.073	-0.143
-269.326	-110.885	-0.332	0.067
-268.311	-200.000	0.019	-0.281
-267.297	-116.946	0.175	0.031
-266.282	-200.000	0.022	0.171
-265.267	-163.170	0.117	0.006
-264.253	-121.843	0.289	0.047
-263.238	75.608	0.098	-0.101
-262.224	37.101	0.249	0.216
-261.209	-20.005	-0.365	-0.221
-260.195	-200.000	-0.021	0.185
-259.180	-73.001	0.281	0.101
-258.165	91.043	-0.066	-0.073
-257.151	637.756	-0.067	-0.168
-256.136	800.000	0.015	0.048
-255.122	36.907	-0.191	-0.166
-254.107	106.302	0.106	0.123
-253.092	325.521	-0.096	-0.180
-252.078	97.363	-0.241	-0.271
-251.063	-120.478	0.572	0.095
-250.049	70.461	0.138	0.140
-249.034	-75.929	0.202	0.070
-248.019	-50.754	0.308	-0.142
-247.005	-141.057	-0.389	-0.039
-245.990	800.000	0.038	-0.144
-244.976	-179.962	0.073	0.002
-243.961	-51.470	0.217	0.099
-242.946	36.039	0.106	-0.092
-241.932	-107.119	0.033	-0.007
-240.917	-200.000	0.021	-0.307
-239.903	109.831	-0.187	0.220
-238.888	-200.000	0.001	0.105
-237.873	800.000	0.100	0.428
-236.859	-19.776	-0.107	-0.065
-235.844	-92.950	-0.140	-0.038
-234.830	459.706	0.098	-0.214
-233.815	800.000	-0.023	0.065
-232.800	-200.000	0.010	0.294
-231.786	-200.000	0.200	-0.001
-230.771	-200.000	-0.035	0.211
-229.757	-153.666	-0.159	-0.011
-228.742	-151.305	0.076	-0.006
-227.727	-200.000	-0.006	-0.119
-226.713	-3.094	-0.067	-0.046
-225.698	232.697	0.098	-0.158
-224.684	281.650	-0.204	0.359
-223.669	-42.012	0.129	-0.065
-222.655	-111.091	-0.160	0.032
-221.640	-200.000	0.022	0.108
-220.625	123.914	-0.190	0.234
-219.611	14.684	0.184	-0.141
-218.596	-36.097	0.284	-0.150
-217.582	-200.000	0.008	0.241
-216.567	800.000	-0.037	0.107
-215.552	98.132	-0.101	0.114
-214.538	410.976	-0.161	-0.335
-213.523	-2.277	-0.281	0.193
-212.509	-200.000	0.012	-0.226
-211.494	-116.139	0.047	0.009
-210.479	162.652	0.124	0.170
-209.465	-46.285	-0.440	0.212
-208.450	-110.891	-0.137	-0.028
-207.436	50.836	-0.104	0.097
-206.421	-200.000	0.049	0.408
-205.406	800.000	0.060	0.195
-204.392	-200.000	-0.043	0.210
-203.377	-101.837	-0.294	-0.070
-202.363	-200.000	-0.069	-0.466
-201.348	800.000	0.045	-0.138
-200.333	800.000	0.006	-0.024
-199.319	800.000	-0.146	0.403
-198.304	-146.286	-0.225	0.019
-197.290	-200.000	0.013	-0.416
-196.275	-200.000	0.036	-0.170
-195.260	-9.394	0.229	0.150
-194.246	205.048	0.017	-0.026
-193.231	765.144	-0.064	-0.170
-192.217	20.808	-0.226	0.179
-191.202	-149.231	0.202	0.016
-190.187	450.259	0.074	0.161
-189.173	137.320	0.052	-0.066
-188.158	-200.000	-0.011	0.137
-187.144	-65.273	0.167	0.066
-186.129	-130.840	-0.204	-0.027
-185.114	195.322	-0.104	0.155
-184.100	-89.623	-0.247	0.071
-183.085	-200.000	0.041	0.382
-182.071	40.657	0.176	-0.155
-181.056	11.095	-0.183	0.137
-180.042	312.975	0.105	0.194
-179.027	-181.403	-0.137	0.003
-178.012	-29.660	0.366	-0.204
-176.998	199.559	0.163	0.245
-175.983	89.327	0.150	0.164
-174.969	-64.695	0.048	0.019
-173.954	10.319	0.217	0.161
-172.939	-65.995	0.292	-0.114
-171.925	800.000	0.028	-0.112
-170.910	-200.000	0.055	-0.294
-169.896	800.000	0.055	-0.211
-168.881	-57.197	-0.393	-0.169
-167.866	-1.798	-0.152	0.104
-166.852	-200.000	-0.016	0.361
-165.837	494.933	-0.103	-0.231
-164.823	61.141	0.175	-0.170
-163.808	106.437	0.040	-0.047
-162.793	-200.000	0.063	-0.291
-161.779	-157.983	-0.037	0.002
-160.764	-34.177	-0.168	-0.090
-159.750	-152.263	0.117	-0.008
-158.735	-114.949	-0.179	-0.033
-157.720	12.278	0.298	0.224
-156.706	82.851	-0.219	-0.233
-155.691	13.657	0.167	-0.127
-154.677	-195.674	0.371	0.003
-153.662	130.569	-0.078	0.097
-152.647	-200.000	0.038	0.188
-151.633	-105.389	0.127	-0.028
-150.618	-26.541	-0.281	0.161
-149.604	-7.485	0.093	-0.061
-148.589	800.000	-0.082	0.252
-147.574	-148.082	-0.190	-0.015
-146.560	193.660	0.034	-0.050
-145.545	-71.519	0.176	0.064
-144.531	-73.595	0.252	0.090
-143.516	-34.119	0.102	0.055
-142.502	-200.000	0.396	0.002
-141.487	-70.810	0.265	0.098
-140.472	-200.000	-0.045	0.295
-139.458	-117.788	0.138	-0.024
-138.443	-118.470	-0.227	-0.039
-137.429	-22.465	-0.181	-0.107
-136.414	-111.626	0.330	0.065
-135.399	424.907	-0.101	-0.212
-134.385	-119.440	0.113	-0.019
-133.370	109.071	0.218	0.255
-132.356	-200.000	0.097	0.444
-131.341	-1.414	-0.103	0.071
-130.326	135.259	-0.164	-0.208
-129.312	77.954	-0.230	0.239
-128.297	-84.173	-0.323	0.100
-127.283	-101.788	0.108	-0.026
-126.268	75.942	-0.082	-0.085
-125.253	641.261	-0.115	-0.286
-124.239	693.029	0.041	-0.105
-123.224	-174.991	0.205	-0.006
-122.210	-23.612	-0.263	-0.154
-121.195	-116.788	0.096	0.017
