DTS Sentinel unit serial number:	SN413079Multiplexer serial number:	ORYXHardware model number:	OX4-SRSoftware version number:	ORYX F/W v4.00 Oryx Data Collector v3.7.2.0data status	okinstallation	princeton_trtdifferential loss correction	single-endedforward channel	channel 3reverse channel	N/Adate	2019/09/13time	05:00:34forward acquisition time	60.00reverse acquisition time	0.00gamma	496.2192k internal	0.2338k external	0.2338temperature offset calibration	1.0135default loss term (dB/km)	0.3790temperature slope calibration	1.0000multiplexer offset coefficient	1.0000multiplexer slope coefficient	1.0000fibre end	0.00T internal ref (°C)	26.48T ext. ref 1 (°C)	4.05T ext. ref 2 (°C)	20.95length (m)	temperature (°C)	Stokes	anti-Stokes-747.200	-49.802	-0.128	0.061
-746.185	-136.186	0.153	0.018
-745.171	-71.065	0.066	-0.025
-744.156	-119.786	0.022	0.004
-743.142	-2.296	-0.178	-0.125
-742.127	147.332	0.228	0.308
-741.112	770.517	0.041	0.112
-740.098	90.814	0.224	0.252
-739.083	-3.103	0.409	0.286
-738.069	50.699	-0.102	-0.097
-737.054	-61.491	0.113	-0.048
-736.039	631.090	0.104	-0.265
-735.025	425.121	-0.011	-0.023
-734.010	-108.980	-0.099	0.021
-732.996	-83.905	-0.265	-0.085
-731.981	-200.000	0.023	0.162
-730.966	3.139	0.236	0.172
-729.952	-143.320	-0.227	0.022
-728.937	154.217	-0.122	-0.168
-727.923	-65.660	0.198	-0.080
-726.908	-19.186	-0.199	-0.124
-725.894	-39.961	0.025	-0.013
-724.879	-11.125	0.293	0.194
-723.864	-200.000	-0.026	-0.130
-722.850	-200.000	-0.010	-0.210
-721.835	-12.513	-0.230	0.151
-720.821	20.410	-0.105	-0.085
-719.806	89.108	0.201	0.225
-718.791	131.077	-0.114	-0.147
-717.777	800.000	-0.094	0.260
-716.762	289.833	0.103	0.187
-715.748	15.003	-0.187	0.147
-714.733	320.114	-0.214	-0.407
-713.718	167.494	0.139	-0.198
-712.704	-82.456	-0.088	0.029
-711.689	-81.522	0.033	0.011
-710.675	-62.560	0.358	-0.149
-709.660	-99.055	0.313	0.079
-708.645	429.959	-0.115	0.250
-707.631	800.000	-0.083	0.267
-706.616	167.131	0.135	-0.192
-705.602	228.044	0.093	-0.151
-704.587	-45.843	0.112	-0.055
-703.572	-12.411	-0.178	-0.117
-702.558	27.171	-0.174	0.147
-701.543	-40.246	-0.289	-0.150
-700.529	800.000	-0.041	-0.145
-699.514	-200.000	-0.003	0.036
-698.499	278.915	0.145	0.260
-697.485	800.000	0.079	-0.296
-696.470	129.079	-0.265	0.338
-695.456	224.948	-0.142	-0.231
-694.441	-80.073	0.243	-0.081
-693.426	-200.000	0.017	-0.239
-692.412	-200.000	-0.038	0.306
-691.397	40.321	0.099	-0.089
-690.383	-70.857	0.251	-0.095
-689.368	800.000	-0.070	-0.279
-688.354	81.130	0.165	-0.178
-687.339	33.453	-0.180	-0.157
-686.324	256.656	0.100	-0.172
-685.310	157.131	-0.115	0.159
-684.295	-40.464	-0.242	0.126
-683.281	342.529	0.081	-0.159
-682.266	263.436	0.063	-0.109
-681.251	-9.655	0.112	-0.075
-680.237	55.679	-0.107	0.104
-679.222	-104.563	-0.090	0.021
-678.208	-69.025	0.041	0.016
-677.193	19.005	0.242	0.194
-676.178	-200.000	-0.001	-0.004
-675.164	-45.128	0.146	0.073
-674.149	-143.957	0.183	-0.017
-673.135	-93.650	0.113	-0.031
-672.120	231.677	0.175	-0.287
-671.105	-99.571	0.131	0.033
-670.091	-44.750	-0.060	-0.030
-669.076	205.969	-0.250	-0.389
-668.062	-7.115	0.204	-0.138
-667.047	-12.463	0.126	-0.082
-666.032	-105.513	-0.075	-0.017
-665.018	79.848	-0.211	-0.227
-664.003	-89.812	0.200	0.058
-662.989	-200.000	0.017	0.247
-661.974	-200.000	-0.033	-0.216
-660.959	-71.062	-0.373	-0.140
-659.945	-118.226	0.280	0.050
-658.930	-68.751	0.432	0.167
-657.916	18.865	-0.094	-0.075
-656.901	30.477	-0.038	0.032
-655.886	-99.773	0.137	0.034
-654.872	671.996	-0.108	-0.279
-653.857	-139.212	0.268	0.029
-652.843	-200.000	-0.019	0.144
-651.828	-60.937	-0.424	-0.179
-650.814	245.404	0.158	-0.266
-649.799	163.619	-0.027	0.038
-648.784	-119.734	0.286	-0.049
-647.770	34.105	0.054	-0.047
-646.755	179.365	-0.147	0.215
-645.741	284.742	0.109	-0.196
-644.726	-200.000	0.002	0.037
-643.711	14.164	-0.101	-0.079
-642.697	340.654	0.086	-0.168
-641.682	-101.740	-0.125	-0.030
-640.668	21.358	-0.156	-0.127
-639.653	800.000	-0.089	0.336
-638.638	-200.000	0.008	-0.355
-637.624	-85.009	0.270	-0.085
-636.609	24.650	-0.090	-0.074
-635.595	41.523	0.101	-0.091
-634.580	339.083	0.131	-0.256
-633.565	353.021	0.116	-0.230
-632.551	334.844	0.112	0.216
-631.536	105.673	0.226	0.267
-630.522	91.834	-0.225	-0.253
-629.507	-20.019	0.229	0.141
-628.492	295.583	-0.181	0.331
-627.478	800.000	0.035	-0.143
-626.463	12.854	0.155	0.120
-625.449	-200.000	-0.053	0.282
-624.434	-32.596	0.087	-0.048
-623.419	-146.060	-0.379	-0.033
-622.405	98.210	0.065	-0.075
-621.390	-200.000	0.015	0.167
-620.376	-69.126	0.306	0.118
-619.361	112.186	0.188	0.227
-618.346	38.892	-0.122	0.109
-617.332	-36.956	-0.382	-0.204
-616.317	140.117	-0.233	0.306
-615.303	-50.498	0.218	0.103
-614.288	-200.000	0.005	-0.120
-613.273	55.102	-0.158	-0.152
-612.259	44.119	0.240	0.220
-611.244	183.522	-0.155	-0.229
-610.230	-200.000	0.015	-0.117
-609.215	47.437	-0.102	0.095
-608.201	68.117	0.108	0.111
-607.186	378.919	-0.090	0.185
-606.171	58.374	0.160	-0.157
-605.157	146.710	-0.149	0.200
-604.142	69.565	0.031	0.032
-603.128	58.761	-0.248	-0.243
-602.113	-173.568	-0.157	-0.005
-601.098	-149.934	0.222	0.017
-600.084	66.530	0.214	0.217
-599.069	-200.000	0.020	-0.346
-598.055	382.346	0.089	0.182
-597.040	800.000	0.021	-0.079
-596.025	-34.047	0.313	0.172
-595.011	685.942	0.063	0.163
-593.996	-135.334	-0.201	-0.024
-592.982	-122.989	-0.428	0.069
-591.967	-125.852	-0.248	-0.037
-590.952	83.964	-0.055	-0.060
-589.938	-200.000	-0.027	-0.147
-588.923	-30.559	-0.346	-0.195
-587.909	-100.055	-0.105	0.026
-586.894	646.909	-0.016	-0.040
-585.879	415.297	0.083	0.177
-584.865	-200.000	-0.002	0.008
-583.850	-86.814	0.343	-0.104
-582.836	-130.869	0.048	0.006
-581.821	-200.000	0.024	-0.159
-580.806	690.981	-0.105	-0.274
-579.792	93.709	-0.142	-0.161
-578.777	589.389	0.121	-0.296
-577.763	400.416	-0.018	-0.037
-576.748	56.611	0.194	0.188
-575.733	-76.699	-0.036	0.013
-574.719	800.000	-0.134	0.560
-573.704	12.611	0.117	0.090
-572.690	800.000	0.071	0.239
-571.675	48.559	0.099	0.093
-570.661	180.386	-0.078	0.114
-569.646	97.008	-0.133	-0.152
-568.631	230.892	-0.155	0.253
-567.617	184.080	-0.101	-0.148
-566.602	-200.000	-0.056	0.607
-565.588	-59.146	0.061	-0.026
-564.573	2.624	-0.178	-0.129
-563.558	800.000	-0.059	0.198
-562.544	60.245	0.013	0.013
-561.529	787.236	-0.090	0.247
-560.515	20.235	0.397	-0.319
-559.500	51.001	-0.223	-0.211
-558.485	104.183	-0.122	-0.143
-557.471	-200.000	0.015	0.160
-556.456	-200.000	0.026	-0.357
-555.442	800.000	0.083	0.243
-554.427	-51.173	0.160	-0.075
-553.412	74.591	-0.281	0.294
-552.398	-45.536	-0.149	-0.073
-551.383	-200.000	-0.001	0.172
-550.369	-162.766	-0.329	0.016
-549.354	-53.971	-0.013	-0.006
-548.339	-159.715	-0.348	0.019
-547.325	-200.000	0.021	-0.318
-546.310	-94.749	-0.208	-0.056
-545.296	533.038	-0.047	-0.111
-544.281	-118.258	-0.419	-0.074
-543.266	-83.479	0.134	0.043
-542.252	-68.811	0.270	0.104
-541.237	-79.258	-0.212	-0.071
-540.223	55.791	0.039	0.038
-539.208	-113.010	-0.333	0.066
-538.193	-9.639	-0.217	-0.144
-537.179	447.825	-0.129	-0.284
-536.164	-67.014	0.048	-0.019
-535.150	43.392	0.085	-0.077
-534.135	115.850	-0.290	0.353
-533.121	-39.806	-0.163	-0.085
-532.106	-12.621	-0.155	0.100
-531.091	-19.877	-0.147	0.090
-530.077	-76.985	0.223	0.077
-529.062	-200.000	0.018	-0.172
-528.048	143.433	-0.123	0.163
-527.033	-134.379	-0.176	-0.021
-526.018	78.812	-0.081	0.086
-525.004	239.127	0.102	-0.168
-523.989	-200.000	0.000	0.044
-522.975	-200.000	0.034	-0.156
-521.960	-60.355	0.160	0.068
-520.945	-6.423	-0.267	-0.181
-519.931	2.277	-0.238	0.171
-518.916	-200.000	0.115	0.617
-517.902	221.139	0.130	-0.208
-516.887	-47.896	0.109	-0.052
-515.872	58.215	0.030	-0.029
-514.858	-102.805	0.406	0.096
-513.843	-50.723	0.180	0.084
-512.829	-1.371	-0.248	0.174
-511.814	510.809	0.084	-0.195
-510.799	-200.000	0.011	0.427
-509.785	-175.452	-0.389	-0.011
-508.770	-200.000	0.032	-0.212
-507.756	68.983	0.373	0.381
-506.741	-45.076	0.173	0.086
-505.726	524.339	0.045	-0.105
-504.712	11.982	-0.071	0.054
-503.697	-200.000	0.089	0.425
-502.683	-117.456	0.316	-0.057
-501.668	-40.761	0.139	0.071
-500.653	85.813	0.201	-0.220
-499.639	800.000	0.067	-0.228
-498.624	800.000	-0.052	-0.149
-497.610	463.689	-0.224	-0.498
-496.595	-48.466	0.226	0.108
-495.581	-92.963	-0.124	0.034
-494.566	7.026	0.201	-0.149
-493.551	-200.000	-0.044	-0.194
-492.537	7.700	0.079	-0.059
-491.522	-22.789	0.171	0.102
-490.508	11.672	-0.232	-0.177
-489.493	-14.439	0.417	-0.267
-488.478	-68.157	0.051	-0.020
-487.464	29.174	-0.328	0.277
-486.449	-200.000	0.035	-0.171
-485.435	-200.000	-0.045	-0.334
-484.420	800.000	-0.121	-0.357
-483.405	-64.085	0.111	-0.045
-482.391	14.093	0.168	0.130
-481.376	163.120	0.111	0.155
-480.362	307.418	-0.196	0.362
-479.347	-102.741	-0.205	0.048
-478.332	-21.299	-0.209	0.127
-477.318	186.272	0.163	0.240
-476.303	-141.591	0.139	-0.014
-475.289	-50.625	-0.273	-0.128
-474.274	-49.284	0.358	-0.170
-473.259	650.491	0.041	-0.105
-472.245	-200.000	-0.022	-0.157
-471.230	-153.242	0.246	0.017
-470.216	-63.485	-0.287	0.117
-469.201	147.296	-0.052	-0.070
-468.186	-200.000	-0.344	0.000
-467.172	48.474	-0.141	0.131
-466.157	47.077	0.097	0.090
-465.143	37.130	-0.120	0.105
-464.128	11.477	-0.192	0.146
-463.113	66.045	0.037	0.038
-462.099	-24.265	0.062	-0.037
-461.084	73.573	-0.167	-0.174
-460.070	113.857	-0.252	-0.304
-459.055	311.732	-0.261	-0.486
-458.040	800.000	0.113	-0.403
-457.026	747.763	0.055	-0.148
-456.011	-200.000	-0.022	-0.320
-454.997	-190.010	-0.185	0.002
-453.982	-200.000	-0.003	-0.093
-452.968	-98.178	0.152	0.039
-451.953	-35.917	-0.229	0.123
-450.938	800.000	0.094	0.278
-449.924	-46.429	-0.247	-0.120
-448.909	-10.322	-0.151	0.100
-447.895	-121.943	-0.408	-0.067
-446.880	-107.299	-0.075	-0.016
-445.865	-200.000	0.010	0.046
-444.851	165.320	-0.302	-0.423
-443.836	-79.403	-0.105	0.035
-442.822	23.833	-0.100	-0.082
-441.807	-192.365	-0.090	-0.001
-440.792	711.513	-0.096	-0.251
-439.778	241.152	0.109	-0.180
-438.763	-103.202	0.186	0.044
-437.749	-200.000	-0.012	0.132
-436.734	46.240	-0.109	-0.100
-435.719	-56.032	0.422	-0.187
-434.705	-186.815	-0.365	-0.005
-433.690	-110.866	0.265	-0.054
-432.676	719.338	0.079	0.208
-431.661	-137.668	-0.303	-0.034
-430.646	-95.457	0.165	-0.044
-429.632	-86.996	0.331	0.100
-428.617	65.775	-0.146	-0.146
-427.603	-57.216	0.443	0.193
-426.588	383.975	-0.067	0.136
-425.573	-83.155	0.219	-0.070
-424.559	-68.710	0.144	-0.055
-423.544	-200.000	0.070	0.315
-422.530	259.604	0.160	0.274
-421.515	-104.287	-0.167	-0.038
-420.500	293.728	0.082	-0.149
-419.486	298.583	0.296	0.540
-418.471	-7.210	0.146	-0.098
-417.457	29.436	-0.181	0.153
-416.442	-200.000	-0.016	-0.070
-415.428	135.312	0.276	0.355
-414.413	-67.088	-0.085	-0.033
-413.398	563.331	-0.111	0.266
-412.384	-83.959	0.262	-0.082
-411.369	570.700	0.050	0.120
-410.355	-137.592	0.302	0.034
-409.340	249.711	-0.097	-0.164
-408.325	159.392	0.205	-0.282
-407.311	-68.975	-0.221	0.084
-406.296	-44.749	-0.126	0.062
-405.282	-200.000	0.008	0.162
-404.267	434.141	0.053	-0.114
-403.252	-200.000	0.341	-0.002
-402.238	-99.277	0.397	0.099
-401.223	788.806	-0.085	-0.232
-400.209	800.000	-0.117	0.383
-399.194	800.000	-0.060	0.248
-398.179	800.000	0.041	-0.129
-397.165	301.148	0.046	-0.084
-396.150	-52.287	-0.485	-0.222
-395.136	-105.372	0.206	0.046
-394.121	302.487	0.267	0.489
-393.106	572.591	-0.128	0.309
-392.092	-82.599	0.241	0.077
-391.077	324.224	-0.065	-0.122
-390.063	-87.342	0.080	0.024
-389.048	587.149	-0.103	0.250
-388.033	-200.000	0.012	0.113
-387.019	-76.562	0.177	-0.062
-386.004	211.541	0.152	-0.237
-384.990	800.000	0.019	-0.075
-383.975	-117.919	-0.339	0.060
-382.960	-146.206	-0.149	0.013
-381.946	-189.569	-0.154	0.002
-380.931	256.448	0.041	-0.070
-379.917	-30.647	0.297	0.166
-378.902	492.822	-0.120	-0.273
-377.888	-35.283	-0.105	0.056
-376.873	23.616	-0.202	0.164
-375.858	800.000	-0.058	-0.228
-374.844	-103.462	-0.130	-0.030
-373.829	430.383	-0.099	-0.211
-372.815	-49.577	0.273	-0.128
-371.800	-200.000	-0.043	0.309
-370.785	-56.484	-0.223	0.098
-369.771	-127.465	0.253	0.036
-368.756	-118.872	-0.195	0.034
-367.742	59.209	0.246	-0.239
-366.727	800.000	0.025	-0.079
-365.712	-97.473	0.160	-0.041
-364.698	32.316	0.152	0.130
-363.683	-93.515	0.240	-0.066
-362.669	320.599	-0.053	0.099
-361.654	195.082	0.145	-0.218
-360.639	125.360	0.121	0.150
-359.625	-200.000	0.004	0.285
-358.610	-169.804	0.118	0.004
-357.596	255.907	-0.133	-0.225
-356.581	-123.378	0.521	0.082
-355.566	-4.582	-0.273	0.186
-354.552	255.236	-0.077	0.130
-353.537	59.911	-0.035	-0.034
-352.523	59.944	0.148	-0.144
-351.508	-200.000	-0.047	-0.207
-350.493	25.389	-0.143	0.117
-349.479	104.613	0.201	-0.234
-348.464	-131.956	0.165	0.021
-347.450	-45.801	-0.184	-0.090
-346.435	-35.766	-0.274	-0.146
-345.420	-36.984	-0.203	-0.107
-344.406	-200.000	0.045	0.266
-343.391	228.831	-0.087	0.140
-342.377	-200.000	-0.113	0.000
-341.362	-200.000	-0.054	-0.394
-340.348	406.455	0.065	0.135
-339.333	42.183	0.052	0.047
-338.318	-60.128	-0.269	-0.113
-337.304	269.358	-0.079	0.138
-336.289	404.925	0.130	-0.272
-335.275	726.292	0.086	-0.227
-334.260	410.477	0.088	-0.184
-333.245	-95.209	-0.064	-0.017
-332.231	382.904	0.114	-0.232
-331.216	71.562	-0.194	-0.199
-330.202	361.657	-0.142	0.281
-329.187	239.271	0.105	-0.172
-328.172	706.441	-0.133	-0.347
-327.158	-27.747	-0.275	0.157
-326.143	800.000	0.095	-0.282
-325.129	800.000	-0.044	-0.146
-324.114	363.305	-0.090	-0.179
-323.099	-79.118	-0.372	0.125
-322.085	800.000	-0.052	0.205
-321.070	257.914	0.109	0.186
-320.056	73.597	0.048	0.049
-319.041	-88.804	-0.276	0.081
-318.026	313.401	-0.091	0.169
-317.012	-200.000	-0.076	-0.347
-315.997	-83.498	-0.293	-0.092
-314.983	-84.529	0.233	0.073
-313.968	-83.853	0.009	0.003
-312.953	-200.000	0.044	0.229
-311.939	-17.674	-0.241	0.149
-310.924	-82.846	0.140	0.044
-309.910	-177.965	-0.343	0.008
-308.895	240.360	0.096	0.158
-307.880	-117.387	0.298	-0.053
-306.866	-181.496	0.261	0.005
-305.851	18.011	0.151	0.118
-304.837	-128.663	-0.118	0.016
-303.822	378.681	0.042	0.085
-302.807	453.963	-0.091	-0.198
-301.793	800.000	0.025	-0.103
-300.778	726.083	0.061	-0.162
-299.764	92.639	-0.157	-0.175
-298.749	-176.696	-0.218	-0.006
-297.735	-200.000	-0.006	-0.304
-296.720	-200.000	0.075	0.435
-295.705	-105.299	-0.189	0.042
-294.691	-200.000	0.056	0.317
-293.676	-100.055	0.285	-0.070
-292.662	166.301	0.073	-0.101
-291.647	-182.933	-0.451	-0.008
-290.632	-83.064	0.232	0.074
-289.618	-70.617	0.198	0.074
-288.603	73.439	0.191	-0.197
-287.589	-18.168	-0.119	0.073
-286.574	-64.864	0.272	-0.109
-285.559	800.000	-0.083	0.295
-284.545	39.412	0.179	0.158
-283.530	159.064	-0.158	0.216
-282.516	-112.325	-0.105	-0.021
-281.501	-200.000	0.025	0.268
-280.486	246.208	-0.183	0.305
-279.472	57.456	0.035	-0.034
-278.457	450.664	0.147	0.320
-277.443	-102.092	0.254	-0.060
-276.428	252.268	0.112	-0.189
-275.413	22.441	0.098	-0.079
-274.399	800.000	-0.008	-0.026
-273.384	-200.000	0.019	-0.234
-272.370	214.599	-0.073	0.114
-271.355	347.287	-0.139	0.269
-270.340	213.526	-0.203	-0.317
-269.326	800.000	0.102	0.328
-268.311	-48.371	0.105	-0.050
-267.297	232.654	0.037	0.060
-266.282	367.555	0.180	0.358
-265.267	800.000	-0.050	-0.187
-264.253	-200.000	0.008	0.215
-263.238	-200.000	-0.081	-0.421
-262.224	-200.000	-0.011	-0.069
-261.209	-95.357	-0.237	-0.063
-260.195	135.908	-0.182	0.234
-259.180	-30.602	0.144	-0.080
-258.165	800.000	0.035	0.096
-257.151	22.367	0.243	0.196
-256.136	9.773	0.163	0.122
-255.122	32.459	-0.029	-0.024
-254.107	-200.000	-0.030	-0.186
-253.092	-184.324	0.199	-0.003
-252.078	5.285	0.121	-0.088
-251.063	4.673	0.079	-0.057
-250.049	-200.000	0.005	0.145
-249.034	287.071	0.196	-0.349
-248.019	-130.403	0.231	0.031
-247.005	39.872	-0.201	0.178
-245.990	204.277	0.224	0.342
-244.976	51.091	-0.136	0.127
-243.961	360.894	0.027	-0.053
-242.946	800.000	0.108	0.351
-241.932	-105.554	-0.125	0.028
-240.917	-121.434	-0.239	-0.039
-239.903	141.119	-0.069	-0.090
-238.888	-106.338	0.270	0.060
-237.873	-200.000	-0.004	-0.256
-236.859	25.681	0.183	0.150
-235.844	207.623	-0.012	-0.018
-234.830	-200.000	-0.029	-0.231
-233.815	-67.330	0.200	-0.077
-232.800	-58.264	-0.126	0.054
-231.786	184.267	0.187	-0.273
-230.771	750.246	-0.032	0.084
-229.757	-200.000	0.031	0.160
-228.742	116.348	-0.061	-0.073
-227.727	-200.000	-0.055	-0.405
-226.713	-200.000	-0.015	0.090
-225.698	-200.000	-0.011	-0.296
-224.684	241.220	0.156	0.256
-223.669	-110.613	0.134	-0.027
-222.655	-200.000	-0.036	-0.257
-221.640	800.000	-0.082	0.342
-220.625	-93.434	0.206	-0.056
-219.611	-51.418	-0.175	-0.080
-218.596	-200.000	0.008	0.167
-217.582	-137.823	0.194	-0.021
-216.567	-200.000	0.014	-0.087
-215.552	295.199	-0.147	0.265
-214.538	-200.000	-0.003	0.012
-213.523	91.786	-0.100	0.110
-212.509	550.465	-0.051	-0.121
-211.494	-121.361	0.178	0.029
-210.479	170.542	0.136	-0.191
-209.465	170.035	-0.050	-0.070
-208.450	-200.000	-0.024	-0.125
-207.436	-117.853	-0.012	0.002
-206.421	-200.000	-0.005	0.043
-205.406	406.253	-0.153	0.318
-204.392	32.800	0.359	0.305
-203.377	-200.000	-0.119	0.576
-202.363	-10.494	-0.115	-0.075
-201.348	-55.620	0.303	-0.133
-200.333	26.783	-0.084	-0.069
-199.319	800.000	-0.053	0.152
-198.304	-200.000	-0.017	0.079
-197.290	-98.353	0.117	0.029
-196.275	688.732	-0.078	-0.199
-195.260	156.101	0.287	-0.388
-194.246	800.000	-0.076	-0.219
-193.231	-200.000	0.023	0.234
-192.217	-64.653	-0.274	-0.109
-191.202	131.600	-0.187	-0.236
-190.187	-173.262	0.284	0.009
-189.173	120.052	-0.166	-0.202
-188.158	28.531	-0.206	-0.171
-187.144	64.538	0.257	-0.254
-186.129	-28.672	0.313	-0.177
-185.114	-196.772	-0.322	-0.002
-184.100	489.069	0.061	-0.136
-183.085	-200.000	-0.014	-0.254
-182.071	24.907	-0.295	0.240
-181.056	-56.185	0.441	0.193
-180.042	235.720	-0.327	-0.530
-179.027	38.835	-0.038	-0.033
-178.012	-18.510	0.207	-0.127
-176.998	800.000	-0.052	0.144
-175.983	-141.125	0.222	0.022
-174.969	-194.663	-0.290	-0.002
-173.954	-59.730	-0.242	-0.102
-172.939	37.899	0.291	0.254
-171.925	139.507	-0.163	0.211
-170.910	31.605	-0.060	-0.051
-169.896	-148.242	-0.003	-0.000
-168.881	-76.702	0.378	-0.130
-167.866	-49.034	-0.234	0.110
-166.852	-104.834	0.139	0.031
-165.837	53.900	-0.194	0.183
-164.823	-200.000	0.098	0.000
-163.808	-200.000	-0.005	0.318
-162.793	-54.163	-0.196	0.087
-161.779	10.697	0.158	-0.118
-160.764	-86.778	-0.122	-0.036
-159.750	219.063	0.168	-0.263
-158.735	-43.187	0.161	0.080
-157.720	-200.000	-0.011	-0.107
-156.706	-153.833	0.155	-0.010
-155.691	-157.772	-0.065	-0.004
-154.677	27.225	0.171	0.141
-153.662	14.776	0.140	-0.108
-152.647	127.416	-0.164	-0.204
-151.633	-42.525	0.309	0.155
-150.618	4.506	0.278	0.200
-149.604	435.109	0.021	0.044
-148.589	-200.000	-0.065	-0.361
-147.574	450.030	-0.046	0.100
-146.560	-200.000	-0.065	-0.415
-145.545	-95.719	0.043	-0.011
-144.531	-65.123	-0.236	0.093
-143.516	6.311	0.151	-0.110
-142.502	-40.859	-0.166	0.084
-141.487	225.355	0.183	0.290
-140.472	9.618	-0.050	-0.037
-139.458	-56.500	0.431	-0.187
-138.443	110.005	-0.144	0.170
-137.429	-104.111	-0.461	0.105
-136.414	-200.000	0.011	0.128
-135.399	93.521	-0.109	-0.121
-134.385	-16.332	0.193	-0.120
-133.370	15.119	0.084	0.064
-132.356	-200.000	0.031	0.167
-131.341	-92.789	-0.275	-0.075
-130.326	67.456	0.359	0.359
-129.312	-200.000	0.059	0.265
-128.297	-80.474	0.316	0.103
-127.283	800.000	-0.059	-0.243
-126.268	-200.000	-0.025	-0.117
-125.253	146.291	0.067	-0.087
-124.239	-135.310	-0.218	-0.026
-123.224	-5.110	0.318	0.214
-122.210	-99.253	-0.158	-0.039
-121.195	392.298	-0.079	-0.160
