DTS Sentinel unit serial number:	SN413079Multiplexer serial number:	ORYXHardware model number:	OX4-SRSoftware version number:	ORYX F/W v4.00 Oryx Data Collector v3.7.2.0data status	okinstallation	princeton_trtdifferential loss correction	single-endedforward channel	channel 3reverse channel	N/Adate	2019/09/13time	08:12:35forward acquisition time	60.00reverse acquisition time	0.00gamma	496.2192k internal	0.2334k external	0.2334temperature offset calibration	1.0140default loss term (dB/km)	0.3790temperature slope calibration	1.0000multiplexer offset coefficient	1.0000multiplexer slope coefficient	1.0000fibre end	0.00T internal ref (°C)	27.12T ext. ref 1 (°C)	4.27T ext. ref 2 (°C)	23.10length (m)	temperature (°C)	Stokes	anti-Stokes-747.200	-200.000	0.003	0.029
-746.185	24.753	-0.244	0.203
-745.171	-74.966	0.086	-0.031
-744.156	38.051	0.164	0.146
-743.142	665.398	0.071	0.185
-742.127	-121.131	-0.124	-0.021
-741.112	-25.302	-0.086	0.051
-740.098	-200.000	-0.005	0.146
-739.083	-52.438	-0.164	0.076
-738.069	-113.832	-0.262	0.051
-737.054	750.793	-0.166	-0.450
-736.039	-23.488	-0.267	-0.161
-735.025	413.522	0.041	-0.087
-734.010	133.639	-0.127	-0.165
-732.996	-26.313	0.195	0.115
-731.981	-200.000	-0.024	-0.151
-730.966	744.016	-0.136	-0.368
-729.952	629.880	-0.055	0.140
-728.937	-200.000	0.021	0.345
-727.923	-200.000	-0.017	-0.172
-726.908	-130.343	-0.176	0.024
-725.894	-69.268	0.144	0.055
-724.879	-111.025	0.117	-0.024
-723.864	-200.000	-0.006	-0.113
-722.850	-97.628	-0.236	0.062
-721.835	154.685	-0.126	-0.174
-720.821	-84.561	0.318	-0.101
-719.806	75.291	-0.223	-0.236
-718.791	157.785	0.113	-0.157
-717.777	595.634	0.056	-0.140
-716.762	-40.952	-0.122	0.064
-715.748	710.902	0.040	0.107
-714.733	701.753	0.048	-0.127
-713.718	-88.408	-0.376	0.113
-712.704	62.283	0.182	-0.183
-711.689	206.074	-0.119	-0.186
-710.675	-82.174	0.158	-0.052
-709.660	-200.000	-0.000	0.263
-708.645	-137.768	0.210	-0.024
-707.631	-200.000	-0.072	0.441
-706.616	246.530	-0.063	-0.107
-705.602	-200.000	0.016	0.130
-704.587	-12.977	0.242	0.158
-703.572	-200.000	-0.040	0.353
-702.558	800.000	-0.063	0.185
-701.543	-200.000	-0.026	0.189
-700.529	800.000	0.079	0.290
-699.514	170.641	-0.079	0.114
-698.499	483.116	0.082	-0.188
-697.485	-142.111	-0.256	-0.026
-696.470	-52.634	-0.263	0.122
-695.456	-114.095	0.280	0.054
-694.441	213.208	0.055	0.088
-693.426	-122.674	0.074	0.012
-692.412	-200.000	-0.004	0.074
-691.397	-46.853	-0.192	0.094
-690.383	-92.432	-0.442	-0.125
-689.368	-95.802	0.081	-0.022
-688.354	246.662	0.120	0.204
-687.339	-146.581	-0.150	-0.013
-686.324	700.706	0.084	-0.223
-685.310	77.458	0.519	-0.553
-684.295	125.061	0.308	-0.389
-683.281	56.301	0.217	-0.211
-682.266	114.440	-0.192	0.235
-681.251	-200.000	-0.014	0.096
-680.237	64.233	0.038	0.039
-679.222	2.799	-0.260	0.189
-678.208	183.201	-0.082	0.122
-677.193	38.149	-0.078	0.069
-676.178	-200.000	0.001	0.076
-675.164	-200.000	0.017	0.093
-674.149	-142.223	0.268	0.027
-673.135	44.740	-0.116	-0.107
-672.120	130.352	0.050	-0.065
-671.105	-62.245	-0.126	-0.053
-670.091	-82.889	0.053	-0.017
-669.076	-17.051	-0.232	-0.147
-668.062	95.985	0.258	-0.295
-667.047	-200.000	-0.022	0.223
-666.032	-90.059	-0.087	0.025
-665.018	14.445	0.143	-0.112
-664.003	-21.102	0.167	-0.102
-662.989	-56.108	-0.248	-0.111
-661.974	800.000	0.139	0.399
-660.959	-200.000	-0.008	-0.413
-659.945	-200.000	0.003	0.022
-658.930	170.297	-0.201	-0.288
-657.916	-94.639	0.210	-0.057
-656.901	800.000	-0.095	-0.305
-655.886	-98.185	0.317	-0.082
-654.872	636.499	0.063	-0.160
-653.857	-164.334	-0.242	0.011
-652.843	16.762	0.241	0.191
-651.828	17.394	0.143	0.114
-650.814	199.899	0.138	-0.213
-649.799	-200.000	0.021	0.186
-648.784	19.334	-0.168	-0.135
-647.770	-161.971	-0.305	0.015
-646.755	-200.000	-0.007	0.152
-645.741	-200.000	0.005	0.232
-644.726	-43.755	-0.247	0.125
-643.711	767.334	0.017	-0.046
-642.697	31.302	0.052	0.044
-641.682	-133.983	-0.200	-0.025
-640.668	-121.448	0.282	0.047
-639.653	-200.000	0.039	0.535
-638.638	250.964	-0.087	-0.149
-637.624	-23.873	-0.280	-0.168
-636.609	800.000	0.014	-0.038
-635.595	151.419	0.048	0.065
-634.580	25.591	-0.115	-0.096
-633.565	15.230	-0.311	0.244
-632.551	358.023	0.097	0.194
-631.536	-63.797	0.185	-0.076
-630.522	-200.000	-0.001	-0.067
-629.507	123.437	-0.097	-0.121
-628.492	161.737	-0.309	-0.433
-627.478	-200.000	0.045	-0.201
-626.463	-115.505	-0.258	0.049
-625.449	598.174	-0.072	0.179
-624.434	-109.850	0.112	0.024
-623.419	800.000	-0.061	-0.232
-622.405	-106.162	-0.174	0.039
-621.390	639.357	0.105	-0.268
-620.376	-25.894	0.396	0.233
-619.361	800.000	-0.016	0.047
-618.346	-35.371	-0.098	-0.053
-617.332	-132.595	-0.153	-0.020
-616.317	-200.000	-0.010	-0.099
-615.303	-118.085	0.076	-0.014
-614.288	-18.221	-0.169	0.105
-613.273	70.545	0.080	0.083
-612.259	48.761	-0.189	-0.178
-611.244	192.771	-0.142	0.215
-610.230	53.927	-0.028	0.027
-609.215	-200.000	-0.039	-0.171
-608.201	412.555	-0.253	-0.538
-607.186	213.585	-0.169	-0.267
-606.171	-97.229	0.258	0.067
-605.157	800.000	0.040	-0.149
-604.142	-32.453	0.104	0.058
-603.128	-200.000	0.013	0.078
-602.113	-22.252	0.317	-0.192
-601.098	327.814	-0.123	0.235
-600.084	-34.899	0.284	-0.155
-599.069	205.229	0.047	-0.074
-598.055	-136.038	-0.296	0.035
-597.040	-93.466	-0.265	-0.073
-596.025	-125.675	-0.176	0.027
-595.011	36.415	-0.108	-0.095
-593.996	109.178	-0.269	0.321
-592.982	-94.171	-0.139	0.038
-591.967	-200.000	0.001	0.101
-590.952	10.651	-0.174	0.132
-589.938	528.404	0.212	0.499
-588.923	800.000	0.081	0.225
-587.909	-200.000	0.045	0.336
-586.894	-65.573	-0.279	0.112
-585.879	-109.674	0.175	-0.037
-584.865	-200.000	0.007	-0.053
-583.850	708.230	0.042	-0.112
-582.836	-87.151	-0.106	0.032
-581.821	124.537	-0.342	-0.429
-580.806	20.560	0.036	0.029
-579.792	118.329	0.164	0.202
-578.777	217.552	0.114	0.182
-577.763	-145.329	-0.158	0.014
-576.748	36.250	-0.201	-0.177
-575.733	-155.872	0.231	0.015
-574.719	350.562	0.100	0.198
-573.704	171.284	0.022	-0.031
-572.690	99.624	-0.085	0.099
-571.675	11.813	-0.421	-0.323
-570.661	-77.087	0.202	-0.070
-569.646	-110.017	0.030	-0.006
-568.631	168.146	0.226	-0.320
-567.617	86.371	-0.325	0.358
-566.602	350.155	0.050	-0.099
-565.588	-13.951	0.139	0.090
-564.573	-55.850	-0.238	-0.106
-563.558	648.271	0.059	0.150
-562.544	-160.404	0.017	0.001
-561.529	-191.668	0.148	0.001
-560.515	-200.000	-0.057	0.374
-559.500	26.646	0.191	0.160
-558.485	468.193	0.017	-0.039
-557.471	-186.431	0.331	0.005
-556.456	96.023	0.231	0.264
-555.442	-129.041	0.342	-0.048
-554.427	85.083	0.132	-0.144
-553.412	-200.000	0.044	-0.317
-552.398	-67.125	-0.334	0.131
-551.383	-32.193	0.081	0.045
-550.369	55.023	-0.071	0.068
-549.354	-200.000	0.006	0.232
-548.339	146.894	0.175	0.234
-547.325	-65.284	0.113	0.045
-546.310	150.230	0.173	-0.234
-545.296	-190.916	-0.115	-0.001
-544.281	-5.453	-0.235	0.161
-543.266	293.308	0.077	0.140
-542.252	-156.616	-0.302	-0.019
-541.237	-11.403	-0.209	0.137
-540.223	-108.265	0.367	0.079
-539.208	-17.466	-0.326	0.204
-538.193	-200.000	-0.033	0.161
-537.179	-173.044	-0.083	-0.003
-536.164	-110.405	-0.284	-0.059
-535.150	-112.783	0.115	-0.023
-534.135	-200.000	0.042	0.263
-533.121	-90.762	-0.409	-0.118
-532.106	-200.000	-0.003	-0.028
-531.091	-156.340	0.193	-0.012
-530.077	42.269	0.361	-0.327
-529.062	-77.210	-0.156	-0.054
-528.048	-200.000	0.004	-0.190
-527.033	-92.175	0.174	0.049
-526.018	-30.695	0.133	-0.075
-525.004	-129.504	-0.181	-0.025
-523.989	170.772	-0.159	-0.228
-522.975	-16.900	0.157	0.099
-521.960	-45.226	-0.094	-0.046
-520.945	17.843	-0.406	-0.322
-519.931	69.662	-0.198	0.204
-518.916	586.268	-0.153	0.375
-517.902	-200.000	-0.058	0.326
-516.887	-200.000	0.042	-0.384
-515.872	-200.000	0.092	-0.532
-514.858	800.000	0.027	0.087
-513.843	-40.346	0.250	-0.130
-512.829	-72.405	0.245	-0.090
-511.814	385.367	0.123	-0.252
-510.799	334.960	0.100	0.194
-509.785	-110.999	0.211	-0.043
-508.770	-165.465	-0.351	0.015
-507.756	-200.000	0.004	-0.167
-506.741	184.606	0.058	-0.085
-505.726	800.000	0.077	-0.328
-504.712	-151.003	0.204	-0.015
-503.697	-5.525	-0.399	0.273
-502.683	162.798	-0.321	0.449
-501.668	77.735	0.241	-0.256
-500.653	-77.038	0.327	0.114
-499.639	-148.920	-0.113	-0.009
-498.624	-15.624	0.320	-0.203
-497.610	-200.000	0.038	0.292
-496.595	634.281	-0.083	0.209
-495.581	-124.385	0.177	0.027
-494.566	-94.516	-0.156	0.042
-493.551	-200.000	0.033	-0.541
-492.537	-17.170	0.053	-0.033
-491.522	-8.073	-0.231	0.155
-490.508	-81.775	0.339	0.111
-489.493	800.000	0.096	-0.330
-488.478	-200.000	0.050	0.244
-487.464	402.990	-0.141	-0.295
-486.449	103.746	0.333	-0.389
-485.435	-200.000	0.027	0.150
-484.420	-200.000	-0.057	0.263
-483.405	130.566	-0.152	-0.194
-482.391	-103.041	-0.321	0.076
-481.376	800.000	-0.042	0.154
-480.362	-200.000	-0.061	0.267
-479.347	-155.644	0.156	0.010
-478.332	26.326	0.134	0.111
-477.318	-97.652	-0.125	0.032
-476.303	800.000	-0.015	-0.058
-475.289	-200.000	0.010	0.231
-474.274	10.604	0.164	0.125
-473.259	-107.341	-0.052	-0.011
-472.245	360.809	0.103	0.205
-471.230	-200.000	0.060	0.294
-470.216	-41.104	0.293	0.150
-469.201	800.000	0.087	-0.264
-468.186	-191.902	-0.044	0.000
-467.172	24.706	0.235	0.194
-466.157	306.082	-0.073	0.135
-465.143	-95.404	0.235	0.063
-464.128	-70.649	0.300	0.113
-463.113	-16.111	-0.075	-0.047
-462.099	214.920	0.112	0.177
-461.084	91.255	0.176	0.196
-460.070	253.257	-0.033	-0.055
-459.055	-40.265	-0.219	-0.113
-458.040	-200.000	-0.019	0.306
-457.026	12.581	-0.304	0.233
-456.011	800.000	-0.045	0.176
-454.997	-200.000	-0.004	0.107
-453.982	-26.550	-0.140	-0.081
-452.968	800.000	-0.078	0.293
-451.953	148.787	0.160	0.214
-450.938	708.378	0.112	-0.294
-449.924	800.000	0.067	-0.236
-448.909	800.000	-0.025	0.093
-447.895	-97.912	0.308	-0.079
-446.880	-13.168	0.115	0.074
-445.865	-53.721	-0.216	-0.098
-444.851	-179.316	0.337	0.007
-443.836	800.000	-0.075	-0.296
-442.822	25.519	0.307	0.253
-441.807	-77.555	-0.159	0.055
-440.792	266.903	0.194	-0.337
-439.778	-1.925	0.185	-0.129
-438.763	-88.149	-0.259	-0.077
-437.749	-124.741	-0.117	-0.018
-436.734	-200.000	-0.000	-0.140
-435.719	-47.147	-0.132	-0.064
-434.705	316.628	0.087	0.164
-433.690	800.000	-0.103	0.342
-432.676	74.319	0.056	-0.059
-431.661	800.000	0.076	-0.228
-430.646	-200.000	-0.030	-0.275
-429.632	800.000	0.098	-0.306
-428.617	387.052	-0.081	-0.167
-427.603	36.591	-0.192	-0.169
-426.588	-143.649	0.250	0.024
-425.573	-200.000	0.025	0.165
-424.559	787.632	-0.101	0.275
-423.544	-200.000	0.040	0.193
-422.530	-61.207	0.081	-0.034
-421.515	10.751	-0.084	-0.064
-420.500	-89.456	0.227	-0.066
-419.486	800.000	0.040	-0.119
-418.471	437.777	-0.020	0.043
-417.457	-138.111	0.147	-0.016
-416.442	314.536	-0.098	0.184
-415.428	61.829	0.174	-0.172
-414.413	-200.000	0.005	0.125
-413.398	-36.589	-0.184	0.098
-412.384	50.705	-0.101	-0.095
-411.369	-200.000	-0.016	0.080
-410.355	342.625	-0.130	-0.252
-409.340	-58.233	0.325	-0.141
-408.325	-93.487	-0.392	0.108
-407.311	-200.000	0.005	0.175
-406.296	-131.961	0.078	0.010
-405.282	-200.000	0.000	0.097
-404.267	-200.000	0.036	0.299
-403.252	-123.031	-0.101	-0.016
-402.238	800.000	0.053	-0.161
-401.223	-130.956	0.277	0.037
-400.209	-119.498	0.132	0.023
-399.194	50.298	-0.319	0.299
-398.179	-107.701	0.354	-0.077
-397.165	-70.742	-0.274	-0.103
-396.150	-108.866	0.253	-0.054
-395.136	-140.729	-0.042	-0.004
-394.121	-122.630	-0.194	-0.031
-393.106	-5.065	-0.087	-0.060
-392.092	800.000	0.115	0.341
-391.077	37.810	0.144	-0.127
-390.063	-200.000	0.034	-0.253
-389.048	-200.000	0.008	-0.273
-388.033	-200.000	0.026	-0.273
-387.019	-130.621	0.180	0.024
-386.004	1.630	0.069	0.049
-384.990	90.893	0.062	-0.069
-383.975	65.376	0.137	-0.138
-382.960	257.011	-0.046	0.079
-381.946	-43.305	-0.032	0.016
-380.931	-47.614	0.197	-0.095
-379.917	-39.821	0.279	0.144
-378.902	758.386	-0.064	-0.171
-377.888	-91.722	-0.179	-0.050
-376.873	-5.711	-0.399	-0.271
-375.858	-95.122	0.343	-0.092
-374.844	49.105	0.192	-0.179
-373.829	-200.000	-0.024	-0.431
-372.815	-100.615	0.050	0.012
-371.800	-153.036	-0.209	0.015
-370.785	97.562	0.244	-0.278
-369.771	362.875	-0.120	-0.239
-368.756	-134.956	-0.315	-0.038
-367.742	-4.016	0.324	-0.223
-366.727	-167.912	-0.450	0.017
-365.712	39.717	-0.227	0.201
-364.698	-8.591	-0.067	-0.044
-363.683	455.964	-0.063	-0.138
-362.669	-137.445	0.170	-0.019
-361.654	-41.461	0.135	-0.069
-360.639	-188.485	0.167	0.002
-359.625	-79.961	-0.082	-0.027
-358.610	-200.000	0.004	0.076
-357.596	-200.000	0.020	0.249
-356.581	800.000	-0.057	0.204
-355.566	-104.052	0.118	0.027
-354.552	224.838	-0.131	0.210
-353.537	-200.000	0.025	0.379
-352.523	-200.000	-0.027	-0.121
-351.508	463.261	-0.035	-0.077
-350.493	-38.314	-0.394	0.207
-349.479	-200.000	-0.023	0.234
-348.464	-151.416	-0.208	-0.015
-347.450	131.546	0.073	-0.093
-346.435	-10.969	0.273	0.179
-345.420	-123.100	0.357	-0.057
-344.406	-87.304	-0.171	0.051
-343.391	800.000	-0.017	0.060
-342.377	-200.000	-0.020	0.172
-341.362	212.082	-0.203	0.316
-340.348	783.137	-0.088	0.239
-339.333	305.770	-0.140	0.257
-338.318	-76.626	-0.217	-0.075
-337.304	-200.000	-0.013	0.110
-336.289	-87.507	0.160	-0.048
-335.275	-200.000	0.000	0.107
-334.260	127.913	0.068	0.086
-333.245	-200.000	0.012	0.317
-332.231	-27.838	0.047	-0.027
-331.216	-200.000	0.019	0.159
-330.202	-45.954	-0.104	-0.051
-329.187	-97.309	0.183	0.047
-328.172	-78.247	-0.236	0.080
-327.158	33.419	-0.094	-0.081
-326.143	463.805	-0.230	0.509
-325.129	245.292	0.080	-0.133
-324.114	0.140	0.155	0.109
-323.099	39.238	0.100	0.088
-322.085	-80.402	-0.121	-0.040
-321.070	-152.469	-0.268	-0.019
-320.056	81.407	0.338	-0.361
-319.041	-82.433	0.116	-0.037
-318.026	-124.843	0.251	-0.038
-317.012	-200.000	-0.118	-0.000
-315.997	-125.833	0.260	0.039
-314.983	37.532	0.102	-0.089
-313.968	-85.587	-0.106	-0.033
-312.953	125.576	-0.164	-0.205
-311.939	101.789	-0.251	-0.290
-310.924	-200.000	0.007	-0.108
-309.910	-200.000	0.067	-0.465
-308.895	-31.540	0.277	-0.154
-307.880	800.000	-0.048	-0.186
-306.866	800.000	0.083	-0.340
-305.851	-200.000	0.014	-0.322
-304.837	-53.826	0.109	-0.049
-303.822	-43.178	0.219	0.110
-302.807	-79.377	0.411	-0.137
-301.793	-200.000	0.080	-0.496
-300.778	-92.466	-0.373	-0.104
-299.764	-200.000	0.032	-0.187
-298.749	68.468	-0.113	-0.114
-297.735	-9.226	-0.039	0.026
-296.720	-130.956	0.323	0.043
-295.705	28.939	0.232	0.195
-294.691	265.581	0.195	-0.337
-293.676	252.558	-0.082	0.137
-292.662	-119.340	0.193	0.033
-291.647	511.016	-0.057	-0.131
-290.632	-147.761	-0.524	-0.043
-289.618	667.372	0.080	-0.204
-288.603	-65.929	0.062	0.024
-287.589	-200.000	0.038	-0.217
-286.574	334.339	-0.179	-0.342
-285.559	-137.427	0.134	0.015
-284.545	-191.799	-0.230	-0.002
-283.530	345.287	0.061	-0.119
-282.516	-200.000	0.010	0.140
-281.501	-164.371	-0.216	0.010
-280.486	800.000	0.035	0.144
-279.472	541.658	0.043	-0.102
-278.457	800.000	0.035	0.150
-277.443	-62.232	0.409	0.168
-276.428	-61.472	-0.173	0.072
-275.413	137.354	-0.110	-0.141
-274.399	-200.000	0.004	-0.133
-273.384	-32.760	-0.183	0.101
-272.370	249.068	-0.097	0.162
-271.355	-200.000	-0.009	0.169
-270.340	-200.000	0.031	0.165
-269.326	800.000	0.106	0.373
-268.311	-200.000	-0.024	0.128
-267.297	-200.000	0.066	0.291
-266.282	71.407	-0.066	0.067
-265.267	796.496	-0.081	-0.220
-264.253	-7.750	0.035	0.024
-263.238	-55.087	-0.244	-0.108
-262.224	800.000	0.024	-0.066
-261.209	69.106	-0.158	-0.161
-260.195	4.985	-0.201	-0.146
-259.180	-200.000	0.000	-0.081
-258.165	195.395	-0.111	0.166
-257.151	-200.000	0.047	-0.256
-256.136	-200.000	0.120	-0.000
-255.122	-25.622	-0.052	0.030
-254.107	376.759	0.087	-0.174
-253.092	-200.000	0.002	0.093
-252.078	313.513	0.176	-0.327
-251.063	-56.713	-0.132	0.058
-250.049	356.141	-0.169	-0.333
-249.034	-200.000	-0.028	0.297
-248.019	-43.784	-0.132	-0.066
-247.005	97.309	0.095	-0.108
-245.990	357.781	0.055	-0.108
-244.976	-127.368	-0.133	-0.019
-243.961	-200.000	0.008	-0.085
-242.946	-186.708	-0.234	0.003
-241.932	-23.815	-0.189	0.111
-240.917	155.610	0.064	0.086
-239.903	83.000	0.168	0.180
-238.888	54.271	0.204	0.194
-237.873	-129.320	-0.107	-0.015
-236.859	-97.432	0.467	-0.120
-235.844	-23.767	-0.251	-0.148
-234.830	-71.567	0.110	-0.041
-233.815	800.000	0.044	-0.163
-232.800	-37.245	-0.336	0.177
-231.786	178.409	0.135	0.194
-230.771	-200.000	0.006	-0.078
-229.757	-71.535	-0.162	0.060
-228.742	361.812	0.075	-0.147
-227.727	3.785	-0.156	0.112
-226.713	1.951	-0.246	0.175
-225.698	206.633	0.061	0.094
-224.684	-72.023	0.216	-0.079
-223.669	412.253	-0.107	-0.223
-222.655	-173.727	-0.273	0.008
-221.640	752.579	0.079	-0.210
-220.625	40.816	0.247	0.219
-219.611	-90.354	-0.132	-0.038
-218.596	800.000	0.084	-0.284
-217.582	-73.060	0.261	-0.094
-216.567	-142.664	0.108	-0.010
-215.552	3.351	-0.023	0.016
-214.538	51.809	0.110	0.103
-213.523	-200.000	-0.038	0.431
-212.509	-200.000	-0.011	-0.145
-211.494	-20.771	-0.208	-0.126
-210.479	-103.668	-0.160	0.037
-209.465	-117.592	0.109	0.019
-208.450	-20.737	-0.193	0.117
-207.436	-118.793	0.322	0.056
-206.421	800.000	-0.102	0.369
-205.406	-200.000	0.016	0.161
-204.392	21.031	-0.277	-0.221
-203.377	120.932	-0.056	0.069
-202.363	-139.768	0.173	0.018
-201.348	209.136	-0.163	0.250
-200.333	28.923	-0.179	-0.149
-199.319	451.475	0.058	-0.126
-198.304	218.769	0.067	-0.105
-197.290	522.962	-0.238	0.551
-196.275	-49.623	0.342	-0.160
-195.260	-43.336	-0.251	0.125
-194.246	-200.000	0.037	-0.367
-193.231	800.000	0.081	-0.231
-192.217	-200.000	0.042	-0.337
-191.202	-151.927	0.196	-0.014
-190.187	4.328	0.058	0.042
-189.173	-200.000	-0.004	0.129
-188.158	-134.874	-0.014	0.002
-187.144	-200.000	0.003	0.081
-186.129	-90.200	-0.277	-0.079
-185.114	-116.174	0.362	-0.066
-184.100	176.310	0.179	-0.256
-183.085	600.472	0.102	-0.250
-182.071	543.111	-0.068	-0.161
-181.056	-194.504	0.171	-0.001
-180.042	-34.974	-0.336	0.180
-179.027	-106.273	-0.271	0.060
-178.012	-86.695	-0.104	-0.031
-176.998	800.000	0.066	0.264
-175.983	72.960	0.101	-0.104
-174.969	-104.743	-0.314	0.071
-173.954	800.000	0.119	0.361
-172.939	-200.000	0.011	0.060
-171.925	-159.957	0.097	-0.005
-170.910	-122.595	0.160	-0.026
-169.896	800.000	0.044	-0.122
-168.881	474.105	0.012	0.026
-167.866	-200.000	0.002	-0.025
-166.852	73.522	0.243	0.250
-165.837	-90.586	0.280	0.080
-164.823	97.445	-0.160	0.181
-163.808	-55.949	0.191	0.084
-162.793	518.543	-0.049	-0.113
-161.779	-102.843	-0.245	-0.057
-160.764	-84.812	0.086	0.027
-159.750	-53.295	0.104	-0.047
-158.735	16.117	-0.032	-0.025
-157.720	800.000	-0.014	0.040
-156.706	-200.000	-0.025	0.143
-155.691	-133.256	0.323	-0.040
-154.677	-200.000	0.031	-0.290
-153.662	-36.011	-0.279	0.148
-152.647	-56.154	0.178	-0.078
-151.633	105.585	-0.106	0.123
-150.618	800.000	-0.041	0.132
-149.604	-145.903	-0.353	-0.031
-148.589	208.068	-0.067	0.102
-147.574	292.775	-0.040	-0.072
-146.560	75.978	0.140	-0.146
-145.545	-14.100	0.429	-0.272
-144.531	-200.000	-0.002	-0.201
-143.516	598.876	-0.096	-0.235
-142.502	-54.482	-0.203	-0.090
-141.487	646.207	-0.160	-0.401
-140.472	621.415	0.072	0.177
-139.458	-174.012	-0.437	0.013
-138.443	163.757	0.077	0.106
-137.429	-100.915	-0.163	0.039
-136.414	-32.511	0.332	-0.182
-135.399	-174.491	-0.249	-0.007
-134.385	-13.292	0.197	-0.126
-133.370	800.000	-0.021	-0.066
-132.356	-69.821	-0.288	-0.108
-131.341	-200.000	0.023	-0.099
-130.326	421.730	-0.013	-0.027
-129.312	69.224	0.153	-0.154
-128.297	342.758	0.064	-0.123
-127.283	-153.338	0.202	-0.014
-126.268	53.980	-0.027	0.026
-125.253	47.122	0.499	0.456
-124.239	360.431	0.108	-0.213
-123.224	-200.000	0.034	0.301
-122.210	-200.000	-0.006	0.299
