DTS Sentinel unit serial number:	SN413079Multiplexer serial number:	ORYXHardware model number:	OX4-SRSoftware version number:	ORYX F/W v4.00 Oryx Data Collector v3.7.2.0data status	okinstallation	princeton_trtdifferential loss correction	single-endedforward channel	channel 3reverse channel	N/Adate	2019/09/16time	23:00:35forward acquisition time	60.00reverse acquisition time	0.00gamma	496.2192k internal	0.2325k external	0.2325temperature offset calibration	0.9938default loss term (dB/km)	0.3790temperature slope calibration	1.0000multiplexer offset coefficient	1.0000multiplexer slope coefficient	1.0000fibre end	0.00T internal ref (°C)	30.33T ext. ref 1 (°C)	0.09T ext. ref 2 (°C)	23.94length (m)	temperature (°C)	Stokes	anti-Stokes-747.200	-123.518	-0.192	-0.031
-746.185	800.000	-0.100	0.294
-745.171	-200.000	-0.005	0.264
-744.156	-200.000	0.004	0.338
-743.142	-17.527	-0.456	0.289
-742.127	174.491	0.197	0.288
-741.112	-200.000	-0.010	0.094
-740.098	-95.499	-0.283	-0.077
-739.083	-47.730	0.216	0.106
-738.069	800.000	-0.038	0.153
-737.054	409.555	0.046	0.098
-736.039	444.901	0.081	0.179
-735.025	-200.000	0.083	0.401
-734.010	31.357	-0.114	-0.099
-732.996	-109.342	0.033	-0.007
-731.981	537.424	0.082	0.196
-730.966	51.995	0.190	-0.183
-729.952	40.157	-0.191	-0.173
-728.937	66.251	-0.090	-0.092
-727.923	800.000	-0.090	-0.256
-726.908	-127.275	0.079	0.012
-725.894	-41.939	0.047	0.024
-724.879	202.186	0.171	-0.266
-723.864	-138.843	-0.308	-0.034
-722.850	-106.073	-0.285	-0.065
-721.835	32.102	0.237	-0.206
-720.821	-200.000	0.016	-0.204
-719.806	301.832	0.131	-0.244
-718.791	-59.085	0.164	-0.071
-717.777	-200.000	-0.016	-0.096
-716.762	-66.201	0.224	-0.090
-715.748	163.842	-0.057	0.081
-714.733	-19.900	0.278	-0.173
-713.718	-51.000	-0.173	-0.082
-712.704	30.605	-0.104	-0.089
-711.689	-43.529	-0.046	-0.023
-710.675	-200.000	-0.028	-0.152
-709.660	-166.689	-0.279	0.012
-708.645	-200.000	0.008	-0.199
-707.631	-200.000	0.065	0.478
-706.616	-5.500	-0.251	-0.173
-705.602	-73.294	-0.104	0.039
-704.587	181.699	-0.182	-0.270
-703.572	149.965	-0.134	-0.184
-702.558	-200.000	0.009	-0.200
-701.543	-88.079	0.277	-0.084
-700.529	315.316	-0.108	-0.206
-699.514	-90.914	0.386	0.112
-698.499	679.029	0.117	0.307
-697.485	121.938	0.045	0.057
-696.470	800.000	-0.044	-0.175
-695.456	-153.467	0.434	0.030
-694.441	-200.000	-0.013	0.130
-693.426	-140.920	-0.085	0.009
-692.412	-200.000	-0.018	-0.113
-691.397	132.915	0.240	-0.313
-690.383	199.122	0.161	0.248
-689.368	-64.515	-0.117	0.048
-688.354	528.070	-0.180	0.427
-687.339	49.741	-0.162	-0.154
-686.324	48.066	0.218	-0.205
-685.310	-200.000	-0.055	-0.295
-684.295	-99.267	0.291	0.074
-683.281	-200.000	0.028	0.139
-682.266	-50.439	-0.278	-0.132
-681.251	-105.309	0.214	0.049
-680.237	-83.585	-0.358	-0.115
-679.222	800.000	-0.074	-0.249
-678.208	-53.248	-0.094	0.043
-677.193	6.709	-0.384	0.287
-676.178	714.419	-0.149	-0.398
-675.164	-151.747	0.107	0.008
-674.149	191.023	-0.036	0.054
-673.135	-40.852	0.141	0.073
-672.120	536.283	0.068	0.162
-671.105	8.661	0.204	-0.155
-670.091	-95.869	-0.243	0.065
-669.076	-183.634	-0.246	0.004
-668.062	74.099	0.238	0.252
-667.047	151.443	0.093	0.127
-666.032	-200.000	-0.009	-0.074
-665.018	232.114	0.088	-0.145
-664.003	-120.294	-0.258	0.044
-662.989	656.116	-0.035	0.091
-661.974	-80.610	-0.218	-0.073
-660.959	85.758	-0.199	0.220
-659.945	-184.496	0.130	0.002
-658.930	-183.158	0.137	-0.002
-657.916	-90.748	0.390	0.113
-656.901	-39.246	-0.210	0.111
-655.886	-188.592	-0.385	0.005
-654.872	-200.000	0.002	0.145
-653.857	394.961	-0.110	-0.231
-652.843	12.753	-0.130	0.101
-651.828	-200.000	0.015	-0.173
-650.814	-46.976	-0.172	-0.084
-649.799	183.573	0.135	0.200
-648.784	31.180	-0.239	0.207
-647.770	-97.416	-0.305	-0.080
-646.755	511.574	0.165	-0.387
-645.741	289.863	0.104	0.189
-644.726	45.344	-0.124	0.115
-643.711	-180.156	0.247	0.005
-642.697	-183.751	-0.133	-0.002
-641.682	7.236	0.119	0.089
-640.668	-92.156	0.237	-0.067
-639.653	-200.000	0.056	-0.325
-638.638	103.861	0.062	-0.073
-637.624	-143.308	0.170	-0.016
-636.609	90.960	0.057	0.064
-635.595	-59.949	-0.130	-0.056
-634.580	-141.233	0.263	-0.027
-633.565	-125.365	-0.401	0.061
-632.551	-138.428	-0.274	-0.030
-631.536	-147.161	-0.200	-0.017
-630.522	-88.858	-0.440	-0.131
-629.507	-25.986	0.304	-0.180
-628.492	117.344	-0.052	-0.065
-627.478	158.787	0.078	-0.109
-626.463	136.480	-0.153	0.201
-625.449	800.000	0.067	-0.265
-624.434	123.821	-0.284	0.359
-623.419	169.760	0.071	-0.102
-622.405	83.534	0.145	-0.158
-621.390	-77.235	-0.338	0.118
-620.376	44.581	0.263	0.242
-619.361	-68.731	0.255	-0.099
-618.346	-128.672	-0.016	-0.002
-617.332	162.454	0.201	0.283
-616.317	800.000	0.089	-0.356
-615.303	-116.852	0.183	0.034
-614.288	-146.178	0.451	-0.040
-613.273	800.000	-0.012	0.048
-612.259	134.922	0.057	-0.075
-611.244	-200.000	-0.028	-0.215
-610.230	-6.789	0.173	0.118
-609.215	11.790	0.020	0.015
-608.201	-73.987	0.183	-0.067
-607.186	-26.744	0.137	-0.081
-606.171	24.878	0.136	-0.113
-605.157	-99.894	0.275	0.069
-604.142	-200.000	-0.013	-0.058
-603.128	644.369	-0.087	0.222
-602.113	-200.000	0.033	0.229
-601.098	800.000	0.042	0.151
-600.084	130.890	0.147	0.190
-599.069	-146.503	-0.197	0.017
-598.055	-200.000	0.008	-0.389
-597.040	-110.930	0.259	0.053
-596.025	-62.854	0.250	0.104
-595.011	196.224	-0.256	0.391
-593.996	92.426	0.095	0.107
-592.982	-72.200	-0.124	-0.046
-591.967	213.035	-0.175	-0.278
-590.952	-200.000	0.004	-0.028
-589.938	523.801	-0.080	0.189
-588.923	174.252	0.051	0.074
-587.909	-141.451	-0.147	0.015
-586.894	-51.846	0.107	-0.050
-585.879	-200.000	-0.010	-0.164
-584.865	611.767	-0.067	-0.167
-583.850	155.030	0.129	0.179
-582.836	-200.000	0.025	-0.187
-581.821	-194.452	-0.228	-0.002
-580.806	52.262	-0.077	0.073
-579.792	800.000	-0.005	-0.020
-578.777	-3.059	-0.021	0.015
-577.763	3.063	-0.290	-0.212
-576.748	-11.149	-0.185	-0.122
-575.733	140.961	-0.168	-0.223
-574.719	800.000	0.116	-0.411
-573.704	-87.079	0.247	0.075
-572.690	-200.000	0.002	-0.182
-571.675	-124.200	0.254	-0.040
-570.661	-200.000	0.002	0.190
-569.646	-200.000	0.030	-0.275
-568.631	268.481	-0.131	0.230
-567.617	139.074	-0.063	-0.083
-566.602	5.018	-0.266	-0.196
-565.588	800.000	-0.039	0.165
-564.573	-79.156	-0.159	-0.054
-563.558	-22.905	0.125	0.076
-562.544	123.385	-0.217	0.273
-561.529	-42.957	0.372	-0.189
-560.515	-63.604	0.331	-0.136
-559.500	146.693	0.139	-0.188
-558.485	-200.000	0.004	0.062
-557.471	561.786	-0.069	0.168
-556.456	-173.226	0.060	0.002
-555.442	-23.034	-0.158	0.095
-554.427	31.833	-0.100	0.086
-553.412	-58.417	0.117	-0.051
-552.398	13.983	-0.154	0.120
-551.383	16.786	0.122	-0.097
-550.369	-47.820	-0.142	0.069
-549.354	7.675	0.107	0.080
-548.339	-32.369	0.050	-0.028
-547.325	-70.510	0.361	-0.137
-546.310	725.349	0.064	-0.171
-545.296	-12.321	0.089	0.058
-544.281	-16.152	0.241	0.154
-543.266	131.768	-0.130	0.168
-542.252	26.682	-0.084	0.070
-541.237	650.964	0.040	-0.103
-540.223	-200.000	-0.027	0.131
-539.208	-163.838	0.230	0.011
-538.193	-191.916	-0.269	-0.003
-537.179	-165.825	-0.429	0.018
-536.164	-200.000	-0.045	0.200
-535.150	174.147	0.035	-0.051
-534.135	-84.917	-0.165	-0.052
-533.121	-108.463	0.170	-0.037
-532.106	69.614	-0.174	0.179
-531.091	616.157	0.070	0.175
-530.077	-73.190	-0.347	-0.127
-529.062	-200.000	-0.005	0.261
-528.048	-29.662	0.093	-0.053
-527.033	-20.565	-0.281	-0.173
-526.018	-163.559	-0.111	0.005
-525.004	242.323	-0.162	-0.271
-523.989	-85.403	0.314	0.098
-522.975	-200.000	-0.006	-0.068
-521.960	800.000	0.033	0.133
-520.945	-75.781	0.160	0.057
-519.931	50.559	-0.057	0.054
-518.916	583.898	-0.082	0.201
-517.902	97.881	0.174	0.200
-516.887	-106.176	0.146	-0.033
-515.872	94.061	-0.106	-0.121
-514.858	305.933	0.090	-0.168
-513.843	-129.799	0.332	0.046
-512.829	183.918	-0.103	-0.152
-511.814	579.679	-0.105	0.257
-510.799	800.000	0.028	0.110
-509.785	-100.891	0.251	-0.062
-508.770	-29.306	-0.320	-0.183
-507.756	36.771	0.225	0.199
-506.741	177.295	0.025	0.037
-505.726	-7.516	-0.151	0.102
-504.712	-36.714	0.069	0.037
-503.697	610.856	-0.081	0.203
-502.683	-200.000	-0.020	0.109
-501.668	97.728	0.099	0.113
-500.653	-144.863	0.178	0.016
-499.639	16.075	0.194	0.153
-498.624	-150.478	0.198	-0.015
-497.610	697.423	-0.035	-0.093
-496.595	119.292	0.071	0.087
-495.581	-200.000	0.145	-0.000
-494.566	185.157	-0.063	0.094
-493.551	226.362	-0.093	-0.151
-492.537	319.929	0.111	-0.210
-491.522	169.016	0.201	-0.286
-490.508	800.000	0.053	0.168
-489.493	800.000	-0.027	0.117
-488.478	-133.001	0.128	0.016
-487.464	38.675	-0.063	-0.056
-486.449	174.581	0.108	0.156
-485.435	-102.229	-0.177	-0.043
-484.420	800.000	0.044	0.145
-483.405	-20.173	0.284	0.175
-482.391	-97.724	-0.460	0.119
-481.376	-200.000	0.032	0.147
-480.362	-177.108	0.384	0.010
-479.347	-200.000	0.026	0.169
-478.332	-117.039	-0.141	-0.026
-477.318	614.345	-0.099	-0.247
-476.303	-200.000	-0.035	0.409
-475.289	-81.599	0.180	-0.059
-474.274	-147.967	0.224	-0.019
-473.259	41.378	0.133	0.120
-472.245	-108.313	-0.368	-0.079
-471.230	-134.737	-0.108	0.013
-470.216	-52.899	-0.158	-0.072
-469.201	-55.746	0.128	0.057
-468.186	32.922	-0.345	-0.298
-467.172	-45.418	0.233	-0.115
-466.157	383.839	0.110	0.226
-465.143	-200.000	-0.002	0.285
-464.128	-200.000	0.005	-0.052
-463.113	-200.000	0.002	0.068
-462.099	253.175	0.099	-0.169
-461.084	-4.087	0.111	-0.077
-460.070	-33.563	0.256	-0.141
-459.055	-16.151	0.142	0.090
-458.040	20.333	-0.104	-0.084
-457.026	119.142	0.020	-0.025
-456.011	-200.000	0.029	-0.252
-454.997	-154.402	0.355	0.024
-453.982	-99.549	0.124	-0.031
-452.968	-112.175	-0.122	0.024
-451.953	-142.292	-0.112	-0.011
-450.938	-78.831	0.350	-0.119
-449.924	-200.000	-0.026	-0.127
-448.909	-200.000	0.020	-0.204
-447.895	199.736	-0.202	0.310
-446.880	290.519	-0.169	-0.307
-445.865	-200.000	0.008	-0.082
-444.851	-200.000	0.059	0.314
-443.836	-113.590	-0.284	-0.055
-442.822	-83.044	-0.242	0.078
-441.807	-58.334	0.049	-0.021
-440.792	-10.997	-0.347	-0.229
-439.778	-134.536	0.155	0.019
-438.763	-200.000	0.021	-0.093
-437.749	-63.167	-0.150	0.061
-436.734	-200.000	0.022	-0.134
-435.719	119.833	0.157	-0.194
-434.705	-188.293	-0.090	-0.001
-433.690	296.347	0.120	0.219
-432.676	32.609	0.188	0.162
-431.661	109.793	0.052	-0.062
-430.646	45.107	0.072	-0.066
-429.632	132.616	-0.116	0.150
-428.617	-200.000	0.007	0.048
-427.603	-28.430	0.177	-0.102
-426.588	-184.296	-0.148	0.002
-425.573	-143.630	-0.025	0.002
-424.559	-200.000	0.014	-0.268
-423.544	136.389	0.101	0.132
-422.530	-11.447	0.324	-0.212
-421.515	433.222	-0.061	0.132
-420.500	-200.000	-0.020	0.146
-419.486	75.892	0.116	0.122
-418.471	-200.000	0.001	0.153
-417.457	-165.255	0.174	0.008
-416.442	-48.720	0.194	0.093
-415.428	364.531	0.064	0.128
-414.413	3.124	0.172	0.125
-413.398	-16.874	-0.284	0.179
-412.384	-200.000	-0.034	0.223
-411.369	280.891	-0.091	-0.163
-410.355	-4.520	0.158	0.109
-409.340	-93.153	0.165	0.046
-408.325	17.321	0.237	0.188
-407.311	-107.454	-0.449	0.098
-406.296	-200.000	0.010	0.058
-405.282	-200.000	-0.033	-0.201
-404.267	86.178	-0.164	-0.179
-403.252	-31.469	0.185	-0.104
-402.238	17.875	-0.236	0.187
-401.223	158.646	0.072	0.100
-400.209	-86.250	-0.215	0.066
-399.194	-200.000	0.011	-0.186
-398.179	-134.191	0.230	0.028
-397.165	-200.000	0.011	-0.099
-396.150	-72.427	-0.343	0.126
-395.136	29.617	-0.075	0.064
-394.121	55.989	-0.094	0.091
-393.106	294.193	-0.043	-0.079
-392.092	61.107	0.047	0.047
-391.077	-167.230	0.241	-0.010
-390.063	-200.000	0.034	-0.312
-389.048	-37.635	0.085	-0.045
-388.033	800.000	0.044	0.157
-387.019	274.221	-0.088	0.155
-386.004	183.583	0.146	0.214
-384.990	17.638	-0.101	-0.080
-383.975	590.319	-0.068	0.168
-382.960	-38.709	-0.167	-0.088
-381.946	29.320	0.224	-0.189
-380.931	-62.034	0.127	0.053
-379.917	-101.982	0.276	0.066
-378.902	-77.809	-0.318	0.109
-377.888	160.705	0.238	-0.331
-376.873	-200.000	0.016	0.071
-375.858	-60.730	0.086	-0.036
-374.844	-164.910	-0.208	-0.009
-373.829	0.997	-0.335	0.239
-372.815	-35.893	0.046	-0.025
-371.800	-23.976	-0.134	0.080
-370.785	218.776	-0.126	0.200
-369.771	449.851	0.086	-0.189
-368.756	27.066	-0.282	-0.235
-367.742	-189.796	0.166	-0.002
-366.727	-100.924	0.126	-0.031
-365.712	-200.000	0.035	0.233
-364.698	-200.000	0.118	0.552
-363.683	18.146	0.149	0.118
-362.669	-77.517	-0.163	-0.056
-361.654	569.826	0.093	-0.225
-360.639	-177.126	-0.195	0.005
-359.625	-124.658	-0.244	0.038
-358.610	-4.115	-0.158	0.109
-357.596	800.000	-0.040	0.169
-356.581	800.000	-0.025	-0.076
-355.566	-69.110	0.187	0.072
-354.552	10.317	0.122	-0.092
-353.537	-158.878	0.106	-0.006
-352.523	62.692	0.312	0.310
-351.508	-62.707	-0.132	-0.054
-350.493	-134.636	-0.237	0.029
-349.479	-78.422	-0.225	-0.077
-348.464	-40.969	0.084	0.043
-347.450	76.400	0.248	0.261
-346.435	-200.000	0.018	0.145
-345.420	800.000	0.100	-0.383
-344.406	-200.000	0.007	-0.201
-343.391	81.601	0.141	0.152
-342.377	479.907	-0.087	-0.196
-341.362	41.919	-0.074	0.067
-340.348	800.000	0.044	0.148
-339.333	-97.485	-0.365	-0.094
-338.318	-200.000	-0.024	-0.170
-337.304	-200.000	-0.015	0.069
-336.289	-29.002	0.078	-0.045
-335.275	-200.000	-0.030	-0.283
-334.260	-25.213	0.206	-0.121
-333.245	608.017	-0.051	0.126
-332.231	-162.690	0.269	-0.013
-331.216	-29.107	-0.127	-0.072
-330.202	67.612	-0.108	0.110
-329.187	-122.581	0.333	0.054
-328.172	-53.026	0.139	0.064
-327.158	-200.000	0.013	-0.199
-326.143	-86.299	-0.171	-0.052
-325.129	-10.171	0.127	0.083
-324.114	25.213	-0.043	0.035
-323.099	-46.221	0.312	-0.153
-322.085	-28.542	-0.228	0.130
-321.070	-164.066	-0.114	0.005
-320.056	39.936	0.271	-0.242
-319.041	90.192	-0.130	-0.145
-318.026	-118.454	0.161	-0.028
-317.012	4.198	-0.115	0.084
-315.997	118.391	0.083	0.102
-314.983	800.000	-0.025	-0.075
-313.968	645.946	0.115	-0.290
-312.953	294.672	-0.251	0.455
-311.939	-159.624	0.060	-0.003
-310.924	298.036	0.081	-0.148
-309.910	113.803	-0.092	-0.111
-308.895	-135.632	-0.281	0.033
-307.880	800.000	0.199	-0.578
-306.866	604.833	-0.054	-0.132
-305.851	788.070	-0.106	0.288
-304.837	-146.431	0.276	0.024
-303.822	-94.299	0.148	-0.040
-302.807	-123.606	-0.139	0.022
-301.793	304.587	0.105	0.194
-300.778	86.456	0.027	0.030
-299.764	-51.794	-0.255	0.118
-298.749	129.993	-0.019	-0.024
-297.735	22.022	0.242	0.195
-296.720	-200.000	0.008	0.150
-295.705	159.075	-0.139	-0.192
-294.691	71.128	-0.173	-0.178
-293.676	385.663	-0.062	0.127
-292.662	47.657	0.114	-0.105
-291.647	489.472	0.100	-0.227
-290.632	-200.000	0.036	0.282
-289.618	-126.445	-0.178	0.026
-288.603	800.000	-0.059	-0.251
-287.589	-200.000	-0.009	0.110
-286.574	-101.370	0.401	0.097
-285.559	14.907	-0.226	-0.175
-284.545	-200.000	0.012	-0.164
-283.530	108.871	0.227	-0.270
-282.516	267.626	-0.121	0.210
-281.501	33.406	0.136	0.117
-280.486	78.185	0.110	-0.116
-279.472	-200.000	0.268	0.000
-278.457	-38.127	-0.249	-0.131
-277.443	-104.293	-0.322	-0.074
-276.428	172.198	0.341	-0.486
-275.413	-68.466	-0.357	-0.137
-274.399	800.000	0.026	0.099
-273.384	-54.580	-0.435	0.195
-272.370	18.879	0.077	0.061
-271.355	-32.785	-0.147	0.081
-270.340	-109.704	0.285	0.060
-269.326	800.000	0.053	-0.167
-268.311	800.000	-0.101	-0.382
-267.297	-113.441	-0.012	-0.002
-266.282	-132.175	-0.114	-0.015
-265.267	753.563	0.019	0.050
-264.253	-122.980	-0.061	0.010
-263.238	120.531	0.082	-0.101
-262.224	-178.852	0.169	-0.004
-261.209	800.000	-0.022	0.093
-260.195	195.186	-0.175	-0.263
-259.180	-51.675	0.231	0.107
-258.165	-165.200	-0.382	-0.017
-257.151	171.684	-0.156	0.222
-256.136	12.430	0.077	-0.059
-255.122	800.000	-0.022	0.082
-254.107	800.000	0.076	-0.224
-253.092	49.331	-0.204	0.190
-252.078	-200.000	-0.063	0.310
-251.063	204.324	0.133	-0.204
-250.049	46.540	0.177	-0.163
-249.034	-43.364	0.086	0.043
-248.019	90.632	-0.211	-0.234
-247.005	268.565	-0.091	-0.158
-245.990	-68.382	0.332	0.128
-244.976	800.000	0.095	0.310
-243.961	800.000	0.032	0.101
-242.946	-184.502	-0.225	-0.004
-241.932	-200.000	0.012	0.085
-240.917	-200.000	0.095	0.000
-239.903	800.000	-0.039	-0.109
-238.888	-200.000	-0.022	0.286
-237.873	4.061	-0.113	0.081
-236.859	398.781	-0.089	-0.184
-235.844	-200.000	-0.002	0.433
-234.830	-65.654	-0.173	-0.068
-233.815	800.000	0.085	0.280
-232.800	340.270	0.070	0.135
-231.786	182.390	-0.202	-0.294
-230.771	-115.172	-0.178	-0.033
-229.757	-123.188	0.018	0.003
-228.742	4.758	0.171	0.124
-227.727	-118.370	-0.205	-0.036
-226.713	-200.000	0.035	-0.195
-225.698	-39.444	-0.284	0.147
-224.684	-152.689	-0.290	0.020
-223.669	67.879	0.127	-0.129
-222.655	-200.000	0.004	0.236
-221.640	60.486	0.024	-0.023
-220.625	355.002	-0.119	-0.235
-219.611	100.033	-0.181	-0.208
-218.596	-109.445	-0.395	-0.083
-217.582	1.505	-0.508	-0.361
-216.567	800.000	-0.067	-0.233
-215.552	-107.732	-0.088	0.019
-214.538	123.717	0.154	-0.192
-213.523	800.000	0.030	-0.100
-212.509	524.559	-0.040	0.092
-211.494	59.776	0.132	0.129
-210.479	-200.000	-0.006	0.229
-209.465	620.498	0.146	-0.363
-208.450	-36.272	0.251	-0.134
-207.436	298.042	0.125	-0.227
-206.421	44.340	0.250	-0.227
-205.406	-146.556	-0.405	-0.035
-204.392	-125.078	0.274	0.042
-203.377	93.275	-0.160	-0.179
-202.363	-200.000	-0.008	-0.058
-201.348	-49.863	-0.365	0.171
-200.333	800.000	-0.032	0.113
-199.319	-38.910	0.132	-0.069
-198.304	-200.000	0.041	0.194
-197.290	19.893	0.036	-0.029
-196.275	29.039	-0.239	0.200
-195.260	800.000	-0.017	-0.069
-194.246	-45.013	-0.097	0.048
-193.231	-100.460	-0.167	0.041
-192.217	121.060	0.271	0.333
-191.202	-170.126	0.358	-0.013
-190.187	29.456	0.119	0.100
-189.173	140.595	-0.106	0.139
-188.158	-87.592	0.127	-0.038
-187.144	35.815	-0.127	0.110
-186.129	93.088	-0.082	-0.091
-185.114	-49.082	-0.187	-0.088
-184.100	-73.927	-0.275	0.099
-183.085	-107.196	0.270	0.059
-182.071	-200.000	-0.014	0.151
-181.056	-200.000	-0.053	-0.273
-180.042	-12.668	0.182	0.117
-179.027	-126.097	-0.176	0.026
-178.012	644.629	0.122	-0.307
-176.998	-35.920	-0.233	0.124
-175.983	-4.800	0.165	-0.112
-174.969	-86.312	-0.326	0.099
-173.954	-73.320	-0.157	0.057
-172.939	-7.000	0.265	-0.178
-171.925	-1.580	-0.071	0.049
-170.910	-112.716	-0.252	-0.049
-169.896	309.594	-0.099	-0.182
-168.881	-8.968	-0.118	0.078
-167.866	-152.233	-0.257	0.018
-166.852	72.479	0.094	0.097
-165.837	-21.589	0.196	0.118
-164.823	111.039	-0.130	0.154
-163.808	-200.000	-0.045	-0.237
-162.793	-200.000	0.036	-0.290
-161.779	-200.000	-0.017	-0.188
-160.764	-17.478	0.075	-0.047
-159.750	556.237	-0.155	0.369
-158.735	800.000	0.069	0.201
-157.720	-42.327	-0.001	0.001
-156.706	-181.744	-0.240	-0.005
-155.691	24.091	-0.236	0.192
-154.677	-155.043	0.167	-0.011
-153.662	-17.663	0.130	-0.080
-152.647	211.158	-0.105	-0.164
-151.633	133.073	0.060	-0.077
-150.618	-200.000	-0.023	0.209
-149.604	-200.000	-0.088	0.437
-148.589	-89.419	0.128	-0.037
-147.574	800.000	-0.157	-0.481
-146.560	-106.539	-0.250	0.055
-145.545	-72.619	-0.566	-0.206
-144.531	800.000	-0.043	-0.157
-143.516	58.969	-0.081	0.078
-142.502	-15.090	0.265	0.167
-141.487	250.292	0.155	0.260
-140.472	-96.826	-0.201	0.052
-139.458	-56.183	-0.059	-0.026
-138.443	-32.912	-0.175	0.096
-137.429	-119.128	-0.331	0.057
-136.414	-200.000	0.076	0.455
-135.399	-112.200	-0.110	0.022
-134.385	9.939	-0.146	-0.109
-133.370	-200.000	-0.020	0.104
-132.356	-174.089	-0.158	-0.005
-131.341	-45.183	0.111	0.054
-130.326	559.646	-0.114	0.270
-129.312	-66.625	0.114	0.045
-128.297	42.701	0.207	0.186
-127.283	-56.037	-0.088	-0.039
-126.268	-14.682	-0.133	0.084
-125.253	-200.000	-0.038	-0.301
-124.239	7.669	0.157	-0.115
-123.224	-14.976	0.251	0.158
-122.210	-77.312	0.373	0.128
-121.195	800.000	0.125	0.344
