DTS Sentinel unit serial number:	SN413079Multiplexer serial number:	ORYXHardware model number:	OX4-SRSoftware version number:	ORYX F/W v4.00 Oryx Data Collector v3.7.2.0data status	okinstallation	princeton_trtdifferential loss correction	single-endedforward channel	channel 3reverse channel	N/Adate	2019/09/14time	16:52:35forward acquisition time	60.00reverse acquisition time	0.00gamma	496.2192k internal	0.2294k external	0.2294temperature offset calibration	1.0034default loss term (dB/km)	0.3790temperature slope calibration	1.0000multiplexer offset coefficient	1.0000multiplexer slope coefficient	1.0000fibre end	0.00T internal ref (°C)	38.00T ext. ref 1 (°C)	4.99T ext. ref 2 (°C)	33.62length (m)	temperature (°C)	Stokes	anti-Stokes-747.200	800.000	-0.041	0.178
-746.185	-88.109	0.393	0.121
-745.171	-200.000	-0.008	0.118
-744.156	127.602	-0.201	0.261
-743.142	46.871	-0.120	-0.114
-742.127	-15.899	-0.271	0.176
-741.112	-200.000	-0.006	0.168
-740.098	10.104	0.236	0.183
-739.083	118.099	0.131	0.165
-738.069	-200.000	0.062	0.322
-737.054	-47.885	0.139	0.069
-736.039	-8.444	-0.104	-0.071
-735.025	-19.659	0.268	0.169
-734.010	800.000	0.044	-0.188
-732.996	107.411	-0.219	0.267
-731.981	-166.554	-0.150	0.006
-730.966	-117.623	0.178	-0.033
-729.952	-47.044	0.303	-0.151
-728.937	-40.452	-0.126	-0.067
-727.923	-61.062	-0.240	0.103
-726.908	11.323	-0.132	0.103
-725.894	-118.904	0.086	-0.015
-724.879	112.309	-0.031	-0.039
-723.864	800.000	0.048	-0.167
-722.850	577.576	-0.169	0.422
-721.835	-165.046	-0.176	0.008
-720.821	110.739	-0.209	0.257
-719.806	800.000	-0.013	-0.042
-718.791	-53.426	-0.144	0.068
-717.777	59.397	-0.059	0.059
-716.762	-157.297	-0.160	-0.010
-715.748	132.163	0.125	-0.164
-714.733	-200.000	0.008	-0.105
-713.718	800.000	-0.007	0.027
-712.704	-0.559	-0.373	-0.270
-711.689	-200.000	0.032	-0.223
-710.675	-109.319	-0.086	-0.019
-709.660	-132.613	-0.153	-0.020
-708.645	131.151	0.070	0.092
-707.631	379.817	-0.151	0.316
-706.616	-89.193	-0.075	0.023
-705.602	70.039	0.236	0.248
-704.587	-159.799	0.200	-0.011
-703.572	-34.067	0.087	0.049
-702.558	33.456	-0.203	-0.180
-701.543	-100.606	-0.306	0.077
-700.529	30.173	0.250	0.217
-699.514	624.358	-0.022	0.057
-698.499	800.000	-0.050	-0.220
-697.485	-10.233	-0.065	-0.044
-696.470	-35.174	-0.113	0.063
-695.456	-0.699	0.093	-0.067
-694.441	800.000	-0.125	0.370
-693.426	-76.010	0.283	-0.102
-692.412	-98.593	-0.211	0.055
-691.397	800.000	0.010	-0.044
-690.383	174.497	0.154	0.228
-689.368	-75.915	-0.210	0.076
-688.354	800.000	0.040	0.133
-687.339	69.755	-0.096	0.101
-686.324	-200.000	0.025	-0.133
-685.310	-89.045	-0.087	0.026
-684.295	-76.648	0.179	-0.064
-683.281	-76.474	-0.422	-0.151
-682.266	-200.000	0.021	0.118
-681.251	-125.828	0.064	-0.010
-680.237	-105.743	-0.193	-0.045
-679.222	-169.389	0.210	-0.008
-678.208	339.569	-0.023	0.046
-677.193	270.831	0.137	-0.246
-676.178	-200.000	-0.042	0.213
-675.164	-200.000	-0.007	-0.069
-674.149	-200.000	0.018	0.229
-673.135	-92.900	-0.136	-0.039
-672.120	-143.913	0.338	0.033
-671.105	-200.000	-0.003	0.086
-670.091	44.644	-0.168	0.157
-669.076	117.765	0.267	0.336
-668.062	16.649	-0.235	-0.189
-667.047	-57.443	0.267	-0.120
-666.032	112.302	0.125	-0.154
-665.018	-29.367	-0.136	-0.080
-664.003	47.628	-0.131	-0.124
-662.989	-200.000	0.226	0.001
-661.974	133.892	0.126	-0.167
-660.959	-200.000	-0.033	0.267
-659.945	-80.687	0.277	0.094
-658.930	-113.705	-0.223	-0.044
-657.916	124.619	0.147	-0.188
-656.901	-37.980	-0.277	0.150
-655.886	8.462	0.277	-0.212
-654.872	-200.000	-0.030	0.211
-653.857	135.686	-0.218	0.289
-652.843	134.576	-0.099	-0.131
-651.828	-57.910	-0.172	-0.077
-650.814	-200.000	0.030	0.193
-649.799	131.913	-0.080	-0.105
-648.784	-90.338	-0.407	0.120
-647.770	-79.681	-0.116	0.040
-646.755	69.884	0.209	-0.220
-645.741	800.000	-0.145	-0.527
-644.726	135.057	0.148	0.196
-643.711	577.979	-0.125	-0.312
-642.697	66.725	0.148	0.153
-641.682	534.320	-0.125	-0.302
-640.668	-95.961	-0.443	0.120
-639.653	290.929	0.054	-0.100
-638.638	22.161	-0.151	0.125
-637.624	11.826	-0.089	-0.069
-636.609	-200.000	0.009	-0.058
-635.595	612.658	-0.031	0.080
-634.580	220.548	0.043	0.069
-633.565	-10.007	-0.241	0.163
-632.551	-37.214	0.129	0.070
-631.536	30.992	-0.322	-0.281
-630.522	-5.991	0.135	-0.094
-629.507	539.931	0.050	0.120
-628.492	314.189	0.126	0.242
-627.478	137.179	-0.194	0.258
-626.463	308.582	0.038	-0.071
-625.449	96.004	0.134	-0.155
-624.434	202.915	-0.255	0.401
-623.419	287.680	-0.079	0.146
-622.405	136.978	-0.109	0.145
-621.390	800.000	-0.084	-0.299
-620.376	800.000	-0.077	0.223
-619.361	-82.440	0.259	-0.086
-618.346	-87.992	-0.101	0.031
-617.332	55.517	0.192	-0.189
-616.317	-15.306	-0.191	0.124
-615.303	-115.889	-0.108	-0.020
-614.288	-162.543	-0.343	-0.017
-613.273	122.119	-0.049	-0.063
-612.259	440.088	0.096	-0.213
-611.244	-112.285	-0.029	-0.006
-610.230	11.816	0.345	0.269
-609.215	585.190	-0.143	-0.357
-608.201	-83.801	0.150	-0.049
-607.186	-175.434	0.311	0.009
-606.171	-75.850	0.092	-0.033
-605.157	-200.000	0.021	0.412
-604.142	-79.341	0.257	-0.089
-603.128	425.383	-0.051	-0.112
-602.113	800.000	-0.014	0.056
-601.098	615.984	-0.060	0.153
-600.084	800.000	-0.093	0.311
-599.069	300.929	0.074	-0.139
-598.055	366.306	0.070	-0.143
-597.040	-166.436	-0.501	-0.021
-596.025	800.000	-0.017	-0.048
-595.011	12.701	-0.079	0.062
-593.996	-65.771	-0.310	0.126
-592.982	-96.030	-0.285	0.077
-591.967	800.000	0.037	-0.110
-590.952	-108.124	-0.156	0.034
-589.938	130.861	0.077	0.100
-588.923	-100.716	0.063	0.016
-587.909	0.532	-0.097	-0.070
-586.894	-200.000	-0.031	-0.228
-585.879	-55.385	0.053	0.024
-584.865	553.023	0.119	-0.290
-583.850	-200.000	-0.063	-0.415
-582.836	539.643	0.051	-0.123
-581.821	-200.000	0.004	0.275
-580.806	-200.000	0.011	0.438
-579.792	105.589	0.012	0.015
-578.777	-46.373	-0.313	0.156
-577.763	-5.573	0.113	0.079
-576.748	253.519	0.057	0.099
-575.733	279.711	0.173	-0.313
-574.719	800.000	0.024	-0.097
-573.704	-200.000	-0.015	-0.068
-572.690	28.767	0.120	0.103
-571.675	32.435	0.068	0.060
-570.661	-69.058	0.261	0.102
-569.646	800.000	-0.096	-0.314
-568.631	131.783	-0.126	-0.164
-567.617	800.000	-0.064	-0.185
-566.602	-107.305	0.121	-0.027
-565.588	146.768	0.148	-0.202
-564.573	14.271	-0.314	0.248
-563.558	-26.555	-0.024	-0.014
-562.544	485.747	-0.132	-0.306
-561.529	782.401	-0.109	0.302
-560.515	-186.499	0.514	0.007
-559.500	-68.796	-0.301	-0.118
-558.485	-175.355	-0.486	0.014
-557.471	71.565	0.173	0.182
-556.456	800.000	-0.036	-0.138
-555.442	282.104	0.092	-0.168
-554.427	80.899	-0.274	-0.300
-553.412	800.000	-0.096	-0.293
-552.398	785.724	0.096	-0.267
-551.383	-173.314	-0.293	0.009
-550.369	-200.000	-0.031	-0.343
-549.354	320.847	0.075	0.145
-548.339	-200.000	0.056	0.376
-547.325	-96.211	0.140	-0.038
-546.310	-9.127	0.333	0.226
-545.296	800.000	0.058	0.238
-544.281	-200.000	0.031	-0.327
-543.266	-200.000	-0.066	0.335
-542.252	285.486	-0.164	0.300
-541.237	1.523	0.220	-0.161
-540.223	-111.652	0.239	-0.049
-539.208	-200.000	-0.018	-0.126
-538.193	-142.345	0.542	-0.054
-537.179	-200.000	-0.042	0.226
-536.164	-65.375	0.231	-0.094
-535.150	-145.414	-0.206	0.019
-534.135	12.234	-0.181	0.141
-533.121	-200.000	-0.055	0.492
-532.106	-71.562	-0.101	-0.038
-531.091	122.051	0.216	-0.273
-530.077	-200.000	0.030	0.193
-529.062	-54.752	-0.268	0.123
-528.048	263.277	0.216	0.380
-527.033	28.729	-0.158	0.135
-526.018	800.000	0.008	-0.029
-525.004	-200.000	0.003	0.476
-523.989	459.196	-0.011	0.025
-522.975	11.733	0.412	-0.321
-521.960	-101.795	-0.146	0.036
-520.945	63.970	0.203	0.207
-519.931	800.000	0.068	0.293
-518.916	-153.473	0.089	-0.006
-517.902	-117.395	0.058	0.011
-516.887	34.446	0.150	0.133
-515.872	61.910	-0.318	0.321
-514.858	-38.263	0.179	0.096
-513.843	-200.000	0.018	0.091
-512.829	28.686	-0.243	-0.208
-511.814	169.283	0.142	0.205
-510.799	800.000	0.039	0.124
-509.785	-59.805	0.288	-0.125
-508.770	-109.572	0.135	-0.029
-507.756	-123.148	0.289	0.047
-506.741	-51.618	-0.226	-0.107
-505.726	-72.655	-0.160	-0.060
-504.712	-90.138	-0.246	0.073
-503.697	-200.000	-0.036	0.221
-502.683	-200.000	0.007	-0.084
-501.668	154.526	-0.085	0.119
-500.653	2.146	-0.267	0.196
-499.639	-52.815	0.144	-0.067
-498.624	82.789	0.080	0.088
-497.610	78.727	-0.327	0.354
-496.595	-189.995	0.170	-0.002
-495.581	74.123	0.200	0.213
-494.566	800.000	-0.123	-0.358
-493.551	800.000	-0.106	-0.402
-492.537	-200.000	0.016	0.076
-491.522	800.000	-0.105	-0.402
-490.508	-200.000	-0.029	-0.439
-489.493	-129.442	-0.517	-0.073
-488.478	-200.000	-0.016	0.090
-487.464	-200.000	0.028	-0.137
-486.449	-126.474	0.268	-0.040
-485.435	61.566	-0.222	-0.224
-484.420	328.108	-0.044	0.085
-483.405	309.745	-0.159	-0.300
-482.391	215.757	-0.165	-0.265
-481.376	-200.000	-0.042	0.252
-480.362	34.409	0.213	0.188
-479.347	-200.000	-0.023	0.116
-478.332	-200.000	-0.025	0.318
-477.318	800.000	-0.141	-0.510
-476.303	-85.139	0.014	0.004
-475.289	-177.767	-0.208	0.005
-474.274	30.328	-0.234	-0.202
-473.259	82.018	-0.089	-0.097
-472.245	-28.217	-0.205	0.120
-471.230	-73.469	0.063	0.023
-470.216	111.102	-0.087	-0.106
-469.201	88.685	-0.026	0.030
-468.186	326.911	0.138	-0.268
-467.172	93.353	0.056	-0.064
-466.157	370.514	0.067	0.138
-465.143	610.763	-0.152	-0.383
-464.128	-181.125	-0.470	-0.009
-463.113	-165.514	0.309	-0.014
-462.099	747.712	-0.069	0.187
-461.084	196.522	0.012	-0.019
-460.070	-200.000	0.041	0.273
-459.055	604.594	-0.044	0.111
-458.040	-34.003	0.587	0.327
-457.026	243.280	0.056	-0.096
-456.011	-110.958	-0.203	0.042
-454.997	-145.821	0.077	-0.007
-453.982	298.962	0.191	-0.356
-452.968	-22.831	0.200	-0.122
-451.953	-200.000	0.072	0.455
-450.938	263.669	0.235	0.414
-449.924	-194.076	-0.036	0.000
-448.909	-164.854	0.096	0.004
-447.895	-152.847	-0.329	-0.024
-446.880	198.765	0.057	-0.088
-445.865	-33.787	-0.190	0.106
-444.851	-131.144	0.270	-0.036
-443.836	11.956	0.397	-0.309
-442.822	57.372	0.154	0.152
-441.807	109.021	0.118	-0.142
-440.792	-83.325	-0.465	0.151
-439.778	-123.662	0.287	0.046
-438.763	-64.906	0.241	-0.099
-437.749	376.422	0.161	0.332
-436.734	-116.543	-0.093	-0.017
-435.719	800.000	-0.058	-0.165
-434.705	-38.088	-0.163	0.087
-433.690	-200.000	-0.006	-0.037
-432.676	-91.903	-0.213	-0.061
-431.661	-200.000	-0.012	-0.188
-430.646	800.000	0.067	-0.254
-429.632	-81.522	0.245	-0.081
-428.617	800.000	0.045	-0.151
-427.603	-55.858	-0.194	0.088
-426.588	-150.290	-0.329	-0.026
-425.573	200.701	-0.175	0.272
-424.559	-56.911	0.097	-0.043
-423.544	-47.540	-0.105	-0.052
-422.530	-126.694	-0.273	0.041
-421.515	-60.544	0.126	-0.054
-420.500	0.031	0.134	-0.097
-419.486	-153.337	0.131	0.009
-418.471	213.720	0.074	0.118
-417.457	-86.899	-0.252	0.078
-416.442	-200.000	-0.008	-0.073
-415.428	-122.459	-0.078	-0.013
-414.413	12.089	0.259	-0.201
-413.398	112.372	0.036	0.044
-412.384	104.052	-0.055	-0.065
-411.369	-12.491	0.189	0.125
-410.355	800.000	0.024	-0.096
-409.340	800.000	-0.022	0.091
-408.325	27.513	0.166	0.141
-407.311	325.559	-0.079	0.152
-406.296	-72.722	0.290	0.108
-405.282	-2.921	-0.328	-0.231
-404.267	-44.458	-0.067	0.034
-403.252	255.790	0.051	-0.089
-402.238	-154.395	0.217	0.015
-401.223	-88.691	-0.216	0.065
-400.209	-122.800	0.400	0.065
-399.194	201.368	-0.128	-0.200
-398.179	800.000	0.077	0.271
-397.165	128.218	0.027	0.035
-396.150	-76.294	0.190	0.068
-395.136	-132.482	0.040	0.005
-394.121	-194.559	0.171	0.001
-393.106	-40.643	-0.160	0.084
-392.092	-151.174	0.338	0.026
-391.077	29.667	-0.045	0.039
-390.063	-92.796	0.384	0.108
-389.048	-153.845	0.254	-0.017
-388.033	49.983	-0.076	0.072
-387.019	79.160	0.025	-0.027
-386.004	217.778	0.226	-0.364
-384.990	800.000	-0.080	-0.281
-383.975	-200.000	-0.075	0.342
-382.960	-65.170	0.260	-0.106
-381.946	800.000	0.026	0.108
-380.931	78.982	-0.100	0.108
-379.917	800.000	0.044	-0.165
-378.902	15.872	-0.259	0.206
-377.888	213.864	-0.184	-0.293
-376.873	650.898	0.159	-0.411
-375.858	282.052	-0.004	0.008
-374.844	317.127	-0.120	0.229
-373.829	84.722	0.221	0.243
-372.815	73.945	-0.108	-0.114
-371.800	-113.875	-0.315	0.062
-370.785	162.223	-0.093	0.131
-369.771	54.247	-0.144	-0.140
-368.756	518.762	-0.087	0.206
-367.742	-115.561	-0.249	0.047
-366.727	375.844	0.064	0.131
-365.712	395.424	-0.129	0.270
-364.698	-145.142	0.242	-0.022
-363.683	-10.552	0.396	0.264
-362.669	-23.045	-0.253	-0.153
-361.654	-119.571	-0.193	-0.034
-360.639	-61.893	0.130	-0.055
-359.625	-52.587	-0.318	0.148
-358.610	-92.643	0.104	-0.030
-357.596	-200.000	-0.065	0.368
-356.581	406.932	-0.141	0.300
-355.566	-15.729	-0.169	0.109
-354.552	288.965	0.079	-0.144
-353.537	738.208	0.119	0.321
-352.523	515.223	-0.110	0.258
-351.508	-24.112	0.151	0.091
-350.493	74.769	0.266	-0.282
-349.479	800.000	0.037	-0.108
-348.464	-46.508	-0.353	-0.174
-347.450	-68.407	0.261	-0.102
-346.435	-200.000	0.052	-0.400
-345.420	-89.148	0.477	-0.142
-344.406	464.428	0.097	-0.219
-343.391	49.997	0.117	0.112
-342.377	175.134	0.146	0.214
-341.362	158.012	-0.114	0.159
-340.348	49.947	-0.133	0.126
-339.333	800.000	-0.072	-0.238
-338.318	563.548	-0.142	0.345
-337.304	-159.346	-0.288	0.016
-336.289	67.550	-0.190	0.196
-335.275	-49.934	0.245	-0.117
-334.260	800.000	-0.076	0.276
-333.245	514.602	-0.005	0.012
-332.231	-200.000	-0.035	-0.500
-331.216	-123.356	0.054	-0.009
-330.202	26.123	0.163	0.137
-329.187	-200.000	-0.050	0.373
-328.172	291.195	0.180	0.329
-327.158	-200.000	-0.029	-0.538
-326.143	-200.000	-0.019	-0.104
-325.129	117.653	0.137	-0.170
-324.114	109.622	-0.115	0.139
-323.099	63.055	0.085	0.086
-322.085	33.968	-0.223	-0.195
-321.070	800.000	0.116	-0.334
-320.056	-30.004	-0.083	0.048
-319.041	30.448	-0.334	-0.287
-318.026	800.000	-0.065	0.234
-317.012	144.413	0.173	0.232
-315.997	-1.770	0.248	-0.176
-314.983	-25.919	0.075	-0.045
-313.968	183.977	0.128	0.191
-312.953	-142.374	-0.073	-0.007
-311.939	-200.000	0.039	0.209
-310.924	-49.438	-0.160	-0.077
-309.910	273.741	0.053	0.094
-308.895	-114.503	0.115	-0.022
-307.880	-200.000	-0.011	-0.282
-306.866	-69.435	-0.418	-0.161
-305.851	800.000	0.072	0.202
-304.837	-200.000	0.017	-0.147
-303.822	800.000	0.068	-0.227
-302.807	568.159	0.124	-0.302
-301.793	300.329	0.036	0.066
-300.778	-200.000	-0.011	-0.097
-299.764	368.205	0.136	-0.277
-298.749	800.000	-0.055	-0.222
-297.735	-58.571	0.342	0.149
-296.720	700.013	0.031	0.082
-295.705	-134.238	0.604	-0.075
-294.691	-79.799	-0.191	0.065
-293.676	-200.000	0.060	-0.457
-292.662	-114.203	0.283	-0.055
-291.647	597.910	-0.076	-0.190
-290.632	668.826	0.068	0.178
-289.618	-200.000	-0.050	-0.371
-288.603	83.243	-0.173	0.189
-287.589	65.297	-0.090	0.091
-286.574	152.838	0.065	0.089
-285.559	-153.136	-0.276	-0.019
-284.545	66.138	-0.086	0.087
-283.530	-200.000	0.079	0.350
-282.516	-126.816	-0.193	0.029
-281.501	-141.444	-0.085	-0.009
-280.486	27.966	-0.105	0.089
-279.472	-155.319	-0.086	-0.006
-278.457	101.104	-0.088	0.103
-277.443	-13.826	-0.266	-0.172
-276.428	-6.249	0.114	-0.078
-275.413	-89.486	0.243	0.072
-274.399	96.109	0.204	-0.234
-273.384	-72.687	0.139	-0.051
-272.370	-97.388	0.199	0.052
-271.355	-91.155	0.185	-0.053
-270.340	-82.857	0.350	-0.113
-269.326	-200.000	-0.010	0.532
-268.311	-129.126	0.128	-0.018
-267.297	696.227	0.070	-0.186
-266.282	-156.345	-0.267	0.017
-265.267	-79.816	-0.460	-0.155
-264.253	82.056	0.227	0.247
-263.238	91.043	0.267	0.301
-262.224	-25.125	-0.423	-0.252
-261.209	117.050	-0.143	0.176
-260.195	43.729	-0.347	0.318
-259.180	395.390	-0.059	-0.124
-258.165	-108.728	0.194	-0.042
-257.151	-85.077	-0.179	-0.056
-256.136	-70.979	0.036	-0.014
-255.122	415.256	-0.157	0.336
-254.107	150.550	-0.424	0.578
-253.092	70.078	-0.120	0.124
-252.078	-200.000	-0.008	0.220
-251.063	-114.422	-0.072	0.014
-250.049	33.565	-0.202	-0.176
-249.034	-41.300	0.212	-0.110
-248.019	-78.268	0.260	-0.090
-247.005	-200.000	0.023	-0.195
-245.990	11.876	0.168	-0.130
-244.976	216.183	0.082	-0.130
-243.961	-200.000	-0.053	0.504
-242.946	-11.776	-0.196	0.129
-241.932	-2.547	-0.280	0.196
-240.917	-31.211	-0.150	0.085
-239.903	-56.806	-0.372	0.165
-238.888	667.370	-0.074	-0.192
-237.873	-200.000	-0.014	0.078
-236.859	275.680	0.162	-0.288
-235.844	800.000	0.093	-0.277
-234.830	17.433	-0.155	0.124
-233.815	-2.774	-0.094	0.066
-232.800	800.000	-0.050	-0.186
-231.786	-200.000	0.008	0.067
-230.771	129.333	0.089	-0.114
-229.757	-129.490	0.467	-0.065
-228.742	-102.920	0.287	0.068
-227.727	-169.846	0.314	0.011
-226.713	-74.531	0.311	-0.112
-225.698	-200.000	0.015	-0.082
-224.684	-85.624	-0.084	-0.026
-223.669	-200.000	-0.002	-0.082
-222.655	-200.000	0.000	-0.043
-221.640	-200.000	-0.083	0.434
-220.625	197.590	-0.094	-0.144
-219.611	-14.749	0.175	-0.113
-218.596	-107.020	-0.303	-0.067
-217.582	800.000	-0.118	0.368
-216.567	-120.144	0.286	-0.049
-215.552	-200.000	0.002	-0.016
-214.538	800.000	0.014	-0.046
-213.523	-200.000	0.012	0.062
-212.509	74.072	-0.295	-0.310
-211.494	38.350	-0.088	-0.079
-210.479	140.165	0.014	-0.018
-209.465	-66.045	-0.252	0.101
-208.450	63.659	0.038	0.038
-207.436	413.184	0.167	-0.356
-206.421	-138.896	0.176	-0.019
-205.406	189.066	-0.084	0.127
-204.392	-83.385	0.123	-0.039
-203.377	-101.192	-0.129	-0.032
-202.363	-200.000	-0.001	0.149
-201.348	-200.000	-0.035	-0.228
-200.333	-200.000	0.008	-0.087
-199.319	210.942	-0.176	0.276
-198.304	56.101	0.103	0.100
-197.290	42.893	-0.262	0.239
-196.275	-89.535	0.160	-0.047
-195.260	800.000	0.061	0.181
-194.246	760.871	-0.072	0.196
-193.231	65.867	0.150	-0.152
-192.217	-174.777	0.205	-0.006
-191.202	-200.000	-0.002	-0.335
-190.187	-57.378	0.113	0.050
-189.173	-104.301	-0.291	-0.068
-188.158	522.015	0.059	-0.140
-187.144	800.000	0.072	0.306
-186.129	-143.703	0.152	-0.014
-185.114	-1.406	-0.234	-0.165
-184.100	-82.033	0.267	0.087
-183.085	800.000	0.010	0.036
-182.071	-149.812	-0.132	-0.010
-181.056	368.087	0.081	-0.164
-180.042	-200.000	-0.061	-0.321
-179.027	56.533	0.234	0.228
-178.012	-200.000	-0.025	-0.200
-176.998	-200.000	-0.029	0.357
-175.983	405.354	-0.074	-0.156
-174.969	-41.799	0.264	-0.136
-173.954	-120.229	-0.167	0.028
-172.939	-17.379	-0.117	-0.074
-171.925	-17.184	0.263	0.166
-170.910	-200.000	-0.009	-0.129
-169.896	800.000	0.067	-0.291
-168.881	800.000	-0.030	0.131
-167.866	170.371	-0.043	0.062
-166.852	174.692	-0.174	0.252
-165.837	-200.000	-0.001	-0.120
-164.823	467.058	-0.064	0.143
-163.808	403.458	-0.048	0.100
-162.793	-200.000	-0.065	-0.345
-161.779	94.196	0.164	-0.186
-160.764	95.821	0.219	0.250
-159.750	319.083	-0.110	-0.207
-158.735	-64.362	0.298	-0.121
-157.720	4.436	-0.072	-0.053
-156.706	4.085	0.354	-0.259
-155.691	11.121	0.156	-0.120
-154.677	8.155	0.138	-0.103
-153.662	42.877	-0.099	-0.090
-152.647	379.971	0.069	0.141
-151.633	-30.285	-0.285	-0.162
-150.618	-200.000	0.036	0.355
-149.604	-154.821	0.061	-0.004
-148.589	-50.599	0.207	0.098
-147.574	14.766	-0.384	0.300
-146.560	91.554	-0.249	0.280
-145.545	29.312	-0.200	0.170
-144.531	-82.246	-0.211	0.069
-143.516	-200.000	0.015	0.147
-142.502	183.344	0.103	0.151
-141.487	247.803	0.179	-0.302
-140.472	-166.379	0.052	-0.002
-139.458	311.787	-0.167	-0.313
-138.443	800.000	-0.083	-0.294
-137.429	89.007	0.028	-0.032
-136.414	52.301	-0.303	-0.289
-135.399	-23.569	-0.178	0.107
-134.385	-70.052	-0.232	0.088
-133.370	-6.488	-0.094	0.064
-132.356	31.178	-0.210	-0.180
-131.341	57.585	-0.278	-0.271
-130.326	173.826	0.190	0.274
-129.312	157.786	-0.214	0.295
-128.297	-62.893	0.124	0.051
-127.283	-200.000	-0.037	-0.187
-126.268	-106.786	-0.313	0.069
-125.253	-1.043	-0.059	-0.042
-124.239	-23.288	-0.017	0.010
-123.224	159.439	-0.199	-0.277
-122.210	244.273	-0.009	0.014
-121.195	-138.950	0.226	0.024
