DTS Sentinel unit serial number:	SN413079Multiplexer serial number:	ORYXHardware model number:	OX4-SRSoftware version number:	ORYX F/W v4.00 Oryx Data Collector v3.7.2.0data status	okinstallation	princeton_trtdifferential loss correction	single-endedforward channel	channel 3reverse channel	N/Adate	2019/09/13time	23:20:34forward acquisition time	60.00reverse acquisition time	0.00gamma	496.2192k internal	0.2339k external	0.2339temperature offset calibration	1.0064default loss term (dB/km)	0.3790temperature slope calibration	1.0000multiplexer offset coefficient	1.0000multiplexer slope coefficient	1.0000fibre end	0.00T internal ref (°C)	27.00T ext. ref 1 (°C)	3.18T ext. ref 2 (°C)	20.93length (m)	temperature (°C)	Stokes	anti-Stokes-747.200	37.192	-0.087	0.077
-746.185	634.612	-0.131	0.334
-745.171	148.891	-0.128	-0.174
-744.156	471.613	-0.031	0.071
-743.142	-20.843	-0.107	0.066
-742.127	-0.328	0.145	-0.103
-741.112	472.690	0.141	-0.318
-740.098	-67.447	-0.178	0.070
-739.083	-200.000	-0.007	-0.095
-738.069	-15.901	-0.323	0.206
-737.054	-139.596	0.207	0.022
-736.039	-9.760	-0.229	-0.153
-735.025	-38.060	0.289	0.154
-734.010	-27.949	-0.232	0.135
-732.996	-94.607	-0.132	0.036
-731.981	-50.605	0.106	0.050
-730.966	-78.314	-0.254	-0.088
-729.952	-119.001	0.017	-0.003
-728.937	-75.220	-0.342	0.122
-727.923	-28.088	-0.214	0.124
-726.908	800.000	-0.078	-0.245
-725.894	-16.110	0.219	0.139
-724.879	-200.000	-0.006	-0.258
-723.864	-200.000	-0.034	-0.194
-722.850	-69.825	-0.148	0.057
-721.835	-200.000	-0.020	0.117
-720.821	-64.389	-0.329	0.134
-719.806	-1.897	0.237	-0.167
-718.791	27.205	-0.429	-0.361
-717.777	202.223	0.138	-0.213
-716.762	-48.741	0.110	-0.053
-715.748	-200.000	-0.037	-0.285
-714.733	123.057	0.172	-0.216
-713.718	-83.240	-0.357	0.115
-712.704	-117.363	-0.366	0.067
-711.689	606.435	0.056	-0.139
-710.675	-31.852	0.107	0.060
-709.660	-200.000	-0.021	0.155
-708.645	31.958	0.100	0.087
-707.631	581.567	-0.197	0.484
-706.616	0.355	-0.149	0.106
-705.602	-200.000	0.002	0.254
-704.587	-200.000	-0.015	-0.251
-703.572	-172.948	-0.061	0.002
-702.558	-153.144	0.104	-0.007
-701.543	293.660	0.214	-0.391
-700.529	106.343	-0.058	0.068
-699.514	800.000	0.062	-0.237
-698.499	445.764	-0.051	-0.112
-697.485	106.690	-0.178	0.211
-696.470	39.261	-0.179	-0.161
-695.456	35.698	0.093	0.082
-694.441	-200.000	0.039	-0.578
-693.426	1.048	0.093	-0.067
-692.412	193.809	-0.237	-0.359
-691.397	-97.740	0.148	0.038
-690.383	96.253	-0.202	0.231
-689.368	61.114	0.075	0.075
-688.354	28.072	-0.181	0.153
-687.339	-11.462	-0.172	-0.113
-686.324	77.463	-0.031	0.033
-685.310	413.226	0.160	-0.341
-684.295	156.713	0.078	-0.108
-683.281	193.872	-0.092	-0.140
-682.266	-200.000	0.003	0.195
-681.251	87.414	0.148	0.164
-680.237	195.795	-0.266	-0.405
-679.222	-200.000	0.010	-0.332
-678.208	800.000	-0.051	0.177
-677.193	32.780	-0.083	0.072
-676.178	212.016	-0.276	-0.435
-675.164	-109.892	0.257	-0.054
-674.149	-67.521	-0.314	0.123
-673.135	-200.000	-0.011	-0.343
-672.120	-154.978	0.155	0.010
-671.105	31.741	-0.218	0.187
-670.091	72.172	-0.317	0.330
-669.076	-54.145	-0.251	0.114
-668.062	65.755	0.103	-0.104
-667.047	91.833	0.116	0.130
-666.032	-200.000	0.022	-0.144
-665.018	315.794	-0.031	-0.059
-664.003	-124.511	0.164	0.025
-662.989	-200.000	0.013	-0.162
-661.974	34.581	0.354	0.309
-660.959	15.635	-0.112	0.088
-659.945	-200.000	-0.009	-0.102
-658.930	151.651	0.024	-0.033
-657.916	310.145	0.046	-0.085
-656.901	800.000	-0.042	-0.134
-655.886	21.701	-0.141	0.114
-654.872	197.696	-0.076	0.115
-653.857	-33.462	0.117	0.065
-652.843	16.498	0.196	0.155
-651.828	-200.000	-0.013	0.090
-650.814	-73.076	0.192	0.070
-649.799	224.488	0.233	-0.376
-648.784	-200.000	0.010	-0.135
-647.770	-144.521	-0.070	-0.006
-646.755	-54.823	-0.162	-0.073
-645.741	129.475	0.246	0.314
-644.726	-111.932	-0.395	-0.080
-643.711	-18.804	0.049	0.030
-642.697	190.813	0.113	-0.170
-641.682	-200.000	0.062	-0.306
-640.668	134.044	0.165	-0.214
-639.653	-35.817	-0.119	-0.065
-638.638	-200.000	-0.037	-0.175
-637.624	-115.433	-0.234	-0.044
-636.609	-47.298	-0.195	-0.095
-635.595	-148.681	0.057	-0.005
-634.580	-200.000	-0.013	-0.113
-633.565	373.284	-0.117	-0.238
-632.551	800.000	-0.117	-0.470
-631.536	800.000	0.091	0.327
-630.522	-200.000	0.004	0.124
-629.507	-200.000	0.042	0.385
-628.492	-106.334	-0.259	0.058
-627.478	-151.096	-0.086	-0.006
-626.463	338.489	-0.106	-0.205
-625.449	18.740	0.101	0.081
-624.434	272.076	0.067	-0.117
-623.419	-146.500	-0.239	-0.021
-622.405	21.466	0.250	-0.203
-621.390	222.841	0.059	0.095
-620.376	-82.279	0.321	-0.104
-619.361	3.612	-0.186	0.135
-618.346	-200.000	-0.042	-0.226
-617.332	-89.595	-0.133	-0.039
-616.317	329.823	0.158	-0.303
-615.303	273.858	0.213	0.377
-614.288	164.287	0.176	-0.248
-613.273	800.000	0.056	-0.157
-612.259	-112.967	0.253	-0.050
-611.244	-154.110	-0.251	0.017
-610.230	66.837	-0.109	0.111
-609.215	-153.329	0.144	-0.010
-608.201	800.000	-0.144	-0.439
-607.186	-200.000	-0.010	0.202
-606.171	-200.000	0.012	-0.296
-605.157	-200.000	-0.006	0.286
-604.142	-7.742	-0.083	0.056
-603.128	-104.137	0.151	-0.035
-602.113	18.179	0.019	-0.015
-601.098	143.539	-0.082	0.110
-600.084	13.332	-0.113	0.088
-599.069	-116.125	-0.140	0.026
-598.055	-7.421	-0.110	-0.075
-597.040	207.054	0.094	0.146
-596.025	-106.191	0.438	-0.098
-595.011	-106.939	-0.043	0.009
-593.996	88.154	0.050	0.055
-592.982	138.879	-0.301	0.395
-591.967	44.032	0.065	-0.059
-590.952	13.637	-0.040	0.031
-589.938	-200.000	-0.031	0.196
-588.923	58.103	0.068	-0.066
-587.909	-200.000	0.012	-0.207
-586.894	-11.549	0.021	-0.014
-585.879	-200.000	0.013	-0.329
-584.865	-88.200	0.208	0.062
-583.850	743.512	0.029	-0.077
-582.836	-200.000	0.016	0.100
-581.821	21.355	-0.361	-0.292
-580.806	-200.000	0.040	-0.395
-579.792	-117.816	-0.172	-0.031
-578.777	-165.441	0.127	-0.006
-577.763	46.341	-0.507	0.469
-576.748	-200.000	-0.050	0.412
-575.733	-71.103	-0.203	0.076
-574.719	-151.721	-0.157	-0.011
-573.704	-138.188	0.201	0.022
-572.690	-19.750	-0.176	-0.109
-571.675	-120.799	-0.140	-0.023
-570.661	800.000	-0.101	0.367
-569.646	-141.118	-0.300	-0.031
-568.631	206.584	-0.134	-0.208
-567.617	-120.528	-0.060	0.010
-566.602	42.745	0.332	0.301
-565.588	633.889	0.023	-0.057
-564.573	-200.000	-0.004	-0.205
-563.558	-38.970	0.257	0.135
-562.544	59.670	-0.132	-0.130
-561.529	-42.243	0.190	0.097
-560.515	78.149	-0.217	0.230
-559.500	-200.000	-0.021	-0.267
-558.485	2.145	0.046	0.033
-557.471	715.922	0.090	-0.237
-556.456	-39.836	-0.115	0.060
-555.442	219.671	0.196	-0.312
-554.427	-167.652	-0.215	-0.009
-553.412	800.000	-0.044	0.158
-552.398	228.072	0.059	0.096
-551.383	114.298	-0.154	0.187
-550.369	-10.101	0.167	-0.110
-549.354	-200.000	-0.035	-0.178
-548.339	348.325	0.051	0.099
-547.325	-59.451	0.298	-0.128
-546.310	38.784	0.183	0.163
-545.296	-49.728	-0.201	-0.095
-544.281	-16.622	0.151	0.095
-543.266	-11.737	-0.212	0.138
-542.252	468.116	0.042	0.094
-541.237	25.529	0.049	0.041
-540.223	199.683	0.052	0.080
-539.208	256.122	-0.036	-0.062
-538.193	-183.334	-0.167	0.003
-537.179	133.086	0.176	-0.226
-536.164	-28.706	0.122	-0.070
-535.150	-200.000	0.024	0.172
-534.135	-83.939	-0.202	-0.064
-533.121	-76.312	0.422	-0.148
-532.106	77.365	-0.221	-0.233
-531.091	-60.339	0.156	-0.066
-530.077	-72.049	-0.213	-0.079
-529.062	-119.947	0.160	-0.027
-528.048	-124.506	0.299	-0.046
-527.033	-200.000	-0.034	0.238
-526.018	-141.353	-0.287	0.029
-525.004	-200.000	0.020	-0.088
-523.989	33.860	-0.082	-0.071
-522.975	-4.408	0.096	-0.066
-521.960	-200.000	-0.009	-0.128
-520.945	742.276	0.058	0.154
-519.931	-25.552	0.143	0.084
-518.916	-200.000	-0.014	-0.137
-517.902	-58.261	-0.502	0.217
-516.887	-153.020	-0.259	-0.018
-515.872	193.697	-0.234	0.353
-514.858	760.527	0.078	0.210
-513.843	33.559	-0.263	0.227
-512.829	-144.313	0.092	-0.008
-511.814	-200.000	0.013	-0.182
-510.799	-117.212	-0.176	-0.032
-509.785	-80.647	-0.236	0.078
-508.770	800.000	-0.110	0.428
-507.756	-200.000	0.074	0.000
-506.741	-200.000	-0.033	0.241
-505.726	800.000	-0.089	-0.353
-504.712	242.984	0.087	0.145
-503.697	-200.000	0.009	0.150
-502.683	-89.146	-0.339	0.099
-501.668	-200.000	-0.021	0.420
-500.653	-110.902	0.300	0.061
-499.639	281.493	-0.063	-0.113
-498.624	-36.043	0.074	0.040
-497.610	-200.000	-0.016	-0.550
-496.595	-62.168	0.203	-0.084
-495.581	-200.000	-0.043	0.190
-494.566	800.000	-0.087	-0.281
-493.551	579.929	-0.067	0.162
-492.537	-200.000	0.003	-0.113
-491.522	129.108	-0.270	0.342
-490.508	218.034	0.064	-0.102
-489.493	133.796	-0.170	-0.219
-488.478	-91.843	-0.093	-0.026
-487.464	-200.000	-0.021	-0.131
-486.449	13.701	-0.219	0.169
-485.435	250.373	-0.085	-0.143
-484.420	103.722	0.157	-0.183
-483.405	800.000	-0.093	-0.315
-482.391	706.294	-0.068	0.178
-481.376	205.363	0.148	-0.229
-480.362	0.192	0.142	-0.100
-479.347	-184.197	0.067	-0.001
-478.332	-87.108	-0.262	-0.079
-477.318	-116.643	-0.334	0.061
-476.303	-200.000	-0.047	0.245
-475.289	7.422	0.288	0.214
-474.274	3.257	0.170	-0.123
-473.259	3.724	-0.138	-0.100
-472.245	-105.886	-0.147	-0.033
-471.230	-10.919	0.127	-0.083
-470.216	800.000	0.104	0.437
-469.201	-1.541	0.050	0.035
-468.186	91.836	-0.129	0.145
-467.172	680.552	-0.093	-0.240
-466.157	563.254	0.093	-0.224
-465.143	227.204	-0.073	-0.117
-464.128	-79.208	-0.205	0.069
-463.113	-200.000	0.005	-0.243
-462.099	-200.000	0.039	0.333
-461.084	2.633	-0.150	-0.108
-460.070	374.213	-0.095	0.193
-459.055	-125.004	-0.358	-0.055
-458.040	800.000	-0.065	-0.209
-457.026	282.748	0.130	0.231
-456.011	-200.000	0.015	-0.115
-454.997	256.815	-0.069	0.118
-453.982	95.073	0.126	-0.143
-452.968	3.032	-0.074	0.053
-451.953	800.000	0.010	0.042
-450.938	16.368	0.112	-0.088
-449.924	606.289	0.115	-0.283
-448.909	-47.123	-0.145	-0.070
-447.895	602.125	-0.013	-0.031
-446.880	269.658	-0.018	0.031
-445.865	127.901	0.239	-0.301
-444.851	-58.662	-0.045	-0.019
-443.836	84.161	-0.143	-0.154
-442.822	-200.000	0.010	-0.326
-441.807	-178.550	-0.251	0.006
-440.792	652.933	0.109	-0.277
-439.778	-94.264	0.370	0.100
-438.763	-72.088	0.129	0.047
-437.749	-200.000	-0.045	0.341
-436.734	11.878	-0.209	-0.159
-435.719	475.427	-0.048	0.108
-434.705	20.315	0.045	-0.036
-433.690	-200.000	0.002	-0.136
-432.676	-200.000	0.053	-0.247
-431.661	226.982	-0.049	-0.078
-430.646	-200.000	-0.013	-0.091
-429.632	-5.780	0.135	0.091
-428.617	5.379	0.204	-0.149
-427.603	-44.168	-0.090	0.045
-426.588	0.264	-0.077	0.055
-425.573	-46.050	-0.463	0.226
-424.559	-97.689	0.229	0.059
-423.544	-148.541	-0.110	0.009
-422.530	-130.813	0.321	-0.043
-421.515	369.567	-0.136	-0.273
-420.500	-102.668	0.514	-0.121
-419.486	272.135	0.102	-0.179
-418.471	-200.000	0.049	-0.217
-417.457	-89.100	-0.327	-0.096
-416.442	-118.266	-0.137	-0.024
-415.428	-127.294	0.215	0.031
-414.413	36.225	0.239	-0.209
-413.398	5.618	0.297	-0.217
-412.384	-200.000	-0.101	-0.490
-411.369	-31.198	-0.374	0.209
-410.355	34.142	0.390	0.337
-409.340	118.836	-0.159	0.194
-408.325	-72.296	0.356	0.131
-407.311	-29.513	0.185	-0.105
-406.296	-21.368	-0.155	0.094
-405.282	-200.000	0.038	0.181
-404.267	-124.056	0.052	-0.008
-403.252	-106.445	-0.333	0.074
-402.238	-10.731	-0.096	-0.063
-401.223	70.020	0.117	0.120
-400.209	-200.000	-0.020	0.165
-399.194	9.130	0.133	0.099
-398.179	-200.000	-0.007	-0.044
-397.165	470.159	0.093	0.207
-396.150	188.924	0.081	0.120
-395.136	-62.735	-0.205	-0.084
-394.121	74.001	-0.072	-0.075
-393.106	-85.187	-0.263	-0.081
-392.092	-200.000	-0.011	-0.200
-391.077	-11.886	0.206	-0.134
-390.063	-76.283	-0.200	0.070
-389.048	-20.482	0.298	0.181
-388.033	770.218	-0.098	0.265
-387.019	297.714	0.077	0.140
-386.004	765.328	0.023	0.062
-384.990	163.705	0.204	-0.285
-383.975	44.222	0.102	-0.093
-382.960	-55.071	-0.120	-0.054
-381.946	-200.000	-0.046	-0.218
-380.931	-23.388	0.159	-0.095
-379.917	-99.144	0.293	-0.073
-378.902	-16.719	0.024	-0.015
-377.888	-12.957	-0.205	0.132
-376.873	-44.660	-0.225	-0.111
-375.858	-200.000	-0.042	0.228
-374.844	440.911	0.068	0.146
-373.829	77.558	-0.084	0.088
-372.815	-31.392	-0.090	0.050
-371.800	666.076	0.139	-0.356
-370.785	77.027	0.154	0.161
-369.771	-59.912	0.235	0.099
-368.756	338.818	-0.149	-0.286
-367.742	489.420	0.039	-0.088
-366.727	-132.559	0.221	-0.028
-365.712	59.974	0.054	-0.053
-364.698	121.998	0.214	-0.264
-363.683	107.853	-0.075	-0.088
-362.669	-16.104	-0.109	0.068
-361.654	29.086	-0.059	-0.050
-360.639	-95.268	-0.197	0.052
-359.625	253.865	0.160	0.270
-358.610	-67.916	0.207	0.080
-357.596	-200.000	0.018	-0.287
-356.581	-68.524	-0.079	0.030
-355.566	5.515	-0.119	0.087
-354.552	-42.388	0.141	0.071
-353.537	800.000	0.077	0.294
-352.523	63.104	-0.112	-0.111
-351.508	60.866	0.115	-0.112
-350.493	-60.635	0.014	-0.006
-349.479	27.124	-0.187	0.155
-348.464	-98.374	0.203	-0.051
-347.450	4.567	0.213	-0.155
-346.435	-200.000	-0.028	0.149
-345.420	-200.000	0.043	0.320
-344.406	-200.000	-0.013	-0.306
-343.391	223.684	0.184	-0.293
-342.377	493.113	0.081	0.183
-341.362	52.610	-0.129	0.122
-340.348	-198.581	-0.288	0.002
-339.333	-200.000	0.041	0.252
-338.318	-200.000	0.000	-0.021
-337.304	-200.000	0.059	0.374
-336.289	-54.804	-0.293	0.131
-335.275	64.150	0.283	0.281
-334.260	-182.481	-0.271	-0.005
-333.245	-34.413	0.522	0.283
-332.231	-6.394	-0.170	-0.115
-331.216	-151.907	0.375	-0.027
-330.202	-41.345	-0.031	0.016
-329.187	43.172	-0.075	0.068
-328.172	-107.203	-0.218	-0.047
-327.158	-200.000	0.004	0.355
-326.143	392.858	0.034	0.069
-325.129	195.702	-0.061	0.092
-324.114	800.000	-0.114	0.401
-323.099	108.930	0.203	-0.240
-322.085	-200.000	-0.035	-0.160
-321.070	-78.931	0.120	-0.040
-320.056	13.674	0.054	-0.042
-319.041	90.026	0.180	0.199
-318.026	48.332	-0.301	0.278
-317.012	297.428	0.028	0.051
-315.997	-39.420	0.188	0.097
-314.983	41.430	-0.191	0.170
-313.968	-142.592	0.459	0.044
-312.953	323.894	0.182	0.343
-311.939	-43.577	-0.521	0.259
-310.924	-120.455	0.226	-0.038
-309.910	242.835	-0.050	0.083
-308.895	566.796	-0.103	-0.246
-307.880	-95.137	0.232	0.062
-306.866	800.000	0.022	-0.074
-305.851	-200.000	0.018	0.274
-304.837	-120.114	-0.219	-0.037
-303.822	17.531	0.184	0.145
-302.807	-63.641	-0.428	-0.173
-301.793	-88.645	-0.345	-0.101
-300.778	167.317	0.074	-0.103
-299.764	-122.772	-0.210	0.033
-298.749	-18.211	0.079	0.049
-297.735	-156.236	-0.209	-0.013
-296.720	297.971	-0.200	-0.363
-295.705	-136.490	-0.228	-0.026
-294.691	-11.117	-0.114	-0.074
-293.676	100.206	0.143	0.163
-292.662	-64.876	0.231	0.092
-291.647	-168.944	-0.186	-0.007
-290.632	202.151	0.228	0.346
-289.618	-16.592	0.326	0.203
-288.603	119.363	0.264	0.322
-287.589	800.000	0.118	0.379
-286.574	129.693	-0.121	0.153
-285.559	-35.406	0.202	0.108
-284.545	-70.587	0.312	-0.116
-283.530	800.000	0.031	-0.094
-282.516	143.331	0.243	-0.318
-281.501	147.869	0.127	0.169
-280.486	467.316	-0.188	-0.416
-279.472	-16.226	-0.182	0.114
-278.457	123.562	-0.061	-0.075
-277.443	-48.347	-0.066	0.031
-276.428	-60.096	0.328	0.138
-275.413	-107.395	0.300	0.065
-274.399	-54.149	0.115	0.051
-273.384	-123.144	0.202	-0.032
-272.370	580.857	-0.071	0.170
-271.355	-124.959	-0.034	-0.005
-270.340	-8.327	-0.415	0.275
-269.326	213.350	0.105	0.163
-268.311	-42.694	-0.157	-0.079
-267.297	-200.000	0.009	0.080
-266.282	364.397	-0.126	0.249
-265.267	477.379	0.063	0.140
-264.253	800.000	0.045	0.124
-263.238	424.322	-0.033	-0.069
-262.224	10.443	-0.120	-0.090
-261.209	-200.000	0.020	-0.180
-260.195	16.202	-0.110	0.085
-259.180	-75.392	-0.293	-0.103
-258.165	800.000	-0.065	-0.183
-257.151	749.743	-0.043	-0.113
-256.136	421.405	-0.123	-0.259
-255.122	169.193	0.118	-0.166
-254.107	166.828	0.185	-0.258
-253.092	-190.394	-0.232	0.002
-252.078	-200.000	-0.031	-0.140
-251.063	-200.000	0.021	0.135
-250.049	800.000	0.019	0.078
-249.034	-27.468	-0.083	0.047
-248.019	80.833	0.178	-0.189
-247.005	-79.422	-0.057	0.019
-245.990	440.399	-0.128	0.275
-244.976	63.823	-0.076	-0.075
-243.961	490.447	0.106	0.239
-242.946	-200.000	0.006	0.058
-241.932	36.624	0.077	-0.067
-240.917	12.311	0.291	0.220
-239.903	-73.276	-0.083	-0.030
-238.888	-47.246	-0.133	0.064
-237.873	131.277	-0.110	0.139
-236.859	800.000	-0.038	-0.112
-235.844	-200.000	-0.033	-0.184
-234.830	-157.548	-0.080	0.005
-233.815	-139.483	-0.201	0.021
-232.800	-14.510	0.194	-0.123
-231.786	-114.943	-0.069	0.013
-230.771	234.126	0.353	0.572
-229.757	281.099	-0.171	-0.300
-228.742	104.055	0.084	0.097
-227.727	-200.000	0.027	0.370
-226.713	4.998	-0.201	-0.145
-225.698	246.772	0.214	0.355
-224.684	-25.602	0.190	0.110
-223.669	84.557	0.191	-0.205
-222.655	791.970	0.029	-0.079
-221.640	89.848	-0.186	-0.204
-220.625	-76.472	0.272	0.094
-219.611	800.000	0.035	-0.122
-218.596	-200.000	0.012	-0.075
-217.582	66.989	-0.075	-0.075
-216.567	74.605	0.258	-0.266
-215.552	526.900	-0.064	-0.148
-214.538	2.688	-0.076	0.054
-213.523	-148.681	-0.062	0.005
-212.509	61.236	-0.287	0.280
-211.494	-200.000	0.001	-0.237
-210.479	-83.110	0.165	-0.052
-209.465	17.682	-0.128	0.100
-208.450	75.251	-0.255	0.264
-207.436	-200.000	-0.021	0.149
-206.421	-200.000	-0.011	0.060
-205.406	800.000	-0.087	-0.318
-204.392	-24.663	0.425	0.248
-203.377	-200.000	-0.010	0.306
-202.363	55.544	0.112	0.107
-201.348	-58.711	0.096	0.041
-200.333	-200.000	0.005	0.059
-199.319	195.263	0.066	-0.098
-198.304	383.676	-0.067	0.136
-197.290	97.629	-0.077	0.087
-196.275	-200.000	0.002	0.148
-195.260	38.339	-0.035	-0.030
-194.246	11.451	0.040	0.030
-193.231	43.359	-0.176	0.158
-192.217	-153.970	0.230	0.015
-191.202	-193.363	-0.148	0.001
-190.187	112.938	-0.347	-0.413
-189.173	-23.674	-0.091	-0.054
-188.158	-107.332	0.287	-0.062
-187.144	-145.172	0.116	0.010
-186.129	9.745	0.304	-0.226
-185.114	334.197	-0.064	-0.122
-184.100	106.688	-0.120	0.139
-183.085	-56.366	0.016	0.007
-182.071	33.300	0.128	0.109
-181.056	72.716	0.045	-0.046
-180.042	14.787	-0.191	0.146
-179.027	756.410	0.070	-0.186
-178.012	-68.250	0.106	0.040
-176.998	-135.776	0.133	-0.015
-175.983	-70.688	-0.071	-0.026
-174.969	-200.000	0.015	0.233
-173.954	-124.700	0.197	-0.030
-172.939	14.808	0.251	-0.193
-171.925	543.574	-0.063	0.147
-170.910	151.929	0.096	-0.128
-169.896	-200.000	-0.001	-0.322
-168.881	-6.218	-0.302	-0.202
-167.866	-179.020	0.438	-0.010
-166.852	-200.000	-0.015	-0.218
-165.837	40.675	-0.201	0.178
-164.823	800.000	-0.035	0.130
-163.808	-200.000	-0.043	-0.187
-162.793	306.032	0.081	-0.147
-161.779	-200.000	-0.009	0.078
-160.764	89.035	0.114	0.125
-159.750	-128.728	0.052	0.007
-158.735	800.000	0.091	-0.312
-157.720	-172.364	-0.085	0.003
-156.706	-95.708	0.233	0.061
-155.691	661.781	0.014	-0.034
-154.677	36.168	-0.338	-0.292
-153.662	593.342	-0.035	-0.086
-152.647	-102.054	0.192	-0.045
-151.633	-200.000	-0.035	0.155
-150.618	4.018	-0.122	0.088
-149.604	800.000	0.050	-0.211
-148.589	800.000	0.042	-0.139
-147.574	800.000	0.021	-0.085
-146.560	-200.000	-0.022	-0.200
-145.545	65.125	-0.349	-0.346
-144.531	249.104	0.208	-0.345
-143.516	-200.000	0.059	-0.383
-142.502	-99.271	-0.123	0.030
-141.487	72.229	-0.208	0.213
-140.472	800.000	0.054	-0.146
-139.458	358.996	-0.033	0.065
-138.443	800.000	0.032	0.108
-137.429	373.023	0.052	0.104
-136.414	-200.000	-0.046	-0.196
-135.399	198.601	0.111	-0.166
-134.385	-200.000	-0.016	0.072
-133.370	70.788	0.088	-0.089
-132.356	-5.618	0.133	-0.090
-131.341	-80.532	0.139	0.045
-130.326	-173.402	-0.132	-0.004
-129.312	-112.958	0.180	0.035
-128.297	144.434	-0.157	0.205
-127.283	-15.545	-0.223	-0.139
-126.268	127.526	0.098	0.122
-125.253	800.000	0.044	-0.139
-124.239	-200.000	-0.006	-0.042
-123.224	-77.768	0.102	0.035
-122.210	-4.832	0.176	0.119
-121.195	-57.310	-0.104	0.045
-120.180	507.754	0.069	0.158
