DTS Sentinel unit serial number:	SN413079Multiplexer serial number:	ORYXHardware model number:	OX4-SRSoftware version number:	ORYX F/W v4.00 Oryx Data Collector v3.7.2.0data status	okinstallation	princeton_trtdifferential loss correction	single-endedforward channel	channel 3reverse channel	N/Adate	2019/09/13time	06:20:35forward acquisition time	60.00reverse acquisition time	0.00gamma	496.2192k internal	0.2339k external	0.2339temperature offset calibration	1.0133default loss term (dB/km)	0.3790temperature slope calibration	1.0000multiplexer offset coefficient	1.0000multiplexer slope coefficient	1.0000fibre end	0.00T internal ref (°C)	26.12T ext. ref 1 (°C)	4.10T ext. ref 2 (°C)	20.82length (m)	temperature (°C)	Stokes	anti-Stokes-747.200	189.458	0.189	0.284
-746.185	-9.741	-0.376	0.251
-745.171	-200.000	-0.016	0.267
-744.156	-111.358	-0.257	-0.052
-743.142	467.132	-0.050	0.112
-742.127	-107.952	-0.205	-0.045
-741.112	-200.000	-0.015	0.079
-740.098	800.000	-0.129	0.397
-739.083	800.000	0.045	0.177
-738.069	359.635	-0.185	0.371
-737.054	470.066	-0.183	-0.413
-736.039	294.095	-0.072	-0.132
-735.025	56.863	-0.233	0.228
-734.010	-200.000	0.007	0.158
-732.996	-200.000	0.012	-0.082
-731.981	-200.000	-0.294	-0.001
-730.966	-132.348	-0.198	0.026
-729.952	-200.000	0.042	0.364
-728.937	-200.000	0.022	0.385
-727.923	-59.463	-0.163	-0.070
-726.908	-65.035	-0.180	0.073
-725.894	-183.496	-0.265	-0.005
-724.879	293.374	-0.114	0.209
-723.864	-0.260	-0.273	0.195
-722.850	-68.688	-0.222	0.086
-721.835	-33.336	0.309	0.172
-720.821	-18.643	0.079	0.049
-719.806	-181.375	0.474	-0.009
-718.791	800.000	-0.021	0.085
-717.777	183.185	-0.176	0.261
-716.762	554.359	-0.048	-0.114
-715.748	81.248	0.125	0.136
-714.733	-22.811	0.052	0.031
-713.718	341.508	-0.016	-0.032
-712.704	221.841	-0.162	0.261
-711.689	-200.000	0.015	0.354
-710.675	-121.340	0.045	0.008
-709.660	-111.832	0.103	0.021
-708.645	481.734	-0.072	0.164
-707.631	-146.173	-0.165	-0.015
-706.616	-77.386	-0.098	-0.034
-705.602	-200.000	-0.003	-0.078
-704.587	105.586	0.119	-0.141
-703.572	-200.000	0.013	-0.105
-702.558	-66.852	-0.243	0.096
-701.543	-108.232	-0.144	-0.031
-700.529	2.447	0.193	0.140
-699.514	-149.546	-0.331	-0.026
-698.499	-83.381	-0.172	0.055
-697.485	83.115	-0.105	-0.114
-696.470	-200.000	-0.054	0.303
-695.456	800.000	-0.115	0.343
-694.441	-200.000	0.045	-0.225
-693.426	-93.892	0.439	-0.121
-692.412	800.000	-0.119	-0.358
-691.397	199.357	-0.038	0.058
-690.383	-139.901	-0.419	0.044
-689.368	743.592	0.045	-0.121
-688.354	-200.000	0.034	-0.197
-687.339	-200.000	0.055	-0.395
-686.324	-200.000	0.031	-0.182
-685.310	379.921	-0.129	-0.264
-684.295	2.063	-0.266	-0.193
-683.281	-200.000	-0.045	-0.221
-682.266	800.000	0.021	0.070
-681.251	-200.000	0.015	0.139
-680.237	154.889	0.117	0.161
-679.222	-104.217	-0.267	0.062
-678.208	-66.029	-0.151	0.060
-677.193	8.004	-0.123	0.093
-676.178	-83.683	0.217	0.069
-675.164	-200.000	-0.058	0.325
-674.149	-154.878	-0.364	-0.024
-673.135	112.448	-0.148	0.179
-672.120	138.440	-0.204	-0.268
-671.105	176.023	-0.082	0.120
-670.091	14.157	0.143	0.111
-669.076	340.458	-0.147	-0.288
-668.062	800.000	-0.085	0.241
-667.047	-181.107	0.349	0.007
-666.032	-88.148	-0.186	0.056
-665.018	-79.368	-0.347	-0.117
-664.003	104.882	-0.066	0.078
-662.989	-200.000	0.039	0.263
-661.974	21.611	-0.217	-0.176
-660.959	79.329	-0.204	0.219
-659.945	15.161	-0.198	0.155
-658.930	143.883	0.191	0.254
-657.916	800.000	0.010	0.040
-656.901	41.062	0.284	-0.257
-655.886	-77.305	-0.443	-0.154
-654.872	-53.414	0.131	0.060
-653.857	-47.658	-0.220	0.107
-652.843	251.564	-0.155	-0.264
-651.828	-200.000	-0.049	-0.364
-650.814	-200.000	-0.008	-0.139
-649.799	-48.167	-0.327	-0.158
-648.784	-77.048	-0.268	-0.093
-647.770	-101.753	-0.286	-0.069
-646.755	-105.436	-0.164	-0.037
-645.741	800.000	-0.014	-0.059
-644.726	-6.652	-0.122	-0.083
-643.711	-144.378	0.155	0.014
-642.697	-15.551	0.023	-0.015
-641.682	800.000	0.065	-0.285
-640.668	97.122	-0.215	0.247
-639.653	-133.020	0.055	0.007
-638.638	800.000	0.043	0.184
-637.624	-51.838	-0.173	0.080
-636.609	-93.028	0.164	0.046
-635.595	351.042	0.052	-0.103
-634.580	-19.150	-0.065	-0.040
-633.565	39.197	-0.023	0.020
-632.551	-127.542	-0.105	-0.015
-631.536	47.013	-0.142	-0.132
-630.522	-38.671	-0.170	0.089
-629.507	408.765	-0.027	-0.057
-628.492	-200.000	0.031	0.209
-627.478	-84.233	-0.174	0.055
-626.463	55.566	-0.111	-0.108
-625.449	-158.066	0.078	0.005
-624.434	800.000	0.023	0.093
-623.419	157.063	0.172	-0.237
-622.405	-200.000	-0.003	-0.122
-621.390	-200.000	0.021	-0.126
-620.376	-44.709	0.097	0.048
-619.361	-72.522	-0.245	0.090
-618.346	-122.288	0.440	0.072
-617.332	800.000	-0.045	0.184
-616.317	-185.243	0.269	0.004
-615.303	-125.094	0.239	0.037
-614.288	632.676	-0.052	-0.132
-613.273	-61.596	-0.060	-0.025
-612.259	-7.374	0.131	0.089
-611.244	97.808	-0.124	0.142
-610.230	14.273	0.055	-0.043
-609.215	81.753	0.091	-0.099
-608.201	-87.128	-0.293	-0.089
-607.186	-11.212	-0.148	-0.097
-606.171	-42.641	0.253	0.129
-605.157	83.000	0.218	0.236
-604.142	161.299	-0.110	-0.153
-603.128	-69.429	-0.198	0.076
-602.113	739.311	0.020	-0.052
-601.098	464.052	-0.097	-0.217
-600.084	-200.000	0.065	-0.327
-599.069	62.353	-0.115	-0.114
-598.055	-120.325	-0.151	-0.026
-597.040	243.617	-0.081	0.135
-596.025	-121.992	0.251	-0.041
-595.011	667.093	0.110	-0.284
-593.996	-200.000	-0.014	-0.141
-592.982	119.812	-0.048	0.059
-591.967	-200.000	-0.026	-0.184
-590.952	-200.000	0.002	-0.590
-589.938	0.395	0.244	-0.174
-588.923	280.560	-0.091	-0.163
-587.909	-200.000	-0.012	0.067
-586.894	800.000	-0.073	-0.307
-585.879	38.529	0.090	-0.080
-584.865	-200.000	0.038	0.399
-583.850	-200.000	-0.012	0.252
-582.836	800.000	0.040	0.141
-581.821	-200.000	0.037	0.243
-580.806	-200.000	-0.054	-0.297
-579.792	-140.723	0.325	0.034
-578.777	79.366	0.165	-0.176
-577.763	-85.473	0.056	0.018
-576.748	-200.000	-0.029	-0.256
-575.733	-169.590	0.147	-0.005
-574.719	-74.334	-0.124	0.044
-573.704	800.000	0.048	-0.154
-572.690	-200.000	-0.014	-0.382
-571.675	58.675	-0.144	-0.141
-570.661	-136.450	-0.041	-0.005
-569.646	800.000	0.077	-0.247
-568.631	800.000	-0.063	-0.219
-567.617	-96.424	-0.109	-0.029
-566.602	-11.240	0.068	-0.044
-565.588	-18.684	0.170	-0.106
-564.573	37.950	0.220	0.195
-563.558	-200.000	-0.028	0.136
-562.544	-119.524	0.086	0.015
-561.529	237.682	-0.033	0.055
-560.515	800.000	0.112	-0.327
-559.500	-200.000	0.023	0.218
-558.485	-69.233	-0.178	0.068
-557.471	303.375	0.066	-0.123
-556.456	54.891	0.294	0.283
-555.442	-57.795	-0.153	0.067
-554.427	-56.381	0.297	-0.131
-553.412	2.453	-0.117	-0.085
-552.398	189.404	0.046	-0.069
-551.383	-200.000	0.049	0.326
-550.369	-200.000	-0.024	0.156
-549.354	39.034	-0.149	-0.133
-548.339	66.650	-0.068	-0.069
-547.325	800.000	0.149	0.515
-546.310	-98.494	0.253	0.064
-545.296	64.359	-0.130	0.131
-544.281	-157.934	0.224	0.013
-543.266	-60.141	0.164	-0.070
-542.252	136.601	-0.123	0.160
-541.237	60.147	0.205	0.201
-540.223	429.046	-0.029	-0.062
-539.208	122.475	-0.176	0.219
-538.193	-160.560	-0.363	-0.019
-537.179	-85.826	-0.277	-0.085
-536.164	-150.332	0.223	-0.017
-535.150	-200.000	-0.022	0.105
-534.135	800.000	0.062	0.232
-533.121	-200.000	0.039	0.186
-532.106	99.289	-0.235	0.270
-531.091	-77.585	-0.223	0.077
-530.077	74.071	-0.154	0.160
-529.062	-32.173	-0.123	-0.069
-528.048	31.038	0.159	-0.135
-527.033	800.000	-0.066	-0.188
-526.018	-55.172	0.242	0.108
-525.004	481.590	-0.235	-0.530
-523.989	-27.965	0.192	-0.111
-522.975	800.000	-0.047	0.175
-521.960	-23.332	-0.088	0.052
-520.945	297.044	0.060	0.109
-519.931	-161.251	0.170	-0.009
-518.916	83.210	-0.250	0.271
-517.902	124.039	0.304	-0.380
-516.887	800.000	0.046	-0.176
-515.872	-165.169	0.172	-0.008
-514.858	85.091	0.241	-0.263
-513.843	26.550	-0.146	0.121
-512.829	183.599	0.283	0.416
-511.814	800.000	-0.048	0.180
-510.799	146.420	-0.100	-0.134
-509.785	96.406	0.090	-0.102
-508.770	-113.028	0.240	-0.047
-507.756	-91.614	-0.213	-0.060
-506.741	800.000	-0.052	-0.217
-505.726	17.126	0.324	-0.256
-504.712	93.465	0.108	0.121
-503.697	14.207	-0.233	-0.181
-502.683	225.924	-0.091	-0.147
-501.668	320.822	0.111	0.209
-500.653	800.000	0.085	0.347
-499.639	-70.620	0.033	0.012
-498.624	273.619	-0.053	0.094
-497.610	-200.000	-0.043	0.326
-496.595	226.844	-0.232	0.375
-495.581	20.633	0.187	-0.151
-494.566	-161.931	0.080	-0.004
-493.551	-92.869	0.083	0.023
-492.537	-186.280	-0.165	0.002
-491.522	800.000	-0.007	0.019
-490.508	-200.000	0.018	0.312
-489.493	143.376	-0.115	-0.151
-488.478	-200.000	0.008	-0.116
-487.464	-200.000	-0.033	0.243
-486.449	172.381	-0.243	0.348
-485.435	-200.000	0.015	0.297
-484.420	-19.455	0.136	0.084
-483.405	-21.049	0.074	0.045
-482.391	-79.584	0.298	-0.100
-481.376	242.766	0.034	0.057
-480.362	303.692	-0.081	-0.150
-479.347	-19.529	-0.237	0.145
-478.332	-130.493	0.050	-0.007
-477.318	-5.840	-0.388	-0.264
-476.303	-140.193	0.383	-0.040
-475.289	-30.728	0.470	0.264
-474.274	18.972	-0.222	0.176
-473.259	-11.074	-0.126	-0.082
-472.245	-93.569	-0.328	0.090
-471.230	-63.729	0.300	0.122
-470.216	580.292	0.099	-0.241
-469.201	38.753	0.288	0.255
-468.186	110.931	-0.156	0.187
-467.172	100.695	-0.032	-0.037
-466.157	20.352	0.038	0.031
-465.143	-160.380	-0.275	0.015
-464.128	-121.192	0.152	-0.025
-463.113	800.000	0.037	-0.162
-462.099	492.657	0.050	-0.113
-461.084	-21.642	-0.105	0.063
-460.070	271.129	-0.006	-0.011
-459.055	-45.088	-0.271	-0.134
-458.040	703.074	0.144	-0.378
-457.026	-147.071	0.304	0.026
-456.011	-200.000	-0.031	-0.317
-454.997	188.661	0.214	0.317
-453.982	-64.570	0.340	0.137
-452.968	132.050	0.146	0.186
-451.953	97.932	-0.105	-0.120
-450.938	-96.288	-0.361	-0.095
-449.924	-200.000	-0.012	-0.260
-448.909	-52.161	0.109	0.050
-447.895	-58.551	0.204	-0.088
-446.880	-200.000	-0.133	-0.673
-445.865	-200.000	-0.014	-0.181
-444.851	-134.750	0.301	-0.036
-443.836	-200.000	0.007	0.283
-442.822	10.687	-0.262	-0.198
-441.807	-128.993	-0.173	0.024
-440.792	777.827	-0.076	0.207
-439.778	-60.289	-0.240	-0.101
-438.763	-95.602	-0.146	-0.039
-437.749	400.573	-0.121	0.251
-436.734	210.769	-0.114	-0.177
-435.719	-200.000	-0.022	-0.118
-434.705	242.595	-0.065	0.107
-433.690	-200.000	0.039	-0.174
-432.676	-7.509	-0.110	-0.074
-431.661	-200.000	0.023	-0.231
-430.646	133.615	-0.131	0.168
-429.632	-200.000	0.012	-0.087
-428.617	800.000	0.024	0.097
-427.603	-200.000	0.005	-0.043
-426.588	-200.000	0.043	-0.266
-425.573	-200.000	-0.010	0.126
-424.559	-60.562	0.280	0.118
-423.544	-106.721	0.269	0.059
-422.530	-200.000	0.003	0.058
-421.515	136.731	0.119	-0.153
-420.500	-41.185	-0.319	0.163
-419.486	-200.000	-0.068	0.331
-418.471	-111.396	-0.220	0.044
-417.457	48.989	0.096	0.089
-416.442	-134.809	0.253	0.030
-415.428	301.512	-0.102	-0.186
-414.413	365.753	-0.161	0.321
-413.398	-71.729	-0.195	-0.072
-412.384	-53.431	-0.131	0.060
-411.369	-147.182	-0.216	0.018
-410.355	-30.661	-0.148	0.083
-409.340	-183.428	-0.448	-0.008
-408.325	414.393	0.092	-0.193
-407.311	-53.174	-0.160	0.073
-406.296	-111.174	0.232	-0.047
-405.282	-53.240	0.326	0.148
-404.267	-25.591	0.354	0.207
-403.252	-28.024	0.018	0.010
-402.238	-200.000	0.046	-0.259
-401.223	589.911	-0.096	-0.234
-400.209	-162.681	-0.327	-0.016
-399.194	-200.000	-0.006	-0.180
-398.179	-200.000	0.008	0.124
-397.165	-200.000	0.015	-0.146
-396.150	11.723	-0.396	-0.301
-395.136	113.069	0.030	-0.036
-394.121	556.896	-0.110	-0.262
-393.106	-166.049	-0.063	-0.003
-392.092	-200.000	-0.044	0.197
-391.077	-38.514	0.289	0.151
-390.063	194.302	0.132	-0.198
-389.048	456.354	0.109	-0.239
-388.033	86.014	0.249	0.272
-387.019	352.577	0.204	0.400
-386.004	217.345	0.137	-0.216
-384.990	800.000	0.020	-0.056
-383.975	104.581	-0.039	-0.046
-382.960	-140.388	0.152	-0.016
-381.946	-79.983	0.091	-0.030
-380.931	-22.277	-0.080	0.048
-379.917	-200.000	-0.014	-0.236
-378.902	147.896	0.199	-0.265
-377.888	-6.130	-0.194	0.131
-376.873	-200.000	0.005	-0.147
-375.858	90.301	0.138	-0.152
-374.844	800.000	-0.159	0.491
-373.829	-200.000	-0.015	0.099
-372.815	23.225	-0.195	0.159
-371.800	-70.796	0.112	-0.042
-370.785	-88.908	0.189	0.055
-369.771	-62.492	-0.330	0.135
-368.756	427.097	-0.171	-0.364
-367.742	800.000	0.026	-0.098
-366.727	175.593	-0.130	-0.187
-365.712	-105.321	0.066	0.015
-364.698	-200.000	0.082	-0.429
-363.683	-35.546	-0.181	-0.097
-362.669	-37.943	0.106	0.055
-361.654	-200.000	-0.015	-0.211
-360.639	-8.122	-0.313	-0.208
-359.625	287.311	0.148	0.265
-358.610	0.215	-0.121	0.085
-357.596	10.894	0.196	-0.148
-356.581	38.957	0.198	-0.175
-355.566	-101.187	-0.053	-0.013
-354.552	-178.438	-0.142	-0.003
-353.537	296.014	0.156	-0.282
-352.523	632.220	-0.143	-0.357
-351.508	178.628	0.211	-0.304
-350.493	-95.211	0.286	-0.076
-349.479	-38.036	-0.178	0.093
-348.464	-103.318	-0.132	0.031
-347.450	-200.000	0.015	-0.107
-346.435	-95.190	0.219	0.058
-345.420	-190.105	0.177	-0.002
-344.406	8.862	0.203	-0.152
-343.391	-10.333	0.110	-0.072
-342.377	-200.000	0.012	-0.108
-341.362	-114.124	-0.068	-0.013
-340.348	-124.534	0.109	-0.017
-339.333	-72.625	0.095	-0.035
-338.318	-90.147	0.171	0.049
-337.304	-200.000	-0.026	-0.159
-336.289	800.000	0.009	-0.027
-335.275	193.622	-0.194	-0.290
-334.260	-117.969	-0.086	-0.015
-333.245	269.464	0.093	0.161
-332.231	-85.465	-0.057	-0.017
-331.216	24.631	0.201	0.164
-330.202	800.000	0.142	0.495
-329.187	-6.689	0.229	0.154
-328.172	725.820	-0.142	-0.374
-327.158	-20.587	-0.346	-0.210
-326.143	-4.211	0.079	-0.054
-325.129	-31.258	-0.191	-0.106
-324.114	132.978	-0.125	0.159
-323.099	-200.000	-0.043	-0.384
-322.085	146.376	-0.128	-0.169
-321.070	800.000	-0.053	0.182
-320.056	-97.974	-0.169	-0.043
-319.041	-185.914	-0.222	0.003
-318.026	-131.138	0.132	0.017
-317.012	-100.389	-0.317	-0.078
-315.997	600.447	0.105	0.258
-314.983	-99.560	0.106	0.026
-313.968	-200.000	0.000	0.179
-312.953	-200.000	0.029	-0.334
-311.939	147.681	0.079	0.105
-310.924	-140.445	0.306	-0.031
-309.910	800.000	-0.046	0.133
-308.895	105.700	-0.217	-0.253
-307.880	448.018	0.110	0.240
-306.866	-69.093	0.082	-0.031
-305.851	-22.846	-0.134	0.080
-304.837	175.047	0.206	0.294
-303.822	203.144	0.090	-0.137
-302.807	28.062	0.177	-0.147
-301.793	-157.908	0.206	0.012
-300.778	117.023	-0.205	0.248
-299.764	-134.731	-0.085	-0.010
-298.749	-46.835	-0.079	-0.038
-297.735	-200.000	0.004	0.157
-296.720	800.000	-0.037	0.155
-295.705	-163.139	-0.284	-0.013
-294.691	7.487	0.109	0.081
-293.676	-54.857	0.061	-0.027
-292.662	800.000	0.051	0.183
-291.647	139.953	0.107	-0.138
-290.632	-61.301	-0.079	0.033
-289.618	800.000	0.086	0.246
-288.603	-74.669	0.215	-0.076
-287.589	-155.875	-0.260	-0.016
-286.574	414.671	-0.062	-0.131
-285.559	-47.191	0.263	0.126
-284.545	-200.000	0.025	0.130
-283.530	800.000	-0.055	-0.209
-282.516	751.515	-0.112	0.297
-281.501	-121.537	-0.190	-0.031
-280.486	-185.525	-0.068	0.001
-279.472	-68.833	-0.188	-0.071
-278.457	92.035	-0.089	-0.099
-277.443	-81.187	0.176	-0.057
-276.428	-115.672	-0.140	0.026
-275.413	-200.000	0.027	0.133
-274.399	-97.099	0.347	0.089
-273.384	-192.424	-0.144	-0.001
-272.370	-59.933	-0.215	-0.090
-271.355	-41.322	0.218	0.111
-270.340	-9.459	-0.239	0.157
-269.326	-82.211	0.171	0.055
-268.311	-176.400	0.028	0.001
-267.297	800.000	0.062	0.256
-266.282	-82.453	0.150	-0.048
-265.267	-82.988	-0.095	0.030
-264.253	-200.000	-0.010	0.132
-263.238	7.922	-0.178	-0.132
-262.224	-54.167	-0.229	0.102
-261.209	-200.000	-0.016	0.141
-260.195	-200.000	-0.006	0.028
-259.180	319.506	-0.086	0.161
-258.165	165.666	-0.246	0.342
-257.151	67.378	0.062	0.062
-256.136	277.907	-0.035	-0.061
-255.122	-200.000	-0.037	0.195
-254.107	-24.807	-0.213	0.125
-253.092	296.531	-0.052	-0.094
-252.078	-63.292	0.278	0.113
-251.063	-2.607	0.082	0.057
-250.049	-41.777	-0.029	-0.015
-249.034	112.887	-0.040	0.048
-248.019	506.914	-0.062	-0.142
-247.005	171.962	-0.169	-0.239
-245.990	183.040	-0.147	0.214
-244.976	476.028	-0.161	-0.358
-243.961	-80.974	0.422	-0.137
-242.946	209.555	0.024	0.037
-241.932	14.769	-0.261	-0.201
-240.917	40.357	-0.086	-0.076
-239.903	-200.000	0.008	-0.052
-238.888	-115.806	-0.096	-0.018
-237.873	88.876	-0.199	0.218
-236.859	229.163	0.055	0.088
-235.844	182.247	-0.111	0.161
-234.830	-200.000	0.033	0.157
-233.815	-3.347	0.186	0.128
-232.800	-121.062	-0.111	0.018
-231.786	-127.111	-0.138	0.020
-230.771	255.691	0.146	0.246
-229.757	-121.420	-0.270	0.044
-228.742	135.953	0.127	0.162
-227.727	392.892	0.084	0.173
-226.713	317.114	-0.093	-0.172
-225.698	-200.000	-0.005	0.070
-224.684	-124.874	0.115	-0.017
-223.669	-113.641	-0.241	-0.046
-222.655	-0.364	-0.163	0.114
-221.640	-176.039	0.461	0.012
-220.625	-163.529	-0.210	-0.010
-219.611	769.055	0.146	0.392
-218.596	800.000	0.050	0.140
-217.582	800.000	-0.042	-0.155
-216.567	-100.296	0.283	-0.069
-215.552	123.107	0.115	-0.142
-214.538	68.483	0.137	0.138
-213.523	537.483	0.181	0.423
-212.509	-166.094	-0.078	0.003
-211.494	-116.258	0.261	-0.047
-210.479	348.282	0.046	0.089
-209.465	-200.000	0.006	0.042
-208.450	-6.365	0.156	0.104
-207.436	-200.000	0.052	0.273
-206.421	420.208	0.129	-0.272
-205.406	-98.493	-0.328	0.082
-204.392	-115.689	-0.209	-0.039
-203.377	722.508	0.080	0.209
-202.363	-200.000	0.037	-0.185
-201.348	-200.000	-0.042	0.358
-200.333	800.000	0.136	0.450
-199.319	10.219	0.089	-0.067
-198.304	260.659	-0.013	-0.021
-197.290	-200.000	-0.003	-0.149
-196.275	554.170	0.068	-0.159
-195.260	-200.000	0.034	-0.157
-194.246	-200.000	0.034	-0.185
-193.231	-170.546	0.069	0.002
-192.217	-44.382	0.081	-0.040
-191.202	-45.032	-0.049	0.024
-190.187	9.448	-0.241	-0.179
-189.173	37.619	-0.214	-0.187
-188.158	28.230	-0.028	-0.023
-187.144	368.330	-0.042	-0.084
-186.129	800.000	-0.046	-0.130
-185.114	21.263	0.104	0.083
-184.100	-42.210	-0.059	0.030
-183.085	-200.000	-0.017	0.116
-182.071	207.985	-0.134	-0.206
-181.056	-97.252	-0.113	0.029
-180.042	-140.838	0.233	0.024
-179.027	800.000	-0.112	-0.338
-178.012	179.205	0.025	0.036
-176.998	-101.647	-0.227	-0.054
-175.983	-200.000	-0.037	0.208
-174.969	-60.076	-0.487	0.204
-173.954	-77.312	-0.180	-0.061
-172.939	800.000	-0.104	0.314
-171.925	-47.436	-0.183	0.087
-170.910	-5.062	0.128	-0.086
-169.896	-114.761	-0.084	-0.016
-168.881	-146.040	-0.156	-0.014
-167.866	-32.462	-0.265	0.145
-166.852	-69.845	0.221	0.083
-165.837	105.709	-0.126	-0.146
-164.823	-111.378	0.321	0.064
-163.808	434.080	0.167	-0.356
-162.793	749.765	0.132	0.349
-161.779	-103.884	0.473	0.108
-160.764	153.571	-0.062	-0.084
-159.750	-200.000	0.034	-0.202
-158.735	123.294	0.103	-0.126
-157.720	164.304	0.022	0.030
-156.706	-162.460	0.440	0.021
-155.691	108.983	0.138	-0.162
-154.677	-200.000	-0.061	0.311
-153.662	36.641	-0.383	0.331
-152.647	-115.354	0.466	0.086
-151.633	800.000	-0.025	0.072
-150.618	-135.305	-0.192	0.023
-149.604	495.076	-0.075	-0.168
-148.589	800.000	0.143	-0.498
-147.574	-200.000	0.031	-0.261
-146.560	800.000	0.039	0.127
-145.545	-9.347	0.095	0.062
-144.531	-12.258	0.435	-0.279
-143.516	-127.360	0.243	0.035
-142.502	-89.258	0.276	-0.080
-141.487	-28.358	-0.132	-0.074
-140.472	-67.854	-0.069	0.027
-139.458	-29.465	-0.219	-0.123
-138.443	250.490	-0.198	0.330
-137.429	-200.000	0.002	-0.314
-136.414	629.957	0.075	0.186
-135.399	800.000	0.094	0.385
-134.385	194.003	0.110	0.163
-133.370	800.000	0.025	0.099
-132.356	-23.926	0.084	0.049
-131.341	-23.452	0.162	0.095
-130.326	-108.962	-0.266	-0.056
-129.312	800.000	-0.040	0.147
-128.297	453.861	-0.025	-0.054
-127.283	52.506	0.208	0.194
-126.268	-200.000	-0.022	0.273
-125.253	55.514	0.072	-0.068
-124.239	198.979	0.061	0.092
-123.224	19.934	-0.267	0.211
-122.210	-200.000	-0.032	0.299
