DTS Sentinel unit serial number:	SN413079Multiplexer serial number:	ORYXHardware model number:	OX4-SRSoftware version number:	ORYX F/W v4.00 Oryx Data Collector v3.7.2.0data status	okinstallation	princeton_trtdifferential loss correction	single-endedforward channel	channel 3reverse channel	N/Adate	2019/09/14time	18:36:35forward acquisition time	60.00reverse acquisition time	0.00gamma	496.2192k internal	0.2304k external	0.2304temperature offset calibration	1.0018default loss term (dB/km)	0.3790temperature slope calibration	1.0000multiplexer offset coefficient	1.0000multiplexer slope coefficient	1.0000fibre end	0.00T internal ref (°C)	36.41T ext. ref 1 (°C)	4.92T ext. ref 2 (°C)	30.15length (m)	temperature (°C)	Stokes	anti-Stokes-747.200	-36.000	0.173	-0.095
-746.185	-29.651	0.228	0.132
-745.171	-50.739	0.146	0.070
-744.156	-110.062	-0.177	-0.038
-743.142	40.314	-0.036	0.033
-742.127	-159.278	0.074	-0.004
-741.112	28.916	-0.089	-0.077
-740.098	-82.177	0.062	-0.021
-739.083	668.651	0.092	0.241
-738.069	-200.000	-0.078	0.404
-737.054	529.097	0.115	0.277
-736.039	-200.000	-0.004	0.171
-735.025	-41.206	0.410	-0.215
-734.010	425.901	-0.074	0.162
-732.996	540.588	0.051	-0.124
-731.981	-46.803	-0.171	-0.085
-730.966	-154.921	-0.344	-0.023
-729.952	-77.093	-0.199	0.071
-728.937	600.346	-0.113	-0.286
-727.923	-71.810	0.179	-0.068
-726.908	39.584	-0.231	0.211
-725.894	58.291	-0.073	-0.073
-724.879	800.000	-0.031	-0.109
-723.864	-200.000	0.054	-0.359
-722.850	577.130	-0.177	-0.439
-721.835	-76.133	0.294	0.106
-720.821	110.719	-0.368	0.450
-719.806	800.000	0.103	0.330
-718.791	156.290	-0.140	-0.196
-717.777	-126.750	-0.157	0.024
-716.762	-83.805	0.384	-0.125
-715.748	800.000	-0.054	0.188
-714.733	248.849	-0.223	-0.384
-713.718	800.000	0.083	-0.341
-712.704	-32.317	0.255	0.145
-711.689	69.139	0.075	0.078
-710.675	-200.000	0.012	-0.196
-709.660	-200.000	-0.086	0.509
-708.645	-139.547	0.204	-0.022
-707.631	-100.865	-0.238	-0.060
-706.616	79.384	0.244	0.266
-705.602	102.798	-0.296	-0.352
-704.587	-200.000	-0.004	-0.152
-703.572	229.817	-0.238	-0.395
-702.558	-200.000	-0.009	0.262
-701.543	-115.843	-0.064	0.012
-700.529	182.309	0.234	-0.351
-699.514	-35.404	0.114	0.063
-698.499	438.189	-0.070	0.156
-697.485	-57.554	-0.168	-0.075
-696.470	-200.000	0.015	0.356
-695.456	50.196	0.237	-0.227
-694.441	272.597	0.098	-0.176
-693.426	800.000	-0.160	-0.536
-692.412	236.949	-0.035	-0.059
-691.397	-77.361	0.057	0.020
-690.383	800.000	0.101	-0.357
-689.368	-2.847	-0.192	-0.137
-688.354	-200.000	0.027	-0.201
-687.339	88.519	-0.140	0.158
-686.324	-63.895	-0.169	0.070
-685.310	287.838	0.012	0.022
-684.295	800.000	-0.071	0.249
-683.281	-177.506	-0.099	-0.002
-682.266	-200.000	0.004	0.027
-681.251	-9.861	-0.149	-0.101
-680.237	-200.000	0.009	-0.227
-679.222	233.951	-0.137	-0.230
-678.208	-200.000	0.031	0.159
-677.193	189.595	-0.097	0.147
-676.178	-93.271	-0.229	0.065
-675.164	800.000	0.054	-0.181
-674.149	-77.771	-0.140	0.049
-673.135	519.336	-0.080	0.190
-672.120	-90.165	-0.165	-0.049
-671.105	138.435	-0.162	0.216
-670.091	62.630	-0.217	-0.220
-669.076	-125.417	-0.401	0.062
-668.062	643.364	-0.027	-0.069
-667.047	-98.795	-0.029	-0.007
-666.032	112.520	0.108	-0.133
-665.018	800.000	0.083	-0.246
-664.003	-89.772	0.259	0.077
-662.989	55.966	0.206	0.202
-661.974	271.249	0.021	0.038
-660.959	-51.748	-0.188	-0.089
-659.945	344.229	-0.109	-0.217
-658.930	-62.226	0.142	0.060
-657.916	2.241	0.181	-0.133
-656.901	-186.940	-0.185	-0.003
-655.886	698.970	-0.076	-0.203
-654.872	14.975	0.032	-0.025
-653.857	800.000	0.055	0.184
-652.843	-173.256	-0.448	0.014
-651.828	419.483	0.101	-0.219
-650.814	-84.986	0.195	-0.062
-649.799	457.712	0.046	0.104
-648.784	222.755	-0.087	-0.142
-647.770	-76.699	0.146	-0.052
-646.755	132.427	0.218	0.285
-645.741	-200.000	-0.026	-0.230
-644.726	-174.743	-0.137	-0.004
-643.711	554.883	-0.060	-0.147
-642.697	251.184	-0.023	0.040
-641.682	546.089	0.066	0.159
-640.668	27.539	0.156	0.133
-639.653	74.792	-0.187	-0.199
-638.638	-102.567	-0.096	0.023
-637.624	314.549	0.073	-0.139
-636.609	800.000	-0.067	-0.228
-635.595	572.278	-0.083	0.205
-634.580	-200.000	-0.212	0.000
-633.565	114.933	-0.282	-0.348
-632.551	243.592	-0.105	-0.179
-631.536	800.000	-0.037	-0.105
-630.522	-135.204	0.159	-0.019
-629.507	100.842	0.109	0.129
-628.492	481.512	-0.165	0.380
-627.478	-123.645	-0.234	0.038
-626.463	250.948	0.230	0.396
-625.449	-88.973	-0.239	0.072
-624.434	465.675	0.081	-0.184
-623.419	-133.510	0.170	-0.022
-622.405	-45.243	-0.072	0.036
-621.390	47.877	-0.086	-0.081
-620.376	-61.985	-0.440	-0.186
-619.361	-39.269	-0.150	0.080
-618.346	-124.342	-0.198	0.031
-617.332	12.180	-0.215	0.167
-616.317	-200.000	0.046	-0.340
-615.303	206.240	-0.102	-0.160
-614.288	-172.935	-0.144	-0.005
-613.273	-124.015	0.243	-0.039
-612.259	-83.850	-0.164	-0.053
-611.244	93.790	-0.011	0.012
-610.230	117.021	-0.145	-0.180
-609.215	800.000	-0.082	-0.231
-608.201	800.000	0.078	0.229
-607.186	19.116	0.092	-0.075
-606.171	-200.000	0.015	0.188
-605.157	800.000	-0.015	-0.041
-604.142	-200.000	0.027	-0.129
-603.128	-43.009	-0.118	0.061
-602.113	757.235	0.085	-0.232
-601.098	165.470	0.096	-0.137
-600.084	100.440	-0.127	-0.149
-599.069	-200.000	-0.007	0.596
-598.055	217.841	0.240	0.387
-597.040	12.475	0.167	-0.130
-596.025	-22.775	-0.114	-0.070
-595.011	-83.534	-0.599	-0.194
-593.996	-12.476	-0.176	-0.116
-592.982	82.038	-0.192	-0.211
-591.967	-29.842	0.401	0.232
-590.952	-91.898	0.476	-0.137
-589.938	-200.000	-0.034	0.310
-588.923	-95.686	-0.212	0.057
-587.909	61.286	0.080	-0.080
-586.894	-161.270	-0.283	0.015
-585.879	65.882	0.278	0.285
-584.865	-200.000	0.039	0.260
-583.850	-97.044	-0.281	0.075
-582.836	-74.661	-0.161	0.059
-581.821	436.063	0.145	0.319
-580.806	-73.256	0.228	-0.084
-579.792	10.870	-0.062	0.048
-578.777	-153.603	0.161	-0.011
-577.763	-81.901	0.262	0.087
-576.748	32.062	-0.077	0.067
-575.733	161.166	0.177	-0.251
-574.719	-136.924	-0.126	0.015
-573.704	-200.000	-0.026	0.203
-572.690	473.183	-0.060	0.136
-571.675	-127.966	-0.434	-0.063
-570.661	-200.000	0.032	0.276
-569.646	203.395	-0.080	-0.125
-568.631	800.000	0.061	0.171
-567.617	800.000	-0.034	-0.117
-566.602	-200.000	0.013	-0.235
-565.588	-56.435	-0.219	0.098
-564.573	51.408	0.115	-0.111
-563.558	-26.569	-0.127	-0.075
-562.544	800.000	0.050	0.177
-561.529	-91.409	-0.415	-0.120
-560.515	18.039	0.109	-0.088
-559.500	123.553	0.022	0.028
-558.485	491.060	-0.140	0.323
-557.471	-200.000	0.035	-0.264
-556.456	211.515	0.143	-0.227
-555.442	-158.700	0.344	0.020
-554.427	-29.653	0.132	-0.076
-553.412	-200.000	-0.669	0.003
-552.398	800.000	-0.131	-0.480
-551.383	-21.001	0.035	-0.022
-550.369	-73.755	-0.104	-0.038
-549.354	394.561	0.048	0.102
-548.339	-123.693	-0.251	0.040
-547.325	-62.276	0.213	-0.090
-546.310	106.817	0.111	-0.133
-545.296	-38.857	-0.220	-0.117
-544.281	-200.000	0.033	0.217
-543.266	154.789	0.198	0.276
-542.252	-109.622	0.137	0.029
-541.237	-200.000	-0.060	-0.387
-540.223	200.244	0.188	-0.291
-539.208	-200.000	-0.009	-0.237
-538.193	-200.000	-0.047	-0.224
-537.179	-200.000	-0.037	-0.227
-536.164	-54.511	0.089	0.041
-535.150	-72.585	-0.242	0.090
-534.135	-49.157	0.117	-0.056
-533.121	131.258	0.127	-0.164
-532.106	7.971	-0.272	-0.206
-531.091	-200.000	0.003	-0.539
-530.077	307.381	-0.068	-0.127
-529.062	-200.000	0.003	0.147
-528.048	47.585	0.128	0.120
-527.033	-90.487	0.317	-0.093
-526.018	63.932	-0.128	-0.130
-525.004	-14.739	0.223	-0.145
-523.989	52.390	0.167	0.161
-522.975	-77.279	0.326	0.115
-521.960	-200.000	0.059	-0.291
-520.945	-95.358	-0.145	-0.039
-519.931	329.964	0.100	0.194
-518.916	217.512	0.122	-0.196
-517.902	-200.000	0.003	-0.028
-516.887	-170.746	-0.177	-0.006
-515.872	-162.427	0.370	-0.018
-514.858	-115.100	-0.099	0.019
-513.843	37.669	-0.264	0.237
-512.829	-36.734	0.151	-0.082
-511.814	284.419	-0.173	0.315
-510.799	34.460	0.214	-0.189
-509.785	-78.505	-0.328	-0.113
-508.770	591.159	0.014	-0.035
-507.756	-200.000	-0.015	0.189
-506.741	-17.513	-0.423	0.268
-505.726	45.845	0.087	0.081
-504.712	358.034	-0.077	-0.155
-503.697	-48.125	-0.275	0.134
-502.683	98.035	-0.125	-0.145
-501.668	-105.533	-0.135	-0.031
-500.653	48.564	-0.212	0.200
-499.639	800.000	0.053	0.185
-498.624	-83.554	0.139	0.045
-497.610	-200.000	-0.039	0.268
-496.595	36.934	0.347	0.310
-495.581	16.833	0.102	-0.081
-494.566	79.897	-0.212	0.230
-493.551	-25.011	-0.237	0.142
-492.537	245.042	0.110	0.187
-491.522	-200.000	0.022	0.143
-490.508	-33.720	0.054	-0.030
-489.493	-200.000	-0.305	-0.001
-488.478	-46.407	0.162	0.080
-487.464	522.265	0.011	0.025
-486.449	-11.835	-0.141	0.093
-485.435	-200.000	0.012	0.075
-484.420	-79.908	-0.172	-0.058
-483.405	-165.695	-0.101	-0.004
-482.391	68.189	-0.156	0.161
-481.376	51.297	-0.193	-0.184
-480.362	-200.000	0.034	-0.288
-479.347	60.905	0.101	0.101
-478.332	800.000	0.067	-0.238
-477.318	-200.000	0.036	-0.373
-476.303	172.013	-0.073	-0.106
-475.289	20.759	-0.237	-0.193
-474.274	60.467	-0.070	-0.070
-473.259	20.324	-0.120	0.098
-472.245	0.709	-0.218	-0.157
-471.230	337.094	0.107	0.210
-470.216	66.467	-0.282	0.288
-469.201	-42.738	-0.065	0.033
-468.186	74.847	-0.083	-0.088
-467.172	-74.375	0.296	0.108
-466.157	-40.020	-0.358	0.188
-465.143	-165.956	0.135	0.006
-464.128	93.319	-0.118	-0.134
-463.113	-111.467	0.146	0.030
-462.099	-109.601	-0.278	-0.059
-461.084	-111.592	0.416	0.085
-460.070	-108.459	-0.142	0.031
-459.055	-0.449	0.225	-0.161
-458.040	-147.092	-0.247	-0.021
-457.026	-12.176	0.341	-0.225
-456.011	179.444	0.175	0.258
-454.997	-200.000	0.056	-0.289
-453.982	-149.135	0.258	0.021
-452.968	95.851	-0.043	-0.049
-451.953	12.314	0.280	-0.217
-450.938	12.142	-0.051	0.039
-449.924	-65.348	0.153	-0.062
-448.909	-1.704	-0.145	-0.103
-447.895	135.177	-0.069	-0.091
-446.880	-6.107	0.306	0.210
-445.865	164.279	-0.186	-0.264
-444.851	-5.013	0.171	-0.119
-443.836	489.577	0.138	0.318
-442.822	-121.503	-0.084	0.014
-441.807	-200.000	0.004	0.080
-440.792	519.912	0.049	0.117
-439.778	123.586	-0.194	-0.245
-438.763	175.654	-0.235	-0.343
-437.749	-200.000	0.002	-0.308
-436.734	395.767	0.071	-0.150
-435.719	-32.188	0.157	0.088
-434.705	-1.882	0.035	0.025
-433.690	251.993	-0.150	-0.257
-432.676	-100.228	0.465	-0.116
-431.661	-83.754	0.239	0.077
-430.646	-143.344	-0.080	-0.008
-429.632	28.673	0.236	0.201
-428.617	82.882	-0.058	0.063
-427.603	-132.356	0.252	0.033
-426.588	-123.458	0.155	-0.025
-425.573	514.171	0.144	0.338
-424.559	594.218	0.075	0.187
-423.544	-200.000	0.065	0.300
-422.530	-200.000	-0.030	-0.171
-421.515	-200.000	-0.009	0.055
-420.500	214.050	0.099	-0.157
-419.486	11.044	0.040	-0.030
-418.471	-115.584	-0.043	-0.008
-417.457	488.916	-0.138	-0.318
-416.442	800.000	-0.103	0.292
-415.428	694.476	-0.087	0.229
-414.413	-131.129	-0.274	0.037
-413.398	123.116	-0.061	-0.076
-412.384	800.000	-0.033	-0.134
-411.369	168.266	-0.142	-0.203
-410.355	800.000	-0.064	0.180
-409.340	800.000	-0.146	0.558
-408.325	-51.668	0.087	-0.041
-407.311	-200.000	-0.017	-0.126
-406.296	-30.801	-0.087	0.049
-405.282	-94.977	-0.279	0.076
-404.267	334.271	-0.140	-0.273
-403.252	92.758	-0.138	-0.156
-402.238	230.621	0.006	0.011
-401.223	-21.270	-0.129	-0.079
-400.209	20.861	0.344	0.280
-399.194	-59.605	0.210	-0.091
-398.179	519.368	-0.033	-0.077
-397.165	72.362	-0.069	-0.072
-396.150	-87.344	0.274	-0.084
-395.136	800.000	0.057	0.231
-394.121	574.238	0.127	0.311
-393.106	140.578	0.081	0.108
-392.092	-39.706	-0.169	0.089
-391.077	-9.894	0.172	0.115
-390.063	39.678	-0.117	0.106
-389.048	-200.000	-0.002	0.010
-388.033	141.259	-0.120	0.160
-387.019	-200.000	-0.059	0.313
-386.004	800.000	0.063	0.185
-384.990	59.360	0.221	-0.218
-383.975	-200.000	0.013	-0.085
-382.960	174.412	0.122	-0.177
-381.946	246.760	-0.088	-0.150
-380.931	126.194	-0.185	-0.235
-379.917	800.000	0.078	-0.290
-378.902	-200.000	0.030	-0.163
-377.888	344.966	-0.041	0.081
-376.873	248.383	-0.090	-0.154
-375.858	99.099	0.190	0.221
-374.844	-179.343	0.325	-0.007
-373.829	118.663	-0.090	-0.111
-372.815	242.494	0.183	-0.308
-371.800	175.992	-0.273	0.397
-370.785	266.031	-0.103	0.180
-369.771	-122.455	-0.114	-0.019
-368.756	-91.005	0.261	0.075
-367.742	-89.323	-0.354	-0.105
-366.727	-61.562	0.252	0.106
-365.712	-142.649	0.076	0.007
-364.698	-200.000	0.036	-0.287
-363.683	-71.646	-0.113	-0.042
-362.669	491.553	-0.206	0.473
-361.654	-56.188	0.050	0.022
-360.639	-184.902	-0.415	0.007
-359.625	-11.900	-0.096	-0.063
-358.610	-190.168	-0.274	-0.003
-357.596	6.417	0.282	-0.210
-356.581	-102.607	0.220	-0.053
-355.566	-131.966	-0.265	0.035
-354.552	34.491	-0.434	0.380
-353.537	778.425	-0.053	0.146
-352.523	800.000	0.090	0.329
-351.508	461.331	-0.061	-0.137
-350.493	632.145	-0.126	0.320
-349.479	594.052	-0.104	-0.258
-348.464	-200.000	-0.020	0.160
-347.450	-89.572	0.162	0.048
-346.435	-29.563	0.137	0.078
-345.420	-24.941	0.152	-0.091
-344.406	282.383	-0.191	0.343
-343.391	-33.820	-0.250	0.138
-342.377	-200.000	0.064	-0.378
-341.362	166.699	0.056	0.080
-340.348	55.805	0.147	-0.142
-339.333	-183.489	0.361	0.006
-338.318	265.090	0.080	-0.141
-337.304	-185.862	-0.365	-0.005
-336.289	551.507	0.112	-0.270
-335.275	125.719	-0.046	-0.059
-334.260	-200.000	-0.010	0.131
-333.245	-200.000	0.087	-0.401
-332.231	39.635	-0.142	-0.128
-331.216	800.000	-0.071	-0.269
-330.202	17.585	0.281	0.224
-329.187	96.500	0.096	-0.110
-328.172	-51.323	0.172	-0.081
-327.158	-200.000	-0.014	0.285
-326.143	-200.000	0.046	0.266
-325.129	216.430	0.097	0.155
-324.114	237.199	-0.105	0.174
-323.099	26.732	0.124	-0.104
-322.085	-200.000	-0.006	-0.072
-321.070	-101.582	-0.177	0.043
-320.056	20.649	0.053	-0.043
-319.041	372.099	0.026	-0.053
-318.026	800.000	0.064	0.249
-317.012	800.000	-0.031	-0.103
-315.997	565.778	0.096	0.233
-314.983	-200.000	0.038	0.212
-313.968	-160.866	-0.302	0.016
-312.953	29.431	-0.273	0.233
-311.939	196.522	0.128	-0.196
-310.924	90.518	0.149	0.167
-309.910	-5.054	-0.149	0.103
-308.895	-190.957	0.428	0.004
-307.880	-57.785	0.271	0.119
-306.866	-14.121	0.056	-0.036
-305.851	800.000	-0.120	-0.396
-304.837	-73.651	-0.365	0.133
-303.822	26.164	0.150	0.125
-302.807	83.757	0.113	0.123
-301.793	23.394	0.030	-0.025
-300.778	-27.623	-0.212	-0.123
-299.764	99.862	0.119	-0.138
-298.749	69.577	-0.250	-0.258
-297.735	-19.773	0.358	-0.222
-296.720	-132.801	0.172	0.022
-295.705	800.000	-0.085	0.329
-294.691	-200.000	0.048	-0.249
-293.676	225.806	0.133	-0.215
-292.662	-32.317	0.070	0.039
-291.647	-200.000	-0.024	-0.370
-290.632	376.434	0.072	0.148
-289.618	-200.000	0.003	-0.057
-288.603	-20.776	0.290	-0.178
-287.589	-47.820	-0.138	0.067
-286.574	223.360	0.134	0.216
-285.559	-167.451	0.157	-0.006
-284.545	333.901	0.138	-0.266
-283.530	-200.000	-0.171	0.000
-282.516	170.515	-0.162	0.232
-281.501	-66.204	-0.130	0.052
-280.486	15.423	-0.222	-0.174
-279.472	-200.000	0.030	-0.181
-278.457	-48.956	-0.266	0.128
-277.443	800.000	0.065	-0.269
-276.428	149.860	-0.105	-0.142
-275.413	-108.027	-0.111	0.024
-274.399	800.000	0.026	0.107
-273.384	196.072	0.147	0.224
-272.370	-29.487	-0.135	0.077
-271.355	-200.000	0.068	-0.454
-270.340	-89.613	0.483	-0.142
-269.326	-8.822	0.124	-0.083
-268.311	194.477	0.091	-0.138
-267.297	162.169	-0.033	0.046
-266.282	-40.045	0.218	-0.114
-265.267	62.916	0.026	0.026
-264.253	115.656	0.221	0.270
-263.238	-18.635	0.135	-0.084
-262.224	6.211	-0.245	0.182
-261.209	-43.459	0.258	-0.130
-260.195	-131.426	-0.017	0.002
-259.180	-200.000	0.003	-0.313
-258.165	274.056	-0.089	-0.158
-257.151	-106.963	0.524	0.116
-256.136	116.899	0.060	0.074
-255.122	800.000	0.151	0.424
-254.107	-200.000	-0.001	0.396
-253.092	-180.556	-0.191	0.004
-252.078	455.684	-0.147	0.326
-251.063	35.964	0.096	0.084
-250.049	-200.000	-0.077	-0.360
-249.034	-12.889	-0.141	-0.092
-248.019	-19.256	0.082	0.051
-247.005	92.745	0.309	-0.349
-245.990	181.978	0.142	0.208
-244.976	-71.839	-0.338	0.126
-243.961	-200.000	0.014	0.382
-242.946	-89.404	0.238	-0.070
-241.932	509.586	-0.051	-0.117
-240.917	800.000	0.055	0.160
-239.903	-200.000	0.002	0.079
-238.888	800.000	-0.017	0.051
-237.873	-200.000	0.019	0.285
-236.859	60.917	-0.049	0.049
-235.844	-200.000	-0.023	-0.260
-234.830	-44.095	0.265	0.133
-233.815	800.000	0.019	-0.079
-232.800	199.594	0.073	0.112
-231.786	89.179	0.120	-0.133
-230.771	420.443	-0.155	0.332
-229.757	800.000	0.068	0.243
-228.742	-200.000	0.003	0.027
-227.727	354.372	-0.080	0.158
-226.713	-54.737	0.063	0.028
-225.698	-200.000	-0.107	0.520
-224.684	-117.686	0.297	0.053
-223.669	-200.000	0.014	-0.140
-222.655	27.670	0.199	-0.167
-221.640	38.282	0.135	0.120
-220.625	71.562	-0.167	-0.173
-219.611	18.350	-0.245	0.195
-218.596	110.465	-0.338	-0.405
-217.582	199.924	0.131	-0.201
-216.567	800.000	0.029	-0.097
-215.552	24.290	0.193	0.159
-214.538	398.065	0.151	0.316
-213.523	-200.000	0.002	-0.105
-212.509	-118.094	0.035	0.006
-211.494	-197.665	0.309	-0.002
-210.479	-149.450	0.261	0.021
-209.465	-1.547	-0.308	-0.216
-208.450	-37.473	0.128	-0.068
-207.436	-200.000	0.045	-0.238
-206.421	-200.000	0.035	0.153
-205.406	-89.412	0.289	-0.085
-204.392	368.912	0.101	0.203
-203.377	800.000	0.095	-0.355
-202.363	-42.325	0.187	-0.095
-201.348	114.870	-0.125	0.152
-200.333	800.000	0.032	-0.094
-199.319	-36.340	0.199	-0.107
-198.304	-48.462	-0.058	0.028
-197.290	-153.522	-0.269	0.019
-196.275	17.527	0.368	-0.291
-195.260	156.399	0.132	0.182
-194.246	-15.318	0.139	0.089
-193.231	-0.850	0.241	-0.170
-192.217	201.231	-0.156	0.239
-191.202	-7.110	0.217	0.147
-190.187	-165.207	-0.200	0.009
-189.173	800.000	0.068	-0.204
-188.158	-121.354	-0.242	-0.040
-187.144	800.000	-0.070	0.240
-186.129	-200.000	-0.059	0.318
-185.114	235.716	-0.081	-0.134
-184.100	65.659	-0.030	0.030
-183.085	-200.000	-0.015	-0.188
-182.071	-23.548	-0.100	-0.060
-181.056	-200.000	-0.057	-0.400
-180.042	-5.150	0.012	0.008
-179.027	-200.000	-0.002	0.312
-178.012	9.276	-0.051	-0.038
-176.998	-68.881	0.277	0.106
-175.983	141.400	-0.135	-0.179
-174.969	127.881	-0.084	-0.106
-173.954	800.000	0.077	-0.239
-172.939	-172.491	-0.262	-0.008
-171.925	-111.703	0.069	-0.014
-170.910	466.755	0.028	-0.063
-169.896	-200.000	0.034	0.152
-168.881	800.000	0.115	0.319
-167.866	7.134	-0.192	0.142
-166.852	129.901	0.083	0.106
-165.837	-85.433	-0.368	-0.114
-164.823	-178.918	0.245	0.006
-163.808	-101.554	-0.296	0.072
-162.793	-97.388	-0.184	0.048
-161.779	-56.992	0.223	0.098
-160.764	800.000	0.074	-0.259
-159.750	-69.369	0.216	-0.083
-158.735	-67.979	-0.349	0.136
-157.720	295.595	-0.091	-0.166
-156.706	-60.983	-0.151	0.064
-155.691	-70.406	-0.296	0.112
-154.677	255.502	-0.123	-0.209
-153.662	45.734	-0.069	0.063
-152.647	-104.140	0.182	0.042
-151.633	26.435	0.198	0.165
-150.618	-200.000	-0.049	0.217
-149.604	-200.000	0.011	0.059
-148.589	55.649	-0.039	0.037
-147.574	800.000	0.025	-0.069
-146.560	6.400	0.139	0.102
-145.545	-200.000	-0.018	0.091
-144.531	-178.816	0.404	-0.009
-143.516	-3.924	0.090	0.062
-142.502	-150.099	-0.029	0.002
-141.487	279.408	-0.133	0.237
-140.472	257.533	0.187	-0.320
-139.458	-200.000	0.020	0.207
-138.443	-24.944	-0.095	-0.056
-137.429	-83.887	0.110	0.035
-136.414	195.802	-0.145	-0.220
-135.399	-200.000	0.014	-0.123
-134.385	218.180	0.140	-0.222
-133.370	-43.319	-0.289	-0.145
-132.356	-119.422	0.263	0.045
-131.341	-100.471	-0.243	-0.060
-130.326	-200.000	0.010	0.443
-129.312	475.163	0.050	-0.113
-128.297	95.893	-0.149	0.169
-127.283	-50.716	0.235	-0.110
-126.268	-200.000	0.010	-0.060
-125.253	-47.671	0.235	-0.114
-124.239	209.037	-0.134	0.208
-123.224	-200.000	-0.014	0.071
-122.210	-200.000	0.023	-0.228
-121.195	-200.000	-0.010	-0.159
