DTS Sentinel unit serial number:	SN413079Multiplexer serial number:	ORYXHardware model number:	OX4-SRSoftware version number:	ORYX F/W v4.00 Oryx Data Collector v3.7.2.0data status	okinstallation	princeton_trtdifferential loss correction	single-endedforward channel	channel 3reverse channel	N/Adate	2019/09/13time	22:20:35forward acquisition time	60.00reverse acquisition time	0.00gamma	496.2192k internal	0.2335k external	0.2335temperature offset calibration	1.0060default loss term (dB/km)	0.3790temperature slope calibration	1.0000multiplexer offset coefficient	1.0000multiplexer slope coefficient	1.0000fibre end	0.00T internal ref (°C)	27.87T ext. ref 1 (°C)	3.24T ext. ref 2 (°C)	22.52length (m)	temperature (°C)	Stokes	anti-Stokes-747.200	99.418	-0.091	0.105
-746.185	-137.229	0.087	-0.010
-745.171	171.112	-0.123	0.178
-744.156	-142.393	-0.178	-0.018
-743.142	116.440	0.174	-0.214
-742.127	516.935	-0.039	0.091
-741.112	-200.000	0.069	-0.413
-740.098	-92.103	0.033	0.009
-739.083	-31.717	0.219	-0.123
-738.069	94.718	-0.219	0.250
-737.054	-95.915	-0.112	0.030
-736.039	-86.548	-0.085	-0.026
-735.025	-120.264	0.551	0.094
-734.010	-137.822	-0.111	0.012
-732.996	-200.000	-0.028	-0.393
-731.981	117.678	-0.210	-0.260
-730.966	121.516	-0.011	0.013
-729.952	-31.205	0.356	0.201
-728.937	-5.760	-0.276	-0.190
-727.923	-72.034	-0.656	-0.245
-726.908	59.672	0.093	-0.092
-725.894	-64.903	-0.064	-0.026
-724.879	53.816	-0.062	0.060
-723.864	-193.186	0.167	0.001
-722.850	-0.475	0.176	-0.125
-721.835	-200.000	-0.077	-0.384
-720.821	95.812	-0.247	-0.283
-719.806	557.770	-0.093	-0.226
-718.791	-200.000	0.015	-0.277
-717.777	171.095	0.184	0.264
-716.762	-87.162	0.100	0.030
-715.748	-107.822	-0.301	-0.066
-714.733	-200.000	0.007	-0.595
-713.718	-165.336	-0.061	0.003
-712.704	-67.436	-0.225	-0.089
-711.689	37.878	0.280	-0.249
-710.675	800.000	0.080	-0.232
-709.660	-95.422	-0.428	-0.115
-708.645	-64.424	0.378	-0.154
-707.631	800.000	0.077	-0.288
-706.616	247.646	-0.219	-0.372
-705.602	356.279	0.119	0.238
-704.587	-151.434	-0.049	0.004
-703.572	177.143	-0.236	-0.344
-702.558	-37.747	0.080	0.043
-701.543	73.537	-0.146	-0.153
-700.529	800.000	0.077	0.224
-699.514	115.874	0.160	-0.196
-698.499	-200.000	0.010	-0.382
-697.485	-119.609	0.297	-0.051
-696.470	-42.445	-0.062	-0.032
-695.456	262.822	-0.107	-0.186
-694.441	-200.000	-0.049	-0.342
-693.426	-26.801	-0.239	-0.140
-692.412	311.595	-0.076	-0.143
-691.397	-170.768	0.262	0.009
-690.383	313.351	0.096	-0.181
-689.368	-100.713	-0.088	0.022
-688.354	-126.966	-0.169	-0.025
-687.339	-200.000	-0.022	0.195
-686.324	486.794	0.173	-0.396
-685.310	195.580	0.063	0.096
-684.295	-200.000	-0.034	-0.215
-683.281	-200.000	0.054	-0.359
-682.266	614.680	0.119	-0.299
-681.251	-84.510	0.169	-0.054
-680.237	312.762	0.056	0.106
-679.222	800.000	-0.023	-0.087
-678.208	-143.076	-0.304	-0.029
-677.193	-200.000	-0.007	0.156
-676.178	-192.004	-0.390	-0.004
-675.164	-173.735	0.204	0.006
-674.149	-121.509	-0.182	0.030
-673.135	382.008	-0.070	-0.145
-672.120	138.192	-0.185	0.244
-671.105	93.287	0.208	0.236
-670.091	-200.000	0.005	0.109
-669.076	18.420	-0.380	-0.304
-668.062	-101.445	-0.204	-0.050
-667.047	-158.841	0.187	0.011
-666.032	-26.488	-0.151	0.088
-665.018	-172.361	0.149	-0.005
-664.003	-178.671	0.203	0.005
-662.989	-126.755	-0.170	0.025
-661.974	-200.000	0.004	0.269
-660.959	-200.000	-0.015	-0.166
-659.945	195.960	-0.205	-0.312
-658.930	-200.000	0.012	-0.131
-657.916	-40.623	-0.264	-0.137
-656.901	-19.529	0.179	0.111
-655.886	157.175	-0.068	0.094
-654.872	800.000	-0.104	0.417
-653.857	-200.000	0.023	-0.145
-652.843	800.000	-0.132	-0.377
-651.828	604.083	0.012	-0.029
-650.814	-167.034	-0.349	-0.014
-649.799	-7.346	0.115	0.078
-648.784	51.233	0.105	0.099
-647.770	800.000	-0.053	-0.191
-646.755	-200.000	-0.005	-0.159
-645.741	-168.219	-0.289	0.011
-644.726	-156.362	0.185	0.012
-643.711	1.586	-0.334	0.241
-642.697	96.363	-0.134	-0.153
-641.682	-36.205	-0.508	-0.274
-640.668	377.097	0.042	0.086
-639.653	-61.809	0.118	-0.050
-638.638	19.090	0.033	0.026
-637.624	239.629	-0.217	-0.361
-636.609	4.586	0.054	-0.039
-635.595	194.078	0.132	-0.201
-634.580	-20.736	0.286	-0.175
-633.565	277.217	-0.110	-0.197
-632.551	76.077	0.172	-0.182
-631.536	61.328	0.024	-0.024
-630.522	-200.000	-0.018	0.083
-629.507	206.141	0.081	-0.127
-628.492	-52.804	0.287	-0.132
-627.478	-90.294	-0.110	-0.032
-626.463	70.204	0.048	0.050
-625.449	142.667	0.156	0.208
-624.434	800.000	0.049	-0.179
-623.419	-180.151	0.222	-0.005
-622.405	-137.461	-0.232	-0.026
-621.390	-200.000	-0.097	-0.576
-620.376	-117.734	-0.185	-0.033
-619.361	423.499	-0.105	0.226
-618.346	-9.633	0.219	-0.146
-617.332	-46.148	-0.469	-0.231
-616.317	-3.836	0.252	-0.175
-615.303	475.708	-0.147	-0.332
-614.288	-40.839	-0.040	0.020
-613.273	-200.000	0.046	0.266
-612.259	45.166	-0.246	0.227
-611.244	-200.000	-0.017	-0.271
-610.230	-51.812	-0.187	-0.087
-609.215	-80.842	-0.180	0.060
-608.201	-194.795	0.058	-0.000
-607.186	-200.000	0.029	0.133
-606.171	-200.000	0.027	0.299
-605.157	-89.096	0.420	0.124
-604.142	632.826	-0.018	-0.045
-603.128	-82.412	0.295	-0.096
-602.113	-200.000	-0.019	-0.121
-601.098	-28.837	-0.227	0.131
-600.084	-200.000	0.042	0.308
-599.069	112.222	0.119	-0.143
-598.055	0.275	-0.163	-0.116
-597.040	-96.276	-0.173	0.046
-596.025	-200.000	-0.019	0.199
-595.011	-78.549	-0.236	0.081
-593.996	-200.000	0.034	0.242
-592.982	-6.936	-0.504	-0.342
-591.967	-107.352	0.049	-0.011
-590.952	-200.000	-0.005	0.142
-589.938	679.005	0.148	0.386
-588.923	800.000	0.152	-0.445
-587.909	-91.239	-0.157	-0.045
-586.894	-50.682	0.295	-0.139
-585.879	61.879	-0.243	-0.242
-584.865	-101.198	-0.275	-0.067
-583.850	800.000	-0.131	-0.379
-582.836	76.962	0.074	-0.079
-581.821	800.000	0.026	0.110
-580.806	-134.665	-0.082	-0.010
-579.792	156.147	-0.016	-0.022
-578.777	-38.116	-0.232	0.123
-577.763	4.485	0.178	-0.130
-576.748	-8.117	-0.141	-0.095
-575.733	16.523	0.153	0.121
-574.719	102.529	0.089	0.104
-573.704	15.616	0.097	0.076
-572.690	-60.361	-0.234	0.099
-571.675	-182.236	0.223	-0.004
-570.661	276.508	0.029	-0.051
-569.646	-61.647	-0.190	-0.080
-568.631	-11.213	-0.430	0.283
-567.617	3.106	-0.099	-0.072
-566.602	-200.000	-0.009	0.097
-565.588	800.000	0.055	-0.201
-564.573	142.589	0.026	-0.035
-563.558	-40.841	0.245	-0.126
-562.544	-95.588	-0.266	-0.071
-561.529	-74.511	0.041	-0.015
-560.515	800.000	-0.022	0.081
-559.500	800.000	-0.121	-0.348
-558.485	292.068	0.088	-0.159
-557.471	-52.679	-0.119	0.055
-556.456	408.478	-0.092	0.195
-555.442	-108.425	0.311	0.067
-554.427	-94.944	-0.158	-0.043
-553.412	727.441	-0.080	-0.213
-552.398	-48.725	-0.177	0.085
-551.383	-115.275	0.293	0.055
-550.369	800.000	-0.041	-0.170
-549.354	27.870	0.139	-0.116
-548.339	158.611	-0.192	-0.266
-547.325	-200.000	0.019	0.317
-546.310	-31.917	0.205	0.115
-545.296	459.381	0.102	0.227
-544.281	-59.227	-0.133	-0.057
-543.266	-132.280	-0.158	-0.020
-542.252	-38.618	-0.355	0.187
-541.237	-78.088	-0.301	0.103
-540.223	3.401	-0.018	0.013
-539.208	337.883	-0.134	-0.259
-538.193	-76.637	0.229	0.080
-537.179	-61.502	-0.116	-0.048
-536.164	618.574	-0.118	0.295
-535.150	-81.113	0.249	-0.082
-534.135	384.832	0.225	0.463
-533.121	236.959	0.150	-0.247
-532.106	-96.218	-0.231	-0.061
-531.091	-200.000	-0.003	-0.226
-530.077	-200.000	0.011	0.192
-529.062	-47.446	0.224	-0.108
-528.048	72.603	-0.068	0.071
-527.033	-200.000	0.027	0.271
-526.018	53.096	-0.067	-0.064
-525.004	10.470	-0.166	-0.126
-523.989	-200.000	-0.020	0.195
-522.975	310.913	0.036	0.067
-521.960	39.559	0.133	0.118
-520.945	800.000	-0.025	0.083
-519.931	-3.860	-0.250	0.173
-518.916	37.265	-0.049	0.043
-517.902	29.899	0.092	0.078
-516.887	-200.000	-0.005	0.202
-515.872	26.050	0.196	-0.162
-514.858	-123.144	-0.210	0.034
-513.843	-62.789	0.225	0.093
-512.829	-136.652	-0.413	-0.047
-511.814	-3.740	-0.187	-0.129
-510.799	-3.202	0.213	0.148
-509.785	-41.812	-0.220	0.112
-508.770	192.487	-0.088	-0.132
-507.756	-67.500	0.290	-0.113
-506.741	28.762	-0.390	0.329
-505.726	132.166	-0.228	0.292
-504.712	-200.000	0.051	0.366
-503.697	800.000	-0.103	0.341
-502.683	-73.086	-0.181	0.066
-501.668	-200.000	-0.021	-0.114
-500.653	800.000	-0.056	0.173
-499.639	114.276	0.126	0.152
-498.624	800.000	0.050	0.142
-497.610	-104.240	0.048	0.011
-496.595	-61.713	0.072	0.030
-495.581	-161.572	0.275	-0.014
-494.566	212.334	0.105	0.165
-493.551	568.497	-0.087	0.209
-492.537	-38.334	0.274	-0.144
-491.522	-200.000	0.016	0.296
-490.508	142.841	-0.069	-0.092
-489.493	134.872	0.066	-0.085
-488.478	-118.514	-0.224	0.039
-487.464	-125.260	0.331	-0.050
-486.449	516.496	-0.090	0.209
-485.435	99.864	-0.166	0.191
-484.420	-128.339	-0.182	0.026
-483.405	-157.887	-0.329	0.019
-482.391	-69.160	-0.073	0.028
-481.376	296.423	-0.122	0.223
-480.362	-84.470	0.103	0.032
-479.347	393.146	-0.081	0.167
-478.332	-15.886	-0.054	0.034
-477.318	-10.717	-0.068	-0.044
-476.303	-49.364	0.385	0.183
-475.289	151.940	-0.157	-0.213
-474.274	800.000	-0.067	-0.225
-473.259	-71.732	-0.230	0.085
-472.245	420.452	-0.085	-0.182
-471.230	800.000	-0.009	0.034
-470.216	14.502	-0.057	-0.045
-469.201	483.845	0.074	-0.168
-468.186	191.348	-0.040	-0.060
-467.172	-3.401	0.223	0.154
-466.157	-165.222	-0.115	-0.005
-465.143	224.696	-0.061	-0.099
-464.128	605.420	-0.079	0.195
-463.113	-137.717	-0.134	0.015
-462.099	482.570	-0.018	-0.041
-461.084	-200.000	-0.003	0.069
-460.070	7.385	-0.044	-0.032
-459.055	-13.620	0.187	-0.120
-458.040	-72.222	0.254	-0.094
-457.026	749.061	-0.104	-0.280
-456.011	-200.000	0.002	-0.254
-454.997	94.886	0.152	0.171
-453.982	28.747	-0.284	0.239
-452.968	288.605	-0.039	0.070
-451.953	-200.000	0.055	-0.287
-450.938	261.005	0.134	-0.231
-449.924	141.309	-0.152	0.200
-448.909	-200.000	-0.003	0.126
-447.895	-127.049	-0.156	0.023
-446.880	-68.057	0.272	0.105
-445.865	800.000	-0.026	-0.078
-444.851	215.013	0.218	-0.344
-443.836	800.000	0.097	0.276
-442.822	-125.481	0.189	-0.029
-441.807	-126.176	0.219	-0.033
-440.792	800.000	0.004	-0.012
-439.778	231.558	-0.175	0.285
-438.763	-152.269	-0.084	0.006
-437.749	118.976	0.149	-0.183
-436.734	-117.951	-0.182	0.032
-435.719	25.337	-0.262	-0.216
-434.705	158.766	-0.176	-0.242
-433.690	-200.000	-0.031	-0.198
-432.676	-200.000	-0.004	0.062
-431.661	-69.576	0.193	-0.073
-430.646	-72.218	0.074	-0.027
-429.632	-129.826	0.311	0.042
-428.617	-103.643	0.160	0.037
-427.603	-117.285	0.128	0.023
-426.588	139.471	-0.057	0.075
-425.573	91.854	0.127	-0.142
-424.559	-150.406	0.285	-0.022
-423.544	-0.620	-0.098	0.069
-422.530	515.313	-0.027	0.062
-421.515	232.370	-0.204	0.332
-420.500	-107.483	-0.303	-0.066
-419.486	-78.645	-0.063	0.022
-418.471	800.000	-0.025	-0.087
-417.457	-22.279	-0.138	0.083
-416.442	-200.000	0.017	-0.181
-415.428	34.558	0.127	0.110
-414.413	800.000	-0.012	-0.051
-413.398	-45.394	0.248	0.122
-412.384	192.564	0.164	-0.245
-411.369	85.479	-0.104	-0.113
-410.355	-133.986	-0.247	0.030
-409.340	239.231	0.099	-0.163
-408.325	-29.098	-0.362	-0.206
-407.311	51.522	-0.122	-0.115
-406.296	299.558	-0.109	-0.199
-405.282	34.026	-0.210	0.181
-404.267	-15.380	0.116	-0.073
-403.252	-107.610	0.164	-0.036
-402.238	-92.345	-0.174	-0.048
-401.223	0.966	-0.139	-0.099
-400.209	387.275	-0.154	-0.315
-399.194	800.000	-0.105	0.349
-398.179	-47.002	-0.077	0.037
-397.165	126.833	-0.249	0.313
-396.150	800.000	0.111	-0.319
-395.136	250.911	-0.079	-0.133
-394.121	-200.000	-0.034	0.401
-393.106	-200.000	0.009	-0.218
-392.092	-72.968	-0.208	-0.076
-391.077	-30.134	0.120	0.068
-390.063	-200.000	-0.021	0.148
-389.048	-77.635	-0.149	0.051
-388.033	-43.350	0.119	0.059
-387.019	-62.794	-0.302	-0.124
-386.004	-51.377	-0.298	0.138
-384.990	-133.239	0.100	0.012
-383.975	-27.885	-0.039	-0.022
-382.960	92.000	-0.292	-0.325
-381.946	-8.020	0.154	0.103
-380.931	800.000	-0.031	-0.126
-379.917	-161.235	0.261	-0.013
-378.902	28.157	0.101	-0.084
-377.888	161.997	0.065	-0.090
-376.873	-147.174	-0.355	-0.030
-375.858	-200.000	-0.077	-0.384
-374.844	-88.188	0.340	0.101
-373.829	800.000	-0.060	0.192
-372.815	-200.000	0.026	0.201
-371.800	-200.000	-0.026	0.280
-370.785	-200.000	0.019	0.334
-369.771	-107.408	-0.222	-0.048
-368.756	-7.905	-0.175	-0.117
-367.742	-157.849	0.267	-0.016
-366.727	194.112	-0.041	0.062
-365.712	76.808	-0.135	0.142
-364.698	800.000	-0.148	-0.474
-363.683	800.000	-0.059	-0.202
-362.669	-131.921	0.177	-0.023
-361.654	-95.587	0.315	-0.084
-360.639	800.000	0.078	0.251
-359.625	-98.658	0.243	-0.061
-358.610	69.126	-0.122	0.125
-357.596	301.518	-0.127	0.232
-356.581	-165.287	0.163	0.007
-355.566	-90.314	0.246	0.071
-354.552	-167.218	0.452	0.018
-353.537	800.000	-0.047	-0.157
-352.523	174.041	0.211	-0.302
-351.508	17.112	-0.058	-0.045
-350.493	117.246	-0.200	0.243
-349.479	516.652	0.085	0.196
-348.464	-124.718	-0.173	-0.026
-347.450	-190.397	-0.268	0.003
-346.435	800.000	-0.077	-0.225
-345.420	-29.394	0.274	-0.155
-344.406	-200.000	-0.046	0.319
-343.391	-200.000	-0.017	0.106
-342.377	800.000	0.065	-0.185
-341.362	192.588	0.079	-0.118
-340.348	-102.734	-0.272	-0.064
-339.333	154.387	-0.079	-0.108
-338.318	76.231	0.091	0.095
-337.304	-187.036	0.354	0.005
-336.289	-99.136	0.367	-0.092
-335.275	-29.732	0.189	0.107
-334.260	-150.942	-0.368	0.027
-333.245	-18.369	-0.134	-0.083
-332.231	-52.008	0.258	0.118
-331.216	599.339	-0.041	-0.102
-330.202	800.000	0.048	-0.205
-329.187	800.000	0.024	0.094
-328.172	-166.588	0.112	-0.005
-327.158	-71.874	0.123	-0.045
-326.143	-168.544	-0.153	0.006
-325.129	-180.155	0.388	-0.008
-324.114	509.099	0.096	0.220
-323.099	73.303	-0.162	-0.168
-322.085	-42.054	0.319	0.161
-321.070	-10.766	0.090	-0.059
-320.056	178.915	-0.120	-0.174
-319.041	70.726	0.118	0.121
-318.026	178.842	-0.206	0.297
-317.012	37.111	0.373	0.326
-315.997	-192.508	0.129	-0.001
-314.983	49.597	0.311	-0.289
-313.968	59.467	-0.145	-0.141
-312.953	-157.265	0.187	0.011
-311.939	140.155	0.094	-0.122
-310.924	-107.576	0.252	-0.055
-309.910	-47.046	-0.061	-0.029
-308.895	-200.000	0.000	-0.010
-307.880	-37.792	-0.138	0.072
-306.866	11.218	0.121	-0.091
-305.851	-138.112	0.345	-0.038
-304.837	-200.000	0.021	-0.195
-303.822	36.529	-0.187	-0.163
-302.807	55.065	-0.316	-0.301
-301.793	-200.000	0.026	-0.214
-300.778	-106.972	0.158	0.035
-299.764	-49.271	0.300	0.142
-298.749	-23.826	-0.084	0.050
-297.735	800.000	-0.031	-0.094
-296.720	-200.000	0.007	-0.105
-295.705	-32.151	0.025	0.014
-294.691	-147.784	-0.310	-0.026
-293.676	-200.000	-0.040	-0.346
-292.662	-22.392	0.279	-0.167
-291.647	17.213	-0.036	-0.028
-290.632	18.632	-0.035	-0.028
-289.618	-83.190	0.411	0.130
-288.603	-117.090	-0.190	-0.034
-287.589	87.187	-0.111	0.122
-286.574	-71.844	-0.129	0.047
-285.559	-200.000	-0.030	0.211
-284.545	128.068	0.192	0.241
-283.530	-120.792	-0.110	0.018
-282.516	290.226	0.092	0.165
-281.501	31.771	-0.289	0.245
-280.486	192.128	0.107	-0.159
-279.472	16.682	0.346	0.270
-278.457	28.381	-0.228	0.190
-277.443	-98.965	-0.143	0.036
-276.428	800.000	0.072	0.209
-275.413	31.178	-0.203	-0.172
-274.399	-200.000	-0.027	0.156
-273.384	-200.000	-0.058	0.397
-272.370	-51.870	0.127	0.058
-271.355	68.436	-0.140	0.142
-270.340	-52.520	0.086	-0.039
-269.326	-119.274	0.158	-0.027
-268.311	-200.000	-0.015	0.164
-267.297	-200.000	-0.013	0.059
-266.282	-61.739	-0.134	0.055
-265.267	-115.892	-0.043	0.008
-264.253	-106.595	0.238	-0.052
-263.238	64.790	0.094	-0.093
-262.224	196.114	-0.099	-0.148
-261.209	181.121	0.097	0.141
-260.195	115.518	0.156	0.189
-259.180	-200.000	0.024	-0.219
-258.165	-200.000	0.011	0.101
-257.151	728.104	-0.047	0.123
-256.136	-200.000	-0.049	0.533
-255.122	-161.628	-0.177	-0.009
-254.107	338.849	0.098	0.189
-253.092	585.685	0.031	0.076
-252.078	800.000	-0.070	0.238
-251.063	45.176	0.132	0.120
-250.049	-9.558	0.205	-0.135
-249.034	-70.378	0.195	-0.073
-248.019	-101.818	-0.066	-0.016
-247.005	49.783	-0.051	-0.048
-245.990	800.000	-0.074	0.219
-244.976	-152.192	-0.052	-0.004
-243.961	264.602	0.233	0.400
-242.946	136.083	0.161	-0.207
-241.932	70.544	0.111	-0.113
-240.917	60.240	0.105	-0.103
-239.903	339.850	-0.219	-0.420
-238.888	120.705	0.081	-0.099
-237.873	800.000	0.028	-0.082
-236.859	-146.690	0.186	0.016
-235.844	-200.000	-0.085	0.417
-234.830	-109.952	-0.265	0.055
-233.815	105.789	0.188	-0.219
-232.800	69.061	-0.201	-0.204
-231.786	-37.463	-0.258	0.135
-230.771	-8.354	-0.198	0.131
-229.757	-200.000	-0.037	-0.165
-228.742	-67.754	0.396	0.152
-227.727	-93.662	0.168	0.046
-226.713	127.519	-0.131	-0.164
-225.698	236.076	-0.066	0.108
-224.684	-167.698	0.156	0.006
-223.669	-40.639	0.218	-0.111
-222.655	-94.296	0.254	0.068
-221.640	-84.589	-0.174	-0.054
-220.625	778.075	0.119	0.319
-219.611	410.617	0.055	0.116
-218.596	353.755	0.202	-0.395
-217.582	-88.401	0.232	-0.068
-216.567	-200.000	0.013	-0.227
-215.552	-72.353	-0.123	-0.045
-214.538	-200.000	-0.027	-0.133
-213.523	439.473	0.090	-0.194
-212.509	-146.391	-0.269	0.023
-211.494	-38.268	0.190	0.099
-210.479	-55.483	-0.090	-0.040
-209.465	800.000	0.046	-0.129
-208.450	-74.136	0.064	0.023
-207.436	215.280	0.072	-0.112
-206.421	-67.884	0.239	0.092
-205.406	321.901	0.176	0.329
-204.392	-44.079	-0.118	-0.058
-203.377	-84.356	0.147	0.046
-202.363	-81.780	0.303	0.098
-201.348	612.672	0.140	0.344
-200.333	-200.000	-0.008	-0.102
-199.319	-200.000	0.015	0.203
-198.304	139.993	0.121	-0.156
-197.290	800.000	0.081	-0.348
-196.275	-65.003	0.151	-0.060
-195.260	255.212	0.135	0.227
-194.246	-200.000	0.007	0.206
-193.231	498.704	0.039	-0.088
-192.217	800.000	0.036	0.120
-191.202	7.446	-0.212	0.156
-190.187	-45.174	-0.296	-0.145
-189.173	-200.000	-0.067	0.306
-188.158	176.806	0.174	0.249
-187.144	122.600	0.229	-0.281
-186.129	-8.534	-0.258	-0.171
-185.114	179.015	-0.126	0.181
-184.100	-200.000	-0.018	0.408
-183.085	-111.291	-0.081	-0.016
-182.071	-60.836	0.124	-0.051
-181.056	-94.574	0.284	-0.076
-180.042	-126.494	-0.304	0.044
-179.027	495.566	0.046	-0.105
-178.012	-200.000	0.005	0.155
-176.998	800.000	-0.062	-0.243
-175.983	-116.647	-0.304	-0.055
-174.969	-200.000	0.003	0.150
-173.954	142.707	-0.104	-0.135
-172.939	-111.366	-0.236	-0.047
-171.925	-15.599	-0.048	-0.030
-170.910	-200.000	0.043	-0.218
-169.896	-173.193	-0.029	0.001
-168.881	3.387	0.174	-0.125
-167.866	800.000	0.076	-0.270
-166.852	-63.788	-0.060	-0.024
-165.837	-138.390	-0.302	-0.033
-164.823	-200.000	0.040	0.210
-163.808	85.374	-0.080	-0.087
-162.793	119.197	0.024	-0.029
-161.779	-58.921	-0.208	-0.088
-160.764	-67.988	-0.052	-0.020
-159.750	1.491	0.209	-0.148
-158.735	-81.403	0.080	-0.026
-157.720	-200.000	0.005	-0.109
-156.706	-80.882	0.232	-0.076
-155.691	150.903	0.091	0.122
-154.677	90.863	0.118	-0.130
-153.662	28.324	0.092	0.076
-152.647	483.527	0.047	-0.105
-151.633	87.723	0.096	-0.105
-150.618	53.394	0.108	0.102
-149.604	51.529	0.202	0.188
-148.589	-95.540	0.383	0.101
-147.574	800.000	0.034	-0.130
-146.560	175.487	0.221	-0.315
-145.545	461.606	-0.054	0.118
-144.531	120.498	-0.142	0.173
-143.516	-34.086	0.097	0.052
-142.502	53.436	-0.156	-0.146
-141.487	-141.025	-0.195	0.020
-140.472	-19.085	0.287	-0.175
-139.458	-200.000	0.018	0.138
-138.443	-200.000	0.037	-0.212
-137.429	800.000	-0.023	-0.073
-136.414	-97.059	0.086	-0.022
-135.399	-55.102	-0.203	0.089
-134.385	800.000	-0.053	0.186
-133.370	800.000	0.057	0.204
-132.356	-47.365	-0.139	0.066
-131.341	42.767	-0.281	0.251
-130.326	800.000	-0.080	-0.250
-129.312	51.141	0.114	0.106
-128.297	-60.959	0.363	-0.151
-127.283	-66.090	0.136	-0.053
-126.268	-200.000	0.052	0.537
-125.253	-120.876	-0.122	-0.020
-124.239	8.075	0.179	-0.132
-123.224	-48.069	0.270	-0.128
-122.210	-106.436	0.063	-0.014
