DTS Sentinel unit serial number:	SN413079Multiplexer serial number:	ORYXHardware model number:	OX4-SRSoftware version number:	ORYX F/W v4.00 Oryx Data Collector v3.7.2.0data status	okinstallation	princeton_trtdifferential loss correction	single-endedforward channel	channel 3reverse channel	N/Adate	2019/09/13time	16:28:34forward acquisition time	60.00reverse acquisition time	0.00gamma	496.2192k internal	0.2303k external	0.2303temperature offset calibration	1.0143default loss term (dB/km)	0.3790temperature slope calibration	1.0000multiplexer offset coefficient	1.0000multiplexer slope coefficient	1.0000fibre end	0.00T internal ref (°C)	35.06T ext. ref 1 (°C)	4.89T ext. ref 2 (°C)	30.86length (m)	temperature (°C)	Stokes	anti-Stokes-747.200	-66.524	-0.023	0.009
-746.185	202.180	0.131	0.205
-745.171	800.000	0.031	0.102
-744.156	49.542	0.075	-0.072
-743.142	-86.164	0.202	-0.063
-742.127	-200.000	0.012	0.254
-741.112	-37.922	0.317	0.172
-740.098	220.953	-0.090	-0.148
-739.083	-44.701	0.173	0.088
-738.069	-121.996	-0.196	-0.033
-737.054	64.263	-0.271	0.278
-736.039	-63.950	0.087	-0.036
-735.025	-200.000	0.035	0.180
-734.010	45.575	0.295	0.278
-732.996	-200.000	-0.025	0.126
-731.981	-200.000	-0.003	0.279
-730.966	-15.923	-0.187	-0.121
-729.952	-200.000	-0.016	0.298
-728.937	134.546	0.176	-0.232
-727.923	564.271	-0.027	0.065
-726.908	-104.858	-0.313	-0.073
-725.894	-35.200	-0.389	-0.216
-724.879	42.571	0.279	-0.259
-723.864	-9.295	-0.157	-0.107
-722.850	-64.512	0.329	-0.136
-721.835	-200.000	-0.019	0.181
-720.821	-55.404	-0.248	0.113
-719.806	310.875	-0.095	0.180
-718.791	-73.691	0.198	-0.073
-717.777	-97.312	0.378	0.100
-716.762	-172.423	-0.201	0.006
-715.748	100.451	-0.221	-0.261
-714.733	-77.885	0.251	-0.088
-713.718	-200.000	0.014	0.077
-712.704	-4.969	-0.179	0.126
-711.689	409.656	0.027	-0.058
-710.675	155.086	0.212	-0.296
-709.660	-61.237	-0.329	-0.141
-708.645	122.382	0.214	-0.272
-707.631	738.342	0.143	0.391
-706.616	443.756	-0.071	0.158
-705.602	33.737	-0.333	-0.295
-704.587	450.087	0.040	0.089
-703.572	-152.571	-0.284	-0.021
-702.558	230.040	0.129	0.214
-701.543	-140.157	-0.426	0.045
-700.529	49.233	0.245	-0.234
-699.514	143.423	0.065	-0.088
-698.499	421.222	0.020	-0.043
-697.485	229.994	0.080	-0.133
-696.470	53.933	0.141	-0.137
-695.456	-105.932	-0.305	-0.070
-694.441	-162.030	0.347	0.018
-693.426	248.230	-0.037	0.063
-692.412	-101.714	0.047	0.012
-691.397	153.290	-0.331	-0.460
-690.383	-200.000	-0.074	-0.384
-689.368	800.000	0.026	-0.106
-688.354	128.727	-0.133	0.172
-687.339	-27.235	0.098	-0.058
-686.324	-52.325	0.328	-0.155
-685.310	-15.026	0.259	0.169
-684.295	800.000	0.050	-0.153
-683.281	800.000	0.109	-0.460
-682.266	392.467	0.137	0.289
-681.251	728.108	0.095	-0.257
-680.237	44.025	0.183	-0.170
-679.222	0.930	-0.035	-0.026
-678.208	-146.083	-0.243	0.022
-677.193	200.365	-0.087	0.136
-676.178	319.141	0.061	-0.117
-675.164	800.000	-0.039	-0.146
-674.149	-4.356	-0.136	-0.095
-673.135	-200.000	0.011	0.156
-672.120	800.000	-0.074	-0.307
-671.105	-200.000	-0.010	0.143
-670.091	800.000	0.089	0.388
-669.076	-19.409	0.210	-0.132
-668.062	148.601	-0.095	0.131
-667.047	417.780	0.099	0.215
-666.032	76.816	0.041	-0.044
-665.018	-99.898	-0.200	0.051
-664.003	-116.837	-0.429	0.080
-662.989	703.312	0.127	-0.340
-661.974	-190.286	-0.303	0.003
-660.959	-27.675	-0.101	0.059
-659.945	58.357	-0.054	0.054
-658.930	-4.347	-0.246	0.173
-657.916	800.000	0.008	0.025
-656.901	360.822	0.065	0.131
-655.886	319.735	-0.140	-0.269
-654.872	-51.358	0.266	-0.126
-653.857	97.252	-0.053	0.061
-652.843	73.837	-0.100	0.107
-651.828	-70.529	-0.303	-0.117
-650.814	274.508	0.106	0.191
-649.799	443.217	-0.025	-0.055
-648.784	-18.629	0.242	-0.153
-647.770	-187.534	0.173	0.002
-646.755	-140.232	-0.324	-0.034
-645.741	-150.749	-0.158	-0.012
-644.726	-200.000	0.179	-0.000
-643.711	237.018	0.035	-0.058
-642.697	800.000	0.044	0.125
-641.682	800.000	-0.033	0.138
-640.668	421.627	0.063	0.137
-639.653	20.163	0.211	-0.173
-638.638	-129.200	0.073	0.010
-637.624	-61.282	0.311	0.133
-636.609	508.116	-0.159	-0.375
-635.595	-138.921	-0.220	-0.024
-634.580	-200.000	-0.038	0.409
-633.565	-200.000	0.016	0.168
-632.551	-200.000	0.055	-0.388
-631.536	-200.000	-0.030	0.161
-630.522	57.465	0.037	0.037
-629.507	-200.000	-0.003	0.189
-628.492	35.446	-0.199	-0.177
-627.478	-25.049	0.285	-0.171
-626.463	-200.000	0.007	0.130
-625.449	25.873	-0.022	-0.019
-624.434	1.870	-0.120	-0.088
-623.419	31.674	-0.270	0.236
-622.405	-111.383	-0.075	0.016
-621.390	-200.000	-0.032	0.142
-620.376	-22.225	0.148	-0.091
-619.361	-200.000	-0.016	0.325
-618.346	-5.869	0.209	-0.145
-617.332	38.649	-0.213	-0.193
-616.317	-33.294	-0.125	0.070
-615.303	206.435	0.148	-0.234
-614.288	-56.345	0.070	0.031
-613.273	410.973	-0.098	0.211
-612.259	-136.654	0.005	0.001
-611.244	-10.288	-0.207	-0.139
-610.230	800.000	0.098	-0.343
-609.215	-153.055	-0.179	-0.013
-608.201	800.000	-0.023	0.100
-607.186	351.748	-0.206	-0.413
-606.171	295.487	0.088	0.164
-605.157	72.612	0.034	0.036
-604.142	64.202	-0.077	-0.079
-603.128	228.382	0.037	0.061
-602.113	-200.000	0.001	0.053
-601.098	8.287	0.194	0.148
-600.084	70.488	0.164	-0.171
-599.069	449.690	-0.076	0.170
-598.055	-200.000	-0.003	-0.189
-597.040	-200.000	0.001	-0.013
-596.025	-30.990	0.131	0.075
-595.011	-62.994	-0.383	-0.160
-593.996	-79.561	-0.166	0.057
-592.982	-137.491	0.171	0.020
-591.967	99.014	-0.203	-0.237
-590.952	-19.993	-0.031	0.019
-589.938	-93.683	0.271	-0.076
-588.923	41.857	0.125	0.115
-587.909	187.618	0.153	0.231
-586.894	274.384	0.120	0.215
-585.879	-165.581	0.355	-0.016
-584.865	72.126	0.103	-0.108
-583.850	22.553	0.035	0.029
-582.836	-65.927	-0.248	0.101
-581.821	-86.714	0.132	-0.041
-580.806	574.824	0.028	0.068
-579.792	277.924	0.100	-0.179
-578.777	-127.445	0.166	0.024
-577.763	-200.000	0.019	0.139
-576.748	-200.000	-0.012	0.216
-575.733	730.430	-0.032	0.086
-574.719	-61.779	-0.220	0.093
-573.704	-200.000	-0.024	-0.212
-572.690	84.609	0.096	0.107
-571.675	-200.000	-0.003	-0.081
-570.661	613.677	-0.040	0.101
-569.646	88.750	-0.037	-0.042
-568.631	506.003	-0.099	0.231
-567.617	-85.488	-0.135	-0.042
-566.602	-106.872	0.161	-0.036
-565.588	-200.000	-0.015	-0.258
-564.573	-70.545	-0.179	0.068
-563.558	252.598	-0.093	-0.160
-562.544	-200.000	-0.001	-0.083
-561.529	62.240	0.074	0.074
-560.515	-97.571	0.131	0.035
-559.500	665.769	0.051	-0.132
-558.485	473.184	0.029	0.066
-557.471	115.851	-0.171	0.212
-556.456	44.994	0.258	-0.241
-555.442	-200.000	0.050	0.269
-554.427	800.000	-0.061	0.187
-553.412	14.708	-0.326	0.258
-552.398	-157.265	0.068	-0.004
-551.383	27.764	0.164	0.140
-550.369	-48.182	-0.303	0.148
-549.354	-200.000	-0.007	-0.211
-548.339	-105.393	0.209	0.048
-547.325	-200.000	0.005	-0.371
-546.310	67.643	0.201	-0.208
-545.296	283.218	0.062	0.113
-544.281	-200.000	0.016	-0.099
-543.266	800.000	0.058	-0.195
-542.252	88.893	-0.200	-0.225
-541.237	-24.140	0.106	0.064
-540.223	-200.000	-0.055	0.254
-539.208	-154.055	-0.038	-0.003
-538.193	-200.000	0.008	0.154
-537.179	3.408	0.129	0.095
-536.164	-94.670	-0.170	0.047
-535.150	-136.105	-0.100	0.012
-534.135	-72.717	0.229	0.085
-533.121	-175.564	0.170	-0.005
-532.106	20.415	-0.203	-0.166
-531.091	-7.941	-0.245	0.167
-530.077	254.906	0.074	0.129
-529.062	-16.487	-0.083	0.053
-528.048	178.123	-0.095	0.140
-527.033	-122.098	-0.162	0.027
-526.018	-148.300	0.510	-0.042
-525.004	-44.361	-0.009	-0.005
-523.989	-99.573	0.133	0.034
-522.975	-200.000	-0.020	0.133
-521.960	-93.019	0.035	0.010
-520.945	-29.605	0.124	-0.072
-519.931	68.590	-0.031	0.032
-518.916	199.235	0.101	-0.156
-517.902	9.374	-0.214	-0.164
-516.887	-93.426	0.438	-0.123
-515.872	-83.809	-0.149	-0.048
-514.858	55.111	0.356	0.347
-513.843	731.563	-0.143	-0.385
-512.829	53.122	-0.238	0.230
-511.814	111.943	-0.200	0.244
-510.799	-65.094	-0.250	-0.102
-509.785	13.360	-0.209	-0.163
-508.770	305.546	-0.058	-0.110
-507.756	-152.833	-0.271	0.019
-506.741	505.981	-0.054	0.127
-505.726	47.947	-0.060	-0.057
-504.712	586.671	0.104	0.258
-503.697	146.421	0.017	0.023
-502.683	487.834	-0.017	0.040
-501.668	540.283	0.148	-0.355
-500.653	-86.337	0.203	-0.063
-499.639	81.153	0.252	-0.275
-498.624	5.726	0.174	-0.130
-497.610	118.961	-0.267	0.333
-496.595	135.125	-0.085	-0.111
-495.581	60.535	-0.209	-0.209
-494.566	-142.990	-0.225	-0.022
-493.551	-92.204	-0.181	-0.051
-492.537	135.143	0.273	0.358
-491.522	151.240	0.116	0.159
-490.508	285.231	-0.106	-0.193
-489.493	800.000	-0.035	-0.138
-488.478	-200.000	-0.023	0.122
-487.464	145.266	0.098	-0.132
-486.449	15.936	-0.141	0.112
-485.435	121.174	-0.185	-0.232
-484.420	-40.770	-0.468	-0.244
-483.405	-48.067	0.031	-0.015
-482.391	800.000	0.087	-0.305
-481.376	-122.665	0.086	-0.014
-480.362	467.687	-0.063	-0.143
-479.347	6.754	0.063	-0.047
-478.332	-13.118	-0.374	-0.245
-477.318	21.714	-0.162	-0.133
-476.303	-200.000	0.053	-0.342
-475.289	8.633	0.055	-0.042
-474.274	-123.334	-0.381	0.061
-473.259	404.065	-0.111	0.237
-472.245	-200.000	0.009	0.436
-471.230	85.596	-0.170	0.189
-470.216	2.888	0.062	-0.045
-469.201	299.990	-0.070	0.130
-468.186	-144.792	-0.118	0.011
-467.172	426.395	-0.081	0.176
-466.157	-5.192	0.088	0.061
-465.143	174.874	-0.274	-0.399
-464.128	41.837	-0.190	0.173
-463.113	210.732	0.145	0.230
-462.099	37.663	0.244	-0.218
-461.084	13.736	-0.367	-0.287
-460.070	13.367	-0.343	0.268
-459.055	-101.233	-0.103	-0.025
-458.040	118.136	-0.164	0.204
-457.026	-4.678	-0.218	-0.152
-456.011	-92.368	0.300	0.085
-454.997	493.356	0.101	-0.234
-453.982	142.912	0.179	0.240
-452.968	24.319	0.043	0.036
-451.953	704.754	0.104	-0.277
-450.938	109.023	0.089	-0.107
-449.924	-123.471	-0.415	-0.066
-448.909	15.960	-0.163	-0.129
-447.895	193.276	0.076	0.116
-446.880	-72.977	0.191	-0.070
-445.865	-146.171	-0.228	-0.020
-444.851	800.000	0.024	0.086
-443.836	4.933	-0.186	0.138
-442.822	800.000	-0.027	-0.103
-441.807	-42.868	-0.086	0.044
-440.792	155.458	0.163	0.226
-439.778	-133.196	0.082	-0.010
-438.763	800.000	-0.060	-0.192
-437.749	-200.000	0.000	0.050
-436.734	20.595	0.183	-0.149
-435.719	-109.277	-0.120	-0.026
-434.705	227.737	-0.148	-0.242
-433.690	64.387	0.186	-0.189
-432.676	-79.660	-0.173	0.059
-431.661	-121.505	-0.254	0.043
-430.646	-86.557	0.106	-0.033
-429.632	67.381	0.140	-0.144
-428.617	130.357	-0.156	-0.201
-427.603	-127.275	-0.159	0.023
-426.588	29.924	0.176	0.151
-425.573	800.000	-0.102	-0.333
-424.559	-123.015	0.219	-0.035
-423.544	30.603	0.121	0.104
-422.530	-0.766	0.224	0.160
-421.515	136.002	0.065	-0.085
-420.500	513.395	-0.095	0.223
-419.486	579.825	0.106	-0.260
-418.471	-95.713	0.289	0.078
-417.457	159.960	-0.254	0.356
-416.442	789.566	0.036	0.099
-415.428	-119.298	0.082	-0.014
-414.413	-200.000	-0.011	-0.317
-413.398	800.000	0.037	0.154
-412.384	-69.273	0.287	-0.111
-411.369	108.091	0.156	0.187
-410.355	-30.794	0.290	0.165
-409.340	-80.042	-0.147	0.049
-408.325	-117.476	-0.198	0.036
-407.311	-35.773	-0.248	0.135
-406.296	-200.000	0.018	0.119
-405.282	-119.892	0.053	-0.009
-404.267	-28.463	-0.057	-0.033
-403.252	90.828	0.117	-0.132
-402.238	-148.552	-0.148	-0.012
-401.223	-200.000	0.027	-0.411
-400.209	-83.510	-0.085	0.027
-399.194	-0.345	0.307	0.219
-398.179	-45.469	-0.144	0.072
-397.165	-11.174	0.153	-0.101
-396.150	-139.758	0.303	-0.032
-395.136	198.255	-0.050	-0.076
-394.121	42.642	0.204	0.186
-393.106	800.000	-0.061	0.174
-392.092	-200.000	0.018	-0.093
-391.077	269.545	-0.182	0.322
-390.063	105.636	-0.183	0.217
-389.048	-11.211	0.052	-0.035
-388.033	800.000	0.057	0.214
-387.019	-163.337	0.319	-0.015
-386.004	-59.000	-0.083	-0.036
-384.990	-200.000	0.018	-0.253
-383.975	-200.000	-0.038	-0.192
-382.960	167.568	-0.059	-0.084
-381.946	191.146	-0.106	-0.161
-380.931	115.823	0.334	0.411
-379.917	800.000	0.079	-0.302
-378.902	50.753	-0.171	0.162
-377.888	800.000	0.059	0.258
-376.873	-43.845	0.079	-0.040
-375.858	248.941	-0.157	-0.268
-374.844	74.432	-0.175	0.185
-373.829	-161.649	0.268	0.014
-372.815	-33.662	0.331	0.183
-371.800	108.957	0.136	0.163
-370.785	105.772	-0.091	0.108
-369.771	355.947	0.166	-0.332
-368.756	-27.910	-0.221	-0.128
-367.742	800.000	-0.056	0.237
-366.727	284.956	0.036	0.065
-365.712	-200.000	-0.098	-0.554
-364.698	-155.841	-0.154	-0.010
-363.683	-101.656	0.153	0.037
-362.669	800.000	0.161	0.462
-361.654	57.887	-0.347	0.340
-360.639	113.539	-0.126	-0.154
-359.625	46.316	-0.171	0.159
-358.610	800.000	-0.054	0.187
-357.596	800.000	0.020	0.062
-356.581	-9.585	-0.139	0.093
-355.566	0.867	0.361	0.259
-354.552	-200.000	-0.085	-0.409
-353.537	199.142	-0.154	-0.236
-352.523	-141.545	-0.112	-0.011
-351.508	632.070	-0.033	-0.083
-350.493	-95.222	0.392	-0.106
-349.479	-175.006	0.423	0.012
-348.464	-22.703	-0.333	0.202
-347.450	-111.714	0.248	-0.050
-346.435	72.486	0.150	-0.157
-345.420	-69.860	0.071	-0.027
-344.406	-200.000	-0.004	-0.092
-343.391	-175.207	-0.124	-0.003
-342.377	579.754	-0.019	-0.047
-341.362	-200.000	-0.016	-0.349
-340.348	800.000	0.051	0.219
-339.333	-110.609	0.326	-0.068
-338.318	55.678	-0.174	0.169
-337.304	-200.000	-0.015	0.070
-336.289	-62.924	0.283	-0.118
-335.275	-72.007	-0.077	0.029
-334.260	-164.319	0.350	-0.016
-333.245	-26.023	-0.177	-0.104
-332.231	-168.319	0.240	0.009
-331.216	53.858	0.116	0.112
-330.202	-59.783	-0.142	0.061
-329.187	-102.682	0.137	0.033
-328.172	-47.024	0.120	-0.059
-327.158	311.209	-0.026	-0.049
-326.143	41.618	0.179	0.162
-325.129	-32.634	-0.044	-0.024
-324.114	143.291	0.137	-0.183
-323.099	-130.503	0.221	-0.030
-322.085	445.194	0.063	-0.139
-321.070	-17.869	0.319	-0.200
-320.056	-100.781	0.017	0.004
-319.041	735.831	0.046	0.123
-318.026	163.713	0.196	-0.276
-317.012	137.149	0.061	-0.081
-315.997	491.367	-0.125	-0.287
-314.983	25.208	-0.098	-0.082
-313.968	-200.000	-0.007	-0.139
-312.953	-131.355	0.384	0.051
-311.939	25.955	-0.287	0.240
-310.924	-200.000	0.004	0.227
-309.910	461.335	0.104	0.232
-308.895	-131.320	-0.258	0.034
-307.880	-200.000	-0.051	0.393
-306.866	800.000	-0.080	-0.324
-305.851	135.644	-0.194	-0.252
-304.837	-200.000	0.048	-0.297
-303.822	-90.341	-0.332	-0.097
-302.807	800.000	-0.033	0.118
-301.793	-79.663	0.199	-0.067
-300.778	800.000	-0.060	-0.174
-299.764	97.013	0.387	0.445
-298.749	24.542	-0.058	0.048
-297.735	324.195	0.165	0.315
-296.720	-200.000	-0.037	0.180
-295.705	800.000	0.034	0.137
-294.691	-200.000	-0.063	0.300
-293.676	-14.946	0.141	-0.091
-292.662	-106.371	-0.317	0.071
-291.647	-46.937	0.259	-0.127
-290.632	341.853	0.209	0.409
-289.618	-186.412	0.107	-0.002
-288.603	800.000	-0.207	0.616
-287.589	-119.969	0.289	-0.050
-286.574	-200.000	-0.167	0.000
-285.559	-43.474	-0.306	0.154
-284.545	-31.607	-0.214	-0.120
-283.530	640.223	-0.038	-0.096
-282.516	800.000	0.169	0.502
-281.501	-104.476	0.088	0.020
-280.486	800.000	0.036	0.133
-279.472	-97.415	-0.246	0.064
-278.457	-11.479	0.228	0.150
-277.443	-200.000	-0.053	-0.291
-276.428	-107.960	-0.406	-0.088
-275.413	-85.919	-0.353	-0.109
-274.399	455.876	-0.055	-0.121
-273.384	95.285	-0.311	0.354
-272.370	-134.683	0.204	-0.025
-271.355	-200.000	0.043	-0.201
-270.340	-133.721	-0.140	0.017
-269.326	-62.454	0.164	0.068
-268.311	-147.666	-0.039	-0.003
-267.297	418.444	0.044	0.094
-266.282	506.363	0.161	0.373
-265.267	-200.000	-0.012	0.236
-264.253	195.308	-0.100	-0.152
-263.238	624.668	-0.108	0.272
-262.224	-54.036	0.283	0.129
-261.209	-200.000	-0.018	-0.291
-260.195	-200.000	-0.026	0.115
-259.180	523.624	0.146	0.343
-258.165	-200.000	-0.024	-0.166
-257.151	351.667	0.103	0.204
-256.136	654.185	-0.062	0.159
-255.122	21.551	0.351	-0.286
-254.107	-77.685	-0.345	-0.119
-253.092	-60.412	0.066	-0.028
-252.078	321.862	0.095	0.180
-251.063	-104.010	0.144	0.034
-250.049	-137.891	-0.295	-0.033
-249.034	-105.320	-0.187	-0.042
-248.019	-80.033	-0.029	0.010
-247.005	115.397	0.092	-0.112
-245.990	-49.876	0.318	0.151
-244.976	-126.847	0.026	0.004
-243.961	-71.822	-0.102	-0.038
-242.946	145.934	-0.102	-0.137
-241.932	-189.723	-0.184	-0.002
-240.917	-98.544	-0.322	0.082
-239.903	-20.970	0.161	0.099
-238.888	-139.650	0.246	-0.026
-237.873	48.169	-0.116	0.108
-236.859	-200.000	0.015	-0.071
-235.844	-25.186	-0.210	-0.124
-234.830	339.134	0.047	0.092
-233.815	98.722	-0.182	0.209
-232.800	182.853	0.081	0.119
-231.786	-200.000	0.045	-0.348
-230.771	117.760	-0.149	0.183
-229.757	-102.072	0.177	-0.043
-228.742	-95.350	-0.045	0.012
-227.727	-17.225	-0.308	-0.194
-226.713	-200.000	-0.013	-0.414
-225.698	-96.931	0.105	0.028
-224.684	-158.198	-0.184	-0.011
-223.669	-173.553	0.312	-0.009
-222.655	595.627	0.086	-0.212
-221.640	442.358	-0.081	-0.177
-220.625	-36.485	-0.271	0.145
-219.611	21.757	-0.160	-0.130
-218.596	82.421	0.172	0.187
-217.582	-25.854	0.133	-0.078
-216.567	-61.228	0.141	-0.059
-215.552	25.522	0.141	0.117
-214.538	232.553	0.212	-0.347
-213.523	800.000	-0.136	0.426
-212.509	-200.000	-0.075	0.583
-211.494	43.986	0.104	0.095
-210.479	800.000	-0.069	-0.278
-209.465	-189.111	-0.109	0.001
-208.450	800.000	-0.046	0.173
-207.436	-200.000	0.031	-0.447
-206.421	160.454	0.173	-0.240
-205.406	-189.564	0.092	-0.001
-204.392	-102.535	-0.124	-0.030
-203.377	-200.000	-0.006	0.177
-202.363	-113.469	0.186	0.036
-201.348	-82.682	-0.193	-0.062
-200.333	2.055	-0.031	-0.022
-199.319	-23.014	0.281	0.169
-198.304	60.075	0.171	-0.169
-197.290	513.725	0.073	-0.170
-196.275	-150.268	-0.199	-0.015
-195.260	-69.279	0.168	0.064
-194.246	78.008	-0.101	-0.108
-193.231	-200.000	-0.025	0.162
-192.217	-200.000	0.049	0.283
-191.202	21.960	-0.107	-0.087
-190.187	-15.864	-0.148	-0.094
-189.173	-200.000	0.045	-0.310
-188.158	-132.589	0.213	0.027
-187.144	-62.064	0.140	-0.058
-186.129	446.294	0.043	-0.094
-185.114	-54.134	0.201	0.091
-184.100	-138.548	-0.105	-0.011
-183.085	800.000	-0.071	0.213
-182.071	-20.096	0.133	-0.081
-181.056	-41.357	-0.102	0.052
-180.042	-90.498	-0.093	-0.027
-179.027	-200.000	-0.014	-0.240
-178.012	707.137	-0.182	-0.479
-176.998	472.003	-0.207	-0.464
-175.983	-96.483	0.151	0.040
-174.969	-200.000	-0.007	-0.073
-173.954	74.165	-0.075	-0.079
-172.939	-147.845	0.108	0.009
-171.925	-97.766	-0.241	0.062
-170.910	-26.437	0.194	0.113
-169.896	-2.039	0.117	0.082
-168.881	384.310	0.094	-0.192
-167.866	141.684	-0.292	0.385
-166.852	-58.673	0.183	0.079
-165.837	-117.377	-0.131	-0.024
-164.823	378.816	0.125	0.254
-163.808	-88.509	0.103	-0.031
-162.793	-200.000	0.018	0.084
-161.779	16.950	-0.087	0.069
-160.764	-185.919	0.169	0.002
-159.750	-200.000	0.025	0.172
-158.735	352.035	-0.031	0.062
-157.720	-200.000	-0.064	-0.281
-156.706	-200.000	0.043	-0.191
-155.691	-19.216	-0.151	0.093
-154.677	473.419	-0.150	-0.336
-153.662	-3.219	-0.250	-0.174
-152.647	-200.000	-0.057	-0.313
-151.633	800.000	0.058	-0.193
-150.618	1.218	-0.125	-0.090
-149.604	-159.756	-0.194	0.011
-148.589	-99.797	0.211	-0.053
-147.574	-200.000	0.012	-0.143
-146.560	800.000	0.177	-0.506
-145.545	23.339	0.289	-0.236
-144.531	-65.902	0.182	0.072
-143.516	55.958	-0.177	0.171
-142.502	-97.206	-0.134	-0.035
-141.487	-197.942	0.209	-0.001
-140.472	308.093	-0.048	-0.089
-139.458	-104.038	-0.133	0.031
-138.443	-104.736	-0.291	0.067
-137.429	31.033	0.063	0.054
-136.414	-112.149	0.269	-0.054
-135.399	222.855	-0.068	-0.109
-134.385	82.508	-0.109	-0.118
-133.370	-38.185	0.300	-0.158
-132.356	-62.234	-0.411	0.170
-131.341	-108.935	0.285	0.060
-130.326	-31.565	0.262	-0.146
-129.312	-27.589	0.159	-0.092
-128.297	477.764	-0.047	0.107
-127.283	55.856	0.131	-0.127
-126.268	685.246	-0.039	-0.102
-125.253	67.657	-0.040	-0.041
-124.239	-165.941	0.290	-0.012
-123.224	800.000	0.041	-0.119
-122.210	-93.787	0.298	0.082
-121.195	-144.729	0.184	0.017
