DTS Sentinel unit serial number:	SN413079Multiplexer serial number:	ORYXHardware model number:	OX4-SRSoftware version number:	ORYX F/W v4.00 Oryx Data Collector v3.7.2.0data status	okinstallation	princeton_trtdifferential loss correction	single-endedforward channel	channel 3reverse channel	N/Adate	2019/09/11time	13:42:11forward acquisition time	60.00reverse acquisition time	0.00gamma	496.2192k internal	0.2293k external	0.2293temperature offset calibration	0.9976default loss term (dB/km)	0.3790temperature slope calibration	1.0000multiplexer offset coefficient	1.0000multiplexer slope coefficient	1.0000fibre end	0.00T internal ref (°C)	41.94T ext. ref 1 (°C)	0.86T ext. ref 2 (°C)	37.19length (m)	temperature (°C)	Stokes	anti-Stokes-747.200	-200.000	0.022	0.129
-746.185	-200.000	0.018	0.313
-745.171	-200.000	-0.039	-0.179
-744.156	334.401	-0.138	0.273
-743.142	-105.021	-0.025	-0.006
-742.127	279.711	-0.143	0.262
-741.112	358.178	0.157	0.320
-740.098	76.606	-0.215	0.234
-739.083	-75.262	0.120	-0.044
-738.069	800.000	0.065	0.202
-737.054	-107.370	-0.185	-0.042
-736.039	192.536	-0.259	-0.400
-735.025	14.711	0.078	-0.063
-734.010	-200.000	-0.022	0.206
-732.996	26.097	0.149	0.127
-731.981	45.510	-0.068	-0.064
-730.966	-57.766	-0.157	0.070
-729.952	85.071	0.175	-0.197
-728.937	106.144	0.121	0.146
-727.923	31.930	0.078	0.069
-726.908	-47.878	0.129	-0.064
-725.894	-35.765	0.210	0.116
-724.879	79.170	-0.193	0.211
-723.864	-200.000	-0.007	0.092
-722.850	-91.488	0.116	-0.034
-721.835	107.138	-0.057	-0.069
-720.821	-200.000	-0.000	-0.107
-719.806	-200.000	0.042	-0.227
-718.791	800.000	0.135	-0.475
-717.777	33.962	-0.261	-0.232
-716.762	9.952	-0.250	0.194
-715.748	-46.351	0.221	-0.111
-714.733	800.000	-0.027	-0.094
-713.718	-200.000	0.006	0.101
-712.704	43.626	-0.101	-0.094
-711.689	117.620	-0.108	-0.135
-710.675	-52.417	-0.222	0.105
-709.660	-200.000	0.099	-0.506
-708.645	-47.655	-0.389	-0.193
-707.631	-72.785	-0.350	-0.132
-706.616	40.939	-0.140	0.129
-705.602	22.757	-0.111	-0.093
-704.587	-18.322	-0.154	0.098
-703.572	-108.113	0.237	0.052
-702.558	90.947	0.141	-0.162
-701.543	-3.263	-0.160	0.114
-700.529	594.381	-0.012	0.031
-699.514	800.000	-0.042	-0.150
-698.499	130.007	0.042	-0.055
-697.485	-139.365	-0.173	-0.019
-696.470	84.912	0.075	-0.084
-695.456	-74.200	-0.409	-0.151
-694.441	-165.709	0.259	-0.011
-693.426	-136.507	0.102	0.012
-692.412	37.044	0.213	-0.193
-691.397	-77.246	0.191	-0.068
-690.383	-54.390	-0.153	-0.071
-689.368	29.633	-0.175	-0.152
-688.354	-101.749	0.049	0.012
-687.339	142.657	-0.115	0.156
-686.324	127.524	-0.296	-0.384
-685.310	-131.257	-0.150	-0.020
-684.295	-80.755	0.208	0.070
-683.281	94.115	0.089	0.103
-682.266	-200.000	-0.078	-0.426
-681.251	153.917	0.053	0.074
-680.237	113.467	0.085	-0.105
-679.222	-200.000	-0.003	-0.130
-678.208	-200.000	-0.063	0.407
-677.193	-29.704	-0.087	-0.050
-676.178	100.535	0.153	0.181
-675.164	635.111	-0.126	0.326
-674.149	-92.611	0.212	0.061
-673.135	102.749	0.052	0.062
-672.120	530.861	0.079	0.190
-671.105	77.092	0.128	-0.138
-670.091	-62.388	0.286	-0.121
-669.076	60.608	-0.251	0.254
-668.062	-54.455	0.357	-0.165
-667.047	52.337	0.071	-0.069
-666.032	-42.347	0.102	-0.053
-665.018	423.353	0.095	0.209
-664.003	-12.456	-0.054	0.036
-662.989	4.094	0.275	0.205
-661.974	243.190	0.049	-0.083
-660.959	-121.947	-0.479	-0.080
-659.945	42.329	-0.064	0.059
-658.930	-151.814	-0.132	0.010
-657.916	77.199	-0.090	0.097
-656.901	-46.164	-0.230	-0.116
-655.886	93.484	-0.038	0.044
-654.872	-108.476	-0.344	0.076
-653.857	800.000	-0.063	0.196
-652.843	23.072	0.069	-0.058
-651.828	-60.441	-0.040	0.018
-650.814	441.902	-0.056	-0.126
-649.799	-200.000	-0.030	0.187
-648.784	-138.250	-0.216	-0.024
-647.770	-200.000	0.009	-0.158
-646.755	173.763	-0.143	-0.211
-645.741	-200.000	-0.024	-0.214
-644.726	5.807	0.178	-0.134
-643.711	-38.158	-0.344	-0.186
-642.697	-58.672	-0.048	0.021
-641.682	199.219	-0.060	0.094
-640.668	-55.819	-0.217	-0.099
-639.653	-32.321	-0.131	-0.075
-638.638	-200.000	-0.003	0.167
-637.624	155.888	0.158	-0.222
-636.609	800.000	-0.112	0.444
-635.595	95.495	0.359	0.417
-634.580	129.170	0.257	0.335
-633.565	-6.325	-0.187	-0.130
-632.551	-6.862	0.321	-0.222
-631.536	142.411	-0.114	-0.154
-630.522	-200.000	-0.009	0.096
-629.507	-162.672	0.285	0.014
-628.492	7.715	0.194	0.148
-627.478	2.816	0.118	0.087
-626.463	-63.473	0.181	0.076
-625.449	-200.000	0.017	-0.207
-624.434	364.954	-0.091	-0.188
-623.419	-200.000	0.018	-0.137
-622.405	-200.000	0.009	-0.157
-621.390	-41.190	-0.190	-0.100
-620.376	66.350	0.117	-0.121
-619.361	46.263	-0.151	0.142
-618.346	480.558	0.152	-0.350
-617.332	481.489	-0.128	-0.296
-616.317	22.233	-0.174	0.145
-615.303	-143.992	0.405	-0.039
-614.288	318.046	0.089	0.171
-613.273	-100.388	-0.349	-0.088
-612.259	30.536	0.134	-0.117
-611.244	179.179	0.126	-0.188
-610.230	-105.232	-0.266	-0.062
-609.215	607.285	-0.110	-0.279
-608.201	113.548	-0.082	-0.101
-607.186	367.920	-0.088	0.181
-606.171	502.576	0.014	-0.034
-605.157	-165.812	0.200	0.009
-604.142	-200.000	-0.042	-0.269
-603.128	-107.535	0.043	-0.010
-602.113	-200.000	0.036	0.380
-601.098	438.556	0.094	-0.210
-600.084	-44.230	-0.110	-0.056
-599.069	150.140	0.220	0.304
-598.055	-175.224	-0.321	0.009
-597.040	182.333	-0.132	-0.197
-596.025	261.004	0.118	-0.208
-595.011	-200.000	0.010	0.153
-593.996	-93.393	0.162	0.046
-592.982	800.000	-0.166	0.524
-591.967	-20.011	0.169	0.106
-590.952	-151.160	-0.298	0.023
-589.938	206.815	0.083	-0.132
-588.923	-32.742	0.129	-0.073
-587.909	129.114	-0.039	-0.050
-586.894	-128.436	0.150	-0.022
-585.879	-64.814	0.125	0.051
-584.865	-97.275	0.091	-0.024
-583.850	23.174	0.138	-0.115
-582.836	-62.740	-0.245	0.103
-581.821	724.357	-0.080	-0.218
-580.806	55.769	0.138	0.136
-579.792	308.414	-0.118	-0.223
-578.777	70.827	-0.101	0.106
-577.763	-55.569	0.261	-0.119
-576.748	265.625	-0.193	-0.342
-575.733	-24.233	0.261	-0.158
-574.719	500.943	0.110	-0.259
-573.704	-112.226	0.250	0.051
-572.690	-22.758	-0.394	-0.242
-571.675	-139.389	-0.079	0.009
-570.661	76.023	-0.217	0.234
-569.646	328.626	0.043	0.084
-568.631	-115.895	-0.189	-0.036
-567.617	477.123	-0.057	-0.132
-566.602	-146.023	-0.155	-0.014
-565.588	-41.734	0.216	-0.112
-564.573	82.575	0.116	0.128
-563.558	-9.894	-0.208	-0.140
-562.544	106.820	-0.293	-0.354
-561.529	307.104	-0.196	0.371
-560.515	654.806	-0.059	0.154
-559.500	-115.304	0.155	0.030
-558.485	-46.195	-0.152	0.076
-557.471	137.556	-0.051	0.068
-556.456	248.231	-0.120	0.206
-555.442	-8.843	-0.319	-0.217
-554.427	321.915	0.168	-0.325
-553.412	172.310	0.238	0.348
-552.398	-112.109	0.150	-0.031
-551.383	800.000	0.133	0.491
-550.369	-165.806	-0.384	-0.017
-549.354	85.361	-0.290	0.323
-548.339	-200.000	-0.042	-0.263
-547.325	-75.783	0.256	0.092
-546.310	-200.000	0.023	0.254
-545.296	800.000	0.048	0.186
-544.281	-200.000	0.001	0.431
-543.266	-200.000	-0.039	-0.181
-542.252	-17.533	-0.095	0.061
-541.237	800.000	-0.091	0.298
-540.223	93.741	0.101	0.117
-539.208	120.141	0.158	-0.199
-538.193	136.389	-0.044	-0.059
-537.179	30.768	0.234	-0.204
-536.164	-200.000	0.001	-0.183
-535.150	171.055	-0.181	0.264
-534.135	-148.772	-0.307	0.025
-533.121	73.858	-0.187	-0.199
-532.106	101.878	0.062	-0.074
-531.091	800.000	0.021	-0.065
-530.077	-30.346	-0.121	-0.070
-529.062	57.304	-0.204	-0.202
-528.048	-60.797	0.148	-0.064
-527.033	8.426	-0.213	-0.162
-526.018	-38.737	-0.198	-0.106
-525.004	-200.000	0.087	-0.511
-523.989	38.765	0.166	0.150
-522.975	3.999	0.050	0.037
-521.960	144.231	0.137	0.185
-520.945	123.738	0.098	0.125
-519.931	4.228	-0.335	-0.249
-518.916	-200.000	0.057	0.418
-517.902	800.000	-0.059	0.183
-516.887	-129.144	-0.109	0.015
-515.872	42.189	0.199	0.183
-514.858	225.585	-0.292	-0.479
-513.843	757.256	0.055	0.150
-512.829	381.376	0.042	0.088
-511.814	-177.040	-0.257	0.007
-510.799	-141.594	-0.187	0.019
-509.785	13.470	0.210	-0.165
-508.770	800.000	0.032	-0.111
-507.756	92.270	-0.064	0.074
-506.741	-90.570	-0.343	0.101
-505.726	284.331	-0.119	-0.218
-504.712	-125.361	-0.046	-0.007
-503.697	-200.000	-0.008	-0.106
-502.683	414.317	-0.100	0.216
-501.668	-96.907	0.210	0.056
-500.653	-172.750	0.172	0.005
-499.639	321.429	0.182	0.351
-498.624	-200.000	0.107	0.667
-497.610	290.969	0.247	0.455
-496.595	800.000	-0.023	0.074
-495.581	21.821	-0.126	-0.104
-494.566	-104.231	0.143	-0.034
-493.551	-111.154	0.251	-0.052
-492.537	-149.949	-0.222	-0.018
-491.522	-200.000	-0.047	0.249
-490.508	505.506	0.097	-0.228
-489.493	135.134	0.180	-0.237
-488.478	76.486	-0.054	-0.058
-487.464	800.000	-0.033	0.147
-486.449	-200.000	-0.053	-0.388
-485.435	-24.489	-0.118	-0.071
-484.420	-70.926	0.090	0.034
-483.405	14.436	-0.105	-0.083
-482.391	75.556	-0.113	-0.121
-481.376	800.000	0.036	0.111
-480.362	676.516	0.021	0.055
-479.347	800.000	0.042	0.177
-478.332	-200.000	-0.012	-0.221
-477.318	800.000	0.039	-0.167
-476.303	249.031	-0.067	-0.115
-475.289	800.000	0.048	-0.170
-474.274	457.312	0.052	-0.117
-473.259	-69.431	0.349	0.135
-472.245	48.028	0.051	0.049
-471.230	167.141	0.052	-0.074
-470.216	82.536	-0.233	-0.257
-469.201	800.000	-0.041	-0.120
-468.186	37.186	0.114	0.102
-467.172	129.760	-0.129	0.167
-466.157	-200.000	-0.016	0.301
-465.143	-129.361	-0.258	0.036
-464.128	-142.928	-0.219	0.021
-463.113	800.000	0.121	-0.398
-462.099	-200.000	-0.020	-0.130
-461.084	52.879	0.168	0.163
-460.070	-42.977	-0.116	-0.060
-459.055	32.590	0.190	-0.167
-458.040	-200.000	-0.186	0.000
-457.026	-49.887	0.385	0.185
-456.011	156.231	0.111	0.154
-454.997	800.000	-0.040	-0.112
-453.982	-200.000	-0.002	-0.117
-452.968	651.540	-0.107	-0.276
-451.953	-94.314	0.189	0.052
-450.938	205.683	0.240	0.377
-449.924	389.708	0.041	-0.087
-448.909	600.755	0.018	-0.045
-447.895	800.000	0.060	-0.246
-446.880	800.000	0.049	0.185
-445.865	58.383	0.144	-0.143
-444.851	-92.037	-0.416	-0.119
-443.836	140.860	0.151	-0.202
-442.822	-105.690	0.045	0.010
-441.807	92.273	0.155	-0.176
-440.792	70.723	0.139	-0.145
-439.778	381.216	0.089	0.185
-438.763	297.828	-0.076	-0.141
-437.749	391.147	-0.065	0.136
-436.734	-29.534	-0.248	-0.143
-435.719	-200.000	0.023	0.284
-434.705	-26.648	-0.280	-0.166
-433.690	217.830	0.054	-0.088
-432.676	-200.000	0.028	-0.189
-431.661	-165.931	-0.211	-0.009
-430.646	659.626	0.118	0.307
-429.632	-35.927	0.213	0.117
-428.617	55.952	0.170	0.167
-427.603	800.000	-0.077	0.278
-426.588	-200.000	-0.002	0.214
-425.573	800.000	-0.041	0.133
-424.559	-71.500	0.351	0.133
-423.544	-200.000	-0.009	-0.099
-422.530	765.830	0.088	-0.240
-421.515	-200.000	-0.065	-0.373
-420.500	-33.329	0.209	0.117
-419.486	123.757	-0.214	-0.271
-418.471	-104.610	-0.114	0.027
-417.457	-117.781	-0.248	0.045
-416.442	-107.505	-0.187	0.041
-415.428	-86.924	0.254	-0.078
-414.413	312.631	-0.132	0.251
-413.398	491.395	0.077	-0.178
-412.384	-82.996	-0.193	-0.063
-411.369	-200.000	-0.056	-0.295
-410.355	216.622	-0.098	0.158
-409.340	-35.403	-0.184	-0.101
-408.325	27.788	0.233	-0.198
-407.311	800.000	-0.032	0.117
-406.296	-200.000	0.015	-0.270
-405.282	-62.735	-0.300	0.125
-404.267	800.000	0.044	0.123
-403.252	32.883	0.238	0.208
-402.238	-82.454	0.060	-0.020
-401.223	-51.611	-0.234	0.110
-400.209	-145.756	-0.030	0.003
-399.194	800.000	0.061	0.200
-398.179	800.000	-0.028	-0.088
-397.165	-65.912	0.255	-0.103
-396.150	-166.860	0.079	0.003
-395.136	-192.402	0.084	-0.001
-394.121	523.092	0.056	0.133
-393.106	10.283	0.125	-0.096
-392.092	800.000	0.088	-0.310
-391.077	39.501	-0.191	-0.173
-390.063	-200.000	-0.047	-0.342
-389.048	-122.724	-0.217	0.035
-388.033	177.861	-0.175	-0.258
-387.019	-200.000	0.024	-0.225
-386.004	151.201	-0.086	-0.118
-384.990	334.837	0.107	0.208
-383.975	238.090	0.043	-0.071
-382.960	-57.791	0.250	-0.110
-381.946	193.570	0.029	0.044
-380.931	-95.312	-0.231	0.063
-379.917	-142.385	0.142	-0.014
-378.902	-102.104	0.108	0.026
-377.888	-21.051	0.098	0.061
-376.873	-76.640	0.281	0.099
-375.858	-189.198	0.260	-0.003
-374.844	-98.454	0.366	-0.095
-373.829	-200.000	-0.022	-0.185
-372.815	132.499	-0.161	-0.209
-371.800	3.744	-0.136	-0.100
-370.785	-136.131	0.079	0.009
-369.771	297.037	0.066	-0.122
-368.756	72.128	-0.135	0.141
-367.742	-102.239	0.122	0.030
-366.727	800.000	-0.037	0.129
-365.712	800.000	0.121	0.415
-364.698	-16.739	-0.239	0.152
-363.683	114.614	0.105	-0.129
-362.669	97.730	0.097	0.112
-361.654	118.645	-0.113	0.140
-360.639	-14.450	0.040	0.026
-359.625	-80.214	0.178	-0.060
-358.610	368.485	-0.119	0.243
-357.596	-200.000	0.022	0.310
-356.581	-34.139	0.203	0.113
-355.566	71.417	-0.148	0.154
-354.552	-200.000	-0.013	0.524
-353.537	-63.734	0.024	-0.010
-352.523	528.802	0.090	-0.213
-351.508	800.000	-0.078	-0.314
-350.493	405.846	-0.116	-0.246
-349.479	-132.857	-0.051	-0.007
-348.464	-200.000	0.019	-0.146
-347.450	68.006	0.215	0.222
-346.435	669.654	-0.151	0.394
-345.420	-124.701	0.217	-0.034
-344.406	138.635	-0.142	0.188
-343.391	800.000	0.043	0.183
-342.377	582.961	0.111	-0.275
-341.362	620.425	-0.101	-0.257
-340.348	-39.660	0.272	-0.143
-339.333	66.884	0.037	0.038
-338.318	437.744	0.076	-0.167
-337.304	82.646	-0.023	0.025
-336.289	800.000	-0.012	0.053
-335.275	372.484	-0.141	0.289
-334.260	289.637	0.062	0.114
-333.245	-200.000	-0.051	-0.231
-332.231	116.924	0.213	0.264
-331.216	-75.811	-0.256	0.092
-330.202	-111.354	-0.124	0.025
-329.187	462.494	0.032	-0.071
-328.172	-200.000	0.035	-0.259
-327.158	-200.000	-0.036	-0.212
-326.143	29.359	-0.042	-0.036
-325.129	-16.780	0.396	0.252
-324.114	-200.000	-0.018	0.133
-323.099	47.311	0.118	-0.110
-322.085	-74.572	-0.231	-0.084
-321.070	86.148	0.130	0.144
-320.056	-200.000	-0.072	0.318
-319.041	147.000	-0.128	0.173
-318.026	-108.821	-0.282	0.061
-317.012	715.766	-0.024	0.065
-315.997	-200.000	0.003	0.202
-314.983	101.361	0.043	0.050
-313.968	310.866	-0.116	0.218
-312.953	-200.000	0.036	-0.165
-311.939	208.975	-0.240	-0.378
-310.924	800.000	0.075	-0.214
-309.910	-200.000	0.019	0.169
-308.895	5.702	-0.276	0.206
-307.880	-142.406	-0.145	0.014
-306.866	-200.000	-0.017	-0.254
-305.851	800.000	-0.056	-0.218
-304.837	-113.353	-0.308	-0.061
-303.822	218.218	0.191	0.307
-302.807	-200.000	-0.023	0.360
-301.793	-200.000	0.011	-0.382
-300.778	-154.544	0.186	-0.012
-299.764	55.279	0.037	-0.036
-298.749	-14.493	-0.139	-0.090
-297.735	113.853	-0.109	-0.134
-296.720	800.000	-0.006	0.025
-295.705	-98.654	0.321	-0.082
-294.691	-200.000	-0.001	0.401
-293.676	79.283	-0.066	-0.072
-292.662	23.298	0.279	-0.231
-291.647	70.081	-0.109	-0.114
-290.632	-15.854	0.228	-0.146
-289.618	-45.429	-0.215	-0.107
-288.603	-200.000	0.015	0.522
-287.589	-89.319	0.143	-0.042
-286.574	-156.085	0.210	-0.013
-285.559	181.853	0.272	-0.402
-284.545	149.658	0.038	-0.051
-283.530	-101.373	0.147	-0.036
-282.516	-200.000	0.006	0.183
-281.501	-200.000	0.003	0.053
-280.486	-200.000	0.516	-0.001
-279.472	-200.000	-0.009	0.258
-278.457	10.478	0.176	0.134
-277.443	16.490	-0.077	0.061
-276.428	71.423	0.133	-0.139
-275.413	-200.000	-0.007	-0.327
-274.399	352.930	-0.110	-0.219
-273.384	63.823	-0.159	0.160
-272.370	-200.000	-0.035	-0.265
-271.355	-81.303	-0.188	0.062
-270.340	229.169	-0.151	0.248
-269.326	133.635	-0.304	0.395
-268.311	-44.783	-0.135	0.068
-267.297	595.700	-0.038	0.094
-266.282	373.489	0.146	-0.298
-265.267	-144.255	0.137	-0.013
-264.253	-58.961	0.136	0.059
-263.238	-126.493	-0.301	0.045
-262.224	-111.858	0.147	-0.030
-261.209	-200.000	-0.014	-0.108
-260.195	-91.692	-0.246	-0.070
-259.180	544.320	-0.018	0.042
-258.165	235.083	0.081	-0.134
-257.151	418.147	0.095	0.204
-256.136	-200.000	0.037	-0.212
-255.122	-117.704	0.228	-0.041
-254.107	326.993	0.090	0.173
-253.092	244.088	0.215	0.362
-252.078	101.419	0.142	0.166
-251.063	-55.235	0.182	0.082
-250.049	666.093	0.033	-0.085
-249.034	39.379	-0.365	-0.328
-248.019	18.774	0.299	-0.240
-247.005	145.538	-0.117	0.157
-245.990	-44.451	-0.272	-0.137
-244.976	-200.000	0.009	0.186
-243.961	19.911	0.092	-0.074
-242.946	21.619	0.095	-0.078
-241.932	22.399	-0.102	0.083
-240.917	-59.508	0.131	-0.057
-239.903	508.354	0.150	0.349
-238.888	-102.606	-0.079	-0.019
-237.873	800.000	0.043	-0.150
-236.859	-200.000	0.010	0.079
-235.844	201.612	-0.118	-0.183
-234.830	-200.000	0.036	-0.246
-233.815	40.503	-0.079	0.071
-232.800	-189.209	0.095	0.001
-231.786	-122.147	-0.160	0.026
-230.771	-77.703	-0.067	-0.023
-229.757	-166.421	0.131	-0.005
-228.742	-169.690	-0.251	-0.009
-227.727	-200.000	-0.064	0.425
-226.713	-7.563	0.046	-0.031
-225.698	-122.197	0.460	-0.075
-224.684	192.794	-0.021	0.032
-223.669	-48.503	-0.225	-0.109
-222.655	-70.500	0.235	0.089
-221.640	491.706	-0.072	0.164
-220.625	10.279	0.303	0.231
-219.611	105.210	0.134	-0.159
-218.596	60.798	-0.105	-0.104
-217.582	-200.000	0.012	-0.223
-216.567	166.975	0.108	0.154
-215.552	-85.177	-0.560	-0.175
-214.538	800.000	0.035	0.142
-213.523	563.329	-0.139	0.338
-212.509	406.787	0.144	-0.305
-211.494	166.775	-0.194	0.276
-210.479	282.634	-0.136	0.245
-209.465	97.224	0.059	0.068
-208.450	-133.672	-0.201	0.025
-207.436	-63.130	-0.056	-0.023
-206.421	274.656	0.020	0.035
-205.406	-200.000	-0.050	-0.404
-204.392	-98.041	0.015	0.004
-203.377	315.187	-0.109	-0.205
-202.363	-79.799	0.129	-0.044
-201.348	-28.480	-0.248	-0.143
-200.333	-7.613	-0.313	-0.212
-199.319	491.435	0.054	-0.123
-198.304	396.129	-0.093	-0.195
-197.290	-16.204	0.247	-0.157
-196.275	800.000	0.082	-0.270
-195.260	-150.456	0.211	-0.016
-194.246	7.779	-0.231	-0.173
-193.231	23.769	-0.282	0.232
-192.217	-82.707	0.229	-0.074
-191.202	-200.000	-0.071	0.334
-190.187	-200.000	0.007	0.194
-189.173	-200.000	0.012	0.227
-188.158	-89.152	-0.062	0.018
-187.144	-57.422	-0.242	0.106
-186.129	-133.568	-0.286	0.036
-185.114	37.028	-0.085	0.075
-184.100	-56.057	0.119	-0.053
-183.085	163.122	0.224	-0.315
-182.071	-11.432	0.058	0.038
-181.056	-120.800	0.267	-0.045
-180.042	-200.000	0.024	-0.241
-179.027	-139.014	0.149	-0.016
-178.012	243.093	-0.050	0.084
-176.998	-200.000	0.002	0.080
-175.983	-57.646	-0.165	0.072
-174.969	-105.099	-0.174	0.040
-173.954	-51.661	-0.103	0.048
-172.939	-97.569	-0.075	-0.019
-171.925	800.000	0.086	-0.247
-170.910	-107.351	-0.247	0.054
-169.896	800.000	-0.125	0.436
-168.881	150.975	0.124	0.168
-167.866	73.493	0.079	-0.083
-166.852	-96.941	-0.305	0.080
-165.837	54.807	0.062	0.060
-164.823	53.005	0.224	-0.214
-163.808	-144.553	0.377	-0.035
-162.793	-8.693	-0.228	-0.153
-161.779	58.860	0.232	0.228
-160.764	800.000	0.119	0.362
-159.750	-188.020	0.342	0.004
-158.735	25.518	-0.308	0.256
-157.720	-200.000	-0.015	-0.069
-156.706	-12.888	0.083	-0.054
-155.691	7.033	0.074	0.055
-154.677	-182.903	0.174	0.003
-153.662	653.677	0.024	0.062
-152.647	800.000	-0.174	0.483
-151.633	800.000	-0.109	0.303
-150.618	413.782	0.116	0.246
-149.604	-70.998	0.209	-0.079
-148.589	18.824	0.163	-0.131
-147.574	294.391	-0.027	-0.049
-146.560	-200.000	-0.058	-0.286
-145.545	-81.939	-0.151	0.049
-144.531	-97.755	-0.051	0.013
-143.516	-68.621	-0.170	-0.066
-142.502	297.634	-0.116	0.213
-141.487	56.289	0.085	0.082
-140.472	-200.000	0.024	-0.165
-139.458	-29.369	0.252	-0.144
-138.443	79.653	0.107	-0.115
-137.429	800.000	-0.024	0.074
-136.414	-38.734	-0.120	0.063
-135.399	-18.449	-0.387	-0.241
-134.385	-200.000	-0.006	-0.103
-133.370	-182.692	0.191	-0.003
-132.356	-115.551	0.165	0.031
-131.341	221.431	-0.068	-0.110
-130.326	-32.668	-0.425	-0.236
-129.312	800.000	-0.019	0.063
-128.297	-200.000	0.006	-0.242
-127.283	-179.544	-0.324	0.007
-126.268	56.441	-0.119	0.116
-125.253	-200.000	-0.021	-0.135
-124.239	522.843	0.039	0.090
-123.224	-200.000	-0.037	-0.448
-122.210	-200.000	0.034	0.291
-121.195	-96.471	-0.229	0.060
