DTS Sentinel unit serial number:	SN413079Multiplexer serial number:	ORYXHardware model number:	OX4-SRSoftware version number:	ORYX F/W v4.00 Oryx Data Collector v3.7.2.0data status	okinstallation	princeton_trtdifferential loss correction	single-endedforward channel	channel 3reverse channel	N/Adate	2019/09/12time	10:10:11forward acquisition time	60.00reverse acquisition time	0.00gamma	496.2192k internal	0.2299k external	0.2299temperature offset calibration	1.0034default loss term (dB/km)	0.3790temperature slope calibration	1.0000multiplexer offset coefficient	1.0000multiplexer slope coefficient	1.0000fibre end	0.00T internal ref (°C)	36.42T ext. ref 1 (°C)	1.87T ext. ref 2 (°C)	33.29length (m)	temperature (°C)	Stokes	anti-Stokes-747.200	233.686	0.069	0.117
-746.185	288.763	-0.140	0.259
-745.171	187.747	-0.042	-0.065
-744.156	60.056	0.193	0.195
-743.142	-32.883	0.326	-0.185
-742.127	-200.000	0.011	0.234
-741.112	87.436	-0.110	-0.124
-740.098	-150.573	-0.518	-0.040
-739.083	32.146	0.137	-0.120
-738.069	13.963	0.388	0.308
-737.054	106.953	0.255	-0.309
-736.039	326.640	-0.074	-0.145
-735.025	-54.314	-0.457	0.212
-734.010	449.186	0.035	-0.080
-732.996	450.945	-0.092	-0.206
-731.981	-200.000	0.043	-0.250
-730.966	-16.635	-0.216	-0.140
-729.952	-115.919	-0.273	0.052
-728.937	45.950	-0.322	-0.304
-727.923	774.908	-0.055	-0.152
-726.908	34.897	-0.265	-0.237
-725.894	-200.000	-0.040	0.253
-724.879	117.587	-0.105	0.131
-723.864	106.620	0.015	-0.019
-722.850	265.638	-0.039	0.069
-721.835	428.991	0.103	0.226
-720.821	139.657	-0.037	-0.050
-719.806	249.433	0.117	-0.202
-718.791	39.494	0.126	0.115
-717.777	81.758	-0.140	0.154
-716.762	-79.339	0.119	0.041
-715.748	-12.471	0.243	-0.162
-714.733	-142.617	0.393	0.039
-713.718	-85.452	0.175	-0.055
-712.704	-200.000	0.006	0.447
-711.689	-200.000	0.053	0.288
-710.675	800.000	0.058	-0.166
-709.660	87.425	0.089	-0.100
-708.645	62.456	-0.223	0.227
-707.631	86.719	0.023	0.026
-706.616	-134.734	0.144	-0.018
-705.602	-161.120	0.198	0.011
-704.587	-167.789	-0.230	-0.009
-703.572	3.670	0.212	0.158
-702.558	22.721	0.150	-0.125
-701.543	54.108	-0.086	0.084
-700.529	105.503	-0.034	0.041
-699.514	-1.076	-0.314	-0.226
-698.499	25.872	0.289	-0.245
-697.485	800.000	0.133	-0.399
-696.470	-200.000	0.015	-0.086
-695.456	116.395	-0.028	-0.035
-694.441	800.000	0.043	-0.134
-693.426	-30.497	0.046	0.027
-692.412	61.843	0.239	0.243
-691.397	-200.000	-0.004	0.243
-690.383	-39.681	-0.078	0.042
-689.368	-105.751	-0.341	0.078
-688.354	-200.000	-0.009	0.136
-687.339	68.860	-0.031	0.032
-686.324	11.024	-0.086	-0.067
-685.310	109.606	0.108	-0.131
-684.295	800.000	0.083	-0.315
-683.281	20.939	-0.159	-0.131
-682.266	-32.277	0.212	0.121
-681.251	264.972	0.059	-0.105
-680.237	-102.244	0.100	-0.024
-679.222	-200.000	-0.050	-0.243
-678.208	94.834	0.176	-0.204
-677.193	-200.000	0.004	-0.162
-676.178	292.843	-0.168	0.311
-675.164	94.093	0.139	0.161
-674.149	-34.010	-0.405	-0.227
-673.135	-141.013	-0.215	0.022
-672.120	-112.990	-0.251	-0.050
-671.105	-200.000	-0.010	0.089
-670.091	-200.000	-0.016	-0.094
-669.076	-200.000	-0.024	-0.119
-668.062	255.461	0.053	-0.092
-667.047	78.649	-0.094	0.102
-666.032	-157.345	0.293	-0.018
-665.018	129.634	-0.033	-0.043
-664.003	-101.925	0.101	-0.025
-662.989	800.000	-0.052	0.175
-661.974	767.503	0.073	0.202
-660.959	47.446	-0.167	0.159
-659.945	800.000	-0.033	-0.114
-658.930	-34.595	0.266	0.148
-657.916	252.116	-0.104	-0.180
-656.901	-0.377	0.149	-0.108
-655.886	-160.749	-0.207	-0.011
-654.872	-99.585	-0.445	-0.114
-653.857	125.124	0.327	-0.420
-652.843	-9.339	0.234	0.159
-651.828	-46.855	0.481	0.239
-650.814	39.279	0.123	-0.112
-649.799	93.173	-0.242	-0.278
-648.784	5.187	0.101	-0.075
-647.770	614.048	0.092	0.233
-646.755	-150.888	-0.103	0.008
-645.741	136.963	0.114	-0.152
-644.726	40.509	-0.121	-0.111
-643.711	-43.379	-0.147	0.076
-642.697	-154.740	0.046	-0.003
-641.682	-96.782	-0.312	0.083
-640.668	-134.180	0.166	0.021
-639.653	-27.082	-0.169	-0.100
-638.638	741.466	-0.063	-0.172
-637.624	-147.873	-0.206	0.017
-636.609	800.000	-0.191	0.548
-635.595	800.000	0.039	-0.130
-634.580	167.101	0.094	0.135
-633.565	-38.197	-0.384	0.207
-632.551	340.915	0.142	0.281
-631.536	18.682	0.172	-0.140
-630.522	-76.197	-0.219	0.078
-629.507	24.489	-0.399	0.336
-628.492	-200.000	0.013	-0.298
-627.478	156.459	-0.021	0.030
-626.463	87.020	0.355	0.399
-625.449	-19.292	-0.266	0.167
-624.434	-96.529	-0.107	-0.029
-623.419	215.666	-0.120	-0.194
-622.405	-200.000	0.033	0.202
-621.390	-83.774	-0.003	-0.001
-620.376	188.391	0.024	0.037
-619.361	-133.730	-0.462	0.059
-618.346	552.883	-0.109	-0.265
-617.332	240.976	-0.156	0.265
-616.317	-200.000	0.008	-0.320
-615.303	23.872	0.147	0.123
-614.288	69.577	0.206	-0.216
-613.273	-40.706	0.159	0.084
-612.259	100.717	-0.035	0.041
-611.244	-200.000	-0.007	-0.247
-610.230	-69.108	-0.239	-0.093
-609.215	-200.000	0.014	-0.087
-608.201	387.963	0.045	0.093
-607.186	252.329	0.123	0.213
-606.171	121.132	0.140	-0.177
-605.157	-162.455	0.051	-0.003
-604.142	77.799	0.005	-0.005
-603.128	-18.784	-0.169	0.107
-602.113	-139.661	-0.123	-0.013
-601.098	800.000	0.056	0.180
-600.084	-46.140	-0.064	-0.032
-599.069	275.221	-0.120	0.216
-598.055	481.946	0.157	-0.361
-597.040	62.154	0.090	0.091
-596.025	72.716	0.188	-0.199
-595.011	-89.004	-0.342	-0.103
-593.996	631.711	0.136	0.348
-592.982	9.922	0.179	-0.138
-591.967	385.506	0.051	0.107
-590.952	231.541	-0.160	-0.266
-589.938	-70.198	0.112	0.043
-588.923	-115.316	0.160	-0.031
-587.909	-56.670	-0.210	-0.094
-586.894	-21.037	-0.109	-0.068
-585.879	-54.809	0.226	0.104
-584.865	233.944	0.115	-0.192
-583.850	13.904	-0.096	0.076
-582.836	165.390	-0.066	-0.095
-581.821	396.844	0.139	0.294
-580.806	-100.579	0.096	-0.024
-579.792	-200.000	-0.035	-0.262
-578.777	-58.154	0.267	-0.118
-577.763	-145.329	0.306	-0.028
-576.748	800.000	-0.078	0.321
-575.733	797.659	0.055	0.154
-574.719	-85.498	0.307	-0.097
-573.704	-200.000	0.006	-0.175
-572.690	384.381	0.019	0.039
-571.675	-174.668	0.153	-0.004
-570.661	-59.349	-0.220	-0.096
-569.646	-200.000	-0.041	0.269
-568.631	548.635	-0.106	0.258
-567.617	19.753	0.018	0.014
-566.602	-54.690	-0.364	-0.167
-565.588	375.750	-0.110	0.227
-564.573	-133.761	-0.204	0.026
-563.558	-57.054	0.418	0.187
-562.544	-10.740	0.328	0.220
-561.529	-86.762	0.323	-0.100
-560.515	-3.442	0.119	-0.084
-559.500	800.000	0.112	-0.341
-558.485	-49.541	-0.185	0.089
-557.471	-83.320	-0.205	0.067
-556.456	215.335	-0.114	-0.184
-555.442	-46.185	-0.124	0.062
-554.427	-200.000	-0.020	-0.154
-553.412	74.922	-0.167	-0.178
-552.398	-63.177	0.268	-0.112
-551.383	-89.418	-0.430	-0.128
-550.369	-200.000	-0.000	0.443
-549.354	-22.972	-0.280	0.171
-548.339	-127.747	-0.312	0.046
-547.325	-200.000	-0.015	-0.297
-546.310	107.668	-0.212	-0.255
-545.296	88.517	-0.040	0.045
-544.281	298.669	0.116	-0.216
-543.266	-19.142	0.161	0.101
-542.252	800.000	-0.035	0.100
-541.237	311.231	-0.146	-0.277
-540.223	7.367	-0.438	0.331
-539.208	71.912	-0.295	0.311
-538.193	-135.306	0.252	0.030
-537.179	800.000	0.065	-0.200
-536.164	-200.000	0.015	-0.214
-535.150	597.232	-0.118	-0.295
-534.135	-14.721	0.409	-0.266
-533.121	-200.000	0.015	-0.206
-532.106	63.611	-0.147	0.149
-531.091	124.700	-0.144	0.183
-530.077	-42.581	0.130	0.067
-529.062	-147.296	-0.193	-0.017
-528.048	-181.118	0.151	0.003
-527.033	150.929	-0.214	-0.294
-526.018	-161.859	0.021	-0.001
-525.004	366.370	0.005	-0.011
-523.989	8.070	0.103	0.078
-522.975	-94.472	-0.154	-0.043
-521.960	-44.669	-0.115	-0.058
-520.945	-200.000	0.008	0.167
-519.931	800.000	0.109	-0.442
-518.916	91.027	0.154	-0.175
-517.902	666.658	0.083	0.218
-516.887	-46.195	-0.179	0.089
-515.872	315.263	-0.099	-0.189
-514.858	-138.987	-0.303	0.033
-513.843	-142.175	0.212	0.021
-512.829	297.107	0.091	-0.169
-511.814	-200.000	-0.016	-0.184
-510.799	800.000	-0.085	0.262
-509.785	8.020	0.229	-0.174
-508.770	-106.154	-0.070	-0.016
-507.756	158.415	-0.174	0.244
-506.741	-200.000	0.022	0.218
-505.726	-78.201	-0.217	0.075
-504.712	-200.000	-0.020	0.133
-503.697	-95.323	0.206	0.056
-502.683	-200.000	-0.009	-0.122
-501.668	800.000	-0.152	-0.460
-500.653	-44.661	-0.227	-0.115
-499.639	-160.202	0.115	0.006
-498.624	-125.797	-0.133	0.020
-497.610	-200.000	0.021	-0.159
-496.595	207.745	0.126	-0.198
-495.581	364.000	0.143	0.291
-494.566	-62.008	-0.094	-0.040
-493.551	260.329	-0.112	0.195
-492.537	-26.477	-0.275	-0.163
-491.522	-17.109	0.182	0.116
-490.508	-200.000	0.017	0.127
-489.493	-135.618	-0.355	0.043
-488.478	468.189	0.054	0.123
-487.464	800.000	0.093	0.396
-486.449	-44.617	-0.135	0.068
-485.435	-20.343	-0.054	-0.034
-484.420	-151.158	-0.264	-0.020
-483.405	280.862	-0.070	-0.127
-482.391	709.133	0.104	-0.277
-481.376	-15.791	-0.318	0.205
-480.362	-200.000	0.020	-0.284
-479.347	-102.922	-0.150	-0.036
-478.332	38.054	-0.161	0.145
-477.318	483.983	0.063	-0.144
-476.303	520.690	-0.103	-0.243
-475.289	800.000	0.117	-0.327
-474.274	-200.000	0.013	-0.187
-473.259	-190.776	0.199	-0.002
-472.245	-32.823	0.203	-0.114
-471.230	-74.738	0.132	0.048
-470.216	129.163	-0.146	-0.188
-469.201	204.418	0.123	0.192
-468.186	13.423	0.334	-0.261
-467.172	800.000	0.031	0.115
-466.157	-200.000	-0.013	-0.225
-465.143	-18.885	0.055	0.034
-464.128	116.675	0.056	-0.070
-463.113	-115.069	-0.359	-0.069
-462.099	-77.722	0.268	-0.093
-461.084	-37.380	-0.465	0.251
-460.070	155.786	0.114	-0.158
-459.055	-146.005	0.055	-0.005
-458.040	800.000	0.093	-0.307
-457.026	-51.123	0.331	0.156
-456.011	-200.000	-0.028	0.291
-454.997	149.751	-0.188	0.256
-453.982	800.000	-0.054	-0.154
-452.968	289.614	-0.076	-0.139
-451.953	-119.526	-0.213	0.037
-450.938	187.675	0.127	-0.191
-449.924	-86.480	0.210	0.065
-448.909	72.958	-0.035	-0.037
-447.895	-200.000	0.001	0.085
-446.880	-34.864	-0.136	0.075
-445.865	-165.207	-0.284	0.013
-444.851	-200.000	0.001	-0.104
-443.836	-22.055	-0.096	-0.059
-442.822	-200.000	-0.017	-0.094
-441.807	401.601	0.070	0.149
-440.792	-26.830	0.247	0.146
-439.778	-9.826	0.196	-0.132
-438.763	800.000	0.064	0.274
-437.749	-158.215	-0.494	0.029
-436.734	338.635	-0.033	-0.064
-435.719	190.020	-0.241	-0.364
-434.705	3.453	0.249	0.183
-433.690	6.386	-0.063	-0.047
-432.676	173.771	0.128	0.187
-431.661	800.000	-0.094	-0.352
-430.646	-91.847	-0.078	-0.022
-429.632	221.152	-0.122	-0.197
-428.617	-200.000	-0.047	-0.210
-427.603	800.000	0.105	0.429
-426.588	-113.180	-0.466	-0.093
-425.573	212.523	0.050	-0.079
-424.559	470.843	-0.090	-0.203
-423.544	299.046	0.014	0.027
-422.530	-66.073	0.080	0.032
-421.515	105.893	-0.108	0.129
-420.500	-127.072	0.311	-0.046
-419.486	-30.636	0.096	0.055
-418.471	445.817	0.097	-0.215
-417.457	-200.000	-0.024	0.122
-416.442	144.284	0.062	-0.084
-415.428	27.672	0.048	0.041
-414.413	-200.000	0.003	-0.129
-413.398	-72.776	-0.026	0.010
-412.384	-11.437	-0.270	-0.179
-411.369	273.743	-0.088	0.156
-410.355	407.889	-0.059	-0.126
-409.340	42.753	0.349	-0.320
-408.325	-98.174	-0.119	0.031
-407.311	139.686	0.233	-0.309
-406.296	-200.000	-0.065	-0.358
-405.282	-200.000	-0.028	0.132
-404.267	91.627	0.109	0.124
-403.252	-200.000	-0.014	-0.120
-402.238	-107.623	-0.189	-0.042
-401.223	97.576	-0.302	-0.350
-400.209	-66.926	-0.164	0.065
-399.194	-200.000	-0.010	-0.191
-398.179	52.242	-0.127	0.122
-397.165	96.963	0.199	0.230
-396.150	-146.425	0.119	0.010
-395.136	-5.213	0.094	0.065
-394.121	-190.944	0.189	-0.002
-393.106	273.698	-0.250	-0.445
-392.092	52.058	0.350	-0.335
-391.077	257.684	-0.085	-0.146
-390.063	-16.341	-0.197	0.126
-389.048	611.916	0.051	-0.128
-388.033	-26.838	-0.258	-0.151
-387.019	-200.000	-0.036	-0.163
-386.004	800.000	0.065	0.231
-384.990	10.258	0.265	-0.203
-383.975	-82.204	0.239	0.078
-382.960	132.694	0.139	-0.181
-381.946	36.459	0.071	0.063
-380.931	-200.000	-0.010	0.064
-379.917	-200.000	-0.002	0.126
-378.902	127.301	0.266	0.339
-377.888	45.676	0.189	-0.176
-376.873	262.898	-0.042	0.074
-375.858	-126.569	-0.236	0.035
-374.844	82.574	0.143	0.156
-373.829	79.131	0.054	0.059
-372.815	-200.000	-0.007	-0.253
-371.800	-110.569	0.334	-0.069
-370.785	800.000	-0.100	0.301
-369.771	-173.448	-0.232	0.007
-368.756	70.989	0.062	-0.065
-367.742	-47.223	-0.086	0.042
-366.727	-125.984	-0.252	-0.038
-365.712	407.792	0.043	0.091
-364.698	-110.407	0.412	-0.086
-363.683	-200.000	0.010	-0.246
-362.669	-77.735	-0.074	-0.026
-361.654	-4.105	-0.134	-0.093
-360.639	312.680	-0.110	-0.208
-359.625	-200.000	0.020	0.123
-358.610	-62.860	0.220	0.092
-357.596	-101.650	0.132	-0.032
-356.581	-48.475	0.269	0.130
-355.566	306.293	-0.189	0.353
-354.552	-80.886	0.197	-0.066
-353.537	-37.498	0.214	-0.115
-352.523	306.737	-0.125	0.234
-351.508	800.000	-0.053	-0.165
-350.493	-31.950	-0.240	0.135
-349.479	137.316	-0.083	-0.109
-348.464	-200.000	0.006	0.308
-347.450	-83.575	-0.195	-0.063
-346.435	-9.739	0.322	0.216
-345.420	138.564	-0.041	-0.054
-344.406	-200.000	-0.019	-0.328
-343.391	362.141	0.096	0.194
-342.377	278.448	-0.026	0.046
-341.362	21.228	0.305	0.248
-340.348	166.303	-0.082	0.116
-339.333	-81.284	0.282	-0.093
-338.318	400.026	-0.089	0.188
-337.304	-59.009	-0.224	0.097
-336.289	241.610	0.088	-0.147
-335.275	-63.274	-0.298	-0.123
-334.260	473.737	0.095	0.215
-333.245	800.000	0.044	0.142
-332.231	82.610	0.203	0.221
-331.216	138.177	0.210	-0.277
-330.202	88.089	-0.088	0.098
-329.187	528.786	-0.112	-0.265
-328.172	-48.487	-0.240	0.116
-327.158	142.381	0.010	0.013
-326.143	-99.617	0.053	-0.013
-325.129	-200.000	-0.009	-0.213
-324.114	-118.701	-0.202	0.036
-323.099	8.314	0.108	-0.081
-322.085	21.467	0.168	0.137
-321.070	13.412	0.078	-0.061
-320.056	-200.000	-0.052	0.280
-319.041	-48.380	-0.171	-0.083
-318.026	73.660	0.111	-0.117
-317.012	-200.000	-0.020	-0.310
-315.997	-64.004	-0.370	0.152
-314.983	345.546	0.220	-0.433
-313.968	-71.278	0.211	0.079
-312.953	622.381	0.025	-0.062
-311.939	261.349	-0.147	0.256
-310.924	140.942	0.195	-0.259
-309.910	-117.065	-0.304	0.056
-308.895	-16.456	-0.348	-0.221
-307.880	72.052	0.184	-0.192
-306.866	89.656	-0.181	0.203
-305.851	-105.842	0.172	0.039
-304.837	-41.809	0.046	0.024
-303.822	111.165	0.181	-0.218
-302.807	-200.000	0.267	-0.001
-301.793	71.561	-0.069	0.072
-300.778	133.656	0.219	0.284
-299.764	151.671	0.173	-0.236
-298.749	-85.943	0.142	0.044
-297.735	77.882	0.187	0.200
-296.720	-0.429	-0.121	0.086
-295.705	128.855	0.154	0.197
-294.691	-41.829	-0.190	0.098
-293.676	-200.000	0.026	-0.153
-292.662	36.940	0.207	-0.183
-291.647	417.167	0.077	0.164
-290.632	454.746	-0.076	0.170
-289.618	790.336	-0.149	-0.411
-288.603	-56.277	-0.140	0.062
-287.589	-200.000	-0.005	0.324
-286.574	-200.000	0.001	0.088
-285.559	-29.611	-0.225	-0.129
-284.545	-82.379	0.404	0.132
-283.530	-60.826	0.191	-0.081
-282.516	-145.013	0.100	0.009
-281.501	49.394	-0.118	0.112
-280.486	-200.000	0.023	0.270
-279.472	52.518	-0.071	0.068
-278.457	-139.242	0.207	0.022
-277.443	800.000	0.055	0.236
-276.428	-47.151	0.081	-0.039
-275.413	377.984	0.067	0.136
-274.399	275.957	0.173	0.308
-273.384	36.559	0.234	0.207
-272.370	614.299	0.094	0.237
-271.355	99.456	0.207	-0.240
-270.340	-200.000	0.009	0.045
-269.326	9.587	0.279	0.211
-268.311	-111.891	-0.172	0.035
-267.297	56.936	0.074	0.072
-266.282	-68.862	0.133	0.051
-265.267	800.000	-0.186	-0.574
-264.253	16.089	-0.028	-0.022
-263.238	800.000	0.075	-0.269
-262.224	-59.411	-0.203	-0.087
-261.209	-102.844	-0.174	-0.041
-260.195	-200.000	-0.032	0.147
-259.180	-70.468	0.176	0.067
-258.165	-66.034	-0.126	-0.050
-257.151	-114.542	-0.048	-0.009
-256.136	798.199	0.060	-0.166
-255.122	225.560	-0.059	0.096
-254.107	54.203	0.148	0.143
-253.092	-12.910	-0.187	0.122
-252.078	22.180	0.127	-0.104
-251.063	-122.357	-0.258	0.042
-250.049	601.086	0.018	-0.045
-249.034	-126.895	-0.143	0.021
-248.019	-124.579	-0.126	0.020
-247.005	-41.906	0.111	0.057
-245.990	800.000	-0.062	0.243
-244.976	-200.000	-0.050	0.360
-243.961	-69.942	0.319	-0.122
-242.946	133.141	0.137	-0.177
-241.932	-137.724	-0.154	0.017
-240.917	-7.206	0.335	-0.227
-239.903	381.145	0.041	-0.085
-238.888	389.213	-0.159	0.329
-237.873	5.284	-0.068	-0.050
-236.859	73.027	-0.313	-0.328
-235.844	-200.000	-0.016	0.110
-234.830	800.000	0.109	0.325
-233.815	-200.000	0.092	0.531
-232.800	-35.543	0.045	0.025
-231.786	-173.292	-0.046	-0.001
-230.771	-98.367	0.199	0.051
-229.757	151.780	-0.238	0.325
-228.742	133.212	-0.087	0.113
-227.727	61.408	-0.061	-0.061
-226.713	-132.679	-0.102	0.013
-225.698	35.963	0.092	-0.081
-224.684	-132.642	0.213	0.027
-223.669	166.509	0.078	0.111
-222.655	108.932	0.132	-0.157
-221.640	-81.000	-0.395	-0.131
-220.625	-34.847	0.207	-0.113
-219.611	-131.719	-0.229	0.030
-218.596	606.876	-0.055	-0.138
-217.582	-138.024	0.174	-0.019
-216.567	-169.826	0.426	0.015
-215.552	-200.000	0.012	-0.259
-214.538	57.633	0.103	0.101
-213.523	126.649	0.199	0.252
-212.509	60.039	-0.224	0.221
-211.494	-173.365	0.159	0.005
-210.479	-187.970	-0.342	-0.004
-209.465	-2.680	0.546	-0.382
-208.450	800.000	-0.022	0.064
-207.436	-51.687	-0.108	-0.050
-206.421	32.761	0.172	0.149
-205.406	-179.034	-0.083	0.002
-204.392	-101.488	0.190	0.046
-203.377	-4.992	0.162	-0.111
-202.363	800.000	0.047	0.132
-201.348	-62.353	0.296	0.123
-200.333	-104.153	0.415	0.096
-199.319	-171.593	0.092	0.003
-198.304	152.186	-0.126	0.171
-197.290	103.442	0.293	0.343
-196.275	-43.911	0.261	-0.131
-195.260	-117.823	-0.386	0.069
-194.246	3.135	0.205	-0.149
-193.231	-200.000	-0.010	0.081
-192.217	98.595	-0.126	0.146
-191.202	-19.359	-0.133	0.083
-190.187	237.895	-0.064	0.106
-189.173	-200.000	-0.020	0.092
-188.158	29.005	0.348	-0.294
-187.144	223.079	0.110	0.177
-186.129	1.722	-0.165	0.119
-185.114	141.930	-0.298	-0.394
-184.100	-200.000	0.010	-0.206
-183.085	143.751	-0.122	0.162
-182.071	81.868	-0.196	-0.211
-181.056	34.710	0.071	0.062
-180.042	-7.276	-0.346	0.234
-179.027	511.609	0.036	0.083
-178.012	-103.649	-0.128	0.030
-176.998	86.009	-0.042	0.046
-175.983	-200.000	-0.034	0.214
-174.969	26.343	-0.054	-0.045
-173.954	387.869	0.062	0.129
-172.939	22.489	-0.171	-0.139
-171.925	66.297	0.242	0.245
-170.910	47.218	0.192	-0.178
-169.896	-165.359	-0.234	0.010
-168.881	-30.590	0.473	-0.267
-167.866	-136.047	-0.136	-0.016
-166.852	-134.640	0.239	0.029
-165.837	-112.761	-0.218	0.043
-164.823	800.000	0.066	0.268
-163.808	-200.000	-0.091	0.517
-162.793	204.376	-0.122	0.188
-161.779	-117.974	-0.207	0.037
-160.764	-200.000	0.012	-0.263
-159.750	366.394	0.070	-0.141
-158.735	43.474	0.223	-0.203
-157.720	-69.248	-0.019	-0.007
-156.706	-38.019	-0.171	-0.090
-155.691	34.353	-0.150	0.131
-154.677	-144.481	-0.126	-0.012
-153.662	-125.909	0.191	0.029
-152.647	-91.918	0.380	-0.107
-151.633	-56.609	-0.256	0.113
-150.618	-11.207	0.210	0.138
-149.604	-99.498	-0.144	0.036
-148.589	-107.984	0.249	-0.054
-147.574	150.197	0.056	0.076
-146.560	381.260	0.077	-0.157
-145.545	25.000	-0.141	-0.116
-144.531	-38.616	0.357	-0.188
-143.516	49.715	0.194	-0.182
-142.502	-200.000	0.024	0.192
-141.487	172.671	-0.108	-0.155
-140.472	-133.118	-0.171	-0.022
-139.458	8.325	0.264	0.198
-138.443	-73.587	0.097	-0.035
-137.429	-53.995	0.262	-0.119
-136.414	-200.000	0.001	-0.313
-135.399	-200.000	0.004	0.213
-134.385	29.781	-0.193	0.164
-133.370	-200.000	-0.026	-0.202
-132.356	89.874	0.174	-0.193
-131.341	-98.500	-0.094	0.024
-130.326	136.818	0.200	0.260
-129.312	-200.000	0.003	0.455
-128.297	-156.114	-0.298	-0.019
-127.283	-66.838	0.070	-0.028
-126.268	-200.000	0.021	0.170
-125.253	54.128	0.072	-0.069
-124.239	420.271	-0.051	0.109
-123.224	176.711	0.241	0.348
-122.210	422.798	-0.015	-0.032
-121.195	365.612	0.065	0.131
-120.180	800.000	-0.021	-0.091
