DTS Sentinel unit serial number:	SN413079Multiplexer serial number:	ORYXHardware model number:	OX4-SRSoftware version number:	ORYX F/W v4.00 Oryx Data Collector v3.7.2.0data status	okinstallation	princeton_trtdifferential loss correction	single-endedforward channel	channel 3reverse channel	N/Adate	2019/09/17time	15:44:34forward acquisition time	60.00reverse acquisition time	0.00gamma	496.2192k internal	0.2292k external	0.2292temperature offset calibration	0.9963default loss term (dB/km)	0.3790temperature slope calibration	1.0000multiplexer offset coefficient	1.0000multiplexer slope coefficient	1.0000fibre end	0.00T internal ref (°C)	38.92T ext. ref 1 (°C)	0.38T ext. ref 2 (°C)	36.72length (m)	temperature (°C)	Stokes	anti-Stokes-747.200	-89.697	0.094	0.028
-746.185	-103.652	0.152	0.036
-745.171	88.321	0.166	0.188
-744.156	231.937	0.132	0.222
-743.142	57.648	0.086	0.086
-742.127	394.739	-0.111	0.237
-741.112	-128.759	-0.060	0.009
-740.098	175.422	0.089	0.132
-739.083	100.500	0.115	0.136
-738.069	-200.000	-0.030	-0.145
-737.054	-127.964	-0.131	-0.019
-736.039	-47.755	0.086	0.043
-735.025	-160.349	0.265	-0.015
-734.010	-5.559	-0.248	-0.174
-732.996	-102.192	0.252	0.062
-731.981	136.236	-0.119	-0.159
-730.966	-134.984	-0.056	0.007
-729.952	-45.335	0.286	-0.145
-728.937	340.107	0.096	0.192
-727.923	307.888	-0.142	0.271
-726.908	-200.000	0.020	0.209
-725.894	126.908	-0.172	-0.223
-724.879	-200.000	0.038	-0.273
-723.864	-35.153	-0.331	-0.184
-722.850	33.633	0.550	-0.489
-721.835	366.864	-0.037	0.077
-720.821	800.000	-0.089	-0.318
-719.806	-30.350	0.131	-0.076
-718.791	-106.979	-0.265	0.060
-717.777	211.652	0.073	0.117
-716.762	-200.000	0.003	-0.303
-715.748	-21.542	0.176	-0.110
-714.733	800.000	0.068	-0.199
-713.718	-194.573	-0.339	0.003
-712.704	-200.000	0.008	-0.420
-711.689	-165.409	0.141	0.006
-710.675	-108.723	0.174	0.038
-709.660	-200.000	0.045	-0.243
-708.645	-62.720	-0.173	-0.073
-707.631	800.000	0.042	-0.132
-706.616	-65.984	0.110	0.045
-705.602	-79.170	-0.111	-0.038
-704.587	-200.000	-0.010	-0.124
-703.572	449.809	0.117	-0.265
-702.558	-108.918	0.312	0.068
-701.543	-200.000	-0.043	0.361
-700.529	-200.000	0.007	-0.242
-699.514	-8.429	-0.173	-0.119
-698.499	-200.000	0.096	-0.555
-697.485	-200.000	0.025	-0.211
-696.470	22.320	-0.208	-0.173
-695.456	-200.000	-0.038	-0.183
-694.441	800.000	-0.090	-0.322
-693.426	-85.193	0.128	-0.041
-692.412	727.134	0.070	-0.190
-691.397	-36.630	0.090	0.049
-690.383	-0.009	-0.170	0.124
-689.368	240.556	-0.086	0.147
-688.354	-83.102	0.213	-0.070
-687.339	-200.000	0.067	0.352
-686.324	103.864	0.137	0.165
-685.310	-200.000	0.055	0.414
-684.295	-113.250	0.302	-0.061
-683.281	-60.355	0.268	0.116
-682.266	800.000	0.035	-0.104
-681.251	161.779	-0.237	0.339
-680.237	561.083	-0.122	0.300
-679.222	800.000	-0.170	0.562
-678.208	-200.000	-0.003	-0.112
-677.193	535.370	0.127	-0.307
-676.178	8.584	-0.312	0.240
-675.164	800.000	-0.076	0.305
-674.149	113.943	0.164	-0.203
-673.135	131.533	-0.186	-0.244
-672.120	-200.000	0.021	0.174
-671.105	800.000	0.056	-0.166
-670.091	80.566	-0.159	-0.175
-669.076	-9.660	-0.357	-0.243
-668.062	-200.000	0.014	0.125
-667.047	-91.040	0.306	-0.090
-666.032	-121.225	0.238	-0.041
-665.018	-70.156	0.216	-0.084
-664.003	70.486	0.136	-0.143
-662.989	-164.834	-0.189	-0.009
-661.974	241.661	-0.140	0.239
-660.959	-200.000	-0.052	-0.290
-659.945	-73.041	0.479	-0.179
-658.930	18.027	-0.211	0.171
-657.916	-54.787	0.066	0.030
-656.901	800.000	0.014	0.042
-655.886	-110.180	-0.220	-0.047
-654.872	-144.366	-0.354	0.034
-653.857	-200.000	0.015	-0.482
-652.843	391.260	-0.077	-0.163
-651.828	-76.583	0.229	-0.082
-650.814	-99.777	0.107	0.027
-649.799	383.483	0.086	0.180
-648.784	205.380	-0.102	0.161
-647.770	-200.000	0.036	-0.322
-646.755	526.008	0.059	0.141
-645.741	-117.344	-0.332	0.061
-644.726	628.381	-0.067	0.172
-643.711	92.994	-0.192	0.221
-642.697	800.000	-0.062	-0.264
-641.682	7.253	0.068	-0.051
-640.668	-200.000	-0.070	-0.463
-639.653	295.569	0.112	-0.209
-638.638	-177.691	-0.147	0.004
-637.624	95.926	-0.105	-0.123
-636.609	291.929	-0.035	0.065
-635.595	-200.000	0.361	0.001
-634.580	-200.000	-0.010	-0.104
-633.565	-7.637	-0.007	0.005
-632.551	-59.857	-0.162	0.071
-631.536	-109.768	0.009	0.002
-630.522	192.870	-0.057	0.087
-629.507	41.929	0.154	-0.143
-628.492	14.994	-0.190	0.152
-627.478	-60.948	-0.237	-0.102
-626.463	-96.263	0.184	-0.050
-625.449	-200.000	0.044	-0.217
-624.434	7.261	-0.112	-0.085
-623.419	-200.000	0.004	-0.225
-622.405	554.301	0.080	0.195
-621.390	-57.461	-0.082	0.037
-620.376	-200.000	0.037	-0.246
-619.361	284.293	0.080	0.147
-618.346	110.960	0.150	-0.184
-617.332	-200.000	0.022	-0.486
-616.317	-103.020	0.134	-0.032
-615.303	362.447	-0.087	-0.178
-614.288	-11.717	-0.323	0.216
-613.273	-200.000	-0.034	0.158
-612.259	-67.589	-0.170	0.068
-611.244	-78.095	-0.121	0.042
-610.230	351.727	0.010	0.020
-609.215	-43.761	-0.291	0.149
-608.201	-74.057	-0.175	-0.065
-607.186	-200.000	-0.003	-0.134
-606.171	-200.000	0.012	0.259
-605.157	-22.317	0.138	-0.085
-604.142	282.776	-0.152	0.279
-603.128	800.000	-0.020	-0.087
-602.113	441.461	-0.181	0.403
-601.098	-7.799	-0.180	0.124
-600.084	-136.726	0.238	-0.028
-599.069	-200.000	0.050	0.267
-598.055	-41.402	-0.292	-0.153
-597.040	32.466	0.067	-0.059
-596.025	-0.844	0.193	0.139
-595.011	800.000	-0.051	-0.209
-593.996	-3.289	0.186	-0.132
-592.982	-34.210	0.225	-0.126
-591.967	23.119	0.189	0.158
-590.952	-148.298	-0.194	0.016
-589.938	-137.391	-0.259	0.030
-588.923	157.347	-0.346	0.487
-587.909	3.034	0.221	-0.163
-586.894	244.619	0.114	-0.194
-585.879	451.042	0.022	0.050
-584.865	-97.807	0.486	-0.128
-583.850	-99.127	-0.113	-0.029
-582.836	-25.265	-0.270	0.162
-581.821	-200.000	0.005	-0.161
-580.806	43.848	0.207	-0.193
-579.792	-45.844	-0.128	0.064
-578.777	-27.896	-0.149	0.088
-577.763	125.202	-0.019	-0.024
-576.748	-33.529	-0.267	0.150
-575.733	-200.000	0.038	0.291
-574.719	62.449	0.070	0.071
-573.704	-200.000	-0.013	-0.120
-572.690	-77.798	0.207	-0.073
-571.675	62.451	0.113	-0.115
-570.661	161.168	0.117	-0.166
-569.646	601.378	0.147	-0.371
-568.631	38.789	0.101	0.091
-567.617	17.190	-0.086	-0.070
-566.602	-200.000	-0.026	0.000
-565.588	-110.493	0.479	-0.101
-564.573	46.301	-0.188	-0.177
-563.558	-6.119	0.244	-0.170
-562.544	-138.595	-0.258	0.029
-561.529	-31.470	0.201	-0.115
-560.515	371.117	-0.131	0.270
-559.500	-200.000	0.011	-0.294
-558.485	-135.098	0.399	-0.049
-557.471	-35.521	0.312	-0.172
-556.456	-200.000	-0.043	0.289
-555.442	800.000	0.083	0.258
-554.427	135.195	-0.075	0.099
-553.412	-82.770	0.073	0.024
-552.398	-71.876	0.115	-0.043
-551.383	-85.592	-0.098	-0.031
-550.369	-200.000	0.011	0.095
-549.354	-38.885	0.119	0.064
-548.339	-191.620	-0.227	-0.002
-547.325	-19.472	0.084	0.053
-546.310	-78.530	0.217	0.075
-545.296	17.827	-0.163	-0.132
-544.281	284.545	0.120	0.219
-543.266	160.572	-0.292	0.414
-542.252	-200.000	-0.102	0.000
-541.237	97.071	0.154	0.179
-540.223	800.000	-0.080	0.240
-539.208	800.000	-0.037	-0.155
-538.193	137.497	-0.201	-0.267
-537.179	720.390	-0.033	0.090
-536.164	-200.000	-0.040	-0.267
-535.150	-196.961	0.034	0.000
-534.135	800.000	0.024	0.096
-533.121	-117.747	-0.178	-0.033
-532.106	-49.388	-0.060	0.029
-531.091	-111.233	-0.248	0.052
-530.077	-92.765	-0.043	-0.012
-529.062	-112.044	-0.226	0.046
-528.048	198.553	-0.223	-0.346
-527.033	-129.804	0.116	-0.016
-526.018	-54.351	-0.063	0.029
-525.004	15.689	0.073	-0.058
-523.989	800.000	-0.028	-0.087
-522.975	491.174	-0.186	-0.432
-521.960	-200.000	0.000	0.139
-520.945	30.038	-0.125	0.108
-519.931	800.000	-0.006	-0.022
-518.916	170.939	0.217	0.316
-517.902	22.531	0.347	0.288
-516.887	224.977	-0.161	-0.264
-515.872	-106.565	-0.131	0.030
-514.858	-200.000	-0.048	-0.256
-513.843	-200.000	0.020	-0.159
-512.829	18.604	-0.244	0.198
-511.814	800.000	-0.041	-0.145
-510.799	-55.145	-0.111	0.050
-509.785	64.578	-0.275	-0.282
-508.770	261.139	-0.048	0.084
-507.756	-38.408	-0.280	-0.150
-506.741	-200.000	0.027	0.190
-505.726	235.900	-0.050	0.084
-504.712	-200.000	-0.090	0.462
-503.697	151.580	-0.033	-0.046
-502.683	94.297	0.263	-0.302
-501.668	-44.335	-0.210	0.106
-500.653	88.908	-0.244	0.276
-499.639	60.431	-0.199	0.200
-498.624	43.653	0.062	-0.057
-497.610	-200.000	0.011	-0.298
-496.595	-200.000	-0.010	-0.120
-495.581	251.842	0.070	0.120
-494.566	175.102	-0.127	-0.187
-493.551	-148.156	0.312	0.026
-492.537	-107.169	0.224	-0.050
-491.522	-150.628	0.047	0.004
-490.508	48.484	-0.338	-0.321
-489.493	260.573	-0.043	0.075
-488.478	127.548	-0.134	-0.172
-487.464	43.382	-0.164	0.152
-486.449	-200.000	-0.013	0.127
-485.435	800.000	0.098	-0.301
-484.420	-200.000	-0.009	0.184
-483.405	432.642	-0.104	-0.229
-482.391	291.829	-0.152	0.281
-481.376	-58.092	-0.098	-0.043
-480.362	250.133	-0.173	-0.297
-479.347	-137.072	-0.181	0.021
-478.332	-111.853	0.220	0.045
-477.318	-56.445	0.091	0.041
-476.303	-56.208	0.175	-0.079
-475.289	-97.178	0.335	-0.089
-474.274	-200.000	-0.016	-0.162
-473.259	-87.373	-0.145	-0.045
-472.245	-200.000	0.073	0.447
-471.230	190.004	0.088	0.133
-470.216	-61.462	0.184	0.078
-469.201	76.772	0.204	-0.219
-468.186	8.811	-0.156	0.119
-467.172	733.353	-0.055	0.148
-466.157	611.041	-0.068	-0.173
-465.143	-112.301	-0.030	0.006
-464.128	-67.385	0.119	-0.048
-463.113	301.162	-0.055	0.102
-462.099	-67.893	0.147	-0.058
-461.084	-61.837	0.309	0.131
-460.070	-74.526	0.219	0.080
-459.055	152.724	-0.277	0.383
-458.040	-53.607	0.200	0.092
-457.026	29.553	-0.052	0.045
-456.011	20.056	-0.115	-0.094
-454.997	766.872	-0.100	0.276
-453.982	103.641	-0.202	0.240
-452.968	-106.947	-0.111	-0.025
-451.953	2.485	-0.105	-0.077
-450.938	800.000	0.025	0.098
-449.924	62.352	-0.134	-0.135
-448.909	-77.126	-0.071	0.025
-447.895	-200.000	0.027	-0.165
-446.880	800.000	0.070	0.247
-445.865	-70.458	-0.307	0.118
-444.851	-96.509	-0.122	0.033
-443.836	-93.706	-0.235	0.065
-442.822	-73.928	-0.217	-0.080
-441.807	-44.154	0.248	0.126
-440.792	192.034	-0.058	-0.088
-439.778	-38.648	0.038	-0.020
-438.763	300.777	0.026	-0.048
-437.749	-200.000	0.017	-0.250
-436.734	90.047	-0.092	-0.104
-435.719	-200.000	-0.030	-0.466
-434.705	-144.616	-0.171	0.016
-433.690	23.129	0.049	-0.041
-432.676	-114.238	-0.171	0.033
-431.661	-136.903	0.196	0.023
-430.646	-135.298	-0.417	-0.050
-429.632	195.673	-0.116	-0.178
-428.617	228.257	0.109	0.180
-427.603	-10.253	-0.415	0.278
-426.588	5.413	-0.087	-0.065
-425.573	304.239	-0.104	0.194
-424.559	-185.137	0.315	-0.005
-423.544	765.511	-0.047	-0.129
-422.530	6.889	-0.202	-0.152
-421.515	-200.000	0.024	0.123
-420.500	177.826	-0.007	-0.010
-419.486	-34.304	0.192	0.107
-418.471	96.597	0.128	-0.148
-417.457	-124.022	0.349	-0.055
-416.442	-47.923	0.022	-0.011
-415.428	-200.000	0.042	0.195
-414.413	12.840	0.195	-0.152
-413.398	-15.757	-0.094	0.060
-412.384	95.930	0.280	-0.323
-411.369	304.826	-0.035	0.065
-410.355	-200.000	-0.033	0.253
-409.340	128.548	0.146	0.188
-408.325	120.870	-0.079	0.099
-407.311	239.236	-0.223	-0.375
-406.296	-200.000	-0.004	-0.282
-405.282	-109.395	0.224	0.048
-404.267	135.353	-0.053	0.070
-403.252	132.428	-0.150	0.196
-402.238	-200.000	0.012	0.537
-401.223	-100.540	0.191	0.048
-400.209	533.031	-0.039	-0.094
-399.194	190.787	-0.094	0.143
-398.179	-107.236	0.136	-0.030
-397.165	531.609	0.178	-0.426
-396.150	-83.863	-0.232	0.075
-395.136	-200.000	-0.020	0.497
-394.121	-173.614	-0.312	0.009
-393.106	54.743	-0.113	-0.110
-392.092	-128.006	0.175	0.025
-391.077	-200.000	0.083	0.434
-390.063	343.559	0.143	-0.282
-389.048	38.816	-0.200	-0.180
-388.033	796.445	-0.091	0.252
-387.019	-200.000	-0.033	0.212
-386.004	500.104	0.079	0.184
-384.990	-70.650	-0.099	0.038
-383.975	-69.000	-0.047	-0.018
-382.960	9.464	0.087	-0.067
-381.946	340.685	-0.099	0.196
-380.931	22.435	-0.174	-0.144
-379.917	-43.398	0.103	0.053
-378.902	-134.308	-0.094	0.012
-377.888	255.970	0.250	0.432
-376.873	10.074	0.085	0.065
-375.858	-200.000	0.033	0.296
-374.844	-159.678	0.169	-0.009
-373.829	409.976	0.031	0.067
-372.815	168.971	0.053	0.077
-371.800	800.000	0.074	0.210
-370.785	-11.154	0.506	-0.337
-369.771	11.616	0.096	0.074
-368.756	-92.340	-0.107	-0.030
-367.742	-14.739	0.047	-0.030
-366.727	-93.198	0.142	0.040
-365.712	68.698	-0.148	-0.153
-364.698	-165.856	0.118	0.005
-363.683	592.279	-0.021	0.053
-362.669	-36.261	-0.018	0.010
-361.654	-200.000	0.184	0.000
-360.639	201.514	-0.063	0.098
-359.625	54.643	0.121	-0.118
-358.610	-177.360	-0.152	-0.004
-357.596	-85.994	0.273	-0.085
-356.581	-200.000	-0.001	-0.253
-355.566	-82.022	-0.100	0.033
-354.552	65.987	-0.028	-0.028
-353.537	-112.364	0.225	-0.045
-352.523	-44.217	0.166	0.084
-351.508	59.936	0.058	-0.058
-350.493	204.029	0.072	0.112
-349.479	-160.799	-0.204	-0.011
-348.464	-72.342	-0.049	-0.018
-347.450	-45.376	0.158	-0.079
-346.435	800.000	0.045	0.182
-345.420	-200.000	0.009	-0.094
-344.406	58.824	-0.181	-0.179
-343.391	-200.000	0.014	-0.195
-342.377	280.144	-0.096	-0.173
-341.362	527.748	-0.021	-0.050
-340.348	800.000	0.085	-0.330
-339.333	-150.440	-0.156	0.012
-338.318	-105.508	0.251	-0.057
-337.304	-69.291	0.135	-0.052
-336.289	800.000	0.055	-0.164
-335.275	-200.000	0.010	0.267
-334.260	-170.737	0.318	0.011
-333.245	-5.109	-0.339	-0.235
-332.231	-79.519	0.150	0.051
-331.216	17.625	-0.189	0.151
-330.202	-200.000	-0.009	0.275
-329.187	559.189	-0.051	0.125
-328.172	-130.997	0.349	0.047
-327.158	-200.000	-0.009	-0.043
-326.143	800.000	-0.068	0.276
-325.129	-122.774	0.053	-0.009
-324.114	-200.000	0.107	0.494
-323.099	-76.084	-0.094	-0.034
-322.085	-111.487	-0.329	-0.067
-321.070	-66.894	0.275	-0.109
-320.056	151.497	-0.084	-0.116
-319.041	-5.056	-0.118	-0.082
-318.026	-93.224	0.197	0.055
-317.012	-200.000	-0.024	-0.123
-315.997	208.592	0.108	0.169
-314.983	-67.451	-0.121	0.048
-313.968	800.000	-0.106	0.377
-312.953	96.838	-0.035	-0.040
-311.939	-152.294	0.117	0.009
-310.924	57.689	0.154	0.152
-309.910	23.348	-0.045	-0.037
-308.895	-200.000	0.003	-0.233
-307.880	359.982	0.056	-0.113
-306.866	5.177	-0.083	-0.062
-305.851	-68.798	-0.130	0.050
-304.837	-200.000	0.039	-0.321
-303.822	86.909	-0.092	-0.103
-302.807	-19.601	-0.210	-0.131
-301.793	338.497	0.152	0.298
-300.778	652.810	-0.059	-0.153
-299.764	139.546	-0.058	0.077
-298.749	594.876	0.095	-0.237
-297.735	-65.870	-0.065	-0.026
-296.720	277.996	0.105	-0.188
-295.705	-200.000	-0.006	-0.104
-294.691	-130.727	0.280	0.038
-293.676	-27.754	0.168	0.098
-292.662	-131.364	-0.263	-0.035
-291.647	125.906	-0.174	-0.221
-290.632	19.098	0.250	0.201
-289.618	178.761	0.150	-0.221
-288.603	-200.000	0.019	0.218
-287.589	800.000	-0.071	-0.223
-286.574	-200.000	-0.011	-0.265
-285.559	-200.000	-0.011	-0.050
-284.545	657.447	0.115	0.298
-283.530	800.000	-0.068	-0.251
-282.516	0.646	-0.075	0.054
-281.501	-200.000	0.005	-0.119
-280.486	-124.121	-0.222	0.035
-279.472	-67.871	-0.178	0.070
-278.457	-92.924	0.304	0.085
-277.443	-82.088	0.168	0.055
-276.428	263.461	-0.035	0.061
-275.413	-6.052	0.208	0.143
-274.399	26.500	-0.328	0.275
-273.384	-104.724	0.150	-0.035
-272.370	-114.241	0.133	0.026
-271.355	-182.992	-0.352	0.006
-270.340	151.480	0.040	-0.055
-269.326	-156.783	-0.265	0.016
-268.311	14.940	-0.376	-0.296
-267.297	-165.645	-0.393	0.017
-266.282	-143.631	0.473	-0.045
-265.267	273.706	-0.080	-0.143
-264.253	190.225	0.137	0.207
-263.238	327.929	0.047	-0.091
-262.224	76.574	-0.134	-0.143
-261.209	-98.697	0.201	0.051
-260.195	-200.000	0.004	0.207
-259.180	-47.186	0.083	0.040
-258.165	-12.355	0.253	0.166
-257.151	-28.812	0.217	0.125
-256.136	800.000	-0.056	-0.169
-255.122	-91.136	0.193	-0.056
-254.107	-200.000	-0.049	-0.301
-253.092	-200.000	-0.042	-0.224
-252.078	-18.060	0.205	-0.129
-251.063	244.985	0.071	0.120
-250.049	-74.547	0.039	0.014
-249.034	-200.000	0.019	-0.184
-248.019	77.099	-0.235	-0.251
-247.005	114.289	-0.277	-0.338
-245.990	333.693	0.129	-0.251
-244.976	65.396	-0.117	-0.118
-243.961	800.000	-0.082	-0.265
-242.946	-200.000	0.009	-0.153
-241.932	800.000	0.066	0.269
-240.917	-200.000	-0.004	-0.101
-239.903	-174.157	0.216	0.006
-238.888	-200.000	-0.039	-0.211
-237.873	145.362	-0.131	0.176
-236.859	-50.504	-0.218	-0.103
-235.844	440.943	0.118	0.260
-234.830	-200.000	-0.022	-0.221
-233.815	146.812	-0.127	0.172
-232.800	-31.977	0.224	-0.126
-231.786	-200.000	-0.063	-0.357
-230.771	4.933	0.056	0.041
-229.757	-200.000	0.028	0.131
-228.742	185.198	-0.169	-0.252
-227.727	-200.000	-0.032	-0.241
-226.713	151.421	0.107	0.146
-225.698	-26.397	0.249	0.147
-224.684	-95.169	0.311	-0.084
-223.669	-6.255	-0.096	-0.066
-222.655	-96.489	0.425	-0.113
-221.640	-200.000	-0.039	0.267
-220.625	-122.685	-0.215	0.035
-219.611	-69.460	0.178	0.069
-218.596	36.196	0.219	-0.193
-217.582	675.113	-0.038	-0.099
-216.567	-200.000	0.326	-0.001
-215.552	-39.762	0.182	0.095
-214.538	-75.709	0.166	-0.059
-213.523	26.472	0.145	-0.121
-212.509	-38.682	0.204	0.108
-211.494	175.909	0.240	0.349
-210.479	-127.343	-0.172	0.025
-209.465	-200.000	0.000	-0.175
-208.450	-149.897	-0.166	-0.013
-207.436	137.323	-0.132	-0.173
-206.421	67.570	0.055	-0.057
-205.406	128.544	-0.124	-0.158
-204.392	-127.654	-0.129	-0.019
-203.377	10.186	0.016	-0.012
-202.363	-200.000	0.015	-0.071
-201.348	264.409	-0.053	0.093
-200.333	113.611	-0.293	0.357
-199.319	-87.150	0.415	0.126
-198.304	29.530	-0.308	-0.263
-197.290	221.868	0.138	0.222
-196.275	209.551	0.280	0.439
-195.260	-58.862	-0.088	0.038
-194.246	-0.594	0.219	0.156
-193.231	-200.000	-0.001	-0.060
-192.217	47.479	0.090	-0.084
-191.202	51.979	0.028	0.027
-190.187	19.176	0.101	-0.081
-189.173	83.956	0.054	-0.059
-188.158	4.127	-0.095	-0.070
-187.144	181.268	-0.151	0.222
-186.129	619.796	-0.163	0.410
-185.114	59.020	0.165	0.163
-184.100	800.000	0.030	-0.100
-183.085	-146.837	-0.181	0.016
-182.071	1.105	-0.256	0.184
-181.056	-28.444	0.102	0.059
-180.042	53.514	-0.070	-0.068
-179.027	-149.110	-0.115	-0.009
-178.012	800.000	-0.082	-0.289
-176.998	168.689	0.034	-0.049
-175.983	-200.000	-0.032	0.254
-174.969	302.924	0.090	0.167
-173.954	55.942	0.134	0.130
-172.939	369.938	0.082	0.167
-171.925	128.942	-0.237	-0.302
-170.910	-26.097	0.080	-0.047
-169.896	-22.585	0.180	0.109
-168.881	271.744	-0.185	0.326
-167.866	-200.000	0.056	0.373
-166.852	-103.395	0.229	0.054
-165.837	-200.000	-0.093	-0.424
-164.823	-200.000	0.059	-0.460
-163.808	-116.175	0.161	0.030
-162.793	13.544	0.150	-0.116
-161.779	136.094	-0.243	0.316
-160.764	-143.502	0.050	-0.005
-159.750	-117.288	0.173	0.031
-158.735	800.000	-0.094	0.261
-157.720	145.598	-0.024	-0.032
-156.706	55.860	0.152	-0.147
-155.691	-200.000	-0.036	0.595
-154.677	-42.210	-0.280	-0.143
-153.662	-124.481	0.145	-0.023
-152.647	-89.866	0.294	-0.086
-151.633	-62.697	-0.318	-0.132
-150.618	800.000	-0.080	-0.238
-149.604	800.000	-0.043	-0.159
-148.589	800.000	-0.082	-0.242
-147.574	2.989	0.215	-0.156
-146.560	-127.502	0.118	-0.017
-145.545	161.491	-0.080	0.112
-144.531	34.486	0.276	-0.241
-143.516	168.841	0.158	-0.225
-142.502	17.656	-0.088	0.070
-141.487	220.747	-0.033	0.053
-140.472	234.786	-0.076	-0.126
-139.458	-104.450	0.343	-0.079
-138.443	-200.000	-0.004	0.143
-137.429	-4.031	0.265	0.183
-136.414	520.384	-0.139	-0.326
-135.399	800.000	0.091	-0.394
-134.385	-12.249	-0.271	-0.177
-133.370	179.233	-0.144	-0.211
-132.356	111.346	-0.062	-0.075
-131.341	76.339	0.111	-0.118
-130.326	800.000	0.065	0.251
-129.312	-106.962	-0.241	0.053
-128.297	-53.251	-0.253	-0.116
-127.283	28.171	0.075	0.063
-126.268	-200.000	-0.054	-0.297
-125.253	800.000	-0.057	-0.188
-124.239	-47.745	-0.102	0.050
-123.224	-200.000	0.019	-0.343
-122.210	-123.927	0.237	0.037
-121.195	-68.556	0.197	-0.076
