DTS Sentinel unit serial number:	SN413079Multiplexer serial number:	ORYXHardware model number:	OX4-SRSoftware version number:	ORYX F/W v4.00 Oryx Data Collector v3.7.2.0data status	okinstallation	princeton_trtdifferential loss correction	single-endedforward channel	channel 3reverse channel	N/Adate	2019/09/15time	17:08:35forward acquisition time	60.00reverse acquisition time	0.00gamma	496.2192k internal	0.2287k external	0.2287temperature offset calibration	0.9929default loss term (dB/km)	0.3790temperature slope calibration	1.0000multiplexer offset coefficient	1.0000multiplexer slope coefficient	1.0000fibre end	0.00T internal ref (°C)	44.62T ext. ref 1 (°C)	5.95T ext. ref 2 (°C)	40.55length (m)	temperature (°C)	Stokes	anti-Stokes-747.200	-3.580	-0.166	0.118
-746.185	-87.386	-0.319	0.099
-745.171	568.749	-0.132	-0.328
-744.156	-97.931	-0.142	0.037
-743.142	-200.000	-0.021	-0.197
-742.127	-182.233	-0.080	-0.002
-741.112	-37.881	0.102	-0.056
-740.098	-59.455	-0.272	0.120
-739.083	-44.714	0.225	-0.115
-738.069	47.351	0.078	-0.074
-737.054	-24.321	-0.299	-0.183
-736.039	362.515	-0.105	-0.217
-735.025	154.114	-0.073	0.102
-734.010	800.000	0.025	0.111
-732.996	198.363	-0.058	-0.091
-731.981	491.266	-0.137	-0.321
-730.966	-200.000	0.002	0.195
-729.952	-200.000	0.009	0.140
-728.937	76.007	-0.115	-0.124
-727.923	-1.872	0.059	0.042
-726.908	241.357	-0.081	-0.140
-725.894	-36.148	-0.129	0.071
-724.879	-30.372	-0.232	-0.135
-723.864	-102.049	-0.244	-0.060
-722.850	-200.000	-0.007	-0.169
-721.835	-57.552	0.247	-0.111
-720.821	28.574	0.090	-0.078
-719.806	160.792	-0.117	-0.167
-718.791	33.395	-0.250	-0.222
-717.777	-39.380	0.138	-0.074
-716.762	800.000	0.061	-0.195
-715.748	380.350	-0.051	0.108
-714.733	-156.135	-0.259	-0.017
-713.718	222.621	-0.120	-0.198
-712.704	13.127	0.200	0.159
-711.689	162.808	-0.127	-0.182
-710.675	428.586	0.175	-0.387
-709.660	367.839	-0.126	-0.262
-708.645	800.000	-0.061	-0.250
-707.631	102.470	0.317	-0.379
-706.616	-102.456	-0.190	0.047
-705.602	782.312	-0.054	-0.153
-704.587	-65.966	0.361	-0.148
-703.572	41.561	-0.214	0.199
-702.558	317.456	-0.177	-0.343
-701.543	-200.000	0.004	0.079
-700.529	-0.452	-0.415	0.302
-699.514	66.442	-0.081	0.084
-698.499	559.749	0.085	-0.209
-697.485	-51.737	-0.057	-0.027
-696.470	-139.205	-0.493	-0.054
-695.456	-200.000	-0.010	0.091
-694.441	-200.000	-0.013	-0.164
-693.426	28.182	0.039	0.034
-692.412	-200.000	-0.021	-0.453
-691.397	-200.000	0.036	-0.195
-690.383	800.000	0.040	-0.150
-689.368	204.472	-0.079	0.126
-688.354	-200.000	-0.041	0.187
-687.339	-177.851	0.376	-0.009
-686.324	72.998	-0.182	0.195
-685.310	84.396	0.108	0.121
-684.295	170.788	0.103	-0.152
-683.281	-8.866	0.037	-0.026
-682.266	162.217	0.233	0.334
-681.251	-183.919	-0.192	-0.003
-680.237	74.658	-0.218	-0.234
-679.222	-200.000	-0.045	-0.224
-678.208	-65.210	0.283	-0.117
-677.193	217.159	0.085	0.138
-676.178	-11.535	-0.325	0.218
-675.164	249.559	-0.170	0.295
-674.149	420.570	0.089	0.194
-673.135	-200.000	0.004	0.144
-672.120	418.334	0.041	-0.090
-671.105	38.029	-0.449	-0.409
-670.091	188.772	0.044	0.068
-669.076	686.915	0.080	0.214
-668.062	791.547	-0.079	-0.223
-667.047	501.569	-0.210	-0.495
-666.032	800.000	-0.037	0.104
-665.018	-9.566	-0.287	0.196
-664.003	124.703	0.091	0.117
-662.989	-75.693	-0.086	-0.031
-661.974	371.118	-0.088	0.182
-660.959	147.022	-0.154	-0.212
-659.945	-200.000	-0.022	0.139
-658.930	469.650	0.138	0.317
-657.916	71.143	-0.058	-0.061
-656.901	-200.000	0.011	-0.148
-655.886	-160.466	-0.173	-0.009
-654.872	-122.768	-0.077	-0.013
-653.857	-75.490	-0.271	-0.099
-652.843	-136.065	-0.292	0.035
-651.828	-124.113	0.109	-0.017
-650.814	45.120	-0.183	0.173
-649.799	-200.000	-0.053	0.247
-648.784	-200.000	0.010	-0.074
-647.770	13.872	-0.035	-0.028
-646.755	-154.211	-0.366	0.025
-645.741	414.127	0.166	0.360
-644.726	36.465	0.136	-0.123
-643.711	381.989	0.122	-0.256
-642.697	188.142	-0.089	-0.137
-641.682	-200.000	-0.021	-0.193
-640.668	-58.425	-0.157	-0.070
-639.653	176.020	0.100	-0.148
-638.638	-128.012	0.145	-0.021
-637.624	555.014	-0.149	0.366
-636.609	-29.974	0.302	0.176
-635.595	-132.304	0.106	-0.014
-634.580	228.372	-0.072	-0.120
-633.565	-33.635	0.240	-0.135
-632.551	-38.380	-0.317	0.172
-631.536	-9.248	0.021	-0.015
-630.522	46.185	-0.466	-0.441
-629.507	-200.000	-0.002	-0.342
-628.492	47.495	-0.198	-0.189
-627.478	-78.658	-0.201	-0.070
-626.463	-127.295	0.109	-0.016
-625.449	517.581	-0.104	0.250
-624.434	113.284	0.252	-0.313
-623.419	-111.228	-0.347	-0.073
-622.405	542.479	-0.078	0.189
-621.390	164.264	-0.291	-0.419
-620.376	-200.000	-0.017	0.274
-619.361	407.174	0.132	-0.285
-618.346	-200.000	-0.010	-0.130
-617.332	-12.168	-0.132	-0.089
-616.317	165.103	0.224	-0.323
-615.303	-200.000	-0.024	0.154
-614.288	48.481	-0.168	0.161
-613.273	-200.000	-0.023	0.378
-612.259	-104.216	0.221	0.052
-611.244	-34.074	0.112	-0.063
-610.230	-147.191	0.035	-0.003
-609.215	800.000	0.124	0.384
-608.201	97.477	-0.191	-0.224
-607.186	215.974	-0.141	-0.229
-606.171	-80.540	0.083	0.028
-605.157	800.000	0.097	0.331
-604.142	800.000	0.094	0.341
-603.128	112.350	-0.113	-0.140
-602.113	137.150	0.201	0.268
-601.098	163.369	-0.051	-0.074
-600.084	-69.767	-0.101	-0.039
-599.069	-200.000	-0.042	-0.281
-598.055	-18.816	0.408	-0.259
-597.040	562.646	-0.086	-0.212
-596.025	-154.836	-0.153	0.010
-595.011	-200.000	0.022	0.123
-593.996	-11.282	0.111	0.075
-592.982	800.000	-0.031	0.115
-591.967	800.000	-0.033	0.129
-590.952	-200.000	0.013	-0.099
-589.938	49.145	-0.149	-0.143
-588.923	7.687	-0.338	-0.258
-587.909	21.128	-0.216	0.179
-586.894	-74.899	0.152	-0.056
-585.879	-200.000	0.026	-0.338
-584.865	800.000	-0.056	-0.202
-583.850	-18.301	0.160	0.102
-582.836	136.928	0.303	-0.404
-581.821	267.730	-0.080	-0.143
-580.806	-100.205	0.392	0.099
-579.792	25.172	0.177	0.150
-578.777	-121.561	-0.115	0.019
-577.763	-147.588	-0.256	-0.022
-576.748	-64.995	-0.197	-0.081
-575.733	73.423	-0.252	0.268
-574.719	-57.743	-0.207	-0.092
-573.704	-97.256	-0.166	-0.044
-572.690	-200.000	-0.008	0.128
-571.675	-124.219	0.113	0.018
-570.661	786.902	-0.036	-0.101
-569.646	-142.266	0.117	0.012
-568.631	-122.784	-0.094	-0.015
-567.617	10.400	0.015	-0.011
-566.602	-200.000	-0.015	0.100
-565.588	800.000	0.036	-0.110
-564.573	559.258	0.178	-0.438
-563.558	-57.838	0.232	-0.104
-562.544	-35.988	0.447	-0.246
-561.529	407.160	-0.119	-0.255
-560.515	473.590	-0.084	0.192
-559.500	-49.870	0.077	-0.037
-558.485	800.000	-0.098	0.354
-557.471	90.507	-0.080	0.091
-556.456	-200.000	0.011	0.221
-555.442	-109.457	0.079	-0.017
-554.427	-45.257	-0.110	-0.056
-553.412	75.664	-0.065	0.070
-552.398	82.980	0.100	-0.111
-551.383	-155.918	0.297	0.019
-550.369	-200.000	-0.010	0.077
-549.354	-64.722	-0.101	-0.042
-548.339	494.300	-0.023	0.054
-547.325	-200.000	-0.064	0.308
-546.310	51.163	-0.102	-0.099
-545.296	590.313	-0.090	-0.226
-544.281	800.000	-0.056	0.191
-543.266	-149.293	0.204	0.017
-542.252	-154.032	0.264	0.018
-541.237	-200.000	0.020	0.278
-540.223	-58.617	0.044	-0.019
-539.208	-167.221	0.114	0.005
-538.193	-80.843	0.305	-0.103
-537.179	-76.650	-0.249	-0.089
-536.164	-131.014	-0.168	-0.023
-535.150	200.401	-0.060	-0.094
-534.135	31.535	0.062	-0.054
-533.121	800.000	-0.074	-0.273
-532.106	-200.000	-0.054	-0.292
-531.091	465.672	0.065	0.149
-530.077	-96.602	-0.066	0.018
-529.062	-69.914	0.211	0.082
-528.048	-132.915	0.071	-0.009
-527.033	-200.000	0.013	0.089
-526.018	-81.484	-0.194	-0.065
-525.004	-152.330	0.138	-0.010
-523.989	282.218	0.067	0.121
-522.975	-200.000	-0.129	0.000
-521.960	208.267	0.052	0.083
-520.945	302.173	-0.123	-0.230
-519.931	-37.085	0.142	-0.077
-518.916	-42.161	-0.089	0.046
-517.902	2.860	0.021	-0.015
-516.887	64.369	0.122	0.125
-515.872	9.081	0.225	0.172
-514.858	136.684	0.117	-0.155
-513.843	101.399	-0.201	0.238
-512.829	-7.081	-0.185	-0.127
-511.814	119.083	-0.257	0.323
-510.799	122.462	-0.118	0.150
-509.785	-85.932	-0.243	0.077
-508.770	-200.000	0.052	-0.244
-507.756	-120.349	-0.079	0.014
-506.741	800.000	0.087	-0.326
-505.726	800.000	-0.006	0.020
-504.712	77.940	-0.116	0.126
-503.697	-99.281	0.233	-0.060
-502.683	90.141	0.118	0.134
-501.668	-200.000	-0.025	-0.173
-500.653	-78.162	-0.434	0.152
-499.639	-50.612	-0.086	-0.041
-498.624	166.232	0.135	0.194
-497.610	-200.000	0.015	-0.115
-496.595	-57.226	-0.118	0.053
-495.581	249.978	-0.130	-0.224
-494.566	-122.962	-0.145	0.024
-493.551	31.458	0.092	-0.080
-492.537	-155.456	-0.214	0.014
-491.522	-3.922	-0.327	-0.231
-490.508	-106.970	-0.312	-0.070
-489.493	-75.963	0.058	-0.021
-488.478	-69.253	-0.092	-0.036
-487.464	-200.000	0.022	0.135
-486.449	800.000	0.071	0.215
-485.435	-84.409	-0.122	0.039
-484.420	-43.768	0.283	-0.145
-483.405	36.510	-0.114	0.102
-482.391	55.253	-0.140	-0.137
-481.376	-200.000	0.006	-0.048
-480.362	181.440	-0.168	0.251
-479.347	-66.942	-0.284	-0.114
-478.332	-200.000	0.078	-0.376
-477.318	-200.000	-0.056	-0.308
-476.303	-141.881	0.212	-0.022
-475.289	-83.775	0.173	0.056
-474.274	206.845	-0.150	0.238
-473.259	-200.000	-0.015	0.156
-472.245	-200.000	0.018	-0.236
-471.230	800.000	0.090	0.296
-470.216	-196.573	0.232	0.002
-469.201	383.365	0.057	-0.119
-468.186	-173.869	-0.100	-0.003
-467.172	-109.488	0.157	-0.034
-466.157	-200.000	0.014	0.306
-465.143	41.616	0.138	0.127
-464.128	-94.657	-0.041	0.011
-463.113	247.979	-0.142	-0.244
-462.099	-39.035	-0.042	-0.023
-461.084	-132.857	0.116	-0.015
-460.070	800.000	-0.048	0.170
-459.055	-154.427	0.338	0.023
-458.040	-148.358	-0.252	0.021
-457.026	-27.032	-0.245	-0.145
-456.011	-200.000	0.011	-0.311
-454.997	101.546	0.048	0.057
-453.982	277.702	0.077	-0.139
-452.968	-61.723	0.115	-0.049
-451.953	26.351	-0.136	-0.116
-450.938	-200.000	0.003	-0.051
-449.924	317.908	-0.208	0.399
-448.909	61.052	-0.210	0.211
-447.895	-85.355	0.346	-0.109
-446.880	103.869	0.102	0.121
-445.865	57.722	0.232	0.230
-444.851	583.519	-0.110	-0.274
-443.836	599.820	0.040	0.101
-442.822	-46.612	0.382	0.190
-441.807	-200.000	0.038	0.309
-440.792	-156.064	0.153	0.010
-439.778	793.911	-0.069	-0.193
-438.763	88.486	0.204	0.229
-437.749	155.572	0.160	0.224
-436.734	42.663	0.030	-0.028
-435.719	15.158	-0.232	-0.184
-434.705	247.161	-0.078	-0.134
-433.690	33.870	0.233	0.205
-432.676	800.000	-0.054	-0.158
-431.661	477.627	0.125	-0.287
-430.646	-127.651	0.020	0.003
-429.632	-138.471	-0.196	0.022
-428.617	125.146	-0.160	-0.204
-427.603	266.871	0.041	0.073
-426.588	-200.000	-0.009	0.205
-425.573	-200.000	0.020	0.256
-424.559	-30.589	-0.125	-0.072
-423.544	79.691	-0.102	0.111
-422.530	-123.889	-0.088	-0.014
-421.515	553.303	-0.032	-0.078
-420.500	161.991	0.018	0.025
-419.486	17.442	-0.203	-0.164
-418.471	800.000	0.042	-0.148
-417.457	133.360	0.103	-0.135
-416.442	24.989	-0.182	-0.153
-415.428	-41.271	-0.368	0.192
-414.413	-122.012	-0.299	-0.050
-413.398	545.636	0.155	-0.375
-412.384	609.983	0.060	-0.153
-411.369	-74.854	-0.077	-0.028
-410.355	245.169	0.020	0.033
-409.340	164.068	-0.076	0.108
-408.325	-67.101	0.033	0.013
-407.311	135.498	0.187	-0.247
-406.296	54.863	-0.232	0.226
-405.282	583.566	0.053	0.131
-404.267	355.448	0.133	-0.268
-403.252	-74.671	-0.245	0.089
-402.238	28.380	-0.266	0.228
-401.223	-160.856	-0.227	0.012
-400.209	57.538	0.129	0.128
-399.194	119.130	-0.056	-0.070
-398.179	145.111	0.104	-0.141
-397.165	-79.085	0.147	0.051
-396.150	-12.817	0.400	0.264
-395.136	-47.662	0.135	0.066
-394.121	347.378	0.022	0.043
-393.106	-83.097	0.063	0.021
-392.092	-48.706	0.236	-0.114
-391.077	73.902	0.058	0.062
-390.063	-200.000	-0.002	0.252
-389.048	-72.938	-0.285	0.106
-388.033	-133.936	-0.048	-0.006
-387.019	-60.238	0.080	-0.034
-386.004	-56.872	-0.315	-0.141
-384.990	-200.000	-0.018	-0.148
-383.975	618.242	-0.152	-0.386
-382.960	-76.735	0.335	0.119
-381.946	-18.077	0.156	0.099
-380.931	-34.322	-0.179	-0.099
-379.917	-13.726	-0.267	-0.175
-378.902	186.902	-0.193	0.291
-377.888	-95.255	-0.044	0.012
-376.873	-200.000	0.052	0.236
-375.858	-42.230	-0.348	0.180
-374.844	-12.999	0.131	-0.086
-373.829	-75.765	0.071	-0.026
-372.815	-99.229	-0.189	-0.048
-371.800	800.000	-0.092	-0.270
-370.785	-98.461	0.392	0.102
-369.771	86.111	-0.116	0.129
-368.756	-185.645	-0.317	0.005
-367.742	-132.618	-0.145	0.019
-366.727	-117.021	0.144	0.027
-365.712	-119.829	0.131	-0.023
-364.698	800.000	-0.041	-0.173
-363.683	-200.000	-0.005	0.141
-362.669	-30.478	-0.283	0.162
-361.654	114.151	-0.175	0.215
-360.639	-200.000	-0.035	0.309
-359.625	68.006	-0.277	0.286
-358.610	800.000	-0.090	0.253
-357.596	800.000	-0.076	-0.303
-356.581	-200.000	-0.011	-0.255
-355.566	-200.000	-0.011	0.194
-354.552	800.000	0.021	0.087
-353.537	-113.672	0.223	0.044
-352.523	-200.000	-0.040	0.438
-351.508	-200.000	0.015	-0.219
-350.493	-147.762	0.296	0.025
-349.479	-64.154	0.140	-0.058
-348.464	601.438	0.161	-0.404
-347.450	800.000	0.043	0.124
-346.435	45.567	0.303	0.283
-345.420	-29.927	-0.414	0.238
-344.406	-46.853	0.102	0.050
-343.391	374.570	-0.042	-0.086
-342.377	-12.867	0.335	-0.221
-341.362	146.453	0.093	-0.126
-340.348	-43.711	-0.328	-0.167
-339.333	-81.173	0.203	-0.068
-338.318	261.476	0.110	0.193
-337.304	365.285	0.048	0.098
-336.289	-200.000	-0.036	-0.265
-335.275	800.000	-0.026	-0.107
-334.260	-114.394	-0.209	-0.041
-333.245	-17.478	0.264	0.167
-332.231	-200.000	-0.004	0.022
-331.216	-9.274	0.155	-0.104
-330.202	-156.709	0.285	0.018
-329.187	167.406	0.061	-0.088
-328.172	306.205	-0.135	-0.254
-327.158	-200.000	0.011	0.085
-326.143	236.706	0.086	-0.143
-325.129	-81.286	-0.079	-0.026
-324.114	-35.233	0.186	-0.102
-323.099	-155.501	-0.141	-0.009
-322.085	4.046	0.208	0.153
-321.070	-200.000	0.028	0.645
-320.056	-97.467	-0.223	0.059
-319.041	218.198	0.238	-0.383
-318.026	-164.632	0.249	0.011
-317.012	-88.684	-0.305	0.092
-315.997	800.000	0.015	0.056
-314.983	800.000	0.079	-0.224
-313.968	-164.172	0.435	0.020
-312.953	32.286	0.348	0.303
-311.939	-200.000	-0.022	-0.113
-310.924	-200.000	0.005	-0.178
-309.910	3.557	0.150	-0.110
-308.895	-200.000	-0.045	0.226
-307.880	8.963	-0.065	-0.049
-306.866	-61.888	0.247	0.104
-305.851	-65.398	-0.022	-0.009
-304.837	121.692	0.071	-0.089
-303.822	-131.666	0.141	-0.019
-302.807	-200.000	0.033	-0.162
-301.793	-43.978	0.173	-0.088
-300.778	-89.692	-0.312	-0.092
-299.764	800.000	0.055	0.164
-298.749	-140.471	0.257	0.027
-297.735	-200.000	0.008	0.244
-296.720	-30.128	0.158	0.091
-295.705	-123.517	-0.207	0.033
-294.691	107.136	0.260	0.312
-293.676	-200.000	-0.038	0.201
-292.662	-183.528	-0.077	0.001
-291.647	-131.969	0.187	0.025
-290.632	212.798	0.144	-0.229
-289.618	-200.000	-0.020	-0.559
-288.603	14.826	-0.144	0.113
-287.589	618.213	-0.045	0.115
-286.574	-23.701	0.120	-0.073
-285.559	-19.888	0.339	-0.211
-284.545	-200.000	-0.029	0.241
-283.530	-36.225	-0.073	0.040
-282.516	-40.368	-0.192	0.101
-281.501	-7.049	-0.050	0.034
-280.486	219.058	0.145	0.233
-279.472	248.913	-0.025	-0.043
-278.457	-147.044	0.053	0.005
-277.443	41.098	-0.193	-0.175
-276.428	-104.722	0.128	0.030
-275.413	-3.215	0.222	-0.156
-274.399	-23.640	0.180	0.109
-273.384	109.621	-0.218	0.263
-272.370	226.404	-0.123	-0.202
-271.355	98.228	0.143	-0.166
-270.340	-128.255	-0.138	-0.020
-269.326	84.749	-0.326	0.360
-268.311	-4.023	0.184	0.128
-267.297	-47.962	-0.306	0.149
-266.282	685.812	-0.131	0.345
-265.267	93.600	0.090	0.102
-264.253	-152.955	-0.545	-0.039
-263.238	100.138	-0.049	0.057
-262.224	37.152	0.118	0.105
-261.209	-200.000	-0.070	-0.402
-260.195	76.274	0.122	0.130
-259.180	-200.000	0.026	0.399
-258.165	15.436	-0.230	0.182
-257.151	356.876	-0.107	-0.216
-256.136	2.803	0.163	0.119
-255.122	-106.278	0.096	-0.022
-254.107	-200.000	-0.001	0.089
-253.092	276.539	0.108	-0.193
-252.078	-200.000	0.040	-0.248
-251.063	-131.565	0.273	-0.036
-250.049	135.425	0.097	0.127
-249.034	-75.358	0.150	0.054
-248.019	-52.053	0.208	-0.097
-247.005	53.758	-0.064	0.062
-245.990	-15.773	-0.013	0.009
-244.976	800.000	-0.023	0.093
-243.961	262.158	0.113	0.196
-242.946	31.643	0.052	-0.045
-241.932	-45.276	0.078	-0.039
-240.917	-119.467	-0.249	0.044
-239.903	-92.640	0.208	0.059
-238.888	-23.463	0.236	0.142
-237.873	299.138	0.177	0.328
-236.859	800.000	-0.041	0.155
-235.844	-200.000	-0.043	-0.255
-234.830	-57.726	0.221	-0.097
-233.815	800.000	0.104	0.297
-232.800	-55.257	0.427	0.193
-231.786	-162.442	0.259	0.013
-230.771	156.858	0.205	-0.285
-229.757	-46.842	-0.293	-0.144
-228.742	167.662	0.242	-0.345
-227.727	-74.465	0.362	0.131
-226.713	800.000	-0.014	0.047
-225.698	58.509	-0.340	-0.335
-224.684	74.399	0.209	-0.221
-223.669	446.969	0.084	-0.186
-222.655	278.217	-0.085	-0.151
-221.640	48.191	0.103	0.097
-220.625	800.000	0.011	-0.039
-219.611	-7.549	-0.075	0.051
-218.596	-200.000	0.024	0.131
-217.582	-35.391	0.044	-0.024
-216.567	275.861	0.046	0.083
-215.552	-125.406	-0.319	-0.049
-214.538	-96.801	-0.108	-0.029
-213.523	153.192	0.186	-0.256
-212.509	-9.510	-0.245	0.165
-211.494	-103.882	-0.086	0.020
-210.479	-10.945	0.036	-0.024
-209.465	-9.030	-0.260	0.175
-208.450	-124.311	-0.392	-0.062
-207.436	-200.000	-0.016	-0.326
-206.421	-173.893	0.386	-0.011
-205.406	-200.000	-0.064	-0.346
-204.392	200.500	-0.085	0.131
-203.377	-123.895	-0.082	-0.013
-202.363	261.655	0.157	-0.273
-201.348	-66.232	0.261	-0.104
-200.333	-19.565	-0.238	0.148
-199.319	-148.621	0.221	-0.018
-198.304	-51.199	0.239	0.113
-197.290	800.000	-0.031	0.093
-196.275	798.174	0.059	0.164
-195.260	-0.123	0.390	0.279
-194.246	1.038	-0.390	-0.281
-193.231	-200.000	-0.067	-0.438
-192.217	800.000	0.031	-0.088
-191.202	-139.614	-0.051	-0.005
-190.187	-128.811	0.090	-0.013
-189.173	-68.994	-0.093	0.036
-188.158	-96.835	0.154	-0.041
-187.144	-110.911	-0.257	0.053
-186.129	-169.674	-0.197	-0.007
-185.114	-97.725	-0.200	-0.052
-184.100	18.034	-0.281	0.225
-183.085	-29.694	0.076	0.043
-182.071	298.968	-0.150	0.276
-181.056	-71.604	-0.146	-0.055
-180.042	495.548	0.100	-0.231
-179.027	-200.000	-0.008	0.184
-178.012	695.938	-0.093	0.244
-176.998	-200.000	0.009	0.050
-175.983	-96.200	0.364	0.097
-174.969	277.458	-0.162	0.288
-173.954	-200.000	0.017	0.176
-172.939	138.443	-0.154	0.203
-171.925	310.154	-0.121	0.227
-170.910	-200.000	0.005	-0.171
-169.896	73.937	-0.151	0.159
-168.881	264.896	-0.088	-0.153
-167.866	-40.296	0.092	-0.048
-166.852	17.190	0.082	-0.066
-165.837	800.000	-0.059	-0.240
-164.823	30.518	0.167	0.143
-163.808	-153.310	-0.357	-0.025
-162.793	-48.399	-0.393	-0.190
-161.779	800.000	-0.099	-0.339
-160.764	-22.093	-0.259	0.157
-159.750	-200.000	0.021	0.155
-158.735	800.000	0.071	0.280
-157.720	-113.994	0.356	-0.069
-156.706	27.456	0.320	0.270
-155.691	-85.004	-0.261	-0.082
-154.677	-16.844	0.328	-0.208
-153.662	-200.000	0.024	-0.109
-152.647	482.526	0.042	-0.095
-151.633	-118.493	-0.243	0.043
-150.618	2.163	-0.132	-0.096
-149.604	369.864	0.148	-0.300
-148.589	-26.520	0.151	-0.089
-147.574	-107.517	-0.293	-0.064
-146.560	-200.000	-0.021	-0.157
-145.545	3.176	0.159	0.116
-144.531	-63.167	-0.069	-0.028
-143.516	180.590	0.181	0.266
-142.502	-134.788	0.062	0.008
-141.487	-200.000	0.017	-0.080
-140.472	331.346	-0.102	0.198
-139.458	-200.000	-0.052	0.294
-138.443	-140.680	0.371	0.038
-137.429	800.000	-0.085	0.264
-136.414	62.005	-0.058	-0.058
-135.399	-46.966	-0.144	-0.070
-134.385	-68.199	0.085	-0.033
-133.370	621.426	-0.032	0.080
-132.356	-163.481	0.274	-0.013
-131.341	-19.298	0.226	0.140
-130.326	-40.882	-0.311	-0.161
-129.312	345.089	-0.131	-0.257
-128.297	800.000	0.023	0.088
-127.283	19.004	0.237	-0.190
-126.268	-113.134	0.253	-0.050
-125.253	79.016	0.042	-0.045
-124.239	35.902	-0.171	-0.151
-123.224	-100.433	0.231	-0.057
-122.210	-3.211	0.095	-0.066
