DTS Sentinel unit serial number:	SN413079Multiplexer serial number:	ORYXHardware model number:	OX4-SRSoftware version number:	ORYX F/W v4.00 Oryx Data Collector v3.7.2.0data status	okinstallation	princeton_trtdifferential loss correction	single-endedforward channel	channel 3reverse channel	N/Adate	2019/09/12time	22:00:35forward acquisition time	60.00reverse acquisition time	0.00gamma	496.2192k internal	0.2326k external	0.2326temperature offset calibration	1.0135default loss term (dB/km)	0.3790temperature slope calibration	1.0000multiplexer offset coefficient	1.0000multiplexer slope coefficient	1.0000fibre end	0.00T internal ref (°C)	30.06T ext. ref 1 (°C)	3.77T ext. ref 2 (°C)	24.57length (m)	temperature (°C)	Stokes	anti-Stokes-747.200	-38.034	-0.180	-0.097
-746.185	-87.515	-0.201	-0.061
-745.171	-164.442	0.371	0.017
-744.156	114.508	-0.202	0.248
-743.142	121.321	-0.046	0.058
-742.127	440.499	0.017	0.038
-741.112	60.916	-0.196	-0.196
-740.098	800.000	0.036	0.127
-739.083	131.882	-0.264	0.343
-738.069	800.000	-0.063	0.270
-737.054	-41.422	-0.055	0.028
-736.039	316.033	-0.143	0.271
-735.025	-200.000	0.065	0.322
-734.010	454.663	-0.104	-0.233
-732.996	-200.000	0.001	-0.348
-731.981	129.062	-0.289	-0.371
-730.966	113.292	-0.114	-0.140
-729.952	-92.551	-0.272	-0.077
-728.937	106.192	-0.231	-0.276
-727.923	173.647	0.280	-0.407
-726.908	31.076	-0.163	-0.141
-725.894	-79.823	-0.533	-0.181
-724.879	-135.243	-0.215	0.026
-723.864	742.725	0.135	0.366
-722.850	-194.372	-0.332	0.003
-721.835	59.865	0.141	-0.140
-720.821	601.652	-0.205	-0.512
-719.806	-200.000	0.081	-0.364
-718.791	545.208	0.176	-0.423
-717.777	131.363	-0.187	-0.243
-716.762	-137.402	0.179	-0.020
-715.748	183.127	-0.080	-0.119
-714.733	-10.688	-0.413	-0.275
-713.718	-77.494	0.389	0.136
-712.704	-68.026	-0.102	0.040
-711.689	-33.054	0.220	-0.123
-710.675	800.000	0.069	0.209
-709.660	26.567	-0.217	0.183
-708.645	280.432	0.197	0.354
-707.631	495.309	0.204	-0.472
-706.616	800.000	-0.056	-0.181
-705.602	-68.187	-0.364	0.143
-704.587	-38.591	-0.166	-0.088
-703.572	45.856	0.098	0.091
-702.558	-200.000	-0.055	0.351
-701.543	-108.570	0.180	-0.039
-700.529	-134.241	-0.098	-0.012
-699.514	-200.000	-0.008	0.055
-698.499	-200.000	0.002	-0.365
-697.485	138.733	0.109	-0.144
-696.470	-200.000	0.023	-0.431
-695.456	-148.314	0.199	-0.017
-694.441	67.677	0.156	-0.161
-693.426	800.000	0.082	0.288
-692.412	-66.775	-0.397	0.158
-691.397	53.549	-0.072	-0.069
-690.383	346.841	0.145	-0.286
-689.368	520.716	0.102	-0.241
-688.354	-46.566	0.059	-0.029
-687.339	800.000	0.016	0.053
-686.324	201.938	0.111	0.172
-685.310	43.068	-0.184	-0.169
-684.295	-45.727	-0.190	-0.094
-683.281	-185.370	-0.131	0.002
-682.266	-136.351	-0.247	0.029
-681.251	-164.123	-0.508	-0.024
-680.237	800.000	0.055	0.185
-679.222	23.278	-0.122	0.100
-678.208	-123.876	0.247	0.039
-677.193	800.000	0.092	-0.387
-676.178	209.445	-0.267	-0.421
-675.164	185.229	0.124	0.184
-674.149	-76.101	0.112	0.040
-673.135	-154.189	-0.317	-0.022
-672.120	-31.249	0.130	0.074
-671.105	-139.474	0.252	0.027
-670.091	50.964	0.146	-0.139
-669.076	200.556	-0.066	0.102
-668.062	800.000	0.168	-0.484
-667.047	-123.456	-0.324	-0.052
-666.032	447.228	0.042	-0.093
-665.018	48.066	0.093	-0.088
-664.003	675.203	-0.110	-0.286
-662.989	-157.800	-0.223	0.013
-661.974	337.313	0.163	0.318
-660.959	-39.786	-0.244	0.128
-659.945	-26.060	-0.178	0.105
-658.930	189.252	0.055	-0.083
-657.916	-103.939	0.013	-0.003
-656.901	800.000	-0.143	-0.447
-655.886	119.295	0.080	-0.099
-654.872	-132.703	-0.192	-0.025
-653.857	-104.597	0.062	0.014
-652.843	345.412	-0.122	0.241
-651.828	-93.366	0.204	-0.057
-650.814	-98.096	0.170	0.044
-649.799	-57.115	-0.262	0.116
-648.784	-81.293	-0.105	0.035
-647.770	7.092	0.246	-0.184
-646.755	-118.496	0.105	-0.019
-645.741	23.679	0.142	-0.118
-644.726	-110.507	-0.399	0.083
-643.711	4.058	-0.202	-0.149
-642.697	102.756	-0.253	-0.298
-641.682	223.193	-0.056	-0.091
-640.668	256.586	-0.076	-0.131
-639.653	-189.424	0.528	-0.006
-638.638	-200.000	-0.033	0.300
-637.624	-51.097	-0.427	0.201
-636.609	14.036	-0.160	-0.125
-635.595	-200.000	0.002	-0.123
-634.580	7.232	-0.356	0.267
-633.565	-200.000	-0.033	-0.264
-632.551	-200.000	0.006	0.130
-631.536	-20.839	0.382	-0.235
-630.522	800.000	-0.067	-0.290
-629.507	113.471	-0.081	-0.099
-628.492	18.028	0.101	0.080
-627.478	-113.950	0.235	0.046
-626.463	-55.595	-0.253	-0.114
-625.449	800.000	0.056	-0.178
-624.434	-119.666	-0.262	-0.045
-623.419	122.965	0.191	0.241
-622.405	-72.723	-0.179	0.066
-621.390	119.173	-0.069	-0.086
-620.376	-63.194	0.118	0.049
-619.361	112.310	0.078	0.095
-618.346	-65.711	0.259	0.104
-617.332	18.416	-0.220	-0.176
-616.317	563.093	0.053	0.130
-615.303	-200.000	-0.033	0.253
-614.288	34.621	-0.091	-0.080
-613.273	800.000	-0.139	-0.399
-612.259	-162.645	-0.142	-0.007
-611.244	-26.278	0.090	-0.053
-610.230	110.812	0.132	-0.159
-609.215	-138.992	-0.184	0.020
-608.201	378.913	0.094	-0.194
-607.186	800.000	0.016	0.058
-606.171	-200.000	0.006	-0.151
-605.157	86.410	0.180	-0.199
-604.142	-1.015	0.188	-0.134
-603.128	-129.735	-0.188	0.026
-602.113	-166.121	0.218	0.009
-601.098	-14.532	-0.060	-0.038
-600.084	-200.000	-0.026	0.363
-599.069	-200.000	-0.041	-0.197
-598.055	-127.396	-0.235	0.034
-597.040	-119.795	0.270	-0.047
-596.025	74.500	0.188	0.198
-595.011	-200.000	0.041	-0.261
-593.996	96.917	-0.136	-0.157
-592.982	248.614	-0.143	-0.242
-591.967	-73.034	0.071	0.026
-590.952	188.658	-0.085	-0.128
-589.938	209.691	0.172	0.270
-588.923	61.243	-0.125	-0.124
-587.909	-64.160	-0.073	-0.030
-586.894	800.000	-0.051	-0.226
-585.879	42.977	-0.280	-0.256
-584.865	-82.782	-0.169	-0.055
-583.850	-131.337	0.380	-0.050
-582.836	317.320	-0.071	0.135
-581.821	-43.092	-0.304	-0.155
-580.806	39.034	0.172	-0.154
-579.792	797.410	0.039	-0.107
-578.777	453.455	-0.133	0.295
-577.763	-54.274	0.115	0.052
-576.748	-108.114	-0.168	-0.036
-575.733	-99.278	-0.294	-0.074
-574.719	-200.000	0.019	-0.266
-573.704	-106.778	-0.106	-0.023
-572.690	800.000	0.063	0.177
-571.675	-186.323	0.178	-0.003
-570.661	-200.000	0.043	0.231
-569.646	41.939	0.143	-0.130
-568.631	800.000	-0.058	-0.178
-567.617	-88.782	-0.044	-0.013
-566.602	59.946	0.162	0.160
-565.588	-200.000	0.047	0.289
-564.573	35.733	0.106	0.093
-563.558	-200.000	0.005	-0.244
-562.544	-176.444	0.093	0.002
-561.529	539.980	-0.137	-0.328
-560.515	-200.000	0.015	0.268
-559.500	-76.430	0.229	0.080
-558.485	749.686	-0.049	0.132
-557.471	-200.000	-0.009	-0.110
-556.456	-62.506	0.268	0.111
-555.442	-200.000	-0.048	0.239
-554.427	-93.231	0.147	0.041
-553.412	433.600	0.008	-0.017
-552.398	54.652	0.062	0.060
-551.383	52.259	-0.236	0.225
-550.369	-62.338	-0.243	0.101
-549.354	-64.491	-0.097	-0.039
-548.339	-68.440	0.451	-0.175
-547.325	723.747	0.139	0.370
-546.310	-159.488	0.266	-0.015
-545.296	-105.218	0.050	0.012
-544.281	-60.453	0.273	-0.116
-543.266	674.024	-0.022	-0.058
-542.252	145.774	-0.123	-0.165
-541.237	-143.140	0.081	0.008
-540.223	-200.000	-0.010	-0.178
-539.208	-6.551	-0.130	-0.088
-538.193	112.265	0.102	-0.123
-537.179	233.500	0.177	-0.291
-536.164	-27.995	0.141	0.082
-535.150	-117.752	-0.099	-0.018
-534.135	106.964	-0.150	0.178
-533.121	131.535	0.145	-0.187
-532.106	310.985	-0.175	-0.328
-531.091	-200.000	-0.073	-0.449
-530.077	-44.466	0.276	0.138
-529.062	123.748	-0.171	0.214
-528.048	-141.113	0.097	-0.010
-527.033	369.845	0.208	0.421
-526.018	197.623	-0.120	-0.184
-525.004	-54.705	-0.372	-0.168
-523.989	-151.134	-0.085	0.006
-522.975	-59.911	-0.373	-0.159
-521.960	70.984	0.161	-0.167
-520.945	240.705	-0.259	0.431
-519.931	-26.961	-0.121	-0.071
-518.916	273.033	0.091	-0.161
-517.902	-128.801	-0.158	-0.022
-516.887	-66.623	0.094	0.037
-515.872	196.047	-0.140	-0.214
-514.858	195.428	-0.211	-0.321
-513.843	800.000	0.058	-0.217
-512.829	-200.000	0.011	0.072
-511.814	582.744	0.144	0.354
-510.799	199.229	-0.188	0.289
-509.785	-121.222	-0.051	0.008
-508.770	102.448	-0.108	0.126
-507.756	-80.600	0.193	-0.064
-506.741	-200.000	-0.027	-0.143
-505.726	-200.000	-0.019	0.117
-504.712	190.496	0.179	0.268
-503.697	82.273	0.147	-0.159
-502.683	-90.519	-0.095	0.028
-501.668	-200.000	0.003	-0.090
-500.653	-105.740	0.098	-0.022
-499.639	198.819	-0.098	-0.149
-498.624	695.288	-0.059	0.156
-497.610	-53.055	0.186	-0.085
-496.595	12.959	0.152	-0.117
-495.581	-84.699	-0.041	0.013
-494.566	409.109	0.140	-0.296
-493.551	-165.697	-0.145	0.006
-492.537	-116.514	-0.336	-0.062
-491.522	50.315	0.108	-0.102
-490.508	389.910	0.186	-0.386
-489.493	-104.347	0.164	0.038
-488.478	-50.809	-0.199	0.094
-487.464	-27.568	-0.246	-0.143
-486.449	-45.842	-0.124	0.061
-485.435	205.420	-0.106	-0.164
-484.420	-200.000	0.002	0.051
-483.405	-145.377	-0.244	0.022
-482.391	25.374	0.122	0.102
-481.376	-200.000	0.010	0.149
-480.362	-47.173	-0.131	0.064
-479.347	-134.432	0.265	-0.032
-478.332	-200.000	-0.023	-0.106
-477.318	35.110	0.123	0.108
-476.303	183.320	-0.153	0.226
-475.289	-112.912	0.237	0.047
-474.274	138.313	0.058	0.076
-473.259	652.618	0.058	0.148
-472.245	-200.000	0.007	-0.221
-471.230	-200.000	-0.038	-0.185
-470.216	776.476	0.061	-0.167
-469.201	-200.000	-0.019	-0.189
-468.186	-138.936	0.121	0.013
-467.172	-171.143	-0.326	0.011
-466.157	739.950	-0.052	-0.139
-465.143	-135.559	0.200	0.024
-464.128	-62.131	0.092	-0.038
-463.113	80.793	-0.188	0.202
-462.099	-24.244	0.180	-0.107
-461.084	467.188	0.100	0.224
-460.070	177.519	-0.175	-0.254
-459.055	343.439	0.058	-0.112
-458.040	-100.825	-0.215	-0.053
-457.026	60.212	-0.055	0.054
-456.011	-80.122	-0.118	-0.039
-454.997	175.503	-0.160	0.232
-453.982	800.000	-0.020	-0.084
-452.968	31.545	-0.256	-0.219
-451.953	174.047	-0.171	0.246
-450.938	26.294	-0.006	0.005
-449.924	70.695	-0.045	0.047
-448.909	-200.000	-0.004	0.363
-447.895	-105.951	-0.175	-0.039
-446.880	5.234	-0.171	0.125
-445.865	137.068	-0.156	-0.203
-444.851	363.722	-0.104	0.207
-443.836	55.959	0.033	0.032
-442.822	-14.898	-0.114	0.073
-441.807	-52.519	-0.250	0.115
-440.792	-20.835	0.052	0.032
-439.778	-161.387	-0.116	-0.006
-438.763	-73.022	0.091	-0.033
-437.749	800.000	-0.011	0.037
-436.734	-65.451	0.242	-0.097
-435.719	55.060	0.142	-0.137
-434.705	-62.555	0.171	-0.071
-433.690	140.458	-0.263	0.346
-432.676	334.364	-0.069	0.134
-431.661	-137.995	-0.270	-0.030
-430.646	50.551	0.093	-0.087
-429.632	800.000	-0.090	0.321
-428.617	-37.835	-0.229	0.121
-427.603	-200.000	0.049	0.216
-426.588	292.841	0.148	-0.268
-425.573	135.762	0.044	0.057
-424.559	286.968	-0.190	-0.342
-423.544	353.871	-0.082	0.162
-422.530	-15.217	-0.298	-0.190
-421.515	-0.385	0.051	-0.036
-420.500	50.638	-0.259	-0.244
-419.486	-200.000	-0.050	-0.225
-418.471	800.000	0.072	0.240
-417.457	-189.401	0.377	0.004
-416.442	146.835	0.154	-0.206
-415.428	291.530	0.171	-0.310
-414.413	-65.893	-0.203	-0.081
-413.398	800.000	0.042	0.124
-412.384	693.011	-0.101	-0.263
-411.369	196.175	0.099	-0.150
-410.355	-200.000	-0.003	-0.036
-409.340	433.431	-0.027	-0.059
-408.325	-23.310	0.306	0.183
-407.311	-200.000	0.026	-0.301
-406.296	206.813	0.112	0.174
-405.282	298.902	0.041	-0.076
-404.267	-200.000	0.004	0.349
-403.252	-80.998	0.174	0.057
-402.238	-200.000	-0.024	0.189
-401.223	-117.544	0.248	0.045
-400.209	-131.132	0.156	0.021
-399.194	-52.084	0.024	-0.011
-398.179	-79.559	-0.138	0.046
-397.165	800.000	-0.044	0.185
-396.150	-200.000	0.023	-0.170
-395.136	236.710	0.130	0.214
-394.121	-138.812	0.366	-0.040
-393.106	52.776	-0.044	-0.042
-392.092	-28.631	-0.446	0.256
-391.077	-55.354	0.226	0.101
-390.063	-144.987	-0.275	0.025
-389.048	-200.000	-0.004	-0.146
-388.033	-97.093	-0.272	0.071
-387.019	-83.290	0.254	0.081
-386.004	-129.797	0.044	0.006
-384.990	-200.000	0.028	-0.148
-383.975	-200.000	-0.040	0.181
-382.960	-200.000	-0.009	0.275
-381.946	-200.000	0.009	0.075
-380.931	218.861	0.087	-0.138
-379.917	800.000	0.061	0.190
-378.902	-152.612	0.267	0.019
-377.888	800.000	-0.026	0.075
-376.873	31.942	0.058	0.050
-375.858	-112.175	-0.310	0.062
-374.844	-200.000	-0.048	0.302
-373.829	100.323	-0.155	-0.179
-372.815	-45.964	-0.178	-0.087
-371.800	-72.774	0.130	-0.047
-370.785	16.798	-0.151	-0.118
-369.771	-145.512	0.128	0.011
-368.756	-115.408	0.361	-0.068
-367.742	-129.846	-0.163	0.022
-366.727	-174.316	0.236	0.007
-365.712	267.830	-0.081	0.141
-364.698	7.459	-0.130	0.097
-363.683	-11.261	-0.299	0.196
-362.669	157.769	0.022	0.030
-361.654	-200.000	0.016	0.533
-360.639	-172.037	-0.409	0.013
-359.625	111.876	-0.026	-0.032
-358.610	-70.495	-0.072	0.027
-357.596	7.584	-0.057	-0.042
-356.581	266.403	-0.100	0.173
-355.566	67.000	-0.119	-0.120
-354.552	94.756	-0.234	-0.264
-353.537	800.000	-0.047	0.178
-352.523	-38.221	0.057	0.030
-351.508	-120.110	-0.109	0.019
-350.493	320.377	-0.076	-0.144
-349.479	-200.000	-0.026	-0.348
-348.464	754.384	0.161	-0.432
-347.450	-7.028	-0.053	-0.035
-346.435	752.526	-0.046	-0.124
-345.420	-112.244	-0.483	0.096
-344.406	-200.000	0.008	0.192
-343.391	1.793	-0.185	0.132
-342.377	-200.000	-0.004	0.120
-341.362	-200.000	0.022	-0.290
-340.348	-180.831	0.233	0.005
-339.333	33.996	0.172	0.148
-338.318	81.361	-0.264	0.283
-337.304	25.022	-0.161	0.133
-336.289	11.521	-0.310	0.236
-335.275	-200.000	-0.058	0.294
-334.260	144.001	-0.152	0.201
-333.245	91.503	0.087	0.097
-332.231	-44.174	0.314	0.156
-331.216	-29.699	-0.188	0.106
-330.202	388.970	0.147	0.302
-329.187	257.226	0.065	-0.111
-328.172	-181.764	-0.550	0.010
-327.158	261.519	-0.046	0.079
-326.143	-158.358	0.238	0.014
-325.129	-115.768	0.380	-0.071
-324.114	-133.435	0.132	-0.017
-323.099	-87.038	-0.233	0.070
-322.085	538.141	-0.047	-0.111
-321.070	-200.000	0.002	0.076
-320.056	-35.279	0.173	-0.093
-319.041	14.537	0.105	0.081
-318.026	236.020	0.027	0.044
-317.012	-107.790	-0.216	0.047
-315.997	51.377	0.104	-0.098
-314.983	25.529	0.208	-0.171
-313.968	800.000	0.047	-0.192
-312.953	800.000	0.081	-0.271
-311.939	-99.955	0.082	0.020
-310.924	-59.440	0.177	0.076
-309.910	-92.441	-0.070	-0.019
-308.895	-200.000	-0.057	-0.267
-307.880	-200.000	-0.004	0.189
-306.866	-107.473	-0.020	-0.004
-305.851	69.470	0.126	0.129
-304.837	-151.165	-0.026	0.002
-303.822	34.480	0.121	0.105
-302.807	800.000	0.080	-0.323
-301.793	112.478	0.056	0.067
-300.778	633.798	-0.089	-0.223
-299.764	-200.000	0.067	-0.323
-298.749	-45.674	0.160	-0.079
-297.735	126.885	0.117	0.147
-296.720	71.435	0.232	-0.239
-295.705	-121.334	0.232	-0.038
-294.691	-131.052	-0.363	-0.048
-293.676	192.158	0.067	0.101
-292.662	-77.561	-0.246	0.085
-291.647	-200.000	-0.010	-0.231
-290.632	101.324	0.336	-0.388
-289.618	-91.054	0.135	0.038
-288.603	-200.000	0.012	-0.110
-287.589	-200.000	-0.001	0.092
-286.574	-165.340	-0.144	0.006
-285.559	-200.000	-0.020	0.164
-284.545	-200.000	-0.021	0.112
-283.530	-200.000	-0.009	-0.153
-282.516	357.052	0.114	0.226
-281.501	-113.407	0.247	0.048
-280.486	49.588	0.092	0.085
-279.472	-26.239	-0.344	-0.200
-278.457	-200.000	-0.009	0.211
-277.443	26.448	0.291	0.241
-276.428	-154.694	0.169	0.011
-275.413	80.969	0.129	0.138
-274.399	-200.000	-0.009	0.179
-273.384	73.110	-0.181	0.187
-272.370	-45.262	-0.186	0.091
-271.355	800.000	-0.134	-0.439
-270.340	52.673	0.379	-0.358
-269.326	-17.204	0.314	-0.196
-268.311	-200.000	0.000	0.113
-267.297	100.553	0.205	-0.236
-266.282	13.675	0.124	0.096
-265.267	3.251	0.124	0.090
-264.253	-200.000	0.011	-0.126
-263.238	368.951	-0.112	0.224
-262.224	134.011	-0.111	0.142
-261.209	-99.151	0.258	0.065
-260.195	-1.384	-0.171	0.120
-259.180	133.773	0.306	0.391
-258.165	-200.000	-0.005	-0.122
-257.151	-188.324	-0.412	0.005
-256.136	-200.000	-0.054	0.361
-255.122	-64.585	-0.091	-0.036
-254.107	50.080	-0.149	-0.139
-253.092	-33.319	-0.255	0.139
-252.078	156.363	0.011	-0.016
-251.063	234.689	0.238	0.389
-250.049	117.399	0.313	0.381
-249.034	-103.404	-0.127	0.030
-248.019	-56.031	0.203	-0.090
-247.005	800.000	-0.045	-0.131
-245.990	453.223	-0.177	-0.388
-244.976	179.502	0.284	-0.412
-243.961	-2.837	-0.049	0.034
-242.946	349.500	0.109	0.213
-241.932	-88.720	0.184	0.054
-240.917	104.968	-0.148	-0.173
-239.903	-115.713	-0.140	0.026
-238.888	-90.935	-0.159	0.045
-237.873	76.778	-0.303	-0.318
-236.859	345.419	-0.047	0.091
-235.844	-200.000	-0.010	0.261
-234.830	-200.000	-0.004	-0.212
-233.815	25.333	0.173	0.142
-232.800	800.000	0.024	-0.074
-231.786	-104.528	0.196	-0.045
-230.771	-10.801	-0.134	0.087
-229.757	109.409	0.061	-0.073
-228.742	271.129	-0.030	0.053
-227.727	-200.000	0.019	0.280
-226.713	743.764	0.057	0.152
-225.698	-98.553	0.283	0.071
-224.684	-200.000	0.055	-0.284
-223.669	45.277	0.089	-0.081
-222.655	-35.923	0.027	-0.014
-221.640	214.845	0.046	0.072
-220.625	-5.338	0.150	-0.102
-219.611	194.992	-0.104	-0.156
-218.596	-200.000	-0.011	0.140
-217.582	-200.000	0.052	0.229
-216.567	-40.152	0.222	-0.114
-215.552	-96.169	-0.259	0.068
-214.538	-157.039	0.222	-0.013
-213.523	800.000	0.034	0.142
-212.509	-7.112	0.190	-0.127
-211.494	49.790	-0.054	0.050
-210.479	-179.607	0.051	-0.001
-209.465	220.589	-0.160	0.254
-208.450	-140.544	0.130	0.013
-207.436	800.000	0.112	0.312
-206.421	43.417	0.244	0.220
-205.406	143.379	-0.154	-0.203
-204.392	-40.940	-0.156	0.080
-203.377	182.315	-0.109	0.158
-202.363	210.682	-0.108	0.167
-201.348	248.564	-0.080	0.133
-200.333	649.120	0.064	-0.161
-199.319	-200.000	-0.022	0.177
-198.304	82.095	0.106	-0.114
-197.290	-200.000	-0.026	0.238
-196.275	-200.000	-0.047	0.290
-195.260	-121.858	0.189	0.031
-194.246	-200.000	-0.005	0.401
-193.231	26.930	0.099	-0.082
-192.217	220.031	-0.187	0.295
-191.202	-166.230	0.227	-0.009
-190.187	20.276	-0.141	-0.113
-189.173	-200.000	0.033	-0.147
-188.158	800.000	0.195	-0.677
-187.144	800.000	0.081	0.275
-186.129	8.473	0.076	0.056
-185.114	-74.978	-0.106	-0.037
-184.100	218.725	0.107	-0.169
-183.085	-200.000	-0.002	0.030
-182.071	-200.000	-0.001	0.197
-181.056	13.267	0.182	-0.139
-180.042	-93.458	0.123	0.033
-179.027	-151.964	-0.202	0.015
-178.012	-38.026	-0.180	-0.094
-176.998	70.591	0.032	0.033
-175.983	-143.785	0.225	-0.021
-174.969	481.245	0.108	-0.241
-173.954	-200.000	0.013	-0.144
-172.939	55.816	-0.110	-0.105
-171.925	-81.400	-0.093	-0.030
-170.910	73.463	0.142	-0.147
-169.896	-173.050	-0.164	0.005
-168.881	-42.813	0.168	0.084
-167.866	-36.068	-0.338	0.180
-166.852	165.285	0.189	0.263
-165.837	800.000	-0.071	0.237
-164.823	38.645	-0.118	0.104
-163.808	-144.235	0.304	-0.028
-162.793	-75.288	-0.086	-0.030
-161.779	56.739	-0.035	-0.034
-160.764	-44.612	0.091	-0.045
-159.750	42.527	0.248	-0.223
-158.735	69.785	0.095	0.097
-157.720	800.000	0.064	-0.267
-156.706	733.198	-0.069	0.181
-155.691	65.360	0.187	-0.186
-154.677	31.023	0.207	-0.175
-153.662	311.195	-0.156	0.289
-152.647	-166.117	-0.081	-0.003
-151.633	450.550	0.070	-0.153
-150.618	-97.726	0.429	-0.110
-149.604	-154.697	0.090	0.006
-148.589	313.095	-0.110	-0.203
-147.574	-200.000	0.032	0.231
-146.560	25.967	0.253	-0.208
-145.545	-200.000	0.095	0.418
-144.531	-88.993	-0.137	0.040
-143.516	168.798	-0.145	0.203
-142.502	774.209	0.067	0.180
-141.487	-78.756	0.017	0.006
-140.472	-107.537	0.461	0.100
-139.458	-4.550	-0.221	-0.150
-138.443	-99.890	-0.353	0.087
-137.429	110.812	-0.096	-0.113
-136.414	-51.100	0.117	-0.054
-135.399	10.990	0.204	-0.153
-134.385	-129.818	-0.388	-0.052
-133.370	-117.627	0.209	-0.037
-132.356	644.133	-0.120	0.300
-131.341	-65.587	-0.219	0.087
-130.326	17.633	0.088	0.069
-129.312	-200.000	0.046	-0.260
-128.297	231.720	0.098	0.158
-127.283	78.257	-0.057	0.060
-126.268	311.253	-0.116	0.215
-125.253	551.975	-0.047	-0.112
-124.239	-35.546	0.122	0.065
-123.224	186.985	0.127	-0.186
-122.210	-129.018	0.422	0.058
-121.195	598.212	0.037	-0.090
