DTS Sentinel unit serial number:	SN413079Multiplexer serial number:	ORYXHardware model number:	OX4-SRSoftware version number:	ORYX F/W v4.00 Oryx Data Collector v3.7.2.0data status	okinstallation	princeton_trtdifferential loss correction	single-endedforward channel	channel 3reverse channel	N/Adate	2019/09/13time	07:52:34forward acquisition time	60.00reverse acquisition time	0.00gamma	496.2192k internal	0.2336k external	0.2336temperature offset calibration	1.0141default loss term (dB/km)	0.3790temperature slope calibration	1.0000multiplexer offset coefficient	1.0000multiplexer slope coefficient	1.0000fibre end	0.00T internal ref (°C)	26.67T ext. ref 1 (°C)	4.23T ext. ref 2 (°C)	23.20length (m)	temperature (°C)	Stokes	anti-Stokes-747.200	-115.823	0.064	0.012
-746.185	26.733	0.162	0.137
-745.171	800.000	0.030	0.101
-744.156	-34.076	-0.331	0.183
-743.142	86.823	-0.120	-0.133
-742.127	15.122	-0.173	-0.136
-741.112	-50.386	-0.092	-0.044
-740.098	209.859	-0.102	0.161
-739.083	26.526	0.416	-0.349
-738.069	-9.283	0.057	-0.038
-737.054	-98.078	-0.304	-0.079
-736.039	-92.771	-0.149	-0.042
-735.025	-119.611	0.074	0.013
-734.010	-70.959	0.245	-0.092
-732.996	-2.093	-0.175	-0.123
-731.981	-69.526	-0.376	-0.145
-730.966	267.435	0.137	0.241
-729.952	-85.992	-0.416	-0.129
-728.937	-76.327	-0.112	-0.040
-727.923	-200.000	0.004	-0.142
-726.908	-55.873	-0.233	-0.104
-725.894	-42.462	0.345	0.177
-724.879	185.602	0.171	-0.255
-723.864	-200.000	0.058	-0.463
-722.850	35.004	0.177	0.156
-721.835	800.000	0.038	-0.133
-720.821	-200.000	-0.040	-0.317
-719.806	122.866	0.214	-0.268
-718.791	-59.525	-0.206	-0.089
-717.777	30.564	0.220	0.189
-716.762	330.300	0.072	0.140
-715.748	-45.393	0.140	-0.070
-714.733	-33.280	-0.183	-0.102
-713.718	800.000	-0.052	0.158
-712.704	-7.157	0.373	-0.254
-711.689	-45.942	-0.248	0.123
-710.675	236.433	0.050	-0.084
-709.660	-200.000	-0.002	0.063
-708.645	-175.165	-0.303	-0.008
-707.631	-69.395	0.392	0.151
-706.616	313.472	-0.215	-0.405
-705.602	-40.434	0.238	-0.124
-704.587	472.047	-0.072	0.162
-703.572	221.208	0.141	-0.226
-702.558	-83.485	-0.359	-0.115
-701.543	-23.538	0.183	0.110
-700.529	-200.000	-0.046	-0.441
-699.514	276.084	-0.120	-0.213
-698.499	482.854	-0.064	-0.145
-697.485	-40.712	0.096	-0.050
-696.470	341.439	0.144	-0.282
-695.456	73.019	-0.251	0.263
-694.441	63.090	-0.168	0.169
-693.426	-119.935	-0.302	0.052
-692.412	-118.599	-0.285	-0.050
-691.397	240.187	0.115	-0.191
-690.383	-48.266	-0.166	0.080
-689.368	179.480	0.108	-0.159
-688.354	-93.837	-0.108	0.030
-687.339	800.000	0.067	-0.238
-686.324	11.853	0.134	-0.103
-685.310	-29.275	-0.324	0.186
-684.295	414.599	-0.053	0.113
-683.281	57.174	-0.040	-0.039
-682.266	-200.000	-0.046	-0.282
-681.251	296.288	-0.164	0.300
-680.237	-56.132	-0.169	-0.075
-679.222	-200.000	0.022	-0.135
-678.208	74.567	-0.320	-0.337
-677.193	-134.694	-0.271	-0.033
-676.178	-200.000	0.010	0.104
-675.164	92.125	-0.136	0.153
-674.149	-85.685	-0.089	-0.028
-673.135	113.859	0.019	0.023
-672.120	-94.737	-0.346	0.094
-671.105	-200.000	-0.025	0.214
-670.091	-18.367	-0.227	0.142
-669.076	-200.000	0.107	-0.473
-668.062	-200.000	-0.074	0.000
-667.047	-52.855	0.246	-0.114
-666.032	-168.317	-0.230	-0.009
-665.018	-48.394	0.120	-0.058
-664.003	529.737	0.109	0.257
-662.989	8.399	0.099	0.074
-661.974	159.210	0.191	-0.266
-660.959	-15.428	-0.107	-0.068
-659.945	-24.192	-0.114	0.068
-658.930	-170.836	-0.217	0.007
-657.916	48.687	0.024	0.023
-656.901	97.715	-0.151	0.174
-655.886	-96.095	-0.124	-0.033
-654.872	-200.000	0.010	0.116
-653.857	-38.234	0.303	-0.161
-652.843	14.244	-0.169	0.132
-651.828	312.672	0.117	0.221
-650.814	-163.221	-0.063	0.003
-649.799	179.737	-0.053	-0.078
-648.784	-15.558	0.041	-0.026
-647.770	165.840	0.231	-0.328
-646.755	72.423	-0.019	0.020
-645.741	800.000	0.093	-0.349
-644.726	273.405	0.065	-0.115
-643.711	129.546	-0.150	-0.192
-642.697	800.000	0.084	-0.254
-641.682	800.000	0.016	-0.059
-640.668	-146.253	-0.541	0.047
-639.653	-200.000	-0.016	0.139
-638.638	800.000	-0.068	0.205
-637.624	21.214	-0.138	0.112
-636.609	800.000	-0.075	0.223
-635.595	-200.000	0.002	-0.108
-634.580	-200.000	0.006	-0.087
-633.565	520.117	0.080	-0.188
-632.551	-57.269	-0.235	0.103
-631.536	800.000	-0.051	0.158
-630.522	545.016	0.056	-0.134
-629.507	800.000	-0.074	-0.229
-628.492	800.000	0.107	0.319
-627.478	5.791	-0.049	-0.036
-626.463	-144.219	-0.141	-0.013
-625.449	-135.393	-0.227	-0.027
-624.434	-200.000	-0.039	-0.242
-623.419	240.567	-0.020	0.033
-622.405	-155.576	0.035	0.002
-621.390	537.630	0.029	-0.069
-620.376	124.974	0.069	0.087
-619.361	-170.402	-0.323	0.011
-618.346	-31.144	-0.149	-0.084
-617.332	-27.071	-0.095	0.056
-616.317	680.272	0.032	0.083
-615.303	-200.000	-0.016	0.114
-614.288	-186.947	-0.099	0.001
-613.273	-79.404	-0.071	-0.024
-612.259	23.896	0.231	0.190
-611.244	-28.101	-0.135	-0.078
-610.230	-47.467	-0.245	-0.119
-609.215	-200.000	-0.057	0.474
-608.201	-200.000	0.009	-0.123
-607.186	-44.149	-0.109	-0.054
-606.171	-170.060	-0.197	0.007
-605.157	3.085	-0.251	0.183
-604.142	-6.510	-0.094	-0.064
-603.128	-58.625	0.051	-0.022
-602.113	35.365	0.279	-0.245
-601.098	374.214	0.072	-0.147
-600.084	-57.080	-0.097	0.043
-599.069	800.000	0.085	0.339
-598.055	-200.000	0.012	0.207
-597.040	-200.000	0.047	-0.267
-596.025	103.625	-0.114	-0.134
-595.011	-40.684	-0.122	0.063
-593.996	474.476	0.119	0.268
-592.982	76.213	0.369	0.390
-591.967	-200.000	-0.009	0.293
-590.952	-42.610	0.092	-0.047
-589.938	-70.980	-0.132	-0.050
-588.923	-50.184	-0.178	-0.084
-587.909	200.460	-0.094	0.144
-586.894	331.929	-0.024	0.047
-585.879	-100.766	-0.347	-0.085
-584.865	-49.132	0.100	-0.048
-583.850	-1.380	-0.117	-0.083
-582.836	109.807	-0.029	0.035
-581.821	397.294	0.178	-0.372
-580.806	-124.927	-0.220	-0.034
-579.792	-62.516	-0.112	-0.047
-578.777	-147.081	0.166	-0.014
-577.763	269.781	-0.174	0.305
-576.748	800.000	-0.034	0.139
-575.733	-54.384	0.158	0.072
-574.719	-156.247	-0.275	0.017
-573.704	416.825	0.067	-0.142
-572.690	42.191	0.105	-0.095
-571.675	208.358	0.071	-0.111
-570.661	-77.995	-0.175	0.060
-569.646	227.023	0.160	-0.260
-568.631	57.904	0.147	-0.143
-567.617	800.000	-0.052	-0.164
-566.602	-166.302	0.212	0.009
-565.588	-34.654	-0.095	0.052
-564.573	-77.680	-0.343	-0.118
-563.558	-162.249	-0.206	0.010
-562.544	227.493	-0.091	-0.148
-561.529	-200.000	0.002	0.045
-560.515	-93.661	-0.312	0.086
-559.500	-200.000	0.004	-0.198
-558.485	-200.000	0.022	-0.191
-557.471	-25.947	0.284	-0.167
-556.456	-194.670	-0.034	-0.000
-555.442	37.878	0.068	0.060
-554.427	800.000	0.044	-0.172
-553.412	58.713	-0.229	-0.224
-552.398	-200.000	-0.010	-0.059
-551.383	-0.364	0.341	-0.241
-550.369	-58.227	-0.103	-0.045
-549.354	182.538	-0.081	0.119
-548.339	-200.000	0.012	-0.206
-547.325	-8.372	0.130	0.087
-546.310	800.000	0.038	-0.161
-545.296	-12.797	0.092	0.060
-544.281	-60.448	0.091	0.039
-543.266	-102.497	-0.446	-0.106
-542.252	-87.369	-0.043	-0.013
-541.237	-200.000	0.042	0.275
-540.223	-112.328	-0.170	0.034
-539.208	53.467	-0.245	0.234
-538.193	73.594	0.043	-0.044
-537.179	-49.375	0.032	-0.015
-536.164	-23.654	0.131	-0.078
-535.150	-143.417	-0.213	-0.020
-534.135	-88.536	-0.091	0.027
-533.121	-66.700	0.275	0.109
-532.106	-20.882	0.117	-0.071
-531.091	129.433	-0.176	-0.224
-530.077	-101.109	0.155	0.038
-529.062	800.000	-0.070	-0.273
-528.048	402.778	0.096	-0.202
-527.033	-24.011	-0.343	0.204
-526.018	-58.332	0.232	-0.101
-525.004	200.986	0.144	-0.220
-523.989	0.372	-0.057	-0.040
-522.975	-101.942	0.156	0.037
-521.960	-200.000	-0.252	0.001
-520.945	189.732	-0.208	0.310
-519.931	101.642	-0.166	0.192
-518.916	8.570	0.149	0.112
-517.902	-200.000	-0.091	-0.443
-516.887	-200.000	0.005	0.039
-515.872	-171.864	-0.296	-0.010
-514.858	45.854	-0.061	0.056
-513.843	-1.853	0.267	0.187
-512.829	-65.846	0.450	-0.179
-511.814	-200.000	-0.056	-0.247
-510.799	-38.849	0.391	-0.205
-509.785	101.945	0.137	-0.160
-508.770	800.000	0.029	-0.085
-507.756	12.292	0.052	0.039
-506.741	372.047	-0.059	-0.119
-505.726	800.000	-0.055	-0.186
-504.712	-121.041	-0.292	-0.049
-503.697	13.069	-0.210	-0.162
-502.683	92.902	0.095	0.107
-501.668	142.435	0.144	0.190
-500.653	-200.000	0.020	-0.193
-499.639	-45.199	-0.184	0.091
-498.624	-200.000	-0.004	0.371
-497.610	-200.000	0.063	0.328
-496.595	800.000	-0.116	-0.431
-495.581	-91.328	-0.148	-0.042
-494.566	-200.000	-0.017	-0.179
-493.551	-81.708	-0.134	-0.044
-492.537	15.074	0.228	-0.178
-491.522	-132.812	0.556	-0.071
-490.508	-200.000	-0.009	-0.143
-489.493	800.000	-0.039	-0.126
-488.478	88.413	0.083	-0.092
-487.464	-200.000	0.025	-0.140
-486.449	-147.399	0.348	-0.029
-485.435	-101.568	-0.335	0.081
-484.420	-51.578	-0.169	-0.079
-483.405	800.000	-0.054	0.178
-482.391	32.268	-0.359	0.308
-481.376	-138.818	0.341	0.037
-480.362	-50.958	-0.199	0.093
-479.347	800.000	0.071	0.228
-478.332	-91.915	0.448	0.126
-477.318	-140.435	-0.139	0.014
-476.303	-200.000	0.016	-0.089
-475.289	800.000	0.019	-0.062
-474.274	512.736	-0.035	-0.082
-473.259	-128.532	0.448	-0.063
-472.245	-63.214	-0.285	-0.117
-471.230	800.000	-0.040	0.135
-470.216	368.413	0.100	0.201
-469.201	348.221	0.088	0.172
-468.186	119.154	-0.096	0.118
-467.172	150.347	0.088	0.119
-466.157	800.000	-0.008	-0.029
-465.143	7.284	-0.135	-0.100
-464.128	442.600	0.179	0.391
-463.113	78.977	0.339	0.360
-462.099	38.107	-0.087	0.077
-461.084	129.275	-0.207	0.263
-460.070	-38.492	-0.338	0.178
-459.055	-200.000	-0.073	-0.470
-458.040	0.529	-0.262	0.186
-457.026	-200.000	-0.003	0.179
-456.011	-63.378	-0.203	0.083
-454.997	553.654	0.028	-0.066
-453.982	-98.599	-0.290	0.074
-452.968	-200.000	-0.022	-0.247
-451.953	73.541	-0.112	-0.116
-450.938	800.000	-0.079	-0.241
-449.924	-200.000	0.013	-0.435
-448.909	359.992	0.097	-0.193
-447.895	-200.000	-0.013	-0.162
-446.880	40.945	0.243	0.217
-445.865	-200.000	0.030	0.222
-444.851	-31.424	0.061	0.034
-443.836	756.152	0.044	-0.119
-442.822	-41.762	-0.101	0.051
-441.807	-200.000	0.004	-0.081
-440.792	88.264	-0.127	-0.140
-439.778	154.871	0.017	-0.023
-438.763	-71.782	0.249	0.092
-437.749	-68.264	-0.371	0.143
-436.734	-192.012	0.312	0.003
-435.719	-138.182	-0.202	-0.022
-434.705	-3.890	-0.268	0.185
-433.690	25.555	-0.231	-0.191
-432.676	-72.851	-0.359	-0.131
-431.661	800.000	-0.043	-0.155
-430.646	-9.464	-0.182	-0.120
-429.632	130.326	0.140	0.178
-428.617	-126.128	0.171	-0.025
-427.603	157.061	-0.237	-0.325
-426.588	302.147	0.191	-0.350
-425.573	691.066	-0.050	-0.131
-424.559	-200.000	0.007	0.109
-423.544	-189.606	0.191	-0.002
-422.530	464.714	0.070	-0.156
-421.515	-164.427	-0.155	0.007
-420.500	71.345	-0.038	0.039
-419.486	135.856	0.145	0.187
-418.471	-91.678	0.118	-0.033
-417.457	-200.000	-0.045	-0.260
-416.442	43.910	-0.205	-0.186
-415.428	800.000	0.103	-0.293
-414.413	-191.182	-0.366	0.004
-413.398	60.781	0.086	0.085
-412.384	-37.614	-0.303	0.160
-411.369	-200.000	-0.003	0.083
-410.355	-200.000	0.020	-0.128
-409.340	-121.572	-0.374	-0.062
-408.325	-175.268	-0.159	0.004
-407.311	-200.000	-0.023	-0.226
-406.296	-200.000	-0.016	-0.115
-405.282	49.026	0.055	0.052
-404.267	-39.184	0.241	-0.125
-403.252	39.741	-0.224	0.199
-402.238	800.000	-0.047	-0.140
-401.223	-128.128	0.238	-0.034
-400.209	800.000	0.071	0.203
-399.194	-89.042	0.167	0.049
-398.179	-36.682	-0.171	0.091
-397.165	-200.000	-0.007	0.344
-396.150	732.794	0.126	0.334
-395.136	-147.177	-0.256	-0.022
-394.121	-67.954	-0.074	0.029
-393.106	275.277	0.130	0.229
-392.092	115.137	-0.203	-0.245
-391.077	-91.788	-0.322	-0.091
-390.063	15.971	0.193	-0.151
-389.048	800.000	-0.143	-0.416
-388.033	282.320	-0.092	0.164
-387.019	5.032	0.169	-0.123
-386.004	800.000	-0.069	-0.209
-384.990	87.601	0.158	0.174
-383.975	58.831	0.178	0.173
-382.960	159.594	-0.061	0.084
-381.946	-135.562	-0.072	0.008
-380.931	-175.937	0.218	-0.006
-379.917	7.356	0.099	-0.074
-378.902	593.571	0.087	-0.214
-377.888	500.536	0.059	-0.135
-376.873	-200.000	0.004	-0.237
-375.858	-32.798	-0.105	-0.058
-374.844	-10.118	0.046	0.030
-373.829	60.157	0.031	-0.031
-372.815	622.390	0.041	-0.101
-371.800	87.238	-0.049	0.054
-370.785	17.902	0.177	0.139
-369.771	470.938	-0.111	0.248
-368.756	800.000	-0.029	0.104
-367.742	235.973	-0.032	-0.053
-366.727	170.741	0.203	0.287
-365.712	-48.151	-0.302	0.144
-364.698	-42.171	0.169	0.085
-363.683	87.467	-0.106	-0.116
-362.669	-138.416	0.236	0.026
-361.654	-45.919	-0.058	0.029
-360.639	-97.992	0.410	0.105
-359.625	-200.000	0.063	-0.317
-358.610	493.895	-0.126	-0.287
-357.596	39.140	-0.228	0.202
-356.581	29.213	0.033	-0.028
-355.566	-200.000	0.011	0.260
-354.552	-135.523	-0.355	0.042
-353.537	-200.000	-0.002	-0.024
-352.523	-200.000	0.004	0.288
-351.508	-106.612	0.120	0.026
-350.493	-200.000	-0.099	-0.437
-349.479	126.094	0.174	0.217
-348.464	-200.000	-0.034	0.156
-347.450	36.664	-0.100	0.087
-346.435	-10.550	-0.074	0.049
-345.420	-55.145	0.217	-0.097
-344.406	19.991	0.275	0.219
-343.391	254.013	-0.125	0.212
-342.377	148.941	0.104	-0.139
-341.362	198.947	-0.128	0.193
-340.348	-200.000	-0.001	0.662
-339.333	62.752	0.093	0.092
-338.318	1.152	0.100	-0.071
-337.304	-199.094	-0.256	0.001
-336.289	-200.000	0.024	-0.292
-335.275	-200.000	0.004	0.152
-334.260	-82.540	-0.103	-0.033
-333.245	64.993	-0.119	0.119
-332.231	20.887	0.166	-0.133
-331.216	-144.700	-0.058	-0.005
-330.202	150.209	0.249	-0.334
-329.187	-148.748	-0.051	-0.004
-328.172	121.908	0.134	-0.165
-327.158	10.594	0.243	0.183
-326.143	800.000	-0.062	-0.210
-325.129	-200.000	-0.067	-0.290
-324.114	2.515	0.089	0.063
-323.099	-115.852	-0.156	-0.029
-322.085	-200.000	-0.025	-0.108
-321.070	68.403	-0.150	0.152
-320.056	175.029	-0.202	-0.289
-319.041	257.193	0.095	-0.161
-318.026	-200.000	-0.056	0.656
-317.012	95.652	0.229	0.258
-315.997	-111.148	-0.284	-0.058
-314.983	-161.820	0.159	-0.008
-313.968	800.000	-0.062	0.267
-312.953	-108.512	0.334	-0.071
-311.939	-11.479	0.153	-0.099
-310.924	-200.000	0.024	0.169
-309.910	-200.000	0.014	0.221
-308.895	-82.652	0.429	0.137
-307.880	-44.583	0.143	-0.071
-306.866	44.801	-0.223	0.202
-305.851	-88.575	0.070	-0.021
-304.837	-119.935	-0.155	0.026
-303.822	-155.809	-0.181	-0.011
-302.807	-155.763	0.073	0.005
-301.793	443.779	0.021	0.045
-300.778	-73.096	0.269	-0.097
-299.764	-109.760	-0.336	-0.070
-298.749	352.105	-0.042	-0.082
-297.735	-95.632	0.122	-0.032
-296.720	111.227	0.150	0.178
-295.705	50.202	0.241	-0.224
-294.691	92.103	0.324	-0.360
-293.676	-68.382	0.058	-0.022
-292.662	2.687	0.097	-0.070
-291.647	-151.470	0.343	0.025
-290.632	-76.141	0.269	-0.094
-289.618	-173.713	0.165	-0.005
-288.603	545.120	-0.037	0.087
-287.589	-110.544	0.228	-0.047
-286.574	-17.588	-0.174	-0.108
-285.559	28.564	-0.112	-0.094
-284.545	-38.652	0.258	-0.134
-283.530	-35.078	0.285	-0.153
-282.516	617.660	0.027	-0.068
-281.501	-52.481	0.177	0.081
-280.486	-200.000	0.029	0.190
-279.472	-200.000	-0.037	-0.277
-278.457	131.099	0.109	0.138
-277.443	187.417	-0.064	-0.094
-276.428	-21.053	0.161	-0.097
-275.413	9.878	0.102	-0.076
-274.399	186.724	-0.119	-0.175
-273.384	385.401	-0.184	0.374
-272.370	800.000	-0.015	0.046
-271.355	-200.000	0.048	0.268
-270.340	54.199	-0.364	-0.345
-269.326	-124.571	-0.219	0.034
-268.311	800.000	0.089	0.260
-267.297	-38.263	0.354	0.185
-266.282	454.212	-0.214	0.468
-265.267	-200.000	0.016	-0.098
-264.253	-50.212	-0.164	0.076
-263.238	58.899	-0.363	-0.352
-262.224	-200.000	0.006	-0.111
-261.209	-200.000	-0.022	-0.123
-260.195	-40.449	0.120	-0.062
-259.180	-146.108	0.278	-0.024
-258.165	79.940	0.207	-0.220
-257.151	43.368	-0.063	-0.056
-256.136	-153.337	0.074	0.005
-255.122	-200.000	-0.010	0.069
-254.107	503.913	-0.015	-0.034
-253.092	-26.939	0.294	0.169
-252.078	-161.327	-0.493	-0.025
-251.063	-60.111	-0.318	0.134
-250.049	-136.041	0.219	-0.025
-249.034	124.032	-0.323	-0.400
-248.019	313.404	-0.168	-0.311
-247.005	161.183	0.072	-0.099
-245.990	74.182	0.180	-0.187
-244.976	800.000	-0.058	-0.230
-243.961	-85.413	0.369	0.113
-242.946	800.000	-0.005	0.018
-241.932	277.052	0.118	-0.207
-240.917	319.776	0.107	-0.199
-239.903	724.642	-0.067	-0.176
-238.888	-52.049	0.253	0.116
-237.873	90.426	0.205	0.226
-236.859	800.000	-0.051	0.151
-235.844	441.515	-0.204	0.439
-234.830	-200.000	0.050	0.357
-233.815	-200.000	0.040	0.211
-232.800	-130.512	-0.317	0.042
-231.786	323.887	-0.177	-0.332
-230.771	-200.000	0.020	0.099
-229.757	-101.066	0.349	0.084
-228.742	-152.892	0.198	-0.014
-227.727	-67.174	-0.311	0.121
-226.713	409.279	0.047	0.099
-225.698	-67.383	0.115	-0.044
-224.684	375.491	0.032	-0.064
-223.669	719.522	0.105	-0.276
-222.655	87.885	0.177	0.193
-221.640	800.000	0.097	0.271
-220.625	451.675	-0.066	0.144
-219.611	-200.000	-0.011	-0.090
-218.596	-75.390	-0.241	-0.085
-217.582	200.182	-0.083	0.126
-216.567	-185.623	-0.182	0.003
-215.552	-200.000	-0.003	-0.253
-214.538	-127.902	0.147	0.021
-213.523	207.248	-0.164	-0.251
-212.509	-40.464	-0.285	0.146
-211.494	-44.836	-0.263	-0.129
-210.479	-145.251	-0.183	-0.016
-209.465	-179.704	0.284	-0.006
-208.450	-143.114	0.340	0.032
-207.436	200.791	-0.158	0.238
-206.421	24.580	-0.128	-0.104
-205.406	53.958	0.091	-0.086
-204.392	-129.360	0.127	0.017
-203.377	800.000	-0.039	0.111
-202.363	-200.000	-0.006	0.046
-201.348	-200.000	0.025	0.119
-200.333	292.620	-0.149	0.268
-199.319	89.661	0.171	0.187
-198.304	-61.430	-0.052	0.022
-197.290	800.000	0.077	-0.214
-196.275	470.975	0.132	-0.293
-195.260	-108.964	-0.255	0.053
-194.246	143.523	0.142	0.186
-193.231	225.697	0.168	0.267
-192.217	124.626	-0.196	-0.242
-191.202	-10.334	-0.153	-0.100
-190.187	-75.778	0.292	0.102
-189.173	800.000	0.115	0.351
-188.158	258.321	0.097	0.164
-187.144	773.569	-0.111	0.298
-186.129	800.000	0.061	-0.172
-185.114	145.811	0.094	-0.124
-184.100	754.805	0.092	0.244
-183.085	800.000	-0.059	-0.178
-182.071	-9.031	0.091	0.060
-181.056	134.287	0.264	0.336
-180.042	-175.706	0.114	0.003
-179.027	86.359	-0.178	-0.193
-178.012	265.922	-0.082	-0.141
-176.998	196.262	0.218	0.326
-175.983	-200.000	-0.011	0.080
-174.969	69.095	-0.188	-0.189
-173.954	166.823	0.232	0.324
-172.939	-45.450	0.578	0.281
-171.925	800.000	0.136	-0.378
-170.910	32.877	-0.242	0.206
-169.896	386.962	-0.126	0.256
-168.881	-153.277	-0.091	0.006
-167.866	-38.620	0.492	-0.255
-166.852	132.953	-0.114	0.144
-165.837	54.215	0.218	0.206
-164.823	-200.000	0.023	0.116
-163.808	-60.973	-0.077	0.032
-162.793	-107.868	0.030	-0.006
-161.779	102.288	0.078	0.089
-160.764	-150.529	0.064	0.005
-159.750	443.878	-0.086	0.185
-158.735	-96.117	0.186	-0.048
-157.720	-200.000	0.010	0.555
-156.706	-62.308	0.288	-0.118
-155.691	17.661	0.157	0.122
-154.677	-15.597	0.166	0.104
-153.662	24.001	-0.173	-0.140
-152.647	-3.466	-0.205	0.140
-151.633	729.335	0.075	0.197
-150.618	-200.000	0.051	0.354
-149.604	122.698	-0.174	0.213
-148.589	-28.711	-0.212	0.120
-147.574	-200.000	-0.016	0.213
-146.560	195.203	-0.050	0.074
-145.545	-137.695	0.129	0.014
-144.531	771.703	0.096	-0.257
-143.516	-111.351	0.421	0.084
-142.502	-12.010	0.149	0.096
-141.487	-135.022	0.156	0.018
-140.472	-0.464	0.132	0.092
-139.458	31.965	0.287	0.243
-138.443	-115.048	0.143	-0.027
-137.429	-12.888	-0.109	0.069
-136.414	-200.000	-0.029	0.245
-135.399	-200.000	0.023	0.324
-134.385	309.716	0.091	-0.167
-133.370	-117.154	-0.279	0.050
-132.356	-200.000	-0.053	-0.265
-131.341	800.000	0.122	-0.350
-130.326	-71.107	0.175	0.064
-129.312	50.987	-0.048	-0.045
-128.297	-200.000	-0.022	0.295
-127.283	-200.000	-0.024	-0.405
-126.268	-88.965	0.268	0.078
-125.253	-66.349	0.082	0.032
-124.239	-200.000	-0.011	-0.143
-123.224	-200.000	0.007	-0.174
-122.210	-100.296	0.347	0.084
-121.195	-200.000	0.035	0.311
