DTS Sentinel unit serial number:	SN413079Multiplexer serial number:	ORYXHardware model number:	OX4-SRSoftware version number:	ORYX F/W v4.00 Oryx Data Collector v3.7.2.0data status	okinstallation	princeton_trtdifferential loss correction	single-endedforward channel	channel 3reverse channel	N/Adate	2019/09/13time	13:36:35forward acquisition time	60.00reverse acquisition time	0.00gamma	496.2192k internal	0.2302k external	0.2302temperature offset calibration	1.0145default loss term (dB/km)	0.3790temperature slope calibration	1.0000multiplexer offset coefficient	1.0000multiplexer slope coefficient	1.0000fibre end	0.00T internal ref (°C)	35.06T ext. ref 1 (°C)	4.59T ext. ref 2 (°C)	31.59length (m)	temperature (°C)	Stokes	anti-Stokes-747.200	-200.000	0.017	0.503
-746.185	79.971	-0.110	0.120
-745.171	61.415	-0.078	-0.079
-744.156	-200.000	-0.007	0.079
-743.142	-200.000	0.003	0.056
-742.127	-200.000	-0.053	0.259
-741.112	-200.000	0.034	0.425
-740.098	-200.000	-0.031	0.232
-739.083	-200.000	0.011	0.090
-738.069	-108.450	-0.134	0.029
-737.054	24.634	0.338	0.285
-736.039	100.850	-0.066	-0.078
-735.025	5.066	0.298	0.223
-734.010	139.365	0.173	-0.232
-732.996	31.298	-0.165	-0.145
-731.981	-33.592	-0.027	-0.015
-730.966	261.798	-0.076	-0.133
-729.952	-200.000	-0.017	-0.170
-728.937	-92.981	-0.199	0.056
-727.923	619.503	-0.027	0.069
-726.908	-146.463	-0.157	0.014
-725.894	-18.476	-0.052	0.033
-724.879	800.000	0.035	-0.118
-723.864	61.076	-0.301	-0.304
-722.850	55.405	0.304	-0.300
-721.835	-50.709	0.204	-0.098
-720.821	-9.011	-0.327	-0.223
-719.806	-200.000	0.037	-0.256
-718.791	-38.964	-0.069	-0.037
-717.777	-200.000	-0.007	-0.228
-716.762	-93.748	-0.226	0.063
-715.748	110.893	0.111	0.137
-714.733	800.000	0.160	-0.456
-713.718	-168.352	-0.171	-0.007
-712.704	-200.000	-0.016	-0.134
-711.689	-132.798	0.020	0.003
-710.675	800.000	-0.017	0.054
-709.660	-60.325	-0.105	-0.046
-708.645	-152.774	-0.219	-0.016
-707.631	20.357	0.217	0.178
-706.616	-97.762	-0.106	-0.028
-705.602	-200.000	0.039	-0.259
-704.587	-54.966	-0.212	-0.097
-703.572	-200.000	0.016	-0.287
-702.558	800.000	0.099	-0.377
-701.543	-98.901	-0.122	-0.031
-700.529	-116.807	0.109	0.020
-699.514	800.000	-0.056	-0.202
-698.499	-200.000	-0.004	0.082
-697.485	578.023	-0.118	-0.292
-696.470	800.000	-0.008	-0.029
-695.456	-151.460	0.168	0.013
-694.441	800.000	0.052	-0.223
-693.426	-200.000	-0.007	-0.099
-692.412	-120.085	0.244	-0.043
-691.397	-57.597	-0.102	0.046
-690.383	226.270	0.136	0.224
-689.368	-200.000	-0.010	-0.591
-688.354	-200.000	-0.014	-0.276
-687.339	118.803	0.043	0.054
-686.324	-200.000	0.002	-0.166
-685.310	-138.834	-0.251	0.028
-684.295	36.931	-0.303	-0.272
-683.281	-67.965	0.201	0.080
-682.266	-200.000	-0.048	-0.296
-681.251	-200.000	0.017	-0.147
-680.237	-55.866	-0.238	0.108
-679.222	41.725	-0.184	-0.170
-678.208	-36.979	-0.107	-0.058
-677.193	-160.127	0.392	0.022
-676.178	31.246	0.123	0.107
-675.164	0.054	0.326	0.236
-674.149	145.332	0.116	-0.158
-673.135	47.930	-0.155	-0.147
-672.120	250.608	0.063	-0.109
-671.105	800.000	-0.048	-0.197
-670.091	-71.890	-0.166	0.063
-669.076	252.529	0.083	-0.144
-668.062	60.393	0.257	-0.258
-667.047	380.583	-0.141	-0.294
-666.032	-34.798	0.047	-0.026
-665.018	87.535	-0.158	-0.178
-664.003	555.340	-0.068	-0.167
-662.989	-4.172	0.285	-0.200
-661.974	-99.643	-0.109	0.028
-660.959	-140.608	-0.110	0.012
-659.945	800.000	-0.067	0.262
-658.930	-41.349	0.313	0.164
-657.916	-27.111	0.053	0.032
-656.901	112.614	-0.234	0.288
-655.886	-10.766	-0.238	-0.160
-654.872	-200.000	0.047	0.261
-653.857	-200.000	-0.039	-0.196
-652.843	800.000	-0.084	-0.297
-651.828	381.857	0.154	0.322
-650.814	-177.828	-0.181	0.004
-649.799	-123.017	-0.194	0.032
-648.784	-21.863	-0.143	-0.089
-647.770	-152.276	-0.566	-0.041
-646.755	-88.330	-0.087	-0.026
-645.741	253.600	0.061	-0.105
-644.726	9.636	-0.096	-0.074
-643.711	-26.116	0.160	0.095
-642.697	-52.460	-0.177	-0.083
-641.682	-200.000	-0.003	0.173
-640.668	-200.000	0.038	0.245
-639.653	31.057	-0.095	-0.083
-638.638	-68.936	0.358	-0.140
-637.624	-37.230	-0.189	0.103
-636.609	197.493	0.136	0.210
-635.595	-100.810	-0.090	0.023
-634.580	236.142	-0.061	-0.102
-633.565	706.821	0.030	-0.080
-632.551	-64.524	0.053	0.022
-631.536	-200.000	0.007	0.132
-630.522	-200.000	0.005	-0.121
-629.507	22.321	-0.202	-0.167
-628.492	-104.596	-0.184	0.043
-627.478	-200.000	-0.008	-0.128
-626.463	-31.235	0.220	0.126
-625.449	-200.000	0.021	-0.109
-624.434	98.812	0.118	0.138
-623.419	-3.260	-0.109	0.077
-622.405	-51.109	-0.184	0.088
-621.390	-145.757	0.159	-0.014
-620.376	-64.891	-0.068	0.028
-619.361	-200.000	0.060	-0.328
-618.346	-173.207	-0.209	0.006
-617.332	800.000	-0.008	-0.032
-616.317	-200.000	-0.028	0.127
-615.303	-120.377	0.140	0.024
-614.288	-61.562	0.251	0.107
-613.273	164.288	0.079	-0.113
-612.259	45.333	-0.149	-0.139
-611.244	-200.000	-0.000	-0.002
-610.230	-45.739	0.137	0.069
-609.215	156.000	0.294	-0.411
-608.201	6.075	0.182	0.136
-607.186	368.672	-0.099	-0.203
-606.171	517.624	0.070	-0.167
-605.157	152.043	-0.043	-0.060
-604.142	-51.341	0.317	0.150
-603.128	-154.939	-0.376	0.025
-602.113	-66.737	0.256	-0.103
-601.098	-144.648	0.597	-0.056
-600.084	-127.722	0.245	0.036
-599.069	-109.857	-0.204	0.043
-598.055	-11.083	0.077	-0.051
-597.040	-200.000	0.085	-0.447
-596.025	-101.710	0.385	-0.095
-595.011	800.000	0.023	-0.086
-593.996	-78.171	-0.226	-0.079
-592.982	800.000	-0.134	-0.423
-591.967	-93.711	0.192	-0.054
-590.952	580.765	0.097	0.240
-589.938	46.093	-0.223	0.209
-588.923	-130.273	-0.248	0.034
-587.909	108.747	-0.190	-0.230
-586.894	-200.000	-0.003	-0.138
-585.879	800.000	-0.091	0.266
-584.865	-200.000	0.060	0.277
-583.850	-122.377	-0.343	0.057
-582.836	800.000	0.084	-0.251
-581.821	800.000	0.065	-0.199
-580.806	40.606	0.087	-0.079
-579.792	138.949	-0.033	-0.043
-578.777	-200.000	-0.006	-0.055
-577.763	-88.339	-0.282	0.085
-576.748	689.426	-0.095	-0.251
-575.733	143.721	0.200	0.270
-574.719	-133.618	-0.371	-0.047
-573.704	-200.000	0.015	-0.116
-572.690	48.836	0.132	0.126
-571.675	-134.895	0.307	0.038
-570.661	174.313	0.066	0.097
-569.646	-41.200	-0.219	0.114
-568.631	-161.135	-0.148	-0.008
-567.617	-67.039	-0.133	-0.053
-566.602	-119.370	-0.176	0.031
-565.588	-70.948	-0.199	-0.076
-564.573	800.000	0.076	-0.298
-563.558	-200.000	0.021	-0.209
-562.544	423.666	-0.103	-0.223
-561.529	242.146	-0.128	0.217
-560.515	60.805	-0.118	0.119
-559.500	-132.444	0.523	0.068
-558.485	401.379	0.036	0.076
-557.471	265.106	-0.124	-0.219
-556.456	138.340	-0.198	0.263
-555.442	589.180	-0.075	0.188
-554.427	20.796	-0.037	0.031
-553.412	-128.622	0.135	-0.019
-552.398	-83.917	0.168	-0.054
-551.383	800.000	0.110	0.403
-550.369	-200.000	0.071	0.315
-549.354	-48.115	0.084	-0.041
-548.339	-10.769	0.093	0.062
-547.325	-110.899	-0.165	-0.034
-546.310	170.865	-0.179	0.259
-545.296	61.120	0.043	0.043
-544.281	434.007	0.035	0.078
-543.266	-3.827	-0.115	-0.081
-542.252	49.223	-0.370	-0.352
-541.237	-157.993	0.062	0.004
-540.223	556.963	0.044	-0.106
-539.208	800.000	-0.017	0.048
-538.193	77.936	-0.155	-0.167
-537.179	800.000	0.093	-0.290
-536.164	105.382	0.036	-0.043
-535.150	85.053	0.163	0.181
-534.135	-62.522	0.258	-0.108
-533.121	147.997	-0.362	-0.494
-532.106	-200.000	-0.018	-0.145
-531.091	800.000	-0.079	-0.254
-530.077	31.082	0.135	-0.117
-529.062	-200.000	-0.258	-0.001
-528.048	97.957	-0.148	0.172
-527.033	-200.000	-0.019	-0.120
-526.018	-117.994	0.147	-0.027
-525.004	-111.052	-0.148	0.031
-523.989	800.000	-0.068	-0.230
-522.975	117.154	0.188	0.233
-521.960	50.110	0.175	0.167
-520.945	-28.780	-0.116	0.067
-519.931	-200.000	0.001	0.149
-518.916	800.000	0.023	-0.101
-517.902	-4.167	-0.284	0.199
-516.887	-200.000	-0.086	0.523
-515.872	800.000	-0.020	0.084
-514.858	21.601	-0.148	-0.122
-513.843	-119.725	0.439	-0.076
-512.829	221.566	-0.097	-0.157
-511.814	220.498	0.146	0.236
-510.799	625.646	-0.028	0.070
-509.785	465.950	-0.024	0.055
-508.770	75.169	0.119	-0.127
-507.756	800.000	0.085	0.285
-506.741	800.000	0.020	0.059
-505.726	-174.745	-0.282	0.008
-504.712	216.614	-0.026	-0.042
-503.697	440.217	-0.068	-0.151
-502.683	271.628	-0.122	0.217
-501.668	702.851	0.078	0.207
-500.653	116.270	0.081	-0.100
-499.639	-200.000	-0.020	0.216
-498.624	235.198	-0.052	0.086
-497.610	46.456	0.190	0.178
-496.595	-94.769	-0.150	0.041
-495.581	800.000	0.132	0.547
-494.566	800.000	-0.044	-0.173
-493.551	684.878	-0.062	0.164
-492.537	-26.859	0.269	0.159
-491.522	92.837	0.196	-0.224
-490.508	800.000	-0.011	-0.032
-489.493	800.000	-0.124	0.436
-488.478	140.071	-0.271	0.360
-487.464	-197.160	0.030	0.000
-486.449	-68.569	0.165	-0.065
-485.435	25.591	0.236	0.198
-484.420	-147.333	0.100	0.009
-483.405	285.565	-0.108	-0.197
-482.391	48.892	-0.331	-0.313
-481.376	-149.671	-0.154	0.012
-480.362	79.474	0.032	-0.035
-479.347	-14.147	-0.142	-0.092
-478.332	800.000	0.040	0.136
-477.318	701.867	-0.167	-0.444
-476.303	218.544	-0.163	-0.262
-475.289	800.000	0.081	-0.231
-474.274	-68.318	0.152	-0.060
-473.259	-200.000	-0.051	-0.316
-472.245	800.000	-0.084	0.324
-471.230	6.963	0.066	-0.050
-470.216	-200.000	0.004	0.200
-469.201	-110.505	0.113	0.024
-468.186	800.000	-0.093	-0.385
-467.172	518.801	0.036	0.084
-466.157	-184.740	0.131	-0.002
-465.143	-200.000	0.042	0.222
-464.128	109.123	-0.074	0.089
-463.113	-60.103	-0.410	0.176
-462.099	-35.798	0.024	0.013
-461.084	-200.000	-0.000	0.166
-460.070	-2.833	-0.321	-0.226
-459.055	-101.067	0.219	0.054
-458.040	-50.144	0.184	-0.088
-457.026	-37.095	-0.054	-0.029
-456.011	-200.000	-0.290	0.001
-454.997	-44.750	0.174	0.087
-453.982	800.000	0.015	0.052
-452.968	148.933	0.125	0.170
-451.953	-75.903	0.229	-0.082
-450.938	-5.721	0.147	-0.101
-449.924	362.969	0.020	-0.039
-448.909	286.637	-0.046	0.084
-447.895	-124.794	0.175	0.027
-446.880	-2.084	-0.090	0.064
-445.865	-153.834	-0.209	-0.014
-444.851	-75.273	-0.083	0.030
-443.836	-200.000	-0.014	-0.448
-442.822	-18.812	0.117	0.073
-441.807	800.000	0.047	-0.205
-440.792	800.000	0.055	-0.216
-439.778	143.782	0.010	0.014
-438.763	204.538	-0.224	0.350
-437.749	222.363	0.083	-0.134
-436.734	-109.419	0.460	0.098
-435.719	-200.000	-0.005	-0.201
-434.705	800.000	0.085	-0.276
-433.690	181.452	-0.118	-0.174
-432.676	366.608	0.031	-0.062
-431.661	705.124	-0.060	-0.160
-430.646	-6.223	0.189	-0.130
-429.632	-40.340	-0.372	-0.195
-428.617	-50.646	-0.227	0.108
-427.603	-133.626	0.184	-0.023
-426.588	-167.246	0.223	0.009
-425.573	800.000	-0.015	0.058
-424.559	287.832	0.098	-0.179
-423.544	-105.877	0.057	0.013
-422.530	800.000	0.068	-0.200
-421.515	-26.538	-0.299	0.176
-420.500	786.714	0.053	-0.147
-419.486	-77.309	-0.247	-0.086
-418.471	362.393	0.057	-0.115
-417.457	303.343	0.155	-0.288
-416.442	-75.040	0.292	-0.105
-415.428	562.134	-0.086	-0.209
-414.413	643.670	0.060	-0.153
-413.398	1.721	0.218	-0.158
-412.384	255.688	0.037	-0.064
-411.369	-170.402	-0.174	-0.006
-410.355	-55.794	-0.261	0.117
-409.340	286.964	-0.184	-0.333
-408.325	-34.914	-0.288	0.158
-407.311	800.000	-0.062	0.212
-406.296	54.260	-0.134	-0.130
-405.282	-109.217	-0.132	0.028
-404.267	534.200	0.088	0.209
-403.252	-79.761	0.167	0.057
-402.238	800.000	-0.043	0.163
-401.223	575.598	-0.159	0.390
-400.209	-126.430	0.448	-0.067
-399.194	-16.408	-0.255	-0.163
-398.179	-153.600	-0.356	-0.025
-397.165	-172.746	-0.282	0.009
-396.150	-61.619	0.466	-0.197
-395.136	-158.988	0.294	-0.017
-394.121	-125.273	-0.216	0.033
-393.106	-85.784	0.445	0.139
-392.092	-98.151	-0.032	0.008
-391.077	-200.000	0.060	0.000
-390.063	800.000	-0.050	-0.162
-389.048	63.928	0.198	-0.200
-388.033	-21.995	-0.221	-0.135
-387.019	412.043	0.177	0.377
-386.004	47.569	0.107	-0.100
-384.990	218.111	0.136	0.218
-383.975	265.647	0.153	0.268
-382.960	-45.112	0.194	-0.097
-381.946	-70.252	-0.268	0.102
-380.931	-76.062	-0.185	0.066
-379.917	-174.816	-0.260	-0.007
-378.902	-104.997	0.162	0.037
-377.888	661.152	-0.069	-0.178
-376.873	-95.131	-0.073	-0.020
-375.858	167.900	0.038	0.055
-374.844	133.886	0.160	-0.208
-373.829	-90.222	-0.318	-0.093
-372.815	-200.000	0.004	0.044
-371.800	620.218	0.127	-0.321
-370.785	-125.085	0.148	-0.023
-369.771	194.300	0.122	0.185
-368.756	-200.000	-0.048	0.261
-367.742	800.000	0.092	-0.260
-366.727	800.000	-0.121	-0.340
-365.712	-200.000	0.006	-0.047
-364.698	-200.000	-0.005	0.215
-363.683	-200.000	0.019	0.162
-362.669	-75.646	-0.176	0.063
-361.654	-200.000	0.019	-0.151
-360.639	-149.454	-0.158	0.013
-359.625	-200.000	0.019	-0.147
-358.610	-200.000	-0.008	0.317
-357.596	-46.621	0.144	-0.071
-356.581	-103.913	0.198	-0.046
-355.566	16.328	0.279	0.221
-354.552	-57.161	-0.239	0.106
-353.537	-22.338	0.181	0.110
-352.523	14.950	0.329	0.258
-351.508	-200.000	-0.012	-0.149
-350.493	800.000	0.046	-0.127
-349.479	28.047	0.069	0.059
-348.464	153.324	0.069	0.095
-347.450	-67.129	-0.104	0.041
-346.435	94.342	-0.106	-0.121
-345.420	-59.347	0.293	-0.127
-344.406	77.966	0.307	0.329
-343.391	-79.142	0.238	0.081
-342.377	-200.000	0.017	0.300
-341.362	29.085	0.198	-0.169
-340.348	-169.721	-0.105	0.004
-339.333	-200.000	-0.025	-0.124
-338.318	-87.972	0.234	0.071
-337.304	-28.095	-0.098	0.057
-336.289	228.847	-0.194	0.317
-335.275	-200.000	0.029	-0.321
-334.260	800.000	-0.087	0.254
-333.245	800.000	-0.051	0.165
-332.231	311.071	-0.067	0.127
-331.216	-47.087	0.121	0.059
-330.202	-57.451	0.158	0.069
-329.187	-100.009	-0.037	-0.009
-328.172	-84.692	-0.399	-0.126
-327.158	14.691	0.315	-0.247
-326.143	102.844	-0.114	-0.133
-325.129	-131.200	0.079	0.011
-324.114	800.000	0.081	0.307
-323.099	-193.982	0.066	-0.001
-322.085	-34.354	0.177	-0.097
-321.070	-102.933	0.171	-0.041
-320.056	-200.000	-0.039	-0.188
-319.041	800.000	-0.060	0.209
-318.026	-97.290	0.264	0.069
-317.012	-2.266	0.177	-0.124
-315.997	-200.000	0.001	-0.117
-314.983	-59.860	-0.167	-0.071
-313.968	-136.477	0.198	-0.023
-312.953	-25.979	0.186	-0.109
-311.939	-142.431	-0.177	0.017
-310.924	-99.890	-0.230	0.058
-309.910	-200.000	0.016	-0.118
-308.895	24.352	-0.130	0.107
-307.880	800.000	-0.049	-0.158
-306.866	725.430	-0.152	-0.407
-305.851	43.924	0.095	0.087
-304.837	126.538	0.138	-0.174
-303.822	134.877	0.093	-0.121
-302.807	800.000	0.113	0.322
-301.793	800.000	-0.091	0.258
-300.778	210.691	-0.174	0.274
-299.764	6.353	0.228	-0.169
-298.749	199.481	0.077	0.119
-297.735	253.671	-0.190	-0.326
-296.720	19.254	-0.195	0.157
-295.705	128.572	-0.170	0.216
-294.691	19.392	0.187	-0.150
-293.676	6.288	0.249	-0.185
-292.662	-22.120	-0.153	-0.093
-291.647	-200.000	-0.001	0.288
-290.632	-121.282	-0.296	-0.049
-289.618	-37.854	-0.308	0.164
-288.603	-200.000	0.023	-0.359
-287.589	-200.000	-0.063	-0.355
-286.574	-200.000	-0.030	0.221
-285.559	-200.000	-0.064	-0.311
-284.545	68.339	-0.125	0.129
-283.530	-200.000	-0.002	0.055
-282.516	800.000	0.066	0.193
-281.501	310.133	0.141	-0.264
-280.486	156.924	-0.150	0.208
-279.472	-9.893	-0.204	-0.136
-278.457	800.000	-0.048	-0.165
-277.443	-21.703	-0.074	-0.045
-276.428	-200.000	0.024	-0.134
-275.413	-9.862	0.103	0.069
-274.399	48.527	0.052	0.049
-273.384	-117.548	0.051	-0.009
-272.370	166.210	-0.164	0.232
-271.355	275.282	-0.121	0.215
-270.340	-7.890	0.521	-0.352
-269.326	-4.048	0.065	0.045
-268.311	-178.386	0.250	0.006
-267.297	-200.000	0.025	-0.223
-266.282	-42.291	-0.220	0.112
-265.267	28.916	-0.302	-0.256
-264.253	800.000	0.041	-0.128
-263.238	77.257	-0.091	-0.097
-262.224	-188.244	0.265	-0.003
-261.209	65.191	0.217	-0.219
-260.195	-200.000	-0.012	-0.140
-259.180	14.632	0.110	-0.086
-258.165	269.034	-0.197	0.345
-257.151	-115.674	0.651	-0.122
-256.136	61.190	0.115	-0.114
-255.122	-53.206	0.092	0.042
-254.107	-200.000	0.013	-0.161
-253.092	48.111	0.166	-0.155
-252.078	800.000	0.050	0.180
-251.063	5.812	0.272	0.201
-250.049	-145.105	-0.228	-0.021
-249.034	-72.644	0.275	-0.101
-248.019	-138.821	0.094	0.010
-247.005	255.269	0.107	-0.182
-245.990	172.157	0.013	-0.019
-244.976	-115.788	-0.112	-0.021
-243.961	367.230	0.068	0.137
-242.946	471.477	-0.118	0.265
-241.932	-200.000	0.026	-0.179
-240.917	113.228	-0.072	-0.087
-239.903	-75.474	0.099	0.035
-238.888	800.000	0.042	0.137
-237.873	323.160	-0.052	0.099
-236.859	281.896	0.120	0.214
-235.844	148.531	-0.130	0.175
-234.830	-200.000	0.004	-0.201
-233.815	-28.892	-0.162	0.093
-232.800	-27.573	-0.158	-0.092
-231.786	-200.000	-0.038	-0.326
-230.771	-154.236	0.167	0.011
-229.757	28.750	-0.366	0.309
-228.742	168.976	-0.111	0.158
-227.727	-161.974	0.055	-0.003
-226.713	-115.851	-0.275	-0.051
-225.698	800.000	-0.069	0.272
-224.684	136.059	-0.261	0.340
-223.669	387.401	0.081	0.167
-222.655	-48.726	-0.312	0.150
-221.640	-200.000	-0.029	-0.139
-220.625	-18.959	-0.110	-0.069
-219.611	-200.000	0.008	-0.040
-218.596	-118.119	-0.270	0.048
-217.582	-47.505	-0.294	-0.143
-216.567	-115.097	0.129	-0.025
-215.552	-200.000	-0.062	-0.318
-214.538	472.148	0.019	-0.043
-213.523	-200.000	0.048	0.242
-212.509	51.821	0.168	0.159
-211.494	155.948	-0.088	-0.121
-210.479	305.647	0.060	0.111
-209.465	239.250	0.051	-0.084
-208.450	47.273	0.262	0.243
-207.436	-95.712	-0.058	-0.015
-206.421	144.205	0.041	-0.055
-205.406	199.870	0.138	-0.211
-204.392	56.129	0.047	0.045
-203.377	-200.000	-0.033	0.148
-202.363	160.716	-0.010	-0.014
-201.348	-4.730	0.146	0.100
-200.333	-200.000	0.002	0.143
-199.319	785.930	-0.048	0.131
-198.304	-61.207	0.115	-0.048
-197.290	800.000	-0.113	0.335
-196.275	-2.893	0.166	0.116
-195.260	-191.172	-0.097	-0.001
-194.246	-78.001	-0.454	0.156
-193.231	163.550	-0.113	0.158
-192.217	-200.000	0.064	-0.329
-191.202	-200.000	0.008	0.237
-190.187	-65.180	0.326	-0.131
-189.173	31.955	0.120	-0.103
-188.158	-200.000	-0.013	0.231
-187.144	-189.043	0.220	-0.003
-186.129	351.243	0.096	0.190
-185.114	-200.000	-0.016	0.313
-184.100	-200.000	0.016	-0.324
-183.085	217.508	0.102	-0.162
-182.071	-152.367	-0.126	0.009
-181.056	-200.000	-0.039	0.187
-180.042	202.335	-0.127	0.196
-179.027	-63.323	-0.161	0.066
-178.012	-200.000	0.008	-0.047
-176.998	-110.982	0.189	0.039
-175.983	-75.098	-0.113	0.040
-174.969	-71.327	-0.196	-0.073
-173.954	57.854	-0.149	-0.146
-172.939	6.570	-0.041	0.030
-171.925	-200.000	0.054	0.411
-170.910	-83.358	-0.276	0.088
-169.896	-200.000	0.007	-0.055
-168.881	-115.506	0.084	-0.016
-167.866	-123.331	0.127	-0.020
-166.852	-200.000	-0.023	0.150
-165.837	-19.972	0.144	0.088
-164.823	-56.909	-0.132	0.058
-163.808	-200.000	-0.040	0.420
-162.793	-70.135	-0.095	-0.036
-161.779	275.220	0.118	-0.209
-160.764	334.229	-0.099	0.191
-159.750	-179.302	0.049	-0.001
-158.735	-83.169	0.235	0.075
-157.720	-172.686	-0.229	-0.007
-156.706	-18.258	0.180	0.112
-155.691	-200.000	-0.028	-0.343
-154.677	-64.838	-0.261	0.105
-153.662	800.000	0.026	-0.110
-152.647	317.048	0.044	0.083
-151.633	-61.752	-0.027	-0.011
-150.618	-44.679	-0.214	-0.106
-149.604	492.159	-0.015	-0.034
-148.589	800.000	0.043	-0.125
-147.574	-196.074	0.324	-0.002
-146.560	-200.000	0.036	-0.195
-145.545	-39.033	-0.169	-0.089
-144.531	800.000	-0.032	0.106
-143.516	527.763	0.206	-0.483
-142.502	-6.469	-0.217	0.147
-141.487	-40.505	0.222	-0.115
-140.472	32.623	-0.218	0.188
-139.458	-200.000	-0.110	0.480
-138.443	800.000	-0.008	-0.031
-137.429	604.066	-0.083	-0.205
-136.414	-28.034	-0.048	0.027
-135.399	-136.254	0.208	0.024
-134.385	-200.000	-0.005	0.126
-133.370	497.106	0.058	0.132
-132.356	-10.337	0.154	0.102
-131.341	-108.738	0.255	-0.054
-130.326	-21.947	-0.078	0.047
-129.312	-75.350	0.084	-0.030
-128.297	-200.000	0.159	0.001
-127.283	-200.000	-0.014	-0.079
-126.268	-45.699	-0.275	-0.135
-125.253	10.474	0.191	0.145
-124.239	-9.851	-0.275	0.182
-123.224	800.000	-0.055	0.204
-122.210	45.638	-0.129	0.118
