DTS Sentinel unit serial number:	SN413079Multiplexer serial number:	ORYXHardware model number:	OX4-SRSoftware version number:	ORYX F/W v4.00 Oryx Data Collector v3.7.2.0data status	okinstallation	princeton_trtdifferential loss correction	single-endedforward channel	channel 3reverse channel	N/Adate	2019/09/10time	18:02:10forward acquisition time	60.00reverse acquisition time	0.00gamma	496.2192k internal	0.2301k external	0.2301temperature offset calibration	0.9915default loss term (dB/km)	0.3790temperature slope calibration	1.0000multiplexer offset coefficient	1.0000multiplexer slope coefficient	1.0000fibre end	0.00T internal ref (°C)	37.06T ext. ref 1 (°C)	-0.30T ext. ref 2 (°C)	29.48length (m)	temperature (°C)	Stokes	anti-Stokes-747.200	-200.000	0.008	0.164
-746.185	1.486	-0.052	0.038
-745.171	-87.795	-0.276	0.085
-744.156	199.304	-0.183	0.287
-743.142	106.487	-0.255	-0.309
-742.127	513.976	0.051	0.121
-741.112	-14.994	-0.063	0.041
-740.098	58.026	0.084	0.084
-739.083	-200.000	-0.031	-0.279
-738.069	-40.661	0.387	-0.205
-737.054	-9.807	-0.209	0.142
-736.039	800.000	0.083	-0.313
-735.025	-200.000	0.038	0.288
-734.010	-122.118	-0.279	0.047
-732.996	800.000	0.054	-0.212
-731.981	-193.435	0.167	0.001
-730.966	800.000	0.035	-0.154
-729.952	73.092	-0.217	-0.231
-728.937	-159.233	-0.219	0.013
-727.923	-200.000	0.016	-0.101
-726.908	-200.000	-0.014	-0.420
-725.894	317.507	-0.042	-0.082
-724.879	-189.609	0.193	-0.002
-723.864	-131.378	-0.223	0.030
-722.850	650.192	0.047	-0.123
-721.835	-200.000	-0.021	0.375
-720.821	-148.443	0.050	-0.004
-719.806	-154.900	-0.205	0.014
-718.791	-118.293	0.049	-0.009
-717.777	77.259	0.095	-0.103
-716.762	1.807	0.099	-0.073
-715.748	-200.000	0.036	-0.170
-714.733	463.297	-0.048	0.110
-713.718	536.101	-0.020	-0.049
-712.704	800.000	0.034	0.108
-711.689	354.475	-0.063	0.128
-710.675	-136.061	0.460	0.055
-709.660	800.000	0.059	-0.219
-708.645	800.000	-0.107	0.472
-707.631	119.149	0.038	-0.048
-706.616	203.675	-0.137	0.215
-705.602	64.531	-0.183	-0.188
-704.587	-3.368	-0.363	-0.258
-703.572	447.842	0.039	-0.088
-702.558	-200.000	-0.021	-0.212
-701.543	31.673	0.348	-0.305
-700.529	-89.011	0.242	-0.073
-699.514	-125.442	-0.139	-0.022
-698.499	132.031	-0.198	-0.259
-697.485	354.267	0.069	-0.139
-696.470	28.589	-0.219	-0.189
-695.456	-25.291	0.232	0.140
-694.441	-111.250	0.047	-0.010
-693.426	103.031	0.141	0.168
-692.412	-200.000	-0.003	0.029
-691.397	-130.658	0.194	-0.027
-690.383	84.793	0.075	0.084
-689.368	11.433	-0.260	0.203
-688.354	211.544	0.174	0.279
-687.339	-65.697	0.138	-0.056
-686.324	457.937	-0.020	0.046
-685.310	49.152	-0.245	0.234
-684.295	89.851	-0.108	0.122
-683.281	800.000	0.068	-0.214
-682.266	-4.715	0.153	0.107
-681.251	682.223	-0.117	-0.309
-680.237	-74.343	-0.194	0.071
-679.222	508.059	0.069	-0.163
-678.208	49.655	-0.152	0.146
-677.193	-62.893	0.179	0.075
-676.178	607.931	0.110	-0.279
-675.164	-76.992	0.133	-0.047
-674.149	394.848	0.193	-0.410
-673.135	-61.724	0.261	-0.111
-672.120	-99.309	-0.348	-0.089
-671.105	-200.000	0.124	0.000
-670.091	23.155	-0.173	-0.144
-669.076	800.000	-0.069	-0.308
-668.062	-126.106	-0.073	0.011
-667.047	269.163	-0.027	-0.048
-666.032	99.130	0.156	0.183
-665.018	-13.164	0.239	-0.158
-664.003	-34.220	-0.218	0.121
-662.989	-14.361	0.129	-0.084
-661.974	6.046	-0.166	-0.125
-660.959	-115.152	0.101	0.019
-659.945	-200.000	-0.017	-0.159
-658.930	382.998	0.078	-0.162
-657.916	-101.694	-0.184	-0.045
-656.901	800.000	0.041	-0.163
-655.886	340.105	0.050	0.098
-654.872	-79.844	-0.224	0.077
-653.857	-66.321	-0.066	-0.027
-652.843	800.000	0.155	0.521
-651.828	-50.354	-0.253	0.122
-650.814	18.772	0.270	0.219
-649.799	-200.000	0.014	0.215
-648.784	560.129	0.059	0.144
-647.770	20.441	-0.120	0.099
-646.755	-200.000	-0.008	-0.424
-645.741	423.654	0.334	0.729
-644.726	45.637	-0.154	0.144
-643.711	380.603	0.144	-0.300
-642.697	286.964	0.071	-0.130
-641.682	-35.308	0.161	0.089
-640.668	613.969	0.012	-0.031
-639.653	435.891	-0.101	-0.224
-638.638	-200.000	-0.005	-0.118
-637.624	60.843	0.149	0.150
-636.609	-171.981	0.126	0.004
-635.595	800.000	0.012	-0.044
-634.580	137.968	0.110	-0.146
-633.565	800.000	0.120	-0.400
-632.551	800.000	0.023	0.071
-631.536	-200.000	-0.047	0.229
-630.522	184.153	-0.087	0.131
-629.507	-41.097	0.205	0.108
-628.492	-136.134	0.238	0.028
-627.478	171.312	0.202	0.294
-626.463	-200.000	-0.039	0.184
-625.449	-200.000	0.042	0.315
-624.434	551.181	0.121	0.295
-623.419	278.918	-0.060	-0.108
-622.405	30.706	0.221	0.192
-621.390	-102.683	-0.335	-0.081
-620.376	-27.886	0.179	-0.105
-619.361	-142.948	0.452	0.044
-618.346	800.000	-0.117	0.392
-617.332	800.000	0.020	-0.060
-616.317	-115.292	0.092	-0.018
-615.303	681.775	-0.058	0.154
-614.288	294.718	-0.130	-0.240
-613.273	800.000	-0.099	0.279
-612.259	-37.894	-0.061	-0.033
-611.244	210.240	0.079	-0.126
-610.230	536.432	0.058	-0.140
-609.215	188.238	-0.100	-0.152
-608.201	-35.715	0.073	-0.040
-607.186	30.729	-0.282	-0.244
-606.171	800.000	-0.108	-0.316
-605.157	714.375	0.073	0.195
-604.142	-82.303	-0.461	-0.152
-603.128	176.428	0.202	0.298
-602.113	101.711	-0.133	-0.157
-601.098	160.033	-0.264	-0.373
-600.084	111.533	0.151	0.185
-599.069	-12.322	-0.042	-0.028
-598.055	-61.338	-0.139	-0.059
-597.040	-200.000	-0.068	-0.366
-596.025	103.706	-0.079	0.095
-595.011	-200.000	0.043	-0.361
-593.996	800.000	0.043	-0.182
-592.982	222.318	-0.120	0.196
-591.967	-114.861	0.157	0.030
-590.952	-166.221	-0.233	-0.010
-589.938	-20.141	-0.028	-0.018
-588.923	736.247	0.056	0.151
-587.909	-35.483	0.242	0.133
-586.894	-99.225	0.100	-0.026
-585.879	-55.264	-0.268	-0.122
-584.865	50.726	-0.267	0.256
-583.850	101.424	0.188	-0.222
-582.836	-50.722	-0.172	0.082
-581.821	-200.000	0.010	0.248
-580.806	-200.000	0.002	0.138
-579.792	-62.907	-0.209	-0.087
-578.777	-200.000	0.013	-0.111
-577.763	-200.000	0.007	-0.069
-576.748	56.031	-0.076	-0.075
-575.733	2.238	-0.099	-0.073
-574.719	-118.918	-0.498	-0.089
-573.704	-141.728	-0.197	-0.020
-572.690	-46.953	-0.122	0.060
-571.675	-149.984	-0.227	0.018
-570.661	26.858	0.137	0.117
-569.646	280.636	-0.087	0.158
-568.631	558.777	0.052	-0.127
-567.617	-200.000	0.012	0.232
-566.602	800.000	0.060	0.260
-565.588	184.018	-0.085	0.128
-564.573	-200.000	-0.003	0.129
-563.558	800.000	0.024	0.091
-562.544	151.037	0.058	-0.080
-561.529	-111.977	-0.191	-0.039
-560.515	-85.360	-0.578	-0.183
-559.500	800.000	-0.075	0.210
-558.485	66.527	0.127	0.131
-557.471	-200.000	-0.004	0.145
-556.456	20.087	0.074	0.061
-555.442	-96.091	-0.090	-0.024
-554.427	-27.243	-0.226	-0.133
-553.412	28.326	-0.154	0.132
-552.398	92.891	0.075	-0.086
-551.383	-91.421	-0.317	0.091
-550.369	-200.000	0.031	-0.263
-549.354	800.000	0.073	-0.244
-548.339	-130.739	0.015	0.002
-547.325	112.809	0.091	0.111
-546.310	137.172	0.122	-0.162
-545.296	-25.782	0.340	0.203
-544.281	711.553	0.085	-0.228
-543.266	17.424	0.024	0.019
-542.252	20.228	0.157	-0.128
-541.237	-31.996	0.146	-0.083
-540.223	-92.250	0.311	-0.089
-539.208	-111.428	-0.068	0.014
-538.193	-103.265	0.092	0.022
-537.179	287.089	0.195	-0.356
-536.164	-200.000	-0.016	-0.190
-535.150	-200.000	0.043	-0.258
-534.135	83.452	0.186	-0.205
-533.121	-200.000	-0.023	-0.145
-532.106	-166.360	0.022	-0.001
-531.091	-2.001	0.132	0.094
-530.077	200.383	0.100	-0.155
-529.062	55.096	-0.077	0.075
-528.048	-118.013	-0.146	-0.026
-527.033	143.730	-0.095	-0.128
-526.018	800.000	0.055	0.201
-525.004	-104.454	0.268	0.063
-523.989	-102.470	0.401	-0.097
-522.975	78.045	-0.283	0.305
-521.960	343.883	0.099	-0.196
-520.945	555.331	0.045	0.110
-519.931	-41.862	-0.018	0.009
-518.916	-3.682	-0.282	-0.198
-517.902	-117.758	0.155	-0.028
-516.887	800.000	-0.027	0.113
-515.872	-77.562	-0.153	0.053
-514.858	34.124	-0.119	0.105
-513.843	468.575	-0.076	0.173
-512.829	-32.979	0.135	0.076
-511.814	-35.121	0.191	-0.105
-510.799	83.071	0.212	0.233
-509.785	800.000	0.026	0.086
-508.770	800.000	0.074	-0.325
-507.756	800.000	-0.017	-0.057
-506.741	-61.304	-0.273	0.116
-505.726	180.544	-0.238	0.354
-504.712	-76.378	0.081	-0.029
-503.697	16.878	0.201	0.160
-502.683	-77.829	0.060	0.021
-501.668	128.754	0.112	-0.144
-500.653	9.073	-0.171	0.130
-499.639	-200.000	0.023	-0.174
-498.624	-200.000	0.005	-0.057
-497.610	-200.000	0.036	0.240
-496.595	97.013	-0.118	-0.136
-495.581	307.145	-0.194	0.365
-494.566	622.117	-0.014	0.036
-493.551	-122.568	0.157	0.026
-492.537	337.661	0.120	-0.235
-491.522	190.432	0.203	-0.307
-490.508	286.011	0.175	-0.319
-489.493	159.576	-0.107	-0.150
-488.478	64.109	-0.336	0.341
-487.464	271.626	-0.233	0.415
-486.449	296.537	-0.092	0.171
-485.435	800.000	-0.110	0.333
-484.420	-89.923	0.496	0.146
-483.405	-40.910	-0.103	-0.054
-482.391	-45.047	-0.568	0.285
-481.376	800.000	0.046	0.167
-480.362	800.000	-0.117	0.436
-479.347	-200.000	0.039	0.323
-478.332	88.408	-0.130	0.146
-477.318	-20.119	0.183	-0.114
-476.303	-45.615	-0.185	-0.092
-475.289	331.008	0.041	-0.080
-474.274	-62.082	-0.208	0.087
-473.259	-200.000	0.002	0.129
-472.245	-90.606	-0.236	0.069
-471.230	60.938	0.088	-0.088
-470.216	81.996	0.171	-0.187
-469.201	-45.084	0.076	-0.038
-468.186	141.127	0.083	0.111
-467.172	44.457	-0.264	0.245
-466.157	302.985	0.059	-0.110
-465.143	-166.601	-0.360	0.015
-464.128	-200.000	-0.013	0.063
-463.113	81.866	0.017	0.019
-462.099	-200.000	0.002	0.058
-461.084	225.924	0.180	-0.295
-460.070	691.310	-0.099	-0.260
-459.055	-175.831	-0.156	-0.004
-458.040	263.577	-0.077	0.135
-457.026	-79.194	0.120	-0.041
-456.011	-159.752	0.126	-0.007
-454.997	-72.485	-0.089	-0.033
-453.982	-46.353	0.249	-0.124
-452.968	-184.644	-0.039	-0.001
-451.953	-200.000	0.014	-0.107
-450.938	-200.000	-0.019	0.095
-449.924	-200.000	-0.029	0.312
-448.909	2.526	0.208	0.152
-447.895	-44.550	0.273	0.138
-446.880	-13.011	0.042	0.028
-445.865	266.131	0.149	0.262
-444.851	-200.000	-0.065	0.521
-443.836	204.305	-0.276	0.431
-442.822	-158.607	0.411	0.024
-441.807	-47.089	-0.122	-0.060
-440.792	-77.539	-0.093	0.033
-439.778	-200.000	0.017	-0.239
-438.763	-79.255	-0.035	-0.012
-437.749	-200.000	0.006	-0.109
-436.734	-200.000	0.008	-0.222
-435.719	-111.387	-0.145	-0.030
-434.705	-74.369	0.090	-0.033
-433.690	-174.927	0.231	0.007
-432.676	574.028	-0.027	-0.067
-431.661	-86.887	0.097	0.030
-430.646	69.229	-0.080	-0.082
-429.632	101.522	-0.083	0.097
-428.617	-200.000	0.066	-0.329
-427.603	-156.882	-0.490	-0.030
-426.588	800.000	0.035	0.145
-425.573	13.122	0.085	0.067
-424.559	-200.000	-0.051	0.256
-423.544	-96.803	-0.147	0.039
-422.530	800.000	0.015	0.061
-421.515	87.163	0.065	-0.072
-420.500	46.076	0.186	0.173
-419.486	-200.000	-0.008	0.315
-418.471	-200.000	0.003	0.099
-417.457	800.000	0.016	0.054
-416.442	-51.332	0.026	-0.012
-415.428	-200.000	0.024	-0.244
-414.413	181.014	0.098	0.145
-413.398	-91.733	0.201	-0.057
-412.384	800.000	-0.066	-0.227
-411.369	282.614	-0.078	-0.142
-410.355	-200.000	0.033	-0.381
-409.340	40.041	0.155	0.140
-408.325	-185.740	-0.154	0.002
-407.311	-111.610	0.155	-0.032
-406.296	-200.000	0.001	0.073
-405.282	800.000	-0.143	-0.470
-404.267	-200.000	0.013	0.141
-403.252	49.724	0.199	0.189
-402.238	66.764	-0.223	0.228
-401.223	39.065	-0.186	0.167
-400.209	-91.607	0.205	-0.059
-399.194	-7.379	0.085	0.058
-398.179	-200.000	-0.007	0.205
-397.165	-117.271	-0.158	-0.029
-396.150	-154.720	-0.213	0.014
-395.136	147.864	0.064	-0.087
-394.121	737.080	-0.100	0.269
-393.106	65.450	0.219	0.223
-392.092	226.854	-0.073	-0.119
-391.077	104.816	-0.151	-0.178
-390.063	-19.278	0.061	0.038
-389.048	-51.024	-0.066	0.031
-388.033	334.946	0.124	-0.241
-387.019	-179.410	0.147	0.003
-386.004	388.697	-0.184	0.382
-384.990	260.725	-0.190	-0.330
-383.975	-16.326	-0.141	0.090
-382.960	-132.376	0.360	0.047
-381.946	40.041	-0.180	-0.163
-380.931	-53.327	0.177	-0.082
-379.917	198.299	-0.191	-0.293
-378.902	800.000	-0.025	0.098
-377.888	-122.799	-0.404	0.066
-376.873	-6.477	-0.274	-0.188
-375.858	800.000	-0.021	0.088
-374.844	660.937	0.077	-0.200
-373.829	-136.739	0.298	0.035
-372.815	284.812	-0.111	0.201
-371.800	180.612	-0.099	-0.147
-370.785	-135.479	0.100	0.012
-369.771	167.857	-0.090	-0.129
-368.756	318.622	0.032	-0.061
-367.742	-200.000	-0.014	0.113
-366.727	-146.731	0.372	-0.032
-365.712	-200.000	0.013	-0.174
-364.698	-182.297	-0.055	0.001
-363.683	325.675	0.100	0.193
-362.669	371.023	-0.100	0.204
-361.654	59.915	0.120	-0.119
-360.639	800.000	0.071	-0.227
-359.625	285.413	0.111	0.200
-358.610	-159.673	-0.302	0.017
-357.596	-167.077	-0.237	-0.010
-356.581	-59.652	0.332	0.143
-355.566	2.405	-0.167	0.122
-354.552	-200.000	-0.001	-0.310
-353.537	-101.528	0.184	0.045
-352.523	800.000	-0.081	0.344
-351.508	145.705	-0.073	0.099
-350.493	-121.416	-0.071	-0.012
-349.479	409.866	-0.120	0.255
-348.464	-156.562	-0.171	0.011
-347.450	630.592	-0.142	-0.360
-346.435	180.852	0.077	-0.114
-345.420	-66.056	-0.250	-0.100
-344.406	-49.845	-0.076	-0.036
-343.391	93.827	-0.039	-0.044
-342.377	12.704	-0.147	0.114
-341.362	-40.814	-0.253	-0.131
-340.348	111.668	0.190	0.230
-339.333	-200.000	0.046	0.215
-338.318	-62.625	0.241	0.100
-337.304	-100.889	-0.154	-0.038
-336.289	-91.604	0.158	-0.045
-335.275	-200.000	0.001	-0.023
-334.260	-142.957	-0.243	-0.024
-333.245	60.250	0.050	-0.049
-332.231	272.426	0.108	-0.191
-331.216	-200.000	-0.017	-0.323
-330.202	-87.274	0.350	0.106
-329.187	59.331	0.230	-0.227
-328.172	-116.752	-0.254	0.047
-327.158	72.215	-0.194	-0.202
-326.143	-138.874	0.188	-0.020
-325.129	53.186	0.122	-0.117
-324.114	74.927	-0.158	0.167
-323.099	65.221	-0.297	0.301
-322.085	-20.730	0.153	0.094
-321.070	22.362	0.251	-0.206
-320.056	28.991	-0.151	0.128
-319.041	-200.000	-0.054	-0.322
-318.026	-68.664	-0.199	0.077
-317.012	85.220	-0.074	0.081
-315.997	-200.000	-0.043	-0.214
-314.983	75.699	-0.023	-0.024
-313.968	13.592	-0.164	0.128
-312.953	258.624	0.009	0.015
-311.939	-200.000	0.067	-0.443
-310.924	-84.941	-0.276	-0.087
-309.910	-103.888	0.262	0.061
-308.895	-200.000	-0.081	-0.397
-307.880	131.277	-0.046	0.060
-306.866	-10.657	-0.391	-0.259
-305.851	53.954	-0.201	-0.194
-304.837	-119.130	0.209	0.037
-303.822	-103.493	-0.176	0.042
-302.807	-65.476	-0.238	-0.096
-301.793	-0.256	-0.381	-0.272
-300.778	-24.211	0.389	-0.233
-299.764	-56.845	0.330	0.146
-298.749	800.000	0.031	0.114
-297.735	665.642	0.026	0.068
-296.720	-200.000	-0.002	0.149
-295.705	431.440	-0.074	0.161
-294.691	56.698	-0.266	-0.259
-293.676	-75.901	0.128	-0.045
-292.662	706.177	0.087	0.230
-291.647	118.508	0.171	0.212
-290.632	-31.625	0.281	-0.158
-289.618	483.926	-0.110	-0.251
-288.603	30.571	-0.172	-0.148
-287.589	-59.557	0.148	0.064
-286.574	-99.317	0.113	0.028
-285.559	-124.509	-0.180	-0.028
-284.545	-14.656	0.059	-0.038
-283.530	-80.324	0.314	-0.105
-282.516	189.061	-0.195	-0.292
-281.501	-58.684	0.135	-0.059
-280.486	-151.564	0.249	-0.018
-279.472	-70.705	0.400	-0.151
-278.457	-6.372	-0.086	0.059
-277.443	-99.838	0.175	0.044
-276.428	-93.820	-0.036	-0.010
-275.413	798.494	-0.047	0.130
-274.399	-62.802	0.207	0.086
-273.384	-200.000	-0.013	0.160
-272.370	-96.567	-0.087	0.023
-271.355	296.168	0.172	-0.316
-270.340	-48.426	-0.089	0.043
-269.326	66.040	0.048	0.049
-268.311	800.000	0.067	-0.222
-267.297	-134.156	-0.205	0.025
-266.282	147.190	0.203	0.273
-265.267	262.128	0.148	-0.257
-264.253	-52.397	0.233	-0.108
-263.238	-20.749	0.228	0.140
-262.224	-200.000	-0.024	0.258
-261.209	-200.000	0.051	-0.343
-260.195	38.022	-0.105	-0.093
-259.180	-200.000	-0.080	0.391
-258.165	-101.887	0.080	-0.019
-257.151	-200.000	0.040	0.432
-256.136	-80.424	-0.283	-0.095
-255.122	-12.199	0.242	0.158
-254.107	422.927	-0.162	0.347
-253.092	138.881	-0.166	-0.218
-252.078	-200.000	-0.007	0.109
-251.063	113.207	0.248	0.301
-250.049	-107.123	-0.149	0.033
-249.034	800.000	0.035	0.149
-248.019	-67.527	-0.185	0.072
-247.005	61.057	0.078	-0.077
-245.990	140.726	0.281	0.371
-244.976	-98.824	0.176	-0.045
-243.961	178.219	-0.258	-0.376
-242.946	800.000	-0.069	-0.212
-241.932	-196.134	0.283	-0.002
-240.917	-200.000	0.011	0.229
-239.903	-133.996	0.149	-0.018
-238.888	-58.433	0.046	-0.020
-237.873	-200.000	0.024	0.288
-236.859	-87.151	-0.416	-0.127
-235.844	-200.000	-0.004	0.107
-234.830	-72.215	0.308	0.114
-233.815	-200.000	-0.020	0.196
-232.800	800.000	0.104	-0.335
-231.786	442.504	-0.131	-0.288
-230.771	96.587	-0.209	0.239
-229.757	93.941	0.268	0.303
-228.742	-2.258	-0.179	-0.125
-227.727	800.000	-0.084	-0.342
-226.713	-111.123	-0.191	-0.039
-225.698	-46.692	-0.011	-0.005
-224.684	-200.000	-0.009	0.126
-223.669	14.654	0.260	0.203
-222.655	226.513	-0.070	-0.114
-221.640	-127.630	-0.071	0.010
-220.625	-200.000	0.012	0.112
-219.611	-200.000	0.013	-0.060
-218.596	-47.328	-0.176	-0.085
-217.582	49.721	0.135	-0.127
-216.567	139.782	-0.145	-0.190
-215.552	69.980	-0.145	0.149
-214.538	-94.827	-0.255	-0.069
-213.523	-34.864	-0.150	-0.082
-212.509	126.385	-0.202	-0.255
-211.494	800.000	0.039	0.143
-210.479	-95.077	0.153	0.041
-209.465	171.471	0.016	0.022
-208.450	-200.000	0.051	-0.262
-207.436	348.840	0.203	-0.399
-206.421	-39.185	-0.172	0.090
-205.406	-191.486	0.255	-0.003
-204.392	-153.916	0.146	-0.010
-203.377	128.486	-0.016	0.021
-202.363	-32.343	0.133	0.074
-201.348	-113.086	0.345	0.068
-200.333	80.003	-0.236	0.253
-199.319	-31.050	-0.149	-0.084
-198.304	-200.000	0.014	-0.075
-197.290	6.834	-0.146	0.108
-196.275	-15.957	0.367	0.233
-195.260	21.422	0.310	0.252
-194.246	800.000	0.116	-0.375
-193.231	-79.676	-0.083	0.028
-192.217	-15.915	0.184	-0.117
-191.202	-200.000	0.067	0.293
-190.187	-16.529	-0.265	0.167
-189.173	83.748	-0.098	-0.106
-188.158	264.912	0.219	-0.381
-187.144	8.366	0.190	-0.143
-186.129	-200.000	-0.017	-0.175
-185.114	-200.000	0.022	-0.120
-184.100	-200.000	0.026	-0.190
-183.085	-140.972	-0.076	0.008
-182.071	-96.899	0.124	0.032
-181.056	800.000	0.094	-0.330
-180.042	-200.000	-0.010	-0.296
-179.027	134.937	0.106	0.138
-178.012	-108.628	0.319	0.068
-176.998	-110.903	0.102	0.021
-175.983	611.881	0.083	0.206
-174.969	-200.000	0.008	-0.114
-173.954	761.360	-0.052	-0.141
-172.939	70.068	0.181	-0.187
-171.925	267.355	-0.342	0.597
-170.910	-200.000	-0.019	-0.166
-169.896	21.026	0.152	-0.123
-168.881	9.849	0.103	-0.078
-167.866	-196.762	-0.269	0.002
-166.852	97.321	0.167	-0.191
-165.837	800.000	0.156	-0.591
-164.823	-195.226	0.124	-0.001
-163.808	-31.163	-0.359	-0.202
-162.793	63.906	-0.190	-0.190
-161.779	48.287	0.180	-0.168
-160.764	38.281	-0.058	0.052
-159.750	-200.000	-0.031	-0.309
-158.735	-112.398	-0.143	0.028
-157.720	9.200	0.028	-0.021
-156.706	-88.636	-0.443	0.131
-155.691	-116.180	0.324	0.060
-154.677	129.839	0.231	0.295
-153.662	-61.114	-0.237	0.100
-152.647	295.779	0.022	-0.041
-151.633	-200.000	-0.038	0.318
-150.618	800.000	0.108	0.299
-149.604	36.546	-0.170	-0.150
-148.589	156.340	0.056	0.077
-147.574	-136.327	0.144	0.017
-146.560	-42.512	-0.240	0.122
-145.545	222.853	-0.055	-0.088
-144.531	-200.000	-0.056	0.494
-143.516	-124.620	-0.356	-0.055
-142.502	-4.606	0.150	-0.103
-141.487	38.261	0.161	-0.143
-140.472	529.943	-0.146	0.344
-139.458	-200.000	0.052	-0.341
-138.443	-72.082	-0.377	-0.139
-137.429	-200.000	-0.087	0.421
-136.414	-145.058	0.188	0.017
-135.399	57.397	0.005	-0.005
-134.385	-110.645	0.033	-0.007
-133.370	202.404	0.203	0.311
-132.356	132.217	0.211	-0.271
-131.341	36.072	-0.337	-0.295
-130.326	50.605	0.117	0.111
-129.312	275.878	0.057	0.101
-128.297	-170.760	-0.317	-0.011
-127.283	-22.139	0.288	0.174
-126.268	-10.825	0.243	0.160
-125.253	800.000	-0.066	0.232
-124.239	-101.897	-0.299	-0.072
-123.224	-50.290	-0.190	0.090
-122.210	-7.202	0.058	0.039
-121.195	-133.318	0.421	0.053
-120.180	-142.022	-0.179	-0.018
