DTS Sentinel unit serial number:	SN413079Multiplexer serial number:	ORYXHardware model number:	OX4-SRSoftware version number:	ORYX F/W v4.00 Oryx Data Collector v3.7.2.0data status	okinstallation	princeton_trtdifferential loss correction	single-endedforward channel	channel 3reverse channel	N/Adate	2019/09/12time	01:54:11forward acquisition time	60.00reverse acquisition time	0.00gamma	496.2192k internal	0.2320k external	0.2320temperature offset calibration	1.0067default loss term (dB/km)	0.3790temperature slope calibration	1.0000multiplexer offset coefficient	1.0000multiplexer slope coefficient	1.0000fibre end	0.00T internal ref (°C)	32.78T ext. ref 1 (°C)	2.06T ext. ref 2 (°C)	27.40length (m)	temperature (°C)	Stokes	anti-Stokes-747.200	138.077	-0.007	-0.009
-746.185	412.138	-0.193	0.414
-745.171	479.439	-0.034	0.079
-744.156	224.576	0.126	0.206
-743.142	76.662	0.091	-0.097
-742.127	-156.419	0.274	-0.017
-741.112	-194.316	-0.345	-0.003
-740.098	-99.831	0.347	0.088
-739.083	-9.125	0.326	0.221
-738.069	800.000	0.058	0.181
-737.054	-137.293	-0.239	-0.027
-736.039	-50.841	-0.204	0.097
-735.025	-200.000	0.011	0.354
-734.010	-139.565	-0.021	-0.002
-732.996	-114.370	-0.182	0.035
-731.981	-15.656	-0.142	0.092
-730.966	-133.377	0.013	-0.002
-729.952	34.044	0.145	-0.127
-728.937	-200.000	0.006	-0.392
-727.923	115.995	-0.035	-0.043
-726.908	-12.442	0.115	0.076
-725.894	175.484	-0.154	-0.225
-724.879	-200.000	-0.026	0.502
-723.864	21.948	0.387	0.318
-722.850	25.379	-0.079	-0.066
-721.835	-200.000	-0.006	-0.281
-720.821	-200.000	-0.009	0.244
-719.806	-200.000	-0.015	0.118
-718.791	158.081	0.052	0.073
-717.777	-124.397	-0.484	0.076
-716.762	138.797	0.168	-0.223
-715.748	-200.000	-0.022	0.144
-714.733	150.358	0.122	0.167
-713.718	373.955	0.156	-0.320
-712.704	76.203	0.222	-0.237
-711.689	-136.738	-0.216	-0.025
-710.675	197.737	-0.116	-0.178
-709.660	237.483	0.175	0.292
-708.645	800.000	-0.044	0.164
-707.631	-4.531	0.183	-0.128
-706.616	-48.543	-0.136	0.066
-705.602	-155.359	-0.106	-0.007
-704.587	-44.481	-0.188	-0.095
-703.572	-138.753	-0.281	-0.031
-702.558	800.000	-0.035	0.135
-701.543	765.560	0.078	0.213
-700.529	109.127	0.122	-0.148
-699.514	288.329	0.189	-0.346
-698.499	800.000	0.163	-0.463
-697.485	-200.000	0.011	-0.687
-696.470	-68.671	0.464	-0.181
-695.456	13.187	0.270	-0.211
-694.441	122.469	-0.112	0.141
-693.426	800.000	0.040	-0.132
-692.412	16.954	0.245	-0.196
-691.397	707.084	0.028	0.075
-690.383	184.091	-0.194	0.290
-689.368	186.358	0.098	0.147
-688.354	-141.627	0.281	-0.029
-687.339	800.000	0.169	-0.476
-686.324	-200.000	0.000	-0.127
-685.310	800.000	-0.084	-0.318
-684.295	180.911	-0.118	-0.175
-683.281	60.647	-0.038	-0.038
-682.266	-200.000	0.062	-0.384
-681.251	-200.000	-0.010	-0.412
-680.237	-3.246	-0.209	-0.147
-679.222	476.554	0.188	-0.430
-678.208	44.921	0.176	-0.163
-677.193	0.297	-0.131	0.094
-676.178	-85.994	-0.299	0.093
-675.164	-78.090	0.485	0.168
-674.149	-10.627	-0.097	0.065
-673.135	800.000	0.071	-0.239
-672.120	63.493	-0.072	0.073
-671.105	28.972	-0.216	-0.185
-670.091	800.000	0.018	0.057
-669.076	-55.365	-0.173	-0.078
-668.062	-200.000	0.057	0.257
-667.047	-35.099	-0.266	0.146
-666.032	-200.000	-0.093	-0.457
-665.018	-80.221	0.426	-0.144
-664.003	252.945	-0.168	-0.288
-662.989	-131.368	0.159	-0.021
-661.974	-35.441	0.248	0.136
-660.959	132.172	-0.111	-0.145
-659.945	188.905	-0.087	-0.131
-658.930	800.000	-0.079	0.266
-657.916	-14.287	0.044	0.029
-656.901	511.324	-0.031	-0.073
-655.886	74.701	-0.154	0.164
-654.872	800.000	0.202	0.607
-653.857	-69.513	0.256	0.099
-652.843	-64.680	-0.131	0.054
-651.828	-200.000	-0.371	0.000
-650.814	295.662	0.071	0.131
-649.799	800.000	0.095	-0.279
-648.784	8.218	0.149	0.113
-647.770	-129.682	-0.306	-0.042
-646.755	312.695	-0.067	-0.127
-645.741	201.244	-0.036	-0.055
-644.726	-68.309	0.228	-0.089
-643.711	14.041	0.073	0.057
-642.697	-36.636	0.124	-0.067
-641.682	40.129	-0.041	-0.037
-640.668	800.000	0.050	-0.165
-639.653	-84.107	0.194	-0.062
-638.638	-63.109	-0.113	0.047
-637.624	-24.539	0.323	0.194
-636.609	-14.203	0.035	0.023
-635.595	396.786	-0.032	-0.068
-634.580	800.000	-0.094	-0.319
-633.565	-160.599	0.318	-0.017
-632.551	74.975	0.256	-0.272
-631.536	-10.088	0.171	0.114
-630.522	-35.457	0.259	0.142
-629.507	715.712	-0.065	-0.174
-628.492	-200.000	-0.020	-0.215
-627.478	264.203	-0.126	-0.220
-626.463	125.727	0.185	-0.236
-625.449	-200.000	-0.015	-0.154
-624.434	-128.065	0.125	-0.018
-623.419	-159.346	-0.034	0.002
-622.405	-200.000	-0.023	-0.158
-621.390	249.756	0.091	-0.156
-620.376	-47.131	0.121	-0.059
-619.361	608.461	-0.163	-0.410
-618.346	-24.084	-0.258	-0.155
-617.332	37.796	-0.091	-0.082
-616.317	195.121	0.162	-0.247
-615.303	800.000	0.135	-0.527
-614.288	394.567	0.094	-0.197
-613.273	318.574	-0.116	0.220
-612.259	709.852	-0.087	0.233
-611.244	-125.891	-0.293	-0.044
-610.230	116.067	0.169	-0.209
-609.215	-200.000	-0.061	-0.364
-608.201	183.627	0.256	-0.381
-607.186	-157.998	-0.068	0.004
-606.171	1.831	-0.326	0.236
-605.157	193.857	-0.180	-0.274
-604.142	-10.364	0.131	-0.088
-603.128	-84.858	-0.327	-0.103
-602.113	-115.835	-0.262	0.049
-601.098	-89.326	-0.147	0.044
-600.084	702.112	0.080	-0.213
-599.069	198.687	-0.082	0.126
-598.055	-85.781	-0.265	0.083
-597.040	413.037	-0.040	0.086
-596.025	-55.003	0.248	-0.112
-595.011	-132.195	0.256	-0.033
-593.996	613.634	-0.127	0.320
-592.982	800.000	0.026	-0.072
-591.967	570.984	0.090	-0.221
-590.952	93.427	-0.080	-0.091
-589.938	-25.930	0.268	0.159
-588.923	529.052	0.140	-0.332
-587.909	54.064	-0.148	0.143
-586.894	1.622	-0.297	-0.215
-585.879	-200.000	-0.008	-0.339
-584.865	316.589	-0.013	0.024
-583.850	-84.215	0.061	-0.020
-582.836	-18.060	-0.010	0.006
-581.821	-32.724	0.154	-0.086
-580.806	-175.178	-0.150	-0.004
-579.792	64.082	-0.065	0.065
-578.777	177.299	-0.152	-0.222
-577.763	-200.000	-0.010	0.132
-576.748	-90.687	-0.278	0.081
-575.733	-26.055	-0.172	0.101
-574.719	52.483	0.190	0.183
-573.704	27.791	-0.168	-0.142
-572.690	-81.895	0.220	0.072
-571.675	800.000	-0.130	0.484
-570.661	-79.059	0.182	-0.062
-569.646	3.744	-0.246	-0.180
-568.631	144.037	0.091	0.121
-567.617	-200.000	0.004	0.212
-566.602	-123.352	0.260	-0.042
-565.588	-58.373	0.074	0.032
-564.573	58.875	-0.129	0.128
-563.558	-22.104	0.085	0.052
-562.544	-126.247	-0.135	-0.020
-561.529	-136.103	0.233	-0.027
-560.515	-88.842	-0.121	0.036
-559.500	-161.313	-0.112	0.006
-558.485	357.683	-0.121	0.242
-557.471	24.511	-0.176	-0.146
-556.456	-58.469	0.322	0.140
-555.442	-51.320	-0.313	0.147
-554.427	-70.958	-0.294	0.111
-553.412	-98.874	-0.329	-0.084
-552.398	167.290	-0.177	-0.252
-551.383	800.000	-0.059	0.245
-550.369	-99.477	-0.112	0.028
-549.354	800.000	0.076	0.335
-548.339	13.351	-0.249	0.194
-547.325	-99.350	0.249	-0.063
-546.310	-71.626	0.224	0.084
-545.296	-189.186	-0.391	0.005
-544.281	22.850	-0.257	0.212
-543.266	-93.825	-0.277	0.077
-542.252	-200.000	-0.008	0.037
-541.237	800.000	-0.067	0.216
-540.223	27.299	-0.144	-0.121
-539.208	122.252	-0.273	-0.343
-538.193	-200.000	-0.076	-0.439
-537.179	800.000	0.064	0.187
-536.164	274.060	0.116	0.206
-535.150	134.307	-0.021	0.027
-534.135	-200.000	0.004	-0.278
-533.121	23.617	-0.028	-0.023
-532.106	-161.957	-0.357	0.018
-531.091	392.141	0.053	-0.111
-530.077	62.478	0.209	-0.209
-529.062	-35.859	-0.138	-0.075
-528.048	-166.088	0.042	0.002
-527.033	-17.064	-0.161	-0.102
-526.018	-65.321	-0.159	-0.064
-525.004	-200.000	-0.029	0.153
-523.989	-47.767	-0.080	-0.039
-522.975	-200.000	-0.032	0.152
-521.960	800.000	0.131	-0.369
-520.945	-200.000	-0.045	-0.407
-519.931	-82.641	-0.401	0.130
-518.916	800.000	-0.081	-0.305
-517.902	-133.252	0.013	0.002
-516.887	-45.382	0.114	0.057
-515.872	382.326	-0.061	-0.125
-514.858	-26.681	0.287	0.169
-513.843	81.697	0.153	-0.166
-512.829	-130.514	0.171	-0.023
-511.814	406.636	-0.089	0.188
-510.799	-84.302	0.221	0.070
-509.785	378.665	-0.128	-0.262
-508.770	-200.000	-0.059	-0.336
-507.756	-86.234	0.242	-0.075
-506.741	-200.000	-0.001	0.054
-505.726	525.378	-0.095	0.223
-504.712	-200.000	-0.054	0.467
-503.697	-41.483	0.383	0.197
-502.683	-68.095	-0.142	-0.055
-501.668	-95.562	0.230	0.062
-500.653	-141.870	-0.211	-0.021
-499.639	-95.924	0.181	0.048
-498.624	48.179	-0.050	-0.046
-497.610	-49.764	-0.063	0.030
-496.595	-200.000	-0.000	-0.154
-495.581	-138.629	-0.199	-0.022
-494.566	-105.289	0.121	0.028
-493.551	444.420	-0.065	0.143
-492.537	243.253	-0.109	0.183
-491.522	459.081	-0.155	-0.345
-490.508	68.442	0.142	0.146
-489.493	361.887	0.160	-0.321
-488.478	-168.792	0.352	-0.013
-487.464	92.064	-0.081	-0.092
-486.449	607.926	-0.109	0.272
-485.435	25.075	0.165	0.137
-484.420	-56.110	0.319	-0.142
-483.405	50.200	0.232	0.220
-482.391	-200.000	-0.031	-0.246
-481.376	58.371	-0.091	-0.089
-480.362	-34.762	0.209	-0.114
-479.347	-31.565	0.030	0.017
-478.332	-62.480	-0.479	0.199
-477.318	-46.582	0.108	-0.053
-476.303	800.000	0.070	0.209
-475.289	800.000	0.127	-0.440
-474.274	-200.000	-0.079	-0.424
-473.259	-78.792	-0.237	-0.081
-472.245	-149.884	0.229	-0.018
-471.230	-79.123	-0.075	0.025
-470.216	234.851	0.041	-0.067
-469.201	-34.551	-0.214	0.117
-468.186	336.660	0.106	-0.205
-467.172	15.686	-0.120	-0.094
-466.157	800.000	0.140	-0.419
-465.143	38.509	0.154	-0.138
-464.128	800.000	0.114	-0.433
-463.113	-119.702	-0.015	0.003
-462.099	112.128	-0.160	-0.193
-461.084	800.000	-0.091	0.298
-460.070	-45.088	0.042	0.021
-459.055	-200.000	0.005	0.102
-458.040	-200.000	0.055	0.408
-457.026	128.426	0.066	0.084
-456.011	-8.421	0.227	-0.153
-454.997	-103.241	-0.148	0.035
-453.982	14.842	0.221	-0.173
-452.968	-141.507	0.201	0.020
-451.953	603.995	0.030	-0.076
-450.938	-50.783	-0.422	0.199
-449.924	48.793	0.212	0.199
-448.909	177.106	0.064	0.094
-447.895	-200.000	0.064	-0.433
-446.880	130.828	-0.334	-0.429
-445.865	-200.000	-0.048	-0.218
-444.851	-146.746	0.168	-0.015
-443.836	-178.298	-0.340	-0.008
-442.822	224.630	0.092	0.149
-441.807	5.804	-0.215	0.159
-440.792	-63.008	-0.119	-0.049
-439.778	-93.848	-0.304	-0.084
-438.763	115.835	-0.111	0.136
-437.749	365.264	0.123	-0.247
-436.734	-200.000	0.023	0.224
-435.719	284.275	0.068	0.123
-434.705	-0.580	-0.068	0.049
-433.690	-9.925	-0.052	0.034
-432.676	15.561	0.120	0.095
-431.661	800.000	0.030	0.089
-430.646	-200.000	0.023	0.206
-429.632	800.000	0.136	-0.382
-428.617	-34.031	0.151	0.083
-427.603	-2.282	0.138	-0.096
-426.588	-115.810	0.193	0.036
-425.573	-6.272	0.193	-0.132
-424.559	-45.037	0.211	0.105
-423.544	-68.323	-0.185	0.072
-422.530	-200.000	-0.017	0.076
-421.515	-123.534	0.048	-0.008
-420.500	-200.000	0.055	-0.430
-419.486	-78.632	0.079	-0.027
-418.471	-95.961	-0.280	0.074
-417.457	52.079	-0.147	0.140
-416.442	-5.472	0.341	0.234
-415.428	-33.494	0.329	-0.182
-414.413	379.883	0.070	-0.144
-413.398	-17.029	0.141	0.089
-412.384	83.150	-0.354	0.384
-411.369	-18.489	-0.249	-0.155
-410.355	-36.376	0.227	-0.122
-409.340	4.106	-0.157	-0.115
-408.325	800.000	-0.105	0.377
-407.311	800.000	-0.086	-0.283
-406.296	72.634	-0.202	-0.210
-405.282	800.000	-0.041	-0.118
-404.267	334.659	-0.074	0.143
-403.252	34.841	-0.183	0.159
-402.238	-119.539	0.353	-0.061
-401.223	-144.781	0.270	-0.025
-400.209	-76.443	0.165	0.058
-399.194	-200.000	-0.055	0.290
-398.179	210.000	-0.134	0.209
-397.165	-200.000	-0.046	0.244
-396.150	11.128	0.271	-0.207
-395.136	67.383	-0.091	-0.092
-394.121	-46.400	-0.105	0.052
-393.106	-182.574	-0.217	-0.004
-392.092	45.653	0.241	0.223
-391.077	-200.000	-0.050	0.231
-390.063	-154.594	0.217	0.014
-389.048	22.396	0.076	0.062
-388.033	-200.000	-0.004	0.037
-387.019	800.000	-0.019	-0.062
-386.004	-84.697	-0.296	-0.093
-384.990	-132.741	-0.358	-0.046
-383.975	5.753	0.112	0.082
-382.960	800.000	0.104	-0.312
-381.946	16.441	-0.112	-0.088
-380.931	-120.967	0.084	0.014
-379.917	800.000	0.041	0.152
-378.902	800.000	0.047	0.182
-377.888	-95.011	0.142	0.038
-376.873	-200.000	-0.419	0.002
-375.858	190.875	-0.051	-0.077
-374.844	-200.000	-0.024	-0.243
-373.829	-158.382	-0.262	0.015
-372.815	41.979	-0.117	0.106
-371.800	-170.529	-0.218	-0.008
-370.785	-200.000	-0.005	0.154
-369.771	-137.349	-0.155	-0.018
-368.756	-85.394	0.347	0.108
-367.742	49.299	-0.062	-0.058
-366.727	-200.000	0.047	0.442
-365.712	43.426	0.111	0.101
-364.698	-200.000	-0.030	0.179
-363.683	800.000	0.101	-0.364
-362.669	354.958	-0.069	-0.136
-361.654	800.000	-0.095	0.273
-360.639	441.339	-0.176	0.384
-359.625	800.000	-0.021	-0.059
-358.610	-6.953	-0.073	0.049
-357.596	-200.000	0.024	0.220
-356.581	12.627	0.077	-0.059
-355.566	800.000	0.018	0.069
-354.552	51.780	0.205	-0.195
-353.537	-200.000	0.001	0.228
-352.523	-153.801	0.290	0.020
-351.508	481.710	0.210	-0.474
-350.493	-70.069	0.250	0.095
-349.479	139.117	-0.105	0.137
-348.464	23.965	-0.118	0.097
-347.450	-16.334	0.076	-0.048
-346.435	119.625	-0.154	0.191
-345.420	-200.000	-0.066	0.292
-344.406	-126.994	-0.627	0.092
-343.391	-38.528	0.182	0.096
-342.377	-27.943	0.010	-0.006
-341.362	160.882	-0.097	-0.134
-340.348	144.664	0.083	0.110
-339.333	-92.177	0.033	-0.009
-338.318	51.634	0.234	-0.221
-337.304	-200.000	0.032	-0.258
-336.289	-3.778	-0.050	-0.034
-335.275	130.647	-0.094	0.120
-334.260	-68.521	-0.289	0.112
-333.245	-12.280	-0.197	0.128
-332.231	24.570	-0.100	0.083
-331.216	48.441	-0.046	0.043
-330.202	-19.713	-0.114	0.070
-329.187	-79.076	-0.049	0.016
-328.172	94.000	0.033	0.037
-327.158	-196.825	0.205	-0.001
-326.143	-37.060	-0.133	-0.071
-325.129	16.868	0.092	-0.072
-324.114	7.716	-0.232	-0.173
-323.099	0.511	0.298	0.212
-322.085	-160.792	-0.038	-0.002
-321.070	67.171	0.163	-0.165
-320.056	-200.000	-0.007	-0.106
-319.041	274.375	0.209	0.368
-318.026	-55.744	0.050	0.022
-317.012	800.000	0.044	0.134
-315.997	800.000	-0.049	-0.138
-314.983	-4.063	-0.125	-0.086
-313.968	-63.783	-0.187	0.076
-312.953	95.644	0.012	0.014
-311.939	67.352	0.187	0.190
-310.924	84.022	-0.226	-0.246
-309.910	-200.000	0.088	-0.476
-308.895	536.062	-0.137	0.322
-307.880	252.161	-0.130	0.220
-306.866	800.000	-0.050	0.138
-305.851	-200.000	0.006	0.077
-304.837	-69.902	0.159	0.060
-303.822	-200.000	0.017	0.108
-302.807	28.254	0.167	-0.140
-301.793	-36.208	0.062	0.033
-300.778	224.387	0.225	0.362
-299.764	800.000	0.032	0.128
-298.749	271.076	-0.131	0.229
-297.735	-44.466	0.143	0.071
-296.720	-173.336	0.251	0.008
-295.705	-113.919	-0.130	0.025
-294.691	344.031	-0.039	0.076
-293.676	-200.000	0.037	-0.501
-292.662	-97.420	0.221	-0.057
-291.647	430.715	0.023	-0.049
-290.632	800.000	0.148	0.598
-289.618	-8.252	0.142	0.095
-288.603	-200.000	-0.001	0.086
-287.589	-27.010	0.051	0.029
-286.574	-98.035	-0.105	0.027
-285.559	800.000	-0.070	0.198
-284.545	-44.013	0.051	-0.025
-283.530	320.658	0.112	0.210
-282.516	-200.000	0.024	-0.186
-281.501	198.423	-0.132	-0.201
-280.486	-158.655	-0.133	0.008
-279.472	800.000	0.013	0.057
-278.457	-37.220	-0.109	0.058
-277.443	-60.475	-0.063	-0.027
-276.428	206.826	0.131	0.202
-275.413	-81.852	-0.063	0.021
-274.399	800.000	0.106	-0.304
-273.384	126.481	0.154	0.193
-272.370	-139.829	0.213	-0.022
-271.355	800.000	-0.059	-0.230
-270.340	-106.490	-0.269	-0.060
-269.326	253.079	0.184	0.312
-268.311	89.022	0.057	0.063
-267.297	-53.270	-0.108	0.049
-266.282	-134.153	0.122	0.015
-265.267	147.515	0.137	0.183
-264.253	-39.262	0.230	0.120
-263.238	-16.301	0.022	0.014
-262.224	200.548	0.097	0.148
-261.209	-124.300	-0.245	-0.038
-260.195	41.819	0.054	0.049
-259.180	-200.000	-0.028	0.309
-258.165	503.579	-0.147	-0.338
-257.151	-200.000	0.034	-0.172
-256.136	61.096	0.194	-0.191
-255.122	92.029	0.072	-0.080
-254.107	-179.075	0.421	-0.009
-253.092	117.709	0.034	0.042
-252.078	36.309	0.094	0.082
-251.063	-85.419	0.305	0.094
-250.049	-39.400	0.200	0.104
-249.034	-93.183	0.372	-0.103
-248.019	-200.000	0.018	-0.181
-247.005	9.824	-0.035	-0.027
-245.990	-200.000	-0.010	-0.090
-244.976	-102.807	0.229	0.054
-243.961	483.256	-0.155	-0.350
-242.946	-200.000	-0.005	0.187
-241.932	487.760	0.089	0.202
-240.917	255.543	0.071	-0.120
-239.903	345.957	-0.083	0.162
-238.888	554.076	0.113	0.270
-237.873	-86.834	-0.036	0.011
-236.859	800.000	-0.071	0.253
-235.844	162.743	0.096	0.133
-234.830	-99.107	0.088	-0.022
-233.815	333.797	-0.172	-0.329
-232.800	-13.890	-0.054	-0.035
-231.786	-90.041	-0.369	0.107
-230.771	102.566	-0.226	0.262
-229.757	134.468	-0.251	0.322
-228.742	-68.228	-0.093	-0.036
-227.727	592.617	-0.106	0.258
-226.713	46.505	-0.182	-0.168
-225.698	324.759	0.095	-0.180
-224.684	-110.196	0.129	0.027
-223.669	413.273	-0.053	0.112
-222.655	-97.409	-0.274	0.071
-221.640	-90.575	0.212	0.061
-220.625	-2.466	0.297	0.206
-219.611	-200.000	0.020	0.171
-218.596	-102.712	0.178	0.042
-217.582	-74.855	0.279	0.099
-216.567	-28.047	-0.237	0.136
-215.552	-200.000	-0.014	-0.193
-214.538	-172.773	0.171	-0.005
-213.523	-93.391	0.114	-0.031
-212.509	216.163	0.202	0.318
-211.494	112.244	-0.195	-0.233
-210.479	-41.025	-0.293	0.150
-209.465	-92.834	-0.051	-0.014
-208.450	-75.677	-0.199	0.070
-207.436	157.620	-0.151	0.207
-206.421	800.000	-0.061	-0.244
-205.406	-200.000	-0.031	-0.168
-204.392	-165.882	0.208	-0.009
-203.377	130.912	0.266	-0.338
-202.363	-200.000	0.045	-0.229
-201.348	-87.508	0.041	0.012
-200.333	-200.000	0.004	0.379
-199.319	183.351	-0.150	-0.220
-198.304	-150.431	-0.167	0.013
-197.290	800.000	0.027	0.076
-196.275	702.766	-0.101	0.264
-195.260	-53.015	0.092	0.042
-194.246	800.000	0.053	0.151
-193.231	133.603	0.177	-0.226
-192.217	-159.739	-0.170	-0.009
-191.202	800.000	0.039	-0.126
-190.187	268.053	0.128	-0.223
-189.173	114.013	-0.028	0.034
-188.158	-200.000	0.012	0.127
-187.144	-145.142	0.202	0.018
-186.129	-107.443	0.300	0.065
-185.114	-110.746	0.015	0.003
-184.100	-17.217	0.265	-0.165
-183.085	-82.728	0.233	-0.075
-182.071	29.298	-0.116	-0.098
-181.056	-39.741	-0.116	0.060
-180.042	-200.000	-0.033	0.159
-179.027	638.911	0.199	-0.500
-178.012	319.617	0.098	-0.184
-176.998	-1.880	-0.293	0.204
-175.983	-150.609	0.076	-0.006
-174.969	772.586	-0.145	0.392
-173.954	52.178	0.167	-0.158
-172.939	800.000	-0.088	-0.321
-171.925	241.181	-0.116	-0.191
-170.910	-17.446	-0.076	0.047
-169.896	-12.624	0.192	0.124
-168.881	26.392	-0.070	0.058
-167.866	-18.865	-0.092	-0.057
-166.852	-200.000	-0.040	-0.207
-165.837	-200.000	-0.017	0.150
-164.823	405.778	-0.041	0.085
-163.808	-200.000	0.015	-0.103
-162.793	800.000	0.024	0.089
-161.779	177.010	0.079	-0.113
-160.764	800.000	-0.110	0.376
-159.750	308.722	0.073	0.135
-158.735	-97.654	-0.154	0.039
-157.720	244.673	-0.138	0.230
-156.706	-91.612	-0.344	0.097
-155.691	114.120	0.157	-0.188
-154.677	26.210	0.077	-0.064
-153.662	-62.639	-0.238	0.098
-152.647	183.851	0.176	0.258
-151.633	287.697	-0.237	0.424
-150.618	428.591	-0.118	0.251
-149.604	-200.000	0.037	0.204
-148.589	800.000	0.042	-0.127
-147.574	-200.000	-0.023	-0.333
-146.560	-71.500	-0.138	0.051
-145.545	-200.000	0.017	-0.104
-144.531	-145.872	0.110	0.010
-143.516	-100.190	0.277	0.068
-142.502	-66.027	0.444	-0.175
-141.487	190.309	0.031	0.046
-140.472	397.835	0.038	0.077
-139.458	-200.000	0.026	0.143
-138.443	-200.000	-0.094	0.431
-137.429	-170.297	-0.066	0.002
-136.414	-154.192	0.198	0.013
-135.399	-10.241	-0.140	0.092
-134.385	5.553	0.173	-0.126
-133.370	-119.780	0.431	-0.073
-132.356	65.196	0.054	0.054
-131.341	658.724	-0.065	-0.164
-130.326	-115.807	0.071	-0.013
-129.312	768.997	0.024	-0.065
-128.297	359.276	0.086	-0.170
-127.283	-200.000	-0.032	0.232
-126.268	-89.368	0.058	0.017
-125.253	-121.960	-0.081	-0.013
-124.239	-36.465	-0.129	0.069
-123.224	800.000	0.014	-0.043
-122.210	429.896	-0.031	-0.067
-121.195	383.259	-0.152	0.308
-120.180	314.792	0.118	-0.220
