DTS Sentinel unit serial number:	SN413079Multiplexer serial number:	ORYXHardware model number:	OX4-SRSoftware version number:	ORYX F/W v4.00 Oryx Data Collector v3.7.2.0data status	okinstallation	princeton_trtdifferential loss correction	single-endedforward channel	channel 3reverse channel	N/Adate	2019/09/19time	07:12:35forward acquisition time	60.00reverse acquisition time	0.00gamma	496.2192k internal	0.2348k external	0.2348temperature offset calibration	0.9985default loss term (dB/km)	0.3790temperature slope calibration	1.0000multiplexer offset coefficient	1.0000multiplexer slope coefficient	1.0000fibre end	0.00T internal ref (°C)	19.06T ext. ref 1 (°C)	0.56T ext. ref 2 (°C)	13.32length (m)	temperature (°C)	Stokes	anti-Stokes-747.200	-200.000	-0.028	0.252
-746.185	0.508	0.123	-0.088
-745.171	800.000	0.046	0.131
-744.156	-35.513	-0.293	0.159
-743.142	467.231	-0.070	0.156
-742.127	134.066	-0.293	0.380
-741.112	184.216	0.067	-0.099
-740.098	-125.955	-0.244	0.037
-739.083	702.743	-0.055	-0.146
-738.069	-43.925	-0.268	0.135
-737.054	712.435	-0.107	0.282
-736.039	800.000	0.047	0.172
-735.025	-141.422	0.032	0.003
-734.010	122.945	0.101	-0.126
-732.996	-25.231	-0.332	-0.196
-731.981	800.000	0.070	-0.235
-730.966	-133.194	-0.148	0.019
-729.952	800.000	0.072	-0.200
-728.937	-102.102	-0.136	-0.033
-727.923	538.061	0.054	-0.127
-726.908	25.117	0.078	-0.065
-725.894	-200.000	0.041	-0.353
-724.879	-143.958	0.231	-0.022
-723.864	41.676	0.171	-0.154
-722.850	-41.015	-0.234	-0.121
-721.835	193.403	0.039	-0.060
-720.821	-116.951	0.430	0.078
-719.806	-50.449	-0.185	-0.087
-718.791	127.062	0.121	-0.153
-717.777	-2.525	0.091	-0.064
-716.762	139.437	0.035	0.046
-715.748	-102.639	-0.201	0.048
-714.733	189.202	-0.222	-0.332
-713.718	-132.009	-0.261	-0.034
-712.704	-200.000	0.021	-0.349
-711.689	115.246	0.231	-0.282
-710.675	-50.219	0.107	0.051
-709.660	-91.118	0.182	-0.052
-708.645	-200.000	-0.026	-0.204
-707.631	50.239	-0.178	-0.167
-706.616	14.968	-0.108	-0.085
-705.602	109.684	0.223	0.267
-704.587	-200.000	-0.081	0.446
-703.572	-178.680	0.096	-0.002
-702.558	-200.000	0.030	0.204
-701.543	-120.026	-0.199	-0.034
-700.529	152.894	-0.156	-0.213
-699.514	33.447	0.126	-0.109
-698.499	-53.542	-0.353	0.161
-697.485	65.714	-0.262	0.264
-696.470	717.396	0.083	0.219
-695.456	-44.111	-0.289	0.145
-694.441	-200.000	0.004	0.236
-693.426	-104.779	0.203	-0.047
-692.412	58.896	0.055	0.054
-691.397	-200.000	0.006	-0.028
-690.383	588.016	0.034	0.083
-689.368	-141.676	-0.202	0.020
-688.354	220.419	-0.196	0.313
-687.339	2.323	-0.093	-0.067
-686.324	-26.292	-0.302	-0.177
-685.310	-55.288	-0.218	0.098
-684.295	32.818	0.091	-0.079
-683.281	-200.000	0.017	0.099
-682.266	-88.117	0.110	0.033
-681.251	800.000	0.062	0.186
-680.237	-129.581	-0.086	-0.012
-679.222	-200.000	-0.024	0.551
-678.208	778.548	0.034	0.094
-677.193	-110.543	0.043	0.009
-676.178	-88.246	-0.215	0.064
-675.164	800.000	-0.097	-0.354
-674.149	-122.443	-0.189	0.031
-673.135	120.069	-0.105	0.129
-672.120	-172.733	0.129	-0.004
-671.105	-102.835	0.188	0.045
-670.091	-200.000	-0.013	0.312
-669.076	-52.668	-0.096	-0.044
-668.062	800.000	0.040	0.115
-667.047	-93.070	0.274	-0.076
-666.032	67.330	-0.138	0.140
-665.018	-64.191	-0.093	-0.038
-664.003	278.943	0.103	0.184
-662.989	-142.689	0.383	0.037
-661.974	-101.597	-0.137	-0.033
-660.959	-200.000	0.046	0.352
-659.945	121.923	0.084	0.104
-658.930	-164.846	0.169	-0.008
-657.916	69.024	-0.167	-0.171
-656.901	294.282	-0.097	-0.177
-655.886	47.664	0.132	0.123
-654.872	122.257	0.138	-0.171
-653.857	-10.082	-0.121	-0.080
-652.843	21.936	-0.437	0.354
-651.828	-200.000	0.014	-0.251
-650.814	107.954	-0.021	0.025
-649.799	21.865	0.217	0.176
-648.784	72.513	-0.235	-0.244
-647.770	-200.000	-0.051	0.330
-646.755	87.908	0.061	0.068
-645.741	-6.733	0.036	-0.024
-644.726	-200.000	0.056	0.332
-643.711	-178.867	-0.243	-0.005
-642.697	188.803	0.079	0.118
-641.682	-200.000	0.045	0.198
-640.668	-152.160	-0.049	-0.004
-639.653	-21.714	-0.257	0.156
-638.638	-141.654	0.295	0.030
-637.624	173.833	-0.118	0.169
-636.609	0.532	-0.298	-0.212
-635.595	-60.247	-0.390	-0.165
-634.580	-103.150	-0.216	0.051
-633.565	-200.000	-0.013	-0.207
-632.551	-95.503	-0.090	0.024
-631.536	245.619	-0.157	0.264
-630.522	119.623	0.135	0.167
-629.507	128.791	0.030	-0.038
-628.492	24.166	0.106	0.087
-627.478	60.919	-0.099	0.098
-626.463	10.557	-0.216	0.163
-625.449	-74.555	-0.172	-0.061
-624.434	3.973	-0.121	-0.088
-623.419	33.158	-0.131	-0.113
-622.405	101.194	0.221	-0.256
-621.390	62.679	-0.099	0.098
-620.376	-200.000	0.023	0.128
-619.361	-39.969	0.244	0.126
-618.346	240.829	0.209	0.347
-617.332	-62.878	-0.124	-0.051
-616.317	-200.000	-0.005	0.093
-615.303	472.490	-0.155	0.348
-614.288	428.265	0.170	0.365
-613.273	66.582	0.159	0.160
-612.259	-200.000	0.004	-0.125
-611.244	-80.754	0.151	-0.050
-610.230	-85.402	-0.154	0.048
-609.215	-79.962	0.188	-0.063
-608.201	177.087	-0.212	0.307
-607.186	-132.240	-0.156	0.020
-606.171	-66.160	0.239	0.095
-605.157	-200.000	0.032	0.186
-604.142	12.263	0.157	-0.120
-603.128	271.630	-0.114	-0.200
-602.113	-200.000	-0.064	-0.414
-601.098	-100.276	0.290	0.072
-600.084	350.257	0.211	-0.415
-599.069	-57.038	0.137	0.060
-598.055	401.037	-0.069	-0.144
-597.040	-138.995	-0.219	-0.024
-596.025	101.367	-0.150	-0.173
-595.011	210.908	0.215	-0.336
-593.996	-41.607	-0.273	0.139
-592.982	256.613	0.017	0.030
-591.967	-105.940	-0.213	-0.048
-590.952	-82.683	-0.108	-0.035
-589.938	800.000	-0.054	-0.171
-588.923	285.926	0.049	-0.087
-587.909	520.624	0.040	-0.092
-586.894	-200.000	0.006	0.060
-585.879	800.000	-0.029	-0.089
-584.865	163.465	-0.029	0.040
-583.850	230.458	-0.225	-0.365
-582.836	-116.319	0.191	-0.035
-581.821	169.224	0.169	-0.239
-580.806	144.500	-0.149	-0.197
-579.792	105.715	-0.146	0.172
-578.777	626.610	-0.063	0.158
-577.763	-200.000	-0.034	-0.169
-576.748	182.639	0.185	-0.271
-575.733	449.499	-0.096	-0.211
-574.719	800.000	0.035	0.151
-573.704	-85.030	0.100	-0.031
-572.690	-200.000	-0.025	0.114
-571.675	-69.520	-0.125	-0.047
-570.661	27.400	-0.228	0.190
-569.646	-39.608	0.342	0.178
-568.631	800.000	-0.082	0.330
-567.617	-29.177	-0.125	-0.071
-566.602	800.000	-0.024	-0.097
-565.588	-96.861	-0.480	-0.125
-564.573	90.273	0.363	-0.403
-563.558	126.370	-0.071	-0.089
-562.544	-98.731	-0.194	-0.049
-561.529	505.196	0.090	0.208
-560.515	-91.330	-0.211	0.060
-559.500	-17.483	-0.097	0.061
-558.485	-33.765	-0.219	-0.120
-557.471	-200.000	0.020	0.188
-556.456	800.000	0.135	-0.444
-555.442	144.109	0.163	0.216
-554.427	-169.419	0.151	-0.005
-553.412	-113.682	-0.248	-0.048
-552.398	-39.642	0.062	-0.032
-551.383	-122.181	-0.130	-0.021
-550.369	800.000	-0.049	-0.198
-549.354	371.277	0.150	-0.303
-548.339	442.596	-0.041	-0.089
-547.325	-175.597	-0.183	0.005
-546.310	800.000	-0.093	-0.282
-545.296	41.868	-0.080	0.072
-544.281	-132.027	0.177	-0.023
-543.266	-200.000	-0.031	0.157
-542.252	-120.676	-0.246	0.041
-541.237	475.471	-0.136	0.305
-540.223	210.904	0.053	0.082
-539.208	-167.913	-0.022	-0.001
-538.193	-200.000	-0.038	0.326
-537.179	800.000	0.054	-0.170
-536.164	182.643	-0.026	0.038
-535.150	-200.000	0.047	0.269
-534.135	-192.076	-0.234	-0.002
-533.121	238.524	0.156	-0.257
-532.106	127.430	0.032	-0.040
-531.091	520.623	-0.091	0.211
-530.077	0.043	0.286	-0.202
-529.062	245.454	-0.130	0.216
-528.048	-162.226	0.087	0.004
-527.033	-200.000	0.042	-0.249
-526.018	66.093	-0.088	0.088
-525.004	-27.869	-0.133	-0.077
-523.989	-45.207	0.050	0.025
-522.975	-18.461	-0.159	-0.098
-521.960	-129.946	0.275	0.037
-520.945	-200.000	0.071	-0.378
-519.931	800.000	0.067	-0.212
-518.916	9.832	-0.141	-0.106
-517.902	-89.228	0.200	-0.059
-516.887	-52.262	-0.141	-0.065
-515.872	35.199	0.231	0.200
-514.858	-44.484	0.245	0.122
-513.843	270.220	0.134	-0.233
-512.829	-91.158	-0.121	0.034
-511.814	800.000	-0.078	0.322
-510.799	297.177	-0.120	0.217
-509.785	96.353	0.106	0.120
-508.770	-7.657	-0.505	-0.338
-507.756	-200.000	-0.008	-0.051
-506.741	800.000	0.090	0.300
-505.726	-22.655	0.139	0.083
-504.712	64.472	-0.165	-0.164
-503.697	-36.183	-0.057	0.030
-502.683	-32.890	0.390	0.214
-501.668	305.997	-0.069	-0.127
-500.653	-200.000	-0.001	0.175
-499.639	84.249	-0.193	-0.208
-498.624	-115.580	0.317	0.059
-497.610	624.102	-0.089	0.221
-496.595	59.829	-0.197	0.192
-495.581	18.103	0.104	-0.082
-494.566	-12.878	0.165	0.106
-493.551	197.854	-0.042	-0.064
-492.537	-60.638	0.104	0.044
-491.522	-200.000	-0.005	-0.186
-490.508	800.000	-0.074	-0.228
-489.493	492.829	0.010	-0.023
-488.478	110.825	-0.150	-0.178
-487.464	-200.000	0.021	-0.128
-486.449	-200.000	-0.008	-0.099
-485.435	22.079	0.195	0.157
-484.420	-146.931	0.263	-0.022
-483.405	-200.000	-0.076	-0.365
-482.391	1.676	0.437	-0.311
-481.376	-19.639	-0.499	-0.305
-480.362	-200.000	0.028	-0.219
-479.347	-200.000	-0.030	-0.274
-478.332	-147.599	-0.164	-0.014
-477.318	-86.384	0.078	0.024
-476.303	29.217	-0.229	-0.192
-475.289	663.549	-0.051	0.131
-474.274	-120.210	0.295	-0.050
-473.259	-87.301	0.177	0.053
-472.245	180.060	0.200	-0.290
-471.230	-200.000	-0.012	-0.140
-470.216	-114.488	-0.371	0.070
-469.201	-144.407	0.062	-0.006
-468.186	-76.957	0.472	0.163
-467.172	-200.000	-0.026	0.184
-466.157	449.424	0.113	0.246
-465.143	800.000	0.089	-0.370
-464.128	-200.000	0.017	0.239
-463.113	-200.000	-0.003	-0.060
-462.099	-88.698	0.203	-0.060
-461.084	-200.000	-0.009	0.040
-460.070	800.000	0.098	-0.288
-459.055	405.086	0.121	-0.251
-458.040	195.324	0.150	-0.225
-457.026	-151.057	0.192	-0.014
-456.011	800.000	0.055	0.174
-454.997	7.854	-0.071	-0.052
-453.982	-186.495	-0.233	0.003
-452.968	800.000	-0.073	0.207
-451.953	522.808	-0.091	0.212
-450.938	-41.314	0.236	-0.120
-449.924	361.368	0.134	-0.266
-448.909	-97.659	-0.063	0.016
-447.895	-151.415	-0.123	-0.009
-446.880	-180.014	0.205	-0.004
-445.865	346.248	-0.154	0.300
-444.851	56.231	-0.152	-0.146
-443.836	-39.724	0.083	-0.043
-442.822	-200.000	0.020	0.281
-441.807	-200.000	0.009	-0.312
-440.792	-5.705	0.127	-0.086
-439.778	-32.192	-0.331	0.182
-438.763	-139.805	0.255	-0.027
-437.749	-16.505	0.048	0.030
-436.734	-87.683	0.119	-0.035
-435.719	-170.868	0.127	-0.004
-434.705	54.222	-0.089	0.084
-433.690	163.523	0.097	-0.134
-432.676	-200.000	-0.019	0.141
-431.661	148.996	-0.095	-0.127
-430.646	-200.000	-0.022	0.103
-429.632	574.277	0.161	0.387
-428.617	93.768	0.164	-0.183
-427.603	340.725	0.185	-0.357
-426.588	487.324	0.142	-0.321
-425.573	-12.050	-0.136	0.088
-424.559	800.000	0.068	-0.197
-423.544	-62.206	-0.260	0.107
-422.530	509.749	-0.033	-0.076
-421.515	800.000	0.031	0.090
-420.500	-104.650	0.008	-0.002
-419.486	16.264	-0.186	0.145
-418.471	9.054	0.248	0.185
-417.457	-66.486	-0.211	-0.083
-416.442	593.561	0.035	-0.086
-415.428	62.731	0.169	0.166
-414.413	638.344	-0.079	-0.198
-413.398	-32.669	0.091	-0.050
-412.384	-26.473	-0.148	-0.086
-411.369	-200.000	0.022	0.334
-410.355	-97.283	0.133	-0.034
-409.340	180.639	0.078	-0.113
-408.325	118.180	-0.043	0.053
-407.311	-12.189	-0.275	0.178
-406.296	-26.746	0.469	-0.271
-405.282	-134.436	0.147	-0.018
-404.267	-69.920	-0.327	-0.123
-403.252	188.395	0.060	-0.088
-402.238	800.000	0.021	0.063
-401.223	86.239	-0.130	0.142
-400.209	-45.745	0.229	-0.112
-399.194	-181.601	-0.278	-0.005
-398.179	82.764	-0.204	-0.219
-397.165	316.634	-0.146	0.273
-396.150	-200.000	-0.010	0.141
-395.136	-154.379	-0.269	0.018
-394.121	-78.291	-0.081	-0.027
-393.106	97.963	0.110	-0.125
-392.092	-200.000	0.029	0.180
-391.077	39.903	-0.314	0.278
-390.063	-200.000	0.008	0.190
-389.048	800.000	0.058	-0.191
-388.033	-200.000	-0.019	0.133
-387.019	-69.158	0.182	-0.069
-386.004	-49.392	0.184	0.086
-384.990	-44.100	0.094	-0.047
-383.975	-156.289	-0.257	0.016
-382.960	800.000	-0.017	-0.058
-381.946	-56.550	0.071	0.031
-380.931	-75.958	0.237	0.083
-379.917	107.243	-0.149	-0.175
-378.902	153.039	0.116	0.157
-377.888	-118.475	0.258	0.045
-376.873	-158.680	-0.323	-0.018
-375.858	-138.340	-0.250	-0.027
-374.844	-21.538	0.109	-0.066
-373.829	178.454	0.158	-0.227
-372.815	-73.548	0.092	-0.033
-371.800	-200.000	-0.047	0.257
-370.785	-140.256	0.081	0.008
-369.771	280.078	0.068	-0.119
-368.756	-200.000	-0.062	0.285
-367.742	-98.600	0.348	0.088
-366.727	787.368	-0.053	0.143
-365.712	-135.893	-0.203	-0.024
-364.698	-49.678	-0.421	-0.197
-363.683	252.241	-0.028	0.047
-362.669	12.669	0.178	0.136
-361.654	437.109	-0.038	-0.082
-360.639	800.000	-0.082	0.264
-359.625	18.740	-0.488	0.385
-358.610	-163.023	0.392	-0.019
-357.596	-146.371	0.185	-0.016
-356.581	78.430	0.267	-0.281
-355.566	-181.723	0.196	-0.004
-354.552	-125.521	-0.052	0.008
-353.537	125.445	0.220	0.273
-352.523	2.120	-0.208	-0.148
-351.508	-90.349	0.378	-0.108
-350.493	-200.000	-0.056	0.360
-349.479	-5.129	-0.075	-0.051
-348.464	-200.000	-0.036	0.183
-347.450	-22.909	0.089	-0.053
-346.435	189.253	0.073	-0.108
-345.420	-19.074	-0.075	-0.046
-344.406	120.065	0.311	0.379
-343.391	-86.155	-0.256	-0.078
-342.377	691.845	-0.043	-0.111
-341.362	-95.224	0.094	-0.025
-340.348	292.731	0.118	0.212
-339.333	-200.000	0.008	0.148
-338.318	-117.037	-0.067	-0.012
-337.304	800.000	0.077	0.241
-336.289	10.176	0.113	-0.085
-335.275	292.846	0.130	0.234
-334.260	800.000	0.088	-0.265
-333.245	800.000	-0.120	-0.359
-332.231	296.330	0.032	0.058
-331.216	-200.000	-0.049	0.245
-330.202	-155.974	-0.110	0.007
-329.187	339.896	-0.116	-0.223
-328.172	106.644	0.136	-0.159
-327.158	-175.146	0.261	0.007
-326.143	-102.441	-0.117	-0.028
-325.129	-173.086	-0.285	-0.009
-324.114	-62.367	0.579	-0.237
-323.099	133.276	-0.190	0.242
-322.085	800.000	0.064	-0.253
-321.070	-28.399	-0.125	-0.071
-320.056	-111.712	0.166	0.033
-319.041	-200.000	0.014	-0.114
-318.026	308.865	-0.145	0.265
-317.012	134.692	0.023	0.029
-315.997	-177.859	0.265	0.006
-314.983	-89.757	-0.251	0.072
-313.968	89.378	0.260	0.284
-312.953	272.744	-0.085	-0.148
-311.939	-8.259	0.097	0.064
-310.924	-104.894	0.185	-0.042
-309.910	-71.016	-0.207	-0.077
-308.895	477.356	-0.089	0.198
-307.880	50.824	0.107	0.100
-306.866	2.475	-0.192	-0.136
-305.851	-38.765	0.241	0.125
-304.837	2.937	0.245	0.174
-303.822	298.386	-0.130	-0.236
-302.807	-143.465	0.225	0.021
-301.793	-200.000	0.018	-0.117
-300.778	-200.000	-0.009	0.045
-299.764	69.851	0.146	-0.147
-298.749	-200.000	-0.080	0.344
-297.735	-85.023	0.497	-0.153
-296.720	-94.705	-0.191	0.051
-295.705	118.710	0.120	0.145
-294.691	-137.609	0.295	0.033
-293.676	25.683	-0.115	-0.094
-292.662	800.000	-0.066	-0.197
-291.647	368.707	-0.167	-0.331
-290.632	21.463	-0.152	0.121
-289.618	-138.113	-0.164	0.018
-288.603	56.789	-0.174	0.167
-287.589	-45.760	0.145	0.070
-286.574	40.345	-0.266	-0.235
-285.559	-96.959	0.245	-0.063
-284.545	-111.763	-0.038	-0.008
-283.530	329.950	-0.167	0.315
-282.516	-118.715	0.172	-0.030
-281.501	-100.206	0.037	-0.009
-280.486	-200.000	-0.006	0.172
-279.472	-181.236	-0.068	-0.001
-278.457	-80.607	0.322	-0.105
-277.443	343.123	-0.133	-0.256
-276.428	-118.259	-0.128	0.022
-275.413	179.843	0.222	0.319
-274.399	-200.000	-0.050	0.248
-273.384	-169.790	-0.509	0.018
-272.370	-64.383	0.141	0.056
-271.355	-188.399	-0.315	0.004
-270.340	466.058	0.096	-0.212
-269.326	233.879	0.061	0.099
-268.311	20.204	0.234	-0.185
-267.297	800.000	0.021	0.066
-266.282	-118.271	-0.143	0.025
-265.267	-200.000	-0.026	-0.146
-264.253	-94.238	-0.068	-0.018
-263.238	-200.000	0.028	-0.289
-262.224	-66.256	0.097	-0.038
-261.209	800.000	-0.059	-0.235
-260.195	800.000	-0.018	-0.072
-259.180	214.535	-0.095	0.147
-258.165	239.533	-0.097	-0.158
-257.151	-51.336	0.209	0.096
-256.136	55.113	-0.166	0.157
-255.122	-15.810	0.179	-0.112
-254.107	131.066	-0.163	0.205
-253.092	-12.665	-0.131	0.084
-252.078	-152.250	-0.038	0.003
-251.063	-119.032	0.107	0.018
-250.049	-119.518	-0.232	-0.039
-249.034	-134.054	-0.282	0.034
-248.019	-200.000	-0.033	0.176
-247.005	800.000	-0.078	0.214
-245.990	142.525	-0.140	0.182
-244.976	-200.000	0.084	0.414
-243.961	800.000	0.017	-0.072
-242.946	-200.000	0.003	-0.069
-241.932	152.112	-0.147	0.197
-240.917	-59.557	0.104	0.044
-239.903	-139.050	-0.045	-0.005
-238.888	249.307	-0.066	-0.110
-237.873	-21.571	0.197	0.118
-236.859	262.783	0.087	0.147
-235.844	24.962	-0.124	0.101
-234.830	-118.957	0.061	-0.011
-233.815	-200.000	-0.012	0.118
-232.800	-84.456	-0.344	0.106
-231.786	-127.856	-0.066	-0.009
-230.771	-42.562	-0.123	-0.061
-229.757	-200.000	0.077	0.347
-228.742	539.022	0.068	0.158
-227.727	334.225	0.093	-0.176
-226.713	-123.053	0.234	0.037
-225.698	800.000	-0.051	-0.139
-224.684	607.655	-0.073	0.178
-223.669	114.993	0.068	-0.082
-222.655	-2.452	0.129	0.089
-221.640	-200.000	-0.013	-0.300
-220.625	50.605	-0.130	0.120
-219.611	338.195	-0.135	0.258
-218.596	-88.945	-0.264	0.077
-217.582	168.808	0.172	0.240
-216.567	116.468	-0.316	0.380
-215.552	800.000	0.031	-0.094
-214.538	151.543	-0.167	-0.223
-213.523	179.067	0.058	0.083
-212.509	122.845	0.144	0.176
-211.494	-119.758	-0.425	-0.072
-210.479	403.361	-0.238	-0.490
-209.465	800.000	-0.029	0.084
-208.450	-161.529	0.086	0.004
-207.436	800.000	0.041	0.152
-206.421	-35.498	-0.112	-0.059
-205.406	274.623	0.156	0.271
-204.392	800.000	0.056	-0.209
-203.377	-79.588	-0.247	-0.082
-202.363	288.702	0.070	-0.125
-201.348	293.589	0.054	-0.097
-200.333	627.412	-0.048	-0.118
-199.319	-99.470	0.215	-0.053
-198.304	-200.000	-0.016	0.162
-197.290	287.045	0.082	0.145
-196.275	373.687	0.074	-0.147
-195.260	86.817	-0.027	-0.029
-194.246	-90.187	-0.214	0.061
-193.231	-200.000	0.064	0.298
-192.217	176.070	0.044	-0.062
-191.202	-75.552	-0.083	-0.029
-190.187	-79.497	0.237	0.078
-189.173	11.574	0.185	-0.139
-188.158	800.000	0.067	-0.210
-187.144	-104.140	0.437	0.099
-186.129	-200.000	0.077	-0.499
-185.114	-146.257	-0.313	-0.027
-184.100	749.023	-0.037	0.098
-183.085	-160.688	0.294	-0.015
-182.071	118.522	0.121	-0.146
-181.056	618.201	0.074	-0.181
-180.042	-200.000	-0.006	-0.093
-179.027	408.650	-0.047	0.096
-178.012	-200.000	-0.052	-0.433
-176.998	-200.000	-0.028	-0.289
-175.983	-10.828	-0.135	0.087
-174.969	102.021	0.115	0.131
-173.954	-200.000	-0.029	-0.224
-172.939	-132.223	-0.176	0.022
-171.925	157.397	0.093	0.126
-170.910	-133.465	0.115	0.014
-169.896	53.461	0.095	0.089
-168.881	175.746	-0.183	-0.260
-167.866	-32.995	0.324	-0.176
-166.852	-200.000	-0.051	-0.394
-165.837	-20.608	0.046	-0.028
-164.823	165.907	0.082	-0.113
-163.808	-97.723	-0.343	0.087
-162.793	-26.027	-0.067	-0.038
-161.779	91.926	0.050	0.055
-160.764	19.390	0.380	0.298
-159.750	-200.000	-0.023	0.246
-158.735	53.498	-0.473	-0.443
-157.720	-113.566	0.078	0.015
-156.706	-15.053	-0.111	0.069
-155.691	-5.143	0.181	0.121
-154.677	-200.000	-0.030	0.131
-153.662	-200.000	-0.027	0.148
-152.647	161.876	-0.282	0.386
-151.633	-115.627	0.298	0.055
-150.618	6.698	0.170	-0.124
-149.604	146.096	0.072	-0.094
-148.589	-200.000	0.015	-0.131
-147.574	-35.281	0.207	0.110
-146.560	-130.145	0.072	0.010
-145.545	57.623	0.161	-0.153
-144.531	82.578	-0.100	-0.106
-143.516	-58.346	-0.277	-0.118
-142.502	-200.000	0.035	-0.199
-141.487	-28.497	0.146	-0.082
-140.472	51.293	-0.321	0.297
-139.458	355.416	-0.081	0.158
-138.443	160.536	0.146	-0.199
-137.429	183.488	0.127	0.184
-136.414	-55.606	-0.061	-0.027
-135.399	-200.000	-0.033	-0.293
-134.385	-80.017	-0.199	-0.065
-133.370	800.000	-0.078	0.264
-132.356	-84.652	0.343	0.106
-131.341	77.189	-0.118	-0.122
-130.326	-200.000	-0.049	-0.291
-129.312	-134.532	0.157	0.019
-128.297	16.775	-0.118	0.091
-127.283	800.000	-0.079	-0.243
-126.268	800.000	0.096	-0.319
-125.253	185.992	-0.070	-0.102
-124.239	33.575	-0.216	-0.183
-123.224	-11.588	-0.113	0.072
-122.210	-105.835	-0.027	-0.006
