DTS Sentinel unit serial number:	SN413079Multiplexer serial number:	ORYXHardware model number:	OX4-SRSoftware version number:	ORYX F/W v4.00 Oryx Data Collector v3.7.2.0data status	okinstallation	princeton_trtdifferential loss correction	single-endedforward channel	channel 3reverse channel	N/Adate	2019/09/16time	20:52:35forward acquisition time	60.00reverse acquisition time	0.00gamma	496.2192k internal	0.2325k external	0.2325temperature offset calibration	0.9934default loss term (dB/km)	0.3790temperature slope calibration	1.0000multiplexer offset coefficient	1.0000multiplexer slope coefficient	1.0000fibre end	0.00T internal ref (°C)	32.19T ext. ref 1 (°C)	0.06T ext. ref 2 (°C)	25.56length (m)	temperature (°C)	Stokes	anti-Stokes-747.200	-68.913	0.301	0.117
-746.185	-173.463	-0.255	0.008
-745.171	-14.586	-0.191	0.124
-744.156	252.985	-0.255	0.440
-743.142	-143.560	0.126	0.012
-742.127	-34.438	-0.202	0.111
-741.112	1.771	0.252	-0.183
-740.098	800.000	0.056	0.177
-739.083	49.291	0.230	0.218
-738.069	143.378	-0.257	0.345
-737.054	1.694	-0.263	-0.191
-736.039	-41.695	-0.133	-0.069
-735.025	-46.881	0.273	0.134
-734.010	71.352	-0.097	0.102
-732.996	126.414	-0.113	-0.145
-731.981	393.636	-0.022	0.046
-730.966	-200.000	0.011	0.134
-729.952	-38.533	-0.207	0.110
-728.937	800.000	-0.013	0.049
-727.923	371.790	-0.056	-0.116
-726.908	-11.532	0.148	-0.098
-725.894	-90.853	-0.305	-0.088
-724.879	77.496	0.200	-0.215
-723.864	19.873	0.208	-0.169
-722.850	-200.000	-0.002	0.217
-721.835	312.756	-0.210	0.398
-720.821	-200.000	0.034	-0.401
-719.806	77.092	-0.122	-0.131
-718.791	-81.191	-0.182	-0.061
-717.777	800.000	-0.084	0.248
-716.762	197.648	-0.340	0.523
-715.748	54.638	-0.033	-0.032
-714.733	-71.670	0.319	0.120
-713.718	-200.000	-0.006	0.064
-712.704	177.278	0.030	0.044
-711.689	18.478	0.084	0.068
-710.675	800.000	-0.073	-0.235
-709.660	397.897	-0.071	-0.151
-708.645	124.650	-0.089	0.113
-707.631	204.563	0.067	-0.105
-706.616	800.000	-0.045	0.180
-705.602	-67.334	0.104	-0.041
-704.587	-200.000	0.029	-0.276
-703.572	-200.000	-0.006	0.350
-702.558	-200.000	-0.023	-0.152
-701.543	-200.000	-0.017	0.261
-700.529	515.538	0.170	0.400
-699.514	280.107	0.024	-0.042
-698.499	-74.658	0.157	-0.057
-697.485	162.397	-0.138	-0.195
-696.470	469.234	0.039	-0.088
-695.456	-200.000	-0.063	0.322
-694.441	573.828	0.092	-0.226
-693.426	-200.000	-0.017	0.111
-692.412	-68.262	0.055	-0.022
-691.397	-200.000	0.023	-0.373
-690.383	286.314	-0.034	0.062
-689.368	447.109	-0.090	0.200
-688.354	-97.873	0.404	-0.105
-687.339	34.263	0.137	0.120
-686.324	332.183	0.001	0.002
-685.310	-127.313	-0.128	-0.019
-684.295	-175.265	0.394	-0.011
-683.281	-77.515	0.086	-0.030
-682.266	-59.674	-0.081	0.035
-681.251	-6.629	0.173	-0.118
-680.237	-107.034	-0.266	0.059
-679.222	-76.038	-0.127	0.045
-678.208	-200.000	0.032	-0.359
-677.193	-200.000	-0.161	-0.001
-676.178	584.551	-0.116	0.286
-675.164	23.661	0.301	0.249
-674.149	-135.153	-0.023	-0.003
-673.135	-115.057	-0.121	0.023
-672.120	-200.000	0.021	0.243
-671.105	-51.041	-0.058	0.028
-670.091	77.665	-0.173	0.185
-669.076	-200.000	-0.014	-0.205
-668.062	-4.785	0.253	-0.176
-667.047	118.257	-0.160	0.198
-666.032	-200.000	0.003	0.080
-665.018	-200.000	0.013	-0.318
-664.003	-70.141	-0.080	0.031
-662.989	42.608	0.151	0.138
-661.974	-73.372	-0.233	0.086
-660.959	-65.081	0.153	-0.062
-659.945	351.936	-0.094	0.187
-658.930	494.991	-0.145	0.335
-657.916	-84.059	-0.182	0.058
-656.901	499.063	-0.106	-0.245
-655.886	-126.008	0.236	-0.036
-654.872	-14.635	-0.279	0.181
-653.857	170.573	0.211	0.304
-652.843	67.827	-0.057	-0.059
-651.828	800.000	-0.121	-0.460
-650.814	100.944	0.115	-0.135
-649.799	-59.371	-0.195	-0.084
-648.784	-58.191	-0.112	-0.049
-647.770	142.495	0.112	0.149
-646.755	16.216	-0.136	0.107
-645.741	800.000	0.019	-0.055
-644.726	149.426	-0.123	0.167
-643.711	-53.604	-0.253	0.116
-642.697	-128.116	-0.127	-0.018
-641.682	-52.257	0.230	0.107
-640.668	764.233	-0.037	-0.102
-639.653	373.218	-0.070	-0.142
-638.638	-131.264	0.161	-0.021
-637.624	800.000	-0.037	-0.121
-636.609	-19.676	0.151	-0.094
-635.595	-200.000	-0.057	-0.379
-634.580	505.005	-0.100	0.233
-633.565	-200.000	0.001	0.043
-632.551	-136.922	-0.084	0.010
-631.536	-125.393	0.118	0.018
-630.522	800.000	0.055	0.229
-629.507	300.932	0.026	-0.048
-628.492	38.984	0.075	-0.067
-627.478	393.710	-0.139	-0.290
-626.463	-143.485	0.095	0.009
-625.449	-143.023	0.095	0.009
-624.434	145.417	0.102	0.137
-623.419	800.000	-0.082	-0.337
-622.405	-103.349	0.205	-0.048
-621.390	349.744	0.169	0.335
-620.376	800.000	0.049	-0.164
-619.361	119.628	-0.242	0.301
-618.346	800.000	-0.078	0.271
-617.332	727.886	0.103	-0.277
-616.317	800.000	0.067	-0.214
-615.303	-27.162	-0.111	0.065
-614.288	210.064	0.091	-0.143
-613.273	-200.000	-0.069	-0.382
-612.259	-25.475	0.154	0.091
-611.244	-41.951	-0.339	-0.174
-610.230	-200.000	-0.019	0.129
-609.215	800.000	-0.078	-0.296
-608.201	147.677	0.102	0.138
-607.186	-72.224	-0.150	0.056
-606.171	-53.641	-0.198	-0.091
-605.157	-58.471	-0.181	0.079
-604.142	-101.002	-0.173	-0.042
-603.128	37.115	0.090	0.080
-602.113	-61.217	-0.325	0.138
-601.098	207.525	0.111	-0.173
-600.084	-136.841	0.146	-0.017
-599.069	-158.380	0.139	-0.008
-598.055	-30.530	-0.243	0.138
-597.040	-78.406	-0.378	-0.130
-596.025	82.706	-0.214	-0.233
-595.011	600.129	0.059	0.148
-593.996	-140.900	0.199	0.021
-592.982	-78.559	0.307	0.105
-591.967	-200.000	-0.021	0.604
-590.952	195.011	-0.207	0.315
-589.938	171.816	-0.067	-0.096
-588.923	-186.655	-0.056	0.001
-587.909	110.004	0.190	-0.229
-586.894	800.000	0.149	-0.420
-585.879	339.580	-0.192	0.375
-584.865	317.024	0.089	0.168
-583.850	-129.698	-0.249	0.034
-582.836	119.173	0.092	0.114
-581.821	-144.100	0.168	-0.016
-580.806	130.214	0.086	0.111
-579.792	35.123	0.159	0.140
-578.777	800.000	0.098	-0.401
-577.763	-56.599	-0.262	0.116
-576.748	-200.000	0.025	0.123
-575.733	-83.257	-0.127	-0.041
-574.719	-50.668	-0.122	-0.057
-573.704	-104.028	0.068	-0.016
-572.690	-43.759	0.112	-0.057
-571.675	-133.679	-0.299	-0.037
-570.661	-138.093	0.155	-0.017
-569.646	76.971	0.137	0.145
-568.631	459.861	0.137	0.305
-567.617	26.997	0.167	0.141
-566.602	51.535	-0.226	0.216
-565.588	-200.000	0.011	-0.083
-564.573	429.171	0.070	-0.153
-563.558	-200.000	0.023	0.279
-562.544	-200.000	0.047	0.226
-561.529	-139.760	-0.153	-0.016
-560.515	-200.000	0.052	-0.283
-559.500	173.638	0.073	0.106
-558.485	86.409	-0.140	0.154
-557.471	-101.368	-0.094	-0.023
-556.456	-200.000	-0.027	-0.215
-555.442	324.829	-0.130	-0.248
-554.427	-135.833	-0.299	0.035
-553.412	-30.871	-0.039	0.022
-552.398	-162.558	-0.316	0.016
-551.383	-39.769	-0.048	0.025
-550.369	66.307	-0.143	-0.145
-549.354	-20.738	0.311	-0.191
-548.339	36.337	-0.241	-0.213
-547.325	-111.705	0.475	0.096
-546.310	133.456	-0.107	-0.138
-545.296	31.816	0.133	-0.115
-544.281	-200.000	0.017	-0.083
-543.266	-66.914	-0.152	-0.060
-542.252	47.052	0.198	0.184
-541.237	800.000	-0.128	-0.408
-540.223	-41.393	0.390	-0.201
-539.208	800.000	0.011	-0.040
-538.193	-200.000	-0.017	-0.078
-537.179	85.996	0.268	0.295
-536.164	210.669	0.127	0.199
-535.150	-9.552	0.252	-0.168
-534.135	66.522	-0.081	-0.082
-533.121	800.000	-0.051	0.218
-532.106	400.937	0.137	0.288
-531.091	-200.000	0.003	0.299
-530.077	800.000	-0.038	-0.144
-529.062	800.000	-0.047	-0.144
-528.048	-200.000	0.016	-0.165
-527.033	678.191	-0.037	0.096
-526.018	800.000	-0.037	0.117
-525.004	-76.958	0.265	-0.093
-523.989	-200.000	0.003	-0.341
-522.975	747.489	0.042	0.114
-521.960	139.388	0.265	0.348
-520.945	-34.991	-0.093	0.051
-519.931	35.203	0.236	-0.207
-518.916	73.191	-0.267	0.279
-517.902	-40.568	0.369	-0.192
-516.887	800.000	-0.119	0.358
-515.872	27.125	-0.334	-0.280
-514.858	322.459	0.121	0.231
-513.843	179.178	0.087	-0.127
-512.829	426.896	0.015	-0.033
-511.814	-48.725	-0.084	0.040
-510.799	224.873	-0.171	-0.276
-509.785	-43.927	-0.331	0.166
-508.770	-13.370	0.164	-0.106
-507.756	-75.049	-0.206	0.074
-506.741	-110.662	0.170	0.035
-505.726	106.781	-0.171	-0.202
-504.712	3.323	0.143	-0.104
-503.697	-200.000	0.005	-0.155
-502.683	42.259	-0.222	-0.201
-501.668	-200.000	-0.028	-0.211
-500.653	-48.620	0.178	-0.086
-499.639	-200.000	-0.018	-0.242
-498.624	745.186	-0.062	-0.166
-497.610	-85.849	-0.260	0.081
-496.595	800.000	-0.076	0.282
-495.581	-119.586	-0.118	0.020
-494.566	-123.656	-0.266	0.042
-493.551	800.000	0.138	0.477
-492.537	8.513	0.148	-0.111
-491.522	-42.935	-0.089	0.045
-490.508	197.301	-0.185	0.282
-489.493	-200.000	-0.044	-0.241
-488.478	102.572	-0.187	0.219
-487.464	473.867	-0.116	0.262
-486.449	133.630	0.096	-0.123
-485.435	-100.584	-0.135	0.033
-484.420	-200.000	-0.023	-0.432
-483.405	-116.872	-0.152	-0.028
-482.391	-200.000	-0.016	0.211
-481.376	50.393	-0.211	-0.199
-480.362	-68.564	0.058	-0.023
-479.347	-200.000	0.007	0.265
-478.332	-62.179	-0.293	-0.122
-477.318	-200.000	0.042	-0.187
-476.303	172.755	-0.173	-0.249
-475.289	61.773	0.067	0.066
-474.274	100.901	-0.102	-0.118
-473.259	-200.000	-0.009	0.192
-472.245	199.872	-0.114	0.174
-471.230	81.427	0.162	-0.175
-470.216	200.171	-0.135	0.207
-469.201	-118.150	-0.237	0.042
-468.186	-6.298	-0.146	-0.100
-467.172	35.630	-0.452	0.397
-466.157	37.225	-0.053	0.047
-465.143	-6.725	-0.357	0.243
-464.128	-139.649	0.340	0.036
-463.113	-200.000	-0.060	0.301
-462.099	-68.299	0.382	-0.148
-461.084	59.306	-0.082	-0.081
-460.070	-11.759	-0.222	0.146
-459.055	800.000	0.072	0.287
-458.040	800.000	0.039	-0.161
-457.026	-53.759	-0.311	-0.141
-456.011	-21.002	0.226	-0.138
-454.997	71.946	-0.290	0.301
-453.982	-54.616	-0.105	0.047
-452.968	22.330	-0.294	-0.240
-451.953	332.710	0.110	0.211
-450.938	800.000	-0.029	0.103
-449.924	-84.433	-0.306	-0.096
-448.909	-31.723	-0.007	0.004
-447.895	-115.081	-0.210	0.040
-446.880	140.739	-0.214	-0.281
-445.865	17.641	0.269	0.213
-444.851	183.605	0.189	0.279
-443.836	405.313	-0.105	-0.221
-442.822	-42.037	-0.047	0.024
-441.807	-16.113	-0.187	0.119
-440.792	75.361	0.136	-0.143
-439.778	213.917	0.143	0.226
-438.763	33.271	0.218	0.189
-437.749	-200.000	0.053	-0.316
-436.734	81.733	0.256	-0.277
-435.719	30.570	0.269	-0.230
-434.705	-200.000	0.005	0.149
-433.690	161.858	-0.077	0.107
-432.676	774.480	-0.047	-0.129
-431.661	-158.666	0.125	0.007
-430.646	-200.000	0.028	0.281
-429.632	-62.831	-0.209	-0.086
-428.617	-200.000	-0.034	0.284
-427.603	-200.000	-0.006	-0.026
-426.588	-200.000	-0.009	-0.161
-425.573	182.633	-0.208	-0.306
-424.559	-106.449	-0.256	-0.057
-423.544	-200.000	0.001	0.296
-422.530	-121.659	0.301	-0.050
-421.515	315.634	-0.120	0.225
-420.500	-36.425	-0.211	-0.113
-419.486	144.027	-0.195	0.259
-418.471	-33.321	-0.233	0.129
-417.457	240.434	-0.104	0.172
-416.442	366.549	-0.084	-0.170
-415.428	14.738	0.299	-0.233
-414.413	337.725	-0.281	0.544
-413.398	143.994	0.104	0.138
-412.384	-109.026	0.296	-0.063
-411.369	-151.253	0.312	-0.023
-410.355	94.080	-0.220	-0.248
-409.340	678.660	-0.175	-0.454
-408.325	547.069	-0.153	-0.364
-407.311	-125.613	-0.493	-0.075
-406.296	-44.199	0.180	0.090
-405.282	334.773	-0.236	-0.455
-404.267	-67.662	-0.228	-0.089
-403.252	21.734	-0.272	-0.220
-402.238	-200.000	0.005	-0.215
-401.223	300.412	0.121	0.221
-400.209	-87.072	-0.409	-0.124
-399.194	-200.000	-0.047	0.266
-398.179	-200.000	0.011	-0.065
-397.165	430.207	0.068	0.147
-396.150	179.439	0.099	-0.145
-395.136	-102.999	0.259	-0.061
-394.121	110.191	-0.245	0.293
-393.106	226.736	-0.161	0.260
-392.092	-200.000	-0.003	-0.170
-391.077	124.481	0.176	-0.221
-390.063	-200.000	-0.006	-0.234
-389.048	135.006	0.333	-0.430
-388.033	30.859	0.031	0.026
-387.019	211.684	-0.107	0.168
-386.004	155.822	0.151	0.207
-384.990	4.456	0.140	0.102
-383.975	-33.886	0.144	-0.079
-382.960	-67.581	-0.184	-0.072
-381.946	-22.931	-0.119	-0.071
-380.931	-200.000	-0.025	-0.207
-379.917	234.253	0.214	-0.351
-378.902	62.945	0.304	0.303
-377.888	197.149	0.058	-0.088
-376.873	17.146	0.170	0.134
-375.858	-200.000	0.033	0.264
-374.844	-200.000	-0.028	-0.178
-373.829	268.228	-0.071	0.124
-372.815	-12.991	0.188	-0.121
-371.800	-116.727	0.243	-0.044
-370.785	-90.472	0.258	0.074
-369.771	-33.101	0.186	0.103
-368.756	739.326	-0.087	0.232
-367.742	-200.000	0.004	-0.048
-366.727	47.729	-0.208	-0.193
-365.712	-93.385	0.248	0.068
-364.698	179.557	-0.129	-0.188
-363.683	24.249	0.120	-0.098
-362.669	148.443	0.057	0.077
-361.654	-73.991	-0.265	0.096
-360.639	121.060	-0.162	-0.200
-359.625	-73.308	-0.220	-0.080
-358.610	-87.188	-0.057	-0.017
-357.596	130.912	0.190	-0.242
-356.581	373.144	0.115	-0.233
-355.566	97.686	0.081	-0.092
-354.552	60.005	0.260	0.256
-353.537	8.324	0.220	-0.164
-352.523	358.249	0.102	-0.202
-351.508	800.000	-0.150	-0.442
-350.493	9.014	-0.175	0.131
-349.479	98.142	0.134	-0.153
-348.464	-42.488	0.068	-0.034
-347.450	271.716	0.187	-0.328
-346.435	-80.044	-0.145	-0.048
-345.420	155.659	0.129	-0.176
-344.406	-200.000	-0.013	0.162
-343.391	-71.312	0.337	0.125
-342.377	439.588	-0.153	-0.332
-341.362	-148.269	-0.070	-0.006
-340.348	-200.000	-0.051	-0.401
-339.333	-144.926	0.395	-0.036
-338.318	-21.169	-0.078	-0.048
-337.304	111.016	-0.170	0.203
-336.289	-200.000	-0.001	-0.270
-335.275	90.136	-0.085	0.095
-334.260	251.235	0.079	-0.134
-333.245	25.764	-0.253	-0.209
-332.231	800.000	0.075	-0.307
-331.216	-31.612	0.103	0.057
-330.202	-200.000	-0.066	-0.392
-329.187	-200.000	0.093	0.503
-328.172	-200.000	0.003	0.062
-327.158	-94.151	-0.254	-0.069
-326.143	-89.160	-0.384	0.112
-325.129	65.146	0.217	-0.218
-324.114	800.000	-0.029	-0.106
-323.099	-145.328	-0.075	0.007
-322.085	-200.000	0.060	0.288
-321.070	141.372	0.119	0.157
-320.056	180.648	-0.116	-0.169
-319.041	-128.336	-0.132	0.019
-318.026	172.958	-0.072	-0.103
-317.012	800.000	0.052	0.144
-315.997	-48.524	0.109	-0.052
-314.983	800.000	0.089	-0.258
-313.968	-150.384	0.442	-0.034
-312.953	-61.707	-0.070	0.029
-311.939	-12.983	-0.211	0.136
-310.924	-8.073	0.354	0.237
-309.910	-140.722	0.231	0.024
-308.895	-200.000	-0.024	-0.144
-307.880	800.000	0.059	0.249
-306.866	-93.937	-0.068	0.018
-305.851	800.000	0.034	0.102
-304.837	800.000	-0.118	0.429
-303.822	26.733	-0.063	-0.053
-302.807	-112.190	0.178	0.035
-301.793	-145.559	-0.107	0.010
-300.778	-109.230	0.194	0.041
-299.764	-89.032	0.290	0.085
-298.749	-123.032	-0.126	-0.020
-297.735	595.109	-0.034	0.083
-296.720	390.297	0.185	0.381
-295.705	800.000	-0.036	0.142
-294.691	-49.882	0.287	-0.135
-293.676	-60.943	-0.323	-0.135
-292.662	-96.979	0.241	-0.063
-291.647	197.765	-0.039	0.058
-290.632	-54.298	0.133	-0.060
-289.618	-51.666	0.190	-0.088
-288.603	-38.728	0.269	-0.141
-287.589	88.129	-0.081	-0.090
-286.574	-26.608	0.255	0.148
-285.559	-93.959	0.261	-0.071
-284.545	800.000	0.097	-0.273
-283.530	-154.275	0.447	0.030
-282.516	114.414	-0.171	-0.206
-281.501	-200.000	-0.020	0.245
-280.486	-200.000	0.009	0.132
-279.472	-43.296	0.156	0.078
-278.457	-200.000	0.015	-0.227
-277.443	-200.000	0.011	0.158
-276.428	67.076	0.073	-0.073
-275.413	17.280	-0.111	-0.087
-274.399	-200.000	0.025	0.205
-273.384	-155.370	-0.151	0.010
-272.370	-151.392	0.070	-0.005
-271.355	357.260	0.084	-0.165
-270.340	800.000	0.127	-0.446
-269.326	483.387	-0.110	-0.249
-268.311	-10.900	0.062	0.041
-267.297	70.020	-0.119	-0.122
-266.282	207.779	0.185	0.286
-265.267	800.000	0.046	-0.131
-264.253	26.788	0.191	0.159
-263.238	-125.195	0.308	0.047
-262.224	125.715	0.085	-0.106
-261.209	140.708	0.247	-0.323
-260.195	9.944	0.207	-0.156
-259.180	-200.000	-0.021	0.132
-258.165	34.701	-0.124	-0.107
-257.151	-200.000	-0.037	0.310
-256.136	325.079	-0.146	0.276
-255.122	-200.000	0.047	-0.224
-254.107	83.169	0.255	0.275
-253.092	800.000	0.061	0.168
-252.078	-200.000	0.019	0.506
-251.063	-151.856	0.234	0.017
-250.049	-61.781	-0.122	-0.051
-249.034	207.103	-0.192	-0.296
-248.019	255.644	0.210	-0.357
-247.005	-200.000	-0.023	0.103
-245.990	279.427	-0.103	0.183
-244.976	800.000	0.095	0.307
-243.961	122.013	0.045	-0.055
-242.946	106.746	-0.010	0.012
-241.932	-137.903	-0.279	-0.031
-240.917	-33.617	-0.117	0.064
-239.903	-10.088	-0.260	-0.171
-238.888	-5.009	-0.194	-0.132
-237.873	238.175	0.171	-0.280
-236.859	-76.015	0.443	0.155
-235.844	-200.000	0.036	0.260
-234.830	800.000	-0.016	0.048
-233.815	75.807	0.110	-0.115
-232.800	-145.840	-0.239	0.021
-231.786	800.000	0.038	-0.151
-230.771	102.948	-0.178	0.206
-229.757	-200.000	0.052	0.392
-228.742	379.156	0.244	0.493
-227.727	800.000	0.070	0.246
-226.713	12.117	0.093	0.071
-225.698	317.852	0.141	-0.263
-224.684	56.850	0.196	-0.188
-223.669	205.070	-0.014	0.021
-222.655	468.062	0.080	0.177
-221.640	101.549	-0.237	0.273
-220.625	13.215	-0.152	-0.116
-219.611	426.529	0.082	-0.175
-218.596	5.699	-0.221	0.162
-217.582	-200.000	-0.022	0.167
-216.567	7.554	0.120	-0.089
-215.552	800.000	-0.051	0.145
-214.538	-42.065	0.099	0.050
-213.523	-116.375	-0.137	0.025
-212.509	310.336	0.180	0.333
-211.494	477.564	0.112	0.250
-210.479	-0.905	-0.148	-0.104
-209.465	486.878	-0.073	0.165
-208.450	40.481	0.128	0.114
-207.436	-104.815	0.261	0.059
-206.421	118.718	-0.111	0.136
-205.406	-32.638	0.135	0.074
-204.392	-76.684	-0.189	0.065
-203.377	12.266	0.068	-0.052
-202.363	34.848	-0.090	0.078
-201.348	396.405	0.077	0.158
-200.333	221.793	-0.028	0.045
-199.319	447.988	-0.062	0.135
-198.304	-154.386	-0.149	0.010
-197.290	89.718	-0.092	-0.101
-196.275	105.137	-0.094	0.109
-195.260	-173.710	0.114	-0.003
-194.246	-100.775	-0.550	-0.134
-193.231	-35.567	-0.196	-0.105
-192.217	-200.000	-0.003	0.232
-191.202	115.714	0.301	0.363
-190.187	640.219	0.086	-0.217
-189.173	-12.426	0.034	-0.022
-188.158	-50.525	-0.160	0.074
-187.144	-200.000	0.004	0.057
-186.129	-200.000	0.015	-0.119
-185.114	-165.862	-0.071	0.003
-184.100	-122.633	0.267	0.043
-183.085	509.478	0.106	0.242
-182.071	119.171	-0.204	0.250
-181.056	-93.706	-0.317	0.086
-180.042	-29.823	0.117	-0.066
-179.027	83.662	-0.067	-0.072
-178.012	308.701	-0.031	-0.058
-176.998	20.086	0.042	-0.033
-175.983	-75.332	-0.164	-0.058
-174.969	-50.956	0.042	-0.019
-173.954	800.000	-0.101	-0.318
-172.939	-42.292	-0.201	0.101
-171.925	298.767	0.104	0.188
-170.910	-51.523	-0.180	0.083
-169.896	242.155	0.032	0.053
-168.881	-150.912	-0.053	-0.004
-167.866	-11.278	0.397	0.258
-166.852	800.000	-0.050	0.210
-165.837	-200.000	-0.030	-0.248
-164.823	-34.548	0.196	-0.106
-163.808	43.811	0.059	0.054
-162.793	-112.884	0.277	-0.054
-161.779	-200.000	0.029	-0.243
-160.764	-94.499	0.067	-0.018
-159.750	18.397	0.393	-0.310
-158.735	-200.000	0.003	0.147
-157.720	-200.000	-0.013	-0.094
-156.706	-200.000	-0.015	0.066
-155.691	-200.000	-0.058	-0.279
-154.677	-76.855	0.227	-0.078
-153.662	-200.000	-0.009	-0.127
-152.647	207.677	-0.214	0.330
-151.633	800.000	-0.028	-0.117
-150.618	40.861	-0.086	0.076
-149.604	17.820	0.108	-0.085
-148.589	-200.000	0.020	-0.407
-147.574	24.266	0.130	-0.106
-146.560	-200.000	0.022	0.160
-145.545	-38.726	-0.377	-0.196
-144.531	-200.000	0.074	-0.345
-143.516	-176.006	0.105	-0.003
-142.502	610.069	-0.132	-0.325
-141.487	-200.000	-0.048	0.407
-140.472	-71.298	-0.123	-0.045
-139.458	57.891	0.216	0.208
-138.443	76.475	-0.182	-0.190
-137.429	-13.264	-0.446	-0.286
-136.414	765.893	0.090	0.242
-135.399	800.000	0.054	0.199
-134.385	-200.000	0.009	-0.093
-133.370	175.707	-0.156	-0.223
-132.356	-84.590	0.298	0.093
-131.341	-11.996	-0.201	-0.130
-130.326	-200.000	0.004	0.322
-129.312	-178.987	0.097	-0.002
-128.297	777.712	-0.085	-0.230
-127.283	800.000	0.072	-0.287
-126.268	-35.071	0.345	-0.185
-125.253	-200.000	-0.025	0.207
-124.239	-146.238	-0.248	0.021
-123.224	231.342	-0.015	0.024
-122.210	-33.929	-0.268	0.146
-121.195	-95.967	-0.325	-0.085
