DTS Sentinel unit serial number:	SN413079Multiplexer serial number:	ORYXHardware model number:	OX4-SRSoftware version number:	ORYX F/W v4.00 Oryx Data Collector v3.7.2.0data status	okinstallation	princeton_trtdifferential loss correction	single-endedforward channel	channel 3reverse channel	N/Adate	2019/09/12time	14:38:11forward acquisition time	60.00reverse acquisition time	0.00gamma	496.2192k internal	0.2294k external	0.2294temperature offset calibration	1.0051default loss term (dB/km)	0.3790temperature slope calibration	1.0000multiplexer offset coefficient	1.0000multiplexer slope coefficient	1.0000fibre end	0.00T internal ref (°C)	40.09T ext. ref 1 (°C)	2.27T ext. ref 2 (°C)	36.52length (m)	temperature (°C)	Stokes	anti-Stokes-747.200	-200.000	-0.025	-0.159
-746.185	-200.000	-0.052	0.290
-745.171	85.293	0.065	0.073
-744.156	-141.534	-0.133	0.014
-743.142	242.929	-0.084	0.145
-742.127	154.835	0.026	-0.037
-741.112	-40.511	-0.210	0.112
-740.098	-200.000	0.093	0.462
-739.083	-28.081	-0.140	-0.083
-738.069	-33.889	-0.268	0.151
-737.054	-97.083	-0.027	0.007
-736.039	-170.193	-0.295	0.011
-735.025	-83.053	0.413	-0.136
-734.010	-126.680	0.221	0.033
-732.996	-141.105	0.129	-0.013
-731.981	80.478	-0.146	-0.161
-730.966	-200.000	0.019	-0.257
-729.952	399.474	-0.185	-0.396
-728.937	108.426	0.301	0.368
-727.923	-91.371	-0.263	-0.077
-726.908	611.087	-0.173	-0.443
-725.894	338.841	-0.176	-0.349
-724.879	-200.000	0.034	-0.170
-723.864	-178.181	0.140	0.003
-722.850	-157.441	-0.465	-0.029
-721.835	-2.749	0.394	0.282
-720.821	-149.127	0.246	-0.020
-719.806	15.508	-0.109	-0.088
-718.791	-124.282	-0.191	-0.031
-717.777	-138.629	0.224	0.025
-716.762	506.083	0.107	-0.253
-715.748	470.744	-0.060	-0.137
-714.733	297.730	-0.187	-0.352
-713.718	229.584	0.209	-0.349
-712.704	476.785	-0.139	-0.320
-711.689	-107.474	-0.070	-0.016
-710.675	-200.000	-0.042	0.326
-709.660	14.865	0.197	-0.158
-708.645	-38.929	-0.071	0.038
-707.631	196.608	-0.051	-0.079
-706.616	-159.811	0.106	0.006
-705.602	107.920	-0.056	-0.068
-704.587	43.626	0.077	-0.072
-703.572	800.000	0.018	0.052
-702.558	37.196	0.078	-0.071
-701.543	-31.862	0.129	0.074
-700.529	315.684	-0.028	-0.053
-699.514	312.903	0.151	-0.291
-698.499	-88.265	0.051	0.016
-697.485	46.374	-0.052	0.050
-696.470	526.367	0.087	-0.208
-695.456	-26.293	0.226	-0.135
-694.441	-28.577	-0.216	-0.127
-693.426	-10.858	-0.435	-0.293
-692.412	800.000	-0.078	0.292
-691.397	-134.454	-0.050	0.006
-690.383	5.094	0.047	0.035
-689.368	-94.537	0.244	0.068
-688.354	-77.871	-0.242	-0.085
-687.339	81.841	0.272	0.300
-686.324	-151.372	-0.217	0.016
-685.310	-40.990	0.168	-0.089
-684.295	110.255	-0.131	-0.160
-683.281	70.094	0.219	0.230
-682.266	130.772	-0.246	0.322
-681.251	-60.511	-0.179	0.078
-680.237	-44.880	0.232	-0.118
-679.222	124.165	0.062	0.080
-678.208	-17.516	-0.180	-0.115
-677.193	112.445	-0.086	-0.107
-676.178	-200.000	-0.051	-0.292
-675.164	242.827	-0.090	-0.154
-674.149	-144.705	-0.225	0.021
-673.135	800.000	0.031	0.105
-672.120	-99.856	0.312	0.080
-671.105	-129.632	-0.251	-0.035
-670.091	-77.148	0.263	0.094
-669.076	-76.227	0.149	-0.054
-668.062	-64.259	-0.394	-0.164
-667.047	-43.939	0.251	-0.129
-666.032	-137.309	0.379	-0.044
-665.018	-12.509	-0.235	-0.156
-664.003	800.000	0.032	0.140
-662.989	135.851	-0.146	0.194
-661.974	280.707	0.117	0.213
-660.959	-98.805	-0.220	0.057
-659.945	678.980	-0.024	0.062
-658.930	800.000	-0.063	-0.216
-657.916	800.000	-0.089	-0.340
-656.901	173.372	-0.142	-0.209
-655.886	-200.000	0.066	-0.489
-654.872	13.537	-0.177	0.140
-653.857	-200.000	-0.046	-0.266
-652.843	800.000	-0.099	-0.323
-651.828	-119.943	-0.509	0.089
-650.814	180.785	0.089	0.133
-649.799	243.110	0.023	0.040
-648.784	800.000	-0.118	0.413
-647.770	199.690	0.114	-0.178
-646.755	-200.000	0.022	0.184
-645.741	-200.000	0.017	-0.168
-644.726	118.729	0.347	0.437
-643.711	362.429	-0.135	0.275
-642.697	242.600	-0.134	0.228
-641.682	800.000	0.088	0.282
-640.668	73.615	0.168	-0.179
-639.653	-142.810	0.165	0.016
-638.638	112.741	0.050	0.062
-637.624	-200.000	0.000	-0.017
-636.609	-77.453	-0.142	-0.050
-635.595	-200.000	-0.004	-0.459
-634.580	60.534	0.050	-0.050
-633.565	-200.000	0.013	0.250
-632.551	800.000	-0.102	0.320
-631.536	-133.823	0.077	0.010
-630.522	-200.000	0.064	-0.357
-629.507	-200.000	0.007	-0.254
-628.492	-8.477	0.174	-0.119
-627.478	800.000	-0.088	0.254
-626.463	-118.159	0.026	0.005
-625.449	33.039	-0.127	-0.112
-624.434	-200.000	-0.025	0.220
-623.419	-65.107	0.212	0.087
-622.405	526.390	0.073	-0.174
-621.390	-26.938	-0.134	0.080
-620.376	-200.000	0.016	0.277
-619.361	-200.000	-0.035	-0.248
-618.346	-93.475	-0.284	-0.080
-617.332	17.058	-0.135	-0.109
-616.317	108.317	0.055	0.067
-615.303	575.184	-0.008	0.019
-614.288	10.679	0.164	0.127
-613.273	1.643	-0.161	-0.118
-612.259	-200.000	-0.004	-0.165
-611.244	-25.564	-0.241	0.145
-610.230	800.000	0.056	0.235
-609.215	69.626	0.151	0.158
-608.201	-42.086	-0.140	-0.073
-607.186	100.021	-0.143	-0.169
-606.171	89.886	0.041	-0.047
-605.157	37.720	-0.147	-0.133
-604.142	-200.000	0.012	-0.081
-603.128	191.568	-0.105	-0.161
-602.113	-39.252	-0.161	0.086
-601.098	-200.000	0.025	0.462
-600.084	-92.684	0.336	0.096
-599.069	-200.000	-0.073	-0.444
-598.055	-72.387	0.067	-0.025
-597.040	-200.000	-0.003	-0.184
-596.025	62.782	-0.105	0.107
-595.011	51.128	-0.153	0.148
-593.996	661.280	0.125	-0.326
-592.982	32.474	0.150	0.132
-591.967	800.000	-0.040	-0.166
-590.952	670.375	-0.118	0.310
-589.938	355.155	-0.099	-0.201
-588.923	-132.629	-0.427	0.056
-587.909	201.299	-0.077	0.120
-586.894	148.892	0.080	-0.110
-585.879	-108.518	-0.201	-0.044
-584.865	-78.696	-0.236	-0.082
-583.850	-200.000	0.024	0.150
-582.836	-137.557	-0.224	-0.026
-581.821	601.920	0.052	-0.131
-580.806	237.684	-0.043	-0.073
-579.792	271.234	-0.104	-0.186
-578.777	243.797	-0.048	0.083
-577.763	411.251	-0.255	0.549
-576.748	303.817	-0.177	0.333
-575.733	185.921	-0.058	-0.088
-574.719	-200.000	0.069	-0.328
-573.704	-21.201	0.085	0.053
-572.690	173.629	-0.071	-0.105
-571.675	106.337	-0.058	-0.070
-570.661	-100.252	0.112	-0.028
-569.646	-128.842	0.363	-0.052
-568.631	590.853	0.117	-0.293
-567.617	-200.000	0.018	0.125
-566.602	800.000	0.038	0.116
-565.588	-188.138	-0.413	-0.005
-564.573	-7.677	0.100	-0.069
-563.558	-90.529	-0.234	-0.069
-562.544	-65.207	0.247	-0.101
-561.529	-49.828	-0.176	0.085
-560.515	142.304	0.061	0.082
-559.500	132.264	-0.235	-0.308
-558.485	-20.170	0.042	-0.026
-557.471	6.798	0.187	0.141
-556.456	-200.000	-0.032	-0.324
-555.442	733.410	-0.115	0.314
-554.427	24.449	-0.108	0.090
-553.412	-153.351	-0.088	0.006
-552.398	-62.633	0.088	-0.037
-551.383	28.104	0.131	-0.113
-550.369	-200.000	-0.038	-0.372
-549.354	98.322	0.146	-0.171
-548.339	232.419	-0.183	0.304
-547.325	39.169	-0.162	0.148
-546.310	188.703	0.192	-0.291
-545.296	320.845	0.033	0.063
-544.281	-200.000	-0.042	0.198
-543.266	283.176	0.063	0.115
-542.252	-200.000	0.077	0.520
-541.237	199.429	0.118	0.184
-540.223	-200.000	0.013	-0.151
-539.208	151.283	0.008	0.011
-538.193	-108.805	-0.311	0.067
-537.179	-28.933	-0.117	-0.068
-536.164	-138.044	0.138	0.016
-535.150	-14.493	0.127	0.083
-534.135	-180.494	-0.255	0.005
-533.121	122.124	0.231	0.292
-532.106	70.097	-0.224	-0.235
-531.091	-200.000	-0.001	-0.061
-530.077	-200.000	0.019	0.196
-529.062	-200.000	-0.044	0.250
-528.048	26.019	0.128	0.108
-527.033	800.000	-0.053	-0.218
-526.018	-200.000	-0.009	-0.121
-525.004	-200.000	-0.019	0.131
-523.989	1.464	0.196	-0.143
-522.975	123.183	0.072	-0.091
-521.960	-200.000	-0.038	0.176
-520.945	14.925	-0.176	0.140
-519.931	-56.488	-0.282	0.127
-518.916	-24.136	-0.246	0.149
-517.902	-200.000	0.071	-0.334
-516.887	800.000	0.047	-0.185
-515.872	-79.381	-0.182	-0.062
-514.858	-193.631	-0.209	-0.002
-513.843	236.961	-0.152	0.255
-512.829	-29.471	0.196	-0.113
-511.814	-200.000	0.016	0.238
-510.799	-132.896	0.268	-0.035
-509.785	-64.820	0.126	0.052
-508.770	38.096	0.095	-0.086
-507.756	87.139	0.164	0.184
-506.741	463.620	-0.122	0.275
-505.726	-127.747	0.227	0.033
-504.712	375.081	-0.127	-0.263
-503.697	-200.000	-0.070	-0.314
-502.683	-200.000	-0.042	-0.232
-501.668	382.236	0.039	0.082
-500.653	-131.731	0.338	0.045
-499.639	180.854	0.269	-0.401
-498.624	800.000	0.027	-0.121
-497.610	-154.805	0.226	0.015
-496.595	227.751	-0.125	0.206
-495.581	-36.689	0.249	-0.135
-494.566	-15.993	-0.259	-0.167
-493.551	509.863	0.135	0.317
-492.537	26.275	-0.261	0.221
-491.522	332.779	0.016	-0.031
-490.508	-200.000	-0.032	0.193
-489.493	-104.448	0.152	-0.036
-488.478	-87.856	-0.030	-0.009
-487.464	-200.000	0.002	-0.018
-486.449	-135.137	-0.105	-0.013
-485.435	800.000	-0.079	-0.312
-484.420	800.000	0.147	-0.418
-483.405	-19.092	-0.112	-0.070
-482.391	191.027	-0.165	-0.252
-481.376	-86.251	-0.033	-0.010
-480.362	-49.110	-0.277	0.134
-479.347	-122.937	0.456	0.074
-478.332	372.414	0.080	0.164
-477.318	-96.346	-0.020	-0.005
-476.303	82.192	-0.122	-0.134
-475.289	18.499	0.061	-0.049
-474.274	64.275	-0.251	0.256
-473.259	-128.133	-0.352	-0.051
-472.245	30.540	-0.144	0.125
-471.230	-200.000	-0.014	-0.089
-470.216	-167.209	0.050	0.002
-469.201	-132.750	-0.102	-0.013
-468.186	-5.297	-0.073	-0.051
-467.172	20.721	-0.272	0.223
-466.157	-107.525	-0.480	-0.106
-465.143	37.454	0.252	0.226
-464.128	676.612	0.103	0.270
-463.113	87.760	0.139	0.155
-462.099	-106.141	0.307	-0.070
-461.084	33.690	0.219	0.193
-460.070	-61.423	-0.173	0.074
-459.055	-116.684	0.218	-0.041
-458.040	28.074	-0.219	0.187
-457.026	-200.000	0.000	-0.244
-456.011	800.000	0.035	0.126
-454.997	800.000	0.010	0.043
-453.982	-200.000	-0.031	-0.237
-452.968	-40.962	0.174	-0.091
-451.953	-156.679	-0.278	-0.017
-450.938	-120.739	-0.067	0.011
-449.924	800.000	0.043	-0.126
-448.909	238.939	-0.082	0.137
-447.895	-95.715	0.374	-0.101
-446.880	-200.000	0.004	0.102
-445.865	524.425	-0.136	0.323
-444.851	-105.379	-0.067	0.015
-443.836	-102.885	-0.312	0.075
-442.822	-137.988	0.213	-0.024
-441.807	-106.548	0.134	0.030
-440.792	-106.714	-0.117	-0.026
-439.778	111.832	-0.172	0.210
-438.763	87.618	0.203	0.227
-437.749	800.000	-0.024	-0.088
-436.734	112.547	-0.299	0.365
-435.719	-141.424	-0.245	-0.025
-434.705	-49.701	0.367	-0.176
-433.690	-144.931	0.309	-0.028
-432.676	404.476	0.131	-0.278
-431.661	800.000	0.073	0.255
-430.646	48.245	-0.148	0.140
-429.632	-200.000	-0.005	-0.155
-428.617	-200.000	-0.009	-0.387
-427.603	149.137	0.170	0.233
-426.588	57.490	-0.119	0.118
-425.573	-200.000	0.020	0.266
-424.559	150.530	0.178	-0.244
-423.544	329.559	0.080	0.155
-422.530	-200.000	0.027	-0.191
-421.515	-200.000	-0.088	-0.000
-420.500	5.054	0.332	-0.247
-419.486	800.000	0.038	-0.163
-418.471	800.000	-0.078	-0.248
-417.457	-200.000	0.037	-0.397
-416.442	-19.280	0.187	-0.117
-415.428	-172.317	-0.185	-0.006
-414.413	-174.069	0.155	-0.005
-413.398	800.000	0.065	0.207
-412.384	-48.363	-0.079	0.039
-411.369	-69.401	0.259	-0.100
-410.355	2.821	-0.013	-0.009
-409.340	-200.000	0.059	-0.343
-408.325	800.000	0.031	-0.127
-407.311	-73.313	-0.114	0.042
-406.296	800.000	0.053	0.206
-405.282	-114.438	-0.369	0.072
-404.267	-11.063	0.175	0.116
-403.252	-200.000	-0.015	0.151
-402.238	-112.832	-0.195	0.039
-401.223	-200.000	-0.032	0.331
-400.209	800.000	0.072	0.251
-399.194	30.137	-0.278	-0.239
-398.179	61.613	0.107	0.107
-397.165	177.019	0.118	-0.173
-396.150	-130.109	0.137	-0.019
-395.136	-190.941	-0.194	0.002
-394.121	-200.000	-0.003	0.258
-393.106	781.432	0.082	-0.226
-392.092	101.294	-0.070	0.082
-391.077	562.259	0.123	0.299
-390.063	46.428	0.199	-0.186
-389.048	-44.270	0.094	-0.047
-388.033	156.736	-0.092	0.128
-387.019	105.745	0.209	-0.249
-386.004	73.771	0.093	0.099
-384.990	582.775	0.078	0.194
-383.975	800.000	-0.060	0.208
-382.960	19.911	0.026	0.021
-381.946	-200.000	-0.011	-0.351
-380.931	369.804	0.158	-0.322
-379.917	-89.515	-0.126	0.037
-378.902	-65.276	-0.171	-0.070
-377.888	-200.000	-0.017	0.145
-376.873	-200.000	0.009	-0.237
-375.858	-24.460	-0.121	0.072
-374.844	-157.057	0.231	0.014
-373.829	454.025	0.116	-0.260
-372.815	-2.138	-0.125	-0.089
-371.800	-108.654	-0.420	-0.091
-370.785	27.431	0.047	-0.040
-369.771	-68.658	0.133	-0.052
-368.756	680.493	-0.091	0.238
-367.742	-200.000	0.010	0.103
-366.727	-38.751	0.049	-0.026
-365.712	-200.000	-0.030	-0.531
-364.698	-200.000	-0.009	-0.066
-363.683	800.000	0.057	-0.173
-362.669	-49.285	-0.177	0.085
-361.654	-200.000	0.035	-0.163
-360.639	-170.117	0.252	0.009
-359.625	223.487	0.107	-0.174
-358.610	-71.179	-0.187	-0.071
-357.596	545.318	0.084	-0.201
-356.581	321.115	-0.063	-0.121
-355.566	63.035	-0.278	0.281
-354.552	-157.981	0.235	-0.014
-353.537	-61.495	0.170	-0.072
-352.523	800.000	-0.054	-0.166
-351.508	709.344	0.114	-0.303
-350.493	-5.434	-0.202	0.140
-349.479	270.648	-0.091	0.160
-348.464	62.142	-0.070	0.070
-347.450	800.000	0.066	0.228
-346.435	-72.843	-0.048	0.018
-345.420	-200.000	-0.003	-0.141
-344.406	-100.133	0.200	-0.050
-343.391	154.413	0.089	-0.123
-342.377	157.127	0.093	-0.129
-341.362	84.267	0.168	0.185
-340.348	-200.000	0.059	0.451
-339.333	-200.000	0.006	-0.168
-338.318	23.843	0.257	0.213
-337.304	-76.176	0.116	0.041
-336.289	-1.160	-0.317	-0.225
-335.275	-200.000	0.006	-0.208
-334.260	-200.000	-0.011	-0.295
-333.245	202.956	-0.197	-0.306
-332.231	168.526	0.046	-0.067
-331.216	-200.000	0.023	0.164
-330.202	453.403	0.078	0.175
-329.187	82.791	-0.285	0.312
-328.172	800.000	-0.068	-0.210
-327.158	63.564	0.148	0.150
-326.143	-138.064	0.241	0.027
-325.129	325.224	0.125	0.240
-324.114	-147.473	0.129	0.011
-323.099	21.448	-0.137	0.112
-322.085	-21.244	-0.164	-0.101
-321.070	-118.681	-0.296	0.053
-320.056	-200.000	0.066	0.530
-319.041	800.000	0.086	0.262
-318.026	-5.239	-0.138	-0.095
-317.012	-21.362	-0.514	0.315
-315.997	800.000	-0.036	-0.140
-314.983	-92.245	-0.280	-0.079
-313.968	393.368	0.081	-0.169
-312.953	218.514	0.186	0.299
-311.939	-82.663	0.281	-0.091
-310.924	-179.073	0.144	-0.003
-309.910	-200.000	-0.011	0.138
-308.895	-5.243	-0.155	0.107
-307.880	295.924	0.062	-0.115
-306.866	-36.835	-0.527	-0.284
-305.851	-145.055	0.362	-0.033
-304.837	-92.985	0.066	-0.019
-303.822	-23.952	0.159	0.096
-302.807	-108.179	-0.205	-0.045
-301.793	385.780	0.091	-0.189
-300.778	105.233	-0.138	0.163
-299.764	-200.000	0.009	0.051
-298.749	154.288	0.079	-0.109
-297.735	74.317	0.150	0.159
-296.720	-138.136	-0.193	0.022
-295.705	800.000	-0.075	-0.211
-294.691	780.041	-0.031	0.086
-293.676	-36.325	-0.048	0.026
-292.662	-86.053	0.064	-0.020
-291.647	-200.000	0.037	-0.188
-290.632	800.000	-0.090	0.260
-289.618	24.590	-0.283	0.236
-288.603	-200.000	-0.007	-0.062
-287.589	310.567	0.098	-0.184
-286.574	183.655	0.323	0.480
-285.559	755.244	0.117	-0.317
-284.545	0.799	0.142	-0.102
-283.530	-200.000	-0.048	-0.263
-282.516	-125.752	-0.097	-0.015
-281.501	-200.000	0.018	0.249
-280.486	-127.572	-0.287	0.042
-279.472	-14.697	0.196	0.126
-278.457	-24.826	0.102	0.061
-277.443	-200.000	0.056	-0.402
-276.428	-200.000	-0.022	-0.251
-275.413	-119.586	-0.129	0.022
-274.399	63.460	-0.322	-0.324
-273.384	-200.000	-0.021	0.308
-272.370	190.973	0.116	-0.175
-271.355	-18.353	-0.053	0.033
-270.340	-200.000	0.002	0.051
-269.326	276.275	0.154	0.275
-268.311	-200.000	-0.023	-0.258
-267.297	-200.000	0.006	-0.345
-266.282	-128.487	0.396	0.056
-265.267	-200.000	0.003	-0.229
-264.253	-36.955	-0.221	0.119
-263.238	-200.000	0.006	-0.150
-262.224	-200.000	-0.038	-0.194
-261.209	-63.639	-0.321	0.132
-260.195	157.852	0.198	-0.275
-259.180	50.058	0.253	-0.239
-258.165	-62.524	0.191	0.080
-257.151	-102.198	0.283	-0.068
-256.136	-7.931	-0.096	-0.065
-255.122	-200.000	-0.019	0.275
-254.107	91.762	0.212	0.240
-253.092	-105.198	-0.396	-0.091
-252.078	171.902	0.115	0.165
-251.063	168.318	0.221	0.316
-250.049	20.536	0.165	-0.134
-249.034	206.195	0.182	0.284
-248.019	-94.221	0.182	0.050
-247.005	-86.154	-0.097	-0.030
-245.990	-140.957	-0.104	0.011
-244.976	-79.634	-0.197	0.067
-243.961	-108.860	0.264	-0.057
-242.946	-132.197	0.237	-0.031
-241.932	187.156	0.153	-0.229
-240.917	-85.139	0.447	-0.140
-239.903	32.119	-0.102	0.088
-238.888	800.000	-0.023	-0.070
-237.873	96.443	0.234	-0.269
-236.859	-200.000	-0.027	0.270
-235.844	-200.000	-0.002	0.020
-234.830	800.000	0.100	-0.285
-233.815	-44.563	0.160	-0.080
-232.800	58.970	0.275	-0.271
-231.786	-57.100	-0.160	0.071
-230.771	-178.651	0.430	0.010
-229.757	3.768	0.237	0.174
-228.742	347.244	-0.097	-0.192
-227.727	800.000	0.034	0.147
-226.713	-110.305	-0.220	0.046
-225.698	-57.775	-0.191	0.084
-224.684	800.000	0.076	0.256
-223.669	-67.877	0.088	-0.034
-222.655	-200.000	-0.008	-0.137
-221.640	-113.179	-0.241	0.047
-220.625	-169.498	0.125	0.005
-219.611	454.121	-0.164	0.363
-218.596	2.802	-0.262	0.191
-217.582	-106.542	-0.280	-0.063
-216.567	10.374	-0.243	0.185
-215.552	-83.051	0.184	-0.059
-214.538	800.000	-0.103	-0.311
-213.523	800.000	-0.042	-0.146
-212.509	343.400	-0.125	0.246
-211.494	800.000	0.091	0.333
-210.479	-83.334	0.375	0.121
-209.465	-200.000	-0.051	-0.263
-208.450	7.277	-0.118	0.088
-207.436	71.089	-0.188	0.195
-206.421	44.700	-0.274	0.252
-205.406	141.832	-0.118	-0.156
-204.392	690.599	-0.051	0.134
-203.377	-122.418	0.307	-0.050
-202.363	-163.332	-0.300	0.014
-201.348	41.407	-0.074	-0.067
-200.333	-56.702	0.255	-0.113
-199.319	-200.000	0.008	-0.127
-198.304	56.604	-0.183	0.178
-197.290	-34.919	-0.180	-0.099
-196.275	79.716	0.193	0.208
-195.260	-105.120	0.217	0.050
-194.246	-13.630	-0.173	-0.112
-193.231	-200.000	-0.022	-0.155
-192.217	59.653	0.060	-0.059
-191.202	558.934	0.081	0.195
-190.187	-46.293	0.202	0.100
-189.173	800.000	-0.033	0.125
-188.158	-200.000	0.029	-0.152
-187.144	-200.000	0.038	0.206
-186.129	-200.000	-0.020	-0.340
-185.114	-200.000	-0.098	-0.459
-184.100	105.554	0.166	0.196
-183.085	46.283	0.163	0.151
-182.071	-97.640	-0.032	-0.008
-181.056	474.809	0.232	0.524
-180.042	-27.309	0.234	-0.136
-179.027	-48.386	-0.359	0.173
-178.012	-200.000	-0.032	0.243
-176.998	-2.234	-0.460	0.323
-175.983	71.379	0.245	-0.254
-174.969	216.727	0.075	-0.120
-173.954	83.718	-0.156	-0.170
-172.939	-110.638	0.139	-0.029
-171.925	65.413	0.235	-0.238
-170.910	207.866	0.056	0.087
-169.896	47.188	0.095	-0.088
-168.881	147.176	-0.203	0.273
-167.866	-94.699	0.120	0.033
-166.852	-200.000	-0.030	0.155
-165.837	-200.000	0.020	-0.092
-164.823	372.046	-0.081	0.165
-163.808	268.483	-0.187	-0.328
-162.793	-79.736	0.207	-0.070
-161.779	-200.000	-0.004	0.122
-160.764	-200.000	-0.004	-0.106
-159.750	-200.000	0.007	0.047
-158.735	-124.540	0.027	-0.004
-157.720	-103.334	0.225	-0.053
-156.706	-24.181	-0.261	-0.156
-155.691	-200.000	0.051	-0.340
-154.677	800.000	-0.027	0.084
-153.662	-115.945	-0.502	0.094
-152.647	184.230	0.190	-0.281
-151.633	800.000	-0.113	-0.409
-150.618	-14.345	-0.114	0.073
-149.604	800.000	0.124	-0.374
-148.589	80.830	-0.031	-0.033
-147.574	466.894	-0.016	-0.036
-146.560	800.000	-0.126	-0.475
-145.545	290.657	0.069	-0.126
-144.531	250.841	0.307	-0.521
-143.516	53.100	0.202	0.194
-142.502	695.499	-0.127	-0.333
-141.487	-76.406	-0.166	0.058
-140.472	-9.672	0.183	-0.122
-139.458	-152.996	0.059	-0.004
-138.443	190.023	-0.138	-0.207
-137.429	-16.632	0.402	0.254
-136.414	-200.000	0.003	-0.118
-135.399	-200.000	-0.004	0.121
-134.385	-132.624	0.160	-0.020
-133.370	528.690	0.014	-0.033
-132.356	-20.539	-0.214	0.132
-131.341	-99.517	0.136	0.034
-130.326	-200.000	-0.036	-0.255
-129.312	-102.295	-0.251	-0.060
-128.297	-143.499	0.052	0.005
-127.283	-55.707	-0.221	-0.099
-126.268	-200.000	0.073	0.328
-125.253	800.000	0.036	0.101
-124.239	387.276	0.111	-0.229
-123.224	-40.428	-0.215	0.111
-122.210	-133.300	0.337	-0.042
