DTS Sentinel unit serial number:	SN413079Multiplexer serial number:	ORYXHardware model number:	OX4-SRSoftware version number:	ORYX F/W v4.00 Oryx Data Collector v3.7.2.0data status	okinstallation	princeton_trtdifferential loss correction	single-endedforward channel	channel 3reverse channel	N/Adate	2019/09/12time	14:06:11forward acquisition time	60.00reverse acquisition time	0.00gamma	496.2192k internal	0.2294k external	0.2294temperature offset calibration	1.0050default loss term (dB/km)	0.3790temperature slope calibration	1.0000multiplexer offset coefficient	1.0000multiplexer slope coefficient	1.0000fibre end	0.00T internal ref (°C)	40.44T ext. ref 1 (°C)	2.20T ext. ref 2 (°C)	35.10length (m)	temperature (°C)	Stokes	anti-Stokes-747.200	64.219	0.118	0.121
-746.185	84.342	-0.185	0.207
-745.171	-200.000	-0.042	0.384
-744.156	800.000	-0.063	-0.256
-743.142	800.000	0.148	-0.498
-742.127	-200.000	-0.028	0.144
-741.112	-200.000	-0.012	0.236
-740.098	255.980	0.132	0.231
-739.083	149.347	0.163	0.225
-738.069	-108.240	-0.167	0.037
-737.054	-200.000	-0.015	-0.225
-736.039	800.000	0.032	-0.111
-735.025	-200.000	-0.101	0.455
-734.010	-4.288	-0.337	0.238
-732.996	119.657	0.142	-0.180
-731.981	-200.000	-0.007	-0.306
-730.966	-157.052	0.129	0.008
-729.952	800.000	-0.087	0.290
-728.937	64.645	0.040	-0.041
-727.923	-73.120	-0.101	0.038
-726.908	-146.302	-0.319	-0.029
-725.894	-68.709	-0.195	0.077
-724.879	-55.069	-0.126	-0.058
-723.864	800.000	0.092	-0.324
-722.850	17.896	-0.091	0.074
-721.835	78.340	0.087	0.095
-720.821	-51.413	0.292	-0.140
-719.806	-87.961	-0.132	-0.040
-718.791	-200.000	-0.020	-0.421
-717.777	9.621	0.172	0.133
-716.762	-106.757	-0.186	0.042
-715.748	377.586	-0.102	0.213
-714.733	800.000	-0.076	0.247
-713.718	-169.091	0.352	0.013
-712.704	190.481	-0.189	-0.291
-711.689	-39.007	-0.251	0.135
-710.675	658.522	-0.009	-0.024
-709.660	-200.000	-0.008	0.148
-708.645	80.275	-0.146	-0.160
-707.631	91.930	0.193	-0.222
-706.616	114.323	-0.130	-0.162
-705.602	800.000	-0.076	0.310
-704.587	-200.000	-0.014	-0.096
-703.572	162.437	-0.049	-0.071
-702.558	178.971	0.022	-0.032
-701.543	-130.160	-0.085	0.012
-700.529	27.177	-0.256	-0.220
-699.514	-39.817	0.294	-0.157
-698.499	-63.309	-0.085	-0.036
-697.485	163.258	-0.194	-0.278
-696.470	216.948	0.169	-0.274
-695.456	800.000	-0.130	0.449
-694.441	-10.707	0.123	0.083
-693.426	256.203	0.035	-0.060
-692.412	-142.424	-0.088	-0.009
-691.397	800.000	0.063	0.185
-690.383	-188.490	-0.351	0.004
-689.368	800.000	-0.032	0.123
-688.354	112.884	0.117	0.145
-687.339	76.345	0.110	0.119
-686.324	54.948	0.079	-0.078
-685.310	121.446	0.053	0.068
-684.295	-85.747	0.030	0.009
-683.281	-140.383	0.195	0.021
-682.266	-36.351	0.395	0.217
-681.251	-200.000	0.003	0.179
-680.237	-97.581	-0.216	0.057
-679.222	-200.000	-0.029	-0.236
-678.208	1.578	-0.212	0.156
-677.193	-111.363	-0.197	0.041
-676.178	187.801	0.006	-0.010
-675.164	-123.654	0.357	0.058
-674.149	73.295	-0.072	-0.076
-673.135	-73.036	-0.222	-0.083
-672.120	-7.052	-0.093	-0.065
-671.105	-93.191	0.191	0.054
-670.091	724.280	-0.116	-0.316
-669.076	-95.857	0.024	0.006
-668.062	-200.000	0.020	0.246
-667.047	-200.000	-0.043	-0.365
-666.032	-112.621	0.199	-0.040
-665.018	235.854	-0.227	-0.383
-664.003	-90.548	-0.334	0.099
-662.989	-200.000	0.032	0.439
-661.974	-132.412	0.172	0.023
-660.959	-53.805	-0.110	0.051
-659.945	-46.919	-0.088	0.044
-658.930	205.103	-0.006	-0.010
-657.916	-36.562	-0.016	-0.009
-656.901	-47.363	-0.388	0.193
-655.886	-200.000	-0.018	-0.184
-654.872	-29.062	-0.512	-0.299
-653.857	-200.000	-0.028	-0.353
-652.843	140.296	-0.183	-0.247
-651.828	617.762	-0.051	-0.131
-650.814	-74.026	0.232	-0.086
-649.799	118.114	0.243	-0.305
-648.784	-118.758	-0.191	0.034
-647.770	-24.794	0.345	-0.209
-646.755	-81.026	0.412	-0.139
-645.741	-57.624	0.150	-0.067
-644.726	48.669	0.222	-0.212
-643.711	-198.312	-0.096	-0.001
-642.697	-200.000	-0.003	-0.269
-641.682	-116.511	0.146	0.027
-640.668	4.513	0.174	-0.130
-639.653	446.678	0.032	0.071
-638.638	-129.516	0.106	-0.015
-637.624	216.375	-0.149	0.241
-636.609	-63.962	-0.165	0.069
-635.595	-101.743	0.488	-0.121
-634.580	-200.000	0.010	-0.100
-633.565	-107.939	0.092	-0.020
-632.551	-55.420	0.268	-0.123
-631.536	93.655	0.021	-0.024
-630.522	-200.000	0.012	0.379
-629.507	-173.568	-0.373	-0.011
-628.492	800.000	-0.056	0.212
-627.478	120.127	0.067	0.084
-626.463	59.897	-0.124	-0.125
-625.449	-30.970	0.341	-0.196
-624.434	-119.777	0.219	0.038
-623.419	65.721	0.097	0.100
-622.405	800.000	-0.145	0.495
-621.390	14.305	-0.107	-0.085
-620.376	4.476	-0.137	-0.102
-619.361	22.635	0.316	-0.264
-618.346	-23.111	0.201	0.123
-617.332	44.258	0.284	0.265
-616.317	-14.283	0.119	-0.078
-615.303	257.210	0.096	0.169
-614.288	152.236	0.094	0.131
-613.273	486.204	-0.078	0.181
-612.259	306.361	-0.136	-0.258
-611.244	345.795	-0.105	-0.210
-610.230	-89.861	-0.009	-0.003
-609.215	-78.583	0.111	-0.039
-608.201	-2.010	0.383	-0.274
-607.186	-200.000	0.017	0.197
-606.171	286.604	-0.031	-0.056
-605.157	-179.747	-0.372	0.008
-604.142	-200.000	-0.081	0.693
-603.128	160.093	-0.131	0.186
-602.113	44.719	0.124	-0.116
-601.098	12.179	0.339	-0.266
-600.084	88.004	-0.073	-0.082
-599.069	293.465	-0.125	-0.232
-598.055	-131.857	0.202	0.027
-597.040	246.574	0.077	-0.132
-596.025	-200.000	-0.028	0.128
-595.011	64.652	-0.074	0.076
-593.996	-24.162	0.219	-0.133
-592.982	-93.330	0.444	-0.125
-591.967	-61.697	-0.148	-0.063
-590.952	-118.562	-0.180	0.032
-589.938	-200.000	0.001	0.379
-588.923	416.161	0.087	-0.188
-587.909	101.660	0.177	-0.210
-586.894	-200.000	-0.000	0.140
-585.879	-46.173	0.312	0.156
-584.865	-200.000	-0.008	-0.133
-583.850	119.157	-0.187	-0.235
-582.836	-178.145	-0.289	-0.007
-581.821	-85.938	-0.335	-0.105
-580.806	-13.620	-0.176	-0.116
-579.792	81.624	0.155	-0.170
-578.777	-200.000	-0.006	-0.029
-577.763	405.928	0.072	-0.155
-576.748	-46.083	0.092	0.046
-575.733	-45.464	-0.333	0.168
-574.719	-114.547	0.370	0.072
-573.704	-200.000	0.052	-0.280
-572.690	-200.000	-0.039	-0.281
-571.675	800.000	-0.047	-0.156
-570.661	-92.972	0.086	-0.024
-569.646	-15.689	0.092	-0.060
-568.631	-111.419	-0.155	-0.032
-567.617	649.568	-0.045	0.117
-566.602	320.174	0.061	-0.117
-565.588	133.595	0.102	-0.133
-564.573	-33.120	0.019	-0.011
-563.558	800.000	-0.068	0.251
-562.544	-200.000	-0.042	-0.225
-561.529	276.741	-0.172	0.310
-560.515	103.818	-0.053	-0.064
-559.500	-200.000	-0.016	0.092
-558.485	800.000	-0.056	-0.183
-557.471	-85.040	0.046	0.015
-556.456	-200.000	0.069	0.412
-555.442	-200.000	0.012	0.123
-554.427	800.000	0.166	-0.495
-553.412	76.481	-0.082	0.088
-552.398	-200.000	0.035	0.174
-551.383	-11.282	-0.078	0.052
-550.369	-94.209	0.345	0.096
-549.354	466.406	0.190	0.432
-548.339	34.997	-0.190	0.168
-547.325	800.000	0.134	0.414
-546.310	-0.411	-0.038	0.027
-545.296	800.000	0.090	0.295
-544.281	-60.387	-0.142	0.061
-543.266	72.612	-0.076	0.080
-542.252	800.000	0.008	-0.035
-541.237	-121.289	0.031	0.005
-540.223	-150.520	-0.334	0.026
-539.208	191.482	0.087	0.133
-538.193	-14.844	0.123	-0.080
-537.179	367.242	-0.021	0.043
-536.164	90.744	0.099	0.113
-535.150	310.258	0.139	-0.264
-534.135	-30.088	0.282	-0.163
-533.121	8.859	-0.203	-0.156
-532.106	800.000	-0.072	0.291
-531.091	390.258	0.037	-0.079
-530.077	-119.038	0.365	0.065
-529.062	659.114	-0.031	-0.080
-528.048	-60.743	0.186	-0.080
-527.033	-86.058	0.175	0.055
-526.018	-84.280	-0.195	-0.063
-525.004	-200.000	0.020	-0.227
-523.989	-200.000	0.011	0.406
-522.975	800.000	-0.023	0.102
-521.960	-200.000	-0.080	0.533
-520.945	-165.976	-0.400	-0.017
-519.931	96.875	0.064	-0.075
-518.916	-58.163	-0.198	0.088
-517.902	-65.854	0.081	-0.033
-516.887	-134.088	0.186	0.023
-515.872	-12.617	0.282	-0.187
-514.858	-21.382	-0.210	-0.130
-513.843	1.024	-0.302	0.220
-512.829	-200.000	-0.048	-0.324
-511.814	16.690	-0.203	0.163
-510.799	-168.219	-0.352	0.014
-509.785	-200.000	0.001	-0.015
-508.770	567.424	-0.063	-0.156
-507.756	20.502	-0.042	-0.034
-506.741	24.134	-0.303	-0.254
-505.726	-33.210	0.099	0.055
-504.712	124.951	-0.168	-0.214
-503.697	-200.000	-0.024	-0.220
-502.683	38.758	0.216	-0.195
-501.668	-96.461	-0.121	-0.032
-500.653	-186.742	0.231	0.003
-499.639	251.983	0.148	-0.255
-498.624	-115.933	0.029	0.006
-497.610	-200.000	0.029	0.167
-496.595	-200.000	-0.012	-0.085
-495.581	-113.341	-0.183	0.036
-494.566	-200.000	-0.013	-0.074
-493.551	-154.377	0.166	0.011
-492.537	117.445	0.121	-0.150
-491.522	800.000	0.016	-0.070
-490.508	82.392	0.072	-0.079
-489.493	427.636	0.084	0.183
-488.478	280.997	-0.093	0.168
-487.464	-89.478	-0.277	-0.083
-486.449	-20.578	-0.212	-0.132
-485.435	470.772	0.072	0.165
-484.420	-200.000	-0.002	-0.093
-483.405	-200.000	-0.001	0.352
-482.391	-200.000	-0.038	-0.207
-481.376	542.586	0.038	0.091
-480.362	-192.341	0.205	0.002
-479.347	-126.667	0.334	0.050
-478.332	-160.704	-0.282	0.015
-477.318	800.000	-0.157	-0.526
-476.303	-200.000	0.044	-0.233
-475.289	-93.480	0.433	-0.121
-474.274	-200.000	0.007	-0.106
-473.259	-61.584	-0.455	0.193
-472.245	-36.334	0.076	0.041
-471.230	-111.195	0.098	0.020
-470.216	-200.000	-0.027	-0.140
-469.201	44.267	0.222	-0.206
-468.186	800.000	-0.080	0.251
-467.172	-22.125	0.176	-0.108
-466.157	12.512	0.067	-0.052
-465.143	800.000	0.121	-0.340
-464.128	28.053	-0.109	-0.093
-463.113	-53.546	-0.266	-0.123
-462.099	211.956	-0.178	-0.284
-461.084	-80.527	-0.285	0.096
-460.070	-125.652	-0.122	0.019
-459.055	-135.666	-0.307	0.037
-458.040	-71.070	-0.166	-0.063
-457.026	800.000	0.060	-0.195
-456.011	90.684	0.077	0.088
-454.997	150.790	0.196	-0.270
-453.982	-81.415	-0.155	-0.052
-452.968	444.202	-0.002	-0.004
-451.953	-200.000	-0.009	0.232
-450.938	-144.904	-0.518	0.048
-449.924	-200.000	-0.018	-0.443
-448.909	224.187	-0.150	0.245
-447.895	27.050	-0.145	-0.123
-446.880	800.000	0.073	-0.222
-445.865	-200.000	-0.025	-0.167
-444.851	-98.285	0.202	0.052
-443.836	-21.464	-0.284	-0.175
-442.822	663.495	0.131	0.341
-441.807	61.158	0.016	0.016
-440.792	-200.000	0.013	-0.156
-439.778	530.238	-0.149	0.357
-438.763	32.913	-0.091	0.079
-437.749	-200.000	0.022	-0.100
-436.734	-19.332	-0.123	-0.077
-435.719	800.000	-0.078	-0.220
-434.705	-161.329	-0.088	0.005
-433.690	-28.909	0.133	0.077
-432.676	-141.509	0.394	0.040
-431.661	-98.183	-0.260	-0.068
-430.646	185.677	0.167	0.251
-429.632	800.000	0.040	-0.156
-428.617	168.261	0.154	-0.222
-427.603	86.808	-0.008	-0.009
-426.588	213.847	-0.161	0.257
-425.573	95.415	-0.082	-0.094
-424.559	-153.965	-0.119	0.008
-423.544	123.552	-0.003	-0.003
-422.530	-149.224	-0.267	0.022
-421.515	800.000	-0.056	-0.174
-420.500	-146.840	0.187	-0.016
-419.486	8.494	0.207	0.158
-418.471	188.711	-0.040	0.060
-417.457	-180.112	0.328	0.007
-416.442	800.000	0.048	0.210
-415.428	-23.192	-0.159	0.097
-414.413	30.279	0.041	0.036
-413.398	135.219	0.064	-0.083
-412.384	-200.000	0.038	-0.293
-411.369	282.928	-0.144	0.261
-410.355	216.457	-0.216	0.347
-409.340	353.288	0.100	-0.200
-408.325	-106.821	-0.192	0.043
-407.311	-36.041	-0.402	0.220
-406.296	205.086	-0.289	0.452
-405.282	73.347	0.124	-0.131
-404.267	-81.003	-0.211	-0.070
-403.252	-200.000	0.080	0.000
-402.238	-200.000	0.036	-0.275
-401.223	175.127	0.025	0.037
-400.209	294.153	0.023	-0.043
-399.194	-75.365	0.235	0.085
-398.179	284.412	0.196	0.355
-397.165	800.000	0.152	0.475
-396.150	10.215	-0.137	0.105
-395.136	34.845	0.433	0.382
-394.121	-12.058	0.141	0.093
-393.106	-200.000	-0.020	0.245
-392.092	-102.342	-0.218	-0.053
-391.077	-200.000	0.006	-0.218
-390.063	-118.590	0.271	-0.048
-389.048	186.757	-0.254	0.382
-388.033	-164.984	-0.247	-0.011
-387.019	33.563	0.109	-0.096
-386.004	-97.651	0.138	-0.036
-384.990	752.730	0.070	0.189
-383.975	-55.854	0.109	0.049
-382.960	135.254	-0.067	0.088
-381.946	800.000	-0.061	-0.205
-380.931	-57.780	-0.311	0.137
-379.917	65.918	-0.057	0.059
-378.902	-56.569	-0.117	-0.052
-377.888	-57.412	0.126	-0.056
-376.873	-2.116	0.254	-0.180
-375.858	66.474	0.040	0.041
-374.844	-200.000	0.011	-0.099
-373.829	144.136	-0.169	-0.227
-372.815	800.000	-0.083	-0.246
-371.800	-200.000	-0.044	-0.253
-370.785	12.386	-0.050	0.039
-369.771	-44.550	-0.117	-0.059
-368.756	11.840	0.212	-0.164
-367.742	-121.826	-0.243	-0.040
-366.727	800.000	-0.027	0.110
-365.712	-102.977	0.177	0.042
-364.698	199.062	-0.015	-0.023
-363.683	-24.291	-0.070	-0.042
-362.669	-200.000	0.005	-0.090
-361.654	800.000	-0.175	0.567
-360.639	173.246	-0.259	0.376
-359.625	35.647	-0.239	0.212
-358.610	-79.186	-0.095	0.033
-357.596	405.896	-0.194	-0.413
-356.581	-40.606	-0.040	0.021
-355.566	-83.563	0.116	-0.037
-354.552	-200.000	0.002	-0.067
-353.537	-200.000	0.020	0.397
-352.523	-116.024	-0.048	0.009
-351.508	451.464	-0.136	-0.302
-350.493	-133.171	-0.224	-0.029
-349.479	97.355	-0.189	0.219
-348.464	-131.468	0.347	0.046
-347.450	-107.055	-0.334	-0.074
-346.435	0.427	0.301	0.217
-345.420	182.777	-0.079	0.117
-344.406	242.664	-0.198	-0.333
-343.391	-100.240	-0.226	0.057
-342.377	147.408	-0.182	0.247
-341.362	-26.877	-0.194	-0.114
-340.348	57.736	-0.304	-0.299
-339.333	-172.206	-0.184	0.006
-338.318	63.660	-0.286	0.289
-337.304	9.748	0.191	0.146
-336.289	-200.000	-0.056	-0.390
-335.275	51.956	-0.145	-0.139
-334.260	12.104	0.183	0.141
-333.245	-172.693	-0.208	0.007
-332.231	-84.309	-0.254	0.081
-331.216	718.181	-0.097	0.260
-330.202	350.785	0.093	-0.185
-329.187	-126.747	-0.005	-0.001
-328.172	-200.000	0.020	0.316
-327.158	55.241	0.152	-0.148
-326.143	-137.455	-0.168	0.019
-325.129	-152.830	0.201	-0.014
-324.114	800.000	-0.036	0.118
-323.099	384.601	0.135	-0.280
-322.085	524.047	-0.100	0.236
-321.070	77.072	0.057	0.061
-320.056	-63.238	-0.074	0.031
-319.041	157.358	-0.007	-0.010
-318.026	-47.191	0.331	-0.162
-317.012	-164.348	0.061	-0.003
-315.997	-129.588	-0.142	0.020
-314.983	-142.150	-0.257	0.026
-313.968	8.508	-0.071	0.054
-312.953	-126.817	-0.290	0.043
-311.939	-200.000	0.017	0.115
-310.924	-200.000	-0.029	-0.175
-309.910	-27.787	-0.107	-0.062
-308.895	-50.900	0.259	-0.122
-307.880	-45.642	-0.226	-0.112
-306.866	43.787	-0.276	-0.254
-305.851	800.000	-0.078	-0.293
-304.837	102.722	-0.186	-0.219
-303.822	-124.907	-0.216	0.033
-302.807	-34.351	0.141	-0.078
-301.793	-76.465	-0.122	0.043
-300.778	-71.713	0.335	0.126
-299.764	-23.473	-0.216	0.131
-298.749	-200.000	0.012	-0.292
-297.735	-97.065	0.215	-0.056
-296.720	157.216	0.073	0.102
-295.705	-111.336	0.371	-0.076
-294.691	240.987	0.072	-0.121
-293.676	-19.864	-0.090	0.056
-292.662	14.124	-0.305	-0.239
-291.647	367.663	0.016	-0.032
-290.632	154.026	0.032	0.045
-289.618	800.000	0.059	0.198
-288.603	62.381	-0.078	0.078
-287.589	-200.000	0.033	0.172
-286.574	28.295	0.069	-0.059
-285.559	85.575	0.179	0.198
-284.545	303.856	-0.040	0.074
-283.530	95.163	0.004	-0.005
-282.516	132.258	-0.174	0.225
-281.501	-133.899	-0.112	0.014
-280.486	-200.000	-0.024	-0.130
-279.472	338.168	0.117	-0.228
-278.457	-88.218	0.287	-0.086
-277.443	800.000	0.045	0.200
-276.428	800.000	-0.032	0.122
-275.413	-102.709	-0.232	0.055
-274.399	800.000	0.116	0.345
-273.384	0.980	-0.106	0.076
-272.370	348.006	0.135	0.267
-271.355	104.652	0.117	-0.138
-270.340	-200.000	-0.004	0.039
-269.326	-178.770	0.342	-0.008
-268.311	-91.277	0.181	0.052
-267.297	0.662	0.241	0.173
-266.282	732.720	-0.113	0.304
-265.267	800.000	0.032	0.135
-264.253	5.282	0.226	-0.168
-263.238	-146.709	0.167	-0.015
-262.224	307.206	-0.233	0.436
-261.209	399.765	0.153	-0.323
-260.195	-109.360	-0.349	-0.074
-259.180	-200.000	0.013	0.067
-258.165	423.988	0.141	-0.305
-257.151	49.299	-0.222	-0.210
-256.136	38.817	-0.285	-0.255
-255.122	-83.338	0.170	0.055
-254.107	-111.979	0.201	-0.041
-253.092	-152.045	0.134	-0.010
-252.078	19.993	0.168	-0.136
-251.063	-56.019	0.068	0.030
-250.049	124.144	-0.168	0.211
-249.034	-200.000	-0.004	0.152
-248.019	345.841	-0.027	-0.052
-247.005	89.566	0.199	-0.223
-245.990	56.297	0.341	0.333
-244.976	-200.000	-0.015	0.372
-243.961	-39.999	-0.126	-0.066
-242.946	-72.497	0.223	0.082
-241.932	-84.686	-0.502	0.159
-240.917	-21.582	-0.198	0.121
-239.903	-151.608	-0.211	0.016
-238.888	800.000	-0.032	-0.095
-237.873	-1.344	0.319	-0.226
-236.859	-14.044	0.209	0.135
-235.844	-137.500	-0.046	-0.005
-234.830	-11.960	0.184	-0.121
-233.815	-189.185	-0.122	-0.001
-232.800	-93.816	-0.198	0.055
-231.786	-200.000	-0.004	0.105
-230.771	800.000	-0.066	-0.246
-229.757	300.804	-0.060	0.111
-228.742	-93.176	0.144	0.040
-227.727	51.843	-0.002	-0.002
-226.713	-119.286	-0.299	0.052
-225.698	51.213	0.084	-0.080
-224.684	-146.155	-0.136	0.012
-223.669	8.793	0.447	-0.338
-222.655	-72.511	0.191	-0.071
-221.640	182.243	-0.111	-0.164
-220.625	-77.554	0.292	0.101
-219.611	298.381	-0.074	-0.136
-218.596	53.968	0.137	-0.132
-217.582	-127.181	-0.135	0.020
-216.567	-200.000	-0.016	0.118
-215.552	-92.106	0.254	0.072
-214.538	52.702	0.118	-0.113
-213.523	83.528	0.078	-0.085
-212.509	228.178	0.159	0.259
-211.494	-200.000	0.021	0.103
-210.479	-200.000	0.003	-0.050
-209.465	-160.393	-0.122	0.007
-208.450	-34.324	0.248	-0.136
-207.436	-200.000	-0.015	0.171
-206.421	188.765	-0.067	-0.100
-205.406	85.450	0.084	-0.092
-204.392	-43.660	-0.093	0.047
-203.377	-200.000	-0.015	-0.216
-202.363	507.020	-0.104	-0.241
-201.348	800.000	0.027	-0.101
-200.333	273.215	-0.083	-0.146
-199.319	-136.653	-0.125	-0.015
-198.304	18.983	-0.129	-0.104
-197.290	800.000	-0.076	0.216
-196.275	299.453	-0.107	-0.198
-195.260	800.000	-0.042	0.141
-194.246	-200.000	0.015	-0.087
-193.231	97.915	0.314	0.361
-192.217	-200.000	0.092	0.414
-191.202	800.000	0.092	0.290
-190.187	265.602	0.085	-0.149
-189.173	-200.000	0.022	-0.178
-188.158	-200.000	0.035	0.428
-187.144	-170.008	0.365	-0.013
-186.129	-70.796	-0.209	-0.079
-185.114	800.000	-0.161	-0.477
-184.100	-134.383	0.093	-0.011
-183.085	-139.167	-0.335	-0.036
-182.071	58.360	0.259	0.254
-181.056	-200.000	-0.055	0.266
-180.042	-124.852	-0.102	-0.016
-179.027	-27.908	0.210	-0.122
-178.012	-66.592	-0.022	-0.009
-176.998	-24.353	0.217	-0.130
-175.983	-46.452	0.137	0.067
-174.969	-81.031	-0.342	-0.113
-173.954	800.000	0.015	-0.059
-172.939	-142.434	0.092	0.009
-171.925	322.927	0.057	-0.108
-170.910	-74.421	-0.133	0.048
-169.896	-55.242	-0.330	0.148
-168.881	109.661	0.242	0.290
-167.866	-200.000	0.036	-0.160
-166.852	-200.000	0.020	-0.138
-165.837	-136.316	-0.398	0.046
-164.823	97.216	-0.266	0.306
-163.808	314.308	-0.047	-0.089
-162.793	-200.000	-0.073	0.350
-161.779	-102.700	0.060	0.014
-160.764	-64.714	0.155	-0.063
-159.750	-62.259	0.204	-0.085
-158.735	205.865	-0.178	-0.277
-157.720	-60.502	0.379	0.161
-156.706	-118.004	0.172	0.031
-155.691	143.509	-0.163	0.218
-154.677	-138.843	-0.116	0.013
-153.662	-94.862	0.243	-0.066
-152.647	-140.427	0.372	0.039
-151.633	719.078	-0.110	-0.292
-150.618	548.214	-0.099	0.236
-149.604	-120.597	0.294	0.050
-148.589	29.933	-0.412	-0.351
-147.574	21.263	0.215	-0.174
-146.560	-120.311	-0.091	-0.016
-145.545	99.037	0.271	-0.313
-144.531	-200.000	-0.018	0.083
-143.516	800.000	0.039	0.141
-142.502	-88.586	-0.174	0.052
-141.487	-67.689	-0.122	0.048
-140.472	47.622	-0.227	0.211
-139.458	0.283	-0.147	0.105
-138.443	800.000	0.127	-0.365
-137.429	-26.085	0.137	-0.080
-136.414	-62.078	0.044	-0.018
-135.399	-200.000	0.070	0.319
-134.385	800.000	0.057	-0.239
-133.370	-183.847	-0.125	0.002
-132.356	45.742	0.298	-0.276
-131.341	-123.259	-0.267	-0.043
-130.326	82.587	0.127	-0.138
-129.312	-14.570	0.254	-0.163
-128.297	-97.841	0.236	0.061
-127.283	-89.971	0.194	-0.056
-126.268	-144.341	-0.052	-0.005
-125.253	682.920	0.069	0.180
-124.239	-129.342	0.262	0.036
-123.224	-68.872	0.247	-0.095
-122.210	108.958	-0.186	-0.222
