DTS Sentinel unit serial number:	SN413079Multiplexer serial number:	ORYXHardware model number:	OX4-SRSoftware version number:	ORYX F/W v4.00 Oryx Data Collector v3.7.2.0data status	okinstallation	princeton_trtdifferential loss correction	single-endedforward channel	channel 3reverse channel	N/Adate	2019/09/19time	10:28:35forward acquisition time	60.00reverse acquisition time	0.00gamma	496.2192k internal	0.2343k external	0.2343temperature offset calibration	0.9982default loss term (dB/km)	0.3790temperature slope calibration	1.0000multiplexer offset coefficient	1.0000multiplexer slope coefficient	1.0000fibre end	0.00T internal ref (°C)	24.33T ext. ref 1 (°C)	0.71T ext. ref 2 (°C)	19.77length (m)	temperature (°C)	Stokes	anti-Stokes-747.200	27.927	0.332	-0.280
-746.185	800.000	0.021	-0.082
-745.171	-168.303	-0.157	0.006
-744.156	-165.877	0.313	-0.013
-743.142	80.920	0.331	-0.357
-742.127	-195.344	-0.233	-0.002
-741.112	179.309	-0.215	0.315
-740.098	-200.000	0.032	0.166
-739.083	-200.000	-0.011	-0.067
-738.069	-72.243	-0.569	-0.211
-737.054	5.353	0.099	-0.073
-736.039	39.974	-0.206	0.185
-735.025	198.909	0.308	0.473
-734.010	-130.415	-0.367	0.050
-732.996	9.552	-0.337	0.255
-731.981	-160.705	-0.306	-0.016
-730.966	-99.121	-0.184	0.047
-729.952	121.433	-0.076	0.095
-728.937	-200.000	0.026	0.114
-727.923	248.775	0.061	-0.104
-726.908	129.585	-0.205	0.263
-725.894	-95.974	0.287	0.076
-724.879	-153.039	0.338	-0.024
-723.864	-18.244	-0.287	0.180
-722.850	-84.038	-0.303	-0.096
-721.835	-33.193	-0.270	-0.150
-720.821	-200.000	-0.024	-0.216
-719.806	-200.000	-0.003	-0.209
-718.791	-48.964	-0.347	0.166
-717.777	800.000	-0.076	0.303
-716.762	-200.000	-0.024	0.150
-715.748	-149.491	-0.265	-0.021
-714.733	-104.910	0.164	0.038
-713.718	800.000	0.111	-0.366
-712.704	-114.755	0.205	0.039
-711.689	-200.000	-0.008	-0.160
-710.675	-92.768	0.142	-0.040
-709.660	478.405	0.103	0.234
-708.645	1.315	-0.262	0.188
-707.631	-200.000	0.050	0.278
-706.616	-200.000	0.030	0.371
-705.602	-92.876	-0.173	-0.048
-704.587	86.968	0.203	0.224
-703.572	-68.975	0.346	0.133
-702.558	430.596	-0.078	-0.169
-701.543	-200.000	-0.007	-0.049
-700.529	-46.840	-0.122	0.059
-699.514	29.302	-0.238	-0.202
-698.499	87.742	0.261	0.289
-697.485	76.991	-0.037	0.039
-696.470	800.000	0.008	0.026
-695.456	27.993	-0.099	0.083
-694.441	513.214	-0.067	0.156
-693.426	305.681	0.246	-0.458
-692.412	-74.977	-0.324	-0.116
-691.397	800.000	0.021	-0.060
-690.383	57.419	0.143	0.140
-689.368	-200.000	-0.006	-0.161
-688.354	16.310	0.053	-0.042
-687.339	54.416	0.140	-0.135
-686.324	-168.973	0.302	-0.011
-685.310	15.326	0.219	-0.172
-684.295	-118.895	-0.361	-0.063
-683.281	-200.000	-0.005	-0.312
-682.266	-110.282	-0.286	-0.060
-681.251	-200.000	-0.020	0.095
-680.237	-66.867	-0.234	0.092
-679.222	800.000	-0.092	0.262
-678.208	567.963	0.158	0.384
-677.193	-56.795	-0.080	0.036
-676.178	160.479	-0.132	0.183
-675.164	168.438	-0.042	-0.060
-674.149	-200.000	-0.041	-0.184
-673.135	-159.373	-0.309	0.017
-672.120	-96.708	-0.275	-0.072
-671.105	-113.683	0.215	-0.042
-670.091	-200.000	-0.004	-0.172
-669.076	-78.933	0.036	0.012
-668.062	-200.000	0.004	-0.144
-667.047	-4.411	0.188	0.130
-666.032	47.487	0.079	-0.074
-665.018	-161.132	0.198	-0.010
-664.003	-200.000	0.015	-0.105
-662.989	11.427	0.301	-0.230
-661.974	753.221	0.050	0.135
-660.959	-38.368	0.088	0.046
-659.945	-19.141	-0.384	0.238
-658.930	-8.197	-0.340	0.228
-657.916	52.416	0.143	-0.137
-656.901	-200.000	0.042	0.216
-655.886	-149.586	0.054	0.004
-654.872	39.465	-0.170	-0.152
-653.857	-200.000	0.056	-0.261
-652.843	-22.817	-0.152	-0.092
-651.828	122.198	-0.076	-0.094
-650.814	214.225	0.207	0.327
-649.799	-102.710	-0.159	-0.038
-648.784	-109.423	0.407	-0.086
-647.770	-200.000	-0.033	0.152
-646.755	-5.553	0.148	0.101
-645.741	156.663	-0.178	-0.245
-644.726	-118.182	-0.500	0.089
-643.711	-200.000	0.085	0.000
-642.697	65.510	-0.166	-0.168
-641.682	-39.137	-0.061	0.032
-640.668	-200.000	-0.055	-0.323
-639.653	-40.588	0.212	0.110
-638.638	-18.429	0.052	0.033
-637.624	-200.000	0.018	0.120
-636.609	197.690	0.091	-0.138
-635.595	-111.815	0.361	0.073
-634.580	-103.578	-0.197	-0.046
-633.565	8.013	-0.147	-0.110
-632.551	220.415	0.024	-0.039
-631.536	800.000	0.064	0.246
-630.522	6.514	-0.473	-0.351
-629.507	-150.014	0.189	0.015
-628.492	800.000	-0.067	-0.218
-627.478	53.796	0.088	0.084
-626.463	-200.000	0.002	0.106
-625.449	103.699	0.303	0.354
-624.434	14.086	0.202	-0.157
-623.419	349.367	0.060	-0.119
-622.405	147.607	0.162	-0.218
-621.390	129.517	0.276	-0.352
-620.376	800.000	-0.091	0.272
-619.361	-68.939	-0.383	-0.147
-618.346	800.000	0.041	0.122
-617.332	-200.000	-0.008	0.307
-616.317	166.665	-0.212	0.299
-615.303	81.927	-0.067	0.073
-614.288	190.750	0.058	0.087
-613.273	168.564	-0.275	0.390
-612.259	303.051	-0.168	0.310
-611.244	32.251	0.087	0.075
-610.230	761.818	0.042	-0.114
-609.215	-200.000	-0.069	0.336
-608.201	165.827	0.233	-0.328
-607.186	82.111	0.139	0.150
-606.171	663.094	-0.012	-0.030
-605.157	237.148	-0.072	0.119
-604.142	-200.000	0.034	-0.191
-603.128	-92.324	-0.239	0.067
-602.113	166.061	0.178	-0.252
-601.098	-12.822	-0.236	0.153
-600.084	800.000	-0.062	0.246
-599.069	-200.000	-0.075	0.529
-598.055	-137.905	-0.330	0.037
-597.040	-116.807	0.329	0.060
-596.025	70.949	-0.098	-0.101
-595.011	800.000	0.020	-0.080
-593.996	-56.107	0.078	-0.035
-592.982	-59.665	0.275	-0.118
-591.967	91.898	0.109	-0.123
-590.952	-131.301	-0.076	-0.010
-589.938	-14.259	-0.245	-0.157
-588.923	-200.000	0.033	-0.506
-587.909	-42.823	0.123	0.062
-586.894	466.644	-0.142	0.317
-585.879	-43.979	0.164	0.082
-584.865	81.383	-0.077	-0.083
-583.850	-19.164	-0.192	0.119
-582.836	-172.373	0.210	0.007
-581.821	245.645	0.078	0.130
-580.806	-81.555	0.219	-0.072
-579.792	691.890	-0.144	-0.376
-578.777	188.714	0.248	0.370
-577.763	728.953	-0.071	-0.188
-576.748	134.626	-0.159	-0.205
-575.733	-74.527	0.217	0.078
-574.719	-200.000	0.007	-0.225
-573.704	-100.712	-0.055	-0.014
-572.690	151.739	0.080	0.109
-571.675	257.763	0.118	-0.201
-570.661	800.000	0.080	0.273
-569.646	-91.142	0.289	-0.082
-568.631	-14.569	-0.268	0.171
-567.617	-161.583	0.155	0.008
-566.602	-200.000	0.004	-0.186
-565.588	800.000	0.044	-0.169
-564.573	556.105	-0.130	-0.312
-563.558	-52.803	0.177	-0.081
-562.544	180.441	0.260	-0.380
-561.529	-39.258	0.223	-0.116
-560.515	-99.976	-0.148	0.037
-559.500	-200.000	0.018	-0.144
-558.485	780.195	-0.082	0.223
-557.471	-67.550	0.347	-0.135
-556.456	-185.699	-0.289	-0.004
-555.442	-107.571	0.331	0.072
-554.427	-200.000	0.032	0.252
-553.412	255.405	-0.128	0.218
-552.398	-52.617	0.141	-0.065
-551.383	-107.014	0.142	-0.031
-550.369	-84.190	-0.253	0.080
-549.354	-200.000	-0.086	0.461
-548.339	-86.445	0.179	0.055
-547.325	76.788	0.135	-0.142
-546.310	-134.877	-0.147	0.018
-545.296	150.825	0.304	-0.411
-544.281	40.072	-0.156	-0.140
-543.266	-60.430	0.128	0.054
-542.252	800.000	0.143	0.422
-541.237	-67.256	-0.247	0.096
-540.223	73.938	-0.095	0.099
-539.208	-36.863	0.222	0.118
-538.193	50.829	-0.095	-0.089
-537.179	26.198	0.062	0.051
-536.164	-28.957	-0.176	0.100
-535.150	339.665	-0.075	-0.145
-534.135	104.043	0.179	0.210
-533.121	211.686	-0.055	0.085
-532.106	574.867	-0.139	0.337
-531.091	275.782	0.056	-0.098
-530.077	-200.000	-0.087	-0.403
-529.062	-181.452	-0.232	0.004
-528.048	-36.177	-0.033	0.017
-527.033	-198.826	-0.171	0.001
-526.018	35.817	-0.181	0.158
-525.004	-127.123	-0.032	-0.005
-523.989	-113.617	-0.066	0.013
-522.975	-76.084	0.322	-0.113
-521.960	313.374	0.074	0.138
-520.945	800.000	-0.044	-0.188
-519.931	-0.463	0.157	-0.111
-518.916	82.533	-0.213	-0.230
-517.902	245.528	-0.038	0.064
-516.887	-164.264	-0.352	0.016
-515.872	800.000	0.044	0.178
-514.858	-142.138	-0.128	-0.013
-513.843	-36.488	0.112	0.060
-512.829	800.000	0.039	-0.124
-511.814	-82.873	-0.181	0.058
-510.799	337.188	-0.173	0.333
-509.785	311.459	-0.092	0.172
-508.770	258.115	-0.036	-0.062
-507.756	475.049	-0.077	-0.172
-506.741	-200.000	-0.010	-0.337
-505.726	219.441	0.090	-0.143
-504.712	800.000	-0.080	0.290
-503.697	-200.000	-0.009	0.117
-502.683	-53.060	0.195	0.089
-501.668	-200.000	-0.013	0.202
-500.653	800.000	-0.037	-0.146
-499.639	800.000	0.124	-0.529
-498.624	132.896	0.137	-0.176
-497.610	-127.294	0.227	0.033
-496.595	-42.749	-0.272	0.137
-495.581	208.036	-0.050	0.077
-494.566	73.935	0.141	0.147
-493.551	800.000	0.047	-0.149
-492.537	-200.000	-0.001	0.078
-491.522	129.763	0.114	0.145
-490.508	-38.758	-0.093	0.048
-489.493	-135.503	0.290	-0.034
-488.478	38.131	-0.149	0.132
-487.464	-110.151	-0.415	0.086
-486.449	157.407	0.178	0.244
-485.435	-14.899	0.300	0.191
-484.420	-200.000	0.005	0.098
-483.405	-76.360	0.376	-0.131
-482.391	60.147	-0.204	0.200
-481.376	-26.898	0.426	0.246
-480.362	-200.000	-0.010	-0.078
-479.347	-200.000	0.055	-0.277
-478.332	392.293	0.073	-0.150
-477.318	-124.018	-0.262	0.041
-476.303	473.657	0.126	-0.283
-475.289	-200.000	-0.030	-0.274
-474.274	-80.828	-0.168	0.055
-473.259	244.010	0.280	-0.465
-472.245	171.102	0.106	-0.150
-471.230	-200.000	-0.007	0.177
-470.216	-9.793	0.093	0.061
-469.201	71.697	0.091	-0.093
-468.186	-29.926	0.198	-0.112
-467.172	112.735	0.202	0.242
-466.157	207.972	-0.166	-0.256
-465.143	270.529	0.211	-0.368
-464.128	647.081	-0.076	-0.193
-463.113	12.800	-0.189	0.145
-462.099	47.526	0.157	0.145
-461.084	544.050	0.068	0.161
-460.070	-148.627	0.240	0.019
-459.055	432.835	-0.089	0.191
-458.040	-76.703	0.094	-0.033
-457.026	27.839	0.038	0.032
-456.011	-118.315	-0.218	-0.038
-454.997	-84.994	0.111	0.035
-453.982	263.112	-0.127	-0.218
-452.968	-200.000	0.002	-0.100
-451.953	-124.547	0.269	0.041
-450.938	800.000	-0.132	0.377
-449.924	-56.904	-0.064	-0.028
-448.909	50.424	-0.187	0.175
-447.895	110.424	0.136	0.161
-446.880	-200.000	0.009	0.042
-445.865	67.068	-0.127	0.128
-444.851	-200.000	0.060	0.322
-443.836	253.062	-0.191	-0.322
-442.822	350.209	0.092	-0.179
-441.807	87.501	-0.239	0.262
-440.792	800.000	-0.065	-0.231
-439.778	30.980	-0.213	-0.181
-438.763	-200.000	-0.031	0.156
-437.749	464.400	-0.117	-0.260
-436.734	-20.096	0.215	0.131
-435.719	52.608	0.043	0.040
-434.705	800.000	0.090	-0.344
-433.690	-29.733	-0.484	0.273
-432.676	-200.000	0.002	0.057
-431.661	366.545	-0.037	-0.073
-430.646	-26.853	-0.050	-0.029
-429.632	-200.000	-0.035	0.176
-428.617	-40.857	0.117	0.060
-427.603	-66.464	-0.509	0.200
-426.588	26.017	0.068	-0.056
-425.573	-200.000	0.020	-0.413
-424.559	26.370	-0.196	0.162
-423.544	-200.000	0.000	0.137
-422.530	-200.000	-0.022	0.179
-421.515	43.411	-0.365	-0.330
-420.500	-5.374	0.049	0.033
-419.486	800.000	0.065	-0.261
-418.471	175.309	0.061	0.088
-417.457	68.479	0.046	0.047
-416.442	92.736	0.275	0.307
-415.428	800.000	0.056	0.212
-414.413	-1.965	-0.082	-0.057
-413.398	800.000	0.041	0.139
-412.384	-40.712	-0.163	0.084
-411.369	-102.013	-0.201	0.048
-410.355	-50.186	-0.362	0.169
-409.340	26.554	-0.184	-0.152
-408.325	800.000	-0.072	0.257
-407.311	39.108	0.394	-0.348
-406.296	-200.000	0.004	-0.245
-405.282	-15.882	0.154	0.097
-404.267	-67.923	-0.243	-0.094
-403.252	167.022	-0.040	-0.056
-402.238	-200.000	0.017	0.158
-401.223	-122.467	0.268	-0.043
-400.209	-31.850	-0.136	-0.075
-399.194	-115.668	-0.169	-0.031
-398.179	448.150	0.087	-0.189
-397.165	800.000	0.114	0.423
-396.150	135.976	0.050	-0.065
-395.136	-151.983	-0.073	0.005
-394.121	-138.502	-0.233	-0.025
-393.106	-135.887	-0.247	-0.029
-392.092	-115.668	-0.218	-0.040
-391.077	32.436	-0.172	-0.147
-390.063	334.852	-0.143	-0.274
-389.048	800.000	0.039	0.122
-388.033	-54.059	-0.013	-0.006
-387.019	-136.452	0.097	-0.011
-386.004	800.000	-0.089	-0.292
-384.990	800.000	0.041	-0.135
-383.975	53.773	0.021	0.020
-382.960	-85.669	-0.265	-0.081
-381.946	326.343	0.082	-0.154
-380.931	-146.108	-0.388	-0.034
-379.917	-200.000	0.018	-0.368
-378.902	-129.935	-0.470	0.064
-377.888	-200.000	-0.007	-0.098
-376.873	122.058	0.160	-0.197
-375.858	-200.000	0.041	-0.264
-374.844	800.000	0.082	-0.276
-373.829	-30.789	0.374	-0.209
-372.815	-105.345	-0.115	-0.026
-371.800	433.020	0.059	0.127
-370.785	800.000	-0.209	0.624
-369.771	634.820	0.026	0.065
-368.756	-107.853	0.173	0.037
-367.742	-74.262	0.221	-0.079
-366.727	-112.491	-0.152	-0.030
-365.712	-105.335	0.080	-0.018
-364.698	-141.930	-0.049	-0.005
-363.683	38.255	-0.016	-0.014
-362.669	-200.000	-0.017	0.353
-361.654	-61.549	0.159	-0.066
-360.639	-200.000	-0.078	-0.373
-359.625	-12.698	0.138	-0.089
-358.610	-15.565	-0.113	0.071
-357.596	800.000	-0.080	-0.309
-356.581	-81.858	0.143	0.046
-355.566	58.385	0.068	-0.066
-354.552	-43.270	-0.102	0.051
-353.537	144.727	-0.247	-0.326
-352.523	-200.000	-0.228	0.000
-351.508	-43.295	0.092	0.046
-350.493	-129.145	0.293	0.040
-349.479	-99.599	-0.207	-0.051
-348.464	-77.365	-0.118	0.040
-347.450	71.595	-0.055	0.056
-346.435	-200.000	-0.060	0.379
-345.420	-119.199	0.400	-0.069
-344.406	800.000	-0.117	0.486
-343.391	-200.000	0.050	0.246
-342.377	-137.549	0.193	-0.021
-341.362	-15.117	-0.153	0.096
-340.348	-84.100	0.325	-0.102
-339.333	363.823	0.033	-0.065
-338.318	-90.993	0.082	-0.023
-337.304	-200.000	0.003	-0.116
-336.289	-200.000	-0.010	-0.104
-335.275	-200.000	0.056	-0.400
-334.260	429.909	0.186	0.396
-333.245	-200.000	0.026	-0.153
-332.231	21.673	0.248	-0.199
-331.216	800.000	0.025	-0.083
-330.202	-16.600	0.109	-0.068
-329.187	-167.301	-0.053	-0.002
-328.172	800.000	-0.030	-0.090
-327.158	122.870	0.251	0.310
-326.143	-158.597	-0.193	-0.011
-325.129	54.311	0.109	-0.104
-324.114	-45.551	-0.392	-0.191
-323.099	-48.876	-0.102	0.048
-322.085	65.066	-0.159	-0.158
-321.070	-67.621	-0.222	-0.086
-320.056	-200.000	-0.011	0.161
-319.041	800.000	-0.117	-0.372
-318.026	-200.000	-0.047	0.266
-317.012	149.882	0.133	-0.177
-315.997	-200.000	0.005	0.142
-314.983	-200.000	-0.026	-0.257
-313.968	-200.000	-0.009	0.072
-312.953	-15.409	-0.198	-0.125
-311.939	-200.000	0.047	-0.207
-310.924	-3.712	-0.271	0.185
-309.910	-200.000	0.005	0.156
-308.895	37.152	0.077	0.067
-307.880	7.660	-0.283	0.209
-306.866	565.922	0.059	-0.141
-305.851	-92.371	-0.373	-0.103
-304.837	800.000	0.019	-0.073
-303.822	152.064	-0.077	-0.104
-302.807	404.952	-0.072	0.149
-301.793	-200.000	0.062	-0.283
-300.778	-130.236	-0.288	-0.039
-299.764	-200.000	0.045	-0.231
-298.749	-161.335	0.107	0.005
-297.735	-28.640	-0.221	0.125
-296.720	800.000	-0.064	-0.199
-295.705	-200.000	-0.002	-0.164
-294.691	-71.818	-0.191	-0.070
-293.676	-200.000	0.041	0.330
-292.662	-73.210	-0.410	0.148
-291.647	20.066	0.386	-0.306
-290.632	800.000	-0.042	-0.156
-289.618	800.000	0.091	0.376
-288.603	49.929	0.157	0.145
-287.589	-139.891	-0.263	-0.027
-286.574	29.805	0.160	0.134
-285.559	1.478	0.124	-0.087
-284.545	800.000	-0.081	0.262
-283.530	-159.748	-0.131	-0.007
-282.516	33.709	-0.205	0.175
-281.501	-52.769	0.200	-0.091
-280.486	54.291	-0.083	-0.078
-279.472	-200.000	-0.008	0.226
-278.457	-119.740	-0.249	-0.042
-277.443	166.852	-0.154	0.215
-276.428	161.231	-0.111	-0.153
-275.413	-130.426	0.197	-0.026
-274.399	0.326	-0.011	0.008
-273.384	767.786	0.068	-0.181
-272.370	-37.315	-0.161	0.084
-271.355	450.881	-0.098	0.213
-270.340	-200.000	-0.087	-0.401
-269.326	-102.840	0.319	-0.074
-268.311	-90.560	0.365	0.104
-267.297	-17.825	-0.316	-0.195
-266.282	800.000	-0.119	-0.337
-265.267	800.000	0.030	0.096
-264.253	-33.071	-0.161	0.088
-263.238	-106.651	0.158	0.035
-262.224	-89.431	-0.184	0.053
-261.209	800.000	-0.056	0.198
-260.195	59.757	0.271	0.263
-259.180	-102.112	0.207	0.049
-258.165	-200.000	0.054	-0.295
-257.151	-56.573	0.082	-0.036
-256.136	681.438	0.061	0.157
-255.122	-72.159	0.139	0.051
-254.107	-145.048	0.257	0.023
-253.092	-147.401	0.249	-0.021
-252.078	800.000	-0.044	0.179
-251.063	-19.294	0.208	-0.127
-250.049	-200.000	0.042	-0.305
-249.034	-93.930	0.191	-0.051
-248.019	-24.528	0.267	0.156
-247.005	-48.296	0.201	-0.095
-245.990	19.285	0.156	0.123
-244.976	800.000	-0.091	0.251
-243.961	-200.000	0.021	0.093
-242.946	133.226	0.113	-0.143
-241.932	302.368	0.063	0.115
-240.917	800.000	0.022	-0.061
-239.903	-200.000	-0.179	0.001
-238.888	93.900	0.151	0.168
-237.873	-30.962	-0.114	-0.063
-236.859	49.256	0.292	-0.269
-235.844	208.775	-0.095	0.145
-234.830	6.947	0.290	0.212
-233.815	-200.000	0.008	-0.163
-232.800	101.701	0.140	-0.161
-231.786	148.116	-0.088	-0.116
-230.771	-81.892	-0.354	0.114
-229.757	70.589	0.069	-0.070
-228.742	177.799	0.097	0.139
-227.727	800.000	0.090	0.247
-226.713	-78.422	0.216	-0.073
-225.698	-130.576	-0.389	-0.052
-224.684	-200.000	0.003	-0.108
-223.669	170.585	-0.121	0.170
-222.655	-200.000	-0.010	0.300
-221.640	-200.000	-0.058	-0.274
-220.625	-158.257	-0.333	0.019
-219.611	-75.789	-0.056	-0.020
-218.596	96.539	0.149	0.167
-217.582	-42.090	0.063	0.032
-216.567	-200.000	0.023	0.117
-215.552	-41.469	-0.319	-0.161
-214.538	286.385	-0.086	-0.152
-213.523	114.348	0.209	-0.249
-212.509	417.710	-0.019	0.041
-211.494	-25.805	0.151	0.087
-210.479	127.565	0.152	0.189
-209.465	4.960	0.294	-0.212
-208.450	372.546	-0.166	0.330
-207.436	7.780	-0.178	0.131
-206.421	-111.226	0.188	-0.038
-205.406	22.741	-0.147	-0.118
-204.392	580.470	0.034	0.082
-203.377	75.052	0.175	-0.181
-202.363	434.491	0.138	-0.294
-201.348	800.000	0.040	-0.152
-200.333	250.405	0.118	-0.196
-199.319	-70.782	-0.223	-0.082
-198.304	0.183	-0.182	-0.127
-197.290	-200.000	-0.074	-0.000
-196.275	-17.723	0.267	0.164
-195.260	-67.578	0.244	0.094
-194.246	-90.222	0.172	0.049
-193.231	800.000	-0.048	0.173
-192.217	-93.427	0.163	0.044
-191.202	-200.000	-0.049	0.272
-190.187	-200.000	0.086	0.378
-189.173	-131.784	-0.118	-0.015
-188.158	-106.211	0.190	-0.042
-187.144	-31.267	0.183	-0.101
-186.129	84.862	0.097	0.105
-185.114	-200.000	0.010	0.145
-184.100	173.916	0.056	0.080
-183.085	-126.827	0.153	0.022
-182.071	-200.000	0.007	0.182
-181.056	-32.961	-0.210	0.114
-180.042	-135.371	-0.202	-0.024
-179.027	-163.171	0.196	-0.009
-178.012	-145.229	-0.211	0.019
-176.998	195.452	-0.098	-0.146
-175.983	155.361	-0.147	0.198
-174.969	-200.000	0.020	-0.105
-173.954	167.967	-0.091	-0.126
-172.939	-21.863	0.218	-0.130
-171.925	-151.297	-0.332	0.024
-170.910	147.867	-0.132	-0.174
-169.896	-19.229	-0.186	0.113
-168.881	-166.772	0.232	-0.009
-167.866	79.847	0.148	-0.156
-166.852	175.201	-0.136	-0.192
-165.837	-78.456	0.167	0.056
-164.823	358.614	0.164	-0.320
-163.808	-200.000	0.098	0.564
-162.793	97.294	-0.067	0.076
-161.779	-102.223	0.231	0.054
-160.764	-200.000	-0.016	0.183
-159.750	114.566	0.191	0.227
-158.735	52.698	-0.133	0.124
-157.720	800.000	0.127	-0.369
-156.706	135.112	0.160	0.204
-155.691	51.964	-0.202	0.188
-154.677	-200.000	-0.022	0.160
-153.662	90.511	0.170	0.186
-152.647	-31.042	-0.163	0.090
-151.633	85.953	-0.310	-0.333
-150.618	-130.461	0.271	-0.036
-149.604	-200.000	0.026	-0.203
-148.589	-200.000	-0.031	-0.434
-147.574	214.398	0.257	-0.398
-146.560	-110.523	-0.074	-0.015
-145.545	800.000	0.031	0.133
-144.531	76.048	0.514	0.532
-143.516	800.000	0.045	0.170
-142.502	-200.000	0.003	0.049
-141.487	-126.482	-0.412	-0.060
-140.472	158.240	-0.062	0.084
-139.458	800.000	-0.120	-0.329
-138.443	-107.517	0.185	-0.040
-137.429	800.000	-0.164	-0.462
-136.414	800.000	-0.071	0.229
-135.399	-200.000	-0.073	0.354
-134.385	-117.307	0.346	-0.061
-133.370	23.939	0.196	0.158
-132.356	-94.634	-0.137	-0.037
-131.341	-90.751	0.035	0.010
-130.326	325.284	0.276	-0.516
-129.312	-141.100	0.043	-0.004
-128.297	-159.750	-0.609	-0.033
-127.283	31.232	0.354	0.297
-126.268	251.417	0.084	-0.139
-125.253	-200.000	0.014	0.201
-124.239	-200.000	0.033	0.403
-123.224	44.739	-0.106	-0.095
-122.210	-39.449	-0.126	0.064
-121.195	800.000	-0.035	0.104
