DTS Sentinel unit serial number:	SN413079Multiplexer serial number:	ORYXHardware model number:	OX4-SRSoftware version number:	ORYX F/W v4.00 Oryx Data Collector v3.7.2.0data status	okinstallation	princeton_trtdifferential loss correction	single-endedforward channel	channel 3reverse channel	N/Adate	2019/09/14time	17:12:35forward acquisition time	60.00reverse acquisition time	0.00gamma	496.2192k internal	0.2295k external	0.2295temperature offset calibration	1.0031default loss term (dB/km)	0.3790temperature slope calibration	1.0000multiplexer offset coefficient	1.0000multiplexer slope coefficient	1.0000fibre end	0.00T internal ref (°C)	37.94T ext. ref 1 (°C)	5.04T ext. ref 2 (°C)	32.71length (m)	temperature (°C)	Stokes	anti-Stokes-747.200	-200.000	0.010	-0.186
-746.185	-98.365	-0.275	-0.072
-745.171	-42.527	0.031	-0.016
-744.156	-78.332	0.319	0.112
-743.142	-104.150	0.420	0.100
-742.127	-63.814	-0.085	0.035
-741.112	-13.852	-0.333	-0.220
-740.098	477.508	0.035	-0.080
-739.083	616.056	-0.106	-0.271
-738.069	-120.254	0.348	0.061
-737.054	-114.112	-0.292	0.058
-736.039	76.240	-0.212	-0.230
-735.025	216.356	-0.166	0.269
-734.010	-158.891	-0.152	0.009
-732.996	363.645	-0.199	-0.408
-731.981	39.753	-0.087	0.079
-730.966	-47.691	-0.123	-0.061
-729.952	-30.507	0.248	0.144
-728.937	148.745	-0.089	-0.123
-727.923	20.991	-0.058	-0.048
-726.908	-200.000	0.004	-0.033
-725.894	-36.824	-0.260	-0.142
-724.879	-200.000	-0.001	-0.175
-723.864	38.788	0.103	-0.094
-722.850	-107.727	-0.183	0.041
-721.835	-42.271	-0.247	0.129
-720.821	277.959	-0.127	-0.231
-719.806	353.412	-0.151	-0.305
-718.791	-49.341	0.160	-0.078
-717.777	-83.721	-0.198	-0.065
-716.762	-26.131	-0.220	-0.132
-715.748	112.186	0.068	-0.084
-714.733	-182.173	0.343	0.007
-713.718	99.870	0.009	-0.011
-712.704	-3.373	-0.187	-0.133
-711.689	-168.010	-0.173	-0.007
-710.675	-200.000	0.063	-0.331
-709.660	257.724	0.084	0.147
-708.645	-166.214	0.405	-0.017
-707.631	-2.074	-0.167	0.119
-706.616	105.955	0.205	-0.247
-705.602	-200.000	0.046	-0.340
-704.587	112.926	0.196	-0.243
-703.572	-127.793	-0.018	-0.003
-702.558	43.359	-0.201	0.187
-701.543	-200.000	0.016	-0.319
-700.529	-200.000	-0.019	-0.236
-699.514	-103.186	-0.417	0.101
-698.499	227.701	0.024	-0.041
-697.485	65.531	-0.088	0.090
-696.470	364.669	-0.041	-0.084
-695.456	553.923	0.066	-0.163
-694.441	147.045	-0.264	0.363
-693.426	-200.000	0.007	-0.124
-692.412	670.397	0.030	-0.079
-691.397	-200.000	0.078	-0.409
-690.383	274.987	-0.066	-0.120
-689.368	800.000	0.050	-0.202
-688.354	-116.657	-0.417	-0.078
-687.339	800.000	0.089	-0.291
-686.324	127.361	0.091	-0.117
-685.310	-108.416	-0.305	-0.067
-684.295	-164.172	-0.442	0.021
-683.281	-16.162	0.132	-0.086
-682.266	12.594	-0.257	0.202
-681.251	-59.612	0.352	0.154
-680.237	90.250	-0.130	-0.148
-679.222	539.974	0.057	0.139
-678.208	244.394	-0.056	-0.097
-677.193	121.196	-0.199	-0.253
-676.178	-200.000	0.040	-0.185
-675.164	-156.773	0.278	0.017
-674.149	6.065	0.092	0.069
-673.135	83.220	0.136	0.151
-672.120	-200.000	0.089	-0.425
-671.105	-48.212	0.154	-0.076
-670.091	-41.874	-0.240	-0.125
-669.076	88.800	-0.289	-0.328
-668.062	-132.396	-0.114	0.015
-667.047	-31.115	0.302	0.174
-666.032	-200.000	-0.007	0.033
-665.018	-200.000	-0.002	-0.059
-664.003	800.000	0.110	-0.341
-662.989	-200.000	-0.015	0.106
-661.974	-89.132	-0.096	-0.029
-660.959	-169.561	-0.278	0.010
-659.945	-138.890	-0.268	-0.030
-658.930	800.000	-0.145	-0.449
-657.916	102.264	0.149	0.178
-656.901	-90.634	-0.383	-0.113
-655.886	206.620	0.148	-0.235
-654.872	89.864	-0.115	-0.130
-653.857	179.574	0.223	-0.333
-652.843	105.623	-0.034	-0.041
-651.828	-122.498	-0.156	0.026
-650.814	-27.746	-0.155	0.092
-649.799	-200.000	-0.009	0.364
-648.784	-3.751	-0.081	0.057
-647.770	-104.585	0.227	-0.053
-646.755	-200.000	0.002	-0.118
-645.741	-169.832	-0.064	-0.002
-644.726	-200.000	0.029	-0.232
-643.711	70.460	0.192	-0.202
-642.697	-107.247	-0.258	-0.058
-641.682	-133.401	0.254	-0.032
-640.668	355.977	-0.199	-0.403
-639.653	-28.801	0.207	0.121
-638.638	-25.908	0.149	-0.089
-637.624	-136.598	-0.195	-0.023
-636.609	-153.047	-0.248	0.018
-635.595	21.971	-0.050	0.042
-634.580	-21.220	-0.179	0.112
-633.565	-87.495	0.394	0.121
-632.551	350.443	0.026	0.052
-631.536	75.357	-0.070	-0.075
-630.522	332.518	0.110	0.216
-629.507	-65.687	-0.279	-0.114
-628.492	79.238	-0.174	-0.190
-627.478	-97.369	-0.188	0.050
-626.463	227.493	-0.095	0.157
-625.449	33.734	0.233	-0.206
-624.434	800.000	0.039	0.170
-623.419	-200.000	-0.014	-0.061
-622.405	162.824	0.015	0.021
-621.390	-118.345	-0.163	0.029
-620.376	103.514	-0.239	-0.286
-619.361	800.000	-0.097	0.369
-618.346	65.093	0.105	-0.108
-617.332	-116.805	-0.103	0.019
-616.317	296.932	0.122	-0.228
-615.303	-188.770	-0.248	-0.003
-614.288	800.000	-0.095	-0.302
-613.273	-45.636	0.155	0.078
-612.259	-51.394	0.116	0.055
-611.244	-200.000	0.007	-0.192
-610.230	-125.517	-0.171	-0.026
-609.215	-200.000	0.063	-0.327
-608.201	5.960	0.136	-0.103
-607.186	-200.000	0.001	-0.340
-606.171	800.000	-0.021	-0.071
-605.157	800.000	0.061	-0.181
-604.142	17.179	0.110	0.088
-603.128	729.732	0.050	0.135
-602.113	111.904	0.073	-0.089
-601.098	-104.544	-0.170	0.040
-600.084	680.678	0.119	-0.316
-599.069	-39.293	0.074	-0.040
-598.055	163.092	0.040	-0.058
-597.040	800.000	0.053	0.180
-596.025	371.916	0.092	-0.189
-595.011	78.462	-0.158	0.172
-593.996	-122.365	0.137	-0.023
-592.982	15.680	-0.055	-0.044
-591.967	800.000	-0.088	0.277
-590.952	-85.791	-0.319	0.100
-589.938	-9.816	-0.148	-0.100
-588.923	-62.546	0.058	-0.025
-587.909	150.911	0.124	0.171
-586.894	-143.165	-0.166	-0.016
-585.879	800.000	-0.055	-0.197
-584.865	-200.000	-0.021	-0.152
-583.850	254.097	-0.083	0.144
-582.836	4.368	-0.308	0.229
-581.821	5.806	0.038	-0.029
-580.806	-200.000	-0.026	-0.215
-579.792	590.234	-0.076	-0.191
-578.777	144.535	-0.050	-0.068
-577.763	-200.000	0.016	-0.503
-576.748	24.230	-0.202	-0.169
-575.733	-76.391	-0.115	0.041
-574.719	495.172	-0.198	-0.462
-573.704	-200.000	-0.001	0.015
-572.690	-67.747	-0.172	-0.068
-571.675	-91.830	0.109	0.032
-570.661	-44.410	-0.204	-0.104
-569.646	-67.397	-0.258	-0.103
-568.631	-200.000	-0.049	0.302
-567.617	-183.740	0.202	0.004
-566.602	19.226	0.234	-0.191
-565.588	573.755	0.021	-0.052
-564.573	78.507	0.130	0.141
-563.558	-200.000	-0.040	-0.229
-562.544	74.735	0.150	-0.161
-561.529	-152.847	-0.125	-0.009
-560.515	-77.191	-0.398	-0.141
-559.500	28.604	0.153	0.132
-558.485	-114.847	-0.091	0.018
-557.471	378.385	-0.235	-0.488
-556.456	-200.000	-0.012	-0.159
-555.442	-97.511	0.138	0.036
-554.427	-140.820	0.078	-0.008
-553.412	-17.880	0.132	-0.084
-552.398	-25.176	-0.160	-0.096
-551.383	4.142	0.097	0.072
-550.369	-147.260	0.183	0.016
-549.354	-70.792	0.224	0.086
-548.339	-200.000	0.014	0.326
-547.325	621.563	-0.139	-0.355
-546.310	-131.764	0.218	0.029
-545.296	693.721	0.042	-0.111
-544.281	-200.000	0.023	0.139
-543.266	239.203	-0.072	0.122
-542.252	800.000	-0.046	0.146
-541.237	370.652	0.067	0.138
-540.223	-200.000	-0.007	0.210
-539.208	800.000	0.043	-0.133
-538.193	189.867	0.167	0.254
-537.179	-134.209	-0.251	0.031
-536.164	800.000	-0.195	-0.559
-535.150	235.523	0.088	0.147
-534.135	84.654	0.231	0.257
-533.121	-17.971	-0.080	0.051
-532.106	800.000	0.093	-0.316
-531.091	-37.638	0.182	0.098
-530.077	-154.111	0.153	-0.011
-529.062	-32.783	-0.348	-0.196
-528.048	255.282	0.070	0.121
-527.033	-181.936	0.257	-0.005
-526.018	234.659	-0.144	-0.240
-525.004	800.000	-0.039	-0.147
-523.989	-78.597	-0.093	0.032
-522.975	705.910	-0.090	-0.242
-521.960	-200.000	-0.003	0.033
-520.945	-200.000	0.038	0.459
-519.931	-146.329	-0.194	-0.017
-518.916	53.697	-0.097	-0.094
-517.902	105.275	-0.079	0.094
-516.887	52.257	-0.183	-0.176
-515.872	-38.429	0.102	0.055
-514.858	800.000	0.038	-0.145
-513.843	158.570	0.085	0.119
-512.829	800.000	0.035	0.114
-511.814	-0.430	-0.080	0.058
-510.799	-200.000	0.041	0.411
-509.785	-40.458	-0.141	-0.074
-508.770	-90.391	0.152	-0.045
-507.756	9.689	0.339	-0.260
-506.741	245.305	0.111	-0.190
-505.726	350.398	0.146	-0.291
-504.712	-82.549	-0.334	0.110
-503.697	-200.000	0.024	-0.121
-502.683	-182.652	-0.303	0.006
-501.668	-75.643	0.406	0.146
-500.653	6.406	0.274	0.206
-499.639	378.117	-0.015	0.031
-498.624	134.404	0.179	-0.235
-497.610	800.000	0.034	-0.124
-496.595	625.308	-0.069	-0.177
-495.581	-20.223	-0.187	-0.116
-494.566	-158.789	0.109	-0.006
-493.551	-87.359	-0.234	0.072
-492.537	-101.447	0.200	-0.049
-491.522	-58.818	-0.379	-0.166
-490.508	-200.000	-0.015	0.220
-489.493	-42.628	0.277	0.143
-488.478	199.215	-0.154	0.239
-487.464	330.639	0.114	-0.222
-486.449	86.975	-0.088	-0.099
-485.435	800.000	0.062	-0.180
-484.420	13.806	-0.274	-0.216
-483.405	425.217	0.149	-0.324
-482.391	-200.000	-0.004	0.253
-481.376	800.000	0.061	-0.195
-480.362	449.439	-0.126	-0.281
-479.347	481.587	0.077	-0.177
-478.332	440.329	0.060	-0.132
-477.318	250.342	-0.103	-0.177
-476.303	-153.830	0.429	-0.030
-475.289	-56.479	-0.144	-0.065
-474.274	-133.686	0.103	0.013
-473.259	-75.325	-0.172	-0.062
-472.245	-200.000	0.055	0.247
-471.230	-29.332	0.076	-0.044
-470.216	-200.000	0.007	0.034
-469.201	318.232	0.083	-0.160
-468.186	-42.321	-0.392	-0.202
-467.172	-47.770	-0.153	0.075
-466.157	-44.174	0.260	0.132
-465.143	365.853	0.130	-0.265
-464.128	515.060	0.089	0.211
-463.113	800.000	-0.002	0.008
-462.099	202.856	-0.070	0.110
-461.084	346.085	0.031	0.062
-460.070	-15.489	0.207	0.134
-459.055	-99.856	-0.312	-0.079
-458.040	45.024	0.131	0.122
-457.026	-200.000	0.034	-0.274
-456.011	-200.000	0.048	-0.401
-454.997	-50.136	-0.333	0.159
-453.982	299.400	-0.100	0.187
-452.968	-200.000	0.032	0.290
-451.953	85.684	0.111	0.123
-450.938	-164.983	-0.118	-0.005
-449.924	-36.833	0.255	-0.138
-448.909	-164.930	-0.111	-0.005
-447.895	182.424	-0.105	-0.157
-446.880	-130.675	0.334	0.045
-445.865	111.310	-0.079	-0.096
-444.851	-145.236	-0.183	-0.017
-443.836	800.000	0.016	0.056
-442.822	-61.801	0.434	-0.183
-441.807	-47.568	-0.136	-0.067
-440.792	490.739	0.090	-0.208
-439.778	-200.000	0.011	0.209
-438.763	460.047	-0.099	0.223
-437.749	125.213	0.120	0.153
-436.734	124.028	-0.186	-0.236
-435.719	-109.199	-0.198	-0.042
-434.705	800.000	0.085	0.367
-433.690	-200.000	-0.009	-0.164
-432.676	-91.861	-0.096	0.028
-431.661	-125.060	0.071	-0.011
-430.646	-99.718	-0.159	-0.040
-429.632	723.369	-0.086	0.231
-428.617	420.074	0.092	0.199
-427.603	-157.599	0.200	-0.012
-426.588	-200.000	0.024	-0.114
-425.573	-40.363	-0.137	-0.072
-424.559	800.000	0.023	-0.086
-423.544	47.429	0.183	-0.172
-422.530	18.310	0.189	-0.152
-421.515	-200.000	0.010	-0.052
-420.500	398.497	-0.171	0.360
-419.486	54.728	0.252	0.246
-418.471	800.000	-0.057	0.215
-417.457	109.779	-0.159	0.193
-416.442	110.339	0.268	-0.324
-415.428	-98.838	0.146	-0.037
-414.413	800.000	0.057	0.168
-413.398	106.184	-0.187	0.224
-412.384	-200.000	-0.026	0.164
-411.369	147.698	0.117	0.159
-410.355	108.446	0.236	-0.284
-409.340	4.954	0.099	0.074
-408.325	-6.903	0.109	-0.075
-407.311	800.000	0.080	0.256
-406.296	-56.573	-0.050	0.022
-405.282	-93.506	-0.244	0.068
-404.267	165.598	-0.155	-0.221
-403.252	-200.000	0.014	0.128
-402.238	-200.000	0.000	-0.008
-401.223	-200.000	-0.025	0.121
-400.209	800.000	0.015	-0.053
-399.194	18.893	0.216	-0.174
-398.179	800.000	-0.008	0.025
-397.165	57.693	-0.165	0.162
-396.150	-132.373	-0.131	-0.017
-395.136	-200.000	0.023	0.112
-394.121	-146.260	-0.136	0.012
-393.106	170.566	0.216	0.312
-392.092	11.383	-0.110	-0.085
-391.077	-200.000	0.025	-0.316
-390.063	-103.153	-0.148	0.035
-389.048	48.171	0.342	0.323
-388.033	-81.757	0.197	-0.065
-387.019	15.693	-0.094	-0.074
-386.004	-141.670	0.300	-0.030
-384.990	-9.006	0.246	0.166
-383.975	-118.299	0.114	-0.020
-382.960	-27.743	-0.046	0.027
-381.946	-79.205	0.080	0.027
-380.931	-200.000	-0.037	-0.225
-379.917	-116.990	-0.282	0.052
-378.902	800.000	0.041	0.172
-377.888	111.011	-0.083	-0.100
-376.873	-36.753	0.116	0.063
-375.858	-63.285	-0.256	-0.106
-374.844	62.674	-0.086	-0.086
-373.829	68.407	-0.184	0.190
-372.815	296.082	0.063	0.117
-371.800	-128.372	-0.355	0.051
-370.785	197.432	-0.170	-0.262
-369.771	142.306	-0.120	-0.161
-368.756	-81.610	0.039	0.013
-367.742	57.324	-0.125	-0.123
-366.727	800.000	0.106	-0.302
-365.712	-101.230	-0.162	-0.040
-364.698	42.285	-0.144	0.132
-363.683	61.430	-0.140	0.140
-362.669	-101.548	0.152	0.037
-361.654	-200.000	0.000	0.078
-360.639	-51.681	-0.078	0.036
-359.625	-15.301	0.037	0.024
-358.610	-48.358	-0.255	0.124
-357.596	-96.275	0.281	-0.075
-356.581	-74.961	0.205	-0.074
-355.566	-112.868	0.414	0.083
-354.552	-9.760	-0.233	0.156
-353.537	150.469	-0.228	-0.312
-352.523	-4.658	0.612	0.425
-351.508	-104.736	0.170	0.039
-350.493	658.147	0.068	-0.176
-349.479	247.042	-0.124	0.211
-348.464	-129.952	-0.119	0.016
-347.450	-41.243	0.359	0.186
-346.435	26.136	0.088	-0.074
-345.420	-49.088	-0.066	0.032
-344.406	-144.962	-0.172	-0.016
-343.391	181.613	-0.223	-0.330
-342.377	-117.138	-0.448	0.082
-341.362	800.000	-0.020	-0.073
-340.348	562.259	0.053	-0.128
-339.333	-4.904	-0.229	0.158
-338.318	220.202	-0.154	0.249
-337.304	29.855	-0.098	0.084
-336.289	-110.848	-0.275	0.057
-335.275	18.115	0.179	-0.144
-334.260	-200.000	0.026	-0.184
-333.245	24.179	0.138	-0.115
-332.231	32.220	0.297	-0.257
-331.216	297.437	0.069	-0.127
-330.202	-200.000	0.033	0.148
-329.187	223.225	-0.171	0.278
-328.172	31.836	-0.109	0.094
-327.158	-50.722	0.223	-0.106
-326.143	800.000	-0.078	-0.281
-325.129	800.000	0.058	0.166
-324.114	-140.504	0.252	0.026
-323.099	126.827	0.056	0.071
-322.085	-64.248	0.104	0.043
-321.070	31.453	0.288	0.249
-320.056	194.171	-0.059	0.090
-319.041	67.944	0.204	-0.210
-318.026	57.190	0.079	-0.078
-317.012	104.654	0.157	0.186
-315.997	194.696	-0.027	-0.041
-314.983	-200.000	-0.017	-0.105
-313.968	-24.859	-0.352	-0.210
-312.953	6.593	-0.027	-0.020
-311.939	-200.000	0.034	-0.242
-310.924	-148.496	0.380	-0.031
-309.910	4.806	0.214	-0.158
-308.895	800.000	0.076	0.266
-307.880	-150.075	0.246	-0.019
-306.866	800.000	0.107	0.344
-305.851	2.716	-0.194	-0.141
-304.837	-131.633	-0.097	-0.013
-303.822	414.916	-0.207	0.442
-302.807	-30.523	0.209	-0.119
-301.793	647.318	0.154	0.395
-300.778	221.294	0.177	0.286
-299.764	-70.557	0.236	-0.090
-298.749	37.926	0.253	0.226
-297.735	-200.000	-0.032	-0.185
-296.720	-20.163	-0.241	0.149
-295.705	182.933	-0.175	0.260
-294.691	58.340	-0.091	-0.089
-293.676	293.233	-0.252	0.461
-292.662	710.155	0.111	-0.294
-291.647	-200.000	-0.010	0.133
-290.632	-92.131	0.068	-0.019
-289.618	800.000	-0.080	-0.282
-288.603	453.873	-0.101	-0.224
-287.589	-66.619	-0.187	-0.074
-286.574	-37.278	-0.214	-0.115
-285.559	-16.059	0.284	-0.181
-284.545	71.481	-0.326	-0.339
-283.530	171.281	-0.130	-0.187
-282.516	176.176	0.295	0.430
-281.501	795.469	-0.085	0.235
-280.486	229.512	0.181	0.296
-279.472	-77.031	0.118	-0.041
-278.457	320.727	0.087	0.166
-277.443	45.579	0.124	0.115
-276.428	583.095	-0.064	-0.157
-275.413	748.671	0.094	0.254
-274.399	-138.872	-0.319	-0.035
-273.384	-45.417	0.207	-0.103
-272.370	84.080	0.061	0.067
-271.355	83.255	0.030	0.033
-270.340	225.404	0.269	-0.436
-269.326	-113.707	-0.314	-0.061
-268.311	-200.000	0.016	0.168
-267.297	12.028	-0.254	-0.196
-266.282	-113.652	0.212	0.041
-265.267	69.832	0.090	0.093
-264.253	78.020	-0.105	0.112
-263.238	168.960	0.150	0.214
-262.224	58.950	-0.100	-0.099
-261.209	-200.000	0.015	0.103
-260.195	-27.395	0.122	-0.071
-259.180	212.664	0.074	-0.116
-258.165	-200.000	-0.012	0.161
-257.151	187.562	0.065	0.097
-256.136	-200.000	-0.012	0.056
-255.122	-69.296	0.051	-0.020
-254.107	-90.796	-0.358	0.103
-253.092	-200.000	0.017	0.158
-252.078	-200.000	0.004	-0.288
-251.063	-51.744	0.117	-0.055
-250.049	-148.601	-0.274	0.022
-249.034	-13.497	0.203	0.132
-248.019	-70.169	-0.381	-0.145
-247.005	-72.033	-0.059	0.022
-245.990	115.011	0.129	0.158
-244.976	565.172	0.116	0.281
-243.961	-200.000	-0.015	-0.090
-242.946	416.953	-0.066	0.141
-241.932	-25.336	-0.295	0.175
-240.917	58.341	0.158	-0.155
-239.903	-100.279	-0.157	-0.039
-238.888	339.026	0.052	0.102
-237.873	266.176	-0.119	0.208
-236.859	126.086	0.176	0.223
-235.844	-200.000	-0.026	0.326
-234.830	-142.597	0.140	-0.014
-233.815	50.792	-0.153	0.145
-232.800	-191.229	-0.370	0.004
-231.786	-200.000	-0.001	0.084
-230.771	186.674	-0.050	0.075
-229.757	-200.000	-0.009	0.142
-228.742	-97.059	-0.065	-0.017
-227.727	682.153	0.128	0.334
-226.713	-7.846	-0.200	0.136
-225.698	-17.313	0.084	-0.053
-224.684	-200.000	-0.002	-0.218
-223.669	-142.516	-0.086	0.008
-222.655	330.000	-0.239	-0.460
-221.640	12.386	-0.048	-0.037
-220.625	300.108	0.017	-0.032
-219.611	800.000	0.046	-0.174
-218.596	8.616	-0.345	0.260
-217.582	270.017	0.082	0.145
-216.567	15.840	0.283	0.223
-215.552	526.869	0.036	0.086
-214.538	800.000	-0.061	-0.230
-213.523	-35.668	0.294	-0.160
-212.509	94.943	0.177	-0.201
-211.494	689.923	-0.111	0.290
-210.479	-147.249	-0.180	0.015
-209.465	401.164	0.121	0.254
-208.450	-11.004	-0.030	0.020
-207.436	45.943	0.143	-0.132
-206.421	17.001	-0.117	-0.093
-205.406	-199.316	-0.287	0.002
-204.392	-200.000	-0.013	-0.121
-203.377	153.852	-0.073	-0.100
-202.363	-100.689	-0.091	0.022
-201.348	11.804	0.123	0.094
-200.333	800.000	0.081	0.309
-199.319	160.730	0.092	-0.129
-198.304	202.718	-0.065	0.100
-197.290	-78.112	-0.170	0.059
-196.275	800.000	-0.055	-0.211
-195.260	27.503	0.089	-0.075
-194.246	800.000	-0.045	0.163
-193.231	-200.000	-0.243	-0.000
-192.217	28.049	-0.154	0.130
-191.202	-9.751	-0.067	-0.044
-190.187	-200.000	0.014	-0.128
-189.173	306.996	0.135	0.252
-188.158	102.281	-0.184	0.215
-187.144	-23.081	0.139	-0.084
-186.129	-100.903	0.184	-0.045
-185.114	-2.778	0.172	0.120
-184.100	84.912	0.195	-0.213
-183.085	-33.577	0.119	0.066
-182.071	800.000	-0.071	0.248
-181.056	-200.000	-0.010	0.243
-180.042	240.644	-0.142	0.237
-179.027	-200.000	0.014	0.071
-178.012	141.949	-0.149	0.198
-176.998	-200.000	-0.020	0.134
-175.983	-56.172	0.443	-0.197
-174.969	-67.018	0.181	-0.071
-173.954	-200.000	0.037	-0.210
-172.939	-200.000	0.038	0.214
-171.925	-17.593	-0.121	-0.076
-170.910	800.000	0.090	0.255
-169.896	298.284	0.102	-0.188
-168.881	-72.446	0.108	0.040
-167.866	-13.056	0.178	0.115
-166.852	-200.000	-0.034	0.237
-165.837	-200.000	-0.021	0.374
-164.823	-20.374	-0.245	-0.150
-163.808	619.140	-0.141	-0.354
-162.793	-15.191	-0.197	0.126
-161.779	-150.191	-0.411	-0.032
-160.764	0.272	0.154	0.110
-159.750	-200.000	-0.024	0.390
-158.735	-200.000	0.011	-0.122
-157.720	269.032	-0.072	-0.126
-156.706	-114.867	0.080	0.015
-155.691	-200.000	-0.007	-0.071
-154.677	-156.495	0.342	0.021
-153.662	76.570	0.073	0.077
-152.647	-72.563	0.276	-0.102
-151.633	222.092	0.195	-0.314
-150.618	-63.180	0.081	0.033
-149.604	133.199	0.110	0.142
-148.589	-200.000	0.023	-0.177
-147.574	-200.000	-0.001	-0.130
-146.560	-200.000	-0.129	-0.636
-145.545	48.277	-0.112	-0.105
-144.531	-63.427	0.339	0.139
-143.516	-99.236	-0.305	0.077
-142.502	-112.101	-0.144	-0.029
-141.487	-200.000	0.026	0.206
-140.472	-54.986	0.047	0.021
-139.458	800.000	-0.065	0.266
-138.443	-128.781	0.308	0.043
-137.429	800.000	0.048	-0.192
-136.414	-84.180	-0.228	-0.072
-135.399	30.986	-0.144	-0.123
-134.385	-49.423	0.475	-0.226
-133.370	-200.000	0.009	0.113
-132.356	-73.292	-0.295	0.108
-131.341	303.899	-0.169	0.313
-130.326	-85.674	0.374	0.116
-129.312	-47.284	0.229	0.111
-128.297	50.299	0.476	0.448
-127.283	178.300	0.162	0.235
-126.268	-37.841	-0.207	0.110
-125.253	49.357	0.023	-0.021
-124.239	-61.182	0.097	0.041
-123.224	-200.000	-0.022	-0.099
-122.210	-137.142	0.267	-0.030
-121.195	-200.000	-0.035	0.181
