DTS Sentinel unit serial number:	SN413079Multiplexer serial number:	ORYXHardware model number:	OX4-SRSoftware version number:	ORYX F/W v4.00 Oryx Data Collector v3.7.2.0data status	okinstallation	princeton_trtdifferential loss correction	single-endedforward channel	channel 3reverse channel	N/Adate	2019/09/12time	17:06:10forward acquisition time	60.00reverse acquisition time	0.00gamma	496.2192k internal	0.2312k external	0.2312temperature offset calibration	1.0090default loss term (dB/km)	0.3790temperature slope calibration	1.0000multiplexer offset coefficient	1.0000multiplexer slope coefficient	1.0000fibre end	0.00T internal ref (°C)	35.50T ext. ref 1 (°C)	2.84T ext. ref 2 (°C)	28.80length (m)	temperature (°C)	Stokes	anti-Stokes-747.200	35.116	0.120	0.107
-746.185	150.702	0.015	-0.020
-745.171	-72.087	-0.164	0.062
-744.156	800.000	-0.043	0.133
-743.142	-96.450	0.111	0.030
-742.127	575.452	0.095	0.235
-741.112	482.042	-0.073	0.169
-740.098	-200.000	0.058	0.338
-739.083	-200.000	0.001	0.349
-738.069	-200.000	0.037	0.190
-737.054	418.648	-0.054	0.117
-736.039	-200.000	-0.017	0.174
-735.025	-200.000	-0.042	0.331
-734.010	142.089	-0.227	0.306
-732.996	-78.940	0.206	0.071
-731.981	-156.010	-0.247	0.016
-730.966	745.784	0.090	0.246
-729.952	66.866	-0.098	-0.101
-728.937	-10.724	-0.106	-0.071
-727.923	-200.000	-0.010	-0.146
-726.908	385.644	0.080	-0.167
-725.894	-23.549	-0.062	-0.038
-724.879	-3.696	0.073	-0.051
-723.864	-200.000	-0.003	0.031
-722.850	82.364	-0.181	-0.199
-721.835	112.155	-0.212	0.260
-720.821	-200.000	-0.054	-0.362
-719.806	115.740	-0.163	-0.202
-718.791	-5.743	-0.129	0.089
-717.777	34.870	-0.076	0.067
-716.762	76.334	0.085	-0.092
-715.748	555.464	-0.052	-0.126
-714.733	-167.877	0.060	-0.002
-713.718	-200.000	-0.031	-0.216
-712.704	-92.405	0.278	0.079
-711.689	800.000	0.049	-0.145
-710.675	800.000	-0.047	-0.206
-709.660	-200.000	0.024	-0.269
-708.645	2.425	0.073	-0.054
-707.631	719.434	-0.109	-0.293
-706.616	-185.773	-0.135	0.002
-705.602	242.220	0.049	-0.084
-704.587	218.177	0.075	0.122
-703.572	-118.005	-0.246	0.045
-702.558	-200.000	0.001	0.138
-701.543	-175.869	0.302	-0.008
-700.529	-200.000	0.033	0.436
-699.514	123.098	0.093	0.118
-698.499	-75.267	0.196	0.071
-697.485	-128.471	-0.166	-0.024
-696.470	800.000	-0.025	-0.090
-695.456	-152.392	0.316	-0.023
-694.441	260.177	0.091	0.160
-693.426	250.531	-0.104	-0.179
-692.412	-33.200	-0.087	-0.049
-691.397	-47.100	0.240	0.119
-690.383	-27.914	-0.141	-0.083
-689.368	165.458	-0.182	-0.261
-688.354	-200.000	-0.005	-0.138
-687.339	85.708	-0.131	-0.145
-686.324	-200.000	-0.010	0.120
-685.310	-58.293	0.130	0.057
-684.295	800.000	-0.104	-0.299
-683.281	-200.000	0.005	-0.180
-682.266	-200.000	0.012	0.063
-681.251	-53.929	0.070	0.032
-680.237	-18.898	0.159	0.100
-679.222	-107.509	0.084	0.019
-678.208	800.000	0.005	0.020
-677.193	178.217	0.165	0.244
-676.178	-200.000	-0.004	0.139
-675.164	-200.000	0.014	0.258
-674.149	52.880	0.203	0.196
-673.135	-200.000	0.017	-0.224
-672.120	-60.625	-0.071	-0.030
-671.105	-8.187	0.157	-0.107
-670.091	-200.000	0.034	-0.447
-669.076	81.855	0.164	-0.180
-668.062	256.536	0.132	-0.230
-667.047	-93.517	-0.165	0.046
-666.032	58.068	0.194	0.193
-665.018	644.442	-0.107	0.277
-664.003	63.083	0.060	-0.061
-662.989	-200.000	-0.005	0.103
-661.974	50.874	-0.132	0.127
-660.959	70.897	-0.217	0.227
-659.945	-200.000	0.009	-0.121
-658.930	-200.000	-0.022	-0.313
-657.916	49.740	0.112	-0.107
-656.901	800.000	-0.054	-0.159
-655.886	-200.000	0.005	-0.450
-654.872	412.912	-0.009	0.019
-653.857	-126.668	-0.169	-0.025
-652.843	12.233	0.367	0.285
-651.828	309.087	0.080	0.152
-650.814	800.000	0.025	0.094
-649.799	716.414	-0.124	-0.332
-648.784	258.598	0.169	-0.294
-647.770	-175.290	-0.081	-0.002
-646.755	-116.032	-0.174	-0.033
-645.741	-49.992	-0.152	0.073
-644.726	83.153	-0.236	0.260
-643.711	662.099	-0.082	0.214
-642.697	-137.833	-0.050	-0.006
-641.682	-48.356	0.333	-0.162
-640.668	7.957	-0.169	-0.128
-639.653	-20.118	0.286	0.178
-638.638	26.262	-0.139	-0.118
-637.624	-69.176	0.303	-0.118
-636.609	-200.000	-0.054	-0.255
-635.595	21.531	-0.243	-0.200
-634.580	46.406	-0.197	0.184
-633.565	-105.664	0.124	-0.028
-632.551	80.882	-0.115	0.125
-631.536	-67.272	-0.152	-0.060
-630.522	333.494	-0.128	0.250
-629.507	-200.000	0.035	0.170
-628.492	25.796	0.175	-0.148
-627.478	-127.558	-0.131	0.019
-626.463	245.547	0.208	-0.353
-625.449	-10.133	0.164	0.110
-624.434	-200.000	0.009	-0.121
-623.419	124.997	-0.035	-0.045
-622.405	-39.637	-0.221	-0.117
-621.390	-9.787	-0.179	-0.120
-620.376	-92.591	-0.290	0.082
-619.361	-160.532	-0.214	0.012
-618.346	-122.054	0.136	0.023
-617.332	72.002	-0.184	0.193
-616.317	702.112	-0.054	0.145
-615.303	88.099	-0.247	0.277
-614.288	-111.079	0.456	-0.094
-613.273	305.431	-0.114	-0.213
-612.259	138.162	-0.165	0.219
-611.244	-200.000	-0.047	-0.582
-610.230	-95.619	0.198	-0.053
-609.215	-146.795	-0.080	0.007
-608.201	800.000	-0.075	-0.249
-607.186	-130.846	-0.080	0.011
-606.171	-200.000	0.008	-0.131
-605.157	35.298	0.262	0.232
-604.142	268.022	-0.123	0.217
-603.128	547.506	-0.129	0.312
-602.113	-61.390	0.225	-0.096
-601.098	550.121	0.047	0.114
-600.084	-77.903	0.105	0.036
-599.069	171.280	0.120	-0.174
-598.055	60.999	-0.041	0.042
-597.040	-200.000	-0.121	0.000
-596.025	-116.789	0.229	-0.042
-595.011	-100.331	-0.285	0.071
-593.996	-93.968	0.383	0.106
-592.982	526.392	0.121	0.287
-591.967	800.000	-0.041	0.174
-590.952	-200.000	0.001	-0.103
-589.938	-62.482	0.260	-0.109
-588.923	401.573	0.106	-0.225
-587.909	448.101	0.124	-0.276
-586.894	24.526	0.257	-0.215
-585.879	-152.424	-0.188	-0.014
-584.865	38.412	0.204	-0.183
-583.850	31.068	0.213	-0.184
-582.836	60.415	-0.170	0.170
-581.821	0.922	-0.096	-0.070
-580.806	-24.035	0.236	0.142
-579.792	235.092	-0.181	0.300
-578.777	-61.725	-0.104	0.044
-577.763	-200.000	0.050	0.441
-576.748	743.778	-0.051	-0.138
-575.733	-138.488	0.198	0.022
-574.719	66.951	0.085	-0.088
-573.704	-168.342	-0.340	0.013
-572.690	-200.000	0.069	0.517
-571.675	89.542	0.291	0.327
-570.661	558.880	0.121	0.295
-569.646	-116.528	-0.081	0.015
-568.631	-93.329	0.309	0.086
-567.617	-35.480	0.189	-0.104
-566.602	25.411	0.389	0.325
-565.588	-80.424	0.106	0.036
-564.573	16.112	0.229	0.182
-563.558	-99.604	0.185	-0.047
-562.544	47.135	0.303	-0.284
-561.529	800.000	-0.083	0.349
-560.515	-15.009	-0.058	0.038
-559.500	-73.430	0.258	-0.095
-558.485	7.378	0.201	-0.151
-557.471	-76.763	0.108	0.038
-556.456	800.000	0.055	0.228
-555.442	162.559	0.050	0.070
-554.427	8.822	0.151	-0.115
-553.412	-200.000	0.038	0.350
-552.398	-200.000	-0.051	-0.384
-551.383	717.749	-0.157	-0.419
-550.369	136.459	0.150	0.197
-549.354	-200.000	-0.047	-0.341
-548.339	-200.000	0.013	0.109
-547.325	68.168	0.099	0.102
-546.310	146.318	-0.063	-0.086
-545.296	-125.273	0.275	-0.042
-544.281	-200.000	0.031	-0.152
-543.266	-52.296	-0.135	-0.063
-542.252	436.238	0.099	-0.218
-541.237	-52.347	-0.094	0.044
-540.223	628.464	0.030	-0.077
-539.208	-40.442	-0.053	0.028
-538.193	667.882	0.057	-0.148
-537.179	126.440	0.104	0.132
-536.164	-140.218	-0.130	-0.014
-535.150	-87.988	0.271	0.082
-534.135	91.765	-0.228	-0.259
-533.121	-56.485	0.307	-0.137
-532.106	-131.632	-0.152	-0.020
-531.091	-200.000	0.006	-0.027
-530.077	14.517	-0.156	-0.123
-529.062	-174.521	-0.407	-0.012
-528.048	256.606	-0.186	-0.321
-527.033	-38.396	0.198	0.105
-526.018	138.395	0.078	-0.103
-525.004	-62.575	0.292	-0.122
-523.989	-83.894	-0.198	-0.064
-522.975	-200.000	-0.048	0.317
-521.960	-200.000	0.000	-0.146
-520.945	164.108	-0.201	-0.285
-519.931	-200.000	-0.046	-0.234
-518.916	-200.000	0.017	-0.088
-517.902	79.771	-0.200	-0.216
-516.887	551.853	-0.043	-0.104
-515.872	289.246	-0.104	0.190
-514.858	-93.934	-0.243	0.067
-513.843	800.000	-0.061	0.190
-512.829	113.087	0.158	-0.193
-511.814	86.896	-0.219	0.243
-510.799	-145.295	0.183	-0.017
-509.785	-200.000	-0.011	0.219
-508.770	-65.983	0.170	-0.068
-507.756	-1.917	0.064	-0.045
-506.741	-200.000	0.059	-0.342
-505.726	800.000	-0.086	0.300
-504.712	-76.429	0.160	0.057
-503.697	-118.236	0.401	-0.072
-502.683	194.792	0.105	0.160
-501.668	-200.000	-0.039	0.259
-500.653	-114.859	0.039	-0.007
-499.639	-200.000	0.033	0.243
-498.624	800.000	0.098	-0.293
-497.610	800.000	0.023	-0.081
-496.595	-200.000	-0.077	0.466
-495.581	174.280	0.092	-0.134
-494.566	-22.570	-0.158	0.096
-493.551	199.356	0.081	-0.124
-492.537	137.690	0.099	-0.130
-491.522	93.819	-0.182	-0.207
-490.508	-200.000	-0.003	-0.209
-489.493	82.243	-0.121	-0.132
-488.478	-83.177	0.039	-0.013
-487.464	800.000	0.059	0.176
-486.449	-200.000	-0.022	-0.167
-485.435	-49.471	0.124	-0.059
-484.420	-121.823	0.210	-0.035
-483.405	31.847	-0.171	-0.148
-482.391	-16.558	0.303	-0.193
-481.376	203.421	0.125	0.194
-480.362	-106.076	-0.257	-0.058
-479.347	-65.876	0.140	-0.056
-478.332	70.847	-0.255	-0.265
-477.318	-200.000	0.023	0.470
-476.303	800.000	0.048	-0.147
-475.289	-200.000	-0.014	0.275
-474.274	299.566	-0.081	-0.150
-473.259	146.903	0.129	-0.174
-472.245	312.708	0.035	0.066
-471.230	-200.000	-0.022	-0.283
-470.216	-200.000	0.095	0.469
-469.201	773.914	0.099	0.271
-468.186	-105.206	-0.199	0.046
-467.172	800.000	-0.076	-0.280
-466.157	-42.340	-0.426	-0.218
-465.143	257.068	-0.105	0.182
-464.128	-90.952	0.069	0.020
-463.113	55.618	-0.108	0.105
-462.099	442.912	-0.050	-0.110
-461.084	-34.977	-0.203	0.111
-460.070	338.964	-0.124	-0.243
-459.055	800.000	0.036	0.103
-458.040	-79.730	-0.369	-0.125
-457.026	85.600	0.277	-0.305
-456.011	19.639	-0.227	0.183
-454.997	800.000	-0.088	0.270
-453.982	800.000	0.047	0.135
-452.968	800.000	-0.024	0.082
-451.953	40.043	0.236	-0.213
-450.938	17.566	0.279	0.222
-449.924	-67.929	-0.228	0.089
-448.909	-54.023	0.440	0.201
-447.895	-200.000	-0.047	0.325
-446.880	-182.979	-0.101	-0.002
-445.865	106.297	-0.190	-0.226
-444.851	215.088	0.167	-0.266
-443.836	-18.857	-0.207	-0.129
-442.822	-57.701	-0.210	0.092
-441.807	436.207	-0.092	0.202
-440.792	197.094	0.186	-0.285
-439.778	7.210	-0.165	-0.123
-438.763	257.288	0.120	0.207
-437.749	284.535	-0.112	-0.202
-436.734	780.424	-0.091	-0.250
-435.719	-155.402	0.431	0.028
-434.705	-200.000	-0.004	0.140
-433.690	-167.121	0.131	0.005
-432.676	-200.000	-0.010	-0.107
-431.661	-69.085	-0.126	-0.049
-430.646	141.364	-0.056	-0.074
-429.632	800.000	-0.070	0.303
-428.617	-183.011	0.101	-0.002
-427.603	-103.369	-0.207	-0.049
-426.588	-51.911	-0.180	0.084
-425.573	569.836	0.060	0.147
-424.559	115.459	-0.168	-0.206
-423.544	-38.805	0.238	-0.126
-422.530	-33.255	0.167	-0.093
-421.515	-77.701	0.255	0.088
-420.500	-51.565	-0.299	0.140
-419.486	-200.000	-0.022	0.223
-418.471	174.208	0.087	-0.126
-417.457	18.833	0.128	-0.103
-416.442	76.821	-0.057	-0.060
-415.428	-155.890	-0.274	0.017
-414.413	-200.000	-0.004	-0.112
-413.398	-90.961	0.107	-0.031
-412.384	800.000	-0.033	0.095
-411.369	-175.491	0.299	0.008
-410.355	370.627	0.138	0.280
-409.340	-79.854	0.543	-0.183
-408.325	-35.613	0.128	-0.069
-407.311	-131.829	0.170	0.022
-406.296	7.828	-0.125	0.094
-405.282	-200.000	0.033	0.148
-404.267	-200.000	0.034	0.176
-403.252	588.776	0.163	0.402
-402.238	800.000	-0.032	0.092
-401.223	-133.136	-0.234	-0.030
-400.209	-200.000	0.030	-0.322
-399.194	53.943	0.068	-0.065
-398.179	-139.963	-0.016	-0.002
-397.165	2.820	0.078	-0.057
-396.150	-66.909	-0.073	0.029
-395.136	83.380	0.111	0.121
-394.121	-79.604	-0.312	-0.105
-393.106	-158.629	-0.090	0.005
-392.092	537.994	-0.059	0.140
-391.077	761.734	0.060	-0.162
-390.063	-6.570	-0.326	0.222
-389.048	-135.082	0.112	0.013
-388.033	-29.511	-0.453	-0.259
-387.019	76.987	-0.136	0.144
-386.004	800.000	0.082	0.244
-384.990	-200.000	-0.055	-0.405
-383.975	296.032	0.089	-0.162
-382.960	-200.000	-0.003	-0.018
-381.946	-90.456	0.131	0.038
-380.931	-125.423	-0.151	0.023
-379.917	70.025	-0.164	0.170
-378.902	800.000	0.095	0.297
-377.888	-95.478	0.047	0.013
-376.873	-108.396	-0.154	0.033
-375.858	448.949	0.094	-0.207
-374.844	-200.000	-0.027	-0.265
-373.829	-200.000	-0.021	-0.118
-372.815	-14.245	-0.079	0.051
-371.800	-200.000	-0.031	-0.223
-370.785	99.728	-0.342	0.396
-369.771	-26.146	-0.089	-0.052
-368.756	-200.000	-0.006	-0.166
-367.742	762.339	-0.046	0.124
-366.727	-200.000	-0.002	0.190
-365.712	-3.636	-0.232	-0.161
-364.698	-157.300	-0.248	-0.015
-363.683	490.666	-0.119	-0.273
-362.669	57.885	0.276	0.270
-361.654	6.679	-0.138	0.103
-360.639	53.358	-0.055	-0.053
-359.625	-18.060	0.308	0.193
-358.610	577.705	-0.157	-0.384
-357.596	-49.262	-0.061	0.029
-356.581	531.076	-0.114	0.270
-355.566	-200.000	-0.034	0.203
-354.552	748.418	0.020	-0.054
-353.537	75.273	-0.276	-0.291
-352.523	-184.405	-0.319	-0.005
-351.508	159.509	-0.214	-0.297
-350.493	-200.000	0.087	-0.383
-349.479	-42.026	0.198	-0.101
-348.464	-200.000	-0.059	-0.280
-347.450	76.513	-0.151	-0.160
-346.435	9.119	-0.153	0.116
-345.420	-200.000	0.018	0.089
-344.406	89.518	0.194	0.217
-343.391	-200.000	-0.027	0.259
-342.377	-80.832	-0.009	-0.003
-341.362	-200.000	0.060	0.579
-340.348	207.891	0.038	-0.060
-339.333	127.393	-0.164	-0.208
-338.318	-13.700	0.190	-0.123
-337.304	-67.403	0.245	0.096
-336.289	67.077	-0.114	-0.116
-335.275	-35.314	0.161	-0.087
-334.260	-95.199	-0.238	-0.064
-333.245	-25.409	-0.053	0.031
-332.231	114.056	0.438	0.532
-331.216	58.793	-0.182	0.179
-330.202	47.038	-0.097	-0.090
-329.187	249.999	-0.024	-0.040
-328.172	-179.957	0.229	0.005
-327.158	800.000	-0.047	0.140
-326.143	-200.000	0.046	0.212
-325.129	686.387	-0.086	0.225
-324.114	-99.533	-0.165	0.042
-323.099	-36.599	-0.140	0.075
-322.085	-59.378	0.347	0.149
-321.070	-44.846	-0.164	0.082
-320.056	659.907	0.120	-0.310
-319.041	-54.700	-0.255	0.115
-318.026	798.570	-0.124	-0.341
-317.012	-42.896	0.141	0.071
-315.997	440.327	-0.105	-0.229
-314.983	-200.000	0.072	-0.415
-313.968	-124.103	-0.191	-0.030
-312.953	-200.000	0.011	0.070
-311.939	-96.586	-0.537	0.141
-310.924	268.860	0.071	-0.124
-309.910	44.847	-0.249	-0.228
-308.895	-16.630	0.350	-0.221
-307.880	71.891	-0.121	-0.125
-306.866	800.000	0.070	0.283
-305.851	-18.336	0.302	-0.188
-304.837	-47.074	0.103	-0.050
-303.822	-200.000	-0.010	0.362
-302.807	-110.470	-0.202	0.042
-301.793	341.753	0.091	0.177
-300.778	-45.634	0.286	-0.141
-299.764	231.331	-0.124	0.202
-298.749	380.574	0.099	0.202
-297.735	-29.522	0.167	0.095
-296.720	-16.322	0.248	0.157
-295.705	127.587	0.172	0.218
-294.691	-200.000	0.019	0.164
-293.676	341.631	0.126	-0.246
-292.662	-167.544	-0.089	0.004
-291.647	-61.014	-0.238	0.100
-290.632	68.405	0.198	0.203
-289.618	-94.725	0.336	0.091
-288.603	-149.093	-0.313	0.025
-287.589	-50.039	0.095	0.045
-286.574	707.031	0.056	0.146
-285.559	-55.172	-0.107	-0.048
-284.545	-50.188	-0.190	-0.089
-283.530	-114.492	-0.052	-0.010
-282.516	-66.169	-0.330	0.131
-281.501	800.000	0.043	-0.126
-280.486	-43.308	-0.340	-0.171
-279.472	33.273	-0.226	-0.195
-278.457	-200.000	0.051	-0.374
-277.443	-200.000	0.026	-0.170
-276.428	18.905	-0.134	-0.107
-275.413	110.351	0.148	0.177
-274.399	-118.225	-0.222	-0.039
-273.384	225.698	0.095	0.154
-272.370	-55.007	-0.167	0.075
-271.355	800.000	-0.019	-0.055
-270.340	-168.345	0.158	0.006
-269.326	-92.091	-0.183	-0.051
-268.311	172.411	0.279	-0.400
-267.297	68.751	0.037	0.038
-266.282	-200.000	0.035	-0.201
-265.267	800.000	-0.047	-0.137
-264.253	359.128	0.047	0.093
-263.238	800.000	0.041	-0.158
-262.224	225.441	0.070	-0.113
-261.209	193.070	-0.175	-0.263
-260.195	-200.000	0.011	-0.146
-259.180	-84.414	-0.336	0.106
-258.165	300.753	0.103	-0.189
-257.151	482.120	-0.140	-0.317
-256.136	183.129	-0.188	-0.276
-255.122	-200.000	0.007	0.048
-254.107	-107.802	-0.153	-0.033
-253.092	-65.743	0.307	-0.122
-252.078	-200.000	-0.044	-0.328
-251.063	-200.000	0.004	-0.121
-250.049	-200.000	0.070	0.318
-249.034	-21.232	0.040	-0.024
-248.019	667.498	-0.078	0.200
-247.005	377.866	-0.033	0.068
-245.990	-200.000	0.028	0.205
-244.976	-21.010	0.252	-0.154
-243.961	83.467	-0.179	0.194
-242.946	-200.000	-0.002	0.387
-241.932	800.000	0.077	0.269
-240.917	43.053	0.312	0.283
-239.903	81.540	-0.051	-0.055
-238.888	224.348	-0.160	-0.256
-237.873	-77.549	0.210	-0.072
-236.859	-200.000	-0.065	0.346
-235.844	-200.000	-0.065	0.395
-234.830	800.000	0.103	-0.318
-233.815	88.325	0.246	-0.272
-232.800	-105.078	-0.143	0.033
-231.786	252.833	-0.042	-0.071
-230.771	-25.932	0.240	-0.141
-229.757	-51.567	-0.154	0.071
-228.742	38.942	-0.315	0.280
-227.727	233.972	0.088	-0.144
-226.713	800.000	-0.051	-0.154
-225.698	-3.924	-0.140	-0.097
-224.684	197.667	0.087	0.132
-223.669	-82.790	0.431	-0.138
-222.655	-122.911	0.130	0.021
-221.640	-99.339	-0.578	0.145
-220.625	-200.000	0.004	-0.065
-219.611	117.950	-0.075	-0.092
-218.596	-149.261	-0.172	-0.014
-217.582	-43.323	0.294	0.148
-216.567	11.443	0.196	0.149
-215.552	159.946	0.102	0.141
-214.538	-56.255	0.162	-0.072
-213.523	83.646	0.249	-0.269
-212.509	-125.271	-0.201	-0.031
-211.494	-200.000	0.018	-0.175
-210.479	800.000	0.064	0.273
-209.465	-23.662	0.340	0.202
-208.450	800.000	-0.054	-0.232
-207.436	800.000	0.102	0.316
-206.421	-33.943	-0.511	0.280
-205.406	-111.996	0.419	-0.084
-204.392	-79.465	-0.212	-0.071
-203.377	174.544	0.177	-0.255
-202.363	-97.495	-0.110	0.028
-201.348	-200.000	0.003	0.123
-200.333	800.000	0.031	0.097
-199.319	178.777	0.066	0.096
-198.304	-6.938	-0.049	-0.033
-197.290	41.713	0.052	0.047
-196.275	-12.178	0.145	0.094
-195.260	-88.863	-0.247	-0.073
-194.246	-200.000	-0.012	-0.242
-193.231	-87.312	-0.293	-0.088
-192.217	-24.958	0.306	0.180
-191.202	-20.508	0.277	0.169
-190.187	-200.000	-0.008	-0.171
-189.173	-133.866	0.232	-0.029
-188.158	-125.247	-0.521	-0.079
-187.144	-200.000	-0.054	-0.298
-186.129	-33.579	-0.073	0.040
-185.114	84.012	-0.125	0.135
-184.100	-74.198	0.103	-0.037
-183.085	-200.000	0.020	0.320
-182.071	-67.866	0.107	0.042
-181.056	50.763	0.040	0.037
-180.042	262.948	-0.064	0.111
-179.027	137.858	-0.247	0.322
-178.012	-200.000	0.012	0.311
-176.998	-38.382	-0.207	-0.109
-175.983	-116.117	0.301	0.056
-174.969	33.155	0.274	0.236
-173.954	87.259	0.077	0.085
-172.939	305.655	0.044	-0.082
-171.925	-200.000	-0.045	-0.251
-170.910	-84.060	-0.078	0.025
-169.896	-54.158	-0.300	0.135
-168.881	-200.000	0.020	-0.196
-167.866	-40.779	0.062	0.032
-166.852	257.251	-0.101	-0.173
-165.837	7.728	0.121	0.090
-164.823	594.935	0.069	0.169
-163.808	800.000	0.021	-0.082
-162.793	-95.162	0.093	-0.025
-161.779	-55.119	-0.142	0.063
-160.764	307.149	-0.067	-0.124
-159.750	-18.610	-0.139	0.086
-158.735	-200.000	0.040	-0.194
-157.720	-87.923	-0.194	0.058
-156.706	-200.000	0.008	-0.183
-155.691	174.119	-0.312	0.447
-154.677	800.000	0.092	0.277
-153.662	-97.530	0.291	-0.075
-152.647	-200.000	-0.056	-0.289
-151.633	183.929	0.213	0.313
-150.618	-200.000	-0.031	-0.337
-149.604	-91.708	0.263	-0.074
-148.589	-176.861	-0.232	-0.006
-147.574	441.876	0.090	-0.196
-146.560	-74.696	0.519	-0.185
-145.545	800.000	-0.097	-0.367
-144.531	-200.000	0.049	0.347
-143.516	398.891	-0.057	-0.118
-142.502	-39.688	0.213	0.110
-141.487	-130.401	0.150	-0.020
-140.472	800.000	-0.056	0.194
-139.458	-125.342	0.235	0.036
-138.443	-118.083	0.015	-0.003
-137.429	298.242	0.061	0.112
-136.414	2.799	0.222	0.160
-135.399	-200.000	-0.012	0.090
-134.385	45.717	0.126	-0.115
-133.370	3.720	-0.237	0.171
-132.356	-71.001	0.387	-0.144
-131.341	44.571	0.202	-0.184
-130.326	-112.063	-0.343	0.068
-129.312	674.297	-0.148	0.381
-128.297	-200.000	0.034	-0.183
-127.283	-13.465	-0.163	-0.104
-126.268	-60.847	-0.056	-0.023
-125.253	-200.000	0.007	-0.164
-124.239	155.667	-0.150	-0.205
-123.224	-200.000	-0.026	0.115
-122.210	-200.000	-0.016	0.164
-121.195	-20.312	0.247	0.150
