DTS Sentinel unit serial number:	SN413079Multiplexer serial number:	ORYXHardware model number:	OX4-SRSoftware version number:	ORYX F/W v4.00 Oryx Data Collector v3.7.2.0data status	okinstallation	princeton_trtdifferential loss correction	single-endedforward channel	channel 3reverse channel	N/Adate	2019/09/18time	06:16:35forward acquisition time	60.00reverse acquisition time	0.00gamma	496.2192k internal	0.2343k external	0.2343temperature offset calibration	0.9949default loss term (dB/km)	0.3790temperature slope calibration	1.0000multiplexer offset coefficient	1.0000multiplexer slope coefficient	1.0000fibre end	0.00T internal ref (°C)	23.23T ext. ref 1 (°C)	0.19T ext. ref 2 (°C)	17.81length (m)	temperature (°C)	Stokes	anti-Stokes-747.200	13.369	-0.226	0.176
-746.185	-200.000	0.047	0.226
-745.171	-98.833	0.030	0.008
-744.156	-119.046	-0.260	0.046
-743.142	55.583	0.286	-0.277
-742.127	-96.624	0.176	0.046
-741.112	-139.379	0.066	0.007
-740.098	-50.274	-0.086	-0.041
-739.083	-200.000	-0.017	0.116
-738.069	-200.000	0.043	0.431
-737.054	59.803	-0.091	0.090
-736.039	-28.516	-0.379	-0.219
-735.025	301.852	0.137	0.254
-734.010	-200.000	0.053	-0.236
-732.996	134.012	0.170	-0.221
-731.981	-116.074	-0.010	-0.002
-730.966	800.000	-0.057	-0.175
-729.952	89.736	-0.283	-0.316
-728.937	-200.000	-0.037	-0.290
-727.923	-111.151	-0.093	-0.019
-726.908	-91.442	-0.096	0.027
-725.894	702.951	0.112	-0.296
-724.879	332.604	0.069	-0.133
-723.864	-97.765	0.245	0.063
-722.850	592.352	-0.147	0.363
-721.835	800.000	-0.046	-0.156
-720.821	-125.126	-0.268	-0.041
-719.806	-200.000	-0.083	-0.405
-718.791	50.145	0.052	-0.050
-717.777	800.000	-0.066	-0.215
-716.762	-85.188	0.284	-0.089
-715.748	443.454	-0.029	-0.063
-714.733	-47.927	0.310	0.150
-713.718	-200.000	-0.023	-0.252
-712.704	-132.844	0.044	-0.006
-711.689	-200.000	-0.012	-0.090
-710.675	59.703	-0.147	0.145
-709.660	-51.989	-0.274	-0.128
-708.645	-143.360	0.327	-0.031
-707.631	-124.544	-0.231	0.036
-706.616	-105.779	0.190	0.043
-705.602	-44.675	-0.108	0.054
-704.587	180.968	-0.106	0.156
-703.572	-200.000	0.025	-0.143
-702.558	-200.000	-0.024	0.171
-701.543	37.227	-0.194	-0.172
-700.529	-70.294	-0.328	-0.124
-699.514	13.717	-0.089	0.069
-698.499	13.462	-0.070	-0.054
-697.485	210.281	-0.102	0.160
-696.470	-96.973	0.093	0.024
-695.456	218.244	0.094	0.150
-694.441	800.000	0.059	-0.193
-693.426	141.971	0.057	-0.076
-692.412	51.770	0.080	-0.076
-691.397	446.458	-0.029	0.064
-690.383	32.406	-0.103	0.089
-689.368	789.672	0.141	-0.387
-688.354	18.447	0.150	-0.120
-687.339	-54.078	-0.121	0.055
-686.324	-200.000	0.058	-0.362
-685.310	164.276	0.148	-0.209
-684.295	-91.502	-0.072	-0.021
-683.281	800.000	0.028	-0.077
-682.266	109.516	0.089	-0.106
-681.251	42.958	0.312	-0.284
-680.237	81.403	-0.102	0.110
-679.222	619.813	0.058	-0.146
-678.208	344.810	0.066	0.129
-677.193	98.540	0.224	-0.258
-676.178	800.000	0.059	0.172
-675.164	74.546	-0.104	0.109
-674.149	-112.936	-0.361	0.071
-673.135	66.074	0.112	0.113
-672.120	-200.000	0.016	0.090
-671.105	3.488	-0.206	-0.150
-670.091	86.437	0.065	0.072
-669.076	130.017	-0.086	0.110
-668.062	111.396	0.233	0.281
-667.047	269.251	0.212	0.371
-666.032	261.709	0.090	0.156
-665.018	209.544	-0.151	-0.236
-664.003	-200.000	-0.112	0.539
-662.989	-200.000	0.026	-0.178
-661.974	-2.946	0.114	-0.079
-660.959	55.422	-0.125	-0.121
-659.945	266.144	-0.159	-0.277
-658.930	103.849	0.187	-0.219
-657.916	73.016	0.116	-0.121
-656.901	-140.317	0.124	-0.013
-655.886	-81.530	0.193	-0.063
-654.872	-200.000	0.001	-0.073
-653.857	257.963	0.105	-0.180
-652.843	249.813	-0.220	0.372
-651.828	4.358	-0.213	-0.156
-650.814	-200.000	0.007	0.069
-649.799	-200.000	-0.004	-0.478
-648.784	-115.256	-0.174	-0.033
-647.770	-100.336	-0.258	-0.064
-646.755	-200.000	-0.004	0.153
-645.741	-136.986	0.259	0.030
-644.726	-200.000	0.122	0.585
-643.711	-200.000	0.015	0.075
-642.697	-200.000	0.005	0.029
-641.682	-87.030	-0.309	-0.094
-640.668	-107.461	-0.433	-0.095
-639.653	46.395	-0.329	0.304
-638.638	37.226	0.113	-0.100
-637.624	115.944	0.201	-0.245
-636.609	-59.754	0.324	0.138
-635.595	-53.797	-0.286	-0.130
-634.580	800.000	-0.101	0.336
-633.565	328.858	-0.051	-0.099
-632.551	726.771	0.023	0.062
-631.536	-200.000	-0.002	-0.010
-630.522	-53.729	-0.057	-0.026
-629.507	-200.000	-0.034	-0.316
-628.492	269.745	-0.164	-0.286
-627.478	-37.774	-0.222	-0.118
-626.463	-157.180	-0.110	0.007
-625.449	800.000	-0.026	-0.084
-624.434	69.938	0.232	0.239
-623.419	31.736	-0.125	-0.107
-622.405	-117.157	0.127	0.023
-621.390	20.805	0.213	0.172
-620.376	-200.000	0.009	0.101
-619.361	800.000	-0.053	0.212
-618.346	269.600	-0.169	-0.295
-617.332	251.736	-0.132	-0.224
-616.317	-200.000	-0.041	-0.337
-615.303	800.000	0.043	-0.156
-614.288	-62.777	-0.116	0.048
-613.273	145.384	0.086	0.115
-612.259	258.649	-0.027	-0.047
-611.244	-71.426	0.214	0.080
-610.230	-76.608	0.169	-0.059
-609.215	-97.707	0.036	-0.009
-608.201	-95.445	0.101	-0.027
-607.186	23.607	-0.182	0.149
-606.171	-54.234	-0.265	-0.120
-605.157	-53.597	-0.524	0.239
-604.142	-15.335	0.185	0.118
-603.128	-200.000	0.004	0.076
-602.113	46.617	-0.072	-0.067
-601.098	-42.601	0.196	-0.099
-600.084	215.788	-0.062	-0.097
-599.069	-170.269	0.156	0.005
-598.055	118.154	0.156	0.191
-597.040	-24.669	0.205	-0.121
-596.025	-200.000	-0.003	0.121
-595.011	-118.287	-0.192	-0.034
-593.996	135.735	-0.309	-0.401
-592.982	287.423	0.156	-0.281
-591.967	3.937	0.240	0.174
-590.952	-88.477	0.235	-0.070
-589.938	-172.826	-0.206	-0.006
-588.923	-86.031	-0.232	0.071
-587.909	-31.205	0.294	0.165
-586.894	-68.902	-0.206	0.079
-585.879	800.000	-0.102	-0.383
-584.865	406.276	-0.048	-0.102
-583.850	644.898	-0.106	0.269
-582.836	308.880	0.095	0.177
-581.821	800.000	-0.031	-0.099
-580.806	-200.000	0.009	0.055
-579.792	506.688	-0.211	0.487
-578.777	-8.218	0.290	0.194
-577.763	-32.789	-0.148	0.082
-576.748	4.228	0.218	0.159
-575.733	-163.854	-0.165	0.008
-574.719	-130.657	0.194	0.026
-573.704	672.569	-0.068	-0.176
-572.690	-36.134	0.265	-0.142
-571.675	-19.108	0.170	0.105
-570.661	-154.846	0.097	0.006
-569.646	510.627	0.062	-0.142
-568.631	258.709	-0.094	-0.162
-567.617	-200.000	-0.025	-0.177
-566.602	338.721	-0.096	0.187
-565.588	-200.000	0.061	0.319
-564.573	88.549	-0.241	0.267
-563.558	-200.000	0.024	0.202
-562.544	-10.979	-0.162	-0.106
-561.529	375.099	0.086	-0.175
-560.515	800.000	-0.037	-0.114
-559.500	-115.687	0.121	-0.023
-558.485	-49.185	-0.018	-0.008
-557.471	-43.496	-0.309	0.155
-556.456	-13.064	-0.115	0.075
-555.442	52.349	0.126	0.120
-554.427	441.391	0.202	0.439
-553.412	497.532	-0.102	0.233
-552.398	292.871	0.102	-0.185
-551.383	800.000	-0.016	0.062
-550.369	-200.000	0.007	-0.030
-549.354	269.873	0.067	0.116
-548.339	800.000	-0.112	-0.343
-547.325	-111.162	-0.151	-0.031
-546.310	19.055	0.149	0.119
-545.296	5.738	0.158	0.116
-544.281	298.377	-0.158	-0.288
-543.266	-122.156	-0.218	0.035
-542.252	-53.582	-0.269	0.122
-541.237	-82.573	-0.351	0.113
-540.223	-16.523	0.264	-0.166
-539.208	21.481	-0.300	-0.242
-538.193	-200.000	-0.028	0.201
-537.179	-11.565	0.230	0.150
-536.164	253.472	-0.085	-0.144
-535.150	-200.000	-0.034	-0.157
-534.135	-200.000	0.016	0.111
-533.121	31.184	0.240	0.204
-532.106	11.921	0.062	-0.048
-531.091	-145.370	-0.048	-0.004
-530.077	-26.549	0.234	0.136
-529.062	596.755	0.031	-0.075
-528.048	25.947	0.152	0.126
-527.033	-200.000	-0.019	0.226
-526.018	-110.185	0.446	-0.092
-525.004	305.900	-0.060	-0.110
-523.989	800.000	-0.074	-0.218
-522.975	-200.000	-0.057	-0.251
-521.960	-164.464	0.236	-0.011
-520.945	800.000	-0.092	0.321
-519.931	800.000	0.037	0.148
-518.916	-7.839	-0.185	-0.124
-517.902	-40.590	-0.105	-0.054
-516.887	-19.235	0.192	-0.118
-515.872	-93.690	-0.141	0.039
-514.858	109.019	0.226	-0.268
-513.843	450.801	0.061	0.133
-512.829	-100.206	-0.230	-0.057
-511.814	800.000	0.048	0.144
-510.799	37.308	0.327	-0.288
-509.785	61.790	-0.063	-0.062
-508.770	-173.220	0.103	-0.003
-507.756	-73.352	-0.043	0.016
-506.741	172.525	-0.239	-0.341
-505.726	-83.612	0.170	0.054
-504.712	72.546	-0.151	0.156
-503.697	-94.782	0.334	0.090
-502.683	-200.000	-0.013	-0.221
-501.668	88.218	0.109	-0.120
-500.653	194.675	0.136	-0.205
-499.639	419.952	0.032	0.067
-498.624	226.820	-0.152	0.245
-497.610	25.484	-0.105	-0.087
-496.595	800.000	-0.058	-0.244
-495.581	782.644	-0.059	-0.159
-494.566	-95.104	0.170	0.045
-493.551	800.000	0.088	0.261
-492.537	795.107	-0.076	-0.208
-491.522	-147.792	-0.577	0.048
-490.508	-200.000	-0.017	-0.240
-489.493	800.000	0.097	0.345
-488.478	35.743	-0.228	-0.199
-487.464	311.256	-0.116	0.216
-486.449	-200.000	0.032	0.292
-485.435	-127.588	0.217	-0.031
-484.420	16.161	-0.144	0.112
-483.405	-62.817	-0.069	0.028
-482.391	-77.276	0.365	-0.126
-481.376	-73.561	-0.247	-0.089
-480.362	127.887	0.194	-0.244
-479.347	-146.101	-0.214	-0.019
-478.332	800.000	-0.081	0.286
-477.318	-200.000	0.007	-0.220
-476.303	387.571	0.077	-0.157
-475.289	-200.000	-0.015	0.253
-474.274	-29.635	-0.080	0.045
-473.259	452.747	-0.073	0.161
-472.245	246.309	-0.138	0.230
-471.230	-71.357	-0.226	-0.084
-470.216	-46.879	0.128	0.062
-469.201	50.276	0.078	0.073
-468.186	-121.735	-0.216	-0.035
-467.172	94.678	-0.056	0.063
-466.157	151.649	-0.174	-0.235
-465.143	43.464	0.048	-0.043
-464.128	-59.584	0.249	0.106
-463.113	407.628	0.094	0.197
-462.099	-84.937	-0.313	0.097
-461.084	232.062	-0.115	0.187
-460.070	800.000	0.034	0.139
-459.055	800.000	0.020	-0.063
-458.040	130.104	-0.017	0.021
-457.026	-21.752	0.261	-0.157
-456.011	122.308	0.032	0.040
-454.997	337.214	-0.197	-0.380
-453.982	179.990	0.248	-0.359
-452.968	339.916	0.100	0.193
-451.953	67.863	-0.048	0.049
-450.938	82.725	0.054	-0.058
-449.924	-200.000	0.040	0.334
-448.909	-160.371	-0.314	0.017
-447.895	-22.177	-0.408	-0.245
-446.880	-133.394	0.131	0.016
-445.865	299.231	-0.093	0.170
-444.851	8.800	0.508	-0.379
-443.836	-200.000	-0.036	-0.402
-442.822	-200.000	0.011	-0.095
-441.807	-200.000	0.049	0.291
-440.792	-107.205	-0.052	0.011
-439.778	-200.000	-0.011	-0.191
-438.763	49.395	-0.272	-0.253
-437.749	71.239	-0.205	-0.211
-436.734	-84.202	0.128	0.040
-435.719	-200.000	-0.012	0.053
-434.705	718.868	-0.120	0.314
-433.690	800.000	0.038	-0.138
-432.676	-200.000	-0.087	-0.488
-431.661	-200.000	0.052	0.353
-430.646	290.394	-0.046	0.082
-429.632	235.337	0.023	0.037
-428.617	127.429	-0.111	-0.139
-427.603	-95.100	0.087	0.023
-426.588	431.658	-0.101	0.217
-425.573	83.446	0.102	-0.109
-424.559	-200.000	0.052	0.329
-423.544	800.000	-0.069	0.194
-422.530	60.868	0.135	-0.133
-421.515	167.282	0.083	-0.117
-420.500	-39.256	-0.421	0.218
-419.486	-24.332	-0.257	-0.151
-418.471	106.054	0.052	0.061
-417.457	-91.693	-0.339	0.095
-416.442	-119.572	-0.150	0.026
-415.428	-200.000	-0.031	-0.317
-414.413	-200.000	0.013	0.266
-413.398	-200.000	-0.008	0.326
-412.384	-96.847	0.330	-0.086
-411.369	-200.000	0.012	-0.150
-410.355	104.182	0.030	0.035
-409.340	-58.745	0.087	0.037
-408.325	-200.000	0.106	-0.517
-407.311	603.250	0.098	-0.241
-406.296	-44.593	0.281	-0.139
-405.282	-121.172	0.177	-0.029
-404.267	-18.905	0.304	0.187
-403.252	-64.449	-0.086	-0.034
-402.238	-24.981	-0.077	0.045
-401.223	-84.989	0.106	-0.033
-400.209	-200.000	-0.016	-0.113
-399.194	221.491	-0.077	-0.122
-398.179	-121.078	0.131	0.022
-397.165	25.633	0.266	0.219
-396.150	-91.523	0.221	0.062
-395.136	-46.227	-0.114	-0.056
-394.121	-27.870	-0.362	0.207
-393.106	-200.000	0.037	-0.206
-392.092	-92.348	0.119	-0.033
-391.077	800.000	-0.025	0.089
-390.063	116.627	0.152	-0.184
-389.048	241.236	0.049	-0.081
-388.033	800.000	-0.033	0.137
-387.019	800.000	0.046	0.130
-386.004	-110.286	0.111	0.023
-384.990	800.000	0.064	-0.249
-383.975	-172.808	0.192	0.006
-382.960	-200.000	-0.001	0.134
-381.946	-200.000	0.014	0.175
-380.931	211.940	-0.190	0.295
-379.917	530.542	0.074	-0.173
-378.902	800.000	-0.074	0.233
-377.888	86.150	0.198	0.216
-376.873	89.208	0.152	-0.167
-375.858	-93.212	0.221	-0.061
-374.844	63.831	-0.105	-0.104
-373.829	-200.000	0.089	-0.438
-372.815	285.584	0.115	0.204
-371.800	-111.880	-0.158	-0.031
-370.785	-127.420	0.587	0.084
-369.771	9.670	-0.261	-0.195
-368.756	258.435	-0.083	-0.141
-367.742	-200.000	0.037	-0.399
-366.727	-59.175	-0.048	0.020
-365.712	-200.000	-0.021	0.238
-364.698	-38.497	0.269	-0.140
-363.683	212.557	-0.003	-0.005
-362.669	210.078	0.119	0.184
-361.654	231.091	0.122	0.197
-360.639	-94.416	0.250	0.067
-359.625	139.160	-0.013	-0.017
-358.610	209.535	0.069	0.107
-357.596	70.250	-0.071	-0.072
-356.581	5.569	-0.265	-0.193
-355.566	-125.797	0.341	-0.051
-354.552	97.164	0.196	0.222
-353.537	-165.889	0.259	0.011
-352.523	-41.159	0.203	-0.103
-351.508	-57.731	-0.224	-0.097
-350.493	-52.877	-0.331	0.150
-349.479	511.135	0.056	-0.129
-348.464	-49.294	0.116	-0.055
-347.450	-114.323	0.245	0.047
-346.435	-200.000	-0.011	-0.148
-345.420	730.472	0.147	0.388
-344.406	-133.168	0.170	0.021
-343.391	374.901	0.132	0.266
-342.377	-200.000	-0.013	-0.067
-341.362	185.446	0.091	0.133
-340.348	-16.082	0.153	0.096
-339.333	800.000	0.039	-0.110
-338.318	347.802	0.079	-0.153
-337.304	90.934	-0.080	0.089
-336.289	800.000	0.043	-0.151
-335.275	-133.867	-0.133	-0.016
-334.260	272.006	0.192	0.334
-333.245	-137.860	-0.207	0.023
-332.231	-200.000	-0.058	-0.386
-331.216	362.636	0.071	0.141
-330.202	230.288	-0.160	0.258
-329.187	-200.000	-0.002	-0.049
-328.172	-51.929	0.138	-0.063
-327.158	-200.000	-0.016	0.210
-326.143	308.005	-0.159	-0.292
-325.129	-200.000	-0.003	0.198
-324.114	800.000	-0.060	0.205
-323.099	27.373	0.145	0.120
-322.085	413.278	0.142	-0.297
-321.070	-115.225	-0.330	0.062
-320.056	137.945	-0.216	-0.279
-319.041	-68.664	0.109	0.041
-318.026	188.779	0.222	-0.327
-317.012	137.119	0.084	-0.109
-315.997	60.342	0.126	-0.123
-314.983	291.911	0.070	-0.126
-313.968	145.460	0.191	-0.252
-312.953	-162.617	0.095	0.005
-311.939	-127.709	0.153	-0.022
-310.924	634.702	0.092	-0.231
-309.910	59.769	0.057	-0.055
-308.895	-41.589	0.112	0.057
-307.880	300.472	-0.024	-0.044
-306.866	-28.040	-0.301	-0.171
-305.851	-200.000	-0.003	0.307
-304.837	465.583	0.125	0.276
-303.822	-127.860	0.217	0.031
-302.807	28.703	0.039	-0.032
-301.793	-91.453	-0.160	-0.045
-300.778	618.431	-0.101	0.250
-299.764	-102.400	0.228	-0.054
-298.749	-111.234	0.190	0.038
-297.735	-200.000	-0.028	0.322
-296.720	-120.443	-0.050	0.008
-295.705	-129.767	-0.046	-0.006
-294.691	0.155	0.137	-0.096
-293.676	8.881	-0.264	0.196
-292.662	-200.000	0.012	0.054
-291.647	800.000	-0.094	0.293
-290.632	-3.092	0.147	0.101
-289.618	-200.000	-0.016	-0.280
-288.603	-200.000	-0.012	0.220
-287.589	-52.652	-0.263	0.119
-286.574	-200.000	0.064	0.289
-285.559	-30.782	-0.116	0.064
-284.545	-106.502	-0.504	-0.111
-283.530	403.435	0.002	-0.005
-282.516	800.000	0.070	0.262
-281.501	-30.337	-0.139	-0.078
-280.486	-200.000	-0.001	0.007
-279.472	18.472	0.035	-0.027
-278.457	481.163	0.082	-0.184
-277.443	-9.588	-0.191	0.125
-276.428	-109.706	0.090	-0.019
-275.413	800.000	0.098	-0.354
-274.399	-136.579	-0.413	0.047
-273.384	-48.684	-0.059	0.028
-272.370	9.297	-0.199	-0.148
-271.355	-163.806	0.194	-0.009
-270.340	-20.605	0.123	0.074
-269.326	800.000	0.138	-0.407
-268.311	-200.000	-0.053	0.319
-267.297	800.000	-0.081	-0.268
-266.282	135.407	-0.114	-0.146
-265.267	23.485	0.388	0.314
-264.253	441.383	-0.185	-0.397
-263.238	-200.000	-0.009	-0.091
-262.224	800.000	-0.065	0.233
-261.209	-200.000	0.005	0.131
-260.195	-200.000	-0.012	0.492
-259.180	10.893	0.219	0.164
-258.165	800.000	0.111	-0.376
-257.151	469.361	-0.095	0.209
-256.136	53.404	-0.044	0.042
-255.122	-23.027	-0.119	-0.070
-254.107	-200.000	0.033	-0.374
-253.092	70.914	-0.325	0.330
-252.078	-126.166	-0.130	0.019
-251.063	800.000	-0.047	-0.161
-250.049	6.413	-0.292	-0.213
-249.034	-69.400	-0.221	-0.083
-248.019	-105.220	0.321	-0.072
-247.005	39.928	0.059	-0.052
-245.990	800.000	-0.116	0.323
-244.976	-200.000	-0.043	-0.300
-243.961	-200.000	-0.040	-0.383
-242.946	-200.000	0.061	0.289
-241.932	21.701	-0.101	-0.081
-240.917	800.000	0.116	-0.320
-239.903	-200.000	-0.016	-0.167
-238.888	-99.624	0.316	-0.078
-237.873	800.000	-0.115	0.405
-236.859	44.226	0.255	0.230
-235.844	-25.075	-0.034	-0.020
-234.830	800.000	-0.066	0.184
-233.815	-34.294	-0.213	0.114
-232.800	-80.674	0.106	-0.035
-231.786	318.205	-0.223	-0.414
-230.771	-28.437	-0.277	0.157
-229.757	461.861	-0.178	0.389
-228.742	117.694	0.145	0.175
-227.727	-200.000	0.080	-0.461
-226.713	6.226	0.164	-0.120
-225.698	38.648	0.031	0.027
-224.684	-189.928	0.042	-0.000
-223.669	-200.000	0.024	0.222
-222.655	-178.271	-0.123	-0.003
-221.640	-170.131	0.341	0.012
-220.625	-82.477	-0.191	-0.061
-219.611	-43.223	-0.246	0.122
-218.596	235.331	0.168	0.273
-217.582	559.218	0.155	0.366
-216.567	72.719	-0.176	0.180
-215.552	-23.171	-0.264	-0.156
-214.538	-118.149	0.166	0.029
-213.523	-190.510	-0.110	0.001
-212.509	-43.828	0.223	0.110
-211.494	800.000	0.030	-0.090
-210.479	-161.754	0.146	-0.007
-209.465	-81.496	-0.252	-0.081
-208.450	-129.543	0.233	-0.032
-207.436	138.753	-0.081	-0.104
-206.421	-2.032	0.108	0.075
-205.406	-120.916	0.103	-0.017
-204.392	-17.216	0.394	0.243
-203.377	800.000	-0.086	0.285
-202.363	-200.000	-0.049	0.241
-201.348	514.099	0.182	0.416
-200.333	294.562	0.171	0.307
-199.319	-200.000	-0.008	0.134
-198.304	39.305	-0.106	0.093
-197.290	281.646	0.026	-0.045
-196.275	48.207	0.114	0.105
-195.260	-127.539	-0.061	0.009
-194.246	-200.000	-0.022	-0.283
-193.231	241.731	-0.093	-0.153
-192.217	70.171	-0.163	0.165
-191.202	-114.612	-0.105	-0.020
-190.187	-51.417	-0.056	-0.026
-189.173	6.109	0.371	-0.270
-188.158	105.739	0.127	-0.147
-187.144	-179.873	0.162	0.003
-186.129	-138.034	-0.469	-0.051
-185.114	423.925	-0.121	0.254
-184.100	315.407	0.076	0.140
-183.085	40.310	0.220	0.194
-182.071	81.550	0.188	-0.199
-181.056	488.899	-0.133	-0.298
-180.042	-200.000	-0.028	-0.226
-179.027	37.279	0.248	-0.215
-178.012	-33.307	-0.215	0.117
-176.998	466.099	-0.114	-0.251
-175.983	-150.733	-0.181	-0.014
-174.969	-121.645	0.019	0.003
-173.954	-149.052	-0.322	0.025
-172.939	539.711	-0.082	0.192
-171.925	142.368	-0.250	-0.324
-170.910	598.854	-0.120	0.291
-169.896	101.238	-0.067	-0.076
-168.881	252.473	-0.176	-0.294
-167.866	-200.000	-0.065	-0.359
-166.852	178.613	-0.197	-0.282
-165.837	25.093	0.193	0.157
-164.823	-200.000	0.021	-0.288
-163.808	-125.771	0.068	0.010
-162.793	-88.137	0.266	0.078
-161.779	97.740	0.116	0.130
-160.764	-140.911	-0.267	0.027
-159.750	-121.477	-0.450	-0.073
-158.735	547.378	0.155	-0.362
-157.720	-200.000	-0.010	0.193
-156.706	-106.782	-0.230	-0.050
-155.691	97.238	0.108	-0.121
-154.677	-38.601	0.306	-0.158
-153.662	-16.343	0.031	0.019
-152.647	-200.000	0.023	0.135
-151.633	372.878	0.104	0.207
-150.618	800.000	-0.102	0.319
-149.604	800.000	0.085	0.246
-148.589	-32.376	-0.092	-0.050
-147.574	-86.205	0.261	0.079
-146.560	706.199	-0.092	-0.239
-145.545	168.945	0.050	-0.070
-144.531	-177.778	0.164	-0.004
-143.516	-88.775	-0.288	-0.084
-142.502	273.525	-0.064	0.111
-141.487	20.252	0.202	-0.159
-140.472	-80.989	0.175	-0.057
-139.458	-153.130	0.248	0.017
-138.443	-200.000	-0.013	-0.172
-137.429	28.490	-0.349	-0.289
-136.414	196.185	0.293	0.435
-135.399	4.201	-0.187	0.134
-134.385	-200.000	0.001	0.313
-133.370	-145.342	0.287	0.025
-132.356	104.315	-0.312	0.359
-131.341	39.731	-0.220	-0.193
-130.326	-131.924	-0.201	0.026
-129.312	800.000	0.067	-0.190
-128.297	-56.026	0.115	-0.050
-127.283	-22.848	-0.225	-0.133
-126.268	55.977	0.088	-0.083
-125.253	143.840	0.171	0.223
-124.239	-8.881	0.127	-0.083
-123.224	800.000	0.033	0.133
-122.210	-80.858	-0.364	-0.118
-121.195	712.265	-0.024	-0.062
