DTS Sentinel unit serial number:	SN413079Multiplexer serial number:	ORYXHardware model number:	OX4-SRSoftware version number:	ORYX F/W v4.00 Oryx Data Collector v3.7.2.0data status	okinstallation	princeton_trtdifferential loss correction	single-endedforward channel	channel 3reverse channel	N/Adate	2019/09/14time	19:36:35forward acquisition time	60.00reverse acquisition time	0.00gamma	496.2192k internal	0.2312k external	0.2312temperature offset calibration	1.0005default loss term (dB/km)	0.3790temperature slope calibration	1.0000multiplexer offset coefficient	1.0000multiplexer slope coefficient	1.0000fibre end	0.00T internal ref (°C)	34.62T ext. ref 1 (°C)	4.86T ext. ref 2 (°C)	28.84length (m)	temperature (°C)	Stokes	anti-Stokes-747.200	-53.663	0.172	-0.080
-746.185	610.553	-0.164	0.415
-745.171	-54.185	0.146	-0.067
-744.156	-200.000	0.029	0.380
-743.142	800.000	0.019	-0.058
-742.127	20.861	0.185	0.152
-741.112	-17.187	-0.313	0.200
-740.098	-189.205	0.166	-0.002
-739.083	-71.048	0.243	-0.093
-738.069	451.660	0.084	0.189
-737.054	91.900	-0.284	0.324
-736.039	180.454	-0.022	-0.032
-735.025	443.402	-0.072	0.160
-734.010	-200.000	-0.017	-0.238
-732.996	111.171	-0.109	-0.133
-731.981	-200.000	-0.036	0.208
-730.966	800.000	-0.068	0.264
-729.952	800.000	-0.027	-0.106
-728.937	-200.000	0.053	-0.379
-727.923	-116.910	0.152	0.028
-726.908	-83.070	-0.142	-0.046
-725.894	-112.138	-0.296	0.060
-724.879	61.935	0.237	-0.240
-723.864	179.311	-0.096	-0.143
-722.850	1.472	0.097	0.071
-721.835	800.000	0.035	0.150
-720.821	-139.959	0.117	-0.012
-719.806	180.312	-0.239	-0.356
-718.791	800.000	-0.076	-0.240
-717.777	716.852	0.063	-0.171
-716.762	-11.647	-0.240	-0.160
-715.748	-7.609	0.138	0.095
-714.733	42.111	-0.111	-0.102
-713.718	800.000	-0.054	-0.179
-712.704	441.514	0.160	-0.355
-711.689	-85.673	-0.212	-0.067
-710.675	381.618	0.055	-0.115
-709.660	800.000	-0.084	-0.254
-708.645	-93.667	-0.335	0.094
-707.631	-132.987	-0.214	0.028
-706.616	-14.030	-0.130	-0.085
-705.602	30.590	0.072	0.062
-704.587	-200.000	-0.119	-0.000
-703.572	127.603	-0.068	-0.088
-702.558	-85.254	-0.383	-0.121
-701.543	-64.584	-0.333	-0.137
-700.529	-26.110	-0.295	0.175
-699.514	66.662	-0.046	-0.047
-698.499	595.347	0.151	-0.378
-697.485	178.124	0.122	-0.181
-696.470	436.211	0.078	0.173
-695.456	363.432	0.182	0.370
-694.441	-189.693	-0.640	0.007
-693.426	-15.297	-0.277	-0.179
-692.412	-138.280	-0.172	-0.019
-691.397	-59.270	-0.146	-0.064
-690.383	624.442	0.014	0.035
-689.368	-100.529	0.033	0.008
-688.354	-136.514	-0.298	-0.035
-687.339	-84.561	-0.367	-0.117
-686.324	-86.254	0.537	-0.167
-685.310	-29.147	-0.248	0.144
-684.295	-46.981	-0.204	0.101
-683.281	-135.938	-0.220	0.026
-682.266	259.870	-0.053	-0.093
-681.251	-200.000	0.007	0.105
-680.237	527.525	-0.052	-0.124
-679.222	245.046	0.133	-0.227
-678.208	214.502	0.128	-0.204
-677.193	800.000	0.088	0.254
-676.178	13.517	0.243	0.191
-675.164	-109.213	-0.465	-0.100
-674.149	-85.679	0.347	0.109
-673.135	130.788	-0.160	0.207
-672.120	-174.404	-0.530	-0.015
-671.105	-200.000	0.005	0.112
-670.091	800.000	-0.063	-0.210
-669.076	403.764	0.109	-0.231
-668.062	-157.341	-0.265	-0.016
-667.047	619.133	0.099	-0.252
-666.032	-200.000	0.064	0.380
-665.018	-81.034	-0.282	0.095
-664.003	-136.718	-0.060	-0.007
-662.989	24.267	0.192	0.160
-661.974	-200.000	-0.027	-0.144
-660.959	-200.000	-0.002	0.056
-659.945	719.117	0.075	0.202
-658.930	-200.000	0.060	-0.353
-657.916	-12.871	0.150	-0.099
-656.901	4.096	0.325	-0.240
-655.886	-200.000	0.073	-0.336
-654.872	-145.170	-0.164	0.015
-653.857	57.275	0.195	0.192
-652.843	-30.025	0.334	-0.192
-651.828	47.911	0.207	-0.195
-650.814	196.398	-0.155	-0.239
-649.799	-105.790	0.490	-0.112
-648.784	800.000	-0.037	0.149
-647.770	-200.000	0.005	0.216
-646.755	116.112	0.101	0.125
-645.741	-152.531	0.236	0.017
-644.726	800.000	0.037	-0.112
-643.711	-200.000	-0.034	-0.323
-642.697	-139.314	0.159	-0.017
-641.682	800.000	-0.035	-0.153
-640.668	8.287	-0.099	0.075
-639.653	-130.071	-0.218	-0.030
-638.638	-200.000	0.011	-0.122
-637.624	-200.000	0.021	-0.164
-636.609	-124.459	-0.370	0.058
-635.595	80.496	0.188	-0.204
-634.580	-63.498	0.179	0.074
-633.565	67.499	-0.092	0.095
-632.551	-21.673	-0.164	0.101
-631.536	-200.000	0.012	-0.119
-630.522	20.228	-0.085	0.069
-629.507	-108.429	0.083	-0.018
-628.492	498.104	-0.141	0.328
-627.478	-53.918	-0.174	0.080
-626.463	686.857	-0.124	0.327
-625.449	800.000	-0.037	0.106
-624.434	9.517	0.113	0.086
-623.419	547.037	0.124	0.300
-622.405	-29.666	-0.255	0.147
-621.390	120.829	0.157	-0.197
-620.376	-143.664	-0.277	-0.027
-619.361	-5.117	-0.281	-0.195
-618.346	-98.010	-0.148	-0.039
-617.332	10.998	-0.263	-0.203
-616.317	38.696	0.121	-0.109
-615.303	-69.678	0.412	-0.159
-614.288	-17.538	0.078	0.049
-613.273	-200.000	-0.218	-0.000
-612.259	288.014	-0.139	0.255
-611.244	-65.895	-0.227	-0.091
-610.230	-125.378	0.238	0.037
-609.215	56.449	0.171	-0.167
-608.201	800.000	-0.071	-0.245
-607.186	-156.354	-0.226	0.014
-606.171	-33.506	0.111	-0.062
-605.157	-127.011	0.086	0.013
-604.142	33.658	0.141	0.124
-603.128	-69.312	0.154	0.060
-602.113	800.000	-0.098	0.340
-601.098	-200.000	-0.025	-0.203
-600.084	264.580	-0.144	-0.253
-599.069	-200.000	0.011	-0.059
-598.055	0.738	-0.159	-0.115
-597.040	339.693	-0.175	-0.344
-596.025	-60.353	-0.183	0.078
-595.011	217.506	-0.073	-0.118
-593.996	404.231	0.157	-0.334
-592.982	-119.866	-0.236	0.041
-591.967	41.288	0.100	0.091
-590.952	-107.703	-0.038	0.008
-589.938	800.000	0.110	-0.374
-588.923	469.516	0.114	-0.258
-587.909	800.000	0.065	0.203
-586.894	-200.000	0.018	0.081
-585.879	-171.160	-0.207	-0.007
-584.865	-72.470	-0.090	0.034
-583.850	55.589	-0.186	0.182
-582.836	167.406	-0.175	0.250
-581.821	-61.626	0.230	-0.097
-580.806	3.678	-0.133	0.098
-579.792	447.810	0.168	0.372
-578.777	-140.200	0.091	-0.010
-577.763	296.721	0.150	0.277
-576.748	56.045	0.147	-0.143
-575.733	-200.000	-0.016	-0.135
-574.719	-36.800	-0.066	-0.036
-573.704	-200.000	0.002	-0.361
-572.690	-1.913	-0.192	0.136
-571.675	-57.929	0.119	-0.052
-570.661	-200.000	0.039	0.295
-569.646	-200.000	-0.037	-0.165
-568.631	123.420	-0.140	-0.177
-567.617	-82.970	0.068	-0.022
-566.602	-157.481	0.140	-0.008
-565.588	-98.573	-0.100	-0.026
-564.573	205.574	0.133	0.208
-563.558	-90.044	0.166	-0.049
-562.544	-174.111	-0.227	-0.007
-561.529	276.986	-0.068	-0.122
-560.515	217.990	-0.145	0.233
-559.500	-200.000	0.038	0.194
-558.485	800.000	0.092	-0.271
-557.471	54.023	-0.021	0.021
-556.456	33.302	0.012	-0.011
-555.442	405.466	-0.060	0.128
-554.427	-153.177	-0.107	-0.008
-553.412	424.185	0.126	-0.273
-552.398	187.462	-0.103	-0.155
-551.383	36.284	-0.084	-0.075
-550.369	-47.351	0.198	-0.097
-549.354	196.770	0.144	-0.221
-548.339	-63.480	-0.325	-0.135
-547.325	120.669	0.195	0.244
-546.310	380.793	0.036	-0.075
-545.296	-38.643	-0.204	-0.108
-544.281	-61.954	0.131	-0.055
-543.266	-200.000	0.026	0.130
-542.252	800.000	-0.028	0.092
-541.237	-151.472	-0.068	-0.005
-540.223	7.526	-0.211	0.159
-539.208	-42.870	-0.343	-0.175
-538.193	-133.399	0.386	0.049
-537.179	-200.000	0.022	0.457
-536.164	-200.000	0.011	-0.210
-535.150	-200.000	-0.020	0.110
-534.135	131.423	-0.264	0.342
-533.121	106.060	0.160	0.190
-532.106	-72.076	-0.128	-0.048
-531.091	386.196	-0.103	0.214
-530.077	-46.279	-0.121	-0.060
-529.062	88.934	0.307	-0.344
-528.048	131.756	-0.173	0.224
-527.033	665.633	0.072	-0.188
-526.018	-200.000	-0.046	-0.221
-525.004	36.315	-0.280	-0.249
-523.989	250.570	-0.067	-0.115
-522.975	-54.330	-0.152	-0.069
-521.960	-200.000	0.110	0.000
-520.945	-200.000	0.030	0.188
-519.931	-200.000	-0.043	-0.197
-518.916	88.341	-0.142	-0.158
-517.902	400.817	0.097	-0.205
-516.887	-200.000	-0.010	0.271
-515.872	-106.268	-0.214	0.048
-514.858	453.458	-0.204	0.455
-513.843	-72.518	0.079	0.029
-512.829	800.000	-0.055	0.229
-511.814	55.597	0.155	0.151
-510.799	69.382	-0.190	-0.197
-509.785	257.809	0.133	0.229
-508.770	-98.913	-0.110	-0.028
-507.756	98.259	0.255	-0.296
-506.741	229.999	-0.068	0.112
-505.726	-130.087	-0.166	-0.023
-504.712	-200.000	0.003	0.133
-503.697	118.944	-0.122	0.151
-502.683	-109.226	-0.439	0.094
-501.668	108.899	0.125	0.150
-500.653	-51.737	-0.057	-0.027
-499.639	-104.701	0.227	-0.053
-498.624	547.884	0.130	-0.312
-497.610	-162.936	-0.326	0.016
-496.595	-102.443	0.184	0.044
-495.581	65.492	0.135	-0.138
-494.566	82.949	0.064	0.069
-493.551	-200.000	0.012	0.068
-492.537	90.930	-0.168	0.190
-491.522	-29.670	0.153	-0.088
-490.508	-200.000	-0.022	-0.167
-489.493	-200.000	0.000	0.187
-488.478	-145.464	-0.257	-0.023
-487.464	-101.171	-0.212	0.052
-486.449	-66.663	0.207	0.082
-485.435	-86.897	-0.211	0.065
-484.420	-60.097	-0.132	-0.057
-483.405	27.314	0.058	-0.049
-482.391	-40.836	-0.154	0.080
-481.376	163.756	0.184	0.260
-480.362	800.000	0.028	0.078
-479.347	-49.525	-0.104	0.050
-478.332	-200.000	-0.033	-0.430
-477.318	-200.000	0.018	0.153
-476.303	-39.538	0.095	-0.050
-475.289	35.224	0.033	0.029
-474.274	-200.000	-0.005	0.281
-473.259	30.667	0.273	-0.235
-472.245	221.358	-0.089	-0.143
-471.230	32.816	-0.195	-0.170
-470.216	-55.837	0.194	0.087
-469.201	-70.304	-0.483	-0.184
-468.186	108.937	-0.052	0.062
-467.172	102.167	0.162	-0.190
-466.157	800.000	0.141	-0.460
-465.143	220.651	0.111	0.178
-464.128	746.901	0.070	0.188
-463.113	-61.122	0.320	0.136
-462.099	-129.165	-0.194	0.027
-461.084	800.000	-0.146	-0.429
-460.070	-200.000	-0.028	-0.300
-459.055	-101.919	-0.408	-0.099
-458.040	63.165	0.302	0.303
-457.026	800.000	-0.045	0.138
-456.011	800.000	0.021	-0.082
-454.997	-67.618	0.087	-0.034
-453.982	-116.948	0.159	0.029
-452.968	13.255	-0.200	0.156
-451.953	800.000	0.056	-0.198
-450.938	113.713	-0.131	0.159
-449.924	-98.174	0.092	0.024
-448.909	-16.450	0.362	-0.230
-447.895	13.736	0.150	0.117
-446.880	84.371	-0.101	0.110
-445.865	800.000	-0.036	0.130
-444.851	-84.526	-0.061	-0.019
-443.836	95.934	-0.132	-0.151
-442.822	340.599	-0.140	-0.273
-441.807	-72.144	0.154	-0.057
-440.792	800.000	0.111	-0.361
-439.778	800.000	-0.032	-0.123
-438.763	-19.851	-0.260	0.161
-437.749	708.327	0.017	-0.044
-436.734	51.362	-0.165	0.157
-435.719	-54.949	0.220	0.100
-434.705	235.989	0.071	-0.118
-433.690	256.916	0.149	-0.256
-432.676	-2.332	-0.083	-0.059
-431.661	-48.909	0.091	-0.044
-430.646	800.000	-0.089	-0.266
-429.632	-87.163	0.139	0.042
-428.617	80.761	-0.208	0.224
-427.603	800.000	0.101	0.331
-426.588	141.760	-0.080	0.106
-425.573	355.563	-0.094	-0.187
-424.559	-62.753	0.261	0.108
-423.544	-36.919	-0.209	0.112
-422.530	-200.000	0.041	0.186
-421.515	-76.862	0.235	0.082
-420.500	431.808	0.144	0.313
-419.486	34.451	0.261	0.228
-418.471	221.443	0.074	0.119
-417.457	800.000	0.069	0.196
-416.442	800.000	-0.061	0.216
-415.428	-200.000	0.011	0.176
-414.413	-106.253	0.257	0.058
-413.398	-200.000	-0.084	-0.385
-412.384	165.704	0.125	-0.177
-411.369	246.128	0.162	0.273
-410.355	40.400	0.227	0.204
-409.340	-57.191	0.216	-0.095
-408.325	7.732	-0.160	-0.120
-407.311	31.938	0.189	-0.163
-406.296	718.829	-0.093	0.248
-405.282	673.884	0.092	0.238
-404.267	279.953	0.123	0.220
-403.252	111.545	-0.274	0.330
-402.238	-86.583	-0.167	0.051
-401.223	-70.348	-0.151	-0.057
-400.209	347.557	0.116	-0.229
-399.194	59.416	-0.345	-0.341
-398.179	331.310	0.176	-0.339
-397.165	-103.319	-0.109	0.026
-396.150	463.453	0.033	-0.073
-395.136	-12.844	-0.367	0.240
-394.121	-74.040	0.270	-0.098
-393.106	-76.937	-0.101	-0.035
-392.092	-16.210	-0.276	0.175
-391.077	25.445	-0.107	0.089
-390.063	465.040	-0.032	-0.071
-389.048	249.139	0.099	0.167
-388.033	-62.924	0.494	-0.204
-387.019	-62.691	-0.156	-0.065
-386.004	-149.003	0.146	0.012
-384.990	-158.837	-0.246	0.014
-383.975	-200.000	-0.024	0.154
-382.960	-73.510	-0.083	-0.030
-381.946	800.000	-0.051	-0.221
-380.931	78.157	-0.096	0.102
-379.917	11.488	-0.070	-0.053
-378.902	-101.024	0.222	-0.054
-377.888	733.715	-0.080	-0.214
-376.873	-52.720	0.088	-0.041
-375.858	38.019	-0.105	0.094
-374.844	-31.991	0.283	-0.159
-373.829	-200.000	0.011	0.341
-372.815	-117.090	0.217	-0.040
-371.800	331.480	-0.014	0.028
-370.785	380.725	0.121	-0.248
-369.771	-158.226	-0.186	-0.011
-368.756	95.223	0.225	-0.256
-367.742	-200.000	0.091	-0.434
-366.727	9.822	0.200	0.152
-365.712	-106.885	0.302	0.067
-364.698	-190.971	-0.093	0.001
-363.683	-200.000	0.044	0.193
-362.669	-200.000	0.020	0.150
-361.654	-30.577	-0.183	0.104
-360.639	-169.398	0.221	-0.008
-359.625	155.940	0.042	0.057
-358.610	-97.234	0.223	-0.058
-357.596	-163.497	0.119	-0.006
-356.581	-115.013	0.012	0.002
-355.566	179.301	0.091	-0.134
-354.552	800.000	0.076	0.310
-353.537	-200.000	0.036	0.171
-352.523	-151.586	0.134	0.010
-351.508	800.000	0.059	0.240
-350.493	-54.908	0.128	-0.058
-349.479	-78.260	-0.093	-0.032
-348.464	12.482	-0.107	-0.082
-347.450	518.180	-0.133	0.310
-346.435	-200.000	0.023	-0.149
-345.420	90.372	0.134	0.150
-344.406	73.396	-0.077	0.080
-343.391	41.766	0.125	-0.113
-342.377	-23.524	-0.090	0.054
-341.362	39.458	-0.370	0.331
-340.348	-36.205	0.109	-0.059
-339.333	-110.753	0.222	-0.046
-338.318	57.511	-0.047	-0.046
-337.304	-160.524	0.084	0.004
-336.289	-200.000	0.050	0.276
-335.275	-38.714	-0.205	-0.108
-334.260	-106.412	0.138	-0.031
-333.245	-200.000	-0.047	-0.226
-332.231	-200.000	-0.012	-0.293
-331.216	43.292	-0.189	0.173
-330.202	192.922	0.216	-0.325
-329.187	-200.000	0.034	0.232
-328.172	-99.082	-0.207	-0.052
-327.158	225.056	-0.135	-0.218
-326.143	-148.681	0.336	-0.027
-325.129	35.847	-0.093	0.082
-324.114	269.096	-0.073	0.128
-323.099	71.145	-0.310	-0.321
-322.085	-21.281	-0.101	-0.061
-321.070	43.561	-0.083	-0.075
-320.056	391.425	0.018	-0.037
-319.041	-73.405	0.253	-0.092
-318.026	4.401	0.210	0.154
-317.012	800.000	0.103	0.397
-315.997	422.386	-0.016	0.034
-314.983	-47.601	0.240	-0.116
-313.968	-200.000	-0.004	-0.167
-312.953	-92.816	-0.021	0.006
-311.939	244.175	0.043	0.072
-310.924	-126.662	0.113	0.017
-309.910	-139.790	-0.312	-0.033
-308.895	-7.391	0.073	-0.049
-307.880	-124.944	-0.146	0.022
-306.866	-200.000	-0.010	-0.302
-305.851	-200.000	-0.064	0.285
-304.837	-48.118	0.327	0.157
-303.822	-193.652	-0.307	0.003
-302.807	-53.983	0.109	-0.050
-301.793	800.000	0.072	0.223
-300.778	-200.000	0.081	0.488
-299.764	800.000	0.079	-0.303
-298.749	800.000	0.050	0.161
-297.735	403.174	0.007	0.015
-296.720	-200.000	0.042	-0.217
-295.705	-29.752	-0.340	0.194
-294.691	-200.000	0.004	0.279
-293.676	-200.000	0.001	-0.249
-292.662	15.045	-0.177	-0.138
-291.647	-200.000	0.008	0.266
-290.632	224.729	-0.153	-0.246
-289.618	-72.371	0.224	-0.082
-288.603	-200.000	0.010	-0.062
-287.589	-124.951	0.297	-0.046
-286.574	185.527	0.091	0.135
-285.559	-0.864	-0.064	0.045
-284.545	178.959	0.213	0.310
-283.530	-200.000	-0.055	-0.378
-282.516	714.867	0.079	-0.208
-281.501	-170.416	0.177	-0.006
-280.486	-27.456	-0.044	0.025
-279.472	186.943	0.037	0.054
-278.457	-200.000	0.036	0.250
-277.443	800.000	0.071	0.287
-276.428	-167.388	0.104	0.004
-275.413	-143.786	0.316	0.030
-274.399	129.765	-0.267	-0.340
-273.384	-200.000	-0.017	-0.194
-272.370	-37.995	0.081	0.043
-271.355	52.646	0.173	-0.164
-270.340	16.444	0.310	0.244
-269.326	683.582	-0.153	0.398
-268.311	477.119	-0.078	0.176
-267.297	489.026	0.083	0.190
-266.282	-66.437	0.163	-0.065
-265.267	-179.786	0.142	0.003
-264.253	-36.983	0.019	-0.010
-263.238	86.203	-0.011	0.013
-262.224	-138.123	0.163	0.018
-261.209	-22.576	-0.212	-0.127
-260.195	800.000	-0.040	-0.153
-259.180	800.000	-0.045	-0.133
-258.165	-40.804	-0.138	0.071
-257.151	-101.998	-0.083	0.020
-256.136	-175.652	-0.304	-0.008
-255.122	286.987	0.068	-0.122
-254.107	-200.000	0.003	0.049
-253.092	-200.000	0.006	-0.186
-252.078	67.071	0.141	-0.143
-251.063	-113.975	-0.187	-0.036
-250.049	-111.773	-0.299	-0.060
-249.034	587.748	0.145	0.355
-248.019	58.723	0.188	0.184
-247.005	297.130	0.090	0.164
-245.990	-31.087	0.419	0.235
-244.976	353.479	-0.187	0.368
-243.961	533.069	0.032	-0.076
-242.946	190.656	-0.152	-0.227
-241.932	-90.174	-0.380	0.110
-240.917	262.050	-0.155	-0.268
-239.903	-161.208	0.072	0.004
-238.888	7.843	0.153	-0.114
-237.873	743.728	-0.051	0.136
-236.859	800.000	-0.052	-0.198
-235.844	2.102	-0.048	-0.034
-234.830	-140.097	0.099	0.010
-233.815	341.213	-0.172	-0.334
-232.800	-55.108	0.171	-0.077
-231.786	238.578	-0.119	-0.197
-230.771	-187.254	-0.137	-0.002
-229.757	679.247	0.079	0.205
-228.742	-200.000	0.008	-0.066
-227.727	17.707	-0.143	0.113
-226.713	-158.969	-0.309	0.017
-225.698	-200.000	0.028	-0.238
-224.684	135.651	-0.118	0.153
-223.669	615.216	0.128	0.318
-222.655	-83.219	0.369	-0.118
-221.640	-43.139	0.238	0.120
-220.625	191.031	-0.055	-0.082
-219.611	-200.000	0.001	0.145
-218.596	515.111	0.010	0.023
-217.582	-114.177	-0.094	0.018
-216.567	303.886	0.112	-0.206
-215.552	-116.804	-0.119	0.022
-214.538	800.000	-0.091	0.316
-213.523	-141.553	-0.157	-0.016
-212.509	429.933	-0.077	-0.165
-211.494	-200.000	-0.034	0.296
-210.479	184.598	-0.023	-0.033
-209.465	-28.495	-0.090	-0.052
-208.450	800.000	0.027	0.075
-207.436	11.566	0.117	-0.089
-206.421	-200.000	0.009	0.297
-205.406	142.437	0.181	0.239
-204.392	-200.000	-0.032	-0.288
-203.377	17.331	-0.104	0.082
-202.363	43.998	-0.218	0.198
-201.348	-19.546	0.122	0.075
-200.333	-24.302	-0.284	-0.168
-199.319	200.611	0.146	0.223
-198.304	139.259	0.210	0.274
-197.290	-80.562	-0.108	0.036
-196.275	-200.000	0.037	-0.347
-195.260	0.752	0.085	-0.060
-194.246	-61.890	-0.344	0.143
-193.231	-130.712	-0.478	0.064
-192.217	800.000	-0.048	-0.133
-191.202	-200.000	0.014	-0.363
-190.187	-7.323	-0.232	-0.156
-189.173	-66.305	0.227	-0.090
-188.158	-200.000	0.047	-0.300
-187.144	505.854	0.077	0.177
-186.129	-17.678	0.037	-0.023
-185.114	238.499	0.094	-0.155
-184.100	253.207	0.146	0.247
-183.085	-152.127	-0.388	0.028
-182.071	19.069	0.021	0.016
-181.056	-151.569	0.303	-0.022
-180.042	-200.000	0.003	0.053
-179.027	-200.000	0.034	-0.269
-178.012	800.000	-0.100	-0.290
-176.998	-200.000	0.077	-0.347
-175.983	744.136	0.039	-0.105
-174.969	-128.684	-0.149	0.021
-173.954	-200.000	0.056	-0.303
-172.939	800.000	0.059	0.246
-171.925	-200.000	-0.053	-0.235
-170.910	338.306	0.060	-0.116
-169.896	-135.388	0.216	-0.026
-168.881	181.016	0.083	0.121
-167.866	2.592	-0.250	-0.180
-166.852	-106.006	0.364	0.081
-165.837	800.000	0.082	0.235
-164.823	-200.000	-0.027	-0.158
-163.808	173.657	0.149	-0.213
-162.793	-200.000	-0.008	-0.232
-161.779	-200.000	-0.063	-0.298
-160.764	-200.000	0.003	-0.284
-159.750	-46.028	0.144	0.071
-158.735	800.000	-0.090	0.309
-157.720	218.892	0.364	0.577
-156.706	800.000	-0.074	0.272
-155.691	800.000	-0.058	-0.237
-154.677	-47.251	-0.255	0.123
-153.662	-109.115	-0.222	0.047
-152.647	93.444	0.179	-0.201
-151.633	-119.336	-0.099	0.017
-150.618	167.390	0.087	0.122
-149.604	-200.000	-0.016	0.210
-148.589	186.398	-0.205	0.302
-147.574	590.839	0.093	-0.228
-146.560	-73.557	-0.261	-0.094
-145.545	49.773	-0.240	-0.224
-144.531	-191.145	-0.319	-0.003
-143.516	-60.298	0.101	-0.043
-142.502	-80.391	0.251	0.083
-141.487	243.492	0.071	-0.118
-140.472	-69.394	0.144	-0.055
-139.458	69.779	0.094	-0.096
-138.443	-24.600	-0.134	-0.079
-137.429	-200.000	0.020	0.338
-136.414	-110.419	-0.079	-0.016
-135.399	218.778	0.147	-0.233
-134.385	-17.936	-0.260	-0.161
-133.370	70.988	0.049	0.050
-132.356	-72.012	0.294	-0.108
-131.341	-99.490	-0.180	0.045
-130.326	12.985	-0.208	0.159
-129.312	800.000	-0.064	0.257
-128.297	-200.000	0.003	0.114
-127.283	571.504	0.079	-0.189
-126.268	64.719	0.233	-0.233
-125.253	84.119	-0.077	0.083
-124.239	-200.000	-0.007	-0.175
-123.224	-2.176	-0.165	-0.115
-122.210	-200.000	0.030	-0.188
-121.195	-15.067	-0.203	-0.129
