DTS Sentinel unit serial number:	SN413079Multiplexer serial number:	ORYXHardware model number:	OX4-SRSoftware version number:	ORYX F/W v4.00 Oryx Data Collector v3.7.2.0data status	okinstallation	princeton_trtdifferential loss correction	single-endedforward channel	channel 3reverse channel	N/Adate	2019/09/13time	23:28:35forward acquisition time	60.00reverse acquisition time	0.00gamma	496.2192k internal	0.2339k external	0.2339temperature offset calibration	1.0061default loss term (dB/km)	0.3790temperature slope calibration	1.0000multiplexer offset coefficient	1.0000multiplexer slope coefficient	1.0000fibre end	0.00T internal ref (°C)	26.87T ext. ref 1 (°C)	3.19T ext. ref 2 (°C)	20.93length (m)	temperature (°C)	Stokes	anti-Stokes-747.200	-72.609	-0.073	-0.027
-746.185	142.939	-0.170	0.227
-745.171	-153.985	-0.297	-0.020
-744.156	800.000	-0.050	-0.208
-743.142	702.129	-0.041	-0.109
-742.127	800.000	0.073	0.271
-741.112	800.000	0.061	0.207
-740.098	-6.243	0.082	-0.056
-739.083	14.667	-0.130	-0.102
-738.069	-137.026	-0.019	-0.002
-737.054	-74.046	-0.327	0.119
-736.039	-85.010	-0.176	0.055
-735.025	178.995	-0.058	0.086
-734.010	-97.038	-0.245	0.064
-732.996	-200.000	0.017	0.116
-731.981	469.133	0.164	-0.368
-730.966	-200.000	-0.029	-0.206
-729.952	153.559	0.037	-0.051
-728.937	120.559	-0.262	-0.326
-727.923	-66.067	-0.207	0.083
-726.908	-200.000	0.010	0.093
-725.894	386.289	-0.093	-0.192
-724.879	-40.705	0.290	0.151
-723.864	-3.765	-0.192	-0.133
-722.850	-66.150	-0.536	-0.214
-721.835	17.755	-0.272	0.217
-720.821	-7.191	0.072	-0.049
-719.806	36.630	0.142	-0.125
-718.791	236.478	0.136	-0.225
-717.777	527.198	-0.086	-0.204
-716.762	-200.000	0.035	-0.223
-715.748	-129.136	0.212	-0.030
-714.733	-112.020	-0.195	0.039
-713.718	-79.248	-0.159	-0.054
-712.704	-11.777	-0.036	0.023
-711.689	-44.154	-0.456	0.229
-710.675	800.000	-0.051	0.170
-709.660	327.616	-0.122	0.234
-708.645	-200.000	0.007	-0.077
-707.631	-105.751	0.459	0.104
-706.616	733.546	-0.161	0.432
-705.602	800.000	0.054	0.192
-704.587	-200.000	-0.021	-0.147
-703.572	608.209	0.035	0.088
-702.558	-11.429	-0.256	-0.169
-701.543	124.275	-0.033	0.041
-700.529	594.735	-0.072	-0.179
-699.514	-26.330	0.193	0.113
-698.499	550.709	0.043	-0.102
-697.485	-123.427	0.386	-0.062
-696.470	-200.000	0.033	0.250
-695.456	-30.775	0.162	0.092
-694.441	-27.680	-0.148	-0.086
-693.426	672.523	-0.049	0.127
-692.412	-64.600	-0.150	0.061
-691.397	-99.507	0.280	-0.070
-690.383	-200.000	0.013	-0.340
-689.368	8.898	0.148	0.112
-688.354	-152.630	0.433	0.031
-687.339	-64.091	-0.460	-0.188
-686.324	44.488	-0.160	-0.147
-685.310	-200.000	0.075	0.396
-684.295	126.550	-0.086	0.109
-683.281	219.608	-0.064	0.102
-682.266	-200.000	0.003	-0.437
-681.251	-4.596	-0.306	-0.211
-680.237	-200.000	0.006	-0.054
-679.222	800.000	-0.112	-0.432
-678.208	-155.042	0.365	-0.024
-677.193	-115.511	0.126	-0.024
-676.178	221.151	-0.256	0.411
-675.164	-117.541	0.297	-0.054
-674.149	-200.000	0.018	0.088
-673.135	165.669	-0.086	0.122
-672.120	-200.000	-0.008	-0.429
-671.105	-168.695	-0.035	-0.001
-670.091	266.166	-0.186	-0.325
-669.076	236.385	0.084	-0.139
-668.062	800.000	0.042	-0.120
-667.047	-33.638	0.119	0.065
-666.032	126.997	-0.196	0.248
-665.018	-85.466	-0.160	-0.050
-664.003	-155.822	0.124	0.008
-662.989	-200.000	0.033	0.172
-661.974	-72.791	-0.211	-0.078
-660.959	-22.245	-0.108	0.066
-659.945	-102.451	0.176	0.042
-658.930	667.162	-0.004	0.011
-657.916	800.000	-0.075	0.289
-656.901	-21.099	-0.135	0.083
-655.886	328.150	-0.048	0.092
-654.872	-200.000	0.026	0.192
-653.857	514.717	-0.056	-0.130
-652.843	309.686	0.076	0.142
-651.828	-119.403	0.156	0.027
-650.814	800.000	0.048	-0.174
-649.799	-32.635	0.222	0.124
-648.784	355.739	-0.181	0.361
-647.770	-58.700	0.150	-0.065
-646.755	161.032	-0.097	0.135
-645.741	408.738	-0.056	-0.118
-644.726	-145.799	-0.257	0.023
-643.711	-38.232	-0.238	-0.126
-642.697	22.945	-0.035	-0.029
-641.682	-50.682	-0.299	-0.141
-640.668	83.616	-0.212	-0.230
-639.653	-68.376	-0.197	-0.076
-638.638	14.641	0.136	0.106
-637.624	800.000	-0.071	0.202
-636.609	800.000	-0.127	0.407
-635.595	697.759	0.106	-0.279
-634.580	37.415	-0.102	0.090
-633.565	121.279	0.104	0.130
-632.551	800.000	-0.102	0.344
-631.536	-88.788	0.195	-0.058
-630.522	-76.213	-0.280	-0.098
-629.507	114.330	-0.195	-0.237
-628.492	385.189	-0.036	-0.074
-627.478	-120.391	0.268	-0.045
-626.463	15.539	-0.111	0.087
-625.449	-89.185	0.179	-0.053
-624.434	-18.030	-0.198	-0.124
-623.419	476.987	-0.067	0.151
-622.405	-84.538	0.111	0.035
-621.390	-10.691	0.348	-0.230
-620.376	112.950	0.221	-0.268
-619.361	-139.145	-0.327	0.035
-618.346	528.668	-0.117	0.275
-617.332	-200.000	-0.056	-0.299
-616.317	11.990	-0.111	-0.085
-615.303	-99.672	0.330	-0.083
-614.288	800.000	0.030	0.118
-613.273	-200.000	0.026	0.363
-612.259	-48.158	-0.272	0.131
-611.244	-135.749	0.179	-0.021
-610.230	-126.118	-0.340	0.051
-609.215	85.982	-0.112	-0.123
-608.201	-200.000	-0.011	0.410
-607.186	312.226	0.065	-0.121
-606.171	157.077	-0.192	-0.265
-605.157	-96.014	-0.348	-0.092
-604.142	87.470	-0.353	0.390
-603.128	48.091	0.218	-0.204
-602.113	-8.504	-0.105	-0.070
-601.098	54.476	0.193	0.185
-600.084	99.929	0.105	0.121
-599.069	375.239	0.106	-0.216
-598.055	-200.000	-0.007	-0.074
-597.040	95.563	-0.315	0.358
-596.025	-200.000	-0.019	0.337
-595.011	20.159	0.094	-0.075
-593.996	523.132	-0.134	-0.314
-592.982	-79.130	-0.536	0.181
-591.967	-200.000	0.000	0.069
-590.952	800.000	0.045	-0.138
-589.938	9.243	-0.336	0.253
-588.923	-115.604	-0.005	0.001
-587.909	516.801	0.048	-0.113
-586.894	604.497	0.100	-0.249
-585.879	-200.000	0.007	-0.185
-584.865	197.420	0.147	0.224
-583.850	18.414	-0.097	-0.077
-582.836	69.935	0.056	-0.057
-581.821	-200.000	0.053	0.244
-580.806	800.000	0.020	-0.064
-579.792	-12.391	0.188	-0.122
-578.777	-3.502	0.156	-0.108
-577.763	181.246	-0.130	0.190
-576.748	348.112	0.110	-0.216
-575.733	800.000	0.059	0.202
-574.719	-142.307	-0.195	-0.019
-573.704	-44.286	-0.402	-0.201
-572.690	570.015	-0.024	0.057
-571.675	-200.000	0.001	-0.058
-570.661	-20.696	-0.194	0.118
-569.646	800.000	-0.049	0.204
-568.631	-19.642	-0.080	0.049
-567.617	460.451	0.138	-0.306
-566.602	793.384	0.207	-0.568
-565.588	377.860	-0.071	-0.144
-564.573	-104.431	0.496	0.114
-563.558	-200.000	-0.005	-0.072
-562.544	-69.016	0.102	0.039
-561.529	-59.643	-0.301	-0.129
-560.515	-23.478	0.337	-0.201
-559.500	-45.284	-0.323	-0.160
-558.485	103.702	0.039	-0.046
-557.471	231.042	0.125	0.204
-556.456	-200.000	0.073	-0.319
-555.442	19.838	0.131	-0.105
-554.427	-200.000	-0.030	0.158
-553.412	-200.000	0.060	0.268
-552.398	277.717	-0.134	-0.237
-551.383	-200.000	-0.045	-0.275
-550.369	97.787	0.132	0.151
-549.354	800.000	-0.081	0.248
-548.339	-29.245	0.083	-0.047
-547.325	383.366	-0.032	0.065
-546.310	-128.466	0.077	0.011
-545.296	6.020	0.307	0.226
-544.281	141.179	0.028	-0.037
-543.266	-95.579	-0.282	-0.075
-542.252	-200.000	-0.051	-0.248
-541.237	-137.094	0.097	0.011
-540.223	88.600	0.338	-0.374
-539.208	800.000	0.078	0.238
-538.193	-200.000	0.050	0.300
-537.179	-200.000	-0.044	-0.377
-536.164	800.000	0.048	-0.199
-535.150	313.212	0.279	-0.522
-534.135	49.284	-0.148	0.138
-533.121	-3.374	0.198	0.137
-532.106	453.514	-0.048	0.105
-531.091	317.887	0.020	0.039
-530.077	-200.000	0.016	0.075
-529.062	19.662	-0.265	0.212
-528.048	-48.821	-0.341	-0.162
-527.033	-200.000	0.026	0.190
-526.018	279.288	0.143	0.253
-525.004	1.735	-0.067	-0.048
-523.989	192.440	-0.323	-0.484
-522.975	273.433	-0.157	-0.277
-521.960	356.282	0.035	-0.069
-520.945	-119.908	-0.263	-0.045
-519.931	-200.000	-0.015	0.275
-518.916	-102.436	-0.096	0.023
-517.902	-200.000	0.015	-0.220
-516.887	-200.000	0.038	0.215
-515.872	800.000	0.046	-0.150
-514.858	135.732	0.051	-0.066
-513.843	-9.188	-0.182	-0.121
-512.829	800.000	-0.059	0.166
-511.814	317.547	-0.086	0.161
-510.799	-200.000	-0.047	-0.300
-509.785	-68.411	0.119	-0.046
-508.770	-200.000	-0.047	-0.236
-507.756	-3.696	-0.153	-0.106
-506.741	-58.791	-0.034	0.015
-505.726	290.591	-0.299	-0.540
-504.712	-60.991	0.522	-0.219
-503.697	-200.000	-0.054	-0.451
-502.683	750.122	0.025	-0.068
-501.668	-129.494	0.120	0.017
-500.653	81.030	0.078	0.083
-499.639	41.066	-0.154	0.138
-498.624	-2.801	-0.361	-0.251
-497.610	62.523	-0.185	0.184
-496.595	-200.000	-0.022	-0.296
-495.581	189.449	-0.104	0.155
-494.566	-67.084	-0.302	-0.118
-493.551	105.557	0.203	-0.238
-492.537	285.553	0.019	-0.033
-491.522	-200.000	-0.023	0.385
-490.508	3.148	0.310	-0.224
-489.493	-57.525	-0.279	0.122
-488.478	-53.397	0.197	-0.090
-487.464	549.554	-0.112	-0.267
-486.449	-141.511	-0.321	0.032
-485.435	222.612	-0.076	0.121
-484.420	521.222	-0.127	-0.295
-483.405	157.415	0.094	0.130
-482.391	-28.175	-0.106	-0.061
-481.376	-6.566	0.061	0.041
-480.362	221.605	-0.204	0.326
-479.347	-40.071	0.193	-0.100
-478.332	-46.501	0.024	0.012
-477.318	287.711	-0.295	0.529
-476.303	-174.243	0.335	0.010
-475.289	302.140	-0.070	-0.129
-474.274	120.203	-0.033	0.040
-473.259	-200.000	0.014	-0.096
-472.245	-200.000	0.009	-0.155
-471.230	-73.097	0.129	-0.047
-470.216	74.822	-0.237	-0.248
-469.201	-21.688	-0.078	0.047
-468.186	524.826	-0.061	-0.143
-467.172	800.000	-0.096	0.279
-466.157	155.407	-0.050	0.068
-465.143	213.303	-0.020	0.031
-464.128	125.793	-0.097	-0.122
-463.113	71.701	-0.095	-0.098
-462.099	-130.121	0.256	0.035
-461.084	-16.846	-0.150	-0.094
-460.070	-53.783	0.477	0.216
-459.055	-47.149	-0.156	-0.075
-458.040	13.426	-0.426	-0.328
-457.026	139.982	-0.082	0.108
-456.011	433.468	-0.047	0.101
-454.997	120.361	-0.161	0.199
-453.982	-90.982	-0.320	0.091
-452.968	-40.761	0.357	-0.183
-451.953	-147.135	0.264	0.022
-450.938	83.079	-0.163	-0.176
-449.924	-26.792	0.162	0.094
-448.909	118.603	-0.035	0.043
-447.895	-44.849	-0.215	0.106
-446.880	-125.160	-0.184	-0.028
-445.865	-3.212	0.189	-0.130
-444.851	-93.462	-0.275	0.076
-443.836	800.000	0.159	-0.468
-442.822	-21.276	0.194	0.117
-441.807	-70.115	-0.404	0.152
-440.792	197.912	0.151	0.228
-439.778	97.545	0.237	0.270
-438.763	319.630	0.137	0.258
-437.749	2.317	0.143	-0.102
-436.734	-48.605	-0.267	0.127
-435.719	214.649	-0.021	0.032
-434.705	457.811	0.041	-0.091
-433.690	41.686	0.316	-0.284
-432.676	-52.785	-0.165	0.075
-431.661	-129.759	0.069	-0.009
-430.646	-26.692	0.253	0.147
-429.632	370.188	-0.048	-0.097
-428.617	-154.325	0.201	0.013
-427.603	86.945	-0.213	0.233
-426.588	-71.104	0.444	-0.165
-425.573	85.398	0.135	-0.147
-424.559	70.593	0.177	0.181
-423.544	14.169	0.135	-0.104
-422.530	-200.000	-0.035	-0.430
-421.515	627.606	-0.102	0.256
-420.500	697.945	-0.057	0.149
-419.486	591.819	-0.075	0.184
-418.471	-200.000	0.019	0.116
-417.457	-180.941	0.268	-0.005
-416.442	-15.106	-0.115	0.073
-415.428	-52.352	-0.225	0.103
-414.413	-47.103	0.067	0.033
-413.398	72.297	0.141	-0.146
-412.384	-57.571	-0.181	-0.078
-411.369	270.708	0.098	0.171
-410.355	-98.020	0.201	-0.051
-409.340	176.449	0.094	0.136
-408.325	-200.000	0.029	0.171
-407.311	-115.914	0.055	-0.010
-406.296	2.645	0.075	-0.054
-405.282	132.265	-0.016	0.020
-404.267	-17.158	-0.282	0.176
-403.252	75.962	-0.112	-0.117
-402.238	-104.599	-0.061	0.014
-401.223	76.555	-0.303	-0.318
-400.209	97.714	0.089	-0.101
-399.194	-200.000	-0.002	0.211
-398.179	-200.000	-0.004	0.101
-397.165	333.699	-0.061	0.117
-396.150	-200.000	-0.006	0.125
-395.136	732.354	0.056	0.148
-394.121	319.363	-0.157	0.295
-393.106	-200.000	0.002	0.127
-392.092	152.448	-0.282	-0.380
-391.077	800.000	0.070	-0.249
-390.063	-98.852	0.346	-0.087
-389.048	800.000	-0.037	-0.112
-388.033	68.856	0.202	0.205
-387.019	23.064	0.109	0.089
-386.004	197.254	-0.142	0.215
-384.990	50.230	0.032	-0.030
-383.975	205.068	-0.281	-0.431
-382.960	288.839	0.152	0.272
-381.946	-200.000	0.395	-0.001
-380.931	-83.500	0.306	0.097
-379.917	-169.029	-0.448	0.017
-378.902	800.000	-0.110	0.369
-377.888	800.000	-0.074	-0.202
-376.873	179.263	0.103	-0.149
-375.858	-120.586	0.517	-0.087
-374.844	-74.151	-0.376	-0.135
-373.829	-105.401	0.355	-0.080
-372.815	-200.000	-0.152	-0.000
-371.800	-94.401	-0.287	0.077
-370.785	-31.097	0.090	-0.050
-369.771	47.562	0.384	0.354
-368.756	5.848	-0.068	-0.050
-367.742	-6.193	-0.098	0.066
-366.727	297.580	-0.115	0.209
-365.712	-200.000	0.272	-0.001
-364.698	405.551	0.151	-0.315
-363.683	-151.294	-0.411	0.030
-362.669	-200.000	0.190	-0.001
-361.654	-200.000	-0.036	0.165
-360.639	69.550	-0.171	-0.174
-359.625	-200.000	0.003	0.066
-358.610	0.689	0.257	-0.181
-357.596	49.485	0.080	0.074
-356.581	-44.653	-0.166	0.082
-355.566	-130.994	-0.264	-0.035
-354.552	555.093	0.121	0.287
-353.537	-85.318	-0.142	0.044
-352.523	83.146	0.069	0.074
-351.508	259.111	-0.117	0.199
-350.493	-151.247	0.357	0.026
-349.479	-148.127	-0.302	-0.025
-348.464	-184.158	0.199	-0.003
-347.450	32.904	0.033	-0.028
-346.435	181.750	0.152	-0.221
-345.420	69.473	0.130	-0.132
-344.406	61.552	0.226	-0.222
-343.391	51.323	-0.192	-0.180
-342.377	-101.830	-0.263	0.063
-341.362	-200.000	-0.013	-0.276
-340.348	-55.395	0.181	-0.080
-339.333	-158.664	-0.281	0.016
-338.318	80.305	0.150	-0.159
-337.304	-35.830	0.225	0.120
-336.289	77.668	-0.198	-0.208
-335.275	-150.151	-0.094	-0.007
-334.260	184.705	0.085	-0.124
-333.245	128.535	0.179	0.225
-332.231	-149.151	0.079	0.006
-331.216	-1.640	-0.179	-0.124
-330.202	-72.705	-0.148	0.054
-329.187	-115.591	-0.105	-0.019
-328.172	-85.584	-0.225	0.069
-327.158	20.531	0.101	0.081
-326.143	-61.003	0.197	-0.082
-325.129	-34.350	-0.070	0.038
-324.114	-30.951	-0.113	-0.063
-323.099	356.842	-0.107	0.211
-322.085	-145.746	-0.105	0.009
-321.070	130.456	0.121	0.153
-320.056	480.008	0.041	-0.092
-319.041	-41.764	-0.359	0.182
-318.026	197.636	-0.244	0.367
-317.012	-200.000	0.040	-0.349
-315.997	-200.000	-0.013	-0.066
-314.983	-53.410	0.264	-0.119
-313.968	158.764	0.082	0.113
-312.953	-62.942	-0.446	0.182
-311.939	226.163	-0.079	-0.126
-310.924	-135.472	-0.133	-0.016
-309.910	-200.000	0.017	0.107
-308.895	-69.301	-0.484	-0.183
-307.880	-8.349	0.202	-0.134
-306.866	346.636	0.125	-0.242
-305.851	-109.970	-0.356	0.073
-304.837	-82.542	0.062	0.020
-303.822	-161.442	0.058	0.003
-302.807	800.000	-0.035	0.126
-301.793	-86.095	0.383	0.117
-300.778	77.247	0.094	-0.099
-299.764	236.761	0.202	0.329
-298.749	179.211	-0.101	-0.146
-297.735	-28.167	0.236	0.135
-296.720	511.032	-0.058	0.133
-295.705	-154.076	-0.168	0.011
-294.691	-101.269	0.093	-0.022
-293.676	414.765	0.115	0.242
-292.662	307.463	-0.100	0.184
-291.647	-104.220	-0.150	0.034
-290.632	-200.000	-0.005	0.329
-289.618	-200.000	0.000	0.180
-288.603	47.928	-0.157	0.145
-287.589	-22.817	0.058	0.034
-286.574	-65.016	0.054	-0.022
-285.559	-200.000	0.001	-0.193
-284.545	89.833	-0.147	-0.161
-283.530	-200.000	-0.010	-0.266
-282.516	-54.834	-0.100	-0.044
-281.501	-200.000	0.035	0.161
-280.486	13.457	0.135	0.103
-279.472	-200.000	0.029	-0.246
-278.457	-37.599	0.224	-0.118
-277.443	289.754	-0.067	-0.120
-276.428	-160.197	-0.274	-0.015
-275.413	1.315	-0.179	0.127
-274.399	800.000	-0.075	-0.275
-273.384	-111.894	0.254	-0.050
-272.370	-200.000	0.015	0.228
-271.355	-76.822	-0.102	0.035
-270.340	-200.000	0.006	0.224
-269.326	37.350	0.323	0.282
-268.311	-41.967	0.162	-0.082
-267.297	373.852	-0.207	0.414
-266.282	154.275	0.177	-0.240
-265.267	-173.164	0.177	-0.005
-264.253	-66.747	-0.275	-0.107
-263.238	-200.000	-0.012	-0.110
-262.224	167.819	0.047	-0.065
-261.209	-74.064	0.390	-0.139
-260.195	-142.670	0.385	-0.037
-259.180	-200.000	-0.040	0.295
-258.165	724.373	-0.062	0.164
-257.151	-200.000	-0.035	-0.294
-256.136	-200.000	-0.057	-0.265
-255.122	48.412	0.030	0.028
-254.107	-49.383	0.193	-0.091
-253.092	150.155	0.146	-0.194
-252.078	-200.000	-0.039	0.229
-251.063	-163.509	-0.156	0.007
-250.049	16.695	0.083	0.065
-249.034	-200.000	0.004	-0.338
-248.019	-200.000	0.024	0.437
-247.005	-118.514	0.093	-0.016
-245.990	155.014	0.279	0.377
-244.976	-158.705	-0.100	-0.006
-243.961	180.411	-0.032	0.047
-242.946	319.916	-0.126	0.235
-241.932	404.085	0.131	-0.271
-240.917	684.403	0.169	0.433
-239.903	137.442	0.095	0.122
-238.888	764.903	0.099	0.264
-237.873	-26.774	-0.063	-0.036
-236.859	16.922	-0.218	-0.170
-235.844	-200.000	-0.003	-0.109
-234.830	-1.363	0.163	-0.113
-233.815	-200.000	-0.038	0.337
-232.800	-66.316	0.662	-0.259
-231.786	-14.852	-0.117	-0.074
-230.771	-200.000	0.007	0.163
-229.757	-17.479	0.051	-0.032
-228.742	-139.183	0.140	-0.015
-227.727	310.003	-0.030	0.055
-226.713	114.207	0.140	-0.167
-225.698	367.003	0.095	-0.189
-224.684	-200.000	0.014	-0.091
-223.669	258.001	0.082	0.138
-222.655	-10.460	-0.297	0.194
-221.640	-175.848	-0.360	-0.009
-220.625	112.818	0.021	0.025
-219.611	-200.000	-0.034	-0.158
-218.596	690.263	0.025	-0.065
-217.582	-0.776	0.219	-0.152
-216.567	-200.000	0.011	-0.180
-215.552	-200.000	0.036	0.235
-214.538	15.178	-0.053	0.041
-213.523	-175.479	0.528	0.014
-212.509	-200.000	0.045	0.418
-211.494	-78.021	-0.305	0.103
-210.479	-180.747	-0.089	-0.002
-209.465	69.026	-0.185	0.186
-208.450	16.152	0.013	-0.010
-207.436	-12.447	-0.344	-0.220
-206.421	141.241	0.208	-0.270
-205.406	-31.503	0.150	-0.083
-204.392	-200.000	0.013	0.096
-203.377	-166.778	-0.200	-0.008
-202.363	-23.787	0.140	-0.083
-201.348	-88.093	0.075	-0.022
-200.333	-200.000	0.053	0.240
-199.319	-200.000	-0.003	-0.231
-198.304	-196.734	0.183	-0.001
-197.290	-103.989	0.182	0.042
-196.275	576.749	0.145	-0.348
-195.260	223.064	-0.256	0.406
-194.246	-155.693	-0.339	-0.021
-193.231	-137.450	0.408	-0.045
-192.217	800.000	-0.037	0.127
-191.202	-186.762	0.219	0.003
-190.187	-26.974	0.123	0.070
-189.173	191.481	0.130	0.192
-188.158	84.456	-0.176	-0.189
-187.144	-200.000	-0.026	-0.126
-186.129	-117.892	-0.062	0.011
-185.114	-12.479	-0.102	0.065
-184.100	800.000	0.048	-0.140
-183.085	-200.000	-0.016	0.088
-182.071	-61.874	0.194	0.080
-181.056	-200.000	-0.020	-0.160
-180.042	-26.018	0.132	0.076
-179.027	800.000	-0.027	0.100
-178.012	42.304	0.103	-0.092
-176.998	108.289	0.216	0.253
-175.983	295.210	-0.140	0.252
-174.969	-134.914	0.275	0.033
-173.954	-11.107	-0.246	0.159
-172.939	-51.187	0.197	0.090
-171.925	-17.645	0.361	-0.222
-170.910	-68.906	-0.157	0.059
-169.896	222.880	0.140	-0.221
-168.881	18.844	0.111	0.087
-167.866	-150.578	-0.392	0.029
-166.852	289.129	-0.032	-0.057
-165.837	-132.210	0.315	-0.040
-164.823	151.760	0.077	0.103
-163.808	-154.779	0.432	-0.028
-162.793	5.161	0.048	-0.035
-161.779	-113.592	-0.169	0.032
-160.764	529.171	-0.069	-0.160
-159.750	-46.764	-0.095	-0.045
-158.735	800.000	-0.096	0.282
-157.720	454.560	0.092	-0.200
-156.706	12.711	0.248	0.188
-155.691	269.450	-0.130	0.225
-154.677	-134.230	0.143	0.017
-153.662	9.767	0.046	0.034
-152.647	60.538	0.078	-0.076
-151.633	10.082	0.209	-0.156
-150.618	-60.744	-0.230	-0.096
-149.604	73.991	-0.107	0.110
-148.589	-6.671	0.164	-0.109
-147.574	-200.000	0.043	-0.203
-146.560	800.000	0.103	0.392
-145.545	-112.045	-0.226	0.045
-144.531	-149.435	-0.048	0.004
-143.516	3.611	0.232	-0.166
-142.502	-67.854	-0.208	0.080
-141.487	-200.000	-0.065	-0.351
-140.472	-172.481	0.269	0.008
-139.458	-47.999	0.166	-0.079
-138.443	-200.000	-0.021	0.122
-137.429	-122.280	0.064	0.010
-136.414	263.904	-0.073	0.124
-135.399	105.886	-0.336	0.389
-134.385	32.174	0.203	0.172
-133.370	-200.000	0.062	0.342
-132.356	479.848	0.084	-0.186
-131.341	14.330	0.336	0.256
-130.326	-139.179	-0.015	0.002
-129.312	800.000	-0.048	0.195
-128.297	-140.039	0.209	0.022
-127.283	-81.945	0.217	-0.070
-126.268	234.197	0.012	-0.019
-125.253	39.186	0.121	0.106
-124.239	800.000	-0.071	-0.255
-123.224	-149.740	0.112	-0.009
-122.210	-62.032	-0.299	0.122
-121.195	-93.200	0.329	0.089
