DTS Sentinel unit serial number:	SN413079Multiplexer serial number:	ORYXHardware model number:	OX4-SRSoftware version number:	ORYX F/W v4.00 Oryx Data Collector v3.7.2.0data status	okinstallation	princeton_trtdifferential loss correction	single-endedforward channel	channel 3reverse channel	N/Adate	2019/09/17time	07:20:35forward acquisition time	60.00reverse acquisition time	0.00gamma	496.2192k internal	0.2335k external	0.2335temperature offset calibration	0.9943default loss term (dB/km)	0.3790temperature slope calibration	1.0000multiplexer offset coefficient	1.0000multiplexer slope coefficient	1.0000fibre end	0.00T internal ref (°C)	27.25T ext. ref 1 (°C)	0.12T ext. ref 2 (°C)	21.43length (m)	temperature (°C)	Stokes	anti-Stokes-747.200	356.732	-0.080	-0.160
-746.185	-34.604	-0.237	0.130
-745.171	-52.191	0.303	-0.141
-744.156	-31.961	0.357	-0.201
-743.142	-173.895	0.422	-0.013
-742.127	-103.909	-0.241	-0.056
-741.112	-134.130	-0.047	-0.006
-740.098	-48.795	-0.194	0.093
-739.083	-47.372	-0.118	0.058
-738.069	-126.619	-0.306	0.046
-737.054	-155.670	-0.262	0.017
-736.039	87.673	0.041	0.046
-735.025	-140.191	-0.138	-0.015
-734.010	-69.333	-0.347	-0.134
-732.996	800.000	-0.061	0.254
-731.981	-200.000	-0.058	-0.283
-730.966	-188.727	0.268	-0.003
-729.952	-200.000	-0.057	-0.405
-728.937	-17.207	-0.274	-0.173
-727.923	-146.852	0.187	0.016
-726.908	56.364	-0.213	0.208
-725.894	-111.259	0.223	-0.046
-724.879	233.033	0.093	0.153
-723.864	-200.000	0.067	-0.370
-722.850	11.132	-0.018	-0.014
-721.835	-200.000	0.006	-0.132
-720.821	-101.899	-0.107	0.026
-719.806	792.546	-0.110	0.303
-718.791	-200.000	-0.041	-0.279
-717.777	398.348	0.022	0.047
-716.762	-10.386	-0.172	0.114
-715.748	-111.674	-0.228	0.046
-714.733	-140.018	-0.459	-0.049
-713.718	304.893	0.088	-0.164
-712.704	-200.000	0.023	0.123
-711.689	800.000	-0.027	-0.103
-710.675	-26.223	0.175	0.103
-709.660	674.321	-0.006	-0.015
-708.645	5.789	-0.152	0.113
-707.631	504.841	0.075	0.175
-706.616	125.075	-0.100	-0.127
-705.602	36.578	-0.174	-0.154
-704.587	598.660	-0.065	-0.161
-703.572	800.000	0.068	0.228
-702.558	127.102	-0.035	-0.044
-701.543	510.830	-0.110	-0.257
-700.529	86.789	-0.213	0.235
-699.514	44.583	-0.218	0.201
-698.499	144.600	0.117	0.156
-697.485	-145.372	0.281	0.025
-696.470	-81.468	-0.093	0.031
-695.456	-98.821	0.390	-0.099
-694.441	-154.014	0.337	0.023
-693.426	-192.020	-0.291	0.003
-692.412	800.000	-0.043	0.152
-691.397	49.340	-0.104	0.098
-690.383	-9.299	-0.153	-0.102
-689.368	382.131	-0.136	-0.281
-688.354	800.000	-0.057	-0.244
-687.339	70.501	-0.162	-0.168
-686.324	-145.827	0.229	-0.020
-685.310	-90.444	-0.159	-0.046
-684.295	800.000	-0.078	-0.258
-683.281	531.621	-0.117	-0.277
-682.266	91.786	0.100	-0.113
-681.251	-200.000	0.006	-0.475
-680.237	453.880	-0.085	-0.189
-679.222	173.040	0.174	-0.251
-678.208	406.983	-0.112	-0.238
-677.193	-131.474	0.128	0.017
-676.178	-95.336	-0.037	0.010
-675.164	-15.099	-0.125	-0.080
-674.149	-149.368	-0.217	-0.017
-673.135	-200.000	-0.015	-0.162
-672.120	-97.988	-0.311	-0.080
-671.105	71.278	-0.053	-0.055
-670.091	-86.115	-0.151	-0.047
-669.076	109.241	-0.119	-0.143
-668.062	546.094	0.029	0.070
-667.047	380.566	0.167	0.342
-666.032	-17.156	0.062	0.039
-665.018	-132.236	0.213	-0.028
-664.003	-59.484	-0.129	0.055
-662.989	23.880	-0.271	-0.223
-661.974	27.421	-0.116	0.098
-660.959	17.038	0.106	0.084
-659.945	-200.000	-0.059	-0.266
-658.930	149.924	-0.243	-0.330
-657.916	-200.000	0.023	-0.183
-656.901	101.646	0.123	-0.144
-655.886	-127.774	-0.069	-0.010
-654.872	167.030	-0.070	-0.099
-653.857	-23.306	0.093	0.056
-652.843	-113.261	-0.346	-0.068
-651.828	269.509	0.182	-0.320
-650.814	43.292	-0.258	-0.236
-649.799	202.006	0.172	-0.266
-648.784	-3.244	0.085	-0.059
-647.770	130.491	0.198	-0.254
-646.755	-78.114	-0.049	0.017
-645.741	-23.642	0.099	-0.059
-644.726	-200.000	0.026	-0.337
-643.711	800.000	0.053	0.152
-642.697	19.546	0.307	0.247
-641.682	135.740	0.254	0.331
-640.668	800.000	-0.044	0.188
-639.653	101.500	-0.054	-0.063
-638.638	-145.920	0.018	-0.002
-637.624	-200.000	-0.012	-0.176
-636.609	800.000	0.006	-0.022
-635.595	-131.742	0.140	0.018
-634.580	103.636	-0.076	0.089
-633.565	209.730	-0.031	-0.048
-632.551	20.585	0.315	0.255
-631.536	-200.000	0.012	0.136
-630.522	-200.000	0.013	-0.243
-629.507	154.349	-0.107	0.147
-628.492	800.000	0.037	-0.144
-627.478	800.000	0.059	-0.220
-626.463	-51.281	-0.109	0.051
-625.449	800.000	0.139	0.443
-624.434	800.000	-0.052	0.161
-623.419	-200.000	0.024	0.203
-622.405	52.560	-0.076	-0.072
-621.390	-157.969	-0.424	-0.025
-620.376	-200.000	-0.031	0.307
-619.361	-143.704	-0.338	0.032
-618.346	782.694	-0.053	0.144
-617.332	800.000	0.113	0.372
-616.317	-44.428	-0.423	-0.211
-615.303	-200.000	0.014	0.154
-614.288	127.714	-0.230	-0.293
-613.273	288.376	-0.145	-0.262
-612.259	-200.000	0.011	0.056
-611.244	-200.000	0.078	0.397
-610.230	-200.000	0.004	0.188
-609.215	-200.000	0.015	-0.258
-608.201	53.996	-0.125	-0.120
-607.186	0.457	0.214	-0.153
-606.171	-23.933	0.150	0.090
-605.157	164.959	-0.188	-0.266
-604.142	58.158	0.149	-0.146
-603.128	-142.938	0.267	-0.026
-602.113	-8.599	0.083	-0.056
-601.098	-82.038	0.420	-0.137
-600.084	281.421	-0.111	0.199
-599.069	2.751	0.273	0.198
-598.055	-200.000	0.046	-0.294
-597.040	-153.662	0.064	0.004
-596.025	41.622	-0.344	-0.312
-595.011	800.000	-0.013	0.047
-593.996	423.454	-0.021	0.046
-592.982	181.437	-0.028	0.042
-591.967	-200.000	-0.011	0.112
-590.952	-200.000	-0.007	-0.107
-589.938	419.670	-0.023	-0.048
-588.923	159.892	0.153	-0.213
-587.909	-122.472	0.147	-0.024
-586.894	113.706	0.121	0.146
-585.879	-11.720	-0.166	0.109
-584.865	-200.000	-0.020	-0.122
-583.850	-105.463	-0.167	0.038
-582.836	-131.632	0.212	-0.028
-581.821	-119.406	0.168	-0.029
-580.806	-83.087	0.187	0.060
-579.792	-144.268	0.113	0.011
-578.777	670.357	-0.108	0.279
-577.763	-200.000	-0.039	0.557
-576.748	393.198	0.110	-0.229
-575.733	-131.501	-0.117	0.015
-574.719	3.763	-0.229	0.167
-573.704	-40.962	0.345	-0.178
-572.690	148.368	0.108	-0.145
-571.675	-19.600	-0.143	-0.088
-570.661	-28.546	-0.229	0.132
-569.646	-82.928	0.178	0.057
-568.631	-200.000	-0.018	-0.366
-567.617	130.802	-0.302	-0.386
-566.602	-3.105	-0.347	-0.242
-565.588	234.484	-0.156	0.256
-564.573	193.851	-0.184	-0.278
-563.558	-108.088	0.097	-0.021
-562.544	-9.562	-0.056	0.037
-561.529	-127.412	-0.083	0.012
-560.515	92.260	0.097	-0.109
-559.500	46.773	0.200	-0.186
-558.485	-50.078	-0.111	-0.052
-557.471	280.809	-0.149	0.267
-556.456	-83.008	-0.273	-0.088
-555.442	33.244	0.109	-0.094
-554.427	800.000	-0.024	-0.068
-553.412	172.850	-0.141	0.202
-552.398	-17.447	-0.095	-0.060
-551.383	-80.441	-0.247	-0.082
-550.369	-200.000	0.035	-0.164
-549.354	-56.905	0.116	0.051
-548.339	199.658	-0.215	-0.329
-547.325	-200.000	0.028	-0.197
-546.310	-153.375	-0.229	0.016
-545.296	-200.000	0.008	-0.173
-544.281	364.078	0.097	-0.194
-543.266	187.185	0.086	-0.128
-542.252	115.849	-0.127	0.155
-541.237	-121.761	0.163	-0.027
-540.223	476.294	-0.047	-0.105
-539.208	-23.764	0.132	-0.079
-538.193	793.545	-0.107	-0.293
-537.179	800.000	-0.005	-0.015
-536.164	-200.000	-0.008	-0.205
-535.150	-153.195	0.196	0.014
-534.135	42.794	0.166	-0.151
-533.121	-69.936	-0.384	0.146
-532.106	-200.000	0.003	0.053
-531.091	248.816	-0.137	-0.232
-530.077	-93.285	0.100	0.028
-529.062	-59.262	0.158	-0.068
-528.048	-200.000	0.029	-0.149
-527.033	-103.042	0.262	-0.062
-526.018	87.940	-0.025	-0.028
-525.004	-16.532	0.109	0.069
-523.989	-20.998	0.166	0.101
-522.975	292.015	0.207	-0.376
-521.960	800.000	-0.120	-0.384
-520.945	-161.925	0.136	0.007
-519.931	27.167	0.104	-0.087
-518.916	-9.023	0.229	0.153
-517.902	430.578	-0.061	-0.132
-516.887	800.000	-0.102	-0.411
-515.872	-200.000	-0.005	-0.112
-514.858	-200.000	0.103	0.455
-513.843	800.000	0.009	-0.026
-512.829	-106.431	-0.407	-0.091
-511.814	-200.000	-0.041	-0.271
-510.799	-117.424	0.254	-0.046
-509.785	-113.023	0.106	0.021
-508.770	-106.211	0.413	0.092
-507.756	-142.922	-0.086	0.008
-506.741	108.517	-0.211	0.251
-505.726	-200.000	0.049	0.302
-504.712	2.960	-0.177	0.128
-503.697	-71.568	-0.038	0.014
-502.683	-23.747	-0.081	0.048
-501.668	-38.212	0.275	0.145
-500.653	240.059	0.074	-0.123
-499.639	357.273	-0.203	0.403
-498.624	25.020	0.041	0.034
-497.610	59.035	-0.219	-0.214
-496.595	52.674	0.102	-0.097
-495.581	420.391	-0.106	0.226
-494.566	-200.000	0.001	0.169
-493.551	-100.863	0.240	0.059
-492.537	-36.242	0.263	0.141
-491.522	137.645	0.062	-0.080
-490.508	800.000	0.060	-0.173
-489.493	375.020	0.061	-0.124
-488.478	800.000	-0.074	0.225
-487.464	70.680	-0.042	0.043
-486.449	800.000	0.052	0.180
-485.435	-131.419	-0.238	0.031
-484.420	118.097	-0.072	0.089
-483.405	-85.326	-0.142	0.044
-482.391	-20.863	-0.174	0.106
-481.376	-18.777	-0.284	0.176
-480.362	-200.000	0.030	-0.174
-479.347	800.000	0.170	-0.582
-478.332	-200.000	0.045	-0.360
-477.318	-200.000	-0.034	-0.352
-476.303	-200.000	-0.034	-0.397
-475.289	379.533	0.138	-0.282
-474.274	-200.000	-0.019	-0.105
-473.259	-156.420	0.144	-0.009
-472.245	344.511	0.117	0.228
-471.230	-79.272	-0.284	-0.096
-470.216	-108.994	0.139	-0.030
-469.201	323.902	-0.094	0.178
-468.186	628.263	0.093	-0.233
-467.172	176.488	0.054	0.077
-466.157	337.613	0.156	-0.301
-465.143	-117.610	0.461	0.083
-464.128	-103.767	-0.343	-0.080
-463.113	-200.000	-0.015	-0.169
-462.099	99.023	-0.250	0.287
-461.084	800.000	0.040	-0.164
-460.070	-28.659	0.308	0.176
-459.055	5.591	-0.059	-0.043
-458.040	-200.000	0.004	-0.085
-457.026	-200.000	0.028	-0.539
-456.011	-173.499	0.243	0.007
-454.997	-103.116	0.181	0.043
-453.982	-113.583	-0.366	-0.071
-452.968	800.000	-0.037	-0.152
-451.953	140.324	0.098	0.128
-450.938	62.743	0.251	-0.250
-449.924	181.956	-0.060	0.087
-448.909	119.038	0.149	0.183
-447.895	368.972	0.017	-0.034
-446.880	-200.000	-0.008	-0.057
-445.865	70.797	0.053	-0.054
-444.851	800.000	-0.069	0.214
-443.836	-19.403	0.359	-0.221
-442.822	-200.000	-0.112	0.498
-441.807	-57.440	0.341	0.149
-440.792	84.863	-0.253	0.275
-439.778	713.286	0.071	0.186
-438.763	-200.000	-0.047	-0.263
-437.749	-200.000	0.014	0.520
-436.734	-158.920	0.106	-0.006
-435.719	-200.000	-0.012	-0.188
-434.705	-113.103	-0.109	-0.021
-433.690	253.118	-0.127	-0.215
-432.676	160.530	0.059	0.082
-431.661	-109.437	-0.246	0.052
-430.646	800.000	0.069	-0.226
-429.632	800.000	0.030	-0.099
-428.617	112.818	-0.171	0.205
-427.603	-136.675	-0.132	0.015
-426.588	-48.740	0.255	0.121
-425.573	98.490	0.046	0.053
-424.559	133.716	0.069	0.089
-423.544	49.357	0.069	-0.064
-422.530	753.827	0.121	0.325
-421.515	685.182	-0.060	-0.156
-420.500	-134.736	-0.039	0.005
-419.486	-39.496	-0.270	-0.140
-418.471	-200.000	0.036	0.167
-417.457	-105.129	0.220	0.050
-416.442	-60.172	-0.137	-0.058
-415.428	187.407	0.080	0.118
-414.413	-153.649	0.296	-0.020
-413.398	-49.088	-0.271	0.128
-412.384	439.954	0.082	0.179
-411.369	340.297	0.128	-0.248
-410.355	280.718	0.066	0.117
-409.340	-200.000	-0.043	-0.202
-408.325	-185.263	-0.312	-0.005
-407.311	368.668	0.087	-0.174
-406.296	-123.049	0.369	0.059
-405.282	800.000	-0.058	0.183
-404.267	-200.000	0.045	-0.202
-403.252	205.939	-0.113	0.175
-402.238	27.556	-0.189	0.158
-401.223	-137.123	0.255	0.029
-400.209	-200.000	0.053	0.232
-399.194	-21.073	-0.086	-0.052
-398.179	-119.371	-0.423	-0.073
-397.165	-200.000	-0.011	0.322
-396.150	795.563	0.082	-0.224
-395.136	-146.570	0.190	0.016
-394.121	-200.000	-0.008	-0.344
-393.106	-200.000	-0.004	-0.025
-392.092	311.412	0.091	0.170
-391.077	181.480	0.184	0.268
-390.063	35.444	0.231	0.201
-389.048	384.847	0.099	-0.201
-388.033	800.000	0.080	-0.276
-387.019	8.311	-0.138	0.103
-386.004	800.000	0.093	0.323
-384.990	-200.000	0.034	0.230
-383.975	14.963	-0.176	-0.137
-382.960	613.943	0.088	-0.219
-381.946	-200.000	-0.040	-0.357
-380.931	-73.923	-0.140	-0.050
-379.917	-200.000	-0.023	-0.231
-378.902	-200.000	-0.025	-0.112
-377.888	-82.021	0.251	-0.081
-376.873	-78.234	0.265	0.090
-375.858	-179.049	0.372	0.008
-374.844	-65.246	0.025	0.010
-373.829	-42.261	0.216	-0.109
-372.815	-200.000	-0.001	0.083
-371.800	12.907	-0.181	0.139
-370.785	51.561	0.257	-0.242
-369.771	-52.956	-0.423	0.193
-368.756	101.851	0.251	0.290
-367.742	101.681	0.343	-0.396
-366.727	-62.097	-0.491	-0.203
-365.712	-141.385	-0.347	0.035
-364.698	-200.000	0.004	0.335
-363.683	-200.000	-0.044	0.202
-362.669	-200.000	0.010	0.098
-361.654	246.756	-0.169	-0.283
-360.639	-89.242	-0.142	-0.042
-359.625	-200.000	0.001	0.267
-358.610	-200.000	-0.123	-0.626
-357.596	-105.385	-0.201	0.045
-356.581	428.531	-0.087	-0.187
-355.566	-200.000	-0.048	-0.228
-354.552	85.342	0.084	0.092
-353.537	-22.846	-0.206	-0.123
-352.523	800.000	0.058	-0.211
-351.508	171.839	-0.073	0.104
-350.493	168.924	0.072	0.101
-349.479	647.096	-0.083	-0.210
-348.464	11.456	0.133	-0.101
-347.450	19.622	0.103	0.082
-346.435	420.468	-0.099	-0.211
-345.420	249.084	-0.084	-0.141
-344.406	800.000	-0.023	-0.078
-343.391	-111.142	0.231	0.047
-342.377	28.837	-0.064	0.054
-341.362	-200.000	-0.035	0.479
-340.348	800.000	-0.079	-0.234
-339.333	103.883	-0.151	-0.176
-338.318	299.313	-0.061	-0.110
-337.304	-65.931	0.302	0.119
-336.289	-102.794	-0.357	-0.084
-335.275	-34.062	-0.366	-0.199
-334.260	51.207	-0.120	-0.113
-333.245	-42.173	0.150	0.076
-332.231	149.055	0.026	0.035
-331.216	84.446	-0.190	0.206
-330.202	-80.796	-0.422	0.139
-329.187	436.259	0.097	-0.209
-328.172	-200.000	-0.021	0.352
-327.158	61.636	-0.079	0.078
-326.143	-200.000	0.286	0.000
-325.129	117.893	-0.173	-0.211
-324.114	342.545	-0.086	-0.166
-323.099	800.000	-0.090	0.348
-322.085	465.446	-0.030	-0.067
-321.070	-34.653	-0.181	0.098
-320.056	800.000	-0.149	0.451
-319.041	47.990	0.091	0.084
-318.026	-85.758	0.158	-0.049
-317.012	-78.892	0.166	0.056
-315.997	-148.192	-0.158	0.013
-314.983	36.878	-0.170	0.148
-313.968	-200.000	-0.016	0.093
-312.953	122.241	-0.134	-0.166
-311.939	261.063	0.113	0.193
-310.924	284.833	-0.057	0.102
-309.910	697.785	0.059	0.153
-308.895	-200.000	0.045	0.239
-307.880	-39.055	-0.258	0.134
-306.866	800.000	-0.103	0.386
-305.851	52.245	-0.222	0.209
-304.837	800.000	-0.054	-0.225
-303.822	42.157	0.217	-0.195
-302.807	-200.000	0.012	-0.126
-301.793	-27.033	0.163	0.094
-300.778	-200.000	-0.007	0.288
-299.764	-96.925	0.523	0.135
-298.749	-186.056	0.233	0.003
-297.735	-21.196	0.133	0.080
-296.720	448.119	0.196	0.426
-295.705	-200.000	0.049	0.327
-294.691	488.899	-0.083	0.187
-293.676	-84.647	-0.093	-0.029
-292.662	-199.934	0.158	-0.001
-291.647	75.343	-0.126	-0.131
-290.632	100.687	-0.033	-0.038
-289.618	-7.721	-0.280	0.187
-288.603	527.513	-0.003	-0.007
-287.589	758.865	-0.079	-0.210
-286.574	800.000	0.041	0.157
-285.559	-23.290	0.022	-0.013
-284.545	-11.774	-0.074	0.048
-283.530	27.924	-0.466	-0.388
-282.516	800.000	-0.066	-0.240
-281.501	-81.427	0.135	-0.044
-280.486	633.510	0.065	0.164
-279.472	5.583	-0.159	-0.116
-278.457	732.592	-0.037	-0.099
-277.443	-81.982	0.258	-0.083
-276.428	-153.521	0.179	-0.012
-275.413	-7.022	0.161	0.108
-274.399	188.768	-0.108	-0.160
-273.384	-74.250	-0.079	0.028
-272.370	-33.008	0.293	-0.161
-271.355	251.939	-0.130	0.218
-270.340	288.600	0.173	0.308
-269.326	-200.000	-0.009	-0.257
-268.311	-53.768	0.294	0.132
-267.297	-174.070	0.113	0.003
-266.282	-23.842	-0.113	0.066
-265.267	-200.000	0.055	0.459
-264.253	-37.492	-0.140	0.074
-263.238	800.000	-0.064	-0.219
-262.224	220.076	-0.067	-0.106
-261.209	156.903	-0.193	0.263
-260.195	89.559	-0.065	0.071
-259.180	-166.933	-0.375	-0.015
-258.165	200.660	0.037	-0.057
-257.151	-73.974	-0.230	0.082
-256.136	300.588	-0.044	0.081
-255.122	26.804	0.062	0.051
-254.107	-127.789	0.300	-0.043
-253.092	-200.000	-0.015	0.090
-252.078	112.599	0.074	0.088
-251.063	800.000	0.045	-0.158
-250.049	-200.000	-0.029	-0.180
-249.034	583.036	-0.072	-0.174
-248.019	-200.000	0.046	0.000
-247.005	-60.069	-0.225	-0.095
-245.990	21.096	0.056	-0.045
-244.976	-200.000	0.009	0.205
-243.961	6.040	0.094	-0.068
-242.946	-149.858	-0.279	-0.022
-241.932	117.279	0.265	0.321
-240.917	-200.000	0.037	0.193
-239.903	800.000	0.025	0.082
-238.888	-117.645	-0.301	-0.053
-237.873	-101.285	-0.483	0.116
-236.859	-200.000	-0.003	-0.084
-235.844	87.513	0.128	-0.139
-234.830	38.284	-0.252	-0.221
-233.815	357.435	-0.142	0.280
-232.800	-7.024	0.128	-0.085
-231.786	-200.000	0.027	0.318
-230.771	-28.916	0.279	-0.158
-229.757	-155.800	-0.290	0.018
-228.742	800.000	-0.005	-0.018
-227.727	-0.244	-0.105	-0.073
-226.713	800.000	-0.084	0.247
-225.698	613.125	0.030	0.073
-224.684	-135.278	0.277	-0.033
-223.669	640.642	-0.116	0.290
-222.655	-60.244	0.258	-0.108
-221.640	-3.049	-0.123	0.085
-220.625	154.240	0.221	0.299
-219.611	61.583	0.063	0.062
-218.596	-74.289	-0.058	0.020
-217.582	51.605	-0.160	-0.149
-216.567	245.082	0.155	0.256
-215.552	1.224	0.133	0.094
-214.538	26.144	-0.178	0.146
-213.523	439.261	0.218	0.468
-212.509	-110.867	-0.136	0.028
-211.494	710.855	0.092	0.240
-210.479	49.329	0.111	-0.103
-209.465	-30.784	0.097	0.054
-208.450	539.796	0.050	0.118
-207.436	-117.538	-0.047	0.008
-206.421	262.340	0.101	-0.173
-205.406	-200.000	-0.011	-0.135
-204.392	800.000	0.080	-0.279
-203.377	157.200	-0.083	0.113
-202.363	312.945	-0.103	-0.190
-201.348	-140.204	-0.156	-0.016
-200.333	-11.609	0.374	0.242
-199.319	-74.769	0.279	-0.098
-198.304	800.000	0.071	-0.245
-197.290	800.000	0.067	-0.206
-196.275	540.932	-0.139	0.325
-195.260	114.467	0.215	0.257
-194.246	17.983	0.123	0.096
-193.231	-49.945	-0.445	-0.207
-192.217	-101.823	0.307	0.073
-191.202	49.579	-0.152	-0.141
-190.187	595.907	0.117	0.286
-189.173	-79.551	-0.113	0.038
-188.158	800.000	0.120	-0.371
-187.144	-85.653	-0.137	0.042
-186.129	-200.000	0.010	-0.065
-185.114	336.037	0.179	-0.341
-184.100	-65.385	-0.213	0.084
-183.085	-67.657	0.038	0.015
-182.071	81.817	-0.164	-0.175
-181.056	113.891	-0.275	-0.329
-180.042	457.932	0.189	-0.414
-179.027	-123.038	-0.469	-0.074
-178.012	9.214	-0.153	0.114
-176.998	-113.372	-0.238	-0.046
-175.983	45.978	0.211	-0.192
-174.969	-200.000	0.029	0.153
-173.954	-9.976	0.166	0.109
-172.939	-98.260	0.161	0.041
-171.925	-80.971	0.158	-0.051
-170.910	800.000	0.033	-0.124
-169.896	-200.000	-0.095	0.540
-168.881	-34.117	0.225	-0.122
-167.866	83.694	-0.256	-0.274
-166.852	32.647	0.268	-0.227
-165.837	-69.045	-0.260	-0.098
-164.823	-84.284	-0.118	0.037
-163.808	-200.000	-0.026	0.514
-162.793	-120.425	0.151	0.025
-161.779	40.999	-0.157	-0.139
-160.764	-200.000	0.037	0.275
-159.750	-108.731	-0.229	-0.048
-158.735	-58.544	0.175	0.075
-157.720	-119.869	0.142	-0.024
-156.706	-200.000	-0.029	0.338
-155.691	70.532	0.068	-0.069
-154.677	800.000	0.004	-0.015
-153.662	-26.536	-0.160	0.092
-152.647	18.764	-0.246	0.193
-151.633	-198.190	0.078	-0.000
-150.618	91.917	-0.156	0.173
-149.604	-84.116	-0.243	-0.076
-148.589	-109.312	0.246	-0.051
-147.574	224.306	0.099	0.158
-146.560	-55.692	0.599	-0.263
-145.545	-140.062	0.335	-0.035
-144.531	-200.000	-0.022	-0.118
-143.516	-200.000	-0.004	-0.377
-142.502	405.814	0.026	-0.053
-141.487	96.539	0.125	-0.141
-140.472	328.856	-0.196	0.369
-139.458	282.437	0.075	0.133
-138.443	65.254	0.314	0.311
-137.429	230.372	-0.156	0.251
-136.414	-125.298	-0.135	0.020
-135.399	9.445	0.283	0.210
-134.385	323.700	-0.257	0.481
-133.370	-200.000	0.030	0.206
-132.356	-141.597	-0.146	-0.014
-131.341	-50.672	0.176	0.081
-130.326	-52.009	-0.059	0.027
-129.312	-120.951	0.169	-0.028
-128.297	800.000	-0.035	-0.105
-127.283	235.443	0.048	-0.078
-126.268	507.231	-0.076	0.172
-125.253	133.791	0.058	0.074
-124.239	46.628	-0.166	-0.151
-123.224	-66.606	-0.180	-0.070
-122.210	492.838	0.032	0.072
