DTS Sentinel unit serial number:	SN413079Multiplexer serial number:	ORYXHardware model number:	OX4-SRSoftware version number:	ORYX F/W v4.00 Oryx Data Collector v3.7.2.0data status	okinstallation	princeton_trtdifferential loss correction	single-endedforward channel	channel 3reverse channel	N/Adate	2019/09/12time	18:57:04forward acquisition time	15.00reverse acquisition time	0.00gamma	496.2192k internal	0.2318k external	0.2318temperature offset calibration	1.0106default loss term (dB/km)	0.3790temperature slope calibration	1.0000multiplexer offset coefficient	1.0000multiplexer slope coefficient	1.0000fibre end	0.00T internal ref (°C)	32.81T ext. ref 1 (°C)	3.01T ext. ref 2 (°C)	27.37length (m)	temperature (°C)	Stokes	anti-Stokes-747.200	-200.000	0.339	0.001
-746.185	52.936	-0.085	-0.083
-745.171	66.603	0.547	0.563
-744.156	-19.935	-0.527	0.329
-743.142	98.446	0.483	0.563
-742.127	112.970	-0.179	-0.219
-741.112	-57.843	0.272	-0.120
-740.098	-200.000	0.133	0.697
-739.083	-200.000	-0.166	0.876
-738.069	75.459	0.259	-0.276
-737.054	-200.000	-0.120	0.822
-736.039	172.662	-0.225	-0.328
-735.025	800.000	0.129	0.438
-734.010	362.002	-0.250	-0.507
-732.996	-200.000	-0.164	-1.147
-731.981	234.892	-0.439	-0.732
-730.966	-146.533	-0.550	-0.048
-729.952	9.144	0.891	-0.681
-728.937	-56.040	-0.562	-0.254
-727.923	-46.247	0.188	-0.094
-726.908	-200.000	-0.012	0.059
-725.894	-28.974	0.238	-0.138
-724.879	25.244	0.204	0.171
-723.864	-151.850	-0.157	-0.012
-722.850	-67.918	-0.462	0.182
-721.835	-113.417	0.861	0.171
-720.821	-200.000	-0.009	0.226
-719.806	-200.000	-0.024	-0.232
-718.791	-64.566	-0.335	0.137
-717.777	-200.000	-0.598	-0.002
-716.762	-200.000	-0.206	1.010
-715.748	-122.718	0.713	0.117
-714.733	94.904	0.295	-0.340
-713.718	-73.869	-0.893	-0.328
-712.704	324.928	-0.108	0.208
-711.689	39.205	-0.094	0.085
-710.675	-39.879	-0.350	0.185
-709.660	260.065	0.462	0.806
-708.645	-200.000	0.212	1.132
-707.631	800.000	0.059	-0.238
-706.616	-150.928	0.425	0.032
-705.602	-200.000	-0.081	-0.712
-704.587	-200.000	0.055	0.301
-703.572	-200.000	-0.005	-0.504
-702.558	-200.000	-0.075	0.353
-701.543	-82.831	0.640	-0.209
-700.529	-88.953	-0.580	-0.174
-699.514	301.626	-0.193	-0.359
-698.499	52.831	0.168	0.162
-697.485	-30.689	0.646	0.369
-696.470	59.266	0.471	0.468
-695.456	41.905	-0.568	-0.521
-694.441	-98.139	0.782	0.203
-693.426	-79.129	0.647	0.222
-692.412	-102.133	0.532	0.129
-691.397	240.521	-0.356	0.600
-690.383	-200.000	-0.089	0.644
-689.368	357.717	0.275	-0.554
-688.354	44.679	0.505	-0.469
-687.339	149.513	0.174	0.238
-686.324	-200.000	-0.044	0.286
-685.310	-200.000	-0.091	0.533
-684.295	29.846	0.153	0.132
-683.281	-101.474	-0.518	-0.127
-682.266	119.968	-0.286	-0.358
-681.251	141.987	0.395	-0.529
-680.237	193.909	0.348	0.532
-679.222	4.694	0.163	0.120
-678.208	-78.645	-0.355	0.122
-677.193	800.000	0.105	-0.399
-676.178	-49.621	0.571	0.274
-675.164	235.921	-0.258	-0.430
-674.149	-200.000	0.121	-0.584
-673.135	-99.735	0.407	-0.103
-672.120	-64.008	0.585	0.241
-671.105	-131.049	0.444	0.060
-670.091	800.000	-0.293	-0.978
-669.076	-145.803	0.298	-0.027
-668.062	-200.000	0.076	0.511
-667.047	-151.728	-0.574	-0.043
-666.032	-76.799	-0.412	0.146
-665.018	-200.000	0.089	-0.485
-664.003	55.387	-0.466	-0.455
-662.989	98.910	-0.115	-0.134
-661.974	253.697	-0.196	-0.337
-660.959	-200.000	0.005	-0.316
-659.945	108.702	-0.340	-0.409
-658.930	-200.000	0.088	0.854
-657.916	-34.188	-0.061	0.034
-656.901	-200.000	0.119	0.670
-655.886	800.000	0.014	-0.054
-654.872	800.000	-0.173	0.627
-653.857	-165.413	0.647	-0.029
-652.843	-200.000	0.143	-0.636
-651.828	-47.300	-1.183	0.581
-650.814	77.208	-0.118	0.127
-649.799	83.700	-1.058	-1.164
-648.784	800.000	0.124	-0.540
-647.770	-40.476	-0.154	-0.081
-646.755	486.033	0.206	0.472
-645.741	289.112	-0.167	0.305
-644.726	-116.304	0.981	-0.183
-643.711	-181.001	-0.487	0.010
-642.697	-200.000	0.060	-0.546
-641.682	105.998	0.118	0.141
-640.668	-200.000	0.075	-0.488
-639.653	-58.066	-0.528	-0.232
-638.638	-200.000	-0.097	-0.713
-637.624	-43.091	-0.558	-0.285
-636.609	-60.466	-0.280	-0.120
-635.595	544.334	0.219	-0.526
-634.580	48.090	0.295	0.278
-633.565	-35.211	-1.155	0.634
-632.551	-9.877	0.372	0.249
-631.536	68.584	-0.252	0.261
-630.522	136.297	-0.215	0.282
-629.507	-200.000	-0.003	-0.143
-628.492	-34.261	0.378	-0.209
-627.478	-200.000	-0.009	-0.295
-626.463	352.769	-0.331	-0.662
-625.449	82.647	0.255	-0.279
-624.434	-200.000	0.006	0.209
-623.419	7.621	0.293	0.221
-622.405	-200.000	0.021	0.384
-621.390	742.788	-0.262	-0.709
-620.376	800.000	-0.180	-0.519
-619.361	-41.969	0.303	0.156
-618.346	230.847	0.183	0.302
-617.332	-200.000	0.006	-0.186
-616.317	-58.582	0.219	-0.096
-615.303	139.098	0.762	1.009
-614.288	-49.756	-0.615	0.294
-613.273	735.154	-0.284	0.765
-612.259	-200.000	-0.097	0.503
-611.244	-4.374	-0.327	0.227
-610.230	430.320	0.159	-0.347
-609.215	-13.699	0.798	-0.520
-608.201	-36.057	0.428	0.233
-607.186	-67.590	-0.481	0.190
-606.171	3.387	0.930	0.682
-605.157	265.753	-0.208	-0.365
-604.142	86.187	0.283	-0.314
-603.128	37.785	0.397	-0.355
-602.113	194.536	0.369	0.563
-601.098	-200.000	-0.028	0.382
-600.084	662.965	-0.324	0.842
-599.069	7.194	-0.368	-0.277
-598.055	-9.927	-0.169	-0.113
-597.040	676.804	-0.124	-0.324
-596.025	-43.409	0.326	-0.166
-595.011	-108.927	-1.006	-0.216
-593.996	-81.696	-0.923	-0.305
-592.982	206.732	0.378	0.592
-591.967	341.090	-0.183	0.360
-590.952	179.493	0.475	-0.700
-589.938	402.157	-0.236	-0.500
-588.923	800.000	-0.065	0.183
-587.909	-22.293	-0.893	0.545
-586.894	800.000	-0.207	0.615
-585.879	-200.000	-0.033	0.396
-584.865	74.372	0.717	-0.758
-583.850	-200.000	0.109	-0.785
-582.836	-36.987	-0.550	0.296
-581.821	-164.299	-0.144	-0.007
-580.806	-78.043	-0.583	0.202
-579.792	-49.182	-0.781	0.375
-578.777	-56.402	-1.145	0.511
-577.763	800.000	-0.152	0.446
-576.748	69.424	0.468	-0.484
-575.733	-65.118	0.143	-0.058
-574.719	-168.559	0.304	0.012
-573.704	800.000	0.269	-0.961
-572.690	-80.867	1.171	-0.391
-571.675	420.677	0.134	-0.288
-570.661	160.578	-0.175	-0.245
-569.646	-200.000	-0.068	-0.333
-568.631	-2.776	0.876	0.615
-567.617	-6.386	-0.305	0.209
-566.602	30.968	-0.486	0.418
-565.588	-135.710	0.320	-0.038
-564.573	87.647	0.371	0.413
-563.558	678.023	-0.102	0.267
-562.544	318.565	0.034	0.065
-561.529	-200.000	-0.112	-1.108
-560.515	-59.430	0.621	-0.268
-559.500	-200.000	0.056	0.286
-558.485	584.351	-0.196	0.484
-557.471	287.195	-0.275	-0.499
-556.456	117.829	0.348	-0.431
-555.442	-135.120	0.292	0.035
-554.427	207.255	0.467	0.731
-553.412	-34.621	0.419	-0.230
-552.398	-104.407	0.235	0.055
-551.383	-87.986	-0.518	0.156
-550.369	-46.899	0.434	0.213
-549.354	-38.727	0.621	-0.329
-548.339	-136.291	-0.359	-0.042
-547.325	-46.029	-0.562	-0.278
-546.310	-13.978	0.632	0.410
-545.296	524.502	0.395	-0.934
-544.281	-111.415	-0.447	-0.091
-543.266	-24.770	0.297	-0.177
-542.252	-106.959	-0.050	-0.011
-541.237	-92.798	-0.866	-0.243
-540.223	-163.967	-0.309	0.014
-539.208	-200.000	0.060	0.503
-538.193	43.847	0.399	-0.367
-537.179	-62.939	-0.721	0.299
-536.164	579.900	-0.076	0.188
-535.150	-200.000	-0.026	0.194
-534.135	-30.388	-0.758	-0.432
-533.121	-200.000	0.117	0.703
-532.106	-62.505	0.987	0.411
-531.091	-48.520	0.619	0.299
-530.077	-89.257	0.927	0.274
-529.062	800.000	0.015	-0.042
-528.048	177.258	-0.479	-0.699
-527.033	-51.316	-0.189	-0.089
-526.018	201.259	0.194	-0.300
-525.004	-200.000	0.032	0.416
-523.989	-47.469	-0.487	0.237
-522.975	484.263	0.243	-0.554
-521.960	-107.255	-0.594	-0.131
-520.945	86.294	0.346	0.383
-519.931	370.696	-0.221	0.450
-518.916	141.711	0.583	-0.775
-517.902	-25.259	-0.256	-0.152
-516.887	-59.719	0.366	0.157
-515.872	-48.833	0.717	0.345
-514.858	-91.518	-0.808	0.231
-513.843	-152.567	-0.274	0.020
-512.829	464.427	0.070	-0.157
-511.814	-200.000	0.174	-1.092
-510.799	800.000	0.095	-0.372
-509.785	-88.151	0.676	0.203
-508.770	-10.928	-0.721	-0.477
-507.756	-77.513	-0.768	0.267
-506.741	209.611	0.465	0.732
-505.726	0.160	0.377	0.270
-504.712	-102.483	-0.568	-0.136
-503.697	-35.081	-0.249	-0.136
-502.683	244.071	0.366	0.615
-501.668	-132.529	-0.177	-0.023
-500.653	419.416	0.112	0.241
-499.639	32.597	-0.250	0.216
-498.624	-200.000	-0.006	-0.375
-497.610	189.593	0.320	0.481
-496.595	-200.000	0.068	-0.466
-495.581	-200.000	0.031	-0.354
-494.566	92.519	-0.311	-0.351
-493.551	-200.000	0.012	0.648
-492.537	-170.526	0.327	0.011
-491.522	-36.324	0.288	0.156
-490.508	531.112	0.050	-0.118
-489.493	-3.428	0.507	0.353
-488.478	800.000	0.237	0.777
-487.464	396.537	-0.149	0.312
-486.449	59.339	0.267	0.263
-485.435	111.982	0.643	-0.778
-484.420	-143.419	-0.861	-0.082
-483.405	387.421	-0.185	-0.384
-482.391	-67.811	-0.168	0.066
-481.376	-200.000	0.061	0.459
-480.362	-3.901	-0.384	0.267
-479.347	565.728	0.137	0.333
-478.332	-79.071	-0.596	-0.203
-477.318	-20.930	-0.838	0.514
-476.303	-200.000	0.068	0.359
-475.289	800.000	-0.066	-0.197
-474.274	752.003	-0.362	-0.978
-473.259	10.424	0.542	0.413
-472.245	8.871	-0.529	0.399
-471.230	758.531	-0.097	0.264
-470.216	601.691	-0.203	-0.506
-469.201	-154.544	0.445	-0.030
-468.186	157.839	-0.887	-1.231
-467.172	217.610	0.623	-0.994
-466.157	-68.881	0.317	-0.123
-465.143	-107.726	-0.837	0.183
-464.128	-133.887	0.719	0.089
-463.113	-200.000	-0.120	0.580
-462.099	-95.063	-0.362	-0.098
-461.084	-174.277	-1.530	0.044
-460.070	-200.000	-0.043	0.332
-459.055	106.229	-0.461	0.546
-458.040	173.503	0.393	0.568
-457.026	-43.844	-0.342	0.172
-456.011	0.310	0.362	0.258
-454.997	-113.034	-0.089	0.018
-453.982	434.768	0.638	1.387
-452.968	398.833	-0.145	0.304
-451.953	72.728	0.580	-0.605
-450.938	410.992	-0.299	0.635
-449.924	296.222	0.372	-0.682
-448.909	-147.328	0.492	0.042
-447.895	-200.000	-0.080	-0.654
-446.880	-76.498	-0.397	0.139
-445.865	-82.258	-0.335	-0.109
-444.851	680.382	0.109	-0.284
-443.836	118.162	-0.081	-0.100
-442.822	-200.000	-0.016	0.607
-441.807	102.307	-0.623	0.728
-440.792	432.146	-0.244	-0.528
-439.778	800.000	0.073	-0.310
-438.763	-200.000	-0.085	0.656
-437.749	-103.477	1.131	-0.266
-436.734	-52.388	-0.625	-0.289
-435.719	403.604	0.233	0.491
-434.705	152.347	0.325	0.444
-433.690	-200.000	0.021	-0.413
-432.676	-200.000	-0.045	0.388
-431.661	-200.000	0.041	0.916
-430.646	-86.324	-0.831	0.256
-429.632	60.743	0.052	-0.052
-428.617	181.958	0.209	-0.308
-427.603	429.572	0.423	0.915
-426.588	7.043	-0.263	0.196
-425.573	60.252	0.546	-0.539
-424.559	-28.267	-0.715	0.413
-423.544	800.000	0.073	0.209
-422.530	-17.739	-0.221	-0.139
-421.515	88.687	0.306	0.340
-420.500	-200.000	-0.010	-0.426
-419.486	-57.264	-0.580	-0.255
-418.471	-200.000	0.060	0.273
-417.457	-44.797	0.137	0.068
-416.442	44.458	-0.824	-0.756
-415.428	545.801	0.392	0.937
-414.413	-68.447	0.341	-0.132
-413.398	-200.000	-0.372	0.002
-412.384	141.961	0.378	0.501
-411.369	281.630	-0.159	-0.284
-410.355	-200.000	0.025	-0.252
-409.340	-200.000	-0.112	0.542
-408.325	800.000	0.196	0.583
-407.311	62.455	-0.569	0.567
-406.296	116.471	-0.543	0.665
-405.282	-19.292	0.230	-0.143
-404.267	88.968	-0.490	-0.545
-403.252	-38.547	0.451	-0.238
-402.238	37.442	0.148	0.131
-401.223	-52.349	0.399	0.184
-400.209	-76.011	0.540	-0.191
-399.194	-139.509	0.095	0.010
-398.179	800.000	-0.163	-0.548
-397.165	800.000	-0.334	-0.969
-396.150	-125.825	0.661	0.100
-395.136	-200.000	0.049	-0.309
-394.121	-200.000	0.023	0.183
-393.106	800.000	0.152	-0.577
-392.092	800.000	-0.232	0.830
-391.077	71.882	0.433	-0.449
-390.063	-200.000	-0.017	-0.314
-389.048	-200.000	-0.008	-0.237
-388.033	-200.000	0.021	-0.389
-387.019	-147.967	-0.253	-0.021
-386.004	-16.726	-0.336	-0.212
-384.990	800.000	-0.189	-0.575
-383.975	-48.075	0.181	0.087
-382.960	287.343	0.382	0.690
-381.946	-148.241	0.816	-0.067
-380.931	16.113	0.519	-0.408
-379.917	318.531	0.314	0.594
-378.902	77.053	0.118	0.125
-377.888	466.552	-0.247	0.552
-376.873	-200.000	-0.012	-0.300
-375.858	-162.211	0.289	0.014
-374.844	206.878	0.295	0.458
-373.829	-200.000	-0.011	-0.325
-372.815	237.801	-0.205	-0.339
-371.800	230.781	0.332	-0.541
-370.785	-159.235	0.426	-0.024
-369.771	-154.225	-0.202	-0.014
-368.756	479.581	-0.259	0.585
-367.742	-166.089	0.269	0.011
-366.727	-200.000	0.155	0.977
-365.712	-71.039	-0.143	0.054
-364.698	-200.000	-0.119	0.659
-363.683	192.983	-0.494	0.745
-362.669	24.188	-0.382	0.314
-361.654	-169.126	0.491	0.018
-360.639	-200.000	0.035	-0.672
-359.625	341.668	0.402	-0.784
-358.610	-69.823	0.414	0.158
-357.596	-82.497	0.247	0.080
-356.581	2.235	-0.422	0.304
-355.566	800.000	0.064	0.223
-354.552	-200.000	0.079	0.508
-353.537	-41.307	0.856	0.440
-352.523	14.688	-0.326	0.254
-351.508	171.174	0.110	-0.158
-350.493	800.000	-0.210	-0.684
-349.479	34.048	-0.360	0.312
-348.464	325.633	0.338	0.645
-347.450	800.000	-0.192	-0.649
-346.435	-89.781	-0.502	0.146
-345.420	800.000	0.413	1.169
-344.406	-144.420	1.053	0.097
-343.391	-50.631	-0.067	-0.031
-342.377	519.814	0.090	0.210
-341.362	-60.982	0.356	-0.150
-340.348	363.514	-0.377	0.755
-339.333	147.750	0.318	-0.427
-338.318	138.363	0.296	-0.386
-337.304	-154.974	-0.463	-0.030
-336.289	-200.000	0.037	0.322
-335.275	-98.716	-0.500	-0.127
-334.260	4.103	-0.721	-0.525
-333.245	296.769	0.232	0.424
-332.231	-138.782	0.688	-0.075
-331.216	-64.364	-0.638	-0.259
-330.202	192.772	-0.489	-0.735
-329.187	-18.311	-0.481	-0.299
-328.172	-200.000	-0.086	-0.670
-327.158	536.680	-0.363	-0.857
-326.143	-107.283	1.505	-0.330
-325.129	-178.394	0.214	0.005
-324.114	157.225	0.276	0.380
-323.099	224.885	0.264	-0.425
-322.085	-17.671	-0.830	-0.519
-321.070	356.877	-0.474	-0.940
-320.056	72.262	-0.726	-0.753
-319.041	617.524	-0.183	-0.457
-318.026	4.861	0.495	-0.362
-317.012	800.000	0.282	0.827
-315.997	-76.904	0.481	-0.167
-314.983	-86.558	0.416	0.127
-313.968	-138.051	0.442	-0.049
-312.953	-200.000	-0.046	-0.849
-311.939	360.041	0.289	-0.576
-310.924	6.950	0.807	0.598
-309.910	-200.000	-0.220	0.974
-308.895	-93.231	1.117	-0.309
-307.880	-200.000	0.022	0.467
-306.866	-114.798	-0.464	-0.088
-305.851	42.297	-0.184	-0.166
-304.837	10.685	0.689	-0.523
-303.822	498.333	-0.480	-1.100
-302.807	-89.778	-0.165	0.048
-301.793	-46.580	0.206	-0.100
-300.778	39.304	-0.333	0.297
-299.764	35.993	-0.319	0.279
-298.749	-200.000	0.005	0.273
-297.735	-200.000	0.104	-0.716
-296.720	-30.861	0.431	-0.242
-295.705	-43.792	-0.426	-0.213
-294.691	-136.113	0.414	-0.048
-293.676	49.437	-0.574	-0.537
-292.662	-154.727	1.277	-0.084
-291.647	308.620	-0.171	0.318
-290.632	-80.136	-0.645	-0.215
-289.618	119.164	0.716	0.881
-288.603	-157.380	0.759	0.045
-287.589	325.314	-0.329	0.626
-286.574	116.601	0.065	-0.079
-285.559	-184.293	0.901	0.015
-284.545	161.406	0.316	0.439
-283.530	-200.000	0.003	-0.211
-282.516	800.000	-0.124	0.507
-281.501	319.285	0.185	0.349
-280.486	-54.741	-0.121	0.054
-279.472	58.414	0.374	0.364
-278.457	800.000	0.103	-0.318
-277.443	-35.091	-0.570	-0.309
-276.428	800.000	-0.057	0.241
-275.413	658.601	0.085	-0.218
-274.399	348.828	-0.449	0.880
-273.384	37.251	0.488	0.429
-272.370	-132.319	-0.152	-0.020
-271.355	222.740	-0.307	0.491
-270.340	-60.810	0.132	0.056
-269.326	-40.315	0.300	-0.155
-268.311	201.886	0.301	-0.461
-267.297	107.350	0.255	-0.302
-266.282	-4.937	-0.294	-0.201
-265.267	-102.560	-0.574	-0.136
-264.253	800.000	0.051	-0.144
-263.238	-200.000	-0.150	-1.048
-262.224	111.801	-0.541	-0.648
-261.209	-60.632	-0.645	0.272
-260.195	-127.029	0.817	-0.119
-259.180	130.573	-0.339	-0.431
-258.165	681.891	-0.252	0.651
-257.151	-13.221	-0.200	0.129
-256.136	800.000	-0.089	0.284
-255.122	-53.537	-0.609	-0.276
-254.107	84.854	-0.360	0.392
-253.092	-42.618	-0.513	0.260
-252.078	9.969	-0.652	-0.492
-251.063	800.000	-0.207	-0.653
-250.049	105.796	-0.236	0.277
-249.034	-28.935	-0.429	0.244
-248.019	800.000	0.131	-0.378
-247.005	53.372	-0.227	-0.216
-245.990	-11.882	-0.563	0.366
-244.976	374.108	-0.174	0.351
-243.961	-45.932	1.011	-0.495
-242.946	-17.547	-0.123	0.077
-241.932	-57.204	-0.431	0.188
-240.917	-118.524	0.627	-0.110
-239.903	-174.972	-0.500	0.014
-238.888	-200.000	0.061	0.500
-237.873	791.075	0.280	-0.765
-236.859	181.041	-0.367	-0.535
-235.844	-200.000	-0.113	-0.621
-234.830	-99.962	-0.393	0.097
-233.815	37.811	-0.078	0.069
-232.800	-110.978	-0.123	-0.025
-231.786	-5.206	0.148	-0.101
-230.771	800.000	0.290	0.797
-229.757	180.441	0.071	0.104
-228.742	-77.394	0.481	0.166
-227.727	-51.191	0.866	0.403
-226.713	431.578	0.161	-0.345
-225.698	208.484	-0.233	0.362
-224.684	50.030	0.585	-0.548
-223.669	-110.646	-0.771	-0.158
-222.655	-61.707	0.402	-0.167
-221.640	800.000	0.283	-0.787
-220.625	-92.036	1.224	0.343
-219.611	118.844	0.264	-0.324
-218.596	426.643	-0.269	-0.576
-217.582	-200.000	-0.072	-0.321
-216.567	-102.610	0.600	0.142
-215.552	352.135	0.305	-0.600
-214.538	47.707	0.128	-0.118
-213.523	94.618	-0.290	-0.326
-212.509	-71.497	0.058	-0.021
-211.494	452.179	-0.424	-0.930
-210.479	523.840	-0.059	-0.137
-209.465	11.969	-0.561	0.428
-208.450	4.429	-0.316	-0.230
-207.436	11.834	-0.161	0.122
-206.421	386.424	-0.349	0.714
-205.406	-72.871	0.455	0.166
-204.392	70.198	0.100	-0.102
-203.377	-164.530	-1.309	-0.059
-202.363	12.000	-0.515	-0.392
-201.348	109.871	-0.104	0.123
-200.333	399.443	-0.383	0.796
-199.319	138.389	0.539	-0.701
-198.304	-17.020	-0.146	0.092
-197.290	37.862	-0.486	0.428
-196.275	118.295	-0.233	0.285
-195.260	-25.149	0.507	-0.298
-194.246	800.000	0.256	-0.719
-193.231	254.092	0.177	-0.299
-192.217	-200.000	0.023	0.861
-191.202	-10.062	0.343	-0.225
-190.187	25.149	-0.286	0.235
-189.173	-149.830	0.425	-0.033
-188.158	-200.000	-0.033	-0.316
-187.144	-200.000	0.038	-1.345
-186.129	-18.465	-0.953	-0.589
-185.114	-88.858	0.618	0.181
-184.100	-56.061	-0.867	0.382
-183.085	-143.329	-1.011	0.096
-182.071	-55.410	0.424	0.188
-181.056	-200.000	-0.015	-0.530
-180.042	-200.000	-0.073	0.353
-179.027	101.123	-0.624	0.719
-178.012	-65.539	-0.359	0.143
-176.998	-58.004	0.359	0.155
-175.983	-70.530	-0.268	0.100
-174.969	125.337	0.373	-0.466
-173.954	-4.078	0.766	0.526
-172.939	-200.000	0.002	0.301
-171.925	45.446	-0.833	0.761
-170.910	800.000	0.092	0.391
-169.896	12.400	-0.155	0.118
-168.881	-168.396	1.071	0.041
-167.866	20.384	-0.368	0.295
-166.852	-40.105	0.545	-0.281
-165.837	-200.000	0.160	0.777
-164.823	-42.155	-0.336	0.170
-163.808	-159.398	-0.326	-0.018
-162.793	83.109	-0.314	0.338
-161.779	-200.000	0.109	-0.485
-160.764	800.000	-0.054	-0.185
-159.750	-28.081	0.414	0.237
-158.735	-200.000	-0.077	-0.000
-157.720	-141.682	-0.478	-0.047
-156.706	167.499	0.179	0.252
-155.691	-15.962	0.164	-0.103
-154.677	685.851	-0.095	0.247
-153.662	-93.182	0.372	0.102
-152.647	-114.292	0.745	0.142
-151.633	-193.946	0.437	0.004
-150.618	15.150	-0.435	0.337
-149.604	800.000	0.051	-0.171
-148.589	800.000	0.087	-0.249
-147.574	-101.182	0.834	0.202
-146.560	504.466	0.088	-0.202
-145.545	223.329	0.353	-0.563
-144.531	-60.306	-0.527	-0.222
-143.516	-200.000	0.057	-0.499
-142.502	-200.000	0.003	0.402
-141.487	782.404	-0.310	0.840
-140.472	166.736	-0.364	0.510
-139.458	-162.642	0.694	-0.034
-138.443	2.981	0.178	0.128
-137.429	-155.398	0.225	-0.014
-136.414	5.503	-0.525	0.383
-135.399	-200.000	0.040	0.500
-134.385	-128.033	-0.197	0.028
-133.370	48.831	0.185	-0.171
-132.356	-97.437	0.401	-0.103
-131.341	-23.182	-0.442	-0.263
-130.326	-150.797	0.592	0.044
-129.312	-200.000	-0.078	0.651
-128.297	104.966	0.416	-0.485
-127.283	141.665	0.582	0.762
-126.268	-200.000	-0.016	-0.407
-125.253	348.494	0.272	-0.531
-124.239	-200.000	-0.044	-0.437
-123.224	-200.000	-0.014	0.289
-122.210	800.000	-0.082	0.256
-121.195	58.748	0.769	0.746
