DTS Sentinel unit serial number:	SN413079Multiplexer serial number:	ORYXHardware model number:	OX4-SRSoftware version number:	ORYX F/W v4.00 Oryx Data Collector v3.7.2.0data status	okinstallation	princeton_trtdifferential loss correction	single-endedforward channel	channel 3reverse channel	N/Adate	2019/09/13time	02:04:35forward acquisition time	60.00reverse acquisition time	0.00gamma	496.2192k internal	0.2334k external	0.2334temperature offset calibration	1.0126default loss term (dB/km)	0.3790temperature slope calibration	1.0000multiplexer offset coefficient	1.0000multiplexer slope coefficient	1.0000fibre end	0.00T internal ref (°C)	27.61T ext. ref 1 (°C)	3.86T ext. ref 2 (°C)	22.25length (m)	temperature (°C)	Stokes	anti-Stokes-747.200	106.697	-0.148	0.177
-746.185	2.801	0.131	-0.095
-745.171	290.143	-0.045	-0.083
-744.156	-200.000	-0.030	0.189
-743.142	534.844	0.105	0.250
-742.127	-91.129	0.090	0.026
-741.112	7.918	0.263	-0.199
-740.098	304.269	-0.156	0.290
-739.083	800.000	-0.020	-0.086
-738.069	-92.860	-0.317	0.089
-737.054	-103.636	0.276	-0.065
-736.039	1.941	-0.129	-0.094
-735.025	-49.743	0.379	-0.181
-734.010	-92.366	-0.151	-0.043
-732.996	69.377	-0.262	-0.271
-731.981	-88.989	-0.066	0.020
-730.966	-182.986	-0.335	-0.006
-729.952	146.348	-0.046	-0.062
-728.937	-155.823	0.228	0.015
-727.923	-131.640	0.162	0.021
-726.908	-116.810	0.058	-0.011
-725.894	150.164	-0.071	-0.096
-724.879	103.478	-0.109	-0.128
-723.864	13.186	-0.431	0.335
-722.850	24.851	-0.097	-0.081
-721.835	45.827	0.225	-0.209
-720.821	253.775	-0.093	-0.160
-719.806	128.685	-0.101	0.130
-718.791	-111.760	-0.343	-0.070
-717.777	-200.000	-0.003	0.078
-716.762	-19.178	-0.165	0.103
-715.748	59.252	-0.123	-0.122
-714.733	130.857	-0.190	0.245
-713.718	9.492	-0.167	0.127
-712.704	-200.000	-0.001	-0.363
-711.689	56.969	0.073	0.071
-710.675	-165.117	0.215	0.010
-709.660	800.000	0.112	0.384
-708.645	800.000	0.036	-0.151
-707.631	-200.000	0.028	-0.259
-706.616	485.529	-0.045	-0.102
-705.602	-77.977	-0.336	-0.116
-704.587	221.925	0.293	-0.473
-703.572	156.098	0.117	-0.162
-702.558	78.653	0.014	0.015
-701.543	-68.542	0.124	-0.048
-700.529	-200.000	-0.011	-0.206
-699.514	-54.471	0.469	-0.213
-698.499	394.500	-0.069	0.145
-697.485	-200.000	-0.002	-0.106
-696.470	96.541	0.144	-0.165
-695.456	-122.367	-0.222	0.036
-694.441	388.058	-0.076	-0.157
-693.426	346.045	-0.021	-0.042
-692.412	-119.609	0.383	-0.067
-691.397	800.000	0.042	0.176
-690.383	12.202	-0.114	0.088
-689.368	75.030	-0.174	-0.184
-688.354	-200.000	0.005	0.054
-687.339	-111.329	0.361	-0.074
-686.324	-158.429	0.292	0.017
-685.310	98.392	-0.146	-0.169
-684.295	800.000	0.090	-0.274
-683.281	491.145	0.125	-0.286
-682.266	-115.998	-0.275	-0.051
-681.251	20.122	-0.085	0.069
-680.237	-146.075	0.026	-0.002
-679.222	-125.108	-0.149	0.023
-678.208	-200.000	-0.009	-0.200
-677.193	58.974	-0.205	-0.202
-676.178	-182.907	0.112	-0.002
-675.164	39.356	0.127	0.114
-674.149	-22.457	0.241	0.146
-673.135	-200.000	0.023	-0.223
-672.120	-200.000	0.003	-0.084
-671.105	481.281	-0.067	0.153
-670.091	520.597	0.072	-0.169
-669.076	-34.949	-0.288	0.158
-668.062	-21.881	-0.046	0.028
-667.047	105.782	0.093	-0.110
-666.032	-7.524	-0.150	0.102
-665.018	-64.791	0.145	-0.059
-664.003	52.880	-0.082	-0.079
-662.989	-200.000	-0.051	0.345
-661.974	198.477	0.058	-0.089
-660.959	516.618	-0.123	0.289
-659.945	-200.000	0.013	0.246
-658.930	-200.000	-0.042	0.373
-657.916	222.233	0.088	0.143
-656.901	-111.237	0.094	-0.019
-655.886	-68.380	0.273	-0.106
-654.872	-200.000	-0.004	0.164
-653.857	-77.554	0.154	0.053
-652.843	102.124	0.074	-0.087
-651.828	800.000	0.049	0.211
-650.814	-28.777	0.173	0.100
-649.799	-200.000	0.012	-0.190
-648.784	-200.000	-0.001	-0.129
-647.770	-29.137	-0.261	0.150
-646.755	127.102	-0.113	-0.143
-645.741	14.279	-0.227	-0.177
-644.726	98.973	-0.045	0.052
-643.711	-153.914	-0.296	0.020
-642.697	570.202	0.129	-0.314
-641.682	-64.166	0.305	-0.125
-640.668	-200.000	0.018	0.225
-639.653	191.185	-0.049	0.073
-638.638	-200.000	-0.036	-0.254
-637.624	253.364	0.184	-0.314
-636.609	300.260	-0.072	-0.133
-635.595	308.615	-0.195	-0.365
-634.580	-200.000	0.034	0.168
-633.565	-200.000	-0.003	-0.104
-632.551	430.047	0.063	-0.137
-631.536	-8.345	0.119	-0.080
-630.522	-152.983	0.275	0.019
-629.507	-50.205	-0.320	-0.151
-628.492	-184.222	-0.064	-0.001
-627.478	-191.995	0.038	0.000
-626.463	196.927	-0.074	-0.113
-625.449	-15.073	0.128	0.082
-624.434	341.756	0.081	0.158
-623.419	3.992	0.117	0.086
-622.405	-200.000	0.004	0.298
-621.390	-51.272	-0.284	0.133
-620.376	213.421	-0.057	-0.089
-619.361	-113.003	-0.078	-0.015
-618.346	800.000	0.122	0.357
-617.332	-200.000	0.026	0.188
-616.317	232.021	-0.160	-0.263
-615.303	-73.523	0.246	0.090
-614.288	-200.000	0.046	-0.252
-613.273	-200.000	-0.016	-0.091
-612.259	-155.549	-0.287	0.019
-611.244	-200.000	0.037	-0.209
-610.230	139.300	-0.057	0.076
-609.215	-32.586	-0.222	0.124
-608.201	70.915	0.239	0.247
-607.186	39.126	-0.107	-0.095
-606.171	800.000	-0.051	0.176
-605.157	31.794	0.062	-0.053
-604.142	-79.726	-0.128	-0.043
-603.128	-166.137	-0.365	-0.016
-602.113	-142.107	-0.233	0.023
-601.098	-200.000	0.041	-0.266
-600.084	-95.743	0.438	0.117
-599.069	-51.343	0.318	-0.149
-598.055	-86.689	0.366	-0.112
-597.040	431.599	-0.140	-0.303
-596.025	126.806	0.235	0.298
-595.011	4.445	-0.215	0.158
-593.996	196.611	-0.065	-0.098
-592.982	76.357	0.251	0.266
-591.967	-125.623	-0.020	0.003
-590.952	-48.787	0.207	0.099
-589.938	-115.988	0.352	-0.066
-588.923	-104.278	-0.249	-0.058
-587.909	800.000	-0.062	-0.227
-586.894	-200.000	-0.036	0.227
-585.879	-9.680	-0.170	0.113
-584.865	29.107	-0.046	-0.039
-583.850	-34.125	-0.336	-0.184
-582.836	-44.230	0.309	-0.155
-581.821	-111.988	0.085	0.017
-580.806	557.039	0.100	0.241
-579.792	-5.801	-0.110	-0.075
-578.777	-40.484	0.270	0.140
-577.763	47.886	-0.169	0.158
-576.748	248.471	0.149	-0.252
-575.733	299.310	0.118	0.217
-574.719	9.831	-0.158	-0.120
-573.704	319.660	-0.248	-0.470
-572.690	104.645	0.157	-0.184
-571.675	-4.480	0.086	0.060
-570.661	-200.000	0.031	0.231
-569.646	-163.416	-0.194	-0.009
-568.631	367.712	0.095	-0.192
-567.617	468.725	-0.133	-0.298
-566.602	800.000	0.041	0.140
-565.588	800.000	0.013	-0.046
-564.573	-137.794	-0.390	0.044
-563.558	-200.000	0.025	0.538
-562.544	-39.426	0.209	0.109
-561.529	-200.000	0.014	-0.196
-560.515	-27.200	0.115	0.067
-559.500	40.527	0.058	0.052
-558.485	125.257	-0.072	0.090
-557.471	-3.951	0.186	-0.129
-556.456	800.000	0.079	-0.238
-555.442	1.074	-0.229	-0.164
-554.427	-80.294	-0.204	-0.068
-553.412	74.948	-0.317	-0.333
-552.398	398.555	-0.093	0.194
-551.383	-90.512	0.322	-0.093
-550.369	154.416	-0.065	0.088
-549.354	800.000	-0.018	0.076
-548.339	800.000	0.103	0.291
-547.325	500.100	-0.011	0.026
-546.310	-200.000	0.049	-0.335
-545.296	-200.000	-0.010	0.054
-544.281	-122.068	0.130	0.021
-543.266	-18.493	-0.131	0.081
-542.252	-200.000	0.009	-0.234
-541.237	142.654	-0.091	0.120
-540.223	-62.182	-0.151	-0.063
-539.208	-111.916	0.125	-0.025
-538.193	-10.414	0.062	-0.041
-537.179	-200.000	0.039	-0.351
-536.164	37.452	0.377	-0.334
-535.150	-10.252	-0.084	0.055
-534.135	-63.694	-0.345	0.141
-533.121	69.218	-0.119	0.122
-532.106	-0.690	0.072	-0.051
-531.091	120.483	-0.088	-0.109
-530.077	129.052	0.085	0.108
-529.062	134.835	-0.193	-0.250
-528.048	62.639	-0.285	-0.284
-527.033	-200.000	-0.033	-0.163
-526.018	-200.000	0.085	0.445
-525.004	-162.161	0.170	-0.008
-523.989	98.932	-0.160	0.185
-522.975	303.359	0.064	0.118
-521.960	475.340	0.025	0.057
-520.945	390.138	0.021	-0.043
-519.931	-200.000	0.017	-0.127
-518.916	-200.000	0.001	-0.060
-517.902	-88.233	-0.358	0.107
-516.887	-54.276	-0.101	-0.046
-515.872	-200.000	0.029	-0.144
-514.858	-107.483	-0.215	0.047
-513.843	90.331	-0.181	0.202
-512.829	179.362	-0.069	-0.101
-511.814	-48.632	-0.266	-0.127
-510.799	177.745	0.079	-0.114
-509.785	-53.305	-0.258	-0.118
-508.770	-200.000	-0.023	0.265
-507.756	-200.000	-0.013	-0.161
-506.741	-175.345	0.115	-0.003
-505.726	175.942	-0.192	-0.277
-504.712	-200.000	0.032	0.199
-503.697	-54.204	0.496	0.224
-502.683	34.141	0.198	0.172
-501.668	-200.000	-0.071	-0.384
-500.653	-200.000	-0.028	0.329
-499.639	33.445	0.171	-0.148
-498.624	8.248	-0.362	0.271
-497.610	-175.832	-0.108	0.003
-496.595	98.709	0.180	-0.206
-495.581	-163.913	-0.158	0.007
-494.566	27.803	-0.288	0.242
-493.551	139.024	-0.222	0.291
-492.537	-28.360	-0.189	0.109
-491.522	58.508	-0.301	0.294
-490.508	-112.517	-0.122	-0.024
-489.493	91.050	-0.178	-0.199
-488.478	-140.363	0.279	-0.029
-487.464	800.000	0.044	-0.159
-486.449	3.398	-0.067	0.048
-485.435	-85.470	0.428	0.133
-484.420	-161.278	0.186	0.010
-483.405	-108.449	-0.277	-0.059
-482.391	26.871	-0.177	-0.148
-481.376	206.900	0.243	-0.377
-480.362	-77.771	0.329	-0.113
-479.347	800.000	0.077	0.216
-478.332	334.529	-0.133	-0.256
-477.318	800.000	0.078	-0.222
-476.303	-200.000	-0.040	0.229
-475.289	1.048	-0.200	-0.143
-474.274	-91.716	0.167	0.047
-473.259	-191.420	-0.258	-0.003
-472.245	268.277	0.139	0.243
-471.230	22.275	-0.115	0.094
-470.216	34.997	-0.277	-0.241
-469.201	329.095	-0.058	-0.111
-468.186	181.724	0.209	-0.307
-467.172	635.675	0.062	-0.157
-466.157	-86.436	0.207	0.063
-465.143	-41.262	0.286	-0.147
-464.128	800.000	0.031	0.107
-463.113	-142.726	0.238	-0.023
-462.099	-10.815	0.233	-0.153
-461.084	70.326	-0.147	-0.151
-460.070	-200.000	0.026	-0.271
-459.055	800.000	0.078	0.282
-458.040	-200.000	0.037	-0.218
-457.026	9.835	-0.112	-0.084
-456.011	125.854	-0.043	0.054
-454.997	-53.420	-0.117	0.053
-453.982	232.622	0.121	-0.197
-452.968	48.438	-0.058	0.054
-451.953	-168.739	0.209	0.008
-450.938	303.662	-0.026	-0.048
-449.924	5.395	0.118	-0.086
-448.909	-94.478	-0.259	0.070
-447.895	800.000	0.111	-0.430
-446.880	6.418	-0.158	0.116
-445.865	-40.230	0.195	-0.101
-444.851	6.635	0.068	0.050
-443.836	-91.600	0.168	-0.047
-442.822	-79.566	0.174	-0.059
-441.807	-39.352	-0.379	0.198
-440.792	-200.000	0.253	0.001
-439.778	-61.974	0.089	0.037
-438.763	140.896	0.186	0.244
-437.749	-145.787	0.055	0.005
-436.734	-200.000	0.040	0.239
-435.719	-138.393	0.072	-0.008
-434.705	800.000	0.092	-0.372
-433.690	309.824	0.149	0.276
-432.676	-41.161	-0.271	0.139
-431.661	-18.500	-0.207	-0.128
-430.646	99.291	-0.189	-0.217
-429.632	-200.000	-0.036	-0.425
-428.617	232.369	0.039	-0.063
-427.603	-88.119	0.173	0.052
-426.588	-200.000	0.032	-0.169
-425.573	58.783	-0.095	0.093
-424.559	137.405	0.299	-0.388
-423.544	800.000	0.129	-0.409
-422.530	165.930	0.134	0.188
-421.515	-200.000	-0.208	0.001
-420.500	576.445	0.083	0.202
-419.486	-24.861	-0.222	0.131
-418.471	185.957	-0.072	0.106
-417.457	120.036	0.127	-0.156
-416.442	-48.867	0.118	-0.056
-415.428	349.834	-0.192	0.377
-414.413	-71.147	0.186	0.069
-413.398	-88.810	0.141	0.042
-412.384	780.417	0.152	0.413
-411.369	-35.512	-0.146	0.079
-410.355	207.043	-0.024	-0.038
-409.340	306.764	-0.114	0.211
-408.325	-200.000	-0.021	0.195
-407.311	-116.958	-0.437	0.079
-406.296	-123.395	0.050	-0.008
-405.282	800.000	0.074	0.221
-404.267	-200.000	-0.024	0.140
-403.252	-71.368	0.160	0.060
-402.238	738.584	-0.027	0.071
-401.223	40.047	0.123	-0.110
-400.209	-200.000	0.026	-0.258
-399.194	164.409	-0.240	0.335
-398.179	-99.476	0.264	-0.066
-397.165	123.708	0.161	-0.200
-396.150	247.694	-0.097	0.162
-395.136	-157.122	-0.120	0.007
-394.121	-60.284	0.099	-0.042
-393.106	800.000	0.016	0.057
-392.092	-200.000	-0.016	-0.106
-391.077	-193.716	-0.126	-0.001
-390.063	469.276	-0.145	-0.323
-389.048	-152.944	-0.057	0.004
-388.033	800.000	-0.018	0.076
-387.019	-160.291	-0.213	0.011
-386.004	96.758	0.143	-0.163
-384.990	-159.319	-0.133	0.007
-383.975	197.106	0.150	0.226
-382.960	209.038	-0.078	-0.122
-381.946	79.836	0.097	-0.103
-380.931	-200.000	-0.042	0.379
-379.917	167.565	-0.048	0.068
-378.902	349.338	-0.054	-0.106
-377.888	190.551	-0.065	0.098
-376.873	-125.832	0.249	0.037
-375.858	-70.339	-0.156	0.059
-374.844	-69.304	-0.273	-0.104
-373.829	-200.000	-0.029	-0.154
-372.815	496.537	0.127	-0.288
-371.800	-81.512	0.170	-0.056
-370.785	-67.550	0.300	0.116
-369.771	-200.000	0.006	0.046
-368.756	-200.000	-0.034	-0.251
-367.742	212.599	0.180	-0.281
-366.727	-36.244	0.493	0.264
-365.712	-200.000	-0.023	0.396
-364.698	-176.379	-0.230	0.006
-363.683	13.324	0.276	-0.212
-362.669	-200.000	-0.026	-0.139
-361.654	800.000	0.024	-0.093
-360.639	-113.009	-0.151	-0.030
-359.625	206.968	-0.028	0.043
-358.610	-200.000	0.095	0.490
-357.596	328.227	0.143	-0.271
-356.581	547.804	-0.103	0.244
-355.566	709.361	0.105	0.275
-354.552	-87.060	-0.175	0.053
-353.537	-141.488	0.124	-0.012
-352.523	64.606	-0.108	-0.108
-351.508	345.684	0.098	-0.191
-350.493	140.399	0.319	0.417
-349.479	500.107	0.041	0.093
-348.464	45.555	-0.298	0.272
-347.450	-42.099	0.241	0.122
-346.435	-125.043	-0.033	0.005
-345.420	-12.189	-0.193	0.125
-344.406	-95.565	-0.159	-0.042
-343.391	-59.265	-0.482	-0.205
-342.377	-200.000	0.019	0.124
-341.362	-40.950	0.093	0.048
-340.348	173.215	-0.071	0.102
-339.333	-200.000	-0.004	0.030
-338.318	-138.041	-0.476	-0.052
-337.304	538.413	-0.073	0.173
-336.289	716.445	0.069	0.181
-335.275	14.417	0.066	0.051
-334.260	671.173	0.130	0.332
-333.245	-74.754	0.191	0.068
-332.231	369.568	-0.043	0.086
-331.216	-14.480	0.118	0.075
-330.202	-200.000	-0.051	-0.305
-329.187	42.516	-0.126	0.113
-328.172	48.561	0.219	-0.203
-327.158	6.081	-0.025	-0.018
-326.143	-26.177	0.244	-0.142
-325.129	-200.000	-0.007	-0.309
-324.114	-25.996	0.056	0.032
-323.099	-24.334	0.096	-0.057
-322.085	-169.657	0.306	0.011
-321.070	490.423	0.054	-0.123
-320.056	800.000	-0.062	0.179
-319.041	-133.083	0.212	-0.027
-318.026	39.907	0.116	0.103
-317.012	-200.000	-0.005	-0.214
-315.997	39.299	-0.268	-0.237
-314.983	72.960	-0.150	0.155
-313.968	-28.201	-0.094	-0.053
-312.953	272.793	-0.111	0.194
-311.939	317.826	0.038	-0.072
-310.924	9.659	-0.066	0.050
-309.910	222.737	0.199	-0.316
-308.895	-59.825	-0.393	-0.166
-307.880	109.492	-0.184	0.218
-306.866	53.010	-0.109	0.103
-305.851	-61.788	0.252	0.104
-304.837	-87.159	-0.456	-0.137
-303.822	-200.000	-0.048	-0.236
-302.807	-200.000	-0.010	0.065
-301.793	-200.000	-0.024	-0.250
-300.778	631.487	0.059	0.147
-299.764	-83.461	-0.114	0.036
-298.749	129.530	-0.098	-0.124
-297.735	504.641	0.023	0.052
-296.720	6.105	0.240	-0.176
-295.705	41.619	0.164	0.147
-294.691	-200.000	0.046	0.261
-293.676	8.930	0.143	0.107
-292.662	-15.089	0.038	0.024
-291.647	318.160	-0.073	0.137
-290.632	730.288	-0.046	0.122
-289.618	-158.271	-0.418	-0.024
-288.603	34.097	0.166	0.143
-287.589	800.000	-0.056	0.199
-286.574	-200.000	-0.012	0.067
-285.559	-200.000	0.015	0.252
-284.545	-200.000	-0.003	0.104
-283.530	181.517	-0.183	0.266
-282.516	-167.889	0.109	-0.004
-281.501	-200.000	-0.030	-0.315
-280.486	-10.811	-0.019	-0.013
-279.472	-114.068	0.139	-0.027
-278.457	800.000	-0.061	0.194
-277.443	-18.482	0.193	-0.119
-276.428	53.753	-0.241	0.229
-275.413	59.361	-0.066	-0.065
-274.399	-200.000	-0.017	0.283
-273.384	-200.000	-0.100	0.535
-272.370	-69.870	-0.219	0.082
-271.355	-62.130	0.048	-0.020
-270.340	224.979	-0.095	0.152
-269.326	-57.980	-0.488	-0.210
-268.311	359.053	-0.072	0.142
-267.297	-49.809	-0.112	-0.052
-266.282	4.093	0.148	-0.107
-265.267	-36.234	-0.252	-0.134
-264.253	54.393	0.101	0.096
-263.238	-126.359	-0.343	-0.050
-262.224	-200.000	-0.044	-0.245
-261.209	-200.000	0.025	-0.142
-260.195	800.000	-0.108	-0.309
-259.180	14.832	0.222	-0.171
-258.165	-86.744	0.220	0.066
-257.151	49.867	0.322	-0.299
-256.136	-200.000	0.023	-0.189
-255.122	-200.000	0.064	-0.281
-254.107	208.490	0.103	0.159
-253.092	800.000	0.072	0.224
-252.078	317.572	-0.202	0.376
-251.063	-36.685	0.343	-0.182
-250.049	215.459	-0.099	0.155
-249.034	393.286	-0.037	-0.077
-248.019	800.000	0.066	0.263
-247.005	51.928	0.245	0.230
-245.990	213.354	-0.088	0.137
-244.976	-117.069	0.309	0.056
-243.961	-64.763	-0.207	-0.083
-242.946	-125.957	0.269	0.040
-241.932	-81.514	-0.113	-0.037
-240.917	296.235	0.128	-0.232
-239.903	88.915	0.146	-0.160
-238.888	235.163	-0.106	-0.172
-237.873	313.104	-0.088	0.163
-236.859	-152.062	0.186	-0.013
-235.844	-200.000	-0.007	0.086
-234.830	230.514	-0.185	-0.299
-233.815	-83.392	0.034	-0.011
-232.800	-5.944	0.065	-0.044
-231.786	33.996	-0.138	0.118
-230.771	-200.000	0.025	0.244
-229.757	84.821	-0.045	-0.048
-228.742	79.368	0.175	0.185
-227.727	-63.230	-0.190	0.077
-226.713	-24.959	-0.251	0.147
-225.698	-128.928	0.333	-0.046
-224.684	-83.203	0.183	0.058
-223.669	-116.730	-0.273	0.049
-222.655	-135.934	0.388	0.045
-221.640	-200.000	0.025	0.107
-220.625	-46.018	0.213	0.103
-219.611	141.861	-0.140	-0.183
-218.596	-92.857	0.362	0.100
-217.582	-7.328	-0.144	0.096
-216.567	40.538	-0.339	-0.301
-215.552	-128.782	0.098	0.014
-214.538	-49.539	-0.138	0.065
-213.523	-118.974	0.335	0.058
-212.509	273.504	0.025	0.044
-211.494	800.000	0.150	0.437
-210.479	800.000	-0.112	0.364
-209.465	358.052	-0.138	-0.271
-208.450	-27.539	-0.288	0.165
-207.436	-123.956	0.451	-0.070
-206.421	-67.318	-0.181	-0.070
-205.406	-109.223	0.328	-0.069
-204.392	573.919	-0.114	0.274
-203.377	-138.515	-0.338	-0.037
-202.363	-46.909	-0.161	-0.077
-201.348	-61.867	0.039	0.016
-200.333	800.000	0.020	0.075
-199.319	11.086	0.295	0.222
-198.304	800.000	-0.083	0.289
-197.290	-72.961	0.301	0.109
-196.275	-200.000	0.034	0.210
-195.260	-41.085	-0.097	-0.049
-194.246	800.000	0.025	-0.072
-193.231	800.000	0.065	0.250
-192.217	80.086	0.111	0.118
-191.202	58.416	-0.089	0.086
-190.187	-34.382	0.115	-0.062
-189.173	-200.000	-0.098	-0.000
-188.158	-137.936	0.186	0.020
-187.144	-61.545	-0.092	0.038
-186.129	-200.000	0.025	-0.186
-185.114	-200.000	-0.022	0.109
-184.100	294.589	0.239	-0.430
-183.085	203.376	-0.272	-0.413
-182.071	166.577	-0.252	-0.352
-181.056	320.388	0.238	-0.445
-180.042	100.971	-0.080	-0.092
-179.027	-200.000	-0.029	-0.179
-178.012	-140.618	-0.093	-0.010
-176.998	118.887	0.324	-0.393
-175.983	99.676	0.042	-0.047
-174.969	224.152	0.121	0.192
-173.954	82.123	0.209	0.223
-172.939	-19.113	0.128	0.078
-171.925	-17.453	0.312	-0.193
-170.910	53.586	-0.128	-0.120
-169.896	800.000	0.037	0.116
-168.881	59.047	-0.027	0.026
-167.866	359.461	-0.082	0.162
-166.852	-18.835	-0.092	0.056
-165.837	-119.241	-0.082	-0.014
-164.823	-72.730	-0.084	0.030
-163.808	-140.012	-0.342	-0.035
-162.793	-27.831	-0.278	0.158
-161.779	784.551	-0.041	0.112
-160.764	-151.750	0.264	0.019
-159.750	-200.000	-0.031	-0.141
-158.735	102.005	0.042	0.049
-157.720	50.439	0.336	-0.312
-156.706	-86.668	0.199	0.060
-155.691	168.331	-0.027	-0.038
-154.677	269.327	0.029	-0.049
-153.662	800.000	0.081	0.277
-152.647	800.000	0.067	0.194
-151.633	-55.509	-0.298	0.131
-150.618	800.000	0.047	0.170
-149.604	-97.221	-0.182	-0.047
-148.589	66.888	-0.088	-0.088
-147.574	-131.469	-0.073	0.009
-146.560	1.979	0.234	-0.166
-145.545	-127.512	0.307	0.044
-144.531	14.698	0.080	0.062
-143.516	-61.783	0.138	0.057
-142.502	-200.000	-0.004	-0.285
-141.487	-135.068	-0.255	-0.030
-140.472	-106.026	0.176	0.039
-139.458	800.000	0.046	-0.187
-138.443	-51.843	0.233	0.106
-137.429	-139.187	-0.234	-0.025
-136.414	-115.185	-0.093	0.017
-135.399	-200.000	-0.067	-0.310
-134.385	55.241	0.093	-0.088
-133.370	800.000	-0.041	0.151
-132.356	648.459	0.022	-0.055
-131.341	-200.000	-0.014	0.079
-130.326	765.558	0.056	0.149
-129.312	14.158	-0.303	0.231
-128.297	-88.891	0.334	0.097
-127.283	-200.000	0.012	-0.200
-126.268	-200.000	0.068	-0.301
-125.253	3.035	-0.106	-0.076
-124.239	-3.761	0.150	0.102
-123.224	-105.480	-0.164	-0.037
-122.210	-200.000	-0.007	0.038
-121.195	99.991	0.248	-0.282
