DTS Sentinel unit serial number:	SN413079Multiplexer serial number:	ORYXHardware model number:	OX4-SRSoftware version number:	ORYX F/W v4.00 Oryx Data Collector v3.7.2.0data status	okinstallation	princeton_trtdifferential loss correction	single-endedforward channel	channel 3reverse channel	N/Adate	2019/09/12time	19:12:04forward acquisition time	15.00reverse acquisition time	0.00gamma	496.2192k internal	0.2319k external	0.2319temperature offset calibration	1.0117default loss term (dB/km)	0.3790temperature slope calibration	1.0000multiplexer offset coefficient	1.0000multiplexer slope coefficient	1.0000fibre end	0.00T internal ref (°C)	32.56T ext. ref 1 (°C)	3.21T ext. ref 2 (°C)	27.15length (m)	temperature (°C)	Stokes	anti-Stokes-747.200	41.144	0.293	-0.268
-746.185	-134.707	0.284	-0.035
-745.171	-200.000	-0.138	-1.133
-744.156	306.701	0.142	-0.267
-743.142	800.000	-0.173	-0.490
-742.127	800.000	-0.128	0.527
-741.112	-200.000	0.041	0.375
-740.098	-65.325	0.562	-0.229
-739.083	165.256	-0.535	-0.764
-738.069	-200.000	0.028	-0.399
-737.054	-83.158	0.484	-0.158
-736.039	-59.418	0.416	-0.181
-735.025	114.069	-0.585	0.720
-734.010	338.716	0.057	0.113
-732.996	800.000	0.176	-0.554
-731.981	800.000	-0.215	0.717
-730.966	-53.990	-0.342	-0.157
-729.952	-140.534	-0.270	-0.028
-728.937	-117.012	0.292	0.054
-727.923	71.043	-0.564	0.591
-726.908	611.852	0.133	0.335
-725.894	359.706	0.543	-1.098
-724.879	800.000	-0.286	-0.884
-723.864	202.522	0.137	-0.214
-722.850	-158.114	-0.616	0.037
-721.835	603.815	-0.264	-0.665
-720.821	800.000	0.270	-0.907
-719.806	-68.861	0.882	-0.344
-718.791	-200.000	0.127	0.638
-717.777	155.445	-0.455	0.633
-716.762	-76.951	0.156	0.055
-715.748	239.024	0.376	0.632
-714.733	-15.861	-0.695	0.447
-713.718	95.566	-0.376	-0.433
-712.704	800.000	-0.025	-0.090
-711.689	-91.060	0.244	0.071
-710.675	-200.000	0.023	0.145
-709.660	-109.992	0.324	0.069
-708.645	-20.711	0.519	0.322
-707.631	-168.491	-0.742	0.029
-706.616	-104.534	0.631	-0.147
-705.602	74.255	-0.433	0.460
-704.587	102.377	0.258	-0.305
-703.572	-126.831	-0.196	0.029
-702.558	84.949	0.300	-0.332
-701.543	-159.380	0.721	-0.041
-700.529	800.000	0.222	0.912
-699.514	-122.218	0.392	0.065
-698.499	-88.377	-0.629	0.190
-697.485	-93.870	0.286	-0.080
-696.470	410.086	0.061	0.131
-695.456	-117.039	-0.776	-0.143
-694.441	-189.460	-0.493	0.006
-693.426	180.909	-0.115	0.171
-692.412	705.312	-0.273	0.726
-691.397	-75.754	-0.669	-0.240
-690.383	70.228	-0.415	-0.432
-689.368	-200.000	0.072	0.634
-688.354	31.966	0.036	0.031
-687.339	169.247	0.177	0.255
-686.324	-23.205	-0.481	-0.292
-685.310	184.412	-0.046	0.069
-684.295	177.627	0.276	-0.407
-683.281	800.000	0.196	-0.657
-682.266	360.445	-0.102	-0.205
-681.251	-105.424	0.654	0.150
-680.237	207.454	0.225	-0.354
-679.222	0.019	-0.220	-0.158
-678.208	489.705	0.237	-0.546
-677.193	-200.000	0.037	-0.207
-676.178	537.308	0.338	0.810
-675.164	-56.424	-0.456	-0.204
-674.149	755.798	-0.272	-0.742
-673.135	-163.128	-0.459	-0.022
-672.120	-15.698	-0.357	0.230
-671.105	23.209	-0.495	0.410
-670.091	-16.500	-0.963	-0.616
-669.076	-200.000	0.073	-0.543
-668.062	800.000	0.277	-0.840
-667.047	800.000	-0.135	-0.476
-666.032	508.518	-0.213	0.499
-665.018	71.096	-0.375	0.392
-664.003	-200.000	-0.139	0.837
-662.989	-12.653	0.475	0.312
-661.974	-200.000	0.100	-0.970
-660.959	25.620	0.429	-0.360
-659.945	800.000	0.124	0.504
-658.930	-73.749	-0.312	0.114
-657.916	-91.166	0.473	-0.137
-656.901	-200.000	-0.146	-0.651
-655.886	-156.556	0.220	-0.014
-654.872	286.252	-0.155	-0.282
-653.857	-63.716	0.578	-0.239
-652.843	-93.031	-1.219	-0.342
-651.828	139.429	-0.408	0.541
-650.814	-116.485	0.291	-0.054
-649.799	-56.099	0.399	-0.179
-648.784	-0.726	0.842	-0.602
-647.770	37.338	-0.414	0.369
-646.755	9.881	-0.162	0.124
-645.741	50.523	-0.205	-0.195
-644.726	-200.000	-0.076	0.346
-643.711	-115.896	-0.264	-0.050
-642.697	3.946	-0.372	-0.274
-641.682	154.677	-0.167	-0.232
-640.668	-200.000	-0.045	0.389
-639.653	13.685	0.577	-0.451
-638.638	800.000	-0.105	0.443
-637.624	-14.327	-0.343	0.222
-636.609	-200.000	-0.040	-0.748
-635.595	471.870	0.330	0.749
-634.580	132.057	-0.205	0.265
-633.565	-106.629	0.253	-0.057
-632.551	253.555	-0.140	-0.241
-631.536	-144.235	-0.669	0.063
-630.522	800.000	-0.109	-0.458
-629.507	-200.000	0.035	0.680
-628.492	163.439	0.126	0.178
-627.478	-200.000	-0.015	-0.534
-626.463	-200.000	0.025	0.665
-625.449	-6.616	-0.743	-0.509
-624.434	-8.805	-0.204	0.137
-623.419	115.738	0.044	-0.054
-622.405	85.507	0.513	-0.568
-621.390	267.750	0.608	1.072
-620.376	-71.501	-0.491	-0.185
-619.361	-29.335	0.624	-0.359
-618.346	88.682	0.197	-0.221
-617.332	229.661	-0.148	-0.244
-616.317	-200.000	-0.011	0.386
-615.303	-111.012	-0.455	0.094
-614.288	121.019	0.138	-0.173
-613.273	-92.732	-0.811	0.228
-612.259	63.993	0.196	-0.198
-611.244	-165.312	-0.437	-0.019
-610.230	-41.350	-0.758	0.393
-609.215	-49.869	0.684	0.327
-608.201	-153.563	-0.643	-0.045
-607.186	800.000	0.136	-0.422
-606.171	-200.000	0.167	0.750
-605.157	-200.000	0.018	0.126
-604.142	800.000	-0.144	0.430
-603.128	-200.000	-0.011	-0.539
-602.113	-200.000	-0.039	0.392
-601.098	130.894	-0.537	-0.694
-600.084	-200.000	0.065	-0.711
-599.069	153.550	-0.170	0.234
-598.055	83.049	0.227	0.248
-597.040	800.000	0.036	0.119
-596.025	-96.595	0.389	0.103
-595.011	-200.000	0.046	-0.236
-593.996	47.215	-0.416	0.390
-592.982	-28.183	0.848	-0.493
-591.967	-142.497	0.084	-0.008
-590.952	-25.514	0.213	-0.127
-589.938	-54.460	0.145	-0.066
-588.923	152.562	0.289	-0.397
-587.909	-123.592	0.541	-0.086
-586.894	800.000	-0.140	-0.609
-585.879	-97.440	-0.517	-0.135
-584.865	-33.283	-0.295	0.164
-583.850	533.598	0.246	0.586
-582.836	239.887	0.280	-0.469
-581.821	-182.053	-0.526	0.010
-580.806	19.637	0.455	0.368
-579.792	-200.000	-0.007	-0.162
-578.777	-157.166	-0.500	0.031
-577.763	-200.000	0.045	0.418
-576.748	160.334	0.383	0.536
-575.733	626.053	-0.151	0.384
-574.719	136.521	0.467	0.612
-573.704	800.000	-0.201	0.705
-572.690	-3.321	-0.477	-0.334
-571.675	55.290	-0.518	-0.504
-570.661	19.723	-0.038	0.031
-569.646	-200.000	0.016	0.558
-568.631	227.229	0.314	0.513
-567.617	-100.345	0.579	-0.144
-566.602	-166.044	-0.169	0.007
-565.588	-112.189	-0.599	-0.121
-564.573	800.000	-0.063	-0.277
-563.558	22.827	0.208	0.171
-562.544	349.345	-0.239	0.473
-561.529	22.393	0.155	0.127
-560.515	-192.318	-0.306	0.003
-559.500	-121.193	-1.053	-0.177
-558.485	-10.279	0.260	0.173
-557.471	-67.127	-0.208	0.082
-556.456	-69.574	-0.447	0.172
-555.442	315.336	0.404	-0.765
-554.427	-1.792	0.882	-0.623
-553.412	800.000	-0.213	-0.841
-552.398	-102.068	-0.389	0.094
-551.383	800.000	-0.196	0.642
-550.369	126.900	-0.345	0.439
-549.354	211.605	0.074	0.117
-548.339	-62.910	-0.365	0.152
-547.325	46.251	-1.016	0.946
-546.310	95.595	-0.479	-0.549
-545.296	654.097	0.346	-0.892
-544.281	-200.000	0.157	-0.787
-543.266	9.877	0.588	0.448
-542.252	706.940	0.287	-0.760
-541.237	-120.501	-0.422	-0.072
-540.223	136.188	0.068	-0.089
-539.208	-200.000	0.044	-1.116
-538.193	14.946	0.256	-0.201
-537.179	-20.150	-0.342	0.211
-536.164	-200.000	-0.067	-0.385
-535.150	77.549	0.302	0.322
-534.135	-200.000	-0.018	0.087
-533.121	-200.000	0.034	-0.859
-532.106	157.168	0.676	-0.938
-531.091	-84.106	0.816	-0.260
-530.077	544.599	0.069	-0.165
-529.062	-69.467	-0.573	-0.220
-528.048	5.807	-0.531	-0.394
-527.033	84.391	0.122	-0.134
-526.018	292.008	0.398	0.726
-525.004	-117.947	0.157	0.028
-523.989	155.826	-0.034	-0.047
-522.975	567.509	0.196	-0.478
-521.960	71.225	0.336	-0.349
-520.945	-167.510	0.599	0.024
-519.931	800.000	-0.157	0.592
-518.916	39.727	-0.228	-0.205
-517.902	-20.087	0.251	0.155
-516.887	-200.000	0.009	-0.081
-515.872	-47.122	-0.187	0.091
-514.858	-112.718	-0.705	0.140
-513.843	-150.931	-0.861	0.065
-512.829	-35.358	-0.199	0.109
-511.814	-200.000	0.014	-0.234
-510.799	800.000	0.098	0.272
-509.785	353.473	-0.428	-0.851
-508.770	14.289	0.524	0.410
-507.756	800.000	-0.093	-0.376
-506.741	-200.000	0.013	-0.136
-505.726	-133.631	-0.499	0.063
-504.712	800.000	0.028	-0.109
-503.697	-90.363	-0.558	0.162
-502.683	-200.000	-0.063	-0.382
-501.668	519.390	-0.180	0.423
-500.653	407.287	0.125	-0.265
-499.639	109.995	-0.304	-0.366
-498.624	-163.373	-1.114	-0.053
-497.610	197.585	0.372	0.569
-496.595	800.000	0.136	-0.460
-495.581	-200.000	0.021	0.138
-494.566	706.634	-0.249	0.659
-493.551	15.761	0.598	-0.471
-492.537	-38.277	0.223	0.118
-491.522	800.000	-0.136	0.471
-490.508	23.779	-0.796	-0.657
-489.493	-200.000	-0.050	-0.486
-488.478	-81.916	-0.277	-0.091
-487.464	143.640	0.464	-0.620
-486.449	93.756	-0.129	-0.146
-485.435	-6.868	-0.602	0.410
-484.420	40.414	0.279	0.251
-483.405	-71.248	0.961	0.361
-482.391	800.000	-0.389	1.366
-481.376	800.000	0.102	0.321
-480.362	-34.489	-0.708	-0.388
-479.347	-139.216	-1.117	-0.121
-478.332	794.498	0.265	-0.730
-477.318	-12.841	0.773	-0.504
-476.303	800.000	0.027	0.086
-475.289	524.982	0.137	-0.322
-474.274	123.547	0.571	-0.717
-473.259	43.319	-0.670	-0.613
-472.245	-21.419	-0.636	0.388
-471.230	-135.187	0.483	0.058
-470.216	-157.129	-0.306	0.019
-469.201	481.673	-0.190	0.433
-468.186	-176.177	-0.388	0.010
-467.172	312.857	0.492	0.925
-466.157	-200.000	-0.089	-1.423
-465.143	-6.490	-0.200	0.136
-464.128	-200.000	0.035	0.429
-463.113	-102.284	-1.032	-0.248
-462.099	-200.000	-0.038	-0.189
-461.084	121.635	0.274	-0.342
-460.070	280.052	0.163	-0.291
-459.055	92.712	-0.034	-0.039
-458.040	-131.306	-0.603	0.080
-457.026	800.000	-0.131	0.461
-456.011	-144.364	0.774	0.072
-454.997	-161.815	0.322	-0.016
-453.982	-105.797	0.526	0.119
-452.968	-200.000	0.091	1.032
-451.953	95.704	0.369	0.421
-450.938	197.385	-0.320	-0.488
-449.924	-12.324	0.010	0.007
-448.909	-200.000	-0.024	-0.225
-447.895	-3.207	0.868	-0.605
-446.880	-15.743	0.558	-0.356
-445.865	132.889	-0.468	-0.604
-444.851	800.000	0.210	0.632
-443.836	129.864	-0.546	-0.699
-442.822	36.697	0.073	-0.065
-441.807	-17.410	0.499	-0.314
-440.792	800.000	-0.061	0.203
-439.778	121.870	-0.580	0.723
-438.763	-97.203	-0.842	0.220
-437.749	-31.756	-0.926	-0.519
-436.734	-63.394	-0.278	0.114
-435.719	-51.680	-0.561	-0.261
-434.705	290.544	0.422	-0.766
-433.690	-85.046	0.389	-0.122
-432.676	-200.000	0.063	-1.079
-431.661	-200.000	0.080	-0.626
-430.646	-31.550	0.331	-0.186
-429.632	-155.233	0.240	0.016
-428.617	800.000	0.151	0.582
-427.603	266.663	0.306	-0.535
-426.588	-100.745	0.717	-0.177
-425.573	800.000	-0.166	0.540
-424.559	-23.885	0.454	0.271
-423.544	-87.706	-0.838	0.253
-422.530	282.279	-0.279	0.499
-421.515	51.919	-0.537	0.511
-420.500	28.577	0.719	-0.607
-419.486	30.659	0.328	-0.281
-418.471	242.032	-0.337	-0.563
-417.457	-146.621	-0.712	0.062
-416.442	135.989	0.149	0.194
-415.428	660.502	-0.062	0.158
-414.413	-200.000	-0.060	0.371
-413.398	-200.000	0.094	0.962
-412.384	-182.384	-0.585	0.011
-411.369	-200.000	-0.086	0.595
-410.355	800.000	-0.057	0.164
-409.340	171.398	-0.059	0.084
-408.325	56.375	0.579	-0.562
-407.311	20.026	0.432	-0.348
-406.296	206.153	-0.561	-0.872
-405.282	276.738	-0.480	0.852
-404.267	-200.000	-0.050	0.410
-403.252	128.875	0.590	0.752
-402.238	-73.746	0.590	0.214
-401.223	737.634	-0.120	0.321
-400.209	27.627	-0.388	0.326
-399.194	-123.632	-0.361	0.057
-398.179	-27.644	-0.829	-0.480
-397.165	703.191	-0.281	0.738
-396.150	-200.000	0.027	0.121
-395.136	723.645	-0.308	-0.819
-394.121	93.003	-0.226	0.255
-393.106	-136.112	0.357	-0.042
-392.092	-200.000	0.014	-0.195
-391.077	321.973	0.463	0.879
-390.063	17.200	0.355	0.281
-389.048	-142.755	1.326	-0.129
-388.033	-200.000	-0.150	1.043
-387.019	1.545	-0.431	0.310
-386.004	-157.428	0.126	0.008
-384.990	17.978	-0.431	-0.342
-383.975	10.417	0.306	0.232
-382.960	800.000	0.098	0.349
-381.946	-188.215	-0.835	0.011
-380.931	36.427	0.316	0.278
-379.917	261.307	-0.214	-0.370
-378.902	-200.000	-0.151	0.765
-377.888	234.680	-0.191	-0.314
-376.873	135.883	-0.385	0.500
-375.858	120.911	-0.085	0.106
-374.844	-200.000	0.132	0.658
-373.829	-200.000	-0.124	0.780
-372.815	-41.456	-0.414	0.212
-371.800	-200.000	0.060	0.472
-370.785	662.075	0.417	-1.072
-369.771	-144.084	-0.691	0.065
-368.756	-200.000	0.007	0.180
-367.742	15.694	-0.738	0.578
-366.727	-200.000	-0.040	0.799
-365.712	-6.260	-0.797	0.542
-364.698	83.551	0.402	-0.436
-363.683	-200.000	0.071	-0.504
-362.669	-5.031	0.457	-0.314
-361.654	-200.000	-0.029	1.183
-360.639	-200.000	0.004	0.382
-359.625	-196.953	-1.062	-0.007
-358.610	800.000	-0.102	0.365
-357.596	-84.284	0.146	-0.046
-356.581	-43.198	-0.603	-0.304
-355.566	-200.000	0.029	0.898
-354.552	358.808	0.157	-0.313
-353.537	297.558	0.192	-0.351
-352.523	-200.000	-0.034	0.307
-351.508	25.134	-0.276	0.228
-350.493	277.228	-0.379	-0.672
-349.479	-21.543	-0.374	-0.227
-348.464	800.000	0.162	0.701
-347.450	34.435	-0.461	0.401
-346.435	324.333	0.358	-0.680
-345.420	-125.001	-0.203	0.031
-344.406	-87.625	0.516	0.155
-343.391	-99.327	0.449	0.113
-342.377	8.679	0.159	-0.120
-341.362	191.918	0.746	-1.120
-340.348	513.326	-0.584	-1.355
-339.333	-164.297	-0.312	0.014
-338.318	-93.701	0.554	-0.152
-337.304	-200.000	-0.057	-0.457
-336.289	-200.000	0.034	0.330
-335.275	-97.610	0.225	-0.058
-334.260	18.378	-0.538	0.428
-333.245	-59.060	-0.337	0.145
-332.231	-200.000	-0.004	0.076
-331.216	112.982	-0.720	0.869
-330.202	-4.659	0.156	-0.107
-329.187	-34.937	-0.499	-0.271
-328.172	-40.626	0.423	-0.218
-327.158	-43.677	0.954	-0.479
-326.143	800.000	0.206	-0.632
-325.129	800.000	0.155	-0.585
-324.114	800.000	0.027	0.107
-323.099	226.090	0.324	0.523
-322.085	-200.000	-0.144	1.180
-321.070	800.000	0.076	0.253
-320.056	-61.001	-0.569	0.239
-319.041	-12.732	-0.443	-0.288
-318.026	647.555	-0.076	0.192
-317.012	128.507	-0.170	0.215
-315.997	-200.000	-0.002	0.184
-314.983	-25.292	0.498	-0.293
-313.968	-200.000	-0.056	-0.609
-312.953	-96.034	0.738	-0.195
-311.939	-41.959	-0.809	-0.412
-310.924	-89.941	0.744	-0.216
-309.910	375.634	-0.147	0.298
-308.895	-60.636	-0.257	0.108
-307.880	280.667	0.532	-0.947
-306.866	-32.033	0.429	-0.239
-305.851	13.037	0.448	-0.345
-304.837	-42.800	0.468	0.237
-303.822	-13.181	0.475	-0.307
-302.807	235.281	0.656	1.077
-301.793	165.060	-0.294	0.412
-300.778	-46.827	-0.264	0.128
-299.764	608.110	0.144	-0.358
-298.749	134.044	0.140	-0.180
-297.735	800.000	-0.177	0.578
-296.720	128.795	0.222	0.281
-295.705	-79.586	-0.380	0.128
-294.691	292.391	-0.071	-0.129
-293.676	-19.440	0.766	-0.472
-292.662	448.425	-0.229	-0.500
-291.647	135.442	0.615	-0.794
-290.632	-49.017	0.661	-0.314
-289.618	509.657	-0.327	-0.755
-288.603	308.092	0.188	-0.348
-287.589	-20.187	-0.369	-0.226
-286.574	-110.452	0.139	0.029
-285.559	-1.293	-0.150	-0.105
-284.545	34.156	0.522	-0.452
-283.530	89.276	-0.504	-0.558
-282.516	-200.000	-0.131	-0.768
-281.501	27.489	0.478	0.400
-280.486	-48.839	-0.235	-0.112
-279.472	-159.009	0.772	-0.043
-278.457	87.528	-0.380	-0.418
-277.443	-144.131	-0.607	0.056
-276.428	297.798	-0.223	0.407
-275.413	-200.000	-0.084	-0.643
-274.399	451.558	0.240	0.526
-273.384	-115.668	-0.185	-0.034
-272.370	-115.332	0.408	-0.077
-271.355	13.167	0.547	0.421
-270.340	-10.269	0.546	0.360
-269.326	85.304	0.184	0.200
-268.311	144.262	-0.163	0.216
-267.297	258.470	0.482	0.825
-266.282	-200.000	-0.079	0.376
-265.267	-12.010	0.975	-0.634
-264.253	105.165	-0.450	-0.527
-263.238	149.709	0.032	-0.043
-262.224	173.283	0.566	0.810
-261.209	-98.652	0.849	0.215
-260.195	17.292	-0.448	0.353
-259.180	-21.833	-0.332	0.200
-258.165	-121.629	-0.439	-0.072
-257.151	-98.754	1.077	-0.272
-256.136	-107.304	-0.611	0.133
-255.122	-22.255	-0.856	-0.515
-254.107	71.370	-0.123	0.127
-253.092	407.397	-0.284	-0.596
-252.078	254.190	0.494	0.839
-251.063	800.000	-0.190	0.580
-250.049	-200.000	0.022	0.464
-249.034	21.928	-0.353	0.285
-248.019	-48.681	-0.682	0.325
-247.005	-97.737	0.637	0.164
-245.990	-122.113	-0.232	-0.038
-244.976	84.847	-0.379	0.412
-243.961	-58.340	0.069	-0.030
-242.946	-200.000	-0.039	0.366
-241.932	149.466	0.282	-0.379
-240.917	-7.176	-0.157	-0.106
-239.903	2.054	-0.229	-0.164
-238.888	800.000	0.258	0.765
-237.873	-200.000	0.028	0.127
-236.859	800.000	-0.197	-0.581
-235.844	-63.190	0.588	-0.241
-234.830	-200.000	-0.066	-0.342
-233.815	800.000	0.180	0.510
-232.800	-4.478	0.464	0.318
-231.786	23.799	0.025	0.020
-230.771	-77.061	-0.126	-0.043
-229.757	288.496	-0.482	0.865
-228.742	-69.590	-0.210	-0.080
-227.727	422.455	0.253	0.539
-226.713	800.000	0.144	-0.537
-225.698	-200.000	-0.055	0.252
-224.684	-200.000	0.099	-0.453
-223.669	2.629	0.437	-0.314
-222.655	-128.347	1.390	0.196
-221.640	-86.371	-0.315	0.096
-220.625	-113.717	-0.351	-0.068
-219.611	-35.745	0.246	0.132
-218.596	-11.415	0.091	0.059
-217.582	-200.000	-0.029	0.222
-216.567	-101.962	0.363	-0.087
-215.552	115.728	0.162	-0.196
-214.538	171.996	0.165	0.235
-213.523	-200.000	-0.004	-0.344
-212.509	-167.244	-0.504	-0.020
-211.494	-200.000	-0.092	0.618
-210.479	-200.000	0.036	0.423
-209.465	-121.202	-0.346	0.057
-208.450	-41.252	0.558	0.285
-207.436	25.388	0.270	-0.222
-206.421	680.340	-0.366	0.945
-205.406	-200.000	-0.066	0.993
-204.392	800.000	-0.076	-0.288
-203.377	-105.909	0.385	-0.086
-202.363	-144.964	-0.496	0.045
-201.348	10.976	0.620	0.469
-200.333	-68.384	0.426	-0.164
-199.319	63.785	0.088	-0.088
-198.304	177.107	-0.428	0.617
-197.290	-172.052	0.507	-0.016
-196.275	118.990	-0.198	0.243
-195.260	-200.000	-0.147	-0.746
-194.246	162.319	-0.279	-0.388
-193.231	60.965	0.499	-0.490
-192.217	-200.000	-0.113	-0.901
-191.202	504.799	0.250	0.573
-190.187	-8.700	0.177	0.117
-189.173	22.189	-0.225	-0.182
-188.158	120.813	-0.390	-0.480
-187.144	436.851	0.173	-0.374
-186.129	-15.233	0.932	-0.590
-185.114	269.751	-0.319	-0.555
-184.100	-200.000	-0.010	0.282
-183.085	-200.000	-0.017	-1.188
-182.071	675.524	-0.217	-0.558
-181.056	-67.272	0.291	-0.113
-180.042	390.983	-0.300	0.616
-179.027	94.575	0.242	0.273
-178.012	-83.789	0.931	-0.294
-176.998	203.132	0.546	-0.836
-175.983	285.056	-0.047	0.084
-174.969	800.000	0.077	-0.249
-173.954	-19.353	-1.014	-0.622
-172.939	215.550	0.393	-0.617
-171.925	102.258	0.245	0.283
-170.910	-144.357	-0.672	0.062
-169.896	21.073	0.820	-0.658
-168.881	15.520	0.290	0.225
-167.866	-137.880	0.373	0.041
-166.852	-200.000	-0.118	0.636
-165.837	-200.000	0.082	-0.403
-164.823	-200.000	0.027	-0.174
-163.808	-200.000	-0.199	1.003
-162.793	-90.262	-0.804	-0.231
-161.779	-104.084	0.878	-0.202
-160.764	-83.387	0.636	0.202
-159.750	363.171	0.145	0.288
-158.735	-97.693	-0.552	0.141
-157.720	73.959	-0.284	-0.294
-156.706	-50.943	0.141	0.066
-155.691	-134.706	0.372	0.045
-154.677	-56.242	-0.096	-0.042
-153.662	274.162	0.579	1.013
-152.647	-9.792	0.538	-0.354
-151.633	-200.000	0.085	1.216
-150.618	479.527	-0.427	0.957
-149.604	-60.656	0.032	-0.013
-148.589	-75.421	-0.615	0.216
-147.574	-108.361	0.202	-0.043
-146.560	190.146	0.499	0.740
-145.545	-126.249	0.916	-0.135
-144.531	763.646	-0.282	-0.757
-143.516	800.000	0.324	0.957
-142.502	398.655	0.287	-0.593
-141.487	9.201	0.787	-0.587
-140.472	-4.924	0.709	-0.483
-139.458	-116.223	-0.420	0.077
-138.443	-200.000	-0.056	0.280
-137.429	-200.000	0.006	0.115
-136.414	-10.619	-0.117	-0.076
-135.399	-200.000	0.689	0.003
-134.385	-87.413	-0.413	-0.124
-133.370	-64.953	0.444	0.177
-132.356	-11.982	0.863	-0.559
-131.341	221.695	-0.109	0.174
-130.326	157.075	0.225	-0.307
-129.312	-200.000	0.465	0.001
-128.297	-200.000	0.084	0.369
-127.283	-104.285	-0.681	0.156
-126.268	-22.230	0.561	0.336
-125.253	188.309	-0.245	0.361
-124.239	665.862	-0.189	0.481
-123.224	1.461	0.544	0.387
-122.210	228.495	0.113	-0.181
-121.195	-4.106	-0.202	0.138
