DTS Sentinel unit serial number:	SN413079Multiplexer serial number:	ORYXHardware model number:	OX4-SRSoftware version number:	ORYX F/W v4.00 Oryx Data Collector v3.7.2.0data status	okinstallation	princeton_trtdifferential loss correction	single-endedforward channel	channel 3reverse channel	N/Adate	2019/09/13time	02:24:35forward acquisition time	60.00reverse acquisition time	0.00gamma	496.2192k internal	0.2334k external	0.2334temperature offset calibration	1.0137default loss term (dB/km)	0.3790temperature slope calibration	1.0000multiplexer offset coefficient	1.0000multiplexer slope coefficient	1.0000fibre end	0.00T internal ref (°C)	27.50T ext. ref 1 (°C)	3.97T ext. ref 2 (°C)	22.25length (m)	temperature (°C)	Stokes	anti-Stokes-747.200	-90.255	-0.249	-0.073
-746.185	-25.445	-0.165	-0.098
-745.171	-175.685	-0.163	-0.004
-744.156	215.468	-0.097	-0.154
-743.142	-200.000	-0.005	-0.542
-742.127	-24.347	-0.007	-0.004
-741.112	194.113	-0.180	0.274
-740.098	-160.427	-0.091	-0.005
-739.083	320.279	0.036	-0.070
-738.069	206.658	-0.164	-0.257
-737.054	-14.089	0.078	0.051
-736.039	441.270	-0.200	0.440
-735.025	8.431	0.359	-0.271
-734.010	102.837	-0.251	0.295
-732.996	87.244	-0.142	-0.158
-731.981	-157.890	0.143	-0.008
-730.966	-96.555	-0.248	-0.066
-729.952	-200.000	0.009	-0.202
-728.937	-156.486	-0.086	0.005
-727.923	-200.000	-0.004	-0.282
-726.908	-0.299	-0.164	-0.117
-725.894	-12.705	-0.206	-0.135
-724.879	-200.000	0.010	0.219
-723.864	-100.001	-0.243	0.061
-722.850	-72.948	0.217	0.080
-721.835	-86.605	-0.495	-0.152
-720.821	215.042	-0.094	0.150
-719.806	-66.675	0.368	-0.146
-718.791	497.370	-0.155	-0.357
-717.777	-173.557	0.306	-0.009
-716.762	800.000	-0.056	-0.177
-715.748	800.000	0.032	0.139
-714.733	180.781	0.155	-0.229
-713.718	-10.332	0.105	-0.070
-712.704	-101.498	0.220	0.054
-711.689	800.000	-0.008	-0.025
-710.675	-133.343	0.049	-0.006
-709.660	-200.000	-0.021	0.440
-708.645	-138.266	0.148	-0.016
-707.631	59.773	0.142	0.140
-706.616	35.198	-0.125	0.110
-705.602	-173.586	-0.097	0.003
-704.587	-200.000	0.043	-0.225
-703.572	-114.322	0.061	-0.012
-702.558	-155.900	-0.113	-0.007
-701.543	-131.593	0.134	-0.018
-700.529	-45.641	-0.127	0.063
-699.514	-200.000	0.050	0.278
-698.499	-168.959	0.137	-0.005
-697.485	397.848	-0.058	-0.121
-696.470	-90.056	-0.325	0.095
-695.456	-200.000	0.013	0.219
-694.441	158.092	0.035	0.049
-693.426	-10.760	-0.302	0.201
-692.412	-67.559	-0.173	-0.068
-691.397	-28.789	0.182	-0.105
-690.383	179.001	0.033	0.048
-689.368	101.549	0.047	0.055
-688.354	80.150	-0.211	-0.228
-687.339	429.134	0.049	0.106
-686.324	45.924	0.114	0.106
-685.310	-57.404	-0.080	-0.035
-684.295	-200.000	-0.024	-0.159
-683.281	-95.894	0.210	-0.056
-682.266	712.680	0.093	-0.248
-681.251	246.887	-0.133	-0.225
-680.237	210.592	0.097	0.153
-679.222	-200.000	-0.043	-0.427
-678.208	-40.804	0.279	-0.145
-677.193	13.684	0.076	0.059
-676.178	-200.000	-0.027	-0.236
-675.164	131.458	-0.036	-0.047
-674.149	800.000	-0.114	0.322
-673.135	102.116	0.028	0.033
-672.120	-54.780	-0.050	-0.023
-671.105	-200.000	-0.027	0.452
-670.091	800.000	-0.044	0.143
-669.076	154.268	-0.061	-0.084
-668.062	387.502	-0.102	0.211
-667.047	-88.595	0.240	-0.072
-666.032	-29.396	-0.170	0.097
-665.018	-95.766	-0.194	0.052
-664.003	-200.000	-0.001	-0.281
-662.989	800.000	0.096	-0.274
-661.974	1.452	-0.345	0.249
-660.959	-97.611	-0.463	0.120
-659.945	-22.391	-0.122	-0.074
-658.930	-42.705	0.144	-0.073
-657.916	205.111	-0.165	-0.257
-656.901	-44.058	0.139	0.070
-655.886	253.954	0.098	0.168
-654.872	-200.000	-0.028	-0.143
-653.857	-34.826	-0.250	-0.137
-652.843	-19.454	-0.015	0.010
-651.828	-200.000	0.014	-0.166
-650.814	112.515	-0.181	0.219
-649.799	800.000	-0.140	-0.446
-648.784	-146.007	-0.151	-0.013
-647.770	800.000	-0.097	0.289
-646.755	-146.394	0.097	-0.008
-645.741	635.081	-0.081	0.207
-644.726	-84.955	-0.110	-0.035
-643.711	-105.557	0.247	-0.056
-642.697	450.128	0.043	0.095
-641.682	-44.752	-0.314	-0.157
-640.668	660.583	-0.047	-0.121
-639.653	-55.450	0.199	-0.089
-638.638	288.325	-0.053	0.096
-637.624	-185.870	0.261	0.004
-636.609	101.698	-0.062	-0.072
-635.595	-79.268	-0.110	0.037
-634.580	-126.281	0.264	0.039
-633.565	-180.642	-0.146	0.003
-632.551	-156.152	-0.351	-0.022
-631.536	-9.575	-0.201	0.134
-630.522	800.000	-0.067	-0.258
-629.507	-131.153	0.107	-0.014
-628.492	-200.000	0.001	0.193
-627.478	-200.000	-0.023	-0.171
-626.463	-111.795	0.150	-0.030
-625.449	530.711	-0.099	-0.234
-624.434	-96.562	-0.060	-0.016
-623.419	13.294	0.212	0.164
-622.405	-200.000	-0.014	0.184
-621.390	-200.000	-0.008	0.047
-620.376	-200.000	0.003	-0.020
-619.361	483.673	0.088	0.200
-618.346	86.366	-0.227	0.250
-617.332	-62.500	0.250	0.104
-616.317	-77.911	0.369	0.127
-615.303	9.131	-0.121	-0.091
-614.288	-123.452	-0.269	0.043
-613.273	-200.000	0.035	0.179
-612.259	-46.083	0.114	-0.056
-611.244	-200.000	0.010	-0.068
-610.230	301.963	-0.037	0.069
-609.215	-12.326	0.254	0.166
-608.201	7.229	-0.093	0.069
-607.186	-2.025	-0.155	0.109
-606.171	-200.000	0.022	-0.177
-605.157	-100.953	0.152	-0.037
-604.142	9.925	-0.147	-0.112
-603.128	800.000	-0.056	-0.235
-602.113	800.000	0.061	0.173
-601.098	26.560	0.318	0.266
-600.084	-71.930	-0.487	-0.181
-599.069	-118.505	-0.030	-0.005
-598.055	106.009	-0.240	-0.284
-597.040	-15.604	0.111	-0.071
-596.025	-200.000	0.024	0.130
-595.011	-149.604	-0.169	-0.013
-593.996	110.066	0.215	0.258
-592.982	-200.000	0.028	0.206
-591.967	373.213	0.046	-0.094
-590.952	17.700	-0.062	0.049
-589.938	92.559	0.169	-0.190
-588.923	-155.992	0.101	0.006
-587.909	319.201	0.079	0.150
-586.894	-64.172	-0.222	-0.091
-585.879	58.972	-0.277	0.272
-584.865	-143.717	-0.120	-0.011
-583.850	-173.823	0.159	0.005
-582.836	-200.000	0.000	-0.025
-581.821	-106.838	0.431	0.095
-580.806	-17.122	-0.188	-0.119
-579.792	-67.280	0.278	0.109
-578.777	-81.494	0.138	-0.045
-577.763	-17.266	0.275	0.173
-576.748	-200.000	0.013	-0.171
-575.733	-200.000	-0.010	0.121
-574.719	-96.123	0.272	0.072
-573.704	249.443	0.036	0.062
-572.690	-76.821	0.301	-0.105
-571.675	-17.538	0.138	-0.087
-570.661	269.321	0.185	0.324
-569.646	-200.000	0.038	-0.295
-568.631	6.737	-0.225	-0.167
-567.617	-44.466	0.327	-0.163
-566.602	30.874	-0.058	-0.050
-565.588	211.270	-0.137	-0.216
-564.573	-185.697	0.219	0.003
-563.558	166.493	-0.180	0.255
-562.544	-200.000	0.038	0.186
-561.529	768.791	-0.172	0.466
-560.515	-78.077	0.091	0.031
-559.500	800.000	0.113	-0.407
-558.485	-200.000	-0.024	-0.199
-557.471	448.327	-0.125	-0.276
-556.456	238.756	0.194	-0.322
-555.442	800.000	0.085	0.237
-554.427	23.317	0.087	0.071
-553.412	65.663	-0.103	0.104
-552.398	364.364	-0.214	0.429
-551.383	-3.080	0.210	0.146
-550.369	-20.741	0.228	-0.140
-549.354	255.787	-0.077	0.132
-548.339	-133.190	-0.167	0.021
-547.325	-200.000	-0.010	0.104
-546.310	18.012	0.183	-0.145
-545.296	338.655	0.022	0.042
-544.281	-91.255	-0.166	-0.047
-543.266	51.258	0.075	0.071
-542.252	-184.419	-0.199	-0.003
-541.237	-200.000	0.018	0.199
-540.223	-80.685	0.334	0.111
-539.208	-46.488	-0.098	-0.048
-538.193	309.388	0.104	-0.194
-537.179	43.332	0.245	-0.223
-536.164	-200.000	0.003	-0.119
-535.150	99.844	0.277	0.320
-534.135	-65.985	-0.159	0.063
-533.121	475.715	-0.124	-0.279
-532.106	-109.629	-0.031	0.007
-531.091	254.891	-0.084	0.144
-530.077	-65.610	-0.316	-0.126
-529.062	130.579	0.161	-0.206
-528.048	-200.000	0.019	-0.102
-527.033	151.302	-0.116	-0.158
-526.018	-84.075	0.215	-0.068
-525.004	-200.000	-0.017	-0.163
-523.989	10.831	-0.103	-0.079
-522.975	-146.197	0.149	-0.013
-521.960	75.532	-0.200	-0.211
-520.945	800.000	-0.095	0.331
-519.931	131.335	-0.064	-0.082
-518.916	41.938	-0.010	-0.009
-517.902	22.567	0.232	0.189
-516.887	800.000	0.136	0.530
-515.872	230.406	-0.057	0.094
-514.858	46.689	0.286	-0.265
-513.843	-33.377	-0.218	-0.120
-512.829	-91.115	0.065	0.019
-511.814	260.481	-0.064	0.110
-510.799	-200.000	0.013	-0.188
-509.785	-18.187	0.311	-0.194
-508.770	-149.070	0.416	-0.033
-507.756	387.573	0.162	0.334
-506.741	154.065	-0.035	0.047
-505.726	400.271	0.119	0.248
-504.712	-74.520	-0.214	-0.077
-503.697	-165.197	0.535	-0.024
-502.683	23.779	0.084	-0.069
-501.668	-39.919	-0.342	0.178
-500.653	21.574	0.119	0.096
-499.639	582.123	0.103	-0.253
-498.624	17.912	0.071	-0.056
-497.610	-200.000	-0.028	0.364
-496.595	-74.008	-0.107	0.039
-495.581	84.706	0.114	0.125
-494.566	32.950	-0.329	0.284
-493.551	-136.588	-0.224	-0.026
-492.537	0.092	0.095	-0.068
-491.522	187.616	0.069	-0.102
-490.508	-6.164	-0.232	-0.158
-489.493	-200.000	-0.025	-0.168
-488.478	800.000	0.051	0.190
-487.464	259.316	0.135	0.232
-486.449	800.000	-0.093	0.318
-485.435	204.717	0.090	-0.138
-484.420	183.465	-0.237	-0.349
-483.405	-156.610	-0.317	-0.020
-482.391	800.000	-0.047	-0.142
-481.376	-75.245	-0.490	-0.174
-480.362	148.207	-0.164	-0.221
-479.347	108.647	-0.056	-0.067
-478.332	-200.000	-0.011	-0.226
-477.318	-64.979	-0.174	0.070
-476.303	-58.606	-0.146	0.063
-475.289	-109.161	-0.468	-0.099
-474.274	-200.000	0.001	-0.009
-473.259	800.000	-0.042	0.117
-472.245	-16.014	-0.269	-0.170
-471.230	57.214	0.107	0.104
-470.216	153.361	-0.227	0.309
-469.201	-72.343	0.188	-0.069
-468.186	-200.000	-0.007	0.221
-467.172	-200.000	-0.051	0.451
-466.157	800.000	-0.026	-0.084
-465.143	20.658	-0.271	0.218
-464.128	111.444	-0.124	0.149
-463.113	-45.639	0.251	0.123
-462.099	-45.062	0.263	0.130
-461.084	-106.378	0.472	0.105
-460.070	-5.656	0.121	0.082
-459.055	-93.365	-0.239	0.066
-458.040	-200.000	0.009	0.072
-457.026	16.451	0.029	-0.023
-456.011	94.509	0.029	0.033
-454.997	-200.000	-0.000	-0.291
-453.982	-92.350	-0.045	-0.013
-452.968	63.208	0.276	0.275
-451.953	19.833	0.247	0.198
-450.938	800.000	-0.030	-0.097
-449.924	727.047	0.114	0.301
-448.909	800.000	0.009	0.028
-447.895	308.999	0.011	0.020
-446.880	-200.000	-0.016	0.198
-445.865	743.520	-0.083	0.222
-444.851	-156.435	0.069	-0.004
-443.836	276.594	0.092	0.163
-442.822	-0.949	0.081	-0.057
-441.807	800.000	-0.033	-0.095
-440.792	-200.000	0.022	0.218
-439.778	-105.044	0.139	-0.032
-438.763	131.995	-0.087	-0.111
-437.749	-63.176	0.027	0.011
-436.734	-41.576	-0.147	0.075
-435.719	-10.251	0.220	0.145
-434.705	286.010	-0.127	-0.228
-433.690	-11.948	-0.118	0.077
-432.676	800.000	-0.048	-0.140
-431.661	163.376	-0.120	0.167
-430.646	121.292	0.202	-0.250
-429.632	-121.935	-0.282	0.046
-428.617	-87.740	0.098	0.029
-427.603	31.047	0.117	-0.100
-426.588	-200.000	0.017	-0.144
-425.573	-83.542	-0.147	-0.047
-424.559	298.436	-0.166	0.302
-423.544	-200.000	-0.007	-0.176
-422.530	-67.501	0.281	-0.109
-421.515	-120.438	-0.509	-0.086
-420.500	45.357	0.304	-0.279
-419.486	696.209	-0.108	0.280
-418.471	-170.570	0.150	-0.005
-417.457	-158.219	-0.361	-0.021
-416.442	63.693	-0.410	0.408
-415.428	551.378	-0.056	-0.133
-414.413	-200.000	-0.006	-0.038
-413.398	210.563	-0.101	-0.158
-412.384	666.849	-0.123	0.314
-411.369	6.316	0.370	0.273
-410.355	78.857	-0.217	-0.231
-409.340	-43.480	0.347	0.174
-408.325	-200.000	0.032	0.448
-407.311	63.105	0.162	0.161
-406.296	-43.086	-0.059	-0.030
-405.282	-35.931	-0.245	-0.131
-404.267	-200.000	-0.031	-0.189
-403.252	-128.398	-0.207	0.029
-402.238	45.775	-0.069	-0.063
-401.223	-67.953	0.079	0.031
-400.209	-62.184	0.257	-0.106
-399.194	-139.118	-0.115	0.012
-398.179	-200.000	-0.002	-0.088
-397.165	-91.178	0.230	0.065
-396.150	-77.859	0.278	-0.095
-395.136	-184.631	-0.369	0.006
-394.121	-35.419	-0.096	-0.052
-393.106	62.874	0.092	0.091
-392.092	-198.501	-0.074	-0.000
-391.077	-147.482	-0.354	0.030
-390.063	155.341	0.206	-0.282
-389.048	-133.074	0.182	-0.023
-388.033	70.869	-0.149	0.153
-387.019	108.021	-0.073	0.086
-386.004	-200.000	0.006	-0.252
-384.990	-200.000	0.010	-0.245
-383.975	174.138	0.088	0.126
-382.960	54.162	0.009	0.009
-381.946	-200.000	0.026	0.161
-380.931	-200.000	0.002	0.246
-379.917	88.463	-0.052	-0.057
-378.902	24.175	-0.139	-0.114
-377.888	-117.421	-0.362	-0.065
-376.873	-73.313	-0.227	0.082
-375.858	-10.951	-0.061	-0.040
-374.844	-11.955	0.137	-0.089
-373.829	-200.000	-0.020	-0.129
-372.815	-81.947	-0.301	0.097
-371.800	64.203	-0.060	0.060
-370.785	0.537	0.145	-0.102
-369.771	153.919	0.065	-0.089
-368.756	-112.705	0.162	0.032
-367.742	12.737	0.225	-0.172
-366.727	-24.945	-0.195	-0.115
-365.712	86.665	0.157	-0.171
-364.698	11.617	0.216	-0.164
-363.683	-124.509	-0.173	0.027
-362.669	-200.000	0.139	-0.001
-361.654	-110.188	0.283	-0.059
-360.639	-56.439	-0.272	-0.120
-359.625	-10.741	-0.113	0.074
-358.610	-67.598	0.257	0.100
-357.596	-125.164	0.091	-0.014
-356.581	-94.726	0.276	-0.074
-355.566	-74.260	0.229	0.082
-354.552	93.564	-0.108	0.121
-353.537	396.517	-0.060	-0.123
-352.523	85.904	-0.116	0.126
-351.508	-200.000	0.004	-0.148
-350.493	-200.000	0.004	0.085
-349.479	-27.311	-0.376	0.216
-348.464	36.472	-0.282	-0.246
-347.450	113.950	0.279	0.336
-346.435	-200.000	0.013	0.125
-345.420	716.621	-0.094	0.247
-344.406	-52.290	-0.227	0.104
-343.391	-160.602	-0.123	-0.006
-342.377	-200.000	0.036	-0.189
-341.362	-200.000	0.006	0.179
-340.348	310.617	0.126	-0.234
-339.333	-200.000	-0.025	0.108
-338.318	800.000	-0.037	0.121
-337.304	-95.947	-0.219	-0.058
-336.289	-200.000	-0.011	-0.108
-335.275	800.000	0.087	0.281
-334.260	47.451	-0.279	0.257
-333.245	-22.813	0.185	-0.110
-332.231	-145.598	0.266	0.024
-331.216	-109.591	0.198	-0.041
-330.202	-200.000	0.016	-0.252
-329.187	275.103	0.064	0.113
-328.172	-156.942	0.316	-0.019
-327.158	69.787	-0.095	-0.096
-326.143	-81.381	0.040	-0.013
-325.129	-200.000	-0.049	-0.242
-324.114	-200.000	-0.002	-0.085
-323.099	21.151	-0.271	0.217
-322.085	-148.237	0.105	0.009
-321.070	116.214	0.156	0.188
-320.056	-31.680	0.074	0.041
-319.041	256.981	0.152	0.259
-318.026	-112.424	-0.342	0.068
-317.012	222.817	0.107	0.170
-315.997	-140.525	0.236	-0.024
-314.983	-152.397	-0.369	-0.026
-313.968	-178.091	0.486	0.011
-312.953	-117.558	-0.279	0.050
-311.939	-124.808	0.284	0.043
-310.924	101.079	0.036	0.042
-309.910	-200.000	0.002	0.204
-308.895	204.708	-0.235	0.360
-307.880	22.513	-0.026	-0.021
-306.866	-144.919	-0.152	-0.014
-305.851	18.411	-0.142	0.112
-304.837	800.000	0.095	-0.402
-303.822	-184.660	-0.129	0.002
-302.807	-67.047	0.267	-0.104
-301.793	-200.000	0.019	0.124
-300.778	-80.747	-0.294	0.096
-299.764	-14.871	-0.241	-0.153
-298.749	80.425	0.059	0.063
-297.735	31.036	0.096	0.081
-296.720	263.464	-0.117	-0.201
-295.705	800.000	0.062	-0.245
-294.691	-116.879	-0.075	0.014
-293.676	-34.446	0.186	-0.101
-292.662	-200.000	-0.030	-0.423
-291.647	75.568	0.196	-0.204
-290.632	49.804	-0.309	0.288
-289.618	-200.000	0.011	-0.236
-288.603	-58.797	-0.424	-0.181
-287.589	8.778	0.141	0.105
-286.574	202.179	-0.101	-0.154
-285.559	39.808	0.199	-0.176
-284.545	81.508	0.231	0.247
-283.530	168.156	-0.081	-0.114
-282.516	800.000	-0.089	0.306
-281.501	-42.606	-0.284	0.143
-280.486	-200.000	-0.032	-0.172
-279.472	6.740	-0.061	-0.045
-278.457	-57.048	-0.176	-0.077
-277.443	552.397	-0.119	-0.283
-276.428	138.533	-0.144	-0.187
-275.413	193.316	0.173	0.258
-274.399	-166.450	-0.197	-0.008
-273.384	415.022	0.041	0.087
-272.370	118.281	0.158	-0.192
-271.355	91.238	0.081	-0.089
-270.340	800.000	0.100	-0.351
-269.326	255.693	-0.181	-0.306
-268.311	-155.940	0.166	0.010
-267.297	-200.000	-0.028	-0.125
-266.282	71.066	0.207	0.211
-265.267	-200.000	0.001	0.142
-264.253	84.047	-0.202	-0.217
-263.238	268.318	0.047	0.082
-262.224	-30.062	-0.184	0.103
-261.209	622.696	-0.021	-0.052
-260.195	-117.211	0.248	-0.044
-259.180	294.552	0.114	0.206
-258.165	-21.870	0.149	-0.089
-257.151	79.614	-0.205	-0.217
-256.136	305.695	0.139	-0.254
-255.122	-168.059	-0.074	-0.003
-254.107	-94.013	-0.130	-0.035
-253.092	-200.000	-0.007	-0.182
-252.078	1.528	-0.118	0.083
-251.063	-200.000	0.003	0.223
-250.049	800.000	-0.039	-0.114
-249.034	80.950	-0.310	0.329
-248.019	800.000	0.032	0.130
-247.005	-200.000	0.029	-0.224
-245.990	34.637	0.120	-0.103
-244.976	-28.555	0.043	0.024
-243.961	72.300	0.105	-0.108
-242.946	-89.454	-0.354	-0.103
-241.932	-51.771	-0.208	0.096
-240.917	-82.581	-0.375	-0.120
-239.903	-117.764	-0.192	-0.034
-238.888	-200.000	-0.001	0.390
-237.873	28.254	0.283	-0.235
-236.859	100.813	0.115	-0.131
-235.844	800.000	0.029	-0.092
-234.830	209.305	0.198	0.306
-233.815	-34.333	-0.180	-0.097
-232.800	0.506	0.136	-0.096
-231.786	-200.000	-0.099	0.437
-230.771	-92.270	0.066	0.018
-229.757	-25.307	-0.138	0.080
-228.742	-200.000	0.034	-0.379
-227.727	-15.932	0.166	0.104
-226.713	194.347	0.115	-0.171
-225.698	243.537	0.083	0.137
-224.684	-8.789	0.095	0.063
-223.669	94.146	0.049	-0.055
-222.655	-56.583	0.219	0.096
-221.640	2.050	0.387	0.275
-220.625	-129.851	-0.239	-0.032
-219.611	-82.411	0.153	-0.049
-218.596	218.947	-0.166	0.262
-217.582	359.575	0.095	-0.187
-216.567	118.128	-0.211	0.256
-215.552	800.000	0.176	0.567
-214.538	-117.292	0.107	0.019
-213.523	-98.085	-0.311	-0.079
-212.509	800.000	-0.053	-0.217
-211.494	-39.612	-0.335	-0.173
-210.479	800.000	-0.027	0.113
-209.465	-143.300	-0.193	-0.018
-208.450	-141.194	0.368	0.037
-207.436	-99.533	-0.338	-0.084
-206.421	-40.498	-0.356	-0.182
-205.406	14.812	0.122	-0.094
-204.392	59.347	0.217	-0.210
-203.377	123.238	0.237	-0.292
-202.363	-200.000	0.032	-0.232
-201.348	-68.419	0.121	-0.046
-200.333	133.472	0.177	-0.225
-199.319	3.263	-0.171	-0.122
-198.304	-50.907	-0.236	-0.109
-197.290	-200.000	-0.013	0.159
-196.275	97.763	-0.140	0.159
-195.260	-9.364	-0.068	0.044
-194.246	-49.929	0.289	-0.135
-193.231	-136.222	0.087	-0.010
-192.217	-200.000	-0.015	-0.072
-191.202	184.562	-0.108	0.158
-190.187	800.000	-0.105	-0.391
-189.173	247.671	-0.113	0.189
-188.158	-2.256	-0.067	-0.046
-187.144	13.805	0.266	0.203
-186.129	-97.895	-0.070	-0.018
-185.114	800.000	0.081	-0.306
-184.100	-75.921	0.076	0.027
-183.085	-176.008	-0.130	-0.003
-182.071	-200.000	0.054	0.240
-181.056	166.949	0.079	-0.110
-180.042	68.439	0.105	-0.105
-179.027	22.596	-0.188	0.151
-178.012	509.840	0.111	0.254
-176.998	38.175	-0.249	0.218
-175.983	94.411	-0.120	-0.135
-174.969	800.000	0.054	-0.230
-173.954	-155.712	0.248	-0.016
-172.939	34.853	-0.269	-0.231
-171.925	494.761	-0.091	-0.205
-170.910	-26.188	0.195	0.113
-169.896	141.876	0.220	-0.287
-168.881	-97.554	-0.049	-0.013
-167.866	-74.984	-0.127	0.045
-166.852	-118.783	0.500	-0.087
-165.837	-200.000	0.010	-0.193
-164.823	0.946	0.045	0.032
-163.808	-158.818	0.233	-0.013
-162.793	-0.238	0.134	-0.094
-161.779	-168.703	0.523	-0.019
-160.764	-132.712	0.146	-0.018
-159.750	173.940	-0.049	0.070
-158.735	-17.067	0.126	0.078
-157.720	87.421	-0.357	-0.388
-156.706	102.865	-0.123	-0.141
-155.691	800.000	0.020	-0.056
-154.677	-200.000	0.051	-0.231
-153.662	506.633	-0.093	-0.211
-152.647	164.273	0.130	0.180
-151.633	474.865	-0.100	0.221
-150.618	20.261	0.227	0.180
-149.604	-200.000	-0.064	0.444
-148.589	61.444	-0.136	-0.133
-147.574	-43.989	0.208	0.103
-146.560	-80.512	0.450	-0.147
-145.545	-19.512	-0.140	-0.085
-144.531	-137.028	-0.334	-0.037
-143.516	86.089	0.298	-0.322
-142.502	706.574	0.136	0.354
-141.487	220.930	0.062	-0.098
-140.472	-161.989	0.056	-0.003
-139.458	6.482	-0.276	-0.201
-138.443	266.482	0.118	-0.202
-137.429	349.566	0.128	-0.249
-136.414	-79.227	0.242	-0.080
-135.399	273.183	0.025	-0.043
-134.385	536.976	-0.079	0.184
-133.370	66.155	0.313	0.312
-132.356	-19.952	-0.096	-0.058
-131.341	-180.364	0.197	-0.004
-130.326	107.115	-0.074	-0.086
-129.312	0.775	-0.148	-0.104
-128.297	-180.597	0.112	0.002
-127.283	-109.745	-0.204	0.042
-126.268	-200.000	0.020	-0.173
-125.253	-38.797	-0.082	0.042
-124.239	-124.660	0.257	0.039
-123.224	-96.667	-0.113	-0.029
-122.210	369.212	-0.070	-0.139
