DTS Sentinel unit serial number:	SN413079Multiplexer serial number:	ORYXHardware model number:	OX4-SRSoftware version number:	ORYX F/W v4.00 Oryx Data Collector v3.7.2.0data status	okinstallation	princeton_trtdifferential loss correction	single-endedforward channel	channel 3reverse channel	N/Adate	2019/09/12time	19:45:04forward acquisition time	15.00reverse acquisition time	0.00gamma	496.2192k internal	0.2322k external	0.2322temperature offset calibration	1.0113default loss term (dB/km)	0.3790temperature slope calibration	1.0000multiplexer offset coefficient	1.0000multiplexer slope coefficient	1.0000fibre end	0.00T internal ref (°C)	32.00T ext. ref 1 (°C)	3.37T ext. ref 2 (°C)	26.63length (m)	temperature (°C)	Stokes	anti-Stokes-747.200	-56.712	-0.283	0.126
-746.185	262.453	0.244	0.428
-745.171	-79.739	1.029	0.350
-744.156	24.394	-0.194	-0.162
-743.142	-200.000	0.014	-0.923
-742.127	230.775	-0.201	-0.332
-741.112	-200.000	-0.095	0.531
-740.098	71.198	0.383	-0.401
-739.083	-200.000	0.035	0.306
-738.069	-200.000	-0.010	0.058
-737.054	126.016	0.100	0.128
-736.039	-200.000	0.008	0.126
-735.025	800.000	-0.087	0.346
-734.010	169.246	-0.233	0.336
-732.996	-105.984	0.150	-0.034
-731.981	-108.093	-0.220	-0.048
-730.966	-75.112	-0.311	0.112
-729.952	-200.000	0.083	0.458
-728.937	43.805	-0.196	0.181
-727.923	800.000	0.285	0.812
-726.908	-95.215	-0.383	-0.104
-725.894	-200.000	-0.030	0.526
-724.879	800.000	0.159	0.688
-723.864	-200.000	-0.109	0.753
-722.850	-200.000	-0.085	-0.588
-721.835	-200.000	-0.074	0.950
-720.821	13.225	0.687	-0.538
-719.806	117.096	-0.819	1.015
-718.791	349.592	-0.381	0.759
-717.777	-157.076	0.674	0.041
-716.762	3.584	0.852	0.627
-715.748	82.365	-0.017	0.018
-714.733	106.101	-0.194	-0.232
-713.718	477.380	-0.204	0.465
-712.704	-44.003	-1.056	0.536
-711.689	-98.033	-0.800	0.208
-710.675	-42.058	-0.308	0.159
-709.660	-140.853	-0.632	-0.066
-708.645	4.522	0.521	0.386
-707.631	92.753	0.362	-0.412
-706.616	800.000	-0.038	-0.123
-705.602	61.076	-0.212	-0.212
-704.587	-91.467	0.278	-0.080
-703.572	-57.663	-0.112	-0.049
-702.558	-173.141	0.146	-0.005
-701.543	187.051	-0.487	0.732
-700.529	43.534	-0.750	0.692
-699.514	3.275	0.131	-0.096
-698.499	800.000	0.103	0.449
-697.485	403.480	-0.095	-0.201
-696.470	-200.000	0.021	0.463
-695.456	-200.000	0.051	0.326
-694.441	-90.330	0.581	0.170
-693.426	-16.100	-0.427	-0.274
-692.412	5.201	-0.201	0.149
-691.397	127.487	0.236	0.303
-690.383	800.000	-0.064	-0.211
-689.368	-77.172	0.166	0.058
-688.354	67.492	0.805	-0.828
-687.339	-55.630	0.620	-0.280
-686.324	-88.849	-0.427	0.128
-685.310	-19.301	-0.777	0.486
-684.295	84.880	-0.313	-0.346
-683.281	165.324	0.186	-0.265
-682.266	-30.159	-1.247	0.715
-681.251	120.486	-0.512	0.640
-680.237	-62.329	0.691	0.290
-679.222	692.899	0.133	-0.353
-678.208	-8.312	-0.351	-0.238
-677.193	272.114	0.183	0.326
-676.178	-200.000	0.117	-0.527
-675.164	800.000	-0.119	-0.366
-674.149	197.803	0.194	-0.298
-673.135	800.000	-0.058	0.207
-672.120	800.000	0.056	-0.197
-671.105	-88.092	0.695	-0.210
-670.091	-70.526	-0.458	-0.175
-669.076	8.539	0.487	0.369
-668.062	-64.017	-0.768	-0.316
-667.047	81.964	0.294	0.321
-666.032	-200.000	0.045	0.250
-665.018	800.000	-0.109	0.425
-664.003	70.701	0.061	-0.063
-662.989	800.000	0.144	0.535
-661.974	-200.000	-0.078	0.556
-660.959	152.283	-0.310	-0.427
-659.945	-200.000	0.122	0.597
-658.930	-166.506	0.351	-0.015
-657.916	800.000	0.201	-0.760
-656.901	800.000	0.154	-0.585
-655.886	54.760	-0.672	0.653
-654.872	-200.000	-0.039	0.357
-653.857	-78.605	-0.335	0.115
-652.843	-180.282	-0.872	0.018
-651.828	-158.486	0.164	0.010
-650.814	384.245	0.219	-0.455
-649.799	-170.070	-0.944	-0.034
-648.784	-27.756	-0.115	0.067
-647.770	161.459	0.771	-1.086
-646.755	-200.000	-0.022	0.685
-645.741	236.700	0.361	0.602
-644.726	507.921	0.357	0.834
-643.711	800.000	0.050	0.175
-642.697	-129.848	-0.287	0.040
-641.682	-11.167	0.452	0.300
-640.668	3.959	-0.210	0.154
-639.653	110.502	-0.252	-0.305
-638.638	-145.780	1.064	0.095
-637.624	-100.730	-0.871	-0.216
-636.609	-200.000	-0.133	-0.593
-635.595	-50.136	-0.109	0.052
-634.580	-115.214	-0.214	-0.041
-633.565	24.286	-0.699	0.581
-632.551	800.000	0.059	-0.194
-631.536	-198.466	-0.981	0.006
-630.522	-54.906	-0.260	-0.118
-629.507	-200.000	-0.082	0.367
-628.492	26.604	-0.236	0.199
-627.478	-200.000	0.028	0.133
-626.463	-79.724	-0.876	0.297
-625.449	800.000	-0.033	0.094
-624.434	-200.000	0.096	-0.505
-623.419	-103.169	0.248	-0.059
-622.405	800.000	-0.185	-0.662
-621.390	77.143	0.115	-0.123
-620.376	-97.030	-0.826	-0.217
-619.361	800.000	-0.207	-0.859
-618.346	482.066	-0.160	0.366
-617.332	-88.720	-0.366	-0.109
-616.317	-68.354	0.646	0.252
-615.303	-42.486	-0.460	0.236
-614.288	-37.807	0.126	0.067
-613.273	-200.000	0.111	0.509
-612.259	-200.000	0.008	0.731
-611.244	800.000	0.169	-0.602
-610.230	157.741	-0.181	0.251
-609.215	-200.000	0.069	-0.454
-608.201	-100.810	0.661	0.164
-607.186	-200.000	0.036	-0.392
-606.171	-200.000	-0.010	0.674
-605.157	425.965	-0.447	0.969
-604.142	91.636	0.822	-0.929
-603.128	283.307	-0.067	-0.121
-602.113	657.161	0.407	-1.052
-601.098	161.758	-0.272	-0.383
-600.084	-200.000	-0.176	1.134
-599.069	-42.124	0.667	-0.343
-598.055	-200.000	-0.022	-0.115
-597.040	-48.511	-0.473	-0.229
-596.025	-120.993	-0.638	-0.108
-595.011	-134.361	0.351	0.043
-593.996	106.725	-0.254	-0.303
-592.982	-3.969	-0.427	-0.297
-591.967	800.000	-0.212	0.745
-590.952	133.416	-0.289	-0.375
-589.938	24.317	-0.240	-0.199
-588.923	-2.485	-0.250	0.176
-587.909	800.000	0.062	-0.177
-586.894	138.366	0.491	-0.646
-585.879	-200.000	-0.105	1.111
-584.865	6.358	0.595	-0.444
-583.850	214.967	0.119	0.189
-582.836	-49.087	0.593	-0.285
-581.821	-150.692	-0.726	-0.056
-580.806	-82.239	-0.651	0.213
-579.792	800.000	0.041	0.129
-578.777	-39.705	0.128	-0.067
-577.763	678.567	0.182	-0.476
-576.748	31.039	-0.291	0.250
-575.733	365.984	-0.158	-0.319
-574.719	-16.390	0.558	0.355
-573.704	800.000	0.245	0.760
-572.690	-6.245	0.271	0.186
-571.675	-5.337	0.555	-0.383
-570.661	523.408	0.064	-0.152
-569.646	-8.709	0.813	-0.547
-568.631	-200.000	-0.317	-0.001
-567.617	198.864	0.034	-0.052
-566.602	-200.000	0.013	-0.380
-565.588	76.271	-0.045	0.048
-564.573	61.423	0.573	0.572
-563.558	200.825	0.148	0.229
-562.544	-83.288	-1.419	-0.457
-561.529	-139.492	0.668	0.072
-560.515	-125.087	0.383	-0.059
-559.500	-30.874	0.366	-0.207
-558.485	-35.150	0.122	-0.067
-557.471	230.661	-0.210	-0.345
-556.456	117.497	-0.229	0.283
-555.442	217.368	0.361	-0.576
-554.427	19.545	0.176	0.142
-553.412	456.908	0.122	0.272
-552.398	106.926	0.447	0.532
-551.383	-153.981	-1.015	-0.069
-550.369	-55.808	0.409	-0.183
-549.354	-200.000	-0.146	-0.985
-548.339	18.166	-0.487	-0.389
-547.325	-75.687	-0.746	-0.265
-546.310	156.458	0.399	0.552
-545.296	321.122	0.387	-0.737
-544.281	23.273	-0.344	-0.283
-543.266	-170.520	-0.530	0.019
-542.252	-200.000	-0.030	-0.583
-541.237	42.951	-0.495	-0.452
-540.223	332.694	0.122	-0.237
-539.208	-102.514	-0.672	0.161
-538.193	-148.113	0.599	0.050
-537.179	-56.957	0.753	-0.333
-536.164	387.227	0.228	0.472
-535.150	-113.445	-0.405	0.080
-534.135	-200.000	-0.049	-0.450
-533.121	318.225	-0.140	0.266
-532.106	363.987	0.298	0.600
-531.091	-200.000	0.240	1.556
-530.077	-172.013	0.252	0.008
-529.062	-200.000	-0.025	0.212
-528.048	187.140	-0.084	-0.126
-527.033	20.043	0.453	0.366
-526.018	-30.271	0.637	0.362
-525.004	-111.252	-0.938	0.192
-523.989	-175.424	-0.608	0.017
-522.975	686.459	0.140	-0.366
-521.960	-24.080	0.410	0.245
-520.945	-110.281	-0.581	-0.121
-519.931	-200.000	0.042	0.404
-518.916	-58.527	0.365	0.159
-517.902	-200.000	0.083	-0.625
-516.887	344.747	-0.435	-0.854
-515.872	52.411	0.230	-0.220
-514.858	-18.320	-0.762	-0.477
-513.843	800.000	0.198	-0.635
-512.829	635.378	0.189	0.480
-511.814	265.722	-0.267	0.466
-510.799	-62.540	-0.364	0.152
-509.785	24.694	-0.635	0.526
-508.770	800.000	-0.202	0.609
-507.756	78.287	0.292	-0.312
-506.741	50.791	-0.263	-0.250
-505.726	-126.172	0.283	0.042
-504.712	166.661	0.291	0.413
-503.697	-126.294	0.759	0.113
-502.683	45.907	0.145	-0.134
-501.668	-200.000	-0.135	0.591
-500.653	586.766	-0.549	1.351
-499.639	115.039	-0.317	-0.387
-498.624	298.232	-0.409	-0.753
-497.610	-28.076	0.614	-0.355
-496.595	43.152	0.252	-0.230
-495.581	-186.615	0.523	0.007
-494.566	-200.000	-0.012	0.286
-493.551	147.998	0.252	-0.340
-492.537	-134.503	0.207	0.025
-491.522	-200.000	0.045	-0.250
-490.508	-185.096	0.183	-0.003
-489.493	-60.425	0.531	0.226
-488.478	800.000	0.038	0.163
-487.464	-73.567	0.277	0.101
-486.449	-200.000	-0.050	-0.951
-485.435	30.538	0.409	-0.350
-484.420	38.945	-0.130	0.117
-483.405	-48.893	-0.946	-0.454
-482.391	295.566	-0.120	-0.220
-481.376	-109.300	0.243	0.052
-480.362	-200.000	0.016	0.226
-479.347	800.000	-0.143	-0.519
-478.332	800.000	-0.192	-0.588
-477.318	76.883	0.272	-0.289
-476.303	65.488	-0.498	0.504
-475.289	167.164	0.095	0.135
-474.274	-164.031	-0.791	-0.037
-473.259	-200.000	-0.181	-0.925
-472.245	97.544	-0.284	0.326
-471.230	-71.927	0.076	-0.028
-470.216	800.000	0.105	-0.341
-469.201	62.112	-0.668	-0.666
-468.186	493.437	0.038	0.087
-467.172	-28.697	0.149	0.086
-466.157	117.531	-0.708	0.871
-465.143	-81.040	-0.529	-0.175
-464.128	-166.313	0.928	-0.039
-463.113	360.970	-0.244	-0.489
-462.099	162.694	-0.402	-0.564
-461.084	800.000	-0.250	0.812
-460.070	-26.499	-0.520	0.304
-459.055	15.994	0.448	-0.352
-458.040	-113.356	0.395	-0.077
-457.026	-39.801	-0.459	0.240
-456.011	-156.418	1.331	-0.083
-454.997	-53.934	0.405	-0.184
-453.982	-200.000	-0.260	1.308
-452.968	-200.000	0.518	0.002
-451.953	93.715	-0.927	-1.049
-450.938	-180.258	0.369	-0.008
-449.924	-200.000	0.048	0.375
-448.909	800.000	0.072	-0.293
-447.895	-101.259	-0.189	-0.046
-446.880	-70.352	0.492	0.186
-445.865	0.223	0.761	0.542
-444.851	93.105	-0.634	0.715
-443.836	-150.776	-1.150	-0.087
-442.822	-84.859	-0.876	-0.275
-441.807	20.031	0.547	0.441
-440.792	16.068	-0.678	-0.534
-439.778	-200.000	0.086	-0.633
-438.763	702.641	-0.131	-0.343
-437.749	45.782	-0.370	-0.341
-436.734	4.153	0.238	-0.174
-435.719	-45.400	0.351	0.174
-434.705	52.301	-0.251	0.239
-433.690	92.421	0.113	-0.128
-432.676	-59.835	0.216	-0.092
-431.661	189.382	0.542	-0.810
-430.646	-163.706	0.309	0.015
-429.632	-128.555	-0.415	0.059
-428.617	-200.000	0.129	0.647
-427.603	-103.068	0.798	0.189
-426.588	-49.723	-0.275	0.130
-425.573	800.000	0.073	-0.262
-424.559	800.000	-0.063	0.240
-423.544	-200.000	-0.014	0.282
-422.530	179.820	-0.226	-0.331
-421.515	89.477	1.255	-1.396
-420.500	93.408	0.318	-0.359
-419.486	95.578	-0.268	-0.305
-418.471	-80.439	0.561	-0.187
-417.457	-117.946	-0.149	-0.027
-416.442	-170.326	0.433	-0.015
-415.428	20.918	-0.391	0.316
-414.413	-27.147	0.342	0.199
-413.398	-200.000	-0.124	0.671
-412.384	389.327	-0.118	-0.245
-411.369	64.216	0.196	-0.197
-410.355	-42.745	0.570	-0.289
-409.340	-34.933	-0.091	0.050
-408.325	-118.760	0.849	0.149
-407.311	-117.938	0.442	0.079
-406.296	61.383	0.768	-0.761
-405.282	31.256	-0.371	-0.317
-404.267	800.000	0.296	0.909
-403.252	-200.000	0.059	0.371
-402.238	-143.234	-0.384	0.037
-401.223	373.776	0.246	-0.499
-400.209	239.391	0.471	-0.781
-399.194	428.404	0.212	0.456
-398.179	134.354	-0.190	0.246
-397.165	246.314	0.253	0.425
-396.150	-63.152	-1.003	-0.412
-395.136	39.725	-0.345	0.309
-394.121	26.237	0.486	-0.405
-393.106	-16.509	-0.169	-0.106
-392.092	290.623	0.540	-0.978
-391.077	-113.092	-0.586	0.115
-390.063	634.424	0.109	0.275
-389.048	179.668	0.398	-0.581
-388.033	-200.000	-0.029	0.598
-387.019	-1.355	0.144	0.101
-386.004	-200.000	-0.100	0.490
-384.990	-120.417	-0.743	0.126
-383.975	63.080	-0.590	0.589
-382.960	-43.139	0.755	-0.381
-381.946	-191.558	0.842	-0.008
-380.931	-34.238	0.377	-0.206
-379.917	212.774	-0.113	0.178
-378.902	92.110	-0.047	0.053
-377.888	-92.789	-0.490	-0.137
-376.873	139.477	-0.487	0.639
-375.858	123.568	-0.158	-0.198
-374.844	-125.532	0.924	-0.140
-373.829	-126.412	0.846	-0.125
-372.815	301.868	0.556	1.023
-371.800	-200.000	0.304	1.517
-370.785	-54.665	-0.547	-0.246
-369.771	-134.083	0.477	0.059
-368.756	-79.258	0.491	0.166
-367.742	-67.772	0.377	-0.147
-366.727	41.729	-0.228	0.206
-365.712	-200.000	-0.023	0.720
-364.698	531.701	0.239	-0.563
-363.683	575.037	0.248	0.603
-362.669	-101.004	1.173	0.287
-361.654	-0.113	0.285	-0.202
-360.639	-101.343	-0.625	-0.152
-359.625	-132.998	0.629	-0.080
-358.610	-200.000	0.029	0.958
-357.596	-29.604	-0.704	0.400
-356.581	-7.318	0.711	-0.479
-355.566	91.061	-0.451	-0.503
-354.552	208.536	0.181	0.281
-353.537	-40.565	-0.200	-0.103
-352.523	-200.000	0.025	0.220
-351.508	499.529	-0.063	0.144
-350.493	238.127	0.379	0.626
-349.479	-143.845	-0.439	-0.041
-348.464	354.753	0.206	-0.407
-347.450	800.000	0.087	0.322
-346.435	800.000	-0.096	0.341
-345.420	800.000	0.194	0.840
-344.406	55.489	0.471	-0.453
-343.391	401.458	0.334	-0.698
-342.377	447.355	0.228	0.499
-341.362	261.709	-0.236	-0.407
-340.348	-170.012	0.335	-0.012
-339.333	-200.000	-0.058	0.355
-338.318	31.114	-0.633	0.540
-337.304	133.925	0.318	0.409
-336.289	15.074	0.497	0.387
-335.275	-92.582	-0.535	-0.149
-334.260	-128.440	0.109	0.015
-333.245	56.371	-0.621	-0.600
-332.231	-185.106	0.403	0.006
-331.216	200.967	-0.086	-0.131
-330.202	657.209	-0.193	0.493
-329.187	-107.927	0.361	0.078
-328.172	-80.163	0.553	0.184
-327.158	52.147	-0.862	0.817
-326.143	-71.011	-0.762	0.285
-325.129	-200.000	-0.045	-0.697
-324.114	-200.000	-0.018	-0.552
-323.099	-157.672	0.882	-0.052
-322.085	-119.347	0.351	0.061
-321.070	-80.230	-0.454	0.151
-320.056	638.358	-0.386	-0.975
-319.041	-200.000	0.023	0.621
-318.026	-134.402	-0.282	-0.034
-317.012	294.675	-0.455	-0.826
-315.997	47.358	0.819	-0.758
-314.983	800.000	0.152	0.477
-313.968	177.424	-0.478	0.692
-312.953	-200.000	0.044	-0.622
-311.939	-135.515	1.004	0.119
-310.924	200.876	0.542	0.829
-309.910	-46.484	-0.544	-0.265
-308.895	-200.000	-0.011	0.051
-307.880	42.386	-0.231	0.209
-306.866	-171.709	-0.857	-0.028
-305.851	-200.000	-0.013	-0.253
-304.837	-136.265	-0.160	-0.019
-303.822	-24.501	-0.610	-0.361
-302.807	157.114	-0.221	-0.303
-301.793	112.679	0.327	0.394
-300.778	722.091	0.198	0.522
-299.764	-112.779	-0.961	-0.189
-298.749	516.614	0.165	-0.383
-297.735	-25.175	-0.489	-0.288
-296.720	-200.000	0.024	0.145
-295.705	-16.747	0.803	0.504
-294.691	87.190	-0.561	-0.615
-293.676	-12.823	-0.973	-0.629
-292.662	-24.439	-0.239	0.142
-291.647	-200.000	0.029	-0.417
-290.632	44.797	-0.163	0.149
-289.618	-200.000	0.048	0.213
-288.603	800.000	-0.168	0.584
-287.589	-68.661	-0.405	0.156
-286.574	-102.797	0.455	-0.107
-285.559	-12.036	0.306	-0.199
-284.545	409.831	-0.114	-0.240
-283.530	15.839	-0.645	-0.504
-282.516	800.000	0.147	0.539
-281.501	-200.000	-0.016	-0.284
-280.486	800.000	0.319	1.065
-279.472	-200.000	-0.063	0.278
-278.457	316.304	-0.312	0.584
-277.443	-65.512	-0.196	0.078
-276.428	67.382	-0.209	0.212
-275.413	96.619	0.512	0.581
-274.399	-5.633	-0.384	-0.261
-273.384	412.305	0.166	-0.349
-272.370	-200.000	-0.193	0.915
-271.355	236.538	0.335	0.550
-270.340	-59.939	0.723	-0.306
-269.326	800.000	0.288	-0.806
-268.311	104.483	0.345	-0.402
-267.297	800.000	-0.024	-0.074
-266.282	88.384	-0.295	-0.324
-265.267	-112.250	1.176	0.234
-264.253	65.610	-0.136	0.137
-263.238	-48.189	-0.411	-0.197
-262.224	16.842	-0.511	-0.401
-261.209	-12.767	0.837	0.541
-260.195	170.055	-0.164	0.232
-259.180	17.902	0.185	-0.146
-258.165	-179.102	0.263	-0.006
-257.151	17.080	0.941	0.739
-256.136	-200.000	-0.014	-0.838
-255.122	-67.815	-0.189	-0.073
-254.107	-100.245	-0.362	-0.089
-253.092	-200.000	-0.060	-0.907
-252.078	-10.241	-0.180	0.118
-251.063	-18.928	0.433	-0.267
-250.049	-200.000	0.012	0.150
-249.034	-67.780	0.121	-0.047
-248.019	800.000	-0.335	-1.371
-247.005	40.960	-0.390	-0.349
-245.990	800.000	0.096	-0.274
-244.976	11.341	0.672	-0.510
-243.961	-200.000	-0.031	-0.796
-242.946	-102.697	-0.614	-0.145
-241.932	-99.801	-0.317	0.079
-240.917	800.000	0.364	-1.306
-239.903	2.288	0.484	0.347
-238.888	348.547	-0.299	0.585
-237.873	487.244	0.234	0.529
-236.859	800.000	-0.160	-0.684
-235.844	-108.860	0.490	0.104
-234.830	62.044	-0.342	0.338
-233.815	-58.141	-0.684	0.295
-232.800	-200.000	0.101	-0.522
-231.786	129.621	-0.243	-0.308
-230.771	800.000	-0.227	0.624
-229.757	800.000	-0.019	0.064
-228.742	-40.504	1.012	-0.520
-227.727	22.365	-0.161	0.130
-226.713	-200.000	0.008	0.545
-225.698	-15.740	0.566	0.357
-224.684	-200.000	-0.022	0.805
-223.669	-200.000	0.141	-0.727
-222.655	16.114	0.612	-0.478
-221.640	-64.572	-0.352	-0.141
-220.625	-112.779	0.388	0.076
-219.611	-2.415	-0.458	0.318
-218.596	0.760	-0.282	0.200
-217.582	-26.237	0.675	0.392
-216.567	800.000	0.146	-0.478
-215.552	-44.153	-0.257	-0.128
-214.538	-138.683	0.634	0.069
-213.523	800.000	0.284	0.904
-212.509	-41.283	-0.352	0.180
-211.494	7.773	-0.524	-0.388
-210.479	41.613	-0.157	-0.140
-209.465	800.000	-0.201	-0.785
-208.450	-97.389	0.435	-0.112
-207.436	-31.494	0.474	-0.264
-206.421	134.486	0.283	0.363
-205.406	-200.000	0.011	1.023
-204.392	-123.523	-0.663	0.104
-203.377	-200.000	0.020	0.587
-202.363	-7.715	0.272	-0.182
-201.348	800.000	0.059	0.174
-200.333	-200.000	0.138	0.913
-199.319	-23.229	-0.447	0.266
-198.304	29.842	-0.187	-0.157
-197.290	-158.845	-0.559	0.032
-196.275	556.639	0.165	-0.392
-195.260	-112.013	0.366	0.073
-194.246	-146.733	-0.869	-0.074
-193.231	-200.000	0.077	0.743
-192.217	-200.000	-0.011	-0.698
-191.202	-100.206	-0.164	-0.040
-190.187	5.290	-0.482	0.351
-189.173	16.228	-0.353	-0.275
-188.158	-200.000	0.009	0.113
-187.144	-178.296	-0.286	-0.007
-186.129	-51.030	0.244	0.113
-185.114	-119.624	-0.501	0.086
-184.100	-86.954	0.572	0.172
-183.085	181.452	0.298	-0.433
-182.071	-69.101	-1.095	-0.417
-181.056	652.858	0.090	0.229
-180.042	-42.888	-0.346	-0.174
-179.027	-200.000	-0.033	-0.170
-178.012	167.690	-0.062	-0.086
-176.998	-166.729	0.456	0.019
-175.983	-116.402	-0.314	-0.057
-174.969	-66.808	-0.152	0.059
-173.954	-52.978	-0.461	-0.210
-172.939	96.314	0.518	0.585
-171.925	151.805	-0.056	0.076
-170.910	-68.002	0.253	-0.098
-169.896	-200.000	-0.037	0.339
-168.881	-200.000	0.102	-0.730
-167.866	-200.000	0.140	0.867
-166.852	118.740	-0.323	0.394
-165.837	-173.914	-0.446	-0.013
-164.823	-177.881	0.383	-0.009
-163.808	-42.085	0.089	0.045
-162.793	470.874	0.275	-0.610
-161.779	425.967	0.202	-0.429
-160.764	-55.143	-1.044	-0.464
-159.750	-62.456	0.410	0.168
-158.735	-30.601	-0.850	0.475
-157.720	-90.674	0.088	-0.025
-156.706	688.348	0.286	0.739
-155.691	158.271	-0.354	-0.484
-154.677	290.302	0.356	0.638
-153.662	-139.533	-0.691	-0.073
-152.647	136.574	-0.501	0.645
-151.633	60.134	-0.264	-0.258
-150.618	-200.000	-0.018	0.274
-149.604	623.965	-0.258	0.642
-148.589	-83.897	-0.330	0.104
-147.574	-200.000	-0.018	0.324
-146.560	-90.230	-0.217	0.062
-145.545	29.882	0.191	-0.161
-144.531	-91.963	0.822	0.230
-143.516	-47.895	0.882	0.422
-142.502	-102.846	-0.223	-0.052
-141.487	-63.318	0.251	-0.102
-140.472	282.252	0.489	-0.866
-139.458	-200.000	0.219	1.147
-138.443	-200.000	0.087	-0.601
-137.429	438.544	0.142	-0.306
-136.414	-164.486	-0.256	-0.012
-135.399	241.903	0.237	0.392
-134.385	-93.076	-0.459	0.126
-133.370	-124.614	-0.220	0.034
-132.356	145.469	0.381	0.503
-131.341	-200.000	0.120	0.559
-130.326	-43.054	0.777	-0.389
-129.312	151.726	0.462	0.621
-128.297	800.000	-0.063	0.188
-127.283	-95.143	-0.184	-0.049
-126.268	800.000	0.119	0.506
-125.253	-42.199	-0.286	0.144
-124.239	-122.651	0.331	0.053
-123.224	800.000	0.383	1.056
-122.210	-184.378	-0.976	-0.016
-121.195	241.504	0.268	0.442
