DTS Sentinel unit serial number:	SN413079Multiplexer serial number:	ORYXHardware model number:	OX4-SRSoftware version number:	ORYX F/W v4.00 Oryx Data Collector v3.7.2.0data status	okinstallation	princeton_trtdifferential loss correction	single-endedforward channel	channel 3reverse channel	N/Adate	2019/09/17time	07:36:35forward acquisition time	60.00reverse acquisition time	0.00gamma	496.2192k internal	0.2335k external	0.2335temperature offset calibration	0.9939default loss term (dB/km)	0.3790temperature slope calibration	1.0000multiplexer offset coefficient	1.0000multiplexer slope coefficient	1.0000fibre end	0.00T internal ref (°C)	27.19T ext. ref 1 (°C)	0.12T ext. ref 2 (°C)	21.85length (m)	temperature (°C)	Stokes	anti-Stokes-747.200	22.275	-0.218	-0.179
-746.185	-8.427	-0.064	-0.043
-745.171	-176.453	-0.097	0.003
-744.156	-200.000	0.037	0.217
-743.142	-200.000	-0.001	-0.095
-742.127	286.521	-0.224	0.406
-741.112	-182.729	0.057	-0.001
-740.098	-83.061	0.002	-0.001
-739.083	-30.181	0.136	0.077
-738.069	44.464	-0.205	0.189
-737.054	-200.000	-0.021	0.148
-736.039	-61.991	-0.407	-0.171
-735.025	-15.495	0.132	-0.085
-734.010	-69.286	0.085	0.033
-732.996	5.444	-0.234	-0.173
-731.981	-43.596	-0.306	-0.155
-730.966	-200.000	0.038	-0.306
-729.952	-73.805	-0.179	-0.065
-728.937	-85.578	0.193	-0.060
-727.923	263.926	0.154	-0.269
-726.908	-200.000	0.005	-0.075
-725.894	800.000	-0.050	0.213
-724.879	125.241	0.101	-0.128
-723.864	-78.117	-0.208	-0.072
-722.850	-108.186	0.434	-0.094
-721.835	119.806	-0.149	0.186
-720.821	154.016	-0.123	-0.170
-719.806	-51.664	0.361	0.169
-718.791	608.145	0.128	-0.321
-717.777	-200.000	0.004	-0.305
-716.762	163.245	-0.016	-0.022
-715.748	800.000	-0.136	-0.456
-714.733	-29.845	0.259	0.148
-713.718	66.201	-0.252	0.257
-712.704	-137.512	-0.031	-0.004
-711.689	30.023	0.172	-0.147
-710.675	-10.694	0.308	-0.204
-709.660	-33.264	-0.132	-0.074
-708.645	26.006	0.191	-0.160
-707.631	-200.000	0.031	0.180
-706.616	800.000	-0.105	-0.302
-705.602	-36.474	0.391	0.211
-704.587	-22.406	-0.213	0.129
-703.572	-33.066	-0.053	-0.029
-702.558	468.984	-0.129	-0.291
-701.543	-200.000	0.081	0.416
-700.529	-91.825	-0.174	-0.050
-699.514	-130.422	0.191	-0.026
-698.499	-200.000	-0.028	0.210
-697.485	-70.519	0.244	-0.093
-696.470	-55.362	-0.256	0.115
-695.456	122.378	-0.323	0.405
-694.441	-200.000	0.043	0.313
-693.426	-82.072	-0.218	0.071
-692.412	-200.000	0.004	0.066
-691.397	-65.675	0.256	-0.103
-690.383	136.229	-0.129	0.168
-689.368	-124.505	-0.025	0.004
-688.354	350.785	0.118	-0.235
-687.339	-91.019	-0.205	-0.059
-686.324	-80.038	0.297	-0.100
-685.310	-67.941	-0.522	-0.204
-684.295	88.836	-0.147	-0.164
-683.281	-200.000	-0.080	-0.458
-682.266	-200.000	-0.000	0.399
-681.251	-200.000	0.018	-0.252
-680.237	92.335	0.126	-0.142
-679.222	-200.000	-0.043	0.250
-678.208	-200.000	0.062	-0.462
-677.193	-200.000	0.054	-0.344
-676.178	-135.072	-0.394	0.048
-675.164	-111.365	0.355	-0.072
-674.149	191.922	0.064	-0.097
-673.135	-200.000	0.016	0.134
-672.120	79.853	0.023	-0.024
-671.105	800.000	0.089	-0.344
-670.091	14.721	-0.236	-0.185
-669.076	405.431	-0.106	0.224
-668.062	9.185	0.237	0.179
-667.047	-200.000	0.042	0.296
-666.032	800.000	0.117	0.388
-665.018	-200.000	-0.027	0.231
-664.003	-200.000	-0.022	0.114
-662.989	-94.797	0.162	-0.044
-661.974	-135.493	0.118	0.014
-660.959	-200.000	-0.020	0.093
-659.945	6.431	0.206	-0.153
-658.930	795.866	0.103	-0.284
-657.916	671.429	-0.062	0.161
-656.901	122.632	-0.244	-0.306
-655.886	326.227	0.163	-0.313
-654.872	150.470	-0.224	-0.304
-653.857	698.046	-0.014	0.037
-652.843	800.000	-0.096	-0.339
-651.828	280.849	0.081	0.146
-650.814	-151.412	-0.362	-0.027
-649.799	-200.000	0.041	0.269
-648.784	118.752	0.148	-0.183
-647.770	-64.967	-0.087	0.035
-646.755	393.219	-0.092	0.193
-645.741	800.000	-0.141	0.452
-644.726	-154.528	-0.179	-0.012
-643.711	800.000	0.010	-0.029
-642.697	152.899	0.071	0.097
-641.682	-142.103	-0.357	0.035
-640.668	39.786	0.087	-0.078
-639.653	226.983	-0.192	-0.312
-638.638	531.021	0.122	-0.289
-637.624	74.520	-0.181	0.191
-636.609	461.575	-0.138	0.307
-635.595	143.447	-0.086	0.114
-634.580	153.027	-0.254	-0.348
-633.565	11.614	-0.337	-0.258
-632.551	268.735	-0.138	-0.241
-631.536	-164.634	0.069	0.003
-630.522	-200.000	-0.009	-0.284
-629.507	800.000	-0.076	0.228
-628.492	-81.564	0.094	0.031
-627.478	-200.000	0.024	-0.210
-626.463	-23.567	0.164	-0.098
-625.449	-17.049	0.189	0.119
-624.434	-97.978	0.107	0.027
-623.419	109.550	0.177	0.212
-622.405	-200.000	0.019	0.115
-621.390	-52.741	0.388	-0.179
-620.376	-66.772	0.362	-0.143
-619.361	-83.438	-0.071	-0.023
-618.346	141.557	-0.252	-0.334
-617.332	-83.114	-0.278	0.090
-616.317	632.488	0.163	0.414
-615.303	800.000	-0.017	-0.048
-614.288	80.941	-0.242	0.261
-613.273	-200.000	0.004	-0.058
-612.259	-200.000	-0.023	0.263
-611.244	-200.000	-0.132	-0.605
-610.230	-200.000	0.026	0.208
-609.215	524.443	-0.101	0.237
-608.201	-20.552	0.055	-0.034
-607.186	-92.008	0.176	0.050
-606.171	77.196	-0.254	-0.270
-605.157	-135.769	-0.326	-0.039
-604.142	88.999	-0.188	0.209
-603.128	-200.000	0.049	0.272
-602.113	-91.725	-0.201	0.057
-601.098	368.959	0.178	-0.360
-600.084	-0.694	-0.092	-0.065
-599.069	-161.172	-0.196	-0.010
-598.055	466.654	0.104	-0.232
-597.040	-125.009	-0.393	-0.060
-596.025	-51.622	-0.104	-0.049
-595.011	164.614	-0.338	-0.477
-593.996	-99.626	0.027	0.007
-592.982	-107.072	-0.352	-0.078
-591.967	150.309	0.231	0.312
-590.952	-140.756	-0.328	0.034
-589.938	-3.384	0.045	-0.031
-588.923	-200.000	-0.015	-0.101
-587.909	-200.000	-0.002	0.010
-586.894	-66.769	0.417	0.165
-585.879	-19.311	0.189	0.117
-584.865	133.620	0.050	0.065
-583.850	21.299	0.247	0.200
-582.836	-31.282	0.537	-0.302
-581.821	-200.000	0.007	-0.111
-580.806	-40.295	0.238	0.124
-579.792	712.808	-0.055	-0.146
-578.777	-200.000	-0.006	-0.030
-577.763	168.450	-0.235	-0.335
-576.748	57.808	0.272	-0.266
-575.733	-200.000	0.027	-0.279
-574.719	-59.474	-0.133	-0.057
-573.704	137.058	0.106	0.138
-572.690	284.267	0.019	0.035
-571.675	-129.998	-0.247	0.034
-570.661	-200.000	0.020	0.105
-569.646	175.029	-0.309	0.446
-568.631	687.844	-0.147	0.383
-567.617	800.000	0.034	-0.099
-566.602	-80.092	0.203	-0.068
-565.588	197.947	-0.031	-0.047
-564.573	220.771	0.060	-0.095
-563.558	-17.041	-0.166	-0.105
-562.544	-47.211	0.327	0.159
-561.529	-200.000	0.037	-0.234
-560.515	-150.610	-0.352	-0.027
-559.500	800.000	-0.013	0.042
-558.485	-157.510	-0.218	-0.013
-557.471	-55.554	0.132	-0.059
-556.456	245.210	-0.189	-0.317
-555.442	-58.600	0.191	0.083
-554.427	-21.165	0.009	-0.005
-553.412	-103.280	0.179	-0.042
-552.398	146.858	-0.176	-0.235
-551.383	-42.538	0.353	0.179
-550.369	51.708	-0.059	0.056
-549.354	-200.000	-0.085	-0.490
-548.339	800.000	0.038	0.125
-547.325	-45.660	-0.279	0.138
-546.310	-16.359	-0.258	-0.163
-545.296	-10.103	-0.052	-0.034
-544.281	377.967	-0.146	-0.299
-543.266	-200.000	0.026	0.145
-542.252	67.081	-0.070	0.071
-541.237	-200.000	-0.036	0.566
-540.223	49.799	-0.053	0.050
-539.208	132.838	-0.279	0.359
-538.193	28.752	0.085	0.072
-537.179	-121.999	-0.269	-0.044
-536.164	-54.574	-0.170	-0.077
-535.150	133.312	-0.307	-0.396
-534.135	-10.950	0.183	0.121
-533.121	16.915	0.086	0.068
-532.106	100.497	0.201	0.233
-531.091	800.000	-0.066	0.264
-530.077	-74.242	-0.054	-0.019
-529.062	-3.899	0.282	0.195
-528.048	-63.099	-0.111	0.046
-527.033	800.000	0.070	0.266
-526.018	18.680	-0.191	0.152
-525.004	276.270	-0.123	-0.217
-523.989	-48.242	-0.120	0.058
-522.975	-200.000	0.025	0.142
-521.960	591.028	0.069	0.170
-520.945	-200.000	-0.024	-0.107
-519.931	783.957	0.108	-0.294
-518.916	-94.837	-0.107	0.029
-517.902	248.996	0.220	0.371
-516.887	-68.358	-0.203	0.078
-515.872	70.906	-0.111	-0.114
-514.858	-200.000	-0.046	-0.281
-513.843	-154.718	0.229	-0.015
-512.829	239.290	0.124	0.205
-511.814	-156.737	-0.253	-0.016
-510.799	119.618	0.130	0.161
-509.785	482.796	0.069	0.155
-508.770	-135.708	0.224	0.026
-507.756	-103.092	0.257	0.061
-506.741	-120.666	-0.074	0.012
-505.726	8.225	-0.182	0.136
-504.712	18.295	0.138	-0.110
-503.697	800.000	-0.058	0.174
-502.683	340.502	0.077	0.149
-501.668	800.000	-0.093	-0.323
-500.653	608.808	-0.031	-0.078
-499.639	800.000	0.022	0.061
-498.624	-200.000	-0.046	0.336
-497.610	-136.410	-0.285	0.033
-496.595	-200.000	-0.019	0.148
-495.581	-200.000	-0.074	-0.359
-494.566	69.092	-0.140	-0.143
-493.551	74.724	0.300	-0.314
-492.537	67.808	0.024	0.024
-491.522	136.031	-0.088	0.114
-490.508	800.000	-0.082	0.240
-489.493	-41.930	0.205	0.105
-488.478	43.166	0.381	-0.346
-487.464	-71.391	-0.289	-0.108
-486.449	-200.000	0.032	-0.201
-485.435	800.000	0.056	-0.172
-484.420	-200.000	-0.010	0.194
-483.405	-74.608	0.334	0.119
-482.391	-152.809	0.086	-0.006
-481.376	256.994	0.072	0.123
-480.362	-2.437	-0.480	0.334
-479.347	-200.000	-0.013	-0.095
-478.332	-200.000	-0.012	-0.091
-477.318	-25.750	-0.265	-0.156
-476.303	-45.892	0.143	-0.070
-475.289	84.605	-0.282	-0.307
-474.274	-167.562	0.227	-0.009
-473.259	118.082	0.223	0.273
-472.245	159.412	0.010	0.013
-471.230	-93.270	0.118	-0.032
-470.216	800.000	-0.106	-0.320
-469.201	-83.350	-0.121	0.039
-468.186	111.104	-0.210	0.251
-467.172	-107.819	0.301	-0.065
-466.157	-74.005	0.487	0.175
-465.143	11.195	-0.303	-0.230
-464.128	-59.626	0.172	-0.073
-463.113	-31.948	-0.060	0.033
-462.099	34.816	0.247	-0.214
-461.084	-94.500	0.069	-0.019
-460.070	-86.285	-0.183	0.056
-459.055	89.959	0.130	-0.145
-458.040	-123.278	0.204	0.032
-457.026	428.808	0.103	0.220
-456.011	-200.000	-0.014	-0.358
-454.997	-200.000	-0.021	-0.216
-453.982	-200.000	-0.007	0.076
-452.968	168.756	-0.042	-0.060
-451.953	-4.234	-0.210	-0.144
-450.938	-139.037	-0.105	0.011
-449.924	-43.793	-0.124	0.062
-448.909	-200.000	-0.055	0.307
-447.895	-200.000	-0.055	0.266
-446.880	395.132	-0.063	0.129
-445.865	-200.000	-0.004	-0.112
-444.851	422.592	0.090	0.192
-443.836	-190.836	-0.117	0.001
-442.822	-198.028	-0.278	0.002
-441.807	800.000	-0.006	0.019
-440.792	254.125	0.029	-0.050
-439.778	-28.740	-0.124	0.071
-438.763	-61.632	0.186	-0.077
-437.749	-52.786	-0.199	0.091
-436.734	-200.000	-0.039	-0.304
-435.719	-129.571	0.198	0.027
-434.705	-155.526	-0.148	-0.009
-433.690	35.232	0.226	-0.196
-432.676	800.000	-0.080	-0.264
-431.661	123.301	-0.132	-0.164
-430.646	-41.342	-0.036	0.018
-429.632	764.841	0.119	-0.322
-428.617	1.174	-0.132	-0.094
-427.603	8.989	0.218	0.163
-426.588	800.000	-0.063	-0.176
-425.573	-15.927	-0.334	-0.211
-424.559	-200.000	0.025	0.272
-423.544	-200.000	-0.045	0.211
-422.530	-5.342	0.254	-0.173
-421.515	-90.662	0.120	0.034
-420.500	9.339	0.120	0.090
-419.486	40.165	0.322	-0.287
-418.471	236.906	-0.172	-0.282
-417.457	-57.276	-0.263	-0.115
-416.442	67.204	-0.123	0.125
-415.428	-177.053	0.181	0.004
-414.413	-49.192	0.223	-0.106
-413.398	-99.131	0.365	-0.092
-412.384	212.635	-0.134	-0.209
-411.369	-35.177	-0.379	0.204
-410.355	280.318	-0.148	0.262
-409.340	559.171	0.084	-0.202
-408.325	-16.983	0.287	-0.180
-407.311	800.000	0.043	-0.165
-406.296	322.401	0.041	0.077
-405.282	-200.000	-0.004	-0.032
-404.267	296.857	0.098	0.178
-403.252	731.406	0.040	-0.106
-402.238	-200.000	0.236	0.001
-401.223	-22.444	0.016	-0.009
-400.209	41.614	-0.207	0.186
-399.194	10.719	-0.095	-0.072
-398.179	254.856	-0.025	0.042
-397.165	44.026	-0.279	0.253
-396.150	-36.851	-0.015	-0.008
-395.136	-14.633	0.264	-0.168
-394.121	-200.000	0.003	0.066
-393.106	252.580	0.053	-0.090
-392.092	-200.000	-0.055	0.274
-391.077	-126.807	0.004	-0.001
-390.063	-200.000	-0.036	-0.218
-389.048	341.187	0.125	-0.242
-388.033	-72.429	0.303	-0.111
-387.019	-135.389	0.164	-0.019
-386.004	-128.650	0.217	0.030
-384.990	-108.459	-0.224	-0.048
-383.975	-45.901	-0.243	0.119
-382.960	-200.000	-0.093	0.428
-381.946	-200.000	0.003	-0.293
-380.931	642.217	-0.039	0.097
-379.917	-32.638	-0.132	0.073
-378.902	-151.908	-0.140	0.010
-377.888	800.000	0.011	0.043
-376.873	-121.974	-0.189	-0.031
-375.858	-200.000	-0.027	0.218
-374.844	-123.184	-0.239	0.038
-373.829	23.463	-0.258	-0.210
-372.815	-200.000	-0.040	0.208
-371.800	-200.000	-0.031	-0.148
-370.785	64.969	-0.129	0.129
-369.771	102.362	0.107	-0.124
-368.756	-97.346	0.115	-0.030
-367.742	239.512	-0.088	0.146
-366.727	217.475	0.039	-0.062
-365.712	-133.165	0.120	-0.015
-364.698	-123.117	-0.201	-0.032
-363.683	-137.840	0.078	-0.009
-362.669	-200.000	-0.018	0.298
-361.654	-200.000	0.022	0.558
-360.639	-38.428	-0.183	0.096
-359.625	34.991	0.225	0.195
-358.610	28.162	-0.180	0.151
-357.596	239.626	0.142	0.235
-356.581	24.076	0.058	0.047
-355.566	-0.102	0.182	0.128
-354.552	800.000	-0.143	0.395
-353.537	256.959	0.174	0.296
-352.523	122.175	0.216	-0.267
-351.508	-71.576	-0.199	-0.074
-350.493	800.000	-0.063	-0.232
-349.479	743.801	-0.134	-0.356
-348.464	-200.000	0.018	-0.082
-347.450	663.618	-0.027	0.069
-346.435	235.135	0.110	0.180
-345.420	3.383	0.071	0.051
-344.406	-146.507	0.134	-0.012
-343.391	-176.401	0.231	0.006
-342.377	651.902	-0.037	-0.095
-341.362	-136.692	-0.577	0.066
-340.348	168.840	-0.166	0.234
-339.333	-101.599	-0.164	0.039
-338.318	250.018	0.118	0.198
-337.304	-19.348	0.224	-0.138
-336.289	148.641	0.051	0.068
-335.275	509.329	-0.129	-0.296
-334.260	98.414	-0.099	-0.113
-333.245	-173.894	0.056	0.002
-332.231	67.431	0.128	0.129
-331.216	215.397	0.252	0.395
-330.202	47.468	-0.212	0.195
-329.187	-200.000	0.017	-0.127
-328.172	-200.000	0.003	-0.292
-327.158	800.000	-0.076	-0.209
-326.143	87.251	-0.152	-0.166
-325.129	431.504	0.021	-0.046
-324.114	-200.000	0.003	0.044
-323.099	-20.959	-0.148	0.090
-322.085	-200.000	-0.005	-0.094
-321.070	800.000	0.140	0.390
-320.056	-60.602	0.076	-0.032
-319.041	135.311	0.164	0.211
-318.026	41.894	0.256	0.229
-317.012	374.304	0.120	-0.241
-315.997	-72.336	0.081	0.030
-314.983	-102.149	-0.011	-0.003
-313.968	8.827	0.269	-0.200
-312.953	131.482	0.249	-0.316
-311.939	-148.357	-0.116	0.009
-310.924	-30.712	0.064	-0.036
-309.910	6.447	-0.180	-0.132
-308.895	-56.296	-0.159	-0.070
-307.880	85.942	0.046	0.050
-306.866	783.988	-0.110	-0.299
-305.851	-23.549	-0.325	0.193
-304.837	-200.000	-0.037	0.275
-303.822	272.419	-0.097	-0.170
-302.807	8.580	-0.038	0.028
-301.793	200.934	-0.020	-0.031
-300.778	-60.613	-0.282	0.118
-299.764	-158.036	0.163	-0.009
-298.749	106.791	-0.245	-0.287
-297.735	0.151	-0.039	-0.027
-296.720	-200.000	-0.012	0.058
-295.705	283.663	0.071	-0.126
-294.691	29.418	-0.269	0.226
-293.676	800.000	0.039	0.124
-292.662	-96.460	0.377	-0.098
-291.647	-196.522	-0.362	0.002
-290.632	32.210	-0.045	-0.038
-289.618	53.449	-0.159	-0.151
-288.603	-39.586	-0.282	0.146
-287.589	-68.842	0.183	0.070
-286.574	-47.717	0.288	-0.138
-285.559	-200.000	-0.001	-0.070
-284.545	-144.734	0.404	0.037
-283.530	-200.000	-0.013	-0.144
-282.516	-154.176	-0.135	-0.009
-281.501	181.754	-0.091	-0.133
-280.486	800.000	0.124	0.361
-279.472	238.915	0.150	-0.246
-278.457	168.499	-0.095	0.133
-277.443	-84.067	0.135	0.042
-276.428	-153.534	-0.378	-0.026
-275.413	-18.347	0.155	0.095
-274.399	-3.596	-0.085	-0.058
-273.384	-135.359	0.044	-0.005
-272.370	800.000	0.050	0.160
-271.355	221.140	0.069	-0.110
-270.340	-15.070	0.168	-0.106
-269.326	779.761	-0.130	-0.351
-268.311	149.932	0.074	0.099
-267.297	254.574	0.049	-0.083
-266.282	800.000	0.049	0.149
-265.267	-151.118	-0.198	-0.015
-264.253	-200.000	0.004	0.228
-263.238	18.913	-0.059	-0.047
-262.224	129.985	0.144	0.182
-261.209	84.654	-0.080	0.086
-260.195	-45.297	0.266	-0.130
-259.180	88.569	0.159	-0.174
-258.165	-10.485	-0.232	-0.152
-257.151	-200.000	-0.017	-0.114
-256.136	544.586	-0.049	-0.116
-255.122	159.686	0.217	0.298
-254.107	-128.576	0.224	0.031
-253.092	23.313	0.134	0.109
-252.078	-73.838	-0.310	0.111
-251.063	800.000	0.049	0.147
-250.049	-56.581	0.231	0.101
-249.034	90.394	-0.054	-0.059
-248.019	105.359	0.119	0.139
-247.005	-71.954	0.128	-0.047
-245.990	128.103	0.023	-0.029
-244.976	-194.988	0.152	-0.001
-243.961	21.410	-0.251	-0.201
-242.946	-11.461	-0.207	0.134
-241.932	9.868	-0.087	0.065
-240.917	483.603	-0.068	0.153
-239.903	5.202	0.182	0.132
-238.888	-104.322	0.309	0.070
-237.873	-200.000	-0.005	0.322
-236.859	26.163	0.223	-0.184
-235.844	-48.114	0.230	-0.109
-234.830	-200.000	0.073	-0.406
-233.815	-40.588	0.066	-0.034
-232.800	-200.000	0.027	0.178
-231.786	-62.490	0.269	-0.110
-230.771	-108.564	0.297	-0.063
-229.757	-87.118	-0.067	-0.020
-228.742	83.010	-0.025	0.026
-227.727	321.432	-0.017	0.031
-226.713	30.408	0.066	0.055
-225.698	-125.864	0.432	-0.064
-224.684	-42.123	-0.257	-0.129
-223.669	800.000	0.103	-0.408
-222.655	-200.000	-0.001	-0.056
-221.640	-88.892	0.204	-0.060
-220.625	800.000	-0.019	0.054
-219.611	149.472	0.240	0.320
-218.596	652.149	-0.024	-0.061
-217.582	56.431	0.197	0.188
-216.567	-156.567	0.179	-0.011
-215.552	270.446	0.085	-0.147
-214.538	800.000	-0.026	-0.085
-213.523	15.419	-0.118	0.091
-212.509	217.382	0.085	0.134
-211.494	-200.000	-0.002	0.132
-210.479	381.914	-0.080	0.162
-209.465	407.675	0.116	-0.241
-208.450	-200.000	0.006	-0.120
-207.436	127.223	-0.078	0.097
-206.421	-200.000	-0.054	-0.284
-205.406	29.083	0.130	-0.109
-204.392	13.173	0.106	0.081
-203.377	-187.417	0.045	-0.001
-202.363	-200.000	-0.008	0.193
-201.348	-200.000	-0.017	0.232
-200.333	15.463	-0.130	0.101
-199.319	-133.331	0.344	-0.043
-198.304	32.218	-0.158	0.134
-197.290	651.493	-0.108	-0.271
-196.275	38.984	0.095	0.083
-195.260	124.207	0.156	0.192
-194.246	-200.000	0.032	0.281
-193.231	317.440	-0.035	-0.065
-192.217	339.716	0.132	0.253
-191.202	-43.014	-0.251	0.125
-190.187	-55.680	0.392	0.172
-189.173	800.000	-0.021	0.063
-188.158	556.583	0.121	-0.286
-187.144	800.000	-0.076	-0.237
-186.129	-143.596	0.070	0.007
-185.114	-67.446	-0.330	0.128
-184.100	-200.000	0.056	0.362
-183.085	-128.965	0.281	0.039
-182.071	-43.141	-0.209	-0.104
-181.056	110.419	-0.100	0.118
-180.042	236.631	0.134	-0.218
-179.027	-55.727	0.204	-0.089
-178.012	800.000	0.036	-0.108
-176.998	221.237	-0.129	0.203
-175.983	-96.263	-0.323	0.084
-174.969	279.700	-0.257	0.451
-173.954	487.432	-0.059	-0.132
-172.939	463.193	-0.065	-0.142
-171.925	69.338	-0.128	-0.129
-170.910	-109.545	0.197	0.041
-169.896	196.323	0.103	0.155
-168.881	-28.805	0.189	0.106
-167.866	146.691	-0.053	-0.071
-166.852	158.556	-0.014	0.019
-165.837	-162.309	-0.228	0.011
-164.823	-200.000	0.012	-0.389
-163.808	800.000	0.020	-0.081
-162.793	4.406	-0.190	-0.137
-161.779	9.842	-0.062	0.046
-160.764	103.226	0.259	-0.298
-159.750	206.121	0.029	-0.044
-158.735	19.312	0.231	-0.182
-157.720	38.240	0.228	0.199
-156.706	145.055	-0.087	-0.115
-155.691	-200.000	0.025	-0.203
-154.677	-87.116	-0.057	-0.017
-153.662	203.450	0.084	-0.127
-152.647	-130.282	-0.069	-0.009
-151.633	-146.420	-0.113	0.010
-150.618	22.286	-0.107	0.086
-149.604	-153.673	0.594	-0.040
-148.589	212.947	0.165	0.256
-147.574	-22.140	-0.305	-0.182
-146.560	39.377	-0.033	0.029
-145.545	142.279	0.041	-0.054
-144.531	-79.942	0.139	-0.046
-143.516	-80.177	-0.028	0.009
-142.502	388.020	-0.118	-0.240
-141.487	-200.000	0.019	0.108
-140.472	261.253	0.075	0.127
-139.458	-39.629	0.243	0.125
-138.443	-63.611	-0.010	0.004
-137.429	-172.397	0.144	0.004
-136.414	-113.286	0.059	0.011
-135.399	-172.114	-0.153	-0.005
-134.385	48.707	-0.138	-0.127
-133.370	22.265	-0.171	-0.137
-132.356	-32.452	0.219	0.120
-131.341	-84.708	-0.107	-0.033
-130.326	-200.000	0.018	-0.174
-129.312	186.457	0.159	0.232
-128.297	181.789	-0.087	-0.125
-127.283	-83.312	0.617	-0.194
-126.268	179.820	0.118	-0.170
-125.253	-77.748	0.289	0.098
-124.239	106.096	0.047	-0.054
-123.224	24.355	0.067	-0.054
-122.210	-125.673	0.407	0.061
-121.195	-200.000	0.041	-0.265
