DTS Sentinel unit serial number:	SN413079Multiplexer serial number:	ORYXHardware model number:	OX4-SRSoftware version number:	ORYX F/W v4.00 Oryx Data Collector v3.7.2.0data status	okinstallation	princeton_trtdifferential loss correction	single-endedforward channel	channel 3reverse channel	N/Adate	2019/09/15time	18:56:34forward acquisition time	60.00reverse acquisition time	0.00gamma	496.2192k internal	0.2290k external	0.2290temperature offset calibration	0.9934default loss term (dB/km)	0.3790temperature slope calibration	1.0000multiplexer offset coefficient	1.0000multiplexer slope coefficient	1.0000fibre end	0.00T internal ref (°C)	42.48T ext. ref 1 (°C)	6.98T ext. ref 2 (°C)	32.50length (m)	temperature (°C)	Stokes	anti-Stokes-747.200	-21.060	0.238	0.149
-746.185	-77.525	-0.350	-0.124
-745.171	207.995	-0.046	-0.074
-744.156	-200.000	-0.338	-0.000
-743.142	188.634	-0.114	0.175
-742.127	752.778	-0.114	0.314
-741.112	99.189	-0.160	0.189
-740.098	39.433	-0.212	0.195
-739.083	223.593	0.263	0.435
-738.069	-200.000	0.074	0.577
-737.054	95.702	-0.192	0.225
-736.039	68.098	-0.154	-0.161
-735.025	-18.431	0.400	-0.256
-734.010	-86.682	-0.276	-0.087
-732.996	800.000	0.064	-0.239
-731.981	-1.514	-0.311	-0.225
-730.966	186.458	-0.109	-0.166
-729.952	-69.339	-0.028	-0.011
-728.937	9.064	-0.324	-0.251
-727.923	-200.000	0.027	0.233
-726.908	-69.377	-0.061	-0.024
-725.894	754.729	-0.108	-0.299
-724.879	-27.488	-0.142	-0.085
-723.864	-200.000	-0.021	-0.141
-722.850	-65.864	-0.220	-0.090
-721.835	51.296	-0.042	-0.040
-720.821	29.244	0.300	-0.261
-719.806	-96.379	-0.453	-0.123
-718.791	68.749	-0.240	0.252
-717.777	-48.000	0.133	0.066
-716.762	158.933	-0.106	0.151
-715.748	43.148	-0.195	-0.182
-714.733	800.000	0.027	-0.100
-713.718	-34.183	-0.162	0.091
-712.704	800.000	0.073	-0.285
-711.689	-127.490	0.411	-0.061
-710.675	-200.000	0.046	-0.223
-709.660	223.374	-0.123	0.204
-708.645	-200.000	-0.016	-0.195
-707.631	778.311	0.082	-0.229
-706.616	-106.799	-0.212	0.048
-705.602	-43.263	0.155	0.080
-704.587	111.385	0.080	-0.098
-703.572	-118.465	-0.210	0.038
-702.558	220.951	-0.198	0.324
-701.543	-29.084	0.307	-0.180
-700.529	38.154	-0.125	0.113
-699.514	-200.000	0.019	0.475
-698.499	598.689	0.064	-0.163
-697.485	168.196	0.140	-0.203
-696.470	-62.901	-0.194	0.082
-695.456	-14.761	0.128	0.084
-694.441	-100.679	0.318	0.080
-693.426	-75.040	-0.103	-0.038
-692.412	-151.402	0.142	0.011
-691.397	-96.572	-0.161	-0.043
-690.383	-200.000	-0.289	0.001
-689.368	31.188	-0.134	-0.118
-688.354	-200.000	0.001	-0.308
-687.339	63.247	-0.261	-0.267
-686.324	260.720	-0.111	-0.195
-685.310	482.560	-0.086	-0.200
-684.295	64.134	-0.299	-0.307
-683.281	180.587	-0.060	-0.090
-682.266	-37.377	0.319	-0.174
-681.251	-179.553	-0.439	-0.010
-680.237	-179.266	-0.336	-0.008
-679.222	800.000	0.021	-0.062
-678.208	399.706	0.126	-0.271
-677.193	200.364	-0.143	-0.225
-676.178	-116.529	-0.042	0.008
-675.164	69.244	0.114	0.119
-674.149	181.691	0.081	-0.122
-673.135	-86.508	-0.067	-0.021
-672.120	-144.462	0.159	-0.015
-671.105	111.079	-0.039	0.047
-670.091	40.347	0.204	0.188
-669.076	-67.184	0.151	0.061
-668.062	239.293	-0.039	0.066
-667.047	-74.958	0.163	-0.060
-666.032	75.291	0.130	-0.140
-665.018	-200.000	0.008	-0.243
-664.003	800.000	-0.009	0.037
-662.989	-9.014	-0.155	-0.106
-661.974	372.028	0.106	-0.220
-660.959	41.174	-0.304	0.280
-659.945	-200.000	-0.037	0.290
-658.930	-137.102	-0.251	0.029
-657.916	-9.122	0.215	-0.147
-656.901	-59.461	-0.058	-0.025
-655.886	380.971	-0.093	0.195
-654.872	-200.000	-0.032	-0.168
-653.857	50.035	0.223	0.215
-652.843	-200.000	-0.093	-0.449
-651.828	59.331	-0.125	0.125
-650.814	18.465	-0.309	-0.252
-649.799	-133.831	-0.052	0.007
-648.784	-55.115	0.304	-0.140
-647.770	-162.260	0.237	-0.012
-646.755	32.541	-0.216	0.191
-645.741	-101.613	-0.259	0.064
-644.726	-7.712	-0.259	0.179
-643.711	17.484	-0.036	-0.029
-642.697	800.000	0.038	-0.136
-641.682	-8.815	0.108	-0.074
-640.668	44.562	-0.162	-0.152
-639.653	65.898	-0.281	-0.290
-638.638	57.269	-0.209	0.208
-637.624	194.026	0.039	0.060
-636.609	-121.543	0.371	0.063
-635.595	-156.045	-0.097	-0.006
-634.580	258.323	-0.043	-0.076
-633.565	90.538	-0.097	-0.111
-632.551	-14.588	0.219	0.143
-631.536	102.818	0.143	-0.170
-630.522	-200.000	-0.003	-0.211
-629.507	-68.863	0.106	-0.042
-628.492	-114.864	0.156	-0.030
-627.478	-90.869	0.088	0.026
-626.463	-39.507	-0.402	0.215
-625.449	5.014	0.110	-0.083
-624.434	-137.878	-0.169	-0.019
-623.419	304.959	0.079	-0.149
-622.405	800.000	-0.109	-0.368
-621.390	31.475	0.098	-0.086
-620.376	-30.737	0.200	0.115
-619.361	95.276	0.147	0.170
-618.346	173.655	0.151	-0.222
-617.332	21.183	-0.071	-0.059
-616.317	-200.000	-0.008	-0.222
-615.303	-92.784	0.144	-0.041
-614.288	87.418	0.137	0.154
-613.273	-112.026	-0.265	-0.054
-612.259	39.662	-0.164	0.150
-611.244	-25.775	-0.047	-0.028
-610.230	270.735	0.048	0.086
-609.215	278.917	-0.098	0.178
-608.201	-200.000	-0.035	-0.248
-607.186	129.483	0.085	0.111
-606.171	-78.876	-0.148	-0.051
-605.157	133.250	0.126	0.166
-604.142	229.991	0.135	-0.226
-603.128	725.844	-0.100	-0.273
-602.113	142.965	-0.080	-0.108
-601.098	-24.118	-0.188	-0.114
-600.084	-200.000	-0.021	-0.132
-599.069	800.000	0.070	-0.210
-598.055	369.654	-0.055	-0.113
-597.040	-104.871	-0.186	-0.044
-596.025	13.035	0.043	-0.034
-595.011	27.575	-0.294	-0.252
-593.996	-167.311	0.206	0.008
-592.982	-19.029	-0.082	-0.052
-591.967	751.135	-0.116	-0.320
-590.952	382.164	-0.175	-0.366
-589.938	135.043	0.236	-0.312
-588.923	-106.909	-0.106	0.024
-587.909	42.714	-0.222	-0.206
-586.894	800.000	-0.059	0.264
-585.879	-146.527	-0.235	-0.021
-584.865	150.074	0.097	-0.134
-583.850	435.926	-0.033	0.073
-582.836	-200.000	0.022	0.128
-581.821	366.258	-0.144	-0.295
-580.806	-200.000	0.030	-0.184
-579.792	-137.390	-0.062	-0.007
-578.777	-200.000	-0.040	0.256
-577.763	-123.222	0.147	0.024
-576.748	65.424	0.116	-0.120
-575.733	-200.000	-0.024	-0.344
-574.719	55.031	-0.091	0.089
-573.704	166.763	-0.126	0.182
-572.690	-131.917	0.304	-0.040
-571.675	-139.886	-0.300	0.032
-570.661	-143.129	0.156	-0.015
-569.646	-123.836	0.116	-0.019
-568.631	45.626	0.225	0.212
-567.617	-200.000	0.001	0.208
-566.602	-95.570	-0.223	-0.061
-565.588	15.715	-0.200	-0.160
-564.573	-181.168	0.078	0.002
-563.558	-24.134	0.139	0.085
-562.544	12.469	-0.142	0.111
-561.529	800.000	0.016	-0.064
-560.515	-14.717	-0.381	0.249
-559.500	-200.000	0.028	0.171
-558.485	77.959	-0.171	-0.185
-557.471	-125.126	0.066	-0.010
-556.456	-45.186	0.091	0.046
-555.442	-200.000	-0.011	-0.302
-554.427	-57.309	-0.122	0.054
-553.412	253.107	0.043	0.075
-552.398	-118.333	-0.506	0.091
-551.383	-11.720	0.258	0.172
-550.369	41.318	0.052	0.048
-549.354	195.905	-0.181	0.280
-548.339	705.405	0.176	-0.472
-547.325	-200.000	-0.016	-0.133
-546.310	98.110	-0.086	0.101
-545.296	745.745	0.056	0.153
-544.281	121.268	-0.179	-0.226
-543.266	62.684	-0.138	-0.140
-542.252	-50.968	0.063	-0.030
-541.237	-81.839	0.161	-0.053
-540.223	800.000	0.083	0.256
-539.208	-144.166	-0.134	0.013
-538.193	553.828	-0.049	-0.119
-537.179	-200.000	-0.022	-0.228
-536.164	-151.618	0.114	0.009
-535.150	-120.378	0.242	0.042
-534.135	-200.000	0.036	-0.240
-533.121	-7.770	0.292	-0.200
-532.106	216.802	0.075	0.121
-531.091	-153.539	-0.254	-0.018
-530.077	800.000	0.141	-0.451
-529.062	-200.000	-0.014	-0.109
-528.048	148.615	0.130	0.178
-527.033	25.595	-0.077	-0.065
-526.018	24.231	0.041	-0.034
-525.004	-200.000	0.011	-0.138
-523.989	-77.895	-0.098	0.034
-522.975	-70.706	0.196	0.075
-521.960	387.596	0.069	-0.145
-520.945	-200.000	-0.030	0.184
-519.931	-84.701	-0.182	-0.058
-518.916	80.176	-0.186	0.203
-517.902	-169.464	0.059	0.002
-516.887	-200.000	0.006	0.162
-515.872	12.359	0.147	0.115
-514.858	437.434	-0.058	0.129
-513.843	33.908	-0.283	-0.250
-512.829	-200.000	-0.005	-0.087
-511.814	800.000	0.095	0.307
-510.799	-200.000	-0.000	0.282
-509.785	150.868	0.069	0.096
-508.770	-76.928	-0.312	0.111
-507.756	-200.000	0.035	-0.343
-506.741	-119.311	0.218	-0.039
-505.726	171.551	-0.263	-0.384
-504.712	-67.469	-0.137	0.054
-503.697	39.814	0.147	0.134
-502.683	226.070	0.148	0.244
-501.668	189.295	0.192	-0.291
-500.653	800.000	-0.090	-0.268
-499.639	168.029	-0.137	0.198
-498.624	186.933	-0.119	-0.179
-497.610	800.000	0.051	-0.187
-496.595	5.423	0.121	0.091
-495.581	50.265	0.141	-0.135
-494.566	-200.000	0.044	-0.461
-493.551	-35.182	0.286	-0.158
-492.537	-94.066	0.132	-0.037
-491.522	-109.130	0.135	-0.029
-490.508	-145.704	-0.330	-0.030
-489.493	-129.673	0.548	-0.077
-488.478	-81.197	0.068	-0.023
-487.464	11.452	-0.117	-0.091
-486.449	47.849	0.154	0.146
-485.435	-43.977	-0.482	0.246
-484.420	-60.437	-0.162	0.070
-483.405	-97.469	0.069	-0.018
-482.391	344.789	0.062	0.123
-481.376	-36.225	0.206	-0.113
-480.362	160.424	0.063	-0.089
-479.347	-58.072	0.201	0.089
-478.332	800.000	-0.052	0.158
-477.318	478.403	0.039	-0.091
-476.303	299.309	-0.145	-0.270
-475.289	161.847	0.019	0.027
-474.274	-20.262	-0.217	0.136
-473.259	472.564	-0.030	0.069
-472.245	262.468	0.047	0.083
-471.230	-52.398	-0.242	0.113
-470.216	-62.428	0.237	0.100
-469.201	800.000	0.088	-0.293
-468.186	-96.645	-0.080	0.021
-467.172	233.667	-0.134	0.223
-466.157	-200.000	0.019	-0.313
-465.143	305.848	-0.093	0.175
-464.128	243.002	0.144	0.244
-463.113	-200.000	-0.007	0.243
-462.099	-39.934	0.368	0.195
-461.084	-12.909	0.163	0.108
-460.070	-200.000	0.008	0.104
-459.055	-98.623	-0.086	0.022
-458.040	-163.373	0.403	-0.019
-457.026	800.000	0.052	0.197
-456.011	-102.646	0.086	0.021
-454.997	-183.017	-0.179	0.003
-453.982	160.876	0.163	-0.231
-452.968	115.574	0.251	-0.311
-451.953	70.267	0.196	0.205
-450.938	800.000	-0.059	-0.251
-449.924	102.875	0.176	-0.208
-448.909	94.754	-0.077	-0.089
-447.895	270.020	-0.087	0.155
-446.880	-107.181	-0.133	-0.030
-445.865	-28.790	-0.237	0.138
-444.851	213.146	0.182	0.291
-443.836	-41.617	0.087	0.045
-442.822	-99.627	-0.351	-0.089
-441.807	800.000	-0.076	-0.232
-440.792	800.000	-0.036	0.108
-439.778	751.446	0.095	0.259
-438.763	-126.595	0.204	0.031
-437.749	-200.000	-0.007	0.292
-436.734	-200.000	-0.017	0.214
-435.719	800.000	-0.050	0.181
-434.705	-200.000	-0.015	0.083
-433.690	800.000	0.081	-0.248
-432.676	-200.000	-0.024	-0.179
-431.661	21.307	0.118	0.097
-430.646	-200.000	0.083	0.518
-429.632	242.110	0.034	0.058
-428.617	-133.455	-0.290	0.037
-427.603	110.937	0.092	0.112
-426.588	-77.405	0.080	0.028
-425.573	362.485	-0.135	-0.275
-424.559	220.565	-0.222	-0.361
-423.544	-50.062	-0.129	-0.062
-422.530	-91.275	-0.363	-0.105
-421.515	800.000	-0.059	0.166
-420.500	-27.425	-0.129	0.076
-419.486	-57.274	0.097	-0.043
-418.471	142.780	-0.171	-0.230
-417.457	-200.000	-0.061	-0.293
-416.442	-25.386	-0.165	0.099
-415.428	800.000	-0.121	0.473
-414.413	291.541	-0.038	-0.070
-413.398	113.022	0.128	-0.157
-412.384	84.047	0.160	0.177
-411.369	-7.662	-0.087	0.060
-410.355	-188.734	0.099	-0.001
-409.340	-35.010	-0.036	0.020
-408.325	800.000	0.058	0.163
-407.311	-4.104	-0.245	0.172
-406.296	-200.000	0.010	0.108
-405.282	-84.032	-0.247	0.079
-404.267	76.247	-0.090	0.096
-403.252	121.664	-0.340	0.428
-402.238	205.918	-0.245	-0.386
-401.223	-200.000	-0.062	-0.368
-400.209	800.000	-0.038	-0.131
-399.194	299.424	0.066	0.124
-398.179	-48.629	-0.347	0.168
-397.165	59.498	0.074	-0.074
-396.150	-200.000	0.029	0.344
-395.136	-144.622	-0.052	0.005
-394.121	-61.926	0.157	-0.067
-393.106	3.976	-0.042	-0.031
-392.092	-108.936	-0.175	-0.038
-391.077	-110.315	-0.246	0.052
-390.063	-200.000	-0.004	0.273
-389.048	-200.000	0.022	-0.243
-388.033	-145.754	0.243	-0.022
-387.019	-1.906	0.195	-0.138
-386.004	-92.995	-0.176	0.050
-384.990	41.736	0.400	-0.366
-383.975	-34.080	0.164	0.091
-382.960	-82.481	0.242	-0.079
-381.946	42.351	0.022	0.020
-380.931	-200.000	0.019	-0.118
-379.917	146.928	-0.320	0.434
-378.902	135.171	-0.113	0.148
-377.888	191.089	-0.065	0.099
-376.873	-200.000	0.030	-0.248
-375.858	24.069	-0.111	0.092
-374.844	-35.895	0.145	0.079
-373.829	-101.931	-0.165	0.040
-372.815	-200.000	0.015	0.277
-371.800	185.803	-0.172	0.259
-370.785	-98.866	-0.109	-0.028
-369.771	753.349	0.173	-0.472
-368.756	451.115	-0.104	-0.232
-367.742	481.379	-0.039	-0.089
-366.727	-93.325	0.296	0.083
-365.712	800.000	0.044	0.146
-364.698	-191.055	-0.112	0.001
-363.683	32.132	-0.069	0.060
-362.669	175.091	-0.014	0.021
-361.654	283.959	-0.226	-0.411
-360.639	-78.216	0.223	0.077
-359.625	-200.000	-0.008	0.124
-358.610	-112.507	-0.180	-0.036
-357.596	-200.000	0.019	0.348
-356.581	181.570	0.130	0.193
-355.566	-102.742	-0.228	0.055
-354.552	75.392	0.066	0.071
-353.537	10.841	0.227	0.175
-352.523	800.000	-0.084	0.254
-351.508	-103.849	0.271	-0.064
-350.493	-130.004	-0.069	0.009
-349.479	800.000	-0.047	-0.158
-348.464	-20.735	0.208	0.129
-347.450	318.404	-0.070	0.134
-346.435	182.284	0.224	-0.333
-345.420	464.493	-0.028	0.062
-344.406	-109.293	-0.059	0.013
-343.391	800.000	0.006	-0.023
-342.377	27.922	0.192	0.163
-341.362	-44.711	-0.165	-0.083
-340.348	70.908	0.170	0.178
-339.333	-39.872	0.469	-0.247
-338.318	791.865	0.051	-0.141
-337.304	-61.613	-0.323	0.137
-336.289	-82.769	0.103	0.034
-335.275	-50.470	0.197	0.094
-334.260	742.794	-0.037	-0.101
-333.245	-70.852	0.102	-0.039
-332.231	-47.138	-0.064	0.031
-331.216	-24.136	0.069	0.041
-330.202	-172.190	0.142	0.005
-329.187	800.000	-0.049	-0.191
-328.172	107.287	0.111	0.134
-327.158	-164.024	0.224	0.010
-326.143	-44.963	0.288	-0.144
-325.129	185.008	-0.069	-0.103
-324.114	50.477	-0.180	0.172
-323.099	-19.533	0.116	0.072
-322.085	36.488	0.114	0.101
-321.070	660.313	-0.059	-0.153
-320.056	380.959	-0.068	0.140
-319.041	37.185	0.405	0.361
-318.026	1.803	0.062	-0.045
-317.012	524.176	-0.060	0.142
-315.997	-39.889	-0.091	0.048
-314.983	-200.000	-0.030	0.138
-313.968	176.052	0.153	-0.224
-312.953	-87.169	-0.119	0.036
-311.939	800.000	0.053	0.227
-310.924	73.066	-0.052	0.055
-309.910	321.832	-0.096	-0.184
-308.895	255.169	0.069	0.119
-307.880	-44.462	0.168	0.085
-306.866	33.369	0.176	0.154
-305.851	-6.254	0.214	0.147
-304.837	63.973	0.076	-0.077
-303.822	227.136	-0.147	0.241
-302.807	49.283	0.122	-0.115
-301.793	-57.033	-0.122	0.054
-300.778	508.840	-0.121	0.283
-299.764	-200.000	-0.052	-0.355
-298.749	800.000	-0.036	-0.135
-297.735	504.320	0.094	-0.218
-296.720	40.434	0.209	0.190
-295.705	317.010	0.068	-0.130
-294.691	60.991	0.160	0.160
-293.676	512.075	-0.050	-0.117
-292.662	3.027	0.101	0.074
-291.647	561.078	0.101	0.247
-290.632	251.844	-0.165	-0.282
-289.618	-165.036	0.249	-0.011
-288.603	800.000	0.053	-0.165
-287.589	207.742	-0.301	0.473
-286.574	-155.002	-0.406	0.027
-285.559	170.963	-0.177	-0.256
-284.545	-200.000	0.005	-0.410
-283.530	-200.000	0.026	-0.169
-282.516	127.746	0.053	-0.068
-281.501	213.750	-0.074	-0.118
-280.486	800.000	0.090	-0.290
-279.472	-125.604	-0.320	0.049
-278.457	-129.948	0.218	-0.030
-277.443	-200.000	0.035	0.223
-276.428	-200.000	-0.005	-0.285
-275.413	-111.834	-0.315	0.064
-274.399	214.443	-0.206	0.329
-273.384	-46.490	-0.297	-0.147
-272.370	-87.316	0.170	-0.052
-271.355	-56.341	0.191	-0.085
-270.340	-114.792	0.130	0.025
-269.326	-200.000	0.010	0.314
-268.311	800.000	0.029	0.089
-267.297	-105.171	0.264	-0.061
-266.282	154.358	0.150	0.207
-265.267	-200.000	-0.006	-0.216
-264.253	800.000	0.026	-0.085
-263.238	73.576	0.253	-0.266
-262.224	682.433	0.073	-0.192
-261.209	-65.735	-0.151	-0.061
-260.195	800.000	0.078	0.221
-259.180	77.056	0.313	-0.334
-258.165	142.176	0.157	-0.210
-257.151	800.000	0.119	-0.466
-256.136	124.298	0.081	-0.103
-255.122	-1.304	0.076	0.054
-254.107	80.525	-0.029	-0.031
-253.092	-140.878	0.162	0.017
-252.078	28.943	0.098	0.084
-251.063	23.681	-0.224	0.185
-250.049	800.000	-0.069	0.276
-249.034	-113.737	0.392	0.077
-248.019	800.000	-0.117	-0.341
-247.005	240.030	-0.148	0.248
-245.990	48.248	0.178	0.168
-244.976	-200.000	-0.017	-0.078
-243.961	-136.292	-0.321	-0.038
-242.946	227.887	-0.014	-0.023
-241.932	-200.000	-0.012	-0.165
-240.917	132.695	0.017	-0.022
-239.903	-200.000	-0.027	0.149
-238.888	-200.000	-0.010	0.069
-237.873	-2.712	0.184	-0.129
-236.859	47.965	0.383	-0.359
-235.844	527.286	-0.066	-0.156
-234.830	-200.000	0.028	0.317
-233.815	-96.484	-0.156	-0.041
-232.800	-77.830	0.148	-0.051
-231.786	-99.233	-0.193	-0.049
-230.771	-120.617	0.151	-0.026
-229.757	8.796	0.249	0.189
-228.742	-120.423	-0.381	-0.065
-227.727	259.230	-0.088	0.153
-226.713	169.547	-0.109	-0.156
-225.698	704.213	0.098	-0.259
-224.684	-90.460	0.177	-0.051
-223.669	21.915	0.096	0.078
-222.655	123.451	0.312	0.392
-221.640	-21.117	0.082	0.051
-220.625	-163.455	-0.304	0.015
-219.611	-22.228	-0.052	-0.032
-218.596	766.475	-0.093	0.255
-217.582	22.662	-0.207	0.170
-216.567	513.885	-0.146	0.342
-215.552	206.388	-0.163	-0.254
-214.538	-200.000	-0.000	0.026
-213.523	-33.147	-0.092	-0.051
-212.509	-37.175	-0.339	-0.182
-211.494	447.596	-0.073	-0.161
-210.479	-63.689	0.263	-0.108
-209.465	33.810	0.149	-0.130
-208.450	800.000	0.140	0.440
-207.436	11.059	-0.199	0.152
-206.421	800.000	-0.055	0.221
-205.406	-19.106	-0.160	-0.100
-204.392	-200.000	-0.005	0.089
-203.377	41.799	-0.129	-0.117
-202.363	-85.599	0.121	-0.038
-201.348	-48.051	0.021	-0.010
-200.333	-114.488	-0.262	0.050
-199.319	266.588	-0.155	0.272
-198.304	-89.681	-0.239	-0.070
-197.290	76.214	-0.085	-0.090
-196.275	800.000	0.093	-0.328
-195.260	3.507	0.191	0.140
-194.246	-58.127	-0.076	0.033
-193.231	178.009	-0.086	-0.126
-192.217	-144.653	-0.256	-0.024
-191.202	-200.000	-0.044	0.210
-190.187	-145.627	-0.111	-0.010
-189.173	-28.870	-0.308	0.178
-188.158	-50.034	-0.253	-0.120
-187.144	65.200	-0.007	0.007
-186.129	370.964	-0.181	0.369
-185.114	-111.698	-0.145	-0.029
-184.100	263.721	-0.119	-0.207
-183.085	-149.265	0.175	-0.014
-182.071	-93.100	0.195	0.054
-181.056	800.000	0.060	0.238
-180.042	-56.240	-0.408	0.182
-179.027	800.000	-0.025	-0.106
-178.012	-96.926	-0.019	0.005
-176.998	800.000	0.055	0.184
-175.983	260.155	-0.106	0.184
-174.969	101.693	0.121	-0.142
-173.954	43.105	0.254	0.232
-172.939	-16.951	0.215	0.136
-171.925	457.295	-0.115	-0.255
-170.910	800.000	-0.119	0.471
-169.896	-25.984	-0.261	-0.154
-168.881	-152.718	0.203	0.014
-167.866	-40.538	-0.340	0.177
-166.852	-161.477	0.399	0.021
-165.837	800.000	-0.021	-0.071
-164.823	-200.000	0.039	0.451
-163.808	-109.865	0.504	-0.106
-162.793	-66.097	0.312	0.125
-161.779	135.135	-0.253	-0.329
-160.764	-39.288	0.192	0.101
-159.750	54.940	-0.251	0.242
-158.735	-200.000	-0.031	-0.141
-157.720	144.653	0.131	-0.175
-156.706	282.911	0.138	0.248
-155.691	-15.150	0.177	0.114
-154.677	-94.351	0.192	-0.053
-153.662	-200.000	0.031	0.392
-152.647	119.442	0.388	-0.481
-151.633	-157.516	-0.126	0.008
-150.618	458.789	0.083	-0.185
-149.604	800.000	-0.159	0.440
-148.589	-51.345	0.101	-0.047
-147.574	800.000	-0.141	-0.570
-146.560	-200.000	-0.008	-0.087
-145.545	-13.849	-0.216	0.140
-144.531	98.790	-0.325	0.375
-143.516	118.456	-0.036	-0.045
-142.502	202.262	-0.141	-0.218
-141.487	-57.557	0.211	-0.092
-140.472	46.549	0.075	0.070
-139.458	752.023	0.092	0.249
-138.443	581.754	0.111	-0.272
-137.429	589.589	0.055	0.135
-136.414	-200.000	0.041	-0.276
-135.399	-79.098	0.224	-0.076
-134.385	114.664	-0.051	-0.062
-133.370	-88.547	-0.247	0.074
-132.356	15.525	-0.166	0.131
-131.341	130.515	-0.161	-0.207
-130.326	-200.000	0.002	0.241
-129.312	-200.000	0.009	0.170
-128.297	35.639	0.234	-0.206
-127.283	-200.000	0.046	0.253
-126.268	-200.000	0.019	-0.191
-125.253	-10.416	0.147	-0.098
-124.239	76.283	0.126	0.133
-123.224	-200.000	0.028	-0.147
-122.210	53.021	0.308	-0.295
-121.195	-43.205	0.214	0.108
