DTS Sentinel unit serial number:	SN413079Multiplexer serial number:	ORYXHardware model number:	OX4-SRSoftware version number:	ORYX F/W v4.00 Oryx Data Collector v3.7.2.0data status	okinstallation	princeton_trtdifferential loss correction	single-endedforward channel	channel 3reverse channel	N/Adate	2019/09/12time	00:06:10forward acquisition time	60.00reverse acquisition time	0.00gamma	496.2192k internal	0.2318k external	0.2318temperature offset calibration	1.0063default loss term (dB/km)	0.3790temperature slope calibration	1.0000multiplexer offset coefficient	1.0000multiplexer slope coefficient	1.0000fibre end	0.00T internal ref (°C)	33.69T ext. ref 1 (°C)	1.99T ext. ref 2 (°C)	28.19length (m)	temperature (°C)	Stokes	anti-Stokes-747.200	-200.000	-0.005	0.295
-746.185	800.000	-0.062	-0.186
-745.171	1.625	0.139	0.101
-744.156	597.975	-0.038	0.094
-743.142	-200.000	-0.018	0.192
-742.127	-141.060	-0.413	0.043
-741.112	126.757	-0.176	-0.226
-740.098	-117.215	0.280	0.051
-739.083	52.880	0.182	-0.176
-738.069	395.031	-0.201	0.425
-737.054	21.285	-0.247	-0.203
-736.039	-98.896	-0.385	-0.099
-735.025	-17.560	-0.261	0.166
-734.010	-200.000	-0.011	-0.074
-732.996	-57.819	0.102	0.045
-731.981	-39.506	-0.092	0.049
-730.966	-136.677	-0.387	-0.045
-729.952	151.728	0.133	-0.184
-728.937	27.711	0.131	0.111
-727.923	800.000	0.052	0.174
-726.908	-178.751	-0.106	-0.002
-725.894	-65.760	0.178	0.072
-724.879	-49.215	0.092	-0.045
-723.864	-36.661	-0.062	0.034
-722.850	98.489	-0.183	-0.213
-721.835	-17.880	0.375	-0.238
-720.821	-95.768	-0.325	0.088
-719.806	186.221	-0.148	-0.222
-718.791	-32.666	0.296	-0.166
-717.777	-116.487	-0.146	0.027
-716.762	132.377	0.142	0.185
-715.748	800.000	0.006	0.020
-714.733	-200.000	-0.039	-0.227
-713.718	510.839	-0.099	0.232
-712.704	-52.175	-0.261	0.122
-711.689	-41.197	0.260	0.136
-710.675	800.000	0.031	-0.123
-709.660	88.554	-0.159	-0.178
-708.645	800.000	-0.117	-0.493
-707.631	327.448	-0.085	-0.164
-706.616	-161.891	-0.196	-0.010
-705.602	634.941	0.155	0.399
-704.587	-77.040	-0.263	-0.093
-703.572	800.000	0.037	0.105
-702.558	-169.200	0.292	-0.011
-701.543	-83.623	0.198	-0.064
-700.529	332.219	0.137	0.266
-699.514	-146.513	-0.100	0.009
-698.499	800.000	0.111	0.359
-697.485	-136.101	-0.038	0.004
-696.470	381.928	0.025	-0.052
-695.456	97.947	-0.216	0.251
-694.441	40.174	-0.070	-0.064
-693.426	471.935	0.116	0.265
-692.412	279.824	0.184	-0.331
-691.397	53.145	0.209	-0.203
-690.383	79.092	-0.155	-0.168
-689.368	-200.000	0.044	0.236
-688.354	-200.000	-0.018	-0.091
-687.339	180.551	0.108	0.160
-686.324	-74.362	0.093	-0.034
-685.310	204.915	-0.159	-0.249
-684.295	-22.880	-0.260	0.158
-683.281	-200.000	0.013	0.196
-682.266	-84.195	0.267	-0.085
-681.251	-11.317	0.323	0.214
-680.237	-127.116	-0.187	0.028
-679.222	800.000	-0.020	0.073
-678.208	-200.000	-0.040	0.221
-677.193	49.499	-0.355	-0.337
-676.178	667.778	-0.061	-0.160
-675.164	655.127	0.083	0.214
-674.149	313.763	0.064	-0.121
-673.135	-200.000	0.010	0.151
-672.120	800.000	-0.056	-0.183
-671.105	62.204	0.122	-0.123
-670.091	74.277	-0.152	-0.161
-669.076	-200.000	0.031	-0.167
-668.062	-146.609	0.194	-0.017
-667.047	-200.000	-0.014	0.273
-666.032	13.280	-0.032	-0.025
-665.018	-164.552	0.227	0.010
-664.003	398.564	-0.062	-0.130
-662.989	-124.670	-0.081	0.013
-661.974	800.000	0.030	0.130
-660.959	-22.216	0.142	0.087
-659.945	80.690	0.020	-0.021
-658.930	-44.351	0.022	-0.011
-657.916	800.000	-0.021	-0.091
-656.901	-200.000	0.049	-0.284
-655.886	-48.251	-0.206	0.100
-654.872	-76.605	-0.157	-0.056
-653.857	294.723	-0.129	-0.238
-652.843	3.740	0.228	0.168
-651.828	-100.527	0.145	0.036
-650.814	-92.093	-0.163	0.047
-649.799	-45.096	0.106	-0.053
-648.784	60.350	0.088	-0.087
-647.770	-2.607	-0.211	0.149
-646.755	147.952	0.363	0.494
-645.741	608.419	0.106	-0.267
-644.726	-200.000	-0.025	-0.169
-643.711	-200.000	0.012	-0.305
-642.697	-7.074	-0.271	0.186
-641.682	407.699	-0.077	-0.165
-640.668	100.990	-0.078	0.091
-639.653	440.990	0.059	-0.130
-638.638	-200.000	-0.040	-0.265
-637.624	-39.417	-0.341	-0.180
-636.609	-115.022	-0.168	-0.032
-635.595	676.765	-0.128	0.336
-634.580	2.307	-0.196	-0.143
-633.565	421.704	0.097	-0.209
-632.551	800.000	-0.058	-0.199
-631.536	-100.728	-0.329	0.082
-630.522	381.025	0.124	-0.256
-629.507	40.766	0.317	-0.289
-628.492	0.650	0.156	-0.113
-627.478	-200.000	-0.056	-0.418
-626.463	131.051	-0.093	0.120
-625.449	-121.324	-0.080	-0.013
-624.434	-64.879	-0.352	0.144
-623.419	-200.000	0.056	0.289
-622.405	259.729	-0.097	-0.168
-621.390	435.374	-0.184	-0.402
-620.376	-81.283	-0.029	-0.010
-619.361	766.068	-0.030	0.082
-618.346	-72.173	-0.242	-0.090
-617.332	-25.386	-0.262	0.156
-616.317	-83.743	0.245	-0.079
-615.303	-200.000	0.043	-0.248
-614.288	41.535	0.115	-0.105
-613.273	-106.600	-0.221	-0.050
-612.259	387.036	-0.036	-0.076
-611.244	173.630	0.153	0.223
-610.230	-26.594	-0.114	-0.067
-609.215	746.681	0.204	-0.553
-608.201	368.560	-0.123	-0.251
-607.186	-200.000	0.053	0.270
-606.171	-48.821	0.132	-0.064
-605.157	-149.251	0.113	0.009
-604.142	139.332	0.032	-0.043
-603.128	800.000	-0.072	0.251
-602.113	41.439	0.114	0.104
-601.098	18.613	0.235	-0.189
-600.084	-49.338	0.073	-0.035
-599.069	-200.000	0.317	0.001
-598.055	12.479	0.260	0.201
-597.040	800.000	-0.059	-0.225
-596.025	774.763	0.083	0.228
-595.011	-70.968	-0.194	0.073
-593.996	-40.546	0.231	0.121
-592.982	-86.664	-0.192	0.059
-591.967	-98.574	-0.113	-0.029
-590.952	-200.000	0.065	-0.487
-589.938	-107.414	-0.231	0.051
-588.923	263.890	-0.093	0.163
-587.909	-10.084	-0.248	0.166
-586.894	247.640	0.152	0.259
-585.879	800.000	0.030	-0.098
-584.865	-1.501	-0.182	0.129
-583.850	-60.143	0.272	0.117
-582.836	-47.672	0.130	0.064
-581.821	-200.000	0.031	-0.350
-580.806	-38.950	-0.173	-0.092
-579.792	660.323	-0.150	0.389
-578.777	-27.369	0.171	0.100
-577.763	-200.000	-0.010	-0.451
-576.748	678.551	-0.059	-0.154
-575.733	-79.829	0.196	0.066
-574.719	254.377	0.071	-0.121
-573.704	-200.000	-0.037	0.381
-572.690	-165.391	0.499	0.022
-571.675	-98.859	-0.132	0.034
-570.661	-91.116	-0.393	0.113
-569.646	-200.000	-0.149	-0.001
-568.631	-11.872	0.257	-0.169
-567.617	235.676	0.042	-0.069
-566.602	-56.729	0.159	0.071
-565.588	80.147	0.230	-0.249
-564.573	-200.000	0.042	-0.186
-563.558	26.345	-0.232	0.195
-562.544	661.484	0.075	0.195
-561.529	800.000	0.060	-0.215
-560.515	-200.000	-0.040	-0.185
-559.500	-192.105	0.357	0.003
-558.485	-200.000	-0.005	0.343
-557.471	-55.142	0.231	-0.105
-556.456	-69.216	0.156	0.060
-555.442	-41.324	-0.245	0.127
-554.427	83.937	0.027	-0.030
-553.412	-18.750	-0.127	-0.079
-552.398	-132.491	-0.343	0.044
-551.383	319.278	-0.137	-0.262
-550.369	-200.000	-0.016	-0.195
-549.354	398.355	0.043	-0.091
-548.339	191.454	-0.153	-0.232
-547.325	-60.957	0.093	-0.039
-546.310	-103.891	-0.423	-0.099
-545.296	60.226	-0.017	0.017
-544.281	114.069	0.096	-0.117
-543.266	-200.000	0.009	-0.510
-542.252	-200.000	0.007	-0.464
-541.237	-55.639	-0.125	0.056
-540.223	800.000	-0.040	-0.117
-539.208	-132.728	-0.336	-0.043
-538.193	529.580	0.041	0.098
-537.179	-162.732	0.126	-0.006
-536.164	-200.000	0.007	-0.185
-535.150	-65.110	-0.078	0.031
-534.135	-200.000	-0.049	0.378
-533.121	-200.000	0.078	0.385
-532.106	375.729	-0.042	0.086
-531.091	429.646	-0.019	-0.041
-530.077	800.000	-0.037	-0.119
-529.062	197.483	0.090	0.138
-528.048	517.454	-0.127	0.299
-527.033	-40.350	-0.281	0.146
-526.018	-10.066	0.078	0.052
-525.004	-200.000	-0.003	0.148
-523.989	-62.271	0.327	-0.137
-522.975	690.953	-0.187	-0.490
-521.960	739.850	0.114	0.306
-520.945	-200.000	0.034	0.294
-519.931	71.943	-0.175	-0.182
-518.916	-53.531	0.271	0.124
-517.902	-163.728	0.174	0.008
-516.887	800.000	0.029	0.097
-515.872	292.821	-0.059	0.107
-514.858	508.801	0.094	-0.218
-513.843	738.074	0.150	-0.404
-512.829	-85.476	0.108	-0.034
-511.814	-123.455	0.194	0.031
-510.799	-139.042	0.259	-0.028
-509.785	-79.861	-0.065	0.022
-508.770	210.411	-0.093	0.146
-507.756	-200.000	0.020	0.321
-506.741	330.814	-0.059	-0.115
-505.726	-90.625	-0.163	0.047
-504.712	-82.038	0.139	0.045
-503.697	-100.880	0.134	-0.033
-502.683	-200.000	-0.006	-0.172
-501.668	-200.000	0.025	-0.293
-500.653	-200.000	0.051	0.425
-499.639	800.000	-0.018	0.069
-498.624	82.877	0.219	0.239
-497.610	-79.382	0.257	-0.087
-496.595	80.728	0.136	0.147
-495.581	800.000	-0.075	0.301
-494.566	-83.265	-0.184	-0.059
-493.551	-108.326	0.261	0.057
-492.537	800.000	-0.044	-0.143
-491.522	-200.000	-0.013	0.191
-490.508	739.419	0.088	0.235
-489.493	-78.225	0.026	-0.009
-488.478	-200.000	0.002	-0.353
-487.464	-200.000	-0.021	-0.242
-486.449	420.674	-0.089	0.191
-485.435	150.763	-0.091	-0.124
-484.420	-177.645	0.135	0.003
-483.405	-200.000	0.020	-0.202
-482.391	-200.000	-0.018	0.276
-481.376	653.758	0.061	-0.156
-480.362	314.433	0.039	0.074
-479.347	70.151	-0.184	-0.190
-478.332	185.756	0.043	0.065
-477.318	-66.448	-0.200	-0.079
-476.303	-181.771	-0.418	0.008
-475.289	193.953	-0.167	-0.253
-474.274	-17.678	0.036	-0.023
-473.259	-54.187	-0.238	0.108
-472.245	-105.657	0.288	0.065
-471.230	1.444	-0.247	0.178
-470.216	724.354	-0.032	0.087
-469.201	-200.000	0.005	0.181
-468.186	68.165	0.219	0.224
-467.172	140.236	0.221	0.292
-466.157	418.274	-0.127	-0.271
-465.143	308.760	0.004	0.007
-464.128	79.633	-0.199	0.214
-463.113	77.251	0.135	0.143
-462.099	-200.000	-0.010	-0.046
-461.084	-14.032	0.102	-0.066
-460.070	202.434	-0.152	0.236
-459.055	-24.064	0.082	-0.049
-458.040	186.512	0.080	0.119
-457.026	-78.933	0.046	-0.016
-456.011	33.016	-0.143	0.124
-454.997	-200.000	-0.001	-0.038
-453.982	-23.086	0.106	0.064
-452.968	-200.000	-0.006	-0.267
-451.953	800.000	0.150	-0.428
-450.938	94.594	-0.082	0.094
-449.924	-53.024	-0.207	-0.095
-448.909	800.000	0.007	0.020
-447.895	-200.000	-0.017	-0.155
-446.880	-200.000	0.036	0.177
-445.865	-120.178	0.118	-0.020
-444.851	-78.131	-0.163	-0.056
-443.836	-85.135	0.091	0.029
-442.822	430.315	-0.162	-0.352
-441.807	-66.892	-0.366	-0.145
-440.792	37.294	0.156	0.138
-439.778	-200.000	-0.027	0.290
-438.763	-98.275	0.126	0.032
-437.749	681.401	-0.060	0.156
-436.734	-200.000	-0.024	-0.204
-435.719	-64.500	0.204	0.083
-434.705	-200.000	-0.012	0.163
-433.690	-51.388	-0.104	0.049
-432.676	-65.715	0.260	0.104
-431.661	38.878	0.107	0.095
-430.646	-200.000	-0.047	0.255
-429.632	800.000	-0.091	-0.292
-428.617	-41.237	0.361	0.186
-427.603	-162.851	-0.139	-0.007
-426.588	-200.000	0.079	-0.363
-425.573	488.045	-0.073	-0.167
-424.559	-199.745	0.134	-0.001
-423.544	-200.000	0.001	0.076
-422.530	-200.000	0.034	-0.242
-421.515	-108.112	0.055	-0.012
-420.500	625.659	0.245	-0.617
-419.486	206.076	-0.144	-0.224
-418.471	455.381	0.072	0.159
-417.457	-67.331	0.364	-0.143
-416.442	-46.122	-0.102	-0.050
-415.428	-101.007	0.068	-0.017
-414.413	468.520	-0.064	-0.143
-413.398	240.881	-0.129	0.215
-412.384	800.000	-0.061	0.230
-411.369	-0.702	0.270	-0.191
-410.355	-76.788	0.152	0.053
-409.340	423.098	-0.138	-0.296
-408.325	447.938	0.037	-0.081
-407.311	155.026	-0.202	-0.277
-406.296	-200.000	0.032	0.256
-405.282	-10.353	-0.187	0.124
-404.267	87.151	0.327	0.361
-403.252	-200.000	0.003	0.105
-402.238	54.414	-0.139	0.134
-401.223	-22.765	0.385	-0.232
-400.209	800.000	-0.088	-0.306
-399.194	43.103	0.126	-0.114
-398.179	267.688	0.058	0.101
-397.165	800.000	0.023	0.073
-396.150	800.000	0.039	0.130
-395.136	-160.194	-0.660	-0.036
-394.121	102.869	0.051	-0.059
-393.106	-200.000	0.043	0.334
-392.092	-83.131	0.123	-0.040
-391.077	-46.750	-0.343	-0.168
-390.063	51.021	0.134	-0.127
-389.048	800.000	0.032	-0.139
-388.033	-36.315	-0.169	-0.091
-387.019	43.252	0.186	0.169
-386.004	-162.949	-0.182	-0.009
-384.990	-4.257	0.216	-0.149
-383.975	800.000	-0.078	0.289
-382.960	-60.169	0.294	-0.125
-381.946	250.144	-0.012	-0.020
-380.931	62.042	0.153	-0.153
-379.917	481.292	-0.110	0.249
-378.902	-200.000	0.054	0.483
-377.888	-1.295	0.271	0.191
-376.873	72.713	0.241	0.251
-375.858	256.836	-0.121	0.208
-374.844	84.217	-0.059	0.065
-373.829	800.000	-0.100	-0.292
-372.815	49.795	0.092	0.086
-371.800	-200.000	-0.014	-0.218
-370.785	62.393	-0.104	0.104
-369.771	4.038	0.187	0.137
-368.756	-200.000	0.032	0.222
-367.742	-154.882	-0.242	0.016
-366.727	-93.166	0.425	-0.118
-365.712	-36.831	-0.197	0.106
-364.698	-200.000	0.027	-0.129
-363.683	500.093	-0.054	-0.125
-362.669	-84.716	-0.024	0.007
-361.654	17.737	-0.174	0.138
-360.639	65.701	0.134	0.135
-359.625	742.684	0.048	0.130
-358.610	-18.641	-0.187	0.116
-357.596	-22.474	-0.250	0.151
-356.581	-200.000	0.042	-0.485
-355.566	299.469	0.083	0.152
-354.552	-194.451	0.163	-0.001
-353.537	118.316	-0.047	-0.058
-352.523	8.322	0.091	-0.068
-351.508	17.221	0.324	-0.256
-350.493	72.796	-0.341	0.355
-349.479	800.000	-0.038	0.108
-348.464	176.422	-0.061	-0.088
-347.450	-200.000	0.059	-0.269
-346.435	-26.804	0.106	-0.062
-345.420	154.447	0.030	0.042
-344.406	60.930	-0.146	-0.144
-343.391	-126.022	0.173	-0.026
-342.377	-99.503	0.108	0.027
-341.362	312.795	-0.080	-0.150
-340.348	-143.366	0.203	-0.019
-339.333	-39.433	0.099	0.052
-338.318	-200.000	0.019	0.221
-337.304	54.103	0.083	-0.079
-336.289	-37.924	0.120	-0.063
-335.275	234.258	-0.084	0.138
-334.260	84.323	-0.216	-0.235
-333.245	193.482	-0.148	0.222
-332.231	-69.142	0.224	-0.086
-331.216	-51.045	-0.213	-0.099
-330.202	64.283	0.148	-0.148
-329.187	-84.317	-0.207	0.065
-328.172	-200.000	0.031	-0.199
-327.158	-200.000	-0.065	0.290
-326.143	-58.862	-0.211	0.091
-325.129	800.000	-0.062	-0.242
-324.114	-200.000	0.035	-0.200
-323.099	-200.000	-0.000	0.120
-322.085	-109.035	-0.167	0.035
-321.070	154.665	0.388	0.531
-320.056	721.271	0.067	-0.178
-319.041	590.644	0.052	0.127
-318.026	41.385	-0.095	0.086
-317.012	426.350	0.160	-0.342
-315.997	94.482	-0.188	-0.212
-314.983	-55.488	0.245	0.110
-313.968	137.969	-0.173	0.225
-312.953	17.182	0.159	0.125
-311.939	-160.555	-0.195	-0.010
-310.924	-200.000	0.011	0.203
-309.910	620.395	0.105	0.264
-308.895	26.343	-0.243	0.202
-307.880	370.555	0.094	-0.189
-306.866	800.000	-0.089	-0.287
-305.851	-63.480	-0.147	-0.060
-304.837	224.988	-0.136	-0.219
-303.822	532.085	-0.018	-0.043
-302.807	267.400	0.076	0.132
-301.793	800.000	-0.010	0.040
-300.778	-200.000	-0.030	0.294
-299.764	66.637	0.190	0.193
-298.749	-56.523	0.132	0.058
-297.735	-200.000	0.006	0.026
-296.720	-200.000	-0.003	0.071
-295.705	-81.195	0.368	-0.121
-294.691	-56.792	0.190	0.083
-293.676	140.313	0.055	0.072
-292.662	-119.308	-0.239	-0.041
-291.647	800.000	0.056	0.199
-290.632	-200.000	0.000	0.211
-289.618	800.000	0.051	-0.206
-288.603	-200.000	-0.009	0.359
-287.589	-200.000	0.040	0.311
-286.574	139.432	-0.094	-0.124
-285.559	480.460	0.146	0.329
-284.545	-55.983	-0.305	0.135
-283.530	186.582	-0.132	-0.195
-282.516	-75.096	-0.267	0.095
-281.501	389.403	0.165	0.339
-280.486	9.020	0.152	-0.114
-279.472	-120.319	-0.229	0.039
-278.457	-200.000	0.016	0.080
-277.443	137.243	0.020	0.026
-276.428	209.440	-0.080	-0.125
-275.413	231.988	0.089	0.146
-274.399	-200.000	-0.008	-0.110
-273.384	-168.697	-0.184	-0.007
-272.370	-118.975	0.444	-0.077
-271.355	-200.000	0.004	0.218
-270.340	294.402	0.189	0.343
-269.326	-4.632	0.371	-0.255
-268.311	-69.525	0.160	0.061
-267.297	800.000	-0.015	0.058
-266.282	367.547	-0.077	0.155
-265.267	450.799	-0.120	0.263
-264.253	800.000	-0.044	0.158
-263.238	-68.122	0.270	0.104
-262.224	-27.613	-0.304	-0.176
-261.209	-113.964	0.179	-0.035
-260.195	-47.794	-0.238	0.115
-259.180	-200.000	-0.010	-0.167
-258.165	-77.320	0.235	-0.081
-257.151	429.643	-0.118	0.253
-256.136	18.196	0.247	-0.196
-255.122	-200.000	-0.014	0.095
-254.107	-187.075	0.104	-0.001
-253.092	96.804	-0.108	0.123
-252.078	800.000	-0.073	0.205
-251.063	800.000	0.034	-0.114
-250.049	-75.182	0.185	0.066
-249.034	-140.555	0.197	0.020
-248.019	-53.841	-0.151	0.068
-247.005	-62.857	0.268	-0.110
-245.990	-200.000	-0.072	-0.431
-244.976	-200.000	0.061	0.000
-243.961	800.000	0.081	0.333
-242.946	-33.795	-0.106	0.058
-241.932	-84.401	-0.414	0.130
-240.917	-59.689	-0.340	0.145
-239.903	112.448	-0.029	-0.035
-238.888	-200.000	0.011	0.055
-237.873	179.153	0.156	0.227
-236.859	32.572	0.079	-0.068
-235.844	-54.816	0.243	-0.109
-234.830	115.916	-0.203	-0.247
-233.815	-200.000	0.000	0.048
-232.800	43.614	0.058	-0.053
-231.786	-166.000	-0.216	-0.009
-230.771	174.698	0.081	0.116
-229.757	800.000	-0.038	0.140
-228.742	576.581	0.110	-0.266
-227.727	148.367	0.150	-0.201
-226.713	10.670	-0.139	-0.105
-225.698	-50.154	-0.220	0.103
-224.684	469.356	0.042	-0.093
-223.669	-13.080	0.300	0.193
-222.655	-200.000	0.000	-0.300
-221.640	150.231	0.106	-0.143
-220.625	39.117	-0.087	-0.077
-219.611	-49.115	0.078	0.037
-218.596	800.000	-0.118	-0.347
-217.582	-200.000	-0.030	-0.295
-216.567	-71.098	-0.189	-0.070
-215.552	-27.856	-0.589	0.339
-214.538	143.256	0.165	-0.218
-213.523	10.498	-0.121	-0.091
-212.509	175.649	0.141	0.203
-211.494	800.000	0.058	0.195
-210.479	3.912	-0.233	-0.169
-209.465	784.346	-0.097	-0.262
-208.450	601.917	0.068	0.168
-207.436	-200.000	-0.032	0.183
-206.421	127.212	-0.052	-0.065
-205.406	172.190	-0.026	-0.037
-204.392	-200.000	0.023	-0.151
-203.377	193.136	0.117	0.175
-202.363	-155.320	0.194	0.012
-201.348	-41.015	0.079	0.041
-200.333	-200.000	0.010	0.235
-199.319	-129.783	-0.106	-0.014
-198.304	22.727	-0.156	-0.126
-197.290	568.375	0.085	0.204
-196.275	169.992	-0.139	-0.197
-195.260	44.301	0.125	-0.114
-194.246	122.502	-0.163	0.202
-193.231	-132.626	0.261	-0.033
-192.217	189.362	0.104	0.154
-191.202	-190.929	0.077	0.001
-190.187	-111.428	-0.199	0.040
-189.173	582.441	0.095	-0.230
-188.158	483.708	-0.125	0.281
-187.144	35.966	0.044	0.039
-186.129	800.000	0.071	0.224
-185.114	800.000	0.059	-0.179
-184.100	293.119	-0.132	-0.238
-183.085	-200.000	-0.005	-0.108
-182.071	473.493	-0.033	0.073
-181.056	37.687	-0.335	-0.295
-180.042	-146.456	-0.153	0.013
-179.027	107.921	0.057	-0.067
-178.012	-107.571	-0.203	-0.044
-176.998	-200.000	-0.006	-0.042
-175.983	-99.008	-0.177	0.044
-174.969	-200.000	0.000	-0.155
-173.954	-132.889	-0.195	0.025
-172.939	11.606	-0.306	-0.232
-171.925	-200.000	-0.105	-0.613
-170.910	-13.636	0.181	0.116
-169.896	101.443	0.147	0.169
-168.881	800.000	-0.105	0.429
-167.866	-200.000	-0.052	0.344
-166.852	-6.167	-0.244	-0.165
-165.837	-85.459	0.223	0.069
-164.823	471.320	-0.059	-0.132
-163.808	-41.328	-0.080	-0.041
-162.793	-48.077	-0.118	-0.056
-161.779	484.695	0.109	-0.246
-160.764	-32.760	0.117	0.064
-159.750	-200.000	0.056	0.321
-158.735	-200.000	0.046	0.307
-157.720	209.910	-0.041	0.064
-156.706	77.263	0.131	-0.138
-155.691	72.532	-0.251	0.259
-154.677	97.294	-0.125	0.142
-153.662	800.000	-0.107	-0.324
-152.647	-38.703	-0.267	-0.139
-151.633	-84.747	0.302	0.094
-150.618	483.419	0.074	-0.166
-149.604	-200.000	0.027	-0.226
-148.589	65.546	-0.179	0.179
-147.574	-200.000	0.026	-0.192
-146.560	56.440	0.067	0.065
-145.545	-40.937	-0.239	0.122
-144.531	-56.805	0.356	-0.156
-143.516	-29.353	-0.093	-0.053
-142.502	89.596	-0.231	0.255
-141.487	3.808	-0.139	0.100
-140.472	-119.537	0.190	0.033
-139.458	-200.000	0.086	-0.446
-138.443	-76.198	-0.118	-0.041
-137.429	800.000	-0.095	0.281
-136.414	15.867	-0.209	0.163
-135.399	32.068	-0.177	-0.150
-134.385	281.742	-0.081	-0.143
-133.370	91.873	-0.341	-0.379
-132.356	112.616	-0.108	-0.129
-131.341	-148.049	-0.125	0.010
-130.326	800.000	-0.059	-0.171
-129.312	-46.965	0.036	-0.017
-128.297	800.000	0.047	-0.146
-127.283	-93.114	0.370	-0.102
-126.268	-200.000	0.036	-0.160
-125.253	800.000	0.051	-0.219
-124.239	800.000	0.116	-0.477
-123.224	37.170	-0.295	0.258
-122.210	-200.000	-0.018	-0.249
-121.195	706.053	0.156	-0.407
