DTS Sentinel unit serial number:	SN413079Multiplexer serial number:	ORYXHardware model number:	OX4-SRSoftware version number:	ORYX F/W v4.00 Oryx Data Collector v3.7.2.0data status	okinstallation	princeton_trtdifferential loss correction	single-endedforward channel	channel 3reverse channel	N/Adate	2019/09/19time	11:04:34forward acquisition time	60.00reverse acquisition time	0.00gamma	496.2192k internal	0.2342k external	0.2342temperature offset calibration	0.9984default loss term (dB/km)	0.3790temperature slope calibration	1.0000multiplexer offset coefficient	1.0000multiplexer slope coefficient	1.0000fibre end	0.00T internal ref (°C)	24.94T ext. ref 1 (°C)	0.75T ext. ref 2 (°C)	20.49length (m)	temperature (°C)	Stokes	anti-Stokes-747.200	-200.000	0.047	-0.255
-746.185	50.271	-0.129	0.122
-745.171	800.000	-0.064	-0.214
-744.156	-200.000	-0.012	0.219
-743.142	-71.746	0.281	0.105
-742.127	-132.501	0.140	0.018
-741.112	-10.549	-0.119	0.079
-740.098	-200.000	-0.000	0.139
-739.083	-13.317	0.074	-0.048
-738.069	-9.397	0.234	0.157
-737.054	60.729	-0.131	-0.130
-736.039	59.923	-0.281	0.278
-735.025	123.293	0.172	0.216
-734.010	800.000	-0.036	-0.140
-732.996	-87.746	-0.138	0.042
-731.981	-175.480	-0.222	0.006
-730.966	96.308	-0.244	0.279
-729.952	-65.772	-0.327	0.131
-728.937	278.818	0.075	0.135
-727.923	675.325	-0.177	0.461
-726.908	-97.921	-0.027	-0.007
-725.894	-95.954	-0.084	0.023
-724.879	-70.314	-0.279	-0.106
-723.864	136.072	-0.069	0.090
-722.850	-89.427	0.047	-0.014
-721.835	-131.850	-0.158	0.021
-720.821	48.814	0.259	0.243
-719.806	-109.674	-0.157	0.033
-718.791	268.835	-0.093	-0.164
-717.777	143.324	-0.091	0.121
-716.762	30.974	0.118	0.101
-715.748	800.000	-0.057	0.185
-714.733	-136.000	-0.197	0.023
-713.718	138.316	0.135	-0.177
-712.704	800.000	-0.082	-0.282
-711.689	-121.450	0.164	-0.027
-710.675	-200.000	-0.003	0.338
-709.660	304.750	0.163	-0.303
-708.645	489.097	-0.012	0.028
-707.631	1.641	-0.282	0.203
-706.616	-86.845	0.171	0.052
-705.602	297.524	-0.125	0.229
-704.587	-119.794	0.348	0.060
-703.572	-30.928	-0.258	-0.146
-702.558	-60.573	0.158	-0.067
-701.543	183.994	0.036	0.054
-700.529	-80.839	-0.170	0.057
-699.514	251.539	0.225	-0.383
-698.499	-68.784	0.034	0.013
-697.485	-35.770	0.185	0.100
-696.470	-131.851	0.179	0.023
-695.456	-91.519	0.107	-0.030
-694.441	-200.000	-0.011	0.090
-693.426	127.774	-0.063	0.080
-692.412	119.831	0.144	-0.178
-691.397	-200.000	0.010	0.278
-690.383	-200.000	0.020	0.370
-689.368	-120.312	-0.116	0.020
-688.354	-132.412	-0.272	0.035
-687.339	-2.692	-0.323	-0.226
-686.324	110.973	0.032	0.039
-685.310	800.000	-0.105	-0.371
-684.295	406.627	-0.092	-0.194
-683.281	296.557	-0.096	0.176
-682.266	-68.423	-0.211	-0.082
-681.251	-21.790	-0.016	-0.010
-680.237	-55.534	-0.207	0.093
-679.222	17.765	0.139	-0.110
-678.208	-200.000	-0.050	0.411
-677.193	97.390	0.141	-0.161
-676.178	348.884	-0.046	-0.090
-675.164	142.301	0.149	-0.197
-674.149	-59.585	0.414	-0.177
-673.135	-200.000	-0.054	-0.296
-672.120	800.000	-0.048	0.145
-671.105	-200.000	-0.022	0.138
-670.091	-200.000	0.228	0.001
-669.076	121.415	0.260	-0.324
-668.062	14.892	-0.099	-0.078
-667.047	54.886	0.114	0.110
-666.032	800.000	-0.068	-0.204
-665.018	684.182	-0.057	-0.149
-664.003	-40.672	0.126	-0.065
-662.989	-7.787	0.241	0.162
-661.974	756.711	0.144	-0.389
-660.959	181.506	-0.158	-0.232
-659.945	412.372	0.040	-0.084
-658.930	-200.000	-0.020	0.131
-657.916	800.000	0.088	0.365
-656.901	-98.230	-0.173	0.044
-655.886	800.000	-0.032	-0.132
-654.872	-115.285	-0.124	0.023
-653.857	-80.250	0.224	0.075
-652.843	34.621	-0.206	0.180
-651.828	-48.026	-0.432	-0.208
-650.814	41.192	-0.087	-0.078
-649.799	-119.830	0.216	-0.037
-648.784	-169.343	-0.096	0.004
-647.770	800.000	0.041	0.146
-646.755	-98.978	0.095	-0.024
-645.741	502.197	-0.076	0.175
-644.726	800.000	-0.073	0.225
-643.711	-40.369	-0.230	0.119
-642.697	339.711	-0.104	0.202
-641.682	-120.913	-0.252	0.042
-640.668	21.802	0.299	0.243
-639.653	-200.000	-0.008	-0.107
-638.638	-15.887	-0.144	0.091
-637.624	-15.665	0.274	-0.175
-636.609	45.984	0.018	-0.017
-635.595	398.725	0.086	-0.180
-634.580	325.995	-0.013	-0.024
-633.565	800.000	0.186	-0.538
-632.551	-103.675	0.319	0.075
-631.536	20.736	-0.323	0.261
-630.522	53.464	-0.151	-0.144
-629.507	-47.273	0.249	-0.121
-628.492	24.064	0.112	-0.093
-627.478	-77.923	0.319	0.110
-626.463	157.142	0.113	0.156
-625.449	110.813	-0.167	0.200
-624.434	497.078	-0.135	-0.310
-623.419	-55.592	-0.060	-0.027
-622.405	-75.556	0.091	-0.032
-621.390	129.028	-0.146	0.185
-620.376	-66.777	0.133	0.053
-619.361	266.172	0.049	-0.085
-618.346	105.024	-0.097	-0.114
-617.332	56.131	-0.152	0.148
-616.317	38.789	0.085	-0.076
-615.303	-29.174	-0.298	0.170
-614.288	800.000	-0.049	-0.169
-613.273	-82.251	-0.258	0.084
-612.259	25.492	-0.105	0.087
-611.244	800.000	-0.214	-0.669
-610.230	-200.000	0.013	-0.205
-609.215	9.703	-0.221	-0.167
-608.201	800.000	-0.116	-0.341
-607.186	-78.204	-0.077	0.026
-606.171	73.677	-0.151	-0.157
-605.157	-12.646	-0.311	-0.202
-604.142	-200.000	-0.012	-0.166
-603.128	167.519	-0.236	0.334
-602.113	-200.000	-0.054	0.286
-601.098	790.180	-0.054	0.148
-600.084	78.626	0.213	0.227
-599.069	-115.887	0.161	0.030
-598.055	156.891	-0.099	0.136
-597.040	-35.961	0.125	-0.067
-596.025	-103.435	-0.286	-0.067
-595.011	381.802	-0.168	0.343
-593.996	52.398	-0.228	-0.217
-592.982	-47.746	0.318	-0.154
-591.967	303.291	0.092	-0.169
-590.952	-55.647	0.123	-0.055
-589.938	121.994	0.107	-0.133
-588.923	166.925	0.118	-0.166
-587.909	74.227	0.165	-0.172
-586.894	562.424	-0.076	-0.182
-585.879	-88.594	0.051	0.015
-584.865	-200.000	-0.038	0.197
-583.850	171.714	0.190	0.271
-582.836	40.619	-0.264	-0.237
-581.821	-120.780	0.123	0.021
-580.806	95.673	0.146	-0.166
-579.792	-200.000	-0.028	0.243
-578.777	219.120	-0.032	-0.051
-577.763	-73.278	-0.134	-0.049
-576.748	-85.728	0.043	-0.013
-575.733	-200.000	0.007	0.266
-574.719	284.950	-0.078	-0.139
-573.704	-200.000	0.078	-0.356
-572.690	-59.720	-0.274	0.117
-571.675	800.000	0.024	0.078
-570.661	-185.080	0.170	-0.003
-569.646	44.822	0.094	-0.086
-568.631	-156.529	0.165	-0.010
-567.617	-145.480	0.070	-0.006
-566.602	-74.221	-0.213	-0.077
-565.588	-128.678	0.138	-0.019
-564.573	-200.000	-0.017	-0.125
-563.558	-106.786	0.107	0.024
-562.544	-200.000	-0.012	-0.188
-561.529	800.000	0.078	0.238
-560.515	-179.780	0.285	0.006
-559.500	-58.555	-0.255	-0.110
-558.485	-27.148	0.128	-0.074
-557.471	-16.448	-0.120	-0.076
-556.456	-200.000	-0.034	0.150
-555.442	330.124	-0.012	0.024
-554.427	-200.000	0.041	0.195
-553.412	-2.256	-0.387	0.270
-552.398	4.073	0.020	0.015
-551.383	-200.000	-0.045	0.353
-550.369	-173.178	-0.191	0.006
-549.354	101.753	-0.084	0.097
-548.339	-78.085	0.088	-0.030
-547.325	499.503	0.015	-0.035
-546.310	-126.878	-0.140	0.020
-545.296	45.847	0.197	-0.181
-544.281	366.488	-0.078	0.156
-543.266	-200.000	0.008	-0.188
-542.252	-200.000	-0.050	0.261
-541.237	-120.971	0.169	0.028
-540.223	-200.000	-0.058	0.255
-539.208	-200.000	-0.057	0.270
-538.193	800.000	0.048	0.195
-537.179	23.107	0.262	0.214
-536.164	566.524	0.072	-0.174
-535.150	-74.035	0.342	0.123
-534.135	546.771	-0.056	0.133
-533.121	-120.742	0.205	-0.034
-532.106	21.584	0.209	0.169
-531.091	-116.296	-0.109	-0.020
-530.077	-175.847	0.208	0.006
-529.062	-9.925	-0.255	-0.168
-528.048	310.206	0.032	-0.060
-527.033	38.232	-0.287	0.254
-526.018	62.968	0.118	0.118
-525.004	37.009	-0.153	-0.135
-523.989	43.027	0.206	-0.187
-522.975	-45.671	-0.272	-0.133
-521.960	149.727	0.102	-0.137
-520.945	1.513	-0.296	-0.212
-519.931	-95.530	-0.322	-0.086
-518.916	761.075	-0.035	-0.094
-517.902	777.801	0.145	0.394
-516.887	-88.816	0.202	-0.060
-515.872	65.050	-0.076	-0.076
-514.858	67.731	-0.146	0.148
-513.843	42.904	0.166	0.150
-512.829	683.432	-0.080	-0.206
-511.814	-31.311	0.172	0.096
-510.799	-10.142	0.183	0.120
-509.785	-80.031	0.525	-0.175
-508.770	-74.649	-0.152	-0.054
-507.756	-104.635	-0.430	0.098
-506.741	14.349	-0.045	-0.035
-505.726	800.000	-0.062	-0.232
-504.712	435.172	0.062	0.133
-503.697	-200.000	0.073	0.405
-502.683	72.989	0.168	-0.174
-501.668	151.945	-0.274	0.370
-500.653	281.433	-0.146	-0.260
-499.639	261.548	0.070	-0.121
-498.624	-130.477	-0.236	0.032
-497.610	800.000	0.104	-0.363
-496.595	-158.017	-0.066	0.004
-495.581	-0.886	0.087	-0.061
-494.566	-86.497	-0.125	0.038
-493.551	123.447	-0.037	-0.046
-492.537	-58.234	-0.283	0.122
-491.522	58.126	0.204	-0.198
-490.508	-97.945	-0.150	0.038
-489.493	-95.412	0.390	0.104
-488.478	-75.616	-0.132	0.047
-487.464	94.512	0.255	0.288
-486.449	-127.784	-0.170	-0.024
-485.435	170.190	0.168	0.238
-484.420	421.869	-0.066	-0.141
-483.405	166.955	0.123	0.172
-482.391	-146.752	-0.290	0.025
-481.376	-39.352	0.234	0.121
-480.362	800.000	-0.055	-0.168
-479.347	278.266	0.106	-0.187
-478.332	43.769	0.098	-0.089
-477.318	78.382	-0.062	-0.066
-476.303	-21.776	-0.357	0.215
-475.289	-200.000	-0.013	-0.175
-474.274	800.000	-0.063	-0.241
-473.259	-139.216	-0.135	0.014
-472.245	-105.553	0.377	-0.085
-471.230	27.350	0.199	-0.165
-470.216	-90.358	-0.157	0.045
-469.201	46.067	-0.137	0.126
-468.186	-127.642	0.162	0.023
-467.172	26.902	-0.204	-0.169
-466.157	81.065	-0.190	0.203
-465.143	800.000	-0.054	0.152
-464.128	-18.342	0.106	0.066
-463.113	216.773	0.098	-0.155
-462.099	11.421	-0.183	0.139
-461.084	800.000	-0.067	-0.208
-460.070	88.572	0.133	0.146
-459.055	143.719	0.009	0.011
-458.040	79.419	0.082	0.087
-457.026	-118.752	0.238	0.042
-456.011	800.000	-0.034	-0.141
-454.997	-138.234	0.255	-0.028
-453.982	-67.536	-0.229	-0.089
-452.968	576.204	0.072	-0.173
-451.953	310.012	-0.126	-0.233
-450.938	-171.565	-0.091	0.003
-449.924	124.360	0.217	-0.270
-448.909	-200.000	-0.064	-0.327
-447.895	-10.471	0.105	-0.069
-446.880	-113.810	0.188	-0.036
-445.865	-200.000	0.010	0.395
-444.851	189.539	0.117	0.174
-443.836	-200.000	0.010	0.258
-442.822	105.099	-0.249	0.291
-441.807	161.780	0.018	-0.025
-440.792	-200.000	-0.006	-0.489
-439.778	252.445	0.201	0.339
-438.763	-124.674	-0.282	0.043
-437.749	322.733	0.111	0.209
-436.734	-44.178	-0.273	-0.136
-435.719	-76.066	0.079	-0.027
-434.705	-133.188	-0.325	-0.041
-433.690	19.347	-0.251	0.200
-432.676	-200.000	-0.015	-0.244
-431.661	-52.479	-0.525	-0.240
-430.646	65.385	-0.245	0.246
-429.632	-56.523	-0.338	-0.148
-428.617	-48.455	-0.179	0.085
-427.603	3.510	0.345	-0.249
-426.588	-200.000	-0.006	0.083
-425.573	-57.151	0.242	0.106
-424.559	68.740	0.120	0.122
-423.544	-200.000	-0.026	0.120
-422.530	-200.000	0.004	-0.111
-421.515	299.970	-0.126	0.230
-420.500	800.000	0.096	0.282
-419.486	-13.885	-0.271	0.173
-418.471	-42.760	-0.206	0.104
-417.457	-26.703	-0.038	0.022
-416.442	5.014	0.142	-0.103
-415.428	-41.478	-0.270	0.137
-414.413	-124.625	0.393	0.060
-413.398	37.351	-0.035	-0.031
-412.384	-200.000	0.065	-0.440
-411.369	268.638	-0.173	-0.299
-410.355	675.970	-0.067	-0.173
-409.340	800.000	0.033	0.101
-408.325	-146.361	0.248	-0.021
-407.311	596.305	0.125	0.306
-406.296	-121.437	-0.027	0.004
-405.282	359.449	0.088	-0.175
-404.267	-21.777	0.170	-0.102
-403.252	-98.254	-0.307	-0.078
-402.238	-200.000	0.007	-0.445
-401.223	-90.241	0.383	0.110
-400.209	-10.964	-0.185	-0.121
-399.194	301.012	-0.096	-0.176
-398.179	-200.000	0.001	0.056
-397.165	787.948	0.085	0.232
-396.150	-156.372	0.231	0.014
-395.136	303.906	0.086	-0.157
-394.121	174.400	0.054	0.077
-393.106	34.883	0.270	0.234
-392.092	123.048	-0.056	-0.069
-391.077	-61.596	0.233	0.097
-390.063	611.411	0.095	0.235
-389.048	473.714	0.084	-0.186
-388.033	-120.543	-0.485	0.081
-387.019	-43.601	0.343	0.171
-386.004	303.950	0.059	0.109
-384.990	800.000	-0.020	-0.073
-383.975	-32.137	-0.256	-0.141
-382.960	-78.412	-0.247	0.084
-381.946	-163.252	0.153	-0.007
-380.931	134.786	-0.187	-0.240
-379.917	367.781	0.047	-0.093
-378.902	240.904	-0.225	-0.371
-377.888	186.762	-0.234	0.344
-376.873	130.934	0.145	0.183
-375.858	-152.854	0.471	0.033
-374.844	73.333	-0.160	-0.165
-373.829	-87.260	-0.094	-0.028
-372.815	-84.186	-0.115	0.036
-371.800	-200.000	-0.051	-0.242
-370.785	-127.199	0.061	0.009
-369.771	-200.000	0.006	-0.044
-368.756	128.029	-0.034	-0.043
-367.742	-200.000	-0.028	-0.242
-366.727	514.385	0.061	0.140
-365.712	-6.992	0.069	0.046
-364.698	-93.076	-0.329	-0.090
-363.683	-106.650	-0.094	-0.021
-362.669	54.296	-0.182	-0.173
-361.654	76.927	-0.061	-0.063
-360.639	-144.030	-0.091	0.008
-359.625	137.484	0.063	-0.081
-358.610	-50.285	-0.271	-0.126
-357.596	697.120	0.103	0.268
-356.581	40.353	0.078	0.069
-355.566	58.301	-0.128	0.124
-354.552	-165.609	-0.072	0.003
-353.537	800.000	-0.019	0.076
-352.523	212.493	0.171	0.267
-351.508	-101.389	-0.198	-0.048
-350.493	800.000	0.043	-0.184
-349.479	-200.000	-0.029	-0.171
-348.464	669.105	0.036	0.091
-347.450	800.000	0.030	-0.126
-346.435	-93.311	0.362	0.099
-345.420	-200.000	0.040	-0.205
-344.406	144.770	0.225	-0.297
-343.391	-139.483	-0.167	-0.018
-342.377	383.518	-0.086	-0.175
-341.362	-82.805	0.234	0.074
-340.348	30.450	0.172	0.145
-339.333	247.955	0.127	-0.211
-338.318	-200.000	0.024	-0.151
-337.304	800.000	-0.086	0.352
-336.289	-165.277	0.315	-0.014
-335.275	73.089	0.202	0.208
-334.260	158.368	-0.147	-0.201
-333.245	-200.000	0.014	0.207
-332.231	800.000	-0.072	0.200
-331.216	-200.000	-0.029	0.223
-330.202	-80.979	0.487	-0.159
-329.187	-69.397	0.154	0.058
-328.172	-151.793	0.076	-0.006
-327.158	-190.794	-0.225	-0.002
-326.143	-200.000	0.001	0.188
-325.129	51.624	0.183	-0.172
-324.114	19.213	-0.088	0.069
-323.099	208.828	0.133	0.204
-322.085	-100.890	0.456	-0.110
-321.070	72.811	-0.194	-0.200
-320.056	-46.664	-0.116	-0.056
-319.041	300.644	0.074	0.134
-318.026	193.268	0.078	0.116
-317.012	-177.959	0.178	0.004
-315.997	-11.643	-0.151	-0.098
-314.983	651.716	-0.056	-0.142
-313.968	-200.000	-0.024	-0.137
-312.953	-200.000	-0.064	0.295
-311.939	-200.000	0.035	0.282
-310.924	63.031	0.095	-0.094
-309.910	125.960	-0.071	0.088
-308.895	-71.880	-0.169	-0.062
-307.880	44.945	0.163	-0.148
-306.866	-200.000	0.010	-0.262
-305.851	-200.000	0.072	0.340
-304.837	-33.069	-0.280	0.153
-303.822	196.231	-0.223	-0.334
-302.807	-164.376	-0.177	-0.008
-301.793	800.000	-0.163	0.569
-300.778	42.513	-0.073	-0.066
-299.764	-138.107	-0.317	0.035
-298.749	144.569	0.117	0.153
-297.735	-68.600	-0.077	0.029
-296.720	174.857	0.090	-0.128
-295.705	327.325	0.208	-0.393
-294.691	800.000	-0.023	-0.067
-293.676	-200.000	0.001	-0.218
-292.662	800.000	-0.014	0.058
-291.647	-200.000	0.015	-0.076
-290.632	800.000	0.078	0.240
-289.618	-6.764	0.137	-0.091
-288.603	-52.240	-0.244	0.111
-287.589	-200.000	-0.054	0.293
-286.574	40.055	-0.057	0.050
-285.559	-200.000	-0.012	-0.062
-284.545	800.000	0.067	0.236
-283.530	-188.865	0.027	-0.000
-282.516	179.950	0.233	0.336
-281.501	41.078	0.191	0.170
-280.486	800.000	-0.067	-0.252
-279.472	-16.531	0.387	-0.241
-278.457	-5.628	-0.063	0.042
-277.443	-116.930	-0.154	-0.028
-276.428	-52.171	-0.155	-0.071
-275.413	-76.812	0.214	0.074
-274.399	272.011	0.026	0.046
-273.384	-200.000	-0.017	0.095
-272.370	33.212	-0.173	-0.148
-271.355	-173.996	0.257	-0.007
-270.340	110.696	0.137	0.162
-269.326	-200.000	-0.025	0.212
-268.311	-36.564	-0.157	-0.083
-267.297	69.305	0.329	-0.333
-266.282	-200.000	-0.000	-0.588
-265.267	300.112	0.106	-0.192
-264.253	-200.000	0.008	-0.209
-263.238	800.000	0.004	0.013
-262.224	-28.554	-0.175	-0.099
-261.209	-200.000	0.014	0.079
-260.195	130.540	0.154	-0.194
-259.180	-145.818	0.049	-0.004
-258.165	199.251	0.065	-0.098
-257.151	115.890	0.225	-0.271
-256.136	-50.786	0.144	-0.066
-255.122	139.413	-0.170	-0.220
-254.107	7.264	0.215	0.158
-253.092	-200.000	-0.029	-0.221
-252.078	-172.539	-0.287	0.009
-251.063	-134.148	-0.036	-0.004
-250.049	-137.323	-0.123	0.014
-249.034	800.000	-0.053	0.146
-248.019	500.983	-0.048	0.109
-247.005	80.697	-0.091	0.097
-245.990	-200.000	-0.069	0.317
-244.976	12.504	-0.165	-0.125
-243.961	-139.554	0.266	-0.028
-242.946	42.804	0.287	0.257
-241.932	800.000	-0.108	-0.405
-240.917	-71.007	-0.228	-0.084
-239.903	121.819	-0.218	0.267
-238.888	68.663	-0.161	0.162
-237.873	-56.865	-0.064	-0.028
-236.859	-200.000	-0.006	-0.090
-235.844	-200.000	0.039	-0.183
-234.830	-91.877	0.295	-0.082
-233.815	76.860	-0.213	0.222
-232.800	-5.222	-0.038	0.026
-231.786	-200.000	0.035	0.333
-230.771	-113.153	-0.381	0.074
-229.757	-18.858	0.121	0.074
-228.742	-31.401	0.116	0.064
-227.727	-136.498	-0.166	-0.019
-226.713	-94.371	0.185	-0.050
-225.698	21.453	-0.165	0.132
-224.684	147.016	0.157	0.207
-223.669	-200.000	0.002	0.116
-222.655	-200.000	-0.031	-0.173
-221.640	-87.541	-0.196	-0.058
-220.625	-3.712	-0.067	0.046
-219.611	-36.565	0.198	0.105
-218.596	-200.000	0.004	-0.177
-217.582	-130.692	0.434	0.057
-216.567	617.011	-0.061	0.149
-215.552	488.308	0.067	-0.151
-214.538	-23.105	0.102	0.060
-213.523	-118.631	-0.194	-0.034
-212.509	491.186	0.093	0.208
-211.494	-156.196	0.314	-0.019
-210.479	40.397	-0.141	-0.125
-209.465	52.920	-0.174	0.163
-208.450	-200.000	0.000	-0.091
-207.436	-0.284	-0.101	-0.071
-206.421	-103.762	0.202	-0.046
-205.406	-200.000	0.000	-0.073
-204.392	-18.795	-0.241	-0.147
-203.377	-200.000	0.002	0.173
-202.363	800.000	-0.097	0.328
-201.348	-55.758	0.240	0.105
-200.333	-110.800	0.194	-0.039
-199.319	-131.611	-0.483	0.062
-198.304	119.176	-0.171	0.207
-197.290	-200.000	0.005	0.205
-196.275	800.000	-0.037	-0.157
-195.260	-14.141	0.204	0.129
-194.246	800.000	0.101	0.295
-193.231	800.000	0.047	0.189
-192.217	-25.504	-0.277	-0.160
-191.202	27.367	-0.007	0.006
-190.187	-67.588	0.169	0.065
-189.173	800.000	0.043	-0.159
-188.158	-93.293	0.190	-0.052
-187.144	800.000	-0.035	0.138
-186.129	-200.000	-0.001	-0.092
-185.114	-200.000	-0.033	-0.447
-184.100	-200.000	-0.047	0.000
-183.085	-183.342	-0.123	0.002
-182.071	314.643	-0.095	0.176
-181.056	246.829	0.033	-0.055
-180.042	-140.998	0.122	0.012
-179.027	175.478	0.086	0.121
-178.012	155.827	0.174	-0.235
-176.998	800.000	-0.093	0.339
-175.983	-102.308	0.457	0.107
-174.969	-173.626	-0.141	-0.004
-173.954	160.588	0.091	-0.125
-172.939	-18.602	-0.329	-0.201
-171.925	-194.727	-0.042	-0.000
-170.910	654.554	-0.111	0.278
-169.896	-104.446	0.232	-0.053
-168.881	296.033	0.031	0.055
-167.866	459.652	-0.141	0.306
-166.852	-85.660	0.143	0.043
-165.837	353.139	-0.154	0.299
-164.823	66.276	-0.149	-0.148
-163.808	800.000	0.027	-0.079
-162.793	-200.000	0.018	0.271
-161.779	104.795	-0.132	-0.153
-160.764	107.946	0.052	-0.060
-159.750	-200.000	0.016	-0.183
-158.735	-60.167	0.313	-0.130
-157.720	141.881	0.102	-0.132
-156.706	441.939	0.066	0.142
-155.691	205.654	-0.110	0.168
-154.677	110.218	0.210	-0.246
-153.662	-84.274	0.148	-0.046
-152.647	435.946	0.249	-0.530
-151.633	-62.450	-0.038	-0.015
-150.618	-171.856	0.176	-0.006
-149.604	115.540	-0.168	0.201
-148.589	-46.684	0.314	0.151
-147.574	800.000	-0.069	0.247
-146.560	78.501	0.076	0.080
-145.545	169.492	-0.164	-0.230
-144.531	98.529	0.261	0.294
-143.516	-200.000	-0.021	-0.105
-142.502	800.000	-0.095	0.291
-141.487	113.525	0.203	-0.241
-140.472	673.940	-0.093	-0.235
-139.458	6.832	-0.144	-0.105
-138.443	-38.165	0.310	0.161
-137.429	-30.218	0.311	0.173
-136.414	36.030	-0.130	-0.112
-135.399	5.966	0.026	0.019
-134.385	120.194	0.079	0.096
-133.370	-8.582	-0.098	-0.065
-132.356	37.278	0.233	0.202
-131.341	800.000	0.008	0.034
-130.326	-15.123	-0.327	-0.205
-129.312	292.934	0.034	0.061
-128.297	800.000	-0.057	-0.169
-127.283	-200.000	-0.040	-0.179
-126.268	-81.055	0.219	-0.071
-125.253	800.000	-0.090	-0.266
-124.239	534.930	-0.051	-0.119
-123.224	-133.304	-0.301	-0.037
-122.210	51.518	0.165	-0.153
-121.195	-104.294	-0.089	0.020
