DTS Sentinel unit serial number:	SN413079Multiplexer serial number:	ORYXHardware model number:	OX4-SRSoftware version number:	ORYX F/W v4.00 Oryx Data Collector v3.7.2.0data status	okinstallation	princeton_trtdifferential loss correction	single-endedforward channel	channel 3reverse channel	N/Adate	2019/09/15time	08:12:35forward acquisition time	60.00reverse acquisition time	0.00gamma	496.2192k internal	0.2322k external	0.2322temperature offset calibration	0.9979default loss term (dB/km)	0.3790temperature slope calibration	1.0000multiplexer offset coefficient	1.0000multiplexer slope coefficient	1.0000fibre end	0.00T internal ref (°C)	31.00T ext. ref 1 (°C)	4.99T ext. ref 2 (°C)	27.91length (m)	temperature (°C)	Stokes	anti-Stokes-747.200	101.639	-0.170	-0.200
-746.185	46.219	-0.143	0.134
-745.171	-113.038	0.228	-0.046
-744.156	-23.580	-0.298	-0.181
-743.142	-174.374	0.133	-0.004
-742.127	114.537	0.136	0.167
-741.112	-50.025	0.068	0.033
-740.098	800.000	-0.122	0.481
-739.083	-121.104	-0.306	-0.052
-738.069	9.998	0.174	-0.133
-737.054	204.503	0.079	0.124
-736.039	-77.566	-0.164	-0.058
-735.025	106.812	-0.079	0.095
-734.010	-83.649	-0.178	-0.057
-732.996	-133.605	-0.377	0.048
-731.981	800.000	-0.039	0.152
-730.966	-89.581	0.017	0.005
-729.952	-62.901	-0.133	-0.055
-728.937	-3.320	-0.203	-0.143
-727.923	-116.574	-0.119	-0.022
-726.908	130.369	0.163	-0.211
-725.894	-200.000	-0.011	-0.207
-724.879	-22.337	-0.239	-0.146
-723.864	-200.000	-0.014	-0.266
-722.850	130.609	0.156	-0.202
-721.835	800.000	0.136	-0.420
-720.821	238.223	-0.123	-0.206
-719.806	-52.320	0.188	0.088
-718.791	148.861	-0.174	0.238
-717.777	125.468	0.062	-0.079
-716.762	-200.000	0.040	-0.241
-715.748	-104.955	0.292	-0.068
-714.733	654.432	0.074	-0.192
-713.718	-92.947	0.066	-0.019
-712.704	800.000	-0.048	-0.182
-711.689	99.765	-0.129	0.151
-710.675	112.843	0.191	0.234
-709.660	-101.564	0.046	-0.011
-708.645	-200.000	0.017	-0.246
-707.631	62.818	0.060	-0.061
-706.616	55.347	0.321	0.313
-705.602	-4.321	-0.142	-0.099
-704.587	-200.000	0.050	-0.226
-703.572	436.184	0.130	0.285
-702.558	126.539	-0.374	-0.478
-701.543	-2.545	-0.187	-0.132
-700.529	-86.802	0.239	-0.074
-699.514	347.617	0.009	0.018
-698.499	37.776	0.154	-0.138
-697.485	-134.715	-0.155	-0.019
-696.470	278.528	-0.072	0.130
-695.456	800.000	-0.026	0.113
-694.441	-98.795	-0.196	0.050
-693.426	2.700	-0.179	-0.131
-692.412	30.212	-0.405	0.349
-691.397	-200.000	-0.029	-0.223
-690.383	-109.149	-0.292	-0.063
-689.368	-103.996	0.101	-0.024
-688.354	-71.151	-0.130	0.049
-687.339	-200.000	-0.007	-0.145
-686.324	-78.894	-0.292	-0.100
-685.310	20.598	-0.275	-0.224
-684.295	494.773	-0.077	-0.179
-683.281	-12.824	0.148	-0.097
-682.266	-69.367	0.346	-0.134
-681.251	646.248	0.049	0.125
-680.237	366.924	-0.059	0.119
-679.222	-200.000	-0.033	0.351
-678.208	-200.000	0.012	-0.178
-677.193	99.837	0.137	-0.160
-676.178	-40.940	0.096	-0.050
-675.164	52.136	-0.235	-0.226
-674.149	-14.183	0.148	0.096
-673.135	161.969	-0.051	-0.072
-672.120	-83.920	0.321	-0.103
-671.105	-106.981	0.079	-0.018
-670.091	10.299	0.214	0.164
-669.076	-200.000	0.037	-0.296
-668.062	39.677	-0.168	-0.152
-667.047	800.000	0.171	-0.480
-666.032	-152.810	0.088	-0.006
-665.018	-141.582	-0.158	0.016
-664.003	800.000	-0.072	0.203
-662.989	18.176	0.108	0.087
-661.974	-116.116	-0.292	-0.055
-660.959	4.907	0.205	-0.152
-659.945	-31.432	0.196	-0.111
-658.930	-31.464	0.360	0.204
-657.916	48.276	0.123	-0.116
-656.901	-200.000	-0.044	-0.269
-655.886	-200.000	-0.025	0.216
-654.872	-89.439	0.333	-0.099
-653.857	-200.000	0.026	0.121
-652.843	-200.000	0.025	-0.279
-651.828	-130.475	-0.482	-0.066
-650.814	183.824	-0.076	-0.112
-649.799	-158.904	-0.168	0.010
-648.784	27.957	0.143	-0.122
-647.770	88.415	-0.028	-0.031
-646.755	198.400	0.069	0.106
-645.741	-200.000	0.010	-0.392
-644.726	-118.910	0.269	-0.047
-643.711	-17.229	-0.197	0.125
-642.697	-90.554	-0.076	-0.022
-641.682	108.159	-0.147	-0.176
-640.668	53.410	-0.131	-0.126
-639.653	-97.773	0.181	0.047
-638.638	84.549	-0.163	-0.179
-637.624	34.867	0.283	0.249
-636.609	83.074	-0.297	0.325
-635.595	-81.857	-0.459	-0.151
-634.580	-200.000	-0.027	-0.349
-633.565	-131.524	-0.241	-0.032
-632.551	-200.000	-0.010	-0.503
-631.536	-147.615	0.096	0.008
-630.522	800.000	0.015	0.050
-629.507	-83.427	-0.251	-0.081
-628.492	185.038	0.213	0.318
-627.478	-32.745	-0.082	-0.046
-626.463	-15.422	0.075	-0.048
-625.449	-108.424	-0.346	-0.075
-624.434	780.294	-0.030	-0.082
-623.419	-200.000	0.017	0.112
-622.405	-118.754	-0.201	-0.036
-621.390	-200.000	0.019	-0.095
-620.376	144.094	-0.197	-0.264
-619.361	-200.000	0.022	-0.343
-618.346	-86.591	-0.171	0.053
-617.332	-126.376	-0.430	-0.064
-616.317	-116.617	0.386	-0.071
-615.303	-200.000	-0.032	-0.484
-614.288	-200.000	0.012	-0.178
-613.273	309.873	-0.058	0.109
-612.259	-137.274	-0.105	-0.012
-611.244	-200.000	0.003	-0.171
-610.230	228.271	0.128	-0.210
-609.215	376.437	0.170	0.349
-608.201	-69.524	0.247	-0.095
-607.186	-106.503	-0.414	0.093
-606.171	-43.554	0.437	0.222
-605.157	95.122	-0.124	0.141
-604.142	-200.000	0.011	-0.268
-603.128	-26.061	0.188	0.111
-602.113	620.450	-0.039	0.099
-601.098	-129.900	-0.234	0.032
-600.084	-178.825	0.196	0.004
-599.069	-18.457	-0.203	-0.127
-598.055	301.838	-0.034	0.063
-597.040	328.620	-0.073	0.141
-596.025	-41.990	-0.112	0.057
-595.011	553.456	0.133	-0.321
-593.996	-49.731	-0.327	-0.156
-592.982	-82.734	-0.130	-0.042
-591.967	309.799	-0.141	0.265
-590.952	110.118	0.154	0.186
-589.938	163.018	-0.212	0.299
-588.923	252.339	0.114	-0.195
-587.909	-70.342	-0.140	-0.053
-586.894	-200.000	-0.022	0.278
-585.879	-194.556	-0.275	-0.002
-584.865	328.461	-0.028	-0.053
-583.850	-42.272	0.254	0.130
-582.836	-44.908	0.076	-0.038
-581.821	-19.993	0.300	0.186
-580.806	406.408	-0.066	-0.139
-579.792	-8.130	-0.082	0.056
-578.777	-200.000	0.067	-0.389
-577.763	-156.020	0.103	0.007
-576.748	-4.124	-0.081	0.057
-575.733	-124.015	0.116	0.018
-574.719	-200.000	0.038	-0.261
-573.704	132.483	-0.227	-0.293
-572.690	130.816	0.095	-0.122
-571.675	-200.000	0.075	-0.370
-570.661	-200.000	0.007	-0.178
-569.646	-69.822	-0.114	0.044
-568.631	-200.000	0.046	0.308
-567.617	-25.985	-0.263	0.155
-566.602	218.384	-0.013	0.021
-565.588	800.000	-0.081	0.270
-564.573	48.310	0.091	0.085
-563.558	-17.468	-0.214	0.135
-562.544	-88.594	0.194	-0.058
-561.529	-85.804	-0.194	0.060
-560.515	-118.882	0.184	0.032
-559.500	122.065	-0.079	0.099
-558.485	-60.578	0.287	-0.122
-557.471	35.139	0.080	0.071
-556.456	-117.450	0.338	-0.061
-555.442	379.687	-0.140	0.287
-554.427	-200.000	0.146	0.001
-553.412	-200.000	-0.021	0.174
-552.398	-112.085	0.190	0.038
-551.383	114.899	0.133	-0.163
-550.369	262.373	0.125	0.217
-549.354	-126.910	-0.046	-0.007
-548.339	-7.095	-0.327	0.222
-547.325	154.165	-0.186	0.255
-546.310	-33.262	0.076	-0.042
-545.296	-22.045	-0.182	0.111
-544.281	-136.105	0.047	-0.006
-543.266	-6.759	-0.090	-0.061
-542.252	-147.418	-0.554	0.047
-541.237	800.000	0.043	-0.134
-540.223	201.604	0.009	0.013
-539.208	40.386	-0.382	-0.344
-538.193	205.314	0.058	-0.090
-537.179	195.626	0.132	0.201
-536.164	800.000	0.090	0.281
-535.150	-154.956	0.229	-0.015
-534.135	-56.081	-0.160	-0.071
-533.121	-200.000	0.012	0.249
-532.106	-36.023	-0.133	-0.072
-531.091	800.000	0.081	0.276
-530.077	-200.000	-0.017	-0.099
-529.062	278.754	-0.085	-0.151
-528.048	-200.000	0.001	-0.010
-527.033	-18.073	0.331	-0.208
-526.018	-200.000	-0.006	-0.064
-525.004	-99.202	0.141	0.036
-523.989	649.637	0.101	-0.258
-522.975	-131.715	0.157	-0.021
-521.960	173.618	0.202	0.292
-520.945	74.801	-0.292	0.307
-519.931	558.859	0.034	0.082
-518.916	352.016	-0.061	0.120
-517.902	171.348	0.147	0.212
-516.887	403.196	-0.095	-0.199
-515.872	-113.081	0.204	-0.040
-514.858	18.468	0.300	-0.240
-513.843	530.337	0.054	-0.129
-512.829	282.605	0.064	-0.115
-511.814	-111.395	-0.178	0.036
-510.799	-200.000	-0.020	-0.137
-509.785	-114.849	0.030	-0.006
-508.770	-1.827	0.050	0.035
-507.756	-180.669	0.385	-0.008
-506.741	-118.315	0.396	0.070
-505.726	143.793	0.074	-0.098
-504.712	-20.389	-0.228	0.140
-503.697	-8.205	0.244	0.164
-502.683	2.127	0.133	0.096
-501.668	275.576	0.064	0.114
-500.653	409.375	0.122	0.259
-499.639	-78.006	0.118	0.041
-498.624	100.501	-0.140	-0.163
-497.610	-200.000	0.002	0.263
-496.595	-200.000	0.014	0.183
-495.581	131.380	0.053	-0.068
-494.566	-200.000	0.015	0.250
-493.551	-200.000	-0.035	-0.442
-492.537	482.282	-0.090	-0.205
-491.522	583.751	0.186	0.457
-490.508	-82.309	-0.268	-0.087
-489.493	-200.000	-0.049	0.254
-488.478	800.000	0.042	0.181
-487.464	599.541	0.109	0.271
-486.449	-200.000	0.028	-0.300
-485.435	-200.000	-0.002	0.041
-484.420	-99.432	0.411	0.104
-483.405	723.095	0.081	-0.216
-482.391	21.673	-0.080	0.065
-481.376	-26.457	0.132	-0.077
-480.362	-101.486	0.415	0.101
-479.347	-200.000	-0.008	-0.187
-478.332	800.000	0.067	-0.230
-477.318	657.182	-0.018	0.046
-476.303	-200.000	0.012	0.145
-475.289	99.145	0.204	0.236
-474.274	-41.452	-0.373	-0.192
-473.259	397.868	-0.045	0.093
-472.245	143.916	0.117	-0.156
-471.230	626.954	0.101	0.256
-470.216	-23.640	0.292	0.175
-469.201	28.820	-0.281	0.238
-468.186	80.999	0.009	-0.010
-467.172	-200.000	0.049	-0.231
-466.157	-153.202	-0.314	-0.022
-465.143	-200.000	-0.003	0.079
-464.128	-93.021	0.312	-0.087
-463.113	-118.428	-0.380	-0.067
-462.099	-85.094	-0.227	0.071
-461.084	-200.000	0.003	-0.054
-460.070	-200.000	0.002	-0.227
-459.055	-71.065	-0.142	-0.053
-458.040	104.650	-0.031	-0.036
-457.026	203.868	0.212	0.328
-456.011	275.354	-0.068	-0.120
-454.997	-63.792	-0.330	-0.135
-453.982	-169.132	0.519	-0.019
-452.968	-127.754	0.338	-0.049
-451.953	-94.854	-0.353	0.095
-450.938	667.043	-0.172	0.445
-449.924	204.363	0.117	0.181
-448.909	88.709	-0.281	0.312
-447.895	-90.285	0.240	-0.070
-446.880	66.884	-0.119	-0.121
-445.865	-1.021	-0.161	0.113
-444.851	-113.116	0.226	-0.045
-443.836	-129.595	-0.318	-0.044
-442.822	-50.675	0.265	-0.125
-441.807	-69.316	0.155	0.059
-440.792	800.000	-0.084	0.356
-439.778	-165.002	-0.169	-0.008
-438.763	800.000	-0.024	0.097
-437.749	800.000	0.174	-0.528
-436.734	-200.000	-0.024	-0.167
-435.719	122.644	-0.100	-0.124
-434.705	800.000	0.175	-0.557
-433.690	800.000	-0.097	0.321
-432.676	-48.481	0.274	-0.132
-431.661	-103.829	0.245	-0.057
-430.646	-200.000	-0.004	0.140
-429.632	-71.356	0.019	-0.007
-428.617	-123.956	0.293	0.046
-427.603	103.362	0.120	0.141
-426.588	-8.583	0.181	-0.121
-425.573	-11.094	-0.170	-0.112
-424.559	-200.000	0.017	0.085
-423.544	-200.000	-0.033	0.292
-422.530	-111.408	0.171	0.035
-421.515	-200.000	-0.012	-0.379
-420.500	-137.297	-0.050	-0.006
-419.486	97.758	0.241	0.276
-418.471	258.734	-0.094	-0.161
-417.457	170.924	0.307	-0.438
-416.442	56.936	-0.156	-0.152
-415.428	800.000	-0.113	0.352
-414.413	498.897	0.173	-0.397
-413.398	-200.000	0.048	-0.260
-412.384	222.256	0.124	-0.199
-411.369	85.262	-0.104	0.114
-410.355	-200.000	-0.019	-0.177
-409.340	800.000	0.115	-0.324
-408.325	94.941	0.081	0.092
-407.311	115.540	-0.092	0.112
-406.296	63.437	-0.292	0.292
-405.282	512.765	-0.134	0.311
-404.267	337.898	0.103	-0.199
-403.252	-98.644	-0.192	-0.049
-402.238	-200.000	-0.002	0.170
-401.223	-148.290	-0.284	0.023
-400.209	201.144	0.175	0.269
-399.194	-99.873	-0.257	0.064
-398.179	-32.278	-0.346	-0.193
-397.165	-200.000	0.049	0.273
-396.150	294.341	0.065	0.119
-395.136	800.000	0.073	0.308
-394.121	79.459	0.193	0.207
-393.106	234.628	0.114	0.187
-392.092	800.000	-0.040	0.133
-391.077	800.000	-0.048	0.165
-390.063	-98.655	-0.189	-0.048
-389.048	-200.000	0.056	-0.319
-388.033	23.561	0.094	0.077
-387.019	-122.642	-0.107	0.017
-386.004	-87.886	-0.143	-0.043
-384.990	800.000	0.043	-0.147
-383.975	395.201	-0.085	0.177
-382.960	55.804	-0.113	-0.109
-381.946	-200.000	-0.038	0.198
-380.931	-68.209	0.155	-0.060
-379.917	-48.822	-0.404	-0.193
-378.902	318.250	0.180	-0.340
-377.888	276.495	-0.139	0.245
-376.873	-17.303	0.195	0.122
-375.858	28.310	0.076	-0.064
-374.844	800.000	-0.094	0.267
-373.829	322.964	0.093	-0.177
-372.815	-200.000	0.041	-0.208
-371.800	-99.478	0.381	0.096
-370.785	-173.687	-0.066	0.002
-369.771	-64.912	-0.221	0.089
-368.756	800.000	0.039	0.165
-367.742	-160.917	0.368	-0.019
-366.727	-175.388	-0.214	0.006
-365.712	-149.788	-0.264	-0.021
-364.698	266.765	0.050	-0.088
-363.683	800.000	0.100	0.278
-362.669	203.785	-0.098	0.151
-361.654	-61.696	-0.092	0.039
-360.639	73.589	-0.206	-0.215
-359.625	64.739	-0.128	-0.129
-358.610	29.298	-0.291	-0.246
-357.596	-162.940	0.199	0.010
-356.581	800.000	-0.020	-0.062
-355.566	-174.753	-0.022	-0.001
-354.552	-197.518	0.114	-0.001
-353.537	-122.243	0.336	-0.055
-352.523	-200.000	0.157	-0.717
-351.508	-200.000	0.000	0.077
-350.493	-102.198	-0.065	-0.016
-349.479	-112.923	0.106	0.021
-348.464	-200.000	0.010	-0.076
-347.450	-66.907	-0.025	-0.010
-346.435	-126.134	0.328	-0.049
-345.420	-93.775	-0.275	0.075
-344.406	-200.000	0.025	0.159
-343.391	800.000	0.089	0.292
-342.377	-101.484	0.357	0.086
-341.362	-200.000	-0.017	-0.223
-340.348	155.603	-0.180	0.246
-339.333	-119.440	-0.080	0.014
-338.318	-94.793	-0.215	-0.058
-337.304	85.511	-0.167	-0.182
-336.289	-90.942	-0.263	-0.075
-335.275	-120.457	0.194	-0.033
-334.260	-60.805	0.260	0.110
-333.245	-200.000	0.008	-0.300
-332.231	-92.594	0.046	-0.013
-331.216	3.698	0.153	0.111
-330.202	616.417	0.145	-0.361
-329.187	766.976	0.102	-0.276
-328.172	202.958	-0.176	-0.270
-327.158	25.325	0.086	-0.071
-326.143	-200.000	-0.097	0.509
-325.129	-74.300	0.164	-0.059
-324.114	-48.146	0.315	-0.151
-323.099	800.000	-0.061	0.234
-322.085	-48.449	-0.153	-0.073
-321.070	233.928	0.233	0.381
-320.056	507.419	-0.040	0.093
-319.041	-66.729	-0.435	0.171
-318.026	-49.401	-0.228	0.108
-317.012	-98.548	0.226	0.057
-315.997	-158.862	-0.210	0.012
-314.983	-158.120	0.224	0.013
-313.968	-66.459	0.072	-0.028
-312.953	154.628	0.182	-0.248
-311.939	800.000	-0.048	0.179
-310.924	-83.302	0.091	0.029
-309.910	251.006	0.108	0.182
-308.895	800.000	0.092	0.297
-307.880	-152.605	-0.201	0.014
-306.866	-117.299	-0.101	-0.018
-305.851	-13.473	0.184	0.118
-304.837	-20.232	0.183	0.112
-303.822	-56.513	-0.060	-0.027
-302.807	793.034	0.047	0.129
-301.793	-101.801	0.192	-0.046
-300.778	-200.000	-0.024	0.301
-299.764	-85.690	-0.041	-0.013
-298.749	-128.378	0.184	0.026
-297.735	185.648	-0.171	0.253
-296.720	-93.564	-0.127	0.035
-295.705	-112.545	0.359	0.071
-294.691	-0.013	0.028	-0.020
-293.676	800.000	0.041	0.144
-292.662	-200.000	0.022	-0.319
-291.647	800.000	0.074	0.210
-290.632	44.412	0.256	-0.233
-289.618	-133.003	-0.193	0.024
-288.603	-200.000	-0.017	-0.211
-287.589	-200.000	-0.030	0.140
-286.574	800.000	0.010	0.035
-285.559	-58.131	-0.178	0.077
-284.545	-44.703	0.171	-0.085
-283.530	-200.000	-0.363	-0.001
-282.516	71.245	-0.062	0.063
-281.501	-36.346	-0.412	0.220
-280.486	49.430	-0.192	0.179
-279.472	33.610	0.177	-0.152
-278.457	800.000	-0.081	0.282
-277.443	75.228	0.025	-0.026
-276.428	-21.696	-0.330	-0.199
-275.413	151.119	-0.145	0.196
-274.399	-200.000	-0.077	0.391
-273.384	-200.000	0.094	0.419
-272.370	-74.036	-0.094	0.034
-271.355	-135.137	-0.013	0.002
-270.340	-17.128	-0.330	0.207
-269.326	-111.515	0.251	0.051
-268.311	-200.000	0.014	-0.108
-267.297	146.534	0.121	-0.161
-266.282	-196.526	0.026	-0.000
-265.267	56.752	-0.227	-0.219
-264.253	-3.009	-0.162	0.112
-263.238	-102.288	0.306	-0.073
-262.224	-30.395	0.040	0.022
-261.209	9.869	-0.184	-0.138
-260.195	-200.000	-0.006	-0.054
-259.180	303.635	-0.136	-0.250
-258.165	800.000	0.054	-0.235
-257.151	800.000	-0.019	0.071
-256.136	236.610	-0.316	0.518
-255.122	-135.275	-0.428	0.051
-254.107	-21.200	-0.124	-0.075
-253.092	-96.103	0.111	-0.029
-252.078	-73.907	0.176	0.063
-251.063	333.190	-0.086	-0.165
-250.049	223.162	-0.037	0.059
-249.034	-200.000	0.067	0.482
-248.019	127.795	-0.164	-0.206
-247.005	-43.197	-0.114	-0.057
-245.990	-23.640	0.169	-0.100
-244.976	-86.237	-0.251	-0.077
-243.961	-200.000	0.060	0.418
-242.946	-63.943	0.235	0.095
-241.932	-86.618	0.255	-0.077
-240.917	-40.738	0.189	0.097
-239.903	-184.869	0.153	-0.002
-238.888	-88.692	0.177	0.052
-237.873	-41.055	-0.250	0.128
-236.859	800.000	0.047	-0.147
-235.844	-200.000	0.064	-0.322
-234.830	723.405	0.025	-0.066
-233.815	800.000	-0.130	0.435
-232.800	163.603	-0.110	0.153
-231.786	149.539	0.132	-0.177
-230.771	-122.685	-0.103	-0.017
-229.757	45.284	-0.288	0.263
-228.742	-122.481	-0.050	-0.008
-227.727	8.401	-0.251	-0.187
-226.713	-155.838	0.565	0.036
-225.698	181.519	-0.170	-0.247
-224.684	-200.000	-0.003	-0.192
-223.669	168.035	0.178	0.251
-222.655	53.711	0.222	-0.210
-221.640	-72.482	-0.181	-0.066
-220.625	-18.755	0.014	-0.008
-219.611	40.958	-0.182	0.163
-218.596	-85.719	0.364	-0.112
-217.582	-17.945	0.356	-0.221
-216.567	-129.015	0.052	0.007
-215.552	-57.195	-0.387	-0.168
-214.538	-200.000	0.062	0.437
-213.523	800.000	-0.094	-0.338
-212.509	12.928	0.333	0.255
-211.494	800.000	0.041	0.161
-210.479	-200.000	-0.018	0.130
-209.465	-97.761	0.226	-0.058
-208.450	135.953	0.158	-0.204
-207.436	28.321	-0.083	-0.069
-206.421	-200.000	0.060	-0.367
-205.406	-22.987	-0.115	-0.068
-204.392	276.371	-0.058	0.101
-203.377	83.504	-0.136	-0.146
-202.363	-148.912	0.085	-0.007
-201.348	-200.000	-0.034	-0.191
-200.333	33.546	0.118	0.101
-199.319	-200.000	0.003	0.179
-198.304	-115.763	0.223	0.041
-197.290	-73.258	0.118	-0.043
-196.275	122.840	0.030	-0.037
-195.260	-200.000	-0.038	-0.314
-194.246	-32.948	-0.065	-0.035
-193.231	21.370	0.157	-0.126
-192.217	-11.266	0.161	0.105
-191.202	-14.937	-0.373	0.236
-190.187	4.658	0.257	0.187
-189.173	11.155	0.268	-0.203
-188.158	-63.098	-0.520	0.212
-187.144	186.206	-0.188	-0.276
-186.129	-124.901	0.289	0.044
-185.114	127.205	-0.306	0.383
-184.100	-3.906	-0.092	-0.063
-183.085	-85.832	-0.223	-0.068
-182.071	590.378	-0.022	-0.053
-181.056	32.162	-0.143	-0.122
-180.042	-153.097	0.327	-0.023
-179.027	514.125	0.024	-0.056
-178.012	432.131	-0.086	-0.185
-176.998	131.368	0.279	-0.354
-175.983	-149.273	-0.244	-0.019
-174.969	29.252	0.121	0.101
-173.954	198.252	0.100	-0.151
-172.939	-200.000	0.040	0.197
-171.925	800.000	0.036	-0.148
-170.910	301.119	0.032	0.058
-169.896	-55.848	-0.489	0.216
-168.881	429.721	-0.108	0.231
-167.866	-154.469	0.133	0.009
-166.852	800.000	0.098	-0.378
-165.837	3.402	0.248	-0.178
-164.823	121.558	-0.086	-0.106
-163.808	-45.165	-0.221	0.108
-162.793	-184.749	0.255	-0.004
-161.779	364.365	-0.068	-0.134
-160.764	289.903	0.131	-0.234
-159.750	-200.000	-0.043	-0.300
-158.735	-136.338	0.210	-0.024
-157.720	159.826	-0.145	-0.200
-156.706	-91.711	-0.142	-0.040
-155.691	-69.513	-0.076	0.029
-154.677	-177.986	-0.396	0.009
-153.662	103.099	-0.240	-0.278
-152.647	-4.131	0.154	-0.105
-151.633	-76.452	-0.148	0.051
-150.618	800.000	-0.075	-0.290
-149.604	-26.620	-0.275	-0.159
-148.589	-29.499	0.093	0.052
-147.574	-200.000	0.010	0.139
-146.560	-124.341	0.088	0.014
-145.545	-132.348	-0.259	-0.033
-144.531	170.507	-0.136	0.192
-143.516	370.054	-0.139	-0.278
-142.502	-200.000	-0.045	0.209
-141.487	163.179	-0.066	0.092
-140.472	-11.173	0.015	-0.010
-139.458	800.000	-0.060	0.196
-138.443	273.427	0.137	-0.238
-137.429	768.412	-0.088	0.237
-136.414	421.020	0.149	0.316
-135.399	-200.000	0.027	-0.159
-134.385	-67.185	0.271	-0.105
-133.370	-42.987	0.271	-0.135
-132.356	246.434	-0.149	0.248
-131.341	123.997	0.109	0.135
-130.326	106.461	-0.132	0.154
-129.312	-99.127	-0.255	0.064
-128.297	67.214	0.152	0.153
-127.283	309.505	-0.190	0.351
-126.268	-133.731	0.077	0.009
-125.253	257.549	0.089	0.150
-124.239	-145.211	0.244	-0.022
-123.224	-56.253	0.181	-0.079
