DTS Sentinel unit serial number:	SN413079Multiplexer serial number:	ORYXHardware model number:	OX4-SRSoftware version number:	ORYX F/W v4.00 Oryx Data Collector v3.7.2.0data status	okinstallation	princeton_trtdifferential loss correction	single-endedforward channel	channel 3reverse channel	N/Adate	2019/09/19time	13:36:35forward acquisition time	60.00reverse acquisition time	0.00gamma	496.2192k internal	0.2325k external	0.2325temperature offset calibration	0.9995default loss term (dB/km)	0.3790temperature slope calibration	1.0000multiplexer offset coefficient	1.0000multiplexer slope coefficient	1.0000fibre end	0.00T internal ref (°C)	30.25T ext. ref 1 (°C)	0.98T ext. ref 2 (°C)	27.33length (m)	temperature (°C)	Stokes	anti-Stokes-747.200	-200.000	0.029	0.143
-746.185	228.066	0.088	-0.144
-745.171	-76.886	0.197	-0.069
-744.156	18.052	-0.407	0.327
-743.142	-200.000	0.003	0.237
-742.127	-106.428	-0.109	0.025
-741.112	47.866	-0.346	-0.326
-740.098	441.362	0.034	0.076
-739.083	8.169	-0.210	0.159
-738.069	-134.322	-0.136	0.017
-737.054	280.553	0.079	-0.143
-736.039	-125.785	-0.039	-0.006
-735.025	-200.000	-0.075	0.333
-734.010	375.786	-0.110	-0.225
-732.996	9.650	-0.193	-0.148
-731.981	580.976	0.075	0.185
-730.966	142.956	-0.119	-0.159
-729.952	-146.907	-0.246	-0.021
-728.937	-48.066	-0.186	0.091
-727.923	21.181	0.110	-0.090
-726.908	-91.854	-0.247	0.071
-725.894	-104.758	-0.299	0.069
-724.879	162.008	0.068	0.097
-723.864	-200.000	-0.035	-0.174
-722.850	20.477	-0.129	-0.105
-721.835	2.855	-0.299	-0.219
-720.821	29.419	-0.122	-0.105
-719.806	-103.604	-0.233	-0.055
-718.791	-53.407	0.198	-0.091
-717.777	537.132	-0.178	-0.425
-716.762	-121.463	-0.224	-0.038
-715.748	-198.258	-0.156	0.001
-714.733	391.795	0.064	0.133
-713.718	-200.000	0.013	-0.147
-712.704	229.951	0.158	-0.259
-711.689	144.785	-0.224	-0.302
-710.675	-200.000	0.024	-0.125
-709.660	-200.000	-0.049	0.237
-708.645	-90.779	-0.113	-0.033
-707.631	456.585	0.182	0.407
-706.616	-30.878	-0.120	0.068
-705.602	155.157	0.112	-0.156
-704.587	154.089	0.063	0.086
-703.572	800.000	0.041	0.165
-702.558	280.086	0.040	0.072
-701.543	-200.000	0.001	-0.266
-700.529	-75.953	0.383	0.136
-699.514	-129.429	0.179	0.025
-698.499	-89.123	-0.279	-0.083
-697.485	-200.000	0.027	-0.202
-696.470	583.921	-0.129	-0.318
-695.456	800.000	0.097	-0.276
-694.441	409.965	-0.115	-0.245
-693.426	-200.000	0.018	-0.105
-692.412	800.000	0.048	0.142
-691.397	-200.000	0.020	-0.188
-690.383	800.000	0.073	-0.252
-689.368	695.776	-0.033	-0.087
-688.354	-200.000	0.025	0.126
-687.339	84.491	-0.328	-0.362
-686.324	-200.000	-0.034	-0.201
-685.310	285.126	0.106	0.192
-684.295	-200.000	0.017	0.240
-683.281	-200.000	0.025	0.189
-682.266	-22.566	-0.257	-0.157
-681.251	-74.054	0.126	0.046
-680.237	-65.493	-0.268	-0.108
-679.222	67.468	0.132	-0.135
-678.208	139.086	-0.189	-0.250
-677.193	-54.304	0.137	0.063
-676.178	157.843	0.019	-0.026
-675.164	-200.000	-0.041	-0.332
-674.149	142.673	-0.174	-0.233
-673.135	-132.262	-0.448	0.058
-672.120	-42.779	0.278	-0.142
-671.105	191.143	-0.199	0.301
-670.091	-200.000	-0.037	-0.238
-669.076	-67.842	0.069	-0.027
-668.062	800.000	-0.029	-0.111
-667.047	-120.785	0.172	0.029
-666.032	-67.207	-0.277	-0.110
-665.018	51.323	0.151	-0.144
-664.003	-127.522	-0.079	0.012
-662.989	27.610	-0.235	0.199
-661.974	265.786	-0.050	-0.087
-660.959	-200.000	0.030	0.139
-659.945	-200.000	0.006	-0.386
-658.930	-200.000	0.007	-0.142
-657.916	382.598	-0.027	0.056
-656.901	-91.259	-0.158	-0.045
-655.886	-83.688	-0.242	0.078
-654.872	-63.646	-0.400	-0.165
-653.857	-200.000	-0.068	-0.325
-652.843	-146.735	0.015	-0.001
-651.828	-58.556	-0.204	-0.089
-650.814	-17.215	-0.138	-0.088
-649.799	15.037	0.115	-0.090
-648.784	-104.191	0.456	-0.107
-647.770	-11.348	-0.277	-0.183
-646.755	800.000	-0.072	-0.237
-645.741	59.411	-0.046	-0.045
-644.726	-15.430	-0.081	-0.052
-643.711	800.000	-0.054	0.176
-642.697	29.177	-0.206	-0.176
-641.682	-10.322	-0.121	0.081
-640.668	40.125	-0.226	-0.204
-639.653	698.749	0.020	-0.054
-638.638	-104.275	-0.107	0.025
-637.624	115.955	0.080	-0.098
-636.609	208.260	-0.110	-0.173
-635.595	272.994	-0.128	-0.228
-634.580	-56.530	-0.184	-0.082
-633.565	325.186	-0.061	0.118
-632.551	-72.086	-0.299	-0.112
-631.536	264.469	-0.146	0.255
-630.522	666.012	-0.057	0.149
-629.507	-93.246	0.144	0.040
-628.492	-200.000	0.051	-0.392
-627.478	-31.295	-0.244	-0.138
-626.463	-117.589	0.023	-0.004
-625.449	603.233	0.045	0.112
-624.434	186.221	-0.253	0.378
-623.419	-45.501	-0.173	0.086
-622.405	-68.188	0.298	-0.116
-621.390	-189.770	0.328	-0.004
-620.376	-108.828	-0.430	0.092
-619.361	566.194	-0.056	-0.137
-618.346	-200.000	0.040	0.222
-617.332	-61.722	0.213	0.090
-616.317	112.444	-0.064	0.078
-615.303	445.379	0.058	-0.127
-614.288	560.715	-0.198	-0.480
-613.273	281.782	0.144	-0.258
-612.259	15.501	-0.200	-0.158
-611.244	-146.378	0.229	-0.020
-610.230	56.345	-0.220	-0.215
-609.215	-200.000	-0.019	0.385
-608.201	278.902	-0.118	0.212
-607.186	-36.762	-0.222	0.119
-606.171	-14.031	0.298	0.193
-605.157	-12.438	0.191	0.125
-604.142	-46.677	0.343	0.169
-603.128	-80.403	0.246	-0.082
-602.113	-72.316	-0.161	0.060
-601.098	236.022	-0.217	0.359
-600.084	-113.027	0.181	0.036
-599.069	-200.000	0.010	-0.078
-598.055	-200.000	0.022	-0.165
-597.040	385.601	-0.252	-0.521
-596.025	417.565	-0.156	-0.334
-595.011	-41.027	-0.078	0.040
-593.996	-161.461	-0.221	-0.011
-592.982	353.674	0.020	-0.040
-591.967	800.000	0.049	0.139
-590.952	800.000	0.029	-0.084
-589.938	521.674	-0.253	-0.597
-588.923	-200.000	-0.003	-0.099
-587.909	800.000	0.075	-0.325
-586.894	51.884	0.059	0.056
-585.879	800.000	-0.014	0.040
-584.865	-12.772	0.050	-0.033
-583.850	800.000	0.121	0.372
-582.836	49.149	-0.273	0.257
-581.821	44.221	0.096	-0.088
-580.806	-173.936	-0.343	-0.010
-579.792	420.926	-0.089	-0.191
-578.777	800.000	0.083	0.348
-577.763	-78.463	-0.109	-0.038
-576.748	58.087	-0.192	0.189
-575.733	353.266	0.160	0.318
-574.719	-53.102	-0.153	-0.071
-573.704	-26.927	0.153	0.089
-572.690	265.172	-0.065	-0.114
-571.675	217.614	0.083	0.132
-570.661	0.488	0.469	-0.336
-569.646	575.202	0.095	0.232
-568.631	360.194	0.139	0.279
-567.617	-105.995	-0.321	0.072
-566.602	127.538	-0.085	0.108
-565.588	-12.051	-0.120	0.079
-564.573	124.301	0.056	-0.071
-563.558	68.124	-0.249	0.255
-562.544	-154.685	-0.170	-0.011
-561.529	58.559	-0.272	-0.267
-560.515	-4.519	0.324	-0.225
-559.500	5.235	0.138	-0.102
-558.485	-181.016	0.204	0.004
-557.471	240.354	-0.009	-0.015
-556.456	-130.794	0.293	-0.039
-555.442	-146.090	-0.201	-0.018
-554.427	-154.578	0.134	-0.009
-553.412	111.793	-0.108	0.130
-552.398	363.766	0.066	-0.133
-551.383	272.923	0.100	0.177
-550.369	90.720	-0.229	-0.257
-549.354	-200.000	0.022	0.126
-548.339	-200.000	0.035	-0.355
-547.325	-54.497	-0.208	-0.094
-546.310	494.518	0.068	0.156
-545.296	97.433	0.031	-0.036
-544.281	-50.029	0.094	0.045
-543.266	-11.182	0.114	-0.075
-542.252	800.000	-0.083	0.277
-541.237	96.044	-0.050	0.058
-540.223	-64.879	0.251	0.102
-539.208	-200.000	0.038	0.408
-538.193	-43.501	-0.169	0.085
-537.179	304.811	-0.022	0.040
-536.164	272.799	-0.045	-0.079
-535.150	-64.667	0.139	-0.057
-534.135	168.369	-0.099	0.141
-533.121	-102.108	-0.361	-0.087
-532.106	-16.167	0.129	-0.082
-531.091	-33.384	-0.196	0.108
-530.077	800.000	0.068	-0.240
-529.062	-160.727	-0.101	0.005
-528.048	766.546	-0.034	0.094
-527.033	14.524	0.286	0.223
-526.018	-100.948	-0.205	-0.050
-525.004	-22.177	0.121	0.074
-523.989	-200.000	-0.018	-0.096
-522.975	2.031	0.231	0.167
-521.960	490.212	0.118	0.270
-520.945	265.141	0.119	-0.208
-519.931	-200.000	-0.001	0.265
-518.916	-200.000	-0.014	-0.096
-517.902	7.665	0.228	-0.171
-516.887	-56.845	-0.240	-0.106
-515.872	-99.082	-0.360	0.091
-514.858	32.116	-0.334	-0.288
-513.843	-110.468	-0.277	0.057
-512.829	-139.698	-0.203	-0.022
-511.814	434.379	-0.062	-0.134
-510.799	-200.000	-0.031	0.254
-509.785	-200.000	0.021	0.103
-508.770	569.556	0.054	0.132
-507.756	420.650	0.067	0.144
-506.741	617.581	0.136	-0.342
-505.726	66.839	-0.156	0.158
-504.712	-45.184	0.200	-0.099
-503.697	346.396	0.153	-0.301
-502.683	-31.678	-0.078	-0.044
-501.668	425.563	-0.181	0.390
-500.653	-200.000	0.039	0.177
-499.639	800.000	0.074	0.284
-498.624	134.495	-0.114	-0.148
-497.610	-200.000	0.066	0.398
-496.595	544.473	-0.030	0.071
-495.581	531.181	-0.074	-0.174
-494.566	44.738	-0.226	-0.208
-493.551	378.990	0.125	0.256
-492.537	182.428	0.157	0.232
-491.522	-200.000	-0.007	0.044
-490.508	43.645	-0.100	0.092
-489.493	27.545	-0.228	0.192
-488.478	-200.000	-0.018	-0.117
-487.464	691.778	0.089	-0.234
-486.449	-55.792	0.178	-0.079
-485.435	-97.720	0.358	0.093
-484.420	127.403	-0.149	-0.189
-483.405	-200.000	0.015	-0.276
-482.391	126.686	-0.261	0.330
-481.376	97.949	0.161	-0.185
-480.362	800.000	-0.027	-0.089
-479.347	800.000	-0.084	-0.339
-478.332	-146.320	-0.185	-0.016
-477.318	340.406	-0.067	-0.130
-476.303	800.000	-0.079	0.291
-475.289	-112.220	-0.105	-0.021
-474.274	-120.164	0.168	0.029
-473.259	37.088	0.172	0.152
-472.245	-63.082	-0.178	-0.073
-471.230	-200.000	0.051	-0.284
-470.216	0.617	-0.273	0.195
-469.201	-200.000	-0.060	0.389
-468.186	-200.000	0.009	-0.278
-467.172	-67.890	0.064	-0.025
-466.157	-45.998	-0.075	0.037
-465.143	341.875	-0.278	-0.543
-464.128	-49.411	-0.188	0.089
-463.113	-41.817	0.062	-0.032
-462.099	-55.897	0.211	0.094
-461.084	-65.228	0.030	-0.012
-460.070	66.975	0.159	0.162
-459.055	368.373	-0.132	0.267
-458.040	156.354	-0.066	-0.091
-457.026	-88.544	-0.386	-0.115
-456.011	138.323	0.139	-0.181
-454.997	800.000	0.048	0.133
-453.982	-174.180	0.226	0.007
-452.968	164.643	0.210	-0.296
-451.953	430.485	-0.045	0.098
-450.938	-60.813	0.309	-0.131
-449.924	-183.557	0.260	0.004
-448.909	-1.834	-0.284	0.200
-447.895	-200.000	-0.025	-0.281
-446.880	66.091	-0.087	-0.088
-445.865	-115.818	-0.115	0.022
-444.851	38.930	-0.181	-0.161
-443.836	-49.913	-0.372	-0.176
-442.822	304.836	0.143	-0.265
-441.807	105.961	-0.045	-0.053
-440.792	-107.907	0.114	0.025
-439.778	-200.000	0.036	-0.199
-438.763	89.237	-0.147	0.163
-437.749	704.628	-0.101	-0.265
-436.734	-15.021	-0.202	0.129
-435.719	8.256	0.141	0.106
-434.705	-61.492	-0.446	-0.187
-433.690	-86.079	0.068	-0.021
-432.676	108.956	-0.101	-0.121
-431.661	-200.000	0.013	-0.445
-430.646	1.511	-0.144	0.103
-429.632	-62.035	-0.028	0.011
-428.617	-55.704	-0.061	-0.027
-427.603	194.711	-0.198	-0.300
-426.588	6.685	0.098	-0.072
-425.573	213.049	0.056	-0.089
-424.559	156.123	0.166	-0.228
-423.544	557.891	-0.182	0.438
-422.530	21.431	-0.240	0.194
-421.515	-106.500	0.163	-0.036
-420.500	-200.000	-0.002	-0.026
-419.486	-131.056	0.095	-0.013
-418.471	168.139	-0.011	0.016
-417.457	-200.000	0.024	-0.261
-416.442	-33.163	0.212	-0.117
-415.428	-65.754	-0.118	-0.047
-414.413	-63.146	0.481	0.198
-413.398	26.111	-0.489	0.407
-412.384	-42.675	-0.144	0.073
-411.369	-140.896	0.148	0.015
-410.355	45.567	-0.129	0.118
-409.340	800.000	-0.030	0.129
-408.325	-67.034	-0.291	-0.114
-407.311	-95.119	0.064	0.017
-406.296	376.055	0.010	0.021
-405.282	-129.297	-0.087	-0.012
-404.267	-200.000	0.010	-0.068
-403.252	-200.000	-0.015	0.204
-402.238	-129.889	-0.143	0.020
-401.223	91.071	-0.147	0.164
-400.209	-113.145	-0.203	-0.040
-399.194	22.053	-0.105	-0.085
-398.179	800.000	0.058	0.181
-397.165	521.983	0.099	0.231
-396.150	-63.085	0.107	0.044
-395.136	143.399	0.259	0.343
-394.121	-110.675	0.182	0.037
-393.106	800.000	-0.106	-0.325
-392.092	247.012	-0.033	-0.055
-391.077	567.870	0.208	-0.503
-390.063	181.212	0.133	-0.194
-389.048	42.830	-0.103	-0.093
-388.033	476.481	0.119	0.268
-387.019	800.000	-0.071	-0.252
-386.004	261.176	-0.105	-0.180
-384.990	586.054	0.177	0.434
-383.975	368.638	0.149	-0.300
-382.960	1.720	-0.141	-0.101
-381.946	118.322	0.093	-0.114
-380.931	756.439	-0.140	0.377
-379.917	-140.514	0.198	0.020
-378.902	109.711	0.119	0.142
-377.888	182.227	-0.076	-0.111
-376.873	-200.000	0.009	0.255
-375.858	140.479	-0.205	0.269
-374.844	-113.812	-0.272	0.053
-373.829	-155.126	0.160	-0.010
-372.815	217.433	0.218	0.346
-371.800	-166.948	-0.156	0.006
-370.785	-100.599	0.361	0.089
-369.771	800.000	0.063	0.271
-368.756	358.845	-0.095	0.190
-367.742	-200.000	-0.035	-0.265
-366.727	175.400	0.131	-0.188
-365.712	-99.507	0.127	0.032
-364.698	-49.608	-0.253	-0.120
-363.683	82.543	-0.184	0.199
-362.669	44.175	0.192	0.175
-361.654	155.595	0.223	0.306
-360.639	139.686	-0.055	0.072
-359.625	-200.000	-0.016	0.081
-358.610	25.477	0.128	-0.106
-357.596	13.759	-0.080	0.062
-356.581	-116.911	0.167	0.030
-355.566	438.128	0.056	-0.121
-354.552	171.207	0.027	-0.038
-353.537	13.449	-0.291	-0.224
-352.523	-83.991	0.179	0.057
-351.508	117.650	0.168	0.205
-350.493	-200.000	-0.015	-0.079
-349.479	125.913	-0.108	0.136
-348.464	436.569	0.087	-0.188
-347.450	278.017	0.078	-0.138
-346.435	-200.000	-0.026	0.223
-345.420	-25.543	-0.116	-0.068
-344.406	55.915	0.050	0.049
-343.391	88.564	-0.228	0.252
-342.377	-200.000	0.016	0.124
-341.362	-200.000	-0.008	-0.283
-340.348	-165.067	-0.087	-0.004
-339.333	334.872	0.111	-0.214
-338.318	692.746	-0.150	-0.389
-337.304	-174.026	-0.248	0.007
-336.289	294.503	-0.142	0.257
-335.275	63.073	-0.255	0.254
-334.260	-123.794	0.047	-0.007
-333.245	776.056	-0.097	-0.264
-332.231	800.000	-0.056	0.165
-331.216	-138.861	0.162	-0.018
-330.202	-200.000	0.021	0.338
-329.187	-173.462	0.102	0.003
-328.172	-41.316	-0.273	-0.139
-327.158	-33.599	0.426	0.233
-326.143	300.919	0.038	-0.070
-325.129	-63.491	-0.068	-0.028
-324.114	-6.659	0.052	-0.035
-323.099	-155.372	-0.320	0.021
-322.085	-130.968	0.107	-0.014
-321.070	800.000	0.108	0.371
-320.056	-92.450	0.130	0.036
-319.041	34.294	-0.215	-0.186
-318.026	-116.919	-0.146	-0.027
-317.012	-75.200	-0.102	-0.036
-315.997	123.667	-0.248	0.308
-314.983	-11.050	0.206	0.135
-313.968	57.330	-0.057	0.056
-312.953	-29.030	-0.204	0.116
-311.939	-112.129	0.091	0.018
-310.924	-55.030	0.192	0.086
-309.910	552.678	0.039	-0.093
-308.895	-137.340	0.209	-0.023
-307.880	800.000	0.066	0.213
-306.866	141.133	-0.069	0.090
-305.851	-47.554	0.228	0.110
-304.837	64.104	-0.168	0.168
-303.822	79.364	0.125	-0.133
-302.807	-111.368	-0.187	0.038
-301.793	-89.979	0.178	-0.051
-300.778	-82.281	0.270	-0.087
-299.764	-161.816	-0.200	-0.010
-298.749	800.000	0.038	-0.133
-297.735	-130.387	-0.269	-0.036
-296.720	-200.000	0.005	-0.292
-295.705	-28.680	0.164	0.093
-294.691	-200.000	-0.005	0.204
-293.676	300.308	0.168	-0.307
-292.662	144.581	-0.129	-0.171
-291.647	92.503	0.102	-0.114
-290.632	-143.702	0.373	-0.035
-289.618	349.283	0.110	0.215
-288.603	63.758	0.285	-0.283
-287.589	133.380	-0.200	-0.257
-286.574	0.008	0.302	0.213
-285.559	289.978	-0.087	-0.157
-284.545	-116.917	0.100	-0.018
-283.530	-40.411	-0.299	0.154
-282.516	94.776	-0.275	-0.310
-281.501	65.085	-0.195	-0.196
-280.486	281.546	-0.203	-0.360
-279.472	-15.872	0.333	-0.210
-278.457	800.000	0.083	0.239
-277.443	122.089	-0.091	0.112
-276.428	-138.631	0.117	0.013
-275.413	800.000	-0.078	-0.278
-274.399	-94.918	0.297	-0.080
-273.384	-120.331	-0.007	0.001
-272.370	-104.892	-0.375	-0.085
-271.355	192.508	0.197	-0.294
-270.340	-22.775	0.129	-0.077
-269.326	33.231	-0.127	-0.109
-268.311	800.000	0.054	-0.231
-267.297	-200.000	0.041	-0.200
-266.282	-157.312	-0.085	-0.005
-265.267	-36.434	0.225	0.120
-264.253	16.611	-0.102	0.080
-263.238	-65.045	0.040	0.016
-262.224	71.126	-0.258	-0.265
-261.209	-91.384	-0.265	-0.075
-260.195	40.728	0.184	-0.165
-259.180	46.152	-0.150	0.138
-258.165	10.529	-0.190	0.143
-257.151	-107.940	0.191	-0.041
-256.136	141.481	-0.124	-0.162
-255.122	-74.710	0.191	0.068
-254.107	-77.484	0.386	0.133
-253.092	58.216	-0.150	0.145
-252.078	351.859	0.111	0.218
-251.063	112.951	0.114	-0.137
-250.049	-200.000	-0.019	0.083
-249.034	-101.509	0.257	-0.062
-248.019	244.211	0.284	0.473
-247.005	-200.000	0.007	0.044
-245.990	166.317	0.150	-0.210
-244.976	-118.986	0.100	0.017
-243.961	-200.000	-0.004	0.090
-242.946	609.076	-0.036	0.089
-241.932	800.000	-0.067	-0.259
-240.917	-200.000	0.026	-0.151
-239.903	800.000	0.056	0.174
-238.888	293.319	-0.062	0.112
-237.873	-5.893	-0.321	-0.217
-236.859	55.569	0.171	-0.164
-235.844	142.739	-0.085	0.112
-234.830	-200.000	-0.003	-0.228
-233.815	119.465	0.043	-0.052
-232.800	59.656	0.223	-0.218
-231.786	-119.476	0.033	0.006
-230.771	-200.000	0.023	-0.179
-229.757	-200.000	0.020	-0.184
-228.742	-79.561	0.090	0.030
-227.727	-38.485	0.132	0.069
-226.713	-27.364	0.097	0.056
-225.698	-103.841	-0.178	0.041
-224.684	-20.531	0.352	-0.214
-223.669	-148.916	0.371	-0.030
-222.655	-108.396	-0.335	-0.071
-221.640	91.836	0.095	0.106
-220.625	155.301	-0.144	-0.195
-219.611	509.653	0.061	-0.141
-218.596	-200.000	-0.016	0.395
-217.582	-66.873	0.257	-0.100
-216.567	-200.000	-0.044	0.226
-215.552	182.489	-0.219	0.319
-214.538	132.982	0.285	0.363
-213.523	-82.973	-0.296	0.094
-212.509	800.000	-0.020	-0.081
-211.494	-18.831	0.232	0.143
-210.479	-45.581	0.136	-0.067
-209.465	-129.526	-0.275	0.038
-208.450	87.014	0.222	-0.243
-207.436	109.549	0.269	-0.319
-206.421	-190.309	0.244	-0.003
-205.406	82.251	0.174	0.187
-204.392	-181.584	0.257	0.005
-203.377	19.991	0.111	-0.088
-202.363	165.421	0.188	-0.262
-201.348	78.496	0.171	0.181
-200.333	288.180	0.103	-0.184
-199.319	62.297	-0.058	0.057
-198.304	-145.877	-0.132	0.012
-197.290	219.007	0.109	0.173
-196.275	-200.000	-0.018	0.124
-195.260	-200.000	-0.068	0.413
-194.246	800.000	-0.051	0.186
-193.231	-200.000	-0.064	-0.329
-192.217	-70.688	0.157	-0.059
-191.202	36.620	0.072	0.063
-190.187	-198.655	0.237	-0.001
-189.173	800.000	0.028	0.100
-188.158	-200.000	-0.029	0.242
-187.144	33.445	0.076	0.065
-186.129	800.000	-0.054	0.194
-185.114	-101.260	-0.031	0.008
-184.100	-139.002	0.327	0.035
-183.085	332.353	-0.187	-0.357
-182.071	-62.956	0.063	-0.026
-181.056	135.269	0.030	0.039
-180.042	-200.000	-0.033	0.387
-179.027	58.746	0.156	0.151
-178.012	-8.378	0.143	0.095
-176.998	118.005	-0.084	-0.102
-175.983	-32.664	-0.427	0.234
-174.969	141.785	-0.086	-0.113
-173.954	167.056	0.159	-0.223
-172.939	-200.000	0.030	-0.548
-171.925	-30.567	0.128	0.072
-170.910	566.579	0.133	0.318
-169.896	-65.350	-0.151	0.060
-168.881	-200.000	-0.035	0.179
-167.866	800.000	-0.131	0.503
-166.852	28.097	0.012	0.010
-165.837	-160.537	0.316	0.017
-164.823	78.551	-0.190	0.201
-163.808	800.000	0.047	0.174
-162.793	-170.572	0.179	-0.006
-161.779	-51.502	0.136	0.063
-160.764	800.000	0.066	0.243
-159.750	279.364	0.165	0.291
-158.735	50.061	-0.237	-0.221
-157.720	-200.000	0.003	-0.099
-156.706	95.963	-0.132	0.149
-155.691	255.802	0.145	-0.245
-154.677	-200.000	-0.051	-0.246
-153.662	169.514	0.207	-0.291
-152.647	196.544	-0.026	0.038
-151.633	26.822	0.197	0.162
-150.618	-200.000	-0.032	0.409
-149.604	-200.000	0.021	0.345
-148.589	-129.647	0.136	0.019
-147.574	800.000	-0.046	0.142
-146.560	-129.493	-0.342	-0.047
-145.545	115.170	0.143	-0.172
-144.531	101.157	-0.149	0.171
-143.516	133.671	0.043	-0.055
-142.502	-93.338	0.302	0.082
-141.487	-44.457	0.203	-0.100
-140.472	4.413	0.066	-0.048
-139.458	463.809	0.100	0.220
-138.443	-88.556	0.095	0.028
-137.429	-129.367	0.343	-0.047
-136.414	-200.000	-0.046	-0.255
-135.399	-97.385	-0.225	0.058
-134.385	511.741	-0.033	0.077
-133.370	23.997	0.221	-0.180
-132.356	164.025	-0.126	0.175
-131.341	-200.000	0.024	0.427
-130.326	-4.983	-0.109	0.074
-129.312	605.958	-0.196	-0.481
-128.297	141.205	0.114	0.148
-127.283	252.605	0.093	0.155
-126.268	164.861	-0.092	-0.127
-125.253	73.242	0.110	-0.113
-124.239	135.647	-0.181	0.232
-123.224	-84.017	0.066	-0.021
-122.210	-200.000	0.050	0.245
-121.195	523.024	-0.087	-0.201
