DTS Sentinel unit serial number:	SN413079Multiplexer serial number:	ORYXHardware model number:	OX4-SRSoftware version number:	ORYX F/W v4.00 Oryx Data Collector v3.7.2.0data status	okinstallation	princeton_trtdifferential loss correction	single-endedforward channel	channel 3reverse channel	N/Adate	2019/09/19time	00:48:34forward acquisition time	60.00reverse acquisition time	0.00gamma	496.2192k internal	0.2347k external	0.2347temperature offset calibration	0.9990default loss term (dB/km)	0.3790temperature slope calibration	1.0000multiplexer offset coefficient	1.0000multiplexer slope coefficient	1.0000fibre end	0.00T internal ref (°C)	22.12T ext. ref 1 (°C)	0.73T ext. ref 2 (°C)	15.39length (m)	temperature (°C)	Stokes	anti-Stokes-747.200	-200.000	-0.028	0.273
-746.185	-44.024	-0.280	0.141
-745.171	-110.175	-0.110	-0.023
-744.156	185.270	-0.126	-0.187
-743.142	-200.000	0.045	-0.256
-742.127	800.000	-0.109	0.363
-741.112	-200.000	0.029	-0.204
-740.098	110.663	0.173	-0.208
-739.083	800.000	0.125	0.379
-738.069	800.000	-0.091	0.272
-737.054	-105.317	-0.276	0.063
-736.039	411.913	-0.112	-0.237
-735.025	-118.709	-0.255	0.045
-734.010	168.265	-0.173	-0.246
-732.996	137.260	-0.145	0.189
-731.981	165.127	-0.031	-0.044
-730.966	-129.617	-0.249	-0.034
-729.952	246.798	-0.057	-0.096
-728.937	-138.413	0.268	-0.030
-727.923	-189.601	-0.059	0.001
-726.908	202.441	0.156	0.240
-725.894	800.000	0.030	-0.101
-724.879	800.000	0.048	0.164
-723.864	14.029	0.159	-0.124
-722.850	-62.754	0.217	-0.090
-721.835	722.977	0.084	0.224
-720.821	1.296	-0.132	-0.095
-719.806	121.326	-0.128	0.160
-718.791	-71.134	-0.185	-0.069
-717.777	181.745	-0.246	-0.362
-716.762	-179.460	0.088	-0.002
-715.748	-7.881	-0.322	-0.217
-714.733	-120.530	0.070	0.012
-713.718	-144.807	-0.086	-0.008
-712.704	-32.268	-0.087	0.049
-711.689	-58.997	0.301	0.130
-710.675	-123.538	-0.151	0.024
-709.660	25.439	0.103	-0.085
-708.645	69.537	0.029	0.030
-707.631	67.465	0.139	0.141
-706.616	800.000	0.016	-0.058
-705.602	62.879	-0.144	0.144
-704.587	282.739	0.077	-0.139
-703.572	4.166	-0.147	-0.107
-702.558	-112.677	0.145	0.029
-701.543	570.602	0.049	-0.119
-700.529	668.346	-0.077	0.198
-699.514	-200.000	-0.019	0.228
-698.499	-103.794	0.073	-0.017
-697.485	87.246	0.126	0.139
-696.470	30.662	-0.119	-0.102
-695.456	30.614	-0.072	-0.062
-694.441	-153.292	0.236	-0.016
-693.426	67.690	-0.175	0.179
-692.412	208.725	-0.160	0.250
-691.397	-107.368	0.264	-0.058
-690.383	-103.971	-0.272	-0.063
-689.368	316.738	0.107	-0.202
-688.354	-200.000	-0.003	0.130
-687.339	759.766	0.081	-0.218
-686.324	-200.000	-0.068	-0.348
-685.310	-57.060	0.349	-0.154
-684.295	36.054	-0.240	-0.210
-683.281	53.779	0.257	0.246
-682.266	-97.131	-0.274	-0.071
-681.251	337.222	0.077	0.149
-680.237	579.717	-0.091	-0.223
-679.222	145.306	-0.155	-0.207
-678.208	800.000	-0.145	-0.490
-677.193	122.947	0.031	0.039
-676.178	-29.578	0.252	-0.144
-675.164	185.679	-0.099	0.147
-674.149	-62.385	-0.228	-0.095
-673.135	-1.130	0.170	0.120
-672.120	74.255	-0.059	0.062
-671.105	800.000	-0.040	-0.121
-670.091	22.351	-0.056	0.046
-669.076	239.960	0.046	-0.076
-668.062	-140.157	0.096	-0.010
-667.047	69.768	-0.129	0.133
-666.032	-23.817	-0.064	0.038
-665.018	-64.729	0.112	0.045
-664.003	304.141	0.021	0.038
-662.989	72.786	-0.147	0.153
-661.974	72.468	0.152	0.157
-660.959	75.634	-0.197	-0.208
-659.945	-50.910	0.203	0.095
-658.930	800.000	0.028	0.086
-657.916	800.000	-0.141	-0.411
-656.901	194.425	0.111	0.167
-655.886	391.192	-0.110	-0.226
-654.872	111.793	0.135	0.163
-653.857	91.232	-0.072	-0.081
-652.843	800.000	-0.178	-0.494
-651.828	189.500	-0.096	0.144
-650.814	-38.975	0.303	0.159
-649.799	-44.789	-0.143	0.071
-648.784	-123.768	-0.425	-0.067
-647.770	95.615	0.084	-0.096
-646.755	-100.859	-0.212	0.052
-645.741	-65.784	-0.326	-0.130
-644.726	184.038	0.071	-0.104
-643.711	800.000	0.052	-0.215
-642.697	-200.000	-0.041	0.270
-641.682	800.000	0.091	-0.257
-640.668	-200.000	0.039	-0.374
-639.653	-149.223	-0.196	-0.016
-638.638	-133.277	-0.297	-0.037
-637.624	-200.000	-0.028	-0.142
-636.609	119.811	0.137	-0.169
-635.595	-125.614	0.160	-0.024
-634.580	-102.867	0.200	-0.047
-633.565	-152.658	-0.510	0.036
-632.551	-200.000	0.053	-0.286
-631.536	-200.000	0.013	-0.268
-630.522	63.298	-0.094	-0.094
-629.507	788.884	0.063	-0.172
-628.492	205.610	-0.044	0.068
-627.478	-173.527	-0.094	-0.003
-626.463	10.949	0.426	-0.324
-625.449	149.325	-0.104	-0.140
-624.434	-200.000	-0.022	0.173
-623.419	577.742	0.050	-0.122
-622.405	302.628	0.071	-0.130
-621.390	15.429	-0.074	-0.058
-620.376	-65.775	0.343	0.137
-619.361	450.316	0.044	0.097
-618.346	66.183	0.116	0.118
-617.332	-25.586	0.071	-0.042
-616.317	-174.619	-0.227	-0.006
-615.303	40.021	0.069	0.062
-614.288	800.000	0.123	0.363
-613.273	-94.807	0.486	-0.131
-612.259	90.859	-0.250	-0.279
-611.244	131.294	0.086	-0.110
-610.230	-200.000	0.010	-0.084
-609.215	-73.846	0.038	0.014
-608.201	62.445	-0.175	0.174
-607.186	-78.269	0.383	-0.131
-606.171	-153.225	0.206	0.014
-605.157	-141.458	-0.245	0.025
-604.142	-92.474	0.200	-0.056
-603.128	51.751	0.146	-0.138
-602.113	259.958	-0.049	0.085
-601.098	-69.012	-0.161	0.062
-600.084	275.530	-0.120	0.211
-599.069	370.466	-0.063	-0.128
-598.055	-200.000	-0.017	0.318
-597.040	-39.582	-0.269	0.140
-596.025	-200.000	-0.083	-0.543
-595.011	238.122	0.066	-0.108
-593.996	-18.324	0.067	-0.042
-592.982	-200.000	-0.005	0.055
-591.967	-81.927	-0.189	0.061
-590.952	-200.000	-0.006	-0.216
-589.938	139.627	0.089	0.117
-588.923	800.000	0.093	0.396
-587.909	332.997	-0.136	-0.260
-586.894	800.000	0.044	-0.131
-585.879	330.267	0.053	0.102
-584.865	132.428	-0.057	-0.073
-583.850	-200.000	0.063	0.303
-582.836	514.319	-0.047	-0.109
-581.821	140.011	-0.229	-0.300
-580.806	161.682	-0.285	-0.397
-579.792	140.245	0.270	-0.354
-578.777	-7.282	-0.103	0.069
-577.763	81.483	-0.118	-0.126
-576.748	-23.013	-0.283	0.169
-575.733	3.733	-0.121	-0.088
-574.719	-200.000	0.003	-0.388
-573.704	-40.703	-0.127	-0.065
-572.690	-97.439	-0.278	0.072
-571.675	-200.000	0.023	0.456
-570.661	-51.819	0.025	-0.011
-569.646	-3.318	-0.205	0.142
-568.631	800.000	0.077	0.216
-567.617	800.000	0.023	-0.082
-566.602	800.000	-0.047	-0.171
-565.588	-109.264	0.127	0.027
-564.573	394.569	0.089	-0.184
-563.558	23.680	0.290	-0.237
-562.544	192.513	-0.123	0.184
-561.529	-200.000	0.019	0.128
-560.515	-200.000	0.065	-0.330
-559.500	-81.440	0.225	0.073
-558.485	105.953	0.160	0.188
-557.471	-58.935	0.150	0.064
-556.456	158.586	-0.227	-0.313
-555.442	-27.040	0.314	-0.182
-554.427	67.291	0.192	-0.194
-553.412	-90.737	0.303	-0.087
-552.398	-200.000	0.104	-0.562
-551.383	-23.440	-0.273	0.162
-550.369	260.596	-0.026	-0.045
-549.354	123.459	0.204	-0.254
-548.339	800.000	-0.061	0.235
-547.325	118.769	-0.087	0.106
-546.310	508.061	-0.088	0.202
-545.296	21.496	0.182	0.147
-544.281	371.405	0.036	0.073
-543.266	-74.625	0.129	-0.046
-542.252	-110.942	0.180	0.037
-541.237	-200.000	-0.020	0.165
-540.223	-85.701	-0.200	0.062
-539.208	-200.000	-0.026	-0.302
-538.193	-8.849	-0.231	-0.154
-537.179	114.976	-0.134	-0.162
-536.164	-200.000	-0.014	-0.418
-535.150	502.791	0.098	0.226
-534.135	-122.006	0.117	-0.019
-533.121	-103.819	-0.311	-0.072
-532.106	-200.000	0.002	0.164
-531.091	6.312	0.102	-0.075
-530.077	28.286	-0.301	0.252
-529.062	-116.060	-0.246	0.045
-528.048	6.629	0.320	0.236
-527.033	244.752	-0.142	0.237
-526.018	800.000	-0.056	0.199
-525.004	225.111	0.044	0.071
-523.989	-200.000	0.013	0.193
-522.975	135.572	-0.112	-0.144
-521.960	165.307	-0.166	-0.232
-520.945	-200.000	-0.004	-0.028
-519.931	-200.000	-0.043	-0.307
-518.916	546.374	-0.108	-0.256
-517.902	48.283	-0.182	-0.169
-516.887	-5.729	0.132	-0.089
-515.872	15.062	-0.179	0.139
-514.858	249.383	-0.149	-0.250
-513.843	53.833	0.350	0.333
-512.829	-165.762	0.234	-0.010
-511.814	800.000	0.105	0.324
-510.799	-200.000	-0.023	0.245
-509.785	-1.806	0.423	0.295
-508.770	-108.042	0.169	-0.036
-507.756	43.923	0.084	-0.076
-506.741	-200.000	-0.042	0.358
-505.726	-126.503	-0.216	0.032
-504.712	800.000	-0.025	0.085
-503.697	-14.002	0.291	0.186
-502.683	0.307	0.280	0.198
-501.668	142.951	-0.220	0.289
-500.653	-74.084	-0.123	-0.044
-499.639	-120.852	0.218	-0.036
-498.624	-77.764	0.172	0.059
-497.610	-61.290	-0.141	-0.059
-496.595	800.000	0.056	-0.199
-495.581	0.549	0.296	0.209
-494.566	-151.328	-0.246	-0.018
-493.551	535.523	0.060	0.140
-492.537	-200.000	-0.036	0.359
-491.522	-143.998	-0.059	-0.005
-490.508	-200.000	0.078	0.370
-489.493	-105.557	0.245	-0.055
-488.478	-66.913	0.317	0.124
-487.464	-95.603	0.105	-0.028
-486.449	-0.455	-0.273	0.192
-485.435	369.745	-0.087	-0.175
-484.420	-119.425	-0.215	0.037
-483.405	648.357	-0.017	0.043
-482.391	-81.150	0.194	-0.063
-481.376	-109.574	-0.309	-0.065
-480.362	800.000	0.027	-0.082
-479.347	231.692	0.291	-0.472
-478.332	-3.336	-0.276	0.190
-477.318	-17.775	-0.062	0.039
-476.303	13.541	-0.031	0.024
-475.289	-22.167	-0.361	-0.217
-474.274	-200.000	-0.003	0.263
-473.259	-136.953	0.298	0.034
-472.245	-200.000	0.020	-0.304
-471.230	-200.000	-0.015	0.134
-470.216	-139.120	-0.355	0.038
-469.201	-200.000	0.003	-0.190
-468.186	-12.737	-0.153	0.099
-467.172	42.431	0.137	0.124
-466.157	273.458	0.056	-0.098
-465.143	260.355	-0.095	0.162
-464.128	379.494	-0.116	-0.234
-463.113	-75.605	0.144	-0.051
-462.099	-200.000	-0.012	-0.272
-461.084	-48.236	-0.216	0.103
-460.070	-130.571	0.274	0.037
-459.055	-10.340	0.067	-0.044
-458.040	-117.347	-0.124	0.022
-457.026	-63.497	-0.278	-0.113
-456.011	574.340	-0.015	0.037
-454.997	-110.275	-0.213	-0.044
-453.982	87.122	0.092	-0.101
-452.968	-2.208	-0.137	0.095
-451.953	165.974	0.108	-0.152
-450.938	-9.494	0.240	-0.159
-449.924	-158.747	0.014	-0.001
-448.909	-7.479	0.100	0.067
-447.895	-24.741	-0.114	-0.067
-446.880	5.025	-0.123	-0.089
-445.865	-7.782	0.313	-0.209
-444.851	-76.166	0.145	0.050
-443.836	-200.000	0.010	-0.350
-442.822	800.000	-0.067	0.276
-441.807	-200.000	0.012	0.203
-440.792	123.494	0.183	0.227
-439.778	34.465	-0.106	0.091
-438.763	140.242	-0.092	-0.120
-437.749	-200.000	0.045	0.434
-436.734	14.701	0.174	0.135
-435.719	272.244	-0.105	0.183
-434.705	245.248	0.215	-0.356
-433.690	-62.428	-0.113	0.046
-432.676	-58.229	0.113	-0.048
-431.661	-94.657	-0.268	-0.072
-430.646	-200.000	-0.024	0.219
-429.632	290.092	-0.037	0.066
-428.617	123.433	0.223	-0.276
-427.603	-66.426	0.184	-0.072
-426.588	-200.000	-0.036	0.351
-425.573	-137.363	-0.316	-0.035
-424.559	-200.000	-0.303	-0.001
-423.544	800.000	0.099	0.281
-422.530	30.327	0.148	0.125
-421.515	-200.000	0.010	0.201
-420.500	276.588	-0.131	0.230
-419.486	-35.713	0.318	-0.170
-418.471	100.175	-0.254	-0.291
-417.457	-76.177	0.327	0.114
-416.442	561.330	0.093	-0.222
-415.428	68.669	0.136	-0.138
-414.413	800.000	-0.036	-0.129
-413.398	259.016	0.066	0.113
-412.384	7.692	-0.089	-0.066
-411.369	55.560	-0.340	-0.325
-410.355	169.091	-0.127	-0.179
-409.340	0.004	-0.065	0.045
-408.325	800.000	-0.007	-0.022
-407.311	-55.278	-0.080	-0.035
-406.296	-200.000	0.011	-0.281
-405.282	81.275	-0.096	-0.102
-404.267	-81.472	0.269	-0.087
-403.252	-48.256	0.260	-0.124
-402.238	324.364	-0.161	-0.304
-401.223	-28.544	-0.233	-0.133
-400.209	-54.811	-0.375	0.167
-399.194	-128.855	-0.226	0.031
-398.179	154.301	0.217	0.293
-397.165	-115.404	-0.082	0.015
-396.150	189.007	0.071	0.104
-395.136	-200.000	-0.017	0.308
-394.121	-200.000	0.014	-0.195
-393.106	-80.999	-0.276	0.090
-392.092	-125.737	-0.047	0.007
-391.077	-71.875	0.198	0.073
-390.063	90.074	0.120	-0.132
-389.048	-200.000	-0.042	-0.531
-388.033	-200.000	0.010	-0.270
-387.019	-57.094	-0.269	-0.117
-386.004	-49.482	-0.172	0.081
-384.990	59.750	0.155	-0.151
-383.975	-155.203	0.104	0.007
-382.960	800.000	-0.021	0.084
-381.946	800.000	0.052	-0.180
-380.931	64.137	0.199	0.197
-379.917	294.953	0.041	0.073
-378.902	-73.068	-0.306	-0.111
-377.888	736.548	0.089	-0.234
-376.873	-197.308	-0.391	-0.002
-375.858	-105.733	-0.157	0.035
-374.844	-4.723	0.149	-0.101
-373.829	401.568	-0.065	0.135
-372.815	-200.000	0.029	0.291
-371.800	4.276	-0.172	0.124
-370.785	-93.764	0.127	-0.034
-369.771	-10.954	-0.241	-0.157
-368.756	800.000	0.056	-0.240
-367.742	1.553	0.101	0.072
-366.727	10.049	0.116	0.087
-365.712	662.137	-0.046	0.117
-364.698	-173.169	-0.725	-0.022
-363.683	554.779	-0.051	0.120
-362.669	-104.953	0.203	0.046
-361.654	260.763	0.119	-0.203
-360.639	18.872	-0.130	0.103
-359.625	-200.000	0.041	-0.255
-358.610	-135.452	0.108	-0.013
-357.596	-79.763	0.330	0.109
-356.581	16.048	-0.231	0.180
-355.566	218.489	0.090	0.142
-354.552	-200.000	-0.006	-0.030
-353.537	-200.000	-0.021	0.240
-352.523	390.395	-0.059	-0.120
-351.508	324.517	0.168	-0.316
-350.493	-112.178	0.228	0.045
-349.479	-200.000	-0.026	-0.144
-348.464	-96.191	-0.118	0.031
-347.450	237.221	-0.142	0.232
-346.435	13.698	0.134	0.103
-345.420	132.161	0.059	0.074
-344.406	-58.688	0.381	-0.162
-343.391	-200.000	0.032	0.317
-342.377	-101.657	-0.113	0.027
-341.362	-151.494	-0.207	0.015
-340.348	-200.000	0.011	-0.237
-339.333	510.358	-0.175	0.400
-338.318	245.558	0.011	0.018
-337.304	-49.773	-0.120	-0.056
-336.289	-200.000	0.025	0.225
-335.275	-200.000	-0.053	0.446
-334.260	153.734	-0.097	0.130
-333.245	-29.036	-0.316	0.178
-332.231	-140.976	-0.259	-0.026
-331.216	800.000	-0.029	0.080
-330.202	62.694	-0.136	0.134
-329.187	-54.351	0.383	-0.171
-328.172	-200.000	-0.007	0.176
-327.158	-71.359	0.260	0.096
-326.143	800.000	0.116	0.372
-325.129	-59.812	0.356	-0.150
-324.114	-112.551	-0.211	-0.041
-323.099	-200.000	-0.035	0.157
-322.085	173.744	0.135	-0.192
-321.070	800.000	0.086	0.251
-320.056	-98.746	-0.060	0.015
-319.041	-24.248	-0.293	0.172
-318.026	-110.388	-0.219	0.045
-317.012	-200.000	-0.030	-0.183
-315.997	-200.000	0.006	0.039
-314.983	-200.000	0.016	-0.096
-313.968	388.637	-0.058	-0.118
-312.953	-98.579	0.220	0.055
-311.939	-125.893	0.140	-0.021
-310.924	29.562	-0.164	-0.137
-309.910	-91.062	0.100	0.028
-308.895	552.150	-0.026	-0.060
-307.880	-62.900	-0.074	-0.030
-306.866	-45.705	0.159	0.077
-305.851	68.407	-0.117	-0.117
-304.837	-1.091	-0.298	-0.207
-303.822	-200.000	-0.042	0.352
-302.807	-159.140	0.233	0.013
-301.793	579.986	0.103	-0.247
-300.778	135.768	0.028	-0.036
-299.764	-200.000	-0.023	0.207
-298.749	-94.184	0.093	-0.025
-297.735	82.801	-0.315	-0.336
-296.720	-106.182	-0.116	-0.026
-295.705	-16.349	0.210	-0.131
-294.691	-25.061	0.091	-0.053
-293.676	-200.000	0.069	0.445
-292.662	-113.337	-0.163	0.031
-291.647	800.000	-0.042	-0.140
-290.632	-200.000	0.043	0.203
-289.618	-7.584	-0.112	0.074
-288.603	-126.311	0.502	0.074
-287.589	621.738	0.048	0.119
-286.574	-153.948	0.139	-0.009
-285.559	-26.497	-0.163	0.094
-284.545	-93.155	0.151	-0.041
-283.530	-135.545	0.337	-0.039
-282.516	-40.808	0.214	0.109
-281.501	517.733	0.083	-0.191
-280.486	-6.465	0.235	0.157
-279.472	293.699	-0.094	-0.168
-278.457	44.863	0.134	0.121
-277.443	65.673	-0.139	-0.138
-276.428	-139.375	-0.418	0.044
-275.413	800.000	-0.060	0.188
-274.399	4.082	-0.094	0.067
-273.384	-162.820	-0.193	-0.009
-272.370	266.083	-0.122	0.209
-271.355	-200.000	0.042	-0.435
-270.340	95.070	-0.064	-0.071
-269.326	31.984	-0.273	0.231
-268.311	18.898	0.072	0.056
-267.297	-7.179	0.255	-0.170
-266.282	800.000	0.031	0.113
-265.267	-200.000	-0.022	-0.247
-264.253	710.784	-0.083	0.215
-263.238	800.000	0.031	-0.123
-262.224	-88.667	-0.344	0.100
-261.209	-200.000	-0.014	0.160
-260.195	479.178	0.064	0.143
-259.180	-121.652	0.255	-0.041
-258.165	3.814	-0.005	-0.004
-257.151	-96.302	0.028	0.007
-256.136	230.921	0.142	-0.227
-255.122	134.112	-0.133	0.168
-254.107	68.158	0.214	0.215
-253.092	-106.876	0.161	-0.035
-252.078	189.387	0.153	0.225
-251.063	-200.000	-0.030	0.173
-250.049	-100.844	0.081	0.020
-249.034	-200.000	-0.010	-0.061
-248.019	379.550	0.108	-0.217
-247.005	800.000	0.032	-0.097
-245.990	-122.614	0.152	0.024
-244.976	555.433	0.018	0.042
-243.961	-22.618	0.251	0.149
-242.946	124.210	-0.102	0.126
-241.932	-19.320	0.047	0.029
-240.917	-200.000	0.060	-0.442
-239.903	408.082	-0.101	0.209
-238.888	37.682	0.188	-0.163
-237.873	-128.472	0.220	0.031
-236.859	369.090	-0.121	0.240
-235.844	243.460	-0.075	0.123
-234.830	-25.481	-0.090	0.052
-233.815	119.169	0.243	0.294
-232.800	163.446	0.114	-0.157
-231.786	-0.845	0.085	0.059
-230.771	-157.920	-0.078	-0.005
-229.757	480.341	-0.119	-0.263
-228.742	-200.000	0.011	0.050
-227.727	65.529	0.115	-0.114
-226.713	-40.353	0.316	0.161
-225.698	-134.237	0.258	-0.031
-224.684	-200.000	-0.067	0.521
-223.669	-200.000	0.022	-0.300
-222.655	-19.283	0.085	-0.051
-221.640	-19.517	0.060	-0.036
-220.625	360.879	-0.047	0.093
-219.611	395.349	0.049	0.100
-218.596	101.357	0.365	0.417
-217.582	92.086	-0.433	0.478
-216.567	121.624	0.113	0.138
-215.552	-137.078	-0.064	0.007
-214.538	-83.502	-0.230	-0.072
-213.523	12.262	-0.256	0.193
-212.509	287.448	-0.134	-0.238
-211.494	-117.791	-0.232	-0.041
-210.479	364.064	-0.139	-0.273
-209.465	-146.611	-0.091	0.008
-208.450	-144.565	-0.163	-0.015
-207.436	-18.212	0.318	0.195
-206.421	-200.000	0.015	0.252
-205.406	-156.550	-0.302	-0.018
-204.392	48.041	-0.147	-0.134
-203.377	-34.885	0.326	0.174
-202.363	-22.198	-0.177	0.105
-201.348	-72.475	-0.218	0.079
-200.333	-80.955	0.211	-0.069
-199.319	-200.000	-0.001	-0.038
-198.304	-200.000	-0.015	-0.111
-197.290	800.000	0.073	0.222
-196.275	58.581	0.276	-0.265
-195.260	-93.579	0.308	-0.083
-194.246	-62.302	0.222	0.091
-193.231	-147.777	-0.185	-0.015
-192.217	35.106	0.046	-0.040
-191.202	-120.043	0.562	0.094
-190.187	67.774	0.190	0.190
-189.173	-73.132	-0.376	-0.135
-188.158	-200.000	0.021	0.306
-187.144	301.377	-0.157	0.284
-186.129	-200.000	0.007	0.093
-185.114	-137.046	-0.348	0.039
-184.100	5.264	0.163	-0.118
-183.085	-200.000	-0.025	-0.274
-182.071	-200.000	-0.009	-0.051
-181.056	800.000	-0.041	0.170
-180.042	111.191	0.111	0.131
-179.027	88.692	-0.153	-0.166
-178.012	800.000	-0.044	-0.136
-176.998	-150.631	-0.227	0.017
-175.983	84.966	0.066	0.070
-174.969	-200.000	-0.035	0.266
-173.954	-96.431	-0.309	0.080
-172.939	-61.749	-0.209	-0.085
-171.925	317.820	0.208	0.385
-170.910	-0.965	0.318	-0.220
-169.896	105.520	-0.124	-0.143
-168.881	-113.604	-0.155	0.030
-167.866	-76.251	0.235	0.081
-166.852	112.561	0.221	-0.262
-165.837	800.000	-0.050	-0.136
-164.823	-200.000	0.050	-0.401
-163.808	398.708	0.181	-0.370
-162.793	259.204	0.043	0.073
-161.779	-200.000	-0.010	-0.100
-160.764	-44.672	-0.210	-0.102
-159.750	7.852	0.423	-0.309
-158.735	-200.000	0.009	0.046
-157.720	-58.905	0.149	0.063
-156.706	-58.112	-0.344	-0.147
-155.691	-128.800	-0.344	-0.047
-154.677	77.462	-0.063	0.065
-153.662	-200.000	0.000	0.013
-152.647	37.648	0.132	-0.114
-151.633	-51.312	0.194	0.089
-150.618	800.000	0.067	0.209
-149.604	800.000	0.068	-0.279
-148.589	178.972	0.093	0.132
-147.574	800.000	0.079	-0.259
-146.560	-81.949	-0.655	-0.209
-145.545	-200.000	0.010	0.070
-144.531	110.921	-0.207	0.243
-143.516	-132.882	-0.151	-0.019
-142.502	-96.451	-0.170	-0.044
-141.487	-58.344	-0.204	-0.087
-140.472	-200.000	0.065	0.297
-139.458	800.000	-0.026	0.083
-138.443	98.760	0.153	0.173
-137.429	-65.096	0.154	-0.061
-136.414	-97.238	0.217	-0.055
-135.399	-125.512	-0.098	0.014
-134.385	-149.189	0.266	0.021
-133.370	-130.945	0.480	-0.063
-132.356	260.235	0.143	-0.242
-131.341	-139.694	0.235	0.024
-130.326	94.882	0.037	0.041
-129.312	-200.000	0.003	-0.153
-128.297	199.357	0.268	-0.401
-127.283	-32.139	0.204	0.111
-126.268	647.957	-0.106	-0.265
-125.253	-117.963	0.316	-0.055
-124.239	-119.033	0.159	0.027
-123.224	800.000	-0.042	0.149
-122.210	24.585	0.131	0.106
-121.195	262.788	0.065	-0.110
