DTS Sentinel unit serial number:	SN413079Multiplexer serial number:	ORYXHardware model number:	OX4-SRSoftware version number:	ORYX F/W v4.00 Oryx Data Collector v3.7.2.0data status	okinstallation	princeton_trtdifferential loss correction	single-endedforward channel	channel 3reverse channel	N/Adate	2019/09/19time	08:28:35forward acquisition time	60.00reverse acquisition time	0.00gamma	496.2192k internal	0.2347k external	0.2347temperature offset calibration	0.9980default loss term (dB/km)	0.3790temperature slope calibration	1.0000multiplexer offset coefficient	1.0000multiplexer slope coefficient	1.0000fibre end	0.00T internal ref (°C)	20.62T ext. ref 1 (°C)	0.57T ext. ref 2 (°C)	16.32length (m)	temperature (°C)	Stokes	anti-Stokes-747.200	-55.428	0.198	-0.089
-746.185	-200.000	-0.030	0.169
-745.171	-200.000	0.004	-0.159
-744.156	-200.000	0.002	0.217
-743.142	-200.000	-0.008	0.117
-742.127	-46.046	-0.205	0.101
-741.112	-75.211	0.148	0.053
-740.098	-136.739	0.093	0.011
-739.083	-59.372	-0.362	-0.155
-738.069	-200.000	-0.046	0.374
-737.054	33.688	-0.062	-0.054
-736.039	271.837	-0.104	-0.183
-735.025	134.102	0.126	0.163
-734.010	800.000	-0.064	-0.185
-732.996	-48.866	0.094	-0.045
-731.981	144.518	-0.079	0.105
-730.966	-200.000	-0.038	-0.177
-729.952	211.015	-0.166	0.261
-728.937	266.078	0.075	-0.132
-727.923	587.620	-0.108	-0.266
-726.908	-14.608	0.229	-0.147
-725.894	-33.616	-0.249	-0.137
-724.879	-64.901	0.111	0.045
-723.864	228.110	0.069	-0.113
-722.850	372.199	0.043	0.087
-721.835	17.524	-0.085	0.067
-720.821	-146.999	0.234	0.020
-719.806	800.000	0.054	0.232
-718.791	-10.974	-0.260	-0.172
-717.777	212.355	-0.157	-0.247
-716.762	158.895	0.175	-0.243
-715.748	-200.000	-0.037	0.198
-714.733	6.314	-0.103	0.077
-713.718	-71.813	0.246	-0.092
-712.704	-106.854	0.023	0.005
-711.689	800.000	-0.059	-0.172
-710.675	800.000	0.091	-0.319
-709.660	323.279	0.127	-0.242
-708.645	800.000	-0.058	0.183
-707.631	-143.738	-0.424	0.040
-706.616	12.480	0.133	-0.103
-705.602	413.294	-0.193	-0.409
-704.587	-200.000	0.011	0.064
-703.572	-172.536	-0.192	-0.006
-702.558	-82.816	0.214	0.069
-701.543	-87.879	0.377	-0.113
-700.529	-52.653	0.157	-0.072
-699.514	-200.000	0.010	0.090
-698.499	-200.000	0.012	-0.283
-697.485	-152.480	-0.324	0.023
-696.470	351.537	-0.060	-0.119
-695.456	464.230	-0.066	-0.148
-694.441	225.445	-0.171	-0.275
-693.426	77.672	-0.161	-0.171
-692.412	800.000	-0.125	-0.420
-691.397	-10.187	-0.050	0.033
-690.383	800.000	0.061	-0.231
-689.368	168.714	0.233	-0.332
-688.354	485.235	-0.048	-0.109
-687.339	9.173	0.108	0.081
-686.324	-56.956	-0.228	0.100
-685.310	-111.610	-0.385	-0.078
-684.295	-179.536	0.263	-0.006
-683.281	161.639	-0.063	-0.088
-682.266	-52.222	-0.205	0.095
-681.251	54.633	0.290	0.279
-680.237	-200.000	-0.023	-0.195
-679.222	-168.380	-0.529	-0.020
-678.208	800.000	-0.046	0.144
-677.193	-200.000	0.038	0.199
-676.178	373.399	-0.008	0.017
-675.164	167.912	0.073	0.104
-674.149	-102.081	-0.265	0.064
-673.135	800.000	0.071	-0.305
-672.120	151.934	-0.026	-0.035
-671.105	219.662	-0.042	0.067
-670.091	800.000	-0.091	-0.311
-669.076	800.000	-0.027	-0.090
-668.062	93.819	-0.091	0.103
-667.047	231.291	0.149	0.243
-666.032	-7.903	-0.054	-0.037
-665.018	-22.089	0.088	0.053
-664.003	-200.000	0.001	0.047
-662.989	-23.647	0.018	0.011
-661.974	-144.725	-0.438	-0.040
-660.959	49.098	0.130	-0.121
-659.945	-101.045	0.313	0.076
-658.930	-200.000	-0.008	-0.212
-657.916	-135.515	-0.393	0.047
-656.901	-0.524	-0.154	0.109
-655.886	-23.790	0.136	-0.081
-654.872	-200.000	-0.066	0.411
-653.857	189.086	-0.088	0.131
-652.843	-146.366	-0.172	0.015
-651.828	800.000	-0.069	0.219
-650.814	334.745	0.250	-0.482
-649.799	41.581	0.170	-0.153
-648.784	-102.419	-0.191	0.046
-647.770	-200.000	-0.001	-0.218
-646.755	-200.000	-0.087	-0.423
-645.741	-131.886	0.027	-0.004
-644.726	-124.880	0.176	-0.027
-643.711	-85.500	0.123	0.038
-642.697	-200.000	-0.035	0.484
-641.682	48.202	0.183	0.170
-640.668	-71.095	-0.177	-0.066
-639.653	-78.587	-0.176	0.060
-638.638	669.345	-0.084	0.216
-637.624	800.000	-0.065	-0.206
-636.609	62.679	-0.325	0.323
-635.595	76.291	0.210	0.221
-634.580	17.307	0.216	-0.171
-633.565	-158.222	-0.156	0.009
-632.551	-200.000	0.048	-0.334
-631.536	-111.982	-0.084	0.017
-630.522	3.959	-0.105	-0.076
-629.507	-200.000	0.034	0.412
-628.492	33.616	-0.272	0.235
-627.478	49.484	-0.190	0.178
-626.463	121.019	-0.120	-0.148
-625.449	-135.373	0.239	-0.028
-624.434	86.665	0.042	-0.047
-623.419	4.959	0.123	0.090
-622.405	144.550	0.185	0.245
-621.390	737.490	0.022	0.059
-620.376	-13.779	0.324	-0.209
-619.361	800.000	0.106	-0.315
-618.346	281.424	0.124	0.221
-617.332	-22.917	-0.168	0.101
-616.317	89.888	0.227	0.252
-615.303	-200.000	0.005	0.117
-614.288	49.549	-0.213	0.200
-613.273	-116.024	0.085	-0.016
-612.259	-15.589	0.048	-0.031
-611.244	-200.000	0.023	0.148
-610.230	-10.320	0.105	-0.070
-609.215	-200.000	-0.056	0.326
-608.201	-112.348	0.143	0.029
-607.186	-162.494	-0.325	-0.016
-606.171	44.826	-0.092	0.084
-605.157	49.947	-0.139	0.131
-604.142	71.260	-0.244	0.252
-603.128	20.992	0.313	-0.252
-602.113	27.447	0.160	-0.134
-601.098	76.076	-0.130	0.137
-600.084	-113.945	-0.250	0.048
-599.069	29.028	0.071	0.060
-598.055	-12.832	0.117	0.076
-597.040	800.000	-0.044	0.149
-596.025	172.499	0.027	0.038
-595.011	-77.146	0.172	-0.060
-593.996	103.716	-0.202	-0.236
-592.982	-15.891	0.196	0.124
-591.967	-12.945	-0.110	-0.071
-590.952	-7.791	0.232	0.156
-589.938	-102.592	0.218	0.052
-588.923	8.216	0.211	0.157
-587.909	-12.494	-0.188	-0.122
-586.894	75.743	0.041	-0.043
-585.879	-49.257	0.094	-0.044
-584.865	133.543	-0.192	0.247
-583.850	485.171	0.068	0.154
-582.836	336.534	-0.102	-0.196
-581.821	-143.658	-0.182	-0.017
-580.806	-200.000	0.043	-0.195
-579.792	95.353	0.103	0.116
-578.777	-83.776	-0.323	-0.102
-577.763	176.019	-0.070	-0.102
-576.748	-1.777	0.011	-0.007
-575.733	-10.244	0.225	-0.148
-574.719	800.000	0.063	-0.229
-573.704	-200.000	0.009	0.165
-572.690	141.902	-0.263	-0.346
-571.675	781.827	-0.141	-0.385
-570.661	800.000	-0.040	-0.109
-569.646	-147.495	-0.334	-0.028
-568.631	800.000	0.073	-0.200
-567.617	-200.000	0.050	-0.287
-566.602	681.943	0.096	0.249
-565.588	-149.261	-0.203	0.016
-564.573	-66.640	0.274	0.108
-563.558	-143.990	-0.173	-0.016
-562.544	-200.000	0.063	0.389
-561.529	-65.238	-0.348	-0.139
-560.515	-200.000	-0.040	-0.236
-559.500	-200.000	0.051	0.273
-558.485	330.674	-0.108	0.206
-557.471	-200.000	-0.008	-0.128
-556.456	-200.000	-0.033	0.339
-555.442	457.283	0.025	-0.055
-554.427	120.504	0.143	0.176
-553.412	38.446	0.195	-0.172
-552.398	274.037	0.120	-0.210
-551.383	-87.174	0.073	0.022
-550.369	-49.807	-0.397	-0.187
-549.354	185.782	-0.082	-0.121
-548.339	-90.484	0.241	-0.069
-547.325	-200.000	0.008	0.063
-546.310	-103.925	-0.241	-0.056
-545.296	-83.464	0.086	0.027
-544.281	-200.000	0.027	-0.342
-543.266	-24.052	-0.211	0.125
-542.252	-170.482	-0.164	0.006
-541.237	54.503	0.077	-0.074
-540.223	126.702	-0.215	-0.271
-539.208	8.090	-0.128	0.095
-538.193	800.000	-0.075	-0.294
-537.179	-200.000	-0.051	0.309
-536.164	800.000	-0.013	0.038
-535.150	800.000	-0.034	-0.133
-534.135	800.000	-0.103	-0.342
-533.121	-200.000	0.001	-0.126
-532.106	197.394	-0.183	-0.277
-531.091	-200.000	0.034	0.306
-530.077	-53.952	-0.091	-0.041
-529.062	702.626	-0.041	-0.106
-528.048	800.000	0.069	-0.199
-527.033	-22.257	0.191	-0.115
-526.018	-97.971	-0.266	-0.068
-525.004	378.187	0.025	0.050
-523.989	414.636	-0.024	0.050
-522.975	-200.000	0.066	-0.325
-521.960	-73.150	-0.168	0.061
-520.945	-95.347	0.147	-0.039
-519.931	-64.537	-0.138	-0.055
-518.916	-101.595	0.123	0.030
-517.902	-122.660	0.297	-0.048
-516.887	-73.228	0.119	0.043
-515.872	-43.917	0.111	-0.055
-514.858	-127.861	-0.141	0.020
-513.843	428.018	-0.145	-0.311
-512.829	-139.855	0.235	0.025
-511.814	-14.192	0.150	0.096
-510.799	-200.000	0.012	0.140
-509.785	-141.790	0.392	-0.039
-508.770	245.553	0.188	-0.313
-507.756	-1.434	-0.048	-0.034
-506.741	-3.955	0.076	0.052
-505.726	-79.413	-0.125	0.042
-504.712	-96.622	-0.418	-0.109
-503.697	20.977	0.195	0.156
-502.683	614.591	-0.083	-0.206
-501.668	224.730	0.103	-0.165
-500.653	-68.413	0.247	-0.095
-499.639	-200.000	0.078	-0.345
-498.624	15.251	-0.214	-0.166
-497.610	-69.656	0.167	0.063
-496.595	-200.000	-0.033	-0.438
-495.581	800.000	-0.041	0.150
-494.566	-14.068	0.137	0.087
-493.551	-145.805	0.117	0.010
-492.537	-57.822	-0.191	-0.083
-491.522	164.373	-0.138	-0.192
-490.508	-200.000	-0.006	-0.040
-489.493	-54.119	0.380	0.171
-488.478	166.112	-0.230	0.323
-487.464	-200.000	0.079	-0.000
-486.449	-153.861	0.191	0.013
-485.435	-165.141	0.215	-0.009
-484.420	-200.000	0.003	0.246
-483.405	262.461	0.113	-0.194
-482.391	-200.000	0.014	-0.356
-481.376	800.000	0.030	0.104
-480.362	120.666	-0.069	0.085
-479.347	-78.897	-0.321	0.108
-478.332	-107.397	-0.039	-0.009
-477.318	-157.227	-0.346	-0.021
-476.303	-2.036	-0.201	-0.140
-475.289	329.354	0.093	-0.176
-474.274	-5.835	-0.158	-0.107
-473.259	-200.000	0.011	0.179
-472.245	800.000	0.015	-0.046
-471.230	-51.060	-0.258	-0.119
-470.216	-200.000	0.015	-0.132
-469.201	800.000	-0.085	0.248
-468.186	201.596	0.089	0.135
-467.172	-200.000	-0.012	0.103
-466.157	-200.000	-0.041	-0.280
-465.143	-34.660	0.115	-0.062
-464.128	80.532	0.208	-0.221
-463.113	241.614	0.141	-0.232
-462.099	408.407	0.097	0.202
-461.084	-59.267	0.216	-0.092
-460.070	188.809	0.126	0.186
-459.055	-72.319	0.236	0.086
-458.040	-200.000	0.014	-0.364
-457.026	76.311	0.104	-0.108
-456.011	-200.000	-0.005	0.113
-454.997	87.743	-0.097	-0.106
-453.982	40.921	-0.232	0.206
-452.968	-200.000	-0.021	-0.125
-451.953	-63.622	0.101	0.041
-450.938	-120.061	-0.339	-0.057
-449.924	740.001	0.086	0.228
-448.909	235.402	0.131	-0.214
-447.895	-185.717	-0.192	0.003
-446.880	-200.000	-0.003	0.120
-445.865	-91.980	0.197	-0.055
-444.851	104.610	-0.164	-0.191
-443.836	-72.414	-0.215	-0.079
-442.822	73.949	-0.122	-0.127
-441.807	-135.213	-0.126	-0.015
-440.792	282.707	0.034	0.061
-439.778	-118.532	0.167	0.029
-438.763	-200.000	0.017	0.165
-437.749	-141.936	0.158	-0.016
-436.734	2.694	0.275	0.197
-435.719	-119.952	0.147	0.025
-434.705	-200.000	-0.010	-0.302
-433.690	48.704	-0.129	-0.119
-432.676	204.214	-0.066	-0.101
-431.661	-12.608	0.160	0.103
-430.646	201.726	-0.079	0.121
-429.632	-82.770	-0.267	0.085
-428.617	-108.612	-0.024	-0.005
-427.603	482.434	0.087	-0.195
-426.588	209.130	-0.050	0.077
-425.573	-200.000	0.029	-0.387
-424.559	459.317	-0.131	-0.288
-423.544	-23.024	-0.110	-0.065
-422.530	-31.898	0.207	0.114
-421.515	39.608	0.287	0.254
-420.500	800.000	-0.066	0.193
-419.486	800.000	0.053	0.152
-418.471	-200.000	0.023	-0.233
-417.457	-200.000	-0.017	-0.340
-416.442	-42.915	0.101	-0.051
-415.428	20.594	0.228	0.182
-414.413	-200.000	-0.049	-0.258
-413.398	-168.366	0.073	-0.003
-412.384	800.000	0.036	0.110
-411.369	740.896	0.029	-0.076
-410.355	16.752	-0.291	-0.227
-409.340	800.000	0.039	-0.140
-408.325	-146.175	-0.230	-0.020
-407.311	-200.000	-0.022	-0.189
-406.296	-13.653	0.302	0.193
-405.282	77.572	-0.060	0.063
-404.267	-200.000	-0.010	0.063
-403.252	44.469	0.412	-0.373
-402.238	-92.007	-0.060	0.017
-401.223	800.000	-0.023	-0.093
-400.209	-200.000	0.022	0.368
-399.194	-160.554	0.077	0.004
-398.179	800.000	0.039	0.144
-397.165	10.040	-0.128	0.096
-396.150	598.408	0.031	-0.075
-395.136	-76.977	-0.306	0.105
-394.121	553.323	-0.147	0.348
-393.106	152.614	-0.027	0.036
-392.092	-200.000	-0.045	-0.216
-391.077	-0.907	0.284	-0.198
-390.063	-82.812	-0.073	-0.023
-389.048	496.368	0.137	0.311
-388.033	405.134	0.219	0.456
-387.019	-200.000	0.005	0.166
-386.004	-94.202	-0.193	-0.052
-384.990	-137.898	0.066	-0.007
-383.975	-149.485	0.430	0.034
-382.960	198.107	0.136	0.205
-381.946	800.000	-0.085	-0.318
-380.931	-200.000	-0.080	-0.421
-379.917	267.594	-0.037	-0.064
-378.902	269.728	-0.051	-0.088
-377.888	-47.184	-0.211	0.101
-376.873	-200.000	0.011	-0.097
-375.858	-93.418	-0.167	0.046
-374.844	542.377	-0.064	0.150
-373.829	-76.464	-0.559	0.193
-372.815	139.967	0.106	0.138
-371.800	2.749	-0.214	-0.153
-370.785	-66.808	0.043	-0.017
-369.771	251.149	-0.087	0.146
-368.756	-143.941	-0.085	0.008
-367.742	54.192	0.109	-0.103
-366.727	-200.000	-0.036	0.178
-365.712	800.000	-0.031	0.093
-364.698	-92.321	0.085	-0.024
-363.683	789.538	-0.062	0.168
-362.669	-37.221	0.068	0.036
-361.654	-200.000	-0.080	-0.374
-360.639	27.662	0.284	0.235
-359.625	106.091	-0.063	0.073
-358.610	215.970	-0.172	0.269
-357.596	188.388	-0.137	0.202
-356.581	-78.389	-0.453	-0.153
-355.566	-130.595	0.288	-0.038
-354.552	-56.269	0.098	0.043
-353.537	-21.962	-0.192	0.115
-352.523	-200.000	0.069	0.365
-351.508	780.658	-0.054	0.146
-350.493	493.765	0.085	0.191
-349.479	190.643	-0.108	-0.160
-348.464	371.889	0.069	-0.138
-347.450	52.758	0.111	-0.104
-346.435	-185.268	0.144	-0.002
-345.420	367.470	0.044	0.088
-344.406	800.000	-0.012	0.036
-343.391	427.729	0.055	0.117
-342.377	384.593	-0.071	0.144
-341.362	-96.219	0.274	-0.071
-340.348	369.467	0.052	-0.104
-339.333	-72.297	-0.089	-0.033
-338.318	-51.604	0.215	-0.099
-337.304	-113.644	-0.017	-0.003
-336.289	-120.885	-0.372	0.062
-335.275	-200.000	0.028	0.182
-334.260	70.032	0.440	0.446
-333.245	373.407	0.089	0.179
-332.231	5.554	0.153	0.111
-331.216	389.851	0.062	0.127
-330.202	370.389	-0.144	0.287
-329.187	71.996	0.132	-0.135
-328.172	87.872	-0.178	0.194
-327.158	-84.360	0.202	0.063
-326.143	-200.000	0.042	0.218
-325.129	128.867	0.098	0.123
-324.114	-145.849	-0.140	0.012
-323.099	114.574	0.095	0.114
-322.085	-60.348	0.186	-0.078
-321.070	-131.283	-0.265	0.035
-320.056	-200.000	0.060	0.393
-319.041	662.719	-0.093	0.235
-318.026	-25.196	0.187	0.109
-317.012	-200.000	0.015	-0.074
-315.997	-200.000	0.028	-0.425
-314.983	-16.690	-0.123	0.076
-313.968	204.694	-0.123	0.187
-312.953	698.348	0.129	-0.335
-311.939	800.000	0.039	-0.148
-310.924	114.248	0.096	0.114
-309.910	-200.000	0.002	0.073
-308.895	-117.202	0.265	0.047
-307.880	800.000	-0.020	0.079
-306.866	-115.577	-0.099	-0.018
-305.851	87.424	0.043	0.047
-304.837	-107.851	0.339	0.072
-303.822	-200.000	0.025	-0.139
-302.807	-98.521	0.144	0.036
-301.793	394.683	-0.223	0.457
-300.778	800.000	0.047	0.152
-299.764	-104.008	-0.306	-0.070
-298.749	-107.815	-0.078	0.017
-297.735	800.000	0.083	0.327
-296.720	67.580	-0.170	0.170
-295.705	-200.000	-0.001	-0.092
-294.691	-10.998	0.043	0.028
-293.676	-21.052	0.132	0.079
-292.662	-95.044	-0.067	-0.018
-291.647	87.508	-0.071	-0.077
-290.632	320.939	-0.058	0.108
-289.618	-49.897	0.249	-0.116
-288.603	-89.722	-0.334	0.096
-287.589	6.981	0.157	0.115
-286.574	-200.000	-0.013	0.183
-285.559	323.670	0.146	-0.273
-284.545	-200.000	-0.022	-0.251
-283.530	-60.435	-0.305	0.127
-282.516	52.535	-0.145	-0.135
-281.501	800.000	0.037	-0.101
-280.486	326.446	0.124	0.234
-279.472	-116.003	0.126	-0.023
-278.457	165.732	0.118	-0.164
-277.443	800.000	0.022	-0.079
-276.428	240.466	0.103	-0.168
-275.413	-100.491	-0.243	0.059
-274.399	313.720	-0.215	-0.396
-273.384	-200.000	0.028	-0.267
-272.370	-200.000	-0.028	0.147
-271.355	-68.840	0.109	0.041
-270.340	-71.244	0.188	-0.069
-269.326	-177.084	-0.156	-0.004
-268.311	-139.991	-0.285	-0.029
-267.297	-114.677	0.161	0.030
-266.282	53.806	-0.388	-0.365
-265.267	3.279	-0.273	-0.195
-264.253	-62.253	-0.146	-0.060
-263.238	339.613	-0.092	-0.176
-262.224	-200.000	0.009	0.331
-261.209	475.186	-0.046	0.103
-260.195	131.058	-0.070	0.088
-259.180	800.000	-0.072	-0.211
-258.165	-147.610	-0.121	0.010
-257.151	800.000	-0.125	-0.389
-256.136	315.986	0.100	-0.184
-255.122	297.627	-0.251	-0.453
-254.107	-82.304	-0.124	-0.040
-253.092	-200.000	-0.021	0.188
-252.078	-80.726	0.300	0.098
-251.063	-27.772	-0.225	-0.128
-250.049	-92.251	0.305	0.084
-249.034	800.000	-0.028	-0.099
-248.019	-52.313	-0.159	-0.072
-247.005	-17.540	-0.086	-0.053
-245.990	343.285	-0.060	-0.114
-244.976	-3.647	0.068	0.046
-243.961	155.616	0.147	-0.198
-242.946	-141.311	-0.491	-0.049
-241.932	753.139	-0.151	-0.400
-240.917	-12.607	-0.310	-0.198
-239.903	-92.193	0.122	-0.034
-238.888	-110.042	0.177	0.036
-237.873	-200.000	0.013	0.124
-236.859	235.078	-0.295	0.477
-235.844	186.983	0.131	0.192
-234.830	289.504	0.124	0.221
-233.815	60.587	-0.172	-0.167
-232.800	208.370	0.028	-0.043
-231.786	-163.475	0.244	-0.011
-230.771	78.896	0.108	0.114
-229.757	-200.000	0.042	-0.374
-228.742	6.711	0.307	0.223
-227.727	619.892	0.060	0.148
-226.713	64.454	0.244	0.241
-225.698	-200.000	-0.002	-0.018
-224.684	-172.907	0.506	-0.015
-223.669	10.517	-0.282	0.211
-222.655	-130.620	0.184	-0.024
-221.640	-84.212	-0.120	-0.037
-220.625	-30.135	0.210	0.117
-219.611	-37.003	-0.249	0.131
-218.596	345.611	0.215	0.414
-217.582	-163.152	0.149	0.007
-216.567	-200.000	0.010	0.109
-215.552	-51.443	0.346	0.158
-214.538	-134.254	-0.472	-0.057
-213.523	63.854	0.034	0.034
-212.509	237.770	0.087	-0.141
-211.494	-133.161	-0.343	0.042
-210.479	159.120	-0.188	0.256
-209.465	-80.833	-0.093	0.030
-208.450	-173.869	-0.155	0.004
-207.436	-47.327	0.178	-0.085
-206.421	-56.509	0.269	-0.117
-205.406	271.946	0.152	0.263
-204.392	136.629	0.256	0.327
-203.377	-139.048	-0.335	-0.036
-202.363	-170.762	-0.380	0.013
-201.348	66.847	-0.175	0.174
-200.333	-133.946	0.140	-0.017
-199.319	-200.000	-0.019	-0.085
-198.304	-80.488	-0.521	-0.170
-197.290	-106.823	-0.097	0.021
-196.275	-117.531	-0.223	-0.039
-195.260	-147.460	0.160	0.013
-194.246	-147.467	-0.089	-0.007
-193.231	307.063	-0.164	-0.298
-192.217	-103.884	-0.184	-0.042
-191.202	-38.040	0.079	0.041
-190.187	198.804	0.146	-0.219
-189.173	39.923	-0.082	0.072
-188.158	-70.985	-0.113	-0.041
-187.144	272.911	0.197	-0.340
-186.129	-171.199	0.156	-0.005
-185.114	-48.480	-0.034	0.016
-184.100	58.584	-0.116	-0.111
-183.085	-25.662	0.052	-0.030
-182.071	412.877	0.169	-0.351
-181.056	-105.672	0.283	0.063
-180.042	7.426	-0.079	-0.058
-179.027	-200.000	0.026	0.222
-178.012	-47.755	0.185	-0.088
-176.998	-200.000	-0.010	-0.054
-175.983	-64.375	0.362	-0.144
-174.969	121.307	0.155	0.189
-173.954	-41.187	-0.253	-0.128
-172.939	-200.000	0.025	0.200
-171.925	-200.000	0.017	0.378
-170.910	-74.500	-0.094	0.033
-169.896	451.805	0.069	-0.149
-168.881	-104.235	0.408	-0.092
-167.866	-5.335	-0.252	0.169
-166.852	-200.000	-0.093	0.515
-165.837	-90.280	0.184	0.052
-164.823	247.095	-0.024	-0.040
-163.808	25.311	0.287	-0.233
-162.793	555.351	-0.096	-0.226
-161.779	-96.303	-0.127	-0.033
-160.764	-49.641	0.089	0.042
-159.750	-37.905	0.222	0.115
-158.735	-112.248	0.215	-0.042
-157.720	97.207	0.070	-0.078
-156.706	172.659	-0.208	0.293
-155.691	-153.268	-0.190	0.013
-154.677	800.000	0.068	0.189
-153.662	-61.515	0.104	-0.043
-152.647	35.969	0.292	-0.251
-151.633	139.980	0.103	0.132
-150.618	3.831	-0.149	0.106
-149.604	-87.567	0.269	-0.079
-148.589	-200.000	-0.008	-0.173
-147.574	-15.704	0.102	0.064
-146.560	-200.000	-0.009	0.077
-145.545	278.688	0.130	-0.226
-144.531	7.044	-0.297	0.216
-143.516	332.390	-0.093	0.175
-142.502	-200.000	-0.009	0.055
-141.487	-11.226	0.201	-0.129
-140.472	92.126	0.255	-0.280
-139.458	800.000	-0.090	0.334
-138.443	-185.187	-0.398	-0.006
-137.429	-200.000	-0.024	-0.117
-136.414	-96.083	-0.283	-0.074
-135.399	-200.000	0.043	-0.315
-134.385	-200.000	0.005	-0.560
-133.370	-200.000	-0.048	-0.475
-132.356	-110.126	-0.521	-0.106
-131.341	-107.591	-0.415	0.089
-130.326	-23.155	0.321	-0.189
-129.312	2.540	0.123	-0.087
-128.297	-200.000	0.001	-0.083
-127.283	-200.000	-0.008	0.153
-126.268	800.000	-0.046	0.132
-125.253	-200.000	-0.002	-0.234
-124.239	-162.377	-0.065	0.003
-123.224	688.293	0.016	-0.041
-122.210	194.609	-0.126	0.187
