DTS Sentinel unit serial number:	SN413079Multiplexer serial number:	ORYXHardware model number:	OX4-SRSoftware version number:	ORYX F/W v4.00 Oryx Data Collector v3.7.2.0data status	okinstallation	princeton_trtdifferential loss correction	single-endedforward channel	channel 3reverse channel	N/Adate	2019/09/19time	04:44:35forward acquisition time	60.00reverse acquisition time	0.00gamma	496.2192k internal	0.2348k external	0.2348temperature offset calibration	0.9992default loss term (dB/km)	0.3790temperature slope calibration	1.0000multiplexer offset coefficient	1.0000multiplexer slope coefficient	1.0000fibre end	0.00T internal ref (°C)	19.94T ext. ref 1 (°C)	0.62T ext. ref 2 (°C)	12.98length (m)	temperature (°C)	Stokes	anti-Stokes-747.200	-88.178	0.177	0.053
-746.185	-127.415	-0.205	-0.030
-745.171	175.767	0.105	0.152
-744.156	-3.041	-0.290	-0.202
-743.142	-84.295	0.172	0.054
-742.127	-83.581	-0.343	0.110
-741.112	-99.651	0.321	0.080
-740.098	144.042	0.049	0.066
-739.083	-28.397	-0.027	0.015
-738.069	-37.742	-0.232	0.123
-737.054	91.416	-0.278	0.312
-736.039	-69.768	-0.270	0.103
-735.025	23.181	0.216	0.177
-734.010	62.660	-0.133	-0.133
-732.996	-130.116	-0.296	0.040
-731.981	-78.080	-0.180	0.062
-730.966	-131.204	0.428	0.057
-729.952	272.294	-0.117	0.207
-728.937	-13.129	-0.251	-0.163
-727.923	81.107	0.131	0.142
-726.908	74.318	-0.196	-0.206
-725.894	-136.399	-0.294	0.034
-724.879	206.385	0.150	-0.233
-723.864	-135.994	0.146	0.017
-722.850	2.890	0.352	0.255
-721.835	-200.000	-0.010	0.083
-720.821	-200.000	-0.097	0.489
-719.806	-53.987	-0.150	0.068
-718.791	-73.813	0.322	-0.117
-717.777	173.596	0.101	0.145
-716.762	-200.000	0.031	-0.277
-715.748	-200.000	0.002	0.122
-714.733	-76.889	-0.320	-0.112
-713.718	-200.000	-0.026	-0.200
-712.704	-200.000	0.019	-0.164
-711.689	-142.155	-0.293	-0.029
-710.675	-23.388	0.291	0.175
-709.660	-30.573	0.057	-0.032
-708.645	741.064	0.029	0.079
-707.631	-21.874	0.219	-0.133
-706.616	75.352	-0.095	0.100
-705.602	-57.830	0.042	-0.018
-704.587	372.061	-0.071	-0.144
-703.572	-124.300	-0.017	0.003
-702.558	98.578	-0.059	-0.068
-701.543	14.309	0.119	0.093
-700.529	133.091	0.025	-0.032
-699.514	-44.537	-0.164	0.082
-698.499	774.347	-0.055	0.151
-697.485	22.328	0.103	0.084
-696.470	-59.738	0.300	-0.128
-695.456	112.732	0.230	0.278
-694.441	-200.000	0.001	-0.320
-693.426	86.905	0.147	0.162
-692.412	800.000	-0.099	0.352
-691.397	800.000	-0.028	0.100
-690.383	-93.618	-0.091	0.025
-689.368	-90.371	-0.263	-0.076
-688.354	328.613	0.155	-0.297
-687.339	-17.100	-0.056	-0.035
-686.324	-31.198	-0.203	0.114
-685.310	214.191	0.011	0.018
-684.295	-200.000	-0.022	-0.118
-683.281	83.099	0.353	-0.383
-682.266	84.338	-0.278	-0.304
-681.251	94.761	-0.130	0.148
-680.237	-118.354	-0.289	-0.051
-679.222	128.932	0.204	-0.259
-678.208	277.566	0.142	-0.252
-677.193	661.531	-0.105	0.271
-676.178	-116.554	-0.283	-0.052
-675.164	-200.000	-0.003	0.245
-674.149	-4.387	-0.102	0.070
-673.135	61.640	0.013	0.013
-672.120	-200.000	0.005	-0.158
-671.105	196.102	-0.127	-0.193
-670.091	58.919	-0.199	-0.195
-669.076	-96.322	0.215	-0.057
-668.062	-200.000	-0.003	0.178
-667.047	300.786	-0.080	0.147
-666.032	-20.590	-0.054	0.033
-665.018	28.203	-0.409	-0.344
-664.003	401.914	0.104	-0.217
-662.989	-114.945	-0.317	-0.060
-661.974	-107.383	0.055	-0.012
-660.959	800.000	0.055	-0.192
-659.945	-12.611	0.171	0.111
-658.930	619.860	0.096	-0.241
-657.916	112.001	-0.046	0.055
-656.901	4.766	-0.143	0.104
-655.886	-2.878	-0.358	0.249
-654.872	157.501	0.155	0.214
-653.857	-62.352	0.218	-0.090
-652.843	800.000	-0.026	0.082
-651.828	121.565	0.065	0.080
-650.814	300.657	-0.041	0.075
-649.799	54.899	0.262	-0.252
-648.784	800.000	-0.032	-0.106
-647.770	198.497	0.164	-0.249
-646.755	-87.951	-0.245	-0.073
-645.741	25.274	0.222	-0.184
-644.726	800.000	0.067	0.219
-643.711	423.635	0.019	0.040
-642.697	800.000	0.080	0.221
-641.682	464.601	0.065	0.144
-640.668	645.011	-0.141	-0.359
-639.653	-59.835	-0.293	-0.125
-638.638	8.409	0.304	0.228
-637.624	172.344	-0.041	0.059
-636.609	607.791	-0.044	0.109
-635.595	1.835	-0.115	0.083
-634.580	34.155	0.139	-0.121
-633.565	-67.691	-0.120	-0.047
-632.551	66.146	0.064	0.065
-631.536	800.000	-0.017	-0.074
-630.522	-90.810	0.103	-0.030
-629.507	42.271	-0.220	-0.199
-628.492	106.779	0.088	-0.104
-627.478	101.771	-0.102	-0.118
-626.463	-134.587	0.213	0.026
-625.449	12.705	0.067	0.052
-624.434	301.851	-0.148	-0.272
-623.419	-200.000	-0.083	-0.398
-622.405	-76.357	-0.249	-0.087
-621.390	45.994	-0.116	0.107
-620.376	-200.000	0.052	-0.280
-619.361	-176.875	0.100	0.003
-618.346	719.231	-0.010	-0.026
-617.332	457.616	0.134	0.297
-616.317	-168.169	-0.139	-0.005
-615.303	82.557	-0.113	-0.122
-614.288	-147.857	-0.354	-0.029
-613.273	-24.130	0.123	0.073
-612.259	77.861	0.085	0.091
-611.244	136.542	0.111	-0.143
-610.230	-6.065	0.094	0.064
-609.215	-200.000	0.000	0.067
-608.201	800.000	0.052	-0.143
-607.186	204.808	0.129	0.198
-606.171	-200.000	-0.028	-0.160
-605.157	-142.734	-0.228	0.022
-604.142	11.626	-0.396	0.302
-603.128	105.769	0.053	-0.062
-602.113	-200.000	0.071	-0.575
-601.098	133.943	0.106	-0.136
-600.084	-150.456	0.257	-0.020
-599.069	-97.521	-0.153	0.039
-598.055	-64.353	0.118	0.048
-597.040	-86.741	0.159	-0.048
-596.025	-0.974	-0.330	0.232
-595.011	-200.000	0.008	0.111
-593.996	-76.742	-0.349	0.121
-592.982	-200.000	0.010	0.444
-591.967	800.000	-0.085	-0.258
-590.952	-162.420	-0.048	-0.002
-589.938	308.551	-0.230	-0.427
-588.923	-140.090	-0.222	0.023
-587.909	40.407	0.246	-0.220
-586.894	-72.679	0.254	-0.093
-585.879	15.489	-0.288	0.224
-584.865	-200.000	0.001	0.063
-583.850	411.071	-0.078	-0.165
-582.836	-200.000	-0.017	0.187
-581.821	-200.000	-0.004	-0.265
-580.806	213.700	-0.209	-0.329
-579.792	98.560	0.091	-0.104
-578.777	362.854	-0.107	-0.212
-577.763	3.351	0.212	-0.154
-576.748	-144.569	0.287	-0.026
-575.733	92.539	0.110	-0.123
-574.719	-200.000	0.023	-0.199
-573.704	9.856	0.183	-0.138
-572.690	-115.715	-0.229	-0.043
-571.675	22.275	-0.081	0.066
-570.661	-200.000	-0.019	-0.092
-569.646	221.619	-0.159	-0.254
-568.631	-44.535	0.389	0.193
-567.617	800.000	0.011	0.036
-566.602	-200.000	0.061	-0.337
-565.588	16.807	-0.271	-0.213
-564.573	35.994	-0.159	0.139
-563.558	118.676	-0.209	-0.257
-562.544	800.000	0.071	0.206
-561.529	122.194	0.184	-0.228
-560.515	-45.902	0.371	0.182
-559.500	800.000	0.042	-0.171
-558.485	-151.200	-0.106	-0.008
-557.471	-66.779	-0.179	-0.070
-556.456	-140.266	-0.170	0.018
-555.442	-79.162	-0.270	0.091
-554.427	326.402	-0.120	-0.229
-553.412	52.222	0.138	-0.130
-552.398	800.000	-0.048	0.151
-551.383	800.000	0.027	0.086
-550.369	-129.727	0.275	0.038
-549.354	290.895	-0.190	0.343
-548.339	-43.138	-0.150	-0.075
-547.325	-55.862	-0.315	-0.140
-546.310	297.070	-0.147	0.268
-545.296	-0.653	0.114	-0.080
-544.281	-97.883	-0.417	-0.107
-543.266	523.982	-0.074	-0.172
-542.252	564.962	0.061	-0.146
-541.237	800.000	-0.068	0.216
-540.223	-38.961	0.485	-0.253
-539.208	-200.000	-0.038	0.369
-538.193	-159.008	0.072	-0.004
-537.179	-85.574	0.450	-0.139
-536.164	800.000	0.069	-0.257
-535.150	-29.167	-0.283	-0.161
-534.135	361.440	0.082	-0.163
-533.121	-154.443	0.085	-0.006
-532.106	-200.000	-0.016	-0.179
-531.091	-83.994	0.249	-0.079
-530.077	-200.000	-0.011	-0.455
-529.062	-10.204	-0.197	-0.129
-528.048	-200.000	0.024	0.409
-527.033	-95.918	-0.106	-0.028
-526.018	36.416	0.188	0.164
-525.004	379.596	-0.020	0.041
-523.989	-136.285	0.227	-0.026
-522.975	-200.000	0.021	-0.249
-521.960	65.308	-0.130	0.130
-520.945	188.660	-0.132	-0.196
-519.931	-33.351	-0.283	-0.155
-518.916	-200.000	-0.012	-0.131
-517.902	186.459	-0.150	0.221
-516.887	522.558	-0.145	0.337
-515.872	-200.000	0.002	-0.227
-514.858	671.704	-0.088	0.225
-513.843	189.149	-0.071	0.106
-512.829	-67.643	-0.083	0.032
-511.814	162.604	0.179	0.248
-510.799	-200.000	-0.130	0.617
-509.785	-125.986	0.325	0.048
-508.770	69.803	0.188	0.192
-507.756	177.285	-0.054	-0.078
-506.741	-200.000	-0.025	-0.120
-505.726	60.304	-0.096	-0.094
-504.712	68.681	0.163	0.165
-503.697	-200.000	0.004	0.150
-502.683	87.735	-0.224	0.245
-501.668	204.857	-0.083	-0.128
-500.653	800.000	-0.056	-0.226
-499.639	-156.124	-0.126	0.008
-498.624	-48.982	0.362	0.172
-497.610	184.903	0.037	-0.054
-496.595	65.952	-0.058	0.058
-495.581	-20.551	-0.124	-0.075
-494.566	50.009	0.126	-0.118
-493.551	800.000	-0.118	-0.374
-492.537	182.855	0.228	0.333
-491.522	-12.196	0.330	0.214
-490.508	-69.263	-0.101	0.039
-489.493	-200.000	0.087	-0.524
-488.478	800.000	0.032	-0.112
-487.464	800.000	-0.144	0.440
-486.449	-142.011	-0.396	0.039
-485.435	-167.203	0.267	-0.011
-484.420	-139.739	-0.263	0.028
-483.405	9.975	-0.244	-0.183
-482.391	342.837	0.117	-0.226
-481.376	-123.970	0.190	-0.030
-480.362	-200.000	0.040	0.257
-479.347	800.000	0.086	0.305
-478.332	-83.885	-0.107	-0.034
-477.318	-200.000	0.003	0.180
-476.303	-200.000	0.010	-0.234
-475.289	555.987	-0.005	-0.012
-474.274	-10.753	-0.305	-0.199
-473.259	-192.754	-0.245	0.002
-472.245	-29.076	0.143	0.081
-471.230	-129.443	-0.213	0.029
-470.216	196.687	0.098	-0.148
-469.201	-200.000	0.029	0.128
-468.186	-16.721	0.252	-0.158
-467.172	56.564	-0.059	0.057
-466.157	784.707	-0.021	-0.057
-465.143	800.000	0.058	0.231
-464.128	-44.865	-0.088	0.043
-463.113	329.557	0.182	-0.346
-462.099	-88.697	-0.157	-0.046
-461.084	353.111	0.186	-0.364
-460.070	735.947	0.059	0.155
-459.055	-12.653	-0.278	0.179
-458.040	292.339	0.058	-0.104
-457.026	-42.418	-0.090	-0.045
-456.011	11.363	-0.260	-0.197
-454.997	-112.546	-0.277	0.055
-453.982	-94.751	-0.319	0.086
-452.968	129.515	-0.244	-0.308
-451.953	-109.747	0.101	-0.021
-450.938	92.325	-0.208	0.231
-449.924	170.772	-0.283	-0.401
-448.909	-29.065	0.227	0.129
-447.895	800.000	-0.037	0.154
-446.880	-200.000	-0.013	0.106
-445.865	-31.262	-0.319	0.178
-444.851	800.000	-0.125	-0.450
-443.836	-7.893	0.144	0.096
-442.822	-200.000	0.019	-0.298
-441.807	11.883	0.185	0.140
-440.792	-3.347	0.209	-0.144
-439.778	121.143	-0.091	-0.112
-438.763	328.919	0.170	0.323
-437.749	800.000	0.069	0.278
-436.734	412.434	0.006	-0.012
-435.719	512.651	0.099	0.227
-434.705	-200.000	0.070	0.313
-433.690	-200.000	0.006	0.051
-432.676	144.064	-0.068	-0.090
-431.661	800.000	-0.032	-0.124
-430.646	-53.638	0.297	-0.134
-429.632	116.104	-0.267	-0.322
-428.617	264.789	0.142	0.245
-427.603	-94.774	-0.186	0.050
-426.588	-62.605	-0.090	0.037
-425.573	-200.000	-0.005	0.224
-424.559	11.510	-0.101	0.077
-423.544	-43.160	-0.367	0.183
-422.530	-196.682	-0.137	-0.001
-421.515	-130.758	-0.456	0.060
-420.500	50.546	0.173	0.162
-419.486	273.924	-0.089	-0.155
-418.471	800.000	-0.051	-0.139
-417.457	800.000	0.024	0.081
-416.442	-200.000	-0.056	-0.251
-415.428	-131.667	-0.170	-0.022
-414.413	-26.446	0.224	0.129
-413.398	401.895	0.065	0.135
-412.384	-200.000	0.016	0.084
-411.369	65.201	0.072	-0.071
-410.355	37.974	0.026	-0.023
-409.340	62.638	-0.297	-0.293
-408.325	195.212	-0.166	-0.249
-407.311	800.000	0.120	0.362
-406.296	483.474	-0.112	-0.251
-405.282	-37.275	0.150	-0.079
-404.267	800.000	-0.041	-0.150
-403.252	-98.964	0.191	-0.048
-402.238	372.032	-0.179	-0.358
-401.223	-123.736	-0.159	0.025
-400.209	-35.879	0.179	0.096
-399.194	258.340	-0.115	-0.196
-398.179	-200.000	-0.006	0.309
-397.165	174.847	0.132	0.188
-396.150	800.000	-0.029	-0.079
-395.136	-82.530	0.212	-0.068
-394.121	117.721	0.071	-0.086
-393.106	467.572	0.070	0.156
-392.092	568.056	-0.112	-0.267
-391.077	-56.846	0.469	-0.204
-390.063	-80.099	-0.018	-0.006
-389.048	34.066	-0.150	0.129
-388.033	-42.174	-0.345	0.174
-387.019	-113.684	-0.173	0.033
-386.004	800.000	0.078	-0.240
-384.990	161.437	0.259	-0.357
-383.975	587.552	-0.157	-0.380
-382.960	-35.851	-0.049	-0.026
-381.946	81.015	0.205	0.218
-380.931	-37.331	-0.153	0.080
-379.917	-108.967	0.272	0.057
-378.902	688.175	-0.068	0.175
-377.888	-52.527	0.325	0.148
-376.873	-123.180	0.283	0.045
-375.858	57.553	-0.282	-0.271
-374.844	-139.228	0.133	0.014
-373.829	-21.239	-0.225	-0.135
-372.815	-200.000	0.015	0.126
-371.800	37.272	0.135	0.118
-370.785	605.975	-0.118	0.289
-369.771	205.135	0.044	-0.067
-368.756	-200.000	-0.017	0.315
-367.742	205.800	0.156	-0.239
-366.727	296.703	0.243	0.439
-365.712	-200.000	0.040	0.398
-364.698	241.152	0.066	0.108
-363.683	-19.821	-0.398	0.242
-362.669	-29.197	0.186	0.105
-361.654	-35.426	0.048	-0.026
-360.639	-172.380	-0.181	-0.006
-359.625	48.260	-0.065	0.060
-358.610	-107.592	0.083	0.018
-357.596	538.385	-0.058	0.136
-356.581	800.000	0.022	-0.088
-355.566	-53.746	0.075	-0.034
-354.552	173.822	0.126	0.179
-353.537	-126.677	0.232	-0.034
-352.523	800.000	-0.059	-0.241
-351.508	-200.000	-0.008	-0.240
-350.493	124.641	0.126	-0.155
-349.479	57.098	-0.382	-0.367
-348.464	-121.119	-0.454	0.075
-347.450	-161.487	0.135	0.007
-346.435	-7.021	-0.062	0.042
-345.420	88.954	-0.345	0.378
-344.406	-136.042	0.380	0.044
-343.391	-200.000	0.004	-0.115
-342.377	583.661	0.015	-0.037
-341.362	-200.000	0.008	0.299
-340.348	-19.688	-0.173	0.105
-339.333	-25.579	0.178	-0.103
-338.318	36.123	0.154	0.133
-337.304	-95.536	0.310	0.082
-336.289	-149.867	-0.172	-0.013
-335.275	-200.000	-0.020	-0.108
-334.260	800.000	-0.106	-0.359
-333.245	-141.613	-0.122	-0.012
-332.231	194.077	-0.192	-0.286
-331.216	81.600	-0.356	0.379
-330.202	-43.686	0.333	0.165
-329.187	-127.559	0.165	-0.023
-328.172	302.121	-0.134	-0.244
-327.158	596.067	-0.126	0.308
-326.143	800.000	0.118	0.455
-325.129	-149.173	0.241	0.019
-324.114	-200.000	-0.112	0.522
-323.099	267.693	0.124	0.214
-322.085	155.114	0.131	-0.178
-321.070	542.127	-0.077	-0.180
-320.056	-126.407	0.068	0.010
-319.041	-6.523	0.141	0.095
-318.026	-24.073	-0.225	-0.132
-317.012	574.124	0.133	0.318
-315.997	-10.188	-0.154	0.100
-314.983	-96.781	-0.485	0.125
-313.968	-121.907	-0.146	0.024
-312.953	-200.000	-0.056	-0.253
-311.939	-9.946	0.092	0.060
-310.924	-139.316	-0.266	-0.028
-309.910	-200.000	-0.001	0.099
-308.895	-200.000	0.014	-0.111
-307.880	17.378	0.039	-0.031
-306.866	42.130	0.171	0.153
-305.851	-200.000	0.056	0.343
-304.837	414.736	-0.215	-0.451
-303.822	-8.549	0.454	-0.300
-302.807	800.000	0.033	0.120
-301.793	-200.000	-0.015	-0.083
-300.778	-17.647	0.058	0.036
-299.764	-157.507	-0.033	-0.002
-298.749	197.557	0.141	0.212
-297.735	-200.000	0.003	0.060
-296.720	129.480	-0.068	0.085
-295.705	-113.183	-0.242	-0.047
-294.691	-90.042	-0.276	0.079
-293.676	13.373	0.277	0.211
-292.662	93.533	0.177	0.197
-291.647	-200.000	0.006	-0.103
-290.632	-200.000	-0.035	-0.432
-289.618	-1.476	-0.292	-0.202
-288.603	172.836	-0.163	-0.231
-287.589	-200.000	-0.024	-0.111
-286.574	-102.258	0.318	0.075
-285.559	800.000	0.043	-0.160
-284.545	43.439	-0.049	-0.044
-283.530	-200.000	0.010	-0.111
-282.516	77.463	-0.257	0.268
-281.501	-57.440	-0.089	-0.038
-280.486	0.491	-0.137	-0.096
-279.472	658.801	0.087	0.221
-278.457	800.000	-0.067	0.226
-277.443	800.000	0.078	-0.283
-276.428	-60.344	0.360	0.150
-275.413	-60.596	0.230	-0.096
-274.399	-51.288	0.160	0.073
-273.384	800.000	0.115	0.446
-272.370	-132.235	-0.074	0.009
-271.355	162.891	-0.056	0.077
-270.340	-200.000	-0.031	-0.175
-269.326	-62.174	0.084	-0.034
-268.311	3.584	-0.149	-0.107
-267.297	3.078	-0.046	-0.033
-266.282	31.998	-0.240	0.203
-265.267	-157.102	0.294	-0.018
-264.253	-28.213	0.148	-0.084
-263.238	15.529	0.272	-0.209
-262.224	82.249	-0.301	0.320
-261.209	-22.781	-0.132	-0.078
-260.195	-11.586	0.073	0.047
-259.180	164.136	0.136	-0.188
-258.165	-200.000	0.008	-0.122
-257.151	-92.677	0.222	-0.061
-256.136	31.385	-0.133	0.112
-255.122	-39.562	0.093	-0.048
-254.107	115.401	-0.169	0.202
-253.092	-79.438	0.136	-0.045
-252.078	390.989	0.111	-0.225
-251.063	-50.706	0.164	-0.076
-250.049	-200.000	-0.005	-0.159
-249.034	-104.147	0.190	0.043
-248.019	800.000	0.028	0.119
-247.005	37.058	0.050	-0.043
-245.990	295.484	0.094	0.169
-244.976	-116.698	-0.005	0.001
-243.961	70.566	0.136	-0.138
-242.946	-164.552	0.374	-0.017
-241.932	-44.073	0.092	0.045
-240.917	-57.116	-0.262	-0.113
-239.903	65.392	0.196	-0.195
-238.888	-3.960	0.273	-0.185
-237.873	459.850	0.122	0.265
-236.859	91.861	0.240	-0.265
-235.844	-200.000	0.068	-0.329
-234.830	-200.000	0.010	0.094
-233.815	-200.000	-0.011	-0.224
-232.800	494.432	-0.098	0.220
-231.786	154.362	-0.156	0.209
-230.771	254.315	0.129	0.215
-229.757	203.214	0.069	-0.104
-228.742	57.895	-0.145	0.139
-227.727	126.966	0.086	0.106
-226.713	104.161	0.204	0.235
-225.698	49.615	0.192	0.177
-224.684	-101.809	-0.163	0.039
-223.669	18.259	0.241	0.188
-222.655	-89.568	0.245	-0.070
-221.640	265.091	0.115	0.197
-220.625	368.081	-0.097	0.191
-219.611	525.341	0.168	0.386
-218.596	239.759	-0.105	-0.171
-217.582	-149.652	0.264	-0.020
-216.567	-124.828	0.355	-0.054
-215.552	-200.000	-0.056	0.323
-214.538	596.108	-0.060	0.146
-213.523	-39.588	-0.107	-0.055
-212.509	182.681	-0.096	0.138
-211.494	-54.134	0.263	0.117
-210.479	-39.218	-0.149	0.077
-209.465	800.000	-0.084	0.266
-208.450	145.273	-0.074	0.096
-207.436	-200.000	0.011	-0.067
-206.421	800.000	0.084	0.244
-205.406	-87.330	-0.175	-0.052
-204.392	-63.435	-0.169	-0.068
-203.377	160.484	0.144	0.196
-202.363	3.881	0.092	-0.066
-201.348	76.523	-0.067	-0.070
-200.333	-24.850	-0.270	0.157
-199.319	800.000	-0.043	0.144
-198.304	1.595	0.085	-0.060
-197.290	-148.337	0.174	-0.014
-196.275	800.000	0.067	0.231
-195.260	-159.060	-0.352	-0.019
-194.246	-132.486	0.261	0.033
-193.231	-7.292	-0.131	-0.087
-192.217	-200.000	0.015	0.215
-191.202	-5.850	0.043	0.029
-190.187	170.803	-0.050	-0.070
-189.173	249.761	-0.137	-0.228
-188.158	-109.960	-0.148	0.030
-187.144	50.837	-0.196	0.181
-186.129	-12.989	0.188	0.120
-185.114	-5.179	0.169	0.114
-184.100	118.638	0.195	-0.235
-183.085	-128.376	-0.312	-0.043
-182.071	21.303	0.168	-0.134
-181.056	79.657	0.130	0.137
-180.042	800.000	-0.034	0.137
-179.027	192.696	-0.157	-0.232
-178.012	280.669	-0.025	-0.044
-176.998	543.516	0.031	-0.072
-175.983	-137.663	0.070	-0.008
-174.969	60.444	0.071	-0.069
-173.954	800.000	0.052	-0.193
-172.939	70.489	0.120	-0.121
-171.925	-117.456	0.273	0.048
-170.910	779.535	0.080	-0.213
-169.896	37.885	-0.071	-0.062
-168.881	5.597	-0.212	0.153
-167.866	-99.074	-0.148	0.037
-166.852	223.989	-0.093	-0.147
-165.837	-116.574	0.275	-0.049
-164.823	800.000	0.112	0.347
-163.808	238.786	-0.171	0.277
-162.793	-9.439	0.085	-0.055
-161.779	800.000	0.032	-0.098
-160.764	67.443	0.085	0.085
-159.750	-23.469	0.122	0.072
-158.735	609.092	0.047	-0.115
-157.720	-97.810	0.263	0.066
-156.706	751.641	0.093	0.246
-155.691	56.676	-0.058	-0.055
-154.677	-12.767	-0.190	-0.121
-153.662	178.922	-0.084	0.119
-152.647	-128.154	0.152	-0.021
-151.633	149.320	-0.120	0.158
-150.618	-200.000	-0.182	0.000
-149.604	3.443	-0.201	0.143
-148.589	105.876	0.080	-0.092
-147.574	209.841	-0.133	0.203
-146.560	179.215	-0.196	-0.280
-145.545	616.270	0.058	0.141
-144.531	-121.288	-0.139	-0.023
-143.516	-31.745	-0.229	0.125
-142.502	-34.492	0.114	-0.061
-141.487	235.793	0.219	0.353
-140.472	21.624	0.183	-0.145
-139.458	-164.228	0.077	-0.003
-138.443	-200.000	-0.104	-0.474
-137.429	-200.000	0.004	-0.158
-136.414	-187.641	-0.275	0.004
-135.399	-200.000	-0.013	0.221
-134.385	-200.000	-0.068	0.306
-133.370	-120.848	-0.202	0.033
-132.356	800.000	-0.013	0.038
-131.341	412.762	-0.105	0.218
-130.326	53.914	0.175	-0.164
-129.312	16.863	-0.055	0.043
-128.297	64.596	0.069	-0.067
-127.283	695.423	-0.096	-0.246
-126.268	301.023	-0.068	0.122
-125.253	-200.000	0.028	0.130
-124.239	800.000	-0.100	-0.308
-123.224	-157.860	0.100	0.006
-122.210	-200.000	0.010	-0.193
-121.195	-80.803	-0.390	-0.126
-120.180	800.000	-0.061	-0.210
