DTS Sentinel unit serial number:	SN413079Multiplexer serial number:	ORYXHardware model number:	OX4-SRSoftware version number:	ORYX F/W v4.00 Oryx Data Collector v3.7.2.0data status	okinstallation	princeton_trtdifferential loss correction	single-endedforward channel	channel 3reverse channel	N/Adate	2019/09/14time	16:48:35forward acquisition time	60.00reverse acquisition time	0.00gamma	496.2192k internal	0.2294k external	0.2294temperature offset calibration	1.0035default loss term (dB/km)	0.3790temperature slope calibration	1.0000multiplexer offset coefficient	1.0000multiplexer slope coefficient	1.0000fibre end	0.00T internal ref (°C)	38.00T ext. ref 1 (°C)	5.00T ext. ref 2 (°C)	33.79length (m)	temperature (°C)	Stokes	anti-Stokes-747.200	-47.758	-0.200	0.099
-746.185	-38.910	0.113	0.061
-745.171	13.941	0.352	0.280
-744.156	-79.933	0.209	0.072
-743.142	-200.000	0.050	-0.305
-742.127	-13.170	0.236	0.157
-741.112	-200.000	-0.008	-0.281
-740.098	-200.000	0.052	0.336
-739.083	75.351	0.134	-0.145
-738.069	171.796	0.127	0.187
-737.054	-81.890	-0.255	0.085
-736.039	-18.458	-0.387	-0.247
-735.025	-41.750	0.353	0.185
-734.010	-200.000	0.010	0.083
-732.996	174.198	-0.041	-0.061
-731.981	-200.000	-0.064	-0.411
-730.966	482.554	-0.077	0.178
-729.952	-168.920	0.343	0.013
-728.937	80.719	-0.153	0.168
-727.923	-69.247	-0.083	-0.033
-726.908	-10.565	0.239	0.162
-725.894	-134.170	-0.442	-0.056
-724.879	-124.285	-0.443	0.071
-723.864	800.000	0.030	-0.087
-722.850	268.332	0.058	0.103
-721.835	-145.384	-0.247	-0.023
-720.821	225.791	0.058	-0.096
-719.806	-200.000	-0.060	-0.320
-718.791	-200.000	0.021	-0.143
-717.777	-200.000	0.041	0.377
-716.762	564.417	0.106	0.263
-715.748	-200.000	0.065	-0.355
-714.733	-61.564	-0.171	0.073
-713.718	32.602	-0.230	0.203
-712.704	800.000	-0.037	0.140
-711.689	23.137	0.237	0.198
-710.675	212.472	0.121	0.195
-709.660	-29.667	0.082	-0.048
-708.645	106.207	0.076	-0.092
-707.631	-54.191	0.248	-0.115
-706.616	-50.844	0.152	-0.073
-705.602	493.686	-0.084	0.196
-704.587	-45.996	-0.311	0.157
-703.572	157.911	0.090	0.127
-702.558	-198.060	0.340	0.002
-701.543	800.000	-0.013	0.047
-700.529	-38.982	0.074	-0.040
-699.514	-105.388	0.182	-0.042
-698.499	2.483	0.318	0.235
-697.485	800.000	-0.064	0.224
-696.470	166.073	-0.152	-0.220
-695.456	-133.988	-0.266	0.034
-694.441	-147.280	0.196	0.017
-693.426	-37.468	0.124	-0.068
-692.412	109.430	-0.133	0.162
-691.397	-200.000	0.018	0.158
-690.383	-16.678	0.121	0.078
-689.368	515.314	0.176	-0.418
-688.354	2.196	0.351	-0.259
-687.339	-200.000	0.051	-0.412
-686.324	524.171	-0.109	-0.261
-685.310	25.505	-0.168	-0.143
-684.295	240.929	-0.171	-0.291
-683.281	-5.549	-0.196	-0.137
-682.266	44.297	-0.059	0.055
-681.251	516.136	0.031	0.073
-680.237	-104.249	0.255	0.060
-679.222	-200.000	0.004	0.048
-678.208	-84.065	-0.336	-0.109
-677.193	-200.000	-0.015	0.100
-676.178	800.000	-0.017	-0.060
-675.164	156.825	-0.121	-0.170
-674.149	6.061	-0.326	0.247
-673.135	-44.297	0.059	-0.030
-672.120	-200.000	0.023	-0.169
-671.105	-61.580	-0.214	-0.092
-670.091	800.000	0.020	0.058
-669.076	-11.466	-0.216	-0.145
-668.062	-200.000	-0.009	0.149
-667.047	41.720	-0.069	0.064
-666.032	-126.800	-0.118	-0.018
-665.018	-200.000	0.019	0.176
-664.003	-48.276	0.229	-0.112
-662.989	-112.250	-0.249	0.051
-661.974	800.000	-0.099	-0.364
-660.959	26.528	-0.158	-0.134
-659.945	-102.017	0.297	-0.073
-658.930	33.580	-0.039	0.035
-657.916	32.314	0.013	-0.012
-656.901	206.808	-0.148	-0.235
-655.886	-42.114	0.100	0.052
-654.872	256.877	0.114	-0.200
-653.857	46.218	-0.082	-0.077
-652.843	33.685	-0.206	-0.183
-651.828	10.438	0.217	0.168
-650.814	-95.137	0.333	0.092
-649.799	3.224	0.089	0.066
-648.784	-7.012	0.183	0.127
-647.770	269.467	-0.115	0.205
-646.755	-109.144	0.236	0.051
-645.741	-70.719	0.068	0.026
-644.726	94.287	0.239	0.277
-643.711	30.083	0.209	-0.182
-642.697	484.187	-0.184	-0.426
-641.682	134.589	0.281	0.371
-640.668	403.781	0.096	-0.206
-639.653	-159.042	-0.169	0.010
-638.638	-166.395	-0.130	-0.006
-637.624	145.277	0.135	0.184
-636.609	800.000	0.035	0.115
-635.595	-200.000	0.032	0.204
-634.580	800.000	0.098	0.283
-633.565	673.570	0.098	-0.258
-632.551	-200.000	0.015	0.151
-631.536	-200.000	-0.033	0.226
-630.522	-90.759	0.098	0.029
-629.507	-50.321	0.069	-0.033
-628.492	107.470	-0.102	0.123
-627.478	-90.179	-0.238	0.070
-626.463	-19.411	0.268	-0.169
-625.449	-200.000	-0.026	0.255
-624.434	-69.841	-0.420	-0.163
-623.419	365.402	0.055	0.113
-622.405	-126.269	-0.153	0.023
-621.390	367.970	0.163	-0.335
-620.376	-126.571	-0.232	0.035
-619.361	-200.000	0.001	0.211
-618.346	421.324	-0.093	-0.204
-617.332	-94.136	0.225	-0.063
-616.317	-84.224	0.135	-0.044
-615.303	247.023	0.057	0.098
-614.288	31.836	-0.197	0.173
-613.273	-200.000	0.018	-0.213
-612.259	-65.315	0.311	-0.127
-611.244	800.000	0.096	0.302
-610.230	297.877	-0.114	-0.213
-609.215	-112.634	0.456	0.092
-608.201	-75.389	-0.111	0.040
-607.186	-162.663	-0.279	0.014
-606.171	42.242	0.093	-0.086
-605.157	800.000	0.163	-0.474
-604.142	800.000	-0.015	0.052
-603.128	19.560	-0.125	-0.103
-602.113	87.426	-0.116	0.130
-601.098	151.649	0.212	-0.294
-600.084	-177.902	0.125	0.003
-599.069	-98.682	-0.212	-0.055
-598.055	800.000	-0.150	-0.528
-597.040	153.921	0.169	-0.236
-596.025	-63.927	-0.195	0.081
-595.011	764.653	0.081	-0.223
-593.996	-200.000	0.018	-0.210
-592.982	-69.007	0.208	0.082
-591.967	-200.000	-0.030	-0.281
-590.952	-127.847	-0.129	0.019
-589.938	-82.454	-0.483	0.159
-588.923	48.704	0.171	-0.163
-587.909	85.408	-0.259	0.289
-586.894	800.000	-0.017	-0.056
-585.879	-108.130	0.093	-0.021
-584.865	-86.450	0.249	-0.078
-583.850	800.000	-0.078	-0.226
-582.836	-81.670	0.093	0.031
-581.821	226.630	0.068	-0.112
-580.806	-171.524	-0.221	-0.007
-579.792	-1.986	-0.246	-0.176
-578.777	-58.662	0.261	-0.115
-577.763	800.000	0.063	-0.263
-576.748	577.320	0.053	0.131
-575.733	-155.103	0.068	0.005
-574.719	279.430	-0.159	-0.288
-573.704	-70.096	-0.174	0.067
-572.690	360.936	0.054	0.110
-571.675	620.121	0.132	0.338
-570.661	-154.854	0.349	0.023
-569.646	-200.000	-0.076	-0.378
-568.631	7.658	-0.217	-0.165
-567.617	-91.630	-0.067	-0.020
-566.602	83.333	-0.048	-0.053
-565.588	-21.142	0.046	-0.029
-564.573	370.701	-0.078	0.160
-563.558	97.617	-0.152	0.177
-562.544	800.000	-0.018	-0.063
-561.529	-45.596	-0.092	-0.046
-560.515	-18.654	-0.260	0.165
-559.500	220.585	-0.016	0.027
-558.485	-26.346	-0.360	0.215
-557.471	2.022	0.062	0.045
-556.456	-97.539	0.150	0.040
-555.442	317.474	0.100	0.192
-554.427	-84.990	0.166	0.053
-553.412	-65.604	0.099	0.040
-552.398	-160.758	-0.226	0.012
-551.383	-88.012	-0.250	-0.076
-550.369	770.685	-0.048	-0.132
-549.354	102.555	-0.173	-0.205
-548.339	-128.307	-0.210	-0.030
-547.325	-158.731	-0.101	0.006
-546.310	-200.000	0.008	-0.160
-545.296	376.970	0.051	0.106
-544.281	37.779	-0.134	-0.120
-543.266	-8.931	-0.223	0.151
-542.252	136.390	0.129	-0.170
-541.237	-200.000	0.007	0.068
-540.223	-170.136	-0.160	0.006
-539.208	284.345	0.135	-0.246
-538.193	-59.235	-0.226	0.099
-537.179	-200.000	-0.029	-0.229
-536.164	-200.000	-0.019	0.220
-535.150	-147.463	-0.158	0.014
-534.135	-66.334	0.146	0.059
-533.121	-91.962	-0.183	-0.053
-532.106	-23.066	0.205	-0.125
-531.091	800.000	0.117	-0.388
-530.077	-200.000	-0.036	-0.260
-529.062	-6.226	-0.084	0.058
-528.048	-200.000	-0.004	-0.065
-527.033	-200.000	0.066	-0.403
-526.018	72.866	-0.201	0.213
-525.004	-200.000	-0.018	0.125
-523.989	-122.721	0.059	0.010
-522.975	-73.604	0.154	-0.057
-521.960	-200.000	0.056	-0.308
-520.945	-200.000	0.012	0.071
-519.931	193.382	0.030	0.046
-518.916	-163.259	0.344	0.017
-517.902	-116.510	0.084	-0.016
-516.887	-115.014	0.253	0.049
-515.872	-122.675	0.420	0.069
-514.858	-200.000	0.023	0.394
-513.843	-85.415	-0.268	-0.085
-512.829	800.000	0.147	-0.420
-511.814	-200.000	-0.011	-0.127
-510.799	-200.000	0.010	0.068
-509.785	-200.000	-0.012	-0.144
-508.770	-109.628	-0.201	-0.043
-507.756	-103.868	-0.254	0.060
-506.741	-157.715	0.360	-0.022
-505.726	-200.000	-0.015	0.189
-504.712	-138.721	-0.211	-0.023
-503.697	103.587	-0.253	0.301
-502.683	-118.882	0.144	0.026
-501.668	-200.000	0.045	-0.414
-500.653	800.000	-0.033	-0.135
-499.639	202.964	-0.180	0.282
-498.624	408.035	-0.088	0.187
-497.610	-76.219	-0.317	-0.113
-496.595	-136.753	0.165	0.019
-495.581	268.118	0.118	-0.209
-494.566	386.499	-0.134	0.281
-493.551	86.277	0.055	0.061
-492.537	800.000	-0.031	-0.095
-491.522	800.000	0.021	-0.059
-490.508	-178.271	-0.422	-0.010
-489.493	-11.456	0.220	-0.146
-488.478	-130.036	-0.088	0.012
-487.464	-155.293	0.253	-0.017
-486.449	-22.207	0.297	0.182
-485.435	-34.891	0.134	-0.074
-484.420	-94.304	-0.088	0.024
-483.405	800.000	0.037	0.117
-482.391	9.202	0.102	0.078
-481.376	-200.000	0.026	-0.121
-480.362	800.000	0.067	0.205
-479.347	5.292	-0.168	0.125
-478.332	191.304	0.140	0.213
-477.318	-16.965	0.385	0.246
-476.303	0.288	0.220	-0.159
-475.289	197.485	-0.149	-0.231
-474.274	494.076	0.083	-0.193
-473.259	-59.541	0.288	-0.125
-472.245	541.333	-0.056	0.135
-471.230	769.896	-0.061	0.167
-470.216	800.000	-0.063	0.254
-469.201	-36.858	0.155	-0.084
-468.186	-200.000	-0.088	-0.547
-467.172	-200.000	0.008	-0.121
-466.157	-102.231	0.323	-0.079
-465.143	-105.033	0.359	0.083
-464.128	-158.692	-0.267	0.016
-463.113	153.123	0.046	-0.063
-462.099	195.123	0.069	0.106
-461.084	800.000	-0.019	-0.077
-460.070	324.270	0.176	-0.341
-459.055	-120.680	0.368	-0.063
-458.040	-71.275	-0.128	-0.048
-457.026	-200.000	-0.068	-0.364
-456.011	784.936	0.032	0.089
-454.997	77.050	-0.162	0.174
-453.982	71.694	-0.218	-0.229
-452.968	54.183	0.103	-0.100
-451.953	-200.000	-0.021	-0.144
-450.938	-28.849	-0.261	-0.152
-449.924	-28.588	0.126	-0.073
-448.909	-200.000	0.010	0.337
-447.895	72.929	0.261	0.275
-446.880	-91.425	-0.159	-0.046
-445.865	52.536	0.152	-0.147
-444.851	45.172	-0.122	0.114
-443.836	438.862	-0.179	0.395
-442.822	800.000	0.070	0.298
-441.807	58.269	0.043	-0.042
-440.792	66.532	0.103	-0.106
-439.778	242.711	0.057	0.097
-438.763	254.539	-0.132	0.228
-437.749	800.000	-0.027	0.090
-436.734	-166.396	-0.130	-0.006
-435.719	221.829	0.155	-0.251
-434.705	147.207	-0.130	-0.177
-433.690	-16.766	-0.359	-0.229
-432.676	-153.152	-0.181	-0.013
-431.661	468.965	0.074	0.168
-430.646	155.071	0.130	0.181
-429.632	-200.000	-0.029	0.276
-428.617	-200.000	-0.017	0.274
-427.603	21.031	0.088	-0.072
-426.588	331.826	-0.110	-0.213
-425.573	-200.000	-0.026	0.334
-424.559	-20.773	-0.309	-0.191
-423.544	-200.000	0.057	-0.297
-422.530	-19.976	0.279	-0.174
-421.515	-90.447	0.357	0.105
-420.500	-200.000	-0.016	0.087
-419.486	-97.727	-0.315	0.082
-418.471	71.224	0.324	-0.339
-417.457	-107.153	0.079	0.018
-416.442	211.685	0.098	0.156
-415.428	-133.654	0.385	-0.049
-414.413	2.402	0.153	0.112
-413.398	-200.000	-0.006	-0.068
-412.384	-126.941	0.306	0.045
-411.369	-138.585	-0.149	0.017
-410.355	-37.377	-0.134	0.072
-409.340	-71.345	0.030	0.011
-408.325	-200.000	-0.006	-0.259
-407.311	-117.699	-0.203	-0.037
-406.296	203.338	-0.185	0.289
-405.282	209.891	-0.162	-0.257
-404.267	-61.858	0.233	0.098
-403.252	-103.020	-0.168	-0.040
-402.238	-197.528	-0.565	0.004
-401.223	130.468	0.014	0.018
-400.209	-93.521	-0.350	-0.098
-399.194	800.000	-0.036	0.123
-398.179	223.291	-0.068	0.111
-397.165	495.123	0.076	0.177
-396.150	-200.000	0.015	0.156
-395.136	52.684	0.188	-0.181
-394.121	-140.867	-0.373	0.039
-393.106	-200.000	0.072	0.322
-392.092	57.660	0.309	-0.305
-391.077	88.765	-0.205	-0.231
-390.063	-44.989	0.082	-0.041
-389.048	633.610	-0.175	0.448
-388.033	706.948	-0.086	0.228
-387.019	-121.569	-0.149	0.025
-386.004	248.526	0.243	0.415
-384.990	800.000	0.030	-0.107
-383.975	-10.347	-0.083	0.056
-382.960	-4.052	0.303	-0.212
-381.946	800.000	0.034	-0.112
-380.931	-200.000	-0.028	-0.230
-379.917	-77.093	-0.216	0.076
-378.902	-200.000	-0.004	0.126
-377.888	12.220	0.266	-0.206
-376.873	-15.413	-0.202	-0.130
-375.858	70.300	0.308	-0.321
-374.844	269.428	0.231	-0.408
-373.829	324.083	-0.201	-0.387
-372.815	691.764	-0.040	0.107
-371.800	-102.371	0.152	-0.037
-370.785	218.613	-0.038	0.061
-369.771	102.631	0.239	0.282
-368.756	-125.435	0.176	-0.027
-367.742	85.030	0.137	0.151
-366.727	86.870	0.126	-0.140
-365.712	800.000	-0.017	0.049
-364.698	-148.326	0.370	0.031
-363.683	-200.000	-0.017	0.134
-362.669	-200.000	0.007	0.089
-361.654	-88.217	-0.245	-0.074
-360.639	178.287	0.102	0.150
-359.625	-67.242	-0.135	0.054
-358.610	-69.157	-0.156	0.061
-357.596	-115.829	0.239	0.045
-356.581	800.000	-0.083	-0.248
-355.566	-167.244	0.194	-0.008
-354.552	288.550	-0.118	-0.214
-353.537	269.092	0.127	0.224
-352.523	800.000	-0.028	-0.093
-351.508	800.000	-0.039	-0.171
-350.493	-54.165	0.081	-0.037
-349.479	317.806	-0.082	0.156
-348.464	-200.000	0.001	-0.146
-347.450	20.293	-0.036	0.029
-346.435	-144.150	-0.195	0.018
-345.420	800.000	0.029	-0.120
-344.406	13.849	0.260	-0.204
-343.391	65.781	0.079	0.081
-342.377	-200.000	0.223	-0.000
-341.362	-117.326	-0.389	0.071
-340.348	-49.483	0.253	-0.121
-339.333	29.673	-0.069	0.059
-338.318	-26.325	-0.345	-0.204
-337.304	-39.929	0.200	-0.105
-336.289	143.976	0.088	0.118
-335.275	-130.300	0.310	-0.042
-334.260	-28.449	0.054	-0.032
-333.245	-200.000	-0.006	-0.360
-332.231	221.413	-0.067	0.108
-331.216	57.110	-0.121	0.119
-330.202	144.880	-0.009	-0.013
-329.187	159.558	0.110	-0.154
-328.172	249.814	-0.184	0.315
-327.158	104.913	-0.083	0.099
-326.143	-100.268	0.084	0.021
-325.129	800.000	0.047	-0.140
-324.114	-200.000	0.075	0.475
-323.099	131.629	-0.178	0.230
-322.085	299.055	-0.079	-0.147
-321.070	-200.000	0.045	-0.212
-320.056	-72.043	-0.211	-0.079
-319.041	-26.902	-0.178	0.104
-318.026	-200.000	0.022	-0.161
-317.012	-3.968	-0.240	0.167
-315.997	62.612	0.264	0.265
-314.983	-121.807	0.232	0.039
-313.968	25.553	0.103	-0.086
-312.953	-21.327	-0.390	0.240
-311.939	-7.743	0.126	0.085
-310.924	-20.785	0.169	0.104
-309.910	-200.000	0.030	0.208
-308.895	-170.901	-0.074	-0.003
-307.880	-76.477	-0.234	0.083
-306.866	800.000	-0.067	-0.242
-305.851	189.723	-0.138	-0.208
-304.837	36.168	-0.151	0.133
-303.822	-83.333	0.305	-0.098
-302.807	800.000	0.048	0.158
-301.793	-200.000	0.009	0.079
-300.778	-99.051	0.046	-0.012
-299.764	-200.000	0.018	0.184
-298.749	33.627	-0.047	-0.041
-297.735	800.000	0.126	-0.414
-296.720	338.195	-0.041	0.080
-295.705	-77.712	-0.159	-0.055
-294.691	800.000	0.021	0.088
-293.676	21.606	0.372	0.304
-292.662	-200.000	-0.024	0.237
-291.647	-200.000	0.046	0.225
-290.632	-48.745	0.018	0.009
-289.618	-200.000	0.043	-0.348
-288.603	-171.170	0.294	-0.010
-287.589	169.249	-0.275	0.395
-286.574	797.800	-0.069	-0.190
-285.559	-18.917	0.315	0.197
-284.545	-200.000	-0.065	0.287
-283.530	483.736	-0.060	0.138
-282.516	-89.620	0.208	0.061
-281.501	-127.504	-0.412	-0.060
-280.486	-95.728	-0.094	-0.025
-279.472	800.000	0.080	0.264
-278.457	800.000	-0.085	0.329
-277.443	-200.000	-0.006	-0.178
-276.428	-65.215	0.238	-0.096
-275.413	-185.108	0.118	-0.002
-274.399	800.000	-0.027	-0.089
-273.384	228.409	0.069	-0.113
-272.370	-200.000	0.033	0.288
-271.355	800.000	0.034	0.128
-270.340	-34.017	-0.270	-0.149
-269.326	800.000	0.066	-0.207
-268.311	800.000	0.063	0.245
-267.297	74.737	0.096	-0.101
-266.282	-36.335	-0.016	0.008
-265.267	98.927	-0.200	0.232
-264.253	259.099	0.109	-0.188
-263.238	221.083	0.132	-0.213
-262.224	-83.161	-0.437	-0.141
-261.209	-136.094	-0.200	-0.024
-260.195	760.705	-0.093	0.252
-259.180	-200.000	0.038	-0.300
-258.165	-51.110	-0.283	0.133
-257.151	125.703	0.102	0.130
-256.136	-141.619	-0.137	-0.014
-255.122	547.307	-0.074	-0.178
-254.107	-13.701	-0.058	0.038
-253.092	68.088	0.057	0.059
-252.078	213.000	-0.074	-0.117
-251.063	-34.729	-0.379	0.208
-250.049	188.619	-0.069	0.103
-249.034	202.607	-0.136	-0.211
-248.019	800.000	-0.072	-0.205
-247.005	800.000	-0.070	-0.249
-245.990	-200.000	-0.022	-0.153
-244.976	-200.000	0.005	0.147
-243.961	-118.219	-0.201	-0.036
-242.946	-80.790	0.301	-0.100
-241.932	-143.289	0.347	-0.033
-240.917	-92.788	-0.079	0.022
-239.903	-48.846	-0.336	-0.162
-238.888	790.193	-0.102	0.280
-237.873	290.659	-0.018	0.032
-236.859	289.135	0.115	0.208
-235.844	161.974	0.075	-0.105
-234.830	313.408	0.073	-0.138
-233.815	90.863	0.160	0.180
-232.800	800.000	0.095	0.327
-231.786	-68.793	-0.035	-0.014
-230.771	-200.000	-0.020	0.175
-229.757	-200.000	-0.004	-0.415
-228.742	-152.749	0.103	-0.007
-227.727	-146.122	-0.172	-0.015
-226.713	-38.122	0.171	-0.091
-225.698	164.840	-0.133	-0.188
-224.684	159.884	0.101	-0.141
-223.669	-25.657	0.279	0.165
-222.655	800.000	-0.021	-0.065
-221.640	187.545	-0.037	0.055
-220.625	-200.000	-0.058	-0.265
-219.611	29.979	-0.115	0.098
-218.596	800.000	0.117	0.406
-217.582	-104.738	0.141	0.032
-216.567	-54.883	-0.193	-0.087
-215.552	-137.440	0.098	0.011
-214.538	18.079	-0.340	-0.272
-213.523	67.877	0.090	0.093
-212.509	-61.300	0.262	-0.110
-211.494	-63.943	0.282	0.116
-210.479	14.564	-0.162	-0.127
-209.465	-86.157	-0.402	-0.124
-208.450	317.036	-0.046	0.087
-207.436	148.136	-0.118	-0.159
-206.421	182.619	0.054	0.079
-205.406	164.915	0.095	-0.134
-204.392	38.221	0.349	0.312
-203.377	800.000	0.022	0.093
-202.363	14.018	0.250	-0.195
-201.348	-40.029	-0.254	0.133
-200.333	-200.000	-0.009	-0.112
-199.319	-25.855	-0.261	-0.154
-198.304	-25.394	-0.379	0.225
-197.290	56.169	-0.187	0.182
-196.275	56.659	0.044	0.043
-195.260	-3.814	0.325	0.226
-194.246	800.000	-0.043	-0.153
-193.231	454.079	0.184	-0.409
-192.217	32.430	-0.177	0.153
-191.202	-25.715	0.173	0.102
-190.187	-44.385	-0.143	0.071
-189.173	132.881	0.193	-0.250
-188.158	29.683	-0.126	-0.108
-187.144	-164.949	-0.610	0.027
-186.129	23.582	0.235	0.194
-185.114	-52.202	-0.114	0.053
-184.100	74.294	-0.208	0.219
-183.085	-116.152	0.096	0.018
-182.071	-70.389	-0.407	0.155
-181.056	-106.092	-0.215	-0.048
-180.042	3.574	0.133	0.097
-179.027	135.264	0.090	0.117
-178.012	-2.533	0.060	-0.042
-176.998	377.288	0.150	-0.307
-175.983	29.465	0.132	-0.112
-174.969	31.275	0.149	-0.128
-173.954	800.000	0.110	0.416
-172.939	-112.966	0.014	-0.003
-171.925	131.465	0.124	-0.159
-170.910	-13.522	0.153	0.099
-169.896	235.374	0.250	0.412
-168.881	800.000	0.039	0.146
-167.866	-134.010	0.395	0.049
-166.852	347.553	-0.092	-0.181
-165.837	32.624	-0.076	0.066
-164.823	-200.000	-0.014	0.206
-163.808	29.778	-0.057	0.049
-162.793	24.540	0.108	0.090
-161.779	800.000	0.048	0.171
-160.764	-200.000	0.053	-0.311
-159.750	421.149	-0.062	0.133
-158.735	-200.000	0.019	0.199
-157.720	-108.149	-0.325	-0.070
-156.706	-148.758	-0.322	-0.026
-155.691	297.369	-0.113	0.207
-154.677	-200.000	-0.044	0.277
-153.662	-62.622	-0.145	0.060
-152.647	-175.217	0.042	0.001
-151.633	296.869	-0.102	-0.186
-150.618	-200.000	0.035	-0.205
-149.604	-200.000	-0.003	-0.078
-148.589	-200.000	0.028	0.239
-147.574	264.702	0.050	0.086
-146.560	68.199	0.091	-0.094
-145.545	-200.000	0.072	0.324
-144.531	-166.470	-0.129	-0.005
-143.516	-200.000	0.014	0.252
-142.502	576.279	-0.099	0.241
-141.487	76.192	-0.136	0.144
-140.472	610.448	0.043	0.108
-139.458	800.000	0.028	0.121
-138.443	-3.172	0.127	0.089
-137.429	25.771	-0.260	-0.216
-136.414	800.000	0.058	0.181
-135.399	-94.906	-0.419	-0.113
-134.385	-200.000	0.443	-0.000
-133.370	547.137	-0.052	0.124
-132.356	800.000	0.092	-0.300
-131.341	-16.985	0.269	0.170
-130.326	63.796	-0.133	0.133
-129.312	-55.128	-0.077	-0.035
-128.297	-99.820	0.142	0.036
-127.283	800.000	0.047	-0.171
-126.268	539.985	-0.138	0.329
-125.253	-104.974	0.181	0.041
-124.239	-62.234	0.226	0.094
-123.224	19.203	-0.029	0.023
-122.210	629.917	0.029	0.073
-121.195	-200.000	0.025	-0.137
-120.180	-200.000	0.069	-0.338
