DTS Sentinel unit serial number:	SN413079Multiplexer serial number:	ORYXHardware model number:	OX4-SRSoftware version number:	ORYX F/W v4.00 Oryx Data Collector v3.7.2.0data status	okinstallation	princeton_trtdifferential loss correction	single-endedforward channel	channel 3reverse channel	N/Adate	2019/09/19time	14:28:35forward acquisition time	60.00reverse acquisition time	0.00gamma	496.2192k internal	0.2320k external	0.2320temperature offset calibration	1.0006default loss term (dB/km)	0.3790temperature slope calibration	1.0000multiplexer offset coefficient	1.0000multiplexer slope coefficient	1.0000fibre end	0.00T internal ref (°C)	32.12T ext. ref 1 (°C)	1.07T ext. ref 2 (°C)	29.30length (m)	temperature (°C)	Stokes	anti-Stokes-747.200	-200.000	0.077	0.382
-746.185	233.996	0.085	0.141
-745.171	147.802	0.149	0.204
-744.156	279.531	-0.249	0.450
-743.142	134.247	0.033	-0.043
-742.127	548.604	-0.157	0.380
-741.112	482.425	0.090	0.206
-740.098	-84.849	0.142	0.045
-739.083	-86.441	0.158	-0.049
-738.069	-167.427	-0.295	0.012
-737.054	134.387	0.064	-0.084
-736.039	800.000	0.024	-0.107
-735.025	-108.571	0.162	-0.035
-734.010	44.909	-0.233	0.217
-732.996	-200.000	0.348	-0.001
-731.981	-62.885	-0.282	0.118
-730.966	73.540	0.092	-0.098
-729.952	20.461	-0.150	0.123
-728.937	-200.000	0.037	-0.274
-727.923	-37.873	-0.274	0.147
-726.908	-22.335	0.254	-0.156
-725.894	-29.815	-0.217	-0.125
-724.879	18.378	-0.129	-0.104
-723.864	49.359	0.144	0.137
-722.850	-200.000	0.003	-0.424
-721.835	-91.857	-0.090	-0.026
-720.821	-36.550	0.154	-0.084
-719.806	130.081	-0.188	-0.243
-718.791	21.190	0.233	-0.191
-717.777	-131.662	0.128	-0.017
-716.762	660.721	-0.054	-0.141
-715.748	-200.000	-0.011	0.095
-714.733	-58.554	0.084	0.037
-713.718	248.430	0.054	-0.093
-712.704	-108.252	0.109	0.024
-711.689	-156.695	0.149	-0.009
-710.675	-36.945	-0.384	-0.208
-709.660	232.229	0.099	-0.165
-708.645	-200.000	-0.005	-0.244
-707.631	-98.649	0.398	-0.103
-706.616	-90.055	0.422	-0.124
-705.602	-90.934	-0.268	-0.078
-704.587	-118.183	0.166	0.030
-703.572	-52.398	-0.135	0.063
-702.558	-79.737	-0.131	0.044
-701.543	-36.347	0.190	-0.103
-700.529	800.000	0.089	-0.303
-699.514	-200.000	0.006	-0.221
-698.499	-6.787	0.227	-0.156
-697.485	-67.008	0.283	-0.113
-696.470	-200.000	0.024	-0.120
-695.456	274.237	-0.137	-0.245
-694.441	28.538	-0.214	0.183
-693.426	800.000	0.097	-0.375
-692.412	686.323	0.028	0.075
-691.397	-112.695	-0.151	-0.030
-690.383	-72.683	0.252	-0.094
-689.368	637.375	-0.082	0.210
-688.354	-200.000	0.001	0.178
-687.339	382.087	0.156	-0.324
-686.324	-46.013	-0.031	-0.015
-685.310	397.521	0.073	-0.154
-684.295	700.647	-0.142	-0.377
-683.281	-200.000	-0.012	-0.132
-682.266	-200.000	0.047	-0.364
-681.251	110.499	-0.194	0.235
-680.237	286.682	0.124	-0.225
-679.222	800.000	0.035	0.122
-678.208	19.863	0.123	-0.100
-677.193	800.000	-0.106	-0.341
-676.178	32.213	0.223	-0.194
-675.164	224.903	0.073	0.119
-674.149	8.499	0.118	-0.090
-673.135	-23.128	-0.101	-0.061
-672.120	-44.533	0.109	0.055
-671.105	211.070	-0.290	0.460
-670.091	800.000	-0.058	0.246
-669.076	-194.089	-0.169	0.001
-668.062	171.692	0.010	-0.015
-667.047	-38.181	-0.108	0.058
-666.032	470.409	0.071	0.160
-665.018	-156.213	0.156	0.010
-664.003	-200.000	-0.039	-0.348
-662.989	-132.928	0.203	0.026
-661.974	-200.000	-0.056	0.363
-660.959	-25.104	-0.151	0.090
-659.945	-32.210	-0.481	0.271
-658.930	-119.716	0.269	0.047
-657.916	-48.155	0.166	0.081
-656.901	-145.351	0.187	0.017
-655.886	53.516	0.310	0.300
-654.872	544.750	-0.059	-0.141
-653.857	-135.615	0.102	0.012
-652.843	-43.031	0.450	0.230
-651.828	-200.000	0.003	-0.094
-650.814	800.000	0.056	-0.161
-649.799	-83.972	-0.364	-0.117
-648.784	152.644	-0.141	0.194
-647.770	-200.000	0.019	-0.095
-646.755	133.646	0.137	-0.178
-645.741	-200.000	-0.024	-0.403
-644.726	-152.153	-0.127	-0.009
-643.711	-142.221	-0.507	-0.051
-642.697	800.000	0.095	-0.307
-641.682	-6.010	-0.148	0.102
-640.668	-9.879	0.333	-0.223
-639.653	19.847	-0.131	-0.106
-638.638	397.845	-0.166	0.349
-637.624	-200.000	0.035	-0.197
-636.609	329.643	-0.173	-0.335
-635.595	-139.225	-0.233	-0.025
-634.580	-58.688	0.076	0.033
-633.565	-47.786	0.110	0.053
-632.551	245.960	-0.170	0.289
-631.536	-102.265	-0.183	0.044
-630.522	800.000	-0.074	-0.258
-629.507	-119.762	-0.394	-0.068
-628.492	-200.000	0.020	-0.303
-627.478	417.571	-0.096	0.206
-626.463	-22.383	0.107	0.065
-625.449	-200.000	0.034	0.213
-624.434	47.026	0.107	0.100
-623.419	-28.695	-0.289	-0.167
-622.405	-45.706	-0.144	0.072
-621.390	-88.141	-0.035	0.011
-620.376	-64.680	0.139	0.057
-619.361	-172.279	-0.226	-0.007
-618.346	33.589	0.163	0.143
-617.332	-112.199	0.275	-0.056
-616.317	158.348	-0.076	0.106
-615.303	-200.000	0.035	0.375
-614.288	-100.268	0.295	-0.074
-613.273	-116.907	0.363	0.067
-612.259	-54.295	-0.360	0.165
-611.244	-107.989	0.365	-0.080
-610.230	-200.000	0.002	-0.290
-609.215	101.003	-0.082	-0.096
-608.201	-200.000	-0.007	-0.136
-607.186	-96.995	0.249	-0.066
-606.171	125.631	-0.243	-0.309
-605.157	-200.000	-0.037	0.292
-604.142	329.010	0.067	0.130
-603.128	-200.000	0.028	0.226
-602.113	46.413	-0.191	-0.179
-601.098	-129.965	-0.271	-0.037
-600.084	434.034	0.125	-0.273
-599.069	-32.459	-0.032	0.018
-598.055	223.098	0.113	-0.182
-597.040	38.344	0.146	0.131
-596.025	-107.970	-0.177	-0.039
-595.011	-49.840	-0.197	-0.094
-593.996	187.354	0.148	-0.221
-592.982	-200.000	0.008	0.158
-591.967	416.986	-0.042	0.090
-590.952	-106.717	0.190	0.042
-589.938	17.171	0.092	-0.073
-588.923	-41.566	0.304	-0.157
-587.909	78.403	0.101	-0.109
-586.894	-200.000	-0.061	-0.287
-585.879	38.295	-0.105	0.094
-584.865	439.624	-0.094	0.205
-583.850	800.000	0.057	-0.203
-582.836	-56.233	-0.234	0.105
-581.821	388.171	0.135	0.280
-580.806	597.750	0.151	0.375
-579.792	-97.441	0.124	-0.032
-578.777	475.623	-0.069	-0.158
-577.763	28.015	-0.372	-0.315
-576.748	200.253	-0.089	0.137
-575.733	350.018	0.143	0.285
-574.719	800.000	-0.030	0.091
-573.704	41.597	0.372	0.338
-572.690	205.593	-0.122	0.191
-571.675	-200.000	-0.002	0.162
-570.661	-104.627	0.159	-0.037
-569.646	54.551	-0.065	-0.063
-568.631	800.000	-0.016	-0.063
-567.617	-200.000	0.012	0.099
-566.602	-49.907	-0.147	0.070
-565.588	-200.000	-0.001	-0.091
-564.573	-21.809	0.140	0.086
-563.558	800.000	0.009	0.031
-562.544	0.594	0.135	-0.097
-561.529	-0.325	-0.256	-0.183
-560.515	-31.065	-0.502	0.284
-559.500	-21.084	0.072	0.044
-558.485	-128.819	0.330	0.047
-557.471	26.371	-0.270	0.226
-556.456	60.444	0.158	-0.157
-555.442	-105.288	-0.270	-0.062
-554.427	38.679	-0.292	-0.262
-553.412	-58.202	0.036	0.016
-552.398	-200.000	0.013	-0.083
-551.383	800.000	-0.072	-0.262
-550.369	21.411	0.227	-0.185
-549.354	5.234	0.174	0.129
-548.339	435.486	-0.098	-0.214
-547.325	800.000	-0.038	0.150
-546.310	74.161	0.084	-0.089
-545.296	800.000	0.045	-0.126
-544.281	-200.000	0.010	-0.233
-543.266	-200.000	0.056	-0.248
-542.252	-19.576	-0.285	0.177
-541.237	144.156	0.098	-0.131
-540.223	402.887	-0.134	0.282
-539.208	-200.000	0.020	-0.112
-538.193	326.578	0.167	0.322
-537.179	-138.412	0.150	-0.017
-536.164	-200.000	0.032	0.432
-535.150	474.642	-0.135	-0.305
-534.135	159.084	-0.297	-0.414
-533.121	-200.000	-0.059	0.317
-532.106	-18.591	-0.186	-0.116
-531.091	-37.077	-0.170	-0.091
-530.077	-80.775	-0.218	-0.073
-529.062	-53.008	-0.353	-0.163
-528.048	-200.000	0.026	0.178
-527.033	-104.898	0.099	-0.023
-526.018	-44.039	-0.280	0.141
-525.004	-181.378	0.131	0.003
-523.989	277.801	-0.102	-0.181
-522.975	-200.000	-0.036	0.213
-521.960	-107.181	-0.212	-0.047
-520.945	-200.000	0.042	0.344
-519.931	599.838	-0.066	0.165
-518.916	800.000	-0.042	0.149
-517.902	50.935	0.151	0.143
-516.887	753.912	0.119	-0.323
-515.872	-200.000	-0.022	-0.211
-514.858	-100.015	-0.122	-0.031
-513.843	-96.174	0.287	-0.076
-512.829	-48.837	0.071	0.034
-511.814	-123.029	-0.264	-0.043
-510.799	-7.496	0.025	-0.017
-509.785	-100.295	0.145	0.036
-508.770	-95.408	0.142	0.038
-507.756	146.572	0.071	-0.096
-506.741	-123.604	0.055	-0.009
-505.726	175.769	-0.069	-0.100
-504.712	45.619	0.159	-0.147
-503.697	43.695	-0.284	0.260
-502.683	-97.651	-0.166	0.043
-501.668	-78.814	-0.121	-0.041
-500.653	-23.041	-0.054	-0.032
-499.639	-200.000	-0.012	0.259
-498.624	92.953	-0.123	0.139
-497.610	-36.185	0.132	0.071
-496.595	56.360	-0.234	0.228
-495.581	243.778	0.104	-0.175
-494.566	800.000	0.043	0.155
-493.551	405.982	0.122	0.257
-492.537	800.000	-0.065	0.267
-491.522	181.962	-0.118	0.174
-490.508	4.674	-0.017	0.013
-489.493	-200.000	0.027	-0.171
-488.478	-68.793	0.144	0.056
-487.464	-132.250	0.181	0.023
-486.449	-200.000	0.092	0.421
-485.435	-115.350	-0.208	0.039
-484.420	194.193	-0.131	-0.199
-483.405	-109.821	0.285	-0.060
-482.391	-200.000	0.007	0.037
-481.376	-200.000	-0.013	0.110
-480.362	-114.835	-0.184	-0.035
-479.347	-169.961	0.258	-0.009
-478.332	-81.692	-0.201	0.066
-477.318	357.637	0.111	0.222
-476.303	17.499	-0.189	0.150
-475.289	-200.000	-0.200	-0.000
-474.274	-200.000	-0.009	0.060
-473.259	800.000	0.028	-0.093
-472.245	16.451	-0.139	-0.110
-471.230	-78.051	-0.190	-0.066
-470.216	-200.000	0.011	-0.218
-469.201	800.000	0.008	0.034
-468.186	118.451	0.013	0.016
-467.172	-185.771	-0.397	-0.006
-466.157	217.667	-0.073	-0.117
-465.143	-200.000	0.003	0.160
-464.128	-40.168	0.240	0.125
-463.113	128.697	-0.327	0.417
-462.099	97.588	0.076	0.087
-461.084	-200.000	-0.012	-0.210
-460.070	-4.441	0.111	-0.076
-459.055	93.086	0.140	-0.158
-458.040	800.000	-0.133	-0.464
-457.026	-200.000	0.058	0.438
-456.011	59.571	0.095	0.094
-454.997	289.220	0.119	0.215
-453.982	-200.000	0.043	-0.210
-452.968	-147.450	0.183	-0.015
-451.953	-146.930	0.141	-0.012
-450.938	-86.629	0.196	0.060
-449.924	-200.000	0.047	0.221
-448.909	-124.856	0.292	-0.045
-447.895	-200.000	-0.055	-0.312
-446.880	-200.000	-0.009	-0.259
-445.865	120.249	0.116	-0.144
-444.851	-200.000	-0.032	-0.244
-443.836	-200.000	-0.040	-0.290
-442.822	20.941	-0.131	-0.106
-441.807	135.905	-0.102	-0.133
-440.792	42.924	-0.319	-0.290
-439.778	-143.037	-0.156	-0.015
-438.763	40.787	0.096	0.086
-437.749	-152.068	-0.242	-0.018
-436.734	-129.069	-0.131	-0.018
-435.719	382.791	0.053	0.110
-434.705	-60.218	0.126	-0.054
-433.690	800.000	-0.037	-0.112
-432.676	-173.112	-0.276	-0.008
-431.661	-200.000	-0.001	-0.122
-430.646	265.528	0.101	0.176
-429.632	-200.000	-0.017	0.161
-428.617	-141.735	-0.233	0.023
-427.603	-24.787	-0.053	-0.031
-426.588	393.082	-0.091	0.189
-425.573	140.961	-0.107	-0.141
-424.559	493.179	-0.095	-0.217
-423.544	-200.000	0.016	0.216
-422.530	195.938	-0.033	-0.050
-421.515	107.336	-0.169	0.201
-420.500	800.000	0.026	0.073
-419.486	502.848	0.050	-0.114
-418.471	152.958	0.204	-0.279
-417.457	-128.037	-0.101	0.014
-416.442	87.219	0.227	-0.250
-415.428	136.379	-0.125	0.163
-414.413	-65.423	0.366	0.147
-413.398	-118.616	-0.342	0.060
-412.384	-80.441	0.165	0.055
-411.369	-76.665	0.177	-0.062
-410.355	-19.216	-0.242	-0.150
-409.340	-129.753	0.210	-0.029
-408.325	285.319	0.151	-0.271
-407.311	89.288	0.154	-0.171
-406.296	-7.720	0.096	-0.065
-405.282	-200.000	0.065	0.366
-404.267	-78.228	-0.129	0.044
-403.252	119.450	0.063	-0.077
-402.238	-115.433	-0.222	0.042
-401.223	283.090	-0.178	0.319
-400.209	128.978	-0.123	0.157
-399.194	-200.000	0.020	0.243
-398.179	101.191	-0.119	0.138
-397.165	-200.000	-0.057	0.323
-396.150	-103.602	0.098	0.023
-395.136	-75.470	0.130	-0.046
-394.121	-128.000	-0.228	-0.033
-393.106	-83.161	0.180	-0.058
-392.092	-64.921	-0.152	0.061
-391.077	39.979	-0.073	0.065
-390.063	122.954	0.098	0.123
-389.048	40.303	0.102	-0.092
-388.033	-22.918	0.103	-0.062
-387.019	-54.728	-0.415	-0.187
-386.004	8.526	-0.123	0.092
-384.990	-200.000	-0.010	-0.126
-383.975	215.534	-0.145	0.230
-382.960	-83.889	-0.090	-0.028
-381.946	238.607	-0.043	-0.071
-380.931	118.324	-0.101	-0.124
-379.917	-57.329	0.053	-0.023
-378.902	7.850	0.149	-0.111
-377.888	-75.166	-0.077	0.027
-376.873	-144.567	-0.193	-0.018
-375.858	-7.152	0.203	-0.137
-374.844	504.676	0.066	-0.151
-373.829	148.279	-0.081	-0.109
-372.815	467.401	-0.046	-0.103
-371.800	32.657	-0.102	0.088
-370.785	116.984	0.075	-0.092
-369.771	-200.000	-0.011	-0.106
-368.756	0.559	0.325	-0.231
-367.742	-200.000	-0.037	-0.224
-366.727	-200.000	-0.004	-0.071
-365.712	-200.000	-0.077	0.378
-364.698	17.305	0.099	-0.079
-363.683	-114.734	0.148	0.028
-362.669	-141.607	0.128	-0.013
-361.654	-128.967	0.238	0.033
-360.639	77.427	0.117	-0.124
-359.625	-18.144	0.369	-0.230
-358.610	-166.534	0.084	-0.004
-357.596	-71.247	0.042	-0.016
-356.581	29.397	-0.089	0.075
-355.566	800.000	-0.014	-0.053
-354.552	47.878	-0.126	0.117
-353.537	-47.242	0.309	0.150
-352.523	136.662	0.168	0.219
-351.508	265.079	0.152	-0.265
-350.493	-135.773	-0.339	-0.040
-349.479	309.524	0.077	-0.143
-348.464	684.879	0.148	-0.385
-347.450	-200.000	-0.024	-0.235
-346.435	-80.827	-0.396	-0.131
-345.420	-166.105	0.337	0.014
-344.406	800.000	0.018	0.062
-343.391	800.000	-0.072	-0.226
-342.377	161.375	-0.081	0.113
-341.362	-148.382	0.180	0.015
-340.348	-62.476	0.207	0.086
-339.333	16.792	0.049	0.038
-338.318	207.226	0.046	0.072
-337.304	-134.069	0.448	-0.055
-336.289	-99.521	-0.193	0.048
-335.275	678.022	-0.057	-0.147
-334.260	115.414	0.193	0.234
-333.245	-61.448	-0.169	0.071
-332.231	-147.975	0.267	0.022
-331.216	-173.205	-0.083	0.003
-330.202	699.551	-0.043	-0.112
-329.187	-200.000	-0.013	-0.232
-328.172	57.657	0.038	0.037
-327.158	800.000	0.119	0.391
-326.143	-51.043	0.193	0.090
-325.129	649.069	0.051	0.131
-324.114	645.321	0.068	0.172
-323.099	-60.238	-0.321	0.136
-322.085	-200.000	0.026	-0.213
-321.070	-84.748	0.053	0.017
-320.056	110.906	0.186	0.223
-319.041	0.568	-0.198	0.141
-318.026	-31.873	0.136	0.076
-317.012	39.153	0.117	-0.104
-315.997	800.000	0.040	0.132
-314.983	169.995	-0.099	-0.141
-313.968	43.231	-0.254	-0.231
-312.953	-128.698	0.349	0.049
-311.939	462.645	0.119	0.264
-310.924	-200.000	0.011	-0.323
-309.910	107.314	0.023	-0.027
-308.895	-188.391	-0.500	-0.006
-307.880	766.103	-0.053	0.144
-306.866	-1.226	0.463	0.325
-305.851	120.673	0.209	0.258
-304.837	142.619	0.053	-0.070
-303.822	271.220	-0.126	-0.220
-302.807	-40.759	0.067	-0.034
-301.793	114.651	0.243	0.294
-300.778	-200.000	0.042	-0.401
-299.764	352.502	-0.175	-0.345
-298.749	-122.256	-0.102	0.017
-297.735	800.000	0.169	0.525
-296.720	116.581	-0.105	-0.128
-295.705	-200.000	0.002	-0.058
-294.691	-0.111	-0.067	0.047
-293.676	-84.914	0.132	0.041
-292.662	-74.746	-0.415	0.148
-291.647	-94.292	0.204	0.055
-290.632	-137.630	0.154	-0.017
-289.618	-130.144	0.293	0.040
-288.603	39.211	0.104	-0.092
-287.589	219.281	-0.041	-0.065
-286.574	-200.000	-0.031	0.247
-285.559	92.962	-0.235	-0.264
-284.545	-71.000	-0.132	0.049
-283.530	-105.872	-0.180	0.040
-282.516	-119.400	-0.414	0.071
-281.501	137.957	0.033	-0.042
-280.486	-200.000	-0.045	0.204
-279.472	-13.935	-0.212	0.136
-278.457	800.000	0.065	0.231
-277.443	-119.846	0.152	-0.026
-276.428	-115.756	-0.179	-0.033
-275.413	10.946	-0.308	-0.233
-274.399	-88.127	0.284	-0.085
-273.384	-101.932	-0.166	0.040
-272.370	83.175	-0.057	-0.062
-271.355	224.175	-0.072	-0.116
-270.340	-80.681	0.185	0.061
-269.326	-108.772	-0.199	0.042
-268.311	-18.957	-0.096	0.059
-267.297	338.490	0.112	-0.217
-266.282	286.957	0.113	-0.203
-265.267	337.575	0.129	-0.249
-264.253	-49.080	0.182	0.087
-263.238	-200.000	0.018	0.183
-262.224	344.090	0.043	0.084
-261.209	231.744	0.140	0.228
-260.195	-15.730	-0.180	0.114
-259.180	-125.653	0.338	0.051
-258.165	-2.956	0.080	0.056
-257.151	-120.423	0.378	-0.064
-256.136	-169.517	0.095	-0.003
-255.122	538.907	-0.082	0.193
-254.107	-200.000	0.020	0.466
-253.092	-37.914	-0.174	-0.092
-252.078	-200.000	-0.035	0.402
-251.063	-97.755	-0.207	0.053
-250.049	-120.895	0.291	-0.049
-249.034	289.698	0.068	-0.123
-248.019	-116.541	0.377	-0.069
-247.005	-33.427	-0.216	0.118
-245.990	-200.000	0.032	-0.276
-244.976	800.000	-0.039	0.162
-243.961	147.081	0.180	-0.241
-242.946	64.815	0.234	0.234
-241.932	-10.598	-0.149	-0.098
-240.917	800.000	-0.018	0.075
-239.903	768.882	0.063	-0.169
-238.888	-122.333	0.152	-0.025
-237.873	114.617	-0.215	-0.260
-236.859	-33.063	0.245	0.135
-235.844	-200.000	0.031	-0.147
-234.830	-200.000	-0.016	-0.072
-233.815	-54.047	0.109	0.049
-232.800	-85.084	0.265	0.082
-231.786	-200.000	-0.019	-0.157
-230.771	376.121	0.018	-0.036
-229.757	1.684	0.155	-0.111
-228.742	10.127	-0.058	0.044
-227.727	-68.455	0.026	-0.010
-226.713	-119.646	-0.262	0.045
-225.698	13.657	0.097	-0.074
-224.684	-200.000	0.014	-0.244
-223.669	-125.484	0.294	0.044
-222.655	-24.002	0.400	-0.237
-221.640	-200.000	-0.004	-0.111
-220.625	24.571	0.129	-0.106
-219.611	-17.501	-0.249	-0.155
-218.596	-57.167	0.154	-0.067
-217.582	-200.000	0.010	0.375
-216.567	-100.340	0.131	-0.032
-215.552	800.000	-0.124	0.381
-214.538	-200.000	0.017	0.092
-213.523	-129.365	0.228	-0.031
-212.509	-107.043	0.297	-0.065
-211.494	-99.785	0.197	0.049
-210.479	-12.164	0.103	0.067
-209.465	-67.544	0.159	-0.062
-208.450	-23.812	-0.282	-0.167
-207.436	14.521	-0.263	-0.203
-206.421	-152.194	-0.235	0.017
-205.406	-188.800	0.185	-0.002
-204.392	35.177	-0.146	-0.127
-203.377	-75.765	0.070	0.025
-202.363	-79.559	-0.598	0.200
-201.348	-200.000	-0.022	0.314
-200.333	-60.896	-0.021	0.009
-199.319	-200.000	-0.017	-0.260
-198.304	104.711	0.300	0.350
-197.290	137.184	0.047	0.061
-196.275	376.720	-0.095	0.193
-195.260	-200.000	-0.007	0.059
-194.246	-176.433	-0.032	-0.001
-193.231	-113.314	-0.323	0.063
-192.217	0.644	-0.310	-0.219
-191.202	52.697	0.163	-0.154
-190.187	293.329	-0.061	0.110
-189.173	800.000	0.071	-0.216
-188.158	-200.000	-0.031	-0.569
-187.144	-200.000	-0.020	0.148
-186.129	-65.119	-0.062	0.025
-185.114	-158.224	0.301	-0.017
-184.100	102.058	0.236	0.272
-183.085	-200.000	0.038	-0.209
-182.071	31.881	0.124	0.106
-181.056	99.599	-0.174	-0.200
-180.042	513.133	0.065	-0.150
-179.027	263.323	-0.135	0.232
-178.012	120.901	0.092	0.114
-176.998	-76.726	-0.184	0.064
-175.983	-9.411	-0.079	-0.052
-174.969	800.000	-0.044	0.182
-173.954	271.313	0.134	0.234
-172.939	-65.992	0.164	-0.065
-171.925	800.000	-0.065	0.262
-170.910	50.638	0.062	-0.058
-169.896	-200.000	0.015	0.108
-168.881	513.274	0.072	-0.166
-167.866	372.824	-0.088	-0.178
-166.852	800.000	0.017	-0.051
-165.837	-38.911	-0.335	0.174
-164.823	197.814	0.159	-0.241
-163.808	-200.000	0.006	-0.061
-162.793	-64.642	0.125	-0.050
-161.779	-24.172	0.201	0.118
-160.764	688.688	0.120	0.311
-159.750	-200.000	0.059	0.322
-158.735	-130.573	-0.221	-0.029
-157.720	292.080	-0.078	0.140
-156.706	186.849	-0.082	0.121
-155.691	-122.081	-0.137	0.022
-154.677	18.194	0.092	-0.072
-153.662	-200.000	0.026	-0.232
-152.647	89.557	0.201	-0.222
-151.633	216.016	0.073	-0.115
-150.618	552.834	0.058	-0.138
-149.604	24.955	0.146	0.119
-148.589	179.896	0.122	-0.177
-147.574	-105.808	0.119	-0.027
-146.560	-49.393	-0.397	0.187
-145.545	196.179	0.254	-0.381
-144.531	-19.900	0.097	0.059
-143.516	143.994	-0.173	0.228
-142.502	174.448	0.188	-0.269
-141.487	-97.109	-0.098	-0.025
-140.472	800.000	0.025	-0.081
-139.458	-120.341	-0.190	-0.032
-138.443	-200.000	0.028	0.433
-137.429	593.882	-0.037	-0.091
-136.414	-200.000	0.004	-0.201
-135.399	374.365	0.124	-0.250
-134.385	57.184	0.112	-0.108
-133.370	-200.000	0.012	0.119
-132.356	49.979	0.134	0.125
-131.341	-123.453	-0.217	-0.034
-130.326	-124.417	-0.076	0.012
-129.312	26.345	0.150	-0.124
-128.297	703.156	0.054	-0.141
-127.283	16.092	0.280	-0.218
-126.268	-92.104	0.276	-0.077
-125.253	356.687	-0.051	-0.101
-124.239	405.669	0.177	-0.369
-123.224	-112.762	-0.129	0.025
-122.210	-35.052	0.325	-0.175
