DTS Sentinel unit serial number:	SN413079Multiplexer serial number:	ORYXHardware model number:	OX4-SRSoftware version number:	ORYX F/W v4.00 Oryx Data Collector v3.7.2.0data status	okinstallation	princeton_trtdifferential loss correction	single-endedforward channel	channel 3reverse channel	N/Adate	2019/09/16time	20:32:35forward acquisition time	60.00reverse acquisition time	0.00gamma	496.2192k internal	0.2324k external	0.2324temperature offset calibration	0.9940default loss term (dB/km)	0.3790temperature slope calibration	1.0000multiplexer offset coefficient	1.0000multiplexer slope coefficient	1.0000fibre end	0.00T internal ref (°C)	32.61T ext. ref 1 (°C)	0.04T ext. ref 2 (°C)	26.53length (m)	temperature (°C)	Stokes	anti-Stokes-747.200	-200.000	0.002	-0.256
-746.185	-90.100	0.100	-0.029
-745.171	800.000	0.086	-0.245
-744.156	17.019	0.145	0.116
-743.142	800.000	-0.040	0.164
-742.127	336.809	-0.085	0.166
-741.112	673.461	0.014	0.037
-740.098	327.060	0.194	0.375
-739.083	129.498	-0.122	-0.157
-738.069	-173.274	0.114	-0.004
-737.054	60.467	0.232	-0.232
-736.039	-40.701	-0.079	-0.041
-735.025	-200.000	0.076	0.365
-734.010	-109.829	-0.229	0.049
-732.996	156.758	-0.133	-0.186
-731.981	-200.000	0.024	0.131
-730.966	25.113	0.216	0.181
-729.952	-74.113	-0.244	-0.089
-728.937	800.000	0.040	0.139
-727.923	-128.307	0.015	-0.002
-726.908	43.635	0.168	-0.155
-725.894	773.696	-0.078	-0.215
-724.879	-84.200	0.149	0.048
-723.864	108.222	-0.179	-0.215
-722.850	-7.965	-0.112	-0.076
-721.835	71.445	-0.088	-0.092
-720.821	36.623	0.125	-0.111
-719.806	-200.000	0.013	-0.136
-718.791	207.074	-0.227	-0.356
-717.777	-67.268	-0.216	-0.086
-716.762	753.185	-0.039	-0.106
-715.748	287.311	-0.093	-0.170
-714.733	35.421	0.172	-0.152
-713.718	46.066	-0.067	-0.063
-712.704	800.000	0.077	0.313
-711.689	800.000	-0.077	-0.298
-710.675	-80.040	-0.108	-0.036
-709.660	64.549	-0.172	-0.174
-708.645	11.234	-0.285	0.220
-707.631	-200.000	-0.032	-0.248
-706.616	-200.000	0.041	-0.244
-705.602	182.441	0.092	-0.137
-704.587	-200.000	0.010	-0.111
-703.572	5.400	-0.315	0.234
-702.558	-55.630	0.059	-0.027
-701.543	800.000	-0.025	-0.100
-700.529	-200.000	0.025	-0.179
-699.514	-142.366	-0.295	0.029
-698.499	602.220	0.020	0.050
-697.485	45.907	-0.082	0.077
-696.470	47.203	0.156	-0.147
-695.456	224.687	-0.019	0.031
-694.441	-54.539	0.158	0.072
-693.426	-200.000	0.120	0.000
-692.412	159.799	0.264	-0.371
-691.397	-200.000	-0.014	0.278
-690.383	128.254	-0.083	0.106
-689.368	15.230	-0.158	-0.125
-688.354	-151.414	0.176	0.013
-687.339	227.334	0.029	-0.047
-686.324	41.535	0.109	0.099
-685.310	160.386	0.073	-0.102
-684.295	-36.239	-0.142	0.077
-683.281	137.337	-0.104	-0.137
-682.266	-103.462	0.187	-0.044
-681.251	102.870	0.069	-0.082
-680.237	-65.048	0.081	0.033
-679.222	-105.318	0.131	-0.030
-678.208	272.441	0.120	0.212
-677.193	-151.904	0.077	0.006
-676.178	-7.934	-0.082	-0.056
-675.164	-90.910	-0.142	-0.041
-674.149	53.209	-0.128	-0.123
-673.135	-99.230	-0.276	0.070
-672.120	132.936	0.110	0.143
-671.105	21.615	-0.252	-0.206
-670.091	-59.408	0.385	0.167
-669.076	222.255	-0.085	0.138
-668.062	-82.448	-0.364	-0.119
-667.047	-200.000	0.004	0.460
-666.032	-124.502	-0.237	-0.037
-665.018	92.645	-0.218	-0.247
-664.003	413.012	0.138	0.294
-662.989	217.271	0.022	0.035
-661.974	181.305	0.103	0.152
-660.959	304.116	-0.197	0.368
-659.945	290.968	0.128	-0.235
-658.930	800.000	0.086	-0.263
-657.916	-58.956	0.410	0.178
-656.901	281.032	-0.196	-0.353
-655.886	-109.772	-0.166	-0.035
-654.872	191.673	-0.081	0.122
-653.857	-118.445	-0.162	0.029
-652.843	619.606	-0.059	0.149
-651.828	-200.000	-0.042	0.402
-650.814	-164.651	0.355	-0.016
-649.799	-200.000	-0.009	-0.333
-648.784	328.048	-0.079	-0.153
-647.770	700.149	0.193	0.511
-646.755	-200.000	-0.035	0.170
-645.741	-200.000	0.013	-0.140
-644.726	-135.016	-0.270	0.033
-643.711	-34.407	0.117	-0.065
-642.697	-92.753	-0.179	-0.050
-641.682	-112.501	0.226	-0.045
-640.668	-200.000	0.023	-0.209
-639.653	288.997	-0.120	-0.218
-638.638	-31.567	0.209	-0.118
-637.624	-61.113	-0.240	0.102
-636.609	281.106	0.043	0.077
-635.595	-125.708	-0.174	-0.026
-634.580	3.986	0.218	0.161
-633.565	-108.824	-0.088	0.019
-632.551	20.744	0.070	-0.057
-631.536	-115.045	-0.272	0.052
-630.522	71.687	-0.183	-0.191
-629.507	108.034	-0.090	0.108
-628.492	-129.593	0.273	-0.038
-627.478	-145.210	-0.064	-0.006
-626.463	-27.469	0.239	0.140
-625.449	-84.315	0.116	-0.037
-624.434	-43.822	0.197	0.100
-623.419	800.000	0.052	-0.207
-622.405	187.305	-0.007	-0.011
-621.390	-59.384	0.135	0.058
-620.376	168.176	0.137	0.196
-619.361	165.557	0.112	-0.158
-618.346	-144.254	0.356	-0.033
-617.332	800.000	0.023	0.075
-616.317	-94.156	0.303	-0.083
-615.303	800.000	-0.036	-0.135
-614.288	65.709	0.148	-0.150
-613.273	88.649	0.116	-0.129
-612.259	-200.000	-0.021	-0.139
-611.244	6.636	0.160	0.119
-610.230	18.887	-0.341	0.274
-609.215	-147.249	0.210	0.018
-608.201	-63.332	-0.250	0.104
-607.186	188.913	-0.047	-0.071
-606.171	341.232	0.082	0.160
-605.157	271.787	-0.111	-0.197
-604.142	79.894	0.080	-0.086
-603.128	351.284	-0.042	0.083
-602.113	247.509	-0.114	0.193
-601.098	21.303	0.093	-0.076
-600.084	166.623	0.027	-0.039
-599.069	-40.542	-0.384	-0.200
-598.055	87.574	0.198	0.220
-597.040	-44.022	0.205	-0.104
-596.025	375.640	0.033	-0.067
-595.011	-46.513	-0.417	-0.205
-593.996	-48.286	-0.006	0.003
-592.982	25.478	0.166	-0.139
-591.967	348.474	0.019	-0.037
-590.952	130.818	0.203	0.261
-589.938	-200.000	0.029	-0.174
-588.923	10.022	0.157	-0.120
-587.909	-148.482	0.215	-0.018
-586.894	-142.680	-0.098	0.010
-585.879	800.000	-0.009	-0.038
-584.865	800.000	0.051	0.159
-583.850	16.463	-0.198	-0.157
-582.836	-92.070	0.125	-0.035
-581.821	-200.000	0.011	-0.189
-580.806	-42.895	-0.285	0.145
-579.792	-96.270	0.158	-0.042
-578.777	800.000	-0.103	0.350
-577.763	-5.810	-0.175	0.120
-576.748	13.120	-0.462	-0.359
-575.733	740.273	-0.025	0.067
-574.719	-71.578	0.307	-0.115
-573.704	-176.211	-0.137	0.004
-572.690	527.599	-0.080	-0.190
-571.675	239.270	0.038	-0.063
-570.661	495.733	0.077	0.178
-569.646	-200.000	0.012	-0.124
-568.631	106.411	0.086	0.103
-567.617	-105.681	0.145	0.033
-566.602	61.943	0.374	-0.374
-565.588	-51.819	0.232	-0.108
-564.573	230.996	0.090	0.148
-563.558	-6.510	-0.124	0.085
-562.544	36.885	-0.189	-0.167
-561.529	116.576	-0.045	0.055
-560.515	-13.461	-0.202	0.131
-559.500	-200.000	-0.285	-0.001
-558.485	-80.904	0.138	0.046
-557.471	-138.869	-0.183	-0.020
-556.456	-200.000	-0.006	0.031
-555.442	786.108	-0.026	0.070
-554.427	-148.730	-0.108	-0.009
-553.412	555.949	0.059	-0.143
-552.398	72.155	-0.046	-0.048
-551.383	-200.000	-0.065	0.000
-550.369	-200.000	0.042	0.216
-549.354	212.405	-0.115	0.182
-548.339	100.856	0.040	-0.047
-547.325	800.000	0.119	0.380
-546.310	-200.000	-0.025	0.126
-545.296	653.508	-0.154	0.394
-544.281	-200.000	-0.003	0.048
-543.266	-200.000	-0.036	0.241
-542.252	-63.612	0.363	0.149
-541.237	3.616	-0.351	-0.257
-540.223	131.610	-0.278	-0.358
-539.208	-97.500	-0.215	0.056
-538.193	-200.000	0.003	0.102
-537.179	591.838	0.167	0.413
-536.164	22.466	0.415	0.340
-535.150	-200.000	-0.013	0.061
-534.135	-200.000	0.025	0.342
-533.121	-59.073	-0.483	0.209
-532.106	448.721	-0.060	0.133
-531.091	-147.993	0.226	-0.019
-530.077	800.000	-0.037	-0.139
-529.062	-156.559	-0.085	-0.005
-528.048	11.491	0.042	-0.032
-527.033	52.045	-0.167	-0.159
-526.018	44.206	0.070	0.064
-525.004	-128.497	0.276	-0.039
-523.989	-200.000	-0.045	0.282
-522.975	-27.908	0.095	0.055
-521.960	-101.975	-0.199	-0.048
-520.945	-117.649	0.356	0.064
-519.931	-200.000	-0.008	-0.081
-518.916	-200.000	0.062	0.386
-517.902	561.364	0.097	0.235
-516.887	-200.000	-0.018	0.143
-515.872	800.000	0.066	0.274
-514.858	511.986	-0.156	0.363
-513.843	-48.045	0.061	0.030
-512.829	-200.000	0.014	-0.166
-511.814	148.104	0.080	0.108
-510.799	-83.994	-0.052	0.016
-509.785	-30.459	-0.045	0.026
-508.770	-103.800	-0.041	0.010
-507.756	502.889	0.122	-0.281
-506.741	-145.022	0.131	-0.012
-505.726	37.904	0.171	-0.152
-504.712	-58.707	0.243	0.105
-503.697	308.043	-0.155	0.288
-502.683	800.000	0.116	0.350
-501.668	703.723	0.096	0.254
-500.653	800.000	0.030	0.119
-499.639	327.412	-0.133	0.255
-498.624	-200.000	0.071	-0.317
-497.610	2.553	-0.206	-0.149
-496.595	800.000	-0.040	-0.167
-495.581	509.025	-0.069	-0.161
-494.566	-44.222	-0.043	0.021
-493.551	709.962	0.081	-0.215
-492.537	-14.146	-0.183	0.118
-491.522	-200.000	-0.070	0.369
-490.508	-35.394	0.103	-0.056
-489.493	284.587	-0.027	-0.048
-488.478	800.000	-0.071	-0.240
-487.464	317.892	0.053	0.100
-486.449	-30.266	-0.290	0.165
-485.435	464.409	0.110	0.247
-484.420	-125.380	0.255	-0.039
-483.405	-60.847	-0.226	-0.096
-482.391	800.000	0.126	-0.421
-481.376	-200.000	0.056	0.291
-480.362	-200.000	0.006	0.146
-479.347	-135.398	-0.163	-0.019
-478.332	-200.000	-0.008	-0.299
-477.318	-98.992	-0.084	0.021
-476.303	313.485	-0.135	0.254
-475.289	-200.000	0.056	0.303
-474.274	-200.000	-0.047	-0.521
-473.259	800.000	-0.072	-0.256
-472.245	-116.631	-0.365	-0.067
-471.230	234.072	0.046	0.076
-470.216	-71.148	0.185	-0.070
-469.201	225.854	0.066	0.107
-468.186	345.269	-0.054	-0.106
-467.172	-59.489	-0.199	-0.085
-466.157	215.281	0.184	0.292
-465.143	-126.865	-0.222	-0.033
-464.128	-200.000	0.035	0.439
-463.113	-109.882	0.297	-0.062
-462.099	-39.901	-0.038	0.020
-461.084	-29.261	0.472	0.270
-460.070	102.837	-0.079	0.092
-459.055	-73.968	-0.128	-0.046
-458.040	-96.064	0.155	-0.041
-457.026	-127.054	-0.206	-0.030
-456.011	-200.000	-0.001	-0.317
-454.997	29.292	-0.026	-0.022
-453.982	-164.493	0.207	0.009
-452.968	264.138	-0.122	0.211
-451.953	-85.904	0.159	0.049
-450.938	800.000	0.118	-0.488
-449.924	-53.181	0.110	-0.050
-448.909	383.993	0.069	-0.142
-447.895	138.422	-0.302	0.396
-446.880	182.149	0.066	-0.097
-445.865	-37.167	0.169	-0.090
-444.851	-29.541	-0.173	0.099
-443.836	78.276	0.083	-0.089
-442.822	-200.000	0.009	0.132
-441.807	-65.206	0.511	-0.206
-440.792	-52.338	-0.280	-0.130
-439.778	-6.950	0.120	-0.081
-438.763	67.053	0.134	-0.136
-437.749	175.481	0.110	-0.160
-436.734	104.157	0.086	-0.101
-435.719	-192.649	0.124	-0.001
-434.705	22.875	-0.171	-0.139
-433.690	160.121	0.115	-0.160
-432.676	26.186	0.249	-0.207
-431.661	800.000	0.049	0.161
-430.646	800.000	-0.010	-0.036
-429.632	-103.615	0.251	0.059
-428.617	35.587	0.073	0.064
-427.603	266.496	-0.232	-0.404
-426.588	-200.000	-0.020	-0.142
-425.573	229.488	0.068	-0.111
-424.559	-200.000	0.019	-0.163
-423.544	-200.000	-0.165	-0.001
-422.530	135.869	-0.086	-0.111
-421.515	-200.000	0.052	0.233
-420.500	1.863	-0.145	-0.104
-419.486	-2.391	-0.059	-0.041
-418.471	317.718	0.111	-0.210
-417.457	-89.178	0.197	0.058
-416.442	109.718	0.170	0.204
-415.428	-51.583	-0.177	0.082
-414.413	157.281	0.030	-0.041
-413.398	800.000	0.028	-0.117
-412.384	156.556	-0.324	-0.446
-411.369	-112.453	-0.144	-0.029
-410.355	63.888	-0.227	-0.227
-409.340	-91.880	0.221	0.062
-408.325	-82.627	0.159	-0.051
-407.311	312.691	0.132	0.247
-406.296	166.082	-0.100	-0.142
-405.282	-200.000	-0.030	-0.319
-404.267	-51.022	-0.091	0.043
-403.252	-200.000	-0.023	0.131
-402.238	-167.976	-0.084	-0.003
-401.223	-87.586	-0.009	0.003
-400.209	541.133	0.036	-0.085
-399.194	133.039	-0.127	0.163
-398.179	256.737	-0.053	-0.090
-397.165	537.375	-0.072	-0.170
-396.150	-12.683	0.406	-0.264
-395.136	549.318	-0.010	-0.025
-394.121	280.091	-0.071	0.126
-393.106	108.807	0.145	0.173
-392.092	430.673	-0.058	-0.125
-391.077	-200.000	0.022	0.416
-390.063	210.943	0.103	-0.161
-389.048	-200.000	-0.001	0.203
-388.033	-44.122	0.167	0.083
-387.019	-66.427	0.254	-0.100
-386.004	-112.217	0.428	0.086
-384.990	103.869	0.122	0.142
-383.975	800.000	0.120	0.453
-382.960	-51.995	-0.355	0.164
-381.946	-83.244	-0.129	-0.041
-380.931	800.000	-0.046	-0.183
-379.917	800.000	0.087	0.308
-378.902	-64.362	-0.258	0.104
-377.888	800.000	-0.083	-0.326
-376.873	663.223	-0.015	-0.038
-375.858	-54.758	0.267	0.120
-374.844	9.118	-0.185	-0.139
-373.829	-48.136	0.439	-0.211
-372.815	52.842	0.096	-0.092
-371.800	-200.000	-0.070	0.323
-370.785	-167.864	0.261	-0.010
-369.771	-36.823	0.107	-0.057
-368.756	167.198	-0.101	-0.143
-367.742	342.274	0.137	-0.266
-366.727	57.825	-0.184	-0.179
-365.712	-79.733	0.038	0.013
-364.698	-141.910	0.189	0.019
-363.683	-200.000	-0.012	-0.085
-362.669	290.070	0.259	-0.467
-361.654	-142.755	0.081	0.008
-360.639	-200.000	0.024	-0.109
-359.625	800.000	0.183	-0.543
-358.610	14.891	-0.066	-0.052
-357.596	158.197	-0.105	0.144
-356.581	-65.183	-0.213	-0.085
-355.566	800.000	-0.090	-0.253
-354.552	800.000	0.067	-0.207
-353.537	-21.071	-0.202	-0.123
-352.523	-70.155	-0.105	0.040
-351.508	458.229	0.085	0.188
-350.493	189.650	0.112	0.167
-349.479	-200.000	-0.069	0.415
-348.464	319.357	0.063	-0.118
-347.450	-59.990	0.242	-0.103
-346.435	-24.872	0.167	0.098
-345.420	-200.000	-0.038	0.254
-344.406	-57.817	-0.105	-0.046
-343.391	-126.538	0.362	0.053
-342.377	17.404	-0.316	-0.249
-341.362	77.920	-0.098	0.104
-340.348	-82.004	-0.028	0.009
-339.333	-200.000	-0.012	0.141
-338.318	-200.000	0.019	-0.197
-337.304	252.014	-0.064	0.107
-336.289	-65.928	0.090	-0.036
-335.275	-52.460	-0.165	0.076
-334.260	255.567	0.022	0.037
-333.245	70.942	-0.134	-0.138
-332.231	800.000	-0.076	0.242
-331.216	-70.563	0.498	0.187
-330.202	-84.186	-0.116	0.036
-329.187	800.000	-0.135	-0.567
-328.172	384.859	-0.058	0.120
-327.158	223.003	0.173	-0.277
-326.143	292.902	-0.136	0.247
-325.129	151.237	0.126	0.170
-324.114	-200.000	0.036	-0.348
-323.099	800.000	-0.031	-0.089
-322.085	97.313	0.218	0.248
-321.070	72.023	-0.247	-0.255
-320.056	-200.000	-0.050	-0.237
-319.041	-200.000	-0.024	-0.224
-318.026	-200.000	-0.007	-0.167
-317.012	-170.057	0.391	-0.014
-315.997	68.477	-0.087	0.089
-314.983	-109.044	-0.096	-0.020
-313.968	277.613	0.204	0.361
-312.953	-92.837	0.208	-0.058
-311.939	-40.231	-0.173	0.089
-310.924	800.000	0.023	0.069
-309.910	-21.514	0.347	-0.210
-308.895	-44.223	-0.277	-0.138
-307.880	402.142	-0.146	-0.304
-306.866	0.758	0.142	-0.101
-305.851	410.239	-0.050	-0.106
-304.837	345.787	0.163	-0.318
-303.822	112.153	-0.234	-0.280
-302.807	-126.799	0.140	0.020
-301.793	-62.046	0.201	0.083
-300.778	-63.667	0.137	0.056
-299.764	211.822	-0.097	-0.152
-298.749	-200.000	-0.316	0.001
-297.735	644.143	-0.051	-0.130
-296.720	232.687	0.177	-0.289
-295.705	-119.635	0.253	0.043
-294.691	-24.692	0.115	-0.068
-293.676	-200.000	-0.039	-0.241
-292.662	26.351	-0.281	0.233
-291.647	800.000	-0.149	0.432
-290.632	-200.000	0.018	0.100
-289.618	-135.120	-0.263	0.031
-288.603	800.000	-0.137	0.391
-287.589	-18.660	-0.162	0.100
-286.574	-200.000	-0.032	-0.189
-285.559	199.916	-0.077	-0.117
-284.545	156.399	0.233	0.319
-283.530	800.000	-0.088	-0.254
-282.516	-200.000	-0.010	-0.145
-281.501	-103.511	-0.195	0.045
-280.486	800.000	-0.083	-0.250
-279.472	234.279	0.159	0.260
-278.457	-200.000	-0.013	0.196
-277.443	31.326	0.143	0.121
-276.428	12.418	-0.235	0.179
-275.413	285.243	-0.074	0.132
-274.399	-64.896	-0.139	0.056
-273.384	-103.013	0.127	-0.030
-272.370	-200.000	-0.012	-0.059
-271.355	14.656	-0.255	-0.197
-270.340	-200.000	-0.019	0.145
-269.326	-25.678	0.218	0.127
-268.311	-21.711	-0.180	-0.109
-267.297	657.675	-0.043	0.109
-266.282	-34.551	0.107	0.058
-265.267	121.571	-0.118	0.146
-264.253	-59.913	-0.027	-0.011
-263.238	-200.000	0.008	-0.223
-262.224	70.326	0.079	0.081
-261.209	-200.000	0.024	-0.147
-260.195	-24.621	-0.033	0.020
-259.180	283.448	0.054	0.096
-258.165	-200.000	-0.083	0.460
-257.151	-200.000	0.024	-0.175
-256.136	800.000	0.069	-0.230
-255.122	335.772	-0.228	-0.437
-254.107	-200.000	0.042	0.227
-253.092	300.821	-0.102	0.187
-252.078	-200.000	-0.092	0.000
-251.063	-42.538	-0.340	0.172
-250.049	223.696	-0.137	0.219
-249.034	251.094	0.137	0.230
-248.019	-52.501	-0.188	0.086
-247.005	72.248	-0.123	-0.126
-245.990	27.764	-0.352	0.294
-244.976	-200.000	0.012	0.061
-243.961	28.122	0.066	0.055
-242.946	-67.503	0.351	0.136
-241.932	-131.103	0.365	-0.048
-240.917	-97.297	-0.030	0.008
-239.903	800.000	0.030	0.107
-238.888	800.000	-0.050	-0.170
-237.873	-200.000	0.035	-0.165
-236.859	279.409	-0.096	-0.170
-235.844	-17.980	0.275	-0.171
-234.830	-200.000	-0.023	0.211
-233.815	205.280	-0.042	-0.065
-232.800	-149.750	-0.239	0.019
-231.786	800.000	0.026	0.105
-230.771	-22.835	0.074	-0.044
-229.757	-200.000	0.005	-0.081
-228.742	-4.808	0.152	0.104
-227.727	18.708	-0.121	0.096
-226.713	-104.579	0.124	-0.028
-225.698	255.202	-0.039	-0.065
-224.684	-129.456	0.195	-0.027
-223.669	-150.542	0.382	0.029
-222.655	-127.987	0.109	-0.016
-221.640	560.145	0.097	0.232
-220.625	22.041	-0.117	0.095
-219.611	165.570	0.049	0.069
-218.596	775.458	0.028	-0.076
-217.582	800.000	-0.072	-0.202
-216.567	365.324	-0.117	0.232
-215.552	77.148	-0.143	0.151
-214.538	-200.000	0.049	-0.283
-213.523	800.000	0.046	-0.170
-212.509	67.556	0.079	0.079
-211.494	-200.000	0.007	0.282
-210.479	100.733	-0.183	0.210
-209.465	800.000	0.046	0.179
-208.450	-200.000	-0.037	0.293
-207.436	-67.738	-0.473	-0.183
-206.421	800.000	-0.062	-0.175
-205.406	92.864	0.014	-0.015
-204.392	57.849	0.201	-0.195
-203.377	-200.000	0.008	0.053
-202.363	110.264	-0.140	-0.166
-201.348	-56.119	0.114	-0.050
-200.333	-159.672	-0.556	-0.030
-199.319	234.475	-0.055	0.090
-198.304	731.842	-0.034	-0.091
-197.290	298.732	-0.119	-0.217
-196.275	-200.000	-0.023	0.158
-195.260	-200.000	-0.329	-0.001
-194.246	-105.840	-0.411	0.092
-193.231	89.947	-0.015	0.016
-192.217	800.000	-0.051	0.146
-191.202	-40.497	-0.169	-0.087
-190.187	126.480	-0.076	0.095
-189.173	33.288	-0.358	0.306
-188.158	-200.000	-0.054	-0.414
-187.144	72.030	-0.167	-0.172
-186.129	-53.445	-0.099	-0.045
-185.114	305.195	-0.164	0.302
-184.100	-21.968	0.312	-0.187
-183.085	-61.647	-0.137	0.057
-182.071	-200.000	-0.019	0.166
-181.056	207.324	0.264	0.406
-180.042	-26.268	-0.351	-0.204
-179.027	77.774	-0.303	-0.319
-178.012	151.864	0.283	0.381
-176.998	241.256	-0.067	-0.111
-175.983	800.000	-0.032	-0.121
-174.969	58.929	0.104	0.101
-173.954	-109.061	0.416	0.087
-172.939	19.168	-0.059	0.047
-171.925	63.233	0.316	-0.313
-170.910	199.412	-0.248	-0.375
-169.896	-57.450	-0.086	0.037
-168.881	-1.859	0.337	-0.234
-167.866	6.477	-0.178	0.131
-166.852	-72.413	-0.362	0.132
-165.837	-140.639	-0.247	0.025
-164.823	54.883	0.036	0.034
-163.808	346.961	-0.029	0.057
-162.793	-33.659	0.316	0.172
-161.779	155.300	0.256	0.348
-160.764	800.000	0.094	0.376
-159.750	-28.215	0.146	-0.083
-158.735	280.226	-0.224	-0.395
-157.720	-91.795	0.101	0.028
-156.706	-4.819	0.106	0.072
-155.691	-76.634	-0.254	-0.088
-154.677	-200.000	-0.048	0.324
-153.662	-66.843	0.059	0.023
-152.647	-50.235	-0.183	-0.086
-151.633	-200.000	-0.082	-0.387
-150.618	19.304	0.107	-0.085
-149.604	371.957	-0.092	0.185
-148.589	-52.214	0.297	0.136
-147.574	-47.875	-0.223	-0.106
-146.560	-4.722	0.072	0.049
-145.545	6.502	0.295	-0.216
-144.531	254.248	0.111	-0.186
-143.516	167.752	0.177	0.248
-142.502	-15.793	0.128	-0.080
-141.487	-168.978	0.160	-0.006
-140.472	-132.597	0.068	0.009
-139.458	387.023	0.057	-0.117
-138.443	-4.714	-0.106	-0.072
-137.429	-144.472	0.136	-0.012
-136.414	-90.529	-0.201	-0.057
-135.399	800.000	0.030	-0.103
-134.385	-200.000	-0.043	0.395
-133.370	-200.000	-0.044	0.235
-132.356	-151.066	0.337	-0.025
-131.341	-64.144	-0.128	-0.052
-130.326	62.029	0.157	0.154
-129.312	-135.734	-0.385	-0.045
-128.297	490.588	0.068	-0.154
-127.283	-80.318	0.379	0.125
-126.268	-52.535	0.154	0.070
-125.253	800.000	-0.111	-0.321
-124.239	49.820	0.105	-0.097
-123.224	482.055	-0.052	-0.116
-122.210	189.616	-0.278	0.410
-121.195	200.001	0.149	0.225
