DTS Sentinel unit serial number:	SN413079Multiplexer serial number:	ORYXHardware model number:	OX4-SRSoftware version number:	ORYX F/W v4.00 Oryx Data Collector v3.7.2.0data status	okinstallation	princeton_trtdifferential loss correction	single-endedforward channel	channel 3reverse channel	N/Adate	2019/09/15time	03:44:35forward acquisition time	60.00reverse acquisition time	0.00gamma	496.2192k internal	0.2323k external	0.2323temperature offset calibration	0.9965default loss term (dB/km)	0.3790temperature slope calibration	1.0000multiplexer offset coefficient	1.0000multiplexer slope coefficient	1.0000fibre end	0.00T internal ref (°C)	30.98T ext. ref 1 (°C)	4.60T ext. ref 2 (°C)	25.92length (m)	temperature (°C)	Stokes	anti-Stokes-747.200	401.951	0.073	0.154
-746.185	71.361	-0.064	-0.068
-745.171	-33.921	0.254	-0.141
-744.156	-112.616	-0.326	0.066
-743.142	-18.320	0.359	-0.227
-742.127	800.000	-0.116	0.326
-741.112	800.000	-0.033	0.133
-740.098	800.000	-0.094	0.325
-739.083	228.089	0.151	0.249
-738.069	-200.000	-0.044	0.343
-737.054	800.000	0.103	-0.294
-736.039	-130.478	-0.322	0.044
-735.025	-50.433	0.302	-0.144
-734.010	-200.000	-0.040	-0.347
-732.996	7.734	0.153	-0.116
-731.981	229.114	0.088	-0.146
-730.966	-106.620	0.216	0.049
-729.952	-9.430	-0.206	0.139
-728.937	-200.000	-0.034	-0.201
-727.923	28.063	-0.390	-0.332
-726.908	-20.343	-0.178	-0.111
-725.894	-22.869	-0.143	-0.087
-724.879	18.021	-0.202	-0.163
-723.864	382.082	-0.070	-0.146
-722.850	226.549	0.187	-0.306
-721.835	603.028	-0.065	-0.162
-720.821	-200.000	0.020	0.305
-719.806	-85.733	-0.073	-0.023
-718.791	55.660	-0.015	0.015
-717.777	-57.496	-0.231	-0.102
-716.762	-200.000	0.125	0.598
-715.748	378.597	-0.172	0.356
-714.733	90.079	0.143	0.161
-713.718	-78.885	-0.391	-0.134
-712.704	-87.303	0.323	-0.099
-711.689	351.567	0.123	-0.245
-710.675	-29.860	-0.099	0.057
-709.660	21.176	-0.227	0.186
-708.645	68.164	0.236	0.244
-707.631	-126.292	-0.124	-0.019
-706.616	444.763	-0.131	-0.290
-705.602	-101.966	-0.172	0.042
-704.587	-154.822	0.331	0.022
-703.572	43.702	0.128	-0.118
-702.558	191.705	0.107	0.162
-701.543	-52.815	-0.059	-0.027
-700.529	-21.199	0.050	0.031
-699.514	-10.314	-0.218	-0.146
-698.499	-200.000	-0.019	-0.219
-697.485	-55.867	-0.190	-0.086
-696.470	-200.000	-0.005	0.127
-695.456	87.573	-0.130	0.145
-694.441	69.086	0.321	0.332
-693.426	-91.616	-0.167	-0.048
-692.412	219.016	-0.006	-0.010
-691.397	-37.730	-0.132	-0.071
-690.383	-110.339	-0.262	-0.055
-689.368	-200.000	-0.002	0.075
-688.354	200.333	-0.217	0.335
-687.339	-167.445	-0.232	-0.009
-686.324	192.970	0.100	0.153
-685.310	-158.758	0.260	0.015
-684.295	116.804	0.118	-0.146
-683.281	249.644	0.163	-0.279
-682.266	390.841	-0.096	0.201
-681.251	-200.000	0.016	0.316
-680.237	-11.518	0.080	0.053
-679.222	-200.000	-0.371	0.001
-678.208	-121.960	-0.233	0.039
-677.193	-45.715	-0.198	0.098
-676.178	800.000	0.054	-0.170
-675.164	-29.779	-0.146	0.084
-674.149	11.688	0.226	-0.175
-673.135	119.827	0.089	0.111
-672.120	800.000	0.023	-0.086
-671.105	-200.000	-0.022	-0.166
-670.091	-22.616	0.195	0.119
-669.076	-200.000	-0.029	0.254
-668.062	-160.262	-0.252	-0.014
-667.047	68.081	-0.203	0.210
-666.032	78.949	0.061	0.065
-665.018	163.492	-0.120	-0.170
-664.003	-122.436	-0.053	0.009
-662.989	-86.371	0.060	0.019
-661.974	34.510	-0.270	-0.237
-660.959	609.004	0.133	-0.335
-659.945	40.587	0.089	-0.081
-658.930	-143.730	-0.164	-0.016
-657.916	490.086	-0.137	-0.315
-656.901	295.054	-0.053	0.097
-655.886	151.470	-0.105	-0.144
-654.872	617.586	-0.174	0.438
-653.857	-11.496	0.010	-0.007
-652.843	247.937	-0.206	0.350
-651.828	-1.761	-0.249	-0.177
-650.814	73.882	0.246	-0.259
-649.799	318.267	-0.156	-0.297
-648.784	755.356	-0.029	0.079
-647.770	156.453	0.043	-0.060
-646.755	-91.591	-0.096	0.027
-645.741	-200.000	-0.050	0.247
-644.726	-120.314	-0.100	0.017
-643.711	-110.771	-0.034	-0.007
-642.697	-197.146	0.136	0.001
-641.682	242.479	0.024	0.041
-640.668	-65.442	-0.114	0.046
-639.653	66.746	0.274	-0.280
-638.638	-22.023	0.241	0.147
-637.624	-78.195	-0.252	-0.087
-636.609	-58.696	-0.086	0.037
-635.595	446.935	-0.040	0.089
-634.580	-200.000	0.029	-0.247
-633.565	-200.000	-0.012	-0.069
-632.551	-200.000	-0.055	-0.255
-631.536	-31.551	-0.215	-0.121
-630.522	-112.141	0.124	-0.025
-629.507	-200.000	0.007	-0.204
-628.492	-200.000	0.017	-0.081
-627.478	-35.699	-0.090	0.049
-626.463	-192.845	0.099	-0.001
-625.449	343.447	-0.091	-0.180
-624.434	147.116	0.186	-0.251
-623.419	800.000	0.125	-0.402
-622.405	484.687	-0.085	-0.195
-621.390	-81.402	0.107	0.035
-620.376	-44.820	-0.258	-0.130
-619.361	342.977	-0.091	-0.179
-618.346	-200.000	-0.003	-0.281
-617.332	-109.468	0.143	-0.030
-616.317	28.598	0.169	0.144
-615.303	-135.105	-0.245	-0.030
-614.288	-58.654	-0.172	-0.075
-613.273	706.459	-0.128	-0.339
-612.259	-200.000	0.036	-0.245
-611.244	98.438	-0.258	-0.299
-610.230	-118.417	-0.061	0.011
-609.215	133.143	0.090	0.117
-608.201	-75.738	0.101	0.036
-607.186	527.364	-0.026	0.061
-606.171	800.000	0.084	-0.309
-605.157	26.926	-0.158	0.133
-604.142	-112.824	-0.145	-0.029
-603.128	59.211	-0.128	-0.127
-602.113	-154.364	-0.073	-0.005
-601.098	-59.364	0.033	-0.014
-600.084	50.086	0.122	0.116
-599.069	656.691	0.025	0.063
-598.055	-36.973	0.143	-0.077
-597.040	-146.187	0.443	0.039
-596.025	800.000	-0.118	-0.330
-595.011	-49.730	0.044	-0.021
-593.996	236.006	-0.032	0.053
-592.982	214.440	0.074	0.118
-591.967	78.008	-0.161	0.173
-590.952	800.000	-0.108	-0.374
-589.938	-18.612	0.083	-0.052
-588.923	800.000	-0.022	-0.081
-587.909	70.746	-0.374	-0.388
-586.894	-165.876	0.133	0.006
-585.879	800.000	0.035	-0.109
-584.865	263.905	0.030	-0.052
-583.850	14.451	-0.371	0.290
-582.836	69.513	-0.012	0.012
-581.821	-94.578	0.022	-0.006
-580.806	782.730	0.074	0.204
-579.792	800.000	0.022	0.092
-578.777	-120.626	-0.168	-0.029
-577.763	-200.000	0.013	-0.356
-576.748	117.777	0.038	0.047
-575.733	-126.239	0.252	-0.038
-574.719	800.000	-0.045	0.172
-573.704	61.012	0.192	-0.191
-572.690	134.231	-0.094	0.122
-571.675	245.626	0.105	0.178
-570.661	-52.457	0.259	0.120
-569.646	-200.000	0.011	0.157
-568.631	-131.752	-0.406	0.053
-567.617	60.734	0.094	-0.093
-566.602	409.720	0.113	0.240
-565.588	687.199	0.087	0.228
-564.573	349.967	-0.035	0.069
-563.558	139.084	0.134	0.177
-562.544	-200.000	-0.036	-0.302
-561.529	-134.867	0.214	-0.026
-560.515	-93.024	-0.447	0.125
-559.500	-93.264	0.341	-0.095
-558.485	-200.000	0.010	0.147
-557.471	-47.648	-0.337	0.164
-556.456	-9.362	0.052	-0.035
-555.442	79.807	0.136	0.146
-554.427	-110.726	-0.284	0.059
-553.412	-110.457	-0.198	0.041
-552.398	-1.160	0.104	-0.074
-551.383	800.000	0.073	-0.204
-550.369	800.000	0.042	0.161
-549.354	42.746	-0.094	0.086
-548.339	-155.248	-0.251	-0.016
-547.325	763.577	-0.038	0.102
-546.310	-60.467	0.313	0.133
-545.296	-24.592	-0.171	0.102
-544.281	-200.000	-0.016	0.083
-543.266	800.000	0.166	0.489
-542.252	97.120	-0.089	-0.102
-541.237	-102.471	-0.038	0.009
-540.223	337.894	0.141	-0.274
-539.208	-200.000	-0.015	0.127
-538.193	-137.067	0.400	-0.046
-537.179	119.942	0.296	0.367
-536.164	-166.953	-0.285	0.012
-535.150	411.898	-0.077	-0.163
-534.135	-10.611	0.038	0.025
-533.121	-200.000	-0.035	-0.183
-532.106	6.316	0.195	0.145
-531.091	-32.228	0.132	0.074
-530.077	-34.620	-0.304	-0.167
-529.062	447.277	0.059	-0.130
-528.048	105.361	0.136	-0.161
-527.033	-200.000	-0.030	0.193
-526.018	-139.626	-0.157	0.017
-525.004	56.898	0.313	-0.305
-523.989	159.889	0.069	-0.097
-522.975	800.000	-0.042	0.120
-521.960	1.431	-0.080	-0.058
-520.945	615.458	0.049	-0.123
-519.931	116.910	-0.105	0.130
-518.916	73.429	0.218	0.229
-517.902	543.926	0.023	-0.055
-516.887	800.000	-0.081	-0.232
-515.872	-88.734	-0.304	-0.090
-514.858	-18.889	-0.286	-0.178
-513.843	318.171	-0.063	0.118
-512.829	189.119	-0.121	0.182
-511.814	-116.416	0.089	-0.017
-510.799	800.000	0.088	0.263
-509.785	161.364	-0.224	-0.313
-508.770	-200.000	-0.008	-0.164
-507.756	436.054	-0.076	0.165
-506.741	491.506	0.028	-0.065
-505.726	-200.000	-0.032	0.206
-504.712	800.000	-0.011	0.041
-503.697	561.444	0.146	-0.352
-502.683	219.519	0.071	-0.114
-501.668	88.861	0.308	-0.343
-500.653	800.000	0.060	-0.191
-499.639	800.000	0.079	-0.279
-498.624	84.015	-0.160	0.175
-497.610	339.661	-0.191	0.373
-496.595	122.844	-0.059	0.074
-495.581	-159.977	-0.129	-0.007
-494.566	187.387	0.137	-0.205
-493.551	8.866	-0.380	0.286
-492.537	127.671	0.053	-0.068
-491.522	20.768	0.272	-0.220
-490.508	-32.943	-0.178	-0.099
-489.493	-117.633	-0.106	0.019
-488.478	-83.380	0.122	-0.039
-487.464	-200.000	-0.039	-0.216
-486.449	292.090	0.134	0.244
-485.435	-131.251	0.248	0.033
-484.420	112.101	-0.097	0.117
-483.405	558.825	0.101	-0.244
-482.391	-200.000	0.004	-0.037
-481.376	-77.669	-0.342	0.118
-480.362	496.686	-0.118	0.271
-479.347	183.645	-0.256	-0.378
-478.332	800.000	0.066	0.263
-477.318	-49.123	0.099	-0.047
-476.303	204.240	-0.125	-0.193
-475.289	95.948	0.479	0.546
-474.274	-200.000	-0.092	0.411
-473.259	91.628	-0.173	0.194
-472.245	63.733	0.259	-0.260
-471.230	-64.675	-0.225	0.091
-470.216	-88.275	0.281	-0.084
-469.201	800.000	-0.134	-0.445
-468.186	92.013	0.174	0.196
-467.172	146.684	0.192	0.258
-466.157	800.000	0.015	0.047
-465.143	-48.630	0.040	0.019
-464.128	290.296	-0.083	-0.151
-463.113	247.134	0.046	-0.077
-462.099	26.234	-0.156	-0.130
-461.084	-132.443	0.230	-0.030
-460.070	282.905	-0.176	-0.316
-459.055	-131.930	-0.242	0.032
-458.040	-200.000	0.020	0.236
-457.026	478.341	0.076	0.172
-456.011	-121.905	-0.223	-0.037
-454.997	-200.000	0.049	0.306
-453.982	314.886	0.105	-0.197
-452.968	352.695	0.151	-0.299
-451.953	-78.367	-0.322	-0.110
-450.938	93.279	0.104	-0.117
-449.924	-151.942	0.420	-0.031
-448.909	355.759	-0.107	0.213
-447.895	-76.512	-0.320	-0.112
-446.880	46.832	-0.398	0.370
-445.865	231.350	-0.045	0.074
-444.851	300.135	0.110	-0.203
-443.836	-58.016	-0.039	-0.017
-442.822	-151.522	-0.157	-0.012
-441.807	275.189	-0.111	-0.196
-440.792	336.982	-0.113	-0.220
-439.778	-7.413	0.190	-0.129
-438.763	314.898	-0.127	0.239
-437.749	-147.740	-0.209	0.018
-436.734	17.981	0.246	-0.195
-435.719	97.115	0.248	-0.284
-434.705	-93.392	0.317	-0.088
-433.690	209.480	0.150	-0.234
-432.676	-62.056	0.096	0.040
-431.661	289.285	-0.175	-0.317
-430.646	2.903	-0.277	-0.200
-429.632	-129.519	-0.124	0.017
-428.617	262.375	-0.064	-0.110
-427.603	131.110	0.131	-0.168
-426.588	-200.000	0.014	0.292
-425.573	-63.688	0.116	-0.048
-424.559	586.227	-0.017	0.042
-423.544	800.000	-0.016	-0.056
-422.530	180.546	-0.130	0.190
-421.515	175.710	-0.256	0.370
-420.500	-88.855	0.298	-0.088
-419.486	-200.000	0.024	0.341
-418.471	-106.471	-0.192	-0.043
-417.457	-175.783	-0.217	-0.006
-416.442	296.011	0.119	0.218
-415.428	-104.556	-0.316	-0.073
-414.413	321.213	0.135	0.256
-413.398	-92.606	-0.301	-0.084
-412.384	-29.893	0.173	0.098
-411.369	-95.036	-0.186	-0.050
-410.355	-142.144	-0.175	-0.017
-409.340	-200.000	-0.007	-0.136
-408.325	-200.000	-0.013	0.342
-407.311	-200.000	-0.003	-0.368
-406.296	244.009	-0.120	-0.201
-405.282	-70.904	-0.280	-0.105
-404.267	-64.551	0.380	-0.154
-403.252	800.000	0.062	0.195
-402.238	35.268	0.183	-0.160
-401.223	-62.404	-0.247	0.102
-400.209	-24.121	0.206	-0.123
-399.194	-200.000	-0.032	0.276
-398.179	-13.635	0.192	0.124
-397.165	800.000	-0.087	-0.266
-396.150	800.000	0.060	0.183
-395.136	-92.440	0.161	0.045
-394.121	-200.000	0.021	-0.310
-393.106	154.163	-0.157	0.214
-392.092	-72.858	0.174	-0.064
-391.077	-40.460	-0.111	-0.058
-390.063	356.227	-0.134	-0.265
-389.048	-41.201	0.245	-0.126
-388.033	-200.000	-0.007	0.141
-387.019	508.945	0.207	0.478
-386.004	-200.000	0.092	-0.414
-384.990	-200.000	0.067	0.344
-383.975	-177.689	0.220	0.005
-382.960	-200.000	0.090	0.410
-381.946	98.410	0.094	-0.108
-380.931	-0.748	0.485	-0.342
-379.917	-58.914	0.170	0.073
-378.902	694.268	0.009	0.022
-377.888	-23.099	0.293	0.176
-376.873	276.136	-0.195	-0.344
-375.858	367.735	-0.133	0.267
-374.844	71.996	0.163	0.169
-373.829	217.616	-0.108	0.172
-372.815	-68.467	0.261	0.101
-371.800	-138.955	-0.280	0.030
-370.785	116.960	-0.246	0.300
-369.771	800.000	0.003	-0.012
-368.756	-52.207	0.450	-0.208
-367.742	-200.000	0.010	-0.265
-366.727	247.021	-0.026	0.043
-365.712	-137.761	0.073	0.008
-364.698	-175.678	0.293	0.008
-363.683	397.175	0.091	0.190
-362.669	-200.000	0.059	0.370
-361.654	800.000	-0.135	0.389
-360.639	-200.000	-0.006	0.075
-359.625	148.787	-0.096	-0.129
-358.610	740.768	0.024	0.065
-357.596	-196.115	-0.392	-0.003
-356.581	-200.000	0.014	0.082
-355.566	-200.000	0.022	0.125
-354.552	-36.026	-0.124	0.067
-353.537	-200.000	-0.014	0.082
-352.523	-31.017	0.230	0.129
-351.508	-200.000	0.044	-0.207
-350.493	212.142	-0.141	0.220
-349.479	800.000	0.037	0.125
-348.464	376.808	-0.124	0.252
-347.450	-99.514	0.229	-0.057
-346.435	-200.000	0.011	0.076
-345.420	564.115	-0.157	0.378
-344.406	-200.000	-0.087	-0.000
-343.391	404.518	0.122	0.256
-342.377	278.845	0.106	0.188
-341.362	57.021	0.094	-0.091
-340.348	324.012	0.106	-0.202
-339.333	-200.000	0.053	0.289
-338.318	-98.831	-0.180	0.046
-337.304	46.084	-0.150	-0.138
-336.289	-126.005	0.076	0.011
-335.275	-57.953	-0.046	0.020
-334.260	276.125	0.163	-0.287
-333.245	-93.490	0.178	-0.049
-332.231	-200.000	0.225	0.000
-331.216	-61.304	-0.328	0.137
-330.202	336.927	0.061	0.118
-329.187	-34.207	-0.020	-0.011
-328.172	-151.534	0.236	0.017
-327.158	286.658	0.137	0.246
-326.143	800.000	-0.152	0.563
-325.129	83.448	-0.188	-0.203
-324.114	5.913	0.490	-0.360
-323.099	-104.215	0.161	-0.037
-322.085	41.797	0.159	-0.143
-321.070	800.000	-0.098	0.329
-320.056	379.078	0.081	0.165
-319.041	120.911	0.028	0.035
-318.026	307.152	-0.156	-0.289
-317.012	-200.000	-0.023	-0.189
-315.997	-132.749	0.326	0.041
-314.983	-74.516	0.133	-0.048
-313.968	-198.602	-0.157	0.001
-312.953	-67.314	0.051	-0.020
-311.939	-66.749	-0.243	0.095
-310.924	800.000	0.028	0.103
-309.910	205.008	-0.106	-0.163
-308.895	103.962	0.029	0.034
-307.880	-200.000	-0.070	-0.340
-306.866	138.434	-0.128	0.167
-305.851	800.000	-0.032	0.129
-304.837	-200.000	0.017	0.316
-303.822	546.228	-0.157	-0.373
-302.807	-10.690	-0.270	0.177
-301.793	145.793	-0.102	0.136
-300.778	-13.869	0.134	0.086
-299.764	-103.684	-0.057	0.013
-298.749	-200.000	0.001	-0.171
-297.735	-24.638	0.175	0.103
-296.720	800.000	0.117	0.352
-295.705	800.000	-0.051	0.209
-294.691	-200.000	-0.023	-0.215
-293.676	-200.000	0.015	0.271
-292.662	-25.056	-0.034	-0.020
-291.647	46.904	-0.092	-0.085
-290.632	-150.824	-0.238	0.018
-289.618	-140.059	0.341	0.036
-288.603	505.296	-0.016	-0.036
-287.589	-74.278	0.158	-0.057
-286.574	-200.000	-0.026	0.215
-285.559	307.190	0.028	0.052
-284.545	36.439	0.403	-0.353
-283.530	256.060	0.153	0.261
-282.516	-119.963	-0.217	-0.037
-281.501	800.000	-0.063	-0.232
-280.486	35.740	0.211	-0.184
-279.472	-200.000	-0.002	0.030
-278.457	-121.053	0.260	-0.043
-277.443	786.929	0.066	-0.180
-276.428	417.678	-0.052	0.111
-275.413	250.850	-0.217	-0.365
-274.399	-31.301	-0.175	-0.098
-273.384	-200.000	0.024	-0.150
-272.370	-83.863	-0.054	-0.017
-271.355	-200.000	0.007	0.083
-270.340	-73.799	-0.271	0.098
-269.326	-128.320	0.184	0.026
-268.311	71.767	0.055	-0.057
-267.297	-78.402	0.096	-0.033
-266.282	126.346	-0.142	0.179
-265.267	212.353	0.141	-0.220
-264.253	-200.000	0.023	0.199
-263.238	104.669	-0.171	0.199
-262.224	800.000	0.043	-0.183
-261.209	-90.707	-0.131	-0.037
-260.195	49.560	0.190	-0.177
-259.180	-140.991	0.303	-0.031
-258.165	-200.000	0.023	0.132
-257.151	-53.542	-0.302	0.137
-256.136	-200.000	-0.009	-0.195
-255.122	226.833	0.176	0.283
-254.107	800.000	0.096	0.291
-253.092	-200.000	-0.030	-0.251
-252.078	-125.967	0.193	-0.029
-251.063	-128.250	-0.301	-0.042
-250.049	211.002	0.237	-0.369
-249.034	-72.919	0.056	-0.020
-248.019	-186.966	0.209	-0.003
-247.005	-25.561	-0.212	-0.124
-245.990	-200.000	0.018	-0.101
-244.976	800.000	-0.086	0.323
-243.961	-27.182	-0.030	-0.018
-242.946	-40.179	0.201	-0.104
-241.932	-38.115	0.096	-0.050
-240.917	-58.125	-0.151	0.065
-239.903	800.000	-0.097	-0.404
-238.888	-66.822	0.068	-0.026
-237.873	184.954	-0.105	0.154
-236.859	151.976	-0.260	0.352
-235.844	384.888	-0.083	0.169
-234.830	731.240	-0.064	0.169
-233.815	213.148	-0.262	0.409
-232.800	80.963	0.327	0.350
-231.786	800.000	-0.072	-0.209
-230.771	449.494	0.107	-0.234
-229.757	56.759	0.223	-0.215
-228.742	7.571	-0.205	-0.152
-227.727	-7.519	-0.217	-0.146
-226.713	80.766	-0.168	0.179
-225.698	-121.091	0.251	0.042
-224.684	-34.720	-0.131	0.071
-223.669	718.936	0.049	0.128
-222.655	548.366	-0.083	-0.196
-221.640	610.744	0.047	-0.117
-220.625	-51.760	0.116	0.053
-219.611	-200.000	0.008	0.221
-218.596	144.089	-0.082	-0.108
-217.582	-87.636	-0.127	-0.038
-216.567	29.539	-0.126	-0.106
-215.552	90.120	0.250	0.276
-214.538	-117.267	-0.126	0.023
-213.523	378.159	-0.053	-0.108
-212.509	-111.879	-0.225	0.045
-211.494	-131.073	-0.156	0.021
-210.479	800.000	-0.052	-0.198
-209.465	-200.000	-0.330	0.001
-208.450	639.601	-0.163	0.410
-207.436	169.362	-0.324	0.457
-206.421	-200.000	0.043	0.197
-205.406	-15.374	0.209	-0.132
-204.392	-200.000	-0.024	-0.291
-203.377	54.629	0.155	-0.148
-202.363	-103.028	-0.318	-0.075
-201.348	-200.000	0.020	-0.097
-200.333	-17.020	-0.140	0.088
-199.319	43.218	0.185	0.167
-198.304	94.372	-0.256	0.288
-197.290	-54.225	-0.036	-0.016
-196.275	377.477	-0.048	0.097
-195.260	800.000	0.068	-0.223
-194.246	-200.000	-0.007	-0.083
-193.231	255.175	-0.155	-0.262
-192.217	196.196	-0.174	0.262
-191.202	-200.000	0.070	-0.425
-190.187	-116.227	0.196	0.036
-189.173	336.310	0.124	0.237
-188.158	-68.989	-0.231	-0.088
-187.144	-200.000	0.327	0.001
-186.129	121.911	0.107	0.131
-185.114	800.000	-0.054	0.230
-184.100	-74.399	0.281	-0.100
-183.085	562.858	0.120	0.286
-182.071	151.431	0.099	0.133
-181.056	87.694	-0.034	0.037
-180.042	800.000	-0.101	-0.428
-179.027	172.605	-0.184	-0.261
-178.012	61.831	-0.067	0.066
-176.998	63.104	0.218	-0.216
-175.983	-200.000	-0.019	-0.131
-174.969	800.000	0.079	-0.272
-173.954	8.439	-0.260	-0.193
-172.939	-73.186	0.106	-0.038
-171.925	-200.000	-0.014	-0.222
-170.910	-29.495	0.116	-0.065
-169.896	-131.322	0.200	0.026
-168.881	-200.000	-0.002	0.149
-167.866	-87.812	-0.204	-0.061
-166.852	-117.252	-0.179	-0.032
-165.837	-200.000	-0.016	0.089
-164.823	-200.000	0.036	0.398
-163.808	-200.000	-0.011	0.151
-162.793	16.916	-0.063	0.049
-161.779	83.909	-0.094	-0.101
-160.764	-183.254	0.157	-0.003
-159.750	127.516	0.205	0.256
-158.735	-156.861	-0.225	0.014
-157.720	17.745	0.227	0.178
-156.706	-200.000	0.015	0.217
-155.691	-200.000	-0.051	-0.299
-154.677	-162.013	-0.288	-0.014
-153.662	20.487	0.246	0.196
-152.647	22.757	0.175	0.141
-151.633	185.342	0.195	-0.285
-150.618	3.195	-0.161	-0.115
-149.604	-178.734	0.159	-0.004
-148.589	-120.552	0.418	-0.070
-147.574	-200.000	-0.040	0.188
-146.560	182.761	-0.118	0.172
-145.545	800.000	0.057	-0.193
-144.531	78.877	-0.126	-0.133
-143.516	-49.785	-0.119	0.056
-142.502	274.172	-0.053	0.092
-141.487	525.687	-0.054	-0.125
-140.472	800.000	0.094	-0.257
-139.458	209.264	-0.062	-0.096
-138.443	-25.586	0.124	-0.072
-137.429	153.185	-0.101	-0.136
-136.414	498.714	0.136	0.310
-135.399	-58.447	0.175	-0.075
-134.385	-4.737	-0.073	-0.050
-133.370	-172.099	-0.108	-0.003
-132.356	69.040	-0.160	-0.163
-131.341	-18.302	-0.234	-0.144
-130.326	-36.710	-0.319	-0.169
-129.312	277.502	0.188	0.329
-128.297	-10.971	0.206	0.134
-127.283	15.566	0.095	0.073
-126.268	227.212	0.152	-0.243
-125.253	146.006	-0.184	0.243
-124.239	106.228	-0.224	-0.262
-123.224	119.398	0.043	-0.052
-122.210	-200.000	-0.002	0.275
