DTS Sentinel unit serial number:	SN413079Multiplexer serial number:	ORYXHardware model number:	OX4-SRSoftware version number:	ORYX F/W v4.00 Oryx Data Collector v3.7.2.0data status	okinstallation	princeton_trtdifferential loss correction	single-endedforward channel	channel 3reverse channel	N/Adate	2019/09/14time	19:48:35forward acquisition time	60.00reverse acquisition time	0.00gamma	496.2192k internal	0.2313k external	0.2313temperature offset calibration	1.0010default loss term (dB/km)	0.3790temperature slope calibration	1.0000multiplexer offset coefficient	1.0000multiplexer slope coefficient	1.0000fibre end	0.00T internal ref (°C)	34.33T ext. ref 1 (°C)	4.89T ext. ref 2 (°C)	28.52length (m)	temperature (°C)	Stokes	anti-Stokes-747.200	800.000	0.035	-0.107
-746.185	19.422	-0.093	0.076
-745.171	800.000	-0.053	-0.186
-744.156	800.000	0.038	0.112
-743.142	-96.405	0.366	-0.098
-742.127	-39.027	-0.300	0.160
-741.112	13.395	0.130	-0.102
-740.098	-200.000	-0.004	0.298
-739.083	-200.000	-0.027	-0.135
-738.069	-83.393	-0.422	0.137
-737.054	514.494	0.112	-0.266
-736.039	-200.000	-0.024	-0.128
-735.025	98.235	0.097	0.113
-734.010	315.941	0.097	0.185
-732.996	-48.882	-0.176	0.086
-731.981	-38.396	0.149	-0.080
-730.966	-200.000	0.031	-0.278
-729.952	-200.000	-0.140	-0.000
-728.937	-200.000	0.018	-0.239
-727.923	-200.000	-0.032	-0.159
-726.908	-54.632	-0.225	0.103
-725.894	800.000	-0.115	0.447
-724.879	-200.000	0.004	0.064
-723.864	-137.390	0.080	0.009
-722.850	511.194	-0.105	0.248
-721.835	101.729	0.121	0.143
-720.821	237.577	0.043	-0.073
-719.806	-81.106	0.210	-0.070
-718.791	-164.146	0.063	-0.003
-717.777	-162.155	-0.135	-0.007
-716.762	-200.000	-0.042	0.281
-715.748	-69.274	0.096	-0.037
-714.733	156.955	0.050	0.071
-713.718	-200.000	-0.069	-0.332
-712.704	446.266	-0.150	-0.334
-711.689	362.442	-0.055	-0.112
-710.675	27.323	0.256	0.218
-709.660	-200.000	0.044	-0.335
-708.645	-15.161	0.125	-0.081
-707.631	-98.048	0.088	-0.023
-706.616	-72.306	0.319	-0.120
-705.602	-119.029	-0.098	-0.017
-704.587	-104.325	0.064	-0.015
-703.572	145.284	0.255	-0.346
-702.558	104.656	0.091	-0.109
-701.543	-129.832	0.129	0.018
-700.529	-40.201	-0.171	-0.090
-699.514	-112.209	-0.330	-0.067
-698.499	-151.238	0.108	0.008
-697.485	25.720	-0.110	0.092
-696.470	7.350	-0.101	-0.077
-695.456	-114.662	-0.186	0.036
-694.441	-12.755	-0.334	-0.220
-693.426	16.261	-0.249	0.199
-692.412	-200.000	-0.021	-0.249
-691.397	-200.000	0.007	-0.217
-690.383	-83.302	-0.388	0.126
-689.368	800.000	0.049	-0.161
-688.354	29.633	0.077	-0.066
-687.339	-141.035	0.116	-0.012
-686.324	-16.370	-0.337	-0.217
-685.310	-150.289	-0.156	-0.012
-684.295	47.657	0.058	-0.055
-683.281	-200.000	-0.037	0.189
-682.266	75.740	0.298	0.319
-681.251	-140.396	-0.329	-0.035
-680.237	232.779	0.046	-0.077
-679.222	405.937	-0.119	0.254
-678.208	-136.742	-0.273	0.032
-677.193	63.084	0.095	-0.096
-676.178	283.150	0.146	-0.265
-675.164	-52.386	-0.532	-0.249
-674.149	449.796	0.168	-0.375
-673.135	-106.699	-0.377	-0.085
-672.120	-62.851	0.159	-0.067
-671.105	-200.000	0.041	0.184
-670.091	-200.000	0.022	-0.211
-669.076	-190.454	-0.228	0.003
-668.062	-66.670	-0.061	-0.025
-667.047	136.564	-0.237	-0.313
-666.032	793.784	-0.049	0.138
-665.018	4.732	0.256	-0.190
-664.003	14.809	-0.188	-0.148
-662.989	651.887	0.060	0.155
-661.974	464.191	0.175	0.396
-660.959	190.476	-0.099	0.150
-659.945	-83.802	0.327	0.105
-658.930	-200.000	-0.009	0.375
-657.916	-24.316	0.144	0.087
-656.901	-78.192	-0.050	0.017
-655.886	19.095	-0.187	-0.152
-654.872	755.912	-0.106	-0.291
-653.857	13.463	0.160	0.126
-652.843	-200.000	0.012	0.131
-651.828	-85.371	-0.175	0.055
-650.814	188.789	0.044	-0.066
-649.799	-89.670	0.244	0.072
-648.784	-47.260	-0.103	0.050
-647.770	51.217	-0.084	-0.080
-646.755	48.035	-0.133	0.125
-645.741	-200.000	0.060	-0.341
-644.726	312.820	-0.027	-0.052
-643.711	-62.994	0.245	0.102
-642.697	405.709	0.110	0.235
-641.682	-86.343	-0.205	-0.064
-640.668	-110.056	-0.226	-0.048
-639.653	-200.000	0.003	0.133
-638.638	302.687	-0.155	-0.289
-637.624	487.817	-0.071	0.164
-636.609	-21.634	-0.308	0.189
-635.595	800.000	-0.056	0.192
-634.580	178.957	0.034	-0.050
-633.565	800.000	0.083	-0.258
-632.551	-200.000	0.042	-0.261
-631.536	-57.796	-0.175	-0.077
-630.522	800.000	0.110	0.394
-629.507	553.057	0.038	-0.093
-628.492	-200.000	0.050	0.297
-627.478	-79.656	0.188	0.064
-626.463	499.716	0.162	-0.377
-625.449	-39.660	-0.045	0.024
-624.434	422.798	0.096	0.208
-623.419	-200.000	0.005	-0.126
-622.405	-80.248	0.099	-0.033
-621.390	148.933	0.105	0.143
-620.376	512.788	-0.133	-0.312
-619.361	81.440	0.099	-0.108
-618.346	350.019	-0.046	-0.093
-617.332	191.005	0.081	-0.123
-616.317	-128.952	-0.215	0.030
-615.303	-200.000	-0.034	0.284
-614.288	-200.000	-0.007	-0.116
-613.273	141.214	-0.118	-0.158
-612.259	147.966	-0.084	-0.114
-611.244	316.999	-0.135	-0.257
-610.230	-34.991	-0.345	0.190
-609.215	800.000	0.034	0.126
-608.201	-102.763	0.199	-0.048
-607.186	1.988	-0.155	0.113
-606.171	195.207	0.022	-0.033
-605.157	33.384	-0.183	-0.161
-604.142	-38.367	-0.121	0.064
-603.128	8.582	0.176	-0.134
-602.113	-42.213	0.223	-0.115
-601.098	32.122	0.277	0.241
-600.084	-77.949	-0.202	0.070
-599.069	283.905	-0.111	0.201
-598.055	-200.000	0.020	0.094
-597.040	51.447	0.085	0.081
-596.025	239.267	0.121	0.203
-595.011	-159.387	-0.174	0.010
-593.996	0.796	-0.059	-0.043
-592.982	-91.708	-0.284	0.081
-591.967	444.194	0.043	-0.096
-590.952	-200.000	-0.003	-0.288
-589.938	129.006	-0.151	-0.194
-588.923	22.009	0.122	-0.100
-587.909	311.915	-0.007	0.013
-586.894	-79.569	-0.139	-0.047
-585.879	-26.424	-0.050	0.030
-584.865	-9.391	0.095	0.064
-583.850	-65.384	-0.030	0.012
-582.836	-67.398	0.063	0.025
-581.821	-41.421	-0.264	0.137
-580.806	-39.222	-0.022	-0.012
-579.792	-163.559	0.108	0.005
-578.777	562.402	-0.076	0.187
-577.763	800.000	0.116	0.381
-576.748	-89.902	-0.042	-0.012
-575.733	-40.467	-0.251	-0.131
-574.719	-124.600	0.104	-0.016
-573.704	437.681	0.074	-0.162
-572.690	-106.907	-0.392	-0.087
-571.675	-22.478	-0.270	-0.165
-570.661	-109.965	-0.139	-0.029
-569.646	90.093	0.131	0.147
-568.631	31.063	-0.112	0.097
-567.617	800.000	0.031	0.107
-566.602	-35.646	0.064	0.035
-565.588	38.727	0.034	0.030
-564.573	-26.046	0.008	-0.005
-563.558	382.663	0.044	-0.091
-562.544	329.897	0.074	-0.144
-561.529	-134.700	0.200	0.024
-560.515	-11.176	-0.223	-0.148
-559.500	-70.151	0.094	0.036
-558.485	-200.000	0.004	-0.302
-557.471	-47.204	-0.291	-0.143
-556.456	-101.397	0.269	-0.066
-555.442	92.750	-0.220	-0.250
-554.427	93.637	-0.145	0.165
-553.412	800.000	0.045	0.151
-552.398	150.026	-0.049	0.067
-551.383	-71.399	0.100	0.038
-550.369	176.144	-0.085	-0.124
-549.354	209.847	0.038	0.059
-548.339	-200.000	-0.015	-0.167
-547.325	-105.302	0.496	0.114
-546.310	-141.096	-0.114	0.012
-545.296	27.721	0.102	-0.086
-544.281	-64.569	-0.430	0.176
-543.266	-200.000	-0.051	-0.287
-542.252	-42.363	-0.075	-0.039
-541.237	-200.000	0.011	-0.162
-540.223	222.620	0.157	0.254
-539.208	-200.000	0.020	0.109
-538.193	-15.786	0.246	0.158
-537.179	-200.000	0.073	0.346
-536.164	148.205	0.166	0.226
-535.150	39.665	0.208	0.188
-534.135	-200.000	0.017	-0.153
-533.121	-200.000	-0.249	0.001
-532.106	63.540	0.062	-0.063
-531.091	-63.548	0.132	0.054
-530.077	247.152	-0.118	-0.200
-529.062	138.081	-0.135	0.178
-528.048	-133.061	0.176	0.022
-527.033	176.195	-0.086	0.125
-526.018	-11.857	0.155	0.102
-525.004	-62.102	0.178	-0.075
-523.989	181.439	-0.138	-0.203
-522.975	800.000	0.058	-0.216
-521.960	-91.941	-0.191	-0.054
-520.945	337.208	0.169	-0.330
-519.931	-93.381	-0.146	0.041
-518.916	320.446	-0.050	-0.096
-517.902	-45.629	0.144	0.072
-516.887	57.626	0.047	-0.047
-515.872	-44.727	-0.281	-0.141
-514.858	10.167	0.301	0.230
-513.843	84.468	0.052	-0.057
-512.829	-19.889	0.171	-0.106
-511.814	-136.867	0.175	-0.020
-510.799	-32.867	-0.070	-0.039
-509.785	302.061	-0.109	0.203
-508.770	294.268	0.152	-0.279
-507.756	-200.000	0.013	-0.248
-506.741	-34.287	0.176	0.097
-505.726	-133.301	-0.265	-0.034
-504.712	-200.000	0.009	-0.137
-503.697	800.000	-0.059	-0.171
-502.683	646.768	0.011	0.027
-501.668	-54.103	-0.356	0.162
-500.653	-200.000	-0.007	0.170
-499.639	-99.332	0.123	0.031
-498.624	-59.583	-0.314	-0.135
-497.610	26.426	0.082	-0.069
-496.595	19.400	0.128	-0.104
-495.581	47.303	0.452	-0.423
-494.566	46.237	-0.174	-0.162
-493.551	-194.122	-0.053	-0.000
-492.537	14.917	0.064	0.051
-491.522	-84.969	0.192	-0.061
-490.508	313.709	-0.055	-0.103
-489.493	-74.460	0.213	-0.077
-488.478	28.236	-0.443	-0.376
-487.464	-199.336	-0.223	-0.001
-486.449	125.485	0.124	-0.157
-485.435	-81.310	-0.123	-0.041
-484.420	-93.571	0.561	0.156
-483.405	367.718	-0.083	0.168
-482.391	80.227	-0.053	0.057
-481.376	800.000	-0.031	-0.131
-480.362	-108.425	-0.390	-0.084
-479.347	800.000	0.116	0.323
-478.332	-61.938	-0.400	0.168
-477.318	116.417	0.058	0.071
-476.303	44.239	-0.159	0.147
-475.289	241.129	-0.120	-0.201
-474.274	19.374	-0.254	0.204
-473.259	32.065	-0.244	0.211
-472.245	273.868	-0.050	0.088
-471.230	800.000	-0.044	0.148
-470.216	662.484	0.017	-0.044
-469.201	-62.429	-0.286	0.120
-468.186	-200.000	-0.015	-0.247
-467.172	800.000	-0.172	-0.501
-466.157	45.848	0.175	0.162
-465.143	-60.723	-0.423	-0.180
-464.128	-200.000	0.013	-0.268
-463.113	800.000	-0.097	0.349
-462.099	-200.000	0.009	-0.045
-461.084	168.749	-0.218	-0.312
-460.070	800.000	-0.062	-0.228
-459.055	-72.495	0.272	-0.101
-458.040	120.986	-0.118	-0.147
-457.026	-45.738	-0.164	-0.081
-456.011	-58.787	-0.186	-0.081
-454.997	184.308	0.196	0.292
-453.982	-200.000	-0.010	0.099
-452.968	12.536	0.317	0.246
-451.953	-200.000	0.004	0.296
-450.938	99.469	-0.320	-0.371
-449.924	-200.000	0.023	-0.358
-448.909	342.890	0.016	-0.031
-447.895	1.648	-0.027	-0.020
-446.880	-200.000	0.002	-0.243
-445.865	-151.356	-0.183	-0.014
-444.851	231.155	-0.108	0.177
-443.836	27.790	-0.234	0.197
-442.822	-164.497	0.277	0.013
-441.807	-106.507	0.332	-0.074
-440.792	-200.000	-0.009	-0.102
-439.778	17.211	-0.340	-0.271
-438.763	273.434	0.109	-0.192
-437.749	54.539	0.371	0.358
-436.734	-200.000	-0.000	-0.063
-435.719	20.423	0.330	-0.268
-434.705	238.256	-0.132	-0.219
-433.690	29.542	0.056	0.048
-432.676	-55.771	0.315	0.141
-431.661	47.230	0.396	0.370
-430.646	800.000	0.088	-0.348
-429.632	-133.081	0.130	0.016
-428.617	-200.000	0.029	-0.257
-427.603	347.838	0.083	0.165
-426.588	-109.199	0.230	0.049
-425.573	70.657	0.119	0.123
-424.559	499.126	0.112	-0.258
-423.544	-200.000	0.029	0.131
-422.530	-104.652	-0.275	-0.063
-421.515	-122.187	-0.033	-0.005
-420.500	-200.000	0.400	-0.002
-419.486	-91.666	0.191	-0.054
-418.471	289.865	0.029	-0.053
-417.457	800.000	-0.070	-0.292
-416.442	-56.349	0.250	0.111
-415.428	724.610	-0.113	-0.301
-414.413	800.000	0.051	-0.143
-413.398	-200.000	-0.024	0.116
-412.384	157.317	0.181	-0.250
-411.369	-200.000	-0.010	0.142
-410.355	75.083	0.313	0.330
-409.340	800.000	0.091	-0.259
-408.325	800.000	-0.137	-0.481
-407.311	312.800	0.080	-0.150
-406.296	-29.255	-0.106	-0.061
-405.282	496.034	0.079	0.182
-404.267	-200.000	-0.026	0.134
-403.252	154.531	-0.234	0.322
-402.238	-69.486	0.176	-0.068
-401.223	180.396	-0.171	0.251
-400.209	-200.000	-0.000	0.090
-399.194	-117.922	0.358	0.064
-398.179	499.513	0.037	-0.085
-397.165	212.213	0.149	0.236
-396.150	-92.126	-0.142	-0.040
-395.136	80.080	0.299	0.322
-394.121	-200.000	-0.001	-0.036
-393.106	276.456	0.128	0.227
-392.092	-200.000	-0.025	0.174
-391.077	115.731	0.087	0.107
-390.063	-200.000	0.034	-0.152
-389.048	-91.249	0.162	-0.046
-388.033	124.585	-0.020	0.025
-387.019	-114.246	-0.071	-0.014
-386.004	40.771	0.203	-0.183
-384.990	-200.000	-0.033	-0.315
-383.975	800.000	-0.047	0.145
-382.960	-200.000	0.008	0.219
-381.946	359.403	-0.176	0.352
-380.931	249.542	-0.008	-0.013
-379.917	523.370	0.154	-0.362
-378.902	-200.000	0.018	-0.326
-377.888	-50.996	-0.214	-0.101
-376.873	-143.623	0.400	-0.038
-375.858	-111.428	-0.324	-0.066
-374.844	98.477	-0.052	0.060
-373.829	-15.832	-0.184	0.117
-372.815	127.634	-0.107	-0.135
-371.800	-152.740	0.339	0.024
-370.785	-200.000	0.000	0.136
-369.771	228.314	-0.108	-0.176
-368.756	67.587	0.080	0.081
-367.742	-4.397	0.215	0.149
-366.727	233.772	-0.118	0.194
-365.712	606.519	0.109	-0.271
-364.698	220.756	0.180	0.289
-363.683	-35.729	0.303	-0.164
-362.669	800.000	-0.108	0.310
-361.654	-166.256	0.415	-0.018
-360.639	87.226	-0.019	0.021
-359.625	-23.180	0.206	-0.124
-358.610	-200.000	-0.014	-0.146
-357.596	120.921	0.074	0.092
-356.581	-133.463	-0.193	-0.024
-355.566	178.169	0.107	0.156
-354.552	-79.427	0.095	-0.032
-353.537	174.963	0.180	-0.260
-352.523	37.012	-0.213	-0.188
-351.508	-155.176	-0.207	-0.014
-350.493	-48.208	-0.286	-0.138
-349.479	3.378	-0.125	0.091
-348.464	-200.000	0.012	-0.150
-347.450	-16.433	0.147	0.093
-346.435	-35.084	0.111	0.060
-345.420	-200.000	-0.014	0.127
-344.406	-126.844	0.132	0.019
-343.391	-52.633	-0.166	0.076
-342.377	-200.000	0.001	0.077
-341.362	22.333	0.236	0.192
-340.348	57.082	0.160	-0.156
-339.333	-66.621	-0.413	0.163
-338.318	-113.705	-0.264	0.051
-337.304	-46.798	-0.303	0.148
-336.289	-17.255	-0.184	-0.116
-335.275	-138.857	-0.086	-0.009
-334.260	-9.868	-0.298	-0.198
-333.245	-118.751	-0.195	0.034
-332.231	-90.591	-0.297	-0.086
-331.216	-79.389	0.271	0.092
-330.202	428.842	-0.152	0.327
-329.187	800.000	0.042	0.128
-328.172	-4.179	-0.386	-0.267
-327.158	204.080	-0.115	0.177
-326.143	-200.000	-0.006	0.057
-325.129	-200.000	-0.005	-0.210
-324.114	-38.485	0.251	-0.133
-323.099	37.143	0.148	-0.131
-322.085	376.715	-0.117	-0.238
-321.070	-200.000	0.018	-0.085
-320.056	-100.596	0.157	-0.039
-319.041	11.499	-0.202	-0.155
-318.026	800.000	0.026	-0.092
-317.012	196.720	0.118	0.180
-315.997	73.333	0.131	-0.136
-314.983	-41.079	-0.244	-0.126
-313.968	44.416	-0.218	-0.200
-312.953	2.446	-0.238	0.172
-311.939	800.000	-0.067	0.276
-310.924	-200.000	-0.037	0.345
-309.910	-93.062	0.179	-0.050
-308.895	-161.963	0.076	-0.004
-307.880	-200.000	-0.004	0.439
-306.866	318.556	0.099	0.186
-305.851	-56.057	-0.208	-0.093
-304.837	-200.000	0.003	-0.241
-303.822	-200.000	-0.036	0.351
-302.807	-126.869	-0.263	-0.039
-301.793	-56.354	0.234	-0.104
-300.778	136.884	0.111	0.145
-299.764	235.861	-0.093	-0.154
-298.749	-186.232	0.165	0.002
-297.735	-200.000	-0.002	0.192
-296.720	-100.245	0.353	-0.087
-295.705	-64.548	0.026	0.010
-294.691	-122.119	0.165	0.027
-293.676	123.793	0.253	0.316
-292.662	-134.626	0.060	0.007
-291.647	331.959	-0.054	0.104
-290.632	-200.000	0.007	0.120
-289.618	219.022	0.070	-0.112
-288.603	135.108	-0.107	0.139
-287.589	61.996	-0.050	-0.049
-286.574	800.000	-0.058	-0.195
-285.559	292.097	0.080	0.146
-284.545	800.000	0.023	-0.067
-283.530	274.125	-0.117	-0.206
-282.516	-80.459	-0.167	-0.056
-281.501	432.248	-0.068	0.146
-280.486	52.695	-0.201	-0.192
-279.472	-200.000	-0.029	0.142
-278.457	800.000	0.157	0.444
-277.443	128.920	-0.120	-0.152
-276.428	51.940	0.170	-0.161
-275.413	243.779	0.062	0.104
-274.399	-55.867	0.193	-0.086
-273.384	68.015	0.184	-0.187
-272.370	107.056	-0.162	0.192
-271.355	-200.000	0.059	-0.281
-270.340	76.550	-0.061	-0.064
-269.326	-200.000	0.009	0.179
-268.311	532.527	-0.118	0.279
-267.297	-35.315	-0.076	0.041
-266.282	337.804	-0.126	0.245
-265.267	209.228	0.065	0.101
-264.253	-107.849	0.484	0.105
-263.238	-200.000	0.052	-0.403
-262.224	-103.202	-0.310	0.073
-261.209	-157.264	0.426	0.026
-260.195	-162.544	0.278	-0.014
-259.180	-200.000	0.007	0.168
-258.165	418.896	0.119	0.253
-257.151	-10.382	-0.074	0.049
-256.136	-200.000	0.046	-0.226
-255.122	319.848	-0.040	0.075
-254.107	640.172	-0.077	0.194
-253.092	-14.354	0.224	0.144
-252.078	78.178	-0.182	-0.193
-251.063	-30.947	-0.149	0.084
-250.049	86.679	0.106	0.117
-249.034	-40.863	-0.307	0.158
-248.019	-92.289	0.300	0.084
-247.005	172.156	-0.095	-0.136
-245.990	-123.089	-0.151	-0.024
-244.976	800.000	-0.095	0.276
-243.961	800.000	0.034	0.131
-242.946	299.142	-0.150	0.276
-241.932	-46.978	-0.099	0.048
-240.917	110.655	0.187	-0.224
-239.903	2.601	-0.040	-0.029
-238.888	-188.302	-0.392	-0.005
-237.873	-118.748	0.100	0.018
-236.859	-92.540	-0.318	0.089
-235.844	309.760	-0.099	0.184
-234.830	183.465	-0.111	0.164
-233.815	-37.324	-0.111	-0.059
-232.800	-115.228	0.350	0.066
-231.786	800.000	-0.116	0.439
-230.771	-163.207	-0.195	0.009
-229.757	800.000	-0.059	-0.192
-228.742	408.143	0.036	-0.076
-227.727	-91.269	0.154	-0.044
-226.713	347.096	0.101	-0.197
-225.698	-11.409	0.107	-0.070
-224.684	-45.828	-0.164	-0.081
-223.669	800.000	0.039	0.125
-222.655	209.725	0.063	0.099
-221.640	-196.826	0.274	0.002
-220.625	-200.000	0.023	-0.192
-219.611	-200.000	-0.017	0.196
-218.596	-144.516	0.244	-0.022
-217.582	800.000	0.094	0.317
-216.567	-117.801	0.166	-0.030
-215.552	800.000	-0.084	0.260
-214.538	2.766	-0.105	-0.076
-213.523	63.676	0.064	-0.064
-212.509	-200.000	-0.077	-0.508
-211.494	-128.790	-0.492	-0.069
-210.479	-151.252	0.132	0.010
-209.465	70.654	-0.240	0.246
-208.450	-34.267	-0.056	-0.030
-207.436	-89.230	-0.199	0.058
-206.421	449.847	0.051	0.112
-205.406	-5.238	-0.074	0.050
-204.392	-200.000	0.021	-0.271
-203.377	-132.488	0.175	-0.022
-202.363	-7.255	0.122	-0.082
-201.348	233.175	-0.116	-0.189
-200.333	46.698	-0.359	-0.331
-199.319	800.000	-0.090	0.315
-198.304	-7.459	-0.259	-0.174
-197.290	800.000	0.071	-0.255
-196.275	89.328	-0.171	0.189
-195.260	-94.586	-0.307	-0.083
-194.246	-200.000	0.009	-0.335
-193.231	-113.537	-0.398	-0.077
-192.217	515.282	0.026	-0.059
-191.202	26.304	0.089	-0.074
-190.187	-5.415	0.316	-0.215
-189.173	800.000	0.073	-0.237
-188.158	-19.506	-0.062	0.038
-187.144	-10.833	0.147	-0.097
-186.129	800.000	0.049	-0.151
-185.114	538.044	-0.039	-0.093
-184.100	-61.039	0.428	-0.179
-183.085	-146.619	-0.160	-0.014
-182.071	800.000	0.042	0.182
-181.056	-41.736	0.129	0.065
-180.042	-42.146	-0.109	-0.055
-179.027	-156.119	0.142	0.009
-178.012	-74.525	0.094	-0.034
-176.998	443.584	0.158	-0.345
-175.983	800.000	-0.026	-0.094
-174.969	265.176	0.202	0.350
-173.954	550.485	0.149	0.354
-172.939	-200.000	-0.037	-0.275
-171.925	63.165	-0.232	0.231
-170.910	-200.000	0.048	0.397
-169.896	189.891	-0.091	0.136
-168.881	149.982	-0.184	0.247
-167.866	-200.000	-0.001	0.454
-166.852	-99.377	0.186	-0.046
-165.837	-57.133	0.135	0.059
-164.823	-200.000	0.036	0.221
-163.808	172.112	0.072	0.103
-162.793	26.883	0.126	-0.105
-161.779	800.000	0.099	0.282
-160.764	84.836	0.109	0.118
-159.750	40.880	0.142	0.127
-158.735	435.177	-0.055	-0.118
-157.720	132.501	0.070	0.090
-156.706	48.136	0.380	0.353
-155.691	154.484	0.133	-0.182
-154.677	-200.000	-0.033	0.245
-153.662	96.474	-0.114	-0.129
-152.647	15.157	-0.123	-0.095
-151.633	-17.461	0.081	-0.051
-150.618	-59.150	0.036	-0.015
-149.604	-200.000	-0.013	-0.207
-148.589	-91.248	-0.130	0.037
-147.574	167.129	-0.090	0.126
-146.560	-164.687	-0.119	-0.005
-145.545	111.481	-0.096	0.115
-144.531	-200.000	-0.005	-0.350
-143.516	435.986	0.021	0.046
-142.502	-200.000	0.012	-0.056
-141.487	-77.421	-0.344	0.118
-140.472	-51.813	0.130	-0.060
-139.458	82.083	0.152	-0.163
-138.443	-18.679	-0.215	0.133
-137.429	39.397	0.164	-0.145
-136.414	-200.000	-0.051	0.264
-135.399	800.000	-0.053	-0.179
-134.385	124.282	-0.192	-0.239
-133.370	129.414	-0.075	0.095
-132.356	800.000	0.101	-0.329
-131.341	128.572	-0.185	-0.233
-130.326	-37.548	0.201	0.106
-129.312	219.575	0.027	0.043
-128.297	-200.000	-0.039	-0.395
-127.283	0.169	0.206	0.146
-126.268	148.144	0.157	0.209
-125.253	-200.000	0.012	-0.201
-124.239	-200.000	0.053	-0.244
-123.224	139.627	0.092	0.120
-122.210	-45.369	-0.150	0.074
-121.195	-200.000	-0.086	-0.491
