DTS Sentinel unit serial number:	SN413079Multiplexer serial number:	ORYXHardware model number:	OX4-SRSoftware version number:	ORYX F/W v4.00 Oryx Data Collector v3.7.2.0data status	okinstallation	princeton_trtdifferential loss correction	single-endedforward channel	channel 3reverse channel	N/Adate	2019/09/13time	05:24:35forward acquisition time	60.00reverse acquisition time	0.00gamma	496.2192k internal	0.2338k external	0.2338temperature offset calibration	1.0135default loss term (dB/km)	0.3790temperature slope calibration	1.0000multiplexer offset coefficient	1.0000multiplexer slope coefficient	1.0000fibre end	0.00T internal ref (°C)	26.31T ext. ref 1 (°C)	4.06T ext. ref 2 (°C)	20.90length (m)	temperature (°C)	Stokes	anti-Stokes-747.200	2.025	-0.184	0.133
-746.185	255.648	-0.085	0.146
-745.171	228.852	-0.123	-0.201
-744.156	100.870	0.229	0.268
-743.142	-200.000	0.002	0.233
-742.127	90.618	-0.191	0.215
-741.112	-200.000	-0.004	0.096
-740.098	32.463	0.167	0.145
-739.083	92.386	-0.050	-0.057
-738.069	1.312	-0.209	-0.150
-737.054	195.480	-0.096	0.147
-736.039	632.462	-0.186	0.472
-735.025	202.277	-0.168	0.260
-734.010	-140.975	-0.368	-0.038
-732.996	800.000	0.026	-0.079
-731.981	800.000	0.074	-0.290
-730.966	-118.543	-0.181	0.032
-729.952	-96.077	-0.172	-0.046
-728.937	359.751	-0.170	-0.341
-727.923	31.005	0.132	0.113
-726.908	-39.997	-0.217	0.113
-725.894	-36.703	-0.113	-0.061
-724.879	-8.824	0.252	-0.170
-723.864	-80.107	-0.153	-0.051
-722.850	35.468	-0.148	0.130
-721.835	800.000	0.055	-0.165
-720.821	111.942	-0.071	-0.086
-719.806	-200.000	-0.034	-0.402
-718.791	-97.458	-0.215	0.056
-717.777	-200.000	-0.058	-0.271
-716.762	766.766	0.073	-0.198
-715.748	194.783	-0.076	-0.115
-714.733	33.820	-0.163	0.143
-713.718	-20.718	0.074	0.045
-712.704	-200.000	0.026	-0.210
-711.689	-97.509	0.228	-0.059
-710.675	-200.000	0.064	-0.305
-709.660	83.633	-0.122	-0.133
-708.645	442.629	-0.153	-0.336
-707.631	145.067	-0.289	-0.387
-706.616	-163.121	-0.086	0.004
-705.602	-122.672	-0.254	-0.041
-704.587	-10.929	-0.163	0.108
-703.572	-10.165	-0.221	0.147
-702.558	397.730	-0.062	-0.131
-701.543	-122.366	0.098	0.016
-700.529	-4.645	-0.114	0.079
-699.514	88.993	0.184	0.205
-698.499	-93.933	-0.064	0.018
-697.485	76.315	-0.160	0.169
-696.470	-7.665	-0.223	0.151
-695.456	-77.341	-0.226	-0.079
-694.441	-5.025	0.280	-0.193
-693.426	259.315	-0.278	-0.479
-692.412	-200.000	0.014	0.071
-691.397	-20.462	-0.170	0.104
-690.383	-134.607	-0.171	0.021
-689.368	-182.241	0.511	-0.010
-688.354	-106.455	-0.178	-0.040
-687.339	-200.000	-0.067	-0.381
-686.324	-200.000	0.100	-0.557
-685.310	117.344	-0.192	-0.237
-684.295	42.497	0.182	0.166
-683.281	-101.049	-0.261	0.064
-682.266	-39.057	-0.108	-0.057
-681.251	362.830	0.161	0.324
-680.237	-73.414	-0.106	0.039
-679.222	-200.000	0.026	0.210
-678.208	-200.000	-0.008	-0.181
-677.193	559.676	-0.119	-0.287
-676.178	-124.433	0.348	-0.054
-675.164	4.232	-0.311	-0.228
-674.149	-98.802	0.406	0.103
-673.135	381.856	0.130	-0.266
-672.120	54.938	-0.204	-0.197
-671.105	-119.456	0.102	0.018
-670.091	262.600	-0.016	-0.029
-669.076	-200.000	0.001	-0.047
-668.062	-200.000	0.008	-0.048
-667.047	800.000	0.059	0.195
-666.032	-154.616	-0.098	-0.007
-665.018	800.000	-0.024	-0.069
-664.003	-81.222	0.273	-0.090
-662.989	663.374	-0.077	-0.200
-661.974	112.738	-0.085	0.103
-660.959	17.416	-0.149	-0.118
-659.945	-134.524	-0.043	-0.005
-658.930	-132.966	-0.176	0.022
-657.916	-200.000	-0.021	0.105
-656.901	-46.773	0.265	0.130
-655.886	122.396	-0.144	-0.180
-654.872	-200.000	-0.049	0.400
-653.857	14.246	0.112	-0.088
-652.843	712.297	0.042	0.110
-651.828	-5.782	-0.138	0.094
-650.814	55.904	-0.147	-0.143
-649.799	-112.905	0.193	0.038
-648.784	177.183	-0.126	0.183
-647.770	218.311	0.135	-0.216
-646.755	-200.000	0.066	-0.312
-645.741	-200.000	0.027	-0.125
-644.726	-33.358	-0.174	0.096
-643.711	-101.444	0.054	-0.013
-642.697	-106.261	-0.291	-0.065
-641.682	183.725	-0.240	0.354
-640.668	-200.000	-0.010	0.077
-639.653	800.000	-0.118	-0.396
-638.638	728.022	0.112	0.300
-637.624	-48.364	-0.224	0.108
-636.609	-200.000	0.013	-0.089
-635.595	501.817	-0.037	-0.086
-634.580	-132.206	-0.313	-0.041
-633.565	800.000	0.065	0.194
-632.551	-200.000	0.025	-0.266
-631.536	-181.893	0.287	0.005
-630.522	127.260	-0.201	-0.255
-629.507	-7.830	-0.155	-0.105
-628.492	285.924	-0.235	-0.423
-627.478	69.072	-0.046	0.047
-626.463	140.036	0.204	-0.269
-625.449	132.152	-0.277	0.356
-624.434	800.000	-0.045	0.187
-623.419	-200.000	-0.016	-0.412
-622.405	-24.565	-0.218	-0.130
-621.390	791.635	0.065	0.178
-620.376	-34.032	0.245	-0.134
-619.361	-200.000	0.043	-0.506
-618.346	107.498	-0.257	-0.305
-617.332	40.737	0.109	-0.098
-616.317	800.000	-0.046	-0.141
-615.303	366.789	0.119	-0.241
-614.288	-142.202	-0.118	-0.012
-613.273	-200.000	0.006	-0.247
-612.259	-137.941	-0.169	0.019
-611.244	30.779	-0.308	0.263
-610.230	-28.555	-0.170	0.098
-609.215	-200.000	-0.024	-0.296
-608.201	32.836	-0.183	0.158
-607.186	-200.000	0.023	-0.570
-606.171	606.078	-0.133	-0.330
-605.157	-200.000	-0.033	0.329
-604.142	800.000	0.089	0.330
-603.128	-200.000	0.034	-0.242
-602.113	-89.351	0.115	0.034
-601.098	174.211	0.182	0.262
-600.084	74.416	-0.217	-0.227
-599.069	-32.265	-0.116	0.064
-598.055	-80.144	-0.132	-0.044
-597.040	205.379	0.039	0.060
-596.025	800.000	0.029	0.118
-595.011	-61.189	-0.339	-0.142
-593.996	-20.808	0.226	-0.138
-592.982	-200.000	-0.023	-0.173
-591.967	-76.952	-0.293	-0.102
-590.952	-200.000	0.026	-0.379
-589.938	256.438	-0.035	-0.061
-588.923	-90.880	0.140	-0.040
-587.909	72.700	0.231	0.240
-586.894	-200.000	-0.036	0.207
-585.879	-200.000	0.006	-0.264
-584.865	51.944	-0.172	-0.163
-583.850	-113.444	-0.442	-0.086
-582.836	131.104	0.060	0.077
-581.821	-107.897	0.339	-0.074
-580.806	222.141	-0.047	-0.076
-579.792	167.506	0.100	-0.141
-578.777	159.547	-0.156	-0.217
-577.763	-12.930	0.028	-0.018
-576.748	97.333	-0.082	-0.094
-575.733	-18.239	0.139	-0.087
-574.719	102.690	0.019	-0.022
-573.704	25.104	0.265	0.219
-572.690	-80.543	0.355	0.118
-571.675	451.695	-0.151	0.333
-570.661	-80.732	0.326	0.108
-569.646	90.184	0.184	-0.205
-568.631	-34.978	0.285	0.155
-567.617	182.429	0.046	0.068
-566.602	800.000	-0.085	0.306
-565.588	-33.887	-0.151	0.083
-564.573	277.975	-0.139	0.247
-563.558	46.704	-0.435	-0.403
-562.544	262.578	0.006	-0.011
-561.529	800.000	-0.088	-0.279
-560.515	72.211	0.113	0.117
-559.500	423.262	-0.137	-0.293
-558.485	-200.000	-0.010	0.274
-557.471	94.825	-0.104	-0.117
-556.456	-136.907	0.176	0.020
-555.442	-143.025	0.185	-0.018
-554.427	800.000	0.039	0.127
-553.412	711.273	0.152	-0.400
-552.398	-3.282	0.120	0.083
-551.383	267.317	-0.156	0.271
-550.369	-10.746	-0.197	0.130
-549.354	602.133	-0.094	-0.232
-548.339	800.000	-0.123	-0.528
-547.325	-127.694	0.046	-0.007
-546.310	-60.984	-0.254	0.107
-545.296	140.612	0.300	-0.394
-544.281	800.000	-0.044	-0.154
-543.266	-6.173	0.118	-0.081
-542.252	526.287	0.054	0.127
-541.237	800.000	-0.070	0.210
-540.223	12.870	-0.013	-0.010
-539.208	-114.570	0.295	-0.056
-538.193	-200.000	0.017	-0.166
-537.179	-85.501	-0.283	0.088
-536.164	455.600	0.174	0.385
-535.150	186.809	0.077	0.114
-534.135	-200.000	-0.068	0.299
-533.121	-27.257	0.473	-0.274
-532.106	37.069	0.127	0.112
-531.091	129.519	-0.220	-0.280
-530.077	800.000	0.020	0.076
-529.062	545.195	0.170	-0.404
-528.048	86.225	-0.287	-0.315
-527.033	106.955	0.204	-0.240
-526.018	586.444	0.107	0.261
-525.004	139.017	-0.078	0.102
-523.989	-23.205	0.130	-0.078
-522.975	225.910	-0.059	0.096
-521.960	489.193	-0.064	-0.144
-520.945	-167.576	0.207	-0.008
-519.931	-120.467	-0.433	-0.073
-518.916	-200.000	-0.064	-0.313
-517.902	-35.734	0.220	0.119
-516.887	-4.030	0.218	-0.150
-515.872	-31.150	0.191	-0.107
-514.858	160.483	-0.160	-0.222
-513.843	-100.037	-0.072	-0.018
-512.829	383.347	0.077	0.157
-511.814	37.811	0.074	-0.065
-510.799	800.000	-0.069	0.192
-509.785	351.485	0.135	0.265
-508.770	116.316	-0.185	0.226
-507.756	-142.941	0.573	-0.055
-506.741	50.423	0.170	0.159
-505.726	42.647	-0.149	-0.135
-504.712	619.797	0.055	-0.139
-503.697	800.000	0.065	-0.275
-502.683	134.181	0.178	-0.230
-501.668	90.784	0.051	-0.056
-500.653	800.000	0.151	0.422
-499.639	16.679	0.279	-0.219
-498.624	-39.059	0.023	-0.012
-497.610	-105.444	-0.101	0.023
-496.595	-6.888	0.331	-0.223
-495.581	169.711	-0.199	0.282
-494.566	391.616	-0.065	0.134
-493.551	152.992	-0.119	0.162
-492.537	-52.127	0.137	0.063
-491.522	-166.468	-0.118	-0.005
-490.508	-159.793	0.141	0.008
-489.493	800.000	-0.093	-0.294
-488.478	66.519	0.086	-0.087
-487.464	-200.000	0.188	-0.000
-486.449	-85.824	-0.168	-0.052
-485.435	477.518	-0.083	0.186
-484.420	39.966	-0.129	0.115
-483.405	-194.156	0.253	0.002
-482.391	-20.265	-0.314	0.192
-481.376	-200.000	-0.062	-0.274
-480.362	-71.999	0.334	0.123
-479.347	-24.024	0.052	-0.031
-478.332	173.071	0.053	0.076
-477.318	-93.913	-0.352	-0.096
-476.303	139.043	0.069	-0.091
-475.289	800.000	0.072	0.206
-474.274	-116.242	-0.280	0.051
-473.259	800.000	-0.060	-0.247
-472.245	-77.587	-0.277	-0.095
-471.230	145.977	-0.126	-0.167
-470.216	-29.545	-0.216	0.123
-469.201	59.171	-0.165	-0.161
-468.186	-22.280	-0.077	0.046
-467.172	-150.106	-0.171	0.013
-466.157	-38.189	0.105	0.055
-465.143	50.142	-0.107	-0.101
-464.128	-126.918	-0.377	-0.055
-463.113	-124.479	-0.263	-0.041
-462.099	-117.425	0.446	0.080
-461.084	382.424	-0.097	-0.197
-460.070	619.435	0.071	0.178
-459.055	-125.562	0.067	-0.010
-458.040	-200.000	0.138	-0.000
-457.026	-27.319	-0.144	0.083
-456.011	128.276	-0.107	-0.135
-454.997	118.978	-0.208	-0.255
-453.982	-200.000	-0.011	0.130
-452.968	-44.724	-0.151	0.075
-451.953	-36.864	0.286	-0.152
-450.938	105.183	0.252	0.295
-449.924	800.000	0.073	-0.237
-448.909	255.492	0.148	-0.251
-447.895	-183.034	-0.141	0.002
-446.880	-58.638	0.065	-0.028
-445.865	-122.729	0.286	-0.046
-444.851	-196.099	-0.104	0.001
-443.836	-143.935	-0.334	0.031
-442.822	108.995	0.152	0.181
-441.807	800.000	0.068	0.289
-440.792	-200.000	-0.007	0.113
-439.778	177.053	0.017	-0.025
-438.763	-164.623	-0.219	-0.010
-437.749	-71.307	-0.255	0.095
-436.734	85.594	-0.209	-0.227
-435.719	-200.000	-0.005	0.098
-434.705	-4.292	-0.255	-0.175
-433.690	-71.708	-0.553	-0.204
-432.676	154.999	0.202	-0.275
-431.661	-33.940	0.190	0.104
-430.646	-44.198	0.468	-0.233
-429.632	91.976	0.136	-0.152
-428.617	-200.000	0.102	-0.486
-427.603	-20.616	0.030	-0.018
-426.588	-34.843	-0.222	0.120
-425.573	-136.385	0.277	-0.032
-424.559	201.643	0.160	-0.244
-423.544	-164.994	-0.119	-0.005
-422.530	1.124	0.180	0.128
-421.515	800.000	-0.060	0.220
-420.500	800.000	0.084	-0.261
-419.486	128.518	-0.108	0.136
-418.471	-80.613	0.193	0.064
-417.457	-110.282	-0.343	-0.071
-416.442	-27.483	-0.320	0.184
-415.428	-200.000	-0.010	-0.102
-414.413	-13.140	-0.365	0.235
-413.398	-24.312	0.125	0.074
-412.384	-33.243	-0.095	0.052
-411.369	-62.099	-0.079	-0.033
-410.355	-200.000	0.069	-0.454
-409.340	480.829	0.090	-0.203
-408.325	30.269	-0.253	-0.214
-407.311	800.000	-0.114	0.334
-406.296	-58.001	-0.128	0.055
-405.282	735.282	-0.089	-0.236
-404.267	-200.000	-0.092	0.423
-403.252	45.368	-0.109	0.100
-402.238	-200.000	-0.016	-0.085
-401.223	-1.417	0.532	0.372
-400.209	-166.541	0.258	0.011
-399.194	311.372	-0.143	-0.265
-398.179	124.320	-0.150	0.186
-397.165	133.641	-0.059	-0.076
-396.150	-200.000	0.006	-0.043
-395.136	103.050	0.126	-0.146
-394.121	-129.242	0.234	0.032
-393.106	454.474	-0.058	-0.127
-392.092	-61.765	-0.264	-0.109
-391.077	-140.092	-0.120	-0.013
-390.063	70.533	-0.167	0.170
-389.048	-200.000	0.005	0.032
-388.033	41.929	-0.077	0.069
-387.019	193.871	-0.075	-0.112
-386.004	-71.995	0.161	0.059
-384.990	501.042	-0.081	0.184
-383.975	-126.783	0.367	-0.054
-382.960	-94.772	-0.126	0.034
-381.946	-200.000	-0.021	-0.186
-380.931	-200.000	-0.058	-0.266
-379.917	-200.000	-0.061	0.300
-378.902	-128.406	0.088	0.012
-377.888	160.553	-0.116	-0.160
-376.873	800.000	0.044	0.136
-375.858	-153.392	0.175	-0.012
-374.844	-140.991	0.147	-0.015
-373.829	800.000	0.047	-0.182
-372.815	90.465	0.062	-0.069
-371.800	-200.000	0.009	0.287
-370.785	-61.329	0.310	0.129
-369.771	45.226	-0.124	0.113
-368.756	104.831	0.055	0.064
-367.742	324.566	0.040	0.075
-366.727	-47.120	0.200	-0.097
-365.712	-161.078	0.045	0.002
-364.698	-141.384	-0.069	-0.007
-363.683	19.443	0.177	0.141
-362.669	784.516	0.089	-0.241
-361.654	21.199	-0.024	-0.020
-360.639	-148.326	0.373	-0.030
-359.625	-91.187	0.241	0.068
-358.610	66.034	0.151	-0.152
-357.596	30.145	-0.251	-0.211
-356.581	-23.887	0.084	-0.050
-355.566	-200.000	0.015	0.258
-354.552	-93.828	-0.129	0.035
-353.537	66.454	-0.213	0.214
-352.523	-200.000	0.063	0.394
-351.508	-59.284	0.309	0.131
-350.493	-130.508	-0.308	-0.041
-349.479	800.000	0.028	-0.105
-348.464	800.000	0.158	0.457
-347.450	-179.011	-0.273	0.006
-346.435	6.508	0.185	0.136
-345.420	-110.543	0.035	-0.007
-344.406	85.227	-0.087	-0.094
-343.391	167.056	-0.174	-0.244
-342.377	-4.918	0.076	0.051
-341.362	-41.332	0.134	-0.068
-340.348	-200.000	-0.074	0.000
-339.333	-200.000	-0.063	0.398
-338.318	122.863	0.057	0.071
-337.304	-158.199	-0.224	-0.013
-336.289	-120.479	-0.376	0.063
-335.275	163.101	-0.248	-0.344
-334.260	-200.000	-0.002	-0.126
-333.245	179.340	0.088	-0.128
-332.231	207.154	0.199	0.306
-331.216	-89.291	-0.147	-0.043
-330.202	275.442	-0.046	-0.080
-329.187	800.000	-0.020	0.072
-328.172	-200.000	-0.004	0.159
-327.158	800.000	-0.034	-0.117
-326.143	48.514	-0.245	-0.227
-325.129	-200.000	0.032	-0.154
-324.114	46.404	0.218	-0.199
-323.099	61.296	-0.089	-0.087
-322.085	-167.695	-0.240	-0.009
-321.070	-150.820	0.079	0.006
-320.056	-97.500	-0.148	-0.038
-319.041	-138.694	-0.182	-0.020
-318.026	-82.646	-0.354	0.113
-317.012	-59.002	0.144	0.061
-315.997	0.033	-0.051	0.036
-314.983	307.026	0.040	-0.073
-313.968	-81.859	0.224	-0.072
-312.953	68.521	0.216	-0.218
-311.939	471.314	-0.205	-0.454
-310.924	-150.585	0.244	0.018
-309.910	-95.336	-0.237	-0.063
-308.895	66.344	0.182	0.182
-307.880	629.796	-0.120	0.300
-306.866	-82.168	-0.102	-0.033
-305.851	-200.000	-0.023	-0.103
-304.837	22.790	-0.052	-0.042
-303.822	50.274	-0.062	0.058
-302.807	-30.038	-0.099	-0.056
-301.793	-94.584	0.153	0.041
-300.778	18.869	0.320	0.253
-299.764	-149.928	-0.230	-0.018
-298.749	-92.588	0.149	-0.041
-297.735	-44.711	0.313	-0.154
-296.720	-158.255	-0.116	0.007
-295.705	-97.576	-0.035	0.009
-294.691	-200.000	-0.016	-0.151
-293.676	-7.295	0.148	0.099
-292.662	-172.107	0.237	0.008
-291.647	-200.000	-0.003	0.127
-290.632	-42.438	0.205	0.103
-289.618	-200.000	-0.009	-0.089
-288.603	375.886	0.164	-0.329
-287.589	-200.000	-0.010	0.405
-286.574	463.955	-0.152	-0.336
-285.559	-68.317	-0.152	0.058
-284.545	44.001	-0.223	-0.202
-283.530	800.000	-0.067	0.227
-282.516	9.145	-0.245	0.182
-281.501	-135.202	0.246	0.029
-280.486	800.000	-0.049	0.134
-279.472	-103.463	-0.132	0.031
-278.457	-121.862	-0.162	0.026
-277.443	-200.000	0.013	-0.286
-276.428	155.846	-0.085	0.116
-275.413	800.000	-0.040	-0.119
-274.399	-200.000	-0.015	-0.227
-273.384	406.904	-0.079	0.164
-272.370	-22.808	0.133	-0.079
-271.355	-39.779	-0.091	-0.047
-270.340	800.000	0.019	0.058
-269.326	-200.000	0.050	0.292
-268.311	-110.623	-0.177	-0.036
-267.297	147.323	0.113	-0.149
-266.282	-200.000	0.005	-0.061
-265.267	616.573	0.043	0.106
-264.253	361.926	-0.098	0.194
-263.238	-138.448	-0.237	0.026
-262.224	83.781	0.217	0.233
-261.209	185.458	0.169	0.246
-260.195	-200.000	0.012	0.216
-259.180	218.883	0.194	0.305
-258.165	169.776	0.236	0.333
-257.151	-14.662	0.151	-0.096
-256.136	-74.718	-0.147	0.052
-255.122	291.668	0.172	0.308
-254.107	161.591	-0.113	0.156
-253.092	-200.000	0.010	-0.068
-252.078	241.772	-0.053	0.086
-251.063	585.354	0.054	0.132
-250.049	-200.000	0.004	-0.054
-249.034	-0.139	-0.159	-0.111
-248.019	800.000	-0.071	-0.257
-247.005	-138.107	-0.092	0.010
-245.990	-113.898	-0.116	0.022
-244.976	223.903	0.233	-0.370
-243.961	112.990	0.150	0.179
-242.946	98.217	0.157	-0.178
-241.932	-68.445	0.090	0.034
-240.917	84.245	0.241	0.259
-239.903	237.996	0.118	0.193
-238.888	800.000	-0.164	0.561
-237.873	-0.161	0.132	0.093
-236.859	-200.000	0.044	-0.292
-235.844	-116.009	0.171	-0.031
-234.830	-156.366	0.300	-0.018
-233.815	800.000	0.025	-0.073
-232.800	-60.247	-0.144	0.060
-231.786	68.344	0.088	0.089
-230.771	564.989	0.058	-0.139
-229.757	-63.243	-0.162	-0.066
-228.742	510.753	0.174	0.399
-227.727	142.633	0.032	0.042
-226.713	800.000	0.130	0.405
-225.698	-92.355	0.244	-0.067
-224.684	800.000	-0.084	0.278
-223.669	323.019	0.287	0.538
-222.655	147.790	-0.145	-0.192
-221.640	-63.523	0.276	-0.111
-220.625	-200.000	0.042	0.280
-219.611	-53.682	-0.204	0.091
-218.596	276.957	-0.075	0.132
-217.582	136.668	0.057	0.073
-216.567	-200.000	-0.009	0.262
-215.552	65.599	0.015	0.015
-214.538	8.669	0.090	0.067
-213.523	-122.008	0.184	0.030
-212.509	486.605	-0.088	-0.198
-211.494	178.620	0.119	0.171
-210.479	53.550	-0.164	-0.154
-209.465	800.000	0.123	0.413
-208.450	-93.305	0.282	0.077
-207.436	-84.037	0.203	-0.063
-206.421	-200.000	-0.032	0.234
-205.406	177.809	0.118	0.169
-204.392	800.000	0.131	0.372
-203.377	-2.305	-0.100	0.069
-202.363	-129.276	-0.245	0.034
-201.348	-64.350	0.086	-0.034
-200.333	18.455	0.092	-0.072
-199.319	-181.449	-0.418	-0.008
-198.304	-40.057	-0.025	0.013
-197.290	-200.000	0.087	0.492
-196.275	91.614	-0.143	0.158
-195.260	-149.830	-0.125	0.010
-194.246	78.025	-0.013	0.014
-193.231	-167.346	-0.082	0.003
-192.217	-50.879	0.251	0.116
-191.202	235.958	0.124	-0.202
-190.187	78.683	-0.248	0.260
-189.173	-64.361	-0.144	-0.057
-188.158	800.000	0.039	0.160
-187.144	800.000	0.104	0.307
-186.129	149.280	0.208	-0.277
-185.114	-103.910	-0.124	0.028
-184.100	-200.000	0.005	-0.208
-183.085	143.685	0.073	0.096
-182.071	-165.161	-0.266	0.012
-181.056	-128.587	-0.257	0.036
-180.042	-133.012	0.390	-0.049
-179.027	-61.678	-0.228	-0.094
-178.012	-77.713	-0.051	-0.017
-176.998	-1.427	-0.197	-0.136
-175.983	-116.367	-0.341	-0.062
-174.969	-156.054	-0.361	0.022
-173.954	-200.000	0.008	0.103
-172.939	-173.794	-0.332	-0.010
-171.925	-130.120	0.303	0.041
-170.910	22.952	0.155	-0.125
-169.896	-47.996	0.305	0.145
-168.881	-50.874	-0.050	-0.023
-167.866	133.970	-0.112	0.143
-166.852	-169.349	0.469	0.017
-165.837	35.161	-0.164	0.141
-164.823	110.454	-0.113	-0.133
-163.808	89.021	0.173	-0.188
-162.793	141.840	-0.238	0.310
-161.779	-75.345	0.174	0.061
-160.764	-62.609	0.175	-0.071
-159.750	-19.371	-0.140	-0.085
-158.735	33.452	0.058	0.049
-157.720	800.000	0.060	-0.255
-156.706	262.901	0.227	0.386
-155.691	-9.243	0.192	0.126
-154.677	800.000	0.016	-0.050
-153.662	-15.015	-0.032	-0.020
-152.647	-112.799	0.454	0.088
-151.633	-168.454	-0.240	0.009
-150.618	61.712	0.163	0.159
-149.604	-116.469	0.233	-0.042
-148.589	250.632	-0.075	-0.125
-147.574	-200.000	-0.002	0.138
-146.560	-126.279	0.212	0.031
-145.545	-200.000	0.018	-0.103
-144.531	800.000	0.030	0.104
-143.516	-200.000	-0.031	-0.150
-142.502	-73.529	-0.336	0.120
-141.487	525.911	-0.068	-0.156
-140.472	-102.488	0.422	-0.099
-139.458	-200.000	-0.000	0.437
-138.443	-57.778	-0.134	0.058
-137.429	-42.474	0.296	-0.148
-136.414	211.240	-0.133	0.205
-135.399	-48.569	-0.239	0.113
-134.385	149.938	-0.124	0.165
-133.370	-64.183	0.168	0.067
-132.356	-45.733	0.236	-0.114
-131.341	295.429	0.089	0.159
-130.326	-200.000	0.037	0.165
-129.312	-86.068	-0.163	-0.049
-128.297	-167.383	0.265	-0.010
-127.283	-121.834	0.200	0.032
-126.268	83.236	0.154	-0.164
-125.253	-150.617	-0.085	0.006
-124.239	-200.000	-0.002	0.206
-123.224	-163.629	0.324	0.015
-122.210	800.000	0.031	-0.120
