DTS Sentinel unit serial number:	SN413079Multiplexer serial number:	ORYXHardware model number:	OX4-SRSoftware version number:	ORYX F/W v4.00 Oryx Data Collector v3.7.2.0data status	okinstallation	princeton_trtdifferential loss correction	single-endedforward channel	channel 3reverse channel	N/Adate	2019/09/17time	02:36:34forward acquisition time	60.00reverse acquisition time	0.00gamma	496.2192k internal	0.2323k external	0.2323temperature offset calibration	0.9944default loss term (dB/km)	0.3790temperature slope calibration	1.0000multiplexer offset coefficient	1.0000multiplexer slope coefficient	1.0000fibre end	0.00T internal ref (°C)	29.81T ext. ref 1 (°C)	0.12T ext. ref 2 (°C)	24.80length (m)	temperature (°C)	Stokes	anti-Stokes-747.200	706.158	0.034	-0.092
-746.185	37.601	-0.305	-0.273
-745.171	-5.576	0.133	-0.092
-744.156	-200.000	0.029	0.258
-743.142	-20.570	0.507	-0.314
-742.127	22.107	0.063	-0.052
-741.112	303.243	0.024	-0.046
-740.098	800.000	-0.119	0.364
-739.083	-200.000	0.005	0.110
-738.069	800.000	0.081	0.310
-737.054	-200.000	0.036	-0.273
-736.039	-109.035	-0.551	0.119
-735.025	-200.000	-0.019	0.089
-734.010	800.000	0.073	-0.282
-732.996	800.000	-0.089	0.262
-731.981	-106.861	-0.237	-0.053
-730.966	-6.841	-0.321	-0.220
-729.952	-200.000	0.061	-0.311
-728.937	-54.612	-0.291	0.133
-727.923	-1.063	-0.277	-0.198
-726.908	-52.956	-0.257	0.119
-725.894	656.098	0.014	0.037
-724.879	-109.875	-0.325	0.069
-723.864	-73.854	-0.228	-0.083
-722.850	-59.312	-0.130	-0.057
-721.835	396.893	0.138	-0.292
-720.821	-200.000	-0.041	-0.209
-719.806	-168.230	-0.107	0.004
-718.791	-144.498	0.081	-0.008
-717.777	-172.717	0.119	0.004
-716.762	-149.977	-0.224	0.018
-715.748	-53.715	0.378	-0.174
-714.733	-73.045	0.062	-0.023
-713.718	147.431	-0.127	-0.173
-712.704	269.919	-0.116	-0.206
-711.689	-53.775	0.220	0.101
-710.675	-77.063	0.134	0.047
-709.660	-11.083	0.210	0.139
-708.645	709.295	-0.112	0.298
-707.631	-71.153	-0.192	-0.073
-706.616	-28.449	-0.141	-0.082
-705.602	31.397	-0.243	0.211
-704.587	5.028	-0.193	0.143
-703.572	-200.000	0.011	0.050
-702.558	-120.105	-0.077	-0.013
-701.543	-200.000	0.032	-0.235
-700.529	800.000	-0.058	0.234
-699.514	-200.000	-0.020	-0.343
-698.499	800.000	0.108	0.339
-697.485	-200.000	0.039	-0.311
-696.470	-200.000	0.006	0.096
-695.456	-200.000	0.002	-0.180
-694.441	-152.762	0.445	0.032
-693.426	194.581	-0.125	0.191
-692.412	-97.126	-0.261	-0.069
-691.397	76.691	-0.427	-0.456
-690.383	-114.141	0.117	0.023
-689.368	-46.400	-0.298	0.147
-688.354	334.405	-0.147	-0.286
-687.339	800.000	0.041	0.121
-686.324	-200.000	-0.021	-0.177
-685.310	-200.000	-0.033	-0.172
-684.295	-43.251	-0.177	0.090
-683.281	466.479	0.148	-0.333
-682.266	800.000	0.114	-0.323
-681.251	121.821	0.205	-0.257
-680.237	800.000	0.042	-0.152
-679.222	-200.000	0.025	0.229
-678.208	-64.348	-0.061	-0.025
-677.193	64.640	0.116	-0.118
-676.178	122.235	-0.246	-0.309
-675.164	59.471	-0.350	-0.348
-674.149	-200.000	0.013	0.064
-673.135	228.404	-0.174	-0.286
-672.120	800.000	-0.036	0.119
-671.105	4.080	-0.175	-0.129
-670.091	-200.000	-0.002	0.150
-669.076	-200.000	0.002	-0.108
-668.062	-11.974	-0.257	-0.170
-667.047	118.845	0.030	-0.037
-666.032	-98.267	0.130	-0.034
-665.018	-84.707	0.227	-0.072
-664.003	217.467	0.041	0.066
-662.989	480.307	0.134	-0.306
-661.974	772.725	-0.024	0.065
-660.959	47.885	-0.018	0.017
-659.945	800.000	-0.186	0.553
-658.930	4.116	0.166	0.122
-657.916	800.000	-0.038	0.132
-656.901	-200.000	-0.015	0.069
-655.886	-200.000	0.025	-0.198
-654.872	-200.000	-0.024	-0.343
-653.857	-35.183	0.133	0.073
-652.843	28.476	-0.151	-0.129
-651.828	125.554	-0.228	-0.290
-650.814	800.000	0.031	0.117
-649.799	-68.951	0.350	-0.136
-648.784	287.914	0.041	-0.075
-647.770	699.281	0.031	0.081
-646.755	379.684	0.178	0.366
-645.741	5.172	-0.052	0.038
-644.726	51.408	-0.310	-0.296
-643.711	-27.551	-0.163	0.095
-642.697	-110.869	-0.187	-0.039
-641.682	-21.085	0.171	-0.105
-640.668	800.000	-0.097	-0.297
-639.653	-136.490	0.383	-0.045
-638.638	-69.263	0.334	-0.129
-637.624	-139.288	-0.294	-0.032
-636.609	-1.667	0.147	-0.104
-635.595	52.705	0.297	-0.285
-634.580	-200.000	-0.030	-0.151
-633.565	-97.282	-0.234	-0.061
-632.551	-200.000	0.003	-0.259
-631.536	108.309	-0.072	0.086
-630.522	-98.424	0.063	-0.016
-629.507	800.000	-0.076	0.294
-628.492	-45.345	-0.210	-0.105
-627.478	155.480	-0.053	-0.073
-626.463	-200.000	0.036	0.200
-625.449	-32.739	-0.015	0.008
-624.434	104.095	-0.125	0.148
-623.419	-10.322	0.206	-0.137
-622.405	340.528	0.091	0.179
-621.390	0.693	-0.130	0.094
-620.376	318.049	0.108	0.206
-619.361	-162.990	0.185	0.009
-618.346	-200.000	-0.005	0.039
-617.332	-200.000	0.004	-0.074
-616.317	21.650	-0.131	0.108
-615.303	-96.816	-0.278	-0.073
-614.288	49.031	0.241	-0.228
-613.273	-37.417	-0.111	-0.060
-612.259	-1.438	-0.064	0.045
-611.244	-161.341	0.080	-0.004
-610.230	759.992	0.029	-0.078
-609.215	264.117	-0.169	0.295
-608.201	-125.706	0.457	-0.070
-607.186	188.423	-0.145	0.218
-606.171	800.000	-0.067	-0.221
-605.157	-200.000	0.050	0.578
-604.142	62.399	-0.148	-0.149
-603.128	-8.633	0.053	-0.036
-602.113	-169.983	-0.148	-0.005
-601.098	-200.000	-0.017	-0.226
-600.084	191.875	0.106	0.160
-599.069	-67.489	0.229	0.090
-598.055	-101.960	0.069	0.017
-597.040	-118.218	-0.217	0.039
-596.025	800.000	0.076	0.287
-595.011	14.824	-0.154	0.121
-593.996	-200.000	0.005	0.030
-592.982	-200.000	-0.011	-0.215
-591.967	-96.213	-0.254	0.068
-590.952	-200.000	0.032	0.184
-589.938	800.000	0.048	-0.172
-588.923	50.987	-0.219	-0.209
-587.909	354.342	0.052	-0.105
-586.894	-91.734	-0.228	0.065
-585.879	-200.000	-0.006	-0.093
-584.865	98.963	-0.145	0.168
-583.850	114.553	0.052	-0.063
-582.836	800.000	0.023	0.088
-581.821	-175.751	0.079	0.002
-580.806	78.608	-0.097	-0.104
-579.792	234.510	0.136	0.225
-578.777	-79.830	-0.077	0.026
-577.763	370.765	0.106	0.216
-576.748	86.014	-0.245	-0.271
-575.733	-120.409	-0.164	-0.028
-574.719	-138.168	-0.458	0.051
-573.704	268.783	0.014	-0.025
-572.690	800.000	-0.024	0.106
-571.675	77.058	0.172	-0.184
-570.661	-115.404	0.115	-0.022
-569.646	-200.000	0.038	0.288
-568.631	32.217	-0.199	-0.172
-567.617	800.000	-0.060	-0.239
-566.602	-74.586	-0.062	-0.022
-565.588	-107.616	0.345	-0.076
-564.573	-200.000	0.065	0.303
-563.558	97.708	-0.107	0.124
-562.544	-14.384	-0.342	0.221
-561.529	-28.567	-0.391	-0.226
-560.515	-200.000	0.031	-0.219
-559.500	333.937	0.146	-0.283
-558.485	-200.000	-0.018	-0.259
-557.471	477.429	0.114	0.258
-556.456	-200.000	-0.004	0.139
-555.442	-200.000	0.030	-0.297
-554.427	800.000	-0.049	-0.192
-553.412	-76.617	-0.448	0.157
-552.398	-51.614	-0.223	-0.104
-551.383	-64.315	-0.155	0.063
-550.369	-30.046	-0.197	-0.112
-549.354	-114.755	-0.039	0.007
-548.339	103.567	0.292	-0.343
-547.325	-9.571	0.074	-0.050
-546.310	151.968	0.077	-0.105
-545.296	-119.777	0.146	-0.025
-544.281	237.694	-0.061	0.101
-543.266	-200.000	-0.006	-0.096
-542.252	317.798	0.019	-0.036
-541.237	-65.422	-0.313	-0.126
-540.223	-40.234	-0.127	-0.066
-539.208	-126.242	-0.120	0.018
-538.193	-117.152	-0.219	0.040
-537.179	79.404	0.163	0.176
-536.164	-200.000	-0.040	-0.312
-535.150	-200.000	-0.002	-0.122
-534.135	-200.000	0.062	0.272
-533.121	-100.122	0.188	0.047
-532.106	-55.679	-0.288	-0.129
-531.091	36.661	-0.023	-0.020
-530.077	57.477	-0.089	0.087
-529.062	-58.451	-0.062	-0.027
-528.048	146.881	0.194	0.261
-527.033	133.309	-0.118	0.152
-526.018	108.753	0.003	0.004
-525.004	276.071	0.147	-0.262
-523.989	-123.030	0.183	0.029
-522.975	772.355	0.031	0.085
-521.960	34.012	-0.160	0.140
-520.945	-20.640	-0.331	0.203
-519.931	757.303	0.070	-0.191
-518.916	-24.191	0.044	-0.026
-517.902	124.841	-0.024	-0.030
-516.887	-94.166	-0.197	0.054
-515.872	241.395	-0.200	0.334
-514.858	-69.361	-0.206	0.079
-513.843	-134.095	0.229	-0.028
-512.829	-11.180	0.112	0.074
-511.814	57.242	0.032	-0.031
-510.799	-30.509	0.216	0.123
-509.785	74.637	0.052	0.055
-508.770	-36.610	-0.031	0.017
-507.756	53.153	0.139	-0.133
-506.741	-102.791	0.411	0.098
-505.726	258.565	-0.137	-0.237
-504.712	20.377	0.057	0.046
-503.697	-195.796	0.397	-0.003
-502.683	-200.000	0.004	0.090
-501.668	-32.222	-0.300	-0.168
-500.653	-42.186	0.125	-0.064
-499.639	-200.000	-0.011	-0.231
-498.624	59.732	-0.265	-0.261
-497.610	-200.000	0.003	-0.210
-496.595	66.060	0.113	-0.115
-495.581	103.395	-0.206	-0.241
-494.566	57.037	-0.071	-0.069
-493.551	157.252	-0.173	-0.239
-492.537	-192.645	0.172	-0.002
-491.522	-13.792	-0.219	0.141
-490.508	-12.642	-0.322	-0.210
-489.493	-200.000	0.005	0.284
-488.478	18.868	-0.178	0.143
-487.464	-139.044	0.282	-0.031
-486.449	378.489	-0.172	0.351
-485.435	101.949	0.164	0.191
-484.420	-98.278	-0.335	-0.086
-483.405	800.000	-0.039	-0.151
-482.391	55.372	0.054	0.053
-481.376	-191.134	0.434	-0.004
-480.362	-200.000	-0.013	-0.353
-479.347	611.530	0.090	-0.226
-478.332	-194.033	-0.149	0.001
-477.318	-200.000	0.000	-0.180
-476.303	-146.381	0.132	-0.012
-475.289	107.730	-0.190	0.226
-474.274	373.091	0.129	0.262
-473.259	-11.046	0.377	-0.249
-472.245	800.000	-0.027	0.095
-471.230	-131.623	-0.124	-0.016
-470.216	-200.000	-0.017	0.170
-469.201	113.401	-0.122	0.148
-468.186	272.218	0.176	-0.310
-467.172	-33.266	0.111	0.061
-466.157	98.681	-0.210	-0.242
-465.143	8.886	-0.174	-0.131
-464.128	43.203	-0.206	0.188
-463.113	326.268	0.067	-0.127
-462.099	10.177	0.062	-0.047
-461.084	311.515	0.147	0.275
-460.070	-200.000	0.000	-0.040
-459.055	17.370	-0.167	-0.132
-458.040	429.096	0.099	-0.214
-457.026	228.918	0.116	-0.189
-456.011	366.827	-0.013	-0.027
-454.997	206.613	0.282	-0.439
-453.982	-93.180	-0.334	-0.093
-452.968	800.000	-0.028	0.105
-451.953	-173.637	-0.152	-0.005
-450.938	76.019	0.194	0.205
-449.924	135.555	-0.115	-0.149
-448.909	20.864	0.096	0.078
-447.895	319.908	0.069	-0.130
-446.880	800.000	-0.063	0.210
-445.865	-200.000	-0.061	0.300
-444.851	125.211	-0.169	-0.213
-443.836	138.269	0.200	0.262
-442.822	-200.000	-0.061	-0.354
-441.807	-64.103	0.028	0.011
-440.792	-26.008	-0.137	-0.081
-439.778	-109.099	-0.390	-0.083
-438.763	-16.581	0.468	-0.296
-437.749	800.000	0.059	0.205
-436.734	87.316	-0.129	0.142
-435.719	-110.764	-0.201	0.041
-434.705	143.717	0.205	0.272
-433.690	-19.506	0.123	-0.076
-432.676	-200.000	-0.006	0.278
-431.661	130.729	-0.065	0.083
-430.646	54.083	-0.128	0.123
-429.632	-200.000	-0.022	-0.111
-428.617	-101.225	0.151	0.037
-427.603	-108.876	0.224	0.048
-426.588	-200.000	-0.020	-0.132
-425.573	-200.000	0.032	0.226
-424.559	294.411	0.161	0.293
-423.544	205.627	0.051	0.079
-422.530	535.996	0.111	0.263
-421.515	347.664	0.178	0.351
-420.500	800.000	0.124	-0.378
-419.486	417.454	0.101	0.216
-418.471	119.027	0.046	-0.057
-417.457	-85.061	0.130	-0.041
-416.442	-121.769	-0.090	0.015
-415.428	-127.740	0.372	0.054
-414.413	-48.978	0.425	-0.203
-413.398	185.926	-0.039	0.058
-412.384	110.861	0.039	-0.047
-411.369	-9.571	0.228	0.151
-410.355	-21.819	-0.214	-0.130
-409.340	319.785	0.021	0.040
-408.325	-200.000	-0.173	0.000
-407.311	115.230	-0.020	-0.024
-406.296	-135.075	0.195	0.023
-405.282	3.964	-0.208	0.151
-404.267	-6.465	-0.265	0.180
-403.252	774.645	-0.163	0.442
-402.238	-137.165	0.278	0.032
-401.223	-175.942	-0.222	-0.006
-400.209	800.000	0.095	0.333
-399.194	384.487	0.175	0.360
-398.179	103.535	-0.232	0.271
-397.165	-37.116	-0.073	-0.039
-396.150	-163.674	-0.231	-0.011
-395.136	151.302	-0.087	0.118
-394.121	-140.587	0.552	0.057
-393.106	-200.000	-0.014	0.205
-392.092	272.799	0.066	0.115
-391.077	0.670	-0.404	0.288
-390.063	153.026	-0.190	0.259
-389.048	32.328	-0.069	-0.059
-388.033	-75.337	0.211	0.075
-387.019	-84.469	-0.144	-0.045
-386.004	-200.000	-0.008	0.299
-384.990	536.467	-0.155	0.366
-383.975	-12.256	-0.319	0.208
-382.960	-75.220	0.152	-0.054
-381.946	-200.000	0.051	0.332
-380.931	-125.299	-0.188	0.029
-379.917	31.215	0.078	0.067
-378.902	-65.088	0.117	-0.047
-377.888	-200.000	0.051	-0.398
-376.873	41.595	0.182	-0.164
-375.858	37.618	0.076	-0.068
-374.844	800.000	-0.038	-0.133
-373.829	18.573	-0.156	-0.124
-372.815	-168.103	-0.056	-0.002
-371.800	-200.000	-0.032	0.168
-370.785	800.000	-0.017	-0.072
-369.771	800.000	0.056	0.184
-368.756	-161.935	0.125	0.006
-367.742	25.822	-0.244	-0.202
-366.727	-49.562	-0.361	0.171
-365.712	800.000	-0.006	0.024
-364.698	-187.594	-0.161	0.002
-363.683	-46.849	-0.268	-0.130
-362.669	66.021	-0.111	-0.112
-361.654	-65.521	0.145	0.058
-360.639	-100.892	0.044	-0.011
-359.625	800.000	-0.067	0.189
-358.610	-200.000	0.022	0.181
-357.596	-200.000	-0.052	-0.276
-356.581	-147.712	-0.101	-0.008
-355.566	755.857	0.030	0.080
-354.552	191.253	-0.064	0.096
-353.537	-200.000	-0.000	-0.506
-352.523	409.195	0.130	-0.274
-351.508	-108.996	-0.091	0.019
-350.493	506.408	0.093	-0.215
-349.479	444.729	0.079	0.172
-348.464	70.831	0.075	0.077
-347.450	-30.936	0.148	-0.083
-346.435	-26.004	0.366	0.214
-345.420	94.510	0.114	-0.129
-344.406	-14.630	-0.206	-0.132
-343.391	-127.876	-0.304	-0.043
-342.377	800.000	0.048	0.183
-341.362	6.459	0.079	0.058
-340.348	-164.875	0.234	0.010
-339.333	470.276	-0.076	0.170
-338.318	623.035	-0.163	-0.409
-337.304	-30.925	-0.040	0.022
-336.289	-24.074	-0.136	0.081
-335.275	800.000	0.027	0.096
-334.260	-175.590	-0.164	-0.004
-333.245	192.057	0.070	-0.105
-332.231	-47.101	0.117	-0.057
-331.216	-8.311	-0.120	0.080
-330.202	262.461	0.239	-0.412
-329.187	-200.000	-0.024	0.163
-328.172	-29.314	0.028	-0.016
-327.158	104.044	0.247	0.288
-326.143	224.731	-0.151	-0.242
-325.129	70.182	-0.122	-0.126
-324.114	-83.384	-0.259	-0.083
-323.099	-22.692	0.160	-0.096
-322.085	53.663	-0.246	-0.234
-321.070	33.781	-0.152	-0.132
-320.056	800.000	-0.091	-0.257
-319.041	-67.610	0.266	0.104
-318.026	-104.238	0.316	-0.073
-317.012	-200.000	-0.040	0.311
-315.997	-129.315	-0.107	0.015
-314.983	302.156	0.219	0.402
-313.968	1.662	0.056	0.040
-312.953	-200.000	-0.023	-0.159
-311.939	-90.252	-0.107	-0.031
-310.924	-200.000	-0.036	-0.336
-309.910	76.273	-0.181	-0.191
-308.895	776.746	0.123	-0.334
-307.880	-70.138	0.228	0.086
-306.866	-200.000	-0.009	-0.190
-305.851	800.000	0.026	0.079
-304.837	-162.296	-0.492	-0.024
-303.822	25.396	0.231	-0.191
-302.807	63.607	0.190	0.189
-301.793	342.417	-0.085	0.165
-300.778	-78.346	0.368	-0.125
-299.764	-159.170	-0.177	-0.010
-298.749	-88.165	-0.020	0.006
-297.735	-131.643	0.233	-0.030
-296.720	-81.182	-0.231	0.076
-295.705	637.096	0.085	0.214
-294.691	-94.537	0.305	-0.082
-293.676	10.450	-0.134	-0.101
-292.662	-200.000	-0.000	0.124
-291.647	151.443	0.258	-0.349
-290.632	246.568	0.114	0.190
-289.618	-97.097	0.230	0.060
-288.603	37.648	0.132	-0.116
-287.589	50.054	-0.263	-0.246
-286.574	-116.598	0.163	-0.030
-285.559	94.517	0.131	0.147
-284.545	45.230	0.127	-0.116
-283.530	-185.388	0.134	-0.002
-282.516	355.478	-0.049	0.097
-281.501	800.000	-0.126	0.355
-280.486	-6.634	-0.230	0.155
-279.472	481.030	-0.045	-0.100
-278.457	319.375	0.076	-0.143
-277.443	-200.000	0.026	-0.166
-276.428	-54.830	-0.173	0.077
-275.413	477.881	-0.039	-0.088
-274.399	-37.879	-0.100	0.053
-273.384	-95.282	0.445	0.119
-272.370	-95.817	0.225	0.060
-271.355	-9.588	0.121	0.080
-270.340	-200.000	0.001	-0.021
-269.326	153.888	0.155	0.211
-268.311	-89.247	0.152	-0.044
-267.297	-95.370	-0.102	-0.027
-266.282	-172.844	-0.270	-0.008
-265.267	-200.000	0.020	-0.288
-264.253	-45.512	0.295	-0.145
-263.238	45.762	-0.059	0.054
-262.224	800.000	-0.043	-0.173
-261.209	-122.303	-0.343	0.056
-260.195	-200.000	-0.036	-0.382
-259.180	-200.000	-0.037	0.181
-258.165	670.384	0.106	-0.271
-257.151	-200.000	-0.039	-0.206
-256.136	69.949	0.160	-0.164
-255.122	-200.000	-0.066	-0.391
-254.107	-171.686	0.131	0.004
-253.092	-77.308	0.119	-0.041
-252.078	-200.000	0.005	-0.338
-251.063	239.210	0.255	0.421
-250.049	-200.000	-0.012	-0.230
-249.034	96.394	0.039	0.044
-248.019	280.737	0.085	-0.151
-247.005	-93.927	-0.449	-0.122
-245.990	296.752	0.081	0.147
-244.976	800.000	0.014	-0.038
-243.961	612.199	0.118	-0.292
-242.946	800.000	-0.005	-0.019
-241.932	373.217	-0.089	0.180
-240.917	119.563	-0.135	0.166
-239.903	-117.312	0.105	0.019
-238.888	-200.000	-0.009	0.107
-237.873	47.535	-0.129	0.119
-236.859	227.184	0.081	-0.131
-235.844	20.159	0.181	0.145
-234.830	82.839	-0.140	-0.151
-233.815	-21.093	0.074	0.045
-232.800	-200.000	0.020	0.167
-231.786	-200.000	-0.019	0.152
-230.771	-91.888	-0.112	-0.032
-229.757	-120.561	-0.382	0.064
-228.742	156.258	0.059	0.081
-227.727	-123.399	-0.170	0.027
-226.713	-39.131	-0.186	0.097
-225.698	-146.242	-0.075	-0.007
-224.684	335.365	0.164	0.315
-223.669	114.192	-0.225	-0.271
-222.655	-33.263	0.126	-0.069
-221.640	37.785	0.303	0.266
-220.625	-200.000	0.004	-0.184
-219.611	383.898	0.105	0.214
-218.596	-90.365	0.364	-0.104
-217.582	184.511	-0.106	0.155
-216.567	294.673	-0.080	0.145
-215.552	-90.913	-0.295	0.084
-214.538	8.018	0.309	0.230
-213.523	-200.000	0.010	-0.163
-212.509	-157.978	0.362	0.021
-211.494	800.000	-0.024	0.083
-210.479	-102.718	0.299	0.070
-209.465	-200.000	-0.012	-0.215
-208.450	446.076	0.090	0.196
-207.436	797.218	-0.074	0.201
-206.421	236.932	-0.066	0.109
-205.406	800.000	0.053	0.224
-204.392	-103.262	-0.215	-0.050
-203.377	37.927	-0.085	-0.075
-202.363	800.000	-0.051	0.146
-201.348	800.000	0.117	0.388
-200.333	-200.000	0.011	0.081
-199.319	192.720	-0.223	0.333
-198.304	140.229	0.082	-0.106
-197.290	-18.036	-0.316	-0.196
-196.275	322.945	0.156	0.295
-195.260	-136.550	-0.284	-0.033
-194.246	239.810	-0.156	0.256
-193.231	-66.867	0.353	0.138
-192.217	295.744	0.103	-0.187
-191.202	395.121	-0.064	0.132
-190.187	90.453	0.100	-0.110
-189.173	43.305	-0.209	0.188
-188.158	734.340	0.154	-0.407
-187.144	-78.509	-0.136	0.046
-186.129	-46.603	-0.182	-0.088
-185.114	94.814	0.217	0.244
-184.100	145.571	-0.190	-0.252
-183.085	-19.721	0.365	-0.223
-182.071	-166.888	0.235	0.010
-181.056	-48.702	-0.099	0.047
-180.042	187.242	-0.027	-0.039
-179.027	150.726	0.026	-0.034
-178.012	-2.362	0.165	0.114
-176.998	800.000	-0.169	-0.478
-175.983	239.325	-0.141	-0.232
-174.969	-96.060	0.281	-0.074
-173.954	-200.000	-0.045	0.202
-172.939	450.207	0.058	-0.126
-171.925	127.930	-0.158	-0.198
-170.910	130.659	0.101	0.127
-169.896	800.000	-0.052	-0.177
-168.881	800.000	-0.071	0.268
-167.866	-19.170	-0.073	0.045
-166.852	-123.979	0.330	0.051
-165.837	-143.557	-0.100	-0.009
-164.823	800.000	0.040	0.170
-163.808	-25.120	0.080	-0.047
-162.793	-59.184	0.246	0.105
-161.779	45.496	-0.132	-0.121
-160.764	38.848	-0.137	-0.121
-159.750	-152.736	0.199	0.014
-158.735	-87.654	0.154	0.046
-157.720	-53.374	0.156	0.071
-156.706	-5.755	0.062	0.042
-155.691	-105.013	-0.198	-0.045
-154.677	290.669	-0.122	-0.219
-153.662	-98.967	0.401	-0.100
-152.647	-55.516	-0.234	-0.104
-151.633	-200.000	0.014	0.071
-150.618	-200.000	0.032	0.309
-149.604	-91.415	0.474	-0.134
-148.589	143.599	0.121	0.159
-147.574	-200.000	0.052	-0.349
-146.560	785.871	-0.068	-0.183
-145.545	196.539	0.193	0.291
-144.531	-87.387	0.272	0.081
-143.516	-7.860	-0.388	-0.258
-142.502	800.000	0.128	0.360
-141.487	-143.180	-0.223	-0.021
-140.472	-22.117	0.127	-0.076
-139.458	-42.587	-0.222	0.112
-138.443	-90.302	0.263	-0.075
-137.429	-10.387	-0.114	0.074
-136.414	-9.399	0.175	0.115
-135.399	-200.000	0.025	-0.162
-134.385	3.446	-0.063	-0.045
-133.370	-200.000	0.039	0.471
-132.356	108.352	0.220	0.259
-131.341	-123.162	0.102	0.016
-130.326	-14.264	0.280	-0.178
-129.312	-126.913	0.191	-0.028
-128.297	-32.445	-0.244	-0.134
-127.283	-156.336	-0.213	-0.013
-126.268	-59.982	-0.169	-0.071
-125.253	-200.000	0.015	-0.112
-124.239	-119.889	-0.202	-0.034
-123.224	8.015	0.284	0.210
-122.210	800.000	-0.097	-0.296
-121.195	-153.149	-0.194	0.013
