DTS Sentinel unit serial number:	SN413079Multiplexer serial number:	ORYXHardware model number:	OX4-SRSoftware version number:	ORYX F/W v4.00 Oryx Data Collector v3.7.2.0data status	okinstallation	princeton_trtdifferential loss correction	single-endedforward channel	channel 3reverse channel	N/Adate	2019/09/13time	15:56:35forward acquisition time	60.00reverse acquisition time	0.00gamma	496.2192k internal	0.2307k external	0.2307temperature offset calibration	1.0143default loss term (dB/km)	0.3790temperature slope calibration	1.0000multiplexer offset coefficient	1.0000multiplexer slope coefficient	1.0000fibre end	0.00T internal ref (°C)	34.62T ext. ref 1 (°C)	4.80T ext. ref 2 (°C)	30.81length (m)	temperature (°C)	Stokes	anti-Stokes-747.200	-137.861	-0.247	-0.028
-746.185	-162.599	-0.354	-0.018
-745.171	69.220	-0.137	-0.144
-744.156	126.262	-0.106	0.137
-743.142	-87.730	-0.239	-0.073
-742.127	730.950	-0.130	0.352
-741.112	-200.000	-0.002	0.043
-740.098	160.167	-0.097	0.138
-739.083	168.043	0.104	-0.151
-738.069	-200.000	-0.107	0.490
-737.054	1.135	0.089	0.065
-736.039	-200.000	-0.003	-0.064
-735.025	412.505	-0.093	0.200
-734.010	-48.881	-0.247	-0.120
-732.996	62.534	-0.197	0.200
-731.981	-136.831	-0.098	-0.012
-730.966	-106.051	-0.069	0.016
-729.952	384.016	0.106	-0.222
-728.937	-85.618	-0.286	0.090
-727.923	-26.721	-0.082	-0.049
-726.908	468.992	0.110	-0.250
-725.894	800.000	-0.062	-0.195
-724.879	800.000	-0.115	-0.458
-723.864	110.030	-0.143	0.175
-722.850	156.340	-0.060	0.085
-721.835	8.227	-0.073	-0.056
-720.821	249.383	-0.042	-0.073
-719.806	-126.912	-0.322	0.048
-718.791	31.572	-0.169	-0.148
-717.777	-179.165	-0.251	0.006
-716.762	49.767	-0.057	-0.055
-715.748	26.064	-0.066	-0.056
-714.733	-51.494	0.072	-0.034
-713.718	-200.000	0.036	-0.173
-712.704	-175.141	-0.355	-0.010
-711.689	150.877	-0.124	0.171
-710.675	159.484	0.114	-0.161
-709.660	800.000	0.080	0.290
-708.645	168.969	0.175	-0.254
-707.631	-125.715	-0.311	-0.048
-706.616	9.329	0.170	-0.130
-705.602	301.382	0.167	0.313
-704.587	179.981	-0.145	0.216
-703.572	-71.665	-0.208	-0.079
-702.558	800.000	0.043	0.166
-701.543	101.502	0.132	0.157
-700.529	-200.000	0.095	0.470
-699.514	89.031	0.154	-0.174
-698.499	325.080	-0.072	0.139
-697.485	15.317	-0.142	-0.113
-696.470	92.222	-0.233	-0.266
-695.456	0.221	0.077	0.056
-694.441	191.490	-0.030	-0.046
-693.426	-89.525	0.243	0.073
-692.412	-78.235	-0.300	-0.104
-691.397	-200.000	-0.047	-0.252
-690.383	65.393	0.071	-0.073
-689.368	429.806	-0.114	-0.251
-688.354	251.308	0.074	0.127
-687.339	69.619	0.083	0.087
-686.324	-200.000	0.013	-0.212
-685.310	73.036	0.014	-0.015
-684.295	-122.956	0.264	0.043
-683.281	800.000	-0.038	-0.123
-682.266	800.000	-0.010	-0.034
-681.251	-72.102	-0.181	-0.068
-680.237	-17.753	-0.090	-0.058
-679.222	-45.034	-0.161	0.081
-678.208	0.826	0.113	0.082
-677.193	-62.809	0.180	0.076
-676.178	-101.772	0.246	0.060
-675.164	5.348	-0.081	0.060
-674.149	-127.032	0.087	-0.013
-673.135	14.020	0.167	0.132
-672.120	13.630	0.146	-0.115
-671.105	18.966	-0.310	-0.252
-670.091	-78.600	-0.181	-0.063
-669.076	800.000	0.110	-0.329
-668.062	148.081	-0.215	-0.295
-667.047	167.985	-0.107	-0.155
-666.032	-72.244	0.181	0.068
-665.018	83.807	-0.107	-0.118
-664.003	-56.234	0.115	-0.052
-662.989	-33.325	0.070	0.039
-661.974	682.352	-0.029	-0.077
-660.959	-128.606	0.202	0.029
-659.945	34.006	-0.199	0.176
-658.930	48.205	-0.025	0.024
-657.916	203.653	-0.111	-0.174
-656.901	800.000	-0.045	0.198
-655.886	800.000	0.092	0.292
-654.872	-27.724	-0.088	0.052
-653.857	-200.000	0.025	0.279
-652.843	26.428	-0.329	0.279
-651.828	175.360	0.022	-0.033
-650.814	-55.863	-0.426	-0.193
-649.799	800.000	0.048	0.150
-648.784	4.789	0.123	0.092
-647.770	-116.045	-0.275	0.052
-646.755	800.000	0.035	0.102
-645.741	-101.437	-0.333	0.082
-644.726	132.104	-0.118	0.154
-643.711	-124.094	0.225	-0.036
-642.697	239.954	0.102	-0.172
-641.682	256.759	0.174	-0.303
-640.668	147.411	0.145	-0.198
-639.653	-102.912	-0.156	-0.037
-638.638	262.516	-0.112	0.197
-637.624	304.582	-0.171	-0.321
-636.609	230.490	-0.159	0.263
-635.595	-200.000	0.032	-0.222
-634.580	281.870	0.031	0.056
-633.565	-115.641	-0.075	0.014
-632.551	-119.071	-0.166	-0.029
-631.536	-133.544	-0.292	0.037
-630.522	-65.438	0.183	0.074
-629.507	-51.470	0.065	-0.031
-628.492	555.897	-0.125	0.305
-627.478	-200.000	-0.044	-0.266
-626.463	-138.632	-0.181	-0.020
-625.449	48.421	-0.028	0.027
-624.434	291.280	-0.148	-0.273
-623.419	144.270	0.052	-0.070
-622.405	-59.907	-0.169	0.073
-621.390	119.090	-0.197	-0.247
-620.376	147.303	0.273	0.372
-619.361	-200.000	-0.019	0.230
-618.346	-1.451	-0.142	-0.101
-617.332	28.980	-0.237	-0.203
-616.317	65.604	-0.228	0.234
-615.303	-200.000	-0.008	0.378
-614.288	-200.000	-0.027	0.161
-613.273	-29.351	0.059	-0.034
-612.259	800.000	-0.080	-0.325
-611.244	-14.031	0.080	0.052
-610.230	-134.591	0.256	-0.032
-609.215	-200.000	0.031	-0.209
-608.201	-133.599	-0.217	0.027
-607.186	175.905	-0.189	-0.278
-606.171	612.232	-0.050	-0.127
-605.157	295.580	0.107	0.197
-604.142	480.393	0.024	0.056
-603.128	67.206	0.143	0.148
-602.113	54.488	0.068	0.066
-601.098	-28.986	-0.124	0.072
-600.084	-200.000	-0.023	0.162
-599.069	285.180	-0.079	-0.144
-598.055	-69.727	-0.219	-0.085
-597.040	-122.559	-0.198	0.033
-596.025	-99.909	0.021	0.005
-595.011	190.795	-0.103	0.157
-593.996	-200.000	0.005	0.380
-592.982	227.015	0.109	-0.180
-591.967	-36.135	0.272	-0.148
-590.952	13.952	0.218	0.172
-589.938	-52.343	0.282	0.132
-588.923	37.952	-0.270	0.242
-587.909	-27.392	-0.066	0.039
-586.894	-193.494	-0.294	-0.003
-585.879	8.067	-0.078	0.060
-584.865	-160.740	-0.374	-0.020
-583.850	-62.007	0.112	-0.047
-582.836	-54.674	-0.265	-0.121
-581.821	-190.530	-0.186	-0.002
-580.806	-103.166	0.189	-0.045
-579.792	-44.731	-0.129	0.065
-578.777	395.300	0.043	0.090
-577.763	-61.460	-0.295	-0.125
-576.748	518.924	0.131	0.309
-575.733	-200.000	0.055	0.246
-574.719	-57.680	0.276	-0.122
-573.704	-121.643	-0.243	0.041
-572.690	162.620	-0.173	0.246
-571.675	-200.000	0.001	-0.271
-570.661	95.516	0.468	-0.539
-569.646	-81.583	-0.041	-0.014
-568.631	-11.258	0.075	-0.050
-567.617	-151.051	-0.085	-0.006
-566.602	258.347	0.196	-0.341
-565.588	-103.875	-0.136	-0.032
-564.573	281.999	-0.197	-0.357
-563.558	800.000	-0.062	-0.180
-562.544	139.053	0.057	-0.076
-561.529	112.832	0.247	0.302
-560.515	-99.861	0.191	-0.048
-559.500	-57.939	0.106	-0.047
-558.485	-48.389	-0.149	0.073
-557.471	286.882	-0.055	0.101
-556.456	-200.000	0.020	0.285
-555.442	-86.190	0.210	-0.065
-554.427	122.158	-0.114	-0.144
-553.412	136.823	-0.145	0.192
-552.398	-81.088	-0.263	-0.088
-551.383	-28.369	-0.451	0.263
-550.369	-78.201	-0.317	-0.110
-549.354	-55.274	0.152	0.069
-548.339	78.744	-0.048	-0.052
-547.325	-200.000	0.006	-0.168
-546.310	113.402	0.146	-0.179
-545.296	-115.828	0.129	0.024
-544.281	-84.273	-0.439	-0.140
-543.266	-53.737	0.188	-0.087
-542.252	65.393	0.077	-0.079
-541.237	-45.137	-0.338	0.169
-540.223	-119.752	0.420	-0.073
-539.208	-79.978	-0.289	-0.098
-538.193	-200.000	0.005	0.140
-537.179	-66.120	-0.078	-0.031
-536.164	21.092	0.167	0.137
-535.150	-147.048	-0.093	0.008
-534.135	800.000	0.060	0.235
-533.121	-51.477	-0.241	0.113
-532.106	218.459	0.117	0.188
-531.091	352.411	0.040	-0.080
-530.077	124.930	-0.212	-0.270
-529.062	63.005	0.097	0.098
-528.048	409.860	-0.069	0.147
-527.033	-128.308	0.340	0.049
-526.018	566.551	-0.121	-0.297
-525.004	-111.381	-0.064	-0.013
-523.989	86.853	-0.227	-0.253
-522.975	164.715	0.066	0.094
-521.960	800.000	-0.037	0.113
-520.945	-200.000	0.026	-0.127
-519.931	119.595	0.077	-0.097
-518.916	471.982	-0.143	-0.324
-517.902	-121.461	0.382	-0.064
-516.887	59.945	0.126	0.125
-515.872	55.893	-0.292	0.285
-514.858	189.299	-0.187	0.283
-513.843	-200.000	-0.054	-0.318
-512.829	800.000	-0.053	-0.164
-511.814	26.293	-0.348	-0.293
-510.799	41.426	0.230	-0.209
-509.785	-71.420	0.367	-0.138
-508.770	800.000	0.020	0.090
-507.756	-200.000	-0.024	0.210
-506.741	279.002	0.066	0.118
-505.726	800.000	-0.078	0.279
-504.712	-45.381	0.075	0.037
-503.697	381.987	0.108	0.223
-502.683	92.743	-0.110	0.126
-501.668	-59.544	0.449	0.194
-500.653	169.002	0.091	0.130
-499.639	0.977	-0.217	-0.157
-498.624	-117.978	0.116	0.021
-497.610	-200.000	0.007	0.338
-496.595	46.414	0.093	-0.087
-495.581	-57.268	-0.106	0.047
-494.566	800.000	0.076	0.311
-493.551	-62.160	0.393	0.165
-492.537	-39.010	-0.112	-0.059
-491.522	398.578	0.067	-0.140
-490.508	-49.327	0.128	0.061
-489.493	800.000	-0.025	-0.077
-488.478	122.319	-0.215	-0.270
-487.464	107.929	-0.101	0.121
-486.449	-187.476	-0.092	0.001
-485.435	-200.000	0.000	0.287
-484.420	-144.068	0.169	0.016
-483.405	64.405	-0.173	-0.176
-482.391	301.962	0.098	-0.182
-481.376	800.000	-0.069	-0.240
-480.362	-200.000	0.012	-0.253
-479.347	-81.743	0.234	-0.077
-478.332	394.517	0.109	0.228
-477.318	34.801	-0.307	-0.270
-476.303	-53.274	0.250	0.115
-475.289	160.841	-0.064	-0.090
-474.274	-9.969	-0.171	0.114
-473.259	-200.000	0.049	-0.236
-472.245	-71.190	0.036	-0.013
-471.230	-54.280	-0.322	0.147
-470.216	91.037	0.120	0.136
-469.201	-100.968	-0.129	-0.032
-468.186	-146.753	0.163	-0.014
-467.172	52.316	-0.152	-0.146
-466.157	62.429	0.176	-0.177
-465.143	3.904	0.302	0.222
-464.128	98.669	-0.046	0.054
-463.113	55.383	0.100	-0.098
-462.099	144.982	-0.155	-0.209
-461.084	235.835	0.071	0.118
-460.070	383.055	-0.151	0.312
-459.055	108.641	-0.220	-0.264
-458.040	97.232	0.350	-0.404
-457.026	-200.000	-0.038	-0.267
-456.011	-57.080	0.086	-0.038
-454.997	-200.000	0.029	0.143
-453.982	24.769	0.056	0.046
-452.968	-200.000	-0.020	0.150
-451.953	-200.000	-0.037	0.220
-450.938	-200.000	0.029	0.478
-449.924	-117.697	0.300	0.054
-448.909	-56.396	-0.171	0.076
-447.895	-200.000	-0.003	-0.281
-446.880	146.486	-0.074	-0.100
-445.865	800.000	-0.086	0.270
-444.851	655.164	-0.035	-0.091
-443.836	156.933	-0.112	0.155
-442.822	-200.000	0.000	0.320
-441.807	-126.117	0.228	0.034
-440.792	-8.122	-0.182	-0.123
-439.778	-50.054	0.349	-0.166
-438.763	8.421	-0.280	-0.211
-437.749	-200.000	0.023	0.350
-436.734	175.626	0.224	0.327
-435.719	-115.737	-0.126	-0.024
-434.705	8.880	-0.195	0.148
-433.690	-37.218	0.306	-0.164
-432.676	800.000	-0.100	-0.372
-431.661	-168.670	-0.345	-0.013
-430.646	-200.000	-0.048	0.571
-429.632	-68.840	-0.270	-0.105
-428.617	271.430	-0.188	0.332
-427.603	-127.676	0.154	-0.022
-426.588	-57.338	-0.177	0.078
-425.573	-138.858	0.386	-0.042
-424.559	-147.883	0.208	0.017
-423.544	276.319	-0.074	-0.133
-422.530	800.000	-0.054	0.176
-421.515	-5.947	0.076	0.052
-420.500	-200.000	0.011	-0.171
-419.486	212.204	-0.032	-0.051
-418.471	-200.000	0.005	-0.069
-417.457	-200.000	-0.007	0.048
-416.442	-114.713	0.347	0.067
-415.428	800.000	-0.083	-0.349
-414.413	10.020	0.181	-0.138
-413.398	-200.000	0.037	-0.293
-412.384	-108.884	-0.123	-0.026
-411.369	398.738	0.097	0.204
-410.355	213.572	0.079	0.125
-409.340	-200.000	-0.039	-0.240
-408.325	-12.037	0.321	-0.211
-407.311	12.972	-0.163	0.127
-406.296	-98.178	0.275	0.071
-405.282	281.253	-0.088	0.159
-404.267	298.060	0.187	-0.345
-403.252	-200.000	0.012	-0.095
-402.238	-37.464	0.338	-0.181
-401.223	-200.000	-0.011	-0.064
-400.209	-200.000	-0.117	-0.522
-399.194	36.811	0.127	0.112
-398.179	28.442	0.250	-0.212
-397.165	177.971	-0.085	0.124
-396.150	800.000	0.086	0.294
-395.136	104.377	0.098	0.116
-394.121	73.449	-0.186	0.195
-393.106	32.814	-0.041	0.036
-392.092	95.949	-0.228	-0.262
-391.077	-132.880	0.270	-0.035
-390.063	160.927	0.070	-0.098
-389.048	-200.000	-0.107	0.484
-388.033	800.000	-0.036	0.146
-387.019	-200.000	-0.007	0.166
-386.004	18.324	0.311	-0.249
-384.990	296.946	-0.199	0.365
-383.975	800.000	-0.037	-0.124
-382.960	-14.677	-0.246	-0.159
-381.946	65.558	0.129	0.131
-380.931	-41.076	0.401	0.208
-379.917	800.000	-0.058	0.189
-378.902	152.622	-0.120	-0.165
-377.888	5.325	-0.491	-0.363
-376.873	388.632	-0.097	-0.202
-375.858	567.271	0.174	-0.425
-374.844	351.335	0.078	-0.155
-373.829	-200.000	0.030	0.218
-372.815	383.047	0.044	0.091
-371.800	-116.134	0.099	-0.018
-370.785	-42.292	0.215	-0.110
-369.771	193.320	-0.172	-0.260
-368.756	-200.000	0.069	-0.309
-367.742	63.253	-0.151	-0.151
-366.727	86.762	-0.270	0.299
-365.712	-149.297	0.109	0.009
-364.698	287.808	-0.115	-0.209
-363.683	315.557	0.123	0.232
-362.669	263.236	-0.078	0.135
-361.654	-22.227	0.141	-0.086
-360.639	-200.000	-0.075	-0.343
-359.625	-200.000	-0.006	-0.078
-358.610	-104.570	-0.146	0.034
-357.596	-23.637	0.164	-0.099
-356.581	-200.000	-0.024	0.125
-355.566	-193.725	0.117	0.001
-354.552	-119.321	-0.154	0.027
-353.537	54.809	0.160	-0.155
-352.523	4.786	0.191	-0.140
-351.508	185.502	0.175	-0.261
-350.493	169.339	-0.110	-0.157
-349.479	-109.230	0.207	-0.044
-348.464	-200.000	-0.005	-0.150
-347.450	-191.529	0.246	0.002
-346.435	-144.535	-0.061	0.006
-345.420	497.907	0.019	-0.043
-344.406	-39.002	0.342	0.180
-343.391	-200.000	-0.171	-0.000
-342.377	-0.237	-0.241	0.172
-341.362	-15.458	0.131	0.084
-340.348	-18.909	0.365	0.227
-339.333	111.812	0.157	0.190
-338.318	-151.006	0.121	-0.009
-337.304	-149.280	0.411	-0.033
-336.289	213.296	0.096	-0.152
-335.275	-150.651	0.351	0.027
-334.260	-200.000	-0.031	-0.152
-333.245	283.399	-0.114	0.204
-332.231	36.273	-0.304	0.268
-331.216	-175.556	0.184	0.005
-330.202	-200.000	0.017	-0.274
-329.187	-84.743	0.070	0.022
-328.172	-33.034	-0.147	0.082
-327.158	10.928	-0.158	-0.121
-326.143	-200.000	0.006	-0.027
-325.129	-151.067	0.122	0.009
-324.114	251.573	0.116	0.197
-323.099	3.035	0.088	0.064
-322.085	-150.470	0.334	-0.026
-321.070	166.289	-0.168	0.238
-320.056	-200.000	-0.029	0.155
-319.041	129.896	-0.182	0.233
-318.026	3.464	0.088	-0.064
-317.012	-42.292	0.119	-0.061
-315.997	-120.389	0.272	-0.046
-314.983	-31.109	0.185	-0.105
-313.968	-129.045	0.108	-0.015
-312.953	-141.757	-0.427	0.043
-311.939	77.423	0.179	0.191
-310.924	594.358	-0.131	0.325
-309.910	-52.695	-0.265	-0.122
-308.895	-69.187	-0.096	-0.037
-307.880	-70.810	0.112	0.042
-306.866	-200.000	-0.078	-0.458
-305.851	245.685	-0.043	0.072
-304.837	475.350	0.160	0.361
-303.822	-69.240	0.353	0.136
-302.807	-130.430	0.157	0.021
-301.793	155.733	-0.158	-0.218
-300.778	-79.447	-0.089	0.030
-299.764	460.128	-0.055	0.123
-298.749	283.695	0.048	-0.087
-297.735	800.000	0.079	-0.254
-296.720	111.135	0.286	0.344
-295.705	-122.377	-0.292	0.048
-294.691	-79.609	-0.119	-0.040
-293.676	7.714	0.416	0.311
-292.662	146.407	0.103	0.138
-291.647	200.780	0.044	0.068
-290.632	-57.711	-0.373	-0.163
-289.618	800.000	-0.026	0.092
-288.603	-200.000	0.003	-0.279
-287.589	-10.795	0.196	0.130
-286.574	800.000	0.027	0.076
-285.559	155.247	0.096	0.132
-284.545	-57.730	-0.084	0.037
-283.530	-148.988	-0.241	-0.019
-282.516	85.299	0.107	0.117
-281.501	-1.285	-0.215	-0.152
-280.486	-66.627	0.229	0.091
-279.472	35.377	-0.123	0.108
-278.457	137.653	0.053	-0.069
-277.443	-200.000	0.048	-0.235
-276.428	-4.111	0.069	0.048
-275.413	-200.000	-0.010	-0.086
-274.399	-44.268	-0.349	0.175
-273.384	-84.585	-0.496	0.156
-272.370	-71.687	0.084	0.031
-271.355	-109.994	0.265	-0.055
-270.340	86.337	-0.217	-0.239
-269.326	68.156	-0.115	0.118
-268.311	800.000	-0.101	-0.293
-267.297	-200.000	-0.007	-0.161
-266.282	-16.121	-0.182	-0.115
-265.267	-64.606	-0.015	0.006
-264.253	-103.122	-0.244	-0.058
-263.238	-69.795	0.187	0.071
-262.224	131.097	0.136	-0.174
-261.209	39.977	0.256	-0.229
-260.195	-200.000	0.009	0.113
-259.180	64.954	0.280	-0.282
-258.165	-45.343	0.165	-0.081
-257.151	-67.874	-0.137	-0.053
-256.136	-200.000	-0.002	0.126
-255.122	-71.217	-0.161	-0.060
-254.107	800.000	-0.064	0.205
-253.092	-48.960	-0.090	-0.043
-252.078	-64.124	0.150	0.061
-251.063	136.147	0.081	-0.105
-250.049	266.492	0.114	0.198
-249.034	23.923	-0.120	0.099
-248.019	-56.594	-0.254	0.112
-247.005	83.655	0.114	-0.124
-245.990	-200.000	-0.063	0.300
-244.976	36.117	-0.050	0.044
-243.961	-200.000	-0.040	0.540
-242.946	-74.456	0.145	0.052
-241.932	800.000	0.022	-0.080
-240.917	260.623	-0.056	-0.096
-239.903	-200.000	0.003	-0.216
-238.888	-31.927	0.046	-0.026
-237.873	-200.000	-0.010	0.195
-236.859	-200.000	-0.048	0.317
-235.844	689.001	0.076	0.197
-234.830	371.221	0.071	-0.144
-233.815	-51.097	-0.188	0.088
-232.800	-138.670	-0.133	-0.014
-231.786	57.544	0.193	0.188
-230.771	50.154	0.137	-0.129
-229.757	-58.849	0.307	0.132
-228.742	-0.070	-0.134	-0.095
-227.727	456.858	-0.131	-0.291
-226.713	68.183	-0.119	-0.122
-225.698	-119.863	0.223	0.038
-224.684	-72.926	-0.064	-0.024
-223.669	25.488	-0.142	0.118
-222.655	-136.299	0.349	-0.041
-221.640	225.144	0.163	-0.263
-220.625	44.759	-0.065	0.060
-219.611	-200.000	0.003	-0.120
-218.596	-200.000	-0.035	-0.392
-217.582	-130.923	-0.149	-0.020
-216.567	800.000	0.023	0.064
-215.552	-166.807	0.203	-0.008
-214.538	-107.623	0.193	0.042
-213.523	-200.000	0.009	0.158
-212.509	800.000	-0.020	-0.058
-211.494	-77.364	-0.260	0.090
-210.479	-2.750	-0.168	-0.117
-209.465	-200.000	-0.040	0.228
-208.450	26.011	0.118	-0.098
-207.436	-34.472	0.114	-0.062
-206.421	177.117	-0.032	0.046
-205.406	206.539	0.040	-0.062
-204.392	-149.790	-0.276	0.022
-203.377	-67.890	0.302	0.117
-202.363	-200.000	-0.002	0.294
-201.348	135.546	0.140	0.181
-200.333	800.000	-0.065	-0.265
-199.319	268.515	0.123	-0.215
-198.304	-105.220	-0.237	-0.054
-197.290	288.028	-0.113	0.204
-196.275	800.000	-0.114	-0.419
-195.260	112.124	-0.193	0.232
-194.246	-49.829	0.257	0.121
-193.231	-20.228	-0.139	-0.085
-192.217	-89.188	-0.343	0.101
-191.202	-141.819	-0.167	-0.017
-190.187	4.542	-0.092	0.067
-189.173	104.265	0.093	0.109
-188.158	427.967	-0.065	0.140
-187.144	-200.000	0.016	0.138
-186.129	-5.865	0.144	0.098
-185.114	-200.000	-0.008	0.224
-184.100	-200.000	0.006	0.119
-183.085	-127.448	0.203	0.029
-182.071	800.000	0.109	-0.403
-181.056	62.551	-0.127	0.127
-180.042	800.000	0.090	-0.386
-179.027	24.746	0.187	-0.154
-178.012	347.427	-0.076	0.149
-176.998	-107.772	0.305	0.066
-175.983	304.335	0.068	0.125
-174.969	-54.002	-0.413	0.187
-173.954	-200.000	0.004	0.019
-172.939	-200.000	0.022	0.108
-171.925	800.000	0.089	-0.321
-170.910	16.472	-0.166	-0.131
-169.896	77.631	0.132	0.140
-168.881	16.296	-0.128	-0.100
-167.866	800.000	0.056	-0.179
-166.852	-59.864	-0.088	0.037
-165.837	129.913	-0.292	-0.372
-164.823	-30.214	0.196	-0.111
-163.808	-10.781	-0.175	-0.115
-162.793	-9.427	0.229	-0.152
-161.779	-200.000	-0.033	0.162
-160.764	-200.000	-0.016	-0.212
-159.750	-200.000	0.042	0.183
-158.735	800.000	-0.051	0.194
-157.720	13.645	-0.113	-0.088
-156.706	22.489	-0.224	0.182
-155.691	739.143	0.087	-0.233
-154.677	257.355	-0.038	-0.065
-153.662	-24.698	-0.092	-0.055
-152.647	171.007	0.112	0.160
-151.633	-107.906	-0.118	-0.025
-150.618	18.307	0.221	-0.175
-149.604	1.370	-0.145	-0.104
-148.589	-200.000	-0.002	-0.107
-147.574	295.326	0.105	0.191
-146.560	-62.529	0.289	-0.119
-145.545	183.723	-0.075	-0.110
-144.531	6.922	0.174	-0.128
-143.516	-54.771	0.087	0.039
-142.502	144.277	-0.177	0.234
-141.487	800.000	-0.082	0.261
-140.472	-99.273	-0.076	-0.019
-139.458	131.231	-0.240	-0.306
-138.443	-123.549	0.351	-0.055
-137.429	-93.389	0.213	0.059
-136.414	-25.219	0.091	-0.054
-135.399	501.292	-0.100	-0.229
-134.385	-200.000	0.071	-0.332
-133.370	800.000	0.007	-0.027
-132.356	-132.621	0.267	-0.034
-131.341	64.548	0.065	0.065
-130.326	34.005	-0.134	0.116
-129.312	-200.000	-0.026	-0.194
-128.297	225.029	-0.172	0.276
-127.283	-93.204	0.162	-0.045
-126.268	-65.166	0.300	0.120
-125.253	-103.143	-0.222	-0.052
-124.239	-44.485	-0.226	0.112
-123.224	-200.000	0.004	0.127
-122.210	-5.209	-0.068	0.046
-121.195	76.097	0.257	0.270
