DTS Sentinel unit serial number:	SN413079Multiplexer serial number:	ORYXHardware model number:	OX4-SRSoftware version number:	ORYX F/W v4.00 Oryx Data Collector v3.7.2.0data status	okinstallation	princeton_trtdifferential loss correction	single-endedforward channel	channel 3reverse channel	N/Adate	2019/09/18time	23:08:35forward acquisition time	60.00reverse acquisition time	0.00gamma	496.2192k internal	0.2345k external	0.2345temperature offset calibration	0.9990default loss term (dB/km)	0.3790temperature slope calibration	1.0000multiplexer offset coefficient	1.0000multiplexer slope coefficient	1.0000fibre end	0.00T internal ref (°C)	23.95T ext. ref 1 (°C)	0.78T ext. ref 2 (°C)	17.53length (m)	temperature (°C)	Stokes	anti-Stokes-747.200	569.276	0.171	0.415
-746.185	-111.872	-0.559	0.113
-745.171	393.037	0.089	0.186
-744.156	-68.156	-0.164	0.064
-743.142	-136.431	-0.152	-0.018
-742.127	86.827	-0.055	-0.060
-741.112	78.966	0.048	0.051
-740.098	-114.898	-0.227	-0.043
-739.083	83.790	0.274	-0.299
-738.069	66.165	-0.238	0.242
-737.054	-58.145	-0.209	-0.091
-736.039	-90.807	-0.309	0.089
-735.025	-37.754	0.228	0.122
-734.010	500.400	0.055	0.126
-732.996	26.060	-0.157	0.131
-731.981	-15.143	-0.287	0.184
-730.966	214.127	-0.044	0.070
-729.952	68.200	0.170	0.175
-728.937	-200.000	-0.043	-0.200
-727.923	75.329	-0.146	0.154
-726.908	800.000	-0.121	0.396
-725.894	-106.193	-0.074	0.017
-724.879	-3.900	-0.127	-0.088
-723.864	56.188	0.040	-0.038
-722.850	106.046	0.121	0.143
-721.835	17.807	-0.184	-0.146
-720.821	-200.000	0.013	-0.278
-719.806	-180.685	-0.561	-0.011
-718.791	-200.000	-0.023	0.168
-717.777	800.000	0.097	-0.298
-716.762	800.000	-0.144	0.424
-715.748	401.574	0.203	-0.426
-714.733	143.957	0.058	-0.077
-713.718	34.739	-0.060	0.053
-712.704	379.948	-0.089	-0.182
-711.689	126.118	-0.127	0.161
-710.675	84.721	-0.177	-0.193
-709.660	6.765	0.494	-0.367
-708.645	-200.000	-0.010	0.063
-707.631	11.289	-0.311	0.238
-706.616	8.531	-0.129	-0.097
-705.602	3.566	0.182	0.133
-704.587	155.944	0.219	-0.302
-703.572	-71.850	0.259	0.096
-702.558	364.482	0.077	0.155
-701.543	131.566	0.159	-0.204
-700.529	331.916	0.102	0.196
-699.514	1.891	-0.098	0.070
-698.499	800.000	-0.130	0.400
-697.485	-160.626	0.046	-0.002
-696.470	19.257	0.398	-0.319
-695.456	75.100	0.165	-0.173
-694.441	-124.168	-0.305	0.048
-693.426	42.541	-0.110	-0.100
-692.412	-121.935	0.136	-0.022
-691.397	-103.466	-0.186	-0.044
-690.383	46.333	-0.183	0.169
-689.368	-45.950	-0.214	0.105
-688.354	-182.532	0.321	0.006
-687.339	-132.818	-0.210	0.027
-686.324	-160.238	-0.219	0.012
-685.310	153.965	0.044	0.060
-684.295	121.616	-0.058	0.072
-683.281	-73.593	0.146	-0.053
-682.266	-74.198	-0.329	0.119
-681.251	800.000	0.109	-0.347
-680.237	-132.502	0.521	0.067
-679.222	-57.259	-0.066	0.029
-678.208	-42.395	-0.089	0.046
-677.193	-104.782	-0.171	0.039
-676.178	-200.000	-0.043	-0.299
-675.164	391.554	0.015	-0.030
-674.149	11.816	-0.113	0.086
-673.135	67.131	0.048	0.049
-672.120	63.437	0.155	0.155
-671.105	800.000	0.040	-0.114
-670.091	-157.541	-0.475	-0.028
-669.076	206.093	-0.235	-0.365
-668.062	165.471	-0.268	0.378
-667.047	-200.000	0.022	-0.113
-666.032	135.291	-0.236	-0.307
-665.018	-200.000	-0.010	0.089
-664.003	-200.000	0.005	-0.065
-662.989	313.513	-0.057	0.108
-661.974	-200.000	0.001	-0.020
-660.959	-200.000	-0.000	-0.055
-659.945	800.000	-0.102	-0.291
-658.930	-65.627	-0.345	-0.138
-657.916	-56.331	-0.171	0.076
-656.901	9.589	-0.135	-0.102
-655.886	-118.216	-0.072	-0.013
-654.872	201.727	0.094	-0.145
-653.857	44.562	0.286	-0.262
-652.843	-200.000	0.043	0.222
-651.828	-53.608	0.282	0.129
-650.814	88.657	0.158	0.176
-649.799	64.359	0.144	0.144
-648.784	-102.826	-0.341	0.081
-647.770	247.842	0.166	0.279
-646.755	-200.000	-0.023	0.115
-645.741	-200.000	0.000	0.354
-644.726	-90.219	0.099	-0.029
-643.711	-200.000	0.028	0.464
-642.697	-33.067	0.278	-0.154
-641.682	49.604	0.070	0.066
-640.668	0.884	-0.225	-0.161
-639.653	-116.250	-0.546	-0.101
-638.638	341.649	0.058	0.114
-637.624	-140.075	-0.418	0.044
-636.609	-200.000	-0.040	-0.188
-635.595	116.091	-0.047	0.057
-634.580	216.713	0.166	0.262
-633.565	-33.799	-0.203	-0.112
-632.551	-52.669	-0.147	0.067
-631.536	-200.000	0.078	0.384
-630.522	226.054	-0.092	0.148
-629.507	48.526	-0.093	0.086
-628.492	-144.010	0.133	0.012
-627.478	171.800	-0.067	0.096
-626.463	146.387	0.032	0.043
-625.449	392.645	0.071	-0.147
-624.434	348.863	-0.068	0.134
-623.419	-77.737	-0.151	0.052
-622.405	800.000	-0.061	0.253
-621.390	284.986	0.248	0.444
-620.376	86.362	-0.101	-0.111
-619.361	76.808	-0.090	0.095
-618.346	-1.327	-0.495	-0.348
-617.332	-128.839	0.147	0.021
-616.317	393.515	-0.092	-0.190
-615.303	238.362	0.121	-0.200
-614.288	-17.967	-0.581	-0.363
-613.273	383.637	0.152	0.312
-612.259	47.688	-0.197	0.183
-611.244	-200.000	0.001	0.050
-610.230	-75.437	-0.059	-0.021
-609.215	-200.000	-0.034	0.299
-608.201	-200.000	-0.053	0.269
-607.186	-87.173	0.354	-0.107
-606.171	-200.000	0.032	0.230
-605.157	-57.034	-0.284	-0.124
-604.142	-144.602	0.336	0.031
-603.128	-126.935	-0.383	0.056
-602.113	-16.986	0.079	-0.050
-601.098	-200.000	-0.007	-0.193
-600.084	-200.000	-0.065	-0.380
-599.069	73.870	0.134	0.139
-598.055	29.142	-0.055	0.047
-597.040	-83.423	-0.290	-0.092
-596.025	800.000	0.044	-0.171
-595.011	189.421	0.069	-0.103
-593.996	-63.259	0.280	-0.115
-592.982	-200.000	0.019	-0.225
-591.967	-102.828	0.257	-0.061
-590.952	-30.599	0.200	-0.113
-589.938	31.120	-0.030	0.025
-588.923	-200.000	-0.029	-0.136
-587.909	800.000	0.174	-0.555
-586.894	-53.059	-0.217	-0.099
-585.879	183.590	-0.151	-0.223
-584.865	142.952	-0.092	-0.122
-583.850	-114.087	-0.433	-0.083
-582.836	-8.128	0.166	-0.111
-581.821	-200.000	0.063	-0.414
-580.806	199.500	0.144	-0.219
-579.792	800.000	0.031	-0.128
-578.777	28.159	-0.100	0.084
-577.763	-200.000	0.034	-0.472
-576.748	258.497	0.121	0.207
-575.733	-200.000	0.022	-0.171
-574.719	-59.163	-0.222	0.095
-573.704	292.841	-0.084	-0.152
-572.690	407.269	0.031	0.066
-571.675	81.664	-0.214	0.230
-570.661	92.902	0.063	0.071
-569.646	-38.190	0.230	0.121
-568.631	-200.000	-0.008	0.039
-567.617	3.589	0.167	-0.121
-566.602	196.395	0.187	0.282
-565.588	800.000	-0.068	0.289
-564.573	-168.269	-0.133	-0.005
-563.558	40.601	0.214	-0.191
-562.544	-111.776	-0.292	-0.059
-561.529	402.738	0.164	0.343
-560.515	-141.163	0.329	0.033
-559.500	800.000	-0.041	-0.154
-558.485	273.143	0.042	0.074
-557.471	800.000	0.104	0.369
-556.456	-78.888	0.181	0.061
-555.442	-20.526	-0.076	0.047
-554.427	111.342	0.138	0.165
-553.412	-200.000	-0.021	-0.110
-552.398	-200.000	-0.007	0.208
-551.383	26.014	-0.117	-0.097
-550.369	18.227	0.124	0.099
-549.354	638.792	0.167	-0.422
-548.339	-106.687	0.376	-0.083
-547.325	-200.000	0.010	0.444
-546.310	-0.847	0.108	0.076
-545.296	-42.746	-0.227	-0.114
-544.281	-117.806	0.245	-0.044
-543.266	-200.000	0.013	-0.289
-542.252	-155.171	0.401	-0.026
-541.237	-200.000	-0.010	0.122
-540.223	-91.948	-0.309	0.087
-539.208	-109.923	-0.066	-0.014
-538.193	12.279	-0.326	0.249
-537.179	-183.293	0.046	-0.001
-536.164	-200.000	-0.021	-0.193
-535.150	-200.000	0.023	0.145
-534.135	81.655	0.313	-0.336
-533.121	106.431	-0.232	-0.273
-532.106	81.274	-0.098	0.105
-531.091	-200.000	-0.003	0.368
-530.077	-200.000	-0.025	-0.311
-529.062	342.437	-0.070	-0.135
-528.048	112.035	0.105	-0.126
-527.033	184.059	0.237	0.348
-526.018	-125.050	-0.247	-0.038
-525.004	343.264	-0.106	-0.206
-523.989	-100.096	0.281	0.069
-522.975	-77.851	-0.190	0.065
-521.960	233.491	-0.138	-0.225
-520.945	-94.960	0.200	0.054
-519.931	-78.764	-0.310	0.105
-518.916	800.000	-0.065	0.230
-517.902	-43.580	-0.402	0.201
-516.887	-200.000	-0.009	0.124
-515.872	-72.942	0.053	-0.019
-514.858	-137.581	0.644	0.072
-513.843	-142.226	-0.257	0.025
-512.829	116.958	-0.093	0.113
-511.814	800.000	0.014	0.048
-510.799	90.875	-0.050	0.056
-509.785	-83.396	0.449	-0.143
-508.770	-151.209	-0.145	0.011
-507.756	459.252	-0.088	-0.194
-506.741	-200.000	0.056	0.372
-505.726	62.812	0.091	0.090
-504.712	-136.066	-0.168	-0.019
-503.697	-16.776	0.181	0.113
-502.683	-200.000	0.006	-0.177
-501.668	-76.046	-0.373	-0.131
-500.653	204.164	-0.054	-0.084
-499.639	-117.516	0.110	0.020
-498.624	70.640	0.113	-0.116
-497.610	-200.000	0.046	0.212
-496.595	-200.000	0.038	0.278
-495.581	-129.290	-0.201	0.028
-494.566	9.524	0.035	0.027
-493.551	195.099	-0.082	-0.123
-492.537	103.088	0.180	-0.209
-491.522	-41.563	-0.254	0.129
-490.508	-200.000	-0.033	0.196
-489.493	-130.928	0.203	0.027
-488.478	115.270	-0.123	-0.148
-487.464	-134.614	-0.251	-0.030
-486.449	-80.931	0.180	-0.059
-485.435	-200.000	0.051	-0.407
-484.420	800.000	0.022	-0.067
-483.405	-101.630	-0.294	0.071
-482.391	-200.000	0.027	-0.120
-481.376	-105.764	-0.207	0.046
-480.362	-153.454	0.297	-0.020
-479.347	42.144	-0.074	-0.066
-478.332	-106.813	0.091	-0.020
-477.318	18.129	0.180	-0.142
-476.303	-162.815	0.302	-0.015
-475.289	384.927	-0.196	0.401
-474.274	-97.963	0.073	0.019
-473.259	70.685	0.149	-0.153
-472.245	288.230	-0.208	-0.373
-471.230	-96.952	0.057	-0.015
-470.216	-44.709	-0.066	-0.033
-469.201	-12.238	0.063	-0.041
-468.186	-16.604	0.324	-0.203
-467.172	278.202	-0.058	-0.102
-466.157	-37.789	-0.306	-0.161
-465.143	-39.824	-0.284	0.147
-464.128	-29.372	-0.239	-0.135
-463.113	800.000	-0.032	-0.089
-462.099	43.315	-0.186	-0.168
-461.084	-105.636	0.125	-0.028
-460.070	741.694	-0.045	0.119
-459.055	800.000	-0.092	-0.254
-458.040	-134.859	0.243	-0.029
-457.026	800.000	-0.172	0.499
-456.011	224.884	0.080	0.128
-454.997	800.000	0.061	-0.262
-453.982	21.453	-0.145	-0.117
-452.968	122.466	0.107	0.133
-451.953	72.607	0.217	0.224
-450.938	-200.000	0.048	-0.220
-449.924	288.567	0.137	-0.246
-448.909	-200.000	0.032	-0.153
-447.895	282.766	-0.019	0.033
-446.880	79.029	0.142	-0.151
-445.865	-92.909	-0.327	-0.090
-444.851	-200.000	-0.063	-0.273
-443.836	104.363	0.078	-0.091
-442.822	625.381	-0.038	0.096
-441.807	-29.117	0.198	0.112
-440.792	-19.184	0.280	0.172
-439.778	142.254	-0.214	0.281
-438.763	-200.000	0.023	0.175
-437.749	96.749	-0.141	0.160
-436.734	-107.885	-0.119	-0.026
-435.719	-39.884	-0.137	-0.071
-434.705	-142.072	-0.380	-0.037
-433.690	-5.278	0.300	-0.204
-432.676	15.358	-0.013	-0.010
-431.661	-1.433	0.179	0.125
-430.646	-96.066	-0.192	-0.051
-429.632	-200.000	0.026	-0.196
-428.617	368.794	-0.026	-0.053
-427.603	-103.045	0.246	-0.058
-426.588	484.694	0.011	-0.025
-425.573	33.446	0.163	-0.140
-424.559	-88.951	-0.362	-0.106
-423.544	-200.000	-0.038	0.241
-422.530	355.869	-0.098	0.194
-421.515	-59.761	0.112	0.047
-420.500	159.380	-0.171	-0.235
-419.486	800.000	0.042	0.151
-418.471	-78.242	0.372	-0.126
-417.457	-19.364	-0.294	0.180
-416.442	79.558	-0.271	0.287
-415.428	800.000	0.003	0.012
-414.413	108.607	0.297	0.350
-413.398	141.106	0.123	-0.161
-412.384	-79.846	-0.188	0.062
-411.369	15.613	-0.246	0.191
-410.355	477.894	0.103	0.230
-409.340	54.374	0.090	-0.086
-408.325	-81.918	-0.122	0.039
-407.311	800.000	-0.039	0.166
-406.296	-200.000	-0.012	0.081
-405.282	-200.000	0.000	0.011
-404.267	-122.119	-0.142	0.023
-403.252	-178.382	-0.279	-0.006
-402.238	-40.821	0.295	-0.151
-401.223	3.571	0.125	0.090
-400.209	137.736	-0.275	0.355
-399.194	-157.825	0.316	0.019
-398.179	-200.000	0.035	-0.460
-397.165	-200.000	-0.011	0.133
-396.150	575.118	0.087	0.210
-395.136	488.549	-0.049	0.110
-394.121	23.582	-0.055	-0.045
-393.106	207.838	-0.117	0.180
-392.092	13.142	0.188	-0.143
-391.077	-200.000	0.065	-0.384
-390.063	402.135	0.049	0.101
-389.048	-139.381	-0.135	-0.014
-388.033	141.980	-0.056	0.073
-387.019	184.458	0.211	-0.308
-386.004	104.748	0.194	0.226
-384.990	-123.947	0.217	-0.034
-383.975	-173.395	-0.182	0.005
-382.960	-200.000	-0.043	0.262
-381.946	149.037	0.149	0.199
-380.931	800.000	-0.016	-0.047
-379.917	800.000	-0.083	-0.245
-378.902	800.000	-0.034	-0.119
-377.888	-119.859	-0.176	-0.030
-376.873	-200.000	-0.002	0.046
-375.858	-200.000	-0.027	-0.138
-374.844	130.335	-0.118	-0.148
-373.829	-29.977	-0.268	-0.151
-372.815	-145.929	0.208	0.018
-371.800	-52.596	0.110	-0.050
-370.785	-200.000	-0.007	0.240
-369.771	-200.000	0.005	-0.139
-368.756	-200.000	0.006	-0.471
-367.742	800.000	0.037	0.125
-366.727	-200.000	-0.002	-0.106
-365.712	-109.669	0.258	-0.054
-364.698	-92.409	-0.154	-0.043
-363.683	88.334	0.197	-0.216
-362.669	577.159	-0.127	-0.306
-361.654	-129.364	0.342	0.047
-360.639	-45.446	-0.172	0.084
-359.625	-139.462	0.206	0.022
-358.610	142.022	0.106	0.138
-357.596	517.776	0.157	0.362
-356.581	-63.272	0.420	0.170
-355.566	-122.313	0.427	-0.069
-354.552	138.534	-0.175	-0.226
-353.537	-95.287	-0.257	-0.068
-352.523	-200.000	0.003	-0.050
-351.508	44.269	0.194	-0.176
-350.493	158.064	-0.116	-0.159
-349.479	712.150	0.089	-0.231
-348.464	16.295	0.027	-0.021
-347.450	-112.141	0.236	-0.047
-346.435	-200.000	0.007	0.106
-345.420	-200.000	-0.040	-0.502
-344.406	-200.000	0.126	0.000
-343.391	0.079	-0.132	-0.093
-342.377	-200.000	-0.010	-0.236
-341.362	-92.260	-0.336	-0.093
-340.348	79.645	0.149	0.158
-339.333	-99.393	-0.439	-0.109
-338.318	330.595	-0.039	-0.075
-337.304	63.692	-0.053	-0.052
-336.289	-102.788	0.085	-0.020
-335.275	8.385	-0.263	0.195
-334.260	-51.396	0.079	-0.037
-333.245	-104.141	0.348	0.080
-332.231	-31.122	0.262	-0.145
-331.216	-135.593	0.357	-0.042
-330.202	-28.658	0.300	-0.170
-329.187	-130.759	-0.143	0.019
-328.172	-200.000	0.003	0.266
-327.158	49.524	-0.184	-0.170
-326.143	-200.000	0.042	0.214
-325.129	-79.960	0.192	0.063
-324.114	413.243	0.122	0.255
-323.099	-200.000	-0.038	-0.337
-322.085	-48.808	-0.248	-0.117
-321.070	-94.041	0.188	0.051
-320.056	-83.204	0.026	-0.008
-319.041	260.672	-0.075	0.128
-318.026	54.369	0.078	0.074
-317.012	-87.883	0.158	0.047
-315.997	-151.262	0.073	-0.005
-314.983	13.296	-0.207	-0.158
-313.968	67.701	-0.385	0.387
-312.953	-44.276	-0.205	0.101
-311.939	-200.000	0.035	-0.155
-310.924	107.412	0.113	0.133
-309.910	-142.629	0.125	-0.012
-308.895	-29.141	-0.002	-0.001
-307.880	184.499	0.111	-0.161
-306.866	800.000	-0.041	-0.126
-305.851	-6.588	0.028	0.019
-304.837	-121.501	-0.177	-0.029
-303.822	7.096	-0.308	0.226
-302.807	-150.154	0.306	-0.023
-301.793	-200.000	-0.045	-0.240
-300.778	34.764	-0.076	0.065
-299.764	800.000	0.095	-0.261
-298.749	-140.354	0.204	-0.021
-297.735	265.803	-0.095	0.162
-296.720	87.415	0.025	0.027
-295.705	-124.021	0.158	-0.024
-294.691	3.008	0.172	-0.123
-293.676	114.987	-0.252	-0.302
-292.662	152.986	-0.149	0.200
-291.647	-152.353	-0.282	-0.020
-290.632	-115.649	0.233	-0.043
-289.618	-132.900	-0.178	-0.022
-288.603	-55.047	-0.190	-0.084
-287.589	-74.901	0.228	0.080
-286.574	13.062	0.212	-0.161
-285.559	-9.722	-0.377	-0.247
-284.545	433.700	-0.248	-0.529
-283.530	672.133	0.058	-0.149
-282.516	426.100	0.095	0.201
-281.501	-62.721	-0.198	0.081
-280.486	-29.708	-0.207	-0.116
-279.472	121.492	-0.191	-0.234
-278.457	-37.646	0.185	0.097
-277.443	-93.399	-0.073	0.020
-276.428	209.874	0.224	-0.346
-275.413	179.664	-0.189	-0.272
-274.399	345.552	0.146	0.282
-273.384	288.002	-0.094	-0.168
-272.370	789.697	-0.139	0.375
-271.355	-41.965	-0.369	0.186
-270.340	-200.000	0.065	-0.353
-269.326	-103.671	-0.142	-0.033
-268.311	-8.394	0.066	-0.044
-267.297	-120.032	0.300	-0.051
-266.282	-34.253	-0.296	0.160
-265.267	-100.652	0.183	-0.044
-264.253	-200.000	-0.016	-0.228
-263.238	-135.955	-0.174	-0.020
-262.224	10.454	-0.277	0.207
-261.209	398.073	0.138	-0.283
-260.195	-67.329	0.091	-0.035
-259.180	-107.681	0.123	-0.026
-258.165	-15.173	0.170	-0.107
-257.151	75.941	0.255	0.265
-256.136	786.068	0.039	0.105
-255.122	-187.853	0.282	-0.004
-254.107	-177.743	0.247	-0.006
-253.092	286.249	-0.051	-0.090
-252.078	-200.000	0.007	0.176
-251.063	800.000	-0.042	-0.124
-250.049	29.217	0.085	-0.071
-249.034	291.247	-0.066	0.118
-248.019	-24.690	-0.163	0.095
-247.005	-73.653	0.160	-0.057
-245.990	-92.695	-0.169	-0.046
-244.976	340.252	-0.157	-0.301
-243.961	-42.511	-0.049	0.024
-242.946	-118.008	0.207	0.036
-241.932	-200.000	0.059	-0.274
-240.917	-50.055	0.126	0.059
-239.903	-47.401	0.325	-0.155
-238.888	104.533	0.102	-0.117
-237.873	6.891	-0.286	0.209
-236.859	-144.147	-0.210	0.019
-235.844	-3.961	0.246	0.167
-234.830	-89.408	-0.137	0.040
-233.815	-61.463	-0.290	0.120
-232.800	477.610	-0.097	0.215
-231.786	80.965	0.137	-0.145
-230.771	-200.000	0.011	0.072
-229.757	-100.308	-0.178	0.043
-228.742	-35.859	-0.599	0.318
-227.727	-84.062	-0.111	-0.035
-226.713	800.000	-0.187	0.532
-225.698	83.106	0.097	-0.103
-224.684	156.343	0.206	0.279
-223.669	-130.357	0.138	0.018
-222.655	-200.000	-0.014	-0.222
-221.640	28.577	-0.083	-0.068
-220.625	800.000	-0.039	-0.110
-219.611	-200.000	0.001	-0.015
-218.596	-81.783	0.519	-0.167
-217.582	-200.000	0.029	-0.338
-216.567	-200.000	0.028	0.196
-215.552	-200.000	-0.002	-0.164
-214.538	-200.000	-0.062	0.379
-213.523	44.030	-0.129	0.116
-212.509	-200.000	0.054	0.377
-211.494	19.694	-0.231	0.182
-210.479	800.000	-0.059	0.160
-209.465	-126.237	-0.163	-0.024
-208.450	-200.000	0.019	-0.105
-207.436	530.166	0.072	0.166
-206.421	800.000	-0.095	0.291
-205.406	190.877	0.293	-0.432
-204.392	800.000	0.071	0.250
-203.377	570.762	0.064	0.153
-202.363	-63.727	0.187	0.075
-201.348	132.291	0.106	-0.134
-200.333	-13.859	-0.140	-0.089
-199.319	-106.896	-0.275	0.060
-198.304	-17.384	0.138	0.085
-197.290	100.870	-0.240	0.274
-196.275	-200.000	0.019	0.194
-195.260	311.267	-0.119	-0.219
-194.246	136.377	0.027	-0.034
-193.231	-200.000	0.000	-0.228
-192.217	183.124	-0.141	0.203
-191.202	-192.135	0.306	-0.003
-190.187	-158.169	0.131	0.008
-189.173	-29.505	-0.050	0.028
-188.158	800.000	0.030	0.115
-187.144	-200.000	0.010	0.092
-186.129	-105.661	0.217	0.048
-185.114	-87.239	-0.150	0.045
-184.100	800.000	-0.084	0.303
-183.085	237.635	-0.054	-0.088
-182.071	373.281	-0.069	-0.136
-181.056	-24.835	-0.401	-0.233
-180.042	-128.893	0.273	-0.038
-179.027	-200.000	0.040	-0.195
-178.012	-70.470	-0.253	0.094
-176.998	745.813	-0.057	-0.151
-175.983	11.448	0.285	-0.214
-174.969	92.792	0.184	-0.203
-173.954	-78.634	0.088	-0.029
-172.939	85.253	0.091	0.097
-171.925	164.130	0.076	0.104
-170.910	-90.015	0.400	-0.114
-169.896	-200.000	-0.028	0.295
-168.881	-14.683	0.172	0.108
-167.866	78.215	-0.242	0.252
-166.852	119.662	0.203	0.246
-165.837	-200.000	-0.000	0.118
-164.823	-49.573	0.256	0.119
-163.808	-5.160	0.185	-0.125
-162.793	800.000	-0.092	-0.260
-161.779	356.587	-0.151	0.294
-160.764	-45.479	0.046	0.022
-159.750	-200.000	0.008	-0.111
-158.735	470.503	0.055	0.122
-157.720	292.299	-0.026	-0.047
-156.706	614.578	0.058	0.142
-155.691	281.922	-0.070	0.123
-154.677	-200.000	0.016	0.426
-153.662	-200.000	-0.004	0.155
-152.647	800.000	0.106	0.322
-151.633	-95.470	-0.208	-0.055
-150.618	147.082	-0.131	0.172
-149.604	800.000	0.029	-0.090
-148.589	-200.000	-0.008	-0.034
-147.574	-153.651	0.259	0.017
-146.560	-200.000	-0.008	0.257
-145.545	-200.000	0.006	-0.096
-144.531	-99.858	0.067	0.016
-143.516	-186.933	-0.248	0.003
-142.502	-4.112	0.369	0.250
-141.487	-0.890	0.215	0.149
-140.472	234.090	-0.067	0.108
-139.458	337.654	-0.161	0.305
-138.443	-131.476	0.488	-0.063
-137.429	-169.052	0.349	0.013
-136.414	-166.434	-0.201	-0.008
-135.399	19.958	0.155	0.122
-134.385	542.026	-0.099	0.230
-133.370	-96.939	0.044	-0.011
-132.356	612.832	0.099	0.241
-131.341	-74.599	0.092	-0.032
-130.326	-172.146	-0.417	-0.013
-129.312	-122.622	0.267	0.042
-128.297	-107.775	-0.331	-0.071
-127.283	-3.549	0.125	-0.085
-126.268	-84.122	0.169	0.052
-125.253	-73.758	-0.102	0.036
-124.239	-200.000	-0.024	-0.104
-123.224	-167.610	0.178	0.007
-122.210	-200.000	0.036	0.240
