DTS Sentinel unit serial number:	SN413079Multiplexer serial number:	ORYXHardware model number:	OX4-SRSoftware version number:	ORYX F/W v4.00 Oryx Data Collector v3.7.2.0data status	okinstallation	princeton_trtdifferential loss correction	single-endedforward channel	channel 3reverse channel	N/Adate	2019/09/14time	09:44:35forward acquisition time	60.00reverse acquisition time	0.00gamma	496.2192k internal	0.2317k external	0.2317temperature offset calibration	1.0054default loss term (dB/km)	0.3790temperature slope calibration	1.0000multiplexer offset coefficient	1.0000multiplexer slope coefficient	1.0000fibre end	0.00T internal ref (°C)	32.19T ext. ref 1 (°C)	3.92T ext. ref 2 (°C)	30.39length (m)	temperature (°C)	Stokes	anti-Stokes-747.200	-18.172	-0.207	0.131
-746.185	368.458	-0.189	0.387
-745.171	23.090	0.259	0.215
-744.156	55.740	-0.123	-0.121
-743.142	-200.000	0.025	-0.315
-742.127	-128.637	-0.356	-0.051
-741.112	-200.000	-0.037	-0.178
-740.098	3.020	0.084	-0.061
-739.083	-68.329	0.316	-0.124
-738.069	-100.047	0.251	-0.063
-737.054	235.140	0.112	-0.187
-736.039	800.000	0.038	-0.140
-735.025	-180.048	0.226	0.005
-734.010	-200.000	-0.051	-0.299
-732.996	-85.950	0.152	0.047
-731.981	443.923	-0.168	0.374
-730.966	-200.000	0.031	-0.356
-729.952	127.719	-0.222	0.285
-728.937	-190.361	-0.304	0.003
-727.923	-136.265	0.378	-0.045
-726.908	-103.141	0.166	0.040
-725.894	-117.393	-0.407	0.075
-724.879	337.509	-0.069	0.135
-723.864	130.330	0.249	-0.323
-722.850	555.001	-0.090	0.220
-721.835	203.875	-0.129	0.201
-720.821	5.920	-0.088	-0.066
-719.806	-122.765	-0.527	0.086
-718.791	113.282	-0.171	-0.209
-717.777	-18.158	-0.408	-0.259
-716.762	-38.930	0.237	-0.126
-715.748	-35.013	0.503	0.277
-714.733	204.989	-0.027	-0.043
-713.718	-114.626	-0.258	0.050
-712.704	-169.500	-0.070	-0.003
-711.689	554.629	0.056	0.137
-710.675	50.363	0.347	0.332
-709.660	388.792	-0.018	0.038
-708.645	-127.976	-0.332	0.048
-707.631	-83.895	0.351	-0.113
-706.616	-127.818	-0.076	-0.011
-705.602	-74.289	0.253	-0.093
-704.587	-200.000	0.021	0.145
-703.572	247.967	0.108	-0.185
-702.558	228.343	-0.131	0.215
-701.543	-200.000	-0.059	-0.491
-700.529	26.849	0.232	-0.196
-699.514	-91.622	0.240	-0.069
-698.499	-21.932	0.087	0.054
-697.485	-55.955	0.315	0.142
-696.470	-98.451	-0.260	-0.067
-695.456	-200.000	0.013	0.159
-694.441	184.882	0.103	0.155
-693.426	-32.247	0.226	-0.127
-692.412	-114.927	0.123	0.024
-691.397	-200.000	0.023	0.111
-690.383	83.431	-0.193	-0.213
-689.368	-200.000	-0.003	-0.316
-688.354	-150.400	-0.337	-0.026
-687.339	16.283	-0.083	-0.066
-686.324	-200.000	0.005	0.337
-685.310	-200.000	-0.003	0.140
-684.295	2.699	-0.106	0.078
-683.281	23.932	-0.205	0.170
-682.266	-106.135	-0.231	0.052
-681.251	195.218	0.112	0.171
-680.237	51.517	-0.208	0.200
-679.222	-170.861	-0.051	-0.002
-678.208	-200.000	0.079	0.433
-677.193	-7.471	0.315	-0.215
-676.178	-55.246	-0.160	-0.072
-675.164	800.000	0.060	-0.170
-674.149	7.713	-0.082	-0.062
-673.135	287.863	-0.109	0.200
-672.120	-76.525	-0.445	-0.158
-671.105	595.272	-0.122	0.305
-670.091	252.923	-0.215	-0.370
-669.076	283.478	-0.066	-0.120
-668.062	34.184	-0.396	-0.348
-667.047	-200.000	-0.017	-0.189
-666.032	-200.000	0.012	0.217
-665.018	122.451	0.207	-0.261
-664.003	-30.468	-0.345	-0.198
-662.989	207.445	0.092	-0.145
-661.974	374.364	0.135	-0.278
-660.959	91.530	0.089	0.101
-659.945	-43.073	0.106	-0.054
-658.930	-120.546	-0.134	0.023
-657.916	145.567	-0.094	-0.127
-656.901	145.618	0.215	0.291
-655.886	-200.000	0.016	-0.103
-654.872	-200.000	-0.071	-0.406
-653.857	-200.000	0.049	-0.264
-652.843	800.000	0.017	-0.051
-651.828	329.074	0.016	0.031
-650.814	34.689	-0.222	0.195
-649.799	523.309	-0.040	-0.095
-648.784	142.562	-0.091	0.122
-647.770	-31.719	-0.286	-0.162
-646.755	-68.097	-0.154	0.061
-645.741	-200.000	-0.010	0.066
-644.726	-125.868	-0.252	-0.038
-643.711	178.647	-0.163	-0.240
-642.697	800.000	-0.032	0.137
-641.682	-200.000	0.015	0.415
-640.668	343.977	0.204	0.404
-639.653	23.673	-0.162	-0.135
-638.638	-200.000	-0.007	-0.108
-637.624	-103.445	0.240	-0.057
-636.609	-113.661	0.158	0.031
-635.595	-120.919	-0.382	0.065
-634.580	209.106	-0.026	-0.041
-633.565	481.162	0.016	0.036
-632.551	-94.497	-0.337	-0.092
-631.536	94.619	-0.159	0.183
-630.522	800.000	-0.073	-0.277
-629.507	61.355	-0.253	-0.253
-628.492	423.613	0.096	-0.208
-627.478	-173.851	0.083	0.002
-626.463	-77.113	0.231	-0.081
-625.449	-134.235	-0.150	0.019
-624.434	367.379	0.121	-0.247
-623.419	-25.881	-0.393	-0.233
-622.405	-60.986	0.401	-0.171
-621.390	96.404	0.117	-0.135
-620.376	-144.544	0.228	-0.021
-619.361	-156.650	-0.155	-0.010
-618.346	-80.440	-0.170	0.057
-617.332	-78.666	-0.191	-0.066
-616.317	800.000	0.054	-0.154
-615.303	-200.000	-0.004	0.133
-614.288	800.000	-0.097	0.347
-613.273	-200.000	-0.011	0.332
-612.259	-200.000	-0.002	0.237
-611.244	-138.685	-0.032	0.004
-610.230	126.913	-0.142	-0.182
-609.215	95.446	-0.109	-0.126
-608.201	-104.434	-0.269	-0.063
-607.186	-149.451	0.126	0.010
-606.171	-44.291	-0.273	-0.138
-605.157	-121.993	-0.132	0.022
-604.142	118.556	-0.228	-0.283
-603.128	561.364	-0.072	-0.174
-602.113	-153.757	-0.307	0.021
-601.098	32.617	-0.089	-0.078
-600.084	-108.225	-0.234	-0.051
-599.069	95.244	0.200	0.230
-598.055	-4.105	-0.150	-0.105
-597.040	-82.485	0.311	-0.102
-596.025	-101.761	-0.126	-0.031
-595.011	345.261	-0.053	0.105
-593.996	-91.546	0.111	0.032
-592.982	200.927	-0.126	0.196
-591.967	-200.000	-0.072	-0.402
-590.952	-47.929	-0.128	-0.062
-589.938	800.000	0.142	-0.575
-588.923	800.000	0.113	0.366
-587.909	-78.706	-0.073	-0.025
-586.894	-200.000	0.006	0.128
-585.879	-181.646	-0.251	-0.005
-584.865	83.799	-0.069	-0.075
-583.850	-73.162	0.124	-0.046
-582.836	-94.407	-0.086	0.024
-581.821	800.000	-0.043	-0.157
-580.806	800.000	0.040	0.127
-579.792	-32.490	-0.243	-0.137
-578.777	-34.616	-0.069	-0.038
-577.763	120.992	-0.272	-0.341
-576.748	800.000	-0.036	-0.126
-575.733	-128.739	-0.442	0.063
-574.719	413.027	-0.146	-0.313
-573.704	127.989	0.144	-0.184
-572.690	-200.000	0.026	-0.123
-571.675	275.455	0.051	0.091
-570.661	800.000	0.044	-0.172
-569.646	-52.786	0.037	0.017
-568.631	-57.215	-0.211	-0.094
-567.617	-200.000	0.055	-0.300
-566.602	-26.519	-0.188	0.111
-565.588	800.000	-0.028	-0.114
-564.573	-98.648	0.331	0.085
-563.558	-96.321	-0.261	-0.069
-562.544	143.226	-0.090	-0.121
-561.529	-67.692	0.096	0.038
-560.515	800.000	-0.008	0.033
-559.500	-78.566	-0.131	0.045
-558.485	144.899	0.152	-0.204
-557.471	37.308	0.082	0.073
-556.456	133.675	0.180	-0.235
-555.442	-200.000	-0.013	-0.217
-554.427	95.390	0.017	0.019
-553.412	-89.846	0.109	-0.032
-552.398	800.000	0.073	0.275
-551.383	42.596	0.163	0.149
-550.369	-61.270	-0.147	-0.062
-549.354	468.462	-0.052	-0.118
-548.339	-23.823	0.283	0.170
-547.325	-171.440	-0.133	0.004
-546.310	-99.263	-0.257	0.065
-545.296	-59.067	-0.178	0.077
-544.281	-200.000	-0.001	0.088
-543.266	-200.000	0.019	0.136
-542.252	187.594	-0.130	-0.195
-541.237	800.000	0.049	-0.167
-540.223	335.616	0.118	0.230
-539.208	-111.727	-0.112	0.023
-538.193	100.744	-0.053	-0.061
-537.179	-10.171	-0.124	0.083
-536.164	157.976	0.037	-0.051
-535.150	800.000	-0.115	0.435
-534.135	658.341	-0.089	0.230
-533.121	-170.223	0.226	-0.008
-532.106	133.379	-0.183	-0.237
-531.091	800.000	0.085	-0.244
-530.077	-103.781	0.127	0.030
-529.062	-200.000	-0.276	0.000
-528.048	223.366	0.094	-0.151
-527.033	614.657	0.036	-0.092
-526.018	-200.000	0.007	-0.243
-525.004	-137.874	0.177	0.020
-523.989	-107.440	-0.071	0.016
-522.975	-14.369	0.154	0.099
-521.960	-71.446	0.370	0.139
-520.945	28.265	-0.086	-0.073
-519.931	543.930	-0.043	-0.103
-518.916	504.658	0.077	0.178
-517.902	-76.760	-0.107	0.038
-516.887	635.315	0.116	0.296
-515.872	62.248	0.262	0.262
-514.858	318.745	-0.087	0.165
-513.843	17.239	0.131	0.105
-512.829	309.347	-0.063	0.118
-511.814	39.678	-0.081	-0.073
-510.799	3.354	-0.174	0.127
-509.785	7.241	0.243	0.182
-508.770	-152.244	-0.107	0.008
-507.756	-64.327	-0.087	0.036
-506.741	59.582	-0.087	0.086
-505.726	6.297	-0.047	0.035
-504.712	-155.722	0.393	-0.025
-503.697	-44.588	-0.154	-0.077
-502.683	-71.817	-0.091	0.034
-501.668	-92.951	0.147	0.041
-500.653	181.115	-0.077	0.113
-499.639	-131.039	0.355	-0.048
-498.624	-109.740	-0.365	0.077
-497.610	800.000	-0.015	-0.054
-496.595	-167.875	-0.086	-0.003
-495.581	-200.000	0.019	-0.272
-494.566	397.650	-0.055	-0.116
-493.551	119.246	-0.320	0.397
-492.537	176.787	-0.101	0.147
-491.522	-159.351	0.144	-0.008
-490.508	-111.503	0.081	-0.016
-489.493	800.000	-0.014	-0.050
-488.478	-129.843	-0.280	-0.039
-487.464	-60.373	-0.111	0.047
-486.449	-200.000	-0.045	0.496
-485.435	-83.003	-0.198	-0.064
-484.420	185.808	-0.014	0.020
-483.405	-200.000	-0.007	-0.102
-482.391	-111.269	0.283	-0.058
-481.376	0.629	-0.373	-0.267
-480.362	321.107	0.135	-0.258
-479.347	208.675	-0.351	-0.551
-478.332	-77.939	0.173	-0.060
-477.318	-200.000	-0.013	-0.139
-476.303	800.000	-0.080	-0.290
-475.289	-114.578	-0.140	0.027
-474.274	243.269	0.056	-0.094
-473.259	-200.000	0.025	0.166
-472.245	-200.000	0.026	-0.148
-471.230	800.000	0.077	-0.335
-470.216	304.088	-0.097	-0.180
-469.201	-160.492	-0.319	-0.017
-468.186	-27.081	-0.139	-0.081
-467.172	-51.679	-0.152	0.071
-466.157	-200.000	-0.021	-0.248
-465.143	-25.434	-0.214	0.127
-464.128	235.946	0.049	0.081
-463.113	-49.899	0.113	-0.053
-462.099	265.245	0.131	-0.229
-461.084	3.438	-0.282	0.206
-460.070	-106.723	-0.186	-0.041
-459.055	-200.000	0.034	0.169
-458.040	489.915	0.036	0.083
-457.026	-18.831	0.152	-0.095
-456.011	-108.908	-0.147	0.031
-454.997	-60.873	0.221	-0.094
-453.982	-29.447	-0.283	0.162
-452.968	-65.874	0.322	-0.129
-451.953	243.392	0.222	-0.373
-450.938	-130.041	-0.219	0.030
-449.924	-200.000	-0.021	0.116
-448.909	251.534	-0.176	0.299
-447.895	-200.000	0.035	-0.261
-446.880	-106.581	0.113	0.025
-445.865	-160.593	-0.103	0.006
-444.851	-48.955	0.291	0.140
-443.836	-78.018	-0.135	-0.047
-442.822	800.000	-0.104	0.354
-441.807	800.000	-0.052	-0.155
-440.792	-30.235	0.393	-0.223
-439.778	348.618	0.159	0.314
-438.763	-199.136	-0.423	-0.002
-437.749	-135.743	-0.103	-0.012
-436.734	-121.098	-0.191	-0.032
-435.719	-38.534	0.297	-0.157
-434.705	-141.322	-0.144	0.015
-433.690	-49.136	-0.181	-0.086
-432.676	-12.815	-0.236	-0.154
-431.661	-65.857	-0.289	-0.115
-430.646	-200.000	-0.006	0.090
-429.632	11.994	-0.178	-0.137
-428.617	-173.153	-0.195	-0.006
-427.603	34.310	0.261	0.228
-426.588	-200.000	0.031	0.261
-425.573	97.806	-0.054	-0.062
-424.559	-40.183	0.191	0.100
-423.544	634.498	-0.114	0.288
-422.530	-24.435	-0.266	0.158
-421.515	-128.230	-0.258	0.037
-420.500	-36.661	0.165	0.089
-419.486	-152.984	0.343	-0.024
-418.471	-40.822	0.113	-0.058
-417.457	-200.000	-0.019	-0.086
-416.442	332.522	-0.039	0.075
-415.428	157.754	-0.132	-0.183
-414.413	800.000	0.047	-0.171
-413.398	39.869	0.313	-0.281
-412.384	-137.517	0.309	-0.035
-411.369	800.000	0.096	0.321
-410.355	130.620	0.105	0.134
-409.340	56.880	-0.114	0.111
-408.325	800.000	0.054	0.196
-407.311	-200.000	-0.017	-0.239
-406.296	100.585	0.096	-0.112
-405.282	118.976	-0.051	0.063
-404.267	-200.000	-0.032	-0.153
-403.252	-151.135	0.178	0.013
-402.238	126.227	0.093	0.118
-401.223	-200.000	-0.015	0.148
-400.209	-200.000	-0.019	0.150
-399.194	-165.965	0.274	-0.012
-398.179	62.998	0.212	-0.212
-397.165	-65.407	0.080	0.032
-396.150	800.000	-0.143	-0.490
-395.136	393.466	0.009	0.019
-394.121	83.998	0.143	0.156
-393.106	-200.000	-0.021	-0.100
-392.092	800.000	-0.056	-0.209
-391.077	800.000	-0.076	-0.209
-390.063	365.082	0.090	0.180
-389.048	-12.176	0.161	0.105
-388.033	-1.352	-0.137	0.097
-387.019	-2.585	0.144	-0.101
-386.004	81.534	-0.069	-0.075
-384.990	171.539	0.058	-0.083
-383.975	60.274	0.077	0.076
-382.960	93.453	0.176	-0.199
-381.946	236.524	-0.057	-0.095
-380.931	140.455	-0.127	-0.167
-379.917	687.101	-0.052	-0.135
-378.902	-169.566	0.187	-0.007
-377.888	800.000	0.038	-0.111
-376.873	239.585	0.017	0.029
-375.858	-42.078	0.273	0.139
-374.844	-140.919	0.055	0.006
-373.829	227.041	-0.200	-0.325
-372.815	289.269	0.142	-0.257
-371.800	-136.066	0.631	0.074
-370.785	380.522	0.085	-0.174
-369.771	-64.623	-0.153	-0.062
-368.756	-200.000	-0.047	-0.251
-367.742	-37.846	-0.113	-0.060
-366.727	360.487	0.205	0.409
-365.712	169.338	-0.035	-0.051
-364.698	-86.240	-0.129	0.040
-363.683	390.588	0.045	-0.093
-362.669	-42.788	0.195	0.099
-361.654	216.604	0.106	0.168
-360.639	-1.671	-0.173	0.121
-359.625	156.993	0.212	-0.292
-358.610	800.000	0.162	-0.544
-357.596	189.456	0.082	-0.123
-356.581	-142.750	-0.417	-0.041
-355.566	471.635	0.045	0.102
-354.552	354.110	0.126	0.249
-353.537	119.083	-0.158	0.195
-352.523	-52.104	-0.130	0.060
-351.508	800.000	0.119	-0.457
-350.493	-200.000	-0.045	0.234
-349.479	-123.231	-0.086	0.014
-348.464	800.000	0.047	0.184
-347.450	217.412	0.138	-0.219
-346.435	-200.000	0.002	-0.060
-345.420	24.752	0.099	0.082
-344.406	-50.290	0.077	-0.036
-343.391	28.637	0.170	-0.143
-342.377	20.003	0.079	-0.064
-341.362	800.000	0.038	0.107
-340.348	-126.792	-0.157	-0.023
-339.333	20.433	0.271	0.218
-338.318	-200.000	0.008	-0.217
-337.304	74.055	-0.153	-0.161
-336.289	235.149	0.060	-0.099
-335.275	-189.071	-0.240	-0.003
-334.260	-200.000	-0.044	0.231
-333.245	-200.000	-0.026	0.257
-332.231	-62.535	0.279	0.116
-331.216	-37.090	0.358	-0.191
-330.202	-102.589	-0.077	0.018
-329.187	-48.632	0.146	0.070
-328.172	95.836	-0.200	-0.228
-327.158	-200.000	0.009	-0.078
-326.143	397.870	-0.089	-0.186
-325.129	9.390	0.021	-0.016
-324.114	-118.037	0.182	-0.032
-323.099	119.178	0.065	0.080
-322.085	276.745	0.143	0.253
-321.070	-200.000	0.021	0.116
-320.056	-200.000	0.079	0.360
-319.041	800.000	0.106	0.374
-318.026	-119.503	-0.094	-0.016
-317.012	-166.417	-0.244	0.010
-315.997	-59.870	-0.139	0.059
-314.983	13.517	0.179	0.138
-313.968	800.000	-0.068	0.271
-312.953	214.044	0.110	-0.173
-311.939	-138.160	0.040	0.004
-310.924	-28.103	0.120	0.069
-309.910	573.843	-0.112	-0.273
-308.895	-90.437	-0.236	-0.068
-307.880	-200.000	0.074	0.000
-306.866	2.728	-0.288	0.208
-305.851	-200.000	0.015	0.166
-304.837	-159.225	0.164	0.009
-303.822	800.000	0.131	0.402
-302.807	-89.067	0.229	-0.067
-301.793	-33.341	-0.495	0.273
-300.778	626.501	0.089	0.223
-299.764	-62.785	0.471	-0.194
-298.749	800.000	0.098	0.294
-297.735	-200.000	-0.014	0.182
-296.720	-17.514	-0.363	0.227
-295.705	800.000	0.120	-0.389
-294.691	-128.795	0.395	-0.055
-293.676	-106.071	-0.118	-0.026
-292.662	127.906	-0.200	0.253
-291.647	155.451	0.077	-0.105
-290.632	-176.567	0.323	0.008
-289.618	8.081	-0.124	0.093
-288.603	-40.761	-0.383	0.197
-287.589	-89.254	-0.255	0.075
-286.574	-30.117	0.305	-0.172
-285.559	128.717	0.112	-0.142
-284.545	664.777	0.187	0.481
-283.530	-123.382	-0.239	-0.038
-282.516	-63.570	0.224	-0.092
-281.501	16.464	0.105	0.083
-280.486	-149.528	0.576	-0.045
-279.472	800.000	-0.069	0.200
-278.457	195.346	0.113	0.171
-277.443	-200.000	0.012	0.057
-276.428	-114.550	0.014	-0.003
-275.413	195.603	-0.057	-0.086
-274.399	-117.600	-0.051	-0.009
-273.384	77.033	-0.161	0.170
-272.370	72.144	0.164	0.170
-271.355	-186.530	-0.282	-0.004
-270.340	-114.098	0.168	-0.032
-269.326	229.703	0.095	0.154
-268.311	-54.872	0.169	-0.076
-267.297	-144.126	0.241	-0.022
-266.282	-200.000	-0.024	0.178
-265.267	-200.000	-0.004	-0.127
-264.253	688.282	0.162	-0.421
-263.238	3.310	-0.348	-0.252
-262.224	-5.407	-0.368	-0.251
-261.209	211.240	-0.129	0.201
-260.195	14.625	-0.236	-0.183
-259.180	-91.437	0.411	-0.117
-258.165	132.209	-0.237	0.304
-257.151	-200.000	0.082	0.587
-256.136	-65.205	-0.250	-0.100
-255.122	-81.636	-0.201	0.066
-254.107	17.298	-0.185	-0.146
-253.092	97.699	0.202	-0.231
-252.078	-12.693	-0.108	0.070
-251.063	638.036	-0.062	0.156
-250.049	-200.000	-0.051	-0.266
-249.034	-81.204	-0.075	0.025
-248.019	80.113	0.292	0.311
-247.005	-200.000	0.040	0.211
-245.990	800.000	0.077	-0.256
-244.976	-22.117	0.096	0.058
-243.961	-111.612	-0.046	0.009
-242.946	112.429	0.257	-0.309
-241.932	-200.000	0.043	-0.240
-240.917	800.000	0.056	0.210
-239.903	132.971	-0.114	0.146
-238.888	267.258	0.121	0.210
-237.873	331.524	0.075	0.144
-236.859	222.496	-0.225	0.360
-235.844	-200.000	-0.052	0.348
-234.830	-96.506	0.206	0.054
-233.815	-200.000	-0.043	0.257
-232.800	109.810	0.354	-0.421
-231.786	11.534	-0.076	-0.058
-230.771	-49.371	0.190	-0.090
-229.757	-109.437	0.122	-0.026
-228.742	114.917	-0.199	0.240
-227.727	172.584	0.147	-0.211
-226.713	126.559	0.177	0.223
-225.698	10.729	-0.031	0.024
-224.684	768.803	-0.045	-0.122
-223.669	-136.870	-0.154	-0.018
-222.655	-85.600	0.330	0.102
-221.640	-132.738	-0.244	-0.031
-220.625	339.725	-0.162	-0.314
-219.611	330.766	-0.129	0.247
-218.596	-91.898	0.221	-0.062
-217.582	-144.210	0.137	-0.013
-216.567	85.239	0.126	-0.138
-215.552	152.215	0.245	-0.332
-214.538	-200.000	0.042	0.222
-213.523	598.428	-0.095	-0.232
-212.509	254.242	-0.045	-0.077
-211.494	-37.653	-0.255	0.135
-210.479	256.903	-0.129	0.219
-209.465	800.000	0.021	0.089
-208.450	-26.781	0.103	0.060
-207.436	-154.294	-0.170	0.011
-206.421	-122.728	0.134	0.022
-205.406	709.987	-0.016	0.042
-204.392	51.982	0.217	0.205
-203.377	-200.000	0.010	-0.139
-202.363	-200.000	-0.011	0.167
-201.348	19.016	0.196	0.156
-200.333	-159.745	0.106	-0.006
-199.319	229.764	-0.195	-0.317
-198.304	-200.000	0.002	0.014
-197.290	-42.367	0.097	-0.049
-196.275	-81.859	-0.177	-0.057
-195.260	48.555	0.106	-0.098
-194.246	52.467	0.137	-0.129
-193.231	114.743	-0.208	-0.251
-192.217	-200.000	-0.001	-0.148
-191.202	46.954	0.156	-0.144
-190.187	575.852	-0.036	0.087
-189.173	-30.115	0.262	-0.148
-188.158	-116.054	0.117	-0.022
-187.144	800.000	0.041	0.121
-186.129	412.188	-0.081	-0.171
-185.114	76.539	-0.100	0.105
-184.100	-200.000	0.092	0.629
-183.085	259.530	-0.181	-0.310
-182.071	123.963	0.103	-0.128
-181.056	-78.158	-0.136	-0.046
-180.042	800.000	0.091	-0.288
-179.027	189.056	0.083	0.123
-178.012	-200.000	-0.008	0.141
-176.998	-101.379	0.151	-0.036
-175.983	-147.759	-0.154	0.013
-174.969	51.797	0.240	0.226
-173.954	71.918	-0.177	0.182
-172.939	800.000	-0.049	-0.188
-171.925	-165.079	0.371	-0.016
-170.910	-40.721	0.327	0.168
-169.896	234.601	0.223	0.364
-168.881	-200.000	0.073	0.365
-167.866	36.101	0.278	0.243
-166.852	-200.000	-0.017	0.214
-165.837	-165.406	0.126	-0.005
-164.823	375.619	-0.108	-0.217
-163.808	800.000	0.030	-0.128
-162.793	800.000	0.029	0.089
-161.779	-200.000	-0.079	0.458
-160.764	257.030	-0.032	0.055
-159.750	176.766	-0.098	-0.141
-158.735	27.526	-0.312	-0.260
-157.720	-73.472	0.212	0.077
-156.706	164.590	-0.042	0.058
-155.691	777.389	-0.033	-0.090
-154.677	65.720	-0.222	0.222
-153.662	-200.000	0.088	0.417
-152.647	-178.286	0.344	0.008
-151.633	-16.593	0.055	0.035
-150.618	190.671	-0.105	-0.156
-149.604	65.851	0.129	0.129
-148.589	-195.749	0.194	-0.001
-147.574	-122.890	-0.176	-0.028
-146.560	-88.880	-0.187	-0.055
-145.545	77.612	-0.309	0.326
-144.531	192.615	0.099	0.148
-143.516	-5.619	-0.151	-0.102
-142.502	800.000	0.115	0.344
-141.487	111.234	-0.210	0.250
-140.472	800.000	-0.081	-0.304
-139.458	36.745	-0.010	0.008
-138.443	-200.000	0.019	-0.195
-137.429	473.371	0.147	0.328
-136.414	-200.000	0.057	0.372
-135.399	-69.403	-0.266	0.101
-134.385	-90.778	-0.214	0.061
-133.370	-42.777	0.347	-0.175
-132.356	241.034	0.221	-0.364
-131.341	-20.694	-0.108	0.065
-130.326	167.033	-0.090	-0.127
-129.312	37.454	-0.088	-0.077
-128.297	50.328	-0.022	-0.020
-127.283	-34.621	0.034	0.018
-126.268	-116.098	-0.024	-0.005
-125.253	82.523	-0.050	-0.053
-124.239	209.964	0.086	0.133
-123.224	11.018	-0.191	0.144
-122.210	-93.014	0.646	-0.178
