DTS Sentinel unit serial number:	SN413079Multiplexer serial number:	ORYXHardware model number:	OX4-SRSoftware version number:	ORYX F/W v4.00 Oryx Data Collector v3.7.2.0data status	okinstallation	princeton_trtdifferential loss correction	single-endedforward channel	channel 3reverse channel	N/Adate	2019/09/18time	10:44:35forward acquisition time	60.00reverse acquisition time	0.00gamma	496.2192k internal	0.2328k external	0.2328temperature offset calibration	0.9955default loss term (dB/km)	0.3790temperature slope calibration	1.0000multiplexer offset coefficient	1.0000multiplexer slope coefficient	1.0000fibre end	0.00T internal ref (°C)	28.83T ext. ref 1 (°C)	0.37T ext. ref 2 (°C)	25.46length (m)	temperature (°C)	Stokes	anti-Stokes-747.200	594.991	-0.226	0.564
-746.185	172.429	-0.226	0.328
-745.171	800.000	0.033	-0.115
-744.156	-200.000	0.057	0.334
-743.142	-200.000	0.024	0.152
-742.127	-115.223	-0.255	0.049
-741.112	-200.000	-0.090	-0.000
-740.098	-45.484	-0.134	0.067
-739.083	-47.745	-0.133	0.065
-738.069	-36.704	0.248	0.134
-737.054	-4.150	0.142	-0.099
-736.039	-43.514	-0.146	-0.074
-735.025	800.000	0.021	-0.065
-734.010	-196.897	-0.306	-0.002
-732.996	13.068	-0.141	0.110
-731.981	402.371	0.145	-0.308
-730.966	-28.111	0.047	0.027
-729.952	-60.106	0.194	0.083
-728.937	-200.000	0.003	0.122
-727.923	18.982	-0.194	0.156
-726.908	-200.000	0.023	-0.192
-725.894	-151.780	0.272	0.020
-724.879	-35.283	0.236	0.129
-723.864	-70.360	-0.177	0.068
-722.850	-68.421	-0.010	-0.004
-721.835	-137.783	0.292	-0.033
-720.821	172.256	-0.136	-0.197
-719.806	-109.755	-0.124	-0.026
-718.791	739.998	0.063	-0.171
-717.777	455.771	-0.127	-0.285
-716.762	-154.087	-0.164	0.011
-715.748	800.000	-0.080	-0.227
-714.733	-122.941	-0.538	0.087
-713.718	-200.000	0.006	-0.171
-712.704	-87.186	-0.417	0.127
-711.689	444.255	0.138	0.305
-710.675	-78.700	-0.133	0.046
-709.660	97.188	-0.273	-0.316
-708.645	45.321	0.221	-0.205
-707.631	800.000	-0.118	-0.422
-706.616	344.362	0.082	0.161
-705.602	-74.304	-0.351	-0.128
-704.587	-200.000	-0.039	0.202
-703.572	74.884	0.116	0.123
-702.558	-8.274	-0.236	-0.160
-701.543	-200.000	-0.006	0.150
-700.529	226.004	-0.124	-0.202
-699.514	-79.164	-0.315	-0.107
-698.499	243.099	-0.086	-0.144
-697.485	191.350	0.266	-0.403
-696.470	-200.000	0.002	0.068
-695.456	360.457	0.117	-0.235
-694.441	-105.059	0.349	-0.080
-693.426	-200.000	0.021	0.220
-692.412	9.140	-0.233	-0.177
-691.397	490.797	0.073	-0.168
-690.383	-161.162	0.171	0.009
-689.368	-44.456	-0.302	-0.152
-688.354	28.502	0.245	-0.209
-687.339	-47.585	-0.057	-0.028
-686.324	-31.146	0.020	-0.011
-685.310	114.882	0.089	-0.109
-684.295	-73.389	0.161	0.059
-683.281	-61.822	-0.234	0.098
-682.266	-200.000	0.020	-0.243
-681.251	-58.573	-0.147	-0.064
-680.237	336.150	-0.189	-0.369
-679.222	87.179	-0.275	0.306
-678.208	474.834	0.145	-0.330
-677.193	-200.000	-0.019	-0.173
-676.178	-98.899	-0.184	0.047
-675.164	194.563	-0.035	0.053
-674.149	-173.051	0.016	-0.001
-673.135	-160.521	0.114	0.006
-672.120	-113.968	-0.293	0.057
-671.105	-114.168	-0.107	0.021
-670.091	-81.904	-0.291	-0.096
-669.076	-102.423	0.298	0.072
-668.062	-144.821	-0.223	-0.021
-667.047	800.000	0.012	0.048
-666.032	-200.000	-0.005	-0.318
-665.018	145.601	-0.177	-0.239
-664.003	800.000	-0.066	-0.231
-662.989	800.000	0.011	-0.041
-661.974	240.623	-0.050	-0.084
-660.959	-74.291	-0.180	0.065
-659.945	93.745	-0.116	0.131
-658.930	-81.344	0.145	0.048
-657.916	155.056	0.130	-0.180
-656.901	477.232	0.055	-0.125
-655.886	-91.719	0.038	-0.011
-654.872	647.795	-0.022	0.056
-653.857	177.883	-0.195	0.286
-652.843	-200.000	-0.018	0.232
-651.828	121.811	-0.122	0.153
-650.814	-56.055	0.164	0.073
-649.799	217.029	0.096	0.153
-648.784	-55.501	0.103	-0.047
-647.770	-148.817	0.269	0.022
-646.755	462.075	-0.102	0.229
-645.741	-22.886	-0.269	0.163
-644.726	-43.307	-0.168	0.085
-643.711	-38.767	-0.071	0.038
-642.697	160.825	-0.076	-0.106
-641.682	-200.000	-0.002	0.129
-640.668	56.204	-0.257	0.251
-639.653	310.048	0.141	0.265
-638.638	736.769	0.023	-0.063
-637.624	88.360	-0.104	-0.116
-636.609	-200.000	-0.025	0.117
-635.595	49.633	0.131	0.123
-634.580	-200.000	0.019	-0.195
-633.565	800.000	-0.077	-0.290
-632.551	800.000	0.037	-0.104
-631.536	-76.721	0.144	-0.051
-630.522	161.913	-0.136	-0.192
-629.507	180.853	-0.211	-0.311
-628.492	-53.854	0.379	0.174
-627.478	-21.206	0.424	0.260
-626.463	7.685	0.110	-0.083
-625.449	-200.000	0.043	0.203
-624.434	-166.041	0.130	-0.006
-623.419	457.385	-0.057	-0.128
-622.405	-200.000	-0.033	-0.224
-621.390	-161.357	0.084	-0.004
-620.376	9.157	-0.106	0.081
-619.361	268.968	-0.192	-0.338
-618.346	800.000	0.029	-0.090
-617.332	76.491	0.287	0.305
-616.317	93.060	-0.163	0.184
-615.303	-200.000	0.017	0.168
-614.288	-113.270	0.599	-0.118
-613.273	-200.000	-0.027	0.163
-612.259	-132.463	-0.264	-0.034
-611.244	-159.670	-0.202	-0.011
-610.230	57.544	-0.245	0.240
-609.215	-21.637	0.108	-0.066
-608.201	-2.927	-0.312	-0.219
-607.186	-200.000	-0.045	-0.429
-606.171	-200.000	0.015	0.212
-605.157	800.000	-0.080	0.326
-604.142	800.000	0.099	0.294
-603.128	-49.622	0.223	-0.106
-602.113	-17.772	-0.048	-0.030
-601.098	-85.090	-0.079	0.025
-600.084	800.000	0.045	-0.140
-599.069	-88.637	-0.166	0.050
-598.055	-84.792	0.334	0.105
-597.040	3.636	-0.079	0.058
-596.025	800.000	-0.050	0.162
-595.011	321.546	-0.114	0.217
-593.996	-151.222	-0.381	-0.029
-592.982	-15.889	0.031	-0.019
-591.967	-14.540	-0.084	0.054
-590.952	-58.583	-0.194	-0.084
-589.938	800.000	-0.145	0.444
-588.923	-70.661	-0.343	0.130
-587.909	-200.000	0.013	0.183
-586.894	663.488	0.073	0.189
-585.879	682.643	-0.069	0.179
-584.865	538.776	-0.109	-0.259
-583.850	-82.587	-0.269	-0.087
-582.836	64.203	-0.044	-0.044
-581.821	-14.944	0.187	-0.120
-580.806	348.159	0.099	0.195
-579.792	-200.000	-0.005	0.153
-578.777	-200.000	-0.021	0.229
-577.763	-95.749	-0.181	0.048
-576.748	-200.000	0.050	-0.299
-575.733	800.000	-0.026	0.088
-574.719	-41.724	-0.140	0.072
-573.704	31.228	-0.136	0.116
-572.690	-94.810	-0.191	0.052
-571.675	11.976	0.121	-0.093
-570.661	-200.000	0.011	-0.354
-569.646	145.863	0.110	0.148
-568.631	513.184	-0.104	0.243
-567.617	-103.416	-0.044	-0.010
-566.602	-200.000	-0.005	-0.118
-565.588	-61.609	-0.127	-0.053
-564.573	48.279	-0.204	0.191
-563.558	101.936	0.081	-0.095
-562.544	70.309	0.183	0.189
-561.529	800.000	-0.065	0.262
-560.515	-107.801	-0.222	0.048
-559.500	206.944	0.125	0.195
-558.485	-113.903	0.198	0.039
-557.471	430.722	-0.067	-0.146
-556.456	387.208	0.251	-0.520
-555.442	-92.124	-0.143	-0.040
-554.427	-200.000	-0.013	-0.164
-553.412	800.000	-0.040	-0.118
-552.398	173.689	-0.282	0.408
-551.383	800.000	0.074	-0.226
-550.369	-38.039	0.393	0.209
-549.354	2.560	-0.079	-0.057
-548.339	-5.798	-0.308	-0.211
-547.325	74.901	-0.138	-0.145
-546.310	218.907	-0.043	-0.068
-545.296	606.840	0.044	0.110
-544.281	-89.116	-0.157	-0.046
-543.266	-143.374	-0.112	-0.011
-542.252	-154.433	0.256	0.017
-541.237	-155.928	-0.227	0.014
-540.223	-79.529	-0.297	-0.100
-539.208	221.335	0.166	-0.266
-538.193	800.000	-0.050	-0.189
-537.179	-104.374	0.139	0.032
-536.164	-15.207	-0.104	-0.067
-535.150	175.962	-0.080	-0.117
-534.135	404.081	-0.104	0.219
-533.121	-115.359	0.093	0.018
-532.106	8.317	-0.108	-0.081
-531.091	-85.185	-0.173	0.054
-530.077	-103.069	-0.099	0.024
-529.062	132.228	-0.054	-0.069
-528.048	-114.548	0.239	-0.046
-527.033	-109.347	0.164	0.035
-526.018	800.000	-0.080	0.284
-525.004	-13.021	0.233	0.151
-523.989	-200.000	0.054	-0.321
-522.975	69.994	-0.093	-0.096
-521.960	98.724	0.063	-0.072
-520.945	-145.205	-0.288	-0.026
-519.931	17.002	-0.095	-0.075
-518.916	-88.623	-0.319	-0.095
-517.902	-117.703	-0.222	0.040
-516.887	-200.000	0.016	-0.471
-515.872	-150.211	0.333	-0.026
-514.858	343.811	0.110	0.215
-513.843	-200.000	-0.065	0.296
-512.829	-200.000	0.006	-0.112
-511.814	-200.000	-0.012	0.052
-510.799	-8.080	0.227	-0.153
-509.785	-130.937	-0.106	0.014
-508.770	64.659	-0.238	0.239
-507.756	-69.949	-0.163	0.062
-506.741	-178.564	-0.222	0.005
-505.726	-200.000	-0.037	-0.178
-504.712	-77.330	-0.160	-0.056
-503.697	-86.062	0.288	-0.089
-502.683	4.624	-0.083	-0.061
-501.668	436.841	0.091	0.197
-500.653	482.800	0.118	0.268
-499.639	-106.643	0.223	-0.049
-498.624	800.000	-0.083	0.316
-497.610	228.611	0.039	-0.064
-496.595	13.961	-0.125	-0.097
-495.581	294.882	0.079	-0.145
-494.566	-54.979	-0.066	-0.030
-493.551	138.728	-0.107	-0.140
-492.537	73.850	0.284	0.297
-491.522	-122.801	0.238	-0.038
-490.508	343.814	0.088	0.173
-489.493	800.000	0.068	0.226
-488.478	-200.000	-0.078	-0.348
-487.464	312.485	0.052	0.097
-486.449	-73.283	0.062	0.022
-485.435	82.077	-0.136	-0.147
-484.420	-80.174	0.264	-0.088
-483.405	383.612	-0.094	0.192
-482.391	-94.112	-0.375	-0.103
-481.376	-66.949	0.322	-0.127
-480.362	-3.970	-0.020	0.014
-479.347	-83.098	0.289	-0.093
-478.332	-33.432	-0.202	-0.111
-477.318	-200.000	-0.009	-0.054
-476.303	800.000	0.047	-0.153
-475.289	64.790	-0.156	0.157
-474.274	-32.568	-0.111	-0.062
-473.259	800.000	0.078	-0.237
-472.245	37.638	0.322	0.285
-471.230	-54.990	0.043	-0.019
-470.216	-200.000	0.009	0.045
-469.201	800.000	0.059	0.225
-468.186	141.253	0.093	0.123
-467.172	738.087	0.068	0.183
-466.157	179.822	0.054	0.078
-465.143	-44.028	-0.385	0.193
-464.128	445.971	-0.048	-0.104
-463.113	9.534	-0.210	0.158
-462.099	-174.531	0.049	0.001
-461.084	-200.000	0.004	0.083
-460.070	19.740	0.183	-0.147
-459.055	-200.000	0.023	0.128
-458.040	-109.841	-0.349	0.073
-457.026	-130.704	-0.131	0.018
-456.011	189.245	-0.122	0.182
-454.997	-132.621	0.258	-0.033
-453.982	110.257	0.149	0.178
-452.968	125.439	0.202	0.254
-451.953	-200.000	0.008	-0.120
-450.938	-83.952	-0.102	-0.032
-449.924	159.243	-0.182	-0.252
-448.909	800.000	-0.068	0.240
-447.895	157.212	0.056	0.077
-446.880	20.121	-0.078	-0.062
-445.865	800.000	-0.048	0.163
-444.851	800.000	0.072	0.303
-443.836	-200.000	-0.032	-0.329
-442.822	-39.647	-0.346	-0.181
-441.807	-170.767	0.179	0.006
-440.792	800.000	-0.047	-0.194
-439.778	-90.506	0.214	0.062
-438.763	4.711	0.091	-0.066
-437.749	11.446	0.268	0.205
-436.734	354.240	-0.107	-0.211
-435.719	-59.231	-0.173	0.074
-434.705	-147.435	-0.075	-0.006
-433.690	18.588	-0.186	-0.148
-432.676	124.653	-0.102	0.128
-431.661	-200.000	-0.016	0.345
-430.646	-200.000	-0.004	0.121
-429.632	165.447	-0.062	-0.087
-428.617	800.000	0.108	-0.326
-427.603	-33.527	0.125	0.069
-426.588	-142.484	0.257	-0.025
-425.573	171.808	0.223	0.319
-424.559	141.865	0.096	-0.127
-423.544	-200.000	0.017	-0.143
-422.530	272.696	0.175	0.307
-421.515	-161.485	0.149	0.008
-420.500	53.470	-0.255	-0.244
-419.486	-122.737	0.006	-0.001
-418.471	-118.470	-0.164	0.029
-417.457	39.746	-0.133	-0.119
-416.442	-200.000	0.024	0.113
-415.428	-200.000	0.056	-0.248
-414.413	800.000	-0.046	0.165
-413.398	-200.000	-0.104	0.000
-412.384	800.000	0.037	0.128
-411.369	16.969	-0.243	0.192
-410.355	-200.000	-0.035	0.174
-409.340	-89.232	-0.472	0.139
-408.325	-16.479	0.255	-0.161
-407.311	-200.000	-0.000	-0.265
-406.296	-39.384	-0.121	0.063
-405.282	-19.854	-0.389	0.239
-404.267	4.297	0.023	0.017
-403.252	800.000	0.075	0.208
-402.238	800.000	0.039	-0.120
-401.223	101.907	0.055	-0.064
-400.209	494.298	-0.088	-0.201
-399.194	-56.197	-0.119	0.053
-398.179	-86.320	-0.110	0.034
-397.165	20.656	-0.137	0.110
-396.150	470.141	0.156	-0.349
-395.136	-200.000	0.032	0.371
-394.121	70.483	0.200	-0.205
-393.106	-200.000	-0.034	-0.220
-392.092	-44.585	-0.178	0.088
-391.077	-200.000	0.067	0.351
-390.063	-79.146	0.206	0.069
-389.048	194.712	0.198	-0.298
-388.033	800.000	0.032	0.093
-387.019	683.162	0.051	0.132
-386.004	-52.464	-0.306	0.141
-384.990	-14.604	0.370	-0.237
-383.975	3.905	-0.217	-0.158
-382.960	-93.498	0.228	-0.063
-381.946	-118.745	0.155	-0.027
-380.931	115.365	-0.196	-0.238
-379.917	-41.074	-0.092	0.047
-378.902	-109.941	-0.104	-0.022
-377.888	533.134	0.168	0.395
-376.873	-111.897	-0.134	-0.027
-375.858	-137.461	0.073	-0.008
-374.844	106.472	0.182	0.214
-373.829	-145.060	0.111	0.010
-372.815	-185.700	0.302	0.005
-371.800	-164.022	0.201	0.009
-370.785	-95.166	-0.171	-0.046
-369.771	-200.000	-0.028	-0.298
-368.756	-148.961	0.168	0.013
-367.742	-62.297	0.077	-0.032
-366.727	355.375	-0.091	0.179
-365.712	800.000	-0.084	0.281
-364.698	-147.651	-0.242	0.020
-363.683	223.213	0.076	-0.122
-362.669	-144.410	-0.249	-0.023
-361.654	-200.000	-0.003	-0.139
-360.639	-79.758	-0.027	-0.009
-359.625	136.188	0.169	-0.218
-358.610	67.929	-0.235	0.238
-357.596	36.929	-0.037	-0.033
-356.581	-69.287	0.162	-0.062
-355.566	-200.000	0.028	0.185
-354.552	-106.692	0.102	0.023
-353.537	-82.847	0.209	0.067
-352.523	-42.381	0.315	0.159
-351.508	41.619	0.111	-0.100
-350.493	-54.258	0.156	-0.070
-349.479	-52.670	-0.333	0.153
-348.464	-46.234	0.250	0.122
-347.450	779.360	-0.070	0.189
-346.435	216.648	-0.057	0.090
-345.420	-84.522	-0.262	0.082
-344.406	8.059	0.259	0.193
-343.391	-200.000	0.035	0.265
-342.377	800.000	-0.033	0.113
-341.362	-196.291	0.377	-0.003
-340.348	99.612	-0.183	-0.210
-339.333	102.699	0.172	-0.200
-338.318	-200.000	-0.112	0.493
-337.304	144.116	0.140	0.186
-336.289	-200.000	0.042	-0.306
-335.275	421.580	-0.066	0.140
-334.260	256.851	0.132	0.225
-333.245	88.250	-0.295	-0.325
-332.231	-90.186	0.140	-0.040
-331.216	-12.899	0.280	0.181
-330.202	-32.260	-0.396	-0.219
-329.187	-200.000	-0.053	0.521
-328.172	-200.000	-0.199	-0.001
-327.158	800.000	0.035	-0.125
-326.143	127.158	0.042	0.053
-325.129	800.000	0.083	0.230
-324.114	-69.308	-0.148	0.056
-323.099	-149.415	-0.383	-0.030
-322.085	295.830	-0.119	-0.216
-321.070	-200.000	0.021	-0.306
-320.056	-57.997	0.055	-0.024
-319.041	115.247	-0.151	-0.183
-318.026	25.872	0.338	-0.279
-317.012	-200.000	0.002	-0.147
-315.997	49.211	0.135	-0.126
-314.983	-169.575	-0.191	-0.007
-313.968	-200.000	0.020	-0.127
-312.953	395.369	-0.094	0.195
-311.939	93.541	0.029	0.032
-310.924	-69.624	0.172	-0.065
-309.910	800.000	-0.024	0.077
-308.895	-200.000	-0.017	-0.110
-307.880	800.000	-0.047	0.147
-306.866	-200.000	-0.003	-0.065
-305.851	64.109	-0.116	-0.116
-304.837	763.538	0.040	0.107
-303.822	-77.483	0.402	-0.138
-302.807	-72.396	-0.392	0.144
-301.793	-151.421	-0.273	0.020
-300.778	-34.068	0.196	-0.107
-299.764	-127.736	0.148	0.021
-298.749	-200.000	0.031	0.232
-297.735	-200.000	0.025	0.318
-296.720	157.140	-0.198	-0.272
-295.705	-85.972	-0.279	0.085
-294.691	-36.435	-0.111	-0.059
-293.676	98.805	0.255	-0.292
-292.662	124.196	0.074	0.093
-291.647	29.392	0.284	-0.239
-290.632	-123.306	-0.204	0.032
-289.618	-44.829	0.171	-0.084
-288.603	-31.682	-0.056	-0.031
-287.589	-34.263	-0.158	0.086
-286.574	322.311	0.175	-0.329
-285.559	-92.161	-0.449	-0.126
-284.545	-172.419	-0.154	0.005
-283.530	24.815	0.074	-0.061
-282.516	124.304	0.197	0.245
-281.501	176.219	-0.020	0.028
-280.486	-114.842	-0.412	0.078
-279.472	397.552	0.083	0.172
-278.457	-117.443	0.240	-0.043
-277.443	-86.351	0.303	0.092
-276.428	131.929	0.121	-0.154
-275.413	100.302	0.043	-0.049
-274.399	-200.000	0.030	0.169
-273.384	-51.606	-0.089	-0.041
-272.370	127.508	-0.167	-0.210
-271.355	45.293	0.234	-0.214
-270.340	-144.308	-0.091	-0.008
-269.326	40.206	-0.153	0.136
-268.311	-181.508	0.318	-0.006
-267.297	800.000	0.106	-0.408
-266.282	800.000	-0.041	-0.136
-265.267	-4.810	0.136	-0.093
-264.253	-200.000	-0.038	-0.384
-263.238	270.521	-0.081	-0.141
-262.224	295.686	-0.173	0.313
-261.209	99.326	0.096	0.110
-260.195	195.545	0.231	0.347
-259.180	-119.324	-0.056	-0.010
-258.165	-129.932	0.088	0.012
-257.151	-200.000	-0.009	-0.335
-256.136	-87.575	0.183	0.055
-255.122	-85.765	-0.098	0.030
-254.107	98.584	0.250	-0.285
-253.092	-47.567	-0.113	0.054
-252.078	-117.956	0.185	-0.033
-251.063	-42.066	0.194	-0.098
-250.049	291.660	0.045	0.081
-249.034	745.011	0.075	-0.198
-248.019	-177.858	0.459	-0.011
-247.005	39.794	0.250	-0.221
-245.990	1.489	0.115	-0.082
-244.976	60.959	-0.097	0.096
-243.961	7.025	0.233	0.172
-242.946	246.581	0.161	-0.268
-241.932	800.000	-0.076	-0.235
-240.917	800.000	-0.026	0.088
-239.903	-200.000	0.042	-0.275
-238.888	-200.000	-0.036	-0.168
-237.873	382.285	0.129	-0.262
-236.859	88.717	0.245	0.269
-235.844	570.394	0.035	-0.085
-234.830	-200.000	-0.031	0.253
-233.815	800.000	0.041	0.158
-232.800	-200.000	0.021	-0.128
-231.786	800.000	0.046	0.191
-230.771	32.579	0.216	0.185
-229.757	103.005	-0.041	-0.047
-228.742	-52.158	0.148	-0.068
-227.727	29.297	-0.275	-0.231
-226.713	560.695	-0.119	-0.283
-225.698	-200.000	0.019	0.196
-224.684	800.000	-0.056	-0.215
-223.669	-200.000	-0.012	0.068
-222.655	-129.689	-0.114	-0.016
-221.640	800.000	0.080	-0.278
-220.625	475.538	-0.085	-0.189
-219.611	164.323	0.272	0.378
-218.596	4.099	0.275	-0.199
-217.582	149.333	-0.043	0.058
-216.567	-109.641	-0.214	-0.045
-215.552	-125.703	0.134	-0.020
-214.538	-78.374	0.177	0.060
-213.523	105.330	-0.086	0.101
-212.509	32.958	-0.145	0.124
-211.494	13.632	-0.120	-0.092
-210.479	-163.627	0.040	-0.002
-209.465	-75.700	-0.358	-0.126
-208.450	519.296	-0.079	-0.183
-207.436	296.573	-0.109	-0.197
-206.421	800.000	0.067	0.213
-205.406	800.000	0.061	0.236
-204.392	317.528	0.075	-0.141
-203.377	-96.178	0.161	0.042
-202.363	-128.874	-0.118	0.016
-201.348	-108.357	0.157	-0.033
-200.333	-200.000	0.024	0.371
-199.319	-36.541	-0.216	-0.115
-198.304	117.972	-0.084	-0.102
-197.290	252.429	-0.167	0.281
-196.275	-74.192	-0.075	-0.027
-195.260	-120.775	0.156	0.026
-194.246	-159.022	-0.160	0.009
-193.231	247.148	0.234	-0.390
-192.217	-200.000	0.001	0.036
-191.202	112.163	-0.199	-0.237
-190.187	-95.290	0.155	-0.041
-189.173	127.622	-0.088	-0.111
-188.158	30.687	0.126	-0.106
-187.144	-200.000	0.008	-0.063
-186.129	-200.000	-0.018	0.176
-185.114	-128.824	0.188	-0.026
-184.100	187.715	-0.077	-0.114
-183.085	217.892	0.043	-0.067
-182.071	-200.000	-0.019	0.345
-181.056	-61.743	0.059	0.025
-180.042	-107.262	0.328	0.071
-179.027	-31.457	-0.163	0.090
-178.012	90.075	-0.068	-0.075
-176.998	18.475	-0.227	-0.179
-175.983	27.268	0.162	-0.134
-174.969	-66.489	-0.472	-0.185
-173.954	-76.379	-0.211	-0.073
-172.939	-106.846	0.364	-0.080
-171.925	645.053	0.074	-0.186
-170.910	60.272	0.227	-0.221
-169.896	-93.474	0.312	0.085
-168.881	-79.318	0.239	0.080
-167.866	495.743	0.116	0.263
-166.852	-104.156	-0.387	0.089
-165.837	39.564	-0.193	0.170
-164.823	-81.901	-0.094	-0.030
-163.808	160.558	-0.125	-0.172
-162.793	-63.567	-0.047	0.019
-161.779	800.000	-0.053	0.197
-160.764	-200.000	-0.010	0.086
-159.750	135.708	-0.132	-0.169
-158.735	-107.276	0.167	0.036
-157.720	141.083	-0.146	-0.190
-156.706	-0.025	-0.190	0.134
-155.691	-200.000	0.047	0.245
-154.677	-144.746	-0.135	0.012
-153.662	-47.137	0.389	-0.187
-152.647	-200.000	-0.074	-0.346
-151.633	81.629	0.290	-0.309
-150.618	209.664	-0.140	0.215
-149.604	-63.814	-0.081	-0.033
-148.589	-151.192	0.101	-0.007
-147.574	-120.399	0.166	-0.028
-146.560	758.764	0.082	0.220
-145.545	87.647	0.162	-0.177
-144.531	800.000	-0.075	0.277
-143.516	108.574	-0.146	0.172
-142.502	43.268	0.114	-0.102
-141.487	510.285	0.075	-0.171
-140.472	-181.803	-0.288	0.005
-139.458	-200.000	0.030	0.421
-138.443	69.334	-0.265	0.269
-137.429	800.000	-0.061	0.207
-136.414	-4.305	0.202	0.137
-135.399	393.245	-0.134	0.275
-134.385	25.147	-0.163	0.133
-133.370	-103.316	-0.094	0.022
-132.356	800.000	0.077	0.220
-131.341	259.763	0.049	0.084
-130.326	-44.929	-0.133	0.065
-129.312	800.000	-0.066	-0.231
-128.297	-111.545	0.139	-0.028
-127.283	800.000	0.025	-0.076
-126.268	-23.910	-0.248	-0.146
-125.253	-121.901	0.195	-0.032
-124.239	-108.419	-0.196	0.042
-123.224	82.251	0.188	0.201
-122.210	-151.177	0.078	0.006
