DTS Sentinel unit serial number:	SN413079Multiplexer serial number:	ORYXHardware model number:	OX4-SRSoftware version number:	ORYX F/W v4.00 Oryx Data Collector v3.7.2.0data status	okinstallation	princeton_trtdifferential loss correction	single-endedforward channel	channel 3reverse channel	N/Adate	2019/09/17time	02:08:35forward acquisition time	60.00reverse acquisition time	0.00gamma	496.2192k internal	0.2324k external	0.2324temperature offset calibration	0.9942default loss term (dB/km)	0.3790temperature slope calibration	1.0000multiplexer offset coefficient	1.0000multiplexer slope coefficient	1.0000fibre end	0.00T internal ref (°C)	29.69T ext. ref 1 (°C)	0.13T ext. ref 2 (°C)	24.60length (m)	temperature (°C)	Stokes	anti-Stokes-747.200	705.030	0.062	0.166
-746.185	197.040	0.154	0.238
-745.171	-200.000	0.028	0.204
-744.156	800.000	-0.056	0.225
-743.142	239.988	0.055	0.092
-742.127	-200.000	-0.008	-0.144
-741.112	-90.376	0.498	0.146
-740.098	800.000	-0.037	0.141
-739.083	303.191	-0.058	-0.108
-738.069	-31.401	0.072	-0.041
-737.054	644.856	0.119	0.307
-736.039	-15.950	-0.281	-0.180
-735.025	-126.688	0.259	0.039
-734.010	-148.757	-0.309	-0.025
-732.996	-56.023	-0.177	-0.080
-731.981	135.595	0.185	0.243
-730.966	-200.000	0.071	0.379
-729.952	-2.109	-0.169	0.119
-728.937	-95.248	0.136	-0.037
-727.923	-200.000	0.024	0.169
-726.908	28.753	-0.188	0.161
-725.894	168.086	0.112	-0.161
-724.879	311.773	-0.210	0.398
-723.864	-131.819	0.091	-0.012
-722.850	-37.245	-0.230	0.124
-721.835	-200.000	0.053	0.353
-720.821	-200.000	-0.011	-0.146
-719.806	15.714	0.050	-0.040
-718.791	800.000	0.050	-0.147
-717.777	-2.862	-0.132	-0.093
-716.762	50.477	-0.061	-0.058
-715.748	492.874	-0.049	-0.114
-714.733	800.000	-0.072	-0.245
-713.718	800.000	0.032	-0.125
-712.704	328.690	0.069	0.133
-711.689	63.362	0.143	0.144
-710.675	634.113	-0.033	-0.085
-709.660	800.000	0.121	-0.350
-708.645	539.650	-0.060	0.145
-707.631	354.383	-0.069	0.139
-706.616	800.000	0.058	0.183
-705.602	-127.079	-0.075	0.011
-704.587	800.000	0.053	0.195
-703.572	521.425	0.079	0.186
-702.558	-74.835	0.180	0.065
-701.543	69.942	-0.319	-0.332
-700.529	-165.584	-0.075	0.003
-699.514	113.170	-0.148	0.181
-698.499	12.628	0.259	-0.202
-697.485	-33.542	-0.228	-0.127
-696.470	-200.000	-0.036	0.162
-695.456	760.520	-0.046	-0.125
-694.441	-47.494	-0.423	-0.207
-693.426	-142.181	0.142	-0.014
-692.412	800.000	-0.109	-0.413
-691.397	800.000	-0.128	-0.390
-690.383	-73.985	0.240	-0.088
-689.368	800.000	0.062	-0.258
-688.354	111.625	-0.075	0.091
-687.339	-200.000	-0.043	-0.312
-686.324	586.449	0.025	0.061
-685.310	85.556	0.107	0.118
-684.295	800.000	-0.047	0.162
-683.281	-150.073	-0.192	0.015
-682.266	3.684	-0.076	-0.056
-681.251	13.397	-0.061	0.048
-680.237	-200.000	0.270	-0.001
-679.222	-19.276	-0.149	-0.093
-678.208	189.442	-0.218	-0.328
-677.193	-200.000	0.030	-0.346
-676.178	162.777	0.113	-0.160
-675.164	-26.949	-0.053	0.031
-674.149	-81.483	-0.411	-0.136
-673.135	-200.000	0.027	-0.380
-672.120	124.186	0.107	0.135
-671.105	-91.281	-0.221	0.064
-670.091	-181.081	-0.243	-0.005
-669.076	-170.932	-0.165	0.006
-668.062	5.695	-0.293	-0.218
-667.047	-173.193	0.032	-0.001
-666.032	-77.084	-0.131	-0.046
-665.018	-80.707	0.198	0.066
-664.003	-58.894	-0.234	-0.102
-662.989	-134.932	-0.315	-0.038
-661.974	8.992	0.208	-0.158
-660.959	-200.000	-0.070	-0.364
-659.945	115.002	-0.076	-0.094
-658.930	-200.000	0.008	-0.146
-657.916	-23.204	-0.245	-0.148
-656.901	-161.711	0.433	-0.022
-655.886	-169.977	-0.273	0.010
-654.872	-200.000	-0.018	-0.155
-653.857	97.034	0.129	-0.149
-652.843	800.000	0.103	-0.414
-651.828	16.065	-0.121	0.096
-650.814	100.653	0.150	0.175
-649.799	-135.525	0.058	0.007
-648.784	-132.431	0.190	-0.025
-647.770	321.426	-0.178	-0.341
-646.755	66.274	0.164	0.168
-645.741	-200.000	0.030	-0.149
-644.726	265.495	-0.060	-0.106
-643.711	-200.000	-0.029	-0.157
-642.697	-200.000	0.031	0.244
-641.682	24.662	-0.143	-0.119
-640.668	-138.210	0.161	-0.018
-639.653	324.873	-0.054	-0.105
-638.638	-200.000	0.007	0.084
-637.624	716.953	0.048	-0.128
-636.609	-99.263	-0.093	0.024
-635.595	-44.863	0.468	-0.235
-634.580	-200.000	0.036	0.164
-633.565	-200.000	-0.015	-0.107
-632.551	-70.214	0.160	0.061
-631.536	744.796	-0.083	0.225
-630.522	-4.190	-0.056	-0.039
-629.507	-83.823	0.314	0.101
-628.492	430.053	-0.114	0.249
-627.478	5.687	-0.131	0.098
-626.463	-200.000	-0.113	0.614
-625.449	800.000	-0.047	0.140
-624.434	388.983	-0.031	-0.065
-623.419	-144.022	0.086	-0.008
-622.405	324.930	-0.030	-0.057
-621.390	-200.000	0.002	-0.347
-620.376	-156.768	-0.051	0.003
-619.361	-9.610	-0.120	0.081
-618.346	16.417	0.186	-0.148
-617.332	88.637	0.161	0.180
-616.317	800.000	0.049	0.177
-615.303	-70.558	-0.357	0.136
-614.288	-200.000	-0.002	-0.088
-613.273	800.000	0.073	0.312
-612.259	367.433	0.201	0.407
-611.244	36.313	-0.123	0.109
-610.230	-37.440	-0.058	-0.031
-609.215	-110.178	-0.250	-0.052
-608.201	294.001	-0.085	0.157
-607.186	-63.176	-0.389	0.161
-606.171	-13.589	0.322	0.209
-605.157	-36.879	0.086	0.047
-604.142	-0.773	-0.166	-0.118
-603.128	117.122	-0.085	-0.105
-602.113	-200.000	-0.003	0.044
-601.098	-74.921	0.098	-0.035
-600.084	-70.439	0.218	-0.083
-599.069	-140.168	-0.203	-0.021
-598.055	353.371	0.055	0.109
-597.040	-200.000	-0.015	0.392
-596.025	74.269	0.084	0.088
-595.011	-147.651	0.074	-0.006
-593.996	-81.859	0.129	-0.042
-592.982	-122.452	0.318	-0.052
-591.967	-145.145	0.224	-0.020
-590.952	766.586	0.083	-0.225
-589.938	-89.895	-0.275	0.081
-588.923	-114.852	-0.299	0.057
-587.909	800.000	-0.049	0.135
-586.894	-141.245	0.224	0.023
-585.879	208.693	0.042	-0.066
-584.865	786.428	0.091	0.251
-583.850	-19.215	0.365	0.227
-582.836	800.000	0.030	0.118
-581.821	93.518	-0.098	0.112
-580.806	800.000	-0.139	-0.415
-579.792	246.137	0.194	0.329
-578.777	-24.904	-0.333	0.198
-577.763	-142.675	-0.267	-0.026
-576.748	-22.144	-0.206	0.125
-575.733	1.864	0.263	0.190
-574.719	59.747	-0.273	-0.270
-573.704	-46.441	-0.145	-0.071
-572.690	233.301	0.144	0.237
-571.675	-73.416	0.209	-0.077
-570.661	-147.953	-0.218	-0.018
-569.646	-152.030	0.126	0.009
-568.631	27.345	-0.180	-0.152
-567.617	-200.000	0.001	-0.244
-566.602	-16.161	-0.102	-0.065
-565.588	181.561	0.131	0.193
-564.573	-33.827	0.293	0.162
-563.558	69.542	0.147	-0.152
-562.544	19.494	-0.247	0.199
-561.529	800.000	-0.034	0.120
-560.515	-11.734	-0.189	-0.124
-559.500	-148.741	0.090	0.007
-558.485	800.000	0.023	0.067
-557.471	150.313	-0.283	0.386
-556.456	677.727	0.027	-0.070
-555.442	-52.126	-0.029	0.014
-554.427	-76.162	-0.025	0.009
-553.412	-125.152	-0.149	0.023
-552.398	256.234	-0.182	-0.313
-551.383	-11.033	-0.248	-0.164
-550.369	800.000	0.073	0.280
-549.354	290.013	0.022	0.040
-548.339	417.434	0.090	-0.192
-547.325	112.159	-0.196	0.237
-546.310	-97.087	-0.035	0.009
-545.296	258.939	0.193	-0.333
-544.281	800.000	-0.115	-0.475
-543.266	-39.830	0.233	-0.122
-542.252	-155.936	-0.121	-0.008
-541.237	39.010	-0.144	-0.129
-540.223	478.773	-0.052	0.117
-539.208	116.636	-0.086	0.106
-538.193	-30.888	0.136	0.077
-537.179	-200.000	0.051	0.330
-536.164	-67.498	-0.199	0.078
-535.150	-46.401	-0.198	0.097
-534.135	137.422	0.299	-0.391
-533.121	-200.000	-0.015	0.210
-532.106	103.598	-0.165	-0.194
-531.091	429.558	0.047	0.101
-530.077	-130.122	0.228	0.031
-529.062	41.361	-0.154	0.139
-528.048	-67.770	-0.261	0.102
-527.033	42.892	0.374	-0.341
-526.018	2.924	0.003	0.002
-525.004	-134.409	-0.066	0.008
-523.989	156.446	-0.129	-0.179
-522.975	509.310	0.053	-0.122
-521.960	76.402	-0.214	-0.227
-520.945	120.054	-0.175	-0.218
-519.931	-43.261	0.151	0.076
-518.916	-119.364	-0.323	-0.056
-517.902	45.544	0.221	-0.204
-516.887	-141.842	0.164	-0.016
-515.872	-200.000	-0.180	0.000
-514.858	-89.892	-0.209	-0.061
-513.843	175.073	0.093	0.135
-512.829	-120.642	-0.493	0.084
-511.814	39.547	0.063	0.057
-510.799	-41.473	0.417	0.215
-509.785	40.491	-0.133	0.120
-508.770	-5.807	-0.277	-0.190
-507.756	-111.107	0.103	-0.021
-506.741	-110.410	0.258	-0.053
-505.726	-52.074	0.025	0.012
-504.712	136.778	-0.037	-0.048
-503.697	723.789	-0.022	-0.060
-502.683	31.706	0.054	-0.047
-501.668	189.071	0.129	0.193
-500.653	78.725	0.125	0.134
-499.639	800.000	0.112	-0.441
-498.624	-89.726	0.186	-0.055
-497.610	207.575	-0.133	-0.207
-496.595	-68.588	-0.036	0.014
-495.581	-131.359	-0.254	-0.034
-494.566	-3.704	0.215	-0.149
-493.551	-180.224	0.254	-0.005
-492.537	-65.234	0.523	-0.211
-491.522	115.754	0.172	-0.211
-490.508	-135.515	0.071	-0.008
-489.493	477.493	0.102	-0.231
-488.478	-105.878	-0.426	0.096
-487.464	556.827	-0.097	0.235
-486.449	47.215	0.094	-0.087
-485.435	245.026	0.114	-0.192
-484.420	-0.544	-0.012	-0.009
-483.405	154.846	0.137	-0.189
-482.391	182.716	0.260	-0.383
-481.376	800.000	0.052	0.215
-480.362	246.604	-0.134	-0.226
-479.347	-63.477	-0.285	-0.117
-478.332	-101.739	-0.306	0.074
-477.318	-115.843	-0.252	0.047
-476.303	527.157	-0.170	0.399
-475.289	-37.650	-0.249	-0.132
-474.274	800.000	-0.070	0.255
-473.259	121.480	0.044	0.054
-472.245	-14.886	-0.191	0.122
-471.230	-196.277	-0.303	0.002
-470.216	-58.299	0.312	0.135
-469.201	-200.000	-0.011	0.332
-468.186	-77.778	-0.123	0.042
-467.172	800.000	-0.102	-0.300
-466.157	800.000	0.041	-0.171
-465.143	38.266	0.209	0.186
-464.128	156.283	-0.156	0.215
-463.113	28.945	-0.083	0.070
-462.099	100.385	0.065	0.075
-461.084	45.161	0.095	0.087
-460.070	-200.000	0.027	-0.288
-459.055	1.882	-0.078	-0.056
-458.040	204.627	-0.104	0.160
-457.026	92.813	0.207	0.234
-456.011	89.424	-0.147	0.163
-454.997	458.470	-0.083	0.183
-453.982	-140.837	-0.254	0.026
-452.968	644.659	0.036	0.091
-451.953	-51.904	-0.162	-0.075
-450.938	122.083	0.067	0.083
-449.924	800.000	0.058	-0.239
-448.909	125.741	-0.206	-0.260
-447.895	-200.000	0.028	0.292
-446.880	-80.706	-0.118	0.039
-445.865	-158.984	-0.226	0.013
-444.851	-200.000	-0.047	0.413
-443.836	316.340	-0.081	-0.152
-442.822	2.069	0.299	-0.216
-441.807	-11.494	0.249	-0.163
-440.792	78.304	-0.164	0.175
-439.778	45.718	0.210	0.193
-438.763	800.000	0.070	-0.277
-437.749	-200.000	0.012	0.217
-436.734	-111.092	0.253	-0.052
-435.719	-200.000	-0.005	-0.151
-434.705	-169.038	-0.239	-0.009
-433.690	-98.748	0.098	0.025
-432.676	91.283	0.139	0.155
-431.661	426.534	0.161	-0.345
-430.646	289.716	-0.027	-0.049
-429.632	800.000	-0.063	0.191
-428.617	-200.000	-0.002	0.087
-427.603	800.000	0.079	0.230
-426.588	-200.000	-0.011	-0.161
-425.573	-189.126	-0.296	-0.004
-424.559	-200.000	0.003	-0.053
-423.544	-165.447	-0.200	-0.009
-422.530	800.000	-0.099	0.403
-421.515	-38.603	0.215	-0.113
-420.500	366.094	-0.219	0.441
-419.486	-200.000	0.265	-0.001
-418.471	-121.240	-0.106	0.018
-417.457	-122.592	0.272	-0.044
-416.442	18.169	0.219	0.174
-415.428	-200.000	0.063	0.316
-414.413	-131.064	0.156	-0.021
-413.398	800.000	-0.063	-0.206
-412.384	-38.183	-0.241	0.127
-411.369	51.946	0.149	0.141
-410.355	70.515	0.146	0.151
-409.340	800.000	-0.031	-0.115
-408.325	-37.019	-0.037	-0.020
-407.311	34.363	0.177	-0.154
-406.296	555.193	0.044	0.105
-405.282	73.850	-0.031	-0.032
-404.267	387.320	-0.078	-0.161
-403.252	-200.000	-0.033	-0.260
-402.238	-52.278	0.487	-0.225
-401.223	-12.939	0.387	0.251
-400.209	170.270	-0.144	-0.205
-399.194	662.879	-0.083	-0.213
-398.179	800.000	-0.041	-0.124
-397.165	127.250	0.195	-0.247
-396.150	25.471	-0.073	-0.060
-395.136	45.466	0.205	-0.189
-394.121	-11.652	0.112	-0.074
-393.106	-58.499	-0.226	-0.098
-392.092	-63.698	0.215	-0.088
-391.077	675.007	-0.203	-0.524
-390.063	34.103	0.260	0.226
-389.048	-200.000	-0.040	-0.260
-388.033	-128.569	0.402	-0.057
-387.019	52.962	-0.033	-0.032
-386.004	11.711	-0.245	-0.187
-384.990	-43.226	-0.078	0.039
-383.975	-177.597	0.312	-0.008
-382.960	241.259	-0.108	-0.179
-381.946	-24.226	-0.147	0.087
-380.931	-78.136	0.320	-0.110
-379.917	131.594	-0.065	-0.083
-378.902	-7.938	0.126	-0.084
-377.888	-124.601	0.070	0.011
-376.873	-112.031	-0.204	0.041
-375.858	368.930	-0.059	-0.118
-374.844	436.185	0.054	-0.117
-373.829	54.780	0.163	0.157
-372.815	-149.178	-0.131	0.010
-371.800	52.720	-0.114	0.108
-370.785	-103.410	-0.107	-0.025
-369.771	457.183	-0.120	-0.266
-368.756	53.566	0.130	-0.124
-367.742	-200.000	0.038	-0.223
-366.727	35.218	-0.030	-0.026
-365.712	278.075	0.148	-0.261
-364.698	155.126	0.124	0.170
-363.683	0.925	0.117	-0.084
-362.669	129.141	0.132	-0.168
-361.654	800.000	-0.095	0.345
-360.639	800.000	0.113	-0.339
-359.625	69.445	-0.107	0.110
-358.610	-34.626	0.311	-0.169
-357.596	7.300	-0.010	-0.007
-356.581	91.156	-0.123	0.137
-355.566	-200.000	-0.241	0.000
-354.552	239.780	-0.049	-0.081
-353.537	-76.150	0.304	0.107
-352.523	76.053	-0.184	-0.193
-351.508	127.555	-0.176	0.223
-350.493	85.927	0.130	-0.142
-349.479	45.637	0.069	0.063
-348.464	310.347	-0.179	0.334
-347.450	28.463	0.244	0.205
-346.435	427.291	0.064	0.137
-345.420	90.654	-0.157	0.175
-344.406	262.490	-0.205	-0.354
-343.391	-94.239	0.424	-0.115
-342.377	-7.385	-0.174	-0.117
-341.362	65.658	-0.227	-0.229
-340.348	41.799	0.078	0.070
-339.333	505.300	0.098	-0.226
-338.318	-103.731	-0.166	0.039
-337.304	-161.610	0.405	0.021
-336.289	800.000	-0.019	0.066
-335.275	-28.918	0.178	-0.102
-334.260	291.883	-0.146	-0.264
-333.245	-115.235	0.295	0.055
-332.231	-34.338	0.223	-0.121
-331.216	85.883	-0.260	0.284
-330.202	114.102	0.299	0.361
-329.187	800.000	-0.043	-0.189
-328.172	32.794	-0.415	-0.356
-327.158	-103.465	-0.056	0.013
-326.143	690.773	0.074	0.193
-325.129	-63.057	-0.064	-0.026
-324.114	29.277	-0.243	0.205
-323.099	-139.682	0.119	0.013
-322.085	213.356	0.109	0.172
-321.070	-200.000	0.024	0.216
-320.056	800.000	-0.089	0.286
-319.041	72.490	0.151	-0.156
-318.026	-2.362	-0.051	-0.036
-317.012	24.842	-0.244	0.201
-315.997	-135.447	-0.329	-0.039
-314.983	59.275	-0.073	-0.071
-313.968	-200.000	-0.038	-0.195
-312.953	382.176	-0.050	0.101
-311.939	23.152	-0.100	-0.081
-310.924	-200.000	-0.016	0.193
-309.910	29.766	0.149	-0.126
-308.895	-200.000	-0.013	0.178
-307.880	373.284	0.074	0.149
-306.866	166.809	-0.082	0.116
-305.851	-200.000	0.072	0.325
-304.837	-200.000	-0.037	-0.170
-303.822	15.544	0.270	0.210
-302.807	107.107	-0.255	-0.301
-301.793	-80.309	0.261	0.087
-300.778	260.536	-0.113	-0.193
-299.764	-107.269	-0.194	0.042
-298.749	170.766	-0.078	0.111
-297.735	22.911	-0.093	0.076
-296.720	248.102	-0.134	0.224
-295.705	-200.000	0.024	-0.446
-294.691	-25.562	0.053	-0.031
-293.676	189.937	0.182	-0.270
-292.662	-120.700	-0.038	0.006
-291.647	-161.682	0.078	-0.004
-290.632	10.082	-0.139	0.105
-289.618	5.441	-0.243	-0.178
-288.603	-186.978	-0.107	-0.001
-287.589	-200.000	0.037	-0.186
-286.574	-132.530	0.055	-0.007
-285.559	444.031	0.090	-0.196
-284.545	-69.415	0.244	0.093
-283.530	95.296	-0.093	-0.105
-282.516	-49.125	0.219	-0.104
-281.501	170.047	-0.046	0.065
-280.486	792.319	-0.077	-0.211
-279.472	-117.499	0.021	-0.004
-278.457	114.710	-0.054	-0.065
-277.443	800.000	0.073	0.250
-276.428	387.121	-0.087	0.178
-275.413	240.999	-0.064	-0.105
-274.399	-140.399	0.344	-0.036
-273.384	-200.000	-0.027	0.357
-272.370	142.126	-0.141	0.185
-271.355	-167.794	-0.325	-0.013
-270.340	-14.559	0.030	0.019
-269.326	800.000	0.090	0.304
-268.311	-200.000	0.002	0.036
-267.297	-12.818	-0.142	0.092
-266.282	437.160	-0.095	-0.206
-265.267	-68.019	0.093	-0.036
-264.253	-200.000	-0.007	-0.086
-263.238	-200.000	-0.028	-0.218
-262.224	21.361	-0.017	0.013
-261.209	-200.000	-0.064	-0.301
-260.195	-96.554	-0.098	-0.025
-259.180	-9.847	-0.100	0.066
-258.165	429.404	0.073	-0.156
-257.151	-161.369	0.211	-0.011
-256.136	-63.608	-0.124	-0.050
-255.122	-86.653	-0.269	-0.082
-254.107	-149.773	0.370	0.029
-253.092	-72.904	-0.104	-0.038
-252.078	135.368	-0.066	0.084
-251.063	-71.322	-0.138	-0.051
-250.049	-119.477	-0.225	-0.039
-249.034	-120.903	-0.061	-0.010
-248.019	309.627	-0.136	-0.251
-247.005	-71.575	-0.156	0.058
-245.990	361.257	0.116	-0.229
-244.976	60.669	0.116	-0.114
-243.961	-45.464	-0.148	0.073
-242.946	176.154	-0.070	-0.100
-241.932	-200.000	0.063	-0.371
-240.917	800.000	-0.092	0.279
-239.903	73.537	0.072	-0.075
-238.888	280.295	-0.184	0.326
-237.873	69.414	0.269	0.274
-236.859	188.670	0.086	-0.127
-235.844	-200.000	-0.025	-0.286
-234.830	128.160	-0.097	0.122
-233.815	94.072	0.173	0.194
-232.800	84.925	-0.077	0.084
-231.786	246.501	-0.181	0.303
-230.771	66.440	-0.088	-0.089
-229.757	-25.639	0.099	-0.058
-228.742	-149.441	0.236	-0.018
-227.727	-72.576	-0.063	0.023
-226.713	800.000	0.055	-0.174
-225.698	-42.668	0.168	-0.085
-224.684	800.000	-0.045	-0.142
-223.669	-105.297	-0.439	-0.099
-222.655	-117.204	0.230	0.041
-221.640	152.473	0.189	-0.256
-220.625	391.879	0.019	0.039
-219.611	-7.291	0.215	-0.144
-218.596	-65.605	-0.316	-0.125
-217.582	-105.658	0.281	0.063
-216.567	44.898	0.121	-0.110
-215.552	144.552	0.127	0.168
-214.538	76.200	-0.083	-0.087
-213.523	-200.000	0.037	0.221
-212.509	-6.929	-0.256	-0.172
-211.494	-200.000	-0.052	0.279
-210.479	34.163	0.233	-0.201
-209.465	482.005	-0.061	0.137
-208.450	135.440	-0.060	-0.077
-207.436	-52.143	-0.190	0.087
-206.421	-84.772	0.111	-0.035
-205.406	-200.000	-0.011	0.348
-204.392	-111.252	0.232	-0.047
-203.377	-11.044	-0.281	0.183
-202.363	24.539	0.196	0.160
-201.348	-22.511	0.174	-0.104
-200.333	0.597	-0.289	-0.204
-199.319	17.797	-0.249	-0.196
-198.304	19.912	-0.122	-0.097
-197.290	57.722	-0.189	0.182
-196.275	-122.400	0.048	0.008
-195.260	236.969	-0.100	-0.164
-194.246	313.225	0.141	0.262
-193.231	495.400	0.119	0.269
-192.217	-12.408	-0.189	0.122
-191.202	42.102	0.110	-0.098
-190.187	-142.279	0.071	-0.007
-189.173	800.000	0.024	0.099
-188.158	670.621	-0.068	-0.174
-187.144	-174.437	0.267	0.008
-186.129	800.000	-0.015	0.043
-185.114	139.225	-0.116	0.151
-184.100	-200.000	-0.009	0.202
-183.085	148.964	0.051	-0.068
-182.071	-200.000	0.033	0.173
-181.056	-25.878	0.224	0.131
-180.042	619.153	-0.163	-0.405
-179.027	-200.000	0.023	0.108
-178.012	-143.760	-0.104	-0.010
-176.998	14.103	-0.067	-0.051
-175.983	800.000	0.088	0.309
-174.969	-87.110	0.223	-0.067
-173.954	24.199	-0.161	0.131
-172.939	800.000	0.091	-0.303
-171.925	-187.820	-0.192	-0.002
-170.910	90.513	0.043	-0.048
-169.896	96.041	-0.072	-0.082
-168.881	-72.321	0.111	0.040
-167.866	-47.679	0.126	0.060
-166.852	329.467	0.098	0.186
-165.837	202.316	-0.063	0.095
-164.823	-180.991	0.306	-0.006
-163.808	56.637	-0.197	-0.189
-162.793	75.462	-0.121	-0.126
-161.779	-200.000	0.019	-0.141
-160.764	-179.557	0.255	0.005
-159.750	218.362	0.090	-0.142
-158.735	-200.000	-0.029	0.223
-157.720	800.000	-0.072	-0.276
-156.706	39.974	-0.137	0.121
-155.691	-125.519	0.299	0.045
-154.677	47.729	0.223	-0.205
-153.662	349.389	0.255	0.498
-152.647	-55.355	-0.280	0.124
-151.633	800.000	-0.092	0.317
-150.618	-94.305	0.321	-0.087
-149.604	-7.797	-0.236	0.157
-148.589	40.189	0.059	0.052
-147.574	463.674	-0.074	0.163
-146.560	-200.000	0.028	0.258
-145.545	-6.546	-0.071	-0.048
-144.531	-200.000	0.028	0.158
-143.516	103.313	-0.116	0.134
-142.502	-74.409	0.453	-0.161
-141.487	-63.527	-0.069	0.028
-140.472	800.000	0.069	-0.221
-139.458	116.709	-0.214	-0.259
-138.443	-105.756	-0.460	0.102
-137.429	-158.198	0.398	-0.023
-136.414	800.000	0.053	-0.180
-135.399	604.879	0.048	-0.118
-134.385	1.905	-0.149	-0.106
-133.370	-60.835	0.227	-0.095
-132.356	-104.751	0.236	0.054
-131.341	28.575	-0.171	0.143
-130.326	60.904	0.108	-0.105
-129.312	506.823	-0.050	-0.115
-128.297	-106.324	-0.239	-0.053
-127.283	425.609	-0.052	-0.110
-126.268	-161.351	-0.151	0.008
-125.253	800.000	-0.042	0.146
-124.239	-33.612	-0.275	-0.150
-123.224	22.083	-0.110	0.088
-122.210	48.289	0.253	0.233
-121.195	377.485	0.133	0.268
