DTS Sentinel unit serial number:	SN413079Multiplexer serial number:	ORYXHardware model number:	OX4-SRSoftware version number:	ORYX F/W v4.00 Oryx Data Collector v3.7.2.0data status	okinstallation	princeton_trtdifferential loss correction	single-endedforward channel	channel 3reverse channel	N/Adate	2019/09/15time	17:28:35forward acquisition time	60.00reverse acquisition time	0.00gamma	496.2192k internal	0.2286k external	0.2286temperature offset calibration	0.9932default loss term (dB/km)	0.3790temperature slope calibration	1.0000multiplexer offset coefficient	1.0000multiplexer slope coefficient	1.0000fibre end	0.00T internal ref (°C)	44.81T ext. ref 1 (°C)	6.13T ext. ref 2 (°C)	40.51length (m)	temperature (°C)	Stokes	anti-Stokes-747.200	800.000	-0.076	0.237
-746.185	-102.479	0.315	-0.077
-745.171	-41.917	0.292	0.154
-744.156	-200.000	-0.051	0.416
-743.142	516.216	-0.173	0.416
-742.127	-200.000	-0.013	0.125
-741.112	800.000	0.086	0.308
-740.098	218.441	-0.191	0.314
-739.083	-200.000	-0.022	-0.208
-738.069	50.946	-0.243	0.236
-737.054	564.882	0.059	-0.146
-736.039	64.724	-0.131	-0.135
-735.025	-86.706	0.539	-0.169
-734.010	-126.526	0.400	0.061
-732.996	-138.384	-0.104	0.012
-731.981	-159.008	-0.295	0.017
-730.966	-52.808	-0.008	0.004
-729.952	-200.000	0.015	-0.175
-728.937	-85.659	0.053	-0.017
-727.923	385.247	0.078	0.165
-726.908	-119.498	0.177	0.031
-725.894	192.033	0.127	-0.196
-724.879	800.000	0.012	-0.053
-723.864	9.454	-0.190	0.148
-722.850	389.691	0.027	-0.057
-721.835	-58.937	0.188	0.083
-720.821	-200.000	-0.011	-0.114
-719.806	-34.440	-0.104	0.058
-718.791	-200.000	0.034	-0.208
-717.777	-200.000	-0.035	0.340
-716.762	800.000	0.087	-0.279
-715.748	56.924	-0.094	-0.094
-714.733	800.000	0.130	-0.411
-713.718	130.314	-0.223	-0.293
-712.704	-200.000	0.012	0.068
-711.689	-200.000	0.022	-0.245
-710.675	99.495	0.129	0.153
-709.660	8.921	0.226	-0.174
-708.645	-118.518	-0.326	0.059
-707.631	-23.210	-0.138	0.085
-706.616	-155.847	0.320	-0.021
-705.602	-136.851	0.071	-0.008
-704.587	-61.631	0.223	-0.096
-703.572	44.880	-0.160	0.150
-702.558	-113.579	0.044	0.009
-701.543	99.757	0.038	-0.045
-700.529	457.574	0.137	-0.311
-699.514	-57.424	0.244	-0.110
-698.499	-24.031	0.260	-0.159
-697.485	2.034	-0.354	0.262
-696.470	476.309	0.079	-0.182
-695.456	-200.000	-0.011	-0.406
-694.441	-58.995	0.185	-0.082
-693.426	-173.360	-0.167	0.005
-692.412	-41.421	0.166	0.088
-691.397	233.682	0.157	-0.265
-690.383	362.317	0.060	0.122
-689.368	19.320	-0.052	-0.042
-688.354	-84.782	0.392	-0.126
-687.339	-174.604	0.295	-0.009
-686.324	-36.386	-0.191	-0.105
-685.310	-38.379	0.152	0.082
-684.295	-93.343	-0.073	-0.021
-683.281	98.516	0.229	-0.271
-682.266	674.101	-0.085	-0.225
-681.251	-10.397	-0.376	0.255
-680.237	-137.851	-0.347	0.040
-679.222	-157.228	0.217	0.013
-678.208	-129.408	-0.155	0.022
-677.193	-128.959	-0.186	-0.027
-676.178	800.000	-0.012	0.034
-675.164	90.148	0.223	-0.255
-674.149	-35.445	-0.258	-0.144
-673.135	41.097	-0.310	0.286
-672.120	800.000	0.042	-0.181
-671.105	223.039	-0.058	0.096
-670.091	-178.596	-0.334	0.008
-669.076	-200.000	0.017	0.214
-668.062	26.092	0.216	-0.184
-667.047	36.259	-0.354	0.319
-666.032	161.901	-0.176	-0.252
-665.018	-200.000	0.014	-0.490
-664.003	3.815	0.349	-0.261
-662.989	-40.801	0.187	0.099
-661.974	-200.000	0.025	-0.184
-660.959	-35.862	-0.144	-0.080
-659.945	610.487	-0.077	-0.196
-658.930	-200.000	0.062	0.286
-657.916	800.000	-0.028	0.086
-656.901	-95.139	0.221	-0.061
-655.886	62.448	-0.152	-0.155
-654.872	255.813	0.038	-0.066
-653.857	58.253	-0.090	-0.090
-652.843	718.726	0.078	0.213
-651.828	37.619	-0.113	0.103
-650.814	-184.401	-0.378	0.006
-649.799	90.423	-0.194	0.222
-648.784	160.084	-0.192	-0.274
-647.770	19.580	0.359	0.295
-646.755	61.031	0.173	-0.176
-645.741	-200.000	-0.002	-0.158
-644.726	416.931	0.065	-0.142
-643.711	1.666	-0.170	0.125
-642.697	262.413	-0.024	0.043
-641.682	800.000	0.068	0.237
-640.668	121.666	0.041	0.052
-639.653	284.531	-0.141	0.259
-638.638	462.670	0.082	-0.186
-637.624	-200.000	0.115	-0.545
-636.609	21.348	-0.207	-0.172
-635.595	-105.833	-0.210	0.048
-634.580	-116.849	0.155	-0.029
-633.565	160.756	0.216	0.307
-632.551	-89.059	-0.022	0.007
-631.536	-200.000	-0.046	-0.222
-630.522	-91.794	0.461	-0.134
-629.507	800.000	-0.068	0.247
-628.492	-200.000	0.040	-0.203
-627.478	9.593	-0.274	0.212
-626.463	800.000	-0.062	0.247
-625.449	-200.000	0.039	-0.178
-624.434	-200.000	-0.037	-0.254
-623.419	40.538	0.055	-0.050
-622.405	-82.272	-0.078	-0.026
-621.390	-200.000	0.004	-0.187
-620.376	227.675	0.106	0.177
-619.361	425.360	-0.175	0.385
-618.346	-119.190	-0.043	-0.008
-617.332	-20.618	-0.158	-0.099
-616.317	415.374	-0.092	-0.201
-615.303	800.000	-0.011	0.046
-614.288	800.000	0.050	-0.156
-613.273	763.935	0.021	0.058
-612.259	800.000	-0.105	0.327
-611.244	-104.086	0.144	0.034
-610.230	91.973	0.120	0.138
-609.215	-104.293	-0.073	-0.017
-608.201	800.000	0.104	0.373
-607.186	-60.540	0.172	-0.074
-606.171	-105.459	0.387	-0.090
-605.157	141.318	-0.044	-0.059
-604.142	422.521	0.078	0.170
-603.128	29.842	-0.257	0.223
-602.113	491.507	-0.099	-0.231
-601.098	-91.600	-0.306	0.089
-600.084	784.386	-0.072	-0.200
-599.069	800.000	-0.036	-0.109
-598.055	-77.168	0.317	0.113
-597.040	-73.255	0.394	0.147
-596.025	800.000	-0.077	-0.292
-595.011	266.196	0.055	-0.098
-593.996	91.335	0.051	-0.059
-592.982	-118.641	0.304	-0.055
-591.967	-77.092	-0.200	-0.071
-590.952	75.671	-0.158	0.170
-589.938	-24.047	0.313	-0.191
-588.923	132.496	0.066	-0.086
-587.909	-2.986	-0.119	-0.085
-586.894	30.251	0.078	0.068
-585.879	-104.286	0.222	0.052
-584.865	-88.865	-0.319	-0.096
-583.850	32.532	-0.224	-0.198
-582.836	-167.604	-0.442	0.018
-581.821	-200.000	-0.028	0.330
-580.806	289.554	-0.140	0.260
-579.792	800.000	-0.014	-0.039
-578.777	800.000	-0.061	0.198
-577.763	142.309	-0.125	-0.170
-576.748	28.831	-0.149	-0.128
-575.733	-117.432	-0.132	0.024
-574.719	-81.819	0.040	0.013
-573.704	-200.000	0.011	0.138
-572.690	800.000	0.036	-0.158
-571.675	365.869	-0.057	-0.118
-570.661	7.592	0.107	-0.081
-569.646	536.274	0.154	-0.372
-568.631	-200.000	-0.012	-0.372
-567.617	138.150	0.040	0.054
-566.602	-32.153	0.072	0.041
-565.588	256.071	0.065	0.114
-564.573	-71.552	-0.118	0.045
-563.558	800.000	0.058	0.181
-562.544	-111.419	-0.164	-0.034
-561.529	-152.573	0.119	-0.009
-560.515	417.468	0.102	0.223
-559.500	-21.360	0.128	0.079
-558.485	800.000	-0.068	0.225
-557.471	-148.669	-0.172	-0.014
-556.456	-108.473	-0.374	0.082
-555.442	-200.000	0.065	0.303
-554.427	560.640	0.046	0.113
-553.412	124.437	-0.139	0.178
-552.398	95.364	0.120	0.140
-551.383	116.743	0.095	0.119
-550.369	-200.000	-0.000	-0.314
-549.354	58.573	-0.107	0.107
-548.339	-200.000	-0.007	0.219
-547.325	800.000	-0.100	0.396
-546.310	109.305	0.244	-0.298
-545.296	-140.285	0.400	0.043
-544.281	296.493	0.055	0.102
-543.266	-200.000	0.013	0.264
-542.252	197.650	0.183	0.284
-541.237	-6.752	-0.231	0.160
-540.223	-132.446	-0.114	0.015
-539.208	61.365	0.140	0.141
-538.193	15.857	0.095	0.076
-537.179	-27.184	-0.257	0.152
-536.164	-101.271	0.348	0.087
-535.150	312.742	0.081	0.155
-534.135	126.967	-0.112	0.144
-533.121	93.427	-0.156	-0.179
-532.106	414.428	-0.044	-0.094
-531.091	-64.837	0.315	-0.130
-530.077	9.575	-0.140	-0.108
-529.062	-200.000	-0.009	0.112
-528.048	415.357	-0.091	-0.198
-527.033	642.280	0.147	-0.380
-526.018	-200.000	0.030	-0.216
-525.004	-18.192	0.120	-0.076
-523.989	-82.473	-0.179	-0.059
-522.975	-200.000	-0.046	-0.250
-521.960	31.592	-0.018	-0.016
-520.945	-183.265	-0.045	-0.001
-519.931	142.731	-0.205	-0.277
-518.916	90.953	0.079	0.090
-517.902	800.000	-0.063	-0.214
-516.887	200.286	-0.097	-0.152
-515.872	-62.316	-0.262	0.111
-514.858	800.000	0.054	-0.154
-513.843	-10.643	0.178	-0.120
-512.829	-70.801	0.100	-0.039
-511.814	-200.000	-0.000	-0.250
-510.799	800.000	0.026	0.075
-509.785	800.000	0.015	-0.057
-508.770	287.710	0.116	-0.212
-507.756	134.420	-0.054	-0.071
-506.741	-200.000	0.004	0.040
-505.726	800.000	0.039	0.109
-504.712	-200.000	0.004	-0.086
-503.697	385.594	-0.042	-0.088
-502.683	26.029	-0.198	-0.168
-501.668	-83.206	0.303	0.099
-500.653	288.494	-0.118	-0.217
-499.639	-60.004	-0.249	0.108
-498.624	-200.000	-0.023	0.303
-497.610	114.596	-0.075	-0.092
-496.595	114.280	-0.088	0.108
-495.581	140.928	0.146	0.196
-494.566	-123.597	-0.389	0.063
-493.551	30.466	0.134	-0.117
-492.537	-45.207	0.318	0.161
-491.522	-121.172	0.177	-0.030
-490.508	-70.502	0.212	-0.082
-489.493	-39.114	0.172	-0.092
-488.478	800.000	0.105	-0.327
-487.464	-40.986	-0.227	0.119
-486.449	428.223	-0.093	-0.204
-485.435	-127.952	0.231	0.034
-484.420	800.000	-0.111	-0.404
-483.405	-86.231	-0.180	-0.056
-482.391	78.759	-0.130	-0.141
-481.376	-85.071	0.289	-0.092
-480.362	-82.522	-0.167	-0.055
-479.347	-200.000	0.030	-0.138
-478.332	-200.000	0.064	0.311
-477.318	-123.920	-0.426	0.068
-476.303	-41.756	0.265	-0.138
-475.289	56.711	-0.072	0.071
-474.274	25.642	0.220	0.186
-473.259	-79.310	0.243	-0.084
-472.245	-101.765	-0.181	-0.045
-471.230	-93.713	-0.387	-0.108
-470.216	-200.000	0.004	0.196
-469.201	99.981	0.202	0.237
-468.186	800.000	-0.019	0.069
-467.172	182.000	-0.093	-0.140
-466.157	-24.618	0.088	-0.053
-465.143	800.000	0.029	0.096
-464.128	-8.330	-0.094	0.064
-463.113	-15.814	0.217	-0.140
-462.099	108.774	0.051	-0.061
-461.084	15.937	-0.044	0.035
-460.070	23.526	-0.043	0.036
-459.055	-24.571	0.083	-0.050
-458.040	550.572	-0.040	0.097
-457.026	-12.779	-0.020	0.013
-456.011	91.353	-0.226	-0.257
-454.997	-200.000	0.045	0.524
-453.982	156.342	0.036	-0.050
-452.968	-131.648	0.330	-0.044
-451.953	775.070	0.127	0.352
-450.938	-200.000	0.017	0.103
-449.924	800.000	-0.101	-0.369
-448.909	170.153	-0.158	-0.230
-447.895	277.731	0.158	-0.285
-446.880	-97.898	0.327	0.086
-445.865	-58.845	0.355	-0.156
-444.851	-176.443	-0.223	-0.006
-443.836	-200.000	0.003	0.038
-442.822	717.094	-0.070	-0.188
-441.807	-138.744	-0.263	0.029
-440.792	800.000	-0.073	0.273
-439.778	77.046	0.192	0.206
-438.763	-35.116	0.212	-0.117
-437.749	-79.238	0.201	-0.069
-436.734	8.439	-0.082	-0.062
-435.719	-28.597	-0.254	-0.148
-434.705	-67.030	-0.056	-0.022
-433.690	-200.000	-0.042	-0.205
-432.676	238.245	0.127	0.213
-431.661	-126.399	0.197	-0.030
-430.646	-69.388	0.208	-0.081
-429.632	147.731	0.154	-0.211
-428.617	800.000	-0.022	0.081
-427.603	-167.305	-0.363	0.015
-426.588	-92.206	0.139	-0.040
-425.573	-200.000	0.039	0.537
-424.559	-11.528	-0.114	0.076
-423.544	153.515	-0.241	0.335
-422.530	-40.968	0.336	-0.176
-421.515	-79.927	0.252	0.086
-420.500	800.000	0.028	-0.084
-419.486	290.707	0.154	-0.284
-418.471	216.964	-0.153	0.247
-417.457	-63.764	0.129	0.054
-416.442	-91.989	-0.199	-0.057
-415.428	62.387	0.137	0.139
-414.413	103.814	0.095	0.113
-413.398	367.867	0.061	-0.126
-412.384	-94.294	-0.110	-0.031
-411.369	-200.000	0.050	-0.355
-410.355	87.831	-0.010	-0.011
-409.340	-200.000	-0.005	-0.095
-408.325	130.565	0.072	0.094
-407.311	-35.793	-0.157	0.086
-406.296	-200.000	-0.004	0.093
-405.282	-22.777	0.229	-0.140
-404.267	-58.241	0.343	-0.151
-403.252	-12.440	0.120	-0.079
-402.238	422.378	-0.025	0.054
-401.223	-53.848	-0.176	0.081
-400.209	21.906	-0.174	-0.143
-399.194	800.000	0.127	-0.388
-398.179	-200.000	-0.000	-0.102
-397.165	-16.704	0.053	0.034
-396.150	800.000	-0.088	0.282
-395.136	-200.000	0.024	0.135
-394.121	-200.000	-0.071	0.386
-393.106	82.620	-0.133	0.147
-392.092	-104.981	0.210	0.049
-391.077	275.466	-0.171	-0.307
-390.063	13.754	0.095	0.074
-389.048	61.652	0.056	0.056
-388.033	800.000	-0.112	-0.353
-387.019	-129.950	-0.261	0.036
-386.004	33.307	0.136	0.120
-384.990	-89.065	-0.138	0.041
-383.975	-64.219	-0.247	-0.102
-382.960	-37.770	-0.107	0.058
-381.946	-200.000	-0.021	-0.171
-380.931	65.061	0.099	0.101
-379.917	150.347	0.079	0.108
-378.902	-175.041	0.063	0.002
-377.888	800.000	0.083	-0.272
-376.873	237.387	0.195	-0.326
-375.858	-126.791	0.171	-0.026
-374.844	-200.000	-0.043	-0.290
-373.829	256.635	-0.086	-0.150
-372.815	-82.947	0.052	-0.017
-371.800	-76.976	-0.312	0.110
-370.785	-87.739	0.401	0.122
-369.771	-200.000	-0.000	0.180
-368.756	160.913	-0.049	0.070
-367.742	-158.782	-0.027	-0.002
-366.727	800.000	0.088	0.311
-365.712	243.044	-0.047	-0.080
-364.698	-62.989	-0.181	-0.076
-363.683	97.051	0.086	0.099
-362.669	12.038	0.214	-0.166
-361.654	-72.717	0.291	-0.108
-360.639	-10.395	-0.120	-0.080
-359.625	-24.888	0.257	0.154
-358.610	-200.000	-0.077	0.000
-357.596	-159.315	-0.125	-0.007
-356.581	325.848	-0.089	-0.172
-355.566	-161.565	0.303	-0.016
-354.552	-41.100	-0.433	0.226
-353.537	-108.748	0.232	0.050
-352.523	58.139	0.298	0.295
-351.508	89.574	0.029	-0.033
-350.493	-200.000	0.010	-0.195
-349.479	-91.378	-0.163	-0.047
-348.464	176.725	0.104	-0.153
-347.450	-37.672	-0.210	0.113
-346.435	698.409	0.023	0.061
-345.420	-78.702	-0.234	-0.081
-344.406	34.341	0.426	0.375
-343.391	667.087	-0.036	0.093
-342.377	373.024	-0.150	0.307
-341.362	-171.217	0.170	-0.006
-340.348	-95.720	0.192	0.052
-339.333	-68.326	-0.192	-0.075
-338.318	-200.000	-0.035	-0.218
-337.304	-119.522	0.144	0.025
-336.289	151.501	-0.156	-0.214
-335.275	-86.462	0.020	0.006
-334.260	356.787	0.161	-0.324
-333.245	-164.847	-0.156	0.007
-332.231	-200.000	-0.004	0.096
-331.216	-130.254	0.180	0.025
-330.202	5.453	0.260	-0.193
-329.187	182.912	0.090	-0.135
-328.172	800.000	0.056	0.167
-327.158	-144.544	-0.092	0.009
-326.143	-200.000	-0.018	-0.113
-325.129	-78.489	-0.242	0.084
-324.114	229.889	0.035	-0.057
-323.099	-54.762	-0.202	-0.092
-322.085	429.648	0.109	0.239
-321.070	26.705	-0.166	-0.140
-320.056	-138.810	-0.252	-0.028
-319.041	92.337	0.148	-0.168
-318.026	274.106	0.229	0.409
-317.012	104.892	-0.094	0.111
-315.997	-31.626	-0.154	-0.087
-314.983	800.000	-0.033	0.120
-313.968	-95.650	0.098	0.026
-312.953	-200.000	-0.012	-0.112
-311.939	251.521	-0.068	-0.116
-310.924	-165.445	0.229	-0.010
-309.910	-24.451	-0.455	0.273
-308.895	-200.000	0.026	-0.320
-307.880	-13.133	0.106	-0.070
-306.866	26.107	0.140	0.118
-305.851	-200.000	0.050	-0.252
-304.837	-67.389	0.200	-0.079
-303.822	-200.000	-0.009	0.161
-302.807	37.751	-0.197	0.176
-301.793	499.317	-0.042	0.097
-300.778	15.339	-0.212	0.168
-299.764	-44.984	-0.154	0.077
-298.749	-82.015	0.185	0.061
-297.735	17.748	-0.459	-0.368
-296.720	492.226	0.184	-0.425
-295.705	38.248	-0.286	0.257
-294.691	318.727	0.082	-0.156
-293.676	311.026	0.066	0.124
-292.662	-58.706	0.481	-0.210
-291.647	10.107	-0.205	-0.157
-290.632	108.743	0.145	0.175
-289.618	-95.740	-0.135	0.036
-288.603	-84.598	0.263	0.084
-287.589	800.000	-0.082	-0.278
-286.574	-81.292	0.219	0.073
-285.559	-200.000	0.012	0.159
-284.545	-138.486	0.266	0.030
-283.530	189.436	-0.110	-0.166
-282.516	-30.310	-0.144	0.082
-281.501	800.000	-0.080	0.278
-280.486	136.271	0.062	-0.082
-279.472	-200.000	-0.029	0.201
-278.457	-35.254	-0.261	0.143
-277.443	-59.446	-0.203	0.088
-276.428	-98.545	-0.185	-0.048
-275.413	-84.883	-0.294	0.093
-274.399	125.966	-0.033	0.042
-273.384	296.690	-0.189	0.350
-272.370	64.618	-0.159	0.161
-271.355	-200.000	-0.031	0.216
-270.340	-46.023	0.152	0.075
-269.326	-35.919	0.136	-0.074
-268.311	-98.470	-0.295	-0.076
-267.297	-110.614	-0.048	-0.010
-266.282	118.426	0.229	-0.285
-265.267	32.975	0.219	0.191
-264.253	-98.922	-0.492	-0.126
-263.238	-127.246	-0.075	-0.011
-262.224	-109.111	0.080	0.017
-261.209	704.457	0.079	-0.209
-260.195	-7.652	0.129	0.088
-259.180	176.172	0.137	0.200
-258.165	-119.575	-0.129	0.022
-257.151	-200.000	-0.013	-0.168
-256.136	121.429	0.081	-0.101
-255.122	-65.426	0.186	-0.075
-254.107	800.000	-0.058	-0.186
-253.092	-200.000	-0.028	0.183
-252.078	-82.234	-0.408	-0.134
-251.063	30.941	0.230	0.198
-250.049	800.000	0.015	0.048
-249.034	800.000	-0.088	-0.286
-248.019	146.815	-0.220	-0.298
-247.005	-34.841	0.259	-0.143
-245.990	-98.679	0.182	-0.047
-244.976	-47.594	-0.082	0.040
-243.961	800.000	0.126	-0.485
-242.946	-54.009	-0.113	0.052
-241.932	-77.796	-0.231	0.080
-240.917	-83.672	-0.283	0.091
-239.903	165.037	-0.138	-0.195
-238.888	-32.686	0.274	0.153
-237.873	671.578	0.045	0.116
-236.859	260.282	0.059	0.103
-235.844	-127.721	0.113	-0.016
-234.830	84.682	0.116	-0.128
-233.815	800.000	0.031	0.122
-232.800	-129.057	0.221	0.031
-231.786	-144.464	0.034	-0.003
-230.771	-188.824	-0.382	0.005
-229.757	-33.134	0.225	-0.125
-228.742	800.000	0.083	-0.282
-227.727	-43.555	0.238	-0.121
-226.713	22.214	-0.184	0.151
-225.698	312.942	0.178	0.336
-224.684	164.287	0.077	0.109
-223.669	-55.764	0.175	0.079
-222.655	-200.000	-0.000	0.030
-221.640	35.631	-0.219	-0.193
-220.625	39.475	-0.170	-0.153
-219.611	-150.192	-0.047	-0.004
-218.596	74.760	0.156	-0.165
-217.582	800.000	-0.041	0.121
-216.567	-126.562	-0.157	-0.023
-215.552	43.141	0.289	-0.265
-214.538	-180.807	-0.102	0.002
-213.523	800.000	-0.073	0.220
-212.509	212.174	-0.113	0.179
-211.494	31.014	0.024	-0.021
-210.479	401.108	0.091	0.191
-209.465	-127.307	-0.392	0.058
-208.450	330.782	-0.239	0.463
-207.436	800.000	0.096	-0.308
-206.421	-70.713	0.293	0.111
-205.406	800.000	-0.026	0.108
-204.392	-64.819	0.198	-0.081
-203.377	-200.000	-0.023	0.104
-202.363	-107.979	-0.380	0.083
-201.348	-94.011	-0.405	-0.112
-200.333	-94.370	-0.159	-0.044
-199.319	-200.000	-0.030	-0.142
-198.304	-200.000	0.026	-0.222
-197.290	-16.598	0.130	0.083
-196.275	-200.000	0.063	0.332
-195.260	87.042	-0.239	0.265
-194.246	-200.000	0.011	0.057
-193.231	-200.000	-0.043	-0.229
-192.217	78.566	-0.108	0.116
-191.202	-101.994	0.096	-0.023
-190.187	11.184	0.169	0.130
-189.173	800.000	-0.088	0.313
-188.158	-118.475	-0.164	0.029
-187.144	-200.000	-0.043	0.190
-186.129	-200.000	-0.011	0.063
-185.114	10.048	0.178	-0.136
-184.100	239.901	-0.090	0.150
-183.085	5.627	0.289	-0.214
-182.071	-165.802	0.177	-0.008
-181.056	-56.827	0.121	0.054
-180.042	-86.236	-0.092	-0.028
-179.027	-25.648	-0.299	-0.177
-178.012	800.000	-0.011	-0.049
-176.998	-79.144	0.075	-0.025
-175.983	261.251	-0.275	-0.479
-174.969	800.000	-0.059	-0.202
-173.954	-200.000	0.025	-0.115
-172.939	-97.565	0.275	0.072
-171.925	11.300	0.090	0.069
-170.910	-200.000	-0.011	0.090
-169.896	-200.000	0.006	0.070
-168.881	466.647	-0.139	0.313
-167.866	-25.086	-0.310	0.184
-166.852	34.600	0.177	0.155
-165.837	800.000	-0.015	0.051
-164.823	-200.000	-0.006	-0.186
-163.808	617.679	0.092	0.232
-162.793	16.060	-0.433	0.343
-161.779	45.958	-0.186	-0.172
-160.764	139.936	0.161	-0.213
-159.750	616.408	-0.017	0.042
-158.735	-27.803	0.441	-0.256
-157.720	-54.124	0.212	-0.096
-156.706	0.827	-0.330	0.237
-155.691	-200.000	-0.013	0.108
-154.677	60.885	0.125	0.125
-153.662	-97.930	-0.229	-0.059
-152.647	55.393	-0.230	0.223
-151.633	-8.317	0.117	-0.079
-150.618	-45.678	0.217	0.108
-149.604	0.915	0.149	0.107
-148.589	287.969	0.137	-0.249
-147.574	-131.340	0.153	0.020
-146.560	-66.805	-0.136	0.054
-145.545	-44.344	-0.146	-0.073
-144.531	-105.941	0.296	-0.067
-143.516	34.243	-0.137	-0.120
-142.502	6.820	0.157	-0.117
-141.487	19.646	-0.098	0.079
-140.472	-31.149	-0.058	0.033
-139.458	-200.000	0.015	-0.297
-138.443	118.608	-0.313	-0.388
-137.429	106.242	-0.261	-0.310
-136.414	77.163	-0.251	-0.267
-135.399	109.885	0.074	0.089
-134.385	114.071	-0.162	-0.198
-133.370	-180.889	0.374	0.008
-132.356	-70.619	0.244	0.092
-131.341	-67.507	0.277	-0.109
-130.326	-66.790	0.187	-0.074
-129.312	-200.000	0.030	0.166
-128.297	-82.558	0.028	-0.009
-127.283	-22.997	0.124	-0.075
-126.268	-57.914	0.460	-0.202
-125.253	160.248	-0.096	-0.134
-124.239	153.812	0.170	0.234
-123.224	-95.578	-0.168	-0.045
-122.210	800.000	0.096	-0.357
-121.195	12.307	0.324	-0.250
-120.180	800.000	0.074	-0.232
