DTS Sentinel unit serial number:	SN413079Multiplexer serial number:	ORYXHardware model number:	OX4-SRSoftware version number:	ORYX F/W v4.00 Oryx Data Collector v3.7.2.0data status	okinstallation	princeton_trtdifferential loss correction	single-endedforward channel	channel 3reverse channel	N/Adate	2019/09/19time	15:16:35forward acquisition time	60.00reverse acquisition time	0.00gamma	496.2192k internal	0.2313k external	0.2313temperature offset calibration	1.0012default loss term (dB/km)	0.3790temperature slope calibration	1.0000multiplexer offset coefficient	1.0000multiplexer slope coefficient	1.0000fibre end	0.00T internal ref (°C)	33.62T ext. ref 1 (°C)	1.14T ext. ref 2 (°C)	30.43length (m)	temperature (°C)	Stokes	anti-Stokes-747.200	-200.000	0.071	0.325
-746.185	-200.000	-0.031	0.229
-745.171	254.874	-0.205	0.355
-744.156	-200.000	-0.004	0.092
-743.142	75.512	-0.138	-0.148
-742.127	-58.682	-0.344	0.151
-741.112	-200.000	-0.037	0.267
-740.098	-200.000	-0.043	0.197
-739.083	236.380	0.047	-0.078
-738.069	-9.113	-0.382	0.259
-737.054	-126.014	-0.183	-0.028
-736.039	800.000	-0.071	-0.259
-735.025	800.000	0.012	0.036
-734.010	266.744	-0.019	-0.033
-732.996	-109.217	-0.211	-0.045
-731.981	-19.548	-0.147	0.092
-730.966	-59.890	-0.281	-0.122
-729.952	172.940	-0.131	-0.192
-728.937	-200.000	-0.034	-0.381
-727.923	-30.748	-0.485	-0.278
-726.908	-200.000	0.011	0.159
-725.894	800.000	-0.089	0.319
-724.879	-155.337	-0.126	0.008
-723.864	186.887	0.175	-0.265
-722.850	-36.708	0.085	-0.046
-721.835	800.000	0.070	0.251
-720.821	-0.212	-0.200	-0.144
-719.806	-54.563	-0.227	0.104
-718.791	-67.307	-0.298	-0.119
-717.777	82.381	-0.134	-0.147
-716.762	-110.351	-0.115	-0.024
-715.748	-82.947	-0.083	-0.027
-714.733	108.497	-0.133	-0.161
-713.718	204.870	-0.177	-0.277
-712.704	43.925	0.185	0.172
-711.689	797.452	0.067	-0.186
-710.675	-200.000	0.056	-0.276
-709.660	-31.320	0.071	0.040
-708.645	178.494	-0.038	-0.056
-707.631	-17.063	0.031	-0.020
-706.616	-160.661	0.214	-0.012
-705.602	-108.698	-0.131	-0.028
-704.587	-200.000	-0.030	0.281
-703.572	378.991	-0.150	0.311
-702.558	-6.323	0.041	-0.028
-701.543	-200.000	0.024	-0.125
-700.529	-200.000	0.025	-0.126
-699.514	-96.474	-0.215	0.057
-698.499	800.000	-0.080	-0.245
-697.485	-80.720	-0.262	-0.088
-696.470	-200.000	0.000	0.077
-695.456	800.000	0.146	0.482
-694.441	-200.000	0.052	0.285
-693.426	29.097	-0.288	0.248
-692.412	-154.029	-0.455	0.031
-691.397	-128.364	-0.110	-0.016
-690.383	-112.311	0.140	-0.028
-689.368	-200.000	-0.023	0.235
-688.354	568.910	-0.131	-0.323
-687.339	615.245	0.114	-0.290
-686.324	-138.763	0.246	0.027
-685.310	285.072	-0.140	-0.255
-684.295	-179.062	-0.134	-0.003
-683.281	-86.293	-0.039	-0.012
-682.266	-99.017	-0.260	0.067
-681.251	-200.000	0.026	-0.203
-680.237	-112.770	-0.105	0.021
-679.222	-84.682	-0.387	0.123
-678.208	236.028	-0.127	-0.213
-677.193	599.876	0.113	-0.284
-676.178	-21.070	0.235	0.146
-675.164	-165.818	-0.185	0.008
-674.149	-200.000	0.013	-0.165
-673.135	-200.000	0.008	0.136
-672.120	506.612	-0.161	0.378
-671.105	-7.721	0.096	0.066
-670.091	-200.000	-0.011	-0.081
-669.076	-57.820	-0.130	-0.057
-668.062	-61.115	-0.106	-0.045
-667.047	-105.213	0.235	0.054
-666.032	-200.000	0.017	-0.136
-665.018	-200.000	-0.062	0.558
-664.003	-200.000	-0.013	0.128
-662.989	109.079	-0.227	0.275
-661.974	-200.000	0.027	-0.188
-660.959	233.421	-0.085	-0.141
-659.945	800.000	0.037	-0.117
-658.930	-200.000	-0.043	-0.256
-657.916	1.609	0.170	0.124
-656.901	-127.823	0.415	0.060
-655.886	-200.000	-0.063	-0.359
-654.872	-182.832	-0.516	0.009
-653.857	181.944	-0.033	0.050
-652.843	-1.048	0.290	0.208
-651.828	80.420	-0.183	-0.199
-650.814	-123.543	0.281	0.045
-649.799	-200.000	0.009	-0.126
-648.784	152.874	0.084	0.115
-647.770	-200.000	0.003	-0.027
-646.755	-200.000	0.017	-0.466
-645.741	60.703	0.370	-0.371
-644.726	284.661	-0.108	-0.196
-643.711	-132.454	-0.423	-0.055
-642.697	-38.223	-0.290	-0.155
-641.682	80.077	0.099	0.107
-640.668	800.000	-0.044	0.124
-639.653	782.458	0.129	-0.356
-638.638	149.180	-0.068	0.092
-637.624	-86.986	0.382	0.117
-636.609	-55.159	0.413	-0.188
-635.595	-134.575	0.321	0.040
-634.580	7.874	-0.201	-0.152
-633.565	113.110	0.147	-0.180
-632.551	-55.388	-0.225	0.102
-631.536	800.000	0.098	0.289
-630.522	46.716	-0.227	0.213
-629.507	800.000	-0.070	-0.200
-628.492	-7.152	0.182	-0.125
-627.478	160.970	-0.235	-0.332
-626.463	-182.598	0.361	-0.007
-625.449	-39.335	-0.548	0.291
-624.434	370.447	0.108	-0.221
-623.419	-200.000	0.031	-0.176
-622.405	47.975	0.131	-0.123
-621.390	-54.002	-0.086	0.039
-620.376	37.432	0.136	0.122
-619.361	67.615	0.170	-0.175
-618.346	-75.815	-0.380	-0.136
-617.332	184.820	-0.147	0.220
-616.317	204.064	0.197	-0.308
-615.303	-147.185	-0.065	0.006
-614.288	800.000	-0.066	-0.207
-613.273	10.867	0.118	-0.091
-612.259	-55.657	0.313	0.141
-611.244	-114.076	0.533	-0.104
-610.230	800.000	-0.085	-0.244
-609.215	800.000	0.095	-0.373
-608.201	-37.020	-0.186	-0.100
-607.186	202.079	0.190	-0.295
-606.171	-148.973	0.232	-0.019
-605.157	126.593	-0.114	-0.145
-604.142	-200.000	0.055	-0.576
-603.128	-200.000	-0.006	-0.077
-602.113	-200.000	0.028	-0.333
-601.098	187.435	0.140	0.210
-600.084	297.770	0.146	-0.270
-599.069	19.356	-0.100	-0.081
-598.055	59.159	0.089	0.088
-597.040	-200.000	0.007	-0.305
-596.025	-69.026	-0.296	-0.115
-595.011	-130.252	0.327	-0.045
-593.996	34.959	0.130	-0.115
-592.982	-68.025	-0.146	0.058
-591.967	748.295	-0.077	-0.209
-590.952	-4.553	0.094	0.066
-589.938	77.752	0.156	0.167
-588.923	32.052	-0.370	-0.322
-587.909	175.618	0.071	-0.104
-586.894	708.932	-0.128	-0.342
-585.879	34.627	-0.203	0.179
-584.865	149.056	-0.091	0.125
-583.850	-200.000	-0.029	0.272
-582.836	-15.379	-0.158	0.102
-581.821	-51.813	-0.093	0.044
-580.806	691.701	-0.142	-0.375
-579.792	-54.048	0.199	-0.091
-578.777	5.805	0.300	0.224
-577.763	-200.000	-0.005	-0.122
-576.748	-20.175	0.195	0.121
-575.733	800.000	-0.041	-0.122
-574.719	-200.000	0.018	-0.098
-573.704	-76.188	-0.327	0.116
-572.690	-200.000	-0.027	-0.216
-571.675	-200.000	-0.040	0.627
-570.661	-38.173	0.312	-0.167
-569.646	-200.000	-0.048	0.308
-568.631	-65.267	-0.113	0.046
-567.617	-23.290	0.037	0.022
-566.602	-67.737	-0.209	-0.082
-565.588	800.000	0.087	-0.270
-564.573	800.000	-0.105	0.313
-563.558	-45.258	-0.215	0.108
-562.544	37.747	-0.110	-0.099
-561.529	82.155	0.071	0.077
-560.515	800.000	0.051	-0.184
-559.500	363.831	-0.065	0.132
-558.485	-21.453	0.273	-0.168
-557.471	-12.771	-0.083	0.054
-556.456	78.248	-0.142	-0.153
-555.442	65.355	-0.085	-0.086
-554.427	193.052	-0.195	-0.297
-553.412	164.298	-0.155	-0.219
-552.398	191.400	0.068	-0.103
-551.383	-200.000	0.005	-0.249
-550.369	800.000	-0.022	0.088
-549.354	-25.407	-0.328	0.195
-548.339	182.423	-0.182	-0.270
-547.325	-200.000	-0.000	0.210
-546.310	-91.851	-0.253	-0.072
-545.296	2.960	0.006	-0.004
-544.281	217.654	-0.124	-0.198
-543.266	-35.008	0.108	0.059
-542.252	800.000	-0.061	0.203
-541.237	-200.000	-0.026	0.404
-540.223	800.000	0.078	-0.226
-539.208	426.422	-0.021	-0.046
-538.193	-126.572	0.380	0.057
-537.179	60.354	0.065	-0.064
-536.164	800.000	-0.018	-0.053
-535.150	-56.921	0.060	-0.027
-534.135	87.516	-0.104	-0.116
-533.121	-147.096	0.108	0.009
-532.106	268.769	-0.112	-0.198
-531.091	-200.000	-0.005	-0.188
-530.077	-137.580	-0.267	0.030
-529.062	800.000	0.094	0.325
-528.048	157.411	-0.114	0.159
-527.033	575.972	-0.074	0.183
-526.018	98.860	-0.260	-0.302
-525.004	106.185	-0.124	0.147
-523.989	800.000	0.038	0.142
-522.975	-127.399	-0.415	0.061
-521.960	-81.409	-0.240	-0.080
-520.945	800.000	0.023	-0.074
-519.931	267.453	-0.012	-0.021
-518.916	-1.033	0.114	0.081
-517.902	-78.240	0.165	-0.057
-516.887	41.313	-0.097	-0.088
-515.872	632.765	-0.070	0.179
-514.858	-24.986	0.258	-0.154
-513.843	-200.000	0.015	-0.282
-512.829	-99.586	0.278	-0.070
-511.814	-200.000	-0.003	-0.178
-510.799	-78.723	0.125	-0.043
-509.785	359.266	-0.081	0.163
-508.770	-18.774	0.276	0.173
-507.756	-148.624	0.204	0.017
-506.741	-200.000	-0.039	-0.335
-505.726	-28.428	0.082	0.048
-504.712	-200.000	-0.033	-0.174
-503.697	72.220	0.059	0.062
-502.683	86.930	0.041	0.046
-501.668	124.695	0.175	-0.222
-500.653	136.370	0.088	0.116
-499.639	79.503	0.104	-0.112
-498.624	234.820	-0.160	-0.265
-497.610	-127.786	-0.314	-0.046
-496.595	800.000	0.044	-0.192
-495.581	-133.234	-0.180	0.023
-494.566	47.551	0.160	0.150
-493.551	-146.657	-0.054	0.005
-492.537	-200.000	0.016	0.223
-491.522	-200.000	-0.024	-0.286
-490.508	-162.886	0.417	0.020
-489.493	31.928	-0.232	0.201
-488.478	-107.374	-0.311	0.069
-487.464	-200.000	0.001	-0.077
-486.449	-88.946	-0.330	-0.098
-485.435	284.648	-0.019	-0.035
-484.420	-200.000	0.015	-0.243
-483.405	-113.121	0.078	0.015
-482.391	5.819	0.041	0.031
-481.376	344.308	-0.168	0.331
-480.362	305.219	0.176	-0.327
-479.347	-88.373	0.082	0.025
-478.332	759.208	0.104	0.283
-477.318	-152.742	0.141	0.010
-476.303	38.505	0.099	-0.088
-475.289	-139.682	0.193	-0.021
-474.274	-200.000	-0.013	-0.070
-473.259	-3.929	-0.094	0.066
-472.245	-57.270	0.230	-0.101
-471.230	-50.198	0.051	-0.024
-470.216	-184.971	-0.124	0.002
-469.201	-200.000	0.008	0.131
-468.186	154.242	0.105	-0.144
-467.172	177.615	-0.049	0.072
-466.157	124.753	-0.218	0.275
-465.143	-81.774	0.125	0.041
-464.128	-200.000	-0.042	0.235
-463.113	-200.000	-0.031	-0.195
-462.099	122.878	0.209	0.263
-461.084	-22.232	-0.288	-0.175
-460.070	-119.224	0.011	0.002
-459.055	692.339	0.093	0.244
-458.040	-95.442	0.234	-0.063
-457.026	800.000	-0.084	0.288
-456.011	-45.781	0.234	0.116
-454.997	-165.216	-0.119	-0.005
-453.982	17.758	-0.289	-0.231
-452.968	-121.372	0.198	-0.033
-451.953	-104.922	0.170	-0.039
-450.938	800.000	-0.087	-0.270
-449.924	-200.000	-0.027	0.252
-448.909	33.809	0.360	0.314
-447.895	-79.385	-0.230	0.078
-446.880	50.552	-0.222	-0.211
-445.865	800.000	0.011	0.032
-444.851	517.837	0.138	0.324
-443.836	-76.393	-0.364	-0.128
-442.822	206.963	-0.007	0.011
-441.807	-46.569	0.402	-0.197
-440.792	-156.890	0.373	0.023
-439.778	800.000	0.044	0.141
-438.763	405.606	-0.120	-0.253
-437.749	57.287	0.125	0.122
-436.734	202.382	-0.062	0.096
-435.719	14.082	-0.127	-0.099
-434.705	800.000	-0.048	0.154
-433.690	800.000	0.054	0.171
-432.676	-191.298	0.256	0.003
-431.661	800.000	0.046	0.142
-430.646	-65.961	0.084	0.034
-429.632	-24.981	0.425	-0.253
-428.617	32.372	-0.165	0.143
-427.603	-200.000	0.034	-0.380
-426.588	133.373	0.105	-0.136
-425.573	-45.763	0.239	-0.119
-424.559	222.748	-0.119	-0.192
-423.544	-19.180	0.046	0.029
-422.530	-30.273	0.210	-0.120
-421.515	76.862	-0.173	-0.184
-420.500	-200.000	0.021	0.262
-419.486	34.148	-0.258	-0.225
-418.471	-80.579	-0.255	0.085
-417.457	-158.139	-0.025	-0.001
-416.442	-83.880	-0.306	-0.098
-415.428	12.081	0.090	-0.069
-414.413	-167.221	0.277	0.011
-413.398	800.000	0.120	-0.503
-412.384	624.149	0.077	-0.194
-411.369	65.443	-0.022	0.023
-410.355	23.175	-0.088	0.072
-409.340	-146.241	-0.331	-0.029
-408.325	800.000	-0.010	0.035
-407.311	-200.000	0.014	0.231
-406.296	-97.593	-0.297	0.077
-405.282	23.060	-0.306	0.251
-404.267	147.529	0.115	0.155
-403.252	-112.857	0.146	-0.029
-402.238	-200.000	0.072	0.371
-401.223	-96.537	-0.060	-0.016
-400.209	-64.415	-0.282	0.115
-399.194	30.633	-0.242	0.208
-398.179	-146.002	0.239	-0.021
-397.165	-152.257	-0.279	-0.020
-396.150	11.164	0.279	-0.214
-395.136	-147.724	0.142	0.012
-394.121	53.537	0.239	-0.229
-393.106	232.646	0.166	-0.272
-392.092	385.855	0.116	-0.239
-391.077	524.603	-0.073	0.171
-390.063	514.272	-0.145	0.339
-389.048	800.000	0.095	0.293
-388.033	-26.604	0.075	0.044
-387.019	-200.000	-0.035	-0.217
-386.004	-200.000	0.057	-0.339
-384.990	-83.956	-0.120	-0.038
-383.975	-117.838	0.192	0.034
-382.960	-200.000	-0.011	0.122
-381.946	-200.000	0.007	0.220
-380.931	-38.954	-0.169	-0.089
-379.917	17.960	-0.287	0.228
-378.902	228.674	0.135	0.220
-377.888	-184.370	-0.176	-0.003
-376.873	273.125	-0.204	-0.360
-375.858	800.000	0.020	-0.083
-374.844	-200.000	0.080	0.371
-373.829	388.096	-0.098	-0.202
-372.815	-55.620	-0.251	-0.112
-371.800	-200.000	-0.018	-0.320
-370.785	-142.767	0.126	-0.012
-369.771	118.620	0.207	0.256
-368.756	703.831	0.069	0.181
-367.742	-200.000	-0.014	-0.130
-366.727	546.275	-0.068	-0.162
-365.712	84.551	-0.162	0.177
-364.698	453.764	-0.090	0.199
-363.683	30.052	0.302	-0.258
-362.669	-200.000	-0.009	0.168
-361.654	476.412	0.146	0.330
-360.639	-200.000	0.032	0.296
-359.625	-37.195	-0.300	-0.160
-358.610	-76.763	0.246	0.086
-357.596	-200.000	-0.030	-0.179
-356.581	89.196	0.206	-0.229
-355.566	99.541	-0.104	-0.120
-354.552	296.378	-0.065	0.120
-353.537	656.554	0.030	-0.077
-352.523	-65.111	0.049	0.020
-351.508	22.230	-0.104	-0.085
-350.493	68.978	-0.171	0.175
-349.479	-200.000	0.008	0.497
-348.464	277.670	0.046	0.082
-347.450	703.686	-0.037	-0.097
-346.435	153.439	-0.255	0.348
-345.420	-200.000	0.009	-0.289
-344.406	42.416	0.364	0.330
-343.391	128.095	0.093	0.118
-342.377	236.234	-0.101	-0.167
-341.362	122.922	0.060	0.075
-340.348	-2.939	-0.212	-0.148
-339.333	-75.721	0.033	-0.012
-338.318	-99.969	-0.231	0.058
-337.304	21.305	-0.434	0.352
-336.289	-152.022	0.106	-0.008
-335.275	-34.232	-0.231	-0.126
-334.260	-10.180	0.156	0.103
-333.245	-114.599	-0.142	0.027
-332.231	12.679	-0.080	-0.062
-331.216	-38.710	-0.229	-0.121
-330.202	-200.000	0.024	-0.232
-329.187	194.080	0.093	0.141
-328.172	-129.411	0.049	0.007
-327.158	-200.000	-0.050	0.281
-326.143	-200.000	0.017	-0.131
-325.129	91.982	0.048	0.053
-324.114	39.994	-0.184	-0.165
-323.099	-90.867	0.128	-0.037
-322.085	202.719	-0.175	0.269
-321.070	292.757	0.127	-0.231
-320.056	640.405	-0.048	0.122
-319.041	-32.248	0.142	0.079
-318.026	-48.700	-0.197	-0.095
-317.012	207.044	-0.116	-0.180
-315.997	429.530	-0.040	-0.086
-314.983	800.000	-0.054	0.163
-313.968	520.247	0.064	0.149
-312.953	800.000	0.047	0.130
-311.939	74.423	0.093	-0.097
-310.924	-200.000	0.009	0.220
-309.910	-200.000	0.043	-0.282
-308.895	-107.828	0.128	0.028
-307.880	-200.000	-0.001	0.169
-306.866	-21.026	0.088	-0.054
-305.851	800.000	0.043	-0.182
-304.837	-38.076	0.097	0.051
-303.822	346.742	0.134	-0.263
-302.807	5.757	0.251	-0.185
-301.793	800.000	0.054	0.151
-300.778	657.640	0.113	0.290
-299.764	-115.633	0.119	0.022
-298.749	-3.988	0.110	0.076
-297.735	146.145	-0.208	-0.278
-296.720	-51.142	0.218	-0.102
-295.705	126.158	-0.126	-0.159
-294.691	-200.000	-0.019	0.165
-293.676	-144.301	-0.429	-0.040
-292.662	-200.000	-0.057	0.263
-291.647	311.010	0.154	0.288
-290.632	800.000	0.026	-0.095
-289.618	-6.115	-0.057	0.039
-288.603	125.489	-0.037	0.047
-287.589	-144.018	0.158	0.015
-286.574	114.385	0.143	0.174
-285.559	-45.491	-0.136	-0.067
-284.545	-75.798	0.393	-0.139
-283.530	-200.000	0.053	-0.309
-282.516	196.089	-0.098	0.148
-281.501	-7.105	-0.330	0.223
-280.486	98.896	0.099	-0.114
-279.472	-9.302	-0.165	-0.110
-278.457	54.525	-0.067	0.065
-277.443	15.640	-0.288	0.225
-276.428	-127.610	0.076	0.011
-275.413	73.576	0.016	0.016
-274.399	-124.471	0.353	0.055
-273.384	274.751	-0.106	-0.187
-272.370	-165.901	-0.158	-0.007
-271.355	153.617	-0.159	0.217
-270.340	28.476	-0.343	-0.289
-269.326	-200.000	0.000	-0.003
-268.311	-107.696	0.460	0.100
-267.297	-45.022	0.166	0.082
-266.282	-24.638	0.301	-0.178
-265.267	-200.000	0.042	-0.235
-264.253	559.462	-0.080	0.191
-263.238	77.276	-0.138	0.146
-262.224	-200.000	0.035	0.206
-261.209	800.000	-0.135	0.399
-260.195	800.000	-0.015	-0.065
-259.180	96.110	-0.338	-0.384
-258.165	227.474	-0.119	0.192
-257.151	265.813	0.051	0.089
-256.136	-78.427	-0.567	-0.193
-255.122	242.450	0.010	-0.016
-254.107	-200.000	0.004	0.063
-253.092	654.024	-0.064	-0.163
-252.078	26.543	0.083	0.069
-251.063	-93.838	0.326	-0.089
-250.049	-41.786	-0.411	0.210
-249.034	20.263	-0.262	-0.210
-248.019	-200.000	-0.031	-0.134
-247.005	-200.000	0.055	0.340
-245.990	-178.298	-0.270	-0.006
-244.976	60.616	-0.066	-0.065
-243.961	-17.745	-0.293	0.183
-242.946	-200.000	-0.013	-0.090
-241.932	-154.828	-0.205	0.013
-240.917	-6.036	0.075	-0.051
-239.903	-200.000	0.007	0.076
-238.888	70.789	0.220	0.227
-237.873	15.461	-0.102	0.079
-236.859	100.674	0.196	-0.227
-235.844	-200.000	0.012	0.270
-234.830	-59.154	0.318	-0.136
-233.815	-24.680	0.103	0.061
-232.800	-200.000	-0.047	0.410
-231.786	-86.598	-0.295	-0.090
-230.771	-53.158	-0.114	0.052
-229.757	-23.435	-0.336	0.200
-228.742	563.348	-0.093	0.223
-227.727	-16.190	-0.109	0.069
-226.713	-200.000	0.117	-0.526
-225.698	-77.415	-0.135	0.046
-224.684	-200.000	0.043	0.202
-223.669	-89.885	0.262	0.076
-222.655	-87.894	0.234	-0.070
-221.640	-18.433	0.275	0.170
-220.625	-143.674	0.548	-0.052
-219.611	800.000	0.052	0.172
-218.596	-113.151	-0.161	-0.031
-217.582	501.413	0.128	-0.293
-216.567	94.483	0.194	-0.219
-215.552	-84.534	-0.206	-0.065
-214.538	363.462	-0.213	0.426
-213.523	263.511	-0.053	0.091
-212.509	800.000	0.110	0.474
-211.494	-127.741	0.177	-0.025
-210.479	777.763	-0.014	-0.037
-209.465	85.673	0.083	0.091
-208.450	-91.861	-0.064	0.018
-207.436	-144.509	0.140	-0.013
-206.421	33.775	0.267	-0.231
-205.406	53.210	0.197	-0.187
-204.392	-200.000	-0.052	0.326
-203.377	191.077	0.053	0.080
-202.363	686.197	-0.069	-0.179
-201.348	-200.000	0.045	0.326
-200.333	-126.539	-0.390	-0.057
-199.319	-87.505	-0.112	-0.034
-198.304	300.688	0.168	0.308
-197.290	57.045	0.284	0.275
-196.275	-114.682	0.310	0.059
-195.260	10.906	-0.105	0.079
-194.246	257.699	-0.146	0.249
-193.231	-82.843	-0.372	-0.119
-192.217	-200.000	0.015	-0.236
-191.202	411.704	0.106	0.223
-190.187	-163.627	-0.020	0.001
-189.173	7.639	-0.285	0.212
-188.158	-130.025	-0.097	0.013
-187.144	623.264	-0.049	-0.123
-186.129	578.538	-0.278	0.675
-185.114	-200.000	0.060	0.280
-184.100	-65.673	-0.158	0.063
-183.085	-3.016	-0.105	-0.072
-182.071	-129.106	0.261	0.036
-181.056	202.703	-0.281	-0.430
-180.042	-61.835	0.234	-0.097
-179.027	142.107	0.211	0.278
-178.012	430.896	0.194	-0.417
-176.998	3.254	0.181	0.131
-175.983	28.265	0.241	0.202
-174.969	17.873	0.198	-0.157
-173.954	-75.581	-0.186	0.066
-172.939	385.197	0.090	0.184
-171.925	56.930	-0.130	-0.126
-170.910	438.793	0.089	0.192
-169.896	-200.000	0.047	0.425
-168.881	-200.000	-0.004	0.236
-167.866	-200.000	0.001	-0.238
-166.852	264.712	0.202	0.349
-165.837	-200.000	0.003	-0.020
-164.823	-34.779	0.208	0.113
-163.808	113.365	0.084	0.102
-162.793	-123.212	0.120	-0.019
-161.779	-41.522	-0.160	0.081
-160.764	-67.396	-0.041	-0.016
-159.750	35.324	0.283	0.246
-158.735	102.037	-0.110	-0.128
-157.720	-158.506	-0.121	-0.007
-156.706	-133.531	-0.221	0.027
-155.691	401.098	0.048	0.099
-154.677	-132.908	0.116	0.015
-153.662	-200.000	0.026	-0.262
-152.647	-51.936	-0.129	-0.059
-151.633	66.805	0.180	0.182
-150.618	123.538	0.068	-0.085
-149.604	13.731	0.063	-0.049
-148.589	0.232	0.488	-0.345
-147.574	50.762	0.034	-0.031
-146.560	-88.024	0.323	-0.096
-145.545	-89.504	0.137	-0.040
-144.531	800.000	-0.069	0.199
-143.516	39.716	0.189	-0.168
-142.502	-176.327	0.015	0.000
-141.487	49.300	0.218	0.203
-140.472	-46.571	0.573	-0.278
-139.458	-111.888	0.062	-0.012
-138.443	800.000	-0.120	-0.336
-137.429	324.873	0.168	0.317
-136.414	789.847	-0.150	-0.408
-135.399	-55.421	0.280	0.124
-134.385	240.239	0.085	-0.140
-133.370	800.000	-0.034	-0.095
-132.356	174.040	-0.069	-0.099
-131.341	369.863	-0.117	-0.235
-130.326	-40.199	-0.211	-0.109
-129.312	218.307	-0.107	0.169
-128.297	-62.297	0.158	0.065
-127.283	-62.644	-0.096	0.040
-126.268	336.517	-0.141	0.271
-125.253	296.701	-0.077	0.140
-124.239	800.000	0.019	0.075
-123.224	589.525	-0.143	0.350
-122.210	-36.726	-0.164	-0.087
-121.195	-200.000	-0.009	0.203
