DTS Sentinel unit serial number:	SN413079Multiplexer serial number:	ORYXHardware model number:	OX4-SRSoftware version number:	ORYX F/W v4.00 Oryx Data Collector v3.7.2.0data status	okinstallation	princeton_trtdifferential loss correction	single-endedforward channel	channel 3reverse channel	N/Adate	2019/09/16time	03:04:35forward acquisition time	60.00reverse acquisition time	0.00gamma	496.2192k internal	0.2334k external	0.2334temperature offset calibration	0.9953default loss term (dB/km)	0.3790temperature slope calibration	1.0000multiplexer offset coefficient	1.0000multiplexer slope coefficient	1.0000fibre end	0.00T internal ref (°C)	27.75T ext. ref 1 (°C)	10.44T ext. ref 2 (°C)	22.14length (m)	temperature (°C)	Stokes	anti-Stokes-747.200	16.369	0.395	0.314
-746.185	800.000	-0.150	0.548
-745.171	-117.058	-0.200	0.037
-744.156	-97.680	-0.457	-0.119
-743.142	-25.120	0.068	0.041
-742.127	265.938	-0.134	0.235
-741.112	52.152	0.264	-0.253
-740.098	800.000	0.103	0.315
-739.083	800.000	0.071	0.238
-738.069	-171.459	0.233	0.008
-737.054	-39.102	0.388	-0.205
-736.039	375.666	-0.081	-0.166
-735.025	-12.846	0.246	0.161
-734.010	-49.461	-0.195	-0.093
-732.996	800.000	-0.098	-0.396
-731.981	59.452	-0.318	-0.315
-730.966	523.290	-0.126	-0.297
-729.952	-72.422	-0.324	-0.120
-728.937	-50.201	-0.108	-0.051
-727.923	65.980	0.014	-0.015
-726.908	800.000	0.062	-0.189
-725.894	-89.167	0.293	-0.087
-724.879	-200.000	-0.037	-0.280
-723.864	78.930	0.221	-0.238
-722.850	3.013	-0.185	-0.135
-721.835	800.000	0.036	0.139
-720.821	-184.147	-0.494	-0.008
-719.806	74.417	-0.065	0.068
-718.791	12.882	-0.281	0.218
-717.777	-88.197	-0.194	-0.058
-716.762	-45.301	0.343	-0.171
-715.748	800.000	-0.103	-0.307
-714.733	10.289	-0.306	-0.234
-713.718	83.998	-0.225	0.247
-712.704	-66.719	0.168	0.067
-711.689	800.000	-0.032	-0.107
-710.675	-200.000	0.047	-0.441
-709.660	242.437	0.239	-0.402
-708.645	13.144	0.174	0.135
-707.631	502.898	-0.042	0.097
-706.616	46.483	-0.152	0.141
-705.602	21.054	-0.040	0.032
-704.587	93.124	0.134	-0.152
-703.572	-200.000	-0.068	-0.404
-702.558	74.945	0.126	-0.133
-701.543	72.600	0.129	0.135
-700.529	-10.541	0.279	-0.185
-699.514	40.642	-0.174	0.157
-698.499	-200.000	-0.001	0.228
-697.485	-45.065	0.151	-0.075
-696.470	5.284	-0.286	-0.212
-695.456	-200.000	0.006	0.660
-694.441	1.751	-0.178	-0.129
-693.426	165.799	-0.134	-0.191
-692.412	-85.821	-0.193	0.060
-691.397	-200.000	-0.003	0.197
-690.383	197.245	0.103	0.158
-689.368	-26.548	-0.071	0.042
-688.354	-46.403	0.082	-0.041
-687.339	550.975	0.144	-0.346
-686.324	467.950	0.041	-0.093
-685.310	-95.703	0.334	-0.089
-684.295	-139.201	-0.343	-0.037
-683.281	-56.418	-0.089	0.039
-682.266	-37.608	0.247	0.132
-681.251	-200.000	0.004	0.054
-680.237	800.000	0.036	-0.132
-679.222	-200.000	-0.088	-0.414
-678.208	303.670	0.100	0.185
-677.193	313.160	0.050	-0.094
-676.178	610.298	0.122	0.305
-675.164	90.425	-0.158	-0.178
-674.149	-104.449	-0.385	-0.089
-673.135	-22.703	-0.307	0.186
-672.120	-69.213	-0.166	-0.064
-671.105	-11.301	0.153	0.101
-670.091	-200.000	-0.009	-0.042
-669.076	-200.000	0.020	-0.117
-668.062	-106.609	0.197	-0.044
-667.047	173.490	0.071	-0.103
-666.032	239.517	0.199	-0.331
-665.018	-200.000	-0.004	-0.391
-664.003	-200.000	-0.015	-0.235
-662.989	38.709	-0.174	-0.156
-661.974	800.000	-0.009	-0.029
-660.959	-5.653	0.130	-0.090
-659.945	800.000	0.075	0.208
-658.930	-152.760	-0.212	0.015
-657.916	664.913	0.053	-0.138
-656.901	-200.000	0.037	0.205
-655.886	-42.578	0.094	0.048
-654.872	242.697	-0.172	-0.288
-653.857	-116.269	0.332	0.062
-652.843	800.000	-0.085	-0.275
-651.828	-76.870	0.203	0.071
-650.814	262.716	0.090	0.157
-649.799	-200.000	-0.087	-0.490
-648.784	800.000	-0.125	0.348
-647.770	800.000	0.041	0.137
-646.755	800.000	-0.074	0.317
-645.741	41.211	-0.154	-0.139
-644.726	-88.756	-0.449	0.134
-643.711	-200.000	0.088	0.389
-642.697	-50.157	-0.155	0.074
-641.682	-43.597	0.246	0.124
-640.668	-97.624	-0.119	-0.031
-639.653	-81.407	0.176	-0.058
-638.638	-82.751	-0.176	0.057
-637.624	-106.255	-0.125	0.028
-636.609	-51.781	-0.260	0.121
-635.595	-176.441	-0.450	-0.012
-634.580	32.723	0.043	0.038
-633.565	-200.000	-0.053	-0.572
-632.551	516.141	-0.060	-0.139
-631.536	-200.000	-0.070	0.470
-630.522	207.717	0.074	-0.115
-629.507	-72.344	0.096	-0.036
-628.492	-200.000	0.017	0.318
-627.478	-15.302	-0.254	0.163
-626.463	50.787	-0.124	0.118
-625.449	132.628	-0.197	0.254
-624.434	21.360	-0.198	0.161
-623.419	164.897	0.023	-0.033
-622.405	-200.000	0.003	0.024
-621.390	-90.235	-0.322	0.094
-620.376	5.694	0.189	0.140
-619.361	-200.000	0.033	0.218
-618.346	-97.286	0.159	-0.042
-617.332	257.862	0.321	0.553
-616.317	800.000	0.034	0.139
-615.303	-200.000	-0.026	0.225
-614.288	-143.187	0.303	0.029
-613.273	400.404	0.075	0.157
-612.259	-149.520	-0.320	0.025
-611.244	599.550	-0.070	-0.173
-610.230	71.965	-0.133	-0.139
-609.215	-88.770	0.212	0.063
-608.201	487.366	0.066	0.152
-607.186	62.550	-0.238	-0.238
-606.171	-200.000	-0.031	0.272
-605.157	9.724	-0.347	0.263
-604.142	-135.402	0.379	0.045
-603.128	-200.000	-0.011	-0.292
-602.113	-125.989	0.448	-0.067
-601.098	160.662	0.114	-0.159
-600.084	430.914	-0.080	-0.174
-599.069	-74.023	0.186	0.067
-598.055	263.809	-0.037	-0.065
-597.040	-57.785	-0.051	-0.022
-596.025	167.665	-0.101	-0.144
-595.011	98.033	0.280	0.322
-593.996	-155.039	-0.040	0.003
-592.982	785.101	0.124	-0.341
-591.967	-170.747	-0.157	0.005
-590.952	113.102	-0.031	-0.038
-589.938	-94.177	0.502	-0.137
-588.923	-55.214	-0.216	0.097
-587.909	-66.388	0.280	-0.111
-586.894	-200.000	-0.033	-0.276
-585.879	259.305	-0.247	0.426
-584.865	86.444	-0.167	0.183
-583.850	129.124	-0.162	0.206
-582.836	-200.000	0.031	-0.431
-581.821	-86.684	0.250	0.077
-580.806	16.046	-0.184	0.145
-579.792	-117.821	-0.255	0.046
-578.777	39.103	0.055	-0.049
-577.763	55.136	0.074	0.071
-576.748	-50.367	0.200	-0.095
-575.733	-200.000	0.030	0.245
-574.719	101.529	0.195	-0.227
-573.704	-61.179	-0.338	0.142
-572.690	30.870	0.145	0.124
-571.675	-114.271	-0.370	-0.071
-570.661	-200.000	0.000	-0.140
-569.646	337.295	-0.078	-0.151
-568.631	800.000	-0.050	-0.170
-567.617	-200.000	-0.073	0.360
-566.602	633.949	-0.157	0.396
-565.588	-200.000	-0.002	-0.013
-564.573	-130.619	-0.236	0.032
-563.558	-130.186	0.152	0.021
-562.544	-87.569	-0.317	-0.096
-561.529	-200.000	-0.028	-0.122
-560.515	-61.492	0.224	-0.094
-559.500	-98.101	-0.160	0.041
-558.485	-200.000	0.007	0.124
-557.471	139.962	0.040	0.052
-556.456	791.534	-0.118	-0.324
-555.442	-134.037	0.413	0.051
-554.427	-200.000	-0.011	-0.156
-553.412	38.186	-0.231	-0.205
-552.398	718.339	-0.044	-0.116
-551.383	-200.000	0.001	-0.339
-550.369	800.000	0.060	0.193
-549.354	-65.048	-0.267	0.108
-548.339	16.369	-0.263	-0.207
-547.325	-200.000	0.008	-0.250
-546.310	-87.595	0.218	-0.066
-545.296	-29.259	0.400	-0.228
-544.281	350.751	-0.045	-0.089
-543.266	4.149	0.134	-0.098
-542.252	-163.552	0.247	-0.012
-541.237	512.832	0.056	-0.130
-540.223	264.375	0.226	-0.393
-539.208	-200.000	0.005	-0.265
-538.193	186.344	0.122	-0.181
-537.179	-2.552	-0.115	-0.080
-536.164	-200.000	0.003	-0.084
-535.150	98.058	-0.232	-0.266
-534.135	60.039	0.359	-0.354
-533.121	-163.493	0.428	0.020
-532.106	-90.980	-0.063	-0.018
-531.091	-59.160	-0.178	-0.076
-530.077	299.804	-0.016	-0.029
-529.062	-110.525	0.239	-0.049
-528.048	-2.241	-0.110	-0.077
-527.033	-88.271	0.141	-0.042
-526.018	800.000	-0.087	-0.282
-525.004	-33.161	0.110	0.061
-523.989	25.803	0.297	-0.246
-522.975	9.426	-0.203	-0.153
-521.960	581.752	0.033	0.080
-520.945	-49.961	-0.053	0.025
-519.931	620.028	-0.054	0.135
-518.916	-62.077	0.314	-0.131
-517.902	207.126	-0.006	-0.009
-516.887	-0.625	-0.258	0.182
-515.872	133.546	-0.156	0.201
-514.858	161.701	-0.073	-0.102
-513.843	157.281	0.111	-0.153
-512.829	-200.000	0.017	0.188
-511.814	19.753	0.085	-0.068
-510.799	-200.000	-0.045	-0.257
-509.785	38.797	-0.252	0.224
-508.770	-130.097	0.411	0.056
-507.756	799.602	0.099	-0.272
-506.741	84.707	0.193	0.210
-505.726	393.513	0.175	0.364
-504.712	-81.175	0.383	-0.126
-503.697	-155.579	0.173	-0.011
-502.683	-76.035	0.257	0.090
-501.668	-77.668	-0.025	0.009
-500.653	-150.269	-0.385	-0.030
-499.639	-200.000	-0.045	-0.416
-498.624	-112.857	-0.170	0.033
-497.610	-200.000	0.006	0.344
-496.595	-200.000	-0.004	0.055
-495.581	248.649	0.023	0.040
-494.566	537.885	-0.127	0.302
-493.551	592.494	0.215	-0.529
-492.537	526.007	0.082	-0.191
-491.522	-28.650	0.232	-0.133
-490.508	-120.243	-0.194	0.033
-489.493	59.638	-0.223	0.219
-488.478	-200.000	0.066	-0.551
-487.464	30.020	-0.101	-0.086
-486.449	-94.500	0.071	-0.019
-485.435	-23.229	-0.305	-0.182
-484.420	-119.407	-0.396	0.068
-483.405	189.350	-0.064	0.095
-482.391	-200.000	0.008	-0.067
-481.376	352.920	0.077	-0.152
-480.362	79.700	0.224	-0.239
-479.347	-45.449	-0.291	-0.144
-478.332	201.811	-0.109	0.167
-477.318	63.676	0.093	0.093
-476.303	800.000	0.024	-0.073
-475.289	308.330	0.221	0.411
-474.274	-139.670	-0.058	-0.006
-473.259	-146.068	-0.175	0.015
-472.245	202.449	-0.116	0.178
-471.230	181.514	-0.150	0.220
-470.216	-139.430	-0.045	-0.005
-469.201	647.940	0.062	0.157
-468.186	-107.801	-0.199	0.043
-467.172	-200.000	-0.003	0.068
-466.157	-130.348	0.179	-0.024
-465.143	-200.000	-0.009	0.239
-464.128	-47.940	-0.214	0.103
-463.113	-15.369	-0.040	0.025
-462.099	-157.160	0.193	0.012
-461.084	-200.000	0.008	-0.088
-460.070	-56.623	0.265	0.117
-459.055	-200.000	-0.004	0.159
-458.040	800.000	0.020	-0.081
-457.026	1.525	-0.091	-0.065
-456.011	-109.797	-0.082	-0.017
-454.997	-100.760	0.102	0.025
-453.982	-50.856	-0.336	0.157
-452.968	160.702	0.039	-0.054
-451.953	800.000	0.078	-0.274
-450.938	-90.373	0.304	0.088
-449.924	419.685	0.115	-0.246
-448.909	88.794	0.133	0.147
-447.895	55.671	-0.131	0.126
-446.880	-138.148	0.173	0.019
-445.865	-200.000	-0.064	-0.310
-444.851	640.017	-0.117	-0.296
-443.836	-66.411	-0.220	0.087
-442.822	800.000	0.104	-0.391
-441.807	-131.593	0.352	-0.046
-440.792	-51.837	0.089	-0.041
-439.778	-200.000	0.046	-0.324
-438.763	159.974	0.087	-0.120
-437.749	-27.667	-0.081	-0.047
-436.734	-13.375	0.265	-0.171
-435.719	-89.268	0.300	-0.088
-434.705	731.594	-0.114	0.302
-433.690	182.280	-0.081	-0.119
-432.676	3.414	-0.223	-0.161
-431.661	42.011	-0.135	-0.122
-430.646	-47.686	-0.368	-0.177
-429.632	144.620	0.205	-0.273
-428.617	23.174	-0.080	-0.065
-427.603	-200.000	0.085	-0.563
-426.588	13.919	-0.293	-0.226
-425.573	-71.029	0.337	0.126
-424.559	69.030	-0.019	0.020
-423.544	-200.000	0.010	-0.101
-422.530	53.134	0.179	0.170
-421.515	27.133	-0.264	-0.220
-420.500	146.073	0.029	-0.039
-419.486	435.606	0.032	0.069
-418.471	-22.786	0.153	0.092
-417.457	800.000	-0.047	-0.201
-416.442	-200.000	-0.029	0.234
-415.428	-200.000	-0.058	0.429
-414.413	308.369	-0.016	0.030
-413.398	-200.000	0.011	0.103
-412.384	-57.270	0.229	-0.100
-411.369	-200.000	-0.075	0.467
-410.355	-41.332	0.184	-0.094
-409.340	-12.600	-0.248	-0.160
-408.325	-38.378	-0.313	-0.165
-407.311	-200.000	0.006	-0.232
-406.296	-47.164	-0.277	-0.134
-405.282	-136.064	-0.076	-0.009
-404.267	-200.000	-0.012	0.293
-403.252	-136.745	0.232	0.027
-402.238	-13.236	-0.060	-0.039
-401.223	-16.191	0.019	0.012
-400.209	171.426	-0.058	0.082
-399.194	-200.000	0.048	0.311
-398.179	-97.873	-0.013	0.003
-397.165	-200.000	-0.014	-0.166
-396.150	-176.977	-0.306	0.008
-395.136	561.165	-0.175	0.419
-394.121	127.996	-0.113	0.142
-393.106	-200.000	-0.009	0.121
-392.092	-57.135	0.078	0.034
-391.077	-10.825	0.108	0.071
-390.063	-84.216	0.243	0.076
-389.048	-200.000	-0.019	0.266
-388.033	154.113	0.206	0.280
-387.019	11.362	-0.152	0.116
-386.004	104.913	-0.042	-0.049
-384.990	-120.393	-0.327	0.055
-383.975	-200.000	0.055	0.299
-382.960	92.155	-0.188	-0.210
-381.946	335.186	0.152	-0.291
-380.931	800.000	-0.134	0.419
-379.917	565.505	-0.100	0.240
-378.902	-193.411	0.061	-0.001
-377.888	-54.992	-0.340	-0.152
-376.873	-200.000	0.008	0.286
-375.858	35.232	0.218	0.189
-374.844	253.629	0.084	0.142
-373.829	-24.101	0.089	-0.052
-372.815	-142.963	-0.188	0.018
-371.800	253.381	0.147	0.248
-370.785	-142.442	0.170	0.017
-369.771	-200.000	0.041	0.251
-368.756	-200.000	-0.126	-0.001
-367.742	-200.000	0.040	-0.283
-366.727	161.197	-0.202	-0.280
-365.712	-200.000	-0.052	0.531
-364.698	-200.000	0.015	-0.263
-363.683	-110.377	-0.299	-0.062
-362.669	-35.245	0.282	0.152
-361.654	127.282	0.163	0.205
-360.639	5.636	0.190	0.139
-359.625	-61.103	0.256	0.107
-358.610	-95.196	-0.032	0.009
-357.596	-200.000	0.012	-0.461
-356.581	-48.160	-0.096	-0.046
-355.566	-38.161	-0.122	-0.064
-354.552	800.000	0.049	-0.157
-353.537	-80.205	-0.239	0.079
-352.523	-79.168	0.167	-0.056
-351.508	-137.584	0.051	0.006
-350.493	-78.525	0.278	0.094
-349.479	-200.000	0.033	-0.261
-348.464	-200.000	0.065	-0.301
-347.450	-66.850	-0.100	-0.039
-346.435	155.686	0.085	-0.116
-345.420	-31.944	-0.322	-0.178
-344.406	-200.000	0.290	0.000
-343.391	-200.000	0.019	-0.099
-342.377	108.590	-0.211	-0.249
-341.362	-200.000	0.060	-0.303
-340.348	108.349	-0.063	-0.075
-339.333	800.000	0.052	0.187
-338.318	-200.000	0.000	0.072
-337.304	-6.278	0.208	-0.141
-336.289	-69.938	0.259	0.097
-335.275	25.199	0.153	-0.126
-334.260	-135.137	0.097	-0.012
-333.245	-119.285	-0.202	-0.035
-332.231	800.000	0.031	-0.114
-331.216	67.690	0.186	0.188
-330.202	68.536	-0.200	-0.203
-329.187	18.831	0.038	0.030
-328.172	3.367	0.255	0.184
-327.158	372.782	-0.086	0.173
-326.143	179.295	0.181	0.262
-325.129	-90.823	0.370	0.106
-324.114	560.491	-0.053	0.127
-323.099	13.956	-0.288	0.222
-322.085	132.811	-0.154	-0.197
-321.070	-200.000	-0.018	-0.308
-320.056	42.278	-0.153	0.138
-319.041	-86.827	-0.206	-0.062
-318.026	-71.986	0.192	0.070
-317.012	-59.638	0.321	-0.136
-315.997	225.700	-0.077	0.124
-314.983	411.125	0.101	0.212
-313.968	66.199	-0.260	-0.261
-312.953	-61.120	-0.088	0.037
-311.939	-0.929	0.075	-0.053
-310.924	800.000	0.070	-0.217
-309.910	-145.554	-0.255	0.023
-308.895	-53.615	-0.290	0.131
-307.880	800.000	0.073	0.211
-306.866	180.493	-0.078	0.114
-305.851	-118.678	0.167	-0.029
-304.837	-103.063	0.363	-0.085
-303.822	81.025	0.122	-0.131
-302.807	-38.020	-0.118	0.062
-301.793	354.000	-0.063	-0.124
-300.778	-23.376	0.169	0.101
-299.764	-125.501	-0.338	-0.051
-298.749	446.326	-0.038	0.082
-297.735	800.000	-0.056	0.222
-296.720	-200.000	0.030	0.136
-295.705	-88.206	0.369	0.109
-294.691	-32.050	0.159	-0.088
-293.676	237.149	0.127	-0.207
-292.662	107.593	-0.109	-0.128
-291.647	-72.951	0.052	-0.019
-290.632	-200.000	0.004	-0.497
-289.618	-200.000	0.033	-0.362
-288.603	-148.451	-0.177	0.014
-287.589	-106.275	-0.086	0.019
-286.574	800.000	-0.072	0.252
-285.559	-55.077	-0.352	-0.157
-284.545	674.441	0.043	-0.110
-283.530	-5.971	-0.132	-0.089
-282.516	-71.612	-0.160	-0.059
-281.501	14.387	0.357	0.275
-280.486	800.000	0.077	0.239
-279.472	-200.000	-0.019	0.227
-278.457	-200.000	-0.016	-0.175
-277.443	-155.356	-0.235	0.015
-276.428	-200.000	0.087	0.402
-275.413	340.715	-0.167	0.322
-274.399	-200.000	-0.004	-0.206
-273.384	617.775	0.150	-0.372
-272.370	-68.556	-0.103	0.040
-271.355	800.000	-0.019	0.070
-270.340	-101.922	0.393	0.094
-269.326	564.034	0.021	0.051
-268.311	556.935	-0.054	0.128
-267.297	800.000	0.017	-0.047
-266.282	194.048	0.143	-0.213
-265.267	-200.000	0.006	0.027
-264.253	130.625	0.179	-0.226
-263.238	800.000	-0.026	0.100
-262.224	-26.748	0.232	-0.134
-261.209	43.785	-0.151	-0.137
-260.195	-29.549	0.164	-0.093
-259.180	-200.000	0.012	0.067
-258.165	-154.086	-0.139	0.009
-257.151	17.252	-0.126	-0.098
-256.136	-129.657	0.152	-0.021
-255.122	-200.000	-0.006	0.169
-254.107	21.475	-0.310	-0.249
-253.092	-110.634	0.313	0.064
-252.078	-200.000	-0.013	0.321
-251.063	-200.000	0.019	0.161
-250.049	-97.353	0.114	0.029
-249.034	96.796	-0.235	-0.265
-248.019	780.744	-0.061	-0.166
-247.005	76.488	-0.123	-0.129
-245.990	-200.000	0.053	-0.417
-244.976	85.334	-0.187	-0.202
-243.961	118.774	0.117	0.142
-242.946	525.872	-0.062	-0.145
-241.932	800.000	-0.041	0.150
-240.917	785.531	0.092	0.248
-239.903	-200.000	0.025	-0.151
-238.888	551.850	-0.038	-0.090
-237.873	112.931	-0.066	0.079
-236.859	800.000	-0.063	-0.248
-235.844	-127.997	-0.050	0.007
-234.830	2.085	0.216	-0.154
-233.815	-154.548	-0.105	0.007
-232.800	800.000	0.063	0.232
-231.786	138.685	-0.143	0.185
-230.771	-200.000	-0.009	0.122
-229.757	-89.923	-0.248	-0.071
-228.742	357.191	0.067	0.131
-227.727	-200.000	-0.037	0.385
-226.713	-200.000	-0.029	-0.375
-225.698	38.582	0.207	0.182
-224.684	-162.759	0.347	-0.017
-223.669	475.507	-0.008	-0.019
-222.655	118.780	-0.176	-0.214
-221.640	156.595	0.104	0.141
-220.625	214.851	-0.069	0.108
-219.611	800.000	-0.075	0.211
-218.596	-200.000	-0.028	0.223
-217.582	-138.867	-0.249	0.027
-216.567	7.037	0.110	-0.081
-215.552	131.033	0.181	-0.229
-214.538	-164.465	-0.253	-0.011
-213.523	77.913	-0.161	-0.168
-212.509	-200.000	0.018	-0.242
-211.494	140.650	0.048	-0.063
-210.479	1.302	0.208	0.147
-209.465	-200.000	-0.027	0.269
-208.450	191.536	-0.183	-0.272
-207.436	6.686	-0.056	0.041
-206.421	-115.843	0.513	0.094
-205.406	-53.256	-0.420	-0.190
-204.392	30.255	0.196	0.164
-203.377	-200.000	0.041	0.262
-202.363	-200.000	0.004	0.020
-201.348	-54.073	0.121	-0.054
-200.333	101.768	-0.184	0.211
-199.319	734.049	-0.116	0.305
-198.304	83.873	-0.317	0.341
-197.290	-58.813	-0.076	0.032
-196.275	-15.104	-0.146	-0.092
-195.260	17.863	-0.214	0.168
-194.246	-93.455	0.096	0.026
-193.231	-200.000	0.017	0.180
-192.217	59.914	0.284	0.276
-191.202	-63.266	0.222	0.090
-190.187	370.653	0.125	0.250
-189.173	47.987	0.080	-0.074
-188.158	25.653	-0.338	-0.277
-187.144	-19.509	0.344	0.209
-186.129	470.670	0.145	0.321
-185.114	135.474	0.074	-0.094
-184.100	-35.492	0.219	-0.117
-183.085	800.000	0.020	0.059
-182.071	667.754	0.112	-0.285
-181.056	-135.977	-0.153	-0.018
-180.042	88.080	-0.076	-0.082
-179.027	-26.045	-0.089	0.052
-178.012	-200.000	-0.007	0.198
-176.998	-105.566	-0.392	-0.087
-175.983	0.594	0.095	0.067
-174.969	-200.000	0.002	0.257
-173.954	-90.633	-0.407	-0.116
-172.939	-87.132	0.187	-0.056
-171.925	-200.000	0.034	-0.243
-170.910	-147.654	0.301	0.025
-169.896	-200.000	0.028	0.239
-168.881	28.536	0.339	-0.282
-167.866	-160.080	0.226	-0.012
-166.852	-20.879	-0.330	0.198
-165.837	-200.000	0.003	-0.114
-164.823	-167.666	-0.413	-0.016
-163.808	-109.764	0.211	0.044
-162.793	184.807	0.102	0.149
-161.779	-92.854	0.441	-0.121
-160.764	-20.474	0.102	-0.062
-159.750	-200.000	-0.003	-0.087
-158.735	514.237	0.066	-0.151
-157.720	-30.223	-0.378	0.211
-156.706	205.707	0.062	0.094
-155.691	102.834	-0.063	-0.072
-154.677	-61.488	0.277	0.114
-153.662	15.803	0.141	0.109
-152.647	-7.185	-0.125	-0.083
-151.633	-68.356	-0.173	0.066
-150.618	800.000	-0.030	-0.109
-149.604	417.340	0.072	0.150
-148.589	800.000	-0.072	-0.290
-147.574	59.582	-0.154	-0.149
-146.560	800.000	0.039	0.144
-145.545	-200.000	0.061	0.364
-144.531	232.600	-0.206	0.332
-143.516	-52.849	0.193	0.087
-142.502	227.548	0.063	0.100
-141.487	15.077	0.396	0.305
-140.472	9.162	-0.026	-0.019
-139.458	71.876	-0.114	0.117
-138.443	-154.518	0.184	0.012
-137.429	0.463	-0.226	0.159
-136.414	-4.101	-0.113	-0.077
-135.399	-74.472	-0.222	0.078
-134.385	206.326	0.284	0.434
-133.370	138.552	-0.069	-0.089
-132.356	77.861	-0.047	0.049
-131.341	-200.000	-0.005	0.110
-130.326	252.165	0.035	-0.059
-129.312	-107.258	-0.501	-0.108
-128.297	272.192	-0.146	0.252
-127.283	-44.354	-0.029	0.014
-126.268	-200.000	0.015	0.092
-125.253	178.781	-0.274	-0.393
-124.239	-43.350	0.137	-0.068
-123.224	-200.000	-0.009	-0.045
-122.210	800.000	-0.153	0.416
-121.195	-200.000	-0.057	0.262
