DTS Sentinel unit serial number:	SN413079Multiplexer serial number:	ORYXHardware model number:	OX4-SRSoftware version number:	ORYX F/W v4.00 Oryx Data Collector v3.7.2.0data status	okinstallation	princeton_trtdifferential loss correction	single-endedforward channel	channel 3reverse channel	N/Adate	2019/09/12time	18:30:04forward acquisition time	15.00reverse acquisition time	0.00gamma	496.2192k internal	0.2317k external	0.2317temperature offset calibration	1.0093default loss term (dB/km)	0.3790temperature slope calibration	1.0000multiplexer offset coefficient	1.0000multiplexer slope coefficient	1.0000fibre end	0.00T internal ref (°C)	33.25T ext. ref 1 (°C)	2.96T ext. ref 2 (°C)	27.83length (m)	temperature (°C)	Stokes	anti-Stokes-747.200	-17.132	0.185	-0.118
-746.185	-8.643	-0.139	-0.094
-745.171	800.000	-0.232	-0.671
-744.156	23.677	0.073	0.061
-743.142	164.971	-0.304	0.435
-742.127	92.351	-0.544	-0.621
-741.112	-20.289	-0.424	0.264
-740.098	-200.000	0.006	0.243
-739.083	-78.163	-0.462	0.161
-738.069	188.378	-0.485	-0.735
-737.054	548.091	0.242	-0.586
-736.039	-45.768	-0.575	0.288
-735.025	-94.966	0.489	0.134
-734.010	53.213	0.454	-0.441
-732.996	-45.639	-0.333	-0.167
-731.981	-89.315	0.212	0.063
-730.966	-83.279	-0.755	-0.245
-729.952	612.414	-0.087	-0.221
-728.937	-200.000	-0.013	0.079
-727.923	-119.445	0.770	0.135
-726.908	60.126	0.162	0.162
-725.894	404.944	0.258	-0.550
-724.879	-23.963	-0.353	0.214
-723.864	-100.278	0.108	0.027
-722.850	-186.715	-0.159	-0.002
-721.835	-97.419	-0.667	-0.175
-720.821	144.417	0.398	-0.537
-719.806	290.089	-0.320	0.588
-718.791	146.190	0.533	-0.724
-717.777	120.121	0.207	-0.260
-716.762	800.000	-0.064	-0.252
-715.748	-12.160	0.646	-0.428
-714.733	75.557	-0.655	-0.699
-713.718	53.227	-0.061	-0.059
-712.704	-150.813	0.216	-0.017
-711.689	-120.726	-0.356	0.061
-710.675	37.814	0.597	0.536
-709.660	-147.037	0.625	-0.054
-708.645	-165.141	0.208	0.009
-707.631	55.463	-0.449	0.440
-706.616	11.971	-0.675	-0.525
-705.602	179.185	0.201	0.297
-704.587	-111.382	0.025	0.005
-703.572	-127.118	1.042	-0.154
-702.558	-158.137	0.131	0.008
-701.543	-49.470	0.206	0.099
-700.529	156.167	-0.194	-0.271
-699.514	440.519	-0.267	0.590
-698.499	50.659	-0.396	0.379
-697.485	-62.626	-0.344	0.144
-696.470	-200.000	0.048	0.994
-695.456	-88.079	0.507	-0.154
-694.441	-137.463	0.068	-0.008
-693.426	-200.000	0.087	-0.674
-692.412	35.635	0.810	-0.719
-691.397	-114.704	0.382	0.074
-690.383	-129.633	0.629	-0.088
-689.368	-182.663	-0.229	-0.004
-688.354	251.843	0.145	-0.249
-687.339	518.298	-0.173	0.410
-686.324	-55.040	0.582	-0.265
-685.310	-200.000	-0.181	0.903
-684.295	493.872	-0.193	-0.447
-683.281	800.000	-0.101	0.432
-682.266	57.550	0.536	-0.529
-681.251	-9.342	0.158	-0.106
-680.237	-163.547	-0.108	-0.005
-679.222	-174.703	-0.380	-0.011
-678.208	-200.000	0.112	-0.883
-677.193	217.265	-0.045	-0.072
-676.178	-131.761	-0.672	0.089
-675.164	-5.187	-0.293	-0.203
-674.149	-200.000	0.072	0.380
-673.135	61.055	-0.212	0.212
-672.120	-200.000	-0.076	-0.424
-671.105	-51.723	-0.422	-0.198
-670.091	-22.293	-0.531	-0.325
-669.076	-115.517	0.568	0.108
-668.062	800.000	-0.234	0.663
-667.047	800.000	-0.188	-0.597
-666.032	800.000	0.272	-0.866
-665.018	-99.128	-1.053	-0.269
-664.003	-200.000	0.062	-0.386
-662.989	-200.000	0.042	1.082
-661.974	9.532	-0.369	0.282
-660.959	17.296	-0.606	-0.485
-659.945	111.045	-0.283	-0.343
-658.930	38.430	-0.532	-0.479
-657.916	-15.954	0.319	-0.205
-656.901	-200.000	0.088	-0.510
-655.886	61.365	-0.300	-0.301
-654.872	270.502	0.254	-0.451
-653.857	-52.184	-0.175	0.082
-652.843	27.673	0.157	0.133
-651.828	-200.000	0.010	0.745
-650.814	116.439	0.192	0.237
-649.799	329.510	-0.503	-0.976
-648.784	-47.035	-0.078	0.038
-647.770	-7.330	-0.231	0.158
-646.755	-136.034	-0.291	0.034
-645.741	-4.788	-0.228	0.158
-644.726	800.000	0.038	-0.129
-643.711	-190.282	0.886	-0.010
-642.697	376.357	-0.291	-0.598
-641.682	800.000	-0.062	-0.256
-640.668	51.662	-0.152	-0.146
-639.653	800.000	-0.212	0.607
-638.638	-200.000	0.132	-1.129
-637.624	-62.270	-1.084	-0.455
-636.609	-45.462	-0.210	-0.105
-635.595	-111.465	0.394	0.081
-634.580	-83.258	-0.502	-0.163
-633.565	-30.073	0.399	0.229
-632.551	800.000	-0.090	0.297
-631.536	-22.446	0.347	-0.212
-630.522	84.619	-0.143	0.158
-629.507	-39.330	0.868	0.459
-628.492	98.384	-0.313	-0.363
-627.478	299.657	-0.408	-0.757
-626.463	-20.343	-0.608	0.377
-625.449	150.175	-0.196	-0.268
-624.434	49.678	0.662	0.628
-623.419	164.772	0.341	-0.485
-622.405	65.741	0.520	-0.531
-621.390	-200.000	0.030	-0.529
-620.376	178.965	-0.116	-0.171
-619.361	800.000	-0.055	-0.185
-618.346	-200.000	0.186	0.849
-617.332	-200.000	-0.015	0.684
-616.317	23.710	0.341	-0.283
-615.303	35.721	0.863	-0.764
-614.288	-91.379	-0.294	-0.085
-613.273	-96.704	-0.465	0.123
-612.259	-48.502	-0.306	-0.148
-611.244	-26.042	-0.424	-0.251
-610.230	156.889	0.130	-0.180
-609.215	87.919	0.464	-0.518
-608.201	105.496	0.371	-0.442
-607.186	800.000	-0.144	-0.491
-606.171	-200.000	0.097	0.433
-605.157	36.149	-0.676	-0.599
-604.142	-200.000	-0.026	0.346
-603.128	-200.000	0.010	0.221
-602.113	-96.581	-0.193	0.051
-601.098	-200.000	-0.020	-1.079
-600.084	-129.294	-0.225	0.031
-599.069	70.472	-0.369	0.384
-598.055	188.923	0.162	0.244
-597.040	-200.000	-0.055	0.394
-596.025	686.061	-0.071	-0.185
-595.011	-200.000	0.026	0.840
-593.996	11.117	-0.504	-0.388
-592.982	86.703	0.330	0.367
-591.967	-161.359	0.400	0.021
-590.952	-48.015	-0.198	-0.097
-589.938	26.088	-0.675	-0.567
-588.923	-200.000	-0.060	0.442
-587.909	157.879	-0.456	0.636
-586.894	-124.615	-0.389	-0.061
-585.879	-33.723	0.620	-0.344
-584.865	-200.000	-0.118	-0.871
-583.850	10.643	0.876	-0.672
-582.836	183.173	-0.181	-0.269
-581.821	-30.431	0.251	0.143
-580.806	800.000	0.115	-0.332
-579.792	201.704	-0.487	-0.755
-578.777	95.645	-0.296	-0.339
-577.763	66.313	0.560	0.572
-576.748	-200.000	0.050	-0.251
-575.733	-110.034	-0.466	0.098
-574.719	-145.985	-0.844	-0.075
-573.704	544.233	-0.091	-0.220
-572.690	-146.342	0.663	0.058
-571.675	-151.683	-1.046	-0.078
-570.661	-83.223	0.942	0.304
-569.646	-10.822	0.388	0.258
-568.631	47.091	-0.414	-0.388
-567.617	-116.438	0.179	0.033
-566.602	-200.000	-0.265	1.371
-565.588	-172.523	-0.399	0.013
-564.573	-121.585	-0.533	-0.089
-563.558	-17.184	-0.737	0.467
-562.544	30.582	-0.521	0.448
-561.529	-127.790	0.614	0.089
-560.515	-151.241	0.489	0.037
-559.500	768.242	0.242	0.661
-558.485	68.005	-0.362	0.372
-557.471	800.000	-0.069	0.281
-556.456	68.917	0.411	0.424
-555.442	-200.000	0.069	0.569
-554.427	-103.681	-0.130	-0.031
-553.412	-200.000	0.009	-0.274
-552.398	-200.000	-0.012	0.583
-551.383	-33.494	0.136	-0.075
-550.369	123.003	-0.310	-0.390
-549.354	371.221	-0.250	-0.510
-548.339	800.000	0.107	-0.451
-547.325	-2.506	0.837	-0.589
-546.310	454.402	0.175	-0.390
-545.296	769.704	-0.162	-0.444
-544.281	515.317	-0.139	0.327
-543.266	-200.000	0.060	-0.521
-542.252	84.535	0.360	-0.396
-541.237	-130.854	-0.225	0.030
-540.223	-200.000	-0.017	0.472
-539.208	11.104	0.275	0.211
-538.193	-95.595	-0.258	0.069
-537.179	-200.000	0.012	0.668
-536.164	66.271	-0.279	-0.285
-535.150	68.766	0.276	0.284
-534.135	201.372	-0.267	0.413
-533.121	118.650	-0.133	-0.165
-532.106	-200.000	-0.025	-0.138
-531.091	400.880	0.338	0.713
-530.077	773.122	-0.430	-1.177
-529.062	305.359	-0.233	-0.436
-528.048	388.410	0.087	-0.180
-527.033	191.533	-0.307	-0.463
-526.018	30.089	0.381	-0.326
-525.004	-25.111	0.325	-0.193
-523.989	-103.384	-0.815	0.193
-522.975	8.363	0.740	0.559
-521.960	176.518	-0.364	0.530
-520.945	-200.000	-0.048	0.389
-519.931	-58.978	-0.591	-0.256
-518.916	800.000	-0.219	0.738
-517.902	-200.000	-0.026	0.204
-516.887	478.943	0.235	0.535
-515.872	-124.021	0.461	-0.073
-514.858	-0.370	-0.411	0.293
-513.843	-200.000	0.040	0.552
-512.829	46.926	0.291	0.271
-511.814	-200.000	-0.052	0.404
-510.799	350.373	0.368	-0.729
-509.785	-20.380	0.576	0.355
-508.770	-200.000	0.018	0.189
-507.756	-100.105	-0.255	0.064
-506.741	18.182	0.969	0.775
-505.726	-200.000	-0.111	1.092
-504.712	-164.429	-0.204	-0.009
-503.697	81.907	0.395	0.429
-502.683	222.900	-0.413	0.667
-501.668	161.167	-0.760	1.065
-500.653	205.454	-0.194	-0.303
-499.639	-7.241	0.130	-0.088
-498.624	-76.486	-0.408	0.144
-497.610	-91.842	0.023	-0.007
-496.595	592.100	-0.123	0.305
-495.581	156.355	-0.140	0.194
-494.566	-119.211	-0.837	0.146
-493.551	58.136	-0.264	-0.260
-492.537	-123.253	0.325	0.052
-491.522	800.000	0.236	0.655
-490.508	659.936	0.166	0.428
-489.493	370.416	-0.153	-0.311
-488.478	-157.096	0.540	0.033
-487.464	-38.630	-0.529	0.280
-486.449	379.093	-0.582	-1.195
-485.435	734.725	-0.064	0.172
-484.420	800.000	0.109	-0.343
-483.405	138.431	-0.433	-0.569
-482.391	-12.462	0.350	-0.229
-481.376	-154.910	-0.324	-0.021
-480.362	262.241	0.089	0.155
-479.347	42.214	-0.593	0.540
-478.332	-104.169	-0.389	0.091
-477.318	66.018	0.379	-0.386
-476.303	41.184	0.508	-0.460
-475.289	-115.534	0.974	0.184
-474.274	-200.000	0.136	0.808
-473.259	273.589	-0.229	-0.405
-472.245	-200.000	0.070	-1.052
-471.230	800.000	0.274	0.906
-470.216	-200.000	0.283	0.000
-469.201	103.459	0.330	-0.388
-468.186	-90.738	0.759	0.219
-467.172	-108.447	0.142	-0.031
-466.157	142.191	-0.467	-0.620
-465.143	-55.754	0.201	-0.090
-464.128	-200.000	-0.074	-0.907
-463.113	251.492	-0.203	-0.347
-462.099	-125.560	-0.193	-0.029
-461.084	-200.000	0.015	0.733
-460.070	-200.000	-0.039	-0.575
-459.055	-125.276	0.365	-0.056
-458.040	-200.000	0.113	-0.905
-457.026	-200.000	-0.077	0.346
-456.011	308.403	0.110	0.205
-454.997	800.000	0.250	-0.751
-453.982	-55.328	0.447	0.201
-452.968	-140.301	-0.452	0.047
-451.953	800.000	-0.190	-0.802
-450.938	-200.000	0.037	-0.216
-449.924	800.000	-0.132	0.415
-448.909	399.747	0.777	1.629
-447.895	-200.000	-0.068	0.359
-446.880	-3.605	0.658	-0.458
-445.865	-135.417	-0.302	-0.036
-444.851	-49.190	0.189	-0.090
-443.836	800.000	0.186	0.701
-442.822	-91.971	-0.923	0.262
-441.807	-2.460	0.591	0.415
-440.792	658.430	0.058	-0.149
-439.778	-17.030	-0.709	-0.448
-438.763	88.920	0.357	0.397
-437.749	164.431	-0.231	-0.326
-436.734	-120.260	0.242	0.041
-435.719	-74.369	0.210	0.076
-434.705	368.036	0.342	-0.692
-433.690	165.735	0.091	-0.129
-432.676	-127.557	-0.590	0.086
-431.661	-56.334	-0.305	-0.136
-430.646	-200.000	0.167	-0.767
-429.632	-200.000	-0.031	0.505
-428.617	-167.020	-0.311	-0.013
-427.603	145.879	-0.272	-0.365
-426.588	-38.614	-0.399	0.211
-425.573	-81.894	0.719	0.235
-424.559	19.112	-0.411	0.330
-423.544	-75.616	0.841	-0.299
-422.530	56.792	0.411	0.400
-421.515	250.350	-0.337	0.572
-420.500	0.499	0.544	-0.389
-419.486	-200.000	0.050	-0.477
-418.471	-37.200	0.644	0.345
-417.457	-37.269	-0.388	-0.207
-416.442	-101.826	0.624	-0.151
-415.428	-13.899	-0.176	0.113
-414.413	-100.958	0.149	0.037
-413.398	83.567	-0.538	-0.586
-412.384	-19.944	0.426	0.263
-411.369	-200.000	0.033	0.167
-410.355	800.000	0.304	1.232
-409.340	800.000	0.199	-0.566
-408.325	149.989	-0.441	-0.597
-407.311	-136.666	-0.503	0.058
-406.296	330.464	0.541	-1.041
-405.282	-200.000	-0.102	-0.559
-404.267	-77.131	-0.905	-0.315
-403.252	240.311	-0.197	-0.328
-402.238	-200.000	-0.007	-0.374
-401.223	-139.042	0.819	0.089
-400.209	126.561	0.194	0.245
-399.194	800.000	0.106	0.457
-398.179	-200.000	0.028	-0.172
-397.165	-183.687	-0.594	0.010
-396.150	-22.566	-0.711	0.430
-395.136	27.854	-0.393	0.331
-394.121	-121.500	-0.298	-0.049
-393.106	80.825	0.643	0.693
-392.092	68.898	0.280	0.287
-391.077	7.688	-0.410	-0.306
-390.063	800.000	0.121	0.393
-389.048	-34.172	0.146	0.080
-388.033	63.429	-0.430	-0.431
-387.019	123.416	0.230	0.288
-386.004	-55.184	0.798	0.358
-384.990	-139.743	0.374	-0.040
-383.975	-20.094	-0.925	-0.570
-382.960	8.568	0.145	-0.109
-381.946	17.514	0.386	-0.306
-380.931	-121.796	-0.597	0.098
-379.917	798.661	-0.015	-0.042
-378.902	36.022	-0.425	-0.373
-377.888	800.000	-0.060	0.233
-376.873	34.515	-0.721	-0.628
-375.858	-200.000	-0.027	-0.206
-374.844	-110.226	-0.652	-0.136
-373.829	-10.909	0.524	-0.345
-372.815	434.043	-0.200	0.434
-371.800	120.931	0.382	0.474
-370.785	581.473	-0.062	-0.152
-369.771	-8.068	0.354	-0.238
-368.756	-200.000	-0.879	0.003
-367.742	-68.566	-0.449	-0.174
-366.727	800.000	0.166	-0.649
-365.712	-5.492	0.691	0.473
-364.698	125.386	0.556	-0.699
-363.683	103.724	0.413	-0.483
-362.669	-200.000	0.054	0.954
-361.654	143.361	0.779	1.034
-360.639	-111.613	-0.631	-0.128
-359.625	-17.607	-0.455	0.285
-358.610	142.920	0.342	-0.453
-357.596	-136.294	0.999	0.116
-356.581	800.000	-0.186	0.552
-355.566	800.000	-0.117	-0.341
-354.552	-12.127	0.475	-0.310
-353.537	-40.545	-0.498	-0.258
-352.523	94.765	-0.094	0.107
-351.508	-33.444	0.573	-0.316
-350.493	-200.000	-0.055	-0.547
-349.479	800.000	-0.118	-0.395
-348.464	-64.116	-0.545	0.222
-347.450	-141.420	0.312	-0.032
-346.435	-125.315	0.827	0.126
-345.420	0.901	0.595	-0.425
-344.406	141.821	-0.526	0.694
-343.391	94.498	-0.420	0.476
-342.377	248.605	-0.258	0.435
-341.362	-12.572	0.258	0.168
-340.348	-131.657	0.233	0.030
-339.333	3.957	-0.420	-0.306
-338.318	-80.360	0.195	-0.065
-337.304	-164.942	0.384	0.017
-336.289	-103.990	-0.288	0.067
-335.275	428.429	-0.043	-0.093
-334.260	800.000	-0.127	-0.435
-333.245	174.509	-0.178	0.256
-332.231	151.710	-0.528	-0.717
-331.216	-89.199	0.605	-0.178
-330.202	-13.913	-0.545	-0.351
-329.187	-17.752	0.088	-0.055
-328.172	-68.365	-0.581	0.225
-327.158	52.726	-0.370	0.352
-326.143	104.723	0.620	-0.727
-325.129	-200.000	-0.033	-0.208
-324.114	329.119	0.412	-0.788
-323.099	-16.913	-0.410	0.258
-322.085	135.016	-0.297	-0.384
-321.070	-200.000	-0.227	-1.158
-320.056	-184.224	0.461	0.008
-319.041	-71.887	-0.808	0.299
-318.026	281.893	0.447	0.798
-317.012	625.772	0.278	0.699
-315.997	-148.395	-0.314	-0.026
-314.983	-138.130	-0.166	0.018
-313.968	-33.351	0.786	0.433
-312.953	73.110	-0.394	-0.410
-311.939	194.073	0.459	-0.692
-310.924	800.000	0.230	0.960
-309.910	47.990	-0.396	0.368
-308.895	-121.181	0.326	0.054
-307.880	190.475	-0.482	-0.721
-306.866	5.266	0.563	-0.413
-305.851	238.189	0.024	-0.040
-304.837	404.357	0.105	0.220
-303.822	69.245	0.237	0.243
-302.807	156.279	0.283	0.389
-301.793	-57.665	-0.558	-0.243
-300.778	-200.000	0.065	-0.355
-299.764	800.000	0.066	0.282
-298.749	-32.688	-0.246	-0.136
-297.735	125.606	-0.758	0.952
-296.720	-23.408	-0.642	-0.384
-295.705	-141.792	1.247	-0.124
-294.691	134.419	0.201	-0.259
-293.676	-200.000	-0.031	-0.593
-292.662	447.994	-0.148	0.324
-291.647	52.848	-0.510	-0.485
-290.632	-200.000	-0.004	-0.379
-289.618	-157.492	0.540	-0.032
-288.603	-157.423	-0.657	-0.039
-287.589	461.400	-0.073	-0.162
-286.574	106.040	0.248	0.292
-285.559	-56.020	0.237	0.105
-284.545	-78.653	0.517	0.176
-283.530	266.161	0.092	0.160
-282.516	-65.030	-0.536	0.215
-281.501	-95.323	0.148	0.040
-280.486	800.000	-0.045	0.194
-279.472	-200.000	0.098	1.025
-278.457	-13.027	0.987	0.638
-277.443	800.000	0.080	0.232
-276.428	4.323	-0.581	0.424
-275.413	121.489	0.586	0.726
-274.399	-200.000	-0.163	-0.797
-273.384	71.978	0.273	-0.283
-272.370	-122.508	-0.577	0.093
-271.355	-133.514	-0.644	-0.080
-270.340	-173.660	-0.677	0.020
-269.326	-199.275	0.067	0.000
-268.311	-125.379	0.344	-0.052
-267.297	-25.280	0.889	-0.523
-266.282	-200.000	0.000	0.420
-265.267	13.859	1.129	0.873
-264.253	-43.912	0.779	-0.389
-263.238	-84.646	0.826	-0.258
-262.224	-38.088	-0.109	-0.057
-261.209	362.235	-0.268	0.535
-260.195	100.356	-0.133	0.153
-259.180	69.517	-0.397	-0.407
-258.165	145.963	0.201	0.268
-257.151	-200.000	-0.040	0.238
-256.136	133.434	0.178	0.229
-255.122	-146.549	0.976	-0.084
-254.107	-102.022	0.117	-0.028
-253.092	280.629	0.194	0.345
-252.078	-200.000	0.056	-0.381
-251.063	-72.972	1.130	-0.412
-250.049	-90.341	0.363	-0.105
-249.034	62.939	-0.345	0.343
-248.019	-81.270	0.729	-0.239
-247.005	-90.525	-0.525	-0.151
-245.990	-200.000	-0.019	0.117
-244.976	-99.772	0.594	-0.148
-243.961	-137.713	-0.417	-0.047
-242.946	150.323	-0.702	-0.946
-241.932	-5.292	-0.155	-0.106
-240.917	-191.626	0.418	0.004
-239.903	800.000	-0.137	0.587
-238.888	-200.000	-0.100	0.544
-237.873	-200.000	0.023	-0.195
-236.859	383.623	0.232	0.473
-235.844	59.744	0.666	-0.652
-234.830	-122.272	-1.391	-0.226
-233.815	-21.018	0.785	-0.477
-232.800	-165.913	0.640	-0.027
-231.786	315.994	0.207	0.388
-230.771	-85.903	-0.505	-0.155
-229.757	-76.570	-0.083	0.029
-228.742	596.097	-0.225	0.554
-227.727	-200.000	-0.093	0.462
-226.713	-200.000	-0.017	-0.202
-225.698	558.616	-0.117	-0.279
-224.684	800.000	0.201	-0.586
-223.669	35.570	0.515	0.449
-222.655	583.420	0.337	-0.821
-221.640	-103.319	-0.132	0.031
-220.625	-200.000	-0.053	-0.368
-219.611	323.985	0.133	0.253
-218.596	229.673	0.340	-0.550
-217.582	51.111	0.209	0.197
-216.567	237.089	-0.211	-0.347
-215.552	655.122	-0.331	-0.842
-214.538	597.794	0.138	0.339
-213.523	568.748	0.097	0.233
-212.509	-29.128	0.422	-0.240
-211.494	228.475	0.262	-0.423
-210.479	132.060	0.165	-0.211
-209.465	21.710	-0.190	0.154
-208.450	150.706	0.525	0.707
-207.436	-8.219	0.284	-0.189
-206.421	-200.000	0.022	-0.431
-205.406	-40.653	-0.913	0.469
-204.392	185.942	-0.299	0.441
-203.377	-5.847	-0.415	-0.282
-202.363	63.696	-0.295	-0.293
-201.348	-136.867	0.650	0.074
-200.333	-175.346	0.254	0.007
-199.319	-52.660	-0.622	0.285
-198.304	-150.706	-0.432	-0.033
-197.290	-154.785	0.333	0.022
-196.275	-73.500	-0.463	0.168
-195.260	-200.000	0.030	-0.866
-194.246	-92.872	0.732	0.203
-193.231	-77.248	-0.542	0.187
-192.217	412.493	-0.089	0.187
-191.202	136.053	0.169	0.218
-190.187	172.566	-0.525	0.748
-189.173	-84.274	-0.249	0.078
-188.158	18.349	-0.331	0.262
-187.144	-200.000	-0.000	-0.681
-186.129	-200.000	-0.020	0.478
-185.114	217.994	-0.418	-0.660
-184.100	-107.234	-0.245	-0.053
-183.085	-90.273	-0.386	0.111
-182.071	650.986	-0.170	0.430
-181.056	-200.000	-0.061	-0.430
-180.042	271.844	-0.241	0.421
-179.027	22.593	0.055	-0.045
-178.012	-45.451	-0.180	0.088
-176.998	-60.795	0.407	0.170
-175.983	-96.108	0.589	0.155
-174.969	-123.704	-1.060	0.166
-173.954	-200.000	0.026	0.338
-172.939	-71.414	-0.330	-0.122
-171.925	17.932	0.371	0.293
-170.910	800.000	0.218	-0.684
-169.896	453.231	-0.257	-0.563
-168.881	-135.979	0.554	-0.065
-167.866	-200.000	-0.005	0.285
-166.852	800.000	-0.081	-0.232
-165.837	-200.000	0.009	0.766
-164.823	101.991	0.424	0.489
-163.808	-200.000	-0.091	0.878
-162.793	-170.779	-0.162	0.006
-161.779	21.024	-0.367	-0.295
-160.764	-200.000	-0.129	0.673
-159.750	132.465	-0.137	-0.174
-158.735	14.063	0.789	0.608
-157.720	305.113	-0.307	0.565
-156.706	-15.372	-0.874	-0.553
-155.691	-156.352	-0.512	0.032
-154.677	203.566	-0.376	-0.576
-153.662	4.722	0.376	0.273
-152.647	-200.000	-0.148	0.672
-151.633	-200.000	-0.039	0.666
-150.618	5.545	0.087	0.063
-149.604	213.805	0.358	0.561
-148.589	800.000	0.219	-0.611
-147.574	-134.333	-1.178	0.143
-146.560	18.352	-0.577	0.456
-145.545	206.823	0.396	0.611
-144.531	-22.289	-0.391	0.234
-143.516	800.000	-0.116	-0.430
-142.502	-200.000	-0.059	-0.292
-141.487	78.000	0.565	-0.596
-140.472	3.129	0.262	-0.189
-139.458	269.094	-0.463	0.803
-138.443	783.022	0.420	1.138
-137.429	800.000	-0.160	0.690
-136.414	800.000	0.087	0.335
-135.399	-200.000	-0.051	-0.407
-134.385	-13.152	0.315	-0.202
-133.370	800.000	-0.257	0.900
-132.356	-105.915	1.046	0.233
-131.341	103.772	-0.478	0.554
-130.326	-200.000	0.105	0.755
-129.312	233.096	0.336	-0.547
-128.297	18.964	-0.552	-0.437
-127.283	-37.421	-0.890	-0.470
-126.268	800.000	0.105	-0.443
-125.253	-69.418	0.533	-0.202
-124.239	507.739	-0.098	0.225
-123.224	111.956	-0.643	0.767
-122.210	-200.000	0.092	0.400
