DTS Sentinel unit serial number:	SN413079Multiplexer serial number:	ORYXHardware model number:	OX4-SRSoftware version number:	ORYX F/W v4.00 Oryx Data Collector v3.7.2.0data status	okinstallation	princeton_trtdifferential loss correction	single-endedforward channel	channel 3reverse channel	N/Adate	2019/09/15time	06:04:35forward acquisition time	60.00reverse acquisition time	0.00gamma	496.2192k internal	0.2324k external	0.2324temperature offset calibration	0.9976default loss term (dB/km)	0.3790temperature slope calibration	1.0000multiplexer offset coefficient	1.0000multiplexer slope coefficient	1.0000fibre end	0.00T internal ref (°C)	30.61T ext. ref 1 (°C)	4.85T ext. ref 2 (°C)	25.14length (m)	temperature (°C)	Stokes	anti-Stokes-747.200	-65.632	-0.181	0.073
-746.185	71.922	-0.225	0.237
-745.171	800.000	0.096	0.345
-744.156	-200.000	-0.029	0.175
-743.142	133.936	-0.218	0.285
-742.127	192.986	-0.223	0.340
-741.112	-145.557	-0.324	-0.029
-740.098	-200.000	-0.075	0.412
-739.083	-200.000	-0.033	0.215
-738.069	-58.017	-0.169	0.074
-737.054	265.328	0.137	0.242
-736.039	800.000	0.035	0.130
-735.025	-200.000	0.028	0.292
-734.010	-7.507	-0.265	0.181
-732.996	-200.000	0.021	-0.244
-731.981	800.000	-0.038	-0.116
-730.966	-111.682	-0.061	0.013
-729.952	-144.631	-0.104	0.010
-728.937	-15.607	-0.015	-0.010
-727.923	346.130	0.162	0.322
-726.908	236.550	-0.188	0.313
-725.894	254.886	-0.109	-0.188
-724.879	169.876	-0.202	-0.291
-723.864	-200.000	-0.012	-0.265
-722.850	35.030	0.169	-0.149
-721.835	-46.070	0.271	0.135
-720.821	-60.696	-0.022	0.009
-719.806	452.319	-0.018	0.040
-718.791	-26.146	-0.202	-0.119
-717.777	123.631	-0.229	0.290
-716.762	50.361	0.095	0.091
-715.748	318.685	0.137	0.262
-714.733	111.532	-0.146	0.178
-713.718	143.517	-0.121	-0.163
-712.704	528.158	-0.123	-0.292
-711.689	-74.941	0.094	-0.034
-710.675	-114.670	0.284	-0.055
-709.660	638.678	0.062	-0.158
-708.645	-30.771	0.096	0.055
-707.631	-77.545	-0.250	0.087
-706.616	531.516	-0.161	-0.383
-705.602	257.649	0.116	-0.200
-704.587	127.108	0.159	-0.203
-703.572	176.092	0.165	-0.242
-702.558	-74.017	0.156	0.057
-701.543	105.820	-0.033	0.039
-700.529	800.000	0.035	-0.116
-699.514	-39.256	-0.147	-0.078
-698.499	800.000	-0.086	0.356
-697.485	-200.000	-0.026	-0.164
-696.470	761.497	0.049	-0.133
-695.456	-200.000	-0.044	0.621
-694.441	-55.738	0.334	-0.151
-693.426	-98.942	-0.235	-0.060
-692.412	-73.356	-0.040	0.015
-691.397	-163.617	0.199	-0.009
-690.383	-111.259	-0.147	-0.030
-689.368	4.413	-0.097	-0.072
-688.354	-43.013	0.323	-0.165
-687.339	-112.394	0.187	0.038
-686.324	16.093	0.178	-0.142
-685.310	-59.528	0.078	-0.034
-684.295	-65.568	-0.219	0.088
-683.281	-148.503	0.257	-0.021
-682.266	-1.751	-0.230	-0.163
-681.251	42.550	-0.076	0.070
-680.237	-125.199	0.320	-0.049
-679.222	-200.000	-0.032	-0.253
-678.208	709.570	-0.075	-0.199
-677.193	46.667	0.065	0.061
-676.178	50.194	0.118	-0.112
-675.164	-153.526	0.160	0.011
-674.149	37.635	0.059	0.052
-673.135	185.167	0.103	0.154
-672.120	72.972	-0.084	0.089
-671.105	-200.000	-0.138	-0.000
-670.091	-31.409	0.013	0.007
-669.076	-10.826	-0.035	0.023
-668.062	-47.088	0.261	-0.128
-667.047	-200.000	-0.030	-0.210
-666.032	176.766	-0.161	-0.236
-665.018	88.175	-0.146	-0.163
-664.003	-56.942	-0.221	-0.098
-662.989	136.953	0.156	-0.205
-661.974	-70.772	-0.093	0.035
-660.959	509.224	0.061	0.142
-659.945	-52.735	-0.287	0.133
-658.930	-60.748	-0.166	-0.071
-657.916	647.624	0.059	-0.151
-656.901	142.762	0.053	0.070
-655.886	-200.000	0.035	-0.192
-654.872	800.000	0.040	0.114
-653.857	163.783	-0.162	-0.230
-652.843	36.923	-0.053	-0.047
-651.828	278.570	-0.037	-0.065
-650.814	-61.187	-0.165	-0.070
-649.799	800.000	0.063	-0.194
-648.784	232.120	-0.045	0.074
-647.770	368.618	-0.017	-0.035
-646.755	-200.000	0.008	-0.080
-645.741	143.350	-0.193	0.259
-644.726	-9.102	-0.124	-0.083
-643.711	-138.334	-0.104	0.011
-642.697	-200.000	0.001	0.084
-641.682	-65.244	-0.109	0.044
-640.668	800.000	0.076	-0.273
-639.653	-62.657	0.240	-0.100
-638.638	-200.000	-0.016	-0.174
-637.624	190.059	0.075	-0.113
-636.609	298.681	-0.130	0.241
-635.595	-200.000	-0.020	0.164
-634.580	-34.252	0.138	0.076
-633.565	-18.023	0.228	0.143
-632.551	-115.183	0.182	-0.035
-631.536	-93.514	0.140	0.039
-630.522	-97.969	-0.054	0.014
-629.507	-200.000	-0.001	0.161
-628.492	677.924	-0.090	-0.236
-627.478	-31.212	0.270	-0.153
-626.463	-130.822	-0.087	-0.012
-625.449	-200.000	0.006	-0.122
-624.434	-200.000	-0.011	0.214
-623.419	65.731	-0.285	-0.290
-622.405	-200.000	-0.049	-0.285
-621.390	-200.000	-0.019	-0.231
-620.376	-144.755	0.097	0.009
-619.361	800.000	0.063	0.219
-618.346	-148.865	0.193	-0.016
-617.332	-35.812	0.161	-0.088
-616.317	-77.126	-0.119	-0.042
-615.303	223.893	0.108	0.175
-614.288	-105.404	0.327	0.075
-613.273	243.541	0.237	-0.398
-612.259	-5.268	-0.417	0.288
-611.244	-116.337	-0.273	0.051
-610.230	5.543	-0.028	-0.021
-609.215	-132.155	0.216	0.028
-608.201	-200.000	-0.015	-0.179
-607.186	-132.404	0.127	0.016
-606.171	25.252	-0.171	-0.143
-605.157	-11.837	0.103	0.068
-604.142	-24.436	0.213	0.127
-603.128	-31.372	0.119	0.067
-602.113	800.000	0.147	-0.498
-601.098	15.300	-0.255	-0.201
-600.084	-5.992	0.274	-0.188
-599.069	-60.727	0.241	0.102
-598.055	-200.000	0.004	-0.188
-597.040	299.973	-0.113	0.208
-596.025	-200.000	-0.041	-0.267
-595.011	83.068	-0.091	-0.099
-593.996	-200.000	0.039	-0.258
-592.982	-55.843	0.160	-0.072
-591.967	-200.000	0.021	-0.324
-590.952	33.777	-0.227	-0.198
-589.938	-47.254	0.324	0.158
-588.923	-59.854	-0.166	0.071
-587.909	-22.327	-0.143	0.087
-586.894	-200.000	-0.027	0.141
-585.879	-12.349	0.375	-0.246
-584.865	432.217	0.050	-0.109
-583.850	443.955	-0.100	0.220
-582.836	-200.000	-0.029	-0.183
-581.821	54.127	0.206	-0.198
-580.806	-4.342	0.169	0.117
-579.792	-36.600	-0.225	-0.122
-578.777	147.907	0.060	0.081
-577.763	82.171	0.106	0.115
-576.748	77.651	-0.103	-0.110
-575.733	310.048	0.132	-0.248
-574.719	-81.595	0.092	-0.030
-573.704	-14.955	-0.131	-0.084
-572.690	-74.077	-0.010	0.004
-571.675	156.491	0.066	-0.091
-570.661	-154.522	0.220	-0.015
-569.646	-41.993	0.295	-0.151
-568.631	-160.754	-0.233	-0.012
-567.617	-100.201	0.246	0.061
-566.602	800.000	0.036	0.141
-565.588	-142.817	0.163	-0.016
-564.573	-188.787	0.188	0.002
-563.558	119.087	-0.155	-0.192
-562.544	488.704	-0.161	-0.368
-561.529	-200.000	-0.004	-0.067
-560.515	-98.765	0.429	-0.110
-559.500	-2.159	0.239	0.168
-558.485	-19.042	-0.273	0.170
-557.471	-4.671	-0.135	0.093
-556.456	-24.505	0.317	0.189
-555.442	326.880	0.238	-0.457
-554.427	535.998	-0.023	0.055
-553.412	40.706	-0.253	-0.229
-552.398	-200.000	-0.003	0.203
-551.383	203.642	0.118	-0.182
-550.369	100.308	-0.021	0.025
-549.354	800.000	0.028	-0.090
-548.339	562.949	0.129	0.312
-547.325	27.944	-0.303	-0.256
-546.310	-99.044	-0.454	-0.115
-545.296	417.250	0.162	-0.347
-544.281	27.659	0.203	0.171
-543.266	9.685	0.169	-0.128
-542.252	-117.731	0.066	-0.012
-541.237	99.651	0.125	0.145
-540.223	800.000	0.160	0.474
-539.208	87.574	-0.048	0.053
-538.193	-72.846	-0.094	0.034
-537.179	-134.548	-0.238	0.029
-536.164	-177.450	0.226	-0.006
-535.150	-96.849	0.112	-0.029
-534.135	-54.936	-0.072	-0.033
-533.121	-148.992	-0.049	-0.004
-532.106	10.541	0.281	0.215
-531.091	403.161	-0.102	0.215
-530.077	-133.945	-0.216	0.027
-529.062	20.325	-0.100	0.081
-528.048	-131.981	-0.077	-0.010
-527.033	-200.000	-0.027	-0.524
-526.018	-200.000	-0.000	0.006
-525.004	174.724	0.051	0.074
-523.989	-127.315	-0.305	0.045
-522.975	-26.479	-0.255	-0.150
-521.960	-200.000	0.008	-0.103
-520.945	-82.774	-0.179	-0.058
-519.931	-200.000	-0.008	0.056
-518.916	570.753	0.050	0.123
-517.902	-90.853	0.288	0.083
-516.887	-37.900	-0.190	-0.101
-515.872	-200.000	-0.025	0.168
-514.858	-0.503	0.181	-0.129
-513.843	-116.736	0.169	-0.031
-512.829	-44.744	-0.297	-0.148
-511.814	-200.000	0.045	-0.299
-510.799	-82.958	-0.059	0.019
-509.785	-175.512	-0.292	-0.008
-508.770	43.618	0.261	-0.239
-507.756	-83.205	-0.111	-0.036
-506.741	2.373	0.026	0.019
-505.726	690.954	0.056	-0.146
-504.712	77.681	0.081	0.086
-503.697	-31.974	-0.240	0.135
-502.683	438.626	-0.181	0.395
-501.668	234.706	0.106	-0.175
-500.653	139.717	-0.092	-0.121
-499.639	800.000	-0.002	0.007
-498.624	160.794	-0.139	0.194
-497.610	-154.922	0.220	0.014
-496.595	-62.939	-0.186	0.077
-495.581	800.000	0.091	0.269
-494.566	-55.852	0.117	0.052
-493.551	-198.675	0.094	0.001
-492.537	-13.808	-0.080	-0.052
-491.522	800.000	-0.015	-0.062
-490.508	312.631	-0.107	0.200
-489.493	-59.061	-0.103	0.044
-488.478	-200.000	-0.019	0.158
-487.464	-171.006	0.085	-0.003
-486.449	-85.636	-0.319	-0.099
-485.435	166.318	0.178	-0.252
-484.420	-200.000	-0.010	-0.134
-483.405	54.334	-0.163	0.157
-482.391	-184.427	-0.101	0.002
-481.376	-200.000	-0.003	-0.338
-480.362	-200.000	-0.015	0.114
-479.347	-127.820	-0.122	0.018
-478.332	-118.028	-0.117	0.021
-477.318	-84.225	-0.370	0.117
-476.303	74.666	0.095	0.100
-475.289	-1.735	-0.406	0.286
-474.274	638.062	-0.046	0.117
-473.259	-200.000	0.010	0.204
-472.245	800.000	0.044	0.179
-471.230	-58.943	0.433	-0.187
-470.216	180.519	0.215	-0.316
-469.201	-200.000	-0.054	0.325
-468.186	-11.127	0.186	0.122
-467.172	-27.449	0.064	-0.037
-466.157	-87.278	0.178	-0.054
-465.143	56.726	0.160	-0.155
-464.128	75.789	0.214	0.226
-463.113	-200.000	0.007	0.086
-462.099	719.859	-0.052	0.138
-461.084	177.529	0.156	0.227
-460.070	-100.732	0.122	0.030
-459.055	-67.583	-0.319	-0.125
-458.040	-39.772	-0.094	-0.049
-457.026	-124.770	-0.039	-0.006
-456.011	-73.659	0.366	-0.133
-454.997	-200.000	0.019	-0.205
-453.982	-32.816	0.062	0.034
-452.968	-131.928	0.224	-0.029
-451.953	-200.000	-0.072	-0.322
-450.938	-95.186	-0.072	0.019
-449.924	-45.375	0.087	-0.043
-448.909	-113.667	0.181	-0.035
-447.895	79.868	0.096	0.103
-446.880	-24.631	-0.070	0.041
-445.865	-42.593	-0.111	0.057
-444.851	6.242	-0.192	0.142
-443.836	172.415	-0.102	-0.146
-442.822	33.615	-0.129	0.112
-441.807	5.652	0.117	-0.086
-440.792	-200.000	-0.008	0.266
-439.778	-34.563	0.238	0.130
-438.763	-167.105	-0.309	0.013
-437.749	-112.617	-0.098	0.019
-436.734	83.460	-0.021	0.023
-435.719	-56.208	-0.262	0.116
-434.705	6.851	0.115	0.085
-433.690	-148.063	-0.235	-0.019
-432.676	800.000	-0.042	0.121
-431.661	-165.545	0.052	0.002
-430.646	-200.000	-0.007	-0.127
-429.632	50.804	-0.216	0.204
-428.617	190.385	-0.083	0.124
-427.603	-200.000	0.042	0.000
-426.588	274.365	-0.107	0.189
-425.573	-161.059	0.042	-0.002
-424.559	-62.839	-0.149	0.061
-423.544	-200.000	0.010	-0.091
-422.530	-35.136	-0.265	-0.144
-421.515	65.136	0.153	0.154
-420.500	-46.243	-0.298	0.146
-419.486	800.000	-0.058	0.164
-418.471	-157.042	0.277	-0.017
-417.457	-120.787	0.293	-0.049
-416.442	-148.392	0.059	0.005
-415.428	-200.000	-0.003	-0.190
-414.413	186.215	-0.150	-0.222
-413.398	433.298	0.068	-0.147
-412.384	-84.280	0.164	0.052
-411.369	-200.000	0.013	-0.071
-410.355	-200.000	0.001	-0.141
-409.340	302.066	-0.065	-0.121
-408.325	-56.295	0.006	-0.003
-407.311	93.993	0.202	0.228
-406.296	-200.000	0.012	-0.172
-405.282	-142.705	-0.207	-0.020
-404.267	-134.582	0.258	0.031
-403.252	-10.712	-0.224	0.148
-402.238	3.540	0.282	-0.205
-401.223	582.604	0.002	-0.006
-400.209	69.335	-0.104	-0.106
-399.194	-200.000	-0.113	0.513
-398.179	-23.469	-0.221	-0.132
-397.165	480.777	0.095	0.216
-396.150	172.164	-0.144	0.206
-395.136	187.492	-0.187	0.278
-394.121	-88.405	0.434	0.129
-393.106	-161.205	-0.291	-0.015
-392.092	56.611	0.105	0.102
-391.077	28.518	0.131	-0.110
-390.063	-50.396	-0.295	0.139
-389.048	-48.456	-0.137	-0.066
-388.033	548.564	-0.037	-0.089
-387.019	-149.868	0.217	-0.017
-386.004	-200.000	-0.013	-0.164
-384.990	78.429	-0.243	-0.259
-383.975	-117.290	-0.205	0.037
-382.960	-58.564	0.166	-0.072
-381.946	44.795	0.129	0.118
-380.931	800.000	0.091	0.358
-379.917	-45.208	-0.108	0.053
-378.902	-152.947	0.086	-0.006
-377.888	54.709	0.236	0.226
-376.873	-112.351	-0.455	-0.091
-375.858	-200.000	0.027	0.000
-374.844	131.771	-0.085	-0.108
-373.829	-200.000	0.054	0.271
-372.815	-200.000	0.027	0.234
-371.800	800.000	-0.033	-0.110
-370.785	91.999	0.290	0.325
-369.771	6.590	-0.129	0.095
-368.756	-200.000	0.001	-0.093
-367.742	-200.000	-0.033	-0.399
-366.727	740.109	0.081	-0.215
-365.712	-116.759	-0.187	0.034
-364.698	387.625	0.078	-0.160
-363.683	27.483	-0.074	0.062
-362.669	-161.101	-0.200	0.010
-361.654	-74.237	0.160	-0.057
-360.639	-200.000	-0.030	0.314
-359.625	217.579	0.041	0.065
-358.610	800.000	-0.043	-0.175
-357.596	-200.000	-0.009	0.382
-356.581	75.149	-0.238	0.249
-355.566	800.000	-0.142	0.559
-354.552	-55.550	0.468	0.209
-353.537	11.977	0.102	0.078
-352.523	122.455	0.175	0.217
-351.508	-22.292	-0.190	-0.115
-350.493	42.849	-0.128	0.116
-349.479	29.999	0.196	-0.166
-348.464	70.030	0.310	0.318
-347.450	-200.000	-0.019	-0.406
-346.435	-164.946	-0.424	-0.019
-345.420	-51.262	0.343	-0.159
-344.406	-91.729	-0.030	0.008
-343.391	-139.957	-0.618	0.065
-342.377	-200.000	0.022	-0.185
-341.362	-200.000	-0.022	-0.141
-340.348	-130.832	-0.130	-0.017
-339.333	10.004	-0.156	-0.118
-338.318	-64.309	0.236	0.096
-337.304	-200.000	0.033	-0.407
-336.289	-33.791	0.273	-0.150
-335.275	465.324	0.108	-0.240
-334.260	-200.000	0.029	-0.408
-333.245	30.140	0.207	-0.176
-332.231	-59.914	0.135	0.057
-331.216	-69.209	0.085	-0.033
-330.202	800.000	0.122	-0.376
-329.187	51.659	0.272	-0.257
-328.172	-137.440	-0.145	0.016
-327.158	-87.045	0.090	-0.027
-326.143	237.259	-0.091	0.150
-325.129	171.395	-0.154	-0.219
-324.114	128.609	-0.045	-0.056
-323.099	723.431	-0.093	-0.246
-322.085	-151.395	0.183	0.014
-321.070	-200.000	0.033	-0.294
-320.056	-190.844	-0.338	-0.004
-319.041	-104.099	-0.049	0.011
-318.026	18.179	0.050	-0.039
-317.012	-101.636	0.260	0.063
-315.997	15.682	-0.101	0.079
-314.983	-120.688	0.074	0.012
-313.968	-43.867	-0.237	0.119
-312.953	-200.000	0.004	0.036
-311.939	-134.339	-0.318	0.039
-310.924	141.163	0.125	0.164
-309.910	11.420	-0.050	0.038
-308.895	-200.000	-0.009	0.097
-307.880	-25.220	0.286	0.168
-306.866	-200.000	-0.012	0.418
-305.851	233.906	0.065	-0.106
-304.837	-156.205	0.035	0.002
-303.822	-21.613	0.128	0.077
-302.807	-200.000	-0.004	0.123
-301.793	98.222	0.195	0.223
-300.778	-200.000	0.036	0.252
-299.764	-200.000	0.000	-0.200
-298.749	-200.000	0.019	-0.362
-297.735	-40.656	-0.151	0.078
-296.720	4.598	-0.180	-0.131
-295.705	800.000	0.034	0.097
-294.691	-126.095	0.174	-0.026
-293.676	-91.807	-0.141	-0.040
-292.662	-200.000	-0.031	-0.168
-291.647	-113.503	-0.318	-0.062
-290.632	-85.215	0.180	0.056
-289.618	-200.000	0.024	-0.227
-288.603	-193.447	-0.389	0.003
-287.589	307.477	0.078	0.145
-286.574	-103.453	-0.163	-0.038
-285.559	-39.576	-0.307	0.160
-284.545	268.036	-0.105	0.183
-283.530	-129.725	0.110	0.015
-282.516	274.425	-0.244	-0.429
-281.501	-64.348	-0.170	0.068
-280.486	-141.487	0.526	-0.053
-279.472	-200.000	0.032	-0.182
-278.457	-21.536	0.169	0.102
-277.443	339.557	0.055	0.107
-276.428	800.000	-0.033	0.136
-275.413	-200.000	-0.031	-0.327
-274.399	283.836	-0.234	-0.417
-273.384	-98.346	-0.151	-0.038
-272.370	-176.068	0.048	-0.001
-271.355	800.000	-0.069	0.215
-270.340	-54.771	-0.140	0.063
-269.326	10.991	-0.266	0.202
-268.311	-17.215	-0.096	-0.060
-267.297	99.438	-0.208	0.239
-266.282	-200.000	-0.022	-0.386
-265.267	97.073	0.027	-0.031
-264.253	-196.796	0.374	-0.002
-263.238	-72.275	0.208	0.076
-262.224	-92.119	0.255	0.071
-261.209	-98.719	-0.196	0.049
-260.195	132.928	-0.158	-0.202
-259.180	158.967	0.079	0.109
-258.165	188.234	-0.186	-0.276
-257.151	59.655	-0.110	0.107
-256.136	-25.792	-0.196	0.114
-255.122	203.420	-0.102	0.156
-254.107	-125.564	0.089	-0.013
-253.092	711.615	0.019	0.049
-252.078	-87.343	0.036	-0.011
-251.063	800.000	0.062	0.196
-250.049	-61.225	-0.324	-0.135
-249.034	-200.000	-0.006	0.165
-248.019	-48.226	0.221	0.106
-247.005	-126.096	0.155	0.023
-245.990	-57.735	-0.062	0.027
-244.976	291.430	0.150	-0.270
-243.961	800.000	0.024	0.077
-242.946	37.605	-0.249	0.218
-241.932	-98.124	0.270	0.069
-240.917	-169.330	0.093	-0.003
-239.903	-200.000	0.049	-0.338
-238.888	-200.000	-0.013	-0.245
-237.873	165.605	-0.233	-0.326
-236.859	249.334	0.123	-0.206
-235.844	-200.000	0.046	0.242
-234.830	-200.000	-0.015	-0.118
-233.815	800.000	-0.058	-0.220
-232.800	-200.000	0.024	0.370
-231.786	57.399	0.080	-0.077
-230.771	475.652	0.073	0.162
-229.757	-200.000	-0.001	0.084
-228.742	800.000	0.067	-0.187
-227.727	-34.419	-0.321	-0.174
-226.713	-200.000	0.014	-0.125
-225.698	278.967	-0.058	0.103
-224.684	90.180	0.219	-0.242
-223.669	-104.806	0.127	0.029
-222.655	-114.707	-0.182	-0.034
-221.640	-132.179	0.440	-0.056
-220.625	800.000	-0.043	0.118
-219.611	177.417	-0.068	-0.098
-218.596	-200.000	0.020	-0.112
-217.582	-94.551	0.169	0.045
-216.567	254.223	-0.236	0.398
-215.552	-200.000	-0.004	0.030
-214.538	392.830	0.136	-0.279
-213.523	800.000	0.032	0.124
-212.509	-68.500	0.251	-0.096
-211.494	-200.000	0.033	-0.195
-210.479	-60.594	0.096	-0.040
-209.465	-133.613	0.094	-0.012
-208.450	-200.000	0.011	0.163
-207.436	-46.324	-0.127	-0.062
-206.421	-104.341	-0.118	0.027
-205.406	564.915	-0.054	0.129
-204.392	228.052	-0.048	-0.077
-203.377	360.407	-0.130	0.258
-202.363	-157.312	0.315	-0.019
-201.348	296.378	0.039	0.071
-200.333	-51.929	0.118	0.054
-199.319	-16.995	-0.083	0.052
-198.304	88.741	-0.084	-0.092
-197.290	94.226	0.205	0.230
-196.275	-200.000	0.010	0.100
-195.260	-200.000	0.079	0.356
-194.246	84.406	-0.256	0.277
-193.231	-30.137	0.189	0.106
-192.217	-1.380	0.094	-0.066
-191.202	157.248	-0.146	0.200
-190.187	160.805	0.164	0.227
-189.173	607.960	-0.048	-0.119
-188.158	444.670	0.156	-0.338
-187.144	-59.549	-0.427	0.181
-186.129	38.679	-0.235	0.207
-185.114	-200.000	-0.023	0.282
-184.100	217.232	-0.189	0.297
-183.085	-134.295	-0.097	0.012
-182.071	-200.000	0.022	0.243
-181.056	-200.000	-0.007	-0.164
-180.042	307.268	0.049	0.091
-179.027	-4.902	0.215	-0.146
-178.012	46.988	0.021	-0.020
-176.998	-42.324	0.324	-0.163
-175.983	-143.005	0.110	0.011
-174.969	-73.833	0.214	0.077
-173.954	-200.000	0.027	-0.195
-172.939	83.549	-0.247	0.265
-171.925	-114.445	0.292	-0.055
-170.910	-32.417	-0.095	0.052
-169.896	243.280	0.072	0.119
-168.881	419.522	-0.164	0.346
-167.866	-200.000	0.016	0.487
-166.852	122.882	-0.249	-0.307
-165.837	800.000	0.056	-0.189
-164.823	51.643	0.243	-0.228
-163.808	337.791	-0.132	0.254
-162.793	-200.000	0.002	-0.107
-161.779	6.215	-0.104	-0.076
-160.764	219.963	0.177	0.279
-159.750	-19.391	-0.232	-0.142
-158.735	54.764	-0.220	0.210
-157.720	-200.000	0.066	0.379
-156.706	-112.367	-0.339	-0.067
-155.691	-20.858	-0.161	0.097
-154.677	-111.961	-0.343	0.068
-153.662	10.928	0.237	0.178
-152.647	-200.000	0.042	-0.205
-151.633	377.599	-0.231	-0.465
-150.618	-200.000	-0.022	0.233
-149.604	-142.064	-0.145	0.014
-148.589	623.068	-0.038	-0.094
-147.574	82.140	0.156	0.167
-146.560	84.018	-0.142	0.152
-145.545	-106.250	-0.125	-0.028
-144.531	-117.778	0.267	0.047
-143.516	-200.000	0.032	-0.375
-142.502	-200.000	0.024	0.290
-141.487	-0.348	-0.176	0.124
-140.472	265.777	0.157	-0.270
-139.458	-32.210	-0.145	-0.080
-138.443	-36.205	0.075	0.040
-137.429	-108.489	0.195	-0.041
-136.414	336.833	0.166	0.318
-135.399	137.403	0.204	0.263
-134.385	-72.376	0.082	-0.030
-133.370	-86.893	0.216	0.065
-132.356	456.373	0.029	-0.063
-131.341	202.319	-0.061	-0.093
-130.326	-128.962	-0.140	0.019
-129.312	266.373	0.145	0.249
-128.297	-200.000	0.017	0.272
-127.283	-152.043	-0.164	0.012
-126.268	-162.092	-0.193	-0.010
-125.253	643.675	-0.042	0.104
-124.239	-200.000	0.004	-0.337
-123.224	64.973	-0.240	-0.239
-122.210	196.143	-0.179	-0.268
