DTS Sentinel unit serial number:	SN413079Multiplexer serial number:	ORYXHardware model number:	OX4-SRSoftware version number:	ORYX F/W v4.00 Oryx Data Collector v3.7.2.0data status	okinstallation	princeton_trtdifferential loss correction	single-endedforward channel	channel 3reverse channel	N/Adate	2019/09/17time	12:44:35forward acquisition time	60.00reverse acquisition time	0.00gamma	496.2192k internal	0.2315k external	0.2315temperature offset calibration	0.9959default loss term (dB/km)	0.3790temperature slope calibration	1.0000multiplexer offset coefficient	1.0000multiplexer slope coefficient	1.0000fibre end	0.00T internal ref (°C)	32.55T ext. ref 1 (°C)	0.42T ext. ref 2 (°C)	30.62length (m)	temperature (°C)	Stokes	anti-Stokes-747.200	-15.400	0.264	-0.171
-746.185	31.212	-0.131	0.114
-745.171	61.190	0.112	0.113
-744.156	289.912	-0.087	0.160
-743.142	800.000	0.031	-0.132
-742.127	162.241	-0.193	0.274
-741.112	-141.319	-0.257	-0.026
-740.098	57.470	-0.151	-0.150
-739.083	-93.454	-0.125	-0.035
-738.069	11.032	0.133	0.103
-737.054	202.337	0.100	-0.157
-736.039	-200.000	0.048	-0.250
-735.025	800.000	0.082	0.243
-734.010	-47.776	-0.205	-0.101
-732.996	191.082	-0.143	-0.218
-731.981	-74.544	-0.264	-0.096
-730.966	55.778	-0.123	-0.120
-729.952	2.496	-0.257	-0.189
-728.937	182.359	-0.148	0.222
-727.923	-104.736	-0.161	-0.037
-726.908	19.767	0.196	-0.160
-725.894	-41.083	-0.321	0.168
-724.879	-200.000	-0.031	-0.181
-723.864	-106.350	-0.277	-0.063
-722.850	85.997	0.263	0.293
-721.835	471.340	0.079	-0.180
-720.821	-38.038	-0.110	0.059
-719.806	649.212	0.119	0.309
-718.791	80.840	0.190	-0.207
-717.777	-42.996	-0.236	0.121
-716.762	-152.588	0.282	-0.020
-715.748	-138.104	0.334	0.038
-714.733	254.295	0.171	-0.296
-713.718	150.406	0.087	-0.120
-712.704	45.488	0.167	0.156
-711.689	800.000	0.104	0.320
-710.675	215.084	-0.105	-0.168
-709.660	-200.000	-0.081	-0.398
-708.645	-200.000	0.050	0.246
-707.631	-92.302	0.066	-0.019
-706.616	-17.466	0.231	0.147
-705.602	-170.626	-0.141	-0.005
-704.587	349.877	-0.085	-0.170
-703.572	-200.000	0.033	0.260
-702.558	-50.059	0.160	0.077
-701.543	-200.000	-0.036	0.217
-700.529	-108.633	-0.502	-0.109
-699.514	-77.677	-0.325	-0.114
-698.499	-45.933	0.322	-0.161
-697.485	-190.841	-0.339	-0.004
-696.470	-85.548	-0.316	-0.100
-695.456	109.597	-0.105	-0.128
-694.441	-200.000	-0.033	0.518
-693.426	-125.139	-0.242	0.037
-692.412	150.280	-0.154	0.212
-691.397	-200.000	-0.002	-0.160
-690.383	35.097	0.173	-0.153
-689.368	-104.954	-0.280	-0.065
-688.354	80.579	0.079	-0.086
-687.339	51.567	-0.181	-0.174
-686.324	77.711	-0.302	-0.325
-685.310	184.673	0.099	-0.149
-684.295	-200.000	0.008	0.200
-683.281	-96.896	0.119	0.032
-682.266	29.696	0.156	-0.134
-681.251	117.469	0.260	-0.323
-680.237	-200.000	-0.008	-0.264
-679.222	-94.770	-0.337	-0.092
-678.208	0.968	-0.197	-0.143
-677.193	-112.294	-0.199	0.040
-676.178	619.372	-0.099	0.251
-675.164	38.294	0.038	0.034
-674.149	-200.000	0.037	-0.333
-673.135	-200.000	0.049	-0.248
-672.120	47.816	0.061	-0.058
-671.105	-74.298	-0.193	0.070
-670.091	150.741	0.273	-0.375
-669.076	57.484	0.133	0.131
-668.062	-107.679	-0.465	-0.103
-667.047	233.014	-0.037	0.062
-666.032	248.568	0.172	-0.294
-665.018	96.202	-0.118	-0.136
-664.003	-91.816	0.464	-0.133
-662.989	329.901	0.167	-0.324
-661.974	66.582	-0.202	0.208
-660.959	-122.836	0.059	0.010
-659.945	-93.665	0.107	0.030
-658.930	44.327	-0.186	-0.173
-657.916	182.683	-0.160	-0.238
-656.901	-57.421	-0.249	0.111
-655.886	-173.656	0.223	-0.007
-654.872	-100.021	0.184	0.046
-653.857	-172.747	-0.134	0.004
-652.843	-116.728	0.183	-0.034
-651.828	-200.000	0.064	-0.303
-650.814	-33.611	-0.306	-0.171
-649.799	-173.427	-0.347	-0.011
-648.784	-200.000	-0.002	0.049
-647.770	-26.665	0.065	-0.038
-646.755	256.515	0.133	-0.231
-645.741	24.709	-0.115	0.096
-644.726	171.551	-0.179	0.259
-643.711	85.496	-0.186	0.206
-642.697	-110.232	-0.026	-0.006
-641.682	-200.000	-0.028	-0.144
-640.668	442.007	-0.122	0.270
-639.653	-200.000	0.026	0.204
-638.638	108.010	-0.212	0.256
-637.624	-119.044	-0.249	-0.044
-636.609	-112.533	-0.321	-0.065
-635.595	-9.927	-0.044	0.030
-634.580	-200.000	0.009	-0.096
-633.565	-37.167	-0.274	-0.148
-632.551	-55.493	-0.183	-0.083
-631.536	-200.000	0.015	-0.074
-630.522	-91.871	-0.134	-0.038
-629.507	-200.000	0.021	0.096
-628.492	-200.000	0.031	-0.138
-627.478	38.815	-0.141	-0.127
-626.463	141.562	-0.086	0.115
-625.449	-93.906	0.124	0.034
-624.434	800.000	-0.016	-0.065
-623.419	-102.274	0.148	0.036
-622.405	-32.022	-0.129	-0.073
-621.390	-100.093	0.270	0.068
-620.376	109.148	-0.211	-0.255
-619.361	-122.322	0.235	-0.039
-618.346	128.410	0.061	0.079
-617.332	-84.614	0.372	-0.118
-616.317	423.788	0.100	-0.216
-615.303	800.000	-0.087	-0.274
-614.288	-200.000	0.031	-0.173
-613.273	-62.384	0.243	-0.102
-612.259	-22.459	-0.074	0.045
-611.244	-143.828	-0.314	0.030
-610.230	-131.987	0.138	0.018
-609.215	-14.923	0.052	-0.033
-608.201	-200.000	0.034	-0.270
-607.186	51.255	-0.249	0.239
-606.171	-200.000	-0.157	0.000
-605.157	725.139	-0.084	0.224
-604.142	-60.411	0.220	-0.094
-603.128	-200.000	0.011	0.181
-602.113	260.975	0.183	-0.319
-601.098	-32.235	0.319	-0.180
-600.084	-112.010	0.095	0.019
-599.069	800.000	-0.034	-0.117
-598.055	-200.000	0.003	0.063
-597.040	-200.000	-0.036	0.295
-596.025	-155.780	-0.229	-0.015
-595.011	552.475	-0.042	-0.102
-593.996	-71.913	0.127	-0.048
-592.982	-171.940	-0.102	0.003
-591.967	-52.104	0.312	-0.146
-590.952	-156.344	0.251	0.016
-589.938	800.000	-0.084	-0.254
-588.923	-65.089	-0.130	0.053
-587.909	3.377	-0.079	0.058
-586.894	161.965	0.126	0.178
-585.879	-95.816	-0.336	-0.090
-584.865	237.786	-0.201	-0.336
-583.850	-38.097	-0.087	0.047
-582.836	3.875	0.236	0.173
-581.821	-200.000	-0.016	-0.094
-580.806	-87.690	-0.286	0.087
-579.792	-69.944	-0.498	0.191
-578.777	-56.241	-0.248	-0.111
-577.763	-13.586	0.113	-0.074
-576.748	113.701	0.095	-0.116
-575.733	800.000	0.074	-0.268
-574.719	-11.717	-0.202	0.133
-573.704	89.536	-0.045	-0.051
-572.690	800.000	-0.083	-0.249
-571.675	50.754	-0.358	0.342
-570.661	-101.441	-0.060	0.015
-569.646	-82.551	-0.272	0.089
-568.631	-39.081	-0.197	0.104
-567.617	57.906	0.046	0.045
-566.602	-125.262	-0.110	0.017
-565.588	330.767	0.153	-0.296
-564.573	125.603	0.076	-0.096
-563.558	0.836	0.095	0.069
-562.544	9.390	0.266	-0.203
-561.529	-29.112	-0.108	0.062
-560.515	800.000	-0.020	0.078
-559.500	-25.293	-0.171	-0.102
-558.485	393.920	0.125	0.263
-557.471	-42.955	0.161	0.082
-556.456	-99.881	0.200	0.050
-555.442	-44.058	-0.351	-0.177
-554.427	-200.000	-0.064	-0.424
-553.412	-102.544	-0.257	-0.062
-552.398	-158.382	0.101	0.006
-551.383	385.372	-0.109	-0.226
-550.369	-134.741	-0.389	-0.048
-549.354	721.426	-0.116	0.311
-548.339	-200.000	-0.060	-0.357
-547.325	42.296	0.292	0.267
-546.310	-157.236	0.217	-0.013
-545.296	146.886	-0.240	-0.325
-544.281	-169.917	-0.340	0.012
-543.266	-112.644	0.160	0.032
-542.252	184.212	-0.197	0.293
-541.237	220.785	0.060	-0.096
-540.223	270.367	-0.063	0.112
-539.208	186.857	-0.215	0.322
-538.193	-96.726	0.199	0.053
-537.179	20.677	0.115	-0.094
-536.164	206.783	0.168	0.264
-535.150	-200.000	-0.028	0.306
-534.135	-200.000	0.006	-0.143
-533.121	800.000	-0.048	0.151
-532.106	-73.879	0.302	-0.110
-531.091	800.000	-0.060	-0.184
-530.077	-77.454	0.218	0.076
-529.062	-84.557	0.170	-0.054
-528.048	578.440	0.046	0.113
-527.033	-70.896	-0.284	-0.108
-526.018	-36.708	0.247	0.133
-525.004	-40.340	0.600	-0.314
-523.989	-137.255	-0.089	-0.010
-522.975	-142.897	-0.101	0.010
-521.960	194.881	-0.166	-0.253
-520.945	800.000	-0.097	0.301
-519.931	549.442	-0.049	-0.117
-518.916	277.045	-0.174	0.311
-517.902	-200.000	0.035	-0.166
-516.887	800.000	0.084	-0.343
-515.872	-200.000	0.063	-0.395
-514.858	-200.000	-0.038	0.452
-513.843	79.851	-0.145	0.156
-512.829	-112.996	0.168	0.033
-511.814	-27.266	-0.276	-0.162
-510.799	800.000	0.077	-0.253
-509.785	-130.941	0.190	-0.026
-508.770	-200.000	0.047	0.511
-507.756	196.314	-0.101	-0.155
-506.741	-29.734	0.388	0.222
-505.726	7.241	-0.296	0.222
-504.712	-18.913	-0.138	-0.087
-503.697	800.000	0.034	-0.101
-502.683	714.917	0.039	0.105
-501.668	-94.999	0.202	-0.055
-500.653	-66.708	-0.274	0.109
-499.639	-114.066	0.123	0.024
-498.624	44.892	-0.217	0.200
-497.610	32.001	-0.005	0.005
-496.595	10.477	-0.097	-0.074
-495.581	177.052	-0.066	0.096
-494.566	-11.612	0.145	-0.096
-493.551	-96.389	-0.327	0.087
-492.537	-101.123	0.214	0.053
-491.522	420.074	-0.129	0.277
-490.508	-120.112	0.113	-0.019
-489.493	-7.953	-0.099	-0.067
-488.478	71.628	-0.062	-0.064
-487.464	-200.000	-0.004	-0.115
-486.449	-63.716	0.335	-0.138
-485.435	12.713	0.238	-0.184
-484.420	-56.953	0.215	0.095
-483.405	-200.000	0.001	-0.035
-482.391	132.129	0.120	-0.155
-481.376	529.565	0.140	-0.332
-480.362	-15.726	0.010	0.006
-479.347	505.038	0.065	-0.152
-478.332	113.126	0.111	0.135
-477.318	54.068	0.089	-0.085
-476.303	-139.359	0.545	-0.059
-475.289	35.119	-0.110	0.096
-474.274	-47.270	-0.275	-0.134
-473.259	-154.597	0.629	-0.042
-472.245	-67.801	0.155	0.061
-471.230	46.774	0.128	0.119
-470.216	64.728	-0.088	0.089
-469.201	-165.481	0.151	0.007
-468.186	605.282	0.066	0.166
-467.172	-102.331	-0.214	0.052
-466.157	463.472	0.061	0.136
-465.143	5.616	-0.154	0.114
-464.128	-58.137	0.184	-0.080
-463.113	-200.000	0.001	0.115
-462.099	53.957	0.169	-0.163
-461.084	-93.357	-0.159	-0.044
-460.070	-155.687	0.444	0.029
-459.055	-12.623	0.019	-0.013
-458.040	-72.058	-0.128	0.048
-457.026	-89.525	0.396	0.117
-456.011	-82.829	-0.186	0.060
-454.997	574.593	-0.108	0.264
-453.982	413.468	0.066	-0.140
-452.968	-117.403	-0.412	-0.075
-451.953	-118.514	0.181	-0.032
-450.938	-70.928	-0.108	0.041
-449.924	-200.000	-0.015	-0.119
-448.909	800.000	-0.075	0.247
-447.895	101.871	-0.283	-0.331
-446.880	339.906	0.120	0.235
-445.865	421.322	-0.138	0.297
-444.851	84.398	0.205	0.225
-443.836	54.128	-0.286	-0.276
-442.822	-38.478	-0.173	-0.092
-441.807	-56.226	0.216	0.096
-440.792	137.749	-0.161	0.211
-439.778	-37.021	0.110	0.059
-438.763	139.554	-0.184	-0.243
-437.749	-61.770	-0.192	-0.081
-436.734	-154.303	-0.181	-0.012
-435.719	32.081	-0.156	0.135
-434.705	124.535	0.204	0.258
-433.690	73.670	-0.069	0.072
-432.676	-15.664	0.343	-0.219
-431.661	773.643	0.136	-0.371
-430.646	788.735	0.099	0.271
-429.632	63.714	0.176	0.177
-428.617	-144.858	-0.255	0.023
-427.603	114.128	0.174	-0.212
-426.588	460.773	-0.109	0.242
-425.573	244.873	0.134	-0.225
-424.559	-56.328	-0.234	-0.104
-423.544	-144.982	0.239	-0.022
-422.530	-200.000	0.039	-0.274
-421.515	343.603	-0.097	-0.189
-420.500	50.994	-0.092	-0.088
-419.486	130.916	0.093	0.120
-418.471	-86.204	-0.358	0.110
-417.457	83.617	0.186	0.203
-416.442	800.000	-0.111	-0.308
-415.428	-200.000	0.017	0.088
-414.413	-102.465	-0.102	-0.024
-413.398	-60.392	-0.315	-0.134
-412.384	-50.610	0.201	0.095
-411.369	-76.995	0.042	0.015
-410.355	-27.451	-0.301	-0.175
-409.340	-200.000	-0.018	0.119
-408.325	-200.000	0.016	0.371
-407.311	800.000	0.095	-0.323
-406.296	800.000	0.101	-0.287
-405.282	84.978	0.111	-0.122
-404.267	-83.415	0.330	0.106
-403.252	-200.000	0.006	0.424
-402.238	34.611	-0.071	0.062
-401.223	800.000	-0.074	0.230
-400.209	206.102	-0.143	0.222
-399.194	54.660	0.164	0.158
-398.179	91.507	-0.131	0.147
-397.165	316.542	-0.045	0.085
-396.150	500.167	-0.124	-0.286
-395.136	399.730	-0.084	0.176
-394.121	-200.000	-0.016	0.371
-393.106	692.222	0.142	-0.372
-392.092	156.228	-0.247	-0.340
-391.077	-200.000	-0.000	-0.280
-390.063	794.234	0.032	-0.089
-389.048	72.598	-0.037	-0.038
-388.033	-200.000	-0.018	0.281
-387.019	-193.704	-0.168	0.001
-386.004	800.000	-0.038	0.152
-384.990	800.000	0.116	-0.370
-383.975	-200.000	0.219	0.000
-382.960	-200.000	-0.038	0.190
-381.946	-83.922	0.208	-0.066
-380.931	800.000	0.013	-0.041
-379.917	783.915	-0.069	0.188
-378.902	-56.231	-0.136	-0.060
-377.888	16.880	-0.062	-0.049
-376.873	370.983	-0.125	-0.252
-375.858	33.715	0.151	0.131
-374.844	378.365	0.188	0.385
-373.829	501.211	0.031	-0.071
-372.815	-195.010	-0.342	0.003
-371.800	-200.000	0.001	-0.292
-370.785	-152.847	-0.143	-0.010
-369.771	-200.000	-0.018	-0.106
-368.756	36.697	0.098	0.086
-367.742	-200.000	0.027	-0.167
-366.727	800.000	-0.043	0.188
-365.712	-200.000	-0.006	-0.330
-364.698	-125.122	0.168	-0.026
-363.683	-65.808	0.141	0.056
-362.669	-200.000	0.016	-0.175
-361.654	135.004	0.191	-0.247
-360.639	800.000	-0.078	-0.228
-359.625	-17.509	0.134	-0.084
-358.610	14.254	0.260	-0.202
-357.596	-200.000	0.052	0.317
-356.581	-130.852	0.171	-0.023
-355.566	800.000	-0.103	-0.285
-354.552	-10.406	0.211	0.139
-353.537	138.971	0.102	-0.133
-352.523	388.800	-0.013	0.028
-351.508	-0.875	-0.187	-0.132
-350.493	98.162	0.196	0.226
-349.479	-200.000	-0.038	0.374
-348.464	22.550	-0.021	0.017
-347.450	-20.525	0.326	0.200
-346.435	-72.312	-0.332	-0.123
-345.420	355.067	0.062	0.123
-344.406	-200.000	0.023	0.169
-343.391	110.512	-0.105	-0.126
-342.377	-72.452	-0.076	-0.028
-341.362	123.475	-0.174	-0.218
-340.348	668.587	-0.098	0.252
-339.333	653.510	0.199	-0.508
-338.318	-121.867	0.075	-0.012
-337.304	72.809	0.207	-0.216
-336.289	-88.490	0.198	0.059
-335.275	298.656	0.054	0.100
-334.260	-200.000	0.032	0.376
-333.245	-51.216	-0.508	0.237
-332.231	-3.723	0.084	0.058
-331.216	-127.946	0.277	0.040
-330.202	203.767	-0.216	0.333
-329.187	-149.960	0.293	0.023
-328.172	-155.102	0.101	-0.007
-327.158	701.470	0.050	-0.131
-326.143	-51.844	-0.078	0.036
-325.129	-200.000	-0.078	-0.402
-324.114	45.363	0.127	0.117
-323.099	-70.327	-0.212	0.080
-322.085	18.245	0.254	0.202
-321.070	800.000	0.041	0.128
-320.056	-38.945	-0.167	-0.088
-319.041	0.766	0.168	0.120
-318.026	172.414	0.123	-0.177
-317.012	212.412	-0.127	-0.199
-315.997	-146.960	-0.173	0.015
-314.983	-200.000	-0.025	0.171
-313.968	-171.826	0.284	-0.009
-312.953	-36.573	-0.407	0.218
-311.939	90.135	0.176	0.196
-310.924	226.034	-0.128	-0.207
-309.910	-200.000	-0.013	0.202
-308.895	-86.027	-0.144	-0.044
-307.880	-75.973	-0.219	-0.077
-306.866	-200.000	-0.042	0.190
-305.851	-53.805	-0.218	0.099
-304.837	-89.786	-0.254	0.074
-303.822	387.293	0.113	-0.233
-302.807	461.278	0.101	0.224
-301.793	-32.326	-0.133	0.074
-300.778	-101.242	-0.173	-0.042
-299.764	-101.094	-0.310	0.076
-298.749	-200.000	-0.005	0.086
-297.735	178.767	0.123	-0.178
-296.720	-171.357	0.220	-0.007
-295.705	-194.293	-0.048	0.000
-294.691	28.226	0.152	-0.128
-293.676	-31.272	0.470	-0.264
-292.662	31.352	-0.105	0.090
-291.647	233.607	-0.130	-0.213
-290.632	-200.000	-0.004	0.101
-289.618	-110.789	0.369	-0.076
-288.603	-54.158	-0.086	0.039
-287.589	-128.916	-0.060	0.008
-286.574	-155.240	0.230	0.015
-285.559	-159.708	-0.312	0.017
-284.545	104.438	-0.118	0.139
-283.530	-200.000	0.024	-0.218
-282.516	-48.559	-0.251	0.120
-281.501	-200.000	0.019	-0.503
-280.486	800.000	-0.048	-0.147
-279.472	-14.059	0.222	-0.142
-278.457	-164.512	-0.166	0.008
-277.443	-0.945	0.203	-0.143
-276.428	-200.000	-0.047	-0.453
-275.413	-125.337	-0.211	-0.032
-274.399	200.787	0.159	0.243
-273.384	422.562	-0.095	-0.204
-272.370	68.141	0.294	-0.300
-271.355	-200.000	-0.017	-0.154
-270.340	-200.000	0.002	-0.047
-269.326	-88.277	-0.146	-0.044
-268.311	-92.384	0.177	-0.049
-267.297	676.880	0.065	0.167
-266.282	-200.000	0.030	-0.232
-265.267	194.161	0.108	-0.162
-264.253	-154.665	0.261	-0.017
-263.238	-200.000	-0.009	0.041
-262.224	225.300	-0.165	0.265
-261.209	35.177	0.342	0.298
-260.195	695.353	0.045	0.116
-259.180	-84.397	0.224	-0.071
-258.165	-200.000	0.027	-0.202
-257.151	-118.432	-0.243	-0.043
-256.136	91.124	0.215	-0.240
-255.122	7.092	0.100	-0.074
-254.107	31.492	0.047	-0.040
-253.092	-88.272	-0.475	-0.141
-252.078	800.000	0.024	-0.077
-251.063	-200.000	-0.026	-0.357
-250.049	-85.081	0.387	-0.120
-249.034	-200.000	-0.011	0.085
-248.019	515.484	0.124	0.289
-247.005	104.566	0.279	-0.327
-245.990	800.000	0.081	-0.273
-244.976	69.388	-0.245	0.251
-243.961	-58.117	-0.178	-0.077
-242.946	-53.619	0.059	-0.027
-241.932	-8.818	-0.077	-0.051
-240.917	-38.250	0.192	-0.101
-239.903	-41.062	-0.058	-0.030
-238.888	784.499	-0.153	0.417
-237.873	-200.000	0.019	0.316
-236.859	-200.000	0.025	0.362
-235.844	-17.104	0.228	0.143
-234.830	-50.798	-0.367	-0.171
-233.815	346.385	-0.092	-0.179
-232.800	193.261	-0.063	0.094
-231.786	-80.038	0.390	0.130
-230.771	24.442	0.152	0.125
-229.757	231.237	0.124	-0.201
-228.742	45.141	0.366	-0.335
-227.727	-54.127	-0.019	0.008
-226.713	304.015	-0.170	-0.313
-225.698	-55.796	-0.448	-0.199
-224.684	16.405	-0.066	-0.051
-223.669	-105.461	-0.075	-0.017
-222.655	800.000	0.066	0.283
-221.640	47.567	0.126	0.117
-220.625	-200.000	-0.026	0.157
-219.611	800.000	0.101	0.396
-218.596	-89.315	-0.350	-0.102
-217.582	-200.000	0.017	-0.086
-216.567	800.000	0.049	0.181
-215.552	800.000	0.087	0.292
-214.538	-78.770	-0.422	-0.143
-213.523	-103.645	0.205	-0.048
-212.509	180.497	-0.100	-0.146
-211.494	-69.030	0.219	-0.084
-210.479	126.546	-0.088	-0.110
-209.465	800.000	0.078	-0.297
-208.450	800.000	0.106	-0.296
-207.436	800.000	-0.074	0.237
-206.421	-58.042	0.414	0.179
-205.406	-107.267	0.316	0.069
-204.392	-200.000	0.022	0.260
-203.377	-87.009	0.181	0.055
-202.363	658.661	-0.094	-0.241
-201.348	-150.816	-0.231	-0.017
-200.333	228.178	-0.186	0.300
-199.319	327.072	-0.159	0.302
-198.304	-84.040	-0.046	0.015
-197.290	27.523	0.176	0.146
-196.275	223.830	0.165	-0.264
-195.260	102.214	-0.151	-0.175
-194.246	302.161	-0.060	0.110
-193.231	574.201	0.006	-0.014
-192.217	697.311	-0.051	-0.132
-191.202	-90.829	-0.267	-0.076
-190.187	-154.098	-0.036	-0.002
-189.173	800.000	-0.124	-0.371
-188.158	27.989	0.097	-0.081
-187.144	108.226	-0.169	0.200
-186.129	800.000	-0.094	0.308
-185.114	-24.018	0.233	0.138
-184.100	-200.000	0.095	-0.424
-183.085	103.931	0.212	-0.247
-182.071	348.275	0.115	-0.224
-181.056	506.807	0.200	0.459
-180.042	-200.000	0.049	0.461
-179.027	-54.501	-0.427	0.192
-178.012	800.000	-0.136	0.380
-176.998	66.098	-0.150	-0.151
-175.983	800.000	0.130	0.559
-174.969	325.310	0.063	-0.120
-173.954	-200.000	-0.004	0.084
-172.939	7.308	0.118	0.087
-171.925	-38.406	0.401	0.210
-170.910	61.650	0.064	0.064
-169.896	800.000	0.080	0.268
-168.881	800.000	-0.146	0.453
-167.866	-200.000	-0.075	0.421
-166.852	572.821	0.095	0.228
-165.837	33.187	-0.182	-0.156
-164.823	-200.000	-0.024	-0.236
-163.808	40.134	-0.156	-0.139
-162.793	148.803	-0.113	0.152
-161.779	800.000	-0.098	0.284
-160.764	-59.740	-0.169	0.072
-159.750	-89.734	0.560	0.162
-158.735	-200.000	0.011	-0.319
-157.720	-200.000	0.016	-0.108
-156.706	-121.868	0.407	0.066
-155.691	-152.463	-0.251	-0.018
-154.677	7.478	-0.103	0.076
-153.662	145.462	-0.223	0.295
-152.647	-65.114	0.073	-0.029
-151.633	-200.000	-0.034	-0.238
-150.618	800.000	0.030	0.119
-149.604	102.125	0.047	0.054
-148.589	-85.548	0.242	0.074
-147.574	317.039	0.155	0.291
-146.560	800.000	0.065	-0.194
-145.545	7.660	-0.235	0.174
-144.531	-25.129	0.088	-0.052
-143.516	-153.123	-0.110	0.008
-142.502	-200.000	-0.086	0.397
-141.487	480.395	0.204	-0.458
-140.472	-27.027	0.112	-0.065
-139.458	186.083	0.094	-0.139
-138.443	374.355	-0.145	0.292
-137.429	-200.000	0.012	0.142
-136.414	12.997	-0.134	-0.103
-135.399	-105.701	0.398	0.089
-134.385	-200.000	0.069	0.368
-133.370	280.451	-0.108	-0.191
-132.356	-162.945	0.208	-0.010
-131.341	736.208	0.155	-0.411
-130.326	-48.700	-0.075	0.036
-129.312	-200.000	-0.019	-0.190
-128.297	-18.640	0.146	0.090
-127.283	441.950	0.070	-0.151
-126.268	546.900	-0.055	0.130
-125.253	65.796	0.071	-0.071
-124.239	133.653	-0.098	0.125
-123.224	486.216	0.078	0.175
-122.210	-200.000	-0.039	0.235
