DTS Sentinel unit serial number:	SN413079Multiplexer serial number:	ORYXHardware model number:	OX4-SRSoftware version number:	ORYX F/W v4.00 Oryx Data Collector v3.7.2.0data status	okinstallation	princeton_trtdifferential loss correction	single-endedforward channel	channel 3reverse channel	N/Adate	2019/09/13time	20:16:35forward acquisition time	60.00reverse acquisition time	0.00gamma	496.2192k internal	0.2330k external	0.2330temperature offset calibration	1.0066default loss term (dB/km)	0.3790temperature slope calibration	1.0000multiplexer offset coefficient	1.0000multiplexer slope coefficient	1.0000fibre end	0.00T internal ref (°C)	29.37T ext. ref 1 (°C)	3.25T ext. ref 2 (°C)	24.03length (m)	temperature (°C)	Stokes	anti-Stokes-747.200	-200.000	-0.028	0.220
-746.185	-99.854	-0.185	0.047
-745.171	-58.292	0.420	0.184
-744.156	661.079	0.022	0.056
-743.142	-97.989	-0.197	-0.051
-742.127	-94.494	-0.218	0.060
-741.112	800.000	0.057	-0.189
-740.098	409.720	0.159	0.339
-739.083	30.855	0.236	0.204
-738.069	35.333	-0.150	0.132
-737.054	800.000	0.024	0.086
-736.039	-152.958	0.167	-0.012
-735.025	101.603	0.213	0.250
-734.010	102.283	-0.163	-0.191
-732.996	800.000	-0.069	-0.232
-731.981	-83.070	0.036	0.012
-730.966	106.016	-0.149	-0.178
-729.952	-191.122	-0.131	-0.001
-728.937	168.810	-0.203	-0.291
-727.923	-9.723	-0.275	0.184
-726.908	-200.000	-0.061	-0.329
-725.894	52.677	-0.234	-0.225
-724.879	138.585	0.171	-0.226
-723.864	-200.000	0.001	-0.008
-722.850	102.739	-0.235	-0.277
-721.835	96.952	-0.196	0.226
-720.821	476.631	-0.108	-0.246
-719.806	366.785	-0.049	0.099
-718.791	-84.733	0.071	-0.022
-717.777	-121.308	-0.141	0.024
-716.762	-3.122	0.352	0.247
-715.748	-56.788	-0.101	-0.045
-714.733	24.820	-0.228	-0.190
-713.718	534.199	-0.103	-0.246
-712.704	9.579	0.021	-0.016
-711.689	-57.607	-0.187	-0.083
-710.675	-200.000	0.016	-0.140
-709.660	-200.000	0.002	0.012
-708.645	-200.000	-0.001	0.238
-707.631	54.470	-0.144	0.139
-706.616	-89.711	0.132	0.039
-705.602	-49.313	0.113	0.054
-704.587	-25.827	-0.100	-0.059
-703.572	-200.000	-0.021	-0.375
-702.558	-41.506	0.144	-0.075
-701.543	-200.000	0.024	0.121
-700.529	-123.137	-0.129	0.021
-699.514	-58.681	-0.289	0.126
-698.499	-75.102	0.213	-0.077
-697.485	-133.762	0.194	-0.024
-696.470	213.648	0.100	-0.158
-695.456	-97.722	-0.296	-0.077
-694.441	202.220	0.154	-0.238
-693.426	24.122	-0.129	-0.107
-692.412	87.691	0.275	0.306
-691.397	110.626	-0.127	0.154
-690.383	-164.866	-0.361	-0.016
-689.368	-45.360	0.070	0.035
-688.354	800.000	0.106	-0.312
-687.339	-156.613	-0.328	0.020
-686.324	39.652	-0.085	0.077
-685.310	-167.973	0.090	0.004
-684.295	-2.147	-0.178	-0.126
-683.281	-106.729	0.052	0.012
-682.266	-154.246	0.163	0.011
-681.251	-200.000	0.011	-0.063
-680.237	-151.773	-0.119	0.009
-679.222	-200.000	-0.002	0.205
-678.208	-200.000	-0.019	0.116
-677.193	-156.182	0.336	-0.021
-676.178	38.137	0.045	0.040
-675.164	584.987	0.053	-0.130
-674.149	-110.535	0.166	0.035
-673.135	-200.000	0.002	0.194
-672.120	-71.332	0.175	0.066
-671.105	192.172	0.083	-0.126
-670.091	55.845	0.170	0.166
-669.076	-33.404	0.174	-0.096
-668.062	-5.759	-0.104	-0.072
-667.047	312.767	0.229	-0.431
-666.032	317.808	0.099	-0.188
-665.018	102.543	0.072	0.085
-664.003	-179.346	0.204	-0.005
-662.989	-111.383	-0.184	-0.038
-661.974	-129.302	0.072	-0.010
-660.959	800.000	-0.086	-0.250
-659.945	-8.755	-0.075	0.051
-658.930	-43.027	0.077	-0.039
-657.916	-55.671	-0.332	0.149
-656.901	5.791	-0.381	-0.283
-655.886	-92.416	0.180	0.051
-654.872	-200.000	0.022	0.149
-653.857	-200.000	-0.013	-0.359
-652.843	-47.289	0.160	-0.078
-651.828	-136.919	0.098	0.011
-650.814	-131.166	0.215	-0.029
-649.799	264.201	-0.052	-0.091
-648.784	4.215	0.292	-0.215
-647.770	327.740	-0.118	-0.227
-646.755	-200.000	0.008	-0.124
-645.741	-144.002	-0.375	-0.035
-644.726	397.141	0.102	-0.214
-643.711	197.285	0.059	0.091
-642.697	-20.908	0.277	0.170
-641.682	-118.523	-0.361	0.064
-640.668	31.544	-0.137	0.118
-639.653	-200.000	0.021	-0.116
-638.638	-17.354	-0.165	-0.104
-637.624	-30.521	-0.109	0.062
-636.609	97.248	-0.031	0.036
-635.595	20.045	-0.338	-0.274
-634.580	-166.504	-0.286	0.012
-633.565	80.595	-0.150	-0.162
-632.551	18.723	-0.246	0.197
-631.536	-200.000	0.008	-0.261
-630.522	-23.120	-0.121	0.073
-629.507	800.000	-0.024	-0.085
-628.492	777.444	-0.101	0.277
-627.478	47.415	-0.200	0.187
-626.463	119.986	0.161	-0.200
-625.449	-200.000	0.015	0.115
-624.434	39.655	-0.249	0.224
-623.419	-26.239	0.253	-0.149
-622.405	-30.065	-0.096	-0.054
-621.390	20.431	0.028	-0.023
-620.376	-82.447	-0.103	-0.033
-619.361	-71.526	-0.255	0.095
-618.346	-158.033	-0.392	0.023
-617.332	376.616	0.110	0.224
-616.317	-144.845	0.125	-0.011
-615.303	52.552	0.032	-0.030
-614.288	-147.811	-0.186	-0.016
-613.273	-145.830	0.164	0.015
-612.259	-200.000	0.004	-0.176
-611.244	-42.850	0.119	-0.061
-610.230	29.431	0.277	-0.236
-609.215	81.062	-0.148	0.160
-608.201	-186.739	0.055	-0.001
-607.186	31.340	0.170	0.146
-606.171	240.219	-0.201	0.335
-605.157	3.483	0.155	0.113
-604.142	-140.171	-0.108	-0.011
-603.128	40.356	0.310	-0.279
-602.113	139.727	-0.119	-0.157
-601.098	1.747	0.113	0.082
-600.084	28.301	-0.170	-0.144
-599.069	-63.763	0.354	0.145
-598.055	-62.907	0.325	0.135
-597.040	-108.005	-0.049	0.011
-596.025	-200.000	0.008	-0.101
-595.011	15.065	0.109	0.085
-593.996	-161.483	-0.086	0.004
-592.982	207.387	-0.033	0.051
-591.967	-200.000	0.046	0.243
-590.952	48.563	-0.176	-0.165
-589.938	262.210	-0.023	-0.041
-588.923	-20.784	-0.346	0.212
-587.909	163.743	0.141	-0.198
-586.894	-200.000	-0.019	0.126
-585.879	-200.000	-0.010	0.108
-584.865	-66.400	0.233	-0.093
-583.850	342.271	-0.111	-0.218
-582.836	189.573	0.091	0.137
-581.821	-32.766	0.383	-0.213
-580.806	-200.000	0.060	0.295
-579.792	277.121	0.203	-0.361
-578.777	-38.631	0.307	-0.162
-577.763	178.969	0.172	-0.252
-576.748	140.978	0.039	-0.052
-575.733	350.153	0.031	-0.062
-574.719	386.181	-0.059	0.123
-573.704	-200.000	0.005	-0.210
-572.690	-9.507	0.125	0.084
-571.675	-33.133	0.077	-0.043
-570.661	-17.077	-0.180	0.113
-569.646	800.000	-0.044	0.190
-568.631	47.184	-0.098	-0.091
-567.617	90.037	0.384	-0.429
-566.602	799.686	-0.079	-0.219
-565.588	-66.739	-0.316	-0.125
-564.573	-200.000	0.001	0.099
-563.558	215.772	-0.151	-0.239
-562.544	25.759	-0.076	0.063
-561.529	203.538	0.191	0.295
-560.515	-165.698	0.403	-0.017
-559.500	-149.906	0.361	-0.028
-558.485	-194.260	-0.227	0.002
-557.471	620.577	0.076	-0.192
-556.456	-131.786	-0.364	0.048
-555.442	-94.212	-0.091	0.025
-554.427	-200.000	-0.006	-0.291
-553.412	-127.582	-0.322	-0.047
-552.398	-91.746	-0.183	-0.052
-551.383	-43.801	0.152	0.077
-550.369	-200.000	-0.026	0.134
-549.354	32.476	-0.144	-0.124
-548.339	-49.167	-0.098	0.047
-547.325	8.505	0.234	0.176
-546.310	89.613	0.153	-0.171
-545.296	140.409	-0.080	0.105
-544.281	-35.081	0.202	-0.110
-543.266	-114.375	-0.261	0.050
-542.252	-41.454	0.037	0.019
-541.237	378.406	-0.085	-0.175
-540.223	26.747	-0.273	-0.228
-539.208	-29.617	-0.216	-0.123
-538.193	-28.464	0.245	-0.141
-537.179	85.839	0.187	-0.205
-536.164	-114.636	-0.417	0.080
-535.150	239.027	-0.147	-0.245
-534.135	-200.000	0.005	0.185
-533.121	-50.622	-0.153	-0.072
-532.106	-135.725	0.086	-0.010
-531.091	729.974	-0.091	0.242
-530.077	-200.000	-0.055	0.276
-529.062	38.483	0.196	0.175
-528.048	152.046	0.293	-0.399
-527.033	-191.175	-0.112	0.001
-526.018	-200.000	0.036	0.171
-525.004	-94.444	0.231	-0.063
-523.989	110.395	-0.084	-0.101
-522.975	-61.347	-0.130	-0.054
-521.960	-70.515	0.238	-0.090
-520.945	-44.640	-0.299	-0.149
-519.931	-69.951	-0.099	-0.038
-518.916	-11.176	-0.094	0.062
-517.902	-96.684	0.484	0.127
-516.887	15.570	-0.354	-0.278
-515.872	800.000	0.074	-0.254
-514.858	204.217	-0.151	0.234
-513.843	-188.196	-0.087	0.001
-512.829	800.000	-0.060	-0.179
-511.814	-78.045	-0.263	0.091
-510.799	-75.551	0.024	-0.009
-509.785	-8.291	0.094	-0.063
-508.770	126.058	-0.073	0.092
-507.756	324.102	0.053	0.101
-506.741	533.733	0.048	0.114
-505.726	800.000	0.048	-0.141
-504.712	-200.000	0.003	-0.061
-503.697	15.233	-0.086	0.067
-502.683	52.176	0.066	-0.063
-501.668	-159.630	-0.270	-0.015
-500.653	675.389	-0.068	0.176
-499.639	-200.000	0.021	0.231
-498.624	-128.800	-0.251	0.035
-497.610	711.292	0.145	0.384
-496.595	-200.000	0.031	-0.197
-495.581	239.296	-0.050	0.083
-494.566	800.000	-0.064	-0.185
-493.551	504.629	-0.082	-0.190
-492.537	-200.000	0.015	0.156
-491.522	-58.204	-0.225	0.098
-490.508	-200.000	-0.015	0.470
-489.493	-76.782	0.156	0.054
-488.478	-200.000	-0.041	-0.228
-487.464	98.265	-0.134	-0.154
-486.449	-200.000	0.006	0.203
-485.435	766.574	0.018	-0.050
-484.420	-19.228	0.249	0.154
-483.405	-98.171	-0.084	-0.022
-482.391	-66.429	0.305	0.121
-481.376	-136.123	-0.178	0.021
-480.362	-200.000	-0.059	-0.386
-479.347	-148.308	0.120	0.010
-478.332	-136.837	-0.018	-0.002
-477.318	-200.000	0.016	0.426
-476.303	-175.385	-0.349	-0.010
-475.289	-200.000	0.064	-0.280
-474.274	-92.720	0.167	-0.047
-473.259	-191.656	0.111	0.001
-472.245	-91.245	0.084	-0.024
-471.230	-64.946	0.192	-0.077
-470.216	-24.247	0.147	0.087
-469.201	-9.820	-0.190	-0.126
-468.186	65.702	0.132	-0.133
-467.172	-200.000	-0.021	-0.123
-466.157	-200.000	0.029	-0.185
-465.143	-163.089	-0.294	0.014
-464.128	540.258	0.043	0.103
-463.113	-83.439	0.227	0.073
-462.099	-121.210	-0.223	0.037
-461.084	-200.000	0.004	-0.074
-460.070	-157.544	-0.266	-0.016
-459.055	426.976	-0.078	0.168
-458.040	445.289	0.023	-0.051
-457.026	590.659	-0.132	-0.324
-456.011	-20.211	-0.301	-0.185
-454.997	800.000	-0.036	0.124
-453.982	2.745	0.082	0.059
-452.968	-194.659	-0.292	0.002
-451.953	-110.954	-0.325	0.067
-450.938	-200.000	0.078	-0.000
-449.924	-200.000	0.018	0.172
-448.909	-142.347	0.403	-0.040
-447.895	-200.000	-0.046	-0.200
-446.880	15.353	0.109	0.085
-445.865	77.385	0.225	-0.238
-444.851	-200.000	0.041	0.223
-443.836	31.706	-0.112	0.096
-442.822	-170.452	0.100	0.003
-441.807	77.339	-0.081	0.086
-440.792	130.254	0.094	0.120
-439.778	-158.710	-0.245	-0.014
-438.763	12.331	0.117	0.089
-437.749	156.210	0.200	-0.274
-436.734	93.609	-0.019	0.021
-435.719	-200.000	0.045	0.225
-434.705	800.000	0.039	0.148
-433.690	36.744	0.063	-0.056
-432.676	-111.129	-0.099	-0.020
-431.661	-19.331	0.187	-0.115
-430.646	205.585	-0.114	-0.177
-429.632	39.130	0.263	-0.234
-428.617	57.845	0.102	0.099
-427.603	800.000	-0.018	-0.062
-426.588	-84.786	-0.138	-0.043
-425.573	-67.381	0.180	0.070
-424.559	487.325	0.045	-0.101
-423.544	-71.893	0.191	0.071
-422.530	-200.000	-0.011	-0.160
-421.515	-25.786	0.145	0.085
-420.500	800.000	0.140	-0.439
-419.486	800.000	-0.068	-0.189
-418.471	-61.834	0.083	-0.034
-417.457	-23.944	0.057	-0.034
-416.442	-133.231	-0.113	-0.014
-415.428	-162.534	-0.081	0.004
-414.413	-56.380	0.336	-0.149
-413.398	-200.000	0.027	-0.504
-412.384	-19.060	-0.169	-0.104
-411.369	169.909	0.100	-0.142
-410.355	147.394	-0.141	-0.189
-409.340	-200.000	0.018	0.255
-408.325	-14.737	-0.252	-0.161
-407.311	-1.858	0.225	-0.157
-406.296	40.007	0.087	-0.078
-405.282	-200.000	0.004	-0.028
-404.267	800.000	0.082	0.240
-403.252	-10.039	-0.256	0.169
-402.238	497.209	-0.125	-0.286
-401.223	-65.659	0.486	-0.194
-400.209	-124.959	0.168	-0.026
-399.194	443.050	0.072	0.156
-398.179	800.000	0.080	0.289
-397.165	800.000	-0.053	-0.160
-396.150	-145.021	-0.019	0.002
-395.136	-41.256	0.071	0.036
-394.121	313.601	0.214	-0.399
-393.106	800.000	-0.025	0.073
-392.092	800.000	0.044	0.154
-391.077	-200.000	0.103	0.491
-390.063	-200.000	-0.051	-0.266
-389.048	-162.535	0.355	-0.017
-388.033	800.000	-0.087	-0.248
-387.019	-191.328	-0.408	0.004
-386.004	-200.000	0.015	-0.401
-384.990	-62.049	-0.352	-0.146
-383.975	-200.000	0.032	-0.406
-382.960	565.484	0.116	-0.279
-381.946	154.288	-0.026	-0.035
-380.931	102.817	0.212	0.246
-379.917	44.654	-0.208	-0.190
-378.902	281.514	0.089	0.158
-377.888	-52.773	-0.134	0.061
-376.873	17.496	-0.137	-0.108
-375.858	-68.640	0.214	0.082
-374.844	800.000	0.080	0.237
-373.829	-200.000	-0.039	-0.343
-372.815	-200.000	-0.015	-0.082
-371.800	195.078	0.094	-0.142
-370.785	-200.000	0.009	-0.071
-369.771	-174.110	0.034	-0.001
-368.756	-56.061	-0.244	-0.108
-367.742	-40.489	0.343	-0.177
-366.727	182.323	-0.202	0.296
-365.712	100.366	0.048	0.055
-364.698	129.000	0.154	0.195
-363.683	-77.816	-0.064	0.022
-362.669	62.786	-0.042	0.042
-361.654	257.855	-0.185	-0.316
-360.639	-82.839	-0.032	-0.010
-359.625	276.333	-0.100	0.176
-358.610	-77.394	-0.277	-0.095
-357.596	-49.690	0.136	0.064
-356.581	-200.000	0.027	0.405
-355.566	800.000	-0.120	0.367
-354.552	-100.795	-0.166	-0.041
-353.537	-22.330	-0.109	-0.066
-352.523	-61.554	0.269	0.112
-351.508	-111.641	0.173	-0.035
-350.493	67.184	-0.192	-0.194
-349.479	-200.000	0.022	0.144
-348.464	-100.971	0.061	0.015
-347.450	147.683	0.081	-0.108
-346.435	800.000	0.070	0.270
-345.420	-38.429	0.318	0.167
-344.406	-41.111	0.029	0.015
-343.391	-21.630	0.055	-0.033
-342.377	-8.269	0.133	0.089
-341.362	493.218	-0.060	0.136
-340.348	4.424	-0.327	0.238
-339.333	800.000	-0.097	0.276
-338.318	231.585	0.147	0.239
-337.304	-32.214	0.089	-0.049
-336.289	-200.000	0.063	0.297
-335.275	-61.326	-0.174	0.073
-334.260	800.000	0.047	-0.147
-333.245	-117.967	-0.091	0.016
-332.231	-131.508	0.223	0.029
-331.216	-54.336	0.125	0.056
-330.202	-200.000	0.022	0.251
-329.187	-126.035	-0.180	0.027
-328.172	-200.000	-0.058	0.363
-327.158	-200.000	-0.017	0.207
-326.143	-104.787	0.212	-0.048
-325.129	-33.226	0.053	0.029
-324.114	-140.655	0.047	-0.005
-323.099	-140.932	-0.076	0.008
-322.085	-200.000	0.012	0.136
-321.070	172.882	0.174	0.249
-320.056	-79.565	0.113	0.038
-319.041	306.929	0.163	0.300
-318.026	-117.739	0.071	0.013
-317.012	-200.000	-0.022	0.219
-315.997	-200.000	0.017	-0.154
-314.983	10.522	-0.147	-0.111
-313.968	-185.547	0.130	-0.002
-312.953	187.549	0.163	-0.241
-311.939	-200.000	0.007	0.450
-310.924	-129.559	0.217	0.030
-309.910	18.097	0.313	-0.247
-308.895	-200.000	-0.037	-0.266
-307.880	-200.000	-0.018	0.130
-306.866	332.865	0.033	0.062
-305.851	-187.562	0.223	0.003
-304.837	-200.000	-0.039	-0.470
-303.822	13.221	-0.291	0.223
-302.807	-115.985	-0.229	0.042
-301.793	87.225	0.118	0.129
-300.778	-67.379	0.210	-0.082
-299.764	800.000	0.036	-0.133
-298.749	351.379	-0.119	0.233
-297.735	51.693	-0.215	0.202
-296.720	-200.000	0.052	0.305
-295.705	-48.202	0.147	-0.070
-294.691	387.332	0.088	0.180
-293.676	-200.000	0.044	0.328
-292.662	-165.279	-0.110	0.005
-291.647	-114.892	-0.524	-0.099
-290.632	-16.460	0.283	0.178
-289.618	-29.917	-0.259	0.146
-288.603	800.000	0.054	-0.219
-287.589	214.202	0.102	-0.160
-286.574	-16.130	0.114	0.071
-285.559	210.853	-0.158	-0.246
-284.545	125.995	0.178	-0.223
-283.530	779.615	-0.062	0.167
-282.516	169.381	0.197	0.278
-281.501	4.272	0.129	0.093
-280.486	373.729	-0.261	0.525
-279.472	-200.000	0.016	0.098
-278.457	-121.323	-0.109	0.018
-277.443	-140.843	0.235	-0.024
-276.428	158.146	-0.178	0.244
-275.413	800.000	-0.025	-0.069
-274.399	-113.305	-0.147	-0.029
-273.384	13.665	0.178	-0.137
-272.370	292.704	0.122	0.219
-271.355	-35.443	0.085	-0.046
-270.340	-200.000	0.017	0.123
-269.326	763.479	-0.037	0.099
-268.311	800.000	0.036	-0.127
-267.297	-62.574	-0.172	-0.071
-266.282	-2.285	-0.233	-0.161
-265.267	78.119	0.209	0.221
-264.253	-200.000	-0.001	-0.107
-263.238	-30.740	0.135	-0.075
-262.224	193.965	-0.124	0.186
-261.209	-135.376	-0.243	-0.029
-260.195	199.545	0.118	0.178
-259.180	-47.451	0.304	-0.146
-258.165	-118.318	-0.178	-0.031
-257.151	551.187	0.094	-0.222
-256.136	260.947	0.136	-0.232
-255.122	-66.670	-0.190	-0.074
-254.107	-49.150	-0.124	0.059
-253.092	-171.802	-0.427	-0.014
-252.078	-200.000	-0.017	0.368
-251.063	-63.492	-0.097	-0.039
-250.049	83.262	-0.173	0.186
-249.034	-47.436	0.084	0.040
-248.019	-132.768	0.055	0.007
-247.005	-135.483	-0.240	-0.028
-245.990	389.084	0.097	0.199
-244.976	491.446	0.153	-0.346
-243.961	800.000	-0.122	0.384
-242.946	376.336	-0.047	0.095
-241.932	-200.000	-0.013	0.196
-240.917	316.132	0.186	0.347
-239.903	750.202	0.056	0.150
-238.888	111.376	-0.121	0.144
-237.873	-73.775	0.295	0.106
-236.859	-64.951	0.174	0.070
-235.844	800.000	0.023	-0.085
-234.830	-200.000	-0.016	0.214
-233.815	239.952	0.113	-0.186
-232.800	-118.207	0.198	-0.035
-231.786	800.000	-0.118	0.324
-230.771	-148.720	-0.189	-0.015
-229.757	-80.783	0.144	-0.047
-228.742	800.000	-0.033	0.105
-227.727	-13.925	-0.258	-0.164
-226.713	-32.022	0.249	-0.138
-225.698	-43.872	-0.359	-0.178
-224.684	77.130	0.190	-0.199
-223.669	207.683	0.183	-0.282
-222.655	800.000	0.042	0.146
-221.640	-200.000	0.005	-0.114
-220.625	230.283	0.182	0.293
-219.611	-31.640	-0.105	-0.058
-218.596	800.000	0.174	0.514
-217.582	1.362	-0.200	-0.142
-216.567	-96.536	0.050	-0.013
-215.552	-200.000	-0.047	-0.318
-214.538	143.593	-0.183	-0.240
-213.523	-75.257	-0.244	-0.086
-212.509	-200.000	-0.036	0.204
-211.494	800.000	0.142	-0.449
-210.479	800.000	0.128	0.378
-209.465	-200.000	-0.021	-0.141
-208.450	-200.000	-0.022	-0.277
-207.436	662.874	0.017	0.043
-206.421	76.876	-0.038	0.039
-205.406	502.892	-0.085	0.194
-204.392	-44.420	0.096	0.048
-203.377	-122.540	-0.136	0.022
-202.363	-104.538	0.171	-0.039
-201.348	-65.291	0.111	-0.044
-200.333	38.904	-0.242	-0.213
-199.319	-200.000	0.021	0.286
-198.304	363.396	-0.186	0.368
-197.290	132.853	-0.230	0.293
-196.275	-200.000	-0.003	-0.186
-195.260	-200.000	-0.004	0.175
-194.246	-140.422	0.148	-0.015
-193.231	-39.744	0.343	-0.177
-192.217	-112.993	-0.224	-0.044
-191.202	329.299	-0.042	0.080
-190.187	800.000	-0.043	-0.160
-189.173	-200.000	-0.008	-0.161
-188.158	-54.391	0.349	0.156
-187.144	-31.762	-0.296	0.163
-186.129	399.147	0.104	0.215
-185.114	800.000	0.042	0.149
-184.100	-200.000	0.022	0.133
-183.085	22.614	0.145	-0.117
-182.071	91.440	-0.036	-0.040
-181.056	-102.305	-0.222	0.053
-180.042	-200.000	-0.018	-0.152
-179.027	-114.204	-0.243	-0.046
-178.012	54.484	-0.188	-0.179
-176.998	-3.519	-0.209	0.143
-175.983	-200.000	-0.010	-0.156
-174.969	69.591	0.173	-0.175
-173.954	51.369	0.151	-0.141
-172.939	-126.414	-0.184	-0.027
-171.925	32.743	0.174	-0.148
-170.910	64.500	0.237	-0.235
-169.896	-22.785	-0.219	0.130
-168.881	-167.613	0.180	-0.007
-167.866	404.673	-0.060	-0.125
-166.852	157.818	0.046	-0.063
-165.837	-108.440	-0.232	-0.049
-164.823	-153.580	0.304	-0.021
-163.808	-121.164	-0.217	-0.036
-162.793	-200.000	0.000	-0.171
-161.779	-200.000	0.027	-0.164
-160.764	80.169	-0.102	0.108
-159.750	-200.000	0.012	0.092
-158.735	369.801	0.048	0.095
-157.720	-200.000	0.013	-0.383
-156.706	422.625	0.122	0.257
-155.691	6.122	-0.263	0.192
-154.677	-51.852	0.350	-0.160
-153.662	-200.000	0.156	-0.000
-152.647	516.787	-0.109	0.251
-151.633	-40.285	0.160	0.082
-150.618	800.000	-0.106	-0.325
-149.604	-200.000	0.003	0.190
-148.589	-69.064	-0.079	0.030
-147.574	-37.992	-0.183	0.096
-146.560	-178.708	-0.108	0.002
-145.545	-124.878	0.315	0.048
-144.531	20.910	-0.104	0.083
-143.516	-171.608	0.250	0.008
-142.502	86.156	-0.056	-0.061
-141.487	-200.000	-0.017	0.119
-140.472	-146.919	-0.039	0.003
-139.458	-200.000	0.015	-0.154
-138.443	-200.000	0.008	-0.236
-137.429	576.690	0.105	0.253
-136.414	-77.836	0.086	-0.029
-135.399	246.907	-0.070	0.116
-134.385	155.095	0.086	0.116
-133.370	299.232	-0.124	0.224
-132.356	-77.684	0.046	0.016
-131.341	31.323	-0.035	-0.030
-130.326	7.900	0.354	0.261
-129.312	-200.000	-0.007	0.115
-128.297	800.000	-0.062	-0.211
-127.283	246.533	0.086	0.142
-126.268	-63.578	0.333	-0.134
-125.253	-200.000	-0.025	-0.286
-124.239	-200.000	-0.036	-0.206
-123.224	100.014	-0.094	-0.107
-122.210	344.028	-0.063	0.121
