DTS Sentinel unit serial number:	SN413079Multiplexer serial number:	ORYXHardware model number:	OX4-SRSoftware version number:	ORYX F/W v4.00 Oryx Data Collector v3.7.2.0data status	okinstallation	princeton_trtdifferential loss correction	single-endedforward channel	channel 3reverse channel	N/Adate	2019/09/16time	09:48:35forward acquisition time	60.00reverse acquisition time	0.00gamma	496.2192k internal	0.2317k external	0.2317temperature offset calibration	0.9952default loss term (dB/km)	0.3790temperature slope calibration	1.0000multiplexer offset coefficient	1.0000multiplexer slope coefficient	1.0000fibre end	0.00T internal ref (°C)	32.78T ext. ref 1 (°C)	12.31T ext. ref 2 (°C)	30.72length (m)	temperature (°C)	Stokes	anti-Stokes-747.200	-137.232	-0.167	0.019
-746.185	-6.489	-0.400	0.276
-745.171	18.483	-0.333	0.269
-744.156	-200.000	-0.004	0.282
-743.142	150.117	0.092	0.126
-742.127	621.803	0.031	-0.080
-741.112	-40.396	-0.111	0.058
-740.098	-24.367	-0.043	0.026
-739.083	-42.872	0.106	-0.055
-738.069	800.000	0.119	-0.368
-737.054	-17.019	0.281	-0.179
-736.039	-131.134	-0.372	-0.050
-735.025	-200.000	0.037	0.275
-734.010	220.116	-0.097	-0.158
-732.996	-72.938	-0.018	-0.007
-731.981	34.860	-0.152	0.135
-730.966	431.925	0.135	0.297
-729.952	246.291	-0.153	0.260
-728.937	-103.230	0.267	0.064
-727.923	7.895	0.065	0.050
-726.908	-81.880	-0.448	0.148
-725.894	100.402	0.073	0.086
-724.879	-200.000	-0.019	-0.172
-723.864	-78.982	-0.075	0.026
-722.850	205.957	0.131	0.206
-721.835	668.387	0.106	-0.277
-720.821	47.056	-0.081	0.076
-719.806	-122.235	-0.479	-0.079
-718.791	800.000	-0.098	-0.362
-717.777	-200.000	-0.030	-0.328
-716.762	-20.743	0.130	-0.081
-715.748	187.939	-0.051	-0.077
-714.733	-144.559	-0.108	-0.010
-713.718	52.167	-0.031	0.030
-712.704	-122.308	-0.368	0.061
-711.689	-43.350	-0.266	0.136
-710.675	275.340	-0.185	0.332
-709.660	75.975	0.145	-0.155
-708.645	48.468	-0.355	0.336
-707.631	99.291	-0.174	0.204
-706.616	-200.000	0.043	-0.281
-705.602	-11.357	-0.168	-0.112
-704.587	-108.342	-0.355	0.077
-703.572	-43.460	0.195	-0.100
-702.558	69.541	0.204	-0.212
-701.543	-91.047	-0.063	0.018
-700.529	-200.000	0.012	0.368
-699.514	-178.804	0.096	0.002
-698.499	62.663	-0.128	0.129
-697.485	-38.535	0.228	-0.122
-696.470	-5.959	0.035	0.024
-695.456	-65.337	-0.351	0.143
-694.441	800.000	0.099	-0.344
-693.426	-200.000	-0.034	-0.267
-692.412	24.976	0.133	-0.112
-691.397	151.939	-0.287	0.395
-690.383	160.772	-0.137	0.194
-689.368	197.874	-0.077	-0.119
-688.354	-200.000	0.029	-0.143
-687.339	-83.298	-0.351	-0.114
-686.324	-89.848	0.140	-0.041
-685.310	-200.000	0.036	0.382
-684.295	61.340	-0.074	-0.075
-683.281	-200.000	0.023	-0.252
-682.266	-153.296	-0.027	-0.002
-681.251	185.547	0.052	-0.078
-680.237	-97.697	-0.250	-0.065
-679.222	-200.000	-0.202	-0.001
-678.208	-110.338	-0.177	0.037
-677.193	150.493	-0.078	-0.106
-676.178	-125.058	-0.304	0.047
-675.164	41.378	0.297	-0.271
-674.149	219.302	0.097	0.157
-673.135	-125.545	0.339	0.052
-672.120	-69.258	-0.291	-0.113
-671.105	-100.204	-0.133	-0.033
-670.091	579.587	0.056	0.139
-669.076	-200.000	-0.020	-0.119
-668.062	-10.349	-0.236	0.158
-667.047	-131.481	0.219	-0.029
-666.032	-200.000	0.005	0.107
-665.018	-166.069	-0.335	-0.014
-664.003	42.921	-0.121	-0.111
-662.989	-200.000	0.017	0.168
-661.974	-14.346	0.061	-0.040
-660.959	-130.716	0.281	-0.038
-659.945	-104.586	-0.106	-0.025
-658.930	-73.886	-0.304	0.111
-657.916	-200.000	0.033	0.482
-656.901	116.072	0.228	0.281
-655.886	-200.000	0.021	-0.374
-654.872	309.841	-0.075	-0.142
-653.857	20.514	-0.121	0.099
-652.843	-200.000	-0.045	0.486
-651.828	-48.167	0.215	-0.105
-650.814	390.378	-0.090	-0.188
-649.799	152.386	-0.098	0.135
-648.784	-110.481	0.116	-0.024
-647.770	429.760	0.105	0.229
-646.755	-118.029	-0.160	-0.029
-645.741	-200.000	0.007	-0.039
-644.726	-200.000	-0.083	-0.449
-643.711	293.525	-0.056	0.103
-642.697	94.321	0.248	-0.284
-641.682	-158.346	0.154	0.009
-640.668	-200.000	-0.032	0.286
-639.653	22.372	0.363	0.299
-638.638	800.000	-0.096	-0.277
-637.624	800.000	-0.010	0.032
-636.609	-24.531	-0.377	0.226
-635.595	-94.471	0.201	-0.055
-634.580	617.226	0.061	-0.153
-633.565	247.812	-0.045	-0.076
-632.551	405.934	0.085	-0.180
-631.536	45.245	-0.246	0.229
-630.522	156.878	-0.108	-0.150
-629.507	157.943	-0.063	0.089
-628.492	-87.611	-0.153	0.047
-627.478	-70.830	-0.462	-0.175
-626.463	-200.000	0.001	0.198
-625.449	508.105	-0.033	0.077
-624.434	-200.000	-0.051	-0.293
-623.419	6.711	-0.341	-0.256
-622.405	96.856	0.127	0.147
-621.390	-128.522	-0.261	0.037
-620.376	-183.713	0.173	-0.003
-619.361	-0.645	-0.065	-0.046
-618.346	-81.868	-0.134	0.044
-617.332	-5.283	-0.219	0.152
-616.317	-76.836	-0.053	0.019
-615.303	-163.455	-0.208	-0.010
-614.288	5.597	-0.024	-0.018
-613.273	-149.435	0.180	-0.014
-612.259	147.138	-0.231	-0.313
-611.244	-51.856	-0.381	-0.179
-610.230	-196.794	-0.269	-0.002
-609.215	-200.000	0.005	-0.099
-608.201	-14.103	0.096	0.062
-607.186	218.436	0.296	-0.476
-606.171	-200.000	0.051	-0.447
-605.157	-200.000	0.025	-0.345
-604.142	29.079	-0.278	-0.238
-603.128	-57.538	0.140	0.062
-602.113	-117.653	-0.341	0.062
-601.098	-169.699	0.232	0.008
-600.084	-200.000	0.076	-0.359
-599.069	-90.969	-0.133	0.039
-598.055	-200.000	-0.040	-0.358
-597.040	-23.884	-0.116	0.070
-596.025	-200.000	-0.020	0.135
-595.011	-200.000	-0.005	0.294
-593.996	-70.769	0.145	0.055
-592.982	78.701	-0.228	-0.245
-591.967	281.849	0.130	0.234
-590.952	2.167	-0.364	0.264
-589.938	362.250	0.103	-0.208
-588.923	-200.000	-0.000	-0.004
-587.909	-125.629	0.360	-0.055
-586.894	233.273	0.039	-0.064
-585.879	159.997	-0.149	-0.209
-584.865	112.841	-0.144	-0.176
-583.850	800.000	-0.063	0.226
-582.836	59.294	-0.035	0.034
-581.821	-12.161	0.219	-0.144
-580.806	-200.000	-0.025	-0.245
-579.792	-200.000	0.006	0.082
-578.777	-147.497	-0.119	-0.010
-577.763	800.000	0.027	-0.111
-576.748	549.244	0.019	-0.046
-575.733	159.417	-0.048	-0.067
-574.719	-53.519	-0.114	0.052
-573.704	446.616	-0.053	-0.118
-572.690	457.289	0.097	-0.216
-571.675	-200.000	-0.038	0.198
-570.661	-200.000	-0.021	-0.335
-569.646	-66.210	0.125	0.050
-568.631	2.272	0.160	-0.116
-567.617	-115.452	0.143	-0.027
-566.602	-200.000	-0.005	0.101
-565.588	-180.309	-0.374	-0.008
-564.573	-62.920	-0.199	0.083
-563.558	468.469	0.158	-0.357
-562.544	-80.692	0.208	0.070
-561.529	260.679	-0.094	-0.163
-560.515	13.396	0.349	-0.272
-559.500	-200.000	0.017	0.248
-558.485	-48.794	0.049	-0.024
-557.471	-82.030	0.238	0.078
-556.456	224.704	-0.083	-0.135
-555.442	644.268	-0.059	-0.152
-554.427	-200.000	0.002	-0.030
-553.412	33.642	-0.561	-0.490
-552.398	218.137	-0.054	-0.087
-551.383	-7.663	0.243	0.165
-550.369	-168.606	0.186	0.007
-549.354	11.340	-0.102	-0.078
-548.339	-200.000	-0.010	0.128
-547.325	201.498	-0.376	0.582
-546.310	-95.077	0.387	0.105
-545.296	-59.915	-0.459	-0.197
-544.281	30.543	0.097	-0.083
-543.266	-83.370	-0.082	0.027
-542.252	79.494	-0.138	-0.148
-541.237	-78.549	0.152	-0.052
-540.223	-76.725	-0.080	-0.028
-539.208	-200.000	-0.018	-0.124
-538.193	-200.000	0.055	-0.328
-537.179	-82.829	0.229	-0.074
-536.164	-32.283	0.067	-0.038
-535.150	184.855	0.128	0.191
-534.135	-200.000	-0.034	-0.397
-533.121	-200.000	0.005	0.074
-532.106	-142.754	0.212	-0.021
-531.091	35.062	0.213	0.187
-530.077	-200.000	-0.020	0.135
-529.062	800.000	-0.056	0.210
-528.048	167.980	-0.084	-0.120
-527.033	19.310	0.047	-0.038
-526.018	-141.743	0.152	0.015
-525.004	222.931	0.043	-0.069
-523.989	-68.919	-0.219	-0.085
-522.975	-200.000	0.000	0.204
-521.960	-80.993	0.215	0.071
-520.945	-84.088	0.187	0.059
-519.931	-200.000	-0.001	-0.254
-518.916	289.440	0.118	-0.215
-517.902	149.735	-0.225	-0.305
-516.887	482.425	0.187	0.426
-515.872	800.000	-0.093	-0.289
-514.858	152.662	0.060	-0.083
-513.843	9.812	-0.227	-0.172
-512.829	38.625	-0.207	-0.185
-511.814	-200.000	0.012	0.213
-510.799	-200.000	-0.040	0.236
-509.785	248.483	-0.034	0.058
-508.770	-17.749	0.430	0.271
-507.756	-200.000	0.001	-0.226
-506.741	-200.000	0.012	0.139
-505.726	-106.981	0.180	-0.040
-504.712	118.463	-0.257	-0.319
-503.697	228.670	-0.060	0.098
-502.683	-200.000	-0.006	0.113
-501.668	-39.029	0.204	-0.108
-500.653	364.358	0.045	0.090
-499.639	-115.221	-0.287	-0.054
-498.624	-200.000	-0.005	-0.056
-497.610	18.389	0.091	-0.073
-496.595	-31.352	-0.240	-0.136
-495.581	148.943	0.216	-0.292
-494.566	-131.996	-0.380	0.050
-493.551	394.258	-0.095	0.199
-492.537	-200.000	0.001	-0.219
-491.522	-200.000	-0.044	-0.300
-490.508	232.231	-0.086	0.141
-489.493	-124.980	0.110	0.017
-488.478	-132.252	0.439	0.057
-487.464	13.380	-0.029	0.023
-486.449	7.381	0.031	-0.023
-485.435	-107.073	0.089	0.020
-484.420	-137.644	-0.230	0.026
-483.405	-37.790	0.250	0.133
-482.391	-137.725	-0.444	-0.050
-481.376	313.573	0.036	-0.067
-480.362	-88.755	-0.174	0.052
-479.347	388.170	-0.119	0.248
-478.332	800.000	0.089	-0.293
-477.318	800.000	0.151	0.419
-476.303	96.618	0.079	0.091
-475.289	-200.000	-0.032	0.152
-474.274	500.425	0.114	-0.263
-473.259	-55.074	-0.260	-0.117
-472.245	-200.000	-0.007	0.102
-471.230	103.766	0.316	0.372
-470.216	-200.000	0.013	0.171
-469.201	-55.832	-0.245	-0.110
-468.186	-200.000	-0.007	-0.410
-467.172	-200.000	0.126	-0.673
-466.157	-200.000	-0.012	0.194
-465.143	800.000	-0.029	0.101
-464.128	196.156	0.163	0.248
-463.113	800.000	-0.090	-0.269
-462.099	-190.720	0.265	-0.003
-461.084	800.000	0.101	-0.365
-460.070	-126.215	0.492	-0.074
-459.055	141.175	0.036	0.048
-458.040	-18.880	-0.251	-0.156
-457.026	-200.000	0.016	-0.230
-456.011	-121.400	-0.160	0.027
-454.997	8.603	0.330	-0.249
-453.982	-33.965	-0.289	-0.159
-452.968	-200.000	0.000	0.157
-451.953	293.744	-0.258	-0.471
-450.938	800.000	0.077	0.218
-449.924	-130.115	0.236	-0.032
-448.909	-200.000	0.010	0.091
-447.895	-200.000	0.002	0.252
-446.880	253.998	0.088	-0.150
-445.865	-195.511	-0.221	0.002
-444.851	755.058	0.072	-0.196
-443.836	-96.276	-0.204	0.054
-442.822	-10.505	-0.101	-0.067
-441.807	-73.839	0.133	0.048
-440.792	-200.000	-0.052	0.481
-439.778	-167.812	-0.365	0.014
-438.763	4.507	0.147	0.108
-437.749	59.900	-0.106	0.104
-436.734	-116.572	0.176	-0.032
-435.719	-67.096	0.344	0.136
-434.705	-52.265	0.211	-0.098
-433.690	130.108	0.131	-0.167
-432.676	-200.000	-0.004	-0.030
-431.661	-200.000	0.003	0.085
-430.646	531.137	-0.205	0.485
-429.632	-117.363	0.050	0.009
-428.617	800.000	-0.128	-0.359
-427.603	-12.710	0.065	-0.043
-426.588	-140.459	-0.208	0.022
-425.573	108.951	0.219	0.262
-424.559	136.723	-0.225	-0.294
-423.544	467.601	0.073	-0.163
-422.530	303.634	-0.072	-0.133
-421.515	14.892	-0.300	-0.235
-420.500	-88.066	0.027	0.008
-419.486	49.889	0.146	0.137
-418.471	-200.000	0.057	-0.324
-417.457	-29.527	-0.196	0.112
-416.442	-20.338	0.273	0.168
-415.428	193.487	-0.230	-0.348
-414.413	625.399	0.078	-0.196
-413.398	-56.906	-0.207	-0.091
-412.384	67.938	-0.227	0.232
-411.369	-2.474	0.019	0.014
-410.355	-200.000	0.029	-0.136
-409.340	-69.753	0.053	-0.020
-408.325	33.478	0.182	0.158
-407.311	800.000	-0.040	0.173
-406.296	71.773	-0.199	0.207
-405.282	-22.280	-0.144	0.087
-404.267	33.595	0.083	0.072
-403.252	-90.985	0.225	-0.065
-402.238	667.060	-0.070	0.181
-401.223	-73.826	0.183	-0.066
-400.209	-99.407	0.236	-0.059
-399.194	-6.432	-0.173	-0.118
-398.179	130.083	-0.094	-0.120
-397.165	800.000	-0.010	-0.044
-396.150	-116.047	-0.231	-0.043
-395.136	-167.213	-0.062	0.003
-394.121	183.441	-0.078	0.115
-393.106	-96.487	0.224	-0.059
-392.092	-49.695	-0.254	-0.120
-391.077	145.579	-0.055	-0.073
-390.063	-82.404	0.033	0.011
-389.048	-84.058	-0.145	-0.046
-388.033	554.336	0.047	0.113
-387.019	-93.330	0.148	0.041
-386.004	42.490	-0.283	0.257
-384.990	800.000	0.070	0.273
-383.975	-200.000	-0.021	0.243
-382.960	-59.285	0.269	-0.116
-381.946	-200.000	0.030	-0.146
-380.931	-53.006	-0.121	-0.055
-379.917	-200.000	0.011	-0.169
-378.902	-7.704	-0.141	-0.095
-377.888	53.382	0.365	-0.350
-376.873	-46.324	0.284	0.139
-375.858	800.000	0.044	-0.170
-374.844	156.071	0.173	0.239
-373.829	-76.363	-0.125	-0.044
-372.815	177.276	-0.132	0.191
-371.800	-53.701	0.090	0.041
-370.785	-70.976	0.272	-0.102
-369.771	-200.000	0.026	0.193
-368.756	37.691	0.348	-0.308
-367.742	-200.000	0.036	-0.349
-366.727	182.950	-0.051	-0.075
-365.712	494.379	-0.069	-0.157
-364.698	214.156	-0.139	0.219
-363.683	444.033	0.092	0.201
-362.669	-146.163	-0.250	0.022
-361.654	37.685	-0.117	-0.103
-360.639	-33.865	0.019	0.010
-359.625	-115.263	-0.172	0.032
-358.610	-200.000	-0.026	0.372
-357.596	288.554	0.137	0.248
-356.581	404.755	-0.149	-0.313
-355.566	111.668	0.195	-0.235
-354.552	-200.000	-0.065	-0.337
-353.537	72.981	0.211	0.219
-352.523	117.992	0.074	0.091
-351.508	60.571	0.235	0.233
-350.493	-200.000	-0.002	-0.209
-349.479	-200.000	0.034	-0.223
-348.464	233.348	-0.174	0.286
-347.450	137.844	-0.097	-0.127
-346.435	-29.550	0.255	0.145
-345.420	511.537	-0.105	-0.244
-344.406	114.403	-0.238	-0.288
-343.391	-113.265	-0.126	-0.025
-342.377	-92.321	-0.193	-0.054
-341.362	158.509	-0.043	-0.060
-340.348	57.582	-0.038	0.037
-339.333	-184.244	-0.108	0.002
-338.318	661.766	-0.032	0.081
-337.304	-62.833	0.155	0.064
-336.289	258.596	-0.091	0.157
-335.275	-142.136	0.189	0.019
-334.260	-24.310	-0.206	0.122
-333.245	-200.000	0.071	0.336
-332.231	-165.829	-0.208	0.009
-331.216	505.238	-0.109	0.253
-330.202	14.598	-0.241	0.187
-329.187	-200.000	0.014	0.267
-328.172	34.558	0.223	0.194
-327.158	44.590	-0.098	-0.090
-326.143	74.132	-0.119	0.124
-325.129	94.850	-0.269	0.304
-324.114	-200.000	0.008	0.156
-323.099	-67.279	0.074	-0.029
-322.085	-5.769	-0.199	0.135
-321.070	-35.764	-0.054	0.029
-320.056	800.000	-0.150	0.413
-319.041	-74.201	-0.066	-0.024
-318.026	-200.000	-0.028	-0.318
-317.012	218.555	-0.201	0.319
-315.997	-89.573	-0.185	-0.054
-314.983	25.191	-0.112	-0.093
-313.968	800.000	0.110	-0.406
-312.953	206.758	-0.191	-0.296
-311.939	-77.921	0.275	-0.094
-310.924	-200.000	0.009	-0.205
-309.910	-69.289	-0.199	0.076
-308.895	-61.670	0.194	-0.081
-307.880	256.320	0.123	0.210
-306.866	-200.000	-0.043	0.226
-305.851	-200.000	-0.023	-0.139
-304.837	147.607	-0.240	0.322
-303.822	-139.606	0.129	-0.014
-302.807	342.508	-0.065	0.127
-301.793	61.623	0.201	-0.199
-300.778	94.425	-0.110	0.125
-299.764	-57.244	0.290	-0.127
-298.749	-144.279	0.274	-0.025
-297.735	800.000	-0.094	0.324
-296.720	800.000	0.104	0.299
-295.705	-50.672	0.010	0.005
-294.691	-200.000	-0.069	0.524
-293.676	116.923	0.213	-0.260
-292.662	772.367	-0.107	0.289
-291.647	200.322	-0.088	0.134
-290.632	33.295	-0.054	0.047
-289.618	238.935	0.018	-0.030
-288.603	17.140	0.204	0.161
-287.589	-200.000	0.047	0.266
-286.574	33.201	0.032	-0.028
-285.559	416.185	0.113	0.240
-284.545	-147.963	-0.260	-0.022
-283.530	-2.916	-0.227	0.158
-282.516	-31.171	0.108	-0.061
-281.501	-200.000	-0.069	-0.317
-280.486	-200.000	0.003	0.215
-279.472	-200.000	-0.044	0.191
-278.457	-200.000	-0.005	-0.172
-277.443	-200.000	0.001	-0.303
-276.428	-29.009	0.503	0.287
-275.413	589.970	0.143	-0.350
-274.399	-200.000	0.014	-0.156
-273.384	-111.179	0.119	-0.024
-272.370	-200.000	-0.025	0.152
-271.355	-27.872	0.320	-0.184
-270.340	800.000	-0.047	0.157
-269.326	123.479	0.094	0.118
-268.311	-177.765	-0.142	0.003
-267.297	-40.229	-0.200	0.104
-266.282	-37.672	0.061	-0.032
-265.267	146.707	0.179	-0.238
-264.253	334.374	-0.051	-0.098
-263.238	-50.900	-0.308	0.144
-262.224	-13.791	0.229	0.147
-261.209	800.000	-0.082	0.303
-260.195	-200.000	-0.007	0.111
-259.180	800.000	-0.034	0.093
-258.165	29.410	0.064	-0.054
-257.151	170.849	0.160	-0.227
-256.136	-51.854	-0.151	0.070
-255.122	25.280	-0.362	0.299
-254.107	253.948	0.037	-0.062
-253.092	-33.149	-0.220	-0.121
-252.078	-200.000	-0.008	0.358
-251.063	-155.037	0.275	0.018
-250.049	-200.000	-0.025	-0.160
-249.034	-88.462	-0.148	0.044
-248.019	-200.000	-0.005	0.246
-247.005	-45.127	0.191	0.094
-245.990	49.803	0.196	-0.183
-244.976	-16.181	0.055	0.035
-243.961	-189.117	0.413	-0.005
-242.946	465.405	-0.108	0.239
-241.932	-88.696	0.338	0.100
-240.917	-66.036	-0.078	-0.031
-239.903	38.853	0.174	0.154
-238.888	40.503	-0.150	0.135
-237.873	-159.921	-0.117	-0.006
-236.859	72.681	-0.048	-0.049
-235.844	465.892	-0.092	-0.205
-234.830	-159.827	0.046	-0.003
-233.815	-98.617	-0.317	0.080
-232.800	-200.000	-0.054	-0.283
-231.786	97.808	0.144	0.164
-230.771	-11.579	0.435	0.284
-229.757	695.404	0.016	0.042
-228.742	-56.854	0.126	-0.055
-227.727	198.108	0.024	0.036
-226.713	-200.000	-0.018	-0.085
-225.698	-93.670	0.200	-0.055
-224.684	-200.000	0.003	0.075
-223.669	34.078	0.087	0.075
-222.655	-200.000	-0.022	-0.193
-221.640	-200.000	0.007	0.065
-220.625	92.385	0.079	-0.088
-219.611	-2.820	0.086	-0.060
-218.596	-45.532	0.163	0.080
-217.582	-200.000	0.025	-0.116
-216.567	385.642	-0.171	0.349
-215.552	-200.000	-0.034	0.260
-214.538	170.409	0.101	0.144
-213.523	800.000	0.082	-0.338
-212.509	195.420	0.112	-0.168
-211.494	-99.032	-0.086	-0.022
-210.479	-163.399	0.273	-0.013
-209.465	800.000	-0.087	0.301
-208.450	158.940	0.126	-0.174
-207.436	-33.562	-0.248	0.136
-206.421	-200.000	0.101	0.467
-205.406	800.000	0.068	0.199
-204.392	-159.657	0.011	0.001
-203.377	-40.890	0.100	-0.051
-202.363	160.466	0.292	0.404
-201.348	-200.000	-0.008	0.128
-200.333	132.733	0.155	0.198
-199.319	234.302	0.233	-0.381
-198.304	-45.671	-0.253	0.124
-197.290	-87.744	-0.190	-0.057
-196.275	-74.364	0.050	0.018
-195.260	494.090	0.061	0.138
-194.246	-29.026	-0.093	-0.053
-193.231	-78.888	0.338	-0.114
-192.217	228.123	0.136	-0.220
-191.202	221.958	0.109	-0.174
-190.187	-200.000	-0.026	-0.292
-189.173	-83.244	-0.230	0.073
-188.158	235.904	0.062	0.102
-187.144	-169.759	-0.178	0.006
-186.129	-191.872	0.169	-0.002
-185.114	202.770	-0.057	-0.086
-184.100	-12.169	-0.249	0.162
-183.085	-200.000	0.046	0.326
-182.071	36.081	0.237	0.206
-181.056	192.888	-0.085	0.127
-180.042	-64.355	0.244	0.098
-179.027	-200.000	-0.004	0.079
-178.012	-9.224	0.329	-0.218
-176.998	-144.003	-0.346	0.032
-175.983	800.000	-0.114	0.350
-174.969	166.884	0.168	0.235
-173.954	-155.841	0.270	-0.017
-172.939	26.228	0.110	-0.091
-171.925	148.424	0.255	0.341
-170.910	16.016	0.103	-0.080
-169.896	-123.546	-0.375	-0.059
-168.881	-200.000	0.037	-0.278
-167.866	393.318	0.132	-0.273
-166.852	-27.810	0.151	-0.087
-165.837	-13.697	-0.256	0.164
-164.823	73.582	0.207	0.215
-163.808	-200.000	0.018	0.110
-162.793	-160.807	-0.235	0.012
-161.779	-200.000	0.012	0.231
-160.764	366.495	0.064	0.128
-159.750	-171.114	0.111	-0.004
-158.735	-141.944	-0.493	-0.049
-157.720	8.709	0.010	0.008
-156.706	124.855	0.143	0.178
-155.691	-6.125	-0.160	-0.108
-154.677	230.683	-0.148	-0.240
-153.662	-92.105	-0.167	-0.047
-152.647	-74.117	-0.196	0.070
-151.633	-159.519	0.248	-0.014
-150.618	233.863	0.253	0.412
-149.604	-10.217	0.290	-0.190
-148.589	63.209	-0.287	0.285
-147.574	107.338	-0.186	0.218
-146.560	-108.666	-0.186	-0.039
-145.545	69.332	-0.198	0.201
-144.531	-200.000	-0.042	0.443
-143.516	20.129	-0.149	0.119
-142.502	-29.794	-0.208	-0.117
-141.487	-71.158	0.219	-0.081
-140.472	75.791	-0.201	-0.210
-139.458	-200.000	0.030	-0.139
-138.443	-143.184	-0.321	0.031
-137.429	-136.316	0.111	-0.013
-136.414	-84.993	0.127	0.039
-135.399	-65.189	0.123	-0.049
-134.385	214.083	0.090	0.141
-133.370	-106.559	-0.362	-0.080
-132.356	48.478	0.114	-0.105
-131.341	295.639	-0.084	0.153
-130.326	-90.360	-0.349	0.100
-129.312	36.236	0.134	0.116
-128.297	-200.000	-0.007	-0.132
-127.283	-67.258	-0.198	0.077
-126.268	158.998	-0.132	-0.181
-125.253	140.497	-0.119	-0.155
-124.239	-200.000	0.002	0.023
-123.224	36.339	0.128	0.112
-122.210	-79.370	-0.231	-0.077
