DTS Sentinel unit serial number:	SN413079Multiplexer serial number:	ORYXHardware model number:	OX4-SRSoftware version number:	ORYX F/W v4.00 Oryx Data Collector v3.7.2.0data status	okinstallation	princeton_trtdifferential loss correction	single-endedforward channel	channel 3reverse channel	N/Adate	2019/09/11time	08:02:11forward acquisition time	60.00reverse acquisition time	0.00gamma	496.2192k internal	0.2319k external	0.2319temperature offset calibration	1.1219default loss term (dB/km)	0.3790temperature slope calibration	1.0000multiplexer offset coefficient	1.0000multiplexer slope coefficient	1.0000fibre end	0.00T internal ref (°C)	32.12T ext. ref 1 (°C)	19.58T ext. ref 2 (°C)	27.69length (m)	temperature (°C)	Stokes	anti-Stokes-747.200	-200.000	-0.050	0.233
-746.185	274.517	-0.151	0.270
-745.171	-200.000	0.024	0.200
-744.156	-200.000	0.081	0.408
-743.142	800.000	0.064	0.204
-742.127	-34.592	-0.340	0.188
-741.112	-85.316	0.427	-0.135
-740.098	158.975	0.138	-0.194
-739.083	283.473	-0.223	-0.406
-738.069	116.640	0.041	0.051
-737.054	-200.000	-0.033	0.170
-736.039	-124.132	0.173	0.027
-735.025	207.400	0.306	0.483
-734.010	-78.632	-0.321	0.111
-732.996	800.000	0.084	-0.327
-731.981	283.045	-0.142	-0.257
-730.966	-146.268	-0.308	-0.027
-729.952	800.000	0.054	-0.168
-728.937	104.745	-0.288	-0.343
-727.923	-200.000	0.001	0.026
-726.908	591.956	-0.069	0.172
-725.894	800.000	-0.102	-0.335
-724.879	-200.000	-0.004	-0.106
-723.864	215.097	-0.053	0.086
-722.850	-200.000	0.012	0.241
-721.835	800.000	0.137	0.395
-720.821	322.602	0.113	-0.218
-719.806	445.307	-0.077	-0.171
-718.791	-59.410	0.083	0.036
-717.777	215.360	-0.250	0.401
-716.762	800.000	-0.029	-0.116
-715.748	187.306	0.209	0.315
-714.733	-61.569	-0.124	0.053
-713.718	-50.951	-0.227	-0.108
-712.704	-200.000	-0.040	-0.256
-711.689	800.000	-0.031	0.094
-710.675	44.286	-0.045	-0.042
-709.660	-160.876	-0.178	-0.009
-708.645	74.878	0.170	-0.181
-707.631	-28.503	-0.375	-0.218
-706.616	-102.213	0.242	0.059
-705.602	800.000	-0.125	0.373
-704.587	225.417	-0.197	-0.323
-703.572	300.805	0.089	-0.167
-702.558	-184.082	0.042	-0.001
-701.543	16.980	0.053	-0.043
-700.529	228.379	0.162	-0.266
-699.514	495.551	-0.123	0.284
-698.499	122.097	-0.122	-0.154
-697.485	253.459	-0.067	-0.115
-696.470	-158.049	0.072	-0.004
-695.456	187.844	0.013	0.019
-694.441	800.000	-0.112	-0.317
-693.426	-14.658	0.387	0.251
-692.412	-101.160	0.232	-0.057
-691.397	800.000	0.045	-0.140
-690.383	134.615	-0.064	0.084
-689.368	407.315	-0.070	0.150
-688.354	626.864	0.183	0.466
-687.339	-182.501	-0.145	0.003
-686.324	-108.208	-0.261	0.057
-685.310	-200.000	-0.005	-0.140
-684.295	-54.136	-0.237	0.109
-683.281	159.955	0.074	0.104
-682.266	-66.715	0.062	-0.025
-681.251	357.055	-0.202	-0.406
-680.237	429.420	-0.036	-0.078
-679.222	800.000	0.109	-0.304
-678.208	73.401	0.196	-0.207
-677.193	-200.000	-0.000	0.157
-676.178	-65.684	0.126	-0.051
-675.164	-11.434	-0.400	0.266
-674.149	549.098	0.037	-0.089
-673.135	-200.000	0.303	0.001
-672.120	-200.000	0.009	0.064
-671.105	-111.634	-0.033	0.007
-670.091	52.670	-0.246	-0.237
-669.076	725.963	-0.072	0.194
-668.062	-93.462	0.305	0.085
-667.047	-118.308	-0.119	0.021
-666.032	168.727	0.147	-0.211
-665.018	-200.000	0.023	0.175
-664.003	32.311	-0.102	-0.089
-662.989	800.000	-0.019	0.059
-661.974	57.361	0.172	-0.169
-660.959	-200.000	0.008	-0.271
-659.945	431.079	-0.077	0.168
-658.930	-200.000	0.002	-0.093
-657.916	-200.000	-0.001	-0.008
-656.901	-153.018	-0.314	-0.022
-655.886	-172.181	0.443	-0.014
-654.872	-200.000	-0.059	0.317
-653.857	59.769	0.145	-0.145
-652.843	-81.948	0.080	-0.026
-651.828	-200.000	-0.011	-0.162
-650.814	-147.431	0.193	-0.016
-649.799	242.068	0.165	0.277
-648.784	-157.529	-0.266	0.016
-647.770	566.710	-0.086	-0.209
-646.755	800.000	0.070	-0.214
-645.741	284.140	-0.074	0.133
-644.726	-200.000	-0.011	-0.161
-643.711	-45.163	0.165	-0.082
-642.697	304.148	-0.138	-0.258
-641.682	502.608	0.029	-0.067
-640.668	35.971	-0.047	0.042
-639.653	-102.553	0.405	0.098
-638.638	-24.629	-0.146	-0.088
-637.624	764.058	-0.068	0.187
-636.609	-64.425	0.290	-0.119
-635.595	-200.000	0.004	-0.334
-634.580	-200.000	-0.029	-0.211
-633.565	-117.805	-0.302	-0.055
-632.551	295.232	-0.053	0.098
-631.536	128.397	-0.187	-0.240
-630.522	-200.000	0.041	0.315
-629.507	-58.182	0.504	0.221
-628.492	-52.109	-0.318	0.149
-627.478	210.439	0.076	-0.120
-626.463	339.401	0.110	-0.216
-625.449	135.212	-0.086	-0.113
-624.434	666.424	0.035	-0.092
-623.419	-200.000	-0.021	0.278
-622.405	-137.980	0.123	-0.014
-621.390	-200.000	0.004	-0.119
-620.376	92.725	-0.137	-0.156
-619.361	800.000	0.019	0.079
-618.346	104.064	0.120	-0.142
-617.332	-32.220	-0.099	0.056
-616.317	-75.511	-0.338	0.121
-615.303	-200.000	0.016	-0.214
-614.288	165.075	-0.150	0.213
-613.273	-114.069	0.304	0.059
-612.259	21.599	-0.100	-0.082
-611.244	165.115	-0.159	-0.225
-610.230	-200.000	0.018	0.080
-609.215	-58.085	-0.225	0.099
-608.201	-200.000	-0.007	-0.239
-607.186	-118.543	0.163	0.029
-606.171	-20.980	0.323	0.199
-605.157	-109.818	0.188	-0.040
-604.142	117.699	0.071	0.088
-603.128	-43.675	0.249	-0.126
-602.113	-200.000	-0.003	-0.281
-601.098	176.017	0.067	-0.098
-600.084	-117.004	0.353	0.065
-599.069	118.240	-0.037	0.045
-598.055	-16.718	-0.143	-0.091
-597.040	47.468	0.172	0.162
-596.025	124.479	0.287	-0.364
-595.011	-88.820	0.136	-0.041
-593.996	800.000	-0.117	-0.330
-592.982	-200.000	-0.036	-0.444
-591.967	-200.000	-0.024	0.248
-590.952	-169.184	0.390	-0.015
-589.938	-112.137	-0.280	-0.057
-588.923	-200.000	-0.026	0.368
-587.909	268.036	-0.056	-0.099
-586.894	800.000	-0.141	0.397
-585.879	-200.000	-0.067	0.317
-584.865	187.714	0.222	0.333
-583.850	334.246	0.117	0.227
-582.836	-134.720	-0.379	0.046
-581.821	-162.839	-0.124	0.006
-580.806	13.130	-0.127	-0.099
-579.792	131.152	0.240	-0.310
-578.777	-200.000	0.045	0.263
-577.763	6.055	-0.177	0.132
-576.748	-200.000	0.049	-0.360
-575.733	355.470	0.192	0.384
-574.719	790.565	0.099	0.274
-573.704	-112.153	0.200	-0.040
-572.690	-0.795	0.237	-0.169
-571.675	-200.000	-0.006	0.138
-570.661	773.821	0.133	-0.363
-569.646	54.421	-0.050	0.049
-568.631	-10.450	0.071	-0.047
-567.617	800.000	0.073	0.208
-566.602	84.099	0.103	0.113
-565.588	59.676	0.129	0.128
-564.573	-200.000	-0.030	-0.198
-563.558	288.672	0.106	-0.193
-562.544	108.872	0.084	-0.101
-561.529	139.095	-0.050	0.066
-560.515	-149.951	0.141	0.011
-559.500	142.434	0.155	0.207
-558.485	800.000	0.038	-0.147
-557.471	-200.000	-0.047	0.231
-556.456	800.000	-0.083	-0.235
-555.442	-78.567	0.274	-0.094
-554.427	81.642	0.234	-0.254
-553.412	61.130	-0.054	-0.054
-552.398	-95.600	-0.087	-0.023
-551.383	-45.440	-0.225	-0.112
-550.369	-4.906	0.180	0.124
-549.354	800.000	0.098	0.416
-548.339	364.642	-0.078	-0.158
-547.325	-200.000	0.017	-0.124
-546.310	73.635	-0.090	0.094
-545.296	-2.965	-0.235	0.165
-544.281	-101.815	-0.109	-0.027
-543.266	800.000	-0.017	-0.071
-542.252	-46.360	0.230	0.113
-541.237	178.760	0.063	0.093
-540.223	-164.060	-0.184	-0.009
-539.208	-62.381	-0.147	0.061
-538.193	-110.205	-0.152	0.032
-537.179	-200.000	0.019	-0.173
-536.164	-38.680	-0.096	0.051
-535.150	800.000	-0.068	-0.225
-534.135	-200.000	0.007	0.146
-533.121	359.891	-0.062	0.124
-532.106	800.000	-0.058	0.182
-531.091	-22.960	-0.165	-0.100
-530.077	-117.383	-0.124	0.022
-529.062	-169.467	0.210	-0.008
-528.048	183.521	-0.195	0.289
-527.033	800.000	0.039	0.123
-526.018	23.006	0.346	-0.284
-525.004	52.217	0.159	-0.152
-523.989	108.901	0.115	-0.138
-522.975	-200.000	0.015	-0.346
-521.960	2.001	0.079	-0.057
-520.945	-79.135	0.069	-0.023
-519.931	-11.841	-0.081	0.053
-518.916	-23.282	-0.207	-0.125
-517.902	138.033	0.098	0.128
-516.887	283.208	-0.163	-0.294
-515.872	10.744	-0.197	-0.150
-514.858	800.000	-0.016	0.060
-513.843	-58.082	-0.352	0.154
-512.829	37.304	-0.202	-0.179
-511.814	-200.000	0.051	0.379
-510.799	516.610	0.071	0.167
-509.785	-200.000	-0.025	-0.380
-508.770	75.624	0.176	0.186
-507.756	16.890	-0.230	-0.183
-506.741	-200.000	-0.020	-0.472
-505.726	397.259	0.083	-0.174
-504.712	388.313	-0.036	0.075
-503.697	-200.000	-0.018	0.244
-502.683	34.226	0.029	0.026
-501.668	-105.058	-0.158	0.036
-500.653	-100.367	0.122	-0.030
-499.639	-200.000	-0.044	-0.280
-498.624	-53.653	0.288	-0.132
-497.610	-41.035	0.274	-0.142
-496.595	705.690	0.054	0.144
-495.581	9.129	0.103	-0.078
-494.566	10.251	-0.251	-0.191
-493.551	670.079	0.069	-0.180
-492.537	291.202	-0.034	0.062
-491.522	172.359	0.029	0.042
-490.508	-127.847	-0.236	-0.034
-489.493	245.270	0.159	0.267
-488.478	22.238	0.163	-0.133
-487.464	99.137	0.063	-0.073
-486.449	-126.568	-0.235	-0.035
-485.435	-164.965	-0.149	-0.007
-484.420	-200.000	0.009	-0.111
-483.405	-200.000	0.094	0.442
-482.391	30.737	0.262	-0.224
-481.376	2.148	0.323	0.234
-480.362	-43.163	0.167	-0.085
-479.347	43.411	-0.218	0.199
-478.332	-34.010	-0.117	0.065
-477.318	111.428	0.080	-0.096
-476.303	-50.474	0.215	-0.101
-475.289	143.058	-0.160	-0.213
-474.274	-81.885	-0.255	0.083
-473.259	-95.473	-0.253	0.068
-472.245	-98.323	-0.130	0.033
-471.230	328.341	0.123	-0.237
-470.216	167.126	0.131	0.187
-469.201	-168.003	-0.232	0.009
-468.186	-48.141	0.136	0.066
-467.172	-53.434	0.286	-0.131
-466.157	206.659	-0.133	0.208
-465.143	24.704	-0.254	0.210
-464.128	-200.000	0.007	0.316
-463.113	501.910	0.057	-0.131
-462.099	193.992	-0.166	0.252
-461.084	-125.320	-0.593	-0.091
-460.070	-93.484	-0.176	-0.049
-459.055	246.028	-0.065	0.109
-458.040	431.933	0.096	-0.209
-457.026	216.587	0.072	0.115
-456.011	800.000	0.081	0.349
-454.997	138.000	-0.213	-0.279
-453.982	800.000	-0.053	0.184
-452.968	800.000	-0.048	-0.137
-451.953	-114.466	-0.250	-0.048
-450.938	-200.000	-0.008	0.128
-449.924	-200.000	-0.001	0.124
-448.909	-200.000	0.001	-0.112
-447.895	42.169	-0.166	-0.151
-446.880	30.827	0.266	0.228
-445.865	800.000	0.066	-0.253
-444.851	343.297	-0.109	-0.213
-443.836	-128.961	0.052	-0.007
-442.822	-101.638	-0.052	0.013
-441.807	-200.000	-0.003	-0.095
-440.792	-155.773	-0.297	-0.019
-439.778	800.000	0.113	-0.443
-438.763	234.852	-0.135	0.223
-437.749	599.667	0.132	0.328
-436.734	48.038	0.231	0.216
-435.719	-44.220	-0.116	-0.058
-434.705	627.472	-0.053	-0.135
-433.690	-16.121	0.231	-0.147
-432.676	11.063	-0.189	0.144
-431.661	10.732	-0.236	0.180
-430.646	142.206	-0.205	-0.271
-429.632	-48.762	0.356	-0.171
-428.617	-122.426	0.342	0.056
-427.603	166.273	-0.113	-0.160
-426.588	147.385	0.094	0.126
-425.573	39.104	0.191	0.170
-424.559	144.896	-0.190	0.253
-423.544	800.000	-0.048	-0.136
-422.530	-200.000	-0.026	-0.234
-421.515	-122.842	-0.400	-0.064
-420.500	-12.567	-0.280	0.183
-419.486	-143.147	-0.074	-0.007
-418.471	-61.311	-0.214	-0.090
-417.457	17.342	0.245	0.194
-416.442	-90.492	-0.405	0.117
-415.428	-200.000	-0.020	0.097
-414.413	-200.000	0.003	-0.348
-413.398	263.111	0.221	0.383
-412.384	-109.074	-0.260	0.055
-411.369	238.886	-0.075	-0.125
-410.355	80.475	0.181	-0.195
-409.340	28.515	0.313	0.264
-408.325	27.838	0.101	0.085
-407.311	-152.962	-0.202	-0.014
-406.296	-131.440	-0.227	0.030
-405.282	144.285	-0.315	-0.419
-404.267	-151.598	0.264	0.019
-403.252	398.584	0.108	-0.226
-402.238	40.294	0.214	-0.192
-401.223	800.000	0.047	-0.180
-400.209	-91.469	0.124	0.035
-399.194	-1.612	-0.174	0.122
-398.179	-181.089	-0.165	0.003
-397.165	-158.646	0.370	-0.021
-396.150	-122.696	-0.219	-0.035
-395.136	-135.045	0.143	0.017
-394.121	-93.394	0.156	-0.043
-393.106	-4.760	0.301	0.207
-392.092	-86.888	-0.467	-0.142
-391.077	242.474	0.075	0.124
-390.063	-84.751	-0.098	-0.031
-389.048	-200.000	-0.015	-0.339
-388.033	21.156	-0.054	-0.044
-387.019	-200.000	-0.033	-0.246
-386.004	380.741	-0.063	-0.129
-384.990	-89.302	0.354	0.104
-383.975	-65.128	0.161	-0.065
-382.960	-200.000	-0.015	0.291
-381.946	-200.000	-0.032	-0.372
-380.931	-91.727	-0.169	0.048
-379.917	800.000	0.041	-0.125
-378.902	-89.556	0.182	0.053
-377.888	-41.425	-0.097	0.050
-376.873	24.491	0.150	0.124
-375.858	800.000	0.018	0.063
-374.844	-113.048	-0.189	0.037
-373.829	151.149	-0.041	-0.055
-372.815	308.252	0.093	0.174
-371.800	92.601	-0.132	0.149
-370.785	346.548	0.094	0.185
-369.771	-29.313	0.295	-0.168
-368.756	-200.000	0.028	-0.155
-367.742	306.284	-0.117	-0.217
-366.727	800.000	-0.113	0.443
-365.712	-32.541	0.182	0.101
-364.698	-28.734	-0.148	-0.085
-363.683	-200.000	-0.004	-0.045
-362.669	-13.446	-0.235	0.152
-361.654	497.412	-0.142	0.327
-360.639	-200.000	-0.011	0.120
-359.625	800.000	-0.082	0.292
-358.610	495.596	0.021	0.047
-357.596	-30.749	-0.235	0.132
-356.581	-200.000	0.064	-0.303
-355.566	-133.809	0.250	-0.031
-354.552	-77.931	-0.404	-0.139
-353.537	-63.137	0.188	0.077
-352.523	-83.889	0.125	0.040
-351.508	-94.906	-0.075	0.020
-350.493	-20.318	-0.177	0.109
-349.479	74.120	-0.100	-0.105
-348.464	-90.650	-0.381	-0.110
-347.450	47.484	-0.157	0.146
-346.435	18.644	-0.070	0.056
-345.420	-200.000	-0.009	-0.055
-344.406	800.000	0.051	0.221
-343.391	-92.176	0.276	0.078
-342.377	-200.000	0.072	0.345
-341.362	800.000	0.011	0.040
-340.348	800.000	0.106	0.294
-339.333	70.113	-0.306	0.314
-338.318	-200.000	0.022	-0.099
-337.304	-103.051	-0.106	0.025
-336.289	-55.023	0.233	0.104
-335.275	147.532	-0.148	0.199
-334.260	800.000	-0.123	-0.371
-333.245	-200.000	-0.005	-0.123
-332.231	800.000	0.124	-0.383
-331.216	-126.564	-0.216	0.032
-330.202	185.494	-0.126	-0.186
-329.187	800.000	-0.033	-0.139
-328.172	-25.961	-0.196	-0.115
-327.158	-45.054	0.187	-0.092
-326.143	80.638	-0.152	-0.163
-325.129	800.000	0.032	-0.125
-324.114	2.196	-0.200	0.144
-323.099	-172.604	-0.101	0.003
-322.085	800.000	-0.052	0.201
-321.070	25.095	0.172	0.142
-320.056	306.409	-0.061	-0.113
-319.041	154.857	-0.056	0.076
-318.026	800.000	0.058	0.246
-317.012	-70.763	-0.112	0.042
-315.997	399.759	-0.075	0.157
-314.983	82.588	0.125	0.135
-313.968	325.928	-0.032	0.062
-312.953	-200.000	0.032	-0.191
-311.939	64.401	-0.081	0.082
-310.924	-200.000	-0.035	0.153
-309.910	148.749	0.158	-0.212
-308.895	50.062	0.356	0.334
-307.880	24.585	-0.291	-0.240
-306.866	-46.224	0.257	0.126
-305.851	-200.000	0.103	0.459
-304.837	16.589	-0.204	0.160
-303.822	497.504	0.098	-0.224
-302.807	800.000	0.008	-0.033
-301.793	-4.233	0.110	-0.076
-300.778	287.718	0.046	0.083
-299.764	-101.304	-0.034	0.008
-298.749	-40.748	0.163	-0.084
-297.735	-200.000	-0.024	0.269
-296.720	584.886	0.014	0.035
-295.705	57.087	0.062	0.060
-294.691	800.000	-0.061	0.186
-293.676	36.726	0.038	0.033
-292.662	-171.754	0.122	-0.004
-291.647	302.632	0.056	0.103
-290.632	-200.000	0.008	-0.070
-289.618	7.051	-0.209	-0.155
-288.603	191.887	-0.124	0.186
-287.589	-200.000	-0.026	0.184
-286.574	68.816	-0.194	0.198
-285.559	-109.561	0.168	0.035
-284.545	-32.373	0.058	0.032
-283.530	800.000	-0.101	-0.302
-282.516	800.000	0.047	0.131
-281.501	74.876	-0.077	-0.081
-280.486	-117.639	-0.313	0.056
-279.472	-72.835	-0.077	0.028
-278.457	800.000	0.085	-0.257
-277.443	-49.592	0.141	0.067
-276.428	711.611	-0.154	-0.406
-275.413	-200.000	0.004	0.229
-274.399	229.045	0.046	0.075
-273.384	-42.300	-0.243	0.123
-272.370	-79.521	0.495	0.166
-271.355	-173.306	0.241	-0.007
-270.340	137.631	0.104	-0.135
-269.326	390.182	0.010	-0.021
-268.311	-93.328	0.350	0.096
-267.297	89.720	0.301	0.334
-266.282	-60.854	-0.170	-0.071
-265.267	-87.891	0.068	0.020
-264.253	-153.745	-0.186	0.013
-263.238	-200.000	0.020	0.213
-262.224	-116.914	0.178	0.032
-261.209	800.000	0.042	0.149
-260.195	-97.571	-0.142	-0.036
-259.180	592.812	-0.057	0.140
-258.165	110.880	-0.130	0.155
-257.151	-126.313	-0.187	0.028
-256.136	-200.000	0.041	0.193
-255.122	-90.888	0.227	0.065
-254.107	-127.853	0.262	-0.037
-253.092	-55.155	0.376	0.168
-252.078	9.008	-0.248	-0.186
-251.063	603.890	-0.113	-0.278
-250.049	-200.000	-0.012	0.130
-249.034	607.080	-0.085	0.210
-248.019	-200.000	0.044	-0.200
-247.005	-150.997	-0.312	-0.023
-245.990	-79.403	-0.144	0.048
-244.976	130.921	0.117	0.148
-243.961	-103.099	-0.333	-0.078
-242.946	-25.077	-0.115	-0.067
-241.932	-200.000	-0.011	0.078
-240.917	-148.418	0.376	-0.031
-239.903	-149.505	-0.104	0.008
-238.888	165.083	-0.081	0.114
-237.873	-200.000	-0.018	-0.334
-236.859	332.099	-0.033	0.063
-235.844	-162.552	-0.277	0.014
-234.830	-9.705	-0.317	-0.210
-233.815	-112.499	0.238	0.047
-232.800	12.796	0.303	0.232
-231.786	-32.625	-0.231	0.127
-230.771	-164.509	-0.089	0.004
-229.757	258.823	0.160	-0.274
-228.742	-91.769	0.272	-0.077
-227.727	-15.970	-0.087	-0.055
-226.713	-166.924	-0.143	0.006
-225.698	-182.484	0.116	0.002
-224.684	-200.000	0.006	0.179
-223.669	171.109	0.144	0.205
-222.655	71.966	0.086	-0.089
-221.640	800.000	-0.029	-0.092
-220.625	-200.000	0.058	-0.330
-219.611	-151.386	0.206	0.015
-218.596	248.208	-0.029	-0.049
-217.582	688.388	0.059	0.154
-216.567	-200.000	-0.030	-0.270
-215.552	-76.284	-0.146	0.051
-214.538	800.000	0.036	-0.133
-213.523	-128.815	0.190	-0.027
-212.509	691.291	0.072	0.188
-211.494	-23.451	0.145	-0.086
-210.479	-96.523	-0.101	0.026
-209.465	9.100	0.389	0.291
-208.450	-200.000	0.010	-0.210
-207.436	-88.243	-0.391	0.116
-206.421	16.430	-0.112	-0.087
-205.406	-200.000	-0.041	0.207
-204.392	147.612	-0.222	0.296
-203.377	-136.567	0.249	0.029
-202.363	-88.839	-0.045	-0.013
-201.348	-99.311	0.183	-0.046
-200.333	273.581	-0.096	-0.168
-199.319	-40.268	0.096	0.049
-198.304	6.657	-0.105	-0.077
-197.290	-21.722	-0.252	-0.152
-196.275	800.000	-0.076	0.271
-195.260	800.000	0.051	0.176
-194.246	-84.252	0.223	0.070
-193.231	-39.076	0.229	0.119
-192.217	-56.904	0.118	0.052
-191.202	-45.583	0.255	-0.125
-190.187	8.110	-0.186	-0.138
-189.173	-200.000	0.015	0.139
-188.158	26.214	-0.111	-0.092
-187.144	-200.000	0.006	-0.220
-186.129	110.888	-0.130	0.155
-185.114	365.054	0.099	-0.198
-184.100	800.000	-0.105	-0.352
-183.085	-123.268	-0.370	-0.058
-182.071	61.707	0.119	-0.117
-181.056	17.116	-0.144	-0.113
-180.042	-200.000	0.014	-0.092
-179.027	-13.317	0.122	-0.078
-178.012	57.626	-0.154	-0.149
-176.998	43.252	-0.155	0.140
-175.983	-21.032	-0.087	0.052
-174.969	270.547	-0.128	0.224
-173.954	0.796	-0.244	0.173
-172.939	-72.552	0.341	-0.124
-171.925	296.014	-0.102	-0.185
-170.910	-76.028	-0.469	-0.164
-169.896	-200.000	-0.065	-0.288
-168.881	800.000	-0.072	-0.280
-167.866	47.863	0.270	-0.249
-166.852	463.435	0.030	-0.066
-165.837	-127.222	0.249	-0.036
-164.823	800.000	-0.015	0.043
-163.808	-200.000	0.056	-0.255
-162.793	231.368	0.112	-0.181
-161.779	-9.518	0.333	-0.220
-160.764	-63.383	0.186	-0.076
-159.750	89.822	0.177	0.196
-158.735	-24.842	0.128	0.075
-157.720	-146.501	0.109	-0.009
-156.706	106.979	0.214	-0.251
-155.691	89.693	-0.127	0.140
-154.677	-200.000	0.083	0.377
-153.662	568.269	0.053	0.127
-152.647	-146.834	-0.063	0.005
-151.633	-16.472	0.235	0.147
-150.618	564.254	0.039	0.092
-149.604	220.159	-0.128	0.203
-148.589	656.510	-0.040	0.101
-147.574	317.194	-0.153	-0.286
-146.560	210.595	-0.064	-0.100
-145.545	483.836	0.125	0.282
-144.531	-74.245	-0.065	-0.023
-143.516	-200.000	-0.035	0.280
-142.502	-200.000	-0.067	0.472
-141.487	-200.000	0.009	0.137
-140.472	-200.000	-0.008	0.195
-139.458	-101.974	0.015	0.004
-138.443	-33.029	-0.137	-0.075
-137.429	222.258	0.073	-0.116
-136.414	636.377	-0.084	0.211
-135.399	-60.813	-0.050	-0.021
-134.385	508.981	0.221	-0.508
-133.370	-91.491	-0.105	0.030
-132.356	-111.559	0.214	-0.043
-131.341	24.949	-0.154	0.126
-130.326	-108.135	0.174	0.037
-129.312	98.572	0.125	0.143
-128.297	225.285	-0.037	0.059
-127.283	-98.329	0.440	0.111
-126.268	21.841	0.141	-0.113
-125.253	92.827	0.129	0.144
-124.239	-200.000	-0.007	-0.036
-123.224	143.431	0.205	0.269
-122.210	-114.616	-0.095	0.018
