DTS Sentinel unit serial number:	SN413079Multiplexer serial number:	ORYXHardware model number:	OX4-SRSoftware version number:	ORYX F/W v4.00 Oryx Data Collector v3.7.2.0data status	okinstallation	princeton_trtdifferential loss correction	single-endedforward channel	channel 3reverse channel	N/Adate	2019/09/18time	03:52:35forward acquisition time	60.00reverse acquisition time	0.00gamma	496.2192k internal	0.2343k external	0.2343temperature offset calibration	0.9943default loss term (dB/km)	0.3790temperature slope calibration	1.0000multiplexer offset coefficient	1.0000multiplexer slope coefficient	1.0000fibre end	0.00T internal ref (°C)	23.06T ext. ref 1 (°C)	0.17T ext. ref 2 (°C)	18.05length (m)	temperature (°C)	Stokes	anti-Stokes-747.200	39.730	0.075	-0.067
-746.185	-10.937	-0.167	0.111
-745.171	30.845	0.320	0.275
-744.156	143.188	0.072	0.096
-743.142	215.464	0.086	-0.137
-742.127	800.000	-0.100	0.315
-741.112	-131.034	0.167	-0.022
-740.098	-75.193	-0.140	0.050
-739.083	800.000	-0.113	0.317
-738.069	91.080	-0.220	0.247
-737.054	-142.717	-0.182	0.018
-736.039	800.000	-0.092	-0.258
-735.025	800.000	-0.073	-0.284
-734.010	182.885	-0.197	-0.291
-732.996	167.616	-0.240	-0.341
-731.981	800.000	0.132	-0.380
-730.966	800.000	-0.090	0.346
-729.952	-137.334	0.134	0.015
-728.937	-127.650	-0.184	-0.027
-727.923	59.366	0.157	0.155
-726.908	-200.000	-0.000	-0.433
-725.894	-78.706	0.144	-0.049
-724.879	-114.546	-0.154	-0.030
-723.864	-200.000	-0.042	0.190
-722.850	-19.164	-0.139	-0.086
-721.835	-200.000	-0.012	0.277
-720.821	244.276	-0.172	0.289
-719.806	400.584	0.205	0.431
-718.791	-63.730	-0.322	-0.132
-717.777	-200.000	0.010	-0.052
-716.762	-152.808	0.260	-0.018
-715.748	449.623	0.128	-0.282
-714.733	356.735	-0.163	-0.324
-713.718	-200.000	-0.054	-0.327
-712.704	-89.326	-0.498	0.147
-711.689	152.030	0.120	0.164
-710.675	17.211	-0.138	0.109
-709.660	-101.046	0.274	0.067
-708.645	-200.000	0.032	-0.236
-707.631	24.864	0.054	-0.045
-706.616	-200.000	0.006	0.126
-705.602	351.410	-0.084	0.167
-704.587	140.254	0.147	0.193
-703.572	-151.928	0.504	-0.037
-702.558	-200.000	0.042	-0.390
-701.543	-96.861	0.392	-0.103
-700.529	-112.998	-0.185	0.037
-699.514	21.613	0.109	-0.089
-698.499	800.000	-0.086	-0.309
-697.485	-2.948	0.237	0.165
-696.470	106.107	-0.164	0.194
-695.456	82.188	-0.142	-0.154
-694.441	-59.595	-0.004	-0.002
-693.426	63.787	-0.223	-0.224
-692.412	800.000	-0.033	-0.141
-691.397	800.000	-0.083	-0.325
-690.383	9.989	-0.217	-0.164
-689.368	263.983	-0.182	-0.316
-688.354	497.532	0.142	-0.327
-687.339	-200.000	-0.010	-0.203
-686.324	665.799	-0.152	0.392
-685.310	92.295	-0.050	0.056
-684.295	127.731	-0.092	0.116
-683.281	-200.000	-0.038	-0.196
-682.266	-136.956	-0.282	-0.032
-681.251	-200.000	-0.010	-0.436
-680.237	322.142	-0.097	0.184
-679.222	318.510	-0.170	0.321
-678.208	768.432	0.053	-0.143
-677.193	-50.577	0.183	0.086
-676.178	-122.925	0.574	0.092
-675.164	-29.255	-0.283	0.162
-674.149	-40.278	0.059	-0.031
-673.135	6.077	0.071	0.052
-672.120	-43.822	-0.468	-0.235
-671.105	142.259	0.117	-0.155
-670.091	-1.264	-0.102	-0.072
-669.076	354.204	0.082	-0.162
-668.062	-200.000	0.006	0.177
-667.047	39.304	-0.355	-0.317
-666.032	410.576	-0.157	-0.333
-665.018	59.761	-0.140	-0.138
-664.003	-117.181	0.087	0.016
-662.989	-15.421	0.028	-0.018
-661.974	-166.854	-0.407	0.017
-660.959	-200.000	-0.006	-0.284
-659.945	12.745	-0.395	-0.304
-658.930	-38.799	-0.287	-0.151
-657.916	-200.000	-0.044	-0.226
-656.901	-81.554	-0.299	0.098
-655.886	88.677	-0.088	-0.098
-654.872	477.513	0.080	-0.180
-653.857	800.000	-0.053	0.167
-652.843	166.945	0.066	0.093
-651.828	-110.638	-0.244	-0.050
-650.814	-107.449	-0.155	-0.034
-649.799	120.444	-0.091	0.113
-648.784	-200.000	-0.001	0.099
-647.770	-154.565	0.175	0.012
-646.755	-135.291	0.281	-0.034
-645.741	73.642	-0.066	0.069
-644.726	-200.000	-0.025	-0.195
-643.711	-81.192	0.077	0.025
-642.697	-200.000	0.036	-0.295
-641.682	-200.000	-0.038	0.250
-640.668	-41.929	0.303	-0.155
-639.653	-200.000	-0.034	0.327
-638.638	34.348	-0.203	-0.177
-637.624	12.321	0.123	-0.094
-636.609	800.000	-0.055	0.211
-635.595	-139.488	-0.133	0.014
-634.580	-160.714	0.304	-0.016
-633.565	-92.600	0.158	-0.044
-632.551	-200.000	-0.003	0.016
-631.536	-8.420	0.144	-0.097
-630.522	-170.778	-0.174	-0.006
-629.507	219.258	-0.179	0.286
-628.492	165.954	-0.153	-0.216
-627.478	186.695	-0.207	0.307
-626.463	800.000	0.043	-0.140
-625.449	-200.000	-0.003	-0.152
-624.434	742.150	0.010	0.028
-623.419	-22.944	-0.319	-0.192
-622.405	24.932	-0.211	-0.174
-621.390	75.013	-0.057	0.060
-620.376	-200.000	0.004	-0.129
-619.361	264.143	-0.160	0.277
-618.346	-92.259	0.308	-0.087
-617.332	-200.000	0.003	0.055
-616.317	293.893	0.074	-0.135
-615.303	-70.789	-0.095	-0.036
-614.288	-14.150	0.150	0.097
-613.273	440.262	-0.026	0.058
-612.259	-33.533	0.150	-0.083
-611.244	800.000	-0.038	-0.155
-610.230	348.555	-0.123	-0.242
-609.215	264.455	0.048	-0.084
-608.201	389.269	0.052	0.108
-607.186	-39.659	-0.284	0.148
-606.171	-130.389	-0.332	0.045
-605.157	-150.424	0.199	0.015
-604.142	317.753	0.092	-0.174
-603.128	800.000	-0.142	-0.436
-602.113	-88.126	0.122	0.036
-601.098	30.169	0.396	-0.337
-600.084	426.811	0.095	-0.203
-599.069	800.000	-0.074	-0.253
-598.055	-113.780	0.213	0.041
-597.040	-93.311	-0.352	-0.097
-596.025	451.936	-0.087	0.191
-595.011	301.508	0.183	-0.337
-593.996	38.244	-0.227	-0.201
-592.982	27.602	0.338	-0.283
-591.967	-13.275	-0.171	-0.110
-590.952	256.546	-0.076	-0.130
-589.938	289.811	-0.176	-0.319
-588.923	-95.286	-0.522	-0.140
-587.909	-67.954	-0.108	-0.042
-586.894	-5.576	0.204	0.139
-585.879	-200.000	-0.055	0.266
-584.865	800.000	0.081	0.324
-583.850	-200.000	0.044	-0.465
-582.836	-68.294	-0.280	-0.108
-581.821	106.157	0.098	0.116
-580.806	117.091	0.127	0.155
-579.792	-24.163	-0.142	0.084
-578.777	-200.000	0.022	-0.212
-577.763	-37.403	-0.020	-0.010
-576.748	-51.024	0.310	0.145
-575.733	5.631	0.176	0.130
-574.719	-200.000	0.035	0.227
-573.704	-40.465	-0.391	-0.202
-572.690	259.382	0.011	0.018
-571.675	800.000	0.043	0.185
-570.661	800.000	-0.044	-0.168
-569.646	267.787	-0.063	0.110
-568.631	-86.486	0.251	-0.077
-567.617	-200.000	-0.000	0.206
-566.602	16.236	-0.246	-0.193
-565.588	217.778	0.051	0.082
-564.573	-200.000	-0.013	0.235
-563.558	362.603	0.025	0.051
-562.544	5.567	-0.248	-0.182
-561.529	-131.719	0.090	0.012
-560.515	-106.184	-0.179	0.040
-559.500	-200.000	0.052	0.329
-558.485	-200.000	0.005	-0.057
-557.471	33.808	0.299	0.258
-556.456	85.606	-0.266	0.290
-555.442	-82.228	-0.339	-0.110
-554.427	10.326	0.078	0.059
-553.412	792.641	-0.125	-0.342
-552.398	-124.977	0.131	0.020
-551.383	50.762	-0.161	-0.152
-550.369	-56.675	0.149	-0.066
-549.354	129.255	-0.149	-0.189
-548.339	800.000	0.050	0.160
-547.325	-0.309	-0.232	0.164
-546.310	-200.000	-0.005	0.113
-545.296	-200.000	-0.032	-0.192
-544.281	-38.266	-0.283	0.149
-543.266	-171.225	-0.441	-0.015
-542.252	150.910	-0.053	0.072
-541.237	-180.085	-0.104	0.002
-540.223	257.256	-0.022	0.038
-539.208	19.764	0.027	0.021
-538.193	-200.000	0.004	-0.254
-537.179	196.527	0.117	-0.176
-536.164	-139.840	-0.121	-0.013
-535.150	761.324	-0.198	-0.534
-534.135	800.000	-0.046	0.150
-533.121	-144.238	0.342	0.032
-532.106	100.827	-0.105	-0.121
-531.091	-22.014	0.052	0.031
-530.077	-200.000	-0.010	0.070
-529.062	232.084	-0.168	-0.273
-528.048	47.706	-0.024	0.022
-527.033	75.237	-0.039	0.041
-526.018	-200.000	0.071	-0.418
-525.004	119.012	0.175	-0.215
-523.989	-144.867	-0.107	-0.010
-522.975	-200.000	0.005	-0.065
-521.960	-156.227	0.194	-0.012
-520.945	-70.920	0.034	-0.013
-519.931	45.123	-0.101	-0.092
-518.916	-45.074	0.250	-0.124
-517.902	11.076	-0.087	0.066
-516.887	800.000	0.100	-0.352
-515.872	-99.087	0.095	-0.024
-514.858	291.476	0.214	0.387
-513.843	102.108	-0.063	0.073
-512.829	408.107	0.153	0.320
-511.814	800.000	0.076	0.238
-510.799	52.724	-0.045	0.042
-509.785	-200.000	0.001	-0.044
-508.770	-117.990	0.127	0.023
-507.756	553.794	0.065	0.156
-506.741	-200.000	-0.004	0.165
-505.726	-6.696	0.209	0.141
-504.712	-200.000	0.071	-0.332
-503.697	-45.923	0.348	0.170
-502.683	-200.000	-0.001	0.027
-501.668	126.723	-0.010	0.013
-500.653	-124.330	0.248	0.038
-499.639	107.025	0.180	-0.212
-498.624	-170.601	0.364	-0.013
-497.610	-49.244	-0.275	-0.130
-496.595	-34.754	-0.128	0.069
-495.581	800.000	0.095	0.326
-494.566	-49.933	0.237	0.111
-493.551	800.000	-0.054	-0.172
-492.537	-200.000	0.005	-0.231
-491.522	138.621	-0.251	-0.327
-490.508	-52.967	0.221	0.101
-489.493	478.897	0.204	-0.458
-488.478	-23.161	-0.211	0.126
-487.464	-81.833	-0.097	-0.031
-486.449	144.015	-0.354	-0.468
-485.435	54.996	0.146	-0.140
-484.420	800.000	0.058	-0.199
-483.405	321.237	0.104	0.195
-482.391	138.592	-0.148	-0.193
-481.376	127.800	-0.304	0.383
-480.362	307.834	0.113	0.209
-479.347	-200.000	0.019	0.120
-478.332	-200.000	0.011	-0.052
-477.318	-200.000	0.052	-0.274
-476.303	207.890	-0.145	0.224
-475.289	220.666	-0.064	-0.103
-474.274	-140.079	-0.402	-0.042
-473.259	218.044	0.200	-0.316
-472.245	-91.101	-0.086	-0.025
-471.230	-136.564	0.171	-0.020
-470.216	82.745	-0.139	0.149
-469.201	128.649	-0.117	-0.147
-468.186	-150.963	0.076	-0.006
-467.172	-125.861	-0.270	0.040
-466.157	14.736	0.144	-0.111
-465.143	-102.548	-0.214	0.051
-464.128	-200.000	0.008	0.191
-463.113	-118.215	-0.274	0.048
-462.099	-122.130	0.378	0.061
-461.084	-199.520	-0.101	-0.001
-460.070	502.514	-0.185	-0.424
-459.055	668.930	-0.101	-0.260
-458.040	-200.000	-0.000	0.020
-457.026	800.000	-0.065	-0.271
-456.011	-200.000	-0.005	-0.208
-454.997	571.572	-0.055	-0.133
-453.982	114.558	0.183	-0.220
-452.968	190.782	0.202	0.301
-451.953	-84.444	-0.355	-0.111
-450.938	-24.640	0.363	0.214
-449.924	-200.000	-0.066	0.344
-448.909	-4.216	-0.114	0.078
-447.895	-100.305	0.408	-0.100
-446.880	54.684	-0.281	-0.268
-445.865	-67.943	0.033	-0.013
-444.851	140.770	0.209	0.273
-443.836	224.200	-0.179	0.287
-442.822	-2.465	-0.215	0.149
-441.807	800.000	-0.010	0.029
-440.792	412.333	0.133	0.279
-439.778	-200.000	-0.028	-0.214
-438.763	260.666	0.199	-0.340
-437.749	-103.556	0.612	0.142
-436.734	695.479	0.058	-0.149
-435.719	800.000	-0.034	-0.102
-434.705	-112.830	0.165	-0.032
-433.690	-144.831	0.204	0.019
-432.676	4.940	-0.313	-0.228
-431.661	-200.000	0.006	-0.159
-430.646	-110.822	0.286	-0.058
-429.632	-95.763	-0.360	-0.095
-428.617	-86.829	-0.187	0.056
-427.603	13.516	0.049	0.037
-426.588	91.674	0.017	-0.019
-425.573	-86.959	-0.075	-0.023
-424.559	-200.000	-0.003	0.050
-423.544	-16.557	-0.152	-0.095
-422.530	-200.000	0.035	-0.295
-421.515	39.808	-0.449	0.398
-420.500	-200.000	-0.048	0.384
-419.486	-200.000	0.054	0.372
-418.471	800.000	0.051	-0.145
-417.457	42.166	0.142	0.128
-416.442	60.897	0.215	-0.210
-415.428	145.947	-0.123	-0.163
-414.413	-200.000	0.035	-0.186
-413.398	800.000	0.061	-0.203
-412.384	233.326	-0.175	-0.285
-411.369	114.666	0.196	0.236
-410.355	31.635	-0.102	0.087
-409.340	-147.240	-0.134	0.011
-408.325	-86.230	0.101	0.031
-407.311	-7.338	-0.146	-0.098
-406.296	546.103	0.008	0.019
-405.282	-63.977	-0.259	0.105
-404.267	-120.785	-0.176	-0.029
-403.252	561.981	0.055	0.130
-402.238	173.497	0.134	-0.191
-401.223	302.817	-0.104	-0.191
-400.209	164.314	-0.133	-0.186
-399.194	-200.000	-0.036	0.179
-398.179	-54.967	0.193	-0.086
-397.165	-119.343	0.376	0.065
-396.150	800.000	-0.008	-0.025
-395.136	-126.276	0.375	-0.055
-394.121	-158.350	0.265	0.015
-393.106	-200.000	-0.010	-0.148
-392.092	-137.615	0.173	0.019
-391.077	736.836	-0.076	-0.200
-390.063	-200.000	0.077	0.373
-389.048	800.000	0.120	-0.504
-388.033	-1.687	-0.176	0.123
-387.019	-200.000	-0.048	-0.221
-386.004	-107.636	-0.017	-0.004
-384.990	192.021	-0.048	0.072
-383.975	800.000	-0.049	0.169
-382.960	421.840	-0.130	-0.276
-381.946	-16.386	-0.197	0.124
-380.931	-200.000	0.062	0.476
-379.917	-106.342	0.318	-0.070
-378.902	59.841	-0.120	0.117
-377.888	356.154	0.141	-0.277
-376.873	-100.056	-0.217	0.053
-375.858	27.735	0.157	0.130
-374.844	-46.448	-0.171	-0.083
-373.829	-4.573	-0.155	-0.105
-372.815	-60.580	0.127	-0.053
-371.800	72.571	0.228	0.235
-370.785	-200.000	0.051	0.285
-369.771	-66.049	-0.159	0.063
-368.756	-200.000	0.062	-0.440
-367.742	57.916	-0.034	0.033
-366.727	-200.000	-0.015	-0.363
-365.712	-155.352	0.194	0.012
-364.698	36.439	0.082	0.072
-363.683	42.302	-0.112	-0.100
-362.669	-134.107	-0.248	-0.030
-361.654	31.964	-0.218	0.185
-360.639	6.404	0.066	0.048
-359.625	-128.677	-0.138	-0.019
-358.610	154.625	0.185	-0.250
-357.596	-200.000	0.084	-0.387
-356.581	141.806	-0.279	0.365
-355.566	3.492	-0.111	0.080
-354.552	800.000	0.082	-0.233
-353.537	-2.024	-0.191	0.133
-352.523	-200.000	-0.005	0.207
-351.508	121.476	0.130	-0.160
-350.493	277.043	0.144	-0.252
-349.479	-200.000	-0.037	-0.248
-348.464	12.780	-0.150	-0.114
-347.450	749.639	-0.099	0.264
-346.435	800.000	-0.137	0.388
-345.420	281.039	0.184	0.324
-344.406	-200.000	0.006	0.146
-343.391	106.287	0.083	0.097
-342.377	800.000	0.052	-0.176
-341.362	-147.169	0.234	-0.020
-340.348	339.219	0.154	0.296
-339.333	800.000	-0.047	0.140
-338.318	-191.460	0.333	-0.003
-337.304	-200.000	-0.056	-0.247
-336.289	-145.014	-0.105	-0.009
-335.275	205.334	-0.164	-0.251
-334.260	-125.332	0.020	-0.003
-333.245	-20.677	-0.149	0.090
-332.231	-46.027	-0.242	-0.118
-331.216	-115.132	0.117	-0.022
-330.202	-5.121	-0.176	0.119
-329.187	-125.062	-0.301	-0.046
-328.172	-200.000	0.038	-0.185
-327.158	-83.274	0.088	-0.028
-326.143	-6.746	0.236	-0.158
-325.129	250.091	-0.088	-0.146
-324.114	42.863	0.043	-0.038
-323.099	-108.350	0.038	0.008
-322.085	800.000	-0.080	0.272
-321.070	297.853	-0.060	0.109
-320.056	-200.000	0.044	-0.196
-319.041	-86.272	-0.210	0.064
-318.026	597.760	-0.136	0.332
-317.012	39.008	-0.234	0.206
-315.997	-200.000	-0.047	0.451
-314.983	136.475	-0.075	-0.096
-313.968	-61.498	-0.493	0.204
-312.953	425.598	0.056	-0.119
-311.939	-95.304	-0.378	0.100
-310.924	-44.315	-0.149	-0.073
-309.910	-146.958	0.063	0.005
-308.895	800.000	0.095	-0.265
-307.880	-93.613	0.204	-0.055
-306.866	222.680	-0.069	-0.110
-305.851	-140.505	0.462	-0.047
-304.837	-105.984	0.307	-0.068
-303.822	-7.794	0.415	0.276
-302.807	800.000	-0.086	0.248
-301.793	-111.567	0.032	0.006
-300.778	332.041	0.074	0.141
-299.764	-200.000	0.037	0.220
-298.749	112.998	0.109	0.130
-297.735	162.943	-0.206	-0.285
-296.720	-20.073	-0.109	-0.066
-295.705	90.633	0.180	-0.198
-294.691	162.312	-0.190	0.262
-293.676	-200.000	0.003	0.056
-292.662	122.469	0.160	-0.197
-291.647	-75.405	0.139	-0.049
-290.632	91.578	0.055	-0.060
-289.618	-200.000	0.094	0.419
-288.603	-73.933	0.286	0.102
-287.589	-77.819	-0.185	0.063
-286.574	-47.092	-0.200	0.096
-285.559	240.249	0.186	0.305
-284.545	-56.736	-0.225	-0.098
-283.530	-149.949	-0.202	-0.015
-282.516	-200.000	-0.006	0.135
-281.501	-200.000	-0.007	-0.072
-280.486	800.000	0.052	0.211
-279.472	146.954	-0.149	-0.197
-278.457	56.882	-0.109	-0.104
-277.443	36.894	-0.124	0.108
-276.428	279.631	0.056	0.099
-275.413	-175.748	0.058	-0.002
-274.399	-3.045	0.180	-0.123
-273.384	110.966	-0.176	-0.209
-272.370	95.340	0.071	-0.080
-271.355	70.330	-0.194	0.197
-270.340	-200.000	0.058	-0.358
-269.326	43.619	-0.132	0.118
-268.311	51.531	0.216	0.202
-267.297	-39.846	-0.213	0.109
-266.282	192.371	-0.202	0.300
-265.267	-119.587	-0.125	-0.021
-264.253	-153.096	-0.395	-0.027
-263.238	800.000	0.038	-0.131
-262.224	-144.117	0.169	-0.016
-261.209	800.000	-0.084	-0.350
-260.195	-171.438	-0.152	-0.005
-259.180	-200.000	0.030	0.157
-258.165	-90.236	-0.051	0.014
-257.151	800.000	-0.043	-0.162
-256.136	-38.016	-0.242	0.126
-255.122	296.700	0.138	0.249
-254.107	-52.836	0.192	0.087
-253.092	317.992	-0.151	0.282
-252.078	-57.344	0.234	0.101
-251.063	29.741	0.162	0.136
-250.049	-102.173	0.309	0.073
-249.034	-127.276	-0.204	0.029
-248.019	-33.879	-0.165	0.089
-247.005	-28.090	0.115	0.066
-245.990	99.996	-0.058	0.066
-244.976	800.000	0.118	0.385
-243.961	-110.426	0.123	0.025
-242.946	-6.884	-0.212	0.141
-241.932	-200.000	-0.087	-0.446
-240.917	159.902	0.270	0.369
-239.903	-100.738	0.237	0.057
-238.888	-200.000	-0.051	0.520
-237.873	33.782	0.106	0.090
-236.859	-133.008	0.269	-0.034
-235.844	758.244	-0.036	-0.097
-234.830	-200.000	0.014	-0.074
-233.815	-118.637	0.200	0.035
-232.800	139.944	0.186	-0.240
-231.786	-200.000	0.021	-0.135
-230.771	143.793	0.060	0.078
-229.757	84.418	-0.391	0.419
-228.742	-200.000	-0.009	-0.108
-227.727	800.000	-0.047	-0.162
-226.713	-200.000	-0.005	-0.110
-225.698	800.000	-0.092	0.289
-224.684	-200.000	0.067	-0.431
-223.669	800.000	0.067	0.201
-222.655	452.158	0.170	0.369
-221.640	-105.469	0.227	-0.051
-220.625	-200.000	-0.013	-0.288
-219.611	-50.780	0.176	-0.081
-218.596	-118.564	0.331	-0.057
-217.582	-119.924	-0.162	-0.027
-216.567	6.123	0.218	-0.159
-215.552	-200.000	0.019	-0.114
-214.538	199.123	-0.044	0.067
-213.523	31.896	-0.285	0.241
-212.509	-200.000	0.018	-0.187
-211.494	147.562	-0.145	0.192
-210.479	-14.106	0.213	0.135
-209.465	-120.678	0.170	-0.028
-208.450	800.000	0.080	0.296
-207.436	43.984	0.228	0.205
-206.421	800.000	-0.081	-0.269
-205.406	-100.618	0.096	0.023
-204.392	92.694	0.145	0.160
-203.377	-160.829	0.337	0.017
-202.363	-102.348	-0.300	0.070
-201.348	-43.772	-0.075	0.037
-200.333	381.806	-0.047	0.094
-199.319	4.452	0.261	0.188
-198.304	-200.000	-0.018	0.143
-197.290	537.391	-0.035	0.081
-196.275	69.829	-0.246	0.249
-195.260	-42.014	0.105	0.053
-194.246	-86.252	0.147	0.044
-193.231	-200.000	0.031	-0.144
-192.217	-127.197	0.101	-0.014
-191.202	800.000	-0.069	0.207
-190.187	-81.954	0.301	-0.096
-189.173	271.390	-0.055	0.096
-188.158	-136.598	-0.279	0.032
-187.144	-24.400	0.150	0.088
-186.129	247.855	0.055	-0.091
-185.114	-92.310	0.283	-0.078
-184.100	6.599	-0.140	0.102
-183.085	67.230	0.139	0.139
-182.071	153.208	0.089	0.119
-181.056	621.768	0.093	-0.229
-180.042	117.724	-0.227	0.274
-179.027	-29.000	-0.245	-0.138
-178.012	-91.642	0.158	-0.044
-176.998	516.668	0.135	-0.309
-175.983	-104.623	0.426	0.096
-174.969	283.186	-0.056	-0.098
-173.954	172.815	0.036	-0.051
-172.939	-200.000	-0.023	-0.172
-171.925	-85.862	0.229	0.070
-170.910	16.246	-0.064	0.050
-169.896	-68.697	0.314	0.119
-168.881	-69.715	-0.185	0.069
-167.866	-59.310	-0.348	-0.147
-166.852	-67.058	0.234	-0.090
-165.837	-200.000	-0.002	0.065
-164.823	117.886	0.084	-0.102
-163.808	-23.322	-0.067	0.040
-162.793	212.276	0.049	-0.075
-161.779	-152.513	0.395	0.028
-160.764	57.910	-0.127	0.121
-159.750	-186.716	-0.477	-0.007
-158.735	608.449	-0.025	0.060
-157.720	-105.223	-0.580	0.130
-156.706	800.000	-0.098	0.288
-155.691	-43.118	-0.192	-0.095
-154.677	775.274	0.013	-0.035
-153.662	503.513	-0.130	0.294
-152.647	-57.373	0.281	0.121
-151.633	50.960	-0.028	0.026
-150.618	-200.000	-0.027	0.294
-149.604	-8.071	-0.279	0.184
-148.589	306.310	-0.057	-0.104
-147.574	-200.000	0.022	-0.155
-146.560	800.000	0.074	-0.238
-145.545	63.548	0.085	-0.083
-144.531	-6.540	-0.333	0.222
-143.516	-85.946	0.410	-0.124
-142.502	-200.000	0.032	-0.377
-141.487	225.534	-0.202	0.319
-140.472	-21.333	-0.051	0.030
-139.458	-45.589	0.229	-0.111
-138.443	47.241	-0.149	0.136
-137.429	800.000	-0.031	0.091
-136.414	-85.905	0.261	0.079
-135.399	78.782	-0.197	-0.206
-134.385	-130.783	-0.141	-0.018
-133.370	67.396	0.190	0.189
-132.356	287.185	0.014	0.024
-131.341	87.041	-0.109	-0.118
-130.326	-200.000	-0.017	-0.134
-129.312	-6.452	0.181	0.120
-128.297	-49.162	0.187	0.088
-127.283	28.740	0.035	-0.029
-126.268	254.147	-0.048	0.081
-125.253	-200.000	-0.067	-0.467
-124.239	0.877	-0.293	-0.205
-123.224	-163.659	0.270	0.012
-122.210	525.369	-0.141	-0.324
