DTS Sentinel unit serial number:	SN413079Multiplexer serial number:	ORYXHardware model number:	OX4-SRSoftware version number:	ORYX F/W v4.00 Oryx Data Collector v3.7.2.0data status	okinstallation	princeton_trtdifferential loss correction	single-endedforward channel	channel 3reverse channel	N/Adate	2019/09/16time	09:28:35forward acquisition time	60.00reverse acquisition time	0.00gamma	496.2192k internal	0.2321k external	0.2321temperature offset calibration	0.9958default loss term (dB/km)	0.3790temperature slope calibration	1.0000multiplexer offset coefficient	1.0000multiplexer slope coefficient	1.0000fibre end	0.00T internal ref (°C)	31.77T ext. ref 1 (°C)	12.21T ext. ref 2 (°C)	29.44length (m)	temperature (°C)	Stokes	anti-Stokes-747.200	-200.000	-0.009	0.077
-746.185	71.267	-0.236	0.247
-745.171	-200.000	-0.012	-0.253
-744.156	800.000	-0.058	0.193
-743.142	-17.063	-0.163	0.104
-742.127	-126.279	0.112	0.017
-741.112	-200.000	-0.044	-0.341
-740.098	556.011	-0.085	0.207
-739.083	64.104	0.065	0.067
-738.069	-200.000	0.060	-0.303
-737.054	-200.000	0.024	0.247
-736.039	-83.669	-0.672	-0.217
-735.025	152.581	-0.260	0.358
-734.010	-11.812	0.402	-0.267
-732.996	-39.723	-0.276	0.146
-731.981	800.000	0.083	0.319
-730.966	267.793	-0.209	-0.370
-729.952	-37.787	0.150	-0.080
-728.937	281.817	-0.028	0.051
-727.923	311.959	-0.106	0.201
-726.908	-200.000	-0.047	-0.320
-725.894	170.873	0.069	-0.100
-724.879	756.287	-0.082	0.224
-723.864	-200.000	-0.004	-0.136
-722.850	-117.741	0.235	0.043
-721.835	-200.000	0.054	-0.381
-720.821	-115.633	0.299	0.057
-719.806	-81.692	0.120	0.040
-718.791	-155.391	0.212	-0.014
-717.777	-93.253	-0.269	-0.075
-716.762	800.000	0.064	0.228
-715.748	-88.028	-0.305	-0.093
-714.733	166.582	-0.147	0.211
-713.718	-31.786	0.171	0.097
-712.704	-200.000	-0.060	-0.312
-711.689	677.189	-0.037	-0.097
-710.675	-89.382	-0.384	-0.114
-709.660	-24.880	0.232	-0.139
-708.645	-117.457	0.301	-0.055
-707.631	85.913	0.241	-0.268
-706.616	-159.242	-0.200	-0.011
-705.602	404.777	-0.075	-0.159
-704.587	423.155	0.040	-0.086
-703.572	104.092	-0.019	-0.023
-702.558	146.908	-0.211	-0.286
-701.543	-149.038	-0.305	0.025
-700.529	-74.647	0.206	-0.075
-699.514	-72.735	0.189	0.070
-698.499	93.739	0.058	-0.066
-697.485	-57.991	0.217	-0.096
-696.470	470.900	-0.118	-0.268
-695.456	211.288	-0.032	-0.051
-694.441	-111.920	-0.099	-0.020
-693.426	-26.902	0.234	-0.138
-692.412	245.204	-0.154	0.262
-691.397	-143.306	0.188	0.018
-690.383	-200.000	0.019	0.208
-689.368	-79.679	0.009	0.003
-688.354	366.552	-0.110	-0.224
-687.339	65.343	0.102	0.104
-686.324	-200.000	0.053	0.314
-685.310	595.510	-0.048	0.120
-684.295	198.582	0.075	0.115
-683.281	800.000	0.015	-0.053
-682.266	-45.528	-0.141	-0.070
-681.251	-138.726	0.066	0.007
-680.237	-52.347	0.106	-0.050
-679.222	99.158	-0.285	-0.332
-678.208	55.976	-0.098	-0.096
-677.193	664.350	0.061	-0.158
-676.178	90.669	-0.153	-0.173
-675.164	-94.244	-0.215	0.059
-674.149	-131.113	-0.353	0.047
-673.135	16.234	0.317	-0.252
-672.120	-151.314	0.329	0.025
-671.105	47.629	0.271	0.255
-670.091	29.654	0.193	-0.165
-669.076	800.000	-0.059	0.184
-668.062	395.606	-0.104	0.219
-667.047	106.092	0.081	-0.097
-666.032	800.000	-0.053	-0.222
-665.018	-14.814	-0.265	0.171
-664.003	377.434	-0.147	-0.303
-662.989	800.000	-0.078	-0.295
-661.974	-64.273	0.124	-0.051
-660.959	-153.212	-0.132	0.009
-659.945	187.879	0.136	0.205
-658.930	-146.544	-0.181	0.016
-657.916	-94.967	-0.070	-0.019
-656.901	174.556	0.051	-0.075
-655.886	-65.742	-0.167	-0.067
-654.872	-200.000	-0.014	-0.117
-653.857	156.307	-0.154	0.215
-652.843	1.376	0.237	-0.172
-651.828	-124.005	0.221	0.035
-650.814	-19.379	-0.167	0.104
-649.799	106.776	0.065	-0.077
-648.784	-200.000	-0.069	-0.337
-647.770	-56.416	0.100	-0.045
-646.755	-151.520	-0.319	0.024
-645.741	434.940	0.086	-0.189
-644.726	607.719	-0.065	0.164
-643.711	-32.921	-0.053	-0.029
-642.697	-15.595	-0.236	0.152
-641.682	800.000	0.062	-0.179
-640.668	-188.256	-0.159	0.002
-639.653	-31.195	-0.031	0.018
-638.638	334.457	-0.082	-0.160
-637.624	56.994	0.109	-0.107
-636.609	-200.000	0.014	0.065
-635.595	800.000	0.034	-0.124
-634.580	532.156	-0.051	-0.121
-633.565	-0.124	-0.131	-0.094
-632.551	-40.370	0.185	-0.097
-631.536	-200.000	-0.005	-0.133
-630.522	-33.821	-0.360	-0.199
-629.507	-200.000	0.002	-0.039
-628.492	-200.000	-0.036	0.227
-627.478	44.849	-0.149	0.138
-626.463	800.000	0.020	0.089
-625.449	298.491	-0.040	0.073
-624.434	-81.958	-0.059	-0.019
-623.419	43.907	-0.181	-0.166
-622.405	-200.000	-0.018	0.131
-621.390	423.849	0.114	-0.246
-620.376	-200.000	-0.038	-0.338
-619.361	-194.841	0.407	-0.003
-618.346	800.000	0.018	0.061
-617.332	719.030	-0.038	-0.102
-616.317	-200.000	-0.061	-0.270
-615.303	33.157	-0.106	-0.092
-614.288	157.334	-0.178	-0.248
-613.273	34.654	0.129	0.114
-612.259	174.187	-0.249	-0.361
-611.244	-200.000	0.029	0.196
-610.230	-22.858	-0.061	-0.037
-609.215	-52.683	-0.249	0.115
-608.201	-81.436	0.148	0.049
-607.186	567.468	0.121	0.295
-606.171	559.151	0.043	-0.104
-605.157	-100.165	-0.230	-0.057
-604.142	50.320	0.297	0.282
-603.128	135.161	0.021	-0.028
-602.113	23.037	-0.290	-0.239
-601.098	-30.687	-0.295	-0.168
-600.084	-200.000	0.018	-0.099
-599.069	-200.000	-0.001	0.278
-598.055	276.138	-0.061	-0.109
-597.040	25.590	-0.161	-0.135
-596.025	-200.000	-0.007	0.091
-595.011	-200.000	0.000	0.288
-593.996	115.169	-0.070	-0.086
-592.982	80.117	0.127	-0.137
-591.967	89.451	-0.107	-0.120
-590.952	151.589	-0.096	0.131
-589.938	23.056	0.228	-0.188
-588.923	-59.123	0.405	-0.175
-587.909	-200.000	0.024	0.119
-586.894	-200.000	0.009	-0.089
-585.879	83.662	-0.238	0.261
-584.865	279.830	0.108	0.194
-583.850	121.617	0.103	-0.129
-582.836	7.793	0.416	-0.313
-581.821	172.741	0.067	-0.097
-580.806	261.137	0.077	-0.134
-579.792	-34.906	-0.041	-0.022
-578.777	220.655	-0.166	-0.267
-577.763	800.000	0.072	-0.257
-576.748	-34.649	0.200	0.110
-575.733	605.105	-0.034	0.085
-574.719	116.449	-0.074	-0.091
-573.704	-200.000	-0.004	0.315
-572.690	311.913	0.026	-0.048
-571.675	-175.136	0.297	0.008
-570.661	181.295	0.049	-0.073
-569.646	-48.589	-0.299	0.145
-568.631	22.444	0.208	-0.170
-567.617	108.742	-0.162	-0.194
-566.602	-200.000	-0.086	0.381
-565.588	-68.140	0.167	-0.065
-564.573	-97.057	0.144	0.038
-563.558	-108.192	0.483	-0.105
-562.544	224.917	-0.176	0.286
-561.529	27.518	-0.154	-0.130
-560.515	0.006	-0.158	-0.113
-559.500	-180.117	-0.163	-0.003
-558.485	-133.721	-0.106	0.013
-557.471	245.007	-0.147	-0.248
-556.456	35.402	0.304	-0.267
-555.442	745.432	-0.194	0.525
-554.427	-200.000	-0.053	0.305
-553.412	131.496	-0.263	0.339
-552.398	800.000	-0.070	-0.306
-551.383	-15.434	0.049	0.032
-550.369	-200.000	0.014	-0.318
-549.354	-179.265	-0.195	-0.004
-548.339	44.461	0.207	0.191
-547.325	579.784	0.074	0.183
-546.310	-92.356	-0.153	0.043
-545.296	758.844	0.117	-0.318
-544.281	-200.000	-0.168	-0.000
-543.266	800.000	0.074	0.207
-542.252	343.617	-0.117	-0.230
-541.237	93.596	-0.057	-0.065
-540.223	-73.413	0.113	0.041
-539.208	-29.658	0.188	0.107
-538.193	529.002	0.044	-0.104
-537.179	800.000	-0.073	0.278
-536.164	576.120	0.052	0.128
-535.150	48.243	-0.151	-0.141
-534.135	44.431	0.123	0.113
-533.121	-3.115	0.160	-0.112
-532.106	-128.730	-0.303	0.043
-531.091	800.000	0.081	-0.271
-530.077	35.453	-0.110	0.097
-529.062	326.575	-0.041	-0.079
-528.048	-6.162	-0.241	-0.165
-527.033	-61.955	-0.201	0.084
-526.018	-99.151	-0.152	0.039
-525.004	-106.865	-0.247	-0.055
-523.989	266.636	0.069	-0.120
-522.975	-34.414	-0.138	0.076
-521.960	-200.000	-0.014	0.190
-520.945	-200.000	-0.022	-0.100
-519.931	212.255	0.059	-0.093
-518.916	-176.766	0.031	-0.001
-517.902	41.968	-0.154	0.140
-516.887	-93.065	0.123	-0.034
-515.872	-16.287	-0.159	-0.101
-514.858	19.912	0.267	-0.216
-513.843	-118.429	0.210	-0.037
-512.829	774.662	0.111	-0.304
-511.814	-57.491	0.052	-0.023
-510.799	1.524	-0.052	0.037
-509.785	367.927	0.031	-0.063
-508.770	-11.572	0.123	-0.081
-507.756	36.913	-0.072	0.063
-506.741	235.415	0.109	0.181
-505.726	-75.222	-0.175	0.063
-504.712	581.095	-0.126	-0.310
-503.697	-200.000	-0.017	0.084
-502.683	-117.228	0.205	0.037
-501.668	800.000	-0.043	-0.147
-500.653	-200.000	-0.100	0.491
-499.639	-141.835	0.054	0.005
-498.624	-99.391	-0.251	0.063
-497.610	212.560	-0.153	0.242
-496.595	5.486	0.125	0.092
-495.581	800.000	0.028	-0.120
-494.566	202.950	-0.182	0.281
-493.551	-200.000	-0.040	-0.318
-492.537	455.400	-0.064	0.143
-491.522	-192.988	0.125	0.001
-490.508	-52.214	-0.139	-0.065
-489.493	17.678	0.113	0.090
-488.478	-200.000	-0.025	0.382
-487.464	142.750	0.008	-0.011
-486.449	47.316	-0.096	-0.089
-485.435	800.000	0.063	-0.263
-484.420	-107.393	-0.312	0.069
-483.405	-39.146	0.242	-0.127
-482.391	-200.000	-0.037	0.350
-481.376	-200.000	0.065	0.290
-480.362	800.000	-0.048	0.150
-479.347	190.028	0.124	0.187
-478.332	-200.000	0.053	0.265
-477.318	-200.000	-0.020	0.445
-476.303	-200.000	0.005	0.136
-475.289	16.759	0.096	0.076
-474.274	-62.808	0.393	-0.163
-473.259	-121.057	-0.346	0.058
-472.245	296.056	-0.242	0.443
-471.230	-52.565	-0.176	-0.081
-470.216	-200.000	0.013	-0.122
-469.201	-128.375	-0.128	0.018
-468.186	-200.000	0.004	-0.074
-467.172	694.713	0.038	0.099
-466.157	654.114	0.052	-0.132
-465.143	156.732	-0.157	0.217
-464.128	93.673	0.011	-0.012
-463.113	-200.000	0.007	-0.049
-462.099	-19.244	-0.164	0.102
-461.084	-200.000	-0.002	0.120
-460.070	-200.000	-0.076	0.000
-459.055	255.463	0.103	-0.177
-458.040	-18.468	0.139	-0.087
-457.026	800.000	0.009	-0.035
-456.011	-122.172	0.339	0.055
-454.997	63.928	-0.118	0.118
-453.982	800.000	0.069	0.209
-452.968	-200.000	0.001	-0.159
-451.953	7.631	0.118	0.088
-450.938	13.247	-0.121	-0.094
-449.924	219.339	-0.146	-0.233
-448.909	-68.545	-0.204	0.079
-447.895	-74.385	-0.114	0.041
-446.880	-101.143	0.106	-0.026
-445.865	-200.000	-0.016	-0.167
-444.851	72.666	-0.129	0.134
-443.836	174.434	0.250	0.361
-442.822	-200.000	0.034	0.454
-441.807	-94.612	0.309	0.084
-440.792	-87.723	-0.171	0.052
-439.778	-83.714	0.156	-0.050
-438.763	-162.129	0.288	-0.014
-437.749	80.065	0.202	0.217
-436.734	800.000	-0.074	-0.227
-435.719	-73.141	-0.108	-0.040
-434.705	-58.780	-0.330	0.143
-433.690	-59.771	0.392	-0.167
-432.676	-177.283	0.346	0.009
-431.661	-200.000	-0.010	0.057
-430.646	-200.000	-0.020	0.523
-429.632	-86.746	0.203	-0.062
-428.617	-62.860	-0.572	-0.236
-427.603	-179.095	0.175	-0.004
-426.588	104.410	0.118	-0.138
-425.573	-49.058	-0.075	-0.036
-424.559	-5.637	0.132	0.091
-423.544	110.695	0.161	-0.193
-422.530	800.000	-0.133	0.564
-421.515	58.187	-0.038	0.037
-420.500	-45.753	-0.117	0.058
-419.486	-101.046	0.527	-0.129
-418.471	-17.053	-0.091	-0.057
-417.457	-137.777	-0.203	-0.023
-416.442	-200.000	-0.018	-0.275
-415.428	171.774	0.104	0.149
-414.413	151.904	0.249	0.339
-413.398	17.512	0.197	-0.157
-412.384	1.184	-0.182	-0.130
-411.369	105.981	0.194	-0.229
-410.355	-200.000	0.026	-0.247
-409.340	-200.000	-0.042	-0.345
-408.325	800.000	0.086	-0.317
-407.311	-151.531	0.274	-0.020
-406.296	30.475	0.198	-0.169
-405.282	-172.446	-0.170	-0.005
-404.267	271.257	-0.099	-0.175
-403.252	-200.000	-0.020	0.109
-402.238	422.698	0.119	-0.255
-401.223	-121.186	-0.233	0.039
-400.209	-153.536	0.221	0.015
-399.194	800.000	-0.121	0.476
-398.179	800.000	-0.066	0.188
-397.165	-25.917	-0.077	0.045
-396.150	61.619	0.132	-0.131
-395.136	-70.536	-0.102	-0.038
-394.121	-143.463	0.124	0.012
-393.106	-18.066	-0.055	0.035
-392.092	13.768	0.249	-0.193
-391.077	-4.737	0.158	-0.109
-390.063	-77.394	-0.246	-0.085
-389.048	800.000	-0.037	0.133
-388.033	-200.000	0.012	0.131
-387.019	-168.595	0.167	0.006
-386.004	-200.000	0.128	0.686
-384.990	-108.323	0.354	-0.076
-383.975	800.000	0.023	0.085
-382.960	388.729	-0.119	-0.246
-381.946	-105.002	-0.387	-0.088
-380.931	-27.453	-0.315	-0.182
-379.917	-100.899	-0.235	-0.058
-378.902	-59.599	-0.180	0.077
-377.888	4.522	-0.182	-0.133
-376.873	-33.219	-0.432	-0.238
-375.858	76.056	0.263	-0.277
-374.844	128.493	0.146	-0.186
-373.829	-99.289	0.260	-0.065
-372.815	209.991	-0.237	0.371
-371.800	800.000	0.109	-0.376
-370.785	-79.919	-0.133	-0.045
-369.771	392.006	0.081	0.168
-368.756	-200.000	0.010	-0.128
-367.742	-200.000	-0.019	0.087
-366.727	-200.000	0.006	-0.031
-365.712	127.184	0.112	-0.141
-364.698	-200.000	0.000	0.086
-363.683	-200.000	-0.019	-0.174
-362.669	-200.000	0.026	-0.200
-361.654	-62.424	-0.177	-0.073
-360.639	-103.365	-0.093	0.022
-359.625	79.988	0.241	0.258
-358.610	800.000	0.045	-0.173
-357.596	-136.762	0.375	-0.043
-356.581	96.543	-0.077	-0.087
-355.566	335.552	-0.171	-0.331
-354.552	-30.497	0.515	-0.290
-353.537	239.580	0.145	-0.240
-352.523	274.517	0.216	-0.380
-351.508	-113.170	-0.468	-0.092
-350.493	49.221	-0.195	0.182
-349.479	-200.000	0.041	-0.335
-348.464	-31.979	0.268	-0.149
-347.450	56.207	-0.193	-0.186
-346.435	-200.000	0.015	0.181
-345.420	-96.128	-0.289	0.076
-344.406	635.707	-0.108	-0.273
-343.391	265.511	0.095	0.164
-342.377	-127.359	-0.300	-0.043
-341.362	526.945	-0.159	0.372
-340.348	-133.610	0.119	0.015
-339.333	25.773	0.210	-0.174
-338.318	-200.000	0.032	0.454
-337.304	134.895	-0.079	-0.102
-336.289	-83.078	-0.229	0.073
-335.275	52.127	0.199	-0.189
-334.260	-19.351	-0.396	-0.244
-333.245	-200.000	-0.016	0.166
-332.231	29.343	-0.371	0.313
-331.216	359.027	0.234	-0.465
-330.202	-200.000	0.024	0.172
-329.187	800.000	-0.029	0.123
-328.172	-52.820	-0.167	0.076
-327.158	20.803	-0.079	0.063
-326.143	-47.280	0.101	0.049
-325.129	-200.000	0.017	0.180
-324.114	-108.098	0.189	-0.041
-323.099	-23.026	-0.128	-0.077
-322.085	-200.000	-0.024	-0.172
-321.070	22.531	-0.126	-0.102
-320.056	-0.527	0.159	0.112
-319.041	-153.920	0.139	-0.009
-318.026	20.049	0.266	0.214
-317.012	-188.144	0.112	0.001
-315.997	-17.700	-0.292	0.183
-314.983	-200.000	-0.009	0.039
-313.968	-200.000	0.009	-0.137
-312.953	141.451	-0.202	0.266
-311.939	144.623	-0.248	-0.330
-310.924	-131.099	0.298	0.039
-309.910	39.333	0.174	-0.155
-308.895	-62.610	0.066	0.027
-307.880	-58.059	-0.102	-0.044
-306.866	167.176	-0.034	-0.048
-305.851	-19.039	-0.271	-0.167
-304.837	-200.000	0.002	0.067
-303.822	346.564	0.114	0.224
-302.807	-133.430	-0.124	0.016
-301.793	-90.428	0.196	0.056
-300.778	-200.000	-0.025	0.353
-299.764	-200.000	0.035	-0.186
-298.749	728.739	0.111	0.293
-297.735	-61.594	0.088	-0.037
-296.720	-111.219	0.082	-0.017
-295.705	48.237	-0.087	0.081
-294.691	-62.190	0.125	0.052
-293.676	-122.865	0.195	-0.031
-292.662	800.000	-0.010	0.041
-291.647	4.766	-0.176	0.128
-290.632	-104.492	-0.236	0.054
-289.618	-108.308	0.347	-0.074
-288.603	-86.863	-0.336	0.102
-287.589	-200.000	-0.002	-0.183
-286.574	288.393	0.081	0.146
-285.559	800.000	-0.146	-0.559
-284.545	-200.000	0.005	-0.238
-283.530	-66.535	0.109	0.043
-282.516	319.486	0.121	0.228
-281.501	-81.333	0.171	0.056
-280.486	-78.840	0.115	0.039
-279.472	304.649	-0.129	-0.238
-278.457	5.413	-0.255	-0.187
-277.443	800.000	0.047	0.138
-276.428	4.169	-0.153	-0.111
-275.413	206.562	0.047	0.073
-274.399	-91.599	0.092	0.026
-273.384	125.969	0.099	-0.125
-272.370	159.639	0.201	0.278
-271.355	-145.507	-0.156	0.014
-270.340	-7.464	-0.071	0.048
-269.326	-200.000	-0.001	0.267
-268.311	-117.509	0.079	0.014
-267.297	-115.828	0.185	0.034
-266.282	-119.359	0.023	0.004
-265.267	-103.640	-0.106	0.025
-264.253	-15.175	0.209	0.133
-263.238	800.000	0.094	0.330
-262.224	800.000	0.081	0.233
-261.209	-68.315	-0.314	-0.121
-260.195	527.750	0.075	0.175
-259.180	711.073	0.088	-0.232
-258.165	-46.534	-0.006	-0.003
-257.151	370.606	0.044	0.088
-256.136	73.601	0.132	0.137
-255.122	128.312	-0.020	0.025
-254.107	-200.000	0.008	0.154
-253.092	327.845	-0.198	-0.378
-252.078	681.241	0.015	-0.039
-251.063	29.510	0.217	0.183
-250.049	135.044	0.263	0.338
-249.034	-200.000	-0.007	0.068
-248.019	660.251	-0.053	-0.135
-247.005	565.304	-0.096	-0.230
-245.990	-43.400	0.147	0.073
-244.976	-148.883	0.136	0.011
-243.961	360.800	-0.113	0.224
-242.946	800.000	-0.141	0.527
-241.932	-200.000	0.004	0.063
-240.917	170.397	0.080	0.114
-239.903	-152.187	-0.102	0.007
-238.888	6.291	-0.223	0.164
-237.873	-43.053	-0.309	0.155
-236.859	59.747	0.111	-0.109
-235.844	0.182	-0.100	0.071
-234.830	150.240	-0.066	0.088
-233.815	399.682	-0.094	-0.196
-232.800	-87.483	0.180	0.054
-231.786	-200.000	-0.003	0.132
-230.771	-88.421	0.299	0.088
-229.757	-110.758	0.281	0.057
-228.742	-34.558	-0.144	-0.078
-227.727	20.870	0.132	0.106
-226.713	59.451	0.101	0.099
-225.698	-47.100	-0.549	-0.265
-224.684	-122.497	-0.107	-0.017
-223.669	-126.278	-0.050	-0.007
-222.655	692.735	-0.080	0.207
-221.640	279.720	-0.010	-0.017
-220.625	146.649	-0.349	-0.464
-219.611	-73.509	0.250	0.090
-218.596	43.557	0.160	0.145
-217.582	-135.423	0.207	-0.025
-216.567	-200.000	0.011	0.166
-215.552	205.055	0.197	-0.302
-214.538	-200.000	-0.025	0.151
-213.523	-36.612	-0.213	-0.113
-212.509	114.458	0.191	-0.231
-211.494	-200.000	0.063	-0.410
-210.479	-25.340	0.122	0.071
-209.465	-46.987	0.036	0.017
-208.450	356.810	0.131	0.259
-207.436	110.242	0.180	-0.214
-206.421	-200.000	-0.055	-0.246
-205.406	-200.000	0.031	0.165
-204.392	104.823	0.095	0.111
-203.377	-200.000	-0.014	-0.192
-202.363	800.000	0.099	-0.272
-201.348	-200.000	-0.044	0.231
-200.333	800.000	-0.041	-0.118
-199.319	-81.025	0.116	0.038
-198.304	-29.599	0.261	-0.148
-197.290	-49.460	-0.481	-0.227
-196.275	8.855	0.209	0.156
-195.260	-49.191	-0.160	0.076
-194.246	-140.951	-0.052	0.005
-193.231	217.628	0.228	-0.360
-192.217	-119.398	-0.329	-0.057
-191.202	126.861	0.067	-0.084
-190.187	204.829	-0.074	0.114
-189.173	511.083	0.205	0.473
-188.158	-76.668	0.221	0.077
-187.144	-24.422	-0.200	0.118
-186.129	-200.000	-0.004	0.040
-185.114	-68.803	0.280	-0.107
-184.100	-16.889	0.141	-0.088
-183.085	266.026	-0.139	-0.240
-182.071	-15.859	-0.255	0.161
-181.056	-75.439	0.163	-0.057
-180.042	55.515	0.161	-0.154
-179.027	214.913	-0.167	-0.261
-178.012	576.606	0.057	0.138
-176.998	434.776	-0.091	0.197
-175.983	-150.508	-0.172	0.013
-174.969	-151.687	-0.140	0.010
-173.954	648.396	0.063	-0.158
-172.939	256.029	0.033	-0.055
-171.925	800.000	-0.071	0.286
-170.910	-6.465	-0.344	0.232
-169.896	-134.599	0.150	-0.018
-168.881	-200.000	-0.011	-0.058
-167.866	105.057	-0.093	0.109
-166.852	800.000	-0.059	0.184
-165.837	-14.894	0.193	-0.122
-164.823	98.224	0.119	-0.136
-163.808	783.547	0.064	0.174
-162.793	676.377	0.156	0.399
-161.779	111.766	0.178	0.212
-160.764	386.408	-0.033	0.068
-159.750	-140.612	-0.120	0.012
-158.735	80.079	0.060	-0.064
-157.720	113.984	0.123	-0.148
-156.706	105.239	0.191	-0.223
-155.691	278.844	-0.186	0.328
-154.677	360.600	0.054	-0.107
-153.662	-49.966	0.145	0.068
-152.647	18.175	-0.072	0.057
-151.633	-45.677	0.087	0.042
-150.618	-145.093	-0.055	-0.005
-149.604	420.814	0.055	0.116
-148.589	-82.646	-0.156	-0.050
-147.574	-40.415	0.073	-0.037
-146.560	-200.000	0.028	0.134
-145.545	800.000	-0.052	-0.194
-144.531	-73.757	0.267	0.096
-143.516	-23.328	0.180	0.107
-142.502	17.563	0.107	-0.084
-141.487	64.003	-0.267	-0.265
-140.472	-31.783	-0.064	-0.035
-139.458	-97.231	-0.269	0.069
-138.443	29.196	0.039	-0.033
-137.429	-19.148	0.206	-0.126
-136.414	359.977	0.118	0.234
-135.399	-69.108	0.159	0.060
-134.385	-29.380	0.168	0.095
-133.370	-78.959	0.082	0.028
-132.356	-26.213	-0.119	-0.069
-131.341	151.730	0.149	0.200
-130.326	160.358	0.060	0.082
-129.312	660.827	-0.105	0.268
-128.297	-157.710	0.239	0.014
-127.283	-74.676	-0.057	-0.020
-126.268	35.607	-0.325	-0.282
-125.253	-182.946	0.216	0.004
-124.239	800.000	0.052	0.167
-123.224	-7.593	-0.156	0.104
-122.210	86.828	-0.146	0.159
-121.195	-5.353	-0.363	0.246
