DTS Sentinel unit serial number:	SN413079Multiplexer serial number:	ORYXHardware model number:	OX4-SRSoftware version number:	ORYX F/W v4.00 Oryx Data Collector v3.7.2.0data status	okinstallation	princeton_trtdifferential loss correction	single-endedforward channel	channel 3reverse channel	N/Adate	2019/09/18time	08:16:35forward acquisition time	60.00reverse acquisition time	0.00gamma	496.2192k internal	0.2341k external	0.2341temperature offset calibration	0.9946default loss term (dB/km)	0.3790temperature slope calibration	1.0000multiplexer offset coefficient	1.0000multiplexer slope coefficient	1.0000fibre end	0.00T internal ref (°C)	23.98T ext. ref 1 (°C)	0.21T ext. ref 2 (°C)	19.62length (m)	temperature (°C)	Stokes	anti-Stokes-747.200	-200.000	-0.009	-0.156
-746.185	354.326	0.116	0.231
-745.171	-129.329	0.353	-0.049
-744.156	-129.761	-0.397	0.055
-743.142	15.667	0.284	0.224
-742.127	-200.000	-0.020	0.116
-741.112	-200.000	0.029	0.169
-740.098	162.720	-0.230	0.324
-739.083	-114.023	0.251	0.049
-738.069	-8.222	-0.443	0.299
-737.054	-200.000	-0.003	0.064
-736.039	-163.038	-0.392	-0.019
-735.025	-69.938	-0.084	-0.032
-734.010	-111.714	-0.153	0.031
-732.996	-50.545	0.248	-0.117
-731.981	296.384	-0.155	-0.284
-730.966	-75.153	-0.218	0.078
-729.952	116.093	0.017	-0.021
-728.937	191.987	0.023	0.035
-727.923	-32.566	0.090	0.050
-726.908	242.743	0.131	0.220
-725.894	-179.329	-0.087	-0.002
-724.879	200.350	-0.099	0.152
-723.864	-102.879	-0.387	0.092
-722.850	-101.430	0.312	-0.076
-721.835	-91.489	-0.119	0.034
-720.821	-200.000	-0.051	0.299
-719.806	-200.000	0.028	0.202
-718.791	-11.403	0.289	-0.191
-717.777	320.448	-0.171	-0.325
-716.762	-89.891	0.037	-0.011
-715.748	-34.559	0.067	0.037
-714.733	222.619	0.068	0.109
-713.718	800.000	0.072	-0.296
-712.704	-189.526	0.140	0.002
-711.689	800.000	-0.032	-0.115
-710.675	-200.000	0.018	0.162
-709.660	534.521	-0.116	-0.275
-708.645	99.079	0.194	-0.225
-707.631	-97.408	-0.320	-0.083
-706.616	498.130	-0.142	0.326
-705.602	93.628	-0.234	0.266
-704.587	-200.000	-0.018	0.247
-703.572	800.000	0.053	0.147
-702.558	-200.000	0.042	0.223
-701.543	-200.000	-0.022	0.158
-700.529	180.185	0.188	0.275
-699.514	-155.680	-0.307	0.020
-698.499	276.432	0.200	-0.355
-697.485	800.000	0.097	-0.273
-696.470	64.813	-0.153	-0.155
-695.456	-200.000	0.033	0.296
-694.441	382.749	-0.101	0.207
-693.426	-200.000	-0.003	0.170
-692.412	263.437	0.053	-0.092
-691.397	-137.119	-0.307	0.035
-690.383	85.813	0.322	0.354
-689.368	-121.172	-0.629	-0.105
-688.354	46.843	-0.080	-0.075
-687.339	-137.921	0.301	0.034
-686.324	0.206	-0.300	0.214
-685.310	34.744	0.142	-0.124
-684.295	0.257	0.233	-0.166
-683.281	-38.565	0.217	0.114
-682.266	220.766	-0.089	-0.142
-681.251	216.305	-0.159	-0.253
-680.237	527.098	-0.036	-0.086
-679.222	616.081	0.076	0.192
-678.208	4.178	0.204	-0.149
-677.193	11.439	-0.123	0.094
-676.178	566.170	-0.026	0.064
-675.164	36.574	-0.182	0.160
-674.149	103.835	-0.262	0.308
-673.135	102.168	-0.282	-0.329
-672.120	444.340	-0.070	0.154
-671.105	-85.216	0.135	0.042
-670.091	2.360	0.349	0.252
-669.076	-138.442	0.224	-0.025
-668.062	-114.433	-0.460	0.088
-667.047	-78.868	0.600	0.204
-666.032	423.400	-0.079	-0.170
-665.018	-133.293	-0.288	0.036
-664.003	-28.185	-0.179	-0.103
-662.989	-200.000	-0.010	0.057
-661.974	-57.589	-0.200	0.087
-660.959	487.417	0.119	0.270
-659.945	-151.862	0.156	-0.011
-658.930	292.139	0.197	0.357
-657.916	174.786	0.308	-0.445
-656.901	31.333	0.047	0.041
-655.886	626.026	-0.099	-0.250
-654.872	-49.871	0.181	0.086
-653.857	-44.663	-0.400	0.200
-652.843	240.989	0.104	0.173
-651.828	127.098	-0.122	-0.154
-650.814	-200.000	-0.052	0.333
-649.799	2.982	-0.233	0.169
-648.784	-85.176	0.073	-0.023
-647.770	13.136	-0.243	0.188
-646.755	195.863	0.038	0.058
-645.741	449.146	-0.141	-0.310
-644.726	38.107	0.141	0.125
-643.711	274.233	-0.062	-0.110
-642.697	-72.382	0.330	0.122
-641.682	-200.000	0.044	-0.402
-640.668	-200.000	-0.057	0.427
-639.653	-65.943	-0.274	0.109
-638.638	239.139	-0.091	0.151
-637.624	-92.970	-0.239	-0.066
-636.609	172.402	-0.142	-0.204
-635.595	203.031	0.143	0.221
-634.580	800.000	0.066	0.189
-633.565	-93.872	-0.273	-0.075
-632.551	186.311	-0.069	-0.102
-631.536	-98.001	-0.325	-0.084
-630.522	212.204	-0.110	0.173
-629.507	-106.035	-0.300	-0.067
-628.492	800.000	-0.064	-0.267
-627.478	76.504	0.102	0.108
-626.463	-200.000	0.010	0.103
-625.449	372.523	0.038	0.077
-624.434	20.304	-0.145	-0.117
-623.419	345.364	0.088	-0.172
-622.405	-105.520	-0.252	-0.057
-621.390	711.642	-0.044	-0.116
-620.376	-116.312	-0.293	0.054
-619.361	268.037	0.153	0.267
-618.346	674.587	-0.108	-0.280
-617.332	-200.000	0.029	-0.171
-616.317	21.681	-0.365	0.296
-615.303	-200.000	0.039	-0.190
-614.288	-48.100	0.336	-0.162
-613.273	-78.849	0.427	0.145
-612.259	-200.000	0.015	0.065
-611.244	-12.366	-0.281	0.183
-610.230	-198.975	-0.165	-0.001
-609.215	-166.436	0.313	-0.013
-608.201	-23.204	-0.041	-0.025
-607.186	-69.846	0.205	0.078
-606.171	20.705	-0.235	-0.190
-605.157	638.041	-0.124	-0.315
-604.142	-90.700	0.348	0.100
-603.128	69.501	-0.129	-0.132
-602.113	142.255	0.138	0.182
-601.098	-44.061	-0.101	0.051
-600.084	-2.943	-0.068	-0.047
-599.069	-152.546	-0.397	0.028
-598.055	610.243	-0.102	0.253
-597.040	-57.644	0.059	-0.026
-596.025	-145.407	0.276	0.025
-595.011	-78.989	-0.131	-0.044
-593.996	-200.000	0.016	-0.363
-592.982	228.206	-0.044	0.072
-591.967	-106.717	0.326	0.072
-590.952	-135.701	-0.161	0.019
-589.938	-84.369	0.306	-0.096
-588.923	13.511	-0.178	0.138
-587.909	-200.000	-0.031	0.175
-586.894	-200.000	0.046	-0.213
-585.879	800.000	0.018	0.062
-584.865	-80.866	-0.107	0.035
-583.850	800.000	-0.031	-0.088
-582.836	-112.263	0.313	0.063
-581.821	800.000	0.012	0.038
-580.806	15.877	-0.100	-0.079
-579.792	-57.040	0.178	-0.078
-578.777	-73.319	0.182	-0.066
-577.763	32.024	0.116	0.100
-576.748	-56.248	0.183	0.081
-575.733	445.495	-0.114	-0.249
-574.719	197.306	0.255	-0.387
-573.704	-200.000	0.026	-0.124
-572.690	15.251	-0.256	0.199
-571.675	-200.000	0.046	0.280
-570.661	5.622	-0.220	-0.162
-569.646	-81.624	-0.208	-0.068
-568.631	182.375	-0.056	0.083
-567.617	800.000	-0.108	0.305
-566.602	-95.834	-0.133	-0.035
-565.588	-93.159	0.137	-0.038
-564.573	-0.673	0.180	0.127
-563.558	32.570	-0.120	0.103
-562.544	-48.285	0.035	-0.017
-561.529	365.907	-0.056	-0.113
-560.515	441.530	-0.046	0.101
-559.500	422.350	-0.128	0.273
-558.485	257.033	0.069	0.118
-557.471	-77.068	0.159	-0.055
-556.456	-23.624	-0.130	0.078
-555.442	679.763	0.137	-0.355
-554.427	-200.000	0.002	-0.118
-553.412	800.000	-0.079	-0.255
-552.398	800.000	0.073	-0.210
-551.383	-188.190	0.280	0.004
-550.369	800.000	-0.055	0.216
-549.354	800.000	-0.031	-0.135
-548.339	-102.580	0.314	-0.075
-547.325	800.000	0.061	-0.252
-546.310	-200.000	-0.107	0.593
-545.296	-107.861	-0.547	0.118
-544.281	-94.321	-0.128	0.035
-543.266	800.000	0.057	0.180
-542.252	-200.000	0.010	0.291
-541.237	15.706	0.027	-0.021
-540.223	-169.619	0.292	0.011
-539.208	-200.000	-0.022	-0.131
-538.193	84.018	0.337	0.366
-537.179	659.233	-0.088	0.224
-536.164	16.641	-0.118	0.093
-535.150	-71.572	0.232	0.086
-534.135	-200.000	0.032	0.145
-533.121	800.000	-0.084	0.349
-532.106	-98.295	-0.102	0.026
-531.091	106.724	-0.073	0.086
-530.077	80.220	0.297	0.318
-529.062	593.835	0.111	-0.272
-528.048	-95.236	-0.445	0.119
-527.033	800.000	0.050	-0.144
-526.018	443.528	0.034	0.074
-525.004	-35.422	0.422	-0.228
-523.989	143.487	0.280	0.371
-522.975	800.000	-0.081	0.255
-521.960	-71.887	-0.275	0.102
-520.945	226.921	0.026	0.043
-519.931	-200.000	-0.008	0.077
-518.916	-75.882	0.114	0.040
-517.902	62.503	-0.217	0.215
-516.887	187.149	0.124	0.184
-515.872	75.479	-0.063	0.066
-514.858	443.741	0.064	-0.138
-513.843	521.676	0.146	-0.340
-512.829	-110.164	-0.263	-0.055
-511.814	-124.466	0.171	-0.026
-510.799	800.000	-0.055	0.231
-509.785	-33.868	0.156	-0.085
-508.770	381.219	-0.066	0.135
-507.756	235.939	-0.035	-0.057
-506.741	-68.132	0.199	-0.077
-505.726	-87.031	-0.336	-0.102
-504.712	-33.764	-0.423	0.231
-503.697	-74.401	0.204	-0.073
-502.683	-61.272	-0.275	0.115
-501.668	-200.000	-0.063	-0.289
-500.653	130.998	0.355	-0.453
-499.639	-77.918	-0.315	-0.108
-498.624	800.000	0.087	-0.264
-497.610	-164.959	0.318	-0.014
-496.595	-55.468	-0.184	0.082
-495.581	305.435	0.094	0.172
-494.566	100.148	0.091	-0.105
-493.551	0.177	-0.060	-0.042
-492.537	-200.000	-0.002	-0.043
-491.522	110.874	-0.141	0.168
-490.508	276.332	-0.126	-0.222
-489.493	-62.104	0.141	-0.058
-488.478	62.031	0.209	0.207
-487.464	720.180	-0.103	0.272
-486.449	52.160	-0.127	0.120
-485.435	-144.777	0.212	-0.019
-484.420	-115.687	-0.322	-0.060
-483.405	-90.119	0.264	-0.076
-482.391	-9.335	0.162	-0.108
-481.376	28.438	0.150	-0.126
-480.362	95.584	-0.177	0.200
-479.347	515.182	0.133	-0.309
-478.332	-44.319	0.196	-0.097
-477.318	484.852	-0.052	-0.117
-476.303	571.732	-0.065	0.157
-475.289	800.000	-0.032	0.114
-474.274	29.560	-0.145	-0.122
-473.259	800.000	0.086	-0.257
-472.245	-7.464	0.104	-0.070
-471.230	-194.615	-0.171	-0.001
-470.216	13.143	-0.161	0.124
-469.201	-88.401	0.231	-0.069
-468.186	-132.859	0.349	-0.044
-467.172	557.713	-0.013	0.032
-466.157	-116.429	-0.195	-0.036
-465.143	206.568	-0.194	0.299
-464.128	14.420	-0.253	0.196
-463.113	-62.249	-0.212	-0.087
-462.099	-61.619	-0.078	0.032
-461.084	800.000	0.046	-0.198
-460.070	-95.503	-0.175	-0.047
-459.055	-130.443	0.334	-0.045
-458.040	130.400	-0.163	-0.207
-457.026	800.000	0.038	-0.157
-456.011	-200.000	0.008	-0.178
-454.997	-106.057	0.323	0.072
-453.982	492.886	0.027	0.062
-452.968	198.471	0.161	0.245
-451.953	800.000	-0.041	-0.165
-450.938	21.117	-0.259	0.208
-449.924	800.000	0.055	0.224
-448.909	-145.444	0.298	-0.027
-447.895	355.309	-0.116	0.228
-446.880	545.452	-0.087	0.207
-445.865	-65.049	0.100	-0.040
-444.851	-20.454	-0.188	0.115
-443.836	800.000	0.070	-0.272
-442.822	325.954	-0.087	0.166
-441.807	800.000	0.077	-0.266
-440.792	339.350	0.047	-0.091
-439.778	-81.737	-0.174	-0.056
-438.763	-200.000	0.061	-0.294
-437.749	193.192	-0.151	-0.227
-436.734	-22.240	-0.176	0.105
-435.719	168.391	-0.032	-0.045
-434.705	-35.454	-0.123	-0.066
-433.690	-200.000	-0.168	-0.001
-432.676	-32.571	-0.199	-0.110
-431.661	-60.186	0.099	-0.042
-430.646	11.289	-0.086	-0.065
-429.632	205.682	0.155	0.239
-428.617	-116.905	-0.265	-0.048
-427.603	-87.747	-0.083	-0.025
-426.588	35.778	-0.293	-0.255
-425.573	800.000	0.080	-0.247
-424.559	-91.096	0.066	0.019
-423.544	386.180	-0.087	0.177
-422.530	-24.646	0.236	-0.139
-421.515	65.426	0.188	0.188
-420.500	81.231	-0.090	0.096
-419.486	324.438	0.091	-0.172
-418.471	228.383	-0.069	-0.111
-417.457	31.573	0.235	-0.200
-416.442	296.813	-0.045	0.082
-415.428	100.698	0.113	-0.130
-414.413	197.063	-0.102	0.154
-413.398	-163.742	-0.211	-0.010
-412.384	-200.000	-0.014	0.339
-411.369	623.987	0.063	0.158
-410.355	92.302	-0.086	-0.096
-409.340	-108.502	-0.079	0.017
-408.325	-200.000	-0.009	-0.255
-407.311	-3.780	0.211	-0.145
-406.296	-28.312	0.063	0.036
-405.282	800.000	-0.075	0.289
-404.267	-200.000	0.005	0.443
-403.252	-166.256	-0.206	-0.009
-402.238	187.981	0.048	-0.070
-401.223	-200.000	-0.001	-0.320
-400.209	-129.251	0.251	0.035
-399.194	-146.709	-0.171	0.015
-398.179	-109.086	0.369	-0.078
-397.165	-128.141	-0.173	0.024
-396.150	-200.000	0.002	-0.067
-395.136	24.496	-0.053	0.044
-394.121	-105.263	-0.341	-0.077
-393.106	-200.000	0.000	0.417
-392.092	103.220	0.218	0.253
-391.077	174.099	-0.196	0.279
-390.063	100.037	0.071	0.081
-389.048	43.139	-0.188	0.170
-388.033	688.534	-0.092	-0.239
-387.019	-35.388	0.243	-0.131
-386.004	-76.677	-0.359	0.124
-384.990	-9.832	0.092	-0.060
-383.975	93.842	0.088	-0.099
-382.960	15.957	0.247	0.192
-381.946	-133.384	-0.243	-0.030
-380.931	-82.055	-0.194	-0.063
-379.917	-105.715	-0.244	-0.054
-378.902	-20.764	-0.194	-0.117
-377.888	56.822	0.311	-0.299
-376.873	441.273	-0.115	-0.249
-375.858	319.869	-0.191	-0.358
-374.844	4.805	0.224	0.163
-373.829	-200.000	0.014	-0.310
-372.815	-8.011	0.048	-0.032
-371.800	145.031	0.049	-0.065
-370.785	-200.000	-0.039	0.205
-369.771	631.073	-0.173	0.432
-368.756	159.127	-0.166	-0.227
-367.742	641.435	0.096	-0.241
-366.727	13.102	-0.053	0.040
-365.712	392.210	0.068	0.139
-364.698	641.372	-0.033	0.082
-363.683	122.168	-0.204	0.252
-362.669	368.399	-0.108	0.215
-361.654	-200.000	-0.038	-0.345
-360.639	-200.000	0.014	0.183
-359.625	649.078	0.085	-0.215
-358.610	402.102	-0.050	0.103
-357.596	-200.000	-0.072	0.441
-356.581	-75.225	-0.228	0.081
-355.566	800.000	-0.066	0.186
-354.552	-163.693	0.191	0.009
-353.537	27.687	0.168	-0.140
-352.523	58.250	0.355	-0.344
-351.508	189.905	-0.199	-0.294
-350.493	800.000	0.028	0.097
-349.479	58.969	-0.207	0.200
-348.464	800.000	0.019	-0.060
-347.450	-73.342	0.049	0.018
-346.435	-25.096	-0.230	-0.134
-345.420	517.364	-0.035	0.082
-344.406	-200.000	-0.005	-0.123
-343.391	21.031	-0.226	0.181
-342.377	20.602	0.033	0.026
-341.362	321.572	0.024	-0.046
-340.348	276.191	0.153	-0.268
-339.333	31.008	0.239	-0.202
-338.318	-200.000	0.065	-0.295
-337.304	373.971	0.121	-0.242
-336.289	-13.242	-0.182	0.117
-335.275	-130.989	0.184	-0.024
-334.260	16.249	0.190	-0.148
-333.245	373.332	-0.121	-0.243
-332.231	-127.935	-0.054	0.008
-331.216	239.070	0.094	-0.153
-330.202	-174.961	-0.183	-0.005
-329.187	4.319	0.317	0.229
-328.172	-49.289	0.231	-0.109
-327.158	-80.820	0.299	0.098
-326.143	800.000	0.042	-0.114
-325.129	-116.479	0.435	-0.079
-324.114	800.000	0.052	0.217
-323.099	800.000	0.122	-0.412
-322.085	-17.436	0.022	0.014
-321.070	305.643	0.107	0.196
-320.056	73.350	-0.173	0.179
-319.041	-175.869	-0.293	-0.008
-318.026	132.941	0.087	0.111
-317.012	-107.692	-0.158	-0.034
-315.997	324.447	0.136	0.255
-314.983	800.000	-0.052	-0.200
-313.968	-116.489	-0.307	0.056
-312.953	58.586	0.157	0.152
-311.939	49.909	0.051	-0.047
-310.924	73.365	-0.152	-0.157
-309.910	-16.912	-0.266	0.166
-308.895	-200.000	-0.041	0.323
-307.880	-200.000	-0.043	0.239
-306.866	-133.910	-0.274	-0.034
-305.851	800.000	0.088	-0.265
-304.837	63.796	0.066	0.065
-303.822	-165.150	0.085	-0.004
-302.807	-200.000	-0.024	0.112
-301.793	380.370	-0.007	0.014
-300.778	78.459	0.138	0.145
-299.764	156.863	-0.133	-0.182
-298.749	-200.000	-0.040	-0.285
-297.735	-20.107	0.154	-0.094
-296.720	-84.252	-0.202	-0.063
-295.705	67.229	-0.093	-0.093
-294.691	800.000	-0.012	-0.036
-293.676	-109.119	0.169	-0.035
-292.662	724.175	0.034	0.089
-291.647	428.177	0.150	-0.319
-290.632	800.000	-0.066	-0.226
-289.618	305.383	0.105	0.192
-288.603	29.943	0.079	-0.066
-287.589	-86.800	-0.239	-0.072
-286.574	800.000	-0.086	0.248
-285.559	204.802	-0.210	0.321
-284.545	-17.731	0.116	-0.072
-283.530	390.925	0.087	0.179
-282.516	-200.000	0.000	-0.125
-281.501	-200.000	-0.004	0.083
-280.486	157.350	0.080	0.109
-279.472	-99.843	0.120	0.030
-278.457	800.000	0.116	-0.422
-277.443	231.645	0.142	-0.229
-276.428	800.000	-0.066	0.185
-275.413	800.000	-0.016	-0.056
-274.399	-6.029	-0.219	0.148
-273.384	560.826	-0.090	-0.215
-272.370	-52.505	0.050	0.023
-271.355	-51.246	0.119	-0.055
-270.340	-200.000	-0.005	-0.074
-269.326	-110.688	0.248	-0.050
-268.311	-105.037	0.173	-0.039
-267.297	8.934	-0.243	-0.181
-266.282	392.804	0.084	-0.172
-265.267	574.266	0.094	0.226
-264.253	146.456	-0.207	0.273
-263.238	-105.237	0.372	0.083
-262.224	31.876	0.205	0.173
-261.209	195.307	0.085	-0.128
-260.195	-200.000	0.021	0.145
-259.180	-200.000	0.071	0.399
-258.165	91.689	0.179	-0.198
-257.151	800.000	-0.063	0.256
-256.136	206.295	0.247	-0.378
-255.122	-135.436	-0.258	-0.030
-254.107	-99.802	-0.060	0.015
-253.092	-52.244	0.228	0.104
-252.078	-33.531	-0.201	0.109
-251.063	67.596	-0.209	0.210
-250.049	100.177	-0.203	0.232
-249.034	190.348	-0.080	0.118
-248.019	800.000	0.118	0.342
-247.005	16.913	-0.433	0.337
-245.990	-200.000	0.034	0.351
-244.976	135.135	0.038	0.048
-243.961	800.000	-0.016	-0.066
-242.946	800.000	-0.081	0.234
-241.932	46.468	-0.196	-0.179
-240.917	-69.866	-0.309	0.116
-239.903	-76.966	-0.119	0.041
-238.888	-99.734	-0.109	-0.027
-237.873	800.000	0.043	-0.130
-236.859	-74.195	0.076	-0.027
-235.844	42.062	0.491	0.437
-234.830	189.899	-0.086	-0.127
-233.815	28.000	0.115	-0.095
-232.800	-87.935	0.382	0.113
-231.786	-168.807	-0.184	0.007
-230.771	-92.459	-0.341	0.094
-229.757	167.698	-0.133	-0.185
-228.742	5.382	-0.272	-0.197
-227.727	327.114	0.173	-0.326
-226.713	89.438	-0.107	-0.117
-225.698	60.250	-0.115	0.112
-224.684	-130.855	0.358	0.047
-223.669	-173.924	0.138	-0.004
-222.655	-83.954	0.150	0.047
-221.640	-48.059	0.286	-0.136
-220.625	-27.837	0.057	-0.032
-219.611	103.414	0.182	0.210
-218.596	-200.000	0.040	-0.429
-217.582	-200.000	-0.054	-0.324
-216.567	-200.000	-0.050	-0.377
-215.552	777.598	0.072	-0.194
-214.538	-148.053	0.304	-0.025
-213.523	408.298	0.037	-0.076
-212.509	383.462	-0.129	-0.260
-211.494	164.623	0.159	-0.220
-210.479	-87.700	-0.390	-0.116
-209.465	350.274	-0.157	-0.304
-208.450	-54.710	0.233	0.103
-207.436	-200.000	-0.001	0.015
-206.421	-186.665	0.128	0.002
-205.406	-200.000	-0.044	-0.256
-204.392	45.726	0.216	0.195
-203.377	-13.729	0.045	0.029
-202.363	236.987	-0.138	0.225
-201.348	577.777	0.150	0.359
-200.333	-21.246	0.114	-0.068
-199.319	217.092	-0.120	-0.187
-198.304	170.299	0.107	-0.150
-197.290	-111.532	0.445	0.089
-196.275	0.982	0.133	-0.094
-195.260	23.647	-0.043	-0.034
-194.246	-200.000	-0.006	0.228
-193.231	-200.000	0.017	0.363
-192.217	6.642	0.142	-0.103
-191.202	-115.540	0.224	-0.041
-190.187	-200.000	-0.048	-0.284
-189.173	-200.000	0.031	0.265
-188.158	-193.389	-0.227	-0.002
-187.144	78.202	-0.044	-0.046
-186.129	249.676	0.052	-0.087
-185.114	-45.466	0.427	-0.207
-184.100	586.919	0.020	0.048
-183.085	759.515	0.076	0.203
-182.071	-96.361	0.100	0.026
-181.056	403.443	-0.117	-0.241
-180.042	180.112	-0.129	0.185
-179.027	-57.126	0.105	0.045
-178.012	-200.000	-0.031	-0.147
-176.998	153.828	-0.188	0.253
-175.983	-200.000	-0.042	0.327
-174.969	182.807	0.163	0.236
-173.954	-53.745	0.172	0.077
-172.939	-134.093	-0.209	0.025
-171.925	800.000	0.126	-0.371
-170.910	345.956	0.083	-0.159
-169.896	158.688	0.164	-0.224
-168.881	-151.575	-0.254	-0.018
-167.866	-200.000	0.064	0.360
-166.852	-200.000	-0.197	-0.000
-165.837	-86.693	0.250	-0.075
-164.823	-154.888	0.090	-0.006
-163.808	-167.750	0.199	0.008
-162.793	-87.683	0.167	0.049
-161.779	151.174	0.052	-0.069
-160.764	-200.000	-0.011	0.268
-159.750	-77.648	-0.202	0.068
-158.735	-58.909	-0.161	-0.068
-157.720	182.225	0.172	-0.249
-156.706	-177.754	0.182	-0.004
-155.691	259.602	0.062	-0.105
-154.677	-112.190	-0.379	0.075
-153.662	100.955	0.122	0.139
-152.647	84.018	-0.113	-0.121
-151.633	800.000	-0.044	-0.137
-150.618	-69.076	0.400	0.151
-149.604	-52.727	0.296	0.134
-148.589	-200.000	-0.044	0.348
-147.574	57.150	0.261	0.249
-146.560	-200.000	0.039	0.208
-145.545	-200.000	-0.017	-0.223
-144.531	17.088	-0.162	0.125
-143.516	-45.813	0.289	0.140
-142.502	196.823	0.226	0.337
-141.487	65.645	-0.128	0.127
-140.472	-128.043	-0.211	0.030
-139.458	-200.000	-0.029	0.225
-138.443	-21.589	0.196	0.117
-137.429	-200.000	-0.032	0.336
-136.414	-10.750	0.374	0.242
-135.399	4.040	-0.190	0.136
-134.385	-113.534	0.175	0.034
-133.370	-107.335	0.168	-0.036
-132.356	-200.000	0.005	0.290
-131.341	-200.000	-0.008	0.357
-130.326	800.000	-0.036	0.119
-129.312	146.003	-0.067	-0.088
-128.297	108.992	-0.277	0.324
-127.283	56.002	-0.161	-0.153
-126.268	577.302	-0.088	-0.210
-125.253	169.460	-0.136	-0.190
-124.239	800.000	0.052	-0.184
-123.224	30.338	0.476	-0.397
-122.210	-137.334	0.417	0.046
-121.195	-200.000	-0.034	-0.210
-120.180	800.000	-0.082	0.287
