DTS Sentinel unit serial number:	SN413079Multiplexer serial number:	ORYXHardware model number:	OX4-SRSoftware version number:	ORYX F/W v4.00 Oryx Data Collector v3.7.2.0data status	okinstallation	princeton_trtdifferential loss correction	single-endedforward channel	channel 3reverse channel	N/Adate	2019/09/17time	02:04:35forward acquisition time	60.00reverse acquisition time	0.00gamma	496.2192k internal	0.2324k external	0.2324temperature offset calibration	0.9937default loss term (dB/km)	0.3790temperature slope calibration	1.0000multiplexer offset coefficient	1.0000multiplexer slope coefficient	1.0000fibre end	0.00T internal ref (°C)	29.69T ext. ref 1 (°C)	0.11T ext. ref 2 (°C)	24.57length (m)	temperature (°C)	Stokes	anti-Stokes-747.200	150.029	0.187	-0.256
-746.185	54.108	-0.115	0.112
-745.171	-200.000	0.049	0.271
-744.156	-1.605	0.101	0.072
-743.142	180.740	0.100	-0.148
-742.127	-3.136	-0.271	0.191
-741.112	1.808	0.172	0.125
-740.098	-200.000	0.024	0.181
-739.083	-200.000	-0.030	-0.238
-738.069	-52.786	0.172	-0.080
-737.054	-24.421	0.127	0.077
-736.039	-24.768	-0.191	0.115
-735.025	431.026	0.101	0.221
-734.010	-148.000	-0.146	-0.012
-732.996	23.423	-0.241	-0.200
-731.981	191.007	0.131	0.199
-730.966	-94.526	-0.161	-0.044
-729.952	20.313	0.197	0.160
-728.937	-167.401	-0.337	0.014
-727.923	-139.678	-0.221	0.024
-726.908	800.000	0.042	-0.164
-725.894	800.000	0.105	0.452
-724.879	-75.911	-0.039	-0.014
-723.864	-200.000	0.013	-0.370
-722.850	-200.000	-0.006	-0.253
-721.835	-118.642	-0.201	-0.036
-720.821	-58.190	-0.207	-0.091
-719.806	-200.000	-0.004	-0.055
-718.791	-113.839	0.115	0.023
-717.777	-59.592	-0.048	-0.021
-716.762	401.200	0.146	-0.309
-715.748	79.881	-0.155	-0.168
-714.733	205.500	0.277	-0.434
-713.718	-122.697	0.244	-0.040
-712.704	-157.680	0.123	0.007
-711.689	150.804	0.184	-0.252
-710.675	198.688	-0.105	0.161
-709.660	-200.000	0.047	0.225
-708.645	-41.316	-0.225	-0.117
-707.631	96.352	0.142	-0.164
-706.616	3.177	-0.130	-0.095
-705.602	-60.081	-0.036	0.016
-704.587	422.946	-0.051	-0.111
-703.572	800.000	-0.088	-0.274
-702.558	800.000	-0.095	-0.319
-701.543	57.548	-0.126	-0.124
-700.529	248.067	-0.051	0.087
-699.514	328.105	0.023	0.045
-698.499	-200.000	0.013	0.151
-697.485	25.487	-0.239	0.200
-696.470	-200.000	-0.031	-0.283
-695.456	-32.484	-0.118	-0.066
-694.441	-49.746	-0.099	-0.047
-693.426	-19.032	-0.077	-0.048
-692.412	-76.210	0.489	-0.174
-691.397	-200.000	-0.001	-0.022
-690.383	800.000	0.025	-0.093
-689.368	-200.000	0.003	0.146
-688.354	-49.208	0.059	0.029
-687.339	721.191	-0.154	0.411
-686.324	-12.146	-0.208	-0.137
-685.310	-54.921	0.152	-0.069
-684.295	-200.000	-0.259	-0.001
-683.281	90.012	0.239	-0.268
-682.266	64.863	-0.323	-0.329
-681.251	-189.171	-0.338	0.004
-680.237	72.368	-0.225	0.237
-679.222	-57.010	0.188	0.084
-678.208	-64.934	-0.127	0.052
-677.193	-98.418	0.261	0.067
-676.178	438.298	0.204	0.449
-675.164	-140.880	0.109	-0.011
-674.149	34.884	0.092	0.081
-673.135	800.000	-0.038	0.162
-672.120	-166.620	0.220	0.009
-671.105	8.394	-0.274	0.207
-670.091	-171.478	-0.421	0.014
-669.076	-37.725	0.211	0.113
-668.062	-41.769	0.050	0.026
-667.047	336.682	-0.067	-0.131
-666.032	800.000	0.072	-0.252
-665.018	-200.000	0.024	0.282
-664.003	161.067	0.092	0.129
-662.989	800.000	-0.050	-0.219
-661.974	694.471	0.161	-0.425
-660.959	-200.000	0.024	0.176
-659.945	-96.930	-0.145	-0.038
-658.930	46.784	-0.194	0.182
-657.916	-163.639	-0.184	-0.009
-656.901	-104.892	-0.516	0.119
-655.886	0.955	-0.341	-0.246
-654.872	-82.156	-0.166	0.054
-653.857	-200.000	-0.035	-0.304
-652.843	119.371	-0.251	-0.313
-651.828	-200.000	0.015	0.114
-650.814	-36.056	0.101	-0.055
-649.799	109.490	-0.178	-0.215
-648.784	325.591	0.142	-0.273
-647.770	-103.856	0.094	-0.022
-646.755	162.509	-0.083	0.117
-645.741	800.000	0.023	0.098
-644.726	170.713	0.181	-0.261
-643.711	120.158	0.029	0.036
-642.697	-73.810	-0.201	0.074
-641.682	95.909	0.040	0.046
-640.668	800.000	0.053	-0.167
-639.653	135.396	-0.192	0.251
-638.638	-137.878	-0.128	-0.014
-637.624	-200.000	0.005	-0.238
-636.609	-102.147	0.217	-0.052
-635.595	486.787	-0.115	0.264
-634.580	0.733	0.128	0.092
-633.565	-155.434	-0.278	-0.018
-632.551	69.999	0.184	0.191
-631.536	-200.000	-0.006	-0.221
-630.522	53.242	-0.044	-0.042
-629.507	-200.000	0.019	0.286
-628.492	164.177	-0.086	0.122
-627.478	-48.328	-0.185	-0.090
-626.463	-81.073	0.089	0.030
-625.449	-200.000	-0.004	-0.079
-624.434	-123.469	0.161	0.026
-623.419	-200.000	0.112	-0.548
-622.405	-77.174	-0.098	0.034
-621.390	800.000	-0.022	-0.082
-620.376	165.838	-0.135	0.192
-619.361	102.311	0.035	0.041
-618.346	-50.046	-0.211	0.100
-617.332	-64.171	-0.161	0.066
-616.317	-1.224	-0.140	0.099
-615.303	97.388	0.090	-0.104
-614.288	436.825	0.045	-0.099
-613.273	-186.123	-0.232	0.003
-612.259	217.139	-0.094	0.151
-611.244	381.170	-0.082	0.170
-610.230	-62.307	-0.072	0.030
-609.215	-200.000	-0.012	0.245
-608.201	162.901	-0.061	0.087
-607.186	-182.196	-0.189	0.004
-606.171	800.000	-0.053	0.182
-605.157	-160.851	0.356	-0.019
-604.142	-106.585	0.189	-0.042
-603.128	-31.356	0.168	-0.095
-602.113	13.746	0.221	0.172
-601.098	153.538	0.128	0.176
-600.084	276.410	-0.040	0.071
-599.069	-70.218	-0.258	0.098
-598.055	270.309	0.182	-0.322
-597.040	-0.466	0.280	-0.200
-596.025	295.504	-0.195	-0.358
-595.011	171.708	0.354	-0.510
-593.996	-94.026	0.171	0.047
-592.982	360.261	-0.118	-0.236
-591.967	111.040	0.088	-0.106
-590.952	800.000	0.009	-0.038
-589.938	71.077	0.167	0.173
-588.923	-200.000	-0.015	0.126
-587.909	800.000	0.084	-0.234
-586.894	5.929	0.138	-0.102
-585.879	75.354	0.156	-0.165
-584.865	-124.988	-0.044	0.007
-583.850	-200.000	0.003	-0.035
-582.836	-169.876	0.433	-0.016
-581.821	139.943	0.232	0.307
-580.806	230.356	-0.160	0.263
-579.792	800.000	0.024	-0.082
-578.777	-25.392	-0.197	0.117
-577.763	127.130	-0.209	-0.266
-576.748	14.239	0.236	-0.184
-575.733	108.013	-0.097	-0.115
-574.719	-118.396	-0.279	-0.050
-573.704	-70.250	-0.271	-0.103
-572.690	54.553	0.075	0.073
-571.675	90.035	-0.253	-0.283
-570.661	-200.000	0.005	-0.488
-569.646	239.230	0.089	0.148
-568.631	-200.000	0.001	-0.008
-567.617	-160.566	-0.106	0.006
-566.602	800.000	0.044	-0.188
-565.588	-160.235	0.042	0.002
-564.573	84.110	0.066	0.072
-563.558	-117.676	-0.064	-0.012
-562.544	-50.354	-0.300	0.142
-561.529	-32.613	-0.199	-0.111
-560.515	-127.207	0.058	0.008
-559.500	-150.232	0.536	-0.042
-558.485	-74.451	0.120	-0.043
-557.471	-38.728	-0.142	0.075
-556.456	-200.000	0.011	0.302
-555.442	-35.641	0.291	0.158
-554.427	81.951	-0.241	-0.262
-553.412	800.000	-0.076	0.321
-552.398	-188.846	-0.438	-0.005
-551.383	-200.000	-0.025	-0.131
-550.369	-19.005	0.154	0.096
-549.354	800.000	-0.135	0.471
-548.339	188.781	-0.199	0.298
-547.325	-74.872	0.295	-0.106
-546.310	41.255	-0.143	-0.130
-545.296	-0.295	0.277	0.197
-544.281	92.902	0.132	-0.150
-543.266	65.636	-0.073	-0.074
-542.252	380.106	0.137	-0.282
-541.237	-200.000	0.023	0.163
-540.223	69.167	-0.350	-0.360
-539.208	445.806	-0.149	0.327
-538.193	800.000	0.039	0.116
-537.179	-83.850	-0.232	-0.074
-536.164	335.796	0.061	0.119
-535.150	677.867	0.076	0.198
-534.135	13.471	-0.146	0.113
-533.121	-99.379	-0.323	-0.082
-532.106	-200.000	0.026	0.219
-531.091	71.872	0.011	0.011
-530.077	800.000	0.106	-0.304
-529.062	-186.277	0.376	-0.005
-528.048	-95.880	0.088	-0.023
-527.033	189.219	-0.079	-0.118
-526.018	-25.426	-0.228	0.135
-525.004	161.308	0.113	0.159
-523.989	-107.609	0.318	-0.070
-522.975	-200.000	0.055	0.247
-521.960	-200.000	0.032	0.173
-520.945	408.090	-0.102	0.216
-519.931	800.000	-0.050	0.172
-518.916	-200.000	0.004	0.158
-517.902	181.356	0.163	0.240
-516.887	59.543	-0.093	0.091
-515.872	-200.000	-0.015	-0.300
-514.858	137.838	-0.060	-0.078
-513.843	-73.000	0.145	0.053
-512.829	-198.825	-0.114	0.001
-511.814	800.000	0.089	0.302
-510.799	-172.903	-0.173	0.005
-509.785	-200.000	-0.015	-0.074
-508.770	-44.580	-0.132	-0.066
-507.756	800.000	-0.043	-0.189
-506.741	-27.736	-0.238	0.138
-505.726	-28.606	-0.102	0.058
-504.712	251.312	0.051	-0.087
-503.697	534.253	0.121	0.286
-502.683	800.000	0.032	0.096
-501.668	226.908	0.060	0.098
-500.653	-17.015	-0.283	0.179
-499.639	-0.590	0.343	-0.243
-498.624	-200.000	0.040	-0.238
-497.610	358.665	0.051	-0.103
-496.595	-33.312	0.039	0.022
-495.581	-95.461	0.119	0.032
-494.566	-23.827	0.160	0.096
-493.551	154.865	-0.128	0.176
-492.537	-118.127	-0.361	0.064
-491.522	74.083	-0.091	-0.095
-490.508	14.685	-0.119	-0.093
-489.493	800.000	-0.011	-0.042
-488.478	203.080	-0.157	-0.242
-487.464	680.357	0.085	-0.221
-486.449	-200.000	-0.033	-0.186
-485.435	163.738	-0.066	-0.092
-484.420	-167.285	0.214	0.009
-483.405	-71.672	-0.183	0.068
-482.391	800.000	0.025	-0.107
-481.376	-57.523	-0.292	0.128
-480.362	-120.519	0.293	-0.050
-479.347	-200.000	-0.014	0.090
-478.332	-172.958	0.145	0.004
-477.318	-69.616	-0.186	-0.071
-476.303	800.000	-0.062	-0.221
-475.289	-89.144	0.215	0.063
-474.274	-110.537	0.160	-0.033
-473.259	399.550	0.110	-0.231
-472.245	-200.000	-0.021	0.416
-471.230	39.449	-0.254	0.227
-470.216	-42.075	0.122	0.063
-469.201	-121.573	-0.228	-0.038
-468.186	-200.000	0.017	-0.169
-467.172	-54.940	-0.134	-0.060
-466.157	-200.000	0.020	-0.175
-465.143	-4.403	-0.156	-0.108
-464.128	105.794	-0.184	-0.217
-463.113	-200.000	0.005	0.089
-462.099	1.835	-0.125	-0.090
-461.084	-200.000	-0.007	-0.071
-460.070	800.000	0.018	-0.053
-459.055	800.000	0.068	0.200
-458.040	-200.000	0.060	-0.377
-457.026	52.161	0.321	-0.305
-456.011	-10.534	0.345	-0.228
-454.997	86.315	0.037	-0.041
-453.982	-62.702	-0.104	-0.043
-452.968	-65.105	0.226	0.091
-451.953	-136.818	0.186	0.021
-450.938	302.149	0.069	-0.128
-449.924	48.932	-0.298	-0.279
-448.909	24.105	-0.061	0.051
-447.895	-200.000	-0.029	-0.240
-446.880	800.000	-0.025	0.083
-445.865	-200.000	0.030	0.239
-444.851	22.874	-0.245	0.200
-443.836	179.269	-0.110	-0.160
-442.822	-80.455	-0.102	-0.034
-441.807	-200.000	0.024	0.314
-440.792	209.795	0.104	0.162
-439.778	-200.000	-0.041	0.237
-438.763	-44.070	0.238	-0.119
-437.749	216.381	-0.114	0.181
-436.734	-200.000	-0.004	0.145
-435.719	491.777	0.205	-0.468
-434.705	-149.326	-0.276	-0.022
-433.690	207.697	0.033	0.052
-432.676	98.981	0.148	0.170
-431.661	-139.069	0.088	0.010
-430.646	213.491	-0.124	-0.195
-429.632	800.000	-0.098	-0.331
-428.617	-60.192	0.172	0.073
-427.603	684.037	-0.054	0.139
-426.588	-57.892	0.286	-0.125
-425.573	-140.267	-0.248	0.026
-424.559	-145.049	-0.212	-0.019
-423.544	-57.496	0.128	0.056
-422.530	87.261	-0.023	0.026
-421.515	492.925	-0.114	-0.260
-420.500	266.714	0.142	-0.247
-419.486	-200.000	-0.013	0.208
-418.471	-166.369	0.234	0.010
-417.457	608.642	0.048	-0.120
-416.442	-200.000	0.014	0.275
-415.428	-23.171	0.638	-0.383
-414.413	800.000	0.026	-0.076
-413.398	91.795	-0.147	-0.165
-412.384	-200.000	0.052	0.313
-411.369	42.305	-0.247	0.224
-410.355	-144.100	-0.210	-0.020
-409.340	-200.000	0.017	0.201
-408.325	800.000	0.042	-0.128
-407.311	-61.588	-0.218	-0.091
-406.296	576.011	0.083	0.203
-405.282	-165.428	0.278	-0.012
-404.267	-200.000	-0.027	0.156
-403.252	-150.807	-0.265	-0.020
-402.238	-89.489	0.180	0.053
-401.223	-158.683	0.154	0.009
-400.209	57.074	-0.154	-0.150
-399.194	-102.490	0.143	0.034
-398.179	-142.227	0.345	-0.034
-397.165	82.843	-0.179	0.194
-396.150	257.864	-0.067	-0.115
-395.136	11.408	0.182	0.138
-394.121	800.000	0.032	-0.113
-393.106	800.000	0.063	0.224
-392.092	-110.914	0.099	0.020
-391.077	800.000	0.067	0.233
-390.063	-102.143	-0.318	0.076
-389.048	-66.833	-0.297	0.117
-388.033	-45.760	0.249	-0.123
-387.019	729.781	-0.191	-0.508
-386.004	396.930	-0.119	-0.247
-384.990	-200.000	0.013	0.106
-383.975	15.309	0.112	0.088
-382.960	-19.367	-0.205	-0.127
-381.946	-120.241	0.252	0.043
-380.931	-142.249	0.142	0.014
-379.917	334.574	0.016	0.031
-378.902	505.447	0.062	-0.142
-377.888	800.000	0.111	-0.376
-376.873	50.667	-0.047	0.044
-375.858	5.991	0.196	-0.144
-374.844	-82.919	0.427	-0.137
-373.829	500.124	-0.064	-0.148
-372.815	-104.485	0.360	0.083
-371.800	91.707	-0.144	0.161
-370.785	507.782	0.126	-0.291
-369.771	-126.138	0.367	0.055
-368.756	55.582	-0.046	0.045
-367.742	-200.000	0.044	-0.343
-366.727	800.000	-0.086	-0.293
-365.712	126.809	-0.169	-0.213
-364.698	617.277	0.058	-0.145
-363.683	357.512	0.120	-0.238
-362.669	211.130	0.055	-0.086
-361.654	-200.000	-0.014	0.076
-360.639	646.073	0.058	0.147
-359.625	-143.681	-0.063	-0.006
-358.610	-25.935	0.264	-0.155
-357.596	800.000	0.110	0.379
-356.581	-64.419	-0.037	-0.015
-355.566	153.619	-0.059	0.080
-354.552	434.134	0.053	0.114
-353.537	373.318	0.014	0.028
-352.523	-63.757	-0.257	0.105
-351.508	-44.733	-0.153	0.076
-350.493	442.424	-0.078	0.169
-349.479	455.377	-0.177	-0.390
-348.464	38.171	0.011	-0.010
-347.450	-17.927	0.049	0.030
-346.435	-189.580	-0.152	-0.002
-345.420	-158.208	0.294	0.017
-344.406	-200.000	-0.008	0.051
-343.391	413.482	0.091	-0.193
-342.377	258.704	-0.041	-0.070
-341.362	-86.225	0.226	0.069
-340.348	-137.103	-0.152	0.017
-339.333	164.116	-0.085	0.119
-338.318	65.764	0.194	0.195
-337.304	36.172	0.021	0.019
-336.289	752.352	-0.032	-0.087
-335.275	13.287	-0.196	0.151
-334.260	-37.894	-0.314	-0.166
-333.245	-78.556	0.046	0.016
-332.231	-82.329	-0.063	0.020
-331.216	217.816	0.100	0.158
-330.202	-74.146	-0.185	0.067
-329.187	-27.179	-0.336	-0.195
-328.172	-131.390	0.329	0.043
-327.158	-200.000	-0.008	-0.110
-326.143	54.956	0.065	0.063
-325.129	-19.594	0.147	0.091
-324.114	-65.273	-0.208	0.083
-323.099	-25.266	0.312	0.183
-322.085	-56.120	-0.046	0.021
-321.070	186.809	0.312	0.462
-320.056	-120.278	0.232	0.039
-319.041	251.585	0.123	0.208
-318.026	-35.189	0.147	0.079
-317.012	193.066	-0.151	0.226
-315.997	388.809	-0.155	0.319
-314.983	-200.000	-0.026	-0.226
-313.968	800.000	-0.061	-0.175
-312.953	-200.000	0.045	-0.203
-311.939	-89.979	-0.267	0.077
-310.924	123.855	-0.151	-0.189
-309.910	-130.006	0.304	0.041
-308.895	800.000	0.151	0.427
-307.880	-91.863	0.140	-0.039
-306.866	794.158	0.063	0.172
-305.851	-200.000	0.031	-0.168
-304.837	226.827	0.153	0.247
-303.822	-34.664	-0.236	0.128
-302.807	292.266	-0.217	-0.392
-301.793	53.872	-0.351	0.334
-300.778	800.000	0.089	0.366
-299.764	-200.000	0.011	0.052
-298.749	800.000	0.018	0.073
-297.735	142.506	0.171	0.225
-296.720	800.000	0.082	0.326
-295.705	-145.302	0.117	-0.010
-294.691	-200.000	-0.020	0.157
-293.676	32.269	0.266	-0.228
-292.662	795.230	0.145	-0.395
-291.647	-142.125	-0.253	-0.025
-290.632	226.669	0.201	0.323
-289.618	2.249	0.205	-0.147
-288.603	281.105	-0.104	-0.185
-287.589	-200.000	0.032	-0.175
-286.574	10.826	0.065	-0.049
-285.559	221.792	-0.101	0.161
-284.545	10.479	-0.035	-0.026
-283.530	235.987	0.097	0.159
-282.516	20.805	0.146	0.117
-281.501	33.741	-0.036	0.031
-280.486	121.096	-0.126	-0.155
-279.472	-89.340	-0.222	-0.065
-278.457	-169.905	0.109	0.004
-277.443	255.157	0.079	-0.134
-276.428	800.000	-0.072	0.244
-275.413	-8.557	0.045	0.030
-274.399	95.835	0.139	0.157
-273.384	-6.980	0.220	-0.148
-272.370	-75.990	-0.043	0.015
-271.355	-200.000	0.072	0.321
-270.340	800.000	0.046	0.151
-269.326	38.141	-0.203	-0.179
-268.311	-94.489	-0.491	0.133
-267.297	131.738	-0.172	0.219
-266.282	-153.171	0.162	0.011
-265.267	299.722	-0.080	-0.145
-264.253	103.079	-0.102	0.119
-263.238	800.000	-0.103	-0.427
-262.224	800.000	-0.099	-0.332
-261.209	-102.601	-0.195	-0.046
-260.195	98.392	0.180	-0.206
-259.180	-61.038	0.254	0.106
-258.165	-6.000	-0.307	-0.208
-257.151	-200.000	0.018	0.187
-256.136	800.000	-0.081	-0.238
-255.122	-200.000	-0.058	-0.354
-254.107	20.576	0.268	0.215
-253.092	187.709	0.060	-0.088
-252.078	113.833	0.151	0.182
-251.063	-83.138	-0.458	0.146
-250.049	-200.000	-0.020	0.159
-249.034	-200.000	0.009	0.142
-248.019	800.000	0.053	0.158
-247.005	37.415	0.134	-0.118
-245.990	-200.000	0.013	0.236
-244.976	73.053	-0.086	-0.089
-243.961	71.277	0.221	-0.227
-242.946	-194.720	0.206	-0.002
-241.932	-72.667	-0.353	0.129
-240.917	364.349	-0.061	-0.122
-239.903	222.701	0.029	-0.047
-238.888	-124.397	0.238	0.037
-237.873	-200.000	-0.041	-0.353
-236.859	-128.651	0.277	-0.039
-235.844	204.227	-0.069	0.105
-234.830	-16.114	0.151	0.095
-233.815	-200.000	-0.025	0.235
-232.800	-44.390	0.289	0.143
-231.786	581.015	-0.164	0.399
-230.771	566.270	0.138	0.331
-229.757	-155.757	0.300	-0.019
-228.742	-136.686	-0.125	0.014
-227.727	-200.000	-0.010	-0.089
-226.713	-181.236	0.221	0.004
-225.698	-72.508	0.231	-0.084
-224.684	519.994	0.073	-0.169
-223.669	-200.000	0.015	-0.102
-222.655	75.269	-0.093	-0.097
-221.640	312.669	-0.140	0.260
-220.625	-36.881	-0.177	-0.094
-219.611	167.373	-0.048	-0.068
-218.596	-101.950	-0.164	0.039
-217.582	12.546	-0.141	0.107
-216.567	120.272	-0.173	-0.212
-215.552	797.820	-0.070	-0.191
-214.538	800.000	0.009	-0.028
-213.523	-114.791	-0.211	0.040
-212.509	-200.000	0.023	0.197
-211.494	-200.000	0.048	0.260
-210.479	-138.947	-0.316	-0.034
-209.465	72.998	-0.212	0.219
-208.450	227.294	0.143	-0.229
-207.436	-200.000	-0.067	-0.321
-206.421	69.439	-0.043	-0.044
-205.406	547.937	0.018	-0.043
-204.392	-108.074	-0.165	0.035
-203.377	-200.000	-0.052	0.253
-202.363	-111.080	0.265	0.054
-201.348	800.000	0.032	0.115
-200.333	289.278	0.035	0.063
-199.319	13.855	0.119	-0.092
-198.304	-145.306	-0.132	0.012
-197.290	800.000	-0.145	-0.443
-196.275	368.111	-0.099	0.198
-195.260	800.000	-0.055	-0.230
-194.246	-36.735	0.274	0.145
-193.231	181.553	0.083	-0.120
-192.217	317.305	-0.116	0.216
-191.202	-168.284	-0.035	-0.001
-190.187	138.989	-0.069	-0.089
-189.173	637.041	-0.056	-0.140
-188.158	-26.608	0.126	-0.073
-187.144	-144.843	0.131	-0.012
-186.129	226.207	0.104	-0.167
-185.114	-200.000	-0.015	0.069
-184.100	-111.414	0.270	-0.054
-183.085	31.099	-0.386	-0.327
-182.071	741.716	0.078	0.208
-181.056	42.540	0.026	0.024
-180.042	-69.038	-0.176	0.067
-179.027	-78.475	-0.359	-0.121
-178.012	-50.502	-0.319	-0.149
-176.998	800.000	0.103	0.323
-175.983	249.298	0.139	-0.232
-174.969	-66.064	0.199	0.078
-173.954	-37.365	0.175	0.092
-172.939	-32.121	-0.138	0.076
-171.925	-133.339	0.176	-0.022
-170.910	-200.000	-0.000	0.572
-169.896	-104.947	-0.321	0.073
-168.881	-51.683	-0.114	-0.052
-167.866	43.530	0.077	-0.069
-166.852	-123.464	-0.189	-0.030
-165.837	333.966	0.075	-0.144
-164.823	800.000	-0.065	-0.191
-163.808	361.282	0.216	0.428
-162.793	-143.776	0.366	0.034
-161.779	-193.157	-0.191	0.002
-160.764	-134.420	-0.086	-0.010
-159.750	-95.567	-0.117	0.031
-158.735	290.311	-0.081	-0.146
-157.720	67.565	-0.090	0.091
-156.706	-166.169	-0.295	-0.012
-155.691	-14.072	-0.139	0.089
-154.677	-200.000	-0.025	-0.202
-153.662	48.555	-0.196	-0.181
-152.647	732.441	-0.081	-0.215
-151.633	156.367	-0.194	0.264
-150.618	448.840	-0.130	0.283
-149.604	64.937	0.145	0.145
-148.589	-23.007	-0.286	-0.170
-147.574	265.187	-0.146	-0.250
-146.560	-200.000	0.044	-0.237
-145.545	49.776	-0.073	-0.068
-144.531	-38.118	-0.327	-0.171
-143.516	-151.874	0.236	-0.017
-142.502	138.282	0.165	-0.214
-141.487	-50.736	0.229	-0.106
-140.472	35.302	0.143	0.124
-139.458	-200.000	-0.068	0.313
-138.443	31.368	0.069	0.058
-137.429	572.574	0.055	-0.131
-136.414	800.000	0.054	0.154
-135.399	-24.038	-0.070	-0.041
-134.385	-200.000	0.036	-0.203
-133.370	-186.894	0.084	-0.001
-132.356	-200.000	0.005	0.169
-131.341	4.157	-0.202	-0.146
-130.326	800.000	0.095	-0.308
-129.312	-26.156	-0.184	-0.106
-128.297	800.000	0.013	-0.044
-127.283	-54.205	-0.295	0.132
-126.268	24.088	-0.114	-0.093
-125.253	187.329	0.087	0.127
-124.239	800.000	0.049	0.210
-123.224	277.282	0.162	0.284
-122.210	800.000	-0.019	0.068
-121.195	34.844	0.153	0.132
