DTS Sentinel unit serial number:	SN413079Multiplexer serial number:	ORYXHardware model number:	OX4-SRSoftware version number:	ORYX F/W v4.00 Oryx Data Collector v3.7.2.0data status	okinstallation	princeton_trtdifferential loss correction	single-endedforward channel	channel 3reverse channel	N/Adate	2019/09/12time	19:34:03forward acquisition time	15.00reverse acquisition time	0.00gamma	496.2192k internal	0.2322k external	0.2322temperature offset calibration	1.0119default loss term (dB/km)	0.3790temperature slope calibration	1.0000multiplexer offset coefficient	1.0000multiplexer slope coefficient	1.0000fibre end	0.00T internal ref (°C)	32.19T ext. ref 1 (°C)	3.31T ext. ref 2 (°C)	26.78length (m)	temperature (°C)	Stokes	anti-Stokes-747.200	800.000	-0.177	-0.496
-746.185	182.437	0.448	-0.668
-745.171	169.058	0.341	0.492
-744.156	493.064	0.175	0.406
-743.142	800.000	-0.414	-1.224
-742.127	-27.820	0.307	0.180
-741.112	-123.923	1.096	-0.174
-740.098	309.053	0.323	-0.611
-739.083	-200.000	0.020	-0.155
-738.069	800.000	-0.003	-0.010
-737.054	228.615	-0.321	0.528
-736.039	800.000	0.260	-0.801
-735.025	12.252	-0.457	-0.356
-734.010	-180.051	0.587	-0.013
-732.996	-200.000	-0.039	0.390
-731.981	77.329	-0.152	-0.164
-730.966	-89.083	-0.465	0.139
-729.952	208.883	-0.414	-0.654
-728.937	182.553	-0.299	-0.445
-727.923	-149.449	-0.764	0.061
-726.908	-145.345	-0.682	0.062
-725.894	-56.367	0.999	0.448
-724.879	800.000	-0.162	-0.509
-723.864	48.620	-0.618	-0.585
-722.850	-113.456	0.384	0.076
-721.835	1.671	-0.539	0.392
-720.821	-151.263	-0.132	-0.010
-719.806	150.691	-0.406	0.557
-718.791	34.768	1.046	-0.924
-717.777	400.048	0.298	0.631
-716.762	-200.000	-0.020	0.092
-715.748	-200.000	0.042	-0.208
-714.733	2.914	0.229	-0.168
-713.718	81.121	-0.671	-0.731
-712.704	-153.128	0.551	0.039
-711.689	-28.632	0.546	0.317
-710.675	-104.316	1.473	0.345
-709.660	-127.750	0.619	0.090
-708.645	-154.219	-0.917	-0.062
-707.631	205.767	-0.046	-0.072
-706.616	516.241	-0.177	0.418
-705.602	34.695	-0.042	0.037
-704.587	-105.155	0.708	0.163
-703.572	-200.000	-0.002	0.419
-702.558	-34.769	-0.411	0.226
-701.543	225.284	0.175	0.286
-700.529	-39.725	0.380	0.201
-699.514	-30.265	-0.697	-0.399
-698.499	-18.443	0.027	-0.017
-697.485	39.949	-0.602	-0.545
-696.470	-6.153	-0.544	-0.375
-695.456	-71.788	-1.070	-0.402
-694.441	176.297	0.418	-0.612
-693.426	75.287	-0.051	0.055
-692.412	-200.000	-0.017	0.814
-691.397	11.370	-0.335	0.259
-690.383	171.462	0.335	0.486
-689.368	-65.985	0.223	0.090
-688.354	470.588	0.191	0.432
-687.339	-109.285	-0.967	-0.207
-686.324	-56.799	0.106	-0.047
-685.310	-200.000	-0.139	-0.880
-684.295	-162.675	-0.629	0.031
-683.281	-191.448	-0.414	0.004
-682.266	68.480	0.132	-0.136
-681.251	116.213	-0.194	0.240
-680.237	-145.860	0.800	-0.072
-679.222	-154.872	-1.137	0.076
-678.208	-128.070	-0.532	0.077
-677.193	-200.000	-0.014	0.369
-676.178	33.728	0.118	-0.104
-675.164	-200.000	-0.035	0.406
-674.149	-108.274	0.639	0.139
-673.135	138.956	-0.174	-0.231
-672.120	-22.183	-0.415	0.254
-671.105	-160.425	0.321	-0.017
-670.091	81.016	0.154	0.167
-669.076	302.115	-0.357	-0.666
-668.062	-77.386	-0.567	0.199
-667.047	212.839	-0.356	-0.566
-666.032	800.000	-0.110	-0.402
-665.018	-117.949	0.121	0.022
-664.003	-200.000	0.159	-0.780
-662.989	-200.000	-0.067	0.450
-661.974	24.665	-0.194	0.161
-660.959	-160.808	0.489	-0.026
-659.945	-8.716	-0.355	-0.240
-658.930	-85.511	0.342	0.107
-657.916	19.400	0.106	-0.086
-656.901	512.538	0.169	0.397
-655.886	-14.351	0.245	0.159
-654.872	-200.000	0.012	-0.847
-653.857	-115.633	0.402	-0.076
-652.843	-54.713	0.103	-0.047
-651.828	-200.000	-0.020	-0.244
-650.814	-200.000	-0.074	0.418
-649.799	-91.229	-0.465	-0.134
-648.784	207.553	-0.164	-0.257
-647.770	651.880	-0.283	0.729
-646.755	-200.000	-0.004	-0.110
-645.741	200.527	0.255	0.395
-644.726	398.097	-0.309	0.650
-643.711	-200.000	0.111	0.540
-642.697	18.460	-0.272	0.219
-641.682	-200.000	-0.054	0.636
-640.668	-93.336	-0.362	-0.101
-639.653	-35.646	0.367	-0.200
-638.638	-74.437	-0.363	-0.132
-637.624	317.493	0.555	-1.056
-636.609	-119.914	0.268	-0.046
-635.595	-77.934	0.449	-0.156
-634.580	-16.738	-0.215	0.137
-633.565	-200.000	0.082	-0.585
-632.551	264.927	0.427	-0.748
-631.536	-200.000	0.065	0.378
-630.522	-200.000	-0.016	-0.292
-629.507	381.602	-0.088	0.181
-628.492	-12.898	0.276	-0.180
-627.478	-200.000	0.018	0.529
-626.463	-77.762	-0.289	0.100
-625.449	100.400	-0.138	0.161
-624.434	-200.000	-0.153	0.816
-623.419	685.596	0.082	-0.215
-622.405	-162.713	-0.542	-0.027
-621.390	-200.000	0.011	0.386
-620.376	-104.391	0.420	-0.098
-619.361	27.125	-0.679	0.573
-618.346	-68.098	-0.470	0.184
-617.332	108.147	-0.239	-0.287
-616.317	-103.833	0.108	-0.025
-615.303	-113.196	0.788	0.156
-614.288	-151.224	0.406	-0.031
-613.273	-60.063	-0.809	-0.347
-612.259	-200.000	0.096	-0.965
-611.244	-70.373	0.291	0.111
-610.230	800.000	-0.106	0.346
-609.215	-116.949	-0.615	-0.113
-608.201	-46.154	-0.263	-0.130
-607.186	-200.000	-0.162	0.747
-606.171	-200.000	-0.089	-0.438
-605.157	-148.959	-0.855	-0.069
-604.142	800.000	0.127	0.553
-603.128	-198.789	-1.026	-0.006
-602.113	218.050	0.619	-0.992
-601.098	-76.488	0.477	0.168
-600.084	249.501	-0.331	-0.564
-599.069	-33.646	-0.767	-0.425
-598.055	-42.612	-0.285	0.146
-597.040	-200.000	0.021	0.987
-596.025	710.155	-0.209	0.555
-595.011	-46.427	0.885	0.437
-593.996	31.018	0.108	0.093
-592.982	164.043	-0.195	-0.276
-591.967	63.481	-0.118	0.119
-590.952	-49.476	0.372	-0.178
-589.938	800.000	0.166	0.675
-588.923	-200.000	0.008	0.312
-587.909	227.480	0.490	-0.801
-586.894	118.598	-0.436	0.540
-585.879	100.624	-0.207	0.241
-584.865	-44.885	-0.489	-0.245
-583.850	-168.080	-0.290	0.011
-582.836	11.269	0.449	-0.345
-581.821	-166.811	-1.509	-0.062
-580.806	619.103	0.114	-0.287
-579.792	775.326	0.167	-0.457
-578.777	800.000	-0.066	0.227
-577.763	-200.000	-0.079	-0.548
-576.748	537.465	0.109	0.260
-575.733	64.763	0.290	-0.294
-574.719	-121.419	-0.578	0.097
-573.704	-51.414	0.778	0.365
-572.690	-97.210	0.214	-0.056
-571.675	650.415	0.378	0.972
-570.661	-141.202	-1.033	-0.106
-569.646	-81.439	-0.913	0.302
-568.631	-200.000	-0.045	0.202
-567.617	57.491	-0.286	-0.281
-566.602	-105.361	-0.539	0.123
-565.588	163.403	0.129	-0.182
-564.573	460.371	-0.206	-0.460
-563.558	64.924	0.531	-0.538
-562.544	-200.000	0.103	-0.786
-561.529	239.291	-0.307	-0.513
-560.515	-66.583	-0.701	-0.279
-559.500	-32.683	0.984	0.549
-558.485	-107.091	0.270	0.060
-557.471	-76.247	-0.984	0.348
-556.456	800.000	0.081	0.234
-555.442	-200.000	0.039	0.202
-554.427	166.548	0.066	0.093
-553.412	-200.000	-0.260	-1.298
-552.398	458.525	0.108	-0.241
-551.383	-200.000	-0.025	0.292
-550.369	-200.000	0.010	-0.357
-549.354	-38.232	-0.439	-0.234
-548.339	-132.089	1.196	0.156
-547.325	-144.832	0.253	-0.023
-546.310	270.923	0.122	0.216
-545.296	60.036	0.491	-0.486
-544.281	-200.000	-0.073	-0.735
-543.266	164.328	0.200	0.283
-542.252	21.589	0.637	-0.520
-541.237	145.852	0.050	-0.067
-540.223	-76.500	0.892	-0.314
-539.208	800.000	-0.230	0.938
-538.193	101.121	-0.375	-0.437
-537.179	800.000	-0.296	1.116
-536.164	800.000	-0.076	-0.272
-535.150	-200.000	0.030	-0.646
-534.135	250.630	-0.268	-0.457
-533.121	67.606	0.485	0.497
-532.106	59.691	-0.246	0.243
-531.091	-60.886	-1.362	-0.578
-530.077	312.428	0.172	-0.324
-529.062	64.163	0.523	-0.528
-528.048	800.000	0.070	-0.228
-527.033	86.531	0.465	-0.514
-526.018	-97.805	-0.214	-0.055
-525.004	-200.000	0.026	0.812
-523.989	149.694	0.611	0.830
-522.975	165.957	-0.363	0.514
-521.960	-113.955	0.366	-0.071
-520.945	-139.792	-0.092	-0.010
-519.931	-109.906	0.756	-0.159
-518.916	800.000	-0.215	0.696
-517.902	-65.477	-0.615	0.248
-516.887	-200.000	0.098	-0.454
-515.872	228.347	0.334	0.545
-514.858	-60.458	0.789	-0.336
-513.843	75.981	0.277	-0.294
-512.829	238.586	-0.189	-0.315
-511.814	-147.301	-0.546	0.046
-510.799	-18.154	0.644	-0.403
-509.785	800.000	-0.092	0.349
-508.770	-42.207	-0.234	0.120
-507.756	-26.756	-0.104	0.061
-506.741	43.341	-0.521	-0.476
-505.726	-117.241	0.301	-0.055
-504.712	-122.820	-0.464	-0.075
-503.697	330.037	-0.227	-0.438
-502.683	-175.446	0.147	-0.004
-501.668	-34.464	-0.615	-0.337
-500.653	800.000	-0.146	0.563
-499.639	-89.021	-1.197	-0.354
-498.624	-66.759	-0.345	0.137
-497.610	-200.000	-0.101	-0.582
-496.595	-200.000	-0.065	-0.813
-495.581	-67.913	0.593	0.232
-494.566	226.925	-0.360	0.585
-493.551	-17.922	-0.139	-0.087
-492.537	-200.000	0.059	-0.357
-491.522	-126.465	-0.352	0.052
-490.508	184.449	0.266	0.395
-489.493	731.622	-0.114	0.306
-488.478	-155.526	0.640	-0.041
-487.464	-32.246	-0.462	0.258
-486.449	-146.144	0.192	0.017
-485.435	329.105	0.246	0.473
-484.420	217.988	-0.210	-0.334
-483.405	7.429	-0.517	-0.387
-482.391	800.000	-0.236	-0.718
-481.376	81.511	-0.698	-0.755
-480.362	-33.548	-0.716	0.395
-479.347	193.187	0.360	-0.544
-478.332	-28.338	-0.612	-0.353
-477.318	51.073	-0.515	-0.489
-476.303	334.549	-0.584	1.130
-475.289	-46.879	0.286	0.140
-474.274	25.867	0.612	0.510
-473.259	452.735	-0.383	0.847
-472.245	118.407	0.241	-0.298
-471.230	800.000	0.287	0.988
-470.216	-200.000	-0.043	-0.233
-469.201	15.635	-0.162	0.128
-468.186	88.446	0.774	-0.860
-467.172	-200.000	-0.177	0.878
-466.157	223.311	-0.158	-0.255
-465.143	730.178	-0.121	0.322
-464.128	183.063	-0.487	-0.719
-463.113	-200.000	-0.139	0.626
-462.099	-200.000	-0.047	0.280
-461.084	42.706	-0.372	-0.338
-460.070	490.563	0.322	0.736
-459.055	-95.771	-0.388	-0.103
-458.040	-200.000	-0.195	-1.345
-457.026	-41.775	0.607	-0.311
-456.011	-106.693	0.571	-0.127
-454.997	33.061	0.167	0.144
-453.982	264.616	-0.228	-0.396
-452.968	-84.959	0.505	0.158
-451.953	33.246	0.176	-0.153
-450.938	6.575	-0.398	-0.296
-449.924	79.836	0.294	0.316
-448.909	-149.604	0.839	0.066
-447.895	769.353	-0.093	0.253
-446.880	-200.000	-0.015	0.543
-445.865	-24.040	0.468	-0.279
-444.851	357.448	0.571	1.137
-443.836	-200.000	0.056	-1.072
-442.822	-109.755	0.194	-0.041
-441.807	-92.709	-0.281	-0.079
-440.792	-125.238	-0.631	-0.096
-439.778	329.993	0.290	-0.558
-438.763	-77.613	0.604	0.209
-437.749	-200.000	-0.064	-0.303
-436.734	-200.000	0.023	-0.807
-435.719	43.692	-0.519	-0.474
-434.705	-26.595	0.191	0.112
-433.690	-200.000	0.166	1.195
-432.676	-200.000	-0.052	-0.541
-431.661	674.182	0.550	1.424
-430.646	-200.000	0.135	0.667
-429.632	93.052	-0.380	0.429
-428.617	-30.963	0.644	0.363
-427.603	-10.376	0.509	0.337
-426.588	11.366	0.855	0.654
-425.573	-91.109	-0.381	-0.109
-424.559	-30.705	-0.548	-0.310
-423.544	-200.000	0.064	-0.704
-422.530	-4.794	-0.315	-0.217
-421.515	592.668	0.103	-0.255
-420.500	-7.057	-0.290	0.196
-419.486	-200.000	-0.004	0.710
-418.471	-62.744	-0.966	0.400
-417.457	-63.868	-0.311	-0.127
-416.442	-200.000	-0.046	-0.884
-415.428	-47.979	0.790	0.381
-414.413	640.677	-0.298	-0.756
-413.398	-85.425	-0.915	0.284
-412.384	-113.443	0.576	-0.113
-411.369	-83.631	0.323	-0.103
-410.355	79.299	-0.395	-0.423
-409.340	440.224	-0.154	0.336
-408.325	480.255	-0.109	0.247
-407.311	69.915	0.379	-0.390
-406.296	-24.168	0.330	0.196
-405.282	223.408	-0.458	-0.737
-404.267	112.238	0.185	0.223
-403.252	-200.000	-0.487	0.001
-402.238	-64.890	0.187	0.075
-401.223	-200.000	-0.031	0.839
-400.209	-166.705	-0.316	-0.013
-399.194	800.000	-0.148	0.483
-398.179	-35.243	-0.359	0.195
-397.165	42.776	0.541	0.492
-396.150	-45.844	-0.617	-0.304
-395.136	-39.847	0.658	0.343
-394.121	-200.000	0.011	1.247
-393.106	-131.999	-0.482	0.063
-392.092	68.810	0.797	-0.815
-391.077	-42.129	0.738	0.376
-390.063	800.000	0.209	-0.653
-389.048	-60.416	0.793	0.336
-388.033	-127.547	1.014	-0.147
-387.019	-200.000	0.101	1.040
-386.004	515.242	-0.159	-0.369
-384.990	435.399	0.113	-0.245
-383.975	-200.000	0.081	0.354
-382.960	-184.336	-0.339	0.006
-381.946	-104.944	0.197	-0.045
-380.931	-174.663	0.492	-0.014
-379.917	-200.000	0.041	-0.233
-378.902	-165.048	0.480	-0.021
-377.888	573.792	0.210	0.511
-376.873	-24.662	0.362	0.215
-375.858	132.806	0.450	-0.579
-374.844	-54.964	-0.358	0.161
-373.829	52.076	0.436	0.414
-372.815	646.212	0.096	-0.245
-371.800	24.141	0.198	-0.163
-370.785	800.000	-0.119	-0.352
-369.771	-182.791	-0.627	-0.011
-368.756	-200.000	0.051	0.692
-367.742	337.407	-0.229	0.442
-366.727	-200.000	-0.048	0.468
-365.712	74.622	-0.835	-0.874
-364.698	-6.435	0.867	0.588
-363.683	57.828	-0.936	0.912
-362.669	52.831	0.533	-0.508
-361.654	81.448	-0.197	0.212
-360.639	149.047	-0.525	0.707
-359.625	18.037	-0.609	-0.483
-358.610	520.365	0.083	-0.194
-357.596	-124.678	-0.466	-0.072
-356.581	-200.000	0.013	0.408
-355.566	800.000	-0.137	-0.509
-354.552	-200.000	0.089	0.761
-353.537	-200.000	0.050	0.584
-352.523	800.000	0.246	0.813
-351.508	47.894	-0.462	0.430
-350.493	-88.891	-0.228	0.067
-349.479	-19.966	-0.324	0.199
-348.464	61.039	-0.237	-0.235
-347.450	-179.737	0.915	0.020
-346.435	1.962	0.410	0.294
-345.420	-109.589	-0.568	0.119
-344.406	800.000	0.260	-1.006
-343.391	78.222	-0.206	0.218
-342.377	308.408	-0.178	-0.331
-341.362	800.000	-0.123	-0.370
-340.348	4.290	-0.191	0.139
-339.333	-94.882	0.200	-0.054
-338.318	126.176	0.284	0.358
-337.304	-40.140	0.821	0.426
-336.289	-94.176	0.598	-0.163
-335.275	-200.000	0.139	-0.625
-334.260	-51.975	0.111	-0.051
-333.245	781.845	-0.181	-0.493
-332.231	65.183	-0.463	0.465
-331.216	-200.000	0.085	-0.388
-330.202	87.204	0.682	-0.750
-329.187	-23.092	-0.574	0.344
-328.172	-200.000	0.168	0.867
-327.158	-28.939	-0.368	-0.210
-326.143	233.365	-0.354	0.580
-325.129	-200.000	-0.100	0.484
-324.114	190.507	-0.248	-0.370
-323.099	34.531	0.618	0.537
-322.085	-200.000	0.058	-0.671
-321.070	-200.000	-0.028	-0.214
-320.056	323.468	0.140	0.265
-319.041	785.268	0.145	0.395
-318.026	100.218	-0.381	-0.439
-317.012	258.095	-0.242	-0.414
-315.997	-26.260	-0.800	-0.467
-314.983	214.929	-0.216	0.340
-313.968	18.523	0.351	0.278
-312.953	461.622	0.269	-0.596
-311.939	-200.000	0.099	-0.991
-310.924	-200.000	-0.067	-0.685
-309.910	-2.073	0.479	-0.334
-308.895	52.406	0.205	0.195
-307.880	378.086	0.147	0.299
-306.866	-93.106	0.804	0.222
-305.851	-85.049	-0.436	-0.136
-304.837	93.766	0.434	0.488
-303.822	274.120	0.256	-0.450
-302.807	47.430	0.285	-0.264
-301.793	-108.844	-1.048	0.223
-300.778	800.000	-0.074	0.260
-299.764	-0.144	0.142	-0.100
-298.749	-132.634	0.529	-0.067
-297.735	-200.000	0.004	-0.767
-296.720	-200.000	-0.000	-1.006
-295.705	187.594	-0.405	-0.600
-294.691	-200.000	0.077	0.719
-293.676	-109.136	-0.450	-0.095
-292.662	251.956	-0.026	-0.044
-291.647	392.994	-0.097	0.200
-290.632	-104.948	0.349	0.080
-289.618	313.622	-0.241	-0.450
-288.603	-109.548	0.447	0.094
-287.589	-70.355	-0.395	0.149
-286.574	-162.534	-0.403	-0.020
-285.559	20.086	0.260	0.208
-284.545	773.980	0.188	0.510
-283.530	249.453	0.585	0.985
-282.516	129.396	0.215	0.272
-281.501	800.000	-0.087	-0.297
-280.486	800.000	-0.087	-0.246
-279.472	12.221	-0.204	-0.156
-278.457	446.733	0.180	-0.392
-277.443	-46.292	-0.394	0.192
-276.428	27.364	-0.282	-0.235
-275.413	94.707	-0.357	-0.402
-274.399	-14.061	-0.419	-0.268
-273.384	-149.982	-0.444	0.034
-272.370	4.064	0.455	-0.330
-271.355	-200.000	0.058	0.254
-270.340	-104.838	-0.350	-0.080
-269.326	91.097	0.348	0.388
-268.311	70.106	-0.169	0.173
-267.297	-200.000	-0.001	0.122
-266.282	52.233	0.205	0.194
-265.267	10.721	-0.058	0.044
-264.253	-84.105	-0.702	0.221
-263.238	79.401	0.310	-0.329
-262.224	728.086	-0.161	-0.427
-261.209	800.000	-0.188	0.523
-260.195	-112.355	-0.716	-0.142
-259.180	594.480	0.207	0.508
-258.165	800.000	-0.349	1.234
-257.151	-200.000	-0.071	-0.831
-256.136	257.425	-0.361	0.616
-255.122	-2.964	0.472	-0.327
-254.107	159.222	0.268	-0.369
-253.092	-200.000	0.004	0.560
-252.078	-32.463	0.792	-0.438
-251.063	38.519	-0.190	0.168
-250.049	800.000	0.197	-0.696
-249.034	738.306	0.219	0.581
-248.019	139.716	0.370	-0.483
-247.005	-200.000	0.041	0.357
-245.990	-200.000	0.002	0.674
-244.976	321.810	-0.138	0.259
-243.961	178.251	0.494	-0.714
-242.946	-130.230	-0.268	-0.036
-241.932	-200.000	0.141	-1.064
-240.917	-78.214	0.709	-0.241
-239.903	-64.547	-0.700	-0.282
-238.888	104.075	-0.484	-0.564
-237.873	-134.442	-0.491	-0.060
-236.859	64.001	-0.287	0.286
-235.844	118.588	0.369	0.451
-234.830	-200.000	0.204	-1.197
-233.815	-134.925	0.433	-0.052
-232.800	-138.106	0.252	-0.028
-231.786	-10.984	0.324	0.212
-230.771	131.533	-0.220	-0.280
-229.757	396.903	-0.089	-0.184
-228.742	66.991	-0.408	-0.412
-227.727	-200.000	-0.020	-0.498
-226.713	-118.297	0.253	-0.045
-225.698	76.133	-0.248	0.260
-224.684	-149.231	0.396	-0.031
-223.669	145.083	-0.319	0.423
-222.655	-200.000	0.000	0.214
-221.640	-93.456	-0.899	-0.246
-220.625	-200.000	-0.052	0.772
-219.611	35.488	0.901	-0.783
-218.596	800.000	0.068	0.185
-217.582	-115.698	-0.386	-0.072
-216.567	-200.000	-0.007	0.141
-215.552	-3.499	0.261	-0.180
-214.538	14.465	-0.702	-0.543
-213.523	502.618	-0.175	-0.401
-212.509	-200.000	-0.033	0.363
-211.494	21.124	0.493	0.396
-210.479	-110.429	0.323	-0.066
-209.465	-200.000	-0.005	-0.644
-208.450	19.182	0.513	-0.407
-207.436	-200.000	0.058	-0.598
-206.421	-89.234	-1.186	0.346
-205.406	-200.000	0.046	0.332
-204.392	-200.000	0.008	0.100
-203.377	-199.991	-0.492	0.002
-202.363	25.292	-0.396	0.325
-201.348	-69.568	0.950	-0.360
-200.333	174.442	-0.307	-0.440
-199.319	-1.498	0.853	-0.595
-198.304	-52.251	0.500	0.229
-197.290	15.946	-0.451	-0.351
-196.275	-200.000	0.073	-0.376
-195.260	123.347	-0.429	-0.532
-194.246	-160.393	-0.180	-0.010
-193.231	-130.617	-0.427	0.057
-192.217	70.468	-0.309	0.316
-191.202	-77.356	-0.740	0.254
-190.187	-200.000	0.085	-0.394
-189.173	800.000	-0.280	0.912
-188.158	2.511	0.376	0.269
-187.144	-200.000	-0.022	1.023
-186.129	-143.206	0.786	0.075
-185.114	-200.000	-0.005	1.035
-184.100	-75.567	-0.340	-0.120
-183.085	-200.000	0.040	0.498
-182.071	93.274	0.368	0.411
-181.056	48.017	-0.410	0.379
-180.042	-200.000	0.039	-0.784
-179.027	321.762	0.537	-1.009
-178.012	-75.858	0.439	0.154
-176.998	-42.297	0.708	0.357
-175.983	310.057	0.296	-0.548
-174.969	7.691	0.915	0.677
-173.954	-153.439	-0.265	-0.018
-172.939	-117.982	-0.938	-0.166
-171.925	-97.351	0.237	-0.061
-170.910	-36.801	0.603	0.320
-169.896	-145.155	0.332	0.030
-168.881	-22.751	0.252	-0.150
-167.866	-65.663	-0.252	0.100
-166.852	127.069	0.405	0.508
-165.837	800.000	-0.265	0.875
-164.823	-59.638	1.056	0.448
-163.808	-55.882	0.157	-0.069
-162.793	-200.000	0.105	-0.612
-161.779	575.650	0.188	0.453
-160.764	-200.000	0.015	-0.228
-159.750	-149.467	-0.580	-0.045
-158.735	800.000	-0.125	-0.405
-157.720	800.000	0.140	-0.428
-156.706	64.368	0.356	0.354
-155.691	453.078	0.202	-0.442
-154.677	591.259	0.277	-0.675
-153.662	-33.379	0.313	0.171
-152.647	-74.879	0.551	0.195
-151.633	72.634	0.120	0.123
-150.618	-43.464	0.992	0.495
-149.604	-200.000	-0.114	0.696
-148.589	-200.000	-0.040	0.182
-147.574	372.764	0.296	0.593
-146.560	112.802	0.350	0.418
-145.545	140.521	-0.537	0.700
-144.531	388.105	-0.129	0.263
-143.516	-105.325	0.830	0.187
-142.502	800.000	0.157	-0.531
-141.487	-158.921	0.656	0.037
-140.472	38.174	-0.498	0.437
-139.458	25.684	-0.121	-0.100
-138.443	201.711	-0.542	-0.824
-137.429	-78.892	1.528	-0.514
-136.414	-200.000	-0.018	0.151
-135.399	3.249	0.712	-0.511
-134.385	44.003	-0.477	0.431
-133.370	125.979	0.131	0.164
-132.356	-137.077	0.535	-0.060
-131.341	8.772	0.660	0.491
-130.326	122.756	-0.684	-0.844
-129.312	-62.687	-0.835	-0.342
-128.297	38.466	0.311	0.273
-127.283	-8.544	0.252	0.167
-126.268	-113.102	1.009	0.196
-125.253	72.482	0.382	0.392
-124.239	-97.983	-0.506	0.129
-123.224	-71.370	-0.714	-0.264
-122.210	-55.508	-0.648	0.286
