DTS Sentinel unit serial number:	SN413079Multiplexer serial number:	ORYXHardware model number:	OX4-SRSoftware version number:	ORYX F/W v4.00 Oryx Data Collector v3.7.2.0data status	okinstallation	princeton_trtdifferential loss correction	single-endedforward channel	channel 3reverse channel	N/Adate	2019/09/12time	16:14:11forward acquisition time	60.00reverse acquisition time	0.00gamma	496.2192k internal	0.2300k external	0.2300temperature offset calibration	1.0071default loss term (dB/km)	0.3790temperature slope calibration	1.0000multiplexer offset coefficient	1.0000multiplexer slope coefficient	1.0000fibre end	0.00T internal ref (°C)	38.25T ext. ref 1 (°C)	2.54T ext. ref 2 (°C)	31.03length (m)	temperature (°C)	Stokes	anti-Stokes-747.200	-104.714	0.207	0.049
-746.185	153.996	0.174	0.243
-745.171	-200.000	-0.044	0.269
-744.156	-200.000	0.038	0.348
-743.142	147.391	0.080	0.109
-742.127	-153.636	-0.384	0.027
-741.112	-19.331	-0.164	0.103
-740.098	-152.249	-0.270	-0.020
-739.083	-40.544	0.221	0.117
-738.069	8.355	-0.078	0.060
-737.054	-69.382	-0.185	0.072
-736.039	-32.487	-0.185	-0.105
-735.025	-147.698	0.242	-0.021
-734.010	-12.283	0.155	0.103
-732.996	-22.922	-0.169	0.104
-731.981	-200.000	0.029	0.142
-730.966	444.583	0.153	0.343
-729.952	-107.167	-0.253	-0.057
-728.937	800.000	-0.033	0.115
-727.923	-164.779	-0.197	0.009
-726.908	-200.000	-0.054	-0.300
-725.894	800.000	-0.049	-0.197
-724.879	-92.428	-0.151	0.043
-723.864	14.108	-0.209	0.166
-722.850	10.344	-0.078	0.061
-721.835	-66.939	0.178	-0.072
-720.821	-200.000	0.015	-0.131
-719.806	-200.000	0.012	-0.115
-718.791	-200.000	0.029	0.411
-717.777	-23.649	-0.291	0.178
-716.762	82.277	-0.092	-0.102
-715.748	321.716	0.127	0.246
-714.733	46.049	0.274	-0.258
-713.718	-200.000	-0.025	-0.427
-712.704	-21.753	-0.209	-0.130
-711.689	-200.000	-0.019	0.159
-710.675	-68.261	0.207	0.082
-709.660	79.172	0.118	0.129
-708.645	191.676	0.197	0.302
-707.631	-126.710	-0.054	-0.008
-706.616	52.273	0.303	0.294
-705.602	-56.133	0.066	0.030
-704.587	-167.264	0.230	0.009
-703.572	197.835	-0.146	0.228
-702.558	-10.846	-0.144	-0.097
-701.543	-88.274	-0.075	-0.023
-700.529	362.485	-0.081	0.166
-699.514	-120.253	-0.144	0.025
-698.499	118.052	0.123	0.154
-697.485	28.036	0.098	0.084
-696.470	-200.000	-0.045	-0.303
-695.456	-24.888	-0.274	-0.165
-694.441	4.462	-0.082	-0.061
-693.426	-48.659	-0.157	0.077
-692.412	161.583	-0.195	0.277
-691.397	-95.739	0.339	-0.092
-690.383	9.386	0.213	-0.164
-689.368	-51.618	-0.224	0.106
-688.354	-92.477	0.310	0.089
-687.339	-72.645	-0.177	0.067
-686.324	-72.995	0.352	0.132
-685.310	386.395	0.175	-0.368
-684.295	189.771	0.138	-0.210
-683.281	146.975	0.018	-0.024
-682.266	439.563	0.112	0.250
-681.251	37.365	-0.249	-0.225
-680.237	-30.682	-0.178	-0.102
-679.222	-138.005	0.130	-0.015
-678.208	-60.685	-0.286	0.123
-677.193	-200.000	-0.018	0.121
-676.178	-200.000	-0.009	0.302
-675.164	163.728	-0.221	-0.317
-674.149	-23.118	-0.335	-0.205
-673.135	-38.900	0.229	0.123
-672.120	25.640	-0.305	-0.258
-671.105	-69.872	-0.236	0.092
-670.091	60.889	0.143	0.144
-669.076	-18.580	-0.137	0.087
-668.062	800.000	-0.048	-0.156
-667.047	-42.564	-0.298	-0.154
-666.032	-98.213	-0.282	-0.074
-665.018	399.087	-0.114	-0.242
-664.003	-77.980	-0.351	-0.123
-662.989	-119.476	-0.189	0.033
-661.974	0.259	-0.016	0.012
-660.959	17.218	0.255	-0.206
-659.945	-200.000	0.021	-0.197
-658.930	181.154	0.083	-0.123
-657.916	62.358	0.259	-0.263
-656.901	92.901	0.007	0.008
-655.886	-200.000	-0.023	-0.415
-654.872	29.417	-0.117	0.101
-653.857	800.000	-0.074	-0.310
-652.843	-200.000	0.057	-0.351
-651.828	18.904	-0.374	-0.304
-650.814	74.294	-0.167	-0.179
-649.799	-115.839	0.348	-0.066
-648.784	-111.694	0.427	-0.088
-647.770	222.820	0.043	-0.071
-646.755	-71.216	0.080	0.030
-645.741	-49.294	-0.296	-0.144
-644.726	-200.000	0.004	-0.057
-643.711	-56.579	-0.121	0.055
-642.697	219.044	-0.100	0.162
-641.682	471.609	-0.111	-0.253
-640.668	-101.090	0.057	-0.014
-639.653	800.000	-0.116	0.477
-638.638	-23.450	-0.056	-0.034
-637.624	138.243	-0.072	-0.095
-636.609	-106.258	0.143	0.033
-635.595	247.723	-0.164	-0.282
-634.580	800.000	0.025	0.088
-633.565	246.805	0.138	-0.237
-632.551	-200.000	-0.001	-0.221
-631.536	800.000	0.024	-0.085
-630.522	-30.139	-0.305	-0.176
-629.507	-121.970	0.470	0.079
-628.492	-120.129	-0.278	-0.048
-627.478	-6.213	0.096	-0.066
-626.463	-21.330	-0.341	-0.212
-625.449	-141.366	0.250	-0.026
-624.434	-124.667	0.160	-0.025
-623.419	-61.459	-0.332	-0.142
-622.405	-94.270	0.194	0.054
-621.390	10.755	0.211	-0.163
-620.376	-200.000	-0.002	-0.163
-619.361	32.390	0.339	-0.297
-618.346	-26.315	0.160	0.095
-617.332	-67.874	0.135	0.053
-616.317	28.324	-0.019	0.016
-615.303	70.425	-0.231	-0.242
-614.288	-65.097	0.454	0.186
-613.273	99.748	-0.177	-0.207
-612.259	98.388	0.143	0.168
-611.244	335.014	-0.158	0.311
-610.230	402.390	-0.100	0.213
-609.215	800.000	0.009	-0.032
-608.201	334.715	-0.029	0.057
-607.186	-169.080	-0.195	0.007
-606.171	382.684	0.153	-0.319
-605.157	133.647	0.302	-0.396
-604.142	800.000	-0.038	-0.111
-603.128	146.626	0.181	0.247
-602.113	-39.737	-0.213	0.113
-601.098	27.859	0.064	0.055
-600.084	-64.731	-0.192	0.079
-599.069	-192.503	-0.309	0.003
-598.055	-29.800	0.237	0.137
-597.040	-120.388	0.100	0.017
-596.025	800.000	0.038	0.112
-595.011	-106.113	0.163	0.037
-593.996	116.500	0.195	-0.242
-592.982	82.159	0.259	0.285
-591.967	39.870	0.087	0.079
-590.952	-84.862	-0.162	0.052
-589.938	502.823	-0.074	-0.174
-588.923	25.970	-0.103	0.087
-587.909	-132.818	0.248	-0.032
-586.894	128.790	0.112	0.145
-585.879	-64.567	-0.160	-0.066
-584.865	105.578	0.120	-0.144
-583.850	31.122	-0.150	0.130
-582.836	-31.049	-0.260	0.149
-581.821	-200.000	-0.050	0.308
-580.806	-2.029	-0.094	-0.067
-579.792	83.148	-0.126	-0.139
-578.777	-110.826	-0.297	0.062
-577.763	122.130	-0.138	-0.175
-576.748	800.000	0.098	-0.336
-575.733	32.557	-0.172	-0.150
-574.719	-59.262	-0.215	-0.094
-573.704	-85.468	0.259	-0.082
-572.690	-200.000	0.106	0.000
-571.675	-160.183	0.373	0.020
-570.661	-58.311	0.241	-0.106
-569.646	-200.000	-0.055	-0.280
-568.631	-139.298	0.378	-0.041
-567.617	-200.000	-0.021	-0.310
-566.602	268.737	0.084	0.149
-565.588	398.683	0.025	0.054
-564.573	84.375	-0.093	0.103
-563.558	-61.068	0.270	0.115
-562.544	-74.754	0.194	0.071
-561.529	516.736	-0.085	-0.200
-560.515	-10.352	0.188	-0.126
-559.500	800.000	0.072	-0.220
-558.485	89.077	0.072	-0.081
-557.471	95.179	0.063	-0.072
-556.456	-200.000	-0.007	-0.105
-555.442	-12.001	0.228	0.151
-554.427	-200.000	0.034	-0.171
-553.412	235.068	-0.107	-0.178
-552.398	306.765	0.159	-0.300
-551.383	464.095	-0.196	-0.444
-550.369	800.000	0.043	0.146
-549.354	200.082	-0.074	0.115
-548.339	-89.215	-0.183	0.055
-547.325	-170.736	0.268	-0.009
-546.310	-2.202	0.162	-0.115
-545.296	55.762	-0.123	-0.120
-544.281	-116.973	0.135	-0.025
-543.266	129.290	0.130	-0.169
-542.252	50.652	-0.143	-0.137
-541.237	800.000	0.093	-0.327
-540.223	121.000	-0.237	0.298
-539.208	-70.567	-0.092	0.035
-538.193	800.000	-0.136	0.402
-537.179	-200.000	-0.004	-0.318
-536.164	-0.740	-0.125	-0.089
-535.150	-127.316	0.237	-0.035
-534.135	-146.255	-0.099	-0.009
-533.121	800.000	-0.057	-0.173
-532.106	-200.000	-0.057	0.296
-531.091	766.704	0.056	0.153
-530.077	-128.618	0.270	0.039
-529.062	408.352	-0.132	0.282
-528.048	-56.796	0.186	-0.083
-527.033	-37.198	0.281	0.152
-526.018	-10.550	-0.101	-0.068
-525.004	800.000	0.044	-0.129
-523.989	-27.015	0.135	0.080
-522.975	146.871	-0.100	-0.136
-521.960	-29.910	0.347	-0.200
-520.945	-200.000	0.005	-0.129
-519.931	474.027	-0.126	-0.288
-518.916	-60.625	0.127	-0.055
-517.902	579.071	0.094	-0.234
-516.887	-200.000	0.006	0.158
-515.872	15.046	-0.284	0.225
-514.858	-150.769	-0.332	-0.026
-513.843	-117.514	-0.031	0.006
-512.829	-174.943	0.083	0.002
-511.814	364.638	-0.164	0.335
-510.799	281.088	-0.233	0.421
-509.785	24.894	-0.132	-0.111
-508.770	779.410	-0.128	-0.353
-507.756	-150.907	0.100	-0.008
-506.741	-78.174	0.053	-0.018
-505.726	298.552	0.027	-0.051
-504.712	-14.964	0.139	0.090
-503.697	800.000	-0.018	0.077
-502.683	-200.000	-0.005	0.048
-501.668	179.382	0.074	0.109
-500.653	-12.350	0.212	-0.140
-499.639	-200.000	-0.012	0.117
-498.624	89.806	0.234	0.264
-497.610	-85.693	0.212	-0.066
-496.595	129.654	-0.112	-0.144
-495.581	-7.385	-0.134	-0.091
-494.566	-179.670	-0.102	-0.002
-493.551	-200.000	0.040	0.251
-492.537	-135.986	-0.041	0.005
-491.522	-94.990	-0.026	-0.007
-490.508	244.080	-0.136	-0.231
-489.493	-200.000	0.019	-0.175
-488.478	-1.420	0.271	-0.193
-487.464	-1.492	-0.244	-0.173
-486.449	800.000	-0.081	-0.275
-485.435	94.437	-0.052	-0.060
-484.420	13.774	0.164	-0.129
-483.405	-163.616	0.020	-0.001
-482.391	21.064	0.348	0.285
-481.376	-200.000	-0.003	0.181
-480.362	-200.000	-0.007	-0.097
-479.347	-200.000	-0.014	-0.156
-478.332	-57.355	-0.028	0.012
-477.318	800.000	0.048	0.187
-476.303	766.600	0.120	0.331
-475.289	800.000	0.019	-0.078
-474.274	-200.000	0.038	-0.186
-473.259	-166.593	0.171	-0.007
-472.245	280.031	-0.112	-0.202
-471.230	-2.480	-0.131	-0.093
-470.216	-158.339	-0.251	-0.015
-469.201	800.000	-0.063	0.264
-468.186	-200.000	-0.004	0.145
-467.172	-200.000	-0.006	0.171
-466.157	-109.820	0.093	0.020
-465.143	-105.790	0.099	-0.023
-464.128	-69.536	0.116	0.045
-463.113	472.166	0.039	-0.089
-462.099	-91.509	-0.324	-0.093
-461.084	-80.106	-0.044	0.015
-460.070	-141.111	-0.422	-0.043
-459.055	-87.291	0.302	0.092
-458.040	30.083	-0.139	0.120
-457.026	76.549	-0.167	0.178
-456.011	-128.056	-0.396	-0.057
-454.997	800.000	0.018	0.077
-453.982	42.135	0.234	-0.215
-452.968	70.512	0.177	-0.185
-451.953	76.833	0.181	0.193
-450.938	800.000	0.097	-0.321
-449.924	8.460	0.065	-0.049
-448.909	-89.637	0.120	0.035
-447.895	101.835	0.219	0.257
-446.880	-137.668	-0.192	0.022
-445.865	275.191	-0.168	-0.301
-444.851	55.263	0.141	-0.137
-443.836	-200.000	0.039	0.297
-442.822	-200.000	0.024	0.302
-441.807	240.678	-0.212	0.356
-440.792	-28.083	-0.065	-0.038
-439.778	-16.091	-0.222	0.142
-438.763	47.285	-0.206	0.193
-437.749	356.346	0.034	-0.067
-436.734	800.000	0.054	0.209
-435.719	-200.000	0.012	0.092
-434.705	219.785	0.053	-0.085
-433.690	-12.277	-0.298	-0.197
-432.676	-200.000	0.019	0.223
-431.661	245.291	-0.088	-0.150
-430.646	-151.792	0.133	-0.010
-429.632	-131.432	-0.181	-0.024
-428.617	25.365	-0.183	-0.153
-427.603	-134.461	0.089	0.011
-426.588	-59.508	0.309	0.134
-425.573	136.164	0.222	-0.292
-424.559	-200.000	-0.004	-0.115
-423.544	-200.000	-0.005	-0.229
-422.530	800.000	-0.102	-0.285
-421.515	112.245	0.075	0.092
-420.500	-31.734	0.208	0.117
-419.486	-103.087	-0.059	0.014
-418.471	-55.663	-0.295	0.133
-417.457	-200.000	-0.028	0.287
-416.442	800.000	0.008	0.027
-415.428	-200.000	0.000	-0.045
-414.413	99.522	-0.132	-0.153
-413.398	-200.000	0.055	0.244
-412.384	94.489	0.367	0.420
-411.369	-200.000	0.030	-0.198
-410.355	43.926	-0.022	-0.020
-409.340	-159.846	0.478	-0.026
-408.325	-200.000	-0.013	0.303
-407.311	-89.499	-0.181	0.054
-406.296	-200.000	-0.017	-0.165
-405.282	139.206	-0.140	0.186
-404.267	0.957	0.299	-0.216
-403.252	271.496	-0.059	0.104
-402.238	-200.000	-0.044	0.216
-401.223	-62.676	-0.063	0.026
-400.209	-140.128	0.085	-0.009
-399.194	267.040	0.008	-0.014
-398.179	-50.643	-0.330	-0.156
-397.165	-200.000	0.011	0.228
-396.150	-20.166	0.127	-0.079
-395.136	482.768	-0.055	-0.125
-394.121	-200.000	-0.060	-0.328
-393.106	-73.105	0.236	-0.087
-392.092	29.402	-0.180	-0.154
-391.077	800.000	-0.043	0.139
-390.063	-200.000	0.035	0.287
-389.048	800.000	-0.112	-0.359
-388.033	-78.773	0.191	0.066
-387.019	-90.625	-0.178	-0.052
-386.004	38.602	0.172	-0.154
-384.990	8.125	0.124	-0.094
-383.975	342.967	-0.051	-0.100
-382.960	-51.826	0.121	-0.057
-381.946	-87.007	0.089	-0.027
-380.931	-200.000	-0.012	-0.286
-379.917	-186.561	0.360	0.005
-378.902	24.040	0.217	-0.180
-377.888	342.255	-0.145	0.284
-376.873	73.069	0.116	0.122
-375.858	-10.224	-0.029	0.019
-374.844	-147.753	-0.502	0.042
-373.829	-36.829	-0.115	0.062
-372.815	800.000	-0.075	0.317
-371.800	-200.000	0.042	-0.247
-370.785	-157.301	-0.059	-0.004
-369.771	800.000	-0.043	0.132
-368.756	800.000	0.055	-0.218
-367.742	-107.915	0.152	-0.033
-366.727	366.896	-0.122	0.247
-365.712	-83.548	-0.237	0.076
-364.698	-200.000	0.001	-0.193
-363.683	800.000	-0.067	0.238
-362.669	-162.393	-0.074	0.004
-361.654	800.000	-0.133	0.417
-360.639	-29.098	-0.270	0.156
-359.625	-61.797	-0.124	-0.052
-358.610	-200.000	0.001	0.419
-357.596	300.296	-0.041	-0.076
-356.581	-200.000	0.057	0.294
-355.566	8.820	0.029	-0.022
-354.552	-98.651	-0.076	0.019
-353.537	800.000	0.036	-0.103
-352.523	260.553	-0.095	0.164
-351.508	-149.431	-0.004	-0.000
-350.493	92.681	-0.255	-0.289
-349.479	159.108	0.093	-0.130
-348.464	5.408	0.201	-0.149
-347.450	800.000	-0.091	-0.306
-346.435	-146.394	0.137	-0.012
-345.420	112.943	-0.124	0.151
-344.406	54.963	0.201	-0.195
-343.391	78.060	0.130	-0.139
-342.377	180.077	0.201	0.296
-341.362	190.858	-0.185	0.280
-340.348	83.712	-0.022	0.024
-339.333	-148.328	-0.283	-0.023
-338.318	55.630	0.115	0.112
-337.304	-176.113	-0.049	0.001
-336.289	-73.508	-0.133	0.049
-335.275	-200.000	-0.050	0.241
-334.260	-59.456	0.155	-0.067
-333.245	-47.599	0.114	-0.056
-332.231	286.613	0.155	-0.281
-331.216	-150.173	0.039	0.003
-330.202	637.779	-0.069	0.175
-329.187	107.899	-0.130	-0.155
-328.172	32.678	0.051	0.044
-327.158	322.438	0.108	0.206
-326.143	41.809	-0.161	0.146
-325.129	800.000	-0.160	0.492
-324.114	-58.776	-0.421	0.183
-323.099	26.201	-0.291	-0.243
-322.085	-25.007	0.267	-0.159
-321.070	54.942	0.051	-0.050
-320.056	449.108	0.030	-0.066
-319.041	39.900	0.127	-0.114
-318.026	-156.726	0.232	0.014
-317.012	-86.113	0.473	0.146
-315.997	10.259	-0.255	-0.195
-314.983	800.000	0.007	-0.024
-313.968	-114.216	0.120	0.023
-312.953	-125.528	0.163	0.025
-311.939	-77.749	-0.438	0.152
-310.924	800.000	0.061	-0.189
-309.910	21.002	-0.135	-0.110
-308.895	23.223	-0.323	-0.266
-307.880	-21.597	-0.038	-0.023
-306.866	109.807	-0.100	0.121
-305.851	-133.643	-0.177	-0.022
-304.837	-200.000	0.053	0.281
-303.822	-149.261	0.276	-0.022
-302.807	2.691	-0.270	0.196
-301.793	0.716	0.209	-0.150
-300.778	-200.000	-0.008	-0.065
-299.764	-111.489	0.239	0.049
-298.749	66.528	-0.096	-0.098
-297.735	-52.994	-0.138	-0.064
-296.720	-76.982	-0.116	0.041
-295.705	69.788	0.334	-0.345
-294.691	1.530	-0.399	0.287
-293.676	-39.934	0.190	-0.099
-292.662	285.865	-0.119	0.214
-291.647	-200.000	0.001	0.201
-290.632	-200.000	-0.011	0.372
-289.618	-200.000	0.013	0.163
-288.603	33.286	-0.232	-0.202
-287.589	123.003	0.192	0.240
-286.574	-200.000	-0.095	-0.445
-285.559	-58.432	-0.329	-0.143
-284.545	37.718	0.253	0.225
-283.530	72.793	0.239	-0.250
-282.516	37.305	-0.101	0.089
-281.501	36.961	0.078	-0.069
-280.486	-200.000	0.013	0.152
-279.472	800.000	-0.043	0.132
-278.457	-0.709	0.160	-0.114
-277.443	-5.840	-0.263	0.180
-276.428	-163.839	-0.052	-0.002
-275.413	-13.608	0.161	-0.105
-274.399	-200.000	-0.034	-0.214
-273.384	-200.000	0.051	0.621
-272.370	-82.219	-0.165	0.054
-271.355	-88.382	-0.418	0.125
-270.340	-99.756	0.308	0.077
-269.326	-90.880	-0.264	-0.076
-268.311	36.934	-0.357	-0.316
-267.297	800.000	0.078	0.305
-266.282	586.717	0.091	0.225
-265.267	800.000	-0.090	0.292
-264.253	-76.466	0.165	0.058
-263.238	-36.927	0.053	-0.028
-262.224	-200.000	-0.018	-0.219
-261.209	-55.371	0.118	0.053
-260.195	-100.019	-0.353	-0.088
-259.180	-200.000	-0.005	-0.161
-258.165	-131.242	-0.209	-0.028
-257.151	-200.000	0.031	-0.355
-256.136	-200.000	-0.035	0.259
-255.122	-68.485	0.197	-0.076
-254.107	98.859	-0.201	-0.232
-253.092	-200.000	0.015	-0.097
-252.078	736.195	-0.041	0.110
-251.063	-34.589	0.269	-0.147
-250.049	127.296	0.197	-0.250
-249.034	-88.206	-0.225	0.067
-248.019	-65.667	-0.230	0.092
-247.005	291.877	-0.085	-0.155
-245.990	-73.059	-0.044	0.016
-244.976	800.000	-0.026	0.106
-243.961	-52.926	0.219	-0.101
-242.946	225.131	0.072	-0.117
-241.932	-100.988	-0.220	0.054
-240.917	24.335	-0.071	-0.058
-239.903	275.108	0.145	-0.257
-238.888	-104.753	0.171	0.039
-237.873	-92.611	0.164	-0.046
-236.859	-76.284	0.159	-0.056
-235.844	398.655	0.139	0.291
-234.830	800.000	-0.089	0.269
-233.815	-118.406	0.140	-0.025
-232.800	135.225	0.065	-0.085
-231.786	-200.000	0.023	0.187
-230.771	654.402	-0.060	0.153
-229.757	-24.632	-0.312	-0.186
-228.742	93.881	-0.076	0.086
-227.727	-47.220	-0.181	0.088
-226.713	-27.526	-0.127	-0.074
-225.698	-31.862	0.065	-0.036
-224.684	-28.061	0.197	0.114
-223.669	265.789	-0.133	-0.233
-222.655	-12.194	-0.098	-0.064
-221.640	1.082	-0.247	0.177
-220.625	337.861	-0.194	-0.377
-219.611	-200.000	-0.022	-0.100
-218.596	-173.274	0.185	0.006
-217.582	-200.000	-0.011	-0.330
-216.567	-31.456	-0.170	-0.095
-215.552	-123.741	-0.216	-0.034
-214.538	276.131	-0.179	0.317
-213.523	20.680	0.071	-0.058
-212.509	-200.000	0.011	0.115
-211.494	-65.600	0.168	-0.067
-210.479	-69.696	0.195	0.074
-209.465	-16.449	0.079	-0.050
-208.450	13.387	-0.237	0.184
-207.436	761.023	-0.031	0.084
-206.421	-19.818	0.233	0.144
-205.406	-29.639	0.178	-0.101
-204.392	54.912	0.203	-0.196
-203.377	-158.811	-0.197	0.011
-202.363	78.522	0.121	0.129
-201.348	-35.574	-0.252	0.137
-200.333	-157.674	-0.628	0.037
-199.319	800.000	-0.065	-0.233
-198.304	552.055	0.105	-0.252
-197.290	-200.000	0.002	-0.158
-196.275	-177.135	-0.054	-0.001
-195.260	391.351	-0.026	0.055
-194.246	-104.555	0.210	0.048
-193.231	-119.436	0.243	-0.042
-192.217	-200.000	0.010	0.083
-191.202	-25.689	-0.348	-0.205
-190.187	87.795	0.032	-0.035
-189.173	-72.998	0.313	0.115
-188.158	201.455	0.190	0.292
-187.144	-115.259	0.221	0.042
-186.129	1.949	-0.154	0.111
-185.114	-100.934	0.190	-0.046
-184.100	-106.592	0.308	-0.069
-183.085	-200.000	-0.026	0.161
-182.071	-80.485	-0.393	-0.131
-181.056	-200.000	-0.019	-0.097
-180.042	-84.808	0.113	-0.035
-179.027	-37.814	-0.067	-0.035
-178.012	-30.545	-0.290	0.164
-176.998	389.882	0.127	0.263
-175.983	162.902	-0.215	0.301
-174.969	414.258	-0.091	0.194
-173.954	-188.939	-0.444	-0.005
-172.939	761.320	0.101	-0.273
-171.925	179.335	0.286	0.418
-170.910	-88.596	-0.098	0.029
-169.896	-187.662	-0.283	-0.004
-168.881	-50.821	0.483	0.226
-167.866	800.000	0.069	0.208
-166.852	-12.495	-0.120	0.078
-165.837	57.786	0.093	0.090
-164.823	148.925	0.106	-0.143
-163.808	-26.522	-0.235	0.137
-162.793	186.758	0.075	0.112
-161.779	-200.000	0.015	0.377
-160.764	132.794	0.218	0.280
-159.750	-60.256	-0.219	0.093
-158.735	605.463	-0.096	-0.238
-157.720	-36.802	0.312	-0.167
-156.706	24.701	0.240	-0.199
-155.691	-3.023	0.301	-0.209
-154.677	14.303	-0.159	0.123
-153.662	-120.976	-0.162	0.027
-152.647	800.000	-0.132	0.411
-151.633	-200.000	0.017	0.083
-150.618	-200.000	-0.002	-0.098
-149.604	124.779	0.189	-0.237
-148.589	365.971	0.034	-0.068
-147.574	250.675	-0.178	0.302
-146.560	-183.059	0.375	0.007
-145.545	-200.000	-0.022	0.159
-144.531	800.000	0.027	-0.081
-143.516	5.026	0.123	-0.090
-142.502	273.229	-0.218	0.384
-141.487	800.000	0.071	0.307
-140.472	-20.451	0.054	-0.033
-139.458	800.000	-0.054	-0.211
-138.443	-97.922	-0.115	0.029
-137.429	50.407	-0.132	0.124
-136.414	-200.000	0.022	-0.207
-135.399	-47.663	0.126	0.061
-134.385	-200.000	-0.007	-0.477
-133.370	-200.000	0.003	-0.177
-132.356	349.378	-0.199	0.391
-131.341	-200.000	-0.010	0.204
-130.326	-193.213	0.214	0.002
-129.312	-44.560	0.281	0.140
-128.297	-38.951	-0.264	0.138
-127.283	221.994	-0.041	-0.065
-126.268	-126.174	0.186	0.028
-125.253	-200.000	0.026	-0.193
-124.239	89.371	0.180	0.200
-123.224	65.188	0.180	0.181
-122.210	451.921	0.142	0.312
-121.195	-98.957	-0.473	-0.120
