DTS Sentinel unit serial number:	SN413079Multiplexer serial number:	ORYXHardware model number:	OX4-SRSoftware version number:	ORYX F/W v4.00 Oryx Data Collector v3.7.2.0data status	okinstallation	princeton_trtdifferential loss correction	single-endedforward channel	channel 3reverse channel	N/Adate	2019/09/16time	03:32:35forward acquisition time	60.00reverse acquisition time	0.00gamma	496.2192k internal	0.2334k external	0.2334temperature offset calibration	0.9955default loss term (dB/km)	0.3790temperature slope calibration	1.0000multiplexer offset coefficient	1.0000multiplexer slope coefficient	1.0000fibre end	0.00T internal ref (°C)	27.66T ext. ref 1 (°C)	10.57T ext. ref 2 (°C)	21.62length (m)	temperature (°C)	Stokes	anti-Stokes-747.200	-200.000	0.019	0.203
-746.185	-44.503	-0.290	-0.146
-745.171	-60.476	0.156	0.067
-744.156	-63.225	-0.192	0.080
-743.142	89.265	-0.260	-0.291
-742.127	-105.515	-0.104	0.024
-741.112	-33.558	-0.073	-0.040
-740.098	-9.663	-0.529	0.354
-739.083	-48.405	-0.250	0.121
-738.069	57.683	-0.218	0.214
-737.054	-85.907	-0.388	0.121
-736.039	800.000	0.072	-0.219
-735.025	-14.046	0.265	0.172
-734.010	44.716	0.170	0.157
-732.996	-141.043	-0.191	-0.020
-731.981	800.000	0.053	-0.157
-730.966	-174.246	-0.268	0.008
-729.952	47.309	0.063	-0.059
-728.937	-17.155	0.184	-0.117
-727.923	-200.000	-0.005	-0.061
-726.908	-84.302	-0.064	-0.020
-725.894	124.902	0.089	-0.112
-724.879	441.739	0.137	-0.302
-723.864	-200.000	-0.043	-0.248
-722.850	171.769	-0.130	0.187
-721.835	141.589	-0.020	0.027
-720.821	40.825	-0.223	0.202
-719.806	64.465	-0.343	0.347
-718.791	187.453	-0.159	-0.237
-717.777	-56.123	-0.467	0.209
-716.762	-14.710	-0.182	0.118
-715.748	800.000	-0.037	-0.116
-714.733	80.351	-0.271	-0.293
-713.718	-200.000	0.028	0.144
-712.704	-21.123	-0.306	-0.188
-711.689	121.197	0.381	0.476
-710.675	7.302	-0.161	0.121
-709.660	43.431	-0.150	-0.138
-708.645	180.358	-0.070	-0.104
-707.631	-200.000	0.003	-0.047
-706.616	72.517	-0.107	0.112
-705.602	-200.000	-0.000	-0.174
-704.587	-102.466	-0.146	0.035
-703.572	-200.000	0.052	-0.303
-702.558	-58.016	0.211	0.092
-701.543	799.545	-0.035	-0.096
-700.529	234.664	0.143	-0.236
-699.514	800.000	0.040	-0.132
-698.499	-44.091	-0.115	-0.058
-697.485	-15.808	-0.122	-0.078
-696.470	-14.904	0.174	-0.112
-695.456	287.466	-0.065	-0.117
-694.441	10.352	0.028	0.022
-693.426	-142.330	0.035	0.003
-692.412	-17.643	-0.268	0.169
-691.397	178.881	-0.225	0.330
-690.383	800.000	0.051	-0.182
-689.368	-200.000	-0.008	-0.255
-688.354	-35.600	0.193	-0.105
-687.339	156.127	-0.181	0.250
-686.324	-76.289	-0.122	-0.043
-685.310	13.675	-0.109	-0.085
-684.295	-200.000	0.031	0.246
-683.281	-115.168	0.219	0.042
-682.266	-200.000	0.006	-0.110
-681.251	-66.690	0.137	-0.054
-680.237	-200.000	-0.013	-0.209
-679.222	-182.182	-0.249	0.005
-678.208	-95.122	0.228	0.062
-677.193	-57.665	-0.283	0.124
-676.178	154.198	-0.110	0.152
-675.164	-30.429	-0.046	0.026
-674.149	25.142	0.109	-0.091
-673.135	21.807	0.155	-0.126
-672.120	36.640	0.135	0.119
-671.105	-200.000	-0.019	-0.247
-670.091	-171.096	-0.281	-0.010
-669.076	87.088	-0.127	-0.141
-668.062	-105.316	-0.257	-0.059
-667.047	-32.594	0.147	0.082
-666.032	-200.000	0.006	0.060
-665.018	800.000	-0.061	-0.243
-664.003	136.592	-0.090	-0.118
-662.989	2.113	0.165	0.119
-661.974	533.035	0.121	-0.286
-660.959	-200.000	0.065	-0.424
-659.945	800.000	0.106	-0.435
-658.930	800.000	-0.085	-0.322
-657.916	-113.172	0.326	-0.064
-656.901	-169.114	0.078	0.003
-655.886	94.834	0.130	-0.148
-654.872	-200.000	-0.010	-0.079
-653.857	-69.518	-0.166	0.064
-652.843	-130.134	-0.193	-0.026
-651.828	141.568	0.040	-0.053
-650.814	-119.500	-0.395	-0.069
-649.799	153.766	0.148	0.204
-648.784	56.698	0.031	0.030
-647.770	78.202	0.057	-0.061
-646.755	26.018	0.206	-0.172
-645.741	-10.991	-0.130	0.086
-644.726	-5.686	-0.231	-0.158
-643.711	-80.308	-0.158	-0.053
-642.697	-40.256	0.490	0.255
-641.682	133.703	-0.116	-0.150
-640.668	355.229	0.100	0.200
-639.653	-134.057	-0.173	0.021
-638.638	-200.000	-0.013	0.282
-637.624	-68.343	-0.306	0.119
-636.609	-200.000	0.005	0.229
-635.595	-200.000	0.022	-0.118
-634.580	117.333	0.075	0.092
-633.565	-200.000	0.005	0.071
-632.551	507.227	-0.081	-0.188
-631.536	-126.982	0.004	-0.001
-630.522	-43.493	-0.193	-0.097
-629.507	-200.000	0.021	-0.174
-628.492	800.000	0.029	-0.122
-627.478	-71.503	0.242	0.090
-626.463	-200.000	0.032	-0.438
-625.449	631.048	-0.071	-0.180
-624.434	111.041	0.331	-0.399
-623.419	-200.000	0.035	-0.221
-622.405	93.163	-0.205	0.232
-621.390	30.326	-0.234	-0.200
-620.376	800.000	0.075	-0.214
-619.361	-119.259	-0.315	0.055
-618.346	800.000	-0.092	-0.285
-617.332	98.970	-0.190	0.220
-616.317	141.820	0.064	0.085
-615.303	-49.465	-0.099	-0.047
-614.288	-85.618	-0.273	0.085
-613.273	11.255	0.231	-0.177
-612.259	17.884	0.046	-0.037
-611.244	174.876	0.196	-0.283
-610.230	440.335	-0.043	-0.094
-609.215	800.000	0.075	0.245
-608.201	140.796	-0.191	-0.252
-607.186	-23.235	-0.249	-0.150
-606.171	-106.869	-0.137	0.030
-605.157	-49.979	0.182	0.086
-604.142	136.866	-0.134	-0.174
-603.128	-126.357	0.147	-0.022
-602.113	-50.991	-0.176	0.083
-601.098	-15.071	0.348	-0.223
-600.084	-200.000	-0.012	-0.125
-599.069	300.735	0.109	-0.201
-598.055	-66.264	0.274	-0.109
-597.040	800.000	0.096	-0.325
-596.025	8.351	-0.136	0.102
-595.011	23.937	0.151	0.125
-593.996	-35.585	0.125	0.068
-592.982	-200.000	-0.029	0.191
-591.967	-200.000	-0.020	0.124
-590.952	-129.412	-0.277	0.038
-589.938	172.157	0.078	-0.113
-588.923	422.993	-0.156	-0.334
-587.909	439.546	0.082	-0.180
-586.894	-184.009	0.137	-0.002
-585.879	-119.095	0.347	0.061
-584.865	45.121	-0.299	0.275
-583.850	-61.112	-0.231	-0.097
-582.836	-148.237	-0.273	0.022
-581.821	-131.179	0.097	0.013
-580.806	110.847	-0.211	0.254
-579.792	-101.739	-0.141	-0.034
-578.777	104.714	0.094	-0.111
-577.763	5.335	-0.314	0.231
-576.748	113.138	-0.022	0.026
-575.733	-66.728	-0.071	-0.028
-574.719	-107.798	-0.212	0.046
-573.704	-142.158	-0.116	-0.011
-572.690	-200.000	0.009	0.217
-571.675	375.992	-0.097	0.198
-570.661	214.239	0.034	0.054
-569.646	-200.000	-0.023	-0.200
-568.631	-200.000	0.075	0.336
-567.617	-200.000	-0.010	-0.051
-566.602	-102.495	0.183	-0.044
-565.588	151.510	0.051	0.069
-564.573	-200.000	-0.056	0.258
-563.558	74.182	-0.240	0.251
-562.544	800.000	0.044	-0.152
-561.529	-98.506	-0.069	-0.018
-560.515	-42.862	0.236	-0.119
-559.500	777.631	0.038	-0.105
-558.485	-100.024	0.208	0.052
-557.471	237.391	-0.225	0.373
-556.456	24.832	-0.105	-0.087
-555.442	137.227	0.147	0.192
-554.427	-200.000	0.092	0.418
-553.412	-63.352	-0.086	-0.036
-552.398	800.000	0.020	0.087
-551.383	25.035	0.123	0.102
-550.369	-200.000	0.026	-0.189
-549.354	22.883	0.038	-0.031
-548.339	247.513	0.125	-0.211
-547.325	-100.418	-0.387	-0.096
-546.310	414.552	-0.064	0.136
-545.296	-200.000	0.009	0.186
-544.281	-200.000	-0.022	0.429
-543.266	185.163	0.089	0.131
-542.252	800.000	-0.043	-0.163
-541.237	-78.725	-0.254	-0.086
-540.223	-200.000	-0.019	-0.134
-539.208	53.772	-0.205	0.196
-538.193	-83.243	-0.192	-0.062
-537.179	-29.178	-0.134	-0.076
-536.164	-200.000	0.008	-0.049
-535.150	91.505	-0.210	-0.235
-534.135	-103.800	-0.199	-0.046
-533.121	605.470	0.082	-0.203
-532.106	-200.000	0.102	-0.000
-531.091	107.457	-0.122	0.145
-530.077	195.204	0.211	0.320
-529.062	619.644	-0.058	0.145
-528.048	399.736	0.051	-0.106
-527.033	-126.293	-0.206	-0.031
-526.018	277.690	0.184	-0.326
-525.004	-67.212	0.399	-0.156
-523.989	421.663	-0.142	-0.303
-522.975	138.440	-0.155	-0.202
-521.960	-200.000	0.040	-0.199
-520.945	-133.006	0.161	0.020
-519.931	91.073	-0.105	0.118
-518.916	-98.508	-0.110	0.028
-517.902	-148.140	-0.179	-0.015
-516.887	-14.861	0.172	0.110
-515.872	-16.046	0.058	0.037
-514.858	12.537	-0.228	0.176
-513.843	75.889	-0.191	-0.201
-512.829	800.000	-0.039	0.133
-511.814	-165.356	0.368	0.016
-510.799	13.515	0.197	-0.153
-509.785	-38.829	-0.142	-0.075
-508.770	362.926	0.124	-0.248
-507.756	800.000	-0.030	0.098
-506.741	-68.802	0.102	-0.039
-505.726	-36.001	-0.060	-0.032
-504.712	-187.379	-0.072	-0.001
-503.697	-88.419	-0.277	-0.082
-502.683	-100.719	0.313	0.077
-501.668	404.480	0.056	0.117
-500.653	-200.000	-0.010	-0.311
-499.639	539.252	0.190	-0.449
-498.624	342.995	-0.211	-0.411
-497.610	-137.531	0.076	-0.009
-496.595	212.426	-0.018	-0.029
-495.581	-95.208	-0.448	0.120
-494.566	34.771	0.139	-0.121
-493.551	-200.000	0.018	0.113
-492.537	800.000	-0.073	0.229
-491.522	-75.123	-0.290	-0.103
-490.508	-127.510	0.046	-0.007
-489.493	-58.768	0.289	0.125
-488.478	-169.628	-0.088	0.003
-487.464	-71.618	-0.167	0.062
-486.449	115.717	-0.090	0.109
-485.435	335.432	0.218	0.420
-484.420	-33.719	-0.338	0.185
-483.405	-5.891	-0.207	-0.141
-482.391	116.796	-0.104	-0.127
-481.376	800.000	-0.049	-0.158
-480.362	-200.000	-0.005	-0.046
-479.347	-14.507	0.147	-0.094
-478.332	295.078	0.171	0.312
-477.318	67.815	0.286	-0.291
-476.303	203.306	0.025	-0.038
-475.289	-14.414	-0.262	0.168
-474.274	329.516	-0.151	-0.289
-473.259	82.149	0.174	-0.187
-472.245	-200.000	0.053	-0.328
-471.230	26.287	0.092	-0.076
-470.216	-85.235	-0.159	-0.049
-469.201	-52.956	-0.056	0.025
-468.186	223.037	0.074	-0.118
-467.172	-95.562	-0.263	-0.070
-466.157	-200.000	-0.013	0.139
-465.143	800.000	-0.070	-0.239
-464.128	-80.758	-0.112	-0.037
-463.113	-66.126	-0.440	0.174
-462.099	10.283	0.286	-0.216
-461.084	4.036	0.121	-0.088
-460.070	-87.088	-0.263	0.079
-459.055	-31.674	0.419	-0.234
-458.040	-200.000	-0.043	0.240
-457.026	800.000	-0.055	0.185
-456.011	10.090	-0.377	-0.285
-454.997	-200.000	0.006	-0.372
-453.982	-34.334	0.311	-0.169
-452.968	-63.856	-0.412	-0.167
-451.953	11.337	0.098	0.075
-450.938	121.885	-0.103	0.128
-449.924	800.000	0.103	0.425
-448.909	-35.345	-0.053	-0.029
-447.895	200.495	0.132	-0.201
-446.880	-129.791	-0.129	0.018
-445.865	-24.661	-0.432	0.255
-444.851	-84.616	-0.269	0.084
-443.836	128.853	0.221	-0.280
-442.822	80.727	-0.123	0.131
-441.807	48.319	-0.172	0.160
-440.792	44.967	-0.109	-0.099
-439.778	-142.726	0.250	0.024
-438.763	488.370	0.049	-0.111
-437.749	11.013	-0.142	0.108
-436.734	-66.946	-0.171	-0.067
-435.719	800.000	-0.061	0.181
-434.705	113.593	-0.129	-0.156
-433.690	56.731	-0.092	-0.089
-432.676	-85.556	0.290	-0.090
-431.661	213.351	-0.133	0.209
-430.646	-81.028	0.253	-0.083
-429.632	-140.466	-0.064	-0.007
-428.617	-103.575	-0.093	-0.022
-427.603	-200.000	-0.018	-0.123
-426.588	73.941	-0.124	0.130
-425.573	800.000	-0.113	-0.379
-424.559	-62.539	-0.308	-0.127
-423.544	800.000	0.009	-0.037
-422.530	-155.653	0.087	0.006
-421.515	-99.124	-0.435	0.109
-420.500	-92.564	0.066	-0.018
-419.486	-188.682	-0.225	0.003
-418.471	269.579	0.210	0.366
-417.457	-200.000	0.014	0.086
-416.442	486.708	0.162	-0.366
-415.428	-0.805	0.135	0.095
-414.413	-115.668	-0.130	-0.024
-413.398	542.260	-0.040	0.094
-412.384	24.925	0.142	0.117
-411.369	-99.448	0.391	0.098
-410.355	152.416	-0.351	0.475
-409.340	-77.754	0.143	0.049
-408.325	-200.000	-0.024	-0.179
-407.311	-83.868	0.446	0.141
-406.296	-200.000	0.003	0.145
-405.282	-2.102	-0.050	0.035
-404.267	3.235	0.049	-0.035
-403.252	67.806	-0.088	-0.089
-402.238	-127.854	0.072	-0.010
-401.223	800.000	-0.050	0.142
-400.209	800.000	0.070	0.290
-399.194	154.488	0.236	0.322
-398.179	-166.005	-0.254	0.011
-397.165	-169.980	0.186	-0.007
-396.150	-55.543	-0.088	-0.039
-395.136	93.555	0.191	-0.214
-394.121	800.000	-0.077	0.239
-393.106	77.811	0.244	-0.258
-392.092	173.811	-0.039	-0.056
-391.077	93.467	0.171	0.192
-390.063	-200.000	0.006	0.202
-389.048	-200.000	0.036	0.246
-388.033	-122.822	-0.132	0.021
-387.019	-23.649	-0.034	-0.020
-386.004	-173.242	0.125	0.004
-384.990	410.028	0.103	-0.217
-383.975	5.005	-0.132	0.096
-382.960	-109.447	0.229	-0.048
-381.946	-34.798	0.181	0.098
-380.931	-26.354	-0.188	-0.110
-379.917	115.793	0.151	0.184
-378.902	209.076	0.323	0.501
-377.888	-200.000	0.070	-0.310
-376.873	-101.958	0.370	-0.088
-375.858	800.000	0.057	0.155
-374.844	13.387	-0.037	-0.028
-373.829	40.185	0.176	-0.157
-372.815	-32.999	0.223	0.122
-371.800	-200.000	0.060	0.579
-370.785	192.918	0.068	0.102
-369.771	0.139	-0.154	-0.109
-368.756	-200.000	-0.037	0.349
-367.742	-58.051	-0.266	-0.115
-366.727	-30.927	0.146	0.082
-365.712	800.000	-0.094	0.282
-364.698	-73.300	-0.069	-0.025
-363.683	-100.827	-0.290	0.071
-362.669	55.431	0.022	0.021
-361.654	-200.000	0.013	0.114
-360.639	102.472	-0.121	-0.140
-359.625	56.932	0.199	0.192
-358.610	-22.610	0.053	0.032
-357.596	208.928	0.035	0.054
-356.581	-43.706	-0.209	0.104
-355.566	275.910	-0.036	-0.063
-354.552	-153.270	-0.181	0.013
-353.537	800.000	-0.100	0.307
-352.523	-4.868	0.185	0.126
-351.508	687.506	-0.093	-0.239
-350.493	9.752	0.133	0.100
-349.479	-23.645	0.045	0.027
-348.464	22.028	0.223	0.180
-347.450	800.000	-0.096	0.392
-346.435	38.936	0.167	-0.147
-345.420	26.568	0.196	-0.162
-344.406	-200.000	0.288	-0.001
-343.391	-200.000	-0.077	-0.385
-342.377	-127.983	0.239	0.034
-341.362	-24.139	0.392	0.232
-340.348	-174.628	0.245	0.007
-339.333	-200.000	0.023	0.366
-338.318	454.899	-0.079	0.172
-337.304	196.853	0.082	-0.124
-336.289	800.000	-0.082	-0.239
-335.275	-200.000	0.032	-0.504
-334.260	-200.000	0.006	-0.136
-333.245	-9.608	0.069	0.045
-332.231	-34.075	0.210	-0.114
-331.216	-38.274	-0.191	-0.100
-330.202	-25.004	-0.425	0.249
-329.187	-200.000	-0.039	0.264
-328.172	25.732	-0.193	0.159
-327.158	-200.000	-0.007	-0.270
-326.143	9.763	0.388	-0.291
-325.129	16.165	0.121	-0.095
-324.114	241.357	0.045	0.075
-323.099	254.198	0.059	-0.099
-322.085	2.478	-0.042	-0.030
-321.070	-200.000	-0.012	-0.067
-320.056	800.000	0.009	0.037
-319.041	593.944	-0.174	0.425
-318.026	-88.791	-0.134	0.039
-317.012	-200.000	0.023	-0.158
-315.997	120.512	0.140	-0.172
-314.983	11.697	-0.168	-0.127
-313.968	-178.439	0.152	0.003
-312.953	25.710	-0.104	-0.086
-311.939	351.915	-0.084	0.164
-310.924	146.662	-0.234	0.310
-309.910	96.117	-0.106	0.119
-308.895	-200.000	0.004	-0.126
-307.880	11.978	-0.036	0.028
-306.866	800.000	0.049	0.146
-305.851	223.080	0.178	-0.283
-304.837	-15.415	0.223	-0.141
-303.822	800.000	-0.125	-0.342
-302.807	-160.387	-0.225	-0.012
-301.793	800.000	-0.155	0.427
-300.778	-200.000	-0.043	-0.238
-299.764	-142.665	0.099	-0.010
-298.749	44.687	-0.143	0.130
-297.735	381.096	0.066	0.134
-296.720	30.413	-0.132	-0.111
-295.705	308.183	-0.167	0.308
-294.691	-31.565	0.093	-0.052
-293.676	-165.259	-0.288	0.013
-292.662	800.000	0.016	0.053
-291.647	800.000	-0.027	-0.108
-290.632	800.000	-0.078	-0.214
-289.618	-200.000	-0.049	-0.417
-288.603	289.329	-0.037	-0.067
-287.589	716.075	0.044	-0.114
-286.574	-200.000	-0.018	-0.330
-285.559	23.784	0.199	-0.162
-284.545	-47.959	-0.198	0.094
-283.530	11.382	-0.025	-0.019
-282.516	-58.685	-0.046	0.020
-281.501	61.659	-0.099	0.097
-280.486	-96.628	0.141	0.037
-279.472	247.313	-0.116	-0.193
-278.457	-1.807	0.094	-0.066
-277.443	243.269	0.081	-0.133
-276.428	-91.253	0.442	0.125
-275.413	-135.805	-0.218	-0.025
-274.399	-159.329	0.275	-0.015
-273.384	-200.000	-0.010	0.467
-272.370	-17.072	-0.077	-0.048
-271.355	-89.760	-0.194	-0.056
-270.340	59.518	-0.199	-0.193
-269.326	800.000	0.100	-0.351
-268.311	-200.000	-0.037	-0.270
-267.297	-59.491	-0.277	-0.118
-266.282	-98.426	0.182	0.046
-265.267	-53.069	0.210	0.095
-264.253	-200.000	0.058	0.405
-263.238	-119.393	-0.440	-0.075
-262.224	-200.000	-0.022	0.313
-261.209	-200.000	0.013	-0.177
-260.195	-58.570	0.178	-0.076
-259.180	98.768	-0.184	0.209
-258.165	-200.000	0.018	0.162
-257.151	-142.888	-0.484	-0.046
-256.136	-61.493	0.259	0.107
-255.122	114.812	-0.325	-0.391
-254.107	-46.057	0.069	-0.034
-253.092	-110.649	0.478	0.097
-252.078	387.274	0.076	-0.156
-251.063	800.000	-0.067	-0.258
-250.049	-79.793	0.121	-0.040
-249.034	-200.000	-0.049	-0.322
-248.019	-200.000	-0.008	0.088
-247.005	111.744	0.249	0.296
-245.990	12.752	0.364	0.277
-244.976	92.896	0.218	-0.243
-243.961	800.000	0.148	-0.458
-242.946	-95.816	0.156	-0.041
-241.932	-200.000	0.015	-0.082
-240.917	647.728	-0.084	-0.212
-239.903	162.543	-0.204	-0.282
-238.888	-165.581	0.075	0.003
-237.873	42.369	-0.169	-0.151
-236.859	-200.000	-0.022	-0.146
-235.844	594.296	-0.051	0.125
-234.830	467.563	0.092	0.204
-233.815	-93.288	-0.196	0.054
-232.800	800.000	-0.159	-0.500
-231.786	-19.834	0.281	0.171
-230.771	-104.081	-0.234	-0.054
-229.757	-62.565	0.132	0.054
-228.742	680.382	0.211	0.541
-227.727	-22.678	0.259	0.154
-226.713	-101.569	0.256	0.061
-225.698	-100.309	0.369	-0.090
-224.684	83.924	-0.150	-0.162
-223.669	-27.698	0.126	0.072
-222.655	-6.806	-0.131	-0.088
-221.640	-51.759	-0.079	-0.036
-220.625	-73.670	0.189	-0.068
-219.611	-29.566	0.064	0.036
-218.596	773.476	0.081	0.219
-217.582	-200.000	-0.070	0.411
-216.567	-101.103	-0.026	0.006
-215.552	-137.678	0.164	-0.018
-214.538	230.741	0.132	0.213
-213.523	-200.000	0.055	0.394
-212.509	800.000	-0.127	-0.445
-211.494	800.000	0.071	-0.270
-210.479	-158.177	0.460	-0.026
-209.465	-200.000	-0.067	-0.297
-208.450	67.642	0.103	0.104
-207.436	800.000	-0.031	-0.090
-206.421	553.714	0.092	-0.217
-205.406	-43.853	-0.206	-0.102
-204.392	-200.000	-0.013	0.186
-203.377	25.728	0.268	-0.220
-202.363	800.000	-0.109	-0.380
-201.348	662.263	0.098	0.249
-200.333	-200.000	0.001	0.193
-199.319	-116.379	0.180	-0.033
-198.304	-49.115	-0.059	-0.028
-197.290	-106.961	0.225	-0.049
-196.275	-94.525	0.170	-0.045
-195.260	-10.361	0.251	0.164
-194.246	-99.977	0.350	0.086
-193.231	800.000	-0.098	0.369
-192.217	220.161	-0.101	-0.160
-191.202	43.479	-0.215	0.193
-190.187	294.880	0.086	0.155
-189.173	281.824	-0.091	0.161
-188.158	800.000	-0.062	0.194
-187.144	-200.000	0.008	-0.227
-186.129	-200.000	-0.014	-0.189
-185.114	800.000	0.051	-0.146
-184.100	-200.000	-0.011	0.357
-183.085	76.323	-0.198	-0.206
-182.071	-108.447	0.133	-0.028
-181.056	800.000	-0.121	-0.353
-180.042	-1.960	-0.180	0.124
-179.027	-200.000	0.050	0.225
-178.012	-39.828	-0.021	0.011
-176.998	677.399	0.071	0.182
-175.983	-79.955	-0.090	-0.030
-174.969	-46.946	-0.211	-0.101
-173.954	61.825	-0.217	0.212
-172.939	9.728	0.103	-0.077
-171.925	-39.104	-0.210	-0.109
-170.910	223.769	-0.048	-0.076
-169.896	800.000	-0.048	0.150
-168.881	-200.000	-0.094	0.457
-167.866	-91.037	0.097	0.027
-166.852	432.808	-0.042	0.090
-165.837	-31.709	0.058	0.032
-164.823	14.532	-0.107	-0.082
-163.808	537.907	0.079	0.185
-162.793	268.230	-0.155	0.267
-161.779	9.737	-0.188	0.140
-160.764	19.040	0.200	0.158
-159.750	-200.000	-0.013	0.218
-158.735	-61.885	0.195	-0.080
-157.720	147.120	0.115	0.152
-156.706	126.653	0.168	-0.209
-155.691	10.586	0.031	0.023
-154.677	336.771	0.150	0.286
-153.662	-200.000	-0.003	0.023
-152.647	-41.725	0.354	-0.178
-151.633	-200.000	0.026	0.278
-150.618	-133.973	0.041	0.005
-149.604	118.598	-0.222	0.270
-148.589	-200.000	0.000	-0.433
-147.574	80.676	-0.079	-0.084
-146.560	382.845	-0.089	-0.179
-145.545	-72.859	-0.310	0.112
-144.531	63.941	0.189	-0.187
-143.516	-83.955	0.179	0.056
-142.502	-14.238	0.231	0.146
-141.487	38.847	0.164	0.144
-140.472	370.649	-0.199	-0.397
-139.458	-61.428	-0.144	-0.059
-138.443	9.118	0.295	-0.218
-137.429	4.902	-0.085	0.061
-136.414	518.922	0.069	-0.158
-135.399	-62.927	-0.329	-0.134
-134.385	800.000	0.057	-0.174
-133.370	241.846	0.053	0.087
-132.356	46.303	-0.134	-0.122
-131.341	-139.219	-0.160	-0.017
-130.326	-55.479	-0.099	-0.044
-129.312	-0.971	0.277	0.192
-128.297	-200.000	-0.078	-0.381
-127.283	34.936	0.044	0.038
-126.268	72.680	0.159	-0.163
-125.253	247.582	-0.123	-0.205
-124.239	244.182	0.085	-0.140
-123.224	-57.448	0.258	-0.111
-122.210	53.661	0.128	0.120
-121.195	460.205	0.169	-0.370
