DTS Sentinel unit serial number:	SN413079Multiplexer serial number:	ORYXHardware model number:	OX4-SRSoftware version number:	ORYX F/W v4.00 Oryx Data Collector v3.7.2.0data status	okinstallation	princeton_trtdifferential loss correction	single-endedforward channel	channel 3reverse channel	N/Adate	2019/09/13time	11:28:35forward acquisition time	60.00reverse acquisition time	0.00gamma	496.2192k internal	0.2314k external	0.2314temperature offset calibration	1.0131default loss term (dB/km)	0.3790temperature slope calibration	1.0000multiplexer offset coefficient	1.0000multiplexer slope coefficient	1.0000fibre end	0.00T internal ref (°C)	32.69T ext. ref 1 (°C)	4.36T ext. ref 2 (°C)	30.12length (m)	temperature (°C)	Stokes	anti-Stokes-747.200	309.422	-0.080	-0.152
-746.185	-58.354	-0.266	0.117
-745.171	161.207	-0.027	0.039
-744.156	38.943	-0.302	0.273
-743.142	-114.377	0.356	-0.069
-742.127	363.326	-0.073	0.148
-741.112	66.889	0.324	-0.335
-740.098	-200.000	0.066	0.339
-739.083	-98.092	0.302	0.079
-738.069	6.872	-0.352	0.266
-737.054	680.596	0.080	0.211
-736.039	67.693	-0.111	0.115
-735.025	-74.922	-0.055	-0.020
-734.010	35.745	-0.103	-0.092
-732.996	-200.000	0.009	-0.396
-731.981	800.000	0.144	-0.485
-730.966	2.459	-0.129	-0.095
-729.952	115.092	0.291	-0.360
-728.937	-84.223	-0.197	-0.063
-727.923	8.540	0.323	-0.247
-726.908	-70.911	-0.176	-0.067
-725.894	-14.925	-0.211	0.137
-724.879	397.878	-0.046	-0.097
-723.864	800.000	0.075	-0.222
-722.850	-200.000	-0.010	0.103
-721.835	-107.795	-0.080	0.018
-720.821	125.202	-0.174	0.222
-719.806	-200.000	0.029	-0.235
-718.791	-42.537	-0.306	-0.158
-717.777	160.292	-0.179	-0.253
-716.762	-137.688	0.243	-0.028
-715.748	-123.714	0.107	-0.017
-714.733	27.402	-0.159	0.135
-713.718	-101.419	0.056	0.014
-712.704	800.000	0.093	-0.276
-711.689	-80.024	0.428	-0.145
-710.675	-200.000	-0.032	0.263
-709.660	-84.892	-0.258	-0.082
-708.645	-58.469	0.095	0.042
-707.631	-200.000	-0.036	0.167
-706.616	171.973	0.157	-0.228
-705.602	800.000	0.067	0.229
-704.587	-74.550	0.245	-0.089
-703.572	-37.135	0.135	-0.073
-702.558	202.701	0.074	0.115
-701.543	-4.860	-0.273	0.190
-700.529	-200.000	0.006	0.123
-699.514	-70.018	-0.579	-0.223
-698.499	82.796	0.203	-0.223
-697.485	-41.572	0.130	0.067
-696.470	-32.831	0.186	-0.105
-695.456	800.000	0.013	-0.056
-694.441	32.840	0.299	-0.262
-693.426	240.507	0.008	-0.013
-692.412	-200.000	0.048	-0.339
-691.397	-200.000	0.066	0.329
-690.383	-96.789	-0.358	-0.095
-689.368	382.059	-0.101	-0.210
-688.354	17.771	-0.211	-0.170
-687.339	502.319	-0.044	0.102
-686.324	440.373	-0.164	-0.362
-685.310	800.000	-0.092	-0.367
-684.295	-167.813	0.055	0.002
-683.281	116.263	0.197	0.244
-682.266	80.355	0.260	-0.283
-681.251	-163.144	0.389	-0.019
-680.237	119.577	0.035	-0.044
-679.222	11.123	0.197	-0.153
-678.208	500.157	-0.039	0.091
-677.193	-172.625	0.221	0.007
-676.178	183.462	0.182	-0.271
-675.164	-200.000	0.029	0.155
-674.149	-89.777	-0.215	-0.064
-673.135	601.567	-0.127	0.319
-672.120	-186.400	0.192	0.003
-671.105	-43.257	-0.422	0.216
-670.091	332.375	0.025	-0.049
-669.076	-200.000	-0.019	-0.234
-668.062	32.962	0.222	0.194
-667.047	-116.100	-0.155	0.029
-666.032	14.081	-0.156	0.122
-665.018	800.000	-0.085	-0.303
-664.003	148.866	0.039	0.053
-662.989	-200.000	-0.013	0.203
-661.974	163.376	0.145	-0.206
-660.959	-43.203	0.047	0.024
-659.945	87.704	-0.099	0.111
-658.930	800.000	0.123	-0.389
-657.916	40.962	-0.329	-0.300
-656.901	-200.000	0.008	-0.222
-655.886	-200.000	-0.040	-0.289
-654.872	144.384	-0.129	-0.174
-653.857	323.490	0.088	-0.169
-652.843	-200.000	0.106	0.000
-651.828	-200.000	-0.065	-0.289
-650.814	-75.642	0.184	0.066
-649.799	-200.000	0.006	-0.236
-648.784	-84.144	0.240	-0.077
-647.770	354.379	-0.161	-0.323
-646.755	800.000	0.066	-0.236
-645.741	201.620	-0.112	0.175
-644.726	126.826	0.087	0.111
-643.711	-1.397	-0.056	-0.040
-642.697	-29.141	-0.215	0.125
-641.682	-200.000	0.006	0.196
-640.668	-52.648	-0.338	-0.157
-639.653	768.942	-0.181	-0.498
-638.638	16.712	-0.185	0.148
-637.624	-148.508	0.463	0.038
-636.609	461.198	0.086	-0.193
-635.595	-32.656	0.198	0.111
-634.580	-200.000	-0.048	0.255
-633.565	240.727	0.077	0.130
-632.551	-78.597	-0.361	-0.125
-631.536	-63.586	-0.270	-0.112
-630.522	-26.023	-0.099	-0.059
-629.507	-200.000	-0.011	0.058
-628.492	-100.508	0.193	-0.048
-627.478	-61.426	-0.294	0.125
-626.463	-58.977	-0.349	0.152
-625.449	26.756	0.310	0.262
-624.434	-57.853	0.247	0.109
-623.419	800.000	-0.092	0.346
-622.405	-153.355	-0.149	0.010
-621.390	-173.860	-0.143	0.004
-620.376	-94.385	0.095	0.026
-619.361	341.599	-0.110	0.218
-618.346	278.132	0.077	-0.139
-617.332	734.386	0.099	-0.268
-616.317	232.676	0.010	-0.016
-615.303	-120.509	0.219	-0.038
-614.288	19.225	0.238	0.192
-613.273	-42.841	0.147	-0.075
-612.259	158.139	-0.168	-0.235
-611.244	-161.417	0.264	0.014
-610.230	-35.268	0.309	0.170
-609.215	12.626	-0.223	0.173
-608.201	-83.684	0.159	-0.051
-607.186	-180.782	-0.204	-0.004
-606.171	-136.040	0.103	0.012
-605.157	800.000	-0.111	0.382
-604.142	481.515	0.044	-0.101
-603.128	195.562	0.263	-0.403
-602.113	458.402	0.121	0.270
-601.098	99.808	0.147	0.172
-600.084	-34.542	-0.131	0.072
-599.069	192.528	0.029	0.045
-598.055	800.000	-0.051	-0.208
-597.040	800.000	0.026	-0.086
-596.025	3.150	-0.221	-0.162
-595.011	800.000	0.054	-0.172
-593.996	432.349	0.109	-0.237
-592.982	-167.878	0.439	-0.017
-591.967	148.415	-0.057	0.077
-590.952	-122.784	0.277	0.045
-589.938	-15.728	0.166	0.107
-588.923	-200.000	0.034	-0.384
-587.909	800.000	0.099	-0.292
-586.894	-182.224	-0.196	0.004
-585.879	-200.000	0.018	0.213
-584.865	-200.000	-0.043	-0.282
-583.850	-200.000	0.015	-0.177
-582.836	-61.626	-0.118	-0.050
-581.821	161.570	0.063	0.088
-580.806	-200.000	0.011	-0.212
-579.792	-9.699	0.482	-0.323
-578.777	800.000	-0.026	-0.075
-577.763	129.086	-0.014	-0.018
-576.748	6.810	0.188	0.141
-575.733	0.184	0.348	0.250
-574.719	800.000	-0.060	-0.213
-573.704	22.220	-0.209	-0.172
-572.690	-74.914	0.223	-0.080
-571.675	-173.952	0.117	0.003
-570.661	72.245	-0.115	-0.121
-569.646	-200.000	-0.091	-0.427
-568.631	77.002	-0.060	-0.064
-567.617	-38.156	-0.237	-0.127
-566.602	-29.391	-0.096	-0.055
-565.588	-200.000	-0.001	-0.166
-564.573	-130.968	0.233	-0.031
-563.558	62.272	0.158	0.159
-562.544	-146.135	0.228	-0.020
-561.529	62.902	0.060	0.061
-560.515	-200.000	0.010	0.087
-559.500	-67.718	0.144	-0.057
-558.485	44.398	-0.136	0.126
-557.471	800.000	-0.076	-0.276
-556.456	47.930	-0.142	-0.133
-555.442	590.619	0.095	-0.237
-554.427	-29.365	0.160	0.092
-553.412	25.086	0.112	-0.094
-552.398	196.117	-0.124	0.190
-551.383	-170.531	-0.126	-0.004
-550.369	34.566	0.131	0.115
-549.354	241.228	0.171	0.288
-548.339	800.000	0.063	0.254
-547.325	-105.339	0.243	0.056
-546.310	90.194	-0.059	0.066
-545.296	800.000	-0.060	0.224
-544.281	-82.433	-0.104	-0.034
-543.266	-25.207	0.464	-0.277
-542.252	10.851	0.145	0.111
-541.237	96.946	-0.044	0.051
-540.223	800.000	-0.044	-0.180
-539.208	-85.639	0.039	0.012
-538.193	73.769	-0.219	-0.231
-537.179	35.709	0.205	-0.181
-536.164	-33.390	-0.440	0.245
-535.150	565.886	0.073	0.178
-534.135	-45.684	0.391	-0.194
-533.121	-165.888	-0.142	0.006
-532.106	37.864	0.079	0.071
-531.091	425.463	-0.059	-0.127
-530.077	88.212	-0.325	-0.363
-529.062	-41.542	0.380	-0.196
-528.048	357.363	0.083	-0.166
-527.033	-183.282	-0.239	0.004
-526.018	-110.777	0.357	-0.074
-525.004	-140.666	0.367	-0.038
-523.989	90.937	-0.169	0.190
-522.975	-122.171	-0.261	-0.043
-521.960	-141.624	0.199	0.020
-520.945	-105.092	-0.093	0.021
-519.931	-127.054	-0.122	0.018
-518.916	-130.386	-0.055	0.007
-517.902	12.902	0.154	-0.120
-516.887	-50.028	-0.082	-0.039
-515.872	800.000	-0.008	-0.028
-514.858	-105.289	-0.412	0.094
-513.843	89.993	-0.080	0.090
-512.829	-52.811	0.112	0.052
-511.814	800.000	-0.025	0.077
-510.799	222.401	-0.131	0.212
-509.785	800.000	0.028	0.109
-508.770	-111.038	-0.128	-0.026
-507.756	1.574	0.171	0.124
-506.741	83.154	0.159	0.174
-505.726	-66.326	0.095	-0.038
-504.712	32.303	-0.101	0.087
-503.697	-135.329	0.016	0.002
-502.683	-63.190	0.203	0.084
-501.668	81.753	0.356	0.387
-500.653	35.072	0.067	0.058
-499.639	-22.065	0.097	-0.059
-498.624	7.477	0.131	-0.098
-497.610	34.637	0.202	-0.177
-496.595	-0.493	-0.143	0.102
-495.581	747.629	0.029	0.079
-494.566	171.812	-0.159	-0.229
-493.551	-177.032	-0.146	0.004
-492.537	110.261	0.061	0.073
-491.522	-110.344	-0.209	-0.044
-490.508	-78.699	-0.264	0.091
-489.493	18.825	0.233	-0.188
-488.478	-132.615	0.290	-0.037
-487.464	-84.578	-0.305	-0.097
-486.449	-31.432	-0.055	0.031
-485.435	-74.384	0.188	0.068
-484.420	-17.554	0.182	0.115
-483.405	59.311	-0.212	0.209
-482.391	-200.000	0.056	-0.281
-481.376	-200.000	-0.037	-0.177
-480.362	-14.789	0.386	0.248
-479.347	-59.811	0.099	-0.043
-478.332	-45.790	-0.154	0.076
-477.318	800.000	0.062	-0.240
-476.303	-18.932	-0.194	0.121
-475.289	32.031	0.229	0.198
-474.274	-112.406	-0.155	0.031
-473.259	-46.268	-0.063	0.031
-472.245	-117.344	0.454	-0.083
-471.230	-200.000	-0.043	-0.314
-470.216	-200.000	0.000	-0.136
-469.201	497.070	0.153	-0.353
-468.186	-200.000	-0.055	-0.432
-467.172	193.166	-0.167	-0.254
-466.157	-60.108	0.137	0.059
-465.143	64.945	-0.316	-0.320
-464.128	-200.000	-0.059	-0.334
-463.113	800.000	0.072	-0.225
-462.099	-94.866	0.418	0.114
-461.084	800.000	0.101	0.441
-460.070	-200.000	-0.008	-0.355
-459.055	104.526	-0.158	-0.187
-458.040	-200.000	0.000	0.027
-457.026	-200.000	-0.025	-0.124
-456.011	-51.607	0.119	-0.056
-454.997	-110.833	-0.139	-0.029
-453.982	-121.689	0.388	0.064
-452.968	-200.000	-0.022	-0.104
-451.953	114.818	-0.141	0.173
-450.938	-200.000	-0.005	0.026
-449.924	3.477	-0.165	-0.121
-448.909	800.000	0.074	0.235
-447.895	8.124	0.203	-0.153
-446.880	800.000	-0.035	0.100
-445.865	11.201	0.132	0.101
-444.851	24.110	-0.152	0.126
-443.836	-79.482	0.016	0.005
-442.822	-67.146	0.275	-0.109
-441.807	269.770	0.170	0.300
-440.792	160.378	-0.258	0.361
-439.778	143.712	0.147	0.196
-438.763	-60.899	0.071	0.030
-437.749	-142.078	-0.294	-0.029
-436.734	762.872	-0.059	-0.160
-435.719	445.734	-0.123	-0.271
-434.705	17.909	-0.184	-0.146
-433.690	-94.994	-0.240	0.065
-432.676	707.521	-0.146	-0.387
-431.661	-122.752	0.400	0.065
-430.646	800.000	0.060	0.232
-429.632	-91.593	-0.085	-0.024
-428.617	128.925	0.078	0.099
-427.603	-200.000	-0.038	-0.198
-426.588	101.180	0.196	0.228
-425.573	-77.363	0.101	0.035
-424.559	-200.000	-0.015	0.162
-423.544	-110.409	0.189	0.039
-422.530	800.000	-0.090	0.291
-421.515	-58.731	0.223	-0.097
-420.500	119.071	-0.124	-0.154
-419.486	-200.000	-0.001	0.149
-418.471	800.000	0.027	0.084
-417.457	-48.205	-0.223	0.108
-416.442	-127.739	-0.125	-0.018
-415.428	387.677	0.083	-0.172
-414.413	800.000	-0.035	-0.131
-413.398	-32.613	-0.143	-0.080
-412.384	183.767	-0.248	0.366
-411.369	212.858	-0.056	-0.089
-410.355	-38.713	0.148	0.078
-409.340	163.628	-0.244	0.344
-408.325	-137.594	0.282	-0.032
-407.311	-200.000	-0.032	-0.243
-406.296	-200.000	-0.042	-0.225
-405.282	33.202	-0.240	-0.208
-404.267	-136.754	0.306	0.035
-403.252	312.716	0.071	-0.134
-402.238	-95.517	-0.136	0.036
-401.223	56.838	-0.111	0.108
-400.209	-200.000	0.018	-0.108
-399.194	20.027	0.451	0.364
-398.179	-95.240	0.089	0.024
-397.165	-99.470	0.351	0.088
-396.150	-200.000	-0.065	-0.383
-395.136	270.710	0.159	-0.280
-394.121	132.613	0.073	-0.094
-393.106	-200.000	-0.009	-0.042
-392.092	-200.000	0.073	0.383
-391.077	105.587	-0.253	0.298
-390.063	-200.000	0.001	0.149
-389.048	-68.187	0.130	-0.051
-388.033	-60.922	0.269	-0.114
-387.019	91.488	-0.033	0.037
-386.004	-28.058	-0.128	-0.074
-384.990	-31.805	0.276	0.155
-383.975	753.758	-0.044	0.118
-382.960	-1.955	0.157	0.110
-381.946	237.009	-0.069	0.114
-380.931	226.241	0.084	-0.136
-379.917	-200.000	-0.006	-0.308
-378.902	-29.484	-0.249	0.142
-377.888	-200.000	-0.047	0.327
-376.873	84.413	-0.082	0.090
-375.858	-73.510	0.300	-0.109
-374.844	34.628	0.189	-0.165
-373.829	-170.823	-0.195	-0.007
-372.815	18.560	-0.163	0.130
-371.800	800.000	-0.132	-0.438
-370.785	6.425	-0.123	0.091
-369.771	-121.694	0.416	-0.069
-368.756	-81.062	0.294	0.097
-367.742	246.680	-0.080	-0.135
-366.727	6.684	0.105	-0.078
-365.712	-109.048	-0.164	0.035
-364.698	460.761	0.100	0.222
-363.683	-140.192	0.289	-0.030
-362.669	40.822	0.303	0.273
-361.654	154.254	-0.069	0.095
-360.639	800.000	0.045	-0.156
-359.625	800.000	-0.080	-0.306
-358.610	800.000	0.095	0.325
-357.596	-200.000	-0.004	-0.145
-356.581	-200.000	0.030	0.285
-355.566	164.172	-0.141	0.198
-354.552	452.261	-0.102	0.226
-353.537	-120.965	-0.207	-0.035
-352.523	143.669	0.102	-0.135
-351.508	-113.827	-0.305	-0.059
-350.493	8.222	0.456	-0.342
-349.479	48.055	0.161	-0.150
-348.464	-30.644	-0.147	0.083
-347.450	48.215	-0.173	-0.161
-346.435	-70.473	-0.166	-0.063
-345.420	118.844	0.078	0.096
-344.406	800.000	0.048	-0.147
-343.391	-200.000	-0.026	0.171
-342.377	800.000	-0.018	0.060
-341.362	-85.987	0.102	-0.031
-340.348	-77.933	-0.352	-0.121
-339.333	133.106	-0.051	0.066
-338.318	-125.251	0.102	0.016
-337.304	-85.795	0.285	0.088
-336.289	-120.751	-0.071	-0.012
-335.275	-121.647	-0.237	0.039
-334.260	-200.000	0.034	0.269
-333.245	18.085	0.177	-0.140
-332.231	65.221	0.225	0.227
-331.216	-200.000	0.015	0.116
-330.202	97.926	0.337	-0.387
-329.187	-200.000	0.066	-0.290
-328.172	-147.611	-0.117	0.010
-327.158	-200.000	0.021	0.155
-326.143	-95.584	-0.183	0.049
-325.129	57.523	0.167	0.163
-324.114	-93.568	-0.156	-0.043
-323.099	2.232	0.056	0.040
-322.085	10.789	-0.136	-0.103
-321.070	800.000	0.053	0.169
-320.056	-144.005	0.028	-0.003
-319.041	-132.221	-0.498	0.064
-318.026	33.339	-0.182	-0.157
-317.012	-200.000	0.042	-0.233
-315.997	212.499	-0.094	0.148
-314.983	-28.770	-0.167	0.096
-313.968	170.394	-0.051	-0.073
-312.953	328.308	-0.044	-0.084
-311.939	-60.823	0.204	0.086
-310.924	-14.153	-0.304	0.196
-309.910	111.254	0.345	-0.415
-308.895	-29.387	-0.163	0.093
-307.880	-109.231	-0.090	0.019
-306.866	130.123	0.095	-0.122
-305.851	-200.000	-0.024	0.289
-304.837	86.558	0.189	0.208
-303.822	800.000	-0.057	-0.185
-302.807	531.307	0.052	-0.122
-301.793	253.884	-0.045	0.076
-300.778	800.000	0.042	-0.179
-299.764	58.083	-0.051	0.050
-298.749	800.000	-0.095	0.271
-297.735	6.115	-0.245	-0.181
-296.720	-49.488	0.300	0.142
-295.705	-200.000	0.014	-0.106
-294.691	-32.272	0.097	-0.054
-293.676	-31.846	-0.264	-0.148
-292.662	-129.739	0.358	-0.049
-291.647	71.141	-0.168	-0.173
-290.632	-200.000	-0.025	0.166
-289.618	-200.000	-0.040	-0.230
-288.603	-186.566	-0.030	0.000
-287.589	74.040	0.238	-0.249
-286.574	800.000	-0.066	-0.182
-285.559	-200.000	-0.006	0.182
-284.545	-25.677	0.170	-0.100
-283.530	177.595	-0.174	0.253
-282.516	-129.502	-0.271	0.037
-281.501	-67.404	-0.127	-0.050
-280.486	-186.354	0.329	0.005
-279.472	-101.061	-0.379	0.092
-278.457	188.908	-0.216	0.323
-277.443	-79.623	0.112	-0.037
-276.428	-7.236	-0.096	0.064
-275.413	29.731	-0.165	0.139
-274.399	800.000	-0.087	0.336
-273.384	-200.000	-0.036	0.212
-272.370	548.764	0.124	-0.295
-271.355	-51.838	0.137	-0.064
-270.340	-53.145	-0.093	0.042
-269.326	38.526	0.200	-0.177
-268.311	-106.463	-0.206	-0.046
-267.297	-160.647	0.152	0.008
-266.282	-91.075	0.048	-0.014
-265.267	-10.387	-0.325	0.214
-264.253	46.332	0.023	0.021
-263.238	-200.000	0.011	0.189
-262.224	497.556	0.098	-0.224
-261.209	-200.000	-0.026	-0.326
-260.195	-200.000	0.049	0.309
-259.180	25.434	-0.094	-0.077
-258.165	800.000	-0.052	-0.182
-257.151	-114.316	0.180	0.034
-256.136	-122.724	-0.153	0.025
-255.122	391.878	-0.078	0.162
-254.107	358.336	-0.200	0.398
-253.092	30.279	0.074	0.063
-252.078	-61.295	-0.090	-0.038
-251.063	-200.000	-0.023	-0.112
-250.049	14.655	-0.095	-0.073
-249.034	-91.072	-0.444	-0.127
-248.019	224.088	0.121	0.195
-247.005	-200.000	-0.003	-0.128
-245.990	135.044	0.106	-0.137
-244.976	-48.006	-0.525	-0.253
-243.961	-103.569	0.149	0.035
-242.946	-102.516	-0.116	0.027
-241.932	345.442	0.077	0.151
-240.917	-33.543	-0.169	-0.093
-239.903	530.808	-0.062	0.146
-238.888	393.402	0.142	-0.295
-237.873	-2.752	-0.244	0.170
-236.859	-153.875	-0.121	0.008
-235.844	74.881	0.061	0.064
-234.830	-110.855	0.110	0.023
-233.815	186.914	-0.095	-0.141
-232.800	800.000	0.044	0.142
-231.786	800.000	0.078	-0.307
-230.771	800.000	0.106	-0.301
-229.757	155.930	0.065	0.089
-228.742	488.734	-0.090	-0.204
-227.727	-93.414	0.105	0.029
-226.713	-18.485	-0.336	-0.208
-225.698	-109.366	0.261	0.055
-224.684	25.487	-0.177	-0.146
-223.669	66.063	0.140	-0.141
-222.655	231.570	0.090	0.146
-221.640	441.243	-0.220	0.477
-220.625	-200.000	-0.007	0.138
-219.611	647.902	0.091	-0.230
-218.596	-114.824	-0.098	0.019
-217.582	98.563	0.153	-0.175
-216.567	119.299	0.102	-0.125
-215.552	800.000	0.049	0.150
-214.538	-200.000	0.033	0.151
-213.523	-73.162	-0.141	0.051
-212.509	-21.516	0.157	-0.095
-211.494	201.270	-0.076	-0.117
-210.479	75.127	-0.216	0.226
-209.465	407.692	-0.132	0.278
-208.450	13.978	0.072	-0.055
-207.436	104.507	0.024	-0.028
-206.421	-200.000	0.043	0.473
-205.406	-143.905	0.017	0.002
-204.392	-14.008	-0.241	0.154
-203.377	97.254	-0.183	0.208
-202.363	-200.000	-0.035	0.385
-201.348	120.863	-0.023	-0.029
-200.333	-141.310	-0.339	-0.034
-199.319	800.000	-0.044	0.122
-198.304	28.938	-0.290	0.244
-197.290	-200.000	0.017	-0.293
-196.275	-32.062	-0.170	-0.095
-195.260	-26.654	-0.126	0.073
-194.246	-36.095	-0.207	-0.111
-193.231	-114.758	0.316	-0.060
-192.217	-148.739	0.038	-0.003
-191.202	800.000	0.016	0.061
-190.187	774.754	0.123	0.334
-189.173	-61.276	-0.285	0.119
-188.158	-200.000	-0.019	0.257
-187.144	-156.162	0.232	0.015
-186.129	-34.322	-0.471	-0.256
-185.114	-41.668	-0.094	-0.048
-184.100	28.299	-0.332	0.278
-183.085	-81.244	-0.207	-0.068
-182.071	-9.087	-0.036	0.024
-181.056	-55.252	-0.219	0.098
-180.042	154.317	-0.183	0.249
-179.027	-142.602	0.229	-0.022
-178.012	472.147	0.106	-0.236
-176.998	-8.275	-0.216	-0.144
-175.983	-67.510	0.475	0.185
-174.969	-200.000	0.002	-0.181
-173.954	192.490	-0.099	-0.148
-172.939	142.910	-0.051	-0.067
-171.925	-88.805	0.300	0.088
-170.910	-200.000	-0.002	-0.353
-169.896	-33.020	-0.361	-0.199
-168.881	-112.249	0.120	-0.024
-167.866	-200.000	-0.019	0.000
-166.852	60.412	0.101	0.099
-165.837	-88.211	-0.226	-0.067
-164.823	351.129	-0.191	0.374
-163.808	-200.000	0.045	0.275
-162.793	-12.999	-0.411	0.265
-161.779	1.603	0.149	-0.107
-160.764	-200.000	-0.042	0.241
-159.750	-200.000	0.043	0.204
-158.735	-187.383	-0.247	-0.003
-157.720	270.516	0.107	0.187
-156.706	-200.000	0.013	0.063
-155.691	-82.612	-0.132	-0.042
-154.677	-94.752	0.249	-0.067
-153.662	42.327	0.083	0.075
-152.647	-133.315	-0.220	0.027
-151.633	427.942	-0.156	0.334
-150.618	-200.000	0.050	-0.234
-149.604	218.678	0.169	-0.268
-148.589	-200.000	-0.015	-0.185
-147.574	-79.600	0.153	0.051
-146.560	-40.569	-0.401	-0.206
-145.545	-38.249	0.255	0.134
-144.531	-40.984	-0.094	-0.048
-143.516	84.054	0.182	0.197
-142.502	-200.000	-0.001	0.034
-141.487	-167.943	-0.433	0.017
-140.472	-200.000	-0.072	0.506
-139.458	800.000	0.046	-0.152
-138.443	412.906	-0.027	0.057
-137.429	246.393	-0.035	-0.058
-136.414	-200.000	-0.047	-0.256
-135.399	-200.000	0.026	0.206
-134.385	800.000	0.021	-0.068
-133.370	179.790	-0.235	-0.340
-132.356	-200.000	-0.020	-0.264
-131.341	800.000	-0.111	0.307
-130.326	-21.845	0.277	-0.167
-129.312	-77.496	-0.388	-0.133
-128.297	144.017	0.129	0.171
-127.283	-200.000	0.029	0.154
-126.268	109.961	0.215	0.256
-125.253	146.529	-0.220	-0.292
-124.239	-200.000	-0.002	-0.038
-123.224	-108.273	0.171	0.037
-122.210	800.000	0.017	-0.049
-121.195	-105.813	-0.189	0.042
