DTS Sentinel unit serial number:	SN413079Multiplexer serial number:	ORYXHardware model number:	OX4-SRSoftware version number:	ORYX F/W v4.00 Oryx Data Collector v3.7.2.0data status	okinstallation	princeton_trtdifferential loss correction	single-endedforward channel	channel 3reverse channel	N/Adate	2019/09/13time	10:36:35forward acquisition time	60.00reverse acquisition time	0.00gamma	496.2192k internal	0.2320k external	0.2320temperature offset calibration	1.0144default loss term (dB/km)	0.3790temperature slope calibration	1.0000multiplexer offset coefficient	1.0000multiplexer slope coefficient	1.0000fibre end	0.00T internal ref (°C)	31.31T ext. ref 1 (°C)	4.56T ext. ref 2 (°C)	28.17length (m)	temperature (°C)	Stokes	anti-Stokes-747.200	-53.345	-0.139	0.064
-746.185	-106.161	0.255	0.058
-745.171	-57.729	0.107	0.047
-744.156	-162.621	-0.414	-0.021
-743.142	-64.589	0.148	-0.061
-742.127	-65.552	0.412	0.167
-741.112	-200.000	-0.020	0.102
-740.098	-130.084	-0.271	0.037
-739.083	-169.835	0.140	-0.005
-738.069	800.000	-0.125	0.474
-737.054	73.372	-0.074	-0.078
-736.039	92.627	-0.106	-0.121
-735.025	800.000	0.023	0.075
-734.010	-79.822	-0.113	-0.038
-732.996	-200.000	0.001	-0.158
-731.981	530.898	-0.020	0.048
-730.966	-57.406	0.079	0.035
-729.952	-64.041	-0.447	0.185
-728.937	-200.000	-0.026	-0.200
-727.923	118.981	-0.109	-0.136
-726.908	652.573	-0.027	-0.071
-725.894	-136.929	-0.281	-0.033
-724.879	-29.251	-0.128	0.074
-723.864	-78.561	0.134	0.046
-722.850	-101.070	-0.169	-0.042
-721.835	-155.983	-0.245	0.016
-720.821	131.800	-0.141	0.183
-719.806	-56.555	0.115	0.051
-718.791	-35.437	0.136	0.075
-717.777	237.434	0.148	0.249
-716.762	-127.356	0.066	0.010
-715.748	145.764	0.076	0.102
-714.733	377.961	0.046	0.095
-713.718	-78.050	-0.158	-0.055
-712.704	-200.000	0.054	-0.386
-711.689	18.333	0.073	-0.059
-710.675	7.361	0.362	0.273
-709.660	-48.503	0.125	0.061
-708.645	295.361	-0.166	0.307
-707.631	800.000	0.024	-0.103
-706.616	-79.885	-0.204	0.069
-705.602	510.769	0.108	-0.255
-704.587	54.673	-0.147	-0.143
-703.572	-68.985	0.278	0.108
-702.558	4.741	-0.268	0.199
-701.543	-29.384	-0.252	-0.146
-700.529	-56.794	-0.140	0.063
-699.514	397.390	0.073	0.155
-698.499	-112.309	-0.324	-0.066
-697.485	258.184	-0.241	-0.419
-696.470	-15.890	-0.007	-0.005
-695.456	12.978	-0.384	0.300
-694.441	-21.527	0.186	-0.115
-693.426	-200.000	-0.021	-0.102
-692.412	-200.000	0.004	-0.060
-691.397	299.607	0.078	-0.146
-690.383	-30.749	-0.158	-0.090
-689.368	177.865	0.151	0.222
-688.354	-200.000	0.045	-0.258
-687.339	800.000	0.038	0.140
-686.324	800.000	0.038	0.150
-685.310	-101.776	0.115	0.028
-684.295	-17.732	0.184	0.117
-683.281	-3.917	0.190	-0.133
-682.266	-131.705	-0.398	-0.053
-681.251	243.562	-0.078	-0.133
-680.237	-52.548	-0.123	0.057
-679.222	131.505	-0.087	-0.113
-678.208	56.260	-0.095	0.093
-677.193	-200.000	-0.073	-0.350
-676.178	-200.000	-0.076	0.346
-675.164	18.201	0.076	-0.061
-674.149	-109.794	0.280	0.059
-673.135	-200.000	-0.034	0.162
-672.120	-36.688	-0.206	-0.112
-671.105	407.889	-0.039	-0.084
-670.091	-200.000	-0.014	-0.372
-669.076	735.266	-0.075	0.202
-668.062	-130.169	-0.037	-0.005
-667.047	-200.000	-0.001	0.120
-666.032	800.000	-0.030	-0.095
-665.018	-82.587	-0.510	0.167
-664.003	-99.913	-0.177	0.045
-662.989	-55.006	0.069	0.031
-661.974	800.000	0.056	-0.201
-660.959	-21.113	0.275	-0.170
-659.945	101.651	-0.120	0.141
-658.930	-200.000	0.037	-0.252
-657.916	-21.525	-0.121	-0.074
-656.901	-200.000	0.001	-0.238
-655.886	76.343	0.160	-0.171
-654.872	-99.439	-0.156	0.040
-653.857	-71.376	0.107	-0.040
-652.843	-35.571	0.263	-0.144
-651.828	-200.000	-0.007	-0.160
-650.814	-2.444	0.085	0.060
-649.799	71.758	0.097	0.102
-648.784	-200.000	-0.014	0.174
-647.770	531.446	-0.065	0.155
-646.755	800.000	-0.097	0.374
-645.741	-18.501	0.095	0.060
-644.726	26.748	-0.128	0.108
-643.711	-152.395	0.113	-0.008
-642.697	-70.244	-0.180	-0.069
-641.682	-200.000	-0.005	-0.160
-640.668	241.402	0.206	0.347
-639.653	295.234	0.134	-0.247
-638.638	-90.321	0.282	-0.083
-637.624	11.422	-0.146	-0.113
-636.609	54.142	0.122	0.118
-635.595	-200.000	-0.015	-0.403
-634.580	-128.803	0.209	0.030
-633.565	264.796	0.168	0.295
-632.551	-52.469	0.101	-0.047
-631.536	245.351	0.224	-0.380
-630.522	701.191	-0.016	-0.042
-629.507	-145.938	-0.152	0.014
-628.492	35.304	-0.132	-0.117
-627.478	165.467	0.088	-0.125
-626.463	-200.000	0.025	0.371
-625.449	91.743	-0.120	-0.136
-624.434	-57.536	-0.257	-0.113
-623.419	-7.395	0.065	0.044
-622.405	253.551	0.148	0.254
-621.390	347.603	-0.011	0.022
-620.376	264.394	-0.121	-0.212
-619.361	-200.000	0.014	0.434
-618.346	-94.776	-0.275	0.075
-617.332	-131.134	0.258	0.034
-616.317	-129.128	-0.114	0.016
-615.303	30.329	-0.234	0.201
-614.288	-200.000	-0.002	0.062
-613.273	-144.178	-0.013	-0.001
-612.259	800.000	0.144	-0.408
-611.244	44.378	0.039	-0.036
-610.230	31.844	-0.132	0.115
-609.215	461.941	0.177	-0.397
-608.201	-190.653	-0.359	0.004
-607.186	97.794	0.094	-0.108
-606.171	419.471	-0.099	-0.213
-605.157	-86.098	0.334	-0.104
-604.142	-114.227	0.298	-0.058
-603.128	-200.000	-0.002	0.220
-602.113	800.000	-0.045	0.170
-601.098	-200.000	0.012	-0.118
-600.084	97.382	0.145	0.168
-599.069	589.361	0.075	0.186
-598.055	-38.954	-0.130	-0.069
-597.040	323.802	-0.125	-0.240
-596.025	50.132	0.052	-0.049
-595.011	209.735	-0.104	-0.164
-593.996	121.884	0.168	0.210
-592.982	-200.000	0.044	-0.311
-591.967	49.099	0.261	0.246
-590.952	-96.261	-0.270	0.072
-589.938	407.225	-0.066	-0.140
-588.923	-66.292	-0.221	-0.088
-587.909	-99.026	-0.399	0.102
-586.894	-189.208	0.231	0.003
-585.879	74.622	0.092	0.097
-584.865	54.386	-0.185	-0.179
-583.850	89.963	0.038	0.043
-582.836	800.000	0.079	-0.323
-581.821	29.870	0.319	-0.273
-580.806	17.219	-0.146	-0.116
-579.792	-66.681	0.348	-0.138
-578.777	-200.000	-0.002	0.097
-577.763	76.101	-0.250	-0.266
-576.748	800.000	0.150	0.419
-575.733	387.164	-0.082	-0.170
-574.719	197.858	-0.044	-0.067
-573.704	-132.280	-0.097	0.013
-572.690	800.000	-0.056	-0.189
-571.675	-200.000	-0.036	-0.227
-570.661	39.328	0.111	-0.100
-569.646	26.786	-0.143	0.121
-568.631	800.000	-0.065	0.206
-567.617	-200.000	-0.040	-0.362
-566.602	-200.000	-0.016	-0.286
-565.588	-200.000	0.036	0.328
-564.573	165.139	-0.175	-0.248
-563.558	-76.925	0.054	-0.019
-562.544	136.123	-0.014	0.018
-561.529	800.000	-0.056	-0.228
-560.515	145.103	0.144	-0.194
-559.500	-128.037	-0.225	0.032
-558.485	-200.000	-0.037	-0.316
-557.471	-69.710	0.287	0.110
-556.456	-55.789	-0.095	-0.042
-555.442	800.000	0.057	0.168
-554.427	119.297	-0.177	-0.220
-553.412	-19.899	-0.183	-0.113
-552.398	-200.000	0.101	0.446
-551.383	131.822	0.224	0.289
-550.369	-200.000	-0.015	0.080
-549.354	127.404	0.074	0.094
-548.339	-200.000	-0.007	-0.088
-547.325	-37.191	-0.172	-0.092
-546.310	-11.104	-0.269	0.178
-545.296	800.000	0.002	-0.010
-544.281	64.935	0.157	0.159
-543.266	-85.871	-0.371	-0.115
-542.252	-62.206	0.032	0.013
-541.237	-53.461	0.136	0.062
-540.223	286.177	0.079	0.144
-539.208	-54.241	-0.173	0.079
-538.193	283.013	0.047	0.085
-537.179	33.597	0.192	0.167
-536.164	-200.000	-0.027	-0.135
-535.150	-89.033	0.072	0.022
-534.135	800.000	0.088	0.346
-533.121	-28.446	0.169	-0.098
-532.106	-157.319	-0.096	-0.006
-531.091	-200.000	-0.016	-0.255
-530.077	135.071	0.122	0.159
-529.062	-75.786	-0.201	-0.071
-528.048	606.786	-0.100	0.251
-527.033	-9.697	0.203	0.135
-526.018	-200.000	0.029	0.318
-525.004	-131.071	0.244	-0.033
-523.989	-74.442	-0.182	0.066
-522.975	-18.495	-0.286	-0.179
-521.960	-200.000	0.003	-0.158
-520.945	-7.519	-0.064	-0.044
-519.931	-116.843	-0.255	0.047
-518.916	72.094	-0.159	0.166
-517.902	-77.414	0.247	-0.086
-516.887	-200.000	0.054	0.325
-515.872	34.903	-0.118	0.104
-514.858	800.000	-0.114	0.467
-513.843	-55.861	-0.051	0.023
-512.829	-44.205	0.090	-0.045
-511.814	-200.000	0.023	0.345
-510.799	-16.807	-0.070	-0.044
-509.785	-127.379	0.252	0.037
-508.770	-200.000	-0.018	-0.237
-507.756	-200.000	0.016	0.213
-506.741	-200.000	-0.036	-0.217
-505.726	-12.831	-0.084	0.055
-504.712	-200.000	0.010	0.045
-503.697	-200.000	0.031	0.000
-502.683	-200.000	-0.041	-0.206
-501.668	-133.752	0.312	-0.039
-500.653	-137.572	-0.243	0.027
-499.639	-93.714	0.257	-0.071
-498.624	800.000	0.102	-0.391
-497.610	148.242	0.152	-0.206
-496.595	-200.000	0.043	-0.278
-495.581	800.000	0.022	0.087
-494.566	800.000	0.077	-0.281
-493.551	-200.000	-0.030	-0.366
-492.537	563.852	0.187	-0.454
-491.522	-171.093	0.190	0.006
-490.508	-146.886	0.194	-0.017
-489.493	-48.767	0.178	-0.086
-488.478	-200.000	-0.035	-0.266
-487.464	149.776	-0.072	-0.097
-486.449	745.835	0.151	-0.408
-485.435	-88.324	-0.316	0.095
-484.420	192.097	0.092	0.139
-483.405	-82.848	0.029	0.009
-482.391	-200.000	0.067	0.312
-481.376	-52.136	-0.097	0.045
-480.362	-84.593	-0.293	0.093
-479.347	-44.962	-0.249	0.124
-478.332	341.659	0.114	-0.222
-477.318	-137.188	0.197	0.022
-476.303	56.756	-0.274	0.267
-475.289	131.923	-0.144	-0.185
-474.274	47.653	-0.148	-0.138
-473.259	-162.474	0.089	0.004
-472.245	-200.000	-0.034	0.334
-471.230	-113.562	-0.365	-0.071
-470.216	800.000	-0.056	-0.190
-469.201	800.000	0.056	0.178
-468.186	-99.953	-0.202	0.051
-467.172	-58.725	-0.107	0.046
-466.157	-65.866	-0.192	0.077
-465.143	-200.000	-0.030	0.198
-464.128	6.350	-0.299	0.222
-463.113	-200.000	-0.264	0.000
-462.099	436.397	0.087	0.188
-461.084	-31.390	0.269	0.151
-460.070	138.016	0.063	0.082
-459.055	-200.000	0.030	-0.295
-458.040	-0.085	-0.092	-0.065
-457.026	-49.845	0.453	0.215
-456.011	-78.391	0.210	0.072
-454.997	101.317	0.127	0.148
-453.982	38.272	0.110	0.098
-452.968	-48.245	-0.284	-0.137
-451.953	-139.725	0.163	-0.017
-450.938	-121.651	0.095	-0.016
-449.924	14.785	-0.232	-0.181
-448.909	33.829	-0.135	-0.117
-447.895	-20.216	0.158	0.097
-446.880	800.000	0.074	0.246
-445.865	274.512	-0.084	-0.149
-444.851	-29.634	-0.158	-0.090
-443.836	323.057	-0.181	-0.345
-442.822	-93.030	-0.279	-0.078
-441.807	-60.523	-0.216	0.092
-440.792	-84.184	-0.163	-0.052
-439.778	365.263	-0.178	0.359
-438.763	61.878	-0.062	0.062
-437.749	-88.182	0.060	0.018
-436.734	-154.552	-0.310	0.021
-435.719	165.617	-0.112	0.158
-434.705	177.493	0.252	-0.367
-433.690	37.821	-0.247	0.219
-432.676	-200.000	-0.041	0.187
-431.661	4.766	0.140	0.103
-430.646	-92.319	0.322	-0.091
-429.632	800.000	-0.052	0.206
-428.617	-151.788	-0.153	0.011
-427.603	57.588	0.060	-0.059
-426.588	-159.923	-0.066	-0.004
-425.573	322.777	-0.059	-0.113
-424.559	85.596	-0.085	0.094
-423.544	117.725	0.044	-0.054
-422.530	-35.111	-0.209	-0.114
-421.515	-200.000	0.020	0.145
-420.500	83.171	0.067	0.072
-419.486	-116.332	-0.245	-0.045
-418.471	-66.944	0.127	0.050
-417.457	22.395	-0.127	-0.104
-416.442	88.450	0.200	-0.221
-415.428	-200.000	-0.007	0.173
-414.413	52.658	0.087	0.083
-413.398	114.824	0.187	-0.228
-412.384	-42.025	0.165	0.084
-411.369	-9.180	-0.180	-0.120
-410.355	-98.586	-0.228	0.058
-409.340	65.836	-0.397	0.402
-408.325	218.838	0.046	0.074
-407.311	-200.000	-0.006	0.240
-406.296	-46.215	0.081	-0.040
-405.282	800.000	-0.087	0.326
-404.267	27.931	-0.257	0.216
-403.252	100.549	-0.068	0.079
-402.238	-7.200	0.264	0.179
-401.223	-103.686	0.291	0.068
-400.209	-200.000	-0.020	0.156
-399.194	-200.000	-0.034	0.390
-398.179	-200.000	0.011	-0.061
-397.165	-84.425	0.139	-0.044
-396.150	800.000	0.066	-0.191
-395.136	58.286	-0.158	0.154
-394.121	-36.074	0.164	-0.088
-393.106	800.000	0.142	0.448
-392.092	-126.065	-0.494	0.074
-391.077	210.864	0.045	0.071
-390.063	800.000	-0.047	-0.154
-389.048	121.812	0.241	-0.300
-388.033	-18.475	-0.450	-0.280
-387.019	14.524	0.192	0.149
-386.004	383.039	-0.037	0.076
-384.990	-22.529	0.092	0.056
-383.975	-76.384	0.248	0.087
-382.960	487.819	-0.034	0.077
-381.946	-200.000	0.004	0.051
-380.931	86.182	-0.108	-0.119
-379.917	-40.316	-0.151	0.078
-378.902	-120.516	-0.194	0.033
-377.888	-136.566	-0.284	-0.033
-376.873	-0.142	0.096	0.068
-375.858	-118.804	0.136	0.024
-374.844	-200.000	0.013	0.099
-373.829	-79.432	0.284	-0.096
-372.815	-177.011	-0.213	0.005
-371.800	-67.690	0.301	0.117
-370.785	3.224	-0.211	-0.153
-369.771	-200.000	-0.009	-0.300
-368.756	-124.172	0.050	0.008
-367.742	92.121	-0.029	0.033
-366.727	-200.000	0.016	-0.341
-365.712	19.442	0.026	-0.021
-364.698	192.849	-0.166	-0.250
-363.683	-200.000	0.012	0.228
-362.669	-58.559	0.294	-0.127
-361.654	-145.339	-0.164	-0.015
-360.639	35.366	0.074	0.064
-359.625	800.000	-0.081	-0.252
-358.610	406.156	-0.042	-0.089
-357.596	-69.212	0.254	0.097
-356.581	-126.387	0.175	-0.026
-355.566	410.221	0.048	-0.102
-354.552	111.604	0.104	-0.125
-353.537	-132.475	-0.523	-0.067
-352.523	29.061	-0.152	-0.129
-351.508	309.542	0.011	0.021
-350.493	-6.877	0.425	-0.288
-349.479	-35.132	0.055	-0.030
-348.464	-119.410	-0.087	-0.015
-347.450	-59.760	-0.162	0.069
-346.435	-200.000	0.021	0.241
-345.420	157.575	-0.181	-0.249
-344.406	-64.565	-0.164	-0.066
-343.391	59.667	0.126	-0.124
-342.377	482.148	-0.104	0.235
-341.362	364.603	0.012	-0.023
-340.348	800.000	-0.122	-0.516
-339.333	-74.778	-0.137	-0.049
-338.318	-92.801	0.336	-0.093
-337.304	18.191	-0.288	-0.229
-336.289	196.013	0.160	0.242
-335.275	485.875	0.080	0.182
-334.260	92.490	-0.138	0.155
-333.245	-38.331	-0.164	0.087
-332.231	75.216	-0.146	-0.153
-331.216	-102.678	0.231	-0.055
-330.202	-174.496	-0.270	-0.008
-329.187	800.000	0.051	0.164
-328.172	-200.000	0.015	-0.073
-327.158	189.126	0.088	0.131
-326.143	-18.013	0.183	0.114
-325.129	800.000	-0.045	0.128
-324.114	88.796	0.138	0.153
-323.099	-10.220	0.372	-0.246
-322.085	-103.274	-0.209	-0.049
-321.070	619.173	-0.109	0.272
-320.056	-120.886	0.259	0.043
-319.041	411.065	0.081	-0.171
-318.026	-182.800	-0.199	0.004
-317.012	-53.444	-0.117	-0.053
-315.997	-99.565	-0.183	-0.046
-314.983	74.891	-0.107	0.112
-313.968	-106.721	-0.070	0.016
-312.953	698.774	0.165	0.432
-311.939	800.000	0.089	0.274
-310.924	74.174	0.152	0.158
-309.910	18.868	0.124	-0.098
-308.895	-140.585	-0.209	0.022
-307.880	-127.965	0.162	0.023
-306.866	-165.499	-0.241	-0.010
-305.851	-200.000	-0.025	0.330
-304.837	-0.799	0.112	0.079
-303.822	55.773	-0.107	0.103
-302.807	800.000	0.077	-0.244
-301.793	3.101	-0.172	0.124
-300.778	-150.998	0.157	-0.012
-299.764	99.269	0.265	-0.305
-298.749	-1.811	-0.202	0.141
-297.735	-200.000	0.009	-0.046
-296.720	-85.887	-0.084	0.026
-295.705	299.417	0.178	0.325
-294.691	800.000	0.094	-0.274
-293.676	393.558	0.168	-0.348
-292.662	96.004	-0.201	-0.228
-291.647	232.117	-0.071	-0.116
-290.632	-200.000	0.017	0.077
-289.618	6.335	-0.023	0.017
-288.603	-200.000	-0.005	0.128
-287.589	-26.471	0.250	-0.145
-286.574	140.223	-0.092	-0.120
-285.559	173.832	-0.133	-0.191
-284.545	-143.553	0.300	0.028
-283.530	-200.000	0.029	-0.237
-282.516	291.715	0.146	0.264
-281.501	102.301	0.096	-0.112
-280.486	-51.257	0.054	0.025
-279.472	-200.000	0.010	0.103
-278.457	-200.000	0.037	0.242
-277.443	-83.355	0.289	0.092
-276.428	-200.000	0.014	0.112
-275.413	515.578	-0.054	-0.126
-274.399	-200.000	0.014	0.232
-273.384	407.965	-0.030	-0.063
-272.370	12.647	0.162	0.124
-271.355	-71.380	-0.384	-0.143
-270.340	-101.844	-0.177	0.042
-269.326	-200.000	0.021	0.161
-268.311	-157.251	-0.179	-0.011
-267.297	157.640	0.060	-0.083
-266.282	-93.863	0.121	0.033
-265.267	-49.307	-0.242	-0.115
-264.253	156.492	-0.085	0.116
-263.238	-40.257	-0.142	-0.074
-262.224	751.974	-0.039	0.104
-261.209	242.456	0.225	0.374
-260.195	4.261	0.237	-0.173
-259.180	341.615	-0.078	0.151
-258.165	-200.000	-0.027	-0.281
-257.151	-71.997	-0.029	-0.011
-256.136	-13.731	0.213	0.137
-255.122	338.767	-0.146	0.281
-254.107	-120.916	-0.178	-0.030
-253.092	-7.305	-0.216	0.145
-252.078	-10.404	0.171	0.112
-251.063	-109.952	-0.181	-0.038
-250.049	-122.689	-0.184	-0.030
-249.034	149.685	-0.217	-0.292
-248.019	800.000	0.058	-0.217
-247.005	-9.211	-0.078	0.051
-245.990	-191.133	0.136	-0.001
-244.976	800.000	0.054	-0.203
-243.961	-200.000	-0.002	0.143
-242.946	100.044	0.205	0.235
-241.932	112.906	0.157	-0.189
-240.917	-31.153	0.224	-0.125
-239.903	25.725	0.285	-0.236
-238.888	-164.719	0.096	-0.004
-237.873	800.000	0.051	-0.216
-236.859	-50.596	-0.098	0.046
-235.844	-65.156	0.124	-0.050
-234.830	-35.421	0.233	0.125
-233.815	800.000	-0.062	-0.173
-232.800	82.101	-0.200	0.215
-231.786	-200.000	-0.070	0.412
-230.771	74.677	0.108	-0.113
-229.757	712.883	-0.086	0.226
-228.742	-200.000	-0.071	0.401
-227.727	-59.441	-0.251	0.107
-226.713	301.470	0.035	-0.065
-225.698	79.911	0.178	-0.189
-224.684	164.311	0.125	0.174
-223.669	800.000	-0.122	0.430
-222.655	-120.884	0.145	-0.024
-221.640	-65.352	-0.275	-0.109
-220.625	-200.000	0.037	-0.639
-219.611	800.000	0.045	-0.132
-218.596	-124.612	0.171	0.026
-217.582	161.736	0.142	-0.197
-216.567	57.120	-0.142	-0.137
-215.552	-148.494	-0.138	-0.011
-214.538	116.756	0.157	-0.191
-213.523	-20.683	-0.447	-0.272
-212.509	70.280	0.110	-0.113
-211.494	391.441	0.045	-0.093
-210.479	187.367	-0.119	-0.175
-209.465	69.150	0.179	0.182
-208.450	-200.000	0.003	-0.032
-207.436	-100.421	-0.151	0.037
-206.421	-98.109	-0.145	0.037
-205.406	-62.769	0.203	-0.083
-204.392	-138.065	-0.277	0.031
-203.377	636.494	0.084	0.212
-202.363	-200.000	0.008	0.214
-201.348	-98.360	0.485	0.123
-200.333	557.033	0.057	0.135
-199.319	632.799	0.035	-0.088
-198.304	-39.915	0.268	0.138
-197.290	-170.670	0.167	0.006
-196.275	-17.924	-0.077	-0.048
-195.260	800.000	-0.080	0.288
-194.246	-127.957	-0.183	-0.026
-193.231	434.266	-0.099	-0.213
-192.217	239.911	0.036	-0.060
-191.202	326.827	0.167	0.317
-190.187	-200.000	0.005	-0.207
-189.173	-95.995	-0.066	0.017
-188.158	642.633	-0.048	-0.120
-187.144	-123.539	-0.383	0.060
-186.129	-105.393	0.267	0.060
-185.114	93.164	-0.187	-0.210
-184.100	8.391	0.177	0.132
-183.085	339.882	-0.118	0.228
-182.071	113.617	0.269	-0.323
-181.056	344.686	0.162	-0.314
-180.042	42.514	0.326	0.293
-179.027	-12.255	-0.095	-0.061
-178.012	634.360	0.186	-0.468
-176.998	-67.829	0.333	-0.129
-175.983	143.203	0.225	-0.296
-174.969	-152.046	-0.394	-0.028
-173.954	-200.000	-0.040	0.196
-172.939	-67.488	-0.057	0.022
-171.925	-64.188	-0.281	-0.113
-170.910	-200.000	0.002	-0.150
-169.896	-200.000	-0.019	0.207
-168.881	29.009	0.174	0.146
-167.866	31.593	0.104	0.088
-166.852	267.544	0.067	0.117
-165.837	-38.347	-0.280	-0.146
-164.823	-68.272	-0.167	-0.064
-163.808	-47.557	-0.181	-0.087
-162.793	-200.000	-0.016	-0.104
-161.779	-90.428	0.377	0.108
-160.764	440.171	0.049	0.107
-159.750	-152.224	0.412	-0.030
-158.735	-37.599	0.418	-0.220
-157.720	340.365	0.009	0.017
-156.706	-50.416	-0.165	0.077
-155.691	543.447	-0.030	-0.071
-154.677	371.926	-0.132	0.264
-153.662	-200.000	0.022	0.227
-152.647	12.369	0.106	-0.081
-151.633	292.003	0.155	-0.280
-150.618	-101.485	0.118	0.028
-149.604	-102.951	0.243	0.057
-148.589	-5.219	0.161	-0.109
-147.574	-44.583	0.174	0.086
-146.560	-200.000	-0.017	0.278
-145.545	139.103	0.116	0.150
-144.531	113.564	0.125	-0.150
-143.516	385.880	-0.105	0.214
-142.502	39.052	0.071	-0.063
-141.487	-4.304	-0.213	-0.145
-140.472	-58.017	-0.235	-0.101
-139.458	-32.024	0.311	-0.172
-138.443	31.233	0.030	-0.026
-137.429	-155.189	-0.039	0.003
-136.414	247.005	-0.031	-0.052
-135.399	-129.816	0.347	-0.047
-134.385	-200.000	-0.054	0.501
-133.370	800.000	0.063	0.186
-132.356	-65.172	0.125	0.050
-131.341	-96.485	-0.070	-0.018
-130.326	-200.000	-0.007	0.186
-129.312	-24.722	0.123	-0.072
-128.297	-15.242	0.170	0.107
-127.283	-156.529	-0.300	0.018
-126.268	-182.931	0.196	-0.003
-125.253	6.524	0.131	-0.096
-124.239	19.577	-0.194	-0.154
-123.224	-191.717	0.122	0.001
-122.210	-126.155	0.146	0.022
-121.195	-200.000	-0.015	-0.130
