DTS Sentinel unit serial number:	SN413079Multiplexer serial number:	ORYXHardware model number:	OX4-SRSoftware version number:	ORYX F/W v4.00 Oryx Data Collector v3.7.2.0data status	okinstallation	princeton_trtdifferential loss correction	single-endedforward channel	channel 3reverse channel	N/Adate	2019/09/11time	21:14:10forward acquisition time	60.00reverse acquisition time	0.00gamma	496.2192k internal	0.2308k external	0.2308temperature offset calibration	1.0036default loss term (dB/km)	0.3790temperature slope calibration	1.0000multiplexer offset coefficient	1.0000multiplexer slope coefficient	1.0000fibre end	0.00T internal ref (°C)	36.37T ext. ref 1 (°C)	1.59T ext. ref 2 (°C)	30.65length (m)	temperature (°C)	Stokes	anti-Stokes-747.200	192.685	0.103	-0.158
-746.185	800.000	-0.057	0.177
-745.171	121.565	-0.217	0.275
-744.156	-160.867	-0.308	0.016
-743.142	217.515	0.142	-0.230
-742.127	-76.636	-0.507	0.181
-741.112	-101.303	0.388	0.096
-740.098	-38.568	-0.156	0.084
-739.083	81.561	0.315	-0.346
-738.069	73.828	-0.426	0.454
-737.054	-62.200	0.174	0.074
-736.039	485.137	-0.119	-0.275
-735.025	402.149	0.174	0.372
-734.010	428.571	-0.078	-0.171
-732.996	-200.000	0.015	0.075
-731.981	84.498	0.146	0.162
-730.966	-39.627	-0.154	-0.082
-729.952	-200.000	0.023	0.282
-728.937	68.967	-0.102	-0.107
-727.923	-143.493	-0.148	-0.014
-726.908	-200.000	-0.009	-0.136
-725.894	-200.000	0.083	-0.426
-724.879	-18.569	-0.349	-0.221
-723.864	471.439	-0.230	-0.526
-722.850	-93.455	0.175	-0.049
-721.835	514.398	-0.071	-0.169
-720.821	-200.000	-0.013	-0.113
-719.806	1.393	0.294	0.215
-718.791	800.000	-0.051	-0.156
-717.777	-128.586	-0.313	-0.045
-716.762	-200.000	0.006	0.244
-715.748	-135.136	0.118	-0.014
-714.733	98.257	0.119	0.139
-713.718	39.460	0.086	-0.078
-712.704	353.941	-0.142	-0.287
-711.689	-85.223	-0.293	-0.093
-710.675	8.501	-0.374	0.286
-709.660	-133.272	0.252	-0.032
-708.645	-200.000	0.023	-0.183
-707.631	12.640	-0.306	0.239
-706.616	-7.361	-0.128	-0.088
-705.602	249.339	0.213	-0.366
-704.587	800.000	-0.076	-0.330
-703.572	-97.992	-0.116	0.030
-702.558	-27.318	0.080	-0.047
-701.543	-93.664	0.268	-0.075
-700.529	-140.273	0.173	-0.018
-699.514	16.470	0.081	0.065
-698.499	-54.147	-0.241	-0.111
-697.485	223.669	-0.016	0.025
-696.470	-200.000	-0.028	0.462
-695.456	23.504	-0.306	0.255
-694.441	-78.977	0.304	0.105
-693.426	-32.294	0.202	0.115
-692.412	-46.648	0.116	0.058
-691.397	211.134	-0.231	0.368
-690.383	271.344	0.132	-0.235
-689.368	-200.000	0.031	-0.176
-688.354	-5.643	0.233	-0.162
-687.339	356.634	0.035	-0.071
-686.324	277.301	0.168	-0.304
-685.310	-78.172	0.192	0.067
-684.295	106.166	0.122	0.146
-683.281	20.859	-0.121	0.099
-682.266	295.790	0.093	-0.173
-681.251	-36.075	0.219	0.120
-680.237	-63.489	0.370	-0.154
-679.222	82.345	0.136	0.150
-678.208	-200.000	0.027	0.255
-677.193	11.265	-0.172	-0.133
-676.178	-53.854	-0.204	-0.094
-675.164	179.612	-0.096	0.142
-674.149	21.334	0.186	0.153
-673.135	657.158	0.068	-0.177
-672.120	86.625	-0.113	-0.126
-671.105	-200.000	0.013	-0.059
-670.091	-112.307	0.118	0.024
-669.076	-78.308	-0.431	0.150
-668.062	800.000	-0.149	0.420
-667.047	-0.294	0.162	-0.116
-666.032	-39.575	0.370	0.196
-665.018	70.953	-0.115	0.121
-664.003	20.604	-0.073	-0.060
-662.989	47.309	-0.086	-0.082
-661.974	-44.839	-0.245	0.124
-660.959	-200.000	-0.004	0.119
-659.945	-101.189	0.103	0.025
-658.930	162.406	-0.080	-0.114
-657.916	-107.247	0.070	-0.016
-656.901	-67.984	-0.095	-0.037
-655.886	61.632	-0.149	-0.150
-654.872	334.188	-0.125	-0.245
-653.857	-143.515	0.183	0.018
-652.843	-112.055	-0.193	-0.039
-651.828	6.551	-0.150	0.113
-650.814	-60.500	-0.236	0.101
-649.799	-53.456	-0.263	-0.122
-648.784	-200.000	0.007	0.074
-647.770	166.567	-0.309	0.443
-646.755	12.915	-0.074	-0.058
-645.741	-123.817	-0.096	0.015
-644.726	-200.000	0.116	0.000
-643.711	-200.000	0.051	0.234
-642.697	-15.894	0.140	-0.090
-641.682	-58.075	-0.149	0.066
-640.668	800.000	0.019	-0.066
-639.653	-200.000	0.024	0.230
-638.638	35.888	-0.182	0.162
-637.624	-6.087	-0.148	-0.102
-636.609	-200.000	0.016	-0.213
-635.595	-35.256	-0.093	0.051
-634.580	90.371	-0.234	0.265
-633.565	-200.000	-0.014	-0.145
-632.551	123.815	0.124	0.158
-631.536	-200.000	-0.099	-0.597
-630.522	-200.000	-0.047	-0.327
-629.507	-33.037	-0.159	0.089
-628.492	208.622	0.083	-0.131
-627.478	367.173	-0.020	0.041
-626.463	-24.690	-0.185	-0.111
-625.449	315.685	0.051	0.097
-624.434	-103.775	0.158	-0.037
-623.419	-154.009	0.154	0.011
-622.405	-128.531	-0.111	-0.016
-621.390	494.315	-0.060	0.140
-620.376	-200.000	-0.038	-0.316
-619.361	-109.272	-0.212	-0.045
-618.346	-200.000	0.051	0.319
-617.332	247.500	-0.176	-0.300
-616.317	-29.233	0.050	-0.029
-615.303	216.546	-0.119	-0.192
-614.288	-58.334	-0.245	0.108
-613.273	50.174	0.190	0.182
-612.259	111.624	-0.173	-0.211
-611.244	333.134	-0.122	-0.238
-610.230	-92.447	0.235	-0.067
-609.215	800.000	-0.037	0.159
-608.201	105.033	-0.084	-0.100
-607.186	387.390	0.177	-0.370
-606.171	-200.000	-0.052	0.259
-605.157	68.806	-0.096	0.100
-604.142	96.739	0.147	0.171
-603.128	800.000	0.062	0.212
-602.113	463.825	-0.089	-0.201
-601.098	57.522	-0.053	0.052
-600.084	-109.128	-0.154	0.033
-599.069	-200.000	0.007	-0.439
-598.055	800.000	-0.123	-0.343
-597.040	-40.941	-0.217	0.113
-596.025	-61.456	0.166	-0.071
-595.011	-197.530	0.385	0.002
-593.996	800.000	0.017	0.054
-592.982	800.000	-0.083	0.342
-591.967	800.000	0.067	0.275
-590.952	-75.583	0.339	-0.122
-589.938	-200.000	0.049	-0.260
-588.923	-12.052	-0.220	-0.146
-587.909	-120.084	-0.295	-0.051
-586.894	-95.336	0.109	-0.030
-585.879	351.666	-0.046	0.092
-584.865	800.000	0.039	-0.167
-583.850	248.924	-0.144	-0.247
-582.836	-164.682	-0.336	0.015
-581.821	-200.000	0.003	-0.042
-580.806	101.438	-0.134	-0.158
-579.792	181.750	0.118	0.176
-578.777	-200.000	-0.009	-0.051
-577.763	-54.378	-0.194	-0.089
-576.748	800.000	0.076	-0.215
-575.733	-145.674	-0.218	-0.020
-574.719	-200.000	0.058	-0.277
-573.704	165.291	0.111	0.158
-572.690	-200.000	0.004	-0.190
-571.675	-200.000	0.062	-0.278
-570.661	764.060	0.050	-0.138
-569.646	224.979	0.109	0.177
-568.631	360.310	0.135	0.272
-567.617	294.650	0.026	0.049
-566.602	-162.708	-0.377	-0.019
-565.588	-200.000	-0.012	0.077
-564.573	-29.724	-0.207	-0.119
-563.558	121.788	-0.132	-0.166
-562.544	207.380	0.088	-0.139
-561.529	58.366	0.225	-0.223
-560.515	-26.694	0.072	0.043
-559.500	86.702	-0.213	-0.238
-558.485	-100.609	-0.166	0.041
-557.471	-200.000	0.025	0.149
-556.456	-96.528	0.054	0.014
-555.442	-145.058	0.042	-0.004
-554.427	277.195	0.082	0.146
-553.412	77.040	0.032	-0.034
-552.398	175.057	-0.238	-0.347
-551.383	-200.000	0.012	0.076
-550.369	800.000	-0.077	0.232
-549.354	237.941	-0.089	0.148
-548.339	602.811	-0.064	0.160
-547.325	-106.677	-0.265	0.059
-546.310	800.000	0.093	0.312
-545.296	142.756	0.107	-0.144
-544.281	-200.000	0.007	0.123
-543.266	-57.499	0.204	-0.090
-542.252	-1.793	-0.142	0.101
-541.237	-86.952	-0.063	0.019
-540.223	524.145	0.080	0.190
-539.208	-90.402	-0.339	0.099
-538.193	83.712	0.127	-0.140
-537.179	83.404	0.107	0.117
-536.164	347.636	-0.076	0.152
-535.150	-133.345	0.044	0.006
-534.135	-135.895	-0.225	0.027
-533.121	468.687	-0.044	0.099
-532.106	666.322	0.058	-0.152
-531.091	-87.608	-0.350	-0.107
-530.077	-187.570	0.108	-0.001
-529.062	17.397	0.175	-0.140
-528.048	544.857	-0.116	-0.280
-527.033	800.000	0.012	-0.039
-526.018	48.709	-0.262	0.248
-525.004	-57.310	-0.209	0.092
-523.989	-185.209	-0.310	-0.005
-522.975	121.187	0.214	0.269
-521.960	-42.520	-0.098	0.050
-520.945	-3.333	-0.158	-0.111
-519.931	-200.000	-0.026	0.146
-518.916	-108.180	-0.135	-0.029
-517.902	800.000	0.057	-0.192
-516.887	128.111	0.116	0.149
-515.872	-200.000	0.028	-0.254
-514.858	25.601	-0.289	0.243
-513.843	40.457	-0.096	0.087
-512.829	401.322	0.072	-0.153
-511.814	18.900	-0.072	-0.058
-510.799	800.000	0.088	-0.271
-509.785	69.728	-0.170	0.177
-508.770	-200.000	-0.032	0.308
-507.756	-25.711	-0.315	0.187
-506.741	-57.068	0.026	-0.012
-505.726	-200.000	0.015	0.103
-504.712	-0.231	-0.174	0.124
-503.697	176.388	0.104	-0.153
-502.683	720.998	0.106	-0.284
-501.668	22.414	-0.274	0.225
-500.653	52.775	0.077	-0.074
-499.639	800.000	0.048	0.156
-498.624	129.736	0.050	0.064
-497.610	-197.255	0.435	-0.003
-496.595	-200.000	0.004	-0.044
-495.581	800.000	0.056	0.186
-494.566	3.344	0.132	0.097
-493.551	-39.109	0.260	-0.137
-492.537	800.000	0.025	0.083
-491.522	125.689	0.191	0.243
-490.508	186.014	-0.165	-0.247
-489.493	-53.617	0.318	-0.146
-488.478	718.524	0.078	-0.208
-487.464	77.806	-0.317	-0.339
-486.449	25.253	-0.045	0.038
-485.435	506.319	0.081	-0.190
-484.420	286.257	-0.177	0.321
-483.405	656.256	-0.093	-0.240
-482.391	-70.089	-0.199	-0.076
-481.376	338.901	-0.112	-0.219
-480.362	-27.248	0.054	0.032
-479.347	-126.836	0.363	-0.054
-478.332	349.262	0.104	-0.207
-477.318	271.570	-0.150	-0.266
-476.303	-129.024	0.184	-0.026
-475.289	48.932	-0.109	-0.103
-474.274	63.911	-0.179	-0.181
-473.259	-22.666	-0.089	0.054
-472.245	-200.000	0.025	-0.209
-471.230	310.746	0.075	-0.141
-470.216	-132.277	-0.268	-0.035
-469.201	350.517	-0.184	-0.366
-468.186	140.166	0.101	0.134
-467.172	-96.680	0.216	-0.057
-466.157	-153.164	0.139	0.010
-465.143	-200.000	-0.019	-0.175
-464.128	-50.302	0.152	0.072
-463.113	237.894	0.129	0.216
-462.099	89.647	0.092	0.104
-461.084	13.450	0.301	-0.235
-460.070	-200.000	0.031	0.188
-459.055	-200.000	-0.021	0.252
-458.040	159.720	0.030	0.042
-457.026	19.483	0.164	-0.133
-456.011	-200.000	-0.017	-0.134
-454.997	-200.000	-0.035	0.341
-453.982	36.790	-0.181	0.160
-452.968	800.000	0.126	0.392
-451.953	62.508	0.071	0.072
-450.938	-147.828	-0.023	-0.002
-449.924	-58.695	0.100	0.043
-448.909	-125.702	0.350	0.053
-447.895	-69.437	-0.301	-0.116
-446.880	-200.000	0.033	-0.171
-445.865	-200.000	-0.050	0.337
-444.851	-13.551	-0.079	-0.051
-443.836	-39.806	-0.158	0.083
-442.822	-117.926	-0.250	-0.045
-441.807	368.488	-0.075	-0.152
-440.792	-23.791	-0.155	0.093
-439.778	99.239	-0.276	-0.320
-438.763	-40.215	0.327	0.171
-437.749	235.799	-0.211	-0.350
-436.734	342.166	0.107	-0.210
-435.719	-200.000	-0.024	0.112
-434.705	-76.033	-0.253	-0.090
-433.690	19.083	-0.246	0.198
-432.676	9.190	-0.148	-0.112
-431.661	-57.745	-0.153	-0.067
-430.646	-47.228	0.073	0.036
-429.632	128.395	0.259	0.332
-428.617	60.891	0.070	0.070
-427.603	800.000	0.057	-0.179
-426.588	800.000	-0.030	0.126
-425.573	-130.635	-0.396	-0.053
-424.559	-53.253	-0.075	0.035
-423.544	13.794	0.055	-0.043
-422.530	59.568	-0.057	-0.057
-421.515	-125.147	-0.075	0.012
-420.500	-200.000	-0.007	0.107
-419.486	412.100	-0.139	-0.297
-418.471	76.328	-0.083	-0.088
-417.457	-157.729	0.058	0.003
-416.442	-103.408	-0.159	-0.038
-415.428	-137.254	0.184	-0.021
-414.413	-50.414	0.135	-0.064
-413.398	24.512	0.194	0.161
-412.384	23.583	0.210	0.173
-411.369	800.000	-0.120	0.495
-410.355	286.033	0.162	0.294
-409.340	455.657	-0.119	0.266
-408.325	-31.374	0.243	0.137
-407.311	168.249	-0.041	0.059
-406.296	-73.919	0.219	0.080
-405.282	800.000	0.099	0.285
-404.267	368.820	0.022	-0.044
-403.252	-173.556	0.164	0.005
-402.238	577.128	0.088	-0.216
-401.223	28.527	0.132	-0.112
-400.209	-92.222	-0.220	0.062
-399.194	159.274	0.017	-0.023
-398.179	-182.529	0.381	0.007
-397.165	-200.000	0.021	0.099
-396.150	-71.795	0.109	-0.041
-395.136	-138.689	-0.184	0.020
-394.121	206.696	-0.054	-0.085
-393.106	312.838	-0.086	0.163
-392.092	800.000	-0.104	0.341
-391.077	-135.387	0.164	-0.020
-390.063	-70.888	-0.073	-0.028
-389.048	353.677	-0.124	-0.246
-388.033	-30.243	-0.022	0.013
-387.019	-156.661	0.164	-0.010
-386.004	76.564	0.142	0.151
-384.990	-155.741	-0.315	0.020
-383.975	34.614	0.277	0.242
-382.960	-200.000	-0.050	-0.281
-381.946	800.000	0.078	0.262
-380.931	-200.000	0.013	0.272
-379.917	466.982	-0.152	0.340
-378.902	610.095	0.134	0.336
-377.888	800.000	0.039	0.170
-376.873	-200.000	0.007	0.039
-375.858	-200.000	0.014	-0.154
-374.844	516.442	-0.115	0.270
-373.829	-200.000	-0.007	-0.185
-372.815	45.276	0.352	-0.325
-371.800	176.211	-0.189	-0.275
-370.785	-200.000	0.025	-0.167
-369.771	21.954	0.171	0.140
-368.756	-139.910	0.234	0.025
-367.742	-164.918	0.191	-0.009
-366.727	800.000	-0.083	-0.238
-365.712	-10.183	0.183	0.122
-364.698	280.324	0.093	0.166
-363.683	53.022	-0.279	0.267
-362.669	800.000	0.075	-0.257
-361.654	800.000	-0.141	-0.530
-360.639	-50.258	0.262	-0.124
-359.625	571.513	0.052	-0.127
-358.610	136.212	0.110	-0.143
-357.596	-200.000	-0.015	0.132
-356.581	-120.448	0.328	-0.056
-355.566	800.000	-0.028	-0.114
-354.552	-92.745	0.181	0.051
-353.537	-12.512	-0.083	-0.054
-352.523	270.476	-0.154	0.271
-351.508	7.064	-0.152	0.114
-350.493	668.629	-0.076	-0.197
-349.479	-71.173	-0.379	-0.142
-348.464	-108.632	0.403	0.086
-347.450	484.529	-0.083	-0.190
-346.435	93.829	0.153	-0.173
-345.420	-96.651	-0.329	0.087
-344.406	-191.572	-0.078	0.001
-343.391	-179.332	0.116	0.003
-342.377	-100.574	-0.301	-0.074
-341.362	298.019	-0.103	0.190
-340.348	-15.975	-0.006	-0.004
-339.333	481.799	0.065	-0.147
-338.318	-127.536	0.151	0.022
-337.304	-65.985	-0.408	0.163
-336.289	-49.413	-0.171	-0.082
-335.275	27.631	-0.235	0.198
-334.260	-78.354	-0.457	0.157
-333.245	91.955	-0.243	-0.274
-332.231	-5.206	-0.203	-0.139
-331.216	101.699	0.056	0.066
-330.202	-81.793	0.294	0.096
-329.187	-9.513	0.081	-0.054
-328.172	800.000	-0.016	0.051
-327.158	-1.303	0.178	-0.126
-326.143	-200.000	0.052	-0.545
-325.129	602.818	0.122	0.303
-324.114	557.427	0.152	0.365
-323.099	-200.000	0.013	-0.230
-322.085	-76.579	0.185	-0.065
-321.070	-200.000	0.030	0.276
-320.056	-200.000	-0.027	-0.129
-319.041	43.710	0.144	-0.131
-318.026	512.841	-0.131	0.304
-317.012	800.000	-0.048	0.173
-315.997	-110.940	-0.125	-0.026
-314.983	-22.727	0.141	0.085
-313.968	350.938	0.095	0.187
-312.953	800.000	-0.050	0.173
-311.939	-200.000	-0.075	0.375
-310.924	9.229	-0.145	-0.109
-309.910	-130.700	-0.212	-0.028
-308.895	-200.000	-0.009	-0.043
-307.880	322.057	-0.159	0.302
-306.866	11.182	0.199	-0.152
-305.851	-180.744	-0.038	0.001
-304.837	-200.000	0.111	-0.000
-303.822	800.000	-0.024	-0.099
-302.807	-59.179	-0.087	-0.037
-301.793	222.538	-0.069	0.111
-300.778	376.335	0.118	0.241
-299.764	-200.000	-0.030	-0.217
-298.749	76.076	0.154	0.163
-297.735	240.782	0.036	0.060
-296.720	-10.215	-0.266	-0.176
-295.705	-97.780	-0.264	0.068
-294.691	800.000	-0.085	0.268
-293.676	-133.506	0.196	-0.025
-292.662	800.000	0.066	-0.201
-291.647	800.000	0.116	-0.363
-290.632	740.179	0.156	-0.419
-289.618	-118.805	0.264	-0.046
-288.603	320.728	0.160	0.304
-287.589	-48.215	0.288	0.139
-286.574	-82.750	-0.175	0.056
-285.559	-66.571	0.147	-0.058
-284.545	19.162	-0.166	0.133
-283.530	-60.628	0.031	0.013
-282.516	-200.000	-0.038	-0.372
-281.501	-131.279	0.261	-0.035
-280.486	-142.118	0.031	-0.003
-279.472	-130.787	0.202	0.027
-278.457	-200.000	-0.005	-0.501
-277.443	704.114	-0.125	0.330
-276.428	-93.971	0.162	0.045
-275.413	-73.975	0.176	-0.064
-274.399	6.416	-0.108	0.080
-273.384	94.411	0.088	0.099
-272.370	800.000	-0.029	0.099
-271.355	-113.196	-0.286	-0.056
-270.340	-82.099	0.244	0.080
-269.326	-200.000	0.057	0.424
-268.311	251.921	0.024	0.040
-267.297	-99.053	0.142	0.036
-266.282	-200.000	0.025	0.222
-265.267	-131.625	0.161	-0.021
-264.253	-200.000	-0.002	-0.368
-263.238	-27.089	-0.475	0.276
-262.224	-35.740	0.096	0.052
-261.209	800.000	0.106	-0.413
-260.195	-101.844	0.280	-0.068
-259.180	-112.547	0.188	0.037
-258.165	-200.000	0.013	0.248
-257.151	-132.210	0.271	-0.035
-256.136	800.000	-0.094	-0.275
-255.122	-105.745	-0.336	-0.076
-254.107	564.114	0.113	-0.272
-253.092	-143.256	-0.120	0.011
-252.078	375.227	-0.082	0.167
-251.063	-200.000	0.064	-0.289
-250.049	-200.000	0.007	0.272
-249.034	62.783	-0.094	-0.094
-248.019	10.186	0.174	0.132
-247.005	22.006	0.132	0.107
-245.990	-200.000	0.003	0.121
-244.976	-52.692	-0.054	-0.025
-243.961	301.834	-0.089	-0.164
-242.946	-23.148	-0.039	-0.024
-241.932	187.373	0.084	-0.125
-240.917	-200.000	-0.005	-0.486
-239.903	236.563	0.121	0.200
-238.888	-45.797	0.123	-0.061
-237.873	-80.691	0.127	-0.042
-236.859	247.638	-0.074	-0.124
-235.844	-200.000	0.064	0.414
-234.830	88.274	0.042	-0.047
-233.815	-124.069	-0.434	0.068
-232.800	18.399	0.137	0.109
-231.786	719.222	0.024	0.063
-230.771	-82.979	-0.143	-0.046
-229.757	71.563	-0.118	0.122
-228.742	-47.037	-0.269	-0.131
-227.727	440.964	0.047	0.103
-226.713	-148.833	0.151	0.012
-225.698	-200.000	-0.012	0.205
-224.684	-200.000	-0.034	0.323
-223.669	27.541	0.029	0.025
-222.655	130.715	-0.143	0.182
-221.640	81.553	-0.140	0.150
-220.625	-200.000	0.369	-0.001
-219.611	-58.766	-0.254	0.109
-218.596	-166.703	0.132	-0.005
-217.582	-198.812	0.088	0.000
-216.567	3.458	-0.194	-0.141
-215.552	474.059	-0.060	-0.135
-214.538	-155.709	-0.258	-0.016
-213.523	-171.291	0.219	0.007
-212.509	162.020	0.215	-0.300
-211.494	-15.121	0.091	0.058
-210.479	-22.060	-0.233	0.141
-209.465	69.993	0.118	-0.121
-208.450	389.309	-0.091	0.188
-207.436	82.980	0.174	0.189
-206.421	800.000	0.060	-0.172
-205.406	-77.468	-0.332	-0.115
-204.392	-24.077	0.141	-0.084
-203.377	24.792	0.027	-0.023
-202.363	-85.814	0.142	0.044
-201.348	-27.829	-0.039	0.023
-200.333	-132.078	0.207	0.027
-199.319	-16.389	-0.123	0.078
-198.304	281.699	0.048	-0.086
-197.290	-132.640	0.291	0.037
-196.275	-200.000	-0.024	-0.134
-195.260	800.000	0.106	0.384
-194.246	-200.000	0.015	0.375
-193.231	-150.397	0.161	0.012
-192.217	-93.150	0.090	0.025
-191.202	-75.890	0.543	-0.191
-190.187	-153.948	0.114	0.008
-189.173	-113.237	-0.437	0.086
-188.158	154.974	-0.111	0.152
-187.144	-103.734	0.230	-0.054
-186.129	-157.557	0.296	-0.018
-185.114	-86.283	-0.083	-0.025
-184.100	13.159	0.195	-0.150
-183.085	800.000	0.012	-0.038
-182.071	356.729	0.056	-0.111
-181.056	76.721	-0.195	-0.206
-180.042	-200.000	0.011	-0.180
-179.027	-114.448	0.204	-0.039
-178.012	3.157	0.225	0.163
-176.998	800.000	0.104	-0.341
-175.983	-200.000	-0.017	-0.232
-174.969	56.916	-0.129	0.125
-173.954	8.726	-0.061	-0.046
-172.939	113.701	-0.223	-0.269
-171.925	-200.000	-0.065	-0.347
-170.910	79.925	0.182	-0.195
-169.896	220.375	0.144	-0.229
-168.881	-112.298	0.235	0.047
-167.866	-200.000	0.037	0.474
-166.852	232.121	0.171	-0.279
-165.837	-105.456	0.117	0.026
-164.823	-149.671	0.293	-0.023
-163.808	-10.216	0.432	0.285
-162.793	67.990	-0.104	0.106
-161.779	-200.000	-0.041	0.548
-160.764	-200.000	0.002	-0.182
-159.750	-19.441	-0.435	-0.268
-158.735	-98.406	-0.053	-0.013
-157.720	-200.000	-0.006	0.197
-156.706	406.912	0.078	0.164
-155.691	-200.000	-0.017	0.082
-154.677	-53.219	0.203	-0.092
-153.662	-62.832	-0.180	-0.074
-152.647	6.256	0.058	0.043
-151.633	496.827	0.086	0.197
-150.618	-7.071	-0.151	0.102
-149.604	800.000	0.114	0.357
-148.589	-200.000	0.004	0.152
-147.574	-95.402	-0.107	-0.029
-146.560	-200.000	-0.000	-0.045
-145.545	-200.000	-0.039	0.197
-144.531	237.434	0.244	0.401
-143.516	-165.944	-0.123	0.005
-142.502	50.487	0.161	-0.151
-141.487	800.000	0.089	0.308
-140.472	-117.064	0.180	0.033
-139.458	-171.742	-0.265	0.009
-138.443	-200.000	-0.015	0.176
-137.429	-160.652	0.231	0.012
-136.414	116.626	0.138	-0.168
-135.399	800.000	0.064	-0.222
-134.385	779.867	-0.059	0.160
-133.370	-200.000	0.012	-0.162
-132.356	-200.000	0.022	0.175
-131.341	800.000	0.105	0.337
-130.326	-70.513	-0.304	0.114
-129.312	-112.482	-0.311	-0.062
-128.297	-200.000	0.100	-0.456
-127.283	-200.000	-0.009	-0.051
-126.268	-200.000	-0.080	0.526
-125.253	-127.684	-0.352	-0.051
-124.239	-200.000	-0.041	-0.213
-123.224	-200.000	0.079	-0.373
-122.210	135.036	0.056	-0.072
-121.195	-200.000	-0.060	-0.427
