DTS Sentinel unit serial number:	SN413079Multiplexer serial number:	ORYXHardware model number:	OX4-SRSoftware version number:	ORYX F/W v4.00 Oryx Data Collector v3.7.2.0data status	okinstallation	princeton_trtdifferential loss correction	single-endedforward channel	channel 3reverse channel	N/Adate	2019/09/15time	08:52:35forward acquisition time	60.00reverse acquisition time	0.00gamma	496.2192k internal	0.2315k external	0.2315temperature offset calibration	0.9974default loss term (dB/km)	0.3790temperature slope calibration	1.0000multiplexer offset coefficient	1.0000multiplexer slope coefficient	1.0000fibre end	0.00T internal ref (°C)	32.47T ext. ref 1 (°C)	4.97T ext. ref 2 (°C)	29.69length (m)	temperature (°C)	Stokes	anti-Stokes-747.200	-33.624	-0.118	0.066
-746.185	-85.198	-0.397	0.126
-745.171	164.320	0.141	-0.202
-744.156	152.548	0.239	0.331
-743.142	-123.904	0.159	0.025
-742.127	-200.000	-0.002	0.121
-741.112	-121.918	-0.301	-0.050
-740.098	-58.207	-0.158	-0.070
-739.083	-99.859	-0.239	-0.061
-738.069	-200.000	0.085	0.545
-737.054	-82.807	0.083	-0.027
-736.039	52.464	-0.116	-0.113
-735.025	131.172	-0.094	0.123
-734.010	-200.000	0.022	-0.140
-732.996	-110.543	0.210	-0.044
-731.981	-200.000	0.004	0.079
-730.966	123.217	0.186	-0.236
-729.952	-3.430	-0.089	0.063
-728.937	-200.000	-0.013	0.061
-727.923	-16.634	0.193	0.124
-726.908	-156.178	0.038	-0.002
-725.894	682.953	-0.077	0.204
-724.879	53.959	0.255	-0.248
-723.864	75.298	-0.336	-0.358
-722.850	-15.018	-0.166	-0.108
-721.835	-200.000	-0.019	0.203
-720.821	-43.537	-0.334	-0.171
-719.806	94.051	0.310	-0.356
-718.791	-59.714	-0.247	-0.107
-717.777	-93.970	0.104	-0.029
-716.762	182.862	-0.087	-0.129
-715.748	84.513	0.206	0.229
-714.733	465.569	-0.067	0.152
-713.718	6.567	-0.306	0.230
-712.704	-109.250	0.264	0.057
-711.689	-200.000	-0.045	-0.241
-710.675	543.742	0.088	0.211
-709.660	-200.000	0.032	-0.466
-708.645	-200.000	-0.049	-0.299
-707.631	478.200	0.072	0.164
-706.616	-14.031	-0.303	0.198
-705.602	307.828	0.104	-0.195
-704.587	-94.135	0.240	-0.066
-703.572	-16.104	0.202	-0.130
-702.558	403.003	-0.109	0.231
-701.543	73.131	-0.153	0.161
-700.529	-200.000	-0.025	0.114
-699.514	86.402	-0.078	-0.086
-698.499	-16.606	0.118	-0.076
-697.485	25.530	0.158	-0.133
-696.470	-89.227	-0.133	0.040
-695.456	-37.340	-0.155	0.084
-694.441	-45.001	-0.314	-0.158
-693.426	694.699	-0.096	0.255
-692.412	-176.801	-0.129	-0.003
-691.397	-86.763	0.222	0.069
-690.383	33.645	0.033	-0.029
-689.368	-200.000	0.018	0.250
-688.354	234.903	0.034	0.056
-687.339	-57.225	-0.136	-0.061
-686.324	-103.871	-0.338	-0.080
-685.310	800.000	-0.090	-0.252
-684.295	-62.244	-0.151	0.063
-683.281	-200.000	-0.024	0.147
-682.266	156.904	-0.056	-0.079
-681.251	-113.945	0.296	0.058
-680.237	-142.901	0.326	0.032
-679.222	-98.441	-0.093	-0.024
-678.208	-77.920	-0.110	-0.038
-677.193	202.893	0.150	-0.234
-676.178	108.917	-0.212	0.257
-675.164	800.000	-0.051	0.143
-674.149	164.079	0.211	-0.300
-673.135	335.942	-0.078	-0.152
-672.120	-145.648	0.265	-0.024
-671.105	-91.644	0.122	0.035
-670.091	800.000	0.117	0.371
-669.076	-11.654	0.067	-0.045
-668.062	-68.772	-0.478	0.186
-667.047	-39.175	-0.132	-0.070
-666.032	-34.760	0.143	-0.079
-665.018	-200.000	-0.052	-0.234
-664.003	-200.000	0.020	0.295
-662.989	-153.543	0.440	0.031
-661.974	121.425	-0.183	-0.230
-660.959	184.245	0.063	0.095
-659.945	189.379	0.115	-0.174
-658.930	202.660	-0.123	-0.193
-657.916	800.000	-0.061	-0.255
-656.901	81.476	0.107	-0.117
-655.886	-121.181	-0.229	-0.039
-654.872	232.341	0.132	0.219
-653.857	-200.000	0.013	-0.270
-652.843	512.017	0.100	-0.236
-651.828	-200.000	0.059	0.279
-650.814	407.938	0.120	0.257
-649.799	800.000	0.123	0.513
-648.784	130.220	-0.317	0.410
-647.770	1.697	-0.257	0.187
-646.755	696.083	-0.075	0.198
-645.741	-130.938	-0.113	0.015
-644.726	-200.000	0.034	0.000
-643.711	-129.981	0.160	-0.022
-642.697	-46.567	0.075	0.037
-641.682	125.191	0.018	-0.023
-640.668	84.246	0.369	0.407
-639.653	800.000	0.062	-0.187
-638.638	97.143	0.103	-0.119
-637.624	-200.000	0.001	0.056
-636.609	-134.888	-0.200	-0.024
-635.595	-200.000	-0.028	-0.406
-634.580	64.168	0.142	0.144
-633.565	13.298	0.379	-0.296
-632.551	217.116	-0.124	-0.199
-631.536	-39.942	-0.423	0.223
-630.522	-200.000	-0.014	-0.487
-629.507	-200.000	0.068	0.380
-628.492	800.000	0.021	0.089
-627.478	-83.262	0.132	-0.043
-626.463	-7.015	0.126	0.086
-625.449	-102.927	0.154	-0.037
-624.434	800.000	0.050	0.143
-623.419	10.891	0.073	-0.057
-622.405	-200.000	0.029	-0.313
-621.390	800.000	-0.019	-0.077
-620.376	-61.871	-0.210	-0.089
-619.361	-46.676	0.302	-0.149
-618.346	-29.180	0.184	0.106
-617.332	-137.700	-0.327	0.037
-616.317	287.293	-0.055	0.100
-615.303	-127.340	0.106	-0.016
-614.288	-56.334	0.282	0.127
-613.273	407.878	-0.102	-0.217
-612.259	-191.496	-0.203	-0.002
-611.244	800.000	0.064	0.199
-610.230	-16.162	0.375	-0.240
-609.215	12.037	-0.179	-0.138
-608.201	800.000	0.029	-0.105
-607.186	-60.009	-0.102	0.044
-606.171	75.960	-0.102	0.109
-605.157	562.554	-0.070	0.170
-604.142	-144.822	0.413	0.038
-603.128	-81.589	-0.208	0.069
-602.113	-200.000	-0.009	-0.040
-601.098	-134.920	0.366	0.045
-600.084	800.000	-0.065	-0.269
-599.069	800.000	0.117	0.357
-598.055	-107.926	0.251	0.055
-597.040	-200.000	0.011	-0.115
-596.025	-200.000	0.005	-0.347
-595.011	-97.776	0.029	0.008
-593.996	222.663	-0.131	-0.213
-592.982	44.106	0.188	0.174
-591.967	-112.753	-0.217	0.043
-590.952	427.876	-0.163	-0.355
-589.938	-105.174	0.202	-0.047
-588.923	168.980	0.049	0.071
-587.909	270.897	-0.249	-0.442
-586.894	800.000	0.152	0.494
-585.879	800.000	0.056	0.168
-584.865	-112.480	0.503	0.101
-583.850	-41.589	-0.136	0.071
-582.836	-56.650	-0.151	0.067
-581.821	184.571	-0.144	0.215
-580.806	-48.012	0.170	0.083
-579.792	-6.444	0.182	0.125
-578.777	-2.444	-0.215	0.152
-577.763	800.000	0.027	0.097
-576.748	100.672	-0.194	0.227
-575.733	5.737	-0.185	-0.138
-574.719	-47.635	-0.215	-0.105
-573.704	800.000	0.095	-0.276
-572.690	-49.689	0.195	0.094
-571.675	-45.950	-0.021	-0.010
-570.661	-200.000	0.043	-0.214
-569.646	-200.000	-0.004	-0.288
-568.631	418.479	0.168	0.362
-567.617	-200.000	0.043	0.202
-566.602	-200.000	0.010	0.256
-565.588	800.000	0.065	0.235
-564.573	-195.208	0.204	-0.002
-563.558	-106.722	-0.101	-0.023
-562.544	-25.978	-0.071	0.042
-561.529	-200.000	0.069	-0.339
-560.515	-75.692	-0.197	-0.071
-559.500	-200.000	-0.011	-0.211
-558.485	222.093	0.128	-0.207
-557.471	-23.184	0.170	-0.103
-556.456	800.000	0.157	0.510
-555.442	800.000	-0.051	0.209
-554.427	-128.125	0.399	-0.057
-553.412	-7.656	0.140	0.096
-552.398	-74.271	-0.215	-0.078
-551.383	-200.000	0.019	0.168
-550.369	-200.000	-0.007	-0.294
-549.354	-164.000	-0.364	-0.017
-548.339	16.470	-0.050	-0.040
-547.325	-153.356	0.392	0.027
-546.310	465.857	-0.067	-0.151
-545.296	-144.045	-0.210	-0.020
-544.281	35.444	0.035	0.031
-543.266	83.159	-0.048	0.052
-542.252	800.000	-0.064	-0.259
-541.237	49.008	-0.101	-0.095
-540.223	361.600	0.086	-0.173
-539.208	135.008	-0.187	-0.244
-538.193	66.643	-0.208	0.213
-537.179	-200.000	0.033	-0.338
-536.164	-112.655	-0.067	-0.013
-535.150	-200.000	-0.002	0.203
-534.135	-200.000	0.112	0.000
-533.121	42.136	-0.145	0.133
-532.106	57.804	-0.279	-0.274
-531.091	-128.419	0.055	-0.008
-530.077	269.405	0.074	-0.131
-529.062	-200.000	-0.052	-0.303
-528.048	9.666	0.255	-0.194
-527.033	-188.399	-0.213	0.003
-526.018	109.807	-0.181	0.219
-525.004	399.545	-0.040	0.085
-523.989	-200.000	0.010	-0.092
-522.975	-200.000	-0.026	0.220
-521.960	-200.000	0.014	-0.167
-520.945	8.420	-0.255	0.192
-519.931	274.037	-0.025	-0.044
-518.916	-72.488	0.034	0.013
-517.902	-171.671	0.137	0.005
-516.887	-29.246	0.140	0.081
-515.872	-72.776	0.123	-0.046
-514.858	145.030	0.072	-0.096
-513.843	-0.132	0.067	0.048
-512.829	-112.343	-0.244	0.049
-511.814	619.829	-0.077	-0.195
-510.799	-23.748	0.288	-0.173
-509.785	-45.655	-0.338	0.168
-508.770	476.165	-0.096	-0.217
-507.756	70.488	0.285	0.296
-506.741	30.521	-0.264	-0.227
-505.726	-200.000	0.022	0.334
-504.712	206.516	0.152	0.238
-503.697	-192.263	-0.333	-0.003
-502.683	-113.390	-0.129	0.025
-501.668	171.741	-0.064	0.093
-500.653	-148.681	-0.249	-0.020
-499.639	260.675	0.127	0.220
-498.624	91.152	-0.033	-0.037
-497.610	-200.000	-0.003	-0.033
-496.595	157.374	0.103	-0.143
-495.581	15.314	0.291	-0.229
-494.566	-13.522	-0.449	0.292
-493.551	800.000	-0.035	0.119
-492.537	199.668	-0.134	-0.207
-491.522	-104.612	-0.356	-0.083
-490.508	-148.746	-0.242	-0.020
-489.493	-80.971	0.333	-0.111
-488.478	-98.072	-0.101	0.026
-487.464	32.372	-0.191	-0.166
-486.449	335.366	-0.026	-0.050
-485.435	-20.618	-0.181	0.111
-484.420	-200.000	-0.015	0.331
-483.405	-30.496	-0.377	0.214
-482.391	800.000	-0.091	0.293
-481.376	-89.800	-0.102	0.030
-480.362	-37.776	-0.128	0.069
-479.347	62.981	-0.196	-0.197
-478.332	-85.435	-0.285	-0.089
-477.318	-200.000	0.008	-0.081
-476.303	29.064	0.185	0.157
-475.289	-151.232	0.412	0.031
-474.274	18.645	0.165	0.132
-473.259	-93.092	-0.211	0.059
-472.245	-200.000	-0.004	0.044
-471.230	93.545	-0.096	-0.109
-470.216	-90.927	0.157	-0.045
-469.201	-123.730	0.202	0.032
-468.186	-33.059	-0.375	-0.209
-467.172	-160.828	-0.282	0.015
-466.157	-38.145	0.141	-0.075
-465.143	30.730	-0.112	0.096
-464.128	343.465	-0.168	-0.330
-463.113	459.194	-0.073	0.163
-462.099	-200.000	0.031	-0.156
-461.084	-63.210	-0.100	0.041
-460.070	-102.874	-0.202	0.048
-459.055	124.657	-0.198	0.250
-458.040	68.636	0.068	0.070
-457.026	-54.891	-0.371	-0.168
-456.011	-177.820	0.081	0.002
-454.997	800.000	-0.109	0.372
-453.982	-139.023	0.126	0.014
-452.968	800.000	0.073	0.228
-451.953	-200.000	-0.027	-0.303
-450.938	-94.144	0.176	0.048
-449.924	800.000	-0.120	-0.418
-448.909	85.343	0.172	0.189
-447.895	-61.163	-0.355	-0.150
-446.880	-200.000	0.007	-0.069
-445.865	-25.773	-0.189	-0.112
-444.851	-200.000	0.003	-0.197
-443.836	-200.000	0.018	0.160
-442.822	-162.383	-0.202	0.010
-441.807	73.590	0.144	-0.151
-440.792	-53.208	0.304	-0.140
-439.778	-200.000	-0.042	-0.302
-438.763	276.472	0.052	0.093
-437.749	-180.364	-0.129	0.003
-436.734	400.335	-0.105	0.220
-435.719	114.043	-0.091	0.111
-434.705	-76.798	0.213	0.075
-433.690	194.703	0.103	0.157
-432.676	800.000	0.065	-0.218
-431.661	-200.000	-0.308	-0.000
-430.646	-30.932	-0.297	-0.168
-429.632	-200.000	-0.005	-0.056
-428.617	-135.238	-0.185	0.022
-427.603	-200.000	0.009	-0.200
-426.588	800.000	-0.046	-0.142
-425.573	37.362	0.200	0.177
-424.559	111.995	-0.207	-0.251
-423.544	134.357	0.149	-0.193
-422.530	-63.450	0.145	0.060
-421.515	70.400	0.077	0.080
-420.500	800.000	0.087	-0.326
-419.486	84.505	-0.066	0.073
-418.471	-81.871	0.156	0.051
-417.457	75.421	-0.205	0.217
-416.442	-62.889	0.183	0.076
-415.428	-47.368	-0.202	-0.098
-414.413	-108.222	-0.051	-0.011
-413.398	800.000	-0.044	0.170
-412.384	-99.170	0.154	-0.039
-411.369	-87.024	0.092	0.028
-410.355	294.862	-0.089	-0.163
-409.340	-40.877	-0.095	0.049
-408.325	122.577	-0.116	-0.145
-407.311	-103.413	-0.319	-0.075
-406.296	-100.240	-0.362	0.090
-405.282	-128.058	-0.326	-0.047
-404.267	-159.976	-0.189	0.010
-403.252	72.401	-0.086	0.089
-402.238	783.718	0.068	-0.186
-401.223	49.298	0.215	-0.202
-400.209	-21.370	0.311	-0.190
-399.194	-151.245	0.387	0.029
-398.179	33.670	0.218	0.190
-397.165	-55.674	-0.427	0.191
-396.150	100.474	-0.249	-0.289
-395.136	800.000	0.058	0.162
-394.121	214.050	-0.082	-0.129
-393.106	11.476	-0.159	0.122
-392.092	-80.256	0.222	0.074
-391.077	800.000	-0.047	-0.142
-390.063	800.000	-0.075	0.280
-389.048	-200.000	-0.002	0.153
-388.033	240.812	-0.129	0.214
-387.019	-111.006	0.204	-0.042
-386.004	304.218	0.170	-0.316
-384.990	-151.145	-0.625	-0.047
-383.975	-88.945	-0.218	0.064
-382.960	-102.829	0.171	-0.041
-381.946	272.836	0.139	0.245
-380.931	-3.105	-0.090	-0.063
-379.917	692.445	-0.063	0.165
-378.902	330.207	0.158	0.303
-377.888	106.675	0.215	-0.255
-376.873	2.029	0.165	-0.119
-375.858	800.000	0.060	0.176
-374.844	64.943	0.185	0.187
-373.829	-200.000	0.022	-0.135
-372.815	-139.475	0.173	-0.019
-371.800	522.782	0.148	-0.348
-370.785	-138.857	-0.143	0.016
-369.771	256.777	-0.208	0.356
-368.756	-1.704	0.113	0.080
-367.742	76.803	0.095	-0.101
-366.727	1.956	0.306	-0.221
-365.712	-90.557	0.079	0.023
-364.698	-97.149	0.092	0.024
-363.683	56.410	-0.139	-0.135
-362.669	800.000	0.046	-0.200
-361.654	506.493	0.103	-0.239
-360.639	-200.000	0.027	-0.243
-359.625	-100.570	0.166	0.041
-358.610	-73.068	0.108	0.040
-357.596	-200.000	0.025	-0.237
-356.581	-135.871	0.262	-0.031
-355.566	-173.710	-0.093	0.003
-354.552	800.000	0.080	0.294
-353.537	81.720	-0.271	-0.293
-352.523	-55.626	-0.193	-0.086
-351.508	25.894	-0.089	0.074
-350.493	800.000	0.010	0.033
-349.479	167.612	0.225	0.318
-348.464	-65.937	0.426	0.170
-347.450	-43.331	-0.143	-0.072
-346.435	13.191	0.191	-0.148
-345.420	76.665	-0.030	0.032
-344.406	-200.000	-0.061	0.273
-343.391	-4.484	0.302	-0.208
-342.377	-62.968	0.407	-0.168
-341.362	-51.452	-0.177	0.082
-340.348	-143.314	0.183	-0.017
-339.333	-200.000	-0.017	-0.438
-338.318	-200.000	-0.004	0.082
-337.304	-200.000	-0.016	0.331
-336.289	800.000	0.101	0.435
-335.275	620.708	-0.101	-0.252
-334.260	18.904	-0.204	-0.163
-333.245	-50.208	-0.258	-0.122
-332.231	646.241	0.034	-0.086
-331.216	17.662	0.106	0.084
-330.202	-93.558	0.263	-0.073
-329.187	-200.000	0.009	-0.235
-328.172	-84.489	-0.434	0.137
-327.158	43.600	0.132	0.121
-326.143	-9.080	0.202	-0.135
-325.129	789.391	-0.023	-0.062
-324.114	178.936	0.022	0.032
-323.099	-200.000	-0.016	-0.165
-322.085	800.000	0.033	-0.104
-321.070	-59.261	-0.069	-0.030
-320.056	1.559	-0.251	-0.180
-319.041	86.303	-0.055	-0.061
-318.026	25.662	-0.397	-0.330
-317.012	39.576	0.151	-0.135
-315.997	-200.000	-0.052	-0.255
-314.983	194.488	0.196	-0.296
-313.968	503.670	0.091	0.209
-312.953	-105.391	-0.142	-0.032
-311.939	-200.000	0.053	-0.279
-310.924	-35.345	0.219	-0.119
-309.910	-125.422	0.151	0.023
-308.895	-49.397	-0.098	0.047
-307.880	-20.037	-0.273	0.168
-306.866	-42.998	0.302	0.153
-305.851	-0.176	-0.229	-0.162
-304.837	294.747	-0.048	-0.087
-303.822	800.000	-0.097	0.309
-302.807	60.656	-0.141	0.139
-301.793	800.000	-0.011	0.040
-300.778	100.834	-0.066	0.077
-299.764	-200.000	0.012	0.152
-298.749	204.659	0.147	0.228
-297.735	-200.000	-0.020	0.224
-296.720	193.444	0.193	0.290
-295.705	-29.023	-0.216	-0.123
-294.691	-35.266	-0.384	-0.208
-293.676	87.581	0.334	-0.368
-292.662	-30.083	0.133	0.075
-291.647	-200.000	-0.002	0.221
-290.632	59.707	0.225	-0.221
-289.618	-116.842	0.028	-0.005
-288.603	95.667	0.152	-0.173
-287.589	543.773	0.092	-0.219
-286.574	-85.097	-0.087	0.027
-285.559	-200.000	0.052	0.244
-284.545	66.908	-0.244	-0.248
-283.530	-39.250	0.054	-0.028
-282.516	325.118	-0.066	0.125
-281.501	-200.000	0.010	-0.105
-280.486	27.121	0.271	-0.226
-279.472	-200.000	0.035	-0.206
-278.457	-164.852	0.214	-0.010
-277.443	152.631	-0.063	0.086
-276.428	12.294	-0.148	-0.114
-275.413	-0.976	0.114	0.081
-274.399	-200.000	0.043	-0.235
-273.384	-102.678	0.113	0.027
-272.370	-200.000	-0.016	-0.132
-271.355	28.418	0.337	0.283
-270.340	-89.505	0.342	0.100
-269.326	159.693	-0.079	0.109
-268.311	-200.000	-0.031	0.144
-267.297	121.239	-0.126	-0.156
-266.282	-111.318	-0.127	-0.026
-265.267	-150.638	0.254	-0.019
-264.253	-72.575	0.130	-0.048
-263.238	1.046	0.189	-0.134
-262.224	-49.265	0.050	0.024
-261.209	-15.082	-0.105	0.067
-260.195	-200.000	-0.009	-0.243
-259.180	199.938	0.076	-0.116
-258.165	153.505	0.028	0.039
-257.151	-120.458	0.345	-0.058
-256.136	52.423	-0.126	-0.120
-255.122	-58.539	0.251	-0.108
-254.107	-200.000	-0.033	-0.294
-253.092	-4.504	-0.267	-0.183
-252.078	3.232	-0.269	0.194
-251.063	649.649	0.062	0.158
-250.049	-41.522	-0.144	-0.074
-249.034	-86.088	0.149	0.046
-248.019	-107.916	-0.402	-0.087
-247.005	-77.931	0.325	-0.111
-245.990	12.044	0.160	0.122
-244.976	-71.942	-0.247	-0.091
-243.961	-18.669	0.199	-0.124
-242.946	114.585	0.089	-0.108
-241.932	800.000	0.066	-0.252
-240.917	-5.382	0.263	0.179
-239.903	84.902	0.241	-0.262
-238.888	-200.000	0.033	-0.171
-237.873	-43.059	-0.058	-0.029
-236.859	-124.380	-0.184	0.028
-235.844	-200.000	0.034	0.260
-234.830	-17.131	0.086	-0.054
-233.815	-200.000	-0.036	0.330
-232.800	-9.932	0.265	-0.175
-231.786	-13.135	0.069	0.044
-230.771	-200.000	0.014	-0.228
-229.757	-200.000	0.004	0.062
-228.742	-26.635	-0.156	-0.091
-227.727	-200.000	0.019	-0.163
-226.713	202.163	0.091	0.140
-225.698	-200.000	0.011	-0.122
-224.684	-60.664	-0.166	0.070
-223.669	567.722	0.027	0.065
-222.655	-200.000	0.004	-0.151
-221.640	-154.231	-0.081	0.005
-220.625	249.563	0.073	-0.124
-219.611	-58.358	-0.192	0.083
-218.596	-200.000	-0.027	0.215
-217.582	-116.460	-0.246	0.045
-216.567	-200.000	-0.011	-0.179
-215.552	181.397	-0.227	0.331
-214.538	266.404	-0.103	0.178
-213.523	-42.203	-0.064	0.032
-212.509	-200.000	-0.090	0.657
-211.494	-200.000	-0.011	0.291
-210.479	-81.575	0.129	-0.042
-209.465	38.680	-0.276	-0.244
-208.450	-200.000	0.025	0.183
-207.436	154.003	-0.042	0.057
-206.421	-56.409	-0.063	0.028
-205.406	-124.172	0.429	-0.067
-204.392	-116.790	-0.292	-0.053
-203.377	-200.000	-0.024	0.273
-202.363	-132.479	-0.241	-0.031
-201.348	-30.033	-0.101	0.057
-200.333	-31.756	0.208	-0.116
-199.319	432.785	-0.045	0.096
-198.304	-200.000	-0.100	0.461
-197.290	133.140	0.253	-0.324
-196.275	211.104	-0.249	0.388
-195.260	800.000	0.026	-0.108
-194.246	-41.888	0.304	-0.154
-193.231	-34.735	0.283	0.153
-192.217	13.282	-0.098	0.076
-191.202	731.290	-0.035	-0.094
-190.187	-200.000	-0.020	0.149
-189.173	258.595	0.088	0.150
-188.158	-70.897	0.191	0.071
-187.144	-85.354	0.260	0.080
-186.129	85.449	-0.080	-0.087
-185.114	393.228	-0.138	0.285
-184.100	-200.000	-0.009	0.062
-183.085	-175.767	-0.215	0.006
-182.071	-75.320	0.183	0.065
-181.056	42.294	0.353	-0.318
-180.042	173.351	0.131	0.187
-179.027	92.121	0.022	0.025
-178.012	1.512	-0.142	-0.101
-176.998	196.111	-0.178	0.269
-175.983	230.943	0.125	0.203
-174.969	144.492	0.083	-0.109
-173.954	34.250	-0.101	0.088
-172.939	36.996	0.422	0.370
-171.925	484.450	0.166	0.375
-170.910	383.158	-0.091	0.186
-169.896	283.857	-0.069	0.123
-168.881	-200.000	-0.085	0.649
-167.866	251.810	0.190	-0.320
-166.852	646.001	-0.093	0.234
-165.837	-95.044	0.147	-0.039
-164.823	309.182	-0.081	-0.150
-163.808	50.350	-0.153	0.143
-162.793	-200.000	0.001	-0.140
-161.779	-130.693	0.232	-0.031
-160.764	335.217	0.042	-0.081
-159.750	-73.153	0.364	0.132
-158.735	-88.994	-0.074	0.022
-157.720	-113.590	-0.213	0.041
-156.706	-200.000	0.060	-0.333
-155.691	465.501	0.107	0.236
-154.677	22.836	-0.229	0.186
-153.662	282.442	-0.119	-0.211
-152.647	-86.992	-0.109	-0.033
-151.633	90.129	-0.117	0.129
-150.618	-21.803	0.151	0.091
-149.604	554.931	-0.113	-0.268
-148.589	-39.972	-0.107	-0.055
-147.574	-200.000	0.008	0.149
-146.560	-115.593	-0.332	0.062
-145.545	-200.000	0.005	-0.254
-144.531	143.045	0.064	0.084
-143.516	800.000	0.043	0.138
-142.502	-200.000	0.014	-0.445
-141.487	-24.786	-0.159	0.094
-140.472	11.904	-0.157	-0.119
-139.458	662.427	-0.095	-0.242
-138.443	-21.714	0.132	0.079
-137.429	37.040	0.251	0.220
-136.414	6.590	0.093	-0.068
-135.399	-200.000	-0.017	0.197
-134.385	-61.863	-0.413	-0.171
-133.370	6.851	-0.378	0.279
-132.356	-101.938	-0.163	0.039
-131.341	-139.337	0.138	-0.015
-130.326	-79.437	0.106	0.035
-129.312	-200.000	0.005	0.146
-128.297	-90.162	0.192	0.055
-127.283	800.000	-0.039	-0.144
-126.268	158.187	0.145	0.199
-125.253	-91.145	-0.255	-0.072
-124.239	-95.082	0.177	-0.047
-123.224	798.136	-0.125	0.340
-122.210	-140.719	0.133	-0.014
-121.195	-18.875	-0.170	0.104
