DTS Sentinel unit serial number:	SN413079Multiplexer serial number:	ORYXHardware model number:	OX4-SRSoftware version number:	ORYX F/W v4.00 Oryx Data Collector v3.7.2.0data status	okinstallation	princeton_trtdifferential loss correction	single-endedforward channel	channel 3reverse channel	N/Adate	2019/09/19time	15:44:35forward acquisition time	60.00reverse acquisition time	0.00gamma	496.2192k internal	0.2305k external	0.2305temperature offset calibration	1.0010default loss term (dB/km)	0.3790temperature slope calibration	1.0000multiplexer offset coefficient	1.0000multiplexer slope coefficient	1.0000fibre end	0.00T internal ref (°C)	34.73T ext. ref 1 (°C)	1.15T ext. ref 2 (°C)	33.18length (m)	temperature (°C)	Stokes	anti-Stokes-747.200	127.012	0.039	-0.050
-746.185	29.762	0.135	0.117
-745.171	-81.678	-0.103	-0.034
-744.156	800.000	-0.049	0.152
-743.142	66.496	-0.216	0.223
-742.127	-200.000	-0.056	0.457
-741.112	305.161	0.039	0.073
-740.098	3.720	-0.194	-0.144
-739.083	-70.192	0.187	0.072
-738.069	-200.000	-0.023	0.231
-737.054	-135.924	0.246	-0.029
-736.039	27.585	-0.237	-0.203
-735.025	-111.767	0.400	0.082
-734.010	-104.377	0.199	-0.047
-732.996	236.385	-0.134	0.225
-731.981	220.085	0.114	-0.185
-730.966	-54.989	0.499	0.229
-729.952	58.924	-0.221	-0.221
-728.937	159.355	-0.138	-0.195
-727.923	415.107	-0.100	-0.216
-726.908	251.435	-0.242	-0.419
-725.894	800.000	0.058	0.173
-724.879	14.799	-0.101	0.080
-723.864	-8.708	0.228	-0.156
-722.850	-134.409	-0.151	-0.019
-721.835	128.698	-0.098	-0.127
-720.821	-6.789	-0.392	-0.271
-719.806	-137.950	-0.215	-0.024
-718.791	-64.812	0.134	0.055
-717.777	800.000	0.018	0.076
-716.762	-65.287	0.348	-0.143
-715.748	594.685	-0.042	-0.107
-714.733	44.717	0.236	-0.221
-713.718	332.532	-0.164	0.322
-712.704	-20.316	0.217	0.136
-711.689	-55.019	-0.254	0.116
-710.675	38.417	0.013	0.012
-709.660	-41.071	-0.166	-0.087
-708.645	164.982	-0.047	-0.067
-707.631	-200.000	-0.068	0.357
-706.616	-19.195	-0.377	0.238
-705.602	-200.000	0.069	-0.515
-704.587	-132.522	0.108	-0.014
-703.572	-84.347	-0.056	0.018
-702.558	187.705	0.062	0.093
-701.543	-86.515	0.132	0.041
-700.529	-200.000	-0.037	-0.194
-699.514	-61.284	0.029	0.012
-698.499	-149.155	-0.107	-0.009
-697.485	-23.711	-0.086	-0.053
-696.470	800.000	0.033	0.141
-695.456	166.517	-0.116	0.167
-694.441	170.141	0.134	-0.195
-693.426	-15.335	0.124	0.081
-692.412	279.548	-0.090	-0.164
-691.397	14.028	-0.310	0.245
-690.383	183.977	0.027	0.041
-689.368	-200.000	-0.051	-0.232
-688.354	398.223	-0.074	-0.157
-687.339	-200.000	0.009	-0.097
-686.324	-200.000	0.013	-0.555
-685.310	-200.000	0.001	-0.014
-684.295	68.323	0.145	0.151
-683.281	-45.872	-0.234	0.117
-682.266	-200.000	-0.065	-0.362
-681.251	-145.649	0.525	0.048
-680.237	-94.141	0.337	0.094
-679.222	-125.296	-0.185	-0.029
-678.208	134.092	-0.059	0.078
-677.193	-171.374	-0.172	-0.006
-676.178	200.516	0.075	-0.118
-675.164	-73.223	-0.248	-0.092
-674.149	289.535	0.091	0.168
-673.135	-200.000	-0.008	-0.062
-672.120	1.157	-0.301	-0.219
-671.105	800.000	-0.074	0.218
-670.091	411.610	-0.091	0.195
-669.076	69.644	-0.180	-0.188
-668.062	-200.000	-0.015	-0.252
-667.047	800.000	-0.020	-0.089
-666.032	0.691	-0.095	0.069
-665.018	800.000	0.090	0.268
-664.003	449.552	0.078	-0.176
-662.989	-200.000	-0.001	0.165
-661.974	800.000	-0.026	-0.075
-660.959	205.738	-0.103	0.162
-659.945	104.898	-0.135	0.161
-658.930	-142.296	-0.430	-0.043
-657.916	-200.000	0.005	0.060
-656.901	4.965	-0.072	0.053
-655.886	-200.000	-0.035	-0.272
-654.872	800.000	0.066	-0.225
-653.857	-5.119	0.094	0.066
-652.843	-143.189	0.352	-0.034
-651.828	-73.926	0.300	0.111
-650.814	-200.000	-0.045	-0.259
-649.799	244.363	-0.054	0.092
-648.784	66.081	0.249	0.256
-647.770	-0.035	0.140	0.101
-646.755	800.000	-0.133	-0.407
-645.741	-150.871	0.098	-0.007
-644.726	-200.000	0.060	-0.310
-643.711	800.000	-0.050	0.162
-642.697	797.897	0.069	-0.193
-641.682	-200.000	0.015	-0.133
-640.668	-200.000	-0.000	-0.148
-639.653	800.000	0.038	-0.150
-638.638	-108.174	-0.357	0.078
-637.624	-200.000	0.013	0.063
-636.609	-200.000	-0.008	-0.272
-635.595	442.101	0.118	0.262
-634.580	42.249	0.100	0.092
-633.565	65.377	-0.185	0.189
-632.551	788.756	0.043	0.120
-631.536	-158.273	-0.059	-0.003
-630.522	-37.680	0.039	-0.021
-629.507	24.519	0.031	0.026
-628.492	-79.969	-0.190	0.065
-627.478	72.879	0.111	0.118
-626.463	800.000	0.055	0.191
-625.449	-2.046	0.358	0.254
-624.434	685.109	0.110	0.291
-623.419	-200.000	-0.032	-0.224
-622.405	-200.000	0.027	-0.174
-621.390	34.092	0.179	0.158
-620.376	422.250	0.112	0.244
-619.361	4.409	-0.352	-0.261
-618.346	-48.712	0.273	-0.133
-617.332	753.533	-0.069	-0.189
-616.317	-137.612	-0.111	-0.013
-615.303	223.660	-0.131	0.215
-614.288	261.788	-0.138	-0.243
-613.273	-46.538	0.090	0.045
-612.259	-171.876	0.357	-0.012
-611.244	-2.657	-0.164	-0.116
-610.230	278.429	-0.104	-0.188
-609.215	275.370	0.158	-0.283
-608.201	-77.045	0.171	0.060
-607.186	-61.743	0.119	0.051
-606.171	240.260	0.079	0.133
-605.157	-98.690	0.111	0.029
-604.142	-200.000	-0.004	0.217
-603.128	-109.259	-0.196	-0.042
-602.113	800.000	-0.034	0.102
-601.098	-115.802	-0.453	0.086
-600.084	-131.709	0.192	-0.025
-599.069	800.000	-0.092	0.272
-598.055	-166.892	0.152	0.006
-597.040	-187.551	-0.259	0.003
-596.025	-38.818	-0.057	-0.030
-595.011	201.074	-0.080	-0.125
-593.996	463.293	0.126	-0.286
-592.982	539.860	-0.142	0.343
-591.967	-17.640	-0.302	0.192
-590.952	339.908	-0.214	-0.422
-589.938	21.737	-0.141	-0.116
-588.923	55.823	-0.035	0.035
-587.909	-93.662	-0.099	-0.028
-586.894	-10.047	0.190	0.128
-585.879	369.062	0.053	0.109
-584.865	-113.853	-0.282	0.056
-583.850	104.370	0.184	0.219
-582.836	169.259	-0.127	0.183
-581.821	47.871	0.419	-0.396
-580.806	36.827	0.278	-0.248
-579.792	-165.891	-0.265	-0.011
-578.777	10.217	0.354	-0.272
-577.763	-94.285	0.254	0.070
-576.748	-83.573	-0.221	0.072
-575.733	-71.218	0.311	-0.118
-574.719	-11.019	-0.271	0.181
-573.704	-43.718	0.370	0.188
-572.690	-200.000	0.037	-0.196
-571.675	-92.639	-0.190	-0.054
-570.661	-171.328	-0.059	0.002
-569.646	21.142	-0.173	0.142
-568.631	190.896	-0.022	-0.033
-567.617	656.324	-0.079	0.206
-566.602	-41.952	-0.146	-0.075
-565.588	-200.000	0.017	-0.227
-564.573	-119.242	0.104	-0.018
-563.558	800.000	0.119	0.348
-562.544	19.683	-0.242	0.197
-561.529	200.390	0.113	0.175
-560.515	800.000	0.057	0.220
-559.500	-200.000	-0.033	0.294
-558.485	-200.000	-0.068	0.485
-557.471	680.386	-0.137	-0.360
-556.456	-140.592	0.182	0.019
-555.442	54.423	0.052	0.051
-554.427	112.270	-0.492	0.601
-553.412	-157.443	0.324	0.020
-552.398	74.925	0.154	-0.164
-551.383	43.812	0.035	-0.032
-550.369	-43.875	-0.233	0.118
-549.354	-200.000	0.068	-0.362
-548.339	39.982	-0.273	-0.248
-547.325	-200.000	-0.100	0.000
-546.310	-26.441	0.103	-0.061
-545.296	-200.000	0.025	0.204
-544.281	-171.952	-0.115	0.004
-543.266	-47.204	0.112	0.055
-542.252	107.273	0.086	0.103
-541.237	54.243	0.229	0.222
-540.223	-107.469	-0.073	0.016
-539.208	-200.000	0.004	-0.246
-538.193	108.123	-0.155	-0.186
-537.179	-83.572	-0.073	0.024
-536.164	194.157	0.095	0.145
-535.150	-19.937	0.248	-0.154
-534.135	-200.000	-0.010	-0.225
-533.121	-121.602	0.154	0.026
-532.106	261.838	-0.209	0.365
-531.091	260.785	0.222	0.388
-530.077	20.799	0.281	0.230
-529.062	-82.168	-0.216	-0.071
-528.048	-118.755	0.081	-0.014
-527.033	-69.646	-0.505	0.195
-526.018	71.532	-0.119	0.124
-525.004	98.608	0.182	-0.212
-523.989	-69.017	-0.250	-0.097
-522.975	-54.684	-0.216	0.099
-521.960	800.000	0.039	0.141
-520.945	96.929	0.247	0.286
-519.931	533.475	0.037	-0.088
-518.916	447.779	-0.079	-0.176
-517.902	195.438	-0.249	-0.381
-516.887	15.965	0.215	-0.171
-515.872	192.139	0.083	0.127
-514.858	63.434	-0.278	-0.282
-513.843	-30.601	0.049	-0.028
-512.829	-139.220	-0.193	0.021
-511.814	43.428	0.113	-0.104
-510.799	-179.931	-0.134	-0.003
-509.785	-64.939	-0.253	0.103
-508.770	800.000	-0.030	-0.117
-507.756	11.196	0.263	0.203
-506.741	133.473	0.057	0.075
-505.726	-200.000	-0.009	0.130
-504.712	-110.522	-0.357	-0.075
-503.697	-56.851	0.232	0.103
-502.683	-200.000	0.051	0.237
-501.668	-155.667	-0.107	-0.007
-500.653	121.022	-0.208	0.261
-499.639	-40.318	-0.271	0.142
-498.624	43.026	-0.055	-0.050
-497.610	66.432	-0.124	-0.127
-496.595	-200.000	-0.053	-0.336
-495.581	-24.987	0.065	0.039
-494.566	-200.000	-0.033	-0.242
-493.551	122.761	0.088	-0.111
-492.537	-105.947	0.109	0.025
-491.522	800.000	-0.054	0.181
-490.508	-169.487	-0.103	0.004
-489.493	800.000	0.064	-0.271
-488.478	-130.245	-0.139	-0.019
-487.464	800.000	0.120	-0.348
-486.449	486.794	0.064	0.147
-485.435	800.000	-0.072	0.241
-484.420	-200.000	-0.062	0.338
-483.405	169.138	-0.139	-0.200
-482.391	-200.000	-0.001	-0.243
-481.376	-200.000	-0.008	-0.114
-480.362	-200.000	-0.103	-0.566
-479.347	684.649	-0.095	-0.249
-478.332	-200.000	-0.001	0.099
-477.318	-200.000	-0.035	-0.330
-476.303	36.277	-0.170	0.151
-475.289	-200.000	-0.068	0.586
-474.274	80.499	-0.212	-0.230
-473.259	193.997	0.033	-0.050
-472.245	292.309	-0.048	-0.088
-471.230	-150.511	-0.197	0.015
-470.216	-20.523	0.185	-0.114
-469.201	-200.000	0.044	-0.197
-468.186	-140.579	0.114	-0.012
-467.172	-136.873	-0.205	-0.024
-466.157	434.345	0.184	0.402
-465.143	122.929	-0.265	0.334
-464.128	140.774	-0.152	0.202
-463.113	-37.579	0.198	-0.106
-462.099	708.865	0.033	0.088
-461.084	800.000	0.026	-0.087
-460.070	800.000	0.049	-0.154
-459.055	800.000	-0.050	0.193
-458.040	129.422	0.188	0.241
-457.026	-200.000	0.032	0.355
-456.011	-107.447	-0.444	-0.098
-454.997	-53.545	-0.297	-0.137
-453.982	-58.070	-0.055	-0.024
-452.968	143.487	-0.179	0.240
-451.953	388.640	-0.036	-0.075
-450.938	800.000	0.089	0.318
-449.924	51.403	-0.136	0.130
-448.909	89.398	0.071	0.080
-447.895	800.000	0.129	-0.413
-446.880	800.000	-0.048	0.151
-445.865	-7.375	-0.300	-0.204
-444.851	-151.963	0.294	0.022
-443.836	-200.000	0.023	0.162
-442.822	177.824	-0.185	-0.271
-441.807	27.115	0.150	-0.127
-440.792	-67.501	0.202	-0.080
-439.778	-48.479	0.247	-0.120
-438.763	280.853	0.097	-0.175
-437.749	-22.946	-0.166	-0.100
-436.734	214.310	-0.121	-0.192
-435.719	-9.288	-0.179	-0.121
-434.705	11.294	0.271	-0.209
-433.690	170.414	-0.122	-0.175
-432.676	205.995	0.129	-0.201
-431.661	21.552	-0.247	-0.202
-430.646	124.226	0.233	-0.294
-429.632	-200.000	-0.027	0.380
-428.617	-200.000	0.012	-0.257
-427.603	-142.527	0.171	-0.017
-426.588	-200.000	0.028	-0.281
-425.573	-32.624	-0.123	-0.069
-424.559	393.448	-0.028	-0.059
-423.544	800.000	-0.062	-0.173
-422.530	-200.000	-0.043	-0.283
-421.515	-53.826	0.422	0.194
-420.500	91.130	0.111	-0.125
-419.486	154.317	-0.163	0.225
-418.471	-200.000	0.017	0.075
-417.457	396.980	0.049	0.102
-416.442	800.000	-0.074	-0.208
-415.428	-64.554	-0.082	-0.034
-414.413	-48.166	-0.194	-0.094
-413.398	48.775	-0.056	-0.053
-412.384	-200.000	-0.013	0.138
-411.369	42.746	-0.059	-0.054
-410.355	-92.590	0.275	0.078
-409.340	307.079	0.050	-0.094
-408.325	-22.831	0.173	-0.105
-407.311	6.698	-0.485	0.363
-406.296	-151.573	0.077	0.006
-405.282	-3.184	-0.285	-0.200
-404.267	800.000	-0.145	-0.438
-403.252	91.822	-0.104	0.118
-402.238	-67.302	0.275	0.109
-401.223	31.860	-0.299	-0.259
-400.209	800.000	-0.088	0.281
-399.194	-200.000	0.031	0.139
-398.179	-200.000	-0.004	-0.089
-397.165	208.775	-0.107	0.168
-396.150	125.736	0.215	-0.272
-395.136	-78.192	0.133	0.046
-394.121	-136.845	-0.184	0.021
-393.106	-27.868	0.226	0.132
-392.092	486.386	0.108	-0.246
-391.077	350.301	-0.092	0.182
-390.063	-109.945	0.192	0.040
-389.048	-20.557	0.205	-0.126
-388.033	236.813	0.047	0.078
-387.019	460.629	-0.097	0.217
-386.004	293.253	0.208	0.381
-384.990	-200.000	-0.098	-0.481
-383.975	-183.242	0.349	-0.006
-382.960	142.103	-0.153	-0.204
-381.946	-118.328	-0.142	0.025
-380.931	-200.000	-0.005	-0.198
-379.917	40.370	0.226	-0.204
-378.902	-0.362	0.012	0.008
-377.888	-200.000	-0.021	-0.143
-376.873	251.859	-0.025	-0.042
-375.858	495.405	0.221	0.510
-374.844	-178.155	0.323	0.008
-373.829	-142.211	-0.416	0.041
-372.815	18.551	-0.356	-0.286
-371.800	-9.143	-0.039	0.026
-370.785	-67.881	0.133	-0.052
-369.771	235.309	0.072	0.120
-368.756	-72.664	0.242	0.090
-367.742	800.000	-0.110	0.471
-366.727	-58.815	0.135	0.058
-365.712	-82.622	-0.050	-0.016
-364.698	-133.511	0.258	-0.032
-363.683	415.431	0.115	0.246
-362.669	-148.980	-0.306	0.025
-361.654	800.000	0.080	-0.222
-360.639	800.000	0.020	-0.088
-359.625	-48.038	0.431	0.209
-358.610	572.455	0.077	0.189
-357.596	-91.571	0.293	-0.084
-356.581	-200.000	-0.009	0.152
-355.566	42.890	0.018	-0.016
-354.552	-200.000	-0.007	-0.203
-353.537	-14.872	-0.142	0.091
-352.523	-40.461	-0.097	0.051
-351.508	368.680	-0.090	-0.182
-350.493	800.000	-0.047	0.149
-349.479	-149.962	-0.149	-0.012
-348.464	372.407	-0.125	-0.255
-347.450	72.106	-0.132	0.138
-346.435	-137.068	-0.265	-0.030
-345.420	339.315	0.017	0.033
-344.406	-96.871	0.242	-0.064
-343.391	-106.244	-0.442	-0.099
-342.377	-55.296	-0.146	-0.066
-341.362	178.031	-0.116	0.170
-340.348	-200.000	-0.039	0.282
-339.333	-16.351	-0.098	0.063
-338.318	-75.281	0.327	0.117
-337.304	-200.000	0.043	-0.198
-336.289	-94.897	-0.176	0.048
-335.275	-200.000	0.026	-0.235
-334.260	-200.000	0.003	-0.125
-333.245	800.000	-0.032	0.130
-332.231	-111.727	0.433	-0.088
-331.216	172.819	0.162	-0.233
-330.202	-108.142	-0.254	0.055
-329.187	-27.575	0.255	-0.148
-328.172	396.961	-0.137	0.287
-327.158	474.680	0.097	-0.220
-326.143	-105.241	-0.209	0.048
-325.129	19.081	-0.041	0.033
-324.114	-200.000	0.053	-0.250
-323.099	63.498	0.146	-0.147
-322.085	58.455	-0.231	0.227
-321.070	89.712	-0.084	-0.094
-320.056	732.877	0.093	0.250
-319.041	533.699	-0.096	0.229
-318.026	-200.000	0.091	0.403
-317.012	41.598	-0.198	0.179
-315.997	-200.000	-0.077	-0.383
-314.983	-144.319	0.381	-0.036
-313.968	121.423	0.052	0.065
-312.953	108.654	0.160	0.191
-311.939	-200.000	0.008	-0.281
-310.924	-200.000	0.094	-0.597
-309.910	-200.000	-0.006	0.125
-308.895	-200.000	-0.073	-0.335
-307.880	44.480	-0.273	-0.251
-306.866	-29.987	-0.260	-0.148
-305.851	80.256	0.044	-0.047
-304.837	255.969	0.159	0.272
-303.822	-104.387	0.198	0.046
-302.807	-48.380	-0.235	0.113
-301.793	-65.800	0.155	0.062
-300.778	-13.982	0.149	-0.097
-299.764	577.033	0.112	-0.273
-298.749	-29.380	-0.208	-0.119
-297.735	27.813	-0.280	0.236
-296.720	-23.782	0.081	0.048
-295.705	800.000	-0.063	0.261
-294.691	-127.831	-0.158	0.023
-293.676	-43.507	0.410	0.207
-292.662	-153.064	-0.246	-0.017
-291.647	-87.524	0.300	-0.091
-290.632	177.864	0.115	0.167
-289.618	268.754	-0.166	0.291
-288.603	45.058	0.157	-0.145
-287.589	55.789	0.195	-0.189
-286.574	232.392	0.061	-0.101
-285.559	-200.000	0.039	-0.265
-284.545	190.795	0.123	-0.185
-283.530	-200.000	-0.095	0.450
-282.516	39.366	0.060	0.054
-281.501	730.776	0.206	-0.551
-280.486	31.517	0.101	0.086
-279.472	53.761	-0.294	-0.282
-278.457	196.736	0.125	0.190
-277.443	-200.000	0.044	0.252
-276.428	27.808	0.327	-0.275
-275.413	49.973	0.164	0.155
-274.399	800.000	-0.021	-0.065
-273.384	800.000	-0.024	0.100
-272.370	-102.378	-0.092	-0.022
-271.355	-78.193	0.192	-0.066
-270.340	-99.286	0.321	-0.081
-269.326	38.114	-0.069	-0.061
-268.311	218.079	0.152	0.243
-267.297	-128.657	-0.189	-0.027
-266.282	-41.546	0.249	0.128
-265.267	-200.000	-0.047	-0.264
-264.253	96.266	0.049	0.055
-263.238	-37.750	0.258	0.137
-262.224	800.000	-0.044	-0.126
-261.209	367.648	0.073	-0.148
-260.195	124.144	-0.101	0.127
-259.180	141.657	0.128	0.170
-258.165	222.497	0.075	-0.121
-257.151	-129.527	0.131	-0.018
-256.136	91.493	-0.065	-0.073
-255.122	-18.634	0.371	-0.231
-254.107	296.030	0.057	0.104
-253.092	-85.783	0.289	-0.089
-252.078	371.011	-0.163	0.331
-251.063	-200.000	-0.014	-0.111
-250.049	228.501	0.026	0.043
-249.034	407.962	-0.117	0.246
-248.019	64.470	-0.086	0.086
-247.005	247.399	0.056	0.095
-245.990	433.975	0.026	0.057
-244.976	72.253	0.115	0.119
-243.961	-200.000	0.018	-0.220
-242.946	182.159	-0.111	0.163
-241.932	800.000	0.063	0.202
-240.917	332.150	-0.038	-0.073
-239.903	-176.117	-0.251	0.007
-238.888	-200.000	-0.023	-0.163
-237.873	-3.889	0.105	0.073
-236.859	-90.618	-0.325	0.094
-235.844	129.085	0.092	-0.117
-234.830	800.000	0.116	0.484
-233.815	-78.388	0.353	0.121
-232.800	256.540	0.157	0.269
-231.786	6.850	0.413	-0.307
-230.771	11.684	-0.297	-0.227
-229.757	68.934	-0.171	-0.175
-228.742	-32.453	-0.174	-0.097
-227.727	800.000	-0.068	-0.190
-226.713	106.476	-0.134	-0.158
-225.698	-61.914	0.192	-0.080
-224.684	74.135	0.384	0.402
-223.669	-53.403	0.216	-0.099
-222.655	-83.583	-0.283	-0.090
-221.640	181.924	-0.085	-0.125
-220.625	8.219	0.228	-0.171
-219.611	11.064	0.259	0.197
-218.596	427.568	0.150	-0.323
-217.582	-60.706	-0.052	-0.022
-216.567	286.093	-0.101	0.183
-215.552	475.636	-0.116	0.261
-214.538	-166.243	0.565	0.024
-213.523	-200.000	0.005	-0.067
-212.509	-200.000	0.071	0.509
-211.494	-200.000	0.006	0.045
-210.479	162.812	-0.124	0.173
-209.465	310.996	-0.126	0.236
-208.450	-64.403	0.171	0.070
-207.436	38.301	-0.064	-0.057
-206.421	-86.881	-0.260	-0.079
-205.406	-103.899	-0.140	0.033
-204.392	-92.043	-0.437	0.123
-203.377	800.000	0.026	-0.071
-202.363	-200.000	0.023	-0.349
-201.348	-87.869	-0.268	-0.080
-200.333	800.000	0.062	0.226
-199.319	-60.482	0.022	0.009
-198.304	-68.789	0.112	-0.043
-197.290	34.765	-0.288	0.250
-196.275	277.528	0.111	-0.197
-195.260	-97.525	0.220	-0.057
-194.246	-4.583	0.083	0.057
-193.231	-200.000	0.042	-0.264
-192.217	136.965	-0.177	-0.231
-191.202	800.000	-0.093	0.358
-190.187	1.923	-0.311	0.224
-189.173	-97.346	-0.247	-0.064
-188.158	-95.830	-0.274	-0.073
-187.144	62.607	0.046	-0.046
-186.129	19.108	0.173	0.138
-185.114	86.266	-0.007	-0.007
-184.100	800.000	-0.055	0.152
-183.085	-200.000	0.035	-0.204
-182.071	558.042	0.034	0.082
-181.056	-85.594	0.209	-0.065
-180.042	800.000	-0.065	-0.207
-179.027	-77.745	0.030	0.010
-178.012	800.000	0.069	0.298
-176.998	800.000	-0.083	-0.323
-175.983	-67.991	-0.314	0.122
-174.969	392.192	-0.061	0.126
-173.954	-29.667	0.098	0.056
-172.939	34.387	0.125	-0.108
-171.925	61.236	0.256	0.253
-170.910	-27.041	-0.053	0.031
-169.896	5.069	-0.126	-0.092
-168.881	168.481	-0.078	0.110
-167.866	71.672	-0.063	0.065
-166.852	55.427	-0.094	-0.091
-165.837	-200.000	0.035	0.220
-164.823	103.074	-0.109	0.127
-163.808	-70.564	0.219	-0.082
-162.793	-200.000	-0.022	0.117
-161.779	-1.433	-0.385	-0.270
-160.764	54.130	0.247	0.236
-159.750	731.474	0.132	-0.351
-158.735	490.729	-0.028	-0.063
-157.720	-200.000	0.035	0.178
-156.706	561.058	-0.034	-0.082
-155.691	-185.033	-0.261	-0.004
-154.677	-200.000	0.008	0.257
-153.662	-200.000	0.012	-0.151
-152.647	35.308	-0.093	-0.082
-151.633	106.106	0.226	-0.266
-150.618	800.000	0.016	0.050
-149.604	-42.718	0.373	0.189
-148.589	316.274	0.155	0.292
-147.574	118.304	0.160	0.196
-146.560	283.433	0.102	0.183
-145.545	573.623	-0.055	-0.132
-144.531	-117.795	-0.323	-0.058
-143.516	800.000	-0.044	0.169
-142.502	800.000	-0.061	-0.169
-141.487	-200.000	0.039	0.257
-140.472	-69.546	-0.333	0.127
-139.458	427.810	0.060	-0.128
-138.443	-200.000	0.010	0.080
-137.429	66.002	0.227	0.229
-136.414	-127.002	0.118	-0.017
-135.399	-163.392	0.205	0.010
-134.385	352.554	-0.083	0.163
-133.370	800.000	0.103	0.310
-132.356	288.584	-0.193	0.347
-131.341	793.230	-0.083	0.227
-130.326	-25.970	-0.236	0.138
-129.312	73.665	-0.182	0.190
-128.297	284.082	0.172	-0.308
-127.283	652.802	0.022	-0.057
-126.268	164.713	-0.183	0.256
-125.253	228.787	0.157	0.254
-124.239	94.600	0.174	0.196
-123.224	250.584	0.071	0.120
-122.210	681.510	0.052	-0.136
-121.195	470.350	-0.127	0.284
-120.180	26.083	0.222	-0.184
