DTS Sentinel unit serial number:	SN413079Multiplexer serial number:	ORYXHardware model number:	OX4-SRSoftware version number:	ORYX F/W v4.00 Oryx Data Collector v3.7.2.0data status	okinstallation	princeton_trtdifferential loss correction	single-endedforward channel	channel 3reverse channel	N/Adate	2019/09/18time	03:24:34forward acquisition time	60.00reverse acquisition time	0.00gamma	496.2192k internal	0.2344k external	0.2344temperature offset calibration	0.9950default loss term (dB/km)	0.3790temperature slope calibration	1.0000multiplexer offset coefficient	1.0000multiplexer slope coefficient	1.0000fibre end	0.00T internal ref (°C)	22.75T ext. ref 1 (°C)	0.17T ext. ref 2 (°C)	17.17length (m)	temperature (°C)	Stokes	anti-Stokes-747.200	-97.456	-0.064	0.017
-746.185	-35.189	-0.252	-0.137
-745.171	-115.740	0.270	0.051
-744.156	800.000	-0.070	0.225
-743.142	-200.000	0.034	0.212
-742.127	176.595	-0.198	-0.288
-741.112	-13.251	0.510	-0.331
-740.098	-129.516	-0.119	0.016
-739.083	128.836	0.121	0.154
-738.069	58.239	-0.284	0.279
-737.054	232.560	0.204	0.336
-736.039	-7.237	-0.178	-0.121
-735.025	800.000	-0.054	0.187
-734.010	636.279	0.049	-0.125
-732.996	-200.000	-0.078	0.461
-731.981	-200.000	-0.017	0.248
-730.966	-200.000	-0.115	0.526
-729.952	800.000	-0.112	-0.394
-728.937	489.895	0.036	-0.083
-727.923	51.173	-0.098	-0.093
-726.908	-127.356	-0.352	-0.051
-725.894	-1.854	-0.340	-0.239
-724.879	800.000	-0.110	0.319
-723.864	-200.000	0.002	0.258
-722.850	29.657	0.248	0.211
-721.835	30.711	-0.159	-0.136
-720.821	188.993	-0.149	-0.223
-719.806	-100.560	-0.115	0.028
-718.791	378.115	0.155	-0.317
-717.777	800.000	0.118	-0.338
-716.762	-200.000	-0.020	-0.175
-715.748	87.962	-0.150	-0.167
-714.733	-56.864	-0.245	0.108
-713.718	-200.000	-0.015	-0.084
-712.704	800.000	0.064	-0.251
-711.689	295.300	-0.120	-0.219
-710.675	-200.000	-0.015	-0.101
-709.660	10.659	0.232	-0.177
-708.645	-200.000	-0.013	-0.300
-707.631	591.219	0.041	0.101
-706.616	658.173	0.073	0.187
-705.602	-124.749	0.081	0.012
-704.587	-18.273	-0.105	0.066
-703.572	-101.335	0.237	-0.058
-702.558	-200.000	0.032	-0.246
-701.543	-61.319	0.041	0.017
-700.529	249.079	0.083	0.140
-699.514	420.109	-0.022	0.048
-698.499	28.072	0.085	0.071
-697.485	-89.262	-0.060	0.018
-696.470	124.107	0.179	0.225
-695.456	77.596	0.115	0.123
-694.441	-200.000	0.002	-0.095
-693.426	-147.655	-0.084	-0.007
-692.412	306.104	0.038	0.071
-691.397	-200.000	0.092	-0.413
-690.383	-200.000	0.008	0.151
-689.368	165.836	0.111	0.158
-688.354	-52.179	0.279	-0.129
-687.339	750.484	-0.122	-0.329
-686.324	-165.427	0.407	0.018
-685.310	458.584	-0.075	0.167
-684.295	31.690	-0.167	0.143
-683.281	281.590	-0.078	-0.140
-682.266	-130.380	0.271	0.037
-681.251	-121.514	-0.201	0.033
-680.237	-168.983	-0.187	0.007
-679.222	59.832	-0.091	-0.089
-678.208	-200.000	-0.051	-0.337
-677.193	-64.167	-0.253	0.103
-676.178	49.436	0.249	0.234
-675.164	-9.925	0.051	-0.034
-674.149	-75.634	0.378	0.134
-673.135	129.344	-0.289	-0.368
-672.120	-61.400	0.149	0.062
-671.105	-3.268	-0.353	0.246
-670.091	-16.748	0.062	0.039
-669.076	-79.261	-0.158	-0.053
-668.062	416.742	0.126	-0.268
-667.047	198.398	0.088	0.134
-666.032	-12.644	-0.155	0.101
-665.018	49.523	0.109	0.102
-664.003	-145.738	-0.308	-0.027
-662.989	800.000	-0.034	-0.108
-661.974	245.030	-0.216	0.362
-660.959	-200.000	-0.048	0.354
-659.945	313.306	0.132	0.248
-658.930	-71.382	-0.117	-0.044
-657.916	230.180	0.197	0.321
-656.901	118.310	-0.332	-0.409
-655.886	363.505	-0.043	-0.087
-654.872	-12.020	-0.202	-0.132
-653.857	-73.131	0.263	0.096
-652.843	258.573	-0.150	0.257
-651.828	-200.000	0.003	-0.374
-650.814	206.695	0.150	0.233
-649.799	-200.000	0.011	0.080
-648.784	271.953	-0.223	-0.392
-647.770	-101.186	0.293	-0.071
-646.755	61.590	-0.283	-0.281
-645.741	64.406	0.038	-0.038
-644.726	-200.000	0.084	-0.646
-643.711	195.948	-0.109	-0.166
-642.697	565.298	-0.030	0.072
-641.682	260.717	-0.077	0.132
-640.668	47.959	-0.295	0.275
-639.653	-200.000	0.007	-0.255
-638.638	-189.387	0.104	0.001
-637.624	800.000	0.041	-0.173
-636.609	550.885	0.082	-0.197
-635.595	-200.000	-0.009	-0.251
-634.580	-139.892	0.178	-0.019
-633.565	406.590	-0.103	0.216
-632.551	-120.419	-0.250	0.042
-631.536	175.644	0.160	-0.231
-630.522	103.625	0.133	-0.155
-629.507	-200.000	0.011	0.102
-628.492	193.675	0.123	0.185
-627.478	175.771	0.118	0.170
-626.463	-121.862	-0.383	-0.063
-625.449	-98.954	-0.173	-0.044
-624.434	-200.000	-0.010	-0.171
-623.419	238.344	0.201	0.333
-622.405	-9.670	0.156	-0.103
-621.390	-195.095	0.432	0.003
-620.376	-152.000	0.147	-0.011
-619.361	174.743	0.178	-0.257
-618.346	86.366	0.149	-0.164
-617.332	411.209	0.102	-0.216
-616.317	-200.000	0.034	-0.181
-615.303	-121.272	-0.215	0.036
-614.288	-62.474	0.121	0.050
-613.273	-55.586	-0.069	0.031
-612.259	34.924	-0.209	-0.182
-611.244	176.745	0.187	-0.270
-610.230	-33.835	-0.163	-0.090
-609.215	-105.882	-0.469	-0.105
-608.201	132.458	-0.106	0.136
-607.186	16.871	0.235	-0.185
-606.171	-29.944	0.102	0.058
-605.157	-200.000	-0.050	-0.258
-604.142	263.682	-0.063	0.109
-603.128	-98.290	0.229	0.058
-602.113	-140.114	-0.151	-0.016
-601.098	50.499	-0.087	0.082
-600.084	198.467	0.171	-0.260
-599.069	22.244	0.380	0.309
-598.055	800.000	0.105	0.295
-597.040	-2.123	-0.133	0.093
-596.025	-111.381	-0.467	-0.095
-595.011	0.629	-0.212	0.151
-593.996	-200.000	0.018	0.125
-592.982	131.162	0.170	0.218
-591.967	44.642	-0.119	0.109
-590.952	-11.548	0.140	0.092
-589.938	273.868	-0.129	-0.227
-588.923	-55.779	0.104	0.046
-587.909	-25.128	-0.186	-0.110
-586.894	800.000	0.051	-0.170
-585.879	164.814	-0.110	0.155
-584.865	-5.751	-0.334	-0.228
-583.850	32.851	-0.238	-0.205
-582.836	220.256	0.139	-0.221
-581.821	247.158	0.123	-0.207
-580.806	-200.000	-0.010	-0.144
-579.792	98.350	-0.275	-0.316
-578.777	800.000	0.082	-0.322
-577.763	-147.910	-0.457	0.038
-576.748	-33.663	0.227	-0.124
-575.733	497.113	-0.100	0.229
-574.719	-200.000	0.000	0.287
-573.704	-200.000	0.009	-0.073
-572.690	-91.908	-0.218	-0.061
-571.675	95.896	0.052	0.059
-570.661	-13.458	0.126	0.081
-569.646	-74.074	-0.255	-0.092
-568.631	16.175	0.200	-0.156
-567.617	-57.994	-0.400	-0.173
-566.602	20.676	0.332	-0.267
-565.588	484.844	-0.075	-0.169
-564.573	234.711	0.111	-0.182
-563.558	13.425	0.114	0.088
-562.544	-12.614	0.069	0.044
-561.529	219.518	0.166	0.264
-560.515	800.000	-0.056	0.195
-559.500	-120.796	0.188	0.031
-558.485	-200.000	0.010	-0.129
-557.471	-200.000	0.030	0.237
-556.456	-200.000	0.091	0.400
-555.442	800.000	-0.040	0.149
-554.427	92.611	0.216	-0.242
-553.412	660.020	0.080	0.205
-552.398	-24.091	-0.082	0.049
-551.383	-131.515	-0.207	-0.027
-550.369	368.841	-0.114	-0.229
-549.354	-158.405	-0.218	-0.013
-548.339	95.686	-0.398	-0.451
-547.325	-71.894	0.100	-0.037
-546.310	79.644	-0.366	-0.390
-545.296	469.133	0.037	-0.083
-544.281	-49.930	-0.256	0.121
-543.266	-200.000	0.030	0.172
-542.252	-95.487	-0.281	0.075
-541.237	302.935	-0.110	0.203
-540.223	7.516	-0.205	0.152
-539.208	-56.128	0.076	0.034
-538.193	-93.082	-0.431	0.119
-537.179	-9.607	0.048	0.031
-536.164	-200.000	0.045	-0.232
-535.150	198.132	-0.223	-0.339
-534.135	-100.406	-0.219	-0.054
-533.121	-200.000	-0.012	0.256
-532.106	-15.686	0.226	-0.143
-531.091	-15.517	0.154	0.098
-530.077	211.039	0.175	0.273
-529.062	-80.472	-0.131	0.043
-528.048	-23.985	0.144	0.086
-527.033	-200.000	-0.024	0.210
-526.018	-89.082	0.335	0.098
-525.004	-200.000	-0.011	0.067
-523.989	227.498	-0.175	-0.282
-522.975	-16.457	-0.221	0.139
-521.960	-90.514	-0.171	0.049
-520.945	-114.166	0.103	0.020
-519.931	-81.885	-0.271	0.088
-518.916	100.221	-0.059	0.068
-517.902	-41.522	-0.298	-0.152
-516.887	-149.913	0.128	-0.010
-515.872	-4.261	0.161	-0.111
-514.858	-200.000	0.024	-0.142
-513.843	67.197	0.106	0.108
-512.829	329.248	0.232	-0.443
-511.814	525.884	0.109	-0.254
-510.799	726.970	-0.064	0.169
-509.785	-62.702	-0.340	0.140
-508.770	-142.441	-0.212	0.021
-507.756	-200.000	-0.055	-0.310
-506.741	-66.674	-0.311	-0.122
-505.726	21.992	0.081	0.066
-504.712	81.736	-0.240	0.257
-503.697	250.609	0.137	0.231
-502.683	34.435	0.020	0.018
-501.668	795.562	0.135	0.369
-500.653	-52.994	-0.313	0.143
-499.639	188.053	-0.147	-0.218
-498.624	-200.000	-0.005	-0.409
-497.610	-107.004	0.141	0.031
-496.595	1.474	-0.049	-0.035
-495.581	18.426	-0.087	-0.069
-494.566	66.004	-0.045	0.046
-493.551	-69.374	0.260	0.099
-492.537	800.000	0.072	-0.265
-491.522	-20.818	0.127	-0.077
-490.508	-200.000	-0.030	0.181
-489.493	-106.665	-0.299	-0.066
-488.478	-12.217	0.140	-0.091
-487.464	-20.649	-0.197	0.120
-486.449	800.000	-0.076	0.323
-485.435	359.458	-0.150	0.297
-484.420	-53.263	0.065	-0.030
-483.405	-105.313	0.228	-0.051
-482.391	114.084	-0.205	-0.247
-481.376	158.383	-0.026	0.036
-480.362	-12.188	0.094	-0.061
-479.347	303.471	0.066	0.122
-478.332	-58.113	0.360	-0.156
-477.318	284.757	-0.109	-0.195
-476.303	-133.412	0.045	-0.006
-475.289	-143.329	0.256	0.024
-474.274	-171.789	-0.083	0.003
-473.259	-24.552	-0.214	0.126
-472.245	-19.123	-0.102	-0.063
-471.230	-157.609	-0.206	0.012
-470.216	27.653	0.164	0.137
-469.201	-117.934	0.135	-0.024
-468.186	-29.728	0.185	-0.104
-467.172	-200.000	-0.080	-0.411
-466.157	-88.589	0.054	-0.016
-465.143	-116.045	-0.470	0.087
-464.128	-139.245	-0.224	0.024
-463.113	-200.000	0.029	-0.404
-462.099	-24.465	-0.369	0.218
-461.084	90.287	0.072	0.080
-460.070	-85.630	-0.081	-0.025
-459.055	233.976	0.119	-0.193
-458.040	131.059	0.109	0.138
-457.026	104.179	-0.101	0.117
-456.011	1.117	0.246	-0.175
-454.997	-198.759	0.325	0.002
-453.982	63.655	-0.224	0.222
-452.968	800.000	0.048	-0.153
-451.953	-200.000	0.023	-0.154
-450.938	-78.669	0.220	-0.074
-449.924	-70.731	0.301	0.112
-448.909	800.000	-0.118	-0.396
-447.895	87.598	0.302	0.331
-446.880	-87.450	-0.268	0.080
-445.865	105.015	0.104	0.122
-444.851	318.003	-0.114	-0.213
-443.836	24.018	0.045	0.037
-442.822	-200.000	-0.010	-0.088
-441.807	315.758	0.053	0.099
-440.792	-1.992	0.085	-0.059
-439.778	54.346	0.304	0.290
-438.763	127.449	-0.129	-0.162
-437.749	282.651	0.066	0.117
-436.734	559.357	0.136	-0.324
-435.719	11.667	-0.113	0.086
-434.705	157.426	-0.180	0.246
-433.690	-200.000	-0.062	0.373
-432.676	-200.000	0.008	-0.153
-431.661	-132.420	-0.268	-0.034
-430.646	308.263	-0.022	0.040
-429.632	-200.000	-0.003	0.042
-428.617	22.551	-0.080	0.065
-427.603	-200.000	-0.120	0.000
-426.588	136.075	0.035	0.045
-425.573	-152.163	0.192	-0.014
-424.559	800.000	-0.085	0.270
-423.544	-134.578	-0.119	-0.014
-422.530	132.396	-0.138	0.176
-421.515	24.165	-0.121	0.099
-420.500	577.538	-0.182	0.441
-419.486	398.028	0.032	-0.067
-418.471	-169.212	0.134	-0.005
-417.457	-200.000	-0.006	-0.353
-416.442	164.570	0.165	-0.230
-415.428	800.000	-0.077	-0.300
-414.413	165.876	0.065	-0.091
-413.398	-37.181	0.171	-0.090
-412.384	-0.947	0.153	0.107
-411.369	-143.794	0.303	0.028
-410.355	-200.000	-0.024	0.136
-409.340	693.591	0.053	0.139
-408.325	-62.477	0.218	-0.090
-407.311	-58.263	0.127	0.055
-406.296	10.644	-0.172	0.130
-405.282	331.019	-0.129	0.246
-404.267	58.120	0.105	0.101
-403.252	-84.565	-0.202	0.063
-402.238	-1.081	-0.238	-0.166
-401.223	-200.000	-0.057	0.322
-400.209	25.191	-0.043	0.035
-399.194	-21.678	-0.107	0.065
-398.179	-200.000	-0.002	-0.208
-397.165	800.000	0.088	-0.322
-396.150	-89.273	-0.162	0.047
-395.136	-200.000	0.016	0.232
-394.121	-60.772	0.208	-0.087
-393.106	800.000	-0.063	0.173
-392.092	-120.574	-0.320	0.054
-391.077	800.000	0.030	-0.091
-390.063	-119.958	0.042	-0.007
-389.048	616.410	0.076	0.188
-388.033	-88.118	0.209	-0.062
-387.019	66.712	0.109	-0.109
-386.004	25.872	0.222	-0.182
-384.990	28.755	-0.102	0.086
-383.975	-200.000	0.046	-0.213
-382.960	-14.450	-0.136	-0.086
-381.946	-102.260	-0.103	0.024
-380.931	4.937	0.272	-0.197
-379.917	-115.275	-0.158	-0.030
-378.902	-200.000	-0.007	0.037
-377.888	-200.000	0.009	0.088
-376.873	800.000	-0.095	0.381
-375.858	77.513	-0.032	0.034
-374.844	111.586	0.263	-0.313
-373.829	193.709	-0.101	-0.151
-372.815	-99.104	0.317	0.079
-371.800	72.575	-0.173	0.178
-370.785	253.447	0.230	0.388
-369.771	-58.945	-0.184	-0.079
-368.756	-99.610	0.349	0.086
-367.742	266.391	-0.089	-0.154
-366.727	21.159	0.219	0.175
-365.712	-50.228	-0.120	0.056
-364.698	-148.141	-0.302	0.025
-363.683	191.871	-0.120	0.178
-362.669	-161.810	-0.272	-0.014
-361.654	138.012	-0.112	-0.145
-360.639	138.910	0.022	0.028
-359.625	-77.488	0.318	0.109
-358.610	-61.287	-0.487	0.202
-357.596	-151.632	-0.077	-0.006
-356.581	-200.000	-0.006	-0.185
-355.566	595.079	0.177	0.432
-354.552	-200.000	-0.012	0.189
-353.537	162.576	-0.077	0.106
-352.523	179.858	-0.136	0.197
-351.508	-200.000	0.009	0.261
-350.493	-21.487	0.329	0.198
-349.479	-200.000	-0.020	-0.236
-348.464	172.000	0.181	-0.256
-347.450	48.705	-0.091	-0.084
-346.435	800.000	0.094	0.268
-345.420	172.621	0.237	-0.337
-344.406	-105.506	0.129	-0.029
-343.391	505.319	-0.074	-0.169
-342.377	-70.315	-0.281	-0.105
-341.362	800.000	-0.046	0.128
-340.348	-200.000	-0.072	-0.364
-339.333	-80.875	0.253	-0.083
-338.318	-40.226	0.149	0.077
-337.304	5.655	0.115	0.084
-336.289	-81.058	-0.177	-0.058
-335.275	-90.012	-0.128	0.037
-334.260	-136.191	0.232	0.027
-333.245	800.000	0.013	0.048
-332.231	3.252	0.166	-0.119
-331.216	574.237	0.103	-0.248
-330.202	608.369	0.068	0.166
-329.187	297.395	0.054	0.097
-328.172	6.086	-0.165	-0.120
-327.158	800.000	-0.102	0.299
-326.143	690.877	0.182	-0.469
-325.129	-84.230	-0.178	-0.055
-324.114	-38.646	0.441	0.229
-323.099	-123.401	-0.280	-0.044
-322.085	800.000	-0.070	-0.235
-321.070	800.000	0.142	0.408
-320.056	-131.566	0.282	-0.037
-319.041	278.827	-0.039	-0.069
-318.026	-200.000	0.017	-0.126
-317.012	-109.453	0.131	-0.027
-315.997	116.442	-0.035	-0.043
-314.983	31.299	-0.142	0.120
-313.968	406.041	0.165	-0.342
-312.953	-169.025	0.077	0.003
-311.939	-88.521	-0.078	0.023
-310.924	800.000	0.130	-0.385
-309.910	-25.684	0.343	-0.199
-308.895	95.248	0.142	0.159
-307.880	37.777	-0.342	-0.299
-306.866	-162.185	-0.186	-0.009
-305.851	-30.582	0.289	-0.161
-304.837	63.771	0.216	0.214
-303.822	-200.000	0.003	-0.054
-302.807	-170.477	0.268	0.009
-301.793	-81.522	0.290	-0.094
-300.778	4.972	0.339	-0.246
-299.764	201.570	-0.267	-0.405
-298.749	800.000	-0.100	-0.357
-297.735	-50.963	-0.189	0.087
-296.720	-200.000	-0.015	0.280
-295.705	-143.557	-0.361	0.034
-294.691	5.044	0.088	-0.064
-293.676	-113.582	0.075	0.014
-292.662	-200.000	0.044	-0.223
-291.647	15.490	-0.259	-0.200
-290.632	-142.280	-0.513	0.050
-289.618	687.428	-0.043	-0.111
-288.603	321.895	0.159	0.297
-287.589	60.444	-0.158	0.154
-286.574	156.333	-0.239	-0.324
-285.559	150.828	0.201	0.269
-284.545	-200.000	-0.023	0.101
-283.530	161.657	-0.285	0.393
-282.516	-63.788	0.313	0.126
-281.501	50.513	0.208	0.193
-280.486	-200.000	0.010	-0.209
-279.472	-110.569	-0.121	0.025
-278.457	-179.623	-0.167	0.004
-277.443	487.088	-0.097	-0.217
-276.428	-34.306	0.225	0.121
-275.413	800.000	-0.030	-0.081
-274.399	67.064	0.113	-0.113
-273.384	-200.000	0.001	-0.087
-272.370	-200.000	-0.012	0.172
-271.355	-142.569	0.175	-0.017
-270.340	26.789	0.314	0.258
-269.326	-53.561	0.107	-0.048
-268.311	-101.068	0.169	-0.041
-267.297	17.232	-0.027	-0.021
-266.282	-200.000	0.030	-0.207
-265.267	-155.870	-0.076	0.005
-264.253	-200.000	-0.003	0.186
-263.238	-26.700	0.211	0.121
-262.224	-108.781	0.094	0.020
-261.209	-200.000	0.031	-0.278
-260.195	-105.930	-0.523	0.116
-259.180	-81.433	0.195	-0.063
-258.165	800.000	-0.104	0.287
-257.151	-163.498	-0.130	-0.006
-256.136	492.990	0.148	-0.334
-255.122	39.474	0.071	0.062
-254.107	27.811	0.177	0.146
-253.092	139.422	-0.249	0.322
-252.078	-200.000	-0.027	0.313
-251.063	33.166	0.070	-0.059
-250.049	19.781	-0.261	0.206
-249.034	-64.890	0.194	-0.077
-248.019	197.758	-0.230	0.345
-247.005	666.518	-0.044	0.112
-245.990	-19.687	-0.202	0.123
-244.976	89.439	-0.265	-0.290
-243.961	-100.435	0.221	-0.054
-242.946	-27.243	-0.095	0.054
-241.932	-161.647	0.245	-0.012
-240.917	-12.987	0.217	0.139
-239.903	225.459	-0.143	0.228
-238.888	303.100	-0.133	0.242
-237.873	-57.864	0.383	0.164
-236.859	192.648	0.197	-0.292
-235.844	-200.000	-0.068	0.350
-234.830	-200.000	-0.010	0.098
-233.815	-30.715	0.192	-0.107
-232.800	-200.000	-0.060	-0.266
-231.786	320.687	0.060	-0.111
-230.771	800.000	0.018	0.055
-229.757	49.095	0.187	0.172
-228.742	-69.189	0.102	0.039
-227.727	301.063	0.051	0.092
-226.713	788.330	-0.059	-0.158
-225.698	-91.304	0.063	0.018
-224.684	26.700	0.288	-0.237
-223.669	109.380	-0.195	0.229
-222.655	165.304	0.197	0.273
-221.640	-47.124	0.192	-0.092
-220.625	-200.000	-0.039	0.170
-219.611	-48.754	-0.148	-0.070
-218.596	42.985	0.174	-0.155
-217.582	-40.340	0.168	0.085
-216.567	50.160	0.177	0.164
-215.552	-129.677	-0.030	-0.004
-214.538	42.915	-0.181	-0.162
-213.523	-19.640	0.174	-0.105
-212.509	125.512	-0.125	0.154
-211.494	169.906	0.026	-0.036
-210.479	-200.000	0.036	0.339
-209.465	-19.755	-0.248	-0.150
-208.450	-111.558	0.367	-0.073
-207.436	-200.000	-0.029	0.268
-206.421	125.576	0.079	0.097
-205.406	229.303	-0.226	-0.362
-204.392	-20.060	-0.252	-0.152
-203.377	12.651	0.241	0.182
-202.363	-116.311	-0.287	-0.052
-201.348	800.000	-0.131	0.443
-200.333	-16.565	0.280	-0.174
-199.319	104.301	0.034	-0.039
-198.304	-200.000	0.042	0.298
-197.290	38.350	-0.288	0.252
-196.275	-200.000	-0.004	0.105
-195.260	-83.254	0.207	-0.065
-194.246	28.765	0.219	0.182
-193.231	2.532	-0.162	-0.115
-192.217	800.000	0.036	-0.117
-191.202	124.624	0.181	0.223
-190.187	-200.000	-0.007	0.053
-189.173	-38.322	-0.244	-0.126
-188.158	-65.816	0.126	-0.049
-187.144	662.248	-0.055	-0.140
-186.129	-158.758	0.338	-0.019
-185.114	189.325	0.064	0.095
-184.100	-200.000	0.009	0.109
-183.085	800.000	-0.047	-0.164
-182.071	113.136	0.134	0.159
-181.056	-107.058	0.241	0.052
-180.042	459.209	0.066	-0.144
-179.027	67.969	-0.148	-0.148
-178.012	-6.684	-0.240	0.160
-176.998	-81.290	-0.278	0.090
-175.983	-57.271	0.008	0.003
-174.969	800.000	-0.068	0.241
-173.954	36.886	-0.358	-0.310
-172.939	-64.144	0.009	0.004
-171.925	71.282	0.245	0.249
-170.910	-200.000	-0.064	0.374
-169.896	-2.412	-0.129	-0.088
-168.881	-200.000	-0.019	0.198
-167.866	113.680	-0.083	-0.099
-166.852	81.931	0.042	-0.045
-165.837	-179.490	0.292	0.006
-164.823	-200.000	-0.007	0.233
-163.808	-200.000	-0.022	-0.121
-162.793	51.068	0.148	-0.137
-161.779	204.417	0.065	0.099
-160.764	657.076	0.042	0.105
-159.750	378.327	0.106	0.211
-158.735	-127.173	-0.024	-0.003
-157.720	-10.545	-0.377	0.244
-156.706	800.000	-0.064	-0.253
-155.691	-74.011	0.238	0.084
-154.677	368.602	0.160	0.316
-153.662	-194.372	0.166	-0.001
-152.647	500.662	-0.055	-0.124
-151.633	-200.000	0.013	-0.231
-150.618	-200.000	0.020	0.273
-149.604	800.000	-0.055	-0.180
-148.589	-72.946	0.078	-0.028
-147.574	298.318	0.099	-0.177
-146.560	-33.048	0.118	0.064
-145.545	157.392	-0.158	-0.213
-144.531	-200.000	0.017	-0.119
-143.516	480.425	-0.011	-0.025
-142.502	-200.000	0.011	0.098
-141.487	604.709	-0.084	-0.205
-140.472	-200.000	-0.017	-0.174
-139.458	-200.000	-0.057	0.248
-138.443	-4.036	0.208	-0.141
-137.429	-156.673	0.268	0.016
-136.414	58.497	-0.245	0.235
-135.399	-41.958	-0.093	0.047
-134.385	-200.000	0.033	-0.191
-133.370	-153.520	0.256	-0.017
-132.356	-19.735	0.085	-0.051
-131.341	-94.831	0.029	-0.008
-130.326	354.874	-0.132	-0.257
-129.312	-200.000	0.013	0.344
-128.297	339.869	-0.152	0.289
-127.283	193.015	0.087	0.128
-126.268	368.028	-0.014	0.028
-125.253	0.148	-0.123	0.086
-124.239	-200.000	-0.013	-0.063
-123.224	229.730	0.118	-0.188
-122.210	-147.866	-0.027	-0.002
-121.195	-13.472	0.078	0.049
-120.180	800.000	-0.086	0.253
