DTS Sentinel unit serial number:	SN413079Multiplexer serial number:	ORYXHardware model number:	OX4-SRSoftware version number:	ORYX F/W v4.00 Oryx Data Collector v3.7.2.0data status	okinstallation	princeton_trtdifferential loss correction	single-endedforward channel	channel 3reverse channel	N/Adate	2019/09/16time	17:52:34forward acquisition time	60.00reverse acquisition time	0.00gamma	496.2192k internal	0.2299k external	0.2299temperature offset calibration	0.9945default loss term (dB/km)	0.3790temperature slope calibration	1.0000multiplexer offset coefficient	1.0000multiplexer slope coefficient	1.0000fibre end	0.00T internal ref (°C)	37.87T ext. ref 1 (°C)	15.60T ext. ref 2 (°C)	31.67length (m)	temperature (°C)	Stokes	anti-Stokes-747.200	-5.158	0.227	-0.160
-746.185	115.508	-0.128	0.160
-745.171	-200.000	-0.015	0.189
-744.156	19.607	-0.408	0.335
-743.142	43.258	0.249	0.232
-742.127	-200.000	0.022	0.178
-741.112	-51.635	-0.263	-0.125
-740.098	11.934	-0.329	0.258
-739.083	111.406	0.089	-0.110
-738.069	31.479	0.141	0.124
-737.054	-152.221	-0.085	0.006
-736.039	21.924	-0.198	-0.165
-735.025	270.371	0.117	0.211
-734.010	273.742	-0.145	-0.262
-732.996	800.000	0.069	-0.230
-731.981	15.427	0.198	0.159
-730.966	-117.434	-0.308	-0.057
-729.952	25.210	-0.349	-0.295
-728.937	782.636	-0.047	0.131
-727.923	-132.274	0.276	-0.036
-726.908	-200.000	-0.047	-0.365
-725.894	-200.000	0.036	-0.218
-724.879	-51.167	0.421	-0.201
-723.864	-200.000	0.052	-0.369
-722.850	-39.021	0.272	-0.146
-721.835	241.235	0.115	-0.196
-720.821	-96.743	-0.283	-0.076
-719.806	-20.880	-0.233	-0.146
-718.791	38.109	-0.153	0.139
-717.777	94.073	-0.168	0.194
-716.762	10.518	0.134	0.104
-715.748	-200.000	0.057	0.273
-714.733	587.503	-0.085	-0.213
-713.718	6.662	0.052	0.039
-712.704	800.000	-0.135	-0.381
-711.689	-200.000	-0.003	-0.089
-710.675	-200.000	-0.016	-0.195
-709.660	-123.509	-0.198	-0.032
-708.645	541.084	-0.079	-0.192
-707.631	-200.000	0.057	-0.380
-706.616	490.310	0.063	-0.146
-705.602	800.000	0.044	-0.161
-704.587	-6.780	0.090	0.062
-703.572	-200.000	0.003	-0.252
-702.558	107.511	-0.187	-0.227
-701.543	-7.230	-0.207	-0.143
-700.529	-102.309	-0.561	-0.137
-699.514	-200.000	0.018	-0.131
-698.499	101.382	-0.075	0.089
-697.485	-32.171	0.200	-0.114
-696.470	247.817	0.174	0.300
-695.456	-31.167	-0.307	-0.176
-694.441	-200.000	0.051	-0.269
-693.426	-99.037	0.145	0.038
-692.412	157.293	-0.236	-0.332
-691.397	-1.332	0.130	-0.093
-690.383	-21.342	-0.263	-0.164
-689.368	459.853	-0.075	-0.169
-688.354	86.652	0.073	0.082
-687.339	766.338	0.102	-0.283
-686.324	-200.000	0.061	-0.285
-685.310	-200.000	-0.011	-0.269
-684.295	270.370	0.045	-0.080
-683.281	-2.130	0.067	0.048
-682.266	246.591	0.193	-0.332
-681.251	133.665	-0.279	-0.367
-680.237	-88.123	-0.140	-0.043
-679.222	-200.000	-0.006	0.155
-678.208	339.823	-0.092	0.183
-677.193	-78.846	0.079	-0.027
-676.178	34.377	-0.141	0.125
-675.164	3.802	-0.159	-0.118
-674.149	268.842	0.111	-0.199
-673.135	-200.000	0.037	-0.388
-672.120	-38.382	-0.195	-0.105
-671.105	-78.757	0.217	0.075
-670.091	-28.880	-0.235	0.137
-669.076	-138.760	0.155	-0.017
-668.062	-200.000	0.060	-0.448
-667.047	230.608	0.082	-0.137
-666.032	89.457	0.203	-0.231
-665.018	-57.028	-0.314	0.141
-664.003	-15.101	0.212	0.138
-662.989	-200.000	0.015	-0.226
-661.974	13.116	0.048	0.038
-660.959	49.673	-0.187	-0.179
-659.945	28.115	-0.128	0.110
-658.930	-84.336	-0.153	-0.049
-657.916	84.416	-0.176	-0.196
-656.901	-200.000	0.100	0.000
-655.886	-139.700	0.131	-0.014
-654.872	686.692	-0.034	-0.091
-653.857	198.935	0.095	-0.148
-652.843	328.549	-0.137	-0.268
-651.828	-27.496	0.216	0.127
-650.814	207.294	-0.077	0.122
-649.799	-115.321	-0.226	-0.043
-648.784	-119.960	-0.160	-0.028
-647.770	84.429	-0.176	0.196
-646.755	-101.792	0.270	-0.066
-645.741	130.939	0.099	-0.130
-644.726	-77.920	0.202	0.071
-643.711	299.223	-0.112	-0.209
-642.697	800.000	0.050	-0.160
-641.682	-171.508	-0.286	0.010
-640.668	262.510	-0.050	0.089
-639.653	-0.523	-0.149	-0.108
-638.638	800.000	-0.027	0.110
-637.624	55.910	0.191	0.188
-636.609	28.837	0.170	-0.146
-635.595	-200.000	-0.008	-0.174
-634.580	800.000	0.031	0.097
-633.565	-66.516	0.082	0.033
-632.551	-43.867	0.553	-0.283
-631.536	46.478	0.161	0.152
-630.522	-200.000	-0.018	-0.109
-629.507	20.112	-0.155	-0.127
-628.492	471.534	0.095	0.216
-627.478	-97.880	-0.033	0.009
-626.463	43.718	0.100	0.093
-625.449	-103.278	0.398	-0.095
-624.434	-131.163	-0.182	-0.025
-623.419	23.929	0.182	0.152
-622.405	16.045	-0.076	0.061
-621.390	-200.000	0.006	0.109
-620.376	189.236	-0.041	0.063
-619.361	34.723	0.219	0.194
-618.346	-183.419	0.244	-0.004
-617.332	-200.000	-0.003	-0.207
-616.317	-113.249	-0.219	-0.044
-615.303	-15.333	0.257	0.167
-614.288	139.768	-0.086	0.115
-613.273	622.550	0.109	-0.278
-612.259	-100.441	0.149	-0.037
-611.244	76.434	0.187	-0.201
-610.230	-200.000	0.041	-0.292
-609.215	-200.000	-0.024	-0.133
-608.201	15.866	-0.224	-0.179
-607.186	-32.122	-0.402	0.228
-606.171	-129.626	-0.248	-0.035
-605.157	-40.288	0.231	-0.122
-604.142	80.648	-0.135	-0.148
-603.128	-131.014	0.070	-0.009
-602.113	263.664	-0.063	-0.110
-601.098	-200.000	0.010	-0.256
-600.084	-18.412	-0.274	0.174
-599.069	-160.067	0.151	0.008
-598.055	-200.000	0.010	0.145
-597.040	-93.751	0.080	0.022
-596.025	800.000	-0.019	0.056
-595.011	-45.362	-0.171	-0.086
-593.996	184.603	-0.064	0.096
-592.982	-81.175	-0.415	-0.139
-591.967	-200.000	-0.032	-0.274
-590.952	125.501	-0.104	0.133
-589.938	-72.165	0.261	0.098
-588.923	-94.762	-0.124	-0.034
-587.909	319.422	0.053	-0.103
-586.894	235.820	0.058	-0.097
-585.879	-124.575	-0.183	-0.029
-584.865	-148.883	0.239	-0.020
-583.850	54.181	-0.205	0.201
-582.836	-200.000	-0.009	0.052
-581.821	115.566	-0.146	0.181
-580.806	-136.143	0.487	0.058
-579.792	-21.114	0.250	0.155
-578.777	403.901	0.193	-0.413
-577.763	32.311	-0.177	0.155
-576.748	-54.796	-0.311	-0.142
-575.733	-71.304	0.014	-0.005
-574.719	11.005	-0.202	0.157
-573.704	679.166	-0.032	-0.084
-572.690	-166.172	-0.049	0.002
-571.675	50.493	-0.335	-0.321
-570.661	-55.398	-0.174	0.079
-569.646	-200.000	-0.059	0.403
-568.631	307.636	0.240	-0.453
-567.617	800.000	-0.066	-0.259
-566.602	383.873	0.078	-0.163
-565.588	-90.750	-0.210	-0.061
-564.573	42.344	-0.136	0.125
-563.558	-200.000	-0.174	0.000
-562.544	-24.921	-0.208	0.125
-561.529	33.159	-0.080	0.070
-560.515	800.000	0.067	0.272
-559.500	-43.136	-0.259	0.133
-558.485	-154.901	0.501	-0.033
-557.471	70.140	0.206	-0.215
-556.456	-200.000	-0.007	0.035
-555.442	151.204	0.056	0.077
-554.427	-200.000	-0.002	-0.179
-553.412	-57.730	0.152	0.067
-552.398	124.532	-0.234	-0.299
-551.383	229.444	-0.191	-0.315
-550.369	-87.278	-0.203	-0.062
-549.354	-184.840	0.138	-0.002
-548.339	-63.688	-0.291	0.121
-547.325	105.796	0.116	-0.139
-546.310	9.173	0.123	0.094
-545.296	-200.000	0.005	-0.155
-544.281	-159.676	0.146	0.008
-543.266	-47.178	-0.065	0.032
-542.252	-80.816	-0.078	-0.026
-541.237	-200.000	0.007	-0.307
-540.223	459.697	-0.021	-0.047
-539.208	511.572	0.066	0.155
-538.193	1.374	0.225	0.163
-537.179	-48.075	0.192	0.094
-536.164	-200.000	-0.008	-0.147
-535.150	-112.605	0.089	0.018
-534.135	28.968	0.171	0.147
-533.121	154.710	-0.179	0.248
-532.106	-25.960	-0.098	0.058
-531.091	127.379	-0.063	-0.081
-530.077	-80.959	-0.334	-0.112
-529.062	800.000	-0.085	0.251
-528.048	225.487	-0.122	-0.200
-527.033	376.891	0.088	0.182
-526.018	-102.749	-0.041	0.010
-525.004	-45.565	-0.182	-0.091
-523.989	-155.281	0.444	-0.029
-522.975	88.054	-0.237	-0.266
-521.960	49.415	-0.136	-0.130
-520.945	-79.183	0.169	0.058
-519.931	13.492	-0.042	-0.033
-518.916	-200.000	0.020	-0.239
-517.902	800.000	0.044	0.149
-516.887	-147.671	0.309	0.026
-515.872	28.731	0.121	0.104
-514.858	-80.093	-0.446	0.151
-513.843	147.089	0.158	0.215
-512.829	-95.528	0.315	-0.085
-511.814	-142.138	-0.282	0.028
-510.799	-63.644	0.059	0.025
-509.785	800.000	0.100	-0.329
-508.770	-200.000	-0.036	0.193
-507.756	-200.000	0.002	0.106
-506.741	65.314	-0.219	-0.224
-505.726	-32.090	-0.165	-0.093
-504.712	-21.386	-0.046	-0.029
-503.697	-200.000	-0.021	-0.143
-502.683	-200.000	-0.011	-0.205
-501.668	291.853	-0.268	-0.493
-500.653	62.858	-0.056	-0.056
-499.639	161.784	-0.206	0.292
-498.624	103.026	-0.180	0.213
-497.610	-145.711	-0.064	-0.006
-496.595	126.451	0.171	-0.219
-495.581	41.796	0.021	-0.019
-494.566	-137.086	-0.323	0.037
-493.551	61.411	-0.122	0.123
-492.537	130.532	-0.142	-0.184
-491.522	137.580	-0.076	-0.100
-490.508	-143.069	0.123	0.012
-489.493	-26.661	-0.106	0.063
-488.478	119.758	0.208	0.260
-487.464	65.532	0.282	-0.289
-486.449	-120.216	-0.376	0.065
-485.435	-106.456	0.047	0.011
-484.420	-55.903	0.224	-0.101
-483.405	-140.087	0.393	-0.042
-482.391	800.000	-0.085	0.371
-481.376	4.883	0.167	0.124
-480.362	489.011	-0.142	-0.329
-479.347	-75.185	-0.178	0.064
-478.332	569.338	-0.099	0.242
-477.318	2.072	-0.167	0.121
-476.303	-69.625	0.366	0.141
-475.289	-14.076	0.185	0.120
-474.274	277.893	-0.087	-0.156
-473.259	-10.107	-0.070	0.047
-472.245	-59.380	0.132	-0.057
-471.230	-15.465	-0.143	0.092
-470.216	72.966	-0.174	-0.184
-469.201	418.162	0.110	0.237
-468.186	-200.000	-0.005	0.287
-467.172	-200.000	-0.002	0.197
-466.157	-62.945	-0.249	-0.104
-465.143	-149.654	0.104	-0.008
-464.128	7.863	0.117	0.089
-463.113	79.888	0.143	-0.155
-462.099	46.743	-0.331	-0.310
-461.084	-119.509	-0.194	-0.034
-460.070	-103.018	-0.120	-0.029
-459.055	-200.000	-0.020	0.127
-458.040	37.320	0.248	-0.222
-457.026	8.946	-0.313	-0.238
-456.011	800.000	0.053	0.158
-454.997	800.000	0.044	0.156
-453.982	205.726	0.092	-0.145
-452.968	44.612	0.346	0.321
-451.953	217.728	-0.095	-0.153
-450.938	207.863	0.116	0.183
-449.924	-183.448	0.322	0.006
-448.909	9.827	-0.174	-0.133
-447.895	40.967	-0.061	-0.055
-446.880	-13.494	-0.272	0.178
-445.865	-67.865	0.437	-0.172
-444.851	-179.325	0.034	0.001
-443.836	-102.320	-0.151	0.036
-442.822	800.000	-0.018	-0.069
-441.807	-88.570	0.245	-0.074
-440.792	-73.440	0.292	-0.107
-439.778	85.977	-0.297	0.329
-438.763	-114.434	0.136	0.026
-437.749	572.833	0.074	-0.181
-436.734	800.000	0.072	0.219
-435.719	56.398	-0.080	-0.078
-434.705	800.000	0.074	-0.207
-433.690	3.194	-0.182	0.134
-432.676	-116.633	-0.150	0.028
-431.661	-150.544	0.244	0.019
-430.646	74.985	0.226	-0.240
-429.632	-141.215	-0.325	0.033
-428.617	35.830	0.306	-0.271
-427.603	186.891	-0.084	0.126
-426.588	342.332	-0.029	0.057
-425.573	-77.244	-0.257	0.090
-424.559	-71.601	0.248	0.093
-423.544	-88.326	0.244	-0.074
-422.530	-65.613	0.193	-0.078
-421.515	152.894	-0.291	0.401
-420.500	-200.000	0.018	0.420
-419.486	800.000	0.101	0.394
-418.471	-153.800	0.090	-0.006
-417.457	-8.826	-0.026	0.018
-416.442	-52.233	0.044	0.020
-415.428	737.144	-0.081	0.220
-414.413	800.000	-0.049	0.141
-413.398	-136.496	-0.253	0.030
-412.384	20.690	-0.167	-0.136
-411.369	794.360	-0.033	0.092
-410.355	800.000	-0.088	0.316
-409.340	-200.000	0.013	0.298
-408.325	-24.243	0.185	0.111
-407.311	279.404	-0.112	-0.202
-406.296	10.687	0.037	0.029
-405.282	800.000	-0.087	0.311
-404.267	418.819	0.023	-0.049
-403.252	40.561	-0.169	0.153
-402.238	20.960	0.098	-0.080
-401.223	-32.857	-0.327	0.183
-400.209	47.966	0.110	-0.103
-399.194	-200.000	-0.009	0.084
-398.179	653.044	-0.116	0.301
-397.165	-144.827	0.265	0.024
-396.150	-138.104	-0.541	-0.060
-395.136	268.962	0.080	-0.140
-394.121	-123.417	-0.350	0.056
-393.106	104.881	0.089	0.105
-392.092	-200.000	0.028	-0.161
-391.077	-48.722	0.099	-0.048
-390.063	-166.749	-0.068	0.003
-389.048	-86.321	-0.098	-0.030
-388.033	-136.887	0.201	-0.023
-387.019	299.286	-0.038	-0.070
-386.004	-153.603	-0.314	0.022
-384.990	-200.000	0.047	-0.224
-383.975	-200.000	-0.003	-0.237
-382.960	-151.582	0.104	0.008
-381.946	-186.086	-0.242	0.004
-380.931	2.406	0.087	0.064
-379.917	-129.171	-0.310	0.043
-378.902	800.000	-0.096	0.404
-377.888	-63.421	-0.089	-0.037
-376.873	55.542	0.292	-0.284
-375.858	-176.578	0.373	0.010
-374.844	-6.732	-0.153	-0.105
-373.829	151.766	0.136	-0.187
-372.815	187.090	0.080	-0.119
-371.800	-200.000	0.014	0.160
-370.785	111.633	-0.055	0.067
-369.771	800.000	0.092	0.325
-368.756	-26.044	0.138	-0.082
-367.742	579.207	0.085	0.209
-366.727	238.474	-0.077	0.128
-365.712	560.503	0.040	-0.096
-364.698	-39.584	-0.060	0.032
-363.683	-79.365	-0.092	0.031
-362.669	-62.076	-0.408	0.171
-361.654	45.742	0.207	-0.192
-360.639	-136.252	0.327	0.038
-359.625	-200.000	0.023	0.181
-358.610	-120.334	-0.190	-0.032
-357.596	71.747	0.190	0.199
-356.581	-110.409	0.107	-0.022
-355.566	-51.483	-0.406	0.190
-354.552	-147.707	0.095	-0.008
-353.537	-88.689	0.366	-0.109
-352.523	-164.624	0.326	-0.015
-351.508	-101.063	-0.266	-0.066
-350.493	800.000	-0.070	0.206
-349.479	-200.000	0.018	-0.231
-348.464	182.707	0.150	-0.223
-347.450	500.401	0.090	-0.208
-346.435	-200.000	0.014	-0.183
-345.420	-200.000	-0.016	0.152
-344.406	54.676	-0.099	-0.095
-343.391	-163.659	-0.401	0.019
-342.377	-97.216	0.148	-0.039
-341.362	-54.455	0.126	0.058
-340.348	179.878	0.076	0.111
-339.333	-42.439	0.171	-0.087
-338.318	254.324	0.166	0.286
-337.304	-200.000	-0.010	0.180
-336.289	-66.471	0.317	-0.126
-335.275	800.000	-0.122	0.533
-334.260	548.913	0.102	-0.246
-333.245	152.188	-0.212	-0.290
-332.231	40.339	0.219	0.198
-331.216	126.842	0.144	0.183
-330.202	277.635	0.094	-0.169
-329.187	-200.000	-0.021	-0.333
-328.172	16.365	-0.118	-0.093
-327.158	160.178	-0.034	0.048
-326.143	12.109	-0.147	-0.114
-325.129	-36.316	-0.194	0.105
-324.114	800.000	0.146	0.443
-323.099	156.028	-0.091	-0.126
-322.085	-70.624	0.139	0.053
-321.070	-200.000	0.003	0.330
-320.056	-186.358	0.175	0.003
-319.041	-123.541	0.396	0.063
-318.026	-200.000	-0.029	0.306
-317.012	-137.547	0.120	-0.014
-315.997	91.067	-0.239	-0.269
-314.983	135.527	0.155	-0.202
-313.968	128.593	0.159	-0.203
-312.953	229.919	0.028	0.045
-311.939	245.804	-0.123	-0.209
-310.924	-200.000	0.004	-0.088
-309.910	-68.634	-0.165	0.064
-308.895	70.077	-0.199	-0.206
-307.880	225.940	0.133	-0.216
-306.866	15.811	-0.142	-0.112
-305.851	721.816	0.075	-0.201
-304.837	800.000	-0.045	-0.124
-303.822	-85.612	-0.109	-0.034
-302.807	-107.661	0.277	-0.061
-301.793	-200.000	0.007	-0.185
-300.778	-43.894	-0.091	-0.046
-299.764	-154.105	-0.044	-0.003
-298.749	73.798	0.160	-0.168
-297.735	423.191	-0.223	-0.481
-296.720	-52.955	0.252	-0.116
-295.705	-159.063	0.128	-0.007
-294.691	-200.000	0.017	-0.243
-293.676	67.289	0.122	-0.125
-292.662	-92.044	-0.229	-0.065
-291.647	-200.000	0.015	0.095
-290.632	-117.194	-0.166	-0.030
-289.618	-7.066	0.275	-0.187
-288.603	62.417	0.056	0.056
-287.589	53.390	-0.094	-0.090
-286.574	-116.024	0.143	-0.027
-285.559	109.620	0.290	-0.348
-284.545	-182.140	0.143	0.003
-283.530	380.629	0.100	0.205
-282.516	800.000	0.046	-0.159
-281.501	77.699	0.101	0.108
-280.486	125.588	0.341	0.431
-279.472	110.681	-0.217	0.262
-278.457	-200.000	0.022	0.235
-277.443	-14.606	0.198	0.128
-276.428	142.057	0.119	-0.158
-275.413	800.000	0.014	-0.056
-274.399	-81.144	-0.104	-0.035
-273.384	-99.132	-0.247	0.063
-272.370	155.080	-0.060	0.083
-271.355	-200.000	-0.039	0.299
-270.340	-168.236	0.252	-0.010
-269.326	-200.000	-0.017	-0.283
-268.311	800.000	0.125	0.413
-267.297	5.730	-0.098	0.073
-266.282	4.437	-0.227	0.167
-265.267	-200.000	-0.018	0.167
-264.253	-92.831	0.336	-0.094
-263.238	385.435	-0.053	0.110
-262.224	247.433	-0.038	0.064
-261.209	-60.040	0.444	-0.190
-260.195	-111.622	0.263	0.054
-259.180	-9.471	-0.152	-0.102
-258.165	-153.792	-0.631	-0.043
-257.151	-200.000	-0.008	-0.063
-256.136	-49.110	-0.384	-0.184
-255.122	-200.000	0.050	-0.351
-254.107	800.000	-0.046	-0.187
-253.092	-24.103	-0.095	-0.057
-252.078	299.010	-0.099	-0.181
-251.063	-191.338	-0.437	-0.004
-250.049	-200.000	0.034	-0.294
-249.034	-95.967	0.287	0.077
-248.019	-55.179	0.366	0.165
-247.005	-200.000	0.020	-0.241
-245.990	74.846	-0.168	0.177
-244.976	800.000	0.101	0.415
-243.961	93.044	0.034	-0.039
-242.946	1.234	-0.146	0.105
-241.932	189.920	-0.105	-0.158
-240.917	78.674	-0.175	0.187
-239.903	800.000	-0.019	-0.060
-238.888	564.516	-0.087	-0.210
-237.873	245.383	-0.210	-0.354
-236.859	-200.000	-0.049	0.296
-235.844	-95.659	-0.082	-0.022
-234.830	167.002	0.221	0.314
-233.815	563.866	-0.063	0.154
-232.800	74.910	-0.095	0.101
-231.786	229.812	-0.078	-0.128
-230.771	76.690	-0.125	0.133
-229.757	359.858	-0.091	0.183
-228.742	-200.000	-0.024	0.191
-227.727	-23.325	-0.066	-0.040
-226.713	-52.523	0.173	-0.080
-225.698	-100.367	0.077	0.019
-224.684	800.000	-0.042	-0.152
-223.669	-200.000	-0.031	0.147
-222.655	52.860	-0.094	0.089
-221.640	-106.413	0.136	0.030
-220.625	-81.517	0.276	-0.091
-219.611	-114.117	-0.241	-0.047
-218.596	-200.000	0.022	0.135
-217.582	31.320	0.324	-0.278
-216.567	-81.005	-0.185	0.061
-215.552	-101.866	-0.253	0.061
-214.538	252.366	-0.142	-0.241
-213.523	-40.765	0.368	0.190
-212.509	461.392	0.169	0.375
-211.494	287.675	-0.114	-0.206
-210.479	-122.099	0.352	0.058
-209.465	29.989	0.027	0.023
-208.450	-200.000	0.015	-0.084
-207.436	-102.345	-0.293	-0.070
-206.421	-200.000	0.001	0.169
-205.406	800.000	0.084	-0.356
-204.392	-200.000	0.023	0.233
-203.377	294.631	0.119	0.218
-202.363	-171.464	0.228	0.008
-201.348	-33.507	-0.258	-0.142
-200.333	-122.771	0.366	0.059
-199.319	-9.021	-0.148	-0.099
-198.304	70.264	0.129	-0.133
-197.290	-68.660	-0.179	0.069
-196.275	-52.901	-0.256	-0.118
-195.260	12.156	-0.206	0.158
-194.246	125.753	0.052	0.065
-193.231	-200.000	-0.010	-0.209
-192.217	-95.221	0.147	-0.040
-191.202	-18.405	0.119	0.074
-190.187	128.942	-0.067	0.085
-189.173	160.899	0.220	0.306
-188.158	711.637	0.081	-0.213
-187.144	-185.600	-0.127	-0.002
-186.129	254.922	0.220	-0.375
-185.114	-17.365	-0.028	0.017
-184.100	100.179	-0.100	0.116
-183.085	-200.000	0.013	-0.325
-182.071	800.000	-0.110	-0.378
-181.056	142.209	0.052	0.069
-180.042	-158.398	0.018	0.001
-179.027	-200.000	0.010	0.168
-178.012	800.000	-0.052	0.189
-176.998	-200.000	0.033	0.312
-175.983	-194.278	-0.567	-0.005
-174.969	95.157	-0.263	0.298
-173.954	7.724	-0.107	0.080
-172.939	-138.179	-0.230	-0.025
-171.925	-176.197	0.204	0.005
-170.910	-200.000	0.034	0.223
-169.896	-123.486	0.070	-0.011
-168.881	761.885	0.013	0.036
-167.866	-47.025	-0.164	0.080
-166.852	55.281	-0.221	-0.213
-165.837	-140.465	0.083	-0.009
-164.823	-56.519	0.352	0.156
-163.808	800.000	0.056	-0.201
-162.793	-101.967	0.270	0.065
-161.779	-200.000	0.035	-0.388
-160.764	-59.462	-0.084	0.036
-159.750	-134.144	0.177	-0.022
-158.735	-149.304	0.270	-0.021
-157.720	-109.506	-0.414	0.087
-156.706	13.853	0.202	-0.157
-155.691	-127.622	0.288	0.042
-154.677	240.418	-0.286	0.476
-153.662	-55.222	0.254	0.114
-152.647	-200.000	-0.042	0.192
-151.633	386.126	-0.040	0.082
-150.618	-44.881	0.163	-0.081
-149.604	292.499	0.108	-0.196
-148.589	800.000	-0.056	-0.176
-147.574	-200.000	0.040	-0.254
-146.560	800.000	-0.164	0.492
-145.545	800.000	0.084	0.258
-144.531	-26.247	0.165	0.096
-143.516	588.594	0.167	-0.410
-142.502	354.122	-0.202	0.399
-141.487	104.764	0.198	-0.232
-140.472	-200.000	-0.054	0.302
-139.458	-200.000	-0.029	0.155
-138.443	-200.000	0.097	-0.665
-137.429	-78.952	0.160	0.054
-136.414	429.090	0.060	0.130
-135.399	-200.000	-0.021	-0.219
-134.385	-161.278	0.066	-0.003
-133.370	42.169	-0.180	0.163
-132.356	-16.500	0.270	-0.171
-131.341	800.000	-0.061	-0.262
-130.326	-200.000	0.009	0.188
-129.312	244.562	0.115	-0.193
-128.297	-36.131	0.177	0.095
-127.283	321.970	0.031	-0.058
-126.268	-28.624	0.127	0.073
-125.253	-132.834	-0.396	-0.050
-124.239	-200.000	0.017	0.206
-123.224	-200.000	-0.001	-0.418
-122.210	-43.896	-0.070	0.035
-121.195	432.706	0.075	0.163
