DTS Sentinel unit serial number:	SN413079Multiplexer serial number:	ORYXHardware model number:	OX4-SRSoftware version number:	ORYX F/W v4.00 Oryx Data Collector v3.7.2.0data status	okinstallation	princeton_trtdifferential loss correction	single-endedforward channel	channel 3reverse channel	N/Adate	2019/09/16time	12:56:35forward acquisition time	60.00reverse acquisition time	0.00gamma	496.2192k internal	0.2294k external	0.2294temperature offset calibration	0.9942default loss term (dB/km)	0.3790temperature slope calibration	1.0000multiplexer offset coefficient	1.0000multiplexer slope coefficient	1.0000fibre end	0.00T internal ref (°C)	40.45T ext. ref 1 (°C)	13.55T ext. ref 2 (°C)	37.44length (m)	temperature (°C)	Stokes	anti-Stokes-747.200	-200.000	0.022	-0.187
-746.185	-112.912	-0.140	0.028
-745.171	-200.000	0.014	0.122
-744.156	-22.115	-0.066	-0.041
-743.142	141.100	-0.087	-0.118
-742.127	129.755	-0.146	0.190
-741.112	180.691	0.052	0.078
-740.098	151.667	-0.082	0.114
-739.083	-172.497	0.292	-0.009
-738.069	-139.397	0.213	0.023
-737.054	166.899	0.056	0.081
-736.039	334.880	0.056	0.112
-735.025	385.346	0.091	0.191
-734.010	800.000	-0.038	-0.121
-732.996	-56.196	0.200	0.091
-731.981	-157.390	-0.223	-0.014
-730.966	71.828	0.248	0.263
-729.952	-200.000	0.055	-0.266
-728.937	-22.387	-0.423	0.262
-727.923	800.000	0.100	0.340
-726.908	-58.178	0.126	0.056
-725.894	-112.289	-0.135	0.028
-724.879	-22.596	-0.139	0.086
-723.864	-1.106	0.099	-0.071
-722.850	-69.500	-0.091	-0.036
-721.835	253.892	0.021	-0.037
-720.821	-129.842	-0.268	0.038
-719.806	-114.340	-0.236	-0.046
-718.791	176.145	-0.281	0.416
-717.777	-48.978	0.319	-0.156
-716.762	-71.534	-0.371	0.142
-715.748	800.000	-0.071	0.220
-714.733	31.996	-0.112	0.098
-713.718	74.564	-0.121	-0.130
-712.704	-94.823	0.501	0.139
-711.689	-97.030	0.157	-0.042
-710.675	-39.273	0.228	-0.122
-709.660	-200.000	-0.008	0.198
-708.645	34.886	-0.324	0.289
-707.631	250.935	-0.178	-0.310
-706.616	-21.559	0.193	-0.120
-705.602	-158.868	-0.205	-0.012
-704.587	726.223	-0.037	-0.100
-703.572	96.676	0.053	-0.062
-702.558	-163.529	-0.462	-0.022
-701.543	-92.875	0.215	0.061
-700.529	-60.203	0.293	0.127
-699.514	-200.000	-0.015	0.129
-698.499	92.259	0.205	-0.235
-697.485	-200.000	-0.031	-0.230
-696.470	311.683	-0.082	-0.156
-695.456	800.000	0.052	-0.171
-694.441	51.312	0.070	-0.068
-693.426	-200.000	-0.031	-0.193
-692.412	276.801	-0.232	0.422
-691.397	309.583	0.098	0.186
-690.383	-1.995	-0.168	0.121
-689.368	80.967	-0.277	-0.305
-688.354	-200.000	-0.022	-0.113
-687.339	-200.000	-0.012	0.161
-686.324	-200.000	0.005	-0.129
-685.310	-33.323	0.208	0.117
-684.295	-200.000	-0.056	0.388
-683.281	-98.779	0.164	-0.043
-682.266	-200.000	0.020	0.175
-681.251	98.435	0.221	-0.260
-680.237	158.253	-0.194	0.275
-679.222	-33.221	-0.173	-0.098
-678.208	204.192	-0.216	-0.342
-677.193	-75.840	-0.115	-0.042
-676.178	222.154	-0.094	-0.154
-675.164	-27.186	0.087	-0.052
-674.149	-127.224	-0.308	-0.046
-673.135	800.000	0.023	-0.094
-672.120	-51.583	0.156	-0.074
-671.105	-140.030	0.158	-0.017
-670.091	458.474	0.071	-0.162
-669.076	-200.000	-0.006	-0.063
-668.062	16.625	-0.095	0.077
-667.047	181.345	-0.011	-0.016
-666.032	108.707	-0.147	-0.179
-665.018	800.000	-0.046	0.139
-664.003	445.937	-0.090	-0.202
-662.989	323.462	0.180	-0.349
-661.974	-151.496	-0.032	0.002
-660.959	-77.726	0.283	0.100
-659.945	431.397	-0.290	0.640
-658.930	-200.000	-0.007	-0.048
-657.916	-9.030	-0.247	0.169
-656.901	93.619	-0.026	-0.030
-655.886	322.428	-0.112	0.218
-654.872	13.911	0.028	-0.022
-653.857	-143.101	-0.129	-0.013
-652.843	-99.666	-0.303	-0.078
-651.828	-127.543	-0.133	0.020
-650.814	51.374	-0.185	-0.179
-649.799	800.000	0.087	0.372
-648.784	800.000	0.039	-0.144
-647.770	-81.089	0.322	-0.109
-646.755	-99.179	0.216	0.056
-645.741	57.801	-0.029	-0.029
-644.726	-95.948	0.433	-0.117
-643.711	65.233	-0.086	-0.089
-642.697	-37.866	0.262	-0.142
-641.682	213.900	-0.116	0.187
-640.668	-200.000	0.011	0.055
-639.653	-117.893	0.195	0.036
-638.638	-200.000	0.029	0.266
-637.624	306.598	-0.222	-0.422
-636.609	51.020	0.110	-0.106
-635.595	-97.825	-0.243	-0.064
-634.580	-176.196	-0.291	-0.008
-633.565	-200.000	0.002	-0.266
-632.551	-73.203	-0.147	0.055
-631.536	-200.000	-0.015	-0.101
-630.522	-134.741	-0.293	-0.036
-629.507	-159.418	-0.031	-0.002
-628.492	181.648	-0.079	-0.118
-627.478	-17.717	-0.167	-0.107
-626.463	224.622	0.174	0.286
-625.449	-85.554	0.338	-0.107
-624.434	800.000	0.103	-0.383
-623.419	-49.799	0.387	-0.187
-622.405	-30.439	-0.249	-0.144
-621.390	310.940	0.095	0.182
-620.376	382.276	0.056	-0.117
-619.361	-200.000	-0.002	-0.216
-618.346	-12.825	0.148	-0.098
-617.332	800.000	0.100	0.359
-616.317	-153.082	-0.292	0.021
-615.303	-75.134	0.276	-0.100
-614.288	330.533	-0.126	0.247
-613.273	800.000	-0.059	-0.243
-612.259	-108.835	-0.215	-0.047
-611.244	800.000	-0.055	-0.214
-610.230	210.724	-0.069	-0.110
-609.215	-35.537	-0.142	-0.079
-608.201	-200.000	0.006	-0.122
-607.186	-171.284	0.212	-0.007
-606.171	-81.933	0.022	0.007
-605.157	-29.731	0.212	-0.123
-604.142	-6.928	-0.014	0.009
-603.128	22.304	0.243	0.202
-602.113	-141.985	0.210	-0.021
-601.098	260.048	0.040	-0.071
-600.084	-28.008	-0.280	0.165
-599.069	106.550	0.024	-0.029
-598.055	110.260	0.155	-0.189
-597.040	-200.000	-0.006	-0.033
-596.025	-131.794	0.072	0.010
-595.011	553.881	-0.080	-0.196
-593.996	800.000	0.093	-0.322
-592.982	-3.229	-0.227	-0.161
-591.967	51.457	0.098	-0.094
-590.952	13.482	-0.109	-0.086
-589.938	134.142	-0.134	0.177
-588.923	256.836	-0.095	-0.166
-587.909	237.702	-0.105	0.177
-586.894	-41.973	0.369	-0.192
-585.879	11.262	0.141	-0.109
-584.865	435.817	-0.086	-0.191
-583.850	329.539	-0.021	-0.042
-582.836	14.883	0.163	-0.129
-581.821	-174.555	0.104	-0.003
-580.806	783.568	0.111	0.310
-579.792	-16.634	-0.367	0.236
-578.777	-100.858	-0.082	-0.021
-577.763	-200.000	-0.045	-0.329
-576.748	-74.028	0.178	-0.066
-575.733	-32.564	-0.240	0.136
-574.719	-154.327	0.136	-0.009
-573.704	-200.000	-0.025	-0.204
-572.690	-127.852	0.451	0.066
-571.675	-65.325	0.370	0.151
-570.661	-200.000	0.019	0.129
-569.646	-87.963	0.137	-0.042
-568.631	671.303	0.090	0.238
-567.617	-61.878	-0.242	-0.103
-566.602	60.653	-0.184	0.185
-565.588	-121.720	-0.070	-0.012
-564.573	-55.621	0.093	-0.042
-563.558	-162.838	-0.101	0.005
-562.544	-121.537	-0.178	0.030
-561.529	-85.410	0.234	-0.074
-560.515	-36.328	0.155	0.085
-559.500	-61.765	0.512	-0.218
-558.485	-65.484	-0.203	0.083
-557.471	103.100	-0.091	0.109
-556.456	59.107	0.180	0.179
-555.442	-148.736	0.064	-0.005
-554.427	-200.000	-0.012	-0.297
-553.412	-200.000	-0.341	-0.001
-552.398	-200.000	-0.026	0.233
-551.383	-92.472	-0.248	-0.071
-550.369	-200.000	-0.018	0.091
-549.354	79.382	0.218	0.237
-548.339	800.000	0.017	0.054
-547.325	175.877	0.218	0.321
-546.310	-102.205	-0.090	0.022
-545.296	-200.000	0.015	0.352
-544.281	-123.492	-0.161	0.026
-543.266	-109.492	0.169	0.036
-542.252	-96.674	0.183	-0.049
-541.237	-200.000	-0.002	0.171
-540.223	-200.000	0.011	0.123
-539.208	-107.209	-0.205	0.046
-538.193	69.706	0.117	0.122
-537.179	4.657	0.117	-0.087
-536.164	-142.541	0.393	0.039
-535.150	325.607	0.098	-0.191
-534.135	-35.126	0.342	-0.189
-533.121	177.103	-0.058	0.086
-532.106	118.998	-0.090	-0.113
-531.091	-14.624	0.121	0.079
-530.077	-75.991	-0.184	0.066
-529.062	800.000	-0.070	0.280
-528.048	-93.122	-0.185	0.052
-527.033	32.642	0.223	-0.196
-526.018	-37.948	0.266	0.143
-525.004	192.612	-0.055	-0.085
-523.989	-12.368	-0.174	-0.115
-522.975	152.981	-0.047	-0.065
-521.960	-9.070	-0.281	0.191
-520.945	307.262	0.116	-0.219
-519.931	-1.305	-0.147	0.105
-518.916	468.131	-0.004	0.008
-517.902	-74.851	0.067	0.024
-516.887	-42.918	-0.101	-0.052
-515.872	-99.401	-0.204	0.052
-514.858	191.278	-0.052	-0.079
-513.843	-144.680	-0.276	-0.026
-512.829	145.314	-0.073	-0.100
-511.814	-100.785	-0.047	0.012
-510.799	156.291	0.090	-0.126
-509.785	800.000	-0.020	0.059
-508.770	-21.512	-0.093	0.057
-507.756	-200.000	-0.055	0.336
-506.741	259.245	-0.168	0.294
-505.726	65.239	-0.182	0.186
-504.712	-200.000	-0.015	0.331
-503.697	551.976	0.034	-0.083
-502.683	98.395	-0.320	-0.373
-501.668	-35.482	-0.107	-0.059
-500.653	-73.113	0.101	0.037
-499.639	245.587	0.062	-0.105
-498.624	-200.000	0.013	0.131
-497.610	-7.927	0.257	-0.176
-496.595	-104.811	0.361	0.084
-495.581	189.866	0.244	0.371
-494.566	-135.306	0.077	0.009
-493.551	88.218	0.297	-0.334
-492.537	-171.566	-0.214	-0.007
-491.522	649.603	0.140	0.362
-490.508	273.045	-0.089	-0.159
-489.493	669.876	-0.086	-0.225
-488.478	-45.069	-0.166	0.084
-487.464	145.232	0.176	-0.238
-486.449	-200.000	0.023	-0.202
-485.435	-93.764	0.181	-0.051
-484.420	427.742	-0.118	0.259
-483.405	-200.000	-0.002	0.081
-482.391	172.075	0.113	0.165
-481.376	14.495	-0.232	-0.184
-480.362	-43.791	0.153	-0.078
-479.347	800.000	0.073	-0.213
-478.332	142.103	-0.102	-0.136
-477.318	-200.000	0.027	0.175
-476.303	325.962	0.036	0.070
-475.289	-10.682	-0.371	-0.248
-474.274	5.491	0.084	0.062
-473.259	83.675	0.089	-0.099
-472.245	-101.349	0.164	-0.041
-471.230	629.230	0.092	0.236
-470.216	-185.630	0.528	-0.008
-469.201	-189.178	-0.392	-0.005
-468.186	-152.150	-0.337	-0.025
-467.172	-200.000	-0.003	0.031
-466.157	-5.850	0.134	0.093
-465.143	3.561	0.132	-0.097
-464.128	228.189	-0.185	0.304
-463.113	-80.765	-0.095	0.032
-462.099	9.448	-0.224	-0.172
-461.084	-9.096	0.131	0.089
-460.070	28.918	-0.074	-0.064
-459.055	-98.360	-0.119	0.031
-458.040	74.657	0.101	-0.108
-457.026	-85.888	-0.402	0.126
-456.011	227.306	-0.080	0.132
-454.997	-142.808	0.358	0.035
-453.982	52.773	0.161	0.156
-452.968	1.956	0.124	-0.090
-451.953	-26.887	-0.327	0.193
-450.938	800.000	-0.051	-0.186
-449.924	-95.225	-0.146	-0.040
-448.909	-54.164	0.161	-0.074
-447.895	-75.142	-0.154	-0.056
-446.880	800.000	0.077	-0.242
-445.865	79.796	0.264	-0.287
-444.851	64.870	0.163	-0.167
-443.836	-2.069	0.074	0.052
-442.822	-200.000	-0.024	0.186
-441.807	735.983	-0.046	-0.125
-440.792	260.650	-0.142	-0.249
-439.778	77.816	-0.245	0.263
-438.763	134.469	0.045	-0.059
-437.749	146.958	-0.151	0.205
-436.734	119.410	0.189	0.236
-435.719	-31.479	0.254	0.144
-434.705	-52.669	-0.158	-0.074
-433.690	-45.159	-0.205	-0.103
-432.676	800.000	-0.033	-0.135
-431.661	-169.674	-0.144	0.005
-430.646	-200.000	-0.047	-0.352
-429.632	800.000	0.058	0.231
-428.617	-89.301	-0.222	-0.066
-427.603	-80.392	0.270	-0.091
-426.588	-51.471	0.255	-0.120
-425.573	-200.000	0.023	-0.154
-424.559	-200.000	0.035	0.171
-423.544	-71.394	0.188	0.071
-422.530	106.957	-0.103	0.124
-421.515	-47.164	-0.133	0.066
-420.500	-178.851	0.264	-0.006
-419.486	-24.991	0.175	0.105
-418.471	53.611	-0.087	0.084
-417.457	-2.050	-0.260	-0.185
-416.442	6.540	0.148	0.111
-415.428	109.599	-0.249	0.302
-414.413	-106.227	-0.179	-0.040
-413.398	-127.334	-0.237	0.035
-412.384	-137.495	-0.233	0.027
-411.369	-22.080	-0.211	0.129
-410.355	-162.738	0.237	-0.012
-409.340	26.176	0.144	0.121
-408.325	-6.488	0.118	-0.081
-407.311	-200.000	-0.027	-0.124
-406.296	-5.090	-0.297	0.206
-405.282	523.150	0.105	0.248
-404.267	-171.765	-0.434	-0.014
-403.252	11.904	0.207	-0.161
-402.238	5.949	-0.193	-0.145
-401.223	-200.000	-0.002	-0.435
-400.209	-93.137	-0.151	0.042
-399.194	62.830	0.261	-0.263
-398.179	326.103	0.067	-0.130
-397.165	800.000	-0.054	0.233
-396.150	-200.000	0.016	0.157
-395.136	800.000	0.053	-0.150
-394.121	800.000	-0.033	0.101
-393.106	-140.328	0.156	0.016
-392.092	-0.786	-0.179	0.128
-391.077	705.576	-0.138	0.367
-390.063	165.482	-0.221	0.316
-389.048	-107.371	-0.153	0.034
-388.033	-200.000	-0.029	-0.204
-387.019	24.736	-0.097	0.081
-386.004	55.668	0.230	-0.224
-384.990	-36.823	0.226	0.122
-383.975	-5.950	0.119	0.082
-382.960	-123.267	-0.128	-0.021
-381.946	41.233	0.050	-0.045
-380.931	462.224	-0.101	-0.227
-379.917	-200.000	-0.011	-0.246
-378.902	-130.295	0.122	-0.017
-377.888	-200.000	-0.015	-0.220
-376.873	84.763	-0.099	0.110
-375.858	-89.923	-0.276	-0.081
-374.844	-73.580	-0.070	-0.026
-373.829	103.411	0.202	0.238
-372.815	352.683	-0.038	0.075
-371.800	342.370	-0.075	-0.147
-370.785	-200.000	-0.007	-0.119
-369.771	29.484	-0.186	0.159
-368.756	64.558	-0.286	-0.291
-367.742	156.731	-0.074	0.103
-366.727	-95.820	0.199	-0.054
-365.712	-51.456	0.158	0.074
-364.698	434.564	0.122	-0.268
-363.683	-177.670	0.090	-0.002
-362.669	87.312	0.279	0.311
-361.654	72.459	-0.242	0.254
-360.639	55.188	-0.082	-0.080
-359.625	72.466	0.078	-0.082
-358.610	-10.552	-0.277	0.185
-357.596	-200.000	0.008	0.120
-356.581	-200.000	0.040	-0.256
-355.566	-200.000	-0.013	0.230
-354.552	-135.206	-0.111	-0.013
-353.537	298.453	0.019	0.035
-352.523	-53.934	-0.263	0.120
-351.508	800.000	-0.045	0.145
-350.493	-163.811	0.191	0.009
-349.479	95.005	0.186	0.214
-348.464	221.272	0.174	-0.282
-347.450	180.989	0.126	0.186
-346.435	-200.000	0.047	0.372
-345.420	81.696	0.179	-0.196
-344.406	800.000	0.108	0.400
-343.391	265.350	-0.294	-0.516
-342.377	28.088	-0.019	0.016
-341.362	-200.000	0.018	-0.213
-340.348	3.914	-0.181	-0.133
-339.333	0.152	-0.227	-0.163
-338.318	154.340	0.205	-0.284
-337.304	-2.316	0.171	-0.121
-336.289	-132.063	-0.140	-0.018
-335.275	-60.012	-0.467	0.201
-334.260	-15.138	0.015	-0.010
-333.245	604.645	-0.018	-0.046
-332.231	-91.202	0.097	-0.028
-331.216	150.326	-0.135	0.184
-330.202	68.202	0.179	0.185
-329.187	22.653	-0.180	-0.148
-328.172	110.425	0.060	-0.072
-327.158	-35.514	0.061	-0.033
-326.143	-117.184	-0.394	-0.072
-325.129	-200.000	0.005	0.080
-324.114	663.009	0.066	0.172
-323.099	-114.966	-0.005	0.001
-322.085	50.373	-0.185	-0.176
-321.070	-3.431	-0.229	0.160
-320.056	-16.269	0.125	0.080
-319.041	-200.000	-0.003	-0.119
-318.026	-200.000	0.027	-0.182
-317.012	800.000	0.024	-0.090
-315.997	150.808	-0.099	-0.136
-314.983	-37.972	0.152	0.081
-313.968	220.032	-0.083	-0.134
-312.953	702.855	0.038	-0.100
-311.939	-3.803	-0.239	-0.167
-310.924	800.000	0.073	0.276
-309.910	25.477	0.318	0.266
-308.895	-200.000	-0.016	0.292
-307.880	-8.289	-0.135	0.091
-306.866	-125.001	0.085	0.013
-305.851	-52.467	0.097	0.045
-304.837	800.000	0.120	0.348
-303.822	-200.000	0.005	0.150
-302.807	13.362	0.301	0.235
-301.793	800.000	-0.042	0.138
-300.778	800.000	0.079	-0.243
-299.764	44.539	-0.230	-0.212
-298.749	130.198	-0.233	-0.299
-297.735	-43.113	-0.144	-0.073
-296.720	-200.000	-0.007	-0.032
-295.705	-64.856	0.256	-0.104
-294.691	-200.000	0.000	0.045
-293.676	-93.498	0.154	-0.043
-292.662	-200.000	-0.014	-0.088
-291.647	-200.000	0.032	-0.487
-290.632	4.473	-0.212	-0.156
-289.618	-80.818	-0.361	-0.120
-288.603	-38.916	-0.161	-0.085
-287.589	-62.064	0.159	-0.067
-286.574	-1.380	-0.090	-0.063
-285.559	13.710	0.356	-0.278
-284.545	258.641	0.118	-0.204
-283.530	84.456	-0.073	-0.080
-282.516	-157.055	-0.240	0.015
-281.501	-13.906	-0.197	-0.128
-280.486	-200.000	0.169	0.000
-279.472	800.000	0.131	0.496
-278.457	-118.329	-0.394	-0.070
-277.443	-26.910	-0.233	-0.137
-276.428	-200.000	0.058	0.265
-275.413	-56.948	-0.155	0.069
-274.399	-200.000	0.008	0.148
-273.384	-200.000	0.001	-0.007
-272.370	297.830	-0.167	0.308
-271.355	-93.710	-0.072	0.020
-270.340	-200.000	-0.008	0.082
-269.326	80.512	0.114	-0.123
-268.311	152.834	0.129	0.177
-267.297	-139.440	-0.252	0.027
-266.282	86.300	-0.036	-0.039
-265.267	25.276	0.249	0.208
-264.253	101.751	-0.225	0.264
-263.238	-130.338	0.251	0.034
-262.224	-144.906	0.221	-0.020
-261.209	421.253	0.147	-0.317
-260.195	39.400	0.361	0.324
-259.180	68.418	0.128	-0.131
-258.165	-200.000	0.051	0.494
-257.151	800.000	-0.052	0.208
-256.136	800.000	0.128	-0.365
-255.122	-164.574	-0.259	0.012
-254.107	-200.000	-0.010	-0.091
-253.092	588.775	-0.049	0.121
-252.078	43.116	-0.041	-0.038
-251.063	-200.000	-0.003	-0.230
-250.049	-128.094	0.136	-0.020
-249.034	-2.422	0.151	-0.106
-248.019	128.850	-0.128	0.164
-247.005	-200.000	-0.031	0.157
-245.990	800.000	-0.087	-0.280
-244.976	158.645	0.129	0.179
-243.961	32.804	-0.205	-0.178
-242.946	177.560	0.099	-0.145
-241.932	493.003	-0.146	0.335
-240.917	800.000	-0.096	0.267
-239.903	-60.651	-0.290	0.123
-238.888	800.000	0.039	-0.110
-237.873	-29.045	0.134	0.077
-236.859	138.133	-0.114	-0.150
-235.844	49.233	-0.024	0.022
-234.830	138.913	0.138	-0.181
-233.815	-50.527	-0.109	0.052
-232.800	46.771	-0.187	-0.174
-231.786	-101.775	-0.202	0.049
-230.771	676.684	0.041	-0.107
-229.757	252.896	-0.041	-0.071
-228.742	792.090	-0.097	0.267
-227.727	-126.866	0.154	-0.023
-226.713	428.894	0.052	-0.113
-225.698	89.766	0.012	0.014
-224.684	-112.734	0.138	0.028
-223.669	-33.679	0.147	0.082
-222.655	125.211	0.074	0.093
-221.640	2.794	0.092	-0.067
-220.625	-159.849	0.339	0.019
-219.611	0.102	-0.375	0.268
-218.596	-27.425	0.319	-0.186
-217.582	36.813	0.127	-0.112
-216.567	292.271	-0.039	0.072
-215.552	-60.309	0.294	0.126
-214.538	-82.061	-0.127	0.042
-213.523	115.647	0.277	0.339
-212.509	-32.624	0.096	-0.054
-211.494	28.713	-0.095	0.080
-210.479	80.086	0.157	0.170
-209.465	245.810	0.069	-0.117
-208.450	800.000	0.070	-0.231
-207.436	-200.000	-0.061	-0.341
-206.421	-117.290	-0.049	-0.009
-205.406	-62.825	-0.223	-0.092
-204.392	-94.467	-0.050	-0.014
-203.377	-52.260	0.251	-0.117
-202.363	-51.759	0.077	0.036
-201.348	368.471	0.196	-0.396
-200.333	119.585	0.066	-0.082
-199.319	-86.943	-0.251	-0.077
-198.304	523.465	0.028	0.065
-197.290	-200.000	0.028	0.226
-196.275	7.860	-0.290	-0.218
-195.260	-200.000	-0.041	0.275
-194.246	-9.933	0.112	0.074
-193.231	43.108	0.106	0.097
-192.217	393.836	-0.123	0.257
-191.202	528.022	0.068	0.161
-190.187	418.539	0.054	0.115
-189.173	6.091	0.072	-0.054
-188.158	67.577	-0.242	0.247
-187.144	-4.538	0.205	0.142
-186.129	-148.353	0.243	-0.020
-185.114	585.307	0.064	0.157
-184.100	284.361	0.093	0.167
-183.085	-122.242	0.106	0.017
-182.071	376.622	-0.103	-0.211
-181.056	1.976	-0.143	0.103
-180.042	114.804	-0.096	0.117
-179.027	11.373	0.054	0.041
-178.012	800.000	0.076	0.284
-176.998	-133.187	-0.244	0.031
-175.983	800.000	0.049	0.153
-174.969	137.432	0.173	-0.226
-173.954	-200.000	0.014	0.093
-172.939	89.464	-0.147	-0.164
-171.925	-81.618	0.239	-0.078
-170.910	318.186	0.072	0.136
-169.896	228.701	-0.025	-0.041
-168.881	-200.000	0.083	-0.395
-167.866	-7.851	-0.207	-0.140
-166.852	-106.668	0.129	-0.029
-165.837	14.038	-0.264	-0.205
-164.823	84.988	-0.193	-0.211
-163.808	-200.000	0.002	0.009
-162.793	-47.982	-0.108	0.052
-161.779	-200.000	-0.020	0.373
-160.764	-41.288	-0.249	0.128
-159.750	-178.748	0.133	-0.003
-158.735	-200.000	0.040	-0.280
-157.720	81.373	0.112	-0.121
-156.706	-153.571	-0.184	-0.013
-155.691	-200.000	-0.003	-0.065
-154.677	-164.708	0.234	0.011
-153.662	-200.000	-0.041	0.184
-152.647	89.304	-0.113	-0.126
-151.633	238.114	-0.106	0.175
-150.618	-47.522	0.295	0.143
-149.604	267.827	0.065	-0.113
-148.589	-200.000	-0.001	0.391
-147.574	-200.000	-0.000	0.159
-146.560	24.841	0.156	0.129
-145.545	800.000	-0.042	0.171
-144.531	380.055	-0.142	0.290
-143.516	207.652	0.131	-0.205
-142.502	-200.000	0.005	-0.114
-141.487	-46.383	0.112	-0.055
-140.472	592.426	0.058	0.144
-139.458	88.996	-0.183	-0.203
-138.443	-200.000	0.010	-0.115
-137.429	4.347	0.063	0.046
-136.414	-200.000	0.010	-0.134
-135.399	-68.206	-0.269	-0.105
-134.385	-200.000	-0.051	0.258
-133.370	-200.000	0.034	-0.150
-132.356	-38.010	-0.059	-0.031
-131.341	-108.918	0.244	-0.052
-130.326	-200.000	0.025	-0.165
-129.312	-97.707	0.116	-0.030
-128.297	-15.015	0.342	0.219
-127.283	-3.796	0.104	-0.072
-126.268	56.030	-0.053	0.052
-125.253	-30.042	0.186	0.105
-124.239	106.410	0.223	-0.264
-123.224	-67.949	-0.099	-0.038
-122.210	152.183	0.102	0.139
-121.195	178.296	-0.190	0.277
