DTS Sentinel unit serial number:	SN413079Multiplexer serial number:	ORYXHardware model number:	OX4-SRSoftware version number:	ORYX F/W v4.00 Oryx Data Collector v3.7.2.0data status	okinstallation	princeton_trtdifferential loss correction	single-endedforward channel	channel 3reverse channel	N/Adate	2019/09/18time	05:36:35forward acquisition time	60.00reverse acquisition time	0.00gamma	496.2192k internal	0.2343k external	0.2343temperature offset calibration	0.9951default loss term (dB/km)	0.3790temperature slope calibration	1.0000multiplexer offset coefficient	1.0000multiplexer slope coefficient	1.0000fibre end	0.00T internal ref (°C)	23.37T ext. ref 1 (°C)	0.19T ext. ref 2 (°C)	16.91length (m)	temperature (°C)	Stokes	anti-Stokes-747.200	-9.046	-0.108	0.073
-746.185	114.669	0.044	0.054
-745.171	-48.855	0.162	-0.078
-744.156	-80.199	0.240	0.080
-743.142	13.102	0.272	0.211
-742.127	170.405	-0.195	0.280
-741.112	80.124	0.090	-0.097
-740.098	-100.314	0.090	0.022
-739.083	-68.175	-0.092	0.036
-738.069	-78.661	-0.297	-0.101
-737.054	-141.720	0.071	-0.007
-736.039	14.013	-0.137	0.107
-735.025	-200.000	-0.008	0.043
-734.010	-200.000	-0.002	-0.241
-732.996	345.338	0.174	-0.341
-731.981	-97.929	0.382	0.099
-730.966	-43.284	-0.204	0.103
-729.952	-30.834	-0.308	0.174
-728.937	-184.209	-0.376	-0.006
-727.923	178.787	-0.077	0.112
-726.908	-200.000	-0.033	-0.187
-725.894	-90.646	-0.161	-0.047
-724.879	30.894	0.157	0.135
-723.864	321.390	-0.083	0.158
-722.850	-96.443	-0.066	-0.017
-721.835	188.857	0.121	-0.182
-720.821	-79.589	0.134	-0.045
-719.806	-65.336	0.164	0.066
-718.791	-200.000	0.037	0.207
-717.777	-140.698	0.544	-0.056
-716.762	617.290	-0.046	-0.116
-715.748	-166.949	0.271	-0.011
-714.733	800.000	0.045	0.170
-713.718	-200.000	-0.056	-0.253
-712.704	-19.362	0.135	-0.084
-711.689	89.020	-0.166	0.185
-710.675	800.000	-0.128	0.381
-709.660	-200.000	0.028	-0.185
-708.645	-17.351	-0.017	-0.011
-707.631	-146.213	-0.216	-0.019
-706.616	293.819	0.122	0.222
-705.602	768.954	-0.130	0.354
-704.587	136.418	0.188	-0.245
-703.572	800.000	-0.062	-0.210
-702.558	93.180	-0.328	0.371
-701.543	800.000	-0.048	0.151
-700.529	115.959	0.283	-0.346
-699.514	-66.333	-0.084	-0.033
-698.499	-151.725	-0.073	-0.005
-697.485	714.134	0.001	-0.002
-696.470	-72.042	0.185	0.069
-695.456	359.792	-0.134	0.267
-694.441	-200.000	0.007	0.150
-693.426	-200.000	-0.015	-0.338
-692.412	129.688	-0.153	-0.196
-691.397	135.398	0.092	-0.120
-690.383	791.107	0.149	-0.410
-689.368	-34.244	-0.084	-0.046
-688.354	-54.182	0.109	0.049
-687.339	-172.508	0.428	0.014
-686.324	-200.000	-0.032	-0.315
-685.310	-90.726	-0.121	-0.035
-684.295	-65.737	0.037	-0.015
-683.281	-200.000	-0.027	-0.186
-682.266	-200.000	-0.013	0.200
-681.251	213.273	-0.121	-0.191
-680.237	177.866	-0.251	-0.366
-679.222	36.322	-0.194	-0.171
-678.208	-200.000	0.028	-0.130
-677.193	-159.401	-0.046	0.003
-676.178	105.018	-0.211	-0.249
-675.164	687.349	0.063	-0.165
-674.149	-28.476	-0.058	0.034
-673.135	55.215	-0.112	0.108
-672.120	42.030	0.105	0.095
-671.105	-72.272	-0.351	-0.130
-670.091	44.948	-0.266	-0.244
-669.076	132.726	-0.034	-0.044
-668.062	-200.000	-0.012	-0.186
-667.047	-200.000	0.026	-0.137
-666.032	222.346	0.165	0.265
-665.018	-149.670	-0.349	0.027
-664.003	274.509	0.235	-0.414
-662.989	470.279	0.058	-0.129
-661.974	800.000	-0.063	0.206
-660.959	-73.207	-0.135	-0.049
-659.945	-200.000	0.019	-0.132
-658.930	800.000	-0.090	-0.354
-657.916	-200.000	-0.069	0.332
-656.901	45.222	0.063	-0.058
-655.886	-200.000	-0.294	0.001
-654.872	-85.196	0.273	-0.085
-653.857	143.427	0.059	0.078
-652.843	-75.009	-0.169	-0.060
-651.828	-88.805	0.255	-0.075
-650.814	-47.322	0.161	0.078
-649.799	-69.538	-0.090	0.034
-648.784	792.810	0.096	-0.262
-647.770	94.840	0.168	0.190
-646.755	-72.766	-0.375	-0.138
-645.741	107.920	-0.178	0.212
-644.726	96.657	-0.096	0.109
-643.711	-45.686	-0.170	-0.084
-642.697	70.834	-0.197	-0.203
-641.682	-113.340	-0.248	0.048
-640.668	-200.000	-0.040	-0.328
-639.653	54.267	-0.124	-0.119
-638.638	800.000	0.074	-0.299
-637.624	40.234	-0.139	-0.124
-636.609	46.376	0.101	0.093
-635.595	156.585	-0.158	0.218
-634.580	673.300	-0.096	-0.249
-633.565	36.308	-0.204	-0.179
-632.551	-42.618	0.205	0.104
-631.536	-77.011	-0.302	0.105
-630.522	-31.158	-0.242	-0.136
-629.507	-82.239	-0.003	0.001
-628.492	22.973	-0.140	0.114
-627.478	-200.000	-0.047	-0.316
-626.463	-167.227	0.400	-0.016
-625.449	-136.616	0.180	-0.021
-624.434	149.099	-0.165	-0.222
-623.419	158.464	-0.085	0.118
-622.405	-200.000	0.016	0.163
-621.390	-105.186	-0.331	0.075
-620.376	-25.649	0.044	-0.026
-619.361	56.652	0.027	0.026
-618.346	138.078	-0.184	-0.241
-617.332	-200.000	-0.039	-0.180
-616.317	494.779	0.102	-0.234
-615.303	-84.956	-0.103	0.032
-614.288	-200.000	-0.002	0.045
-613.273	25.354	0.176	-0.146
-612.259	1.483	0.109	-0.078
-611.244	-139.802	-0.230	-0.024
-610.230	-200.000	0.009	-0.164
-609.215	170.291	-0.048	0.069
-608.201	-141.948	-0.350	-0.035
-607.186	-83.934	0.007	0.002
-606.171	-54.582	-0.215	0.097
-605.157	295.679	0.103	-0.189
-604.142	46.456	-0.068	0.063
-603.128	-64.966	0.025	0.010
-602.113	447.853	-0.044	-0.096
-601.098	-161.302	-0.155	0.008
-600.084	-200.000	-0.008	0.055
-599.069	178.493	-0.012	-0.018
-598.055	-102.876	0.047	0.011
-597.040	12.988	0.396	-0.305
-596.025	-12.363	0.094	0.061
-595.011	-77.418	0.135	-0.047
-593.996	308.877	-0.161	0.299
-592.982	-200.000	-0.040	-0.236
-591.967	-180.599	0.219	0.004
-590.952	800.000	-0.042	-0.135
-589.938	-15.298	0.067	-0.043
-588.923	36.092	0.204	0.179
-587.909	146.395	0.105	-0.140
-586.894	184.052	-0.064	-0.095
-585.879	-200.000	0.016	0.357
-584.865	-200.000	0.032	0.180
-583.850	-2.927	-0.064	0.045
-582.836	-200.000	-0.007	0.308
-581.821	-125.494	-0.406	-0.061
-580.806	123.602	0.332	-0.414
-579.792	-14.247	-0.267	0.171
-578.777	-200.000	0.058	0.419
-577.763	-38.137	0.375	-0.198
-576.748	5.860	-0.170	0.125
-575.733	-81.419	0.182	-0.060
-574.719	-14.430	0.045	-0.029
-573.704	800.000	0.095	0.410
-572.690	-200.000	0.013	0.155
-571.675	229.604	0.100	0.163
-570.661	32.560	-0.254	0.218
-569.646	37.598	0.038	0.034
-568.631	68.391	-0.260	-0.265
-567.617	800.000	0.099	-0.294
-566.602	-144.861	0.145	-0.013
-565.588	-112.360	0.226	0.045
-564.573	263.357	0.040	0.070
-563.558	-38.863	0.095	0.050
-562.544	109.421	-0.239	-0.285
-561.529	436.504	-0.098	-0.212
-560.515	-0.948	0.060	-0.042
-559.500	-200.000	-0.022	-0.107
-558.485	-200.000	0.023	-0.385
-557.471	122.066	0.074	0.091
-556.456	-129.060	-0.258	0.036
-555.442	172.259	0.095	0.136
-554.427	287.030	-0.112	0.201
-553.412	-185.653	0.289	0.004
-552.398	-200.000	-0.003	-0.201
-551.383	86.616	-0.081	-0.089
-550.369	-186.159	-0.317	-0.005
-549.354	-129.912	-0.048	0.007
-548.339	-119.287	-0.392	-0.068
-547.325	42.836	0.211	-0.191
-546.310	105.423	-0.095	0.112
-545.296	170.867	0.051	0.073
-544.281	-200.000	-0.015	-0.650
-543.266	65.196	-0.083	-0.084
-542.252	71.826	0.214	0.221
-541.237	-57.775	-0.270	-0.117
-540.223	-196.473	-0.154	0.001
-539.208	57.038	0.213	0.206
-538.193	14.276	0.205	0.159
-537.179	169.111	0.019	-0.027
-536.164	-155.171	0.272	0.018
-535.150	165.839	0.172	-0.242
-534.135	13.550	-0.049	-0.038
-533.121	182.026	0.106	0.155
-532.106	-200.000	-0.011	-0.180
-531.091	-181.876	-0.158	0.003
-530.077	260.925	0.159	0.274
-529.062	-1.545	0.033	0.023
-528.048	-200.000	-0.023	-0.119
-527.033	-200.000	-0.032	-0.286
-526.018	-178.379	-0.103	-0.002
-525.004	-23.281	-0.311	-0.186
-523.989	-200.000	0.040	-0.191
-522.975	-154.246	-0.263	-0.018
-521.960	-200.000	-0.009	0.194
-520.945	322.363	-0.133	0.252
-519.931	800.000	-0.067	-0.227
-518.916	-200.000	0.088	-0.574
-517.902	-86.553	-0.201	0.061
-516.887	1.651	-0.187	0.134
-515.872	68.802	0.296	0.302
-514.858	-200.000	0.030	0.140
-513.843	-65.949	-0.260	0.103
-512.829	89.519	-0.131	-0.145
-511.814	71.559	-0.070	0.072
-510.799	84.802	-0.106	0.115
-509.785	436.061	0.205	-0.442
-508.770	-200.000	0.007	0.264
-507.756	800.000	-0.026	0.075
-506.741	162.064	-0.114	-0.159
-505.726	-121.642	-0.377	0.062
-504.712	90.558	0.120	0.133
-503.697	14.825	-0.225	0.174
-502.683	107.633	-0.108	0.128
-501.668	-101.244	0.240	0.058
-500.653	183.549	-0.094	0.138
-499.639	-102.428	-0.031	-0.007
-498.624	-200.000	0.008	-0.261
-497.610	800.000	-0.062	-0.251
-496.595	-200.000	-0.001	-0.116
-495.581	797.729	-0.060	-0.165
-494.566	280.830	0.078	-0.138
-493.551	228.190	0.236	0.381
-492.537	207.016	0.166	-0.256
-491.522	162.330	0.153	0.212
-490.508	110.555	0.141	-0.168
-489.493	-160.386	0.078	-0.004
-488.478	-123.183	-0.269	-0.043
-487.464	800.000	-0.069	0.202
-486.449	800.000	-0.092	0.269
-485.435	-200.000	0.066	-0.314
-484.420	-129.992	0.341	0.046
-483.405	-64.607	0.403	0.162
-482.391	-200.000	0.008	-0.165
-481.376	-4.748	-0.116	0.080
-480.362	-200.000	-0.010	0.065
-479.347	-119.400	-0.163	0.028
-478.332	800.000	0.026	0.081
-477.318	800.000	0.045	-0.191
-476.303	15.405	0.135	-0.105
-475.289	-52.019	0.064	0.030
-474.274	-94.164	0.209	-0.057
-473.259	-200.000	-0.010	-0.245
-472.245	554.296	0.031	0.075
-471.230	516.706	-0.039	0.090
-470.216	207.330	-0.107	-0.165
-469.201	-57.464	-0.231	-0.100
-468.186	800.000	0.029	-0.106
-467.172	800.000	-0.002	0.009
-466.157	-107.931	-0.365	-0.079
-465.143	-186.623	-0.201	-0.003
-464.128	126.130	0.021	-0.026
-463.113	704.375	0.110	0.287
-462.099	189.131	0.090	0.134
-461.084	-32.034	-0.247	0.137
-460.070	-85.219	0.262	-0.081
-459.055	-51.373	-0.180	0.083
-458.040	343.097	0.188	0.364
-457.026	-20.312	0.202	-0.123
-456.011	-135.852	-0.193	0.023
-454.997	321.826	0.096	-0.180
-453.982	172.299	0.190	0.271
-452.968	360.833	0.052	0.102
-451.953	-200.000	-0.025	-0.267
-450.938	-200.000	0.009	0.039
-449.924	-200.000	0.031	-0.137
-448.909	50.036	0.154	-0.144
-447.895	-200.000	0.040	-0.210
-446.880	35.061	-0.280	0.243
-445.865	446.028	-0.204	0.443
-444.851	198.227	-0.064	-0.096
-443.836	26.932	-0.115	0.096
-442.822	48.340	0.142	-0.131
-441.807	-110.727	-0.087	0.018
-440.792	-35.660	0.310	-0.166
-439.778	88.233	0.086	0.094
-438.763	-2.987	0.095	-0.065
-437.749	315.178	-0.057	0.106
-436.734	252.959	0.179	0.301
-435.719	316.230	-0.183	0.342
-434.705	329.795	0.090	0.172
-433.690	614.458	0.103	0.256
-432.676	26.459	0.275	0.227
-431.661	-75.891	0.055	-0.019
-430.646	91.559	-0.080	0.089
-429.632	800.000	0.023	0.077
-428.617	65.115	0.114	0.114
-427.603	800.000	-0.035	-0.136
-426.588	367.818	0.065	-0.129
-425.573	38.615	0.087	-0.076
-424.559	373.599	-0.165	-0.332
-423.544	445.411	-0.141	-0.305
-422.530	-6.636	0.046	-0.031
-421.515	-145.457	0.230	-0.020
-420.500	-58.862	0.240	-0.103
-419.486	29.498	0.187	0.158
-418.471	-72.774	-0.099	-0.036
-417.457	-200.000	-0.006	0.053
-416.442	714.202	-0.021	-0.054
-415.428	-68.088	-0.270	0.104
-414.413	85.332	0.052	0.056
-413.398	-54.765	0.165	-0.074
-412.384	-129.282	-0.014	-0.002
-411.369	-71.622	-0.180	-0.066
-410.355	-143.948	0.061	0.006
-409.340	-31.129	0.154	0.086
-408.325	9.791	0.120	-0.090
-407.311	-95.851	-0.524	0.138
-406.296	-135.519	0.756	0.089
-405.282	116.238	-0.125	0.152
-404.267	-136.015	-0.120	-0.014
-403.252	11.216	0.107	-0.081
-402.238	90.682	0.120	0.133
-401.223	-37.990	0.128	0.067
-400.209	122.950	-0.066	-0.082
-399.194	144.330	-0.084	0.111
-398.179	-200.000	-0.020	-0.164
-397.165	215.741	-0.066	0.104
-396.150	160.234	-0.043	-0.059
-395.136	-133.251	0.413	0.051
-394.121	260.616	-0.123	0.211
-393.106	276.458	0.109	0.191
-392.092	-48.033	-0.192	0.092
-391.077	124.594	-0.205	0.254
-390.063	-200.000	-0.013	0.331
-389.048	20.116	-0.241	0.192
-388.033	18.238	-0.100	0.079
-387.019	-56.476	0.279	0.122
-386.004	25.493	-0.272	-0.223
-384.990	-41.591	0.099	-0.050
-383.975	295.341	-0.159	0.288
-382.960	373.508	0.048	-0.096
-381.946	-86.423	-0.269	-0.082
-380.931	162.557	-0.237	-0.328
-379.917	78.525	0.285	-0.301
-378.902	-105.734	0.176	0.039
-377.888	-117.615	0.372	-0.066
-376.873	-200.000	-0.086	0.443
-375.858	-200.000	0.005	-0.213
-374.844	378.823	0.082	0.165
-373.829	53.234	0.384	-0.363
-372.815	-200.000	0.023	-0.226
-371.800	-23.593	0.190	-0.112
-370.785	255.417	-0.155	-0.263
-369.771	-200.000	-0.008	-0.457
-368.756	-93.684	-0.234	0.064
-367.742	-119.044	0.120	0.021
-366.727	800.000	-0.109	0.311
-365.712	799.412	-0.086	-0.234
-364.698	800.000	-0.055	-0.163
-363.683	-47.641	0.207	0.099
-362.669	-62.727	0.154	0.063
-361.654	332.088	-0.242	-0.461
-360.639	800.000	-0.148	-0.430
-359.625	-64.416	0.115	-0.046
-358.610	-147.035	0.330	-0.028
-357.596	-200.000	-0.050	0.221
-356.581	-200.000	0.009	0.173
-355.566	300.188	-0.065	-0.117
-354.552	540.614	0.178	0.417
-353.537	-92.129	-0.309	-0.086
-352.523	-41.623	0.300	-0.152
-351.508	-200.000	-0.068	0.332
-350.493	394.162	0.126	-0.258
-349.479	373.117	0.035	-0.071
-348.464	535.994	0.058	-0.137
-347.450	-132.622	0.224	0.028
-346.435	-200.000	-0.010	0.062
-345.420	-200.000	-0.018	-0.088
-344.406	-98.120	-0.162	-0.041
-343.391	179.968	0.207	0.299
-342.377	-200.000	-0.018	0.102
-341.362	43.913	0.167	-0.151
-340.348	49.796	0.188	-0.174
-339.333	-39.118	-0.067	-0.035
-338.318	-17.586	0.318	-0.197
-337.304	357.440	0.047	-0.093
-336.289	-200.000	0.031	0.241
-335.275	-96.352	0.053	-0.014
-334.260	800.000	0.015	0.053
-333.245	-158.310	-0.313	-0.018
-332.231	163.877	0.116	0.161
-331.216	-200.000	0.042	0.259
-330.202	-200.000	-0.045	0.258
-329.187	6.043	0.229	0.167
-328.172	445.460	0.095	-0.205
-327.158	3.270	0.054	-0.039
-326.143	150.761	0.028	-0.037
-325.129	753.293	0.139	0.369
-324.114	493.119	0.055	0.124
-323.099	-8.883	0.111	0.073
-322.085	-153.946	0.367	0.025
-321.070	-110.644	-0.184	-0.037
-320.056	-50.320	0.311	0.145
-319.041	-10.953	0.384	0.250
-318.026	-112.998	-0.482	0.094
-317.012	800.000	-0.113	-0.434
-315.997	800.000	0.086	0.252
-314.983	-7.069	-0.059	-0.040
-313.968	-50.028	-0.066	-0.031
-312.953	61.654	0.247	-0.242
-311.939	-44.011	-0.347	-0.172
-310.924	35.080	-0.287	0.248
-309.910	800.000	0.091	-0.335
-308.895	-200.000	-0.016	0.108
-307.880	800.000	0.034	0.122
-306.866	-120.499	-0.135	0.023
-305.851	800.000	-0.069	0.202
-304.837	24.904	0.149	0.121
-303.822	-28.593	-0.384	0.217
-302.807	-200.000	0.058	-0.265
-301.793	800.000	-0.074	-0.215
-300.778	-200.000	0.024	0.103
-299.764	734.065	0.038	0.101
-298.749	87.055	0.091	0.099
-297.735	-99.149	0.152	-0.038
-296.720	193.437	-0.157	0.233
-295.705	800.000	-0.105	0.450
-294.691	-10.525	0.088	0.058
-293.676	472.392	-0.165	0.366
-292.662	311.464	0.205	0.378
-291.647	71.123	-0.313	0.319
-290.632	27.537	0.175	-0.145
-289.618	-55.654	-0.200	0.088
-288.603	-200.000	-0.017	0.415
-287.589	-63.200	0.199	-0.081
-286.574	84.469	0.028	-0.031
-285.559	124.391	-0.017	-0.020
-284.545	-105.906	0.259	-0.057
-283.530	800.000	-0.056	0.183
-282.516	-30.056	0.151	0.085
-281.501	-115.459	0.234	0.043
-280.486	-85.236	-0.228	-0.070
-279.472	56.645	-0.155	0.149
-278.457	-200.000	-0.016	0.102
-277.443	19.870	-0.081	0.065
-276.428	-110.234	-0.205	-0.042
-275.413	-23.874	0.204	0.120
-274.399	-143.864	0.179	0.017
-273.384	-55.467	-0.044	0.019
-272.370	252.717	-0.088	0.148
-271.355	-49.420	0.188	0.088
-270.340	-118.743	-0.093	-0.016
-269.326	73.793	0.111	0.114
-268.311	676.815	-0.131	-0.334
-267.297	-200.000	-0.008	0.133
-266.282	-168.309	0.157	0.006
-265.267	-200.000	-0.050	-0.237
-264.253	-91.032	-0.137	0.039
-263.238	800.000	0.031	-0.129
-262.224	42.593	-0.168	0.150
-261.209	224.320	-0.269	-0.427
-260.195	322.571	0.043	-0.080
-259.180	-85.822	0.330	0.101
-258.165	-26.465	0.182	-0.105
-257.151	-200.000	0.027	-0.422
-256.136	-69.158	-0.215	-0.081
-255.122	-103.268	-0.281	-0.065
-254.107	22.752	-0.285	0.229
-253.092	477.477	-0.032	0.070
-252.078	436.141	-0.017	-0.037
-251.063	-200.000	-0.006	-0.055
-250.049	29.196	-0.091	-0.076
-249.034	75.651	-0.121	-0.125
-248.019	-126.941	-0.110	0.016
-247.005	-145.793	0.133	0.012
-245.990	-116.570	0.098	-0.018
-244.976	24.155	-0.132	0.107
-243.961	-160.145	0.289	0.015
-242.946	215.990	0.079	0.123
-241.932	246.431	0.132	-0.219
-240.917	19.321	-0.064	-0.050
-239.903	-65.735	-0.083	-0.033
-238.888	8.480	0.076	-0.056
-237.873	800.000	0.127	0.351
-236.859	-81.238	0.298	0.097
-235.844	64.520	-0.521	-0.515
-234.830	37.290	-0.036	0.031
-233.815	-200.000	0.034	0.158
-232.800	67.733	-0.287	0.288
-231.786	-15.676	0.037	-0.023
-230.771	-71.105	-0.092	0.034
-229.757	-33.221	0.176	0.096
-228.742	31.423	-0.310	0.261
-227.727	51.063	-0.266	0.247
-226.713	-46.205	0.130	-0.063
-225.698	554.603	0.197	0.465
-224.684	245.264	0.087	0.144
-223.669	18.022	-0.165	-0.129
-222.655	-118.515	-0.157	-0.027
-221.640	-66.042	-0.392	-0.153
-220.625	-200.000	0.018	-0.341
-219.611	-200.000	0.032	0.189
-218.596	-200.000	0.022	-0.274
-217.582	157.687	0.075	0.102
-216.567	-200.000	0.005	-0.085
-215.552	-200.000	0.034	-0.160
-214.538	-15.779	0.142	0.089
-213.523	349.550	-0.197	0.382
-212.509	-200.000	-0.013	-0.178
-211.494	-20.624	-0.127	0.076
-210.479	-16.260	-0.122	-0.076
-209.465	-56.676	0.152	-0.066
-208.450	262.817	-0.076	-0.129
-207.436	-45.325	0.151	-0.074
-206.421	430.620	0.098	-0.207
-205.406	-9.766	0.078	-0.051
-204.392	567.186	-0.089	-0.211
-203.377	-83.806	0.267	0.083
-202.363	-12.792	0.141	-0.090
-201.348	29.149	-0.132	-0.110
-200.333	-132.670	-0.072	0.009
-199.319	491.747	0.108	-0.244
-198.304	135.370	-0.159	0.203
-197.290	-135.889	-0.445	-0.051
-196.275	207.906	0.137	-0.210
-195.260	-200.000	0.039	-0.344
-194.246	335.955	-0.087	0.164
-193.231	50.447	-0.201	-0.186
-192.217	-167.730	0.578	0.022
-191.202	377.601	0.058	-0.117
-190.187	49.248	-0.232	0.213
-189.173	-66.863	0.273	-0.106
-188.158	166.765	0.068	0.094
-187.144	132.816	0.211	0.266
-186.129	216.979	-0.045	0.070
-185.114	91.647	-0.185	0.204
-184.100	-200.000	-0.067	-0.336
-183.085	16.801	0.211	0.164
-182.071	-47.368	0.321	0.153
-181.056	-10.097	-0.053	0.034
-180.042	800.000	0.083	-0.289
-179.027	-200.000	0.005	0.136
-178.012	300.429	0.121	-0.219
-176.998	23.618	-0.121	0.098
-175.983	142.958	0.120	0.156
-174.969	-200.000	-0.020	-0.104
-173.954	-14.631	0.157	0.099
-172.939	-200.000	0.003	-0.554
-171.925	-200.000	0.068	-0.376
-170.910	-94.546	-0.124	-0.033
-169.896	0.242	-0.088	-0.061
-168.881	-200.000	-0.007	-0.039
-167.866	22.084	-0.092	-0.073
-166.852	800.000	0.018	-0.051
-165.837	-123.270	-0.140	-0.022
-164.823	300.429	-0.091	0.164
-163.808	-125.692	0.222	-0.033
-162.793	-200.000	-0.050	0.289
-161.779	430.012	0.104	0.219
-160.764	162.744	-0.149	0.205
-159.750	221.802	-0.223	-0.350
-158.735	147.521	0.048	0.064
-157.720	-133.953	-0.157	-0.019
-156.706	225.040	0.082	-0.130
-155.691	800.000	0.083	0.354
-154.677	-34.528	0.464	0.249
-153.662	-56.548	-0.170	-0.074
-152.647	-193.390	0.383	-0.003
-151.633	-156.287	-0.229	-0.014
-150.618	-89.795	0.275	0.079
-149.604	-117.313	0.448	-0.079
-148.589	87.961	-0.123	0.134
-147.574	30.246	0.242	0.202
-146.560	-24.976	0.067	0.039
-145.545	20.840	0.139	0.110
-144.531	-72.458	-0.235	0.085
-143.516	800.000	0.039	-0.157
-142.502	-200.000	-0.013	-0.234
-141.487	57.713	-0.056	-0.054
-140.472	-74.754	0.128	0.045
-139.458	-38.753	0.098	0.050
-138.443	-143.216	0.158	-0.015
-137.429	298.003	0.093	0.167
-136.414	707.688	0.068	-0.177
-135.399	-88.476	0.115	-0.034
-134.385	494.429	0.103	-0.232
-133.370	-115.394	0.079	0.015
-132.356	-83.587	-0.065	-0.020
-131.341	-43.817	0.235	-0.116
-130.326	-200.000	0.001	-0.187
-129.312	-200.000	-0.012	0.135
-128.297	192.108	0.138	-0.204
-127.283	-111.438	-0.078	0.016
-126.268	51.767	0.107	-0.099
-125.253	-50.555	-0.216	0.099
-124.239	-200.000	-0.007	0.126
-123.224	-82.358	0.121	-0.039
-122.210	308.329	-0.131	-0.238
-121.195	135.819	-0.111	-0.141
