DTS Sentinel unit serial number:	SN413079Multiplexer serial number:	ORYXHardware model number:	OX4-SRSoftware version number:	ORYX F/W v4.00 Oryx Data Collector v3.7.2.0data status	okinstallation	princeton_trtdifferential loss correction	single-endedforward channel	channel 3reverse channel	N/Adate	2019/09/16time	03:36:34forward acquisition time	60.00reverse acquisition time	0.00gamma	496.2192k internal	0.2334k external	0.2334temperature offset calibration	0.9958default loss term (dB/km)	0.3790temperature slope calibration	1.0000multiplexer offset coefficient	1.0000multiplexer slope coefficient	1.0000fibre end	0.00T internal ref (°C)	27.62T ext. ref 1 (°C)	10.60T ext. ref 2 (°C)	21.75length (m)	temperature (°C)	Stokes	anti-Stokes-747.200	800.000	0.058	0.238
-746.185	-136.280	-0.565	-0.066
-745.171	-200.000	0.051	0.324
-744.156	139.874	-0.154	0.204
-743.142	-200.000	0.168	-0.000
-742.127	-48.550	-0.258	0.125
-741.112	-200.000	0.050	0.304
-740.098	-200.000	0.002	0.173
-739.083	800.000	-0.026	0.101
-738.069	-37.817	-0.196	0.105
-737.054	63.330	-0.117	-0.118
-736.039	-24.486	-0.387	0.232
-735.025	281.205	-0.073	0.132
-734.010	256.102	0.096	-0.166
-732.996	-121.328	-0.168	0.028
-731.981	-5.734	-0.306	0.211
-730.966	-200.000	-0.020	0.117
-729.952	800.000	-0.065	-0.261
-728.937	-132.236	0.395	-0.051
-727.923	-113.997	-0.227	0.044
-726.908	-72.650	-0.201	0.074
-725.894	-100.897	-0.258	-0.064
-724.879	-200.000	0.012	-0.109
-723.864	-91.702	0.358	0.102
-722.850	-200.000	-0.023	0.113
-721.835	-141.397	-0.396	0.040
-720.821	-99.268	-0.443	-0.112
-719.806	24.851	-0.177	-0.147
-718.791	-25.154	0.176	-0.105
-717.777	-29.282	0.157	0.090
-716.762	30.492	0.024	-0.020
-715.748	-200.000	-0.041	-0.288
-714.733	-89.213	-0.218	0.065
-713.718	21.694	-0.119	-0.097
-712.704	-50.400	0.099	-0.047
-711.689	800.000	0.111	-0.360
-710.675	-177.773	0.624	0.015
-709.660	-200.000	-0.009	-0.115
-708.645	-54.142	0.281	-0.128
-707.631	-116.632	-0.245	-0.045
-706.616	-200.000	-0.012	-0.053
-705.602	-127.089	-0.290	0.043
-704.587	-200.000	-0.028	-0.125
-703.572	-18.051	0.272	-0.171
-702.558	-73.379	0.086	0.031
-701.543	-99.491	0.261	0.066
-700.529	-150.232	-0.378	0.029
-699.514	-69.980	-0.208	-0.080
-698.499	-200.000	-0.022	-0.179
-697.485	-200.000	0.004	-0.079
-696.470	-142.904	-0.186	-0.018
-695.456	12.505	-0.249	-0.192
-694.441	48.109	-0.061	0.057
-693.426	-52.290	-0.316	-0.147
-692.412	-131.761	0.182	-0.024
-691.397	-29.909	-0.125	0.071
-690.383	-147.685	0.084	0.007
-689.368	706.492	-0.100	-0.266
-688.354	175.011	-0.058	-0.084
-687.339	417.125	0.106	-0.228
-686.324	-89.482	-0.143	-0.042
-685.310	57.803	-0.177	0.173
-684.295	154.772	0.037	0.051
-683.281	-134.769	-0.185	-0.023
-682.266	82.253	-0.062	0.068
-681.251	-89.578	-0.251	-0.074
-680.237	-127.182	-0.315	-0.046
-679.222	-146.218	0.206	-0.018
-678.208	800.000	0.055	-0.233
-677.193	-17.943	0.054	-0.034
-676.178	-66.798	0.197	-0.078
-675.164	-61.479	-0.410	-0.173
-674.149	327.956	0.054	0.103
-673.135	-55.121	0.189	-0.085
-672.120	81.704	-0.136	-0.148
-671.105	-76.804	-0.332	0.117
-670.091	-172.041	-0.054	0.002
-669.076	-13.277	-0.156	-0.101
-668.062	-200.000	-0.044	0.256
-667.047	-107.353	0.187	-0.041
-666.032	-200.000	-0.020	-0.314
-665.018	63.728	0.063	-0.063
-664.003	47.809	0.123	-0.115
-662.989	-91.744	-0.313	-0.089
-661.974	160.922	0.196	0.275
-660.959	-97.137	-0.257	-0.067
-659.945	-15.999	0.107	0.068
-658.930	-164.149	-0.163	0.008
-657.916	-200.000	-0.018	-0.160
-656.901	-200.000	0.037	0.215
-655.886	800.000	-0.038	0.121
-654.872	-143.346	0.264	-0.025
-653.857	96.517	-0.061	-0.070
-652.843	-200.000	0.028	-0.154
-651.828	-133.157	-0.040	-0.005
-650.814	132.050	0.187	0.241
-649.799	-67.863	-0.169	0.066
-648.784	361.331	0.176	-0.354
-647.770	-186.165	-0.212	0.003
-646.755	264.201	-0.117	0.204
-645.741	-76.520	0.253	0.089
-644.726	-38.701	-0.340	0.180
-643.711	-163.300	-0.211	-0.010
-642.697	-71.025	-0.130	-0.049
-641.682	76.210	-0.116	-0.123
-640.668	-105.826	-0.326	0.074
-639.653	800.000	0.038	0.152
-638.638	-87.900	0.583	-0.175
-637.624	800.000	-0.021	0.067
-636.609	-44.437	-0.057	-0.029
-635.595	-142.053	-0.173	-0.017
-634.580	223.308	-0.062	-0.100
-633.565	-171.253	-0.036	-0.001
-632.551	495.266	-0.115	-0.264
-631.536	577.899	0.048	0.117
-630.522	-82.488	-0.122	-0.040
-629.507	-189.223	0.114	-0.001
-628.492	800.000	0.055	0.222
-627.478	82.178	0.161	0.175
-626.463	-79.696	-0.140	-0.047
-625.449	-59.068	-0.562	-0.243
-624.434	-142.504	-0.133	0.013
-623.419	70.088	-0.177	-0.183
-622.405	323.620	-0.069	-0.133
-621.390	-200.000	0.038	-0.206
-620.376	-141.368	-0.417	-0.042
-619.361	108.552	0.274	-0.328
-618.346	40.938	0.221	-0.200
-617.332	-32.407	-0.210	-0.117
-616.317	49.560	-0.118	-0.111
-615.303	800.000	-0.086	-0.249
-614.288	10.071	0.296	-0.225
-613.273	-200.000	0.139	0.000
-612.259	412.790	0.066	0.141
-611.244	236.684	-0.189	-0.314
-610.230	-200.000	0.003	-0.139
-609.215	32.176	-0.317	-0.273
-608.201	115.167	-0.098	0.120
-607.186	65.205	-0.206	0.208
-606.171	47.583	0.218	0.203
-605.157	53.373	0.060	0.057
-604.142	726.605	0.093	-0.248
-603.128	-89.897	-0.246	-0.072
-602.113	800.000	-0.098	0.325
-601.098	-159.974	-0.176	0.010
-600.084	32.379	0.107	0.092
-599.069	-40.848	0.099	0.051
-598.055	-119.030	-0.331	0.058
-597.040	199.346	0.065	-0.100
-596.025	100.395	-0.100	0.116
-595.011	19.824	-0.274	-0.221
-593.996	800.000	0.065	-0.209
-592.982	-36.750	0.290	0.156
-591.967	755.057	-0.136	0.366
-590.952	-136.342	-0.102	0.012
-589.938	-92.271	0.184	-0.052
-588.923	-55.601	-0.217	-0.097
-587.909	800.000	0.071	0.202
-586.894	316.289	0.157	-0.295
-585.879	27.787	0.118	-0.099
-584.865	293.773	-0.090	-0.165
-583.850	369.265	0.042	0.085
-582.836	-13.019	-0.127	0.082
-581.821	275.152	0.091	0.161
-580.806	309.659	0.113	0.210
-579.792	-0.662	0.052	0.037
-578.777	-200.000	-0.012	-0.154
-577.763	-27.089	-0.153	-0.089
-576.748	800.000	0.017	-0.052
-575.733	255.004	0.038	-0.065
-574.719	-40.407	-0.207	0.107
-573.704	0.981	-0.359	0.257
-572.690	-126.749	-0.379	-0.056
-571.675	-35.200	-0.388	-0.211
-570.661	8.333	-0.083	-0.062
-569.646	-200.000	0.021	0.291
-568.631	133.180	-0.053	-0.068
-567.617	-200.000	-0.021	-0.178
-566.602	3.762	-0.187	0.136
-565.588	221.669	-0.170	-0.273
-564.573	-200.000	0.020	-0.226
-563.558	281.691	0.113	-0.202
-562.544	177.236	0.246	-0.357
-561.529	15.000	0.018	0.014
-560.515	252.198	-0.150	-0.254
-559.500	800.000	0.076	0.262
-558.485	-18.776	-0.033	0.020
-557.471	121.436	0.062	-0.077
-556.456	-105.343	-0.370	0.084
-555.442	144.386	0.046	-0.062
-554.427	287.487	0.105	0.189
-553.412	-200.000	-0.006	-0.129
-552.398	7.646	-0.187	-0.139
-551.383	221.304	-0.043	-0.069
-550.369	-111.250	0.265	-0.054
-549.354	-200.000	-0.023	-0.260
-548.339	-97.683	0.171	0.044
-547.325	-111.431	0.021	-0.004
-546.310	6.620	0.017	0.012
-545.296	23.381	0.272	-0.223
-544.281	-85.893	-0.084	0.026
-543.266	-83.902	0.242	0.077
-542.252	-97.906	-0.276	-0.071
-541.237	-200.000	0.062	0.369
-540.223	31.903	-0.022	0.019
-539.208	-65.524	-0.224	0.090
-538.193	3.051	-0.045	0.033
-537.179	-200.000	-0.022	-0.109
-536.164	-200.000	-0.003	0.059
-535.150	-200.000	0.008	-0.071
-534.135	-200.000	-0.023	-0.132
-533.121	111.540	0.128	-0.154
-532.106	283.524	-0.028	-0.050
-531.091	421.323	-0.071	0.152
-530.077	60.767	0.120	-0.119
-529.062	449.660	-0.235	-0.517
-528.048	10.910	0.074	0.056
-527.033	553.150	-0.085	-0.204
-526.018	-22.541	0.107	0.064
-525.004	-110.585	-0.185	-0.038
-523.989	-200.000	-0.004	0.105
-522.975	-67.008	0.142	0.056
-521.960	-191.927	0.430	-0.004
-520.945	66.555	0.065	-0.066
-519.931	-152.962	-0.230	-0.016
-518.916	-89.732	-0.405	-0.118
-517.902	607.313	0.031	-0.077
-516.887	-95.499	-0.140	0.037
-515.872	-82.083	-0.376	0.122
-514.858	-20.638	0.200	0.122
-513.843	-75.238	-0.160	0.057
-512.829	-122.319	0.216	-0.035
-511.814	20.804	0.243	0.196
-510.799	-200.000	-0.059	-0.270
-509.785	96.460	-0.044	0.050
-508.770	-110.455	0.085	0.017
-507.756	33.258	-0.146	0.126
-506.741	674.070	0.101	0.262
-505.726	193.352	-0.088	0.133
-504.712	-200.000	-0.002	0.189
-503.697	-200.000	-0.014	-0.117
-502.683	-165.680	-0.045	-0.002
-501.668	-60.806	-0.101	0.042
-500.653	-200.000	0.004	-0.021
-499.639	57.489	0.086	0.083
-498.624	-33.723	0.306	-0.168
-497.610	237.720	-0.110	0.181
-496.595	800.000	-0.097	-0.302
-495.581	24.086	0.225	0.185
-494.566	-200.000	0.012	0.133
-493.551	172.865	0.142	0.204
-492.537	30.500	-0.112	-0.095
-491.522	159.340	0.300	0.416
-490.508	-99.027	-0.048	0.012
-489.493	-144.883	0.132	-0.012
-488.478	-13.188	0.303	0.196
-487.464	-200.000	0.094	-0.530
-486.449	66.246	-0.238	-0.240
-485.435	199.457	0.110	-0.168
-484.420	-84.110	0.259	0.082
-483.405	368.070	-0.077	0.154
-482.391	16.732	0.073	0.058
-481.376	-15.930	-0.061	-0.038
-480.362	-49.044	-0.207	0.099
-479.347	-102.560	-0.153	-0.036
-478.332	9.132	-0.372	0.280
-477.318	-200.000	0.000	0.154
-476.303	516.580	-0.088	0.206
-475.289	586.875	0.050	-0.122
-474.274	800.000	-0.019	-0.067
-473.259	-50.416	-0.197	-0.093
-472.245	-54.665	-0.124	-0.056
-471.230	43.873	0.204	0.186
-470.216	120.537	0.039	0.049
-469.201	-54.931	-0.085	0.038
-468.186	120.657	0.074	0.091
-467.172	1.033	0.290	-0.207
-466.157	-36.117	0.136	-0.073
-465.143	-68.904	-0.127	-0.049
-464.128	-48.735	0.134	-0.064
-463.113	-200.000	0.041	0.258
-462.099	612.557	-0.102	-0.253
-461.084	-28.013	-0.353	0.203
-460.070	-83.160	0.040	-0.013
-459.055	800.000	0.015	-0.062
-458.040	-44.376	-0.250	0.124
-457.026	86.917	-0.065	0.071
-456.011	250.008	0.217	-0.367
-454.997	-128.382	0.083	-0.012
-453.982	38.350	-0.223	0.198
-452.968	-62.467	0.185	-0.076
-451.953	68.018	-0.138	-0.141
-450.938	506.462	-0.057	-0.131
-449.924	418.347	-0.129	0.274
-448.909	-12.906	0.183	0.118
-447.895	159.212	0.067	0.092
-446.880	-200.000	0.014	0.232
-445.865	-4.039	-0.226	-0.156
-444.851	116.535	-0.213	-0.259
-443.836	800.000	0.067	-0.280
-442.822	76.224	-0.347	0.365
-441.807	-94.715	-0.199	-0.054
-440.792	673.845	0.094	-0.242
-439.778	-148.940	-0.218	0.017
-438.763	-168.052	0.191	0.007
-437.749	-200.000	-0.019	0.311
-436.734	1.118	-0.204	-0.146
-435.719	277.756	0.270	-0.478
-434.705	-65.498	-0.143	-0.057
-433.690	-200.000	0.010	0.078
-432.676	-136.015	0.169	-0.020
-431.661	630.503	-0.046	-0.115
-430.646	443.152	0.045	-0.098
-429.632	-200.000	0.072	-0.320
-428.617	-60.524	-0.258	-0.109
-427.603	7.523	0.125	0.093
-426.588	-200.000	0.090	0.574
-425.573	36.817	0.032	0.028
-424.559	-184.177	0.332	0.005
-423.544	-106.932	-0.198	0.044
-422.530	68.795	0.127	0.129
-421.515	-200.000	0.017	0.191
-420.500	268.857	-0.111	0.194
-419.486	264.555	-0.064	0.111
-418.471	282.441	0.130	0.232
-417.457	296.828	-0.219	-0.398
-416.442	-177.890	-0.180	0.004
-415.428	-116.583	-0.123	-0.023
-414.413	-33.435	-0.141	0.078
-413.398	-200.000	0.020	0.348
-412.384	800.000	0.120	0.385
-411.369	-200.000	-0.027	0.260
-410.355	-200.000	0.023	-0.286
-409.340	-36.629	-0.170	0.090
-408.325	-91.851	-0.211	0.059
-407.311	375.994	0.139	0.281
-406.296	-109.486	-0.221	0.046
-405.282	-109.921	0.403	0.084
-404.267	149.161	-0.215	-0.288
-403.252	800.000	-0.038	-0.156
-402.238	-69.694	-0.325	0.123
-401.223	230.114	0.245	-0.397
-400.209	800.000	-0.065	-0.197
-399.194	107.629	-0.211	0.249
-398.179	800.000	0.068	-0.287
-397.165	583.976	-0.084	-0.204
-396.150	78.170	0.134	-0.142
-395.136	800.000	-0.038	0.138
-394.121	66.997	0.166	0.167
-393.106	-137.083	-0.444	-0.050
-392.092	206.957	-0.090	0.140
-391.077	361.107	-0.035	0.070
-390.063	-200.000	0.009	0.330
-389.048	-200.000	-0.005	0.383
-388.033	-200.000	0.004	0.031
-387.019	-38.084	0.042	-0.022
-386.004	66.223	0.363	-0.365
-384.990	-133.495	0.346	0.043
-383.975	-200.000	-0.041	0.229
-382.960	701.752	-0.027	0.070
-381.946	-200.000	0.024	0.123
-380.931	98.500	0.059	-0.067
-379.917	278.715	0.135	-0.238
-378.902	-200.000	-0.044	0.281
-377.888	126.105	-0.175	0.219
-376.873	76.450	-0.320	-0.336
-375.858	-200.000	0.009	-0.220
-374.844	-66.074	0.170	0.067
-373.829	170.544	-0.136	0.193
-372.815	341.294	-0.056	0.108
-371.800	69.121	-0.056	-0.057
-370.785	55.295	0.103	-0.099
-369.771	180.605	0.104	0.151
-368.756	240.865	0.111	0.183
-367.742	196.480	0.008	-0.012
-366.727	466.309	0.022	0.050
-365.712	27.016	-0.055	0.045
-364.698	800.000	0.068	-0.247
-363.683	346.826	0.082	-0.160
-362.669	278.901	-0.074	0.130
-361.654	-52.958	-0.108	0.049
-360.639	-69.702	-0.210	-0.080
-359.625	-17.321	-0.172	0.107
-358.610	-200.000	-0.016	-0.371
-357.596	-72.117	0.431	-0.158
-356.581	145.343	-0.175	-0.232
-355.566	70.474	-0.137	0.140
-354.552	-182.791	0.101	-0.002
-353.537	42.950	-0.133	0.120
-352.523	-23.554	0.293	0.174
-351.508	14.299	0.103	-0.080
-350.493	-139.623	0.162	-0.017
-349.479	-80.758	-0.500	0.164
-348.464	-200.000	0.045	-0.229
-347.450	-158.549	-0.198	-0.011
-346.435	88.325	-0.359	-0.394
-345.420	-200.000	0.021	-0.241
-344.406	-17.980	-0.147	0.091
-343.391	-134.224	-0.295	-0.036
-342.377	279.031	0.199	0.351
-341.362	95.918	-0.086	0.098
-340.348	-22.814	0.132	-0.079
-339.333	-22.677	-0.124	0.074
-338.318	339.195	0.036	-0.070
-337.304	295.013	0.076	-0.137
-336.289	-200.000	-0.008	0.126
-335.275	800.000	-0.058	-0.190
-334.260	0.970	-0.133	-0.094
-333.245	-75.021	-0.275	0.097
-332.231	-62.777	0.269	0.110
-331.216	107.022	0.274	-0.322
-330.202	-61.936	0.142	-0.059
-329.187	-200.000	-0.000	-0.015
-328.172	105.668	0.144	0.169
-327.158	-200.000	0.017	0.226
-326.143	-200.000	-0.055	0.397
-325.129	2.916	-0.235	0.168
-324.114	-32.987	0.111	-0.061
-323.099	206.456	0.087	-0.133
-322.085	-100.493	-0.104	0.025
-321.070	-49.505	0.105	0.049
-320.056	800.000	-0.077	0.288
-319.041	-5.321	0.135	0.092
-318.026	-200.000	0.012	-0.101
-317.012	2.833	0.420	0.301
-315.997	-153.196	0.309	-0.021
-314.983	-200.000	0.081	0.392
-313.968	476.398	-0.087	0.194
-312.953	-13.812	0.133	-0.085
-311.939	244.341	-0.138	-0.229
-310.924	721.957	0.041	0.107
-309.910	62.326	-0.171	0.169
-308.895	-52.858	0.193	-0.088
-307.880	99.030	-0.175	-0.200
-306.866	800.000	0.062	0.175
-305.851	-61.684	0.095	-0.039
-304.837	-200.000	0.010	-0.145
-303.822	53.618	0.289	-0.274
-302.807	-200.000	0.031	-0.166
-301.793	-164.040	-0.262	0.012
-300.778	-51.561	0.363	-0.167
-299.764	-65.601	-0.043	-0.017
-298.749	-107.247	0.351	0.076
-297.735	-37.220	-0.153	0.081
-296.720	139.497	0.084	-0.109
-295.705	27.264	0.119	-0.099
-294.691	-21.126	-0.283	0.171
-293.676	440.804	-0.114	0.247
-292.662	-200.000	0.030	0.212
-291.647	-200.000	-0.071	0.405
-290.632	286.795	0.026	0.046
-289.618	540.294	-0.134	-0.314
-288.603	145.167	0.119	-0.157
-287.589	-77.406	-0.155	-0.053
-286.574	99.466	0.187	-0.214
-285.559	-147.135	-0.139	0.012
-284.545	135.568	0.116	0.149
-283.530	-106.343	0.161	-0.036
-282.516	38.582	-0.119	0.105
-281.501	131.098	0.108	0.137
-280.486	-200.000	-0.043	0.292
-279.472	689.412	-0.151	-0.391
-278.457	-101.963	-0.166	-0.040
-277.443	-52.771	0.107	0.048
-276.428	-200.000	-0.005	-0.351
-275.413	-114.190	0.426	0.081
-274.399	-97.978	-0.220	0.056
-273.384	-200.000	0.014	0.218
-272.370	-200.000	-0.017	0.215
-271.355	800.000	-0.060	0.177
-270.340	-200.000	-0.032	0.207
-269.326	-61.840	-0.273	0.113
-268.311	290.766	0.069	0.124
-267.297	-200.000	0.036	-0.388
-266.282	-92.850	0.383	0.106
-265.267	-7.950	0.322	-0.214
-264.253	252.521	-0.108	0.182
-263.238	220.249	-0.049	-0.078
-262.224	-30.783	-0.200	0.111
-261.209	14.591	-0.040	0.031
-260.195	-200.000	-0.019	0.195
-259.180	198.150	-0.058	0.088
-258.165	-58.259	0.368	-0.158
-257.151	-200.000	-0.039	-0.209
-256.136	800.000	0.012	0.050
-255.122	-11.095	0.358	0.233
-254.107	800.000	-0.063	-0.241
-253.092	-58.438	0.205	-0.088
-252.078	-76.430	0.281	0.097
-251.063	800.000	0.135	0.389
-250.049	393.890	0.027	-0.055
-249.034	122.750	-0.125	0.154
-248.019	112.463	0.102	0.121
-247.005	-8.302	0.119	0.079
-245.990	-108.973	0.156	-0.033
-244.976	-163.336	0.107	0.005
-243.961	-137.209	0.155	-0.017
-242.946	-163.838	-0.361	-0.017
-241.932	222.199	0.256	-0.406
-240.917	-26.553	0.309	0.178
-239.903	-18.825	0.182	-0.112
-238.888	0.961	0.230	0.163
-237.873	238.133	-0.116	0.190
-236.859	-200.000	0.003	0.069
-235.844	800.000	0.108	-0.316
-234.830	-97.438	-0.278	0.071
-233.815	-94.856	-0.324	0.087
-232.800	87.780	0.203	0.222
-231.786	-121.070	0.206	-0.034
-230.771	-64.641	0.259	-0.104
-229.757	536.360	-0.063	0.147
-228.742	800.000	-0.159	0.535
-227.727	-24.104	0.254	-0.149
-226.713	-126.467	0.476	0.070
-225.698	552.788	0.168	0.398
-224.684	325.455	0.023	0.043
-223.669	-200.000	0.012	-0.096
-222.655	152.816	0.022	-0.030
-221.640	553.280	0.074	-0.175
-220.625	146.597	0.110	-0.145
-219.611	242.864	0.243	0.401
-218.596	-85.726	0.044	0.013
-217.582	48.295	-0.149	-0.137
-216.567	-57.667	-0.106	0.046
-215.552	-200.000	-0.086	0.468
-214.538	-111.952	0.099	-0.020
-213.523	248.242	0.151	-0.251
-212.509	800.000	-0.054	0.155
-211.494	-200.000	0.022	-0.144
-210.479	-32.357	-0.289	0.159
-209.465	135.067	-0.237	-0.303
-208.450	525.125	0.087	0.201
-207.436	-187.185	0.543	-0.007
-206.421	-200.000	-0.035	0.306
-205.406	100.057	0.034	-0.039
-204.392	-200.000	0.028	-0.185
-203.377	-39.044	0.046	0.024
-202.363	-106.955	0.330	0.072
-201.348	-166.171	0.203	-0.008
-200.333	-59.870	-0.120	0.050
-199.319	-74.519	0.110	0.039
-198.304	-200.000	-0.003	-0.215
-197.290	139.351	0.141	-0.182
-196.275	33.999	-0.017	0.015
-195.260	7.942	-0.362	0.267
-194.246	309.823	-0.026	0.048
-193.231	128.047	0.259	0.324
-192.217	484.120	0.220	-0.491
-191.202	-16.665	0.059	0.037
-190.187	-119.093	0.134	0.023
-189.173	745.297	0.161	-0.427
-188.158	-130.880	-0.231	0.030
-187.144	-73.532	0.315	-0.113
-186.129	-62.537	0.245	0.100
-185.114	-145.168	0.128	0.011
-184.100	231.478	0.116	-0.187
-183.085	-46.047	-0.370	-0.179
-182.071	-200.000	-0.015	-0.319
-181.056	-25.854	-0.249	-0.144
-180.042	-27.907	0.020	-0.011
-179.027	-120.068	-0.546	0.092
-178.012	-171.829	-0.305	-0.010
-176.998	-200.000	-0.002	-0.384
-175.983	-89.427	-0.219	-0.063
-174.969	800.000	0.080	0.267
-173.954	-44.431	-0.076	-0.038
-172.939	-108.890	0.196	0.041
-171.925	-86.821	0.338	-0.101
-170.910	234.700	0.228	-0.369
-169.896	-30.161	0.084	-0.047
-168.881	-171.904	0.523	0.017
-167.866	800.000	-0.024	0.097
-166.852	-57.405	-0.312	-0.135
-165.837	-200.000	0.016	0.184
-164.823	-33.165	-0.152	-0.083
-163.808	-69.067	0.118	0.044
-162.793	127.041	0.176	0.220
-161.779	35.045	0.163	0.140
-160.764	-44.618	-0.157	0.077
-159.750	-200.000	0.084	-0.400
-158.735	-122.071	0.311	0.050
-157.720	-200.000	0.052	0.229
-156.706	800.000	0.088	-0.261
-155.691	44.373	-0.176	-0.159
-154.677	-50.399	-0.218	0.101
-153.662	-110.382	0.031	-0.006
-152.647	51.785	0.038	-0.035
-151.633	177.576	0.050	-0.072
-150.618	-74.041	0.266	-0.095
-149.604	71.344	-0.104	0.106
-148.589	-57.657	-0.135	-0.058
-147.574	800.000	0.122	-0.419
-146.560	6.195	-0.138	-0.100
-145.545	61.670	0.132	-0.129
-144.531	-138.963	0.340	-0.036
-143.516	800.000	0.033	-0.124
-142.502	-121.440	0.181	0.030
-141.487	-42.665	0.108	0.054
-140.472	-200.000	-0.025	-0.346
-139.458	236.353	0.078	-0.127
-138.443	-200.000	0.017	-0.075
-137.429	9.304	-0.244	-0.181
-136.414	95.517	0.219	0.245
-135.399	800.000	0.061	-0.250
-134.385	-75.821	0.256	0.089
-133.370	65.730	0.111	-0.111
-132.356	40.947	0.298	-0.264
-131.341	800.000	0.050	-0.158
-130.326	-200.000	-0.255	0.000
-129.312	-15.461	-0.045	0.028
-128.297	-13.560	-0.143	-0.091
-127.283	42.412	0.131	0.117
-126.268	667.129	-0.083	-0.210
-125.253	-200.000	-0.070	-0.404
-124.239	129.104	0.056	0.070
-123.224	1.993	0.305	0.216
-122.210	-11.430	0.091	-0.059
-121.195	593.437	-0.055	-0.134
