DTS Sentinel unit serial number:	SN413079Multiplexer serial number:	ORYXHardware model number:	OX4-SRSoftware version number:	ORYX F/W v4.00 Oryx Data Collector v3.7.2.0data status	okinstallation	princeton_trtdifferential loss correction	single-endedforward channel	channel 3reverse channel	N/Adate	2019/09/18time	05:24:35forward acquisition time	60.00reverse acquisition time	0.00gamma	496.2192k internal	0.2343k external	0.2343temperature offset calibration	0.9947default loss term (dB/km)	0.3790temperature slope calibration	1.0000multiplexer offset coefficient	1.0000multiplexer slope coefficient	1.0000fibre end	0.00T internal ref (°C)	23.44T ext. ref 1 (°C)	0.19T ext. ref 2 (°C)	17.19length (m)	temperature (°C)	Stokes	anti-Stokes-747.200	-91.198	0.087	0.025
-746.185	274.933	-0.177	0.315
-745.171	800.000	-0.100	0.416
-744.156	-200.000	0.017	0.188
-743.142	-121.038	-0.226	0.038
-742.127	147.640	-0.256	0.345
-741.112	-135.209	-0.094	-0.011
-740.098	-52.060	-0.165	0.077
-739.083	-40.249	-0.292	0.152
-738.069	97.307	-0.302	0.347
-737.054	7.247	0.546	0.408
-736.039	596.310	0.113	-0.280
-735.025	147.729	0.117	0.158
-734.010	-200.000	-0.038	-0.305
-732.996	800.000	-0.051	-0.210
-731.981	-9.654	0.207	-0.138
-730.966	-200.000	-0.038	-0.363
-729.952	-73.958	0.135	-0.049
-728.937	800.000	-0.020	-0.068
-727.923	-78.442	-0.232	-0.080
-726.908	-63.837	0.176	-0.072
-725.894	800.000	-0.101	0.320
-724.879	-151.566	0.232	0.017
-723.864	307.848	0.096	-0.180
-722.850	29.478	-0.196	-0.167
-721.835	-66.879	-0.233	0.092
-720.821	-33.161	-0.234	-0.130
-719.806	236.188	-0.168	-0.278
-718.791	-200.000	0.007	0.093
-717.777	665.622	-0.111	0.288
-716.762	-85.245	0.292	-0.091
-715.748	30.161	-0.250	0.214
-714.733	-132.521	-0.219	0.028
-713.718	-101.211	0.018	-0.004
-712.704	-200.000	-0.182	-0.001
-711.689	-117.886	-0.160	-0.029
-710.675	-120.008	-0.124	-0.021
-709.660	-10.753	-0.122	-0.081
-708.645	800.000	-0.034	0.128
-707.631	-75.478	-0.195	0.069
-706.616	-200.000	0.016	-0.218
-705.602	800.000	0.078	-0.300
-704.587	43.302	0.386	0.353
-703.572	140.580	-0.259	-0.343
-702.558	216.743	0.183	0.291
-701.543	-200.000	0.049	0.245
-700.529	61.549	0.161	-0.160
-699.514	-200.000	-0.053	-0.251
-698.499	3.091	-0.206	-0.150
-697.485	25.492	-0.215	-0.179
-696.470	-112.209	-0.265	-0.053
-695.456	78.370	0.320	0.341
-694.441	-200.000	0.002	-0.063
-693.426	61.192	0.225	-0.223
-692.412	15.138	0.138	0.108
-691.397	-123.745	0.122	0.019
-690.383	-200.000	-0.011	-0.158
-689.368	342.659	0.068	0.133
-688.354	417.551	-0.027	0.058
-687.339	400.712	0.058	0.122
-686.324	-200.000	0.044	0.460
-685.310	213.940	-0.048	-0.076
-684.295	177.088	-0.201	0.293
-683.281	42.387	-0.329	-0.299
-682.266	113.376	0.173	-0.210
-681.251	-150.115	-0.014	0.001
-680.237	800.000	0.063	-0.189
-679.222	-63.537	-0.047	-0.019
-678.208	185.431	0.104	-0.154
-677.193	7.258	0.168	0.125
-676.178	252.366	-0.096	-0.163
-675.164	-200.000	-0.027	0.245
-674.149	281.640	0.159	0.285
-673.135	168.701	0.142	0.202
-672.120	-2.609	-0.244	-0.171
-671.105	-121.699	0.330	-0.055
-670.091	213.819	0.241	-0.380
-669.076	254.836	0.129	0.220
-668.062	-105.366	0.037	0.008
-667.047	-136.835	0.051	0.006
-666.032	69.268	0.111	-0.114
-665.018	84.621	0.109	0.120
-664.003	-140.535	0.212	-0.022
-662.989	473.165	0.051	-0.115
-661.974	82.159	0.213	0.230
-660.959	-146.937	0.071	0.006
-659.945	25.837	0.121	0.100
-658.930	104.570	-0.031	0.037
-657.916	-165.852	0.066	-0.003
-656.901	-144.192	-0.190	-0.018
-655.886	800.000	0.083	0.235
-654.872	324.575	0.118	-0.226
-653.857	136.222	-0.049	-0.063
-652.843	68.328	0.080	-0.082
-651.828	287.230	0.013	0.024
-650.814	1.043	0.042	-0.030
-649.799	-0.004	-0.178	-0.127
-648.784	-23.884	0.056	-0.033
-647.770	-121.583	0.209	-0.035
-646.755	-200.000	0.038	-0.194
-645.741	136.413	0.064	-0.083
-644.726	-124.712	0.297	-0.046
-643.711	-134.522	-0.241	-0.029
-642.697	59.953	0.146	0.144
-641.682	35.229	0.172	0.151
-640.668	-58.308	-0.311	0.135
-639.653	115.387	0.184	0.224
-638.638	-110.928	-0.566	0.116
-637.624	800.000	-0.143	0.394
-636.609	146.626	0.308	0.413
-635.595	-158.512	0.229	0.013
-634.580	800.000	0.087	0.368
-633.565	800.000	0.023	0.097
-632.551	-77.771	0.254	0.087
-631.536	-200.000	-0.033	-0.295
-630.522	-159.493	0.198	0.011
-629.507	172.771	0.044	0.064
-628.492	306.341	-0.159	-0.295
-627.478	-74.630	-0.109	-0.039
-626.463	150.373	0.048	-0.065
-625.449	-200.000	-0.002	-0.166
-624.434	602.597	-0.147	-0.364
-623.419	800.000	-0.052	0.166
-622.405	-48.649	-0.203	-0.097
-621.390	255.391	0.075	0.129
-620.376	121.974	0.039	-0.048
-619.361	530.179	-0.051	-0.120
-618.346	20.698	0.221	0.178
-617.332	15.278	0.290	-0.226
-616.317	100.371	0.113	-0.130
-615.303	53.841	-0.365	-0.349
-614.288	-9.119	-0.185	-0.123
-613.273	-171.593	0.121	-0.004
-612.259	661.375	0.060	-0.153
-611.244	800.000	-0.082	0.254
-610.230	300.689	-0.025	0.046
-609.215	176.321	0.141	0.204
-608.201	800.000	-0.056	-0.188
-607.186	298.182	-0.058	0.107
-606.171	-157.599	0.039	-0.002
-605.157	-200.000	0.022	-0.561
-604.142	-9.775	0.297	0.197
-603.128	-200.000	-0.052	0.317
-602.113	90.433	-0.121	-0.135
-601.098	169.121	0.081	0.115
-600.084	344.977	0.146	0.286
-599.069	-19.823	-0.309	0.190
-598.055	259.811	0.039	-0.067
-597.040	11.468	-0.168	0.128
-596.025	31.121	-0.072	-0.061
-595.011	160.617	-0.148	-0.205
-593.996	684.938	-0.027	-0.070
-592.982	-46.264	0.392	0.192
-591.967	7.508	-0.059	-0.044
-590.952	386.556	-0.055	-0.113
-589.938	172.098	0.144	0.206
-588.923	800.000	-0.123	0.337
-587.909	800.000	0.062	-0.179
-586.894	-69.306	-0.260	-0.100
-585.879	72.800	0.120	0.124
-584.865	-200.000	0.016	-0.166
-583.850	55.568	-0.198	-0.191
-582.836	-200.000	-0.001	0.032
-581.821	800.000	0.019	0.063
-580.806	712.703	0.044	-0.116
-579.792	800.000	0.058	-0.199
-578.777	-200.000	0.072	-0.507
-577.763	307.571	-0.175	-0.324
-576.748	-200.000	0.027	0.118
-575.733	-36.094	0.043	0.023
-574.719	800.000	0.062	-0.172
-573.704	-200.000	0.009	0.185
-572.690	108.554	-0.250	-0.297
-571.675	-83.698	0.160	0.051
-570.661	518.236	0.075	-0.174
-569.646	531.723	-0.088	-0.206
-568.631	-138.771	0.178	0.019
-567.617	800.000	-0.033	-0.128
-566.602	-200.000	0.071	-0.372
-565.588	-65.959	-0.294	-0.117
-564.573	-46.529	0.090	0.044
-563.558	31.946	-0.060	0.051
-562.544	-54.871	-0.155	0.069
-561.529	-200.000	0.029	-0.134
-560.515	-157.527	-0.052	-0.003
-559.500	-105.052	-0.106	0.024
-558.485	221.310	-0.120	-0.191
-557.471	56.541	-0.216	0.209
-556.456	429.180	0.126	0.270
-555.442	70.535	0.045	0.046
-554.427	-40.368	-0.314	-0.162
-553.412	-25.269	-0.413	-0.243
-552.398	-15.187	0.155	0.099
-551.383	-91.622	0.355	-0.101
-550.369	-110.039	0.012	0.003
-549.354	110.395	-0.118	-0.141
-548.339	182.849	-0.046	0.067
-547.325	123.369	0.136	-0.169
-546.310	-200.000	-0.036	0.310
-545.296	-130.646	0.288	-0.039
-544.281	559.925	-0.043	-0.103
-543.266	-3.638	0.229	-0.158
-542.252	296.918	-0.067	0.123
-541.237	-136.812	0.135	0.015
-540.223	-24.890	-0.350	-0.206
-539.208	800.000	-0.082	-0.271
-538.193	-39.935	0.073	-0.038
-537.179	-200.000	-0.009	0.257
-536.164	800.000	-0.021	-0.070
-535.150	61.006	0.125	-0.123
-534.135	68.429	0.124	0.127
-533.121	-200.000	-0.032	0.141
-532.106	25.037	-0.111	0.092
-531.091	-111.410	-0.068	-0.014
-530.077	617.388	0.101	0.251
-529.062	536.398	-0.102	0.241
-528.048	800.000	0.046	-0.193
-527.033	121.530	-0.085	-0.105
-526.018	-38.717	-0.272	0.142
-525.004	16.206	0.245	-0.192
-523.989	50.554	0.029	-0.027
-522.975	-98.709	0.301	-0.076
-521.960	10.145	0.114	0.086
-520.945	7.799	0.220	0.164
-519.931	-122.971	-0.262	0.042
-518.916	52.408	-0.104	0.099
-517.902	-200.000	-0.033	0.241
-516.887	105.380	-0.195	-0.228
-515.872	-116.978	0.270	-0.049
-514.858	-43.762	0.164	-0.082
-513.843	8.420	0.120	-0.089
-512.829	-172.100	-0.219	0.007
-511.814	-64.793	-0.371	-0.149
-510.799	200.463	0.087	-0.133
-509.785	38.819	0.165	0.146
-508.770	269.688	-0.115	-0.201
-507.756	-36.574	0.062	0.033
-506.741	-200.000	-0.018	-0.141
-505.726	356.578	-0.034	0.068
-504.712	521.719	0.152	-0.354
-503.697	-153.794	0.126	0.009
-502.683	228.163	-0.155	-0.250
-501.668	-200.000	-0.006	-0.176
-500.653	-81.751	-0.061	-0.020
-499.639	-54.874	-0.044	-0.020
-498.624	-200.000	-0.026	0.181
-497.610	-55.693	0.133	0.059
-496.595	-92.971	0.239	0.066
-495.581	-164.584	-0.247	-0.011
-494.566	679.829	-0.087	-0.225
-493.551	-18.192	-0.028	0.018
-492.537	557.931	0.150	0.358
-491.522	-126.293	0.211	0.031
-490.508	135.417	0.065	0.084
-489.493	151.584	0.164	-0.222
-488.478	-200.000	0.016	0.233
-487.464	-44.747	0.054	-0.027
-486.449	-200.000	-0.022	-0.111
-485.435	-111.338	-0.380	0.077
-484.420	305.585	-0.076	-0.141
-483.405	-141.619	0.208	-0.021
-482.391	210.513	0.150	0.234
-481.376	63.261	-0.097	-0.096
-480.362	187.135	-0.234	-0.346
-479.347	-112.257	0.526	-0.105
-478.332	-94.037	-0.117	0.032
-477.318	-53.213	0.202	0.092
-476.303	362.021	0.058	-0.115
-475.289	199.766	-0.095	0.145
-474.274	-200.000	0.002	0.090
-473.259	-118.828	0.511	0.089
-472.245	60.392	0.104	0.102
-471.230	800.000	0.105	-0.353
-470.216	-151.737	0.121	0.009
-469.201	-110.601	-0.146	-0.030
-468.186	167.837	0.158	-0.223
-467.172	-186.668	-0.286	0.004
-466.157	-180.121	-0.211	-0.004
-465.143	-116.804	-0.149	0.027
-464.128	47.796	-0.175	-0.161
-463.113	-17.486	-0.137	0.085
-462.099	-50.294	-0.172	-0.081
-461.084	-13.596	0.109	0.070
-460.070	111.041	0.166	0.198
-459.055	158.357	0.082	-0.113
-458.040	-63.526	0.108	0.044
-457.026	425.350	0.135	-0.287
-456.011	-200.000	0.009	0.127
-454.997	-64.012	0.220	-0.089
-453.982	12.151	0.126	0.096
-452.968	163.335	0.145	0.202
-451.953	208.402	0.127	0.197
-450.938	232.572	0.100	-0.163
-449.924	-39.633	-0.251	-0.130
-448.909	-143.635	-0.304	-0.029
-447.895	-200.000	-0.037	0.482
-446.880	-103.889	0.191	-0.044
-445.865	-121.363	0.150	0.025
-444.851	-20.930	0.304	0.184
-443.836	800.000	0.079	-0.301
-442.822	72.027	-0.256	-0.264
-441.807	-200.000	0.010	0.194
-440.792	725.909	0.175	0.462
-439.778	-200.000	0.024	-0.300
-438.763	-8.105	-0.244	0.162
-437.749	-92.749	0.311	0.086
-436.734	800.000	-0.060	-0.204
-435.719	-118.764	-0.262	0.046
-434.705	-113.892	-0.447	0.086
-433.690	800.000	0.053	-0.158
-432.676	214.318	0.138	0.216
-431.661	219.779	-0.140	0.222
-430.646	-7.496	0.201	0.135
-429.632	-200.000	0.003	0.147
-428.617	-56.187	-0.158	-0.069
-427.603	800.000	0.074	-0.223
-426.588	8.519	0.272	0.202
-425.573	90.442	0.168	0.186
-424.559	197.079	0.170	0.257
-423.544	800.000	0.156	0.441
-422.530	41.624	-0.033	0.030
-421.515	-63.852	-0.357	0.144
-420.500	-91.831	-0.103	0.029
-419.486	-91.170	0.220	-0.062
-418.471	-105.129	0.219	0.050
-417.457	-200.000	0.027	-0.151
-416.442	-0.654	0.185	-0.130
-415.428	-9.092	-0.022	-0.015
-414.413	81.837	-0.227	0.243
-413.398	54.555	-0.173	0.165
-412.384	-200.000	-0.032	-0.403
-411.369	59.050	-0.224	-0.218
-410.355	65.291	0.346	-0.346
-409.340	-200.000	0.016	-0.221
-408.325	-81.802	0.374	0.121
-407.311	-153.719	-0.118	0.008
-406.296	-38.698	0.086	0.045
-405.282	17.457	0.101	0.079
-404.267	342.794	0.079	0.152
-403.252	305.255	-0.037	0.069
-402.238	-42.975	-0.044	0.022
-401.223	176.728	-0.244	-0.350
-400.209	-48.263	-0.248	-0.118
-399.194	358.977	0.071	0.141
-398.179	41.094	0.226	0.202
-397.165	-200.000	-0.002	-0.304
-396.150	-96.540	0.150	-0.039
-395.136	-150.243	0.120	-0.009
-394.121	-200.000	-0.014	0.145
-393.106	-200.000	0.036	-0.367
-392.092	490.992	0.026	-0.058
-391.077	-21.621	0.234	-0.141
-390.063	-2.746	0.073	0.050
-389.048	-53.629	0.250	0.113
-388.033	-196.966	0.046	0.000
-387.019	319.266	-0.063	-0.117
-386.004	554.130	0.048	0.113
-384.990	800.000	0.010	-0.042
-383.975	26.468	-0.325	0.269
-382.960	-18.027	-0.013	-0.008
-381.946	49.389	0.302	0.281
-380.931	-18.248	0.262	0.162
-379.917	800.000	-0.081	-0.245
-378.902	-200.000	-0.056	-0.312
-377.888	-200.000	-0.020	-0.188
-376.873	-18.764	-0.335	0.206
-375.858	-54.172	-0.313	0.141
-374.844	-97.541	0.259	0.066
-373.829	-103.595	-0.183	-0.042
-372.815	85.940	-0.104	-0.113
-371.800	-150.919	-0.109	0.008
-370.785	-51.437	-0.147	-0.068
-369.771	-20.430	0.275	0.167
-368.756	-200.000	-0.060	0.300
-367.742	-35.389	-0.183	0.098
-366.727	-81.177	0.037	-0.012
-365.712	-61.140	-0.144	0.060
-364.698	-139.786	0.040	0.004
-363.683	68.218	-0.111	0.112
-362.669	-200.000	-0.034	0.200
-361.654	-200.000	0.012	0.064
-360.639	-200.000	0.067	0.303
-359.625	170.938	0.038	-0.054
-358.610	-200.000	0.124	-0.593
-357.596	-200.000	-0.037	-0.164
-356.581	-150.408	-0.204	0.015
-355.566	445.245	-0.109	0.235
-354.552	-19.831	-0.300	0.183
-353.537	800.000	0.046	0.182
-352.523	257.065	0.032	0.054
-351.508	800.000	-0.080	-0.225
-350.493	149.767	-0.202	0.270
-349.479	-200.000	0.011	0.095
-348.464	800.000	0.064	-0.189
-347.450	-200.000	0.070	0.363
-346.435	-74.900	-0.253	0.089
-345.420	-47.717	0.087	0.042
-344.406	117.328	-0.114	-0.138
-343.391	135.947	-0.039	0.050
-342.377	32.624	0.126	-0.107
-341.362	-91.834	0.243	0.068
-340.348	233.020	-0.148	-0.240
-339.333	114.922	0.060	-0.072
-338.318	-87.573	0.191	0.057
-337.304	-34.858	0.320	-0.172
-336.289	110.568	0.069	0.082
-335.275	-54.535	-0.448	0.200
-334.260	-46.936	-0.188	0.091
-333.245	-200.000	-0.043	0.196
-332.231	-37.853	-0.423	0.221
-331.216	720.909	-0.068	0.177
-330.202	-58.864	0.187	0.080
-329.187	-200.000	0.004	-0.156
-328.172	169.732	0.112	0.157
-327.158	800.000	0.060	0.187
-326.143	55.251	0.258	0.246
-325.129	-68.727	0.279	0.106
-324.114	-200.000	-0.003	-0.025
-323.099	800.000	0.128	-0.354
-322.085	-0.389	0.257	-0.180
-321.070	800.000	0.092	-0.260
-320.056	-162.916	-0.188	-0.009
-319.041	160.295	-0.170	0.233
-318.026	50.975	0.066	0.061
-317.012	-200.000	0.033	-0.183
-315.997	-47.145	-0.164	-0.079
-314.983	-62.005	0.055	-0.023
-313.968	-30.349	-0.167	0.094
-312.953	-34.875	-0.147	-0.079
-311.939	-21.622	-0.227	-0.136
-310.924	-200.000	-0.028	0.174
-309.910	-200.000	0.043	0.226
-308.895	31.591	-0.160	-0.135
-307.880	800.000	0.044	-0.166
-306.866	-39.726	0.237	-0.122
-305.851	-200.000	0.060	-0.318
-304.837	-178.613	-0.138	0.003
-303.822	-156.311	-0.029	0.002
-302.807	-30.486	0.137	0.076
-301.793	252.761	-0.058	0.098
-300.778	-9.480	0.048	-0.032
-299.764	458.250	-0.029	-0.062
-298.749	-66.458	0.211	0.082
-297.735	493.370	0.077	0.173
-296.720	800.000	-0.074	-0.215
-295.705	115.806	-0.175	-0.211
-294.691	-48.344	-0.182	-0.086
-293.676	-190.732	-0.124	-0.001
-292.662	-70.546	-0.274	0.102
-291.647	5.453	-0.266	-0.193
-290.632	-200.000	-0.013	0.094
-289.618	-68.446	0.301	0.115
-288.603	-10.205	0.006	0.004
-287.589	-94.495	0.314	0.084
-286.574	-54.425	0.445	0.198
-285.559	800.000	-0.058	-0.232
-284.545	372.627	-0.155	0.309
-283.530	388.515	-0.226	0.460
-282.516	122.398	0.043	0.053
-281.501	-55.922	-0.355	0.156
-280.486	24.703	-0.070	0.057
-279.472	790.991	-0.089	-0.242
-278.457	-97.726	-0.127	-0.032
-277.443	800.000	0.157	0.645
-276.428	-2.156	0.203	0.140
-275.413	66.703	-0.155	-0.155
-274.399	183.585	-0.084	0.122
-273.384	789.458	0.127	-0.344
-272.370	54.085	0.482	-0.456
-271.355	-200.000	-0.017	0.107
-270.340	-200.000	-0.010	0.291
-269.326	-200.000	-0.058	0.275
-268.311	-169.438	0.082	0.003
-267.297	-40.041	0.034	0.018
-266.282	-200.000	-0.036	0.220
-265.267	-23.722	0.185	-0.109
-264.253	-83.617	-0.103	-0.032
-263.238	-200.000	0.017	-0.243
-262.224	195.392	0.116	-0.172
-261.209	800.000	-0.058	0.188
-260.195	83.106	0.069	0.074
-259.180	-143.153	-0.172	-0.016
-258.165	-200.000	0.023	-0.245
-257.151	-200.000	0.009	0.116
-256.136	-200.000	-0.005	-0.251
-255.122	27.132	-0.120	0.099
-254.107	800.000	-0.068	-0.205
-253.092	-125.930	-0.175	-0.026
-252.078	-104.535	0.255	-0.058
-251.063	-200.000	0.005	-0.029
-250.049	-164.113	-0.431	0.020
-249.034	167.535	-0.016	-0.022
-248.019	-38.151	-0.272	-0.142
-247.005	-59.274	0.218	-0.092
-245.990	-200.000	-0.060	-0.374
-244.976	-35.728	0.110	-0.059
-243.961	-200.000	-0.081	-0.388
-242.946	390.563	0.089	-0.181
-241.932	748.120	0.081	-0.215
-240.917	-82.550	-0.125	0.040
-239.903	-200.000	0.043	-0.440
-238.888	-48.923	0.393	0.185
-237.873	-54.014	0.084	-0.037
-236.859	320.206	-0.226	-0.421
-235.844	-120.517	-0.064	0.011
-234.830	800.000	0.087	0.270
-233.815	47.133	-0.091	0.083
-232.800	800.000	-0.079	-0.219
-231.786	-66.801	-0.293	0.114
-230.771	77.140	-0.151	0.158
-229.757	-10.526	-0.215	-0.140
-228.742	-83.406	0.233	-0.073
-227.727	800.000	-0.049	0.202
-226.713	1.192	0.133	0.094
-225.698	-200.000	0.075	-0.403
-224.684	-54.373	0.305	-0.136
-223.669	-8.825	-0.260	0.171
-222.655	-146.623	-0.203	-0.017
-221.640	12.190	-0.198	-0.149
-220.625	20.299	0.235	0.187
-219.611	129.579	-0.136	0.171
-218.596	120.807	0.033	0.040
-217.582	-68.574	0.198	-0.075
-216.567	81.327	0.089	-0.094
-215.552	187.271	-0.103	0.151
-214.538	-91.886	-0.454	0.126
-213.523	296.239	0.063	0.113
-212.509	7.150	-0.116	-0.085
-211.494	33.889	0.126	-0.107
-210.479	-200.000	-0.031	0.155
-209.465	-55.327	0.236	0.104
-208.450	202.220	-0.129	0.196
-207.436	-192.510	0.130	-0.001
-206.421	437.070	-0.053	-0.114
-205.406	-78.011	0.045	-0.015
-204.392	-200.000	-0.001	0.326
-203.377	-13.595	-0.052	0.033
-202.363	800.000	-0.072	0.238
-201.348	-112.204	0.194	0.038
-200.333	-145.662	0.173	0.015
-199.319	89.137	0.171	0.187
-198.304	413.722	0.069	0.144
-197.290	67.189	-0.052	-0.052
-196.275	800.000	0.074	0.212
-195.260	-18.388	-0.063	-0.039
-194.246	800.000	0.068	0.193
-193.231	-133.038	-0.100	-0.012
-192.217	54.698	-0.145	-0.137
-191.202	-99.159	-0.322	-0.080
-190.187	-48.964	0.294	-0.138
-189.173	79.843	-0.036	0.038
-188.158	38.607	0.080	-0.070
-187.144	-39.519	-0.172	0.088
-186.129	53.823	-0.316	0.297
-185.114	545.856	0.062	-0.144
-184.100	14.773	-0.166	0.127
-183.085	229.091	-0.092	0.148
-182.071	-184.644	-0.026	-0.000
-181.056	36.789	0.138	-0.119
-180.042	-84.061	-0.164	0.051
-179.027	-157.101	-0.303	0.018
-178.012	-14.527	0.362	-0.228
-176.998	-21.922	-0.153	-0.091
-175.983	119.349	-0.123	0.149
-174.969	656.629	-0.081	0.203
-173.954	-1.013	0.177	-0.122
-172.939	800.000	-0.051	-0.161
-171.925	205.644	-0.022	-0.034
-170.910	800.000	-0.054	0.188
-169.896	556.859	-0.154	0.364
-168.881	-82.960	0.171	-0.054
-167.866	6.133	0.048	0.035
-166.852	-79.980	-0.271	-0.089
-165.837	301.085	0.083	0.150
-164.823	362.198	-0.006	-0.011
-163.808	-103.461	0.198	0.046
-162.793	-89.072	0.269	-0.078
-161.779	147.361	-0.128	-0.169
-160.764	-65.399	-0.358	-0.141
-159.750	-200.000	-0.055	0.244
-158.735	-200.000	0.039	-0.204
-157.720	25.768	0.037	0.030
-156.706	288.318	0.066	0.117
-155.691	342.928	0.092	0.177
-154.677	48.661	0.199	0.183
-153.662	800.000	-0.126	-0.358
-152.647	52.333	0.020	-0.018
-151.633	-44.617	0.075	0.037
-150.618	-1.709	0.054	0.037
-149.604	45.480	-0.193	0.175
-148.589	793.408	-0.067	0.181
-147.574	800.000	0.062	-0.216
-146.560	-200.000	-0.033	0.285
-145.545	147.525	-0.229	0.302
-144.531	-70.892	-0.298	0.110
-143.516	-200.000	0.007	-0.298
-142.502	125.679	0.351	-0.434
-141.487	97.103	-0.164	0.184
-140.472	800.000	-0.086	0.261
-139.458	53.025	0.053	-0.050
-138.443	19.477	-0.176	-0.138
-137.429	-151.410	0.312	0.023
-136.414	-95.700	-0.222	0.058
-135.399	-56.595	0.248	-0.107
-134.385	787.227	-0.180	0.482
-133.370	-200.000	-0.058	0.293
-132.356	-200.000	-0.010	0.083
-131.341	145.824	0.321	0.421
-130.326	96.784	0.021	-0.024
-129.312	-149.493	-0.445	0.034
-128.297	163.220	-0.116	-0.160
-127.283	-97.440	0.253	0.064
-126.268	164.986	-0.186	0.257
-125.253	-85.307	0.308	-0.094
-124.239	549.609	0.081	0.191
-123.224	22.946	-0.298	0.239
-122.210	-200.000	-0.046	0.218
-121.195	-167.661	0.196	0.008
-120.180	-58.942	0.278	-0.118
