DTS Sentinel unit serial number:	SN413079Multiplexer serial number:	ORYXHardware model number:	OX4-SRSoftware version number:	ORYX F/W v4.00 Oryx Data Collector v3.7.2.0data status	okinstallation	princeton_trtdifferential loss correction	single-endedforward channel	channel 3reverse channel	N/Adate	2019/09/18time	22:48:35forward acquisition time	60.00reverse acquisition time	0.00gamma	496.2192k internal	0.2344k external	0.2344temperature offset calibration	0.9993default loss term (dB/km)	0.3790temperature slope calibration	1.0000multiplexer offset coefficient	1.0000multiplexer slope coefficient	1.0000fibre end	0.00T internal ref (°C)	24.06T ext. ref 1 (°C)	0.78T ext. ref 2 (°C)	18.00length (m)	temperature (°C)	Stokes	anti-Stokes-747.200	268.122	0.051	-0.089
-746.185	800.000	-0.097	0.419
-745.171	-91.616	-0.072	-0.020
-744.156	-45.598	-0.220	0.109
-743.142	0.855	-0.076	0.054
-742.127	-77.056	-0.182	0.064
-741.112	80.906	-0.255	0.276
-740.098	-200.000	-0.001	-0.042
-739.083	28.856	-0.142	-0.120
-738.069	-93.985	-0.125	0.034
-737.054	-200.000	0.011	0.135
-736.039	-12.417	0.168	-0.110
-735.025	800.000	-0.025	0.079
-734.010	149.962	0.102	0.138
-732.996	-143.394	-0.408	-0.039
-731.981	800.000	-0.101	0.344
-730.966	800.000	-0.050	0.193
-729.952	-43.296	-0.362	0.183
-728.937	116.018	-0.082	-0.100
-727.923	187.387	-0.308	0.459
-726.908	59.756	-0.335	0.331
-725.894	-11.053	0.021	0.014
-724.879	-157.806	0.154	0.009
-723.864	142.144	-0.109	0.145
-722.850	800.000	0.134	0.502
-721.835	309.107	-0.089	-0.166
-720.821	-94.213	0.068	-0.019
-719.806	800.000	-0.067	-0.221
-718.791	133.458	-0.061	-0.079
-717.777	-70.152	-0.124	0.047
-716.762	-156.404	0.192	-0.012
-715.748	-63.298	-0.215	-0.089
-714.733	-200.000	0.029	-0.193
-713.718	-200.000	-0.006	-0.025
-712.704	-200.000	0.010	-0.397
-711.689	-200.000	0.045	-0.232
-710.675	65.924	0.015	-0.015
-709.660	255.457	-0.106	-0.182
-708.645	-127.697	0.130	-0.019
-707.631	38.970	-0.106	0.095
-706.616	-88.696	-0.127	-0.038
-705.602	29.698	0.171	-0.146
-704.587	425.798	-0.074	-0.159
-703.572	-79.039	0.263	0.089
-702.558	75.789	0.215	0.227
-701.543	800.000	-0.031	0.135
-700.529	800.000	-0.053	-0.203
-699.514	-200.000	0.013	0.314
-698.499	800.000	0.114	0.384
-697.485	-118.328	-0.210	-0.037
-696.470	-181.079	0.265	-0.005
-695.456	-90.385	0.064	0.019
-694.441	76.351	-0.104	0.110
-693.426	-200.000	0.054	-0.244
-692.412	51.439	0.037	-0.035
-691.397	-200.000	0.015	0.113
-690.383	-19.195	0.037	0.023
-689.368	196.191	0.106	-0.161
-688.354	-29.081	-0.210	-0.121
-687.339	-60.855	0.286	-0.121
-686.324	-114.930	-0.161	0.031
-685.310	-200.000	-0.043	-0.220
-684.295	7.160	-0.514	-0.383
-683.281	249.165	0.110	-0.186
-682.266	-16.538	0.369	0.233
-681.251	199.213	0.086	0.132
-680.237	-90.553	-0.208	-0.060
-679.222	800.000	-0.054	0.207
-678.208	-200.000	0.026	0.291
-677.193	124.895	0.040	-0.051
-676.178	-76.712	-0.127	-0.044
-675.164	179.273	0.092	-0.135
-674.149	-45.353	-0.284	-0.141
-673.135	800.000	0.083	-0.229
-672.120	623.386	-0.066	-0.166
-671.105	-184.669	-0.354	-0.006
-670.091	114.435	0.104	-0.126
-669.076	368.712	0.132	-0.265
-668.062	-49.413	0.235	0.112
-667.047	-166.596	-0.187	-0.008
-666.032	-146.143	-0.249	0.022
-665.018	-200.000	0.009	-0.108
-664.003	134.636	-0.152	-0.197
-662.989	-25.443	-0.058	0.034
-661.974	156.240	0.245	0.338
-660.959	-84.738	0.245	0.077
-659.945	-47.247	0.029	0.014
-658.930	99.290	-0.105	-0.121
-657.916	232.570	-0.107	0.175
-656.901	-139.988	-0.228	0.024
-655.886	-187.377	-0.270	0.004
-654.872	345.395	-0.150	-0.295
-653.857	-10.429	-0.260	0.172
-652.843	112.960	0.134	-0.161
-651.828	-87.567	0.328	-0.099
-650.814	3.086	-0.161	-0.117
-649.799	359.384	0.096	0.191
-648.784	137.737	-0.257	0.335
-647.770	17.894	0.257	-0.204
-646.755	-79.889	-0.037	-0.012
-645.741	43.956	0.099	0.091
-644.726	-28.665	-0.124	-0.071
-643.711	47.728	0.161	-0.150
-642.697	-188.944	-0.373	-0.004
-641.682	180.134	0.178	-0.261
-640.668	-82.047	0.273	0.089
-639.653	63.050	0.144	0.144
-638.638	-1.104	0.231	-0.163
-637.624	-200.000	0.034	0.172
-636.609	-95.053	0.293	-0.079
-635.595	28.472	0.294	0.248
-634.580	-200.000	-0.096	-0.000
-633.565	203.204	0.118	-0.182
-632.551	84.930	-0.097	0.106
-631.536	138.823	0.211	0.276
-630.522	-71.209	0.363	0.136
-629.507	-200.000	0.020	-0.337
-628.492	-12.517	0.158	0.102
-627.478	358.670	-0.029	-0.057
-626.463	-52.115	-0.152	-0.070
-625.449	70.427	-0.169	0.174
-624.434	-29.716	-0.048	-0.027
-623.419	90.542	-0.341	-0.381
-622.405	-116.068	0.200	0.037
-621.390	256.351	0.201	0.344
-620.376	31.206	0.357	-0.305
-619.361	-200.000	-0.062	-0.278
-618.346	6.429	0.421	-0.312
-617.332	-105.689	-0.190	0.043
-616.317	70.716	0.168	-0.173
-615.303	-200.000	-0.007	0.170
-614.288	181.156	0.107	-0.156
-613.273	-108.652	-0.194	-0.042
-612.259	-51.231	0.117	0.054
-611.244	-200.000	-0.003	-0.088
-610.230	-88.838	-0.242	-0.072
-609.215	149.888	0.040	0.054
-608.201	65.955	0.149	-0.151
-607.186	-9.504	-0.273	0.182
-606.171	-81.638	-0.386	-0.126
-605.157	-98.303	-0.137	-0.035
-604.142	286.693	-0.093	-0.167
-603.128	-131.606	0.182	0.024
-602.113	275.895	-0.100	0.176
-601.098	22.509	-0.062	0.050
-600.084	800.000	0.078	-0.274
-599.069	-107.274	-0.142	-0.031
-598.055	800.000	0.062	-0.175
-597.040	-58.309	-0.077	0.033
-596.025	83.921	-0.249	0.270
-595.011	-18.051	0.103	0.064
-593.996	-124.412	-0.181	-0.028
-592.982	-200.000	0.034	-0.186
-591.967	165.908	-0.208	-0.293
-590.952	-200.000	0.035	-0.323
-589.938	-65.943	-0.532	-0.211
-588.923	25.769	0.052	-0.043
-587.909	345.991	-0.047	0.091
-586.894	-200.000	-0.017	0.153
-585.879	800.000	-0.012	0.039
-584.865	-70.816	-0.247	-0.092
-583.850	409.620	0.096	-0.202
-582.836	478.838	0.080	-0.179
-581.821	-47.320	0.225	-0.109
-580.806	-146.415	-0.223	0.019
-579.792	369.142	0.061	-0.124
-578.777	-200.000	0.064	-0.314
-577.763	303.928	0.181	0.334
-576.748	-24.296	0.201	0.119
-575.733	16.106	0.113	0.089
-574.719	800.000	0.050	-0.177
-573.704	60.842	-0.133	0.131
-572.690	41.249	-0.226	0.203
-571.675	-114.743	0.249	-0.047
-570.661	375.854	0.076	-0.154
-569.646	130.529	-0.050	-0.063
-568.631	15.108	-0.328	-0.255
-567.617	96.391	-0.342	-0.389
-566.602	30.473	-0.151	0.129
-565.588	349.358	0.094	-0.185
-564.573	439.515	-0.095	-0.207
-563.558	55.504	-0.126	-0.121
-562.544	-200.000	0.014	-0.220
-561.529	525.743	0.090	0.209
-560.515	221.197	0.232	-0.370
-559.500	-200.000	-0.030	-0.155
-558.485	800.000	-0.098	0.301
-557.471	117.432	0.246	0.300
-556.456	-200.000	0.002	0.378
-555.442	-66.796	0.295	0.116
-554.427	-49.699	-0.406	0.192
-553.412	-200.000	-0.074	0.334
-552.398	800.000	0.074	0.258
-551.383	-6.805	-0.145	0.098
-550.369	-163.362	-0.189	0.009
-549.354	-200.000	-0.019	0.222
-548.339	800.000	-0.074	-0.295
-547.325	-200.000	-0.020	-0.093
-546.310	331.092	0.125	0.238
-545.296	-183.317	-0.084	0.001
-544.281	417.190	0.140	-0.296
-543.266	20.813	-0.262	0.211
-542.252	15.322	0.180	0.140
-541.237	291.423	-0.190	0.344
-540.223	-149.476	0.292	-0.023
-539.208	-35.244	-0.177	-0.096
-538.193	-200.000	-0.013	-0.323
-537.179	295.323	-0.175	-0.318
-536.164	219.716	-0.019	0.030
-535.150	-22.076	-0.119	0.072
-534.135	-110.431	-0.276	0.057
-533.121	53.468	0.123	0.117
-532.106	-33.263	0.162	-0.089
-531.091	-104.215	0.167	0.038
-530.077	-163.123	0.101	-0.005
-529.062	-200.000	-0.048	0.376
-528.048	-132.825	-0.147	-0.019
-527.033	-187.757	-0.089	0.001
-526.018	-0.392	-0.063	0.044
-525.004	3.312	0.110	-0.079
-523.989	-132.476	0.289	-0.037
-522.975	-200.000	-0.003	0.127
-521.960	-200.000	0.026	0.233
-520.945	-140.661	-0.297	-0.030
-519.931	-13.644	0.165	0.106
-518.916	800.000	-0.031	-0.113
-517.902	-200.000	-0.037	0.199
-516.887	-76.172	-0.390	0.136
-515.872	-6.271	-0.258	0.175
-514.858	52.953	-0.154	-0.146
-513.843	-79.188	0.196	-0.066
-512.829	49.580	-0.084	0.079
-511.814	376.296	0.236	0.478
-510.799	167.235	-0.122	0.171
-509.785	99.272	0.157	0.181
-508.770	-200.000	0.093	0.558
-507.756	-200.000	0.040	-0.221
-506.741	800.000	0.070	-0.281
-505.726	708.775	0.084	0.220
-504.712	-111.512	0.075	0.015
-503.697	119.678	-0.099	-0.122
-502.683	167.664	0.048	-0.067
-501.668	76.437	-0.259	-0.272
-500.653	-161.755	-0.135	0.007
-499.639	-54.852	0.080	0.036
-498.624	-39.847	-0.185	-0.096
-497.610	-28.279	-0.110	0.063
-496.595	552.195	0.015	0.035
-495.581	-116.421	-0.271	-0.050
-494.566	-93.721	0.365	-0.100
-493.551	154.519	0.186	0.253
-492.537	118.456	0.086	-0.106
-491.522	-95.487	0.343	0.091
-490.508	-91.903	-0.358	0.101
-489.493	88.505	-0.067	0.074
-488.478	-89.952	0.115	0.033
-487.464	-127.300	-0.167	-0.024
-486.449	-142.447	0.227	0.022
-485.435	-81.213	-0.241	-0.079
-484.420	-200.000	0.019	-0.227
-483.405	-200.000	0.037	-0.177
-482.391	591.724	-0.113	-0.277
-481.376	-200.000	-0.031	-0.438
-480.362	-200.000	0.084	-0.376
-479.347	800.000	-0.068	-0.271
-478.332	-70.055	0.336	-0.127
-477.318	214.009	0.084	0.132
-476.303	-86.518	0.148	0.045
-475.289	24.909	0.082	0.067
-474.274	14.403	-0.194	-0.150
-473.259	-200.000	-0.011	0.061
-472.245	-49.200	-0.656	-0.311
-471.230	800.000	-0.051	0.220
-470.216	110.499	0.154	-0.184
-469.201	395.465	-0.023	-0.047
-468.186	-200.000	-0.002	-0.029
-467.172	-108.592	-0.233	-0.050
-466.157	-20.557	-0.011	-0.007
-465.143	-102.490	-0.245	0.058
-464.128	-195.855	0.226	0.002
-463.113	800.000	-0.056	0.186
-462.099	-37.765	0.108	0.057
-461.084	41.775	-0.230	-0.206
-460.070	165.935	-0.121	-0.169
-459.055	800.000	-0.015	0.064
-458.040	-3.600	0.225	0.155
-457.026	209.734	-0.188	0.291
-456.011	324.660	-0.176	-0.332
-454.997	-118.256	-0.191	-0.034
-453.982	-200.000	0.034	-0.163
-452.968	800.000	-0.025	0.087
-451.953	-39.310	-0.074	-0.038
-450.938	-200.000	0.008	-0.119
-449.924	-118.189	0.298	-0.052
-448.909	-1.427	0.160	-0.112
-447.895	-116.568	0.210	-0.038
-446.880	706.727	0.116	0.302
-445.865	-108.067	0.131	0.028
-444.851	-200.000	-0.011	-0.120
-443.836	235.892	0.203	-0.333
-442.822	78.970	0.162	0.172
-441.807	-172.876	-0.098	-0.003
-440.792	-77.726	0.271	-0.093
-439.778	-112.340	0.220	0.043
-438.763	-155.306	-0.167	0.011
-437.749	-84.531	-0.193	0.060
-436.734	-90.973	-0.250	0.071
-435.719	336.940	-0.107	0.205
-434.705	-200.000	-0.004	0.374
-433.690	-29.786	-0.179	0.101
-432.676	-163.884	0.137	-0.006
-431.661	299.796	0.199	0.362
-430.646	137.925	-0.135	0.175
-429.632	-200.000	-0.075	0.000
-428.617	-200.000	0.009	-0.142
-427.603	-200.000	0.060	-0.389
-426.588	31.700	-0.169	0.144
-425.573	-200.000	-0.041	0.189
-424.559	-125.186	0.047	0.007
-423.544	159.413	0.106	-0.146
-422.530	93.993	-0.311	-0.349
-421.515	800.000	0.067	0.263
-420.500	-200.000	-0.033	-0.196
-419.486	179.237	0.150	-0.216
-418.471	692.208	-0.108	-0.279
-417.457	169.960	0.136	0.193
-416.442	-16.288	0.205	0.128
-415.428	-129.807	-0.286	0.039
-414.413	307.884	0.094	-0.174
-413.398	-200.000	0.009	-0.244
-412.384	173.086	-0.112	-0.159
-411.369	222.786	0.102	-0.163
-410.355	-76.828	-0.375	-0.130
-409.340	-129.273	0.100	-0.014
-408.325	-200.000	-0.011	-0.217
-407.311	538.533	0.073	0.172
-406.296	800.000	-0.073	-0.216
-405.282	-200.000	-0.016	-0.156
-404.267	-159.848	-0.347	-0.019
-403.252	103.553	0.148	0.171
-402.238	52.098	-0.280	0.263
-401.223	682.268	-0.015	0.038
-400.209	-200.000	-0.070	-0.391
-399.194	-50.310	0.417	0.195
-398.179	-12.442	-0.279	-0.180
-397.165	800.000	-0.105	0.287
-396.150	60.093	0.238	0.232
-395.136	484.258	-0.077	-0.174
-394.121	-119.758	-0.164	0.028
-393.106	-126.129	-0.490	0.072
-392.092	-82.232	0.029	0.009
-391.077	800.000	0.117	0.349
-390.063	-46.541	-0.367	-0.178
-389.048	-84.906	0.072	0.022
-388.033	428.228	-0.044	-0.094
-387.019	-200.000	0.112	-0.503
-386.004	19.192	0.133	0.105
-384.990	-48.860	0.352	-0.167
-383.975	-200.000	-0.005	-0.375
-382.960	165.270	-0.178	0.248
-381.946	-200.000	0.029	0.250
-380.931	45.636	0.290	0.265
-379.917	25.861	-0.198	-0.163
-378.902	-162.724	-0.437	-0.021
-377.888	-69.477	0.017	-0.006
-376.873	-109.424	-0.156	0.032
-375.858	-176.582	0.331	0.008
-374.844	-200.000	0.010	0.094
-373.829	401.898	-0.049	0.102
-372.815	-42.192	0.034	0.017
-371.800	635.304	-0.123	-0.308
-370.785	15.694	0.243	-0.188
-369.771	89.821	0.066	0.073
-368.756	-3.533	-0.264	0.181
-367.742	-200.000	-0.054	0.000
-366.727	-113.850	0.104	0.020
-365.712	59.426	-0.112	0.109
-364.698	104.515	-0.158	-0.183
-363.683	-153.437	-0.159	0.011
-362.669	800.000	0.066	0.213
-361.654	321.530	-0.098	-0.183
-360.639	-120.967	0.285	0.047
-359.625	-35.413	-0.165	-0.088
-358.610	-147.616	-0.291	-0.024
-357.596	260.595	-0.087	-0.149
-356.581	522.380	0.098	0.227
-355.566	751.344	0.123	0.328
-354.552	-200.000	-0.045	-0.226
-353.537	-69.797	0.252	-0.095
-352.523	-200.000	0.027	0.168
-351.508	-200.000	0.010	-0.178
-350.493	33.423	0.075	-0.064
-349.479	26.951	0.291	0.241
-348.464	294.347	0.006	0.011
-347.450	254.681	0.184	0.311
-346.435	800.000	0.038	0.157
-345.420	218.408	-0.123	-0.193
-344.406	-39.851	0.203	-0.105
-343.391	-102.865	0.305	-0.072
-342.377	-200.000	-0.014	0.187
-341.362	90.574	0.117	0.129
-340.348	-16.992	0.155	0.097
-339.333	-200.000	-0.026	-0.248
-338.318	-3.833	-0.452	0.309
-337.304	-85.154	0.255	0.079
-336.289	394.177	0.081	-0.165
-335.275	800.000	-0.030	-0.112
-334.260	-21.284	0.106	0.064
-333.245	74.967	0.196	0.203
-332.231	-200.000	-0.031	0.368
-331.216	-174.507	-0.256	-0.007
-330.202	-44.081	0.176	-0.087
-329.187	800.000	0.089	-0.319
-328.172	-34.685	-0.286	-0.154
-327.158	-96.217	0.051	0.013
-326.143	775.295	-0.097	0.261
-325.129	-121.615	0.219	-0.036
-324.114	-63.894	0.455	-0.183
-323.099	1.295	0.052	0.037
-322.085	39.436	0.111	-0.098
-321.070	-200.000	0.002	-0.026
-320.056	800.000	-0.061	0.250
-319.041	63.364	0.158	0.156
-318.026	-1.705	0.151	-0.104
-317.012	-92.978	0.170	-0.047
-315.997	-29.005	-0.457	0.258
-314.983	800.000	-0.083	-0.231
-313.968	313.012	0.085	0.158
-312.953	780.586	-0.071	-0.192
-311.939	-24.468	-0.155	0.091
-310.924	123.174	0.119	0.147
-309.910	6.954	0.194	-0.142
-308.895	-24.535	0.269	-0.158
-307.880	-54.895	0.271	-0.120
-306.866	-44.737	-0.333	-0.163
-305.851	716.449	0.127	-0.330
-304.837	800.000	0.054	0.206
-303.822	-200.000	-0.005	0.114
-302.807	34.573	-0.135	-0.116
-301.793	72.185	-0.208	-0.213
-300.778	-134.102	0.130	-0.016
-299.764	-172.962	0.389	0.012
-298.749	43.081	0.099	-0.089
-297.735	800.000	-0.087	0.247
-296.720	314.242	0.171	0.316
-295.705	-52.247	0.135	-0.061
-294.691	-200.000	-0.054	0.258
-293.676	590.310	0.096	-0.232
-292.662	-90.382	0.108	0.031
-291.647	387.512	0.123	-0.249
-290.632	479.786	-0.146	-0.326
-289.618	302.209	-0.100	-0.182
-288.603	-200.000	0.011	0.128
-287.589	-200.000	0.011	0.333
-286.574	43.506	-0.261	-0.235
-285.559	-19.149	-0.290	-0.177
-284.545	451.480	0.084	-0.183
-283.530	-27.431	-0.147	-0.084
-282.516	-158.697	0.260	-0.015
-281.501	-122.516	0.104	0.017
-280.486	164.660	0.119	-0.164
-279.472	715.555	-0.032	-0.085
-278.457	-200.000	0.077	0.382
-277.443	-22.565	-0.136	-0.081
-276.428	-107.045	0.421	-0.091
-275.413	691.820	-0.108	0.277
-274.399	-200.000	-0.011	-0.079
-273.384	44.526	0.113	0.102
-272.370	325.194	-0.108	0.202
-271.355	109.922	0.077	0.091
-270.340	-110.000	-0.119	0.024
-269.326	236.374	0.124	0.202
-268.311	800.000	0.083	0.238
-267.297	-50.092	-0.122	-0.057
-266.282	-120.155	0.099	-0.017
-265.267	-200.000	-0.040	-0.195
-264.253	103.008	0.258	0.297
-263.238	-39.800	0.276	-0.141
-262.224	800.000	-0.044	0.179
-261.209	-52.864	-0.196	-0.089
-260.195	324.205	0.058	0.109
-259.180	-119.007	-0.355	-0.061
-258.165	137.594	0.083	0.107
-257.151	392.906	0.044	0.090
-256.136	800.000	-0.038	-0.113
-255.122	-100.343	0.273	0.067
-254.107	6.825	0.210	-0.153
-253.092	-56.845	-0.257	-0.111
-252.078	667.184	-0.151	0.382
-251.063	-50.275	-0.016	0.008
-250.049	-200.000	0.051	-0.224
-249.034	80.854	-0.057	0.060
-248.019	-200.000	-0.000	0.140
-247.005	-4.472	0.228	-0.155
-245.990	-200.000	0.003	-0.016
-244.976	-55.242	0.358	-0.158
-243.961	353.159	0.140	0.273
-242.946	-113.979	-0.326	-0.062
-241.932	354.307	0.077	-0.149
-240.917	342.037	-0.090	0.173
-239.903	-200.000	-0.021	0.192
-238.888	-200.000	0.021	0.101
-237.873	-108.288	-0.287	-0.061
-236.859	56.067	0.149	0.142
-235.844	133.190	0.211	0.267
-234.830	-55.367	-0.169	-0.074
-233.815	95.372	-0.065	-0.073
-232.800	120.184	-0.079	-0.096
-231.786	32.468	-0.156	-0.132
-230.771	131.548	-0.155	-0.196
-229.757	-133.992	0.122	0.015
-228.742	209.845	0.153	0.235
-227.727	-200.000	-0.012	0.061
-226.713	479.045	-0.066	0.146
-225.698	155.464	0.075	0.101
-224.684	-200.000	-0.012	0.057
-223.669	-200.000	-0.048	-0.390
-222.655	-45.248	-0.073	0.036
-221.640	-200.000	-0.009	0.350
-220.625	97.835	0.244	-0.275
-219.611	-200.000	0.017	0.224
-218.596	-200.000	-0.016	-0.126
-217.582	5.582	0.195	-0.141
-216.567	-73.648	0.336	-0.120
-215.552	498.951	0.177	0.399
-214.538	-169.905	-0.054	0.002
-213.523	-193.813	-0.116	0.001
-212.509	-0.745	0.336	0.233
-211.494	76.900	-0.186	0.193
-210.479	-117.268	-0.068	0.012
-209.465	1.526	0.014	-0.010
-208.450	222.248	-0.108	-0.171
-207.436	382.493	0.051	0.102
-206.421	-46.363	0.245	-0.118
-205.406	800.000	0.064	-0.194
-204.392	122.226	-0.145	-0.177
-203.377	251.129	0.194	0.323
-202.363	-19.616	-0.110	0.067
-201.348	800.000	-0.083	-0.258
-200.333	-14.421	-0.165	-0.104
-199.319	-39.653	0.193	0.099
-198.304	-200.000	0.015	0.181
-197.290	430.393	-0.011	-0.024
-196.275	79.141	-0.155	0.162
-195.260	-200.000	-0.042	0.310
-194.246	-13.822	-0.281	0.178
-193.231	116.615	0.094	-0.113
-192.217	-49.350	0.162	0.076
-191.202	106.193	-0.118	-0.137
-190.187	1.928	-0.208	-0.147
-189.173	-38.987	0.312	-0.161
-188.158	129.905	-0.128	-0.160
-187.144	608.124	-0.123	0.300
-186.129	-120.993	0.264	-0.043
-185.114	-32.073	-0.256	0.140
-184.100	-25.267	-0.247	0.143
-183.085	-42.522	0.160	0.080
-182.071	-167.171	-0.171	0.007
-181.056	76.661	-0.224	0.232
-180.042	76.402	0.296	0.307
-179.027	214.256	0.107	0.165
-178.012	527.762	-0.049	-0.113
-176.998	-31.712	-0.257	0.141
-175.983	-112.646	-0.276	-0.054
-174.969	269.048	-0.016	-0.027
-173.954	95.155	0.134	0.149
-172.939	800.000	0.131	0.395
-171.925	592.851	0.037	-0.089
-170.910	-100.081	0.302	0.074
-169.896	-156.547	-0.402	0.024
-168.881	-200.000	-0.016	-0.281
-167.866	278.345	-0.149	0.260
-166.852	800.000	0.036	-0.119
-165.837	220.177	-0.038	-0.059
-164.823	-62.917	-0.204	0.083
-163.808	-96.357	0.206	0.053
-162.793	116.216	-0.081	0.097
-161.779	29.839	-0.141	0.118
-160.764	800.000	0.134	-0.401
-159.750	-104.378	0.148	0.034
-158.735	108.353	-0.226	-0.263
-157.720	247.189	-0.160	0.264
-156.706	199.563	-0.150	-0.225
-155.691	134.606	0.112	0.142
-154.677	-200.000	0.026	-0.204
-153.662	-149.428	0.149	0.012
-152.647	-200.000	0.012	-0.211
-151.633	1.327	-0.101	0.071
-150.618	108.719	-0.084	0.099
-149.604	-23.706	0.253	0.148
-148.589	-200.000	0.009	0.446
-147.574	158.863	-0.218	0.296
-146.560	486.199	0.072	-0.161
-145.545	166.344	-0.149	-0.206
-144.531	-69.027	0.137	0.052
-143.516	800.000	0.060	0.226
-142.502	-200.000	-0.024	0.169
-141.487	-200.000	0.003	0.049
-140.472	-158.934	0.092	-0.005
-139.458	182.382	0.049	-0.071
-138.443	-200.000	0.055	0.242
-137.429	-79.693	0.266	0.088
-136.414	800.000	-0.055	-0.210
-135.399	-200.000	-0.000	0.394
-134.385	-89.358	0.192	-0.055
-133.370	-90.884	0.304	0.086
-132.356	-200.000	-0.009	0.207
-131.341	11.969	0.277	0.208
-130.326	59.429	0.035	-0.033
-129.312	-138.375	0.259	-0.028
-128.297	-81.280	0.185	0.059
-127.283	74.683	-0.181	-0.186
-126.268	800.000	0.072	0.200
-125.253	-96.394	0.055	-0.014
-124.239	-200.000	0.014	0.142
-123.224	-33.302	0.479	0.259
-122.210	412.094	0.006	-0.013
-121.195	-166.650	0.138	0.006
