DTS Sentinel unit serial number:	SN413079Multiplexer serial number:	ORYXHardware model number:	OX4-SRSoftware version number:	ORYX F/W v4.00 Oryx Data Collector v3.7.2.0data status	okinstallation	princeton_trtdifferential loss correction	single-endedforward channel	channel 3reverse channel	N/Adate	2019/09/13time	20:48:35forward acquisition time	60.00reverse acquisition time	0.00gamma	496.2192k internal	0.2333k external	0.2333temperature offset calibration	1.0061default loss term (dB/km)	0.3790temperature slope calibration	1.0000multiplexer offset coefficient	1.0000multiplexer slope coefficient	1.0000fibre end	0.00T internal ref (°C)	28.81T ext. ref 1 (°C)	3.23T ext. ref 2 (°C)	23.36length (m)	temperature (°C)	Stokes	anti-Stokes-747.200	404.965	-0.056	0.120
-746.185	-95.631	0.241	-0.065
-745.171	24.730	0.182	0.152
-744.156	-139.522	-0.316	-0.034
-743.142	169.138	0.199	-0.286
-742.127	-163.130	0.095	0.005
-741.112	479.556	0.146	0.332
-740.098	-200.000	-0.020	-0.203
-739.083	-200.000	-0.006	-0.265
-738.069	35.529	0.109	0.096
-737.054	-50.251	-0.177	-0.084
-736.039	-67.815	-0.275	-0.108
-735.025	-124.298	0.151	0.024
-734.010	77.657	-0.283	-0.303
-732.996	135.278	0.191	-0.250
-731.981	800.000	0.024	-0.088
-730.966	-72.809	-0.186	0.069
-729.952	-42.304	0.615	-0.316
-728.937	547.431	-0.075	-0.180
-727.923	-200.000	-0.043	-0.280
-726.908	-120.143	-0.367	0.063
-725.894	-27.937	0.099	0.057
-724.879	-200.000	-0.005	-0.097
-723.864	134.322	-0.113	-0.147
-722.850	-200.000	-0.001	0.303
-721.835	361.519	-0.128	-0.259
-720.821	-108.772	0.193	0.042
-719.806	-41.958	0.187	0.096
-718.791	-200.000	0.013	0.376
-717.777	-75.050	-0.173	-0.062
-716.762	38.574	0.431	-0.386
-715.748	-116.367	-0.285	0.053
-714.733	-63.890	0.119	-0.049
-713.718	-134.746	-0.253	-0.031
-712.704	-30.423	-0.190	-0.108
-711.689	-103.126	0.241	-0.057
-710.675	-101.587	-0.173	0.042
-709.660	107.509	0.135	-0.162
-708.645	255.289	0.074	-0.127
-707.631	800.000	-0.042	-0.125
-706.616	-40.539	-0.241	0.125
-705.602	80.833	0.080	-0.087
-704.587	800.000	-0.065	-0.261
-703.572	800.000	-0.078	-0.342
-702.558	287.425	-0.132	-0.240
-701.543	39.776	0.277	0.250
-700.529	800.000	-0.050	-0.200
-699.514	-93.014	0.068	0.019
-698.499	90.476	0.129	-0.145
-697.485	-176.138	0.112	-0.003
-696.470	-22.790	-0.127	-0.077
-695.456	192.544	0.184	-0.279
-694.441	54.976	-0.118	-0.114
-693.426	-200.000	0.019	0.223
-692.412	216.404	-0.023	0.036
-691.397	51.527	0.221	0.211
-690.383	800.000	0.066	0.204
-689.368	800.000	0.101	0.300
-688.354	-200.000	-0.029	0.222
-687.339	514.849	-0.139	-0.326
-686.324	246.487	0.091	0.155
-685.310	-110.102	-0.123	0.026
-684.295	212.680	-0.123	-0.195
-683.281	-200.000	-0.027	-0.324
-682.266	800.000	-0.069	0.216
-681.251	218.771	-0.064	0.103
-680.237	-47.314	-0.149	-0.073
-679.222	-200.000	0.050	-0.000
-678.208	104.099	0.022	-0.026
-677.193	502.944	0.108	0.250
-676.178	104.843	-0.170	0.202
-675.164	800.000	0.052	-0.168
-674.149	-51.571	0.150	0.070
-673.135	24.713	-0.183	-0.152
-672.120	666.081	-0.188	0.486
-671.105	768.562	-0.079	0.216
-670.091	26.359	0.362	-0.303
-669.076	52.781	0.150	-0.144
-668.062	800.000	0.059	0.204
-667.047	768.027	-0.014	-0.039
-666.032	-46.909	0.177	0.087
-665.018	4.426	0.202	-0.149
-664.003	-200.000	-0.006	-0.293
-662.989	354.316	0.051	-0.102
-661.974	-125.991	-0.328	0.049
-660.959	134.649	-0.094	-0.122
-659.945	-200.000	-0.062	-0.398
-658.930	800.000	-0.154	-0.432
-657.916	58.026	0.241	-0.237
-656.901	-86.617	-0.280	0.086
-655.886	-46.888	0.168	0.082
-654.872	-136.641	0.160	-0.019
-653.857	120.163	-0.160	0.199
-652.843	619.591	0.090	0.226
-651.828	-100.579	-0.107	0.027
-650.814	-200.000	-0.028	-0.218
-649.799	55.112	0.018	0.017
-648.784	29.868	0.181	0.155
-647.770	582.354	0.121	-0.297
-646.755	105.176	-0.357	-0.422
-645.741	-112.900	0.406	-0.081
-644.726	-165.009	-0.246	0.011
-643.711	-119.817	-0.265	-0.046
-642.697	14.884	0.071	-0.055
-641.682	107.166	-0.178	0.212
-640.668	104.091	0.094	-0.111
-639.653	83.054	0.248	-0.270
-638.638	-150.005	-0.171	-0.013
-637.624	32.850	0.074	-0.064
-636.609	118.723	0.252	0.312
-635.595	-2.942	0.091	-0.063
-634.580	-200.000	-0.010	0.212
-633.565	708.264	-0.112	-0.296
-632.551	800.000	0.083	-0.299
-631.536	295.045	-0.105	-0.193
-630.522	-200.000	0.041	-0.272
-629.507	-36.872	-0.453	0.243
-628.492	56.364	-0.133	-0.130
-627.478	-200.000	0.063	-0.338
-626.463	-55.945	-0.198	-0.088
-625.449	139.535	-0.060	0.079
-624.434	-90.938	-0.257	0.074
-623.419	-79.227	-0.013	-0.004
-622.405	101.010	0.055	-0.064
-621.390	-200.000	-0.067	-0.414
-620.376	800.000	-0.110	-0.307
-619.361	-200.000	-0.007	-0.271
-618.346	-109.389	0.316	0.067
-617.332	122.260	0.246	0.307
-616.317	-112.273	-0.273	-0.055
-615.303	213.656	0.180	-0.285
-614.288	117.612	-0.138	0.169
-613.273	104.034	-0.115	-0.135
-612.259	-82.982	0.331	-0.107
-611.244	-54.610	-0.301	0.136
-610.230	-200.000	-0.087	-0.412
-609.215	-200.000	-0.013	0.095
-608.201	197.554	-0.133	0.204
-607.186	608.979	-0.112	0.280
-606.171	213.497	-0.148	-0.234
-605.157	-200.000	0.004	-0.174
-604.142	-96.343	-0.208	-0.055
-603.128	-73.607	-0.386	0.141
-602.113	-58.191	0.376	-0.164
-601.098	-199.795	-0.178	0.001
-600.084	524.937	0.047	0.111
-599.069	195.192	0.115	-0.175
-598.055	-200.000	0.009	-0.270
-597.040	800.000	-0.088	0.307
-596.025	-56.934	0.263	0.116
-595.011	52.722	-0.418	0.399
-593.996	409.479	-0.102	0.215
-592.982	-34.090	-0.057	0.031
-591.967	-200.000	-0.008	0.045
-590.952	-106.406	0.356	-0.079
-589.938	116.433	-0.027	0.033
-588.923	-200.000	-0.046	-0.267
-587.909	461.447	-0.167	-0.372
-586.894	-36.152	0.140	-0.076
-585.879	137.117	0.121	-0.159
-584.865	800.000	0.054	0.179
-583.850	-86.210	0.049	-0.015
-582.836	-35.583	0.228	-0.124
-581.821	4.657	0.160	-0.118
-580.806	-16.767	0.167	-0.106
-579.792	-200.000	0.020	-0.130
-578.777	-41.683	-0.049	-0.025
-577.763	-151.603	0.295	0.022
-576.748	-151.137	0.300	-0.023
-575.733	-88.029	-0.453	-0.136
-574.719	-200.000	-0.062	0.327
-573.704	800.000	0.040	-0.114
-572.690	-200.000	-0.003	-0.119
-571.675	456.035	0.035	0.078
-570.661	-82.221	0.113	-0.037
-569.646	-51.288	-0.158	0.074
-568.631	-44.884	-0.272	0.135
-567.617	565.527	-0.092	0.223
-566.602	-57.688	0.117	0.051
-565.588	250.758	0.159	-0.270
-564.573	-117.480	-0.267	-0.048
-563.558	99.322	-0.050	0.057
-562.544	-200.000	-0.198	0.001
-561.529	-200.000	0.015	0.283
-560.515	-17.507	0.193	-0.121
-559.500	138.150	0.059	-0.077
-558.485	-102.865	-0.227	-0.054
-557.471	-1.297	-0.236	0.167
-556.456	89.759	-0.154	-0.171
-555.442	-133.843	-0.090	0.011
-554.427	753.816	0.033	-0.090
-553.412	800.000	0.067	-0.246
-552.398	298.603	0.077	-0.141
-551.383	573.315	0.092	0.224
-550.369	-86.473	0.173	-0.053
-549.354	109.873	-0.214	0.256
-548.339	-36.222	0.154	-0.083
-547.325	-78.529	-0.029	-0.010
-546.310	-35.338	-0.246	-0.133
-545.296	800.000	-0.032	-0.110
-544.281	-102.169	-0.192	-0.046
-543.266	8.646	0.223	0.167
-542.252	61.066	-0.225	-0.223
-541.237	-7.349	-0.286	0.193
-540.223	50.224	-0.189	-0.178
-539.208	-200.000	-0.025	0.195
-538.193	-53.969	0.149	-0.068
-537.179	800.000	0.045	0.138
-536.164	-85.207	0.205	-0.064
-535.150	-152.331	0.068	0.005
-534.135	-41.994	-0.224	-0.114
-533.121	800.000	0.053	-0.229
-532.106	-200.000	0.103	-0.762
-531.091	800.000	0.072	-0.211
-530.077	89.225	-0.137	0.152
-529.062	800.000	0.121	-0.349
-528.048	424.907	0.074	0.159
-527.033	-14.207	0.271	0.174
-526.018	152.677	-0.279	0.379
-525.004	52.927	-0.107	0.102
-523.989	500.730	-0.119	-0.273
-522.975	800.000	-0.046	0.157
-521.960	-200.000	-0.010	-0.126
-520.945	-74.378	-0.113	0.041
-519.931	-53.537	-0.326	0.149
-518.916	11.095	0.236	0.180
-517.902	359.015	0.091	0.180
-516.887	4.321	-0.105	0.077
-515.872	-200.000	0.012	-0.116
-514.858	-200.000	0.021	-0.327
-513.843	-200.000	-0.000	-0.031
-512.829	211.342	-0.095	0.149
-511.814	-7.942	0.066	0.044
-510.799	-115.849	0.095	0.018
-509.785	-59.131	-0.072	-0.031
-508.770	105.255	-0.075	-0.088
-507.756	62.291	0.049	0.048
-506.741	-4.992	-0.376	0.258
-505.726	213.238	0.068	0.107
-504.712	-200.000	0.008	-0.203
-503.697	527.586	0.059	-0.139
-502.683	-16.702	0.053	0.033
-501.668	169.024	-0.218	-0.310
-500.653	75.533	-0.134	0.141
-499.639	132.337	-0.091	0.117
-498.624	-10.085	0.182	-0.120
-497.610	-200.000	-0.047	0.236
-496.595	-200.000	0.044	0.272
-495.581	25.307	-0.133	0.110
-494.566	33.967	0.083	-0.072
-493.551	-37.007	-0.134	0.072
-492.537	-200.000	0.029	0.198
-491.522	318.666	-0.047	0.090
-490.508	-156.275	0.240	0.015
-489.493	-62.508	0.086	0.035
-488.478	250.595	0.134	-0.226
-487.464	22.520	-0.108	-0.088
-486.449	324.275	-0.088	-0.166
-485.435	101.556	-0.054	0.063
-484.420	58.207	0.048	-0.047
-483.405	-104.333	0.274	-0.063
-482.391	-200.000	0.005	0.144
-481.376	58.192	0.181	0.176
-480.362	-40.441	0.356	0.184
-479.347	92.195	-0.130	-0.146
-478.332	-18.805	0.114	0.071
-477.318	-146.762	0.076	-0.007
-476.303	117.158	-0.148	0.181
-475.289	-92.558	0.192	0.054
-474.274	362.818	-0.218	-0.435
-473.259	-200.000	0.028	-0.302
-472.245	-115.874	-0.385	-0.072
-471.230	-183.925	0.036	0.001
-470.216	-68.110	-0.207	-0.080
-469.201	-143.619	0.326	-0.031
-468.186	-200.000	0.015	0.079
-467.172	2.965	0.099	0.072
-466.157	-71.062	-0.010	-0.004
-465.143	-96.139	-0.119	-0.031
-464.128	195.077	-0.173	-0.262
-463.113	-200.000	-0.020	-0.172
-462.099	221.983	-0.051	-0.081
-461.084	-111.843	0.162	-0.033
-460.070	-60.732	-0.142	-0.060
-459.055	-65.397	-0.280	-0.112
-458.040	-200.000	0.010	0.306
-457.026	-89.004	0.078	-0.023
-456.011	800.000	-0.038	0.121
-454.997	-121.518	-0.110	-0.018
-453.982	657.193	0.108	0.276
-452.968	800.000	0.039	0.167
-451.953	-200.000	0.000	0.016
-450.938	-200.000	-0.003	0.165
-449.924	-44.196	0.110	0.055
-448.909	-82.285	-0.025	0.008
-447.895	-68.541	-0.130	0.050
-446.880	618.171	0.122	0.305
-445.865	-21.606	0.226	-0.137
-444.851	-200.000	-0.010	0.262
-443.836	-200.000	0.029	0.162
-442.822	26.722	-0.092	-0.077
-441.807	800.000	-0.060	-0.179
-440.792	800.000	0.067	0.290
-439.778	-58.104	-0.051	-0.022
-438.763	26.982	0.035	0.030
-437.749	89.629	-0.137	-0.152
-436.734	-200.000	0.021	0.163
-435.719	800.000	0.046	-0.165
-434.705	-200.000	0.003	0.036
-433.690	800.000	0.086	0.326
-432.676	-125.405	-0.248	0.038
-431.661	-105.164	0.460	0.104
-430.646	218.882	-0.046	-0.073
-429.632	6.705	0.125	0.092
-428.617	-179.348	-0.229	-0.005
-427.603	-200.000	-0.002	0.554
-426.588	800.000	0.105	-0.323
-425.573	-29.619	0.130	0.074
-424.559	463.218	-0.091	0.201
-423.544	55.071	0.058	0.056
-422.530	-1.284	0.057	-0.040
-421.515	262.891	0.067	-0.115
-420.500	-200.000	-0.014	-0.068
-419.486	-200.000	-0.004	-0.053
-418.471	764.977	0.083	-0.223
-417.457	-200.000	0.005	0.068
-416.442	-112.237	0.119	-0.024
-415.428	418.644	-0.157	0.333
-414.413	-24.140	-0.174	-0.103
-413.398	-200.000	-0.180	-0.001
-412.384	6.283	0.044	-0.032
-411.369	-54.814	0.161	0.072
-410.355	-37.478	0.165	0.088
-409.340	-97.217	-0.081	0.021
-408.325	-200.000	0.051	-0.290
-407.311	800.000	-0.054	0.221
-406.296	-196.621	0.356	-0.002
-405.282	73.883	-0.192	0.200
-404.267	-66.004	0.234	0.093
-403.252	115.657	-0.157	0.191
-402.238	-200.000	0.002	0.092
-401.223	85.504	-0.148	0.161
-400.209	343.867	0.010	0.019
-399.194	-200.000	0.012	-0.122
-398.179	278.634	-0.067	0.118
-397.165	-200.000	0.034	0.447
-396.150	40.494	-0.081	-0.073
-395.136	84.648	-0.266	0.289
-394.121	-155.328	0.260	0.017
-393.106	-200.000	0.034	-0.150
-392.092	800.000	-0.048	0.194
-391.077	-200.000	0.025	-0.186
-390.063	93.823	-0.053	-0.060
-389.048	800.000	0.089	0.263
-388.033	367.810	-0.138	-0.277
-387.019	746.502	0.119	-0.318
-386.004	800.000	-0.024	0.068
-384.990	-18.306	-0.411	0.255
-383.975	-200.000	-0.005	-0.180
-382.960	32.377	-0.100	0.086
-381.946	-23.580	-0.089	0.053
-380.931	15.223	0.226	0.176
-379.917	-200.000	0.065	0.286
-378.902	-112.091	0.271	0.054
-377.888	-136.026	0.110	0.013
-376.873	65.185	0.214	-0.215
-375.858	8.899	-0.185	-0.139
-374.844	-200.000	0.048	-0.223
-373.829	-200.000	-0.274	0.001
-372.815	800.000	-0.071	0.241
-371.800	-94.970	-0.043	0.012
-370.785	-22.327	-0.122	-0.073
-369.771	-200.000	-0.040	-0.343
-368.756	503.287	-0.033	0.077
-367.742	-86.300	0.089	0.027
-366.727	54.710	0.127	-0.122
-365.712	-135.122	0.052	0.006
-364.698	-76.891	-0.335	-0.116
-363.683	-173.968	0.061	0.002
-362.669	-121.311	-0.133	-0.022
-361.654	-14.753	-0.121	-0.077
-360.639	4.630	-0.501	0.364
-359.625	164.380	0.133	0.186
-358.610	-143.184	0.281	0.027
-357.596	132.715	-0.017	-0.022
-356.581	-200.000	-0.003	-0.042
-355.566	-125.187	0.413	0.063
-354.552	619.535	-0.089	0.222
-353.537	-114.419	-0.267	0.051
-352.523	-144.116	0.235	0.022
-351.508	-13.774	-0.207	0.133
-350.493	-29.513	-0.298	-0.169
-349.479	7.382	0.129	-0.095
-348.464	103.924	0.176	-0.204
-347.450	-200.000	-0.049	-0.358
-346.435	295.669	0.018	-0.033
-345.420	-57.059	-0.156	-0.068
-344.406	72.992	-0.120	-0.124
-343.391	-200.000	-0.022	0.215
-342.377	13.894	-0.263	0.203
-341.362	-200.000	-0.009	-0.263
-340.348	628.399	-0.099	-0.248
-339.333	-25.077	0.137	-0.081
-338.318	603.133	-0.050	0.124
-337.304	278.244	0.106	-0.188
-336.289	-5.375	0.290	0.197
-335.275	-200.000	0.015	0.194
-334.260	135.032	0.131	-0.168
-333.245	-43.345	-0.151	0.075
-332.231	-200.000	0.026	-0.331
-331.216	-34.599	0.271	0.147
-330.202	-200.000	-0.008	0.168
-329.187	-110.494	-0.374	-0.077
-328.172	57.620	-0.132	-0.128
-327.158	494.516	0.093	0.210
-326.143	-82.025	0.204	0.066
-325.129	-32.077	-0.096	0.053
-324.114	-63.472	-0.284	-0.116
-323.099	120.127	-0.065	0.080
-322.085	72.423	-0.189	0.195
-321.070	800.000	0.030	0.107
-320.056	-79.521	0.187	-0.063
-319.041	478.878	-0.031	-0.068
-318.026	-56.246	0.302	0.133
-317.012	-200.000	-0.016	0.123
-315.997	170.012	-0.019	-0.026
-314.983	-200.000	0.018	-0.203
-313.968	-82.954	0.289	0.092
-312.953	-145.128	-0.226	-0.020
-311.939	54.064	-0.040	0.038
-310.924	-200.000	-0.038	-0.184
-309.910	-158.588	-0.255	-0.015
-308.895	489.232	0.118	-0.267
-307.880	462.435	-0.107	-0.237
-306.866	-120.066	-0.218	0.037
-305.851	-76.810	0.106	-0.037
-304.837	-125.688	-0.332	0.050
-303.822	397.985	0.105	-0.218
-302.807	-200.000	-0.004	0.200
-301.793	-200.000	-0.052	0.292
-300.778	-200.000	-0.040	-0.328
-299.764	-42.663	-0.095	0.048
-298.749	800.000	-0.051	0.163
-297.735	-200.000	0.006	-0.030
-296.720	-64.653	0.187	-0.075
-295.705	-64.146	0.146	-0.059
-294.691	-200.000	-0.018	0.180
-293.676	303.477	0.173	-0.317
-292.662	179.354	0.169	-0.244
-291.647	-200.000	-0.039	-0.232
-290.632	-18.934	0.032	0.020
-289.618	193.543	-0.125	0.187
-288.603	800.000	-0.073	-0.204
-287.589	-96.907	-0.137	0.035
-286.574	26.579	0.149	0.123
-285.559	285.038	0.188	-0.335
-284.545	672.385	-0.032	-0.081
-283.530	-96.159	0.300	0.079
-282.516	12.954	0.175	0.134
-281.501	-21.772	0.089	0.053
-280.486	564.906	-0.077	0.184
-279.472	224.377	0.085	0.136
-278.457	14.432	0.200	-0.154
-277.443	77.873	0.130	0.137
-276.428	36.035	-0.022	0.019
-275.413	800.000	0.098	-0.338
-274.399	38.707	-0.143	0.126
-273.384	800.000	0.007	0.028
-272.370	-165.955	0.084	0.004
-271.355	113.280	0.074	-0.088
-270.340	-120.577	0.173	-0.029
-269.326	-200.000	0.005	0.045
-268.311	-14.618	-0.015	-0.009
-267.297	-31.253	0.114	-0.063
-266.282	-44.351	-0.268	0.132
-265.267	-168.449	-0.251	-0.009
-264.253	-98.899	0.222	0.056
-263.238	375.745	0.060	-0.121
-262.224	342.006	0.176	0.339
-261.209	-114.068	-0.313	0.060
-260.195	-171.897	0.115	-0.004
-259.180	-200.000	0.109	0.533
-258.165	-200.000	-0.039	0.184
-257.151	76.985	0.281	0.295
-256.136	-200.000	0.015	-0.115
-255.122	-167.143	-0.137	-0.005
-254.107	-200.000	-0.021	0.102
-253.092	-200.000	-0.018	-0.316
-252.078	-194.847	0.309	-0.002
-251.063	95.332	0.113	-0.128
-250.049	-152.311	0.288	0.020
-249.034	-127.903	-0.272	-0.039
-248.019	-9.394	0.089	0.059
-247.005	-200.000	-0.007	-0.285
-245.990	-31.954	-0.098	0.054
-244.976	-90.803	0.056	0.016
-243.961	-200.000	0.030	-0.135
-242.946	-114.667	0.079	-0.015
-241.932	-73.662	0.161	-0.058
-240.917	510.676	-0.140	0.322
-239.903	-28.556	-0.211	0.120
-238.888	-178.403	0.420	0.010
-237.873	-200.000	0.012	-0.197
-236.859	110.426	-0.131	-0.156
-235.844	800.000	0.068	-0.233
-234.830	270.830	-0.149	-0.259
-233.815	35.196	0.041	0.036
-232.800	-19.842	-0.051	0.031
-231.786	-77.188	0.559	-0.192
-230.771	-200.000	0.000	-0.153
-229.757	219.730	-0.039	0.062
-228.742	-9.681	0.084	-0.055
-227.727	-169.110	-0.255	0.009
-226.713	-200.000	-0.019	0.087
-225.698	-200.000	-0.037	0.161
-224.684	-164.682	0.163	0.007
-223.669	492.763	-0.163	0.368
-222.655	-200.000	-0.024	0.169
-221.640	-26.661	0.045	0.026
-220.625	108.005	0.250	-0.294
-219.611	168.748	0.334	0.470
-218.596	-95.582	0.218	0.058
-217.582	-200.000	-0.069	0.342
-216.567	6.615	0.342	0.251
-215.552	-146.575	-0.216	-0.019
-214.538	-50.434	0.142	0.066
-213.523	241.493	0.014	0.023
-212.509	-133.370	-0.038	0.005
-211.494	-200.000	-0.015	0.127
-210.479	-41.822	-0.055	-0.028
-209.465	-77.862	0.106	0.036
-208.450	-59.880	0.190	0.080
-207.436	-184.353	-0.157	0.003
-206.421	800.000	0.070	-0.282
-205.406	17.737	0.181	0.142
-204.392	-149.010	-0.127	0.010
-203.377	199.178	-0.038	0.058
-202.363	800.000	-0.070	-0.262
-201.348	-200.000	0.047	-0.285
-200.333	-52.540	0.245	0.112
-199.319	26.889	0.086	0.071
-198.304	-41.749	-0.096	0.048
-197.290	-167.961	-0.216	0.008
-196.275	-84.389	-0.119	-0.037
-195.260	34.572	0.146	0.125
-194.246	445.982	0.090	-0.195
-193.231	-200.000	0.039	-0.237
-192.217	121.325	-0.096	-0.118
-191.202	800.000	-0.048	0.173
-190.187	536.310	-0.179	-0.418
-189.173	-200.000	0.021	0.120
-188.158	-200.000	-0.021	0.177
-187.144	800.000	0.102	0.310
-186.129	-15.820	-0.277	-0.174
-185.114	274.542	-0.081	-0.141
-184.100	82.999	0.272	0.291
-183.085	-8.568	0.236	-0.156
-182.071	233.391	0.038	-0.062
-181.056	-132.862	0.117	0.015
-180.042	-200.000	-0.019	0.104
-179.027	-200.000	-0.011	0.214
-178.012	760.273	0.055	-0.145
-176.998	115.074	0.119	0.143
-175.983	16.272	-0.169	0.131
-174.969	-200.000	-0.002	-0.120
-173.954	-83.653	0.075	-0.023
-172.939	302.416	0.158	0.287
-171.925	-5.168	-0.287	-0.194
-170.910	-77.120	-0.219	0.075
-169.896	800.000	0.040	0.112
-168.881	800.000	0.049	-0.165
-167.866	-23.747	0.111	-0.066
-166.852	-200.000	-0.060	0.398
-165.837	673.607	0.010	0.025
-164.823	800.000	0.063	0.228
-163.808	-52.009	-0.337	-0.154
-162.793	-57.862	0.122	0.053
-161.779	44.523	0.196	0.177
-160.764	-7.848	-0.116	0.077
-159.750	-5.857	0.058	-0.039
-158.735	-200.000	-0.004	0.057
-157.720	56.253	0.230	0.219
-156.706	-166.149	-0.100	0.004
-155.691	-75.045	-0.377	-0.133
-154.677	144.181	-0.081	-0.106
-153.662	800.000	-0.026	-0.091
-152.647	3.810	0.197	-0.142
-151.633	78.063	0.157	0.165
-150.618	642.896	-0.109	0.274
-149.604	-32.103	0.234	-0.128
-148.589	-76.536	0.304	0.105
-147.574	26.804	-0.326	0.268
-146.560	-136.194	-0.148	0.017
-145.545	59.036	0.190	-0.184
-144.531	-200.000	-0.003	-0.080
-143.516	-200.000	0.099	-0.478
-142.502	-188.327	0.095	-0.001
-141.487	-200.000	0.032	-0.160
-140.472	-1.107	-0.237	-0.164
-139.458	100.824	-0.168	0.192
-138.443	-71.578	0.207	0.076
-137.429	-39.439	0.100	0.052
-136.414	-55.679	0.241	-0.106
-135.399	-147.687	-0.223	-0.018
-134.385	-200.000	0.038	0.223
-133.370	-35.294	0.256	0.137
-132.356	674.284	-0.136	-0.347
-131.341	-104.233	0.081	-0.018
-130.326	113.848	0.316	0.377
-129.312	-67.520	0.318	0.122
-128.297	-200.000	-0.047	0.288
-127.283	-13.118	-0.032	0.020
-126.268	318.458	-0.069	0.128
-125.253	107.402	0.195	0.227
-124.239	251.074	0.129	-0.216
-123.224	-125.668	0.217	-0.032
-122.210	-200.000	-0.029	-0.217
