DTS Sentinel unit serial number:	SN413079Multiplexer serial number:	ORYXHardware model number:	OX4-SRSoftware version number:	ORYX F/W v4.00 Oryx Data Collector v3.7.2.0data status	okinstallation	princeton_trtdifferential loss correction	single-endedforward channel	channel 3reverse channel	N/Adate	2019/09/16time	17:08:35forward acquisition time	60.00reverse acquisition time	0.00gamma	496.2192k internal	0.2296k external	0.2296temperature offset calibration	0.9946default loss term (dB/km)	0.3790temperature slope calibration	1.0000multiplexer offset coefficient	1.0000multiplexer slope coefficient	1.0000fibre end	0.00T internal ref (°C)	39.09T ext. ref 1 (°C)	15.34T ext. ref 2 (°C)	33.22length (m)	temperature (°C)	Stokes	anti-Stokes-747.200	-96.667	-0.054	0.014
-746.185	-200.000	-0.033	0.376
-745.171	176.574	0.140	0.207
-744.156	542.304	0.059	-0.143
-743.142	86.967	-0.049	0.055
-742.127	-200.000	0.004	0.068
-741.112	-200.000	0.100	0.462
-740.098	-156.581	-0.309	0.020
-739.083	-127.536	-0.098	-0.015
-738.069	800.000	0.110	0.371
-737.054	143.987	0.074	0.101
-736.039	179.698	-0.158	-0.236
-735.025	-52.813	0.031	0.015
-734.010	383.434	-0.061	-0.128
-732.996	752.572	0.064	0.176
-731.981	800.000	0.090	0.329
-730.966	800.000	-0.037	-0.109
-729.952	-70.331	0.147	-0.057
-728.937	800.000	0.040	0.122
-727.923	-172.577	-0.199	0.006
-726.908	-166.521	-0.359	0.015
-725.894	-200.000	0.007	-0.212
-724.879	664.683	0.017	-0.044
-723.864	-25.150	-0.166	-0.100
-722.850	126.465	-0.088	-0.114
-721.835	-200.000	0.005	0.218
-720.821	800.000	0.014	-0.040
-719.806	800.000	-0.013	-0.047
-718.791	98.110	0.184	-0.216
-717.777	-84.403	0.173	0.056
-716.762	-69.722	-0.134	-0.052
-715.748	724.011	-0.118	0.321
-714.733	-27.402	-0.063	-0.037
-713.718	-200.000	-0.007	-0.188
-712.704	29.875	-0.023	0.020
-711.689	-71.685	-0.146	-0.056
-710.675	82.401	0.168	0.186
-709.660	-131.035	0.189	0.026
-708.645	-56.306	0.213	0.097
-707.631	-99.682	0.249	-0.064
-706.616	-200.000	0.019	-0.170
-705.602	-34.033	-0.160	-0.090
-704.587	800.000	-0.051	0.196
-703.572	74.077	-0.072	-0.077
-702.558	74.521	0.148	-0.159
-701.543	151.734	-0.079	0.109
-700.529	43.041	-0.187	0.174
-699.514	94.014	0.199	-0.230
-698.499	-13.625	0.046	0.030
-697.485	5.664	0.205	0.155
-696.470	-136.970	-0.428	-0.050
-695.456	-200.000	0.022	0.104
-694.441	382.194	0.019	-0.039
-693.426	49.151	0.142	-0.136
-692.412	60.817	-0.148	-0.150
-691.397	191.783	0.183	-0.281
-690.383	800.000	-0.034	0.114
-689.368	51.423	0.106	0.103
-688.354	136.722	0.157	-0.209
-687.339	332.670	-0.137	-0.270
-686.324	35.406	-0.162	-0.145
-685.310	31.433	0.086	-0.075
-684.295	-75.274	-0.266	-0.097
-683.281	81.865	0.247	-0.273
-682.266	-200.000	-0.024	-0.148
-681.251	103.675	-0.125	-0.149
-680.237	-88.441	0.108	-0.033
-679.222	-6.862	0.133	-0.092
-678.208	354.402	0.012	-0.025
-677.193	-58.520	-0.265	-0.117
-676.178	285.508	0.075	0.139
-675.164	174.942	-0.161	0.238
-674.149	-200.000	0.054	0.393
-673.135	-32.929	0.113	-0.064
-672.120	-17.566	0.299	-0.192
-671.105	-200.000	0.003	0.248
-670.091	-200.000	-0.002	0.053
-669.076	-200.000	-0.022	0.341
-668.062	99.266	-0.392	0.461
-667.047	-173.536	0.140	-0.004
-666.032	166.200	0.126	0.182
-665.018	-25.920	0.211	0.127
-664.003	636.384	0.191	-0.495
-662.989	800.000	0.088	-0.300
-661.974	-200.000	0.007	-0.361
-660.959	223.575	0.213	-0.351
-659.945	59.892	-0.262	0.264
-658.930	-72.909	0.267	-0.100
-657.916	-134.717	0.191	0.024
-656.901	49.118	-0.171	-0.164
-655.886	75.698	0.185	0.199
-654.872	800.000	-0.025	-0.072
-653.857	32.698	0.175	-0.154
-652.843	-37.510	0.320	-0.174
-651.828	-72.783	0.214	0.080
-650.814	-137.046	-0.118	-0.014
-649.799	0.874	-0.221	-0.161
-648.784	220.666	0.137	-0.223
-647.770	133.229	-0.188	0.247
-646.755	-200.000	0.017	0.210
-645.741	15.818	-0.236	0.189
-644.726	-181.153	0.074	0.002
-643.711	-200.000	-0.006	0.189
-642.697	-94.676	0.229	-0.063
-641.682	51.248	-0.187	-0.180
-640.668	800.000	0.127	-0.429
-639.653	-125.313	-0.340	0.053
-638.638	34.199	0.231	0.205
-637.624	-200.000	0.010	-0.311
-636.609	800.000	-0.040	0.128
-635.595	-142.388	0.332	-0.033
-634.580	-85.085	-0.273	-0.087
-633.565	-200.000	-0.025	-0.214
-632.551	301.594	-0.201	-0.378
-631.536	675.743	0.161	0.426
-630.522	331.009	0.171	0.334
-629.507	-80.145	-0.162	0.055
-628.492	-102.023	-0.503	-0.123
-627.478	-200.000	-0.039	-0.299
-626.463	51.844	-0.194	-0.188
-625.449	-119.803	-0.167	-0.029
-624.434	65.314	-0.095	-0.098
-623.419	-175.219	0.281	0.008
-622.405	303.807	-0.070	0.132
-621.390	-200.000	-0.020	-0.208
-620.376	15.130	0.367	-0.292
-619.361	783.518	-0.087	-0.243
-618.346	-51.968	-0.290	-0.137
-617.332	53.025	0.141	-0.137
-616.317	800.000	-0.060	-0.228
-615.303	569.330	-0.222	-0.549
-614.288	123.478	-0.111	-0.142
-613.273	-200.000	0.021	-0.204
-612.259	484.746	0.187	0.433
-611.244	-200.000	-0.006	-0.052
-610.230	800.000	0.029	-0.102
-609.215	211.860	-0.061	0.098
-608.201	-22.551	0.156	0.096
-607.186	-89.635	0.037	0.011
-606.171	-77.472	-0.151	0.053
-605.157	75.429	0.093	-0.100
-604.142	-1.850	0.246	-0.176
-603.128	80.820	0.233	0.255
-602.113	43.514	-0.234	-0.217
-601.098	800.000	-0.054	0.228
-600.084	-48.400	0.066	0.032
-599.069	3.147	0.151	0.112
-598.055	143.600	0.267	0.361
-597.040	197.696	-0.073	-0.113
-596.025	-110.236	0.353	0.075
-595.011	-7.628	0.204	0.140
-593.996	80.190	0.090	0.099
-592.982	-200.000	-0.011	-0.091
-591.967	256.130	-0.154	0.268
-590.952	-79.653	-0.103	-0.035
-589.938	-114.909	0.491	-0.095
-588.923	153.764	-0.050	-0.070
-587.909	86.511	0.266	-0.298
-586.894	-139.987	-0.243	0.026
-585.879	211.611	0.020	0.032
-584.865	-200.000	-0.009	0.176
-583.850	-93.166	0.040	0.011
-582.836	209.087	-0.191	-0.304
-581.821	148.454	-0.019	0.026
-580.806	111.357	0.079	0.096
-579.792	491.610	0.084	0.194
-578.777	-200.000	0.009	-0.136
-577.763	-142.273	-0.318	0.032
-576.748	320.219	-0.103	0.199
-575.733	31.620	-0.357	0.312
-574.719	107.961	0.028	-0.034
-573.704	51.029	0.093	0.089
-572.690	-10.773	-0.073	-0.049
-571.675	-38.777	0.140	0.075
-570.661	-135.026	0.079	-0.010
-569.646	-65.756	-0.234	0.095
-568.631	36.870	-0.111	0.099
-567.617	-200.000	0.040	-0.314
-566.602	800.000	-0.131	-0.384
-565.588	799.921	0.124	-0.347
-564.573	-142.232	0.342	0.034
-563.558	800.000	0.012	0.040
-562.544	-181.190	0.104	0.002
-561.529	69.471	0.075	0.078
-560.515	-200.000	0.030	0.275
-559.500	800.000	0.068	0.228
-558.485	800.000	-0.037	0.143
-557.471	-51.759	0.253	0.119
-556.456	-29.061	0.230	0.134
-555.442	800.000	-0.046	-0.151
-554.427	-200.000	0.039	-0.263
-553.412	-200.000	-0.005	0.114
-552.398	-138.816	-0.238	0.026
-551.383	161.494	-0.187	0.265
-550.369	-200.000	0.032	-0.196
-549.354	192.476	-0.090	-0.138
-548.339	-115.381	-0.233	-0.045
-547.325	-200.000	-0.016	0.268
-546.310	-54.067	-0.183	0.085
-545.296	117.847	-0.095	-0.119
-544.281	-168.349	0.304	-0.012
-543.266	-104.667	-0.129	0.030
-542.252	-200.000	0.082	0.445
-541.237	608.894	-0.092	-0.233
-540.223	-200.000	-0.020	-0.169
-539.208	800.000	0.052	-0.148
-538.193	44.288	0.204	-0.190
-537.179	43.267	0.209	-0.194
-536.164	-78.207	-0.306	-0.107
-535.150	749.497	-0.073	-0.199
-534.135	-52.208	0.341	-0.160
-533.121	50.215	-0.147	0.141
-532.106	251.846	-0.054	-0.094
-531.091	-65.714	-0.147	0.060
-530.077	-126.682	-0.445	-0.067
-529.062	-105.783	0.254	0.058
-528.048	397.086	-0.055	-0.117
-527.033	-19.464	-0.138	-0.087
-526.018	14.039	0.272	0.214
-525.004	-200.000	-0.009	0.084
-523.989	-29.351	-0.075	0.043
-522.975	-147.313	-0.172	-0.015
-521.960	-26.968	0.158	-0.093
-520.945	105.558	-0.140	-0.168
-519.931	-87.803	0.331	0.101
-518.916	-150.136	0.277	-0.022
-517.902	-38.324	0.211	-0.113
-516.887	-200.000	-0.035	0.232
-515.872	-183.509	0.187	0.003
-514.858	-156.773	0.295	0.018
-513.843	62.276	-0.101	-0.102
-512.829	-200.000	0.035	0.171
-511.814	-71.168	-0.187	-0.071
-510.799	-98.729	0.251	-0.065
-509.785	-200.000	-0.002	-0.044
-508.770	720.659	-0.134	-0.360
-507.756	141.820	-0.181	-0.243
-506.741	-200.000	0.024	-0.374
-505.726	25.615	0.032	0.027
-504.712	-30.383	-0.118	0.068
-503.697	-40.207	0.076	0.040
-502.683	69.792	0.100	-0.104
-501.668	-200.000	-0.014	0.096
-500.653	11.691	0.189	-0.147
-499.639	-21.954	0.114	-0.070
-498.624	167.128	0.055	0.078
-497.610	800.000	0.060	-0.180
-496.595	-59.139	0.247	-0.108
-495.581	644.231	-0.050	0.129
-494.566	519.257	-0.207	0.491
-493.551	-200.000	-0.038	-0.179
-492.537	210.503	0.042	-0.067
-491.522	-200.000	0.034	-0.225
-490.508	530.406	-0.076	-0.182
-489.493	800.000	-0.120	0.435
-488.478	-107.336	-0.097	-0.022
-487.464	-89.178	-0.109	0.033
-486.449	-69.313	-0.217	-0.084
-485.435	-200.000	0.005	-0.275
-484.420	129.388	-0.053	-0.069
-483.405	148.592	0.200	0.273
-482.391	314.274	0.070	-0.134
-481.376	106.517	0.157	-0.188
-480.362	-200.000	0.028	-0.129
-479.347	-200.000	0.014	-0.078
-478.332	90.081	0.220	-0.249
-477.318	560.848	-0.131	-0.319
-476.303	-200.000	0.050	-0.314
-475.289	-53.830	0.232	0.107
-474.274	173.853	-0.099	0.144
-473.259	-200.000	-0.026	0.233
-472.245	-49.983	-0.091	0.044
-471.230	-145.736	-0.370	-0.033
-470.216	-200.000	0.032	0.182
-469.201	-80.971	-0.317	0.106
-468.186	-106.710	-0.063	0.014
-467.172	16.489	0.272	-0.217
-466.157	-140.480	-0.120	0.013
-465.143	-18.824	-0.442	0.278
-464.128	337.695	0.173	0.340
-463.113	24.585	0.159	-0.133
-462.099	515.292	-0.067	0.158
-461.084	-47.493	-0.097	0.048
-460.070	-82.096	0.239	-0.079
-459.055	8.869	-0.206	-0.157
-458.040	257.143	-0.125	0.218
-457.026	170.748	-0.126	0.183
-456.011	417.505	-0.053	-0.115
-454.997	800.000	-0.076	0.242
-453.982	-108.592	0.243	-0.053
-452.968	26.560	-0.326	-0.276
-451.953	163.333	-0.111	-0.158
-450.938	463.324	-0.151	-0.342
-449.924	-62.029	-0.085	0.036
-448.909	-99.487	-0.273	0.069
-447.895	-13.600	0.197	-0.129
-446.880	84.217	0.144	0.159
-445.865	-101.690	-0.110	0.027
-444.851	-62.599	0.379	0.159
-443.836	-13.624	0.315	-0.206
-442.822	-102.978	-0.363	0.087
-441.807	-6.754	-0.147	0.101
-440.792	-66.762	-0.193	0.077
-439.778	-146.480	0.322	0.028
-438.763	523.059	0.086	-0.203
-437.749	15.483	0.099	0.078
-436.734	-200.000	-0.031	-0.186
-435.719	-150.549	-0.472	-0.037
-434.705	-200.000	0.016	0.167
-433.690	-200.000	-0.049	0.237
-432.676	-94.699	0.413	0.113
-431.661	-83.333	-0.204	-0.066
-430.646	-200.000	0.003	-0.417
-429.632	-21.717	-0.149	0.091
-428.617	-13.734	-0.128	0.083
-427.603	-94.283	0.320	0.088
-426.588	-62.575	0.287	-0.120
-425.573	-82.551	0.133	0.044
-424.559	134.108	-0.066	0.086
-423.544	-159.804	-0.173	-0.010
-422.530	46.845	-0.345	0.324
-421.515	87.275	0.205	-0.229
-420.500	42.620	-0.255	-0.234
-419.486	-85.127	0.437	-0.138
-418.471	15.684	-0.124	0.098
-417.457	800.000	-0.013	-0.043
-416.442	-62.110	0.344	-0.145
-415.428	50.896	0.092	0.088
-414.413	-200.000	0.013	-0.364
-413.398	-61.106	0.304	-0.129
-412.384	13.293	-0.190	-0.149
-411.369	-200.000	-0.033	-0.277
-410.355	-200.000	-0.021	-0.147
-409.340	88.347	-0.127	0.142
-408.325	609.475	0.036	0.090
-407.311	-36.863	-0.073	-0.039
-406.296	-200.000	-0.233	0.001
-405.282	591.449	0.090	-0.224
-404.267	-152.237	-0.179	-0.013
-403.252	-136.859	-0.117	0.014
-402.238	-200.000	0.026	0.145
-401.223	-200.000	0.005	0.234
-400.209	105.999	0.116	0.138
-399.194	23.758	0.080	0.067
-398.179	550.487	0.075	0.180
-397.165	-23.729	-0.380	0.230
-396.150	504.629	0.031	0.073
-395.136	-126.204	0.097	0.015
-394.121	-164.428	0.313	-0.014
-393.106	-149.193	-0.263	-0.021
-392.092	-200.000	0.027	0.127
-391.077	34.243	-0.245	0.215
-390.063	139.622	0.151	0.200
-389.048	-48.147	0.127	-0.062
-388.033	87.639	-0.048	-0.053
-387.019	-200.000	0.054	0.557
-386.004	-200.000	0.051	-0.347
-384.990	494.289	0.103	0.238
-383.975	-177.424	-0.138	-0.003
-382.960	-142.697	-0.332	-0.033
-381.946	-200.000	0.189	0.001
-380.931	-19.266	-0.243	-0.152
-379.917	206.626	-0.031	0.049
-378.902	-200.000	0.008	0.274
-377.888	64.280	-0.181	0.183
-376.873	-200.000	-0.026	-0.176
-375.858	800.000	0.062	0.211
-374.844	800.000	-0.039	0.121
-373.829	160.327	-0.013	0.018
-372.815	330.944	-0.150	0.292
-371.800	-141.364	0.235	-0.024
-370.785	27.820	-0.034	-0.029
-369.771	-106.496	-0.083	0.019
-368.756	297.902	0.004	0.007
-367.742	-28.430	0.184	0.107
-366.727	144.977	-0.118	0.158
-365.712	198.523	-0.098	-0.152
-364.698	-200.000	-0.008	0.169
-363.683	6.055	-0.094	-0.070
-362.669	59.730	0.247	-0.245
-361.654	800.000	-0.110	-0.307
-360.639	383.355	-0.008	-0.017
-359.625	652.654	-0.182	-0.469
-358.610	-200.000	0.071	-0.506
-357.596	132.309	0.098	0.127
-356.581	-5.520	-0.171	-0.118
-355.566	-11.871	-0.133	-0.088
-354.552	258.900	-0.058	-0.100
-353.537	-93.333	-0.222	0.062
-352.523	272.992	-0.060	0.106
-351.508	-4.912	-0.252	0.174
-350.493	355.012	-0.110	-0.220
-349.479	-200.000	0.001	0.173
-348.464	-48.918	-0.304	-0.147
-347.450	-42.066	-0.271	0.140
-346.435	-176.330	0.078	-0.002
-345.420	137.857	0.311	0.410
-344.406	-95.125	0.155	-0.042
-343.391	-114.834	0.182	-0.035
-342.377	144.547	-0.156	-0.210
-341.362	800.000	0.073	-0.237
-340.348	-9.596	-0.019	0.013
-339.333	-18.349	0.094	-0.059
-338.318	800.000	0.059	0.167
-337.304	-200.000	0.016	-0.324
-336.289	-156.553	-0.290	0.018
-335.275	-4.594	0.149	-0.104
-334.260	215.408	-0.183	-0.292
-333.245	-56.982	0.126	-0.056
-332.231	73.965	-0.105	0.110
-331.216	286.827	0.089	-0.161
-330.202	-61.718	-0.288	-0.121
-329.187	-69.506	0.185	0.071
-328.172	-200.000	-0.009	-0.291
-327.158	-30.146	0.081	-0.046
-326.143	-24.996	0.449	-0.268
-325.129	-113.061	0.014	-0.003
-324.114	29.936	-0.048	-0.041
-323.099	605.680	0.032	-0.079
-322.085	310.579	0.221	-0.417
-321.070	190.742	0.165	0.249
-320.056	-85.187	0.263	-0.083
-319.041	-200.000	-0.004	0.397
-318.026	233.427	0.201	0.333
-317.012	385.326	-0.073	-0.151
-315.997	800.000	-0.008	-0.030
-314.983	98.452	0.350	0.406
-313.968	-66.726	-0.320	-0.127
-312.953	561.908	-0.086	-0.210
-311.939	229.895	-0.179	-0.293
-310.924	-13.179	0.411	0.269
-309.910	184.866	0.062	0.092
-308.895	-78.575	0.280	-0.096
-307.880	571.686	0.052	0.128
-306.866	-200.000	-0.032	-0.292
-305.851	-74.559	-0.308	0.111
-304.837	-200.000	-0.003	0.444
-303.822	-39.886	-0.298	-0.156
-302.807	-200.000	0.022	0.119
-301.793	-200.000	0.032	0.229
-300.778	573.054	0.075	-0.183
-299.764	-146.977	0.117	0.010
-298.749	670.134	-0.108	0.281
-297.735	-200.000	0.035	0.279
-296.720	30.616	0.255	-0.219
-295.705	-112.749	0.221	0.044
-294.691	-119.706	0.156	-0.027
-293.676	17.710	-0.137	0.109
-292.662	-112.893	-0.025	-0.005
-291.647	301.362	0.037	0.068
-290.632	199.638	0.255	0.393
-289.618	578.982	-0.067	-0.164
-288.603	20.446	-0.212	-0.172
-287.589	-106.284	0.084	0.019
-286.574	-112.708	0.049	-0.010
-285.559	12.648	-0.306	0.237
-284.545	62.667	0.028	0.028
-283.530	-5.455	0.327	0.225
-282.516	6.824	-0.090	0.067
-281.501	49.825	0.173	-0.164
-280.486	-8.759	-0.077	0.052
-279.472	-53.361	0.080	0.037
-278.457	164.197	0.256	0.362
-277.443	98.967	0.107	0.124
-276.428	-200.000	-0.007	0.112
-275.413	268.564	0.117	0.206
-274.399	548.576	-0.053	0.127
-273.384	18.252	-0.348	-0.279
-272.370	37.381	0.117	-0.104
-271.355	800.000	0.040	0.125
-270.340	-96.589	-0.126	-0.033
-269.326	68.844	0.219	-0.225
-268.311	-47.382	-0.170	0.083
-267.297	443.648	0.108	-0.239
-266.282	-59.169	-0.173	-0.075
-265.267	-200.000	-0.014	0.256
-264.253	-20.120	0.391	-0.242
-263.238	-157.411	0.039	-0.002
-262.224	-200.000	0.051	0.234
-261.209	-51.898	0.315	0.147
-260.195	800.000	0.072	0.205
-259.180	-63.417	-0.269	-0.111
-258.165	-200.000	-0.008	-0.048
-257.151	-200.000	-0.054	0.294
-256.136	-38.405	0.244	-0.129
-255.122	40.196	-0.172	0.155
-254.107	95.881	-0.163	-0.187
-253.092	453.388	0.047	0.104
-252.078	-103.025	-0.127	0.030
-251.063	30.890	0.136	-0.117
-250.049	800.000	0.092	0.316
-249.034	555.507	0.046	-0.112
-248.019	417.630	-0.087	0.186
-247.005	-43.346	-0.347	0.176
-245.990	612.346	0.038	-0.096
-244.976	56.342	0.042	0.041
-243.961	-3.640	0.187	-0.130
-242.946	36.180	0.077	0.068
-241.932	-200.000	-0.012	0.209
-240.917	-102.222	0.304	-0.073
-239.903	192.542	-0.258	-0.391
-238.888	800.000	-0.083	0.255
-237.873	65.651	-0.075	0.076
-236.859	-31.498	-0.113	0.063
-235.844	-45.976	0.142	0.070
-234.830	-200.000	0.002	-0.314
-233.815	53.483	-0.161	0.155
-232.800	-53.675	-0.210	0.096
-231.786	-115.484	0.423	-0.080
-230.771	-48.595	0.197	-0.095
-229.757	10.993	0.183	0.140
-228.742	800.000	-0.078	-0.314
-227.727	42.798	-0.131	0.120
-226.713	-121.459	-0.343	-0.057
-225.698	-162.008	0.156	-0.008
-224.684	3.207	-0.183	-0.133
-223.669	456.103	0.116	-0.257
-222.655	562.013	-0.115	-0.278
-221.640	156.401	0.147	-0.203
-220.625	28.955	-0.107	-0.091
-219.611	11.583	-0.204	0.157
-218.596	-12.711	0.224	-0.146
-217.582	-58.071	-0.057	-0.025
-216.567	-114.233	0.237	-0.046
-215.552	-200.000	0.040	-0.280
-214.538	-200.000	-0.010	0.264
-213.523	75.612	-0.209	0.221
-212.509	-65.204	0.129	0.052
-211.494	-35.675	0.081	0.044
-210.479	311.224	0.104	-0.196
-209.465	-15.649	-0.425	0.271
-208.450	-164.875	-0.182	-0.008
-207.436	166.868	0.032	0.046
-206.421	-149.999	-0.190	-0.015
-205.406	-200.000	-0.021	0.105
-204.392	800.000	-0.053	0.225
-203.377	-200.000	0.013	-0.106
-202.363	49.889	0.230	0.217
-201.348	88.898	0.170	0.189
-200.333	41.237	0.127	-0.115
-199.319	38.823	-0.201	0.180
-198.304	-200.000	0.010	0.090
-197.290	305.022	-0.069	-0.129
-196.275	800.000	-0.086	0.321
-195.260	-163.945	0.309	-0.014
-194.246	90.147	0.072	-0.080
-193.231	-127.657	-0.158	0.023
-192.217	800.000	-0.125	0.362
-191.202	149.256	-0.239	0.323
-190.187	-200.000	-0.018	-0.092
-189.173	-124.247	0.217	-0.034
-188.158	-75.855	0.080	-0.028
-187.144	88.933	0.092	0.102
-186.129	-83.041	-0.203	0.065
-185.114	-200.000	-0.019	0.114
-184.100	3.090	0.112	0.082
-183.085	237.962	-0.107	-0.178
-182.071	-200.000	-0.011	0.058
-181.056	223.724	-0.046	-0.074
-180.042	60.863	-0.337	0.334
-179.027	-42.944	-0.214	-0.109
-178.012	-200.000	-0.019	0.175
-176.998	-170.820	0.351	0.012
-175.983	-131.061	-0.253	0.034
-174.969	37.309	0.216	0.191
-173.954	-190.482	0.190	-0.002
-172.939	-71.979	-0.255	0.095
-171.925	235.897	0.108	-0.179
-170.910	22.152	-0.104	0.084
-169.896	310.109	0.061	-0.114
-168.881	161.650	0.127	0.178
-167.866	-200.000	-0.023	-0.105
-166.852	198.820	-0.102	-0.156
-165.837	-68.271	0.192	0.075
-164.823	800.000	0.075	-0.215
-163.808	-20.773	-0.205	0.126
-162.793	384.720	0.023	0.048
-161.779	390.547	0.053	0.111
-160.764	-200.000	0.003	0.181
-159.750	-200.000	-0.042	-0.257
-158.735	266.923	0.118	-0.206
-157.720	-200.000	0.048	0.225
-156.706	-152.300	-0.138	-0.010
-155.691	-77.054	0.197	0.068
-154.677	699.409	-0.053	0.140
-153.662	-43.416	0.316	0.160
-152.647	-66.741	-0.264	-0.104
-151.633	48.921	-0.112	0.105
-150.618	-128.552	0.332	0.047
-149.604	800.000	0.073	0.249
-148.589	51.497	-0.158	0.150
-147.574	800.000	0.080	-0.275
-146.560	62.699	-0.046	0.046
-145.545	192.239	-0.140	-0.211
-144.531	-18.919	0.230	0.143
-143.516	64.055	0.047	-0.047
-142.502	-91.630	-0.149	-0.042
-141.487	317.485	0.074	-0.141
-140.472	318.925	-0.081	0.153
-139.458	242.558	0.033	-0.056
-138.443	-68.540	0.055	0.021
-137.429	-200.000	0.012	-0.076
-136.414	304.714	-0.242	0.449
-135.399	-36.265	0.258	-0.139
-134.385	-200.000	-0.033	0.275
-133.370	350.164	-0.095	0.187
-132.356	41.495	0.296	0.268
-131.341	-133.667	0.172	0.021
-130.326	24.148	0.076	0.063
-129.312	-200.000	0.038	0.233
-128.297	-69.569	0.118	0.045
-127.283	-42.256	-0.481	-0.245
-126.268	-108.742	0.179	-0.038
-125.253	49.323	-0.126	0.118
-124.239	800.000	0.057	0.220
-123.224	800.000	0.015	0.060
-122.210	-141.534	0.370	-0.037
-121.195	-117.546	-0.428	0.077
-120.180	-200.000	-0.085	0.612
