DTS Sentinel unit serial number:	SN413079Multiplexer serial number:	ORYXHardware model number:	OX4-SRSoftware version number:	ORYX F/W v4.00 Oryx Data Collector v3.7.2.0data status	okinstallation	princeton_trtdifferential loss correction	single-endedforward channel	channel 3reverse channel	N/Adate	2019/09/18time	07:16:35forward acquisition time	60.00reverse acquisition time	0.00gamma	496.2192k internal	0.2344k external	0.2344temperature offset calibration	0.9952default loss term (dB/km)	0.3790temperature slope calibration	1.0000multiplexer offset coefficient	1.0000multiplexer slope coefficient	1.0000fibre end	0.00T internal ref (°C)	23.19T ext. ref 1 (°C)	0.19T ext. ref 2 (°C)	17.44length (m)	temperature (°C)	Stokes	anti-Stokes-747.200	-80.131	-0.124	-0.042
-746.185	800.000	-0.036	-0.148
-745.171	75.095	0.279	0.295
-744.156	-200.000	0.017	0.170
-743.142	-142.020	0.466	-0.046
-742.127	-122.307	-0.238	0.039
-741.112	-131.741	-0.164	-0.021
-740.098	800.000	0.080	0.327
-739.083	800.000	0.111	-0.330
-738.069	-89.358	-0.301	-0.089
-737.054	74.811	-0.440	0.463
-736.039	-92.097	-0.294	-0.083
-735.025	-35.587	0.148	0.080
-734.010	-74.696	-0.579	-0.208
-732.996	-200.000	-0.013	0.167
-731.981	-92.015	-0.194	-0.055
-730.966	-200.000	-0.014	-0.064
-729.952	-93.553	-0.278	0.077
-728.937	291.958	0.050	-0.091
-727.923	800.000	0.069	-0.195
-726.908	5.441	-0.074	0.055
-725.894	26.963	-0.128	-0.108
-724.879	-95.936	0.283	0.075
-723.864	-106.299	-0.303	-0.068
-722.850	17.356	-0.244	-0.194
-721.835	79.898	-0.186	-0.200
-720.821	191.930	-0.235	-0.355
-719.806	-11.081	-0.157	0.103
-718.791	-76.711	-0.167	0.058
-717.777	-200.000	-0.004	-0.218
-716.762	-200.000	0.030	-0.548
-715.748	-19.526	0.157	-0.097
-714.733	-55.120	0.047	-0.021
-713.718	-200.000	0.030	-0.240
-712.704	-200.000	-0.003	-0.308
-711.689	-7.601	0.162	0.110
-710.675	-144.735	0.203	-0.019
-709.660	-200.000	-0.007	-0.203
-708.645	126.911	0.188	-0.238
-707.631	101.593	0.171	-0.199
-706.616	4.353	0.045	0.033
-705.602	-200.000	0.024	0.277
-704.587	800.000	-0.049	-0.161
-703.572	-35.216	-0.299	0.163
-702.558	134.577	0.030	-0.039
-701.543	-91.472	-0.168	0.048
-700.529	800.000	-0.144	0.463
-699.514	28.704	0.166	-0.140
-698.499	107.555	0.216	-0.257
-697.485	642.423	-0.064	-0.162
-696.470	-120.106	-0.185	0.032
-695.456	410.571	0.114	0.242
-694.441	-110.829	-0.107	-0.022
-693.426	800.000	-0.062	-0.199
-692.412	-104.980	-0.168	0.038
-691.397	32.974	-0.098	0.085
-690.383	-73.184	0.119	0.044
-689.368	-200.000	-0.006	0.092
-688.354	800.000	0.044	-0.155
-687.339	2.105	0.257	-0.185
-686.324	-200.000	-0.021	0.189
-685.310	-105.657	0.391	-0.088
-684.295	-124.824	-0.203	0.031
-683.281	-173.809	-0.301	-0.009
-682.266	-200.000	-0.045	-0.200
-681.251	-68.456	-0.204	-0.079
-680.237	153.279	0.072	0.098
-679.222	731.900	-0.103	0.276
-678.208	212.199	-0.329	-0.518
-677.193	-139.432	0.456	0.049
-676.178	266.692	0.036	0.063
-675.164	800.000	-0.070	0.212
-674.149	-75.463	0.180	-0.064
-673.135	-110.631	-0.363	0.075
-672.120	-25.309	0.273	0.161
-671.105	-200.000	0.018	0.454
-670.091	43.995	0.088	0.080
-669.076	107.063	-0.157	-0.186
-668.062	-196.197	0.149	-0.001
-667.047	-200.000	0.085	0.425
-666.032	-200.000	0.040	0.340
-665.018	20.142	-0.186	-0.150
-664.003	681.651	-0.148	-0.385
-662.989	-156.253	-0.296	-0.019
-661.974	610.109	-0.069	-0.172
-660.959	-44.190	0.167	-0.084
-659.945	36.715	0.207	-0.182
-658.930	696.594	0.074	-0.195
-657.916	-15.246	0.106	-0.068
-656.901	154.851	0.068	-0.093
-655.886	496.549	0.097	-0.223
-654.872	-106.918	-0.116	-0.026
-653.857	156.758	0.130	-0.180
-652.843	-200.000	-0.026	-0.315
-651.828	101.433	0.103	-0.120
-650.814	-200.000	0.019	-0.156
-649.799	76.405	0.098	0.104
-648.784	-200.000	-0.035	0.192
-647.770	94.189	-0.253	0.286
-646.755	-200.000	-0.000	-0.049
-645.741	67.105	-0.177	0.180
-644.726	-19.357	0.298	-0.184
-643.711	-83.021	-0.311	-0.100
-642.697	-101.805	-0.191	0.046
-641.682	-121.302	0.070	-0.012
-640.668	-101.388	-0.132	-0.032
-639.653	-2.864	0.056	-0.039
-638.638	599.813	-0.080	0.199
-637.624	-117.385	0.227	0.041
-636.609	-58.003	0.093	-0.041
-635.595	136.748	-0.146	0.190
-634.580	164.863	0.159	0.224
-633.565	144.266	0.184	0.245
-632.551	-200.000	0.020	0.303
-631.536	621.423	0.063	-0.159
-630.522	-36.119	-0.188	0.101
-629.507	-85.981	0.272	-0.084
-628.492	502.533	-0.065	0.149
-627.478	-123.019	0.450	-0.072
-626.463	-157.781	-0.162	0.010
-625.449	-200.000	-0.017	0.125
-624.434	-15.480	-0.222	0.141
-623.419	101.026	0.161	0.187
-622.405	202.391	0.066	-0.102
-621.390	-24.594	0.236	-0.140
-620.376	456.052	-0.182	0.403
-619.361	-181.074	0.276	0.005
-618.346	-71.486	0.162	0.060
-617.332	44.940	0.198	-0.181
-616.317	-111.470	-0.187	-0.038
-615.303	-29.541	-0.456	-0.260
-614.288	-135.756	0.530	0.062
-613.273	-63.636	-0.108	0.044
-612.259	-157.406	-0.217	0.013
-611.244	-200.000	0.024	-0.140
-610.230	59.140	0.209	-0.204
-609.215	-103.180	-0.345	0.081
-608.201	-6.433	-0.206	0.140
-607.186	46.366	-0.370	0.341
-606.171	175.849	-0.117	0.170
-605.157	-35.259	0.276	-0.149
-604.142	800.000	0.070	-0.248
-603.128	-199.330	-0.111	-0.001
-602.113	800.000	-0.029	0.102
-601.098	-142.329	-0.254	0.025
-600.084	169.886	-0.139	-0.198
-599.069	-15.643	0.447	-0.284
-598.055	-190.006	-0.322	-0.004
-597.040	-179.604	0.273	-0.006
-596.025	-33.489	0.137	0.075
-595.011	-127.976	-0.404	-0.058
-593.996	-200.000	0.011	0.091
-592.982	672.295	0.102	0.263
-591.967	-101.152	-0.204	0.050
-590.952	89.756	0.069	-0.077
-589.938	-156.271	0.176	-0.011
-588.923	731.839	0.081	0.214
-587.909	-70.907	0.453	-0.170
-586.894	-110.970	-0.205	0.042
-585.879	168.370	0.243	-0.345
-584.865	86.642	0.145	0.160
-583.850	-49.684	0.134	0.064
-582.836	314.718	-0.107	0.201
-581.821	-86.826	-0.069	-0.021
-580.806	-140.501	-0.034	-0.004
-579.792	-167.347	-0.319	-0.013
-578.777	-113.623	0.365	-0.071
-577.763	325.373	0.049	-0.093
-576.748	-73.404	-0.024	0.009
-575.733	41.742	-0.207	0.187
-574.719	-124.039	-0.212	-0.033
-573.704	368.357	0.170	-0.341
-572.690	-141.153	0.383	-0.039
-571.675	-67.880	0.183	0.071
-570.661	-59.707	0.017	0.007
-569.646	148.893	-0.056	0.075
-568.631	-78.496	0.250	0.085
-567.617	75.339	0.090	0.094
-566.602	3.954	-0.339	0.247
-565.588	-200.000	0.000	0.196
-564.573	-200.000	0.067	0.329
-563.558	-200.000	0.027	-0.142
-562.544	-49.472	-0.258	0.122
-561.529	-79.571	-0.089	-0.030
-560.515	-200.000	0.045	-0.457
-559.500	68.662	-0.068	0.070
-558.485	800.000	0.117	-0.370
-557.471	22.085	-0.150	0.121
-556.456	-200.000	0.002	-0.158
-555.442	780.706	0.021	-0.058
-554.427	-45.550	-0.274	0.135
-553.412	76.312	0.108	-0.113
-552.398	-88.155	0.266	-0.079
-551.383	800.000	0.096	-0.264
-550.369	664.011	0.141	-0.361
-549.354	-77.493	-0.066	-0.023
-548.339	326.540	0.152	0.290
-547.325	-111.749	0.074	-0.015
-546.310	-111.965	0.075	0.015
-545.296	-174.009	-0.151	0.004
-544.281	208.792	-0.134	-0.209
-543.266	-119.635	0.059	-0.010
-542.252	-136.254	-0.321	-0.037
-541.237	-200.000	-0.003	-0.184
-540.223	39.697	-0.180	0.160
-539.208	-200.000	-0.025	-0.197
-538.193	-8.852	-0.128	0.085
-537.179	-200.000	-0.034	-0.278
-536.164	-100.171	0.250	0.062
-535.150	9.228	-0.222	0.166
-534.135	157.584	0.091	0.125
-533.121	593.940	0.065	0.159
-532.106	473.099	0.124	0.277
-531.091	-83.337	0.262	-0.083
-530.077	-109.032	0.184	-0.039
-529.062	269.837	0.047	0.083
-528.048	-57.144	0.090	0.039
-527.033	4.048	-0.079	-0.058
-526.018	-146.048	-0.129	0.011
-525.004	538.445	-0.034	0.081
-523.989	-200.000	0.000	-0.138
-522.975	-68.402	-0.384	0.148
-521.960	-28.975	0.249	-0.142
-520.945	171.542	0.038	0.054
-519.931	605.427	-0.080	0.197
-518.916	380.775	-0.070	-0.142
-517.902	800.000	-0.020	0.087
-516.887	-200.000	0.003	-0.329
-515.872	-87.199	-0.139	-0.042
-514.858	-92.527	-0.306	0.085
-513.843	116.832	0.187	-0.228
-512.829	-200.000	0.021	-0.424
-511.814	-174.180	-0.385	0.011
-510.799	302.067	0.039	-0.071
-509.785	368.778	-0.093	-0.187
-508.770	703.633	0.065	-0.171
-507.756	347.693	-0.078	-0.152
-506.741	-70.246	-0.153	-0.058
-505.726	800.000	0.030	-0.104
-504.712	558.853	0.142	0.339
-503.697	94.775	0.078	0.088
-502.683	800.000	-0.064	-0.254
-501.668	-56.029	-0.270	-0.120
-500.653	-200.000	-0.036	-0.250
-499.639	789.607	0.076	-0.208
-498.624	-85.669	0.054	0.017
-497.610	142.889	0.099	0.130
-496.595	800.000	0.041	-0.177
-495.581	-200.000	-0.074	0.428
-494.566	-129.599	-0.223	-0.031
-493.551	-186.887	0.258	-0.004
-492.537	107.972	-0.221	0.261
-491.522	-111.197	-0.292	0.059
-490.508	14.374	-0.269	-0.208
-489.493	-78.494	0.187	0.063
-488.478	94.489	0.118	-0.132
-487.464	-187.991	0.127	-0.002
-486.449	-200.000	0.031	-0.293
-485.435	-47.706	0.181	0.087
-484.420	47.880	0.180	0.167
-483.405	-200.000	0.000	0.047
-482.391	6.970	-0.183	0.135
-481.376	381.405	0.048	0.098
-480.362	800.000	-0.023	-0.085
-479.347	-140.559	-0.130	0.013
-478.332	-200.000	-0.053	-0.427
-477.318	-10.732	-0.257	-0.169
-476.303	-2.023	0.297	0.207
-475.289	-95.759	0.130	-0.034
-474.274	800.000	-0.080	0.219
-473.259	-64.833	0.331	0.133
-472.245	-200.000	0.015	-0.124
-471.230	-118.186	0.376	0.066
-470.216	93.067	0.051	-0.057
-469.201	-30.041	0.233	-0.131
-468.186	-4.486	0.323	-0.221
-467.172	-75.826	0.147	-0.052
-466.157	-97.374	-0.261	-0.067
-465.143	1.181	0.091	-0.064
-464.128	0.375	-0.240	0.170
-463.113	319.532	0.134	-0.251
-462.099	-200.000	-0.056	0.249
-461.084	112.306	-0.068	-0.081
-460.070	-83.099	0.104	0.033
-459.055	106.858	-0.121	-0.143
-458.040	658.690	0.118	0.301
-457.026	800.000	-0.052	-0.200
-456.011	-74.263	-0.335	0.120
-454.997	-177.302	0.351	-0.009
-453.982	-200.000	0.056	-0.305
-452.968	-53.015	-0.133	0.061
-451.953	-93.379	-0.224	-0.061
-450.938	1.012	-0.292	-0.207
-449.924	308.522	-0.182	-0.336
-448.909	-27.646	-0.201	-0.115
-447.895	61.579	-0.053	-0.052
-446.880	-0.325	0.132	-0.093
-445.865	-74.656	0.244	-0.087
-444.851	128.592	-0.148	-0.187
-443.836	-12.848	-0.190	0.122
-442.822	153.495	-0.136	-0.184
-441.807	-79.706	0.348	0.116
-440.792	800.000	-0.121	0.419
-439.778	-200.000	-0.046	0.270
-438.763	592.489	-0.127	-0.311
-437.749	80.485	-0.203	-0.217
-436.734	260.065	0.283	0.483
-435.719	97.653	-0.153	0.174
-434.705	-200.000	-0.007	0.131
-433.690	178.049	0.060	-0.087
-432.676	800.000	0.070	0.199
-431.661	418.992	-0.061	0.129
-430.646	-71.225	-0.272	0.101
-429.632	-200.000	0.036	0.266
-428.617	-4.328	-0.131	-0.089
-427.603	375.422	0.040	0.081
-426.588	23.846	-0.173	-0.141
-425.573	-36.730	-0.100	0.053
-424.559	-24.158	0.078	0.046
-423.544	-91.454	0.115	0.032
-422.530	69.579	-0.143	0.146
-421.515	-111.690	0.143	-0.029
-420.500	180.016	-0.134	-0.195
-419.486	-33.908	-0.184	0.100
-418.471	39.512	-0.040	0.035
-417.457	800.000	-0.046	-0.158
-416.442	777.905	0.058	-0.157
-415.428	17.997	-0.141	0.111
-414.413	-52.406	0.093	-0.043
-413.398	-3.285	0.176	0.121
-412.384	800.000	-0.047	0.170
-411.369	-123.000	-0.154	-0.025
-410.355	112.394	-0.181	-0.217
-409.340	371.842	0.085	0.170
-408.325	-60.123	-0.300	-0.126
-407.311	-200.000	-0.040	-0.232
-406.296	357.439	0.055	-0.109
-405.282	423.313	-0.083	0.175
-404.267	-200.000	-0.006	-0.442
-403.252	23.244	0.351	-0.285
-402.238	800.000	0.030	0.110
-401.223	-60.056	0.111	-0.047
-400.209	-200.000	-0.024	-0.232
-399.194	800.000	-0.042	0.171
-398.179	-200.000	-0.001	0.054
-397.165	800.000	-0.034	0.118
-396.150	-129.209	0.177	-0.024
-395.136	-99.024	-0.271	0.068
-394.121	-138.637	-0.217	-0.023
-393.106	-75.653	-0.090	0.032
-392.092	-84.289	0.302	-0.094
-391.077	-200.000	-0.010	-0.166
-390.063	-47.060	-0.079	0.038
-389.048	-145.419	-0.115	-0.010
-388.033	142.778	0.283	0.371
-387.019	314.119	0.201	0.374
-386.004	-39.133	0.068	-0.035
-384.990	129.478	0.062	-0.079
-383.975	-20.239	0.083	-0.051
-382.960	-200.000	-0.008	0.193
-381.946	-128.569	0.322	0.045
-380.931	407.613	-0.077	-0.161
-379.917	-200.000	-0.034	0.256
-378.902	342.123	-0.174	0.335
-377.888	-117.324	0.050	-0.009
-376.873	-133.757	-0.096	0.012
-375.858	35.562	-0.042	0.036
-374.844	47.432	-0.195	0.180
-373.829	45.386	0.161	-0.147
-372.815	297.949	-0.172	-0.311
-371.800	-53.444	0.280	0.127
-370.785	-35.690	-0.364	0.195
-369.771	-46.291	-0.324	0.157
-368.756	-86.424	0.223	-0.068
-367.742	800.000	0.111	0.403
-366.727	-200.000	-0.007	0.281
-365.712	-52.142	0.256	0.117
-364.698	239.326	0.136	-0.223
-363.683	-200.000	0.036	-0.233
-362.669	15.477	0.119	0.092
-361.654	-22.625	0.202	0.120
-360.639	144.146	-0.108	0.142
-359.625	24.187	0.136	0.111
-358.610	80.503	0.130	0.138
-357.596	-83.065	-0.049	-0.016
-356.581	-200.000	0.000	0.044
-355.566	196.537	-0.216	0.324
-354.552	117.843	0.055	0.067
-353.537	449.859	-0.100	-0.218
-352.523	-200.000	-0.012	-0.133
-351.508	-109.091	-0.326	0.068
-350.493	-7.037	0.237	-0.158
-349.479	-200.000	0.064	-0.343
-348.464	48.514	-0.048	0.045
-347.450	-148.003	-0.172	0.014
-346.435	-10.033	-0.209	0.137
-345.420	-110.536	-0.143	-0.029
-344.406	213.678	-0.106	0.166
-343.391	-67.469	0.140	-0.054
-342.377	-92.721	-0.193	0.053
-341.362	-101.514	-0.033	0.008
-340.348	-130.699	0.162	0.021
-339.333	800.000	0.093	-0.306
-338.318	-200.000	-0.026	-0.219
-337.304	16.368	-0.345	-0.268
-336.289	800.000	0.055	-0.193
-335.275	-59.372	-0.335	0.142
-334.260	38.991	0.199	0.175
-333.245	-29.599	0.091	0.051
-332.231	-200.000	0.012	-0.182
-331.216	780.594	-0.098	-0.263
-330.202	-8.965	-0.036	0.024
-329.187	800.000	-0.052	0.193
-328.172	789.790	0.055	0.149
-327.158	-171.499	-0.376	0.012
-326.143	173.874	-0.127	-0.181
-325.129	-200.000	-0.004	-0.191
-324.114	-200.000	0.008	-0.175
-323.099	800.000	0.024	0.081
-322.085	-200.000	-0.009	-0.142
-321.070	258.636	0.134	-0.227
-320.056	110.402	-0.032	-0.038
-319.041	-70.107	0.418	-0.157
-318.026	-200.000	0.012	0.200
-317.012	-200.000	0.063	-0.391
-315.997	800.000	0.039	-0.122
-314.983	-131.413	0.272	-0.035
-313.968	800.000	-0.036	0.137
-312.953	-200.000	-0.009	-0.293
-311.939	-106.758	0.371	-0.081
-310.924	-64.870	0.304	-0.121
-309.910	267.583	0.027	0.046
-308.895	274.415	0.089	-0.154
-307.880	211.276	0.165	-0.255
-306.866	-104.279	0.363	0.083
-305.851	29.428	-0.147	0.123
-304.837	94.819	-0.095	0.106
-303.822	-103.555	-0.271	0.063
-302.807	137.261	-0.079	0.102
-301.793	-200.000	-0.054	-0.249
-300.778	138.073	0.188	0.242
-299.764	492.449	0.023	0.052
-298.749	-54.661	0.265	-0.118
-297.735	-130.893	0.491	-0.065
-296.720	-43.029	-0.432	-0.215
-295.705	56.266	-0.118	-0.113
-294.691	569.612	0.087	-0.207
-293.676	-200.000	0.268	0.001
-292.662	-200.000	0.030	0.234
-291.647	332.306	0.063	-0.120
-290.632	-152.954	-0.271	0.019
-289.618	-150.595	0.412	0.031
-288.603	-100.012	-0.209	-0.051
-287.589	-84.912	0.192	0.059
-286.574	-200.000	-0.131	-0.001
-285.559	62.405	0.143	0.140
-284.545	-200.000	-0.028	0.209
-283.530	346.835	-0.039	-0.076
-282.516	-200.000	-0.454	0.001
-281.501	366.883	0.067	-0.133
-280.486	800.000	0.021	-0.073
-279.472	800.000	0.026	-0.095
-278.457	-35.790	0.201	0.107
-277.443	-106.894	0.112	-0.024
-276.428	306.909	0.128	0.234
-275.413	-150.407	-0.090	0.007
-274.399	96.666	-0.103	-0.116
-273.384	-77.329	0.138	0.047
-272.370	-69.165	-0.109	-0.041
-271.355	-147.311	0.137	-0.011
-270.340	-200.000	-0.024	0.202
-269.326	800.000	-0.043	0.156
-268.311	200.450	0.110	0.166
-267.297	-120.878	-0.207	0.034
-266.282	123.943	0.147	0.181
-265.267	-189.633	0.383	-0.004
-264.253	-91.941	0.236	0.066
-263.238	686.367	0.132	-0.339
-262.224	800.000	-0.102	-0.321
-261.209	-200.000	0.044	-0.201
-260.195	61.224	-0.212	-0.206
-259.180	239.528	-0.194	-0.318
-258.165	-200.000	-0.064	-0.292
-257.151	234.425	-0.106	-0.171
-256.136	65.338	-0.279	0.277
-255.122	-32.464	-0.073	-0.040
-254.107	43.813	-0.057	-0.051
-253.092	-118.123	-0.288	0.051
-252.078	-75.938	0.170	0.059
-251.063	346.143	0.059	0.115
-250.049	-200.000	-0.039	0.199
-249.034	-200.000	0.010	-0.069
-248.019	354.703	-0.071	-0.138
-247.005	-96.213	-0.254	-0.066
-245.990	181.884	0.152	-0.219
-244.976	-12.113	0.254	0.163
-243.961	-176.033	0.268	-0.007
-242.946	-55.368	-0.119	0.052
-241.932	-34.124	-0.212	0.114
-240.917	-58.476	-0.098	0.042
-239.903	-66.103	0.203	0.080
-238.888	148.027	-0.241	0.319
-237.873	800.000	0.044	0.154
-236.859	-65.657	0.349	0.137
-235.844	-105.515	-0.163	-0.036
-234.830	49.115	0.377	0.348
-233.815	-129.255	0.179	0.024
-232.800	470.764	-0.017	0.039
-231.786	-44.235	-0.290	0.143
-230.771	-51.178	0.222	-0.102
-229.757	231.498	0.085	-0.136
-228.742	60.154	-0.192	0.186
-227.727	-38.507	-0.216	-0.112
-226.713	-73.624	-0.229	0.082
-225.698	-45.075	-0.402	0.196
-224.684	-200.000	0.015	0.212
-223.669	210.720	-0.086	0.132
-222.655	-17.758	0.325	-0.200
-221.640	-180.103	0.078	-0.002
-220.625	35.532	0.086	0.074
-219.611	-64.260	-0.044	0.018
-218.596	-24.368	-0.221	-0.129
-217.582	156.982	0.061	0.082
-216.567	800.000	-0.047	-0.185
-215.552	392.387	-0.119	-0.244
-214.538	73.223	0.111	-0.113
-213.523	-134.233	0.117	0.014
-212.509	-17.516	-0.215	0.133
-211.494	-200.000	0.004	0.038
-210.479	-200.000	0.014	-0.298
-209.465	-12.579	-0.115	0.074
-208.450	-198.063	0.353	0.002
-207.436	800.000	0.103	0.324
-206.421	262.693	-0.059	-0.100
-205.406	-5.452	-0.377	-0.254
-204.392	-200.000	0.035	0.205
-203.377	528.112	0.110	0.254
-202.363	-12.775	-0.157	0.100
-201.348	-65.371	-0.159	-0.063
-200.333	800.000	0.009	-0.033
-199.319	21.676	0.329	-0.262
-198.304	131.969	-0.024	-0.030
-197.290	-200.000	0.001	0.172
-196.275	90.196	-0.275	-0.302
-195.260	-200.000	0.008	0.184
-194.246	-67.406	0.089	0.034
-193.231	-200.000	-0.010	-0.203
-192.217	-70.710	-0.165	0.061
-191.202	800.000	-0.052	0.192
-190.187	-87.451	0.417	0.124
-189.173	0.555	-0.303	0.212
-188.158	108.021	-0.098	-0.114
-187.144	160.396	0.250	0.341
-186.129	-78.981	0.216	-0.072
-185.114	-167.498	-0.337	-0.013
-184.100	-200.000	0.029	-0.430
-183.085	49.100	-0.307	-0.282
-182.071	-64.471	0.167	0.066
-181.056	-66.138	-0.141	0.055
-180.042	-127.129	0.303	0.043
-179.027	160.696	-0.069	0.095
-178.012	124.070	0.129	-0.159
-176.998	138.285	-0.172	-0.221
-175.983	30.587	-0.183	-0.153
-174.969	89.673	0.140	0.153
-173.954	-67.920	-0.341	0.130
-172.939	-146.637	0.197	0.017
-171.925	-200.000	0.016	-0.391
-170.910	-89.543	-0.091	-0.026
-169.896	800.000	-0.064	0.180
-168.881	-167.853	-0.505	0.019
-167.866	582.597	0.022	-0.052
-166.852	-81.949	0.258	-0.083
-165.837	-102.634	0.226	0.053
-164.823	675.290	0.042	-0.108
-163.808	800.000	0.088	0.302
-162.793	-125.494	-0.092	0.014
-161.779	-200.000	0.096	0.427
-160.764	-52.963	0.402	-0.181
-159.750	665.604	-0.060	-0.152
-158.735	320.314	0.140	0.259
-157.720	-200.000	0.015	0.575
-156.706	191.877	-0.084	-0.123
-155.691	8.045	-0.128	-0.094
-154.677	164.499	0.184	0.254
-153.662	107.996	0.043	-0.050
-152.647	-81.427	0.138	0.044
-151.633	800.000	0.092	0.248
-150.618	-14.962	-0.298	-0.187
-149.604	-67.317	0.103	-0.039
-148.589	-200.000	-0.024	-0.335
-147.574	800.000	0.087	-0.247
-146.560	800.000	0.058	0.186
-145.545	-200.000	-0.031	-0.230
-144.531	-151.821	0.099	-0.007
-143.516	-200.000	0.004	0.021
-142.502	493.837	-0.163	-0.366
-141.487	-200.000	0.014	-0.272
-140.472	-200.000	-0.017	0.136
-139.458	-60.084	0.254	0.106
-138.443	-135.953	-0.079	0.009
-137.429	104.543	-0.231	-0.266
-136.414	258.840	0.108	-0.182
-135.399	56.500	-0.033	0.031
-134.385	-55.395	0.223	-0.098
-133.370	84.969	0.115	0.124
-132.356	-48.709	0.294	0.138
-131.341	-131.266	0.271	0.035
-130.326	40.685	-0.218	-0.192
-129.312	-50.816	0.372	-0.171
-128.297	-3.785	-0.212	-0.144
-127.283	42.693	0.188	0.167
-126.268	11.141	0.276	-0.206
-125.253	-200.000	0.020	0.098
-124.239	-42.606	0.040	0.020
-123.224	30.364	0.135	-0.113
-122.210	-53.607	0.128	0.057
