DTS Sentinel unit serial number:	SN413079Multiplexer serial number:	ORYXHardware model number:	OX4-SRSoftware version number:	ORYX F/W v4.00 Oryx Data Collector v3.7.2.0data status	okinstallation	princeton_trtdifferential loss correction	single-endedforward channel	channel 3reverse channel	N/Adate	2019/09/15time	13:16:35forward acquisition time	60.00reverse acquisition time	0.00gamma	496.2192k internal	0.2295k external	0.2295temperature offset calibration	0.9961default loss term (dB/km)	0.3790temperature slope calibration	1.0000multiplexer offset coefficient	1.0000multiplexer slope coefficient	1.0000fibre end	0.00T internal ref (°C)	37.14T ext. ref 1 (°C)	4.94T ext. ref 2 (°C)	34.47length (m)	temperature (°C)	Stokes	anti-Stokes-747.200	-38.408	0.295	-0.160
-746.185	-34.935	-0.154	0.086
-745.171	-66.258	0.147	-0.060
-744.156	-200.000	-0.012	0.272
-743.142	-200.000	-0.004	0.214
-742.127	-92.215	0.294	-0.085
-741.112	-200.000	0.020	0.139
-740.098	800.000	0.104	0.371
-739.083	-59.628	0.263	0.115
-738.069	95.737	-0.083	-0.097
-737.054	122.649	0.143	0.182
-736.039	-68.701	-0.315	0.125
-735.025	239.231	-0.092	-0.157
-734.010	-90.624	0.114	0.034
-732.996	-25.050	-0.219	0.133
-731.981	355.375	-0.185	-0.377
-730.966	-54.889	-0.283	-0.130
-729.952	-68.366	0.394	-0.156
-728.937	-94.005	-0.242	0.068
-727.923	-63.639	-0.123	-0.052
-726.908	-48.230	-0.074	-0.036
-725.894	144.021	0.031	-0.042
-724.879	-200.000	-0.025	-0.425
-723.864	-126.307	0.456	-0.070
-722.850	-119.456	-0.185	-0.033
-721.835	-91.348	-0.475	-0.139
-720.821	-0.372	-0.256	-0.186
-719.806	-30.887	-0.304	-0.175
-718.791	176.974	0.069	-0.103
-717.777	-200.000	-0.014	-0.115
-716.762	537.604	-0.138	-0.336
-715.748	45.674	-0.157	-0.148
-714.733	-12.336	-0.062	-0.041
-713.718	-133.508	0.164	0.021
-712.704	-200.000	-0.008	0.186
-711.689	-131.564	-0.119	0.016
-710.675	-124.463	-0.325	0.052
-709.660	362.964	0.069	-0.141
-708.645	62.151	-0.179	0.183
-707.631	800.000	0.092	0.340
-706.616	800.000	0.077	-0.238
-705.602	66.330	-0.145	-0.151
-704.587	-68.583	-0.269	0.106
-703.572	-112.877	-0.487	-0.098
-702.558	245.114	0.164	0.281
-701.543	800.000	0.063	0.248
-700.529	351.595	0.165	-0.334
-699.514	262.101	0.074	-0.132
-698.499	-45.921	-0.226	-0.114
-697.485	800.000	-0.128	0.370
-696.470	-45.633	0.098	-0.050
-695.456	45.001	-0.209	-0.196
-694.441	-122.963	0.057	0.009
-693.426	39.733	-0.066	-0.061
-692.412	235.309	-0.106	-0.178
-691.397	800.000	-0.040	0.174
-690.383	800.000	-0.031	-0.103
-689.368	8.358	0.169	-0.129
-688.354	800.000	-0.044	0.160
-687.339	-200.000	-0.003	0.025
-686.324	-142.289	-0.136	0.014
-685.310	-123.507	-0.359	-0.058
-684.295	191.353	0.160	-0.246
-683.281	575.204	0.092	0.230
-682.266	-88.519	0.052	-0.016
-681.251	115.854	0.240	-0.300
-680.237	93.004	0.218	-0.251
-679.222	-14.991	-0.009	-0.006
-678.208	367.848	-0.163	-0.336
-677.193	437.006	0.075	-0.166
-676.178	-98.432	-0.211	-0.055
-675.164	-34.428	-0.425	-0.237
-674.149	410.387	-0.092	0.199
-673.135	83.644	-0.130	-0.145
-672.120	800.000	-0.057	0.178
-671.105	250.155	-0.209	-0.362
-670.091	-139.946	-0.331	0.036
-669.076	800.000	-0.084	0.279
-668.062	82.218	-0.142	0.158
-667.047	800.000	-0.044	-0.127
-666.032	122.183	-0.106	-0.135
-665.018	-11.895	-0.133	-0.089
-664.003	174.856	-0.192	0.284
-662.989	-8.808	0.183	-0.125
-661.974	-200.000	-0.007	-0.120
-660.959	87.425	-0.055	0.062
-659.945	357.324	0.171	-0.348
-658.930	44.179	0.212	0.198
-657.916	56.091	0.141	-0.139
-656.901	530.877	-0.017	0.041
-655.886	585.861	-0.053	-0.132
-654.872	800.000	-0.054	-0.158
-653.857	-200.000	-0.015	-0.166
-652.843	83.767	-0.202	0.225
-651.828	5.834	-0.109	0.082
-650.814	107.088	-0.104	0.126
-649.799	-200.000	0.018	0.382
-648.784	-114.445	0.084	-0.016
-647.770	-193.731	0.118	-0.001
-646.755	-200.000	-0.028	-0.154
-645.741	162.986	0.119	0.170
-644.726	-177.041	0.284	0.007
-643.711	-200.000	0.047	0.310
-642.697	550.000	-0.118	-0.289
-641.682	-39.802	-0.111	-0.059
-640.668	647.820	-0.043	-0.111
-639.653	-36.155	-0.221	0.122
-638.638	-200.000	-0.035	0.325
-637.624	800.000	0.018	-0.066
-636.609	500.005	0.122	-0.287
-635.595	-29.869	0.107	-0.062
-634.580	408.558	-0.089	0.192
-633.565	13.885	0.146	-0.115
-632.551	-12.909	0.090	-0.060
-631.536	63.015	-0.193	-0.197
-630.522	-125.687	-0.265	0.041
-629.507	-29.665	-0.302	0.176
-628.492	-83.462	-0.212	-0.069
-627.478	-200.000	0.069	0.344
-626.463	-122.274	0.108	0.018
-625.449	-53.598	0.194	0.090
-624.434	800.000	0.113	0.441
-623.419	-200.000	0.016	0.245
-622.405	78.819	0.060	0.065
-621.390	1.193	-0.122	-0.089
-620.376	103.227	0.034	-0.041
-619.361	-200.000	-0.010	0.124
-618.346	213.817	0.229	-0.368
-617.332	-64.437	0.064	0.026
-616.317	-200.000	0.026	-0.359
-615.303	-200.000	-0.002	0.056
-614.288	707.987	-0.077	0.206
-613.273	-94.357	-0.104	0.029
-612.259	-6.847	-0.207	-0.143
-611.244	-74.968	-0.167	-0.061
-610.230	195.008	-0.060	0.093
-609.215	-62.522	0.071	-0.030
-608.201	-200.000	-0.008	-0.048
-607.186	-200.000	0.065	-0.341
-606.171	-200.000	-0.012	0.104
-605.157	133.393	0.122	-0.161
-604.142	-145.075	0.321	-0.030
-603.128	108.161	-0.139	0.169
-602.113	-91.846	-0.039	0.011
-601.098	105.570	-0.102	0.122
-600.084	-15.923	0.096	0.062
-599.069	-35.757	-0.166	-0.092
-598.055	-78.596	0.286	0.099
-597.040	-82.537	0.564	0.186
-596.025	-18.800	-0.329	-0.208
-595.011	-27.098	-0.114	0.067
-593.996	3.060	0.088	-0.065
-592.982	-107.789	0.060	0.013
-591.967	100.124	-0.161	0.190
-590.952	-165.902	0.279	0.012
-589.938	-48.960	-0.281	0.137
-588.923	-84.391	-0.194	-0.062
-587.909	40.401	0.159	0.145
-586.894	-135.340	0.175	0.021
-585.879	656.154	-0.083	-0.217
-584.865	-11.536	-0.147	-0.098
-583.850	-60.363	0.113	0.049
-582.836	800.000	0.078	0.243
-581.821	47.162	-0.215	-0.203
-580.806	55.507	-0.134	-0.132
-579.792	315.067	-0.093	0.178
-578.777	26.434	0.081	0.069
-577.763	-97.752	0.213	-0.056
-576.748	429.114	0.141	-0.310
-575.733	-132.758	-0.218	0.028
-574.719	-21.760	-0.054	-0.033
-573.704	800.000	-0.049	-0.205
-572.690	351.273	-0.151	-0.304
-571.675	334.060	0.054	0.106
-570.661	-200.000	-0.017	-0.118
-569.646	800.000	-0.028	0.089
-568.631	-200.000	0.013	0.283
-567.617	-119.143	-0.348	0.062
-566.602	-145.400	0.155	-0.014
-565.588	-49.436	-0.250	-0.121
-564.573	-167.887	0.338	-0.013
-563.558	-41.139	0.209	0.109
-562.544	645.569	-0.002	-0.006
-561.529	-42.125	0.118	0.061
-560.515	-200.000	-0.008	-0.121
-559.500	-80.176	-0.151	0.051
-558.485	-73.441	0.149	-0.055
-557.471	-200.000	0.000	-0.088
-556.456	-104.693	0.166	0.039
-555.442	-24.421	-0.326	-0.197
-554.427	-125.563	0.173	-0.027
-553.412	100.786	-0.072	0.085
-552.398	-103.425	-0.138	0.033
-551.383	617.231	0.076	-0.194
-550.369	590.176	0.052	-0.130
-549.354	-61.616	-0.111	0.047
-548.339	-126.677	-0.188	0.028
-547.325	-104.785	0.273	-0.064
-546.310	800.000	0.092	-0.287
-545.296	-67.374	-0.394	0.157
-544.281	259.414	-0.110	-0.192
-543.266	-200.000	-0.000	0.156
-542.252	800.000	-0.025	0.110
-541.237	73.325	0.115	0.122
-540.223	-86.337	-0.114	-0.036
-539.208	800.000	-0.139	-0.460
-538.193	-36.987	0.408	-0.222
-537.179	-23.514	0.160	-0.097
-536.164	286.678	-0.088	0.162
-535.150	595.981	-0.095	-0.237
-534.135	101.507	0.144	0.170
-533.121	-76.106	-0.388	0.139
-532.106	233.465	-0.113	-0.188
-531.091	94.077	-0.105	0.121
-530.077	-169.867	-0.032	-0.001
-529.062	-157.592	-0.132	0.008
-528.048	800.000	0.111	-0.405
-527.033	-54.518	-0.139	0.064
-526.018	-102.629	0.110	0.027
-525.004	86.681	0.093	0.105
-523.989	461.551	-0.119	-0.268
-522.975	-20.221	-0.072	-0.045
-521.960	426.023	-0.091	-0.199
-520.945	-200.000	-0.030	-0.180
-519.931	-200.000	-0.030	-0.151
-518.916	-200.000	-0.042	-0.346
-517.902	3.986	0.103	-0.077
-516.887	0.975	0.152	-0.111
-515.872	-122.875	0.266	-0.043
-514.858	188.813	-0.049	-0.074
-513.843	-85.055	0.123	-0.039
-512.829	237.965	0.172	0.289
-511.814	-200.000	0.006	0.074
-510.799	-200.000	-0.031	0.216
-509.785	-200.000	0.004	-0.049
-508.770	75.603	0.125	-0.133
-507.756	-200.000	-0.000	0.130
-506.741	800.000	0.061	0.255
-505.726	193.020	-0.084	0.128
-504.712	27.848	0.112	0.095
-503.697	-99.548	0.196	0.050
-502.683	-67.704	-0.350	0.139
-501.668	-200.000	0.002	0.118
-500.653	265.881	0.131	-0.232
-499.639	-80.934	-0.186	-0.062
-498.624	-136.523	-0.302	-0.035
-497.610	7.958	-0.136	-0.103
-496.595	20.530	-0.105	-0.086
-495.581	-113.770	0.315	-0.062
-494.566	636.493	0.079	-0.203
-493.551	800.000	0.048	-0.183
-492.537	800.000	-0.081	-0.278
-491.522	90.104	0.089	0.101
-490.508	-57.284	0.049	0.022
-489.493	800.000	-0.120	-0.446
-488.478	8.996	0.095	0.073
-487.464	615.648	-0.091	0.231
-486.449	-200.000	0.036	0.341
-485.435	737.267	0.051	-0.139
-484.420	-200.000	-0.009	0.104
-483.405	-189.332	-0.123	-0.001
-482.391	5.702	0.160	0.120
-481.376	-11.271	0.144	0.096
-480.362	-180.679	0.330	-0.007
-479.347	-189.007	0.133	-0.002
-478.332	-136.125	-0.240	0.028
-477.318	-141.387	0.163	-0.017
-476.303	297.446	0.106	-0.197
-475.289	-77.091	-0.200	-0.071
-474.274	-9.732	0.092	0.062
-473.259	23.522	-0.028	0.023
-472.245	14.176	-0.172	-0.136
-471.230	-96.483	-0.168	0.045
-470.216	-200.000	0.030	0.271
-469.201	-10.562	-0.417	0.279
-468.186	-69.091	0.087	0.034
-467.172	8.087	0.212	-0.161
-466.157	-89.093	0.289	0.086
-465.143	-132.001	-0.070	-0.009
-464.128	220.764	-0.052	0.085
-463.113	-200.000	0.049	-0.259
-462.099	-200.000	-0.006	-0.284
-461.084	-132.921	0.328	-0.042
-460.070	61.489	0.097	0.097
-459.055	291.641	-0.162	-0.298
-458.040	-200.000	0.022	-0.108
-457.026	137.702	0.143	-0.189
-456.011	133.727	0.107	0.140
-454.997	272.097	-0.132	-0.236
-453.982	-159.707	-0.207	-0.012
-452.968	531.910	-0.060	0.145
-451.953	-193.113	-0.463	-0.004
-450.938	-125.336	-0.074	0.011
-449.924	355.588	0.044	0.089
-448.909	3.681	-0.172	-0.127
-447.895	-200.000	-0.013	-0.316
-446.880	-142.907	0.304	-0.030
-445.865	800.000	0.077	-0.241
-444.851	-43.796	-0.126	-0.064
-443.836	-200.000	-0.014	-0.110
-442.822	-162.742	-0.090	0.004
-441.807	800.000	0.047	-0.164
-440.792	463.512	0.111	-0.250
-439.778	-11.663	-0.240	0.159
-438.763	233.291	-0.065	0.108
-437.749	105.134	0.156	0.186
-436.734	-81.789	0.299	0.099
-435.719	49.087	-0.072	0.068
-434.705	-41.791	0.183	0.095
-433.690	45.757	0.267	-0.249
-432.676	-86.047	-0.251	0.078
-431.661	-128.081	0.224	0.032
-430.646	-117.176	-0.046	0.008
-429.632	-200.000	-0.021	0.200
-428.617	800.000	-0.095	0.356
-427.603	-164.448	0.360	0.017
-426.588	233.974	0.061	-0.102
-425.573	800.000	0.022	-0.096
-424.559	-65.680	0.425	-0.172
-423.544	-72.973	0.263	0.097
-422.530	-144.678	-0.320	-0.030
-421.515	221.764	0.204	-0.332
-420.500	-200.000	0.004	-0.074
-419.486	39.369	0.370	0.334
-418.471	-53.167	0.520	-0.241
-417.457	153.097	0.283	-0.391
-416.442	148.610	-0.019	-0.026
-415.428	83.336	-0.115	0.127
-414.413	526.046	0.113	0.269
-413.398	-90.655	-0.371	-0.108
-412.384	38.140	0.190	-0.170
-411.369	-73.959	-0.183	-0.067
-410.355	-200.000	-0.030	0.133
-409.340	193.369	0.122	-0.187
-408.325	-162.468	-0.078	0.004
-407.311	308.711	-0.022	-0.042
-406.296	162.279	0.037	0.052
-405.282	-200.000	-0.026	0.217
-404.267	-200.000	0.015	-0.116
-403.252	88.262	0.123	0.138
-402.238	-84.621	0.272	-0.086
-401.223	-130.487	-0.230	0.031
-400.209	-98.222	-0.149	0.039
-399.194	800.000	0.136	-0.430
-398.179	-85.135	-0.132	-0.042
-397.165	-151.382	-0.038	-0.003
-396.150	49.744	-0.119	0.113
-395.136	-118.160	-0.308	0.055
-394.121	142.629	0.193	-0.258
-393.106	-64.850	-0.165	-0.067
-392.092	-67.654	0.024	-0.009
-391.077	766.245	0.046	0.127
-390.063	-15.864	0.143	0.092
-389.048	-200.000	0.004	-0.185
-388.033	115.661	-0.125	0.154
-387.019	-200.000	0.035	-0.206
-386.004	-131.575	-0.180	0.024
-384.990	-106.500	0.129	-0.029
-383.975	800.000	-0.018	0.051
-382.960	317.609	0.132	0.251
-381.946	491.376	-0.011	-0.026
-380.931	245.449	-0.176	0.299
-379.917	-200.000	0.030	-0.274
-378.902	-200.000	-0.015	0.089
-377.888	0.853	-0.259	-0.187
-376.873	393.960	0.181	-0.380
-375.858	-200.000	0.018	0.118
-374.844	-22.536	-0.164	0.100
-373.829	-37.660	0.154	-0.083
-372.815	118.462	0.144	-0.179
-371.800	-99.477	-0.174	0.044
-370.785	629.386	-0.035	0.088
-369.771	800.000	0.070	-0.199
-368.756	-107.284	0.029	-0.006
-367.742	230.625	-0.146	0.240
-366.727	196.472	-0.105	0.161
-365.712	292.530	0.225	0.414
-364.698	-93.875	0.096	0.027
-363.683	471.159	-0.124	-0.281
-362.669	137.478	0.173	0.228
-361.654	-200.000	0.086	0.378
-360.639	626.866	-0.151	0.385
-359.625	6.340	-0.091	0.068
-358.610	438.365	0.036	-0.079
-357.596	800.000	-0.049	-0.183
-356.581	52.909	-0.322	-0.310
-355.566	-0.672	0.150	0.107
-354.552	-97.416	-0.217	-0.057
-353.537	-200.000	-0.050	0.230
-352.523	-73.952	0.174	-0.064
-351.508	-113.369	-0.203	0.040
-350.493	82.833	0.116	-0.127
-349.479	191.732	-0.076	-0.115
-348.464	439.095	0.054	0.118
-347.450	14.649	0.038	-0.030
-346.435	-25.925	-0.200	0.119
-345.420	611.357	-0.123	-0.310
-344.406	-106.229	-0.072	-0.016
-343.391	366.784	0.103	-0.209
-342.377	-103.784	0.400	0.094
-341.362	18.637	0.050	-0.040
-340.348	73.364	-0.082	0.086
-339.333	-74.339	0.199	-0.073
-338.318	7.694	0.158	-0.119
-337.304	-88.090	-0.123	-0.037
-336.289	800.000	-0.058	-0.180
-335.275	-170.900	-0.181	0.006
-334.260	-200.000	0.037	0.314
-333.245	19.949	0.155	0.126
-332.231	6.926	0.137	-0.103
-331.216	-22.468	0.325	0.198
-330.202	52.488	-0.126	0.121
-329.187	800.000	-0.063	0.199
-328.172	-100.585	-0.189	-0.047
-327.158	-2.596	0.049	0.034
-326.143	426.670	-0.159	-0.344
-325.129	800.000	-0.008	-0.036
-324.114	-120.387	0.134	0.023
-323.099	128.081	-0.088	0.112
-322.085	11.867	-0.063	0.049
-321.070	248.106	-0.072	-0.123
-320.056	-76.595	-0.105	-0.037
-319.041	-45.277	0.099	0.049
-318.026	63.190	-0.199	0.201
-317.012	-108.443	-0.261	-0.056
-315.997	-200.000	0.003	0.027
-314.983	-103.383	0.376	0.089
-313.968	415.269	-0.079	0.168
-312.953	-86.149	-0.124	0.039
-311.939	32.770	0.030	0.026
-310.924	323.148	-0.070	-0.135
-309.910	416.977	0.128	0.276
-308.895	252.259	-0.022	0.038
-307.880	800.000	0.031	-0.107
-306.866	420.064	0.096	-0.206
-305.851	800.000	0.054	0.184
-304.837	-134.950	0.086	0.010
-303.822	-79.332	0.528	0.180
-302.807	800.000	0.104	0.332
-301.793	102.281	0.005	-0.006
-300.778	-40.125	-0.074	0.039
-299.764	49.734	0.040	-0.038
-298.749	-137.211	-0.232	0.027
-297.735	-140.194	-0.217	0.023
-296.720	-200.000	0.010	0.163
-295.705	50.202	-0.321	-0.304
-294.691	2.365	-0.107	-0.078
-293.676	315.410	0.121	-0.230
-292.662	-113.809	-0.271	0.053
-291.647	41.858	0.069	-0.062
-290.632	-122.641	0.119	0.019
-289.618	99.996	0.050	0.059
-288.603	136.340	0.090	0.118
-287.589	-200.000	-0.007	0.269
-286.574	36.110	-0.126	-0.111
-285.559	-136.656	-0.236	-0.027
-284.545	136.636	0.111	-0.145
-283.530	800.000	-0.116	0.338
-282.516	-185.181	-0.248	0.004
-281.501	800.000	-0.075	-0.215
-280.486	225.847	-0.292	0.475
-279.472	79.298	-0.080	-0.086
-278.457	-200.000	0.046	-0.352
-277.443	-71.286	0.144	-0.054
-276.428	-100.485	0.346	-0.086
-275.413	-8.015	0.201	0.136
-274.399	-8.470	-0.211	-0.143
-273.384	109.843	-0.133	0.160
-272.370	800.000	-0.025	0.088
-271.355	33.037	0.069	-0.060
-270.340	-200.000	-0.033	0.318
-269.326	-30.101	-0.159	0.091
-268.311	23.968	0.216	0.179
-267.297	-132.066	0.273	-0.036
-266.282	-76.209	-0.429	0.152
-265.267	419.182	-0.102	0.220
-264.253	-7.209	0.118	0.081
-263.238	800.000	0.064	0.191
-262.224	-37.073	-0.275	0.148
-261.209	-200.000	-0.009	0.078
-260.195	800.000	-0.017	0.056
-259.180	13.955	-0.161	-0.126
-258.165	-200.000	-0.000	-0.044
-257.151	800.000	0.079	0.290
-256.136	-62.797	0.008	0.003
-255.122	19.966	0.127	0.102
-254.107	-33.546	0.054	-0.030
-253.092	800.000	-0.056	-0.199
-252.078	558.563	-0.139	-0.336
-251.063	176.061	0.262	0.382
-250.049	230.404	0.248	-0.406
-249.034	-200.000	0.026	0.126
-248.019	-153.481	0.064	0.004
-247.005	-200.000	0.091	-0.416
-245.990	800.000	-0.070	-0.302
-244.976	220.418	0.222	-0.356
-243.961	61.547	0.064	0.064
-242.946	67.069	0.231	-0.236
-241.932	585.402	-0.011	-0.026
-240.917	-131.921	0.298	-0.039
-239.903	123.270	-0.111	-0.140
-238.888	25.367	-0.086	-0.072
-237.873	-38.541	-0.147	-0.078
-236.859	45.538	0.146	0.135
-235.844	5.573	-0.149	-0.110
-234.830	445.028	0.044	0.097
-233.815	525.846	-0.060	0.141
-232.800	-200.000	-0.048	-0.219
-231.786	-75.796	-0.317	-0.113
-230.771	475.206	0.106	0.240
-229.757	133.826	-0.131	0.170
-228.742	223.693	-0.064	-0.104
-227.727	-200.000	-0.044	-0.319
-226.713	800.000	-0.047	0.154
-225.698	-138.150	-0.041	-0.005
-224.684	-200.000	0.047	0.293
-223.669	-19.759	0.135	-0.083
-222.655	102.459	-0.110	0.129
-221.640	-155.861	-0.154	0.010
-220.625	-200.000	-0.020	-0.136
-219.611	69.831	0.302	0.312
-218.596	-200.000	0.002	-0.035
-217.582	800.000	-0.023	-0.083
-216.567	-179.168	0.133	-0.003
-215.552	800.000	-0.062	0.250
-214.538	126.796	0.074	-0.094
-213.523	-25.907	0.288	0.170
-212.509	-11.870	0.062	-0.041
-211.494	-16.659	0.388	0.246
-210.479	-49.910	0.198	0.094
-209.465	6.973	-0.253	0.189
-208.450	5.567	0.439	0.325
-207.436	-200.000	0.006	0.137
-206.421	509.235	-0.100	-0.232
-205.406	800.000	0.054	0.200
-204.392	281.932	0.144	0.259
-203.377	800.000	0.058	0.178
-202.363	383.743	-0.016	0.033
-201.348	-58.666	-0.190	-0.083
-200.333	-159.823	-0.040	0.002
-199.319	92.485	0.196	0.221
-198.304	108.430	-0.316	0.378
-197.290	387.405	-0.029	-0.059
-196.275	75.708	-0.078	-0.083
-195.260	-84.564	-0.191	0.060
-194.246	-65.003	0.218	-0.088
-193.231	800.000	0.033	0.107
-192.217	-50.518	-0.129	0.061
-191.202	800.000	-0.078	0.257
-190.187	43.675	0.243	-0.222
-189.173	127.515	-0.148	0.188
-188.158	13.516	0.050	-0.039
-187.144	800.000	-0.027	-0.077
-186.129	-160.690	-0.321	-0.017
-185.114	-200.000	0.041	0.237
-184.100	96.478	0.162	0.185
-183.085	130.772	0.123	0.158
-182.071	-19.420	-0.351	-0.217
-181.056	800.000	-0.017	-0.056
-180.042	20.834	0.168	-0.136
-179.027	-100.753	0.275	0.068
-178.012	-200.000	0.022	-0.181
-176.998	244.394	-0.169	0.283
-175.983	-142.469	-0.115	-0.011
-174.969	-199.917	0.115	-0.001
-173.954	-192.468	-0.080	-0.001
-172.939	-88.971	-0.104	0.031
-171.925	-32.441	-0.185	0.103
-170.910	146.368	-0.070	-0.094
-169.896	-49.656	0.092	-0.044
-168.881	-200.000	0.014	0.242
-167.866	-53.714	0.123	-0.056
-166.852	14.557	-0.204	-0.159
-165.837	-66.510	-0.117	0.046
-164.823	-85.932	-0.105	-0.032
-163.808	82.125	-0.068	0.074
-162.793	60.136	-0.259	-0.256
-161.779	-65.649	-0.386	-0.155
-160.764	-200.000	-0.020	-0.129
-159.750	-60.289	-0.191	0.081
-158.735	61.199	-0.098	-0.097
-157.720	-200.000	-0.051	-0.250
-156.706	339.097	0.049	-0.095
-155.691	24.116	0.287	-0.237
-154.677	-119.242	0.107	0.019
-153.662	22.030	-0.068	-0.055
-152.647	-156.526	-0.167	-0.010
-151.633	800.000	-0.173	0.478
-150.618	135.991	-0.105	-0.136
-149.604	195.533	-0.113	-0.172
-148.589	-200.000	0.038	-0.432
-147.574	-87.399	-0.091	-0.028
-146.560	-55.566	-0.174	0.078
-145.545	-200.000	-0.032	0.302
-144.531	29.804	-0.146	0.124
-143.516	-108.474	-0.168	0.036
-142.502	-200.000	0.017	-0.308
-141.487	-123.121	-0.112	-0.018
-140.472	-70.233	-0.163	-0.062
-139.458	409.966	-0.082	0.174
-138.443	-71.108	-0.177	0.067
-137.429	-200.000	0.000	-0.126
-136.414	-46.459	-0.139	0.068
-135.399	-21.314	0.200	0.122
-134.385	-141.331	0.136	0.014
-133.370	800.000	0.123	0.375
-132.356	-200.000	0.014	-0.259
-131.341	-19.833	0.171	-0.105
-130.326	58.093	-0.079	-0.078
-129.312	60.152	0.059	-0.058
-128.297	-29.765	-0.119	-0.068
-127.283	-76.612	0.404	0.141
-126.268	-64.486	-0.205	0.083
-125.253	-151.730	-0.161	0.012
-124.239	800.000	-0.015	0.045
-123.224	-49.684	-0.391	0.186
-122.210	-96.952	-0.361	0.094
