DTS Sentinel unit serial number:	SN413079Multiplexer serial number:	ORYXHardware model number:	OX4-SRSoftware version number:	ORYX F/W v4.00 Oryx Data Collector v3.7.2.0data status	okinstallation	princeton_trtdifferential loss correction	single-endedforward channel	channel 3reverse channel	N/Adate	2019/09/13time	02:12:34forward acquisition time	60.00reverse acquisition time	0.00gamma	496.2192k internal	0.2334k external	0.2334temperature offset calibration	1.0124default loss term (dB/km)	0.3790temperature slope calibration	1.0000multiplexer offset coefficient	1.0000multiplexer slope coefficient	1.0000fibre end	0.00T internal ref (°C)	27.56T ext. ref 1 (°C)	3.90T ext. ref 2 (°C)	22.34length (m)	temperature (°C)	Stokes	anti-Stokes-747.200	-1.379	-0.300	-0.213
-746.185	-65.713	0.175	0.070
-745.171	-131.333	-0.243	-0.032
-744.156	-176.263	-0.208	0.005
-743.142	-22.041	-0.149	-0.091
-742.127	88.128	0.094	0.104
-741.112	-73.941	-0.166	0.061
-740.098	800.000	0.051	0.157
-739.083	-52.263	0.144	0.067
-738.069	749.620	-0.117	0.316
-737.054	-200.000	-0.004	0.145
-736.039	-200.000	-0.012	-0.147
-735.025	363.778	0.062	0.124
-734.010	579.033	-0.102	-0.250
-732.996	-200.000	0.029	-0.333
-731.981	-121.530	0.039	-0.007
-730.966	-200.000	0.002	-0.384
-729.952	690.575	0.089	-0.235
-728.937	258.174	-0.255	-0.442
-727.923	20.865	-0.045	-0.037
-726.908	62.439	0.209	0.209
-725.894	-24.281	-0.113	0.068
-724.879	82.899	-0.118	-0.129
-723.864	123.196	0.063	-0.079
-722.850	-32.640	-0.261	-0.146
-721.835	514.667	0.082	-0.193
-720.821	349.497	-0.171	-0.339
-719.806	222.697	-0.297	-0.481
-718.791	-26.165	0.146	-0.086
-717.777	278.697	0.029	-0.052
-716.762	-145.100	0.169	0.015
-715.748	-49.455	-0.319	0.153
-714.733	800.000	-0.019	0.078
-713.718	105.038	-0.015	0.018
-712.704	-200.000	0.067	-0.319
-711.689	800.000	-0.058	-0.168
-710.675	-92.839	-0.078	0.022
-709.660	142.229	0.145	0.193
-708.645	-18.556	-0.425	-0.266
-707.631	-200.000	-0.055	-0.312
-706.616	-12.922	0.078	0.051
-705.602	701.666	-0.084	-0.223
-704.587	-200.000	-0.004	-0.172
-703.572	-9.743	-0.049	-0.032
-702.558	-200.000	0.081	-0.429
-701.543	-200.000	0.027	0.161
-700.529	-28.875	0.143	-0.083
-699.514	-200.000	-0.002	0.207
-698.499	800.000	-0.113	0.373
-697.485	96.398	-0.214	-0.245
-696.470	129.221	-0.160	0.204
-695.456	-200.000	0.006	-0.156
-694.441	26.795	-0.097	-0.082
-693.426	-14.337	-0.276	-0.178
-692.412	-150.294	0.193	0.015
-691.397	800.000	-0.113	-0.479
-690.383	800.000	0.108	-0.454
-689.368	-121.983	-0.362	-0.060
-688.354	-200.000	-0.058	0.341
-687.339	20.107	-0.322	0.260
-686.324	165.556	0.103	0.146
-685.310	-113.374	0.222	-0.044
-684.295	-200.000	0.038	0.316
-683.281	176.183	-0.118	0.171
-682.266	-80.985	-0.265	-0.088
-681.251	174.600	-0.123	-0.178
-680.237	88.099	-0.081	-0.090
-679.222	56.021	0.035	0.034
-678.208	312.826	0.052	0.098
-677.193	800.000	-0.066	-0.247
-676.178	-119.565	0.391	-0.068
-675.164	77.999	0.279	-0.298
-674.149	75.107	-0.067	-0.070
-673.135	-200.000	0.116	0.559
-672.120	-43.522	0.224	-0.113
-671.105	454.356	0.041	-0.091
-670.091	-61.142	-0.289	-0.122
-669.076	21.733	-0.457	-0.373
-668.062	-200.000	-0.025	-0.181
-667.047	800.000	-0.044	0.191
-666.032	800.000	-0.055	-0.189
-665.018	-52.392	-0.276	-0.128
-664.003	-54.982	0.082	-0.037
-662.989	255.064	0.034	0.058
-661.974	-200.000	-0.023	0.149
-660.959	-138.335	-0.142	-0.016
-659.945	-154.482	0.217	-0.015
-658.930	800.000	0.125	0.406
-657.916	-71.873	-0.055	-0.020
-656.901	-200.000	-0.025	0.175
-655.886	18.913	0.090	-0.072
-654.872	-125.581	-0.423	0.064
-653.857	499.550	-0.110	-0.253
-652.843	162.669	0.064	0.090
-651.828	-57.910	-0.345	-0.151
-650.814	122.081	0.134	-0.168
-649.799	122.426	0.124	-0.155
-648.784	-111.117	-0.197	0.040
-647.770	-118.368	0.206	-0.037
-646.755	-88.169	0.282	-0.085
-645.741	800.000	-0.122	0.485
-644.726	84.041	-0.235	-0.257
-643.711	-44.357	0.071	0.035
-642.697	-145.512	0.177	-0.016
-641.682	-22.471	0.270	0.164
-640.668	-200.000	-0.088	0.415
-639.653	-200.000	-0.065	-0.320
-638.638	177.999	0.219	0.320
-637.624	800.000	-0.053	-0.164
-636.609	-96.884	-0.168	-0.044
-635.595	-200.000	-0.029	0.225
-634.580	-188.599	-0.167	0.002
-633.565	-16.038	-0.052	-0.033
-632.551	-56.985	0.169	-0.075
-631.536	-33.725	-0.074	0.041
-630.522	-37.218	-0.261	0.140
-629.507	5.260	0.447	0.330
-628.492	-200.000	-0.002	0.356
-627.478	-200.000	0.006	-0.197
-626.463	-106.163	-0.221	-0.050
-625.449	20.609	-0.201	-0.163
-624.434	20.343	0.106	0.086
-623.419	30.516	-0.288	-0.246
-622.405	45.795	-0.114	-0.105
-621.390	364.907	0.029	-0.058
-620.376	14.230	-0.511	0.399
-619.361	-181.377	-0.197	-0.004
-618.346	-134.880	0.045	-0.005
-617.332	101.993	0.125	0.146
-616.317	-164.651	0.095	0.004
-615.303	800.000	-0.153	0.429
-614.288	-200.000	-0.029	-0.258
-613.273	-149.692	0.231	0.018
-612.259	-200.000	0.021	-0.573
-611.244	-200.000	0.007	-0.176
-610.230	-101.180	0.205	-0.050
-609.215	-195.534	0.158	0.001
-608.201	119.629	-0.123	0.153
-607.186	106.528	0.081	0.096
-606.171	-79.638	0.096	0.032
-605.157	2.099	-0.176	-0.127
-604.142	27.051	-0.094	-0.079
-603.128	-27.340	0.126	0.074
-602.113	134.561	0.033	-0.043
-601.098	-200.000	-0.052	0.394
-600.084	56.883	-0.389	0.379
-599.069	-142.042	0.124	-0.012
-598.055	-200.000	0.003	0.188
-597.040	50.915	0.070	-0.066
-596.025	21.771	-0.113	0.092
-595.011	-83.300	-0.383	0.123
-593.996	-200.000	-0.012	0.297
-592.982	31.069	0.215	0.184
-591.967	65.084	0.168	-0.170
-590.952	-124.414	-0.262	0.041
-589.938	-58.268	0.137	0.060
-588.923	800.000	0.035	-0.148
-587.909	-178.159	0.346	-0.008
-586.894	-172.707	0.165	0.005
-585.879	-120.187	-0.345	-0.059
-584.865	-200.000	-0.027	0.195
-583.850	-140.361	0.121	0.013
-582.836	-200.000	0.003	0.196
-581.821	334.971	-0.077	-0.148
-580.806	-200.000	0.004	-0.125
-579.792	-200.000	0.018	0.117
-578.777	-15.168	-0.154	-0.098
-577.763	-46.389	0.267	-0.131
-576.748	-131.079	0.033	-0.004
-575.733	-63.196	0.142	-0.058
-574.719	-200.000	-0.019	-0.138
-573.704	-83.657	0.307	0.098
-572.690	-3.668	-0.160	-0.111
-571.675	71.863	-0.114	-0.118
-570.661	-168.616	-0.210	0.008
-569.646	690.602	0.037	-0.097
-568.631	619.278	-0.022	-0.056
-567.617	-54.895	-0.157	-0.071
-566.602	223.721	-0.053	-0.085
-565.588	-200.000	0.001	-0.061
-564.573	-200.000	-0.008	0.065
-563.558	800.000	-0.042	0.128
-562.544	-200.000	0.001	0.111
-561.529	-95.382	0.194	-0.052
-560.515	-190.112	-0.438	0.005
-559.500	-200.000	-0.003	-0.433
-558.485	406.319	0.078	0.165
-557.471	800.000	-0.103	-0.289
-556.456	800.000	0.069	-0.249
-555.442	-3.652	0.148	0.103
-554.427	-81.147	-0.199	-0.066
-553.412	92.055	-0.136	0.153
-552.398	404.697	0.089	-0.188
-551.383	-200.000	0.007	-0.054
-550.369	800.000	-0.017	0.052
-549.354	-200.000	-0.056	0.286
-548.339	-161.095	-0.271	-0.014
-547.325	-45.078	0.395	0.196
-546.310	-135.072	0.064	-0.008
-545.296	30.968	0.036	0.031
-544.281	95.991	-0.204	0.233
-543.266	299.825	-0.132	0.243
-542.252	320.282	0.196	0.371
-541.237	-153.233	-0.062	0.004
-540.223	-93.942	0.223	0.061
-539.208	303.216	-0.104	-0.193
-538.193	800.000	0.006	0.016
-537.179	453.191	0.114	0.251
-536.164	-109.742	0.349	-0.073
-535.150	800.000	-0.019	0.063
-534.135	800.000	0.015	-0.062
-533.121	-111.686	0.145	0.029
-532.106	503.416	0.025	-0.058
-531.091	24.817	-0.103	-0.085
-530.077	29.499	0.057	0.048
-529.062	40.958	-0.072	-0.065
-528.048	266.882	0.114	0.198
-527.033	-79.649	-0.169	-0.057
-526.018	225.596	0.173	0.279
-525.004	800.000	0.056	-0.240
-523.989	-45.149	-0.023	-0.011
-522.975	-62.993	-0.071	0.029
-521.960	-200.000	-0.026	-0.346
-520.945	-48.476	0.455	-0.218
-519.931	415.731	-0.103	-0.220
-518.916	-77.851	-0.166	0.057
-517.902	-91.852	0.111	0.031
-516.887	-133.619	-0.329	-0.041
-515.872	-143.853	-0.403	0.038
-514.858	-124.424	0.094	0.015
-513.843	-98.878	-0.101	0.025
-512.829	-41.412	0.230	-0.118
-511.814	187.506	-0.133	0.198
-510.799	335.765	-0.104	0.200
-509.785	661.235	-0.043	0.109
-508.770	-44.443	0.191	-0.095
-507.756	2.428	0.092	0.066
-506.741	-69.634	-0.217	-0.083
-505.726	208.750	0.125	0.194
-504.712	243.870	0.115	-0.192
-503.697	-116.700	0.209	-0.038
-502.683	-90.598	0.156	-0.045
-501.668	-12.360	0.189	-0.123
-500.653	253.300	-0.055	0.094
-499.639	-3.019	-0.098	-0.068
-498.624	-67.065	0.246	-0.097
-497.610	-133.657	0.415	-0.052
-496.595	-200.000	0.040	-0.287
-495.581	-184.260	-0.128	-0.002
-494.566	-60.535	0.485	-0.205
-493.551	19.279	-0.158	-0.126
-492.537	-200.000	-0.012	-0.058
-491.522	254.458	-0.162	-0.275
-490.508	-17.609	-0.138	-0.087
-489.493	-77.402	0.206	0.071
-488.478	-25.450	0.238	0.140
-487.464	-106.527	0.406	0.090
-486.449	32.422	-0.216	-0.186
-485.435	-33.421	-0.296	-0.163
-484.420	54.519	-0.202	0.193
-483.405	332.922	0.152	-0.292
-482.391	42.813	0.199	0.180
-481.376	-108.850	-0.258	0.055
-480.362	-47.013	-0.140	0.068
-479.347	4.102	-0.350	-0.255
-478.332	-15.176	0.245	-0.156
-477.318	253.218	-0.123	-0.209
-476.303	800.000	-0.131	-0.366
-475.289	-4.218	-0.122	-0.084
-474.274	675.899	-0.131	-0.338
-473.259	-123.404	0.193	0.031
-472.245	413.157	0.159	-0.335
-471.230	292.192	0.036	0.065
-470.216	281.056	-0.152	-0.270
-469.201	-90.474	-0.227	0.066
-468.186	-50.968	0.229	-0.107
-467.172	-200.000	-0.011	0.324
-466.157	644.446	-0.046	0.117
-465.143	-51.729	0.139	0.064
-464.128	-129.070	0.434	-0.060
-463.113	397.012	0.042	-0.086
-462.099	-65.771	-0.313	0.124
-461.084	800.000	-0.049	-0.186
-460.070	33.351	-0.364	-0.314
-459.055	-58.438	0.155	0.067
-458.040	-73.383	0.367	-0.133
-457.026	-200.000	-0.020	0.103
-456.011	-200.000	0.032	0.148
-454.997	800.000	-0.113	0.311
-453.982	-11.848	0.289	-0.189
-452.968	800.000	0.112	0.390
-451.953	-200.000	-0.039	0.180
-450.938	71.436	0.122	-0.126
-449.924	-135.934	-0.172	-0.020
-448.909	-200.000	-0.009	-0.250
-447.895	-134.386	-0.282	-0.034
-446.880	-57.551	-0.147	-0.064
-445.865	-69.517	0.309	-0.118
-444.851	142.164	0.181	0.239
-443.836	-46.465	-0.183	-0.089
-442.822	564.882	0.046	-0.112
-441.807	55.177	-0.077	-0.074
-440.792	-63.353	0.255	0.104
-439.778	81.882	-0.151	0.163
-438.763	-62.686	-0.412	0.170
-437.749	175.411	-0.040	0.057
-436.734	-127.444	0.381	-0.055
-435.719	-200.000	0.080	-0.445
-434.705	73.865	-0.088	-0.091
-433.690	291.941	-0.155	0.280
-432.676	45.956	-0.077	0.070
-431.661	768.046	-0.118	-0.320
-430.646	429.166	-0.112	0.240
-429.632	105.240	0.255	0.299
-428.617	800.000	-0.142	0.461
-427.603	-97.698	-0.236	-0.061
-426.588	296.619	0.123	0.224
-425.573	135.778	-0.094	0.121
-424.559	426.386	-0.081	0.173
-423.544	258.306	0.127	0.217
-422.530	126.536	0.120	-0.150
-421.515	-200.000	0.048	0.223
-420.500	-200.000	0.093	0.424
-419.486	-118.215	0.458	0.081
-418.471	-83.387	0.211	-0.067
-417.457	40.486	-0.137	0.122
-416.442	104.671	-0.034	0.040
-415.428	61.964	-0.144	-0.143
-414.413	800.000	-0.120	-0.386
-413.398	242.579	-0.107	0.178
-412.384	-74.676	-0.381	0.136
-411.369	-145.705	-0.327	-0.029
-410.355	-116.507	0.168	0.031
-409.340	-10.018	0.156	0.103
-408.325	-1.561	-0.162	-0.113
-407.311	800.000	0.043	-0.148
-406.296	800.000	0.014	-0.061
-405.282	-68.840	0.070	0.027
-404.267	-88.283	0.179	0.053
-403.252	230.558	-0.255	-0.414
-402.238	-175.160	0.249	-0.007
-401.223	61.224	-0.258	-0.254
-400.209	-42.489	0.338	-0.171
-399.194	183.295	-0.011	-0.016
-398.179	-14.288	-0.143	-0.091
-397.165	-200.000	-0.025	-0.147
-396.150	800.000	-0.062	-0.229
-395.136	320.367	0.144	0.271
-394.121	501.780	0.047	-0.107
-393.106	278.634	0.110	-0.194
-392.092	-200.000	-0.002	0.274
-391.077	-200.000	-0.052	0.461
-390.063	10.634	0.117	0.088
-389.048	-8.219	-0.178	-0.119
-388.033	29.962	-0.136	-0.115
-387.019	-193.302	0.206	-0.002
-386.004	-25.225	-0.165	0.097
-384.990	-59.035	-0.142	0.061
-383.975	50.893	0.178	-0.167
-382.960	-86.918	0.113	-0.034
-381.946	-62.872	0.246	-0.101
-380.931	62.438	0.031	-0.031
-379.917	209.880	0.049	-0.076
-378.902	107.583	0.082	-0.096
-377.888	800.000	-0.075	0.271
-376.873	652.067	-0.062	0.158
-375.858	-172.891	-0.155	-0.005
-374.844	-200.000	-0.026	0.470
-373.829	-113.203	-0.174	-0.034
-372.815	-200.000	-0.013	0.254
-371.800	44.864	-0.234	0.213
-370.785	800.000	-0.066	-0.244
-369.771	84.910	0.208	-0.226
-368.756	-118.165	0.501	-0.088
-367.742	-4.481	0.044	0.030
-366.727	-85.871	-0.023	-0.007
-365.712	-79.085	-0.436	-0.147
-364.698	-200.000	0.012	0.108
-363.683	62.700	0.153	-0.151
-362.669	800.000	0.054	0.179
-361.654	-106.270	-0.280	-0.062
-360.639	107.245	-0.288	-0.339
-359.625	-71.825	-0.100	-0.037
-358.610	10.404	0.073	-0.055
-357.596	-43.965	0.127	-0.063
-356.581	-200.000	0.001	-0.037
-355.566	-78.450	-0.142	0.048
-354.552	62.782	-0.102	-0.101
-353.537	800.000	-0.051	0.214
-352.523	599.205	-0.025	0.062
-351.508	-129.961	-0.070	0.009
-350.493	-45.789	-0.146	-0.071
-349.479	-137.387	-0.093	-0.010
-348.464	71.511	-0.050	-0.051
-347.450	-128.203	-0.199	0.028
-346.435	174.928	0.058	-0.083
-345.420	187.358	0.318	-0.469
-344.406	61.286	-0.104	-0.102
-343.391	337.690	0.091	-0.174
-342.377	121.426	0.221	-0.272
-341.362	800.000	0.081	-0.231
-340.348	-114.844	0.156	-0.030
-339.333	-200.000	-0.027	-0.176
-338.318	136.568	-0.079	0.102
-337.304	800.000	0.100	-0.345
-336.289	285.041	0.241	-0.429
-335.275	-200.000	-0.005	-0.303
-334.260	-84.009	-0.076	0.024
-333.245	-200.000	0.028	-0.262
-332.231	-200.000	0.007	0.082
-331.216	-101.983	-0.342	0.082
-330.202	-28.367	0.203	0.116
-329.187	350.076	-0.083	-0.161
-328.172	327.836	0.065	0.122
-327.158	31.413	-0.181	0.154
-326.143	-200.000	-0.008	-0.092
-325.129	-200.000	-0.047	-0.248
-324.114	-163.042	0.242	-0.012
-323.099	-52.086	-0.222	-0.102
-322.085	462.776	-0.073	-0.160
-321.070	-24.318	-0.280	-0.165
-320.056	800.000	0.083	0.282
-319.041	118.597	0.134	-0.163
-318.026	34.003	0.127	-0.109
-317.012	-21.637	-0.261	0.157
-315.997	800.000	-0.078	-0.227
-314.983	-120.711	0.116	-0.019
-313.968	191.897	-0.221	-0.330
-312.953	-200.000	-0.032	0.377
-311.939	-44.925	0.107	-0.053
-310.924	-7.780	0.004	-0.002
-309.910	102.219	0.269	0.311
-308.895	-200.000	0.002	0.319
-307.880	-101.642	0.400	0.096
-306.866	-200.000	0.024	0.236
-305.851	-200.000	0.019	0.087
-304.837	239.602	0.119	-0.196
-303.822	-66.850	0.183	0.072
-302.807	-45.091	0.059	-0.029
-301.793	161.268	-0.242	0.334
-300.778	-39.736	-0.386	0.199
-299.764	-200.000	-0.015	0.262
-298.749	-25.203	0.175	-0.103
-297.735	72.812	0.061	-0.063
-296.720	9.960	-0.056	0.042
-295.705	-108.295	-0.147	0.031
-294.691	-200.000	-0.011	-0.075
-293.676	-168.482	-0.243	0.009
-292.662	137.449	-0.157	-0.203
-291.647	800.000	0.080	-0.307
-290.632	18.726	-0.126	0.099
-289.618	482.907	-0.049	0.109
-288.603	-32.424	-0.176	-0.097
-287.589	365.434	-0.130	0.259
-286.574	-23.053	-0.060	-0.036
-285.559	-155.130	0.094	-0.006
-284.545	72.331	-0.093	0.096
-283.530	163.648	-0.133	0.185
-282.516	-28.582	0.136	-0.077
-281.501	-62.526	-0.269	0.110
-280.486	436.094	0.075	0.162
-279.472	-71.606	0.204	-0.075
-278.457	-55.399	0.413	0.183
-277.443	-200.000	-0.035	0.308
-276.428	154.496	0.139	-0.189
-275.413	341.268	-0.053	-0.101
-274.399	19.152	-0.080	-0.063
-273.384	-187.979	-0.208	0.003
-272.370	-200.000	0.042	-0.187
-271.355	-1.953	0.127	0.088
-270.340	-200.000	0.050	0.219
-269.326	349.253	0.115	-0.224
-268.311	126.435	0.043	-0.054
-267.297	-24.751	-0.144	-0.084
-266.282	-45.158	0.053	-0.026
-265.267	46.776	0.171	-0.156
-264.253	25.630	-0.298	0.245
-263.238	-200.000	-0.067	0.398
-262.224	-75.935	0.205	-0.072
-261.209	-157.097	0.155	0.009
-260.195	242.636	-0.053	0.087
-259.180	-118.127	-0.142	-0.025
-258.165	-192.169	-0.170	0.002
-257.151	-200.000	-0.003	0.224
-256.136	800.000	-0.007	0.021
-255.122	-200.000	-0.061	0.271
-254.107	365.436	0.036	-0.072
-253.092	-70.536	0.142	-0.053
-252.078	-200.000	-0.035	-0.195
-251.063	29.610	0.234	0.196
-250.049	-71.890	0.203	-0.074
-249.034	6.135	0.107	0.078
-248.019	-128.928	0.076	-0.011
-247.005	-87.118	0.091	0.027
-245.990	800.000	0.091	0.302
-244.976	800.000	0.078	0.269
-243.961	-57.375	-0.162	-0.070
-242.946	-22.686	-0.172	0.103
-241.932	-115.690	-0.242	-0.045
-240.917	-200.000	0.018	-0.082
-239.903	225.793	0.129	0.206
-238.888	-20.365	-0.061	0.037
-237.873	-200.000	0.085	-0.445
-236.859	33.584	0.134	-0.115
-235.844	-41.679	-0.117	-0.059
-234.830	153.685	-0.051	-0.069
-233.815	-70.899	0.259	-0.096
-232.800	173.476	-0.165	-0.234
-231.786	800.000	-0.098	0.330
-230.771	-78.362	-0.222	-0.075
-229.757	-49.197	-0.224	0.105
-228.742	800.000	-0.037	0.133
-227.727	-55.158	0.189	-0.084
-226.713	-35.873	-0.172	0.092
-225.698	-55.454	0.303	0.134
-224.684	241.170	-0.110	0.180
-223.669	-8.962	-0.057	0.037
-222.655	121.950	0.155	-0.191
-221.640	3.381	0.164	-0.118
-220.625	-119.424	0.397	-0.068
-219.611	573.391	-0.091	0.218
-218.596	-58.366	-0.231	-0.099
-217.582	29.414	0.117	0.098
-216.567	-200.000	-0.026	-0.237
-215.552	-49.880	0.111	-0.052
-214.538	-51.844	0.336	-0.154
-213.523	-133.713	0.314	0.039
-212.509	-92.605	-0.115	-0.032
-211.494	-16.482	0.144	0.090
-210.479	-200.000	0.012	-0.092
-209.465	200.747	0.140	0.213
-208.450	15.418	0.218	0.168
-207.436	6.102	0.109	0.080
-206.421	238.342	-0.113	0.184
-205.406	-51.741	0.225	-0.103
-204.392	144.433	-0.054	-0.070
-203.377	599.994	0.081	-0.199
-202.363	800.000	-0.025	0.075
-201.348	317.011	-0.142	-0.264
-200.333	-141.256	-0.216	0.022
-199.319	-58.275	-0.569	-0.244
-198.304	-51.601	0.324	-0.149
-197.290	-118.551	0.177	-0.031
-196.275	70.547	0.033	-0.033
-195.260	388.671	0.035	-0.072
-194.246	-175.782	-0.287	-0.008
-193.231	-11.113	-0.290	-0.188
-192.217	301.122	0.020	-0.037
-191.202	209.908	-0.139	0.214
-190.187	800.000	-0.118	0.351
-189.173	-31.656	0.072	0.040
-188.158	179.588	-0.292	-0.420
-187.144	800.000	0.063	0.252
-186.129	-59.469	0.190	-0.080
-185.114	-145.192	-0.060	-0.005
-184.100	584.825	-0.076	-0.184
-183.085	-68.238	0.219	0.084
-182.071	-109.793	0.177	-0.036
-181.056	-125.387	-0.165	0.025
-180.042	-200.000	-0.021	0.214
-179.027	-187.579	0.320	-0.004
-178.012	-43.079	-0.181	0.090
-176.998	-162.919	-0.248	0.012
-175.983	-147.974	0.129	0.011
-174.969	354.950	0.145	-0.284
-173.954	-124.767	-0.238	0.036
-172.939	42.190	0.115	0.103
-171.925	385.851	0.124	-0.251
-170.910	402.554	0.258	0.533
-169.896	-200.000	0.074	0.470
-168.881	104.970	0.204	-0.236
-167.866	-200.000	-0.037	0.230
-166.852	800.000	0.081	-0.339
-165.837	-190.742	-0.212	0.002
-164.823	-175.005	0.093	-0.003
-163.808	-15.031	-0.300	0.189
-162.793	781.077	0.104	-0.279
-161.779	191.112	-0.094	0.139
-160.764	800.000	0.091	0.324
-159.750	-106.530	0.310	-0.068
-158.735	-11.105	-0.227	0.147
-157.720	-11.543	-0.152	0.098
-156.706	20.801	-0.124	0.099
-155.691	-82.469	-0.271	0.086
-154.677	-192.172	-0.266	0.002
-153.662	144.882	-0.091	0.120
-152.647	261.721	0.145	-0.247
-151.633	35.184	0.054	-0.047
-150.618	800.000	0.013	0.047
-149.604	-200.000	-0.004	0.047
-148.589	23.920	0.073	-0.059
-147.574	-200.000	0.023	0.135
-146.560	-108.804	0.061	0.013
-145.545	-105.930	-0.136	-0.030
-144.531	-200.000	0.068	0.494
-143.516	-200.000	-0.037	-0.215
-142.502	20.879	0.053	0.042
-141.487	797.303	-0.049	0.132
-140.472	-200.000	-0.034	0.273
-139.458	412.294	-0.122	-0.255
-138.443	-200.000	-0.005	-0.088
-137.429	-92.817	0.217	-0.059
-136.414	-73.139	-0.233	-0.084
-135.399	-175.154	0.507	0.014
-134.385	800.000	-0.126	0.531
-133.370	-200.000	0.032	-0.348
-132.356	-149.850	0.309	-0.024
-131.341	-97.209	-0.266	-0.068
-130.326	745.561	0.130	-0.343
-129.312	22.652	-0.138	-0.111
-128.297	-25.279	0.266	0.154
-127.283	190.165	0.060	0.089
-126.268	148.531	-0.200	0.265
-125.253	-179.717	-0.230	0.005
-124.239	-200.000	0.053	-0.254
-123.224	33.333	0.238	-0.202
