DTS Sentinel unit serial number:	SN413079Multiplexer serial number:	ORYXHardware model number:	OX4-SRSoftware version number:	ORYX F/W v4.00 Oryx Data Collector v3.7.2.0data status	okinstallation	princeton_trtdifferential loss correction	single-endedforward channel	channel 3reverse channel	N/Adate	2019/09/16time	22:24:35forward acquisition time	60.00reverse acquisition time	0.00gamma	496.2192k internal	0.2324k external	0.2324temperature offset calibration	0.9939default loss term (dB/km)	0.3790temperature slope calibration	1.0000multiplexer offset coefficient	1.0000multiplexer slope coefficient	1.0000fibre end	0.00T internal ref (°C)	30.87T ext. ref 1 (°C)	0.08T ext. ref 2 (°C)	24.69length (m)	temperature (°C)	Stokes	anti-Stokes-747.200	-200.000	0.050	0.227
-746.185	800.000	-0.105	0.341
-745.171	-105.618	-0.138	0.032
-744.156	118.150	0.115	0.143
-743.142	-200.000	0.010	0.107
-742.127	-102.213	0.218	0.053
-741.112	-139.767	-0.131	0.014
-740.098	47.318	0.035	0.033
-739.083	-200.000	0.064	0.354
-738.069	333.075	0.024	-0.047
-737.054	-158.161	0.195	-0.012
-736.039	145.646	-0.152	0.205
-735.025	-132.014	0.166	-0.022
-734.010	389.281	0.145	-0.303
-732.996	-166.381	0.328	-0.014
-731.981	273.182	-0.125	0.222
-730.966	800.000	0.137	0.431
-729.952	-145.963	-0.288	-0.026
-728.937	-200.000	0.049	-0.246
-727.923	-165.463	-0.490	0.022
-726.908	14.359	-0.245	0.193
-725.894	737.223	0.115	-0.312
-724.879	-25.397	0.224	0.134
-723.864	360.243	0.087	0.176
-722.850	-109.603	0.204	-0.043
-721.835	-200.000	0.060	0.307
-720.821	-150.641	-0.344	-0.027
-719.806	490.033	-0.135	-0.311
-718.791	58.070	-0.210	0.208
-717.777	683.126	-0.034	0.091
-716.762	154.272	-0.082	0.114
-715.748	142.381	-0.148	0.198
-714.733	19.893	0.260	0.211
-713.718	-63.570	-0.076	0.031
-712.704	-5.390	0.281	-0.195
-711.689	-136.688	-0.374	-0.044
-710.675	361.819	0.202	-0.409
-709.660	800.000	-0.048	0.178
-708.645	-115.897	0.306	-0.058
-707.631	143.754	0.199	0.268
-706.616	183.076	-0.056	-0.084
-705.602	-70.564	0.402	-0.153
-704.587	-59.937	0.305	-0.131
-703.572	-170.792	-0.160	-0.006
-702.558	800.000	0.067	0.237
-701.543	-62.552	0.160	-0.067
-700.529	406.191	0.155	-0.330
-699.514	-136.878	0.044	0.005
-698.499	99.658	-0.151	-0.176
-697.485	103.856	-0.125	0.148
-696.470	-75.100	0.232	-0.084
-695.456	141.026	0.092	0.123
-694.441	-111.467	0.166	0.034
-693.426	26.153	0.122	-0.102
-692.412	-127.118	0.473	-0.070
-691.397	-200.000	-0.007	0.186
-690.383	-11.527	0.062	0.041
-689.368	308.048	-0.142	-0.268
-688.354	-113.304	0.108	0.021
-687.339	-43.308	-0.181	0.092
-686.324	62.530	-0.203	0.205
-685.310	101.047	0.097	-0.113
-684.295	462.550	0.079	-0.177
-683.281	-27.797	0.111	0.065
-682.266	800.000	-0.059	-0.258
-681.251	100.026	0.171	-0.200
-680.237	603.882	-0.028	0.071
-679.222	-125.324	-0.355	0.055
-678.208	-89.720	-0.539	-0.159
-677.193	-51.019	-0.418	0.197
-676.178	-124.979	-0.404	-0.063
-675.164	108.219	0.157	-0.189
-674.149	84.812	-0.134	0.148
-673.135	-34.445	-0.088	0.048
-672.120	-200.000	0.009	-0.058
-671.105	-75.143	-0.099	-0.036
-670.091	-135.521	-0.094	0.011
-669.076	-200.000	-0.036	-0.213
-668.062	-200.000	0.001	0.259
-667.047	662.641	0.159	-0.413
-666.032	-128.616	-0.143	0.020
-665.018	-200.000	-0.032	0.217
-664.003	-47.087	-0.065	-0.032
-662.989	800.000	-0.126	-0.407
-661.974	800.000	0.092	0.257
-660.959	297.687	-0.049	-0.090
-659.945	-56.889	0.112	0.050
-658.930	221.639	0.227	0.367
-657.916	312.806	0.095	0.180
-656.901	17.977	0.151	-0.121
-655.886	439.531	-0.195	-0.429
-654.872	-200.000	0.015	-0.088
-653.857	-13.697	-0.199	-0.130
-652.843	-200.000	-0.037	-0.299
-651.828	236.961	0.152	0.253
-650.814	-68.792	0.252	0.098
-649.799	-200.000	-0.004	0.158
-648.784	161.601	0.101	0.142
-647.770	-93.073	-0.236	0.066
-646.755	-71.021	0.180	-0.068
-645.741	-200.000	-0.039	-0.198
-644.726	-114.500	-0.239	-0.046
-643.711	-26.098	0.102	0.060
-642.697	174.489	0.061	0.089
-641.682	-82.462	-0.161	0.053
-640.668	800.000	0.150	0.605
-639.653	731.656	-0.071	0.191
-638.638	646.506	0.126	-0.324
-637.624	311.220	-0.025	0.047
-636.609	800.000	0.058	0.244
-635.595	-73.827	0.166	0.061
-634.580	109.621	0.129	-0.155
-633.565	-63.248	-0.172	-0.071
-632.551	297.829	0.209	-0.386
-631.536	-200.000	-0.039	0.220
-630.522	-200.000	0.021	0.136
-629.507	91.616	-0.093	0.105
-628.492	40.096	-0.332	0.300
-627.478	-68.428	-0.350	-0.137
-626.463	109.916	0.390	-0.470
-625.449	-38.545	-0.122	-0.065
-624.434	-47.646	-0.269	-0.131
-623.419	123.838	-0.187	-0.236
-622.405	-200.000	-0.024	-0.240
-621.390	120.108	-0.145	-0.181
-620.376	16.528	-0.111	-0.088
-619.361	-45.946	-0.263	-0.130
-618.346	437.566	-0.048	-0.105
-617.332	-97.397	-0.433	0.113
-616.317	-99.071	-0.170	0.043
-615.303	242.137	0.100	-0.168
-614.288	247.174	-0.185	0.314
-613.273	-82.532	0.062	0.020
-612.259	-19.706	-0.444	-0.276
-611.244	-142.378	-0.187	0.018
-610.230	-45.523	0.249	-0.124
-609.215	-43.105	0.033	0.017
-608.201	-200.000	-0.006	-0.097
-607.186	745.729	-0.105	-0.283
-606.171	-34.316	0.320	-0.176
-605.157	-86.477	0.450	-0.139
-604.142	28.822	-0.164	0.140
-603.128	178.458	-0.165	0.242
-602.113	-200.000	-0.014	0.252
-601.098	101.351	-0.240	0.281
-600.084	800.000	-0.100	0.355
-599.069	-200.000	-0.035	0.184
-598.055	-126.612	-0.164	0.024
-597.040	-156.413	0.421	0.026
-596.025	-189.744	0.124	0.001
-595.011	228.037	0.076	-0.123
-593.996	-200.000	-0.022	-0.161
-592.982	-200.000	0.005	0.161
-591.967	56.789	-0.211	0.206
-590.952	229.699	-0.103	-0.169
-589.938	-37.966	-0.549	0.293
-588.923	-112.333	-0.351	-0.070
-587.909	-86.100	-0.225	0.070
-586.894	49.805	0.113	0.107
-585.879	-130.611	0.319	0.043
-584.865	-200.000	-0.047	-0.484
-583.850	-200.000	0.011	-0.318
-582.836	347.569	0.089	-0.176
-581.821	101.064	-0.252	0.294
-580.806	800.000	0.140	0.490
-579.792	52.148	-0.012	0.012
-578.777	74.116	0.171	0.180
-577.763	295.522	-0.103	-0.190
-576.748	569.969	0.023	-0.056
-575.733	92.163	-0.109	-0.123
-574.719	22.764	-0.161	0.132
-573.704	-200.000	0.009	0.421
-572.690	503.638	0.078	-0.182
-571.675	190.065	0.119	0.179
-570.661	498.295	-0.053	0.123
-569.646	-38.716	-0.304	-0.161
-568.631	800.000	-0.077	-0.287
-567.617	-182.090	0.286	-0.005
-566.602	-200.000	0.044	0.279
-565.588	-200.000	0.032	0.204
-564.573	251.952	-0.254	0.434
-563.558	-127.839	0.307	-0.044
-562.544	-92.680	0.394	0.111
-561.529	4.143	-0.232	0.170
-560.515	-21.687	0.333	-0.203
-559.500	800.000	0.021	-0.092
-558.485	257.568	-0.113	-0.194
-557.471	-125.494	-0.126	-0.019
-556.456	-108.710	0.116	-0.025
-555.442	-159.446	-0.355	-0.020
-554.427	-48.471	0.226	-0.109
-553.412	-100.465	0.083	0.021
-552.398	12.488	0.056	0.043
-551.383	-58.112	0.220	0.096
-550.369	434.091	-0.119	0.260
-549.354	800.000	0.019	0.055
-548.339	40.401	-0.381	-0.344
-547.325	-200.000	-0.000	-0.054
-546.310	-15.425	0.029	-0.018
-545.296	111.842	0.174	-0.211
-544.281	467.331	0.091	-0.205
-543.266	24.926	0.220	0.183
-542.252	-200.000	0.028	0.268
-541.237	55.761	0.219	-0.212
-540.223	-200.000	0.057	-0.290
-539.208	-73.364	-0.304	0.111
-538.193	-200.000	0.006	-0.175
-537.179	-102.615	0.093	0.022
-536.164	72.911	-0.138	-0.145
-535.150	17.713	-0.006	-0.005
-534.135	7.695	-0.208	0.156
-533.121	-63.952	0.137	-0.056
-532.106	-54.849	0.361	0.163
-531.091	-153.203	-0.391	0.027
-530.077	80.896	0.122	-0.132
-529.062	-10.430	-0.269	-0.178
-528.048	185.376	-0.053	0.078
-527.033	-1.646	-0.136	0.096
-526.018	300.886	0.111	0.206
-525.004	-93.879	0.132	-0.036
-523.989	-200.000	0.030	0.145
-522.975	-200.000	0.028	-0.197
-521.960	0.663	0.206	0.147
-520.945	-200.000	0.001	-0.117
-519.931	-181.036	-0.322	-0.006
-518.916	-136.621	0.414	0.048
-517.902	-31.343	-0.198	0.111
-516.887	-43.181	-0.301	0.153
-515.872	-200.000	-0.004	0.409
-514.858	419.524	-0.165	-0.354
-513.843	2.504	0.197	-0.143
-512.829	598.306	-0.059	0.146
-511.814	-45.901	0.291	0.144
-510.799	-200.000	0.025	-0.138
-509.785	-33.138	0.240	-0.133
-508.770	-200.000	0.021	0.251
-507.756	-200.000	-0.020	0.187
-506.741	-37.006	-0.113	-0.061
-505.726	144.335	0.118	-0.158
-504.712	-200.000	-0.012	-0.156
-503.697	17.835	-0.180	0.143
-502.683	-38.507	-0.233	-0.123
-501.668	173.945	-0.069	-0.099
-500.653	710.942	0.066	-0.175
-499.639	354.620	-0.155	-0.309
-498.624	43.127	-0.160	-0.146
-497.610	-118.564	0.336	0.059
-496.595	-177.243	0.446	-0.011
-495.581	32.501	0.247	-0.213
-494.566	71.564	0.073	0.076
-493.551	14.953	0.034	-0.027
-492.537	-200.000	0.015	0.144
-491.522	800.000	0.091	0.294
-490.508	800.000	0.042	0.145
-489.493	-121.145	0.150	-0.025
-488.478	166.788	0.030	0.042
-487.464	328.861	0.096	0.184
-486.449	800.000	-0.052	0.202
-485.435	705.172	-0.023	-0.062
-484.420	147.069	0.121	-0.162
-483.405	-92.417	-0.346	0.097
-482.391	96.833	-0.260	-0.297
-481.376	-200.000	-0.013	-0.113
-480.362	1.523	0.081	0.058
-479.347	-200.000	-0.017	-0.410
-478.332	300.468	0.071	-0.131
-477.318	707.078	-0.103	0.271
-476.303	68.303	-0.148	-0.152
-475.289	-13.495	-0.329	0.213
-474.274	1.212	0.327	-0.235
-473.259	538.618	-0.165	-0.392
-472.245	319.017	-0.119	0.225
-471.230	-200.000	0.001	-0.103
-470.216	144.772	0.101	0.135
-469.201	800.000	-0.101	0.305
-468.186	-184.533	0.224	-0.004
-467.172	-175.838	0.381	0.010
-466.157	-121.632	0.207	-0.034
-465.143	-13.489	0.244	0.158
-464.128	653.582	0.171	-0.438
-463.113	119.828	-0.112	0.138
-462.099	282.160	0.064	0.115
-461.084	-77.607	-0.181	-0.063
-460.070	101.241	-0.053	0.062
-459.055	62.098	-0.113	0.112
-458.040	-200.000	0.019	-0.135
-457.026	-66.759	0.224	0.089
-456.011	-154.395	-0.032	-0.002
-454.997	-46.542	-0.247	0.121
-453.982	19.623	-0.054	-0.043
-452.968	-34.013	0.102	0.056
-451.953	164.981	-0.216	0.304
-450.938	-87.630	0.199	0.060
-449.924	156.778	-0.090	-0.124
-448.909	-100.740	-0.117	0.029
-447.895	34.758	-0.037	-0.032
-446.880	603.897	0.175	0.433
-445.865	-106.959	0.131	-0.029
-444.851	-200.000	0.005	0.040
-443.836	799.709	-0.082	0.224
-442.822	142.245	0.175	-0.232
-441.807	-15.403	0.401	0.255
-440.792	280.412	-0.117	-0.209
-439.778	66.822	0.161	-0.164
-438.763	-110.024	-0.150	-0.031
-437.749	-4.316	0.164	0.113
-436.734	-173.277	0.433	-0.013
-435.719	-59.753	-0.432	-0.185
-434.705	175.290	0.119	0.171
-433.690	800.000	0.080	0.234
-432.676	-119.391	-0.161	-0.028
-431.661	-74.479	0.227	0.082
-430.646	71.980	0.185	0.192
-429.632	-113.560	-0.291	0.057
-428.617	149.754	0.068	-0.092
-427.603	-200.000	0.028	0.254
-426.588	-96.234	-0.171	-0.045
-425.573	86.752	0.095	0.104
-424.559	90.327	0.332	0.370
-423.544	800.000	0.057	0.169
-422.530	-200.000	-0.016	-0.232
-421.515	-200.000	0.007	-0.028
-420.500	-149.268	-0.329	0.026
-419.486	-200.000	-0.048	-0.279
-418.471	-200.000	-0.001	-0.089
-417.457	80.243	-0.229	-0.245
-416.442	800.000	0.002	0.007
-415.428	250.836	0.140	0.236
-414.413	-17.128	-0.154	-0.097
-413.398	-163.581	0.071	-0.003
-412.384	-200.000	-0.031	-0.174
-411.369	119.425	0.045	-0.055
-410.355	41.209	-0.169	0.152
-409.340	150.402	0.007	0.009
-408.325	-127.353	-0.308	0.045
-407.311	800.000	-0.058	0.192
-406.296	-200.000	-0.016	-0.262
-405.282	24.789	0.151	0.125
-404.267	-200.000	-0.039	0.330
-403.252	-135.268	0.528	0.063
-402.238	3.516	0.090	0.065
-401.223	-200.000	-0.071	0.326
-400.209	184.507	0.045	-0.067
-399.194	118.194	0.138	0.170
-398.179	-200.000	0.017	0.187
-397.165	-200.000	-0.029	-0.145
-396.150	-200.000	0.019	-0.265
-395.136	167.160	0.294	-0.416
-394.121	29.915	-0.101	0.086
-393.106	-87.274	-0.132	-0.040
-392.092	278.931	0.035	0.062
-391.077	800.000	0.077	0.246
-390.063	163.454	0.199	0.278
-389.048	55.968	-0.285	-0.275
-388.033	-39.150	0.378	0.198
-387.019	-171.518	0.371	0.012
-386.004	-83.840	-0.212	-0.067
-384.990	-136.466	-0.159	0.018
-383.975	-114.406	0.095	-0.018
-382.960	-200.000	-0.020	0.159
-381.946	-9.685	0.267	0.177
-380.931	-50.362	-0.080	-0.038
-379.917	-85.553	-0.178	-0.055
-378.902	178.450	0.130	0.189
-377.888	-200.000	0.018	-0.081
-376.873	-51.074	0.340	0.159
-375.858	60.176	0.206	0.202
-374.844	78.978	0.248	0.264
-373.829	11.057	-0.198	-0.151
-372.815	44.615	-0.136	0.125
-371.800	-115.213	-0.303	0.057
-370.785	-200.000	-0.019	0.097
-369.771	27.003	0.078	-0.065
-368.756	174.506	0.095	0.137
-367.742	647.408	0.007	0.018
-366.727	279.683	-0.015	-0.026
-365.712	388.820	-0.019	0.039
-364.698	-123.294	0.144	0.023
-363.683	-111.016	0.053	-0.011
-362.669	-200.000	0.062	0.405
-361.654	34.712	-0.048	-0.042
-360.639	797.786	0.060	0.163
-359.625	-149.152	-0.262	0.021
-358.610	-200.000	-0.007	0.046
-357.596	-29.647	0.211	0.120
-356.581	189.116	0.084	-0.126
-355.566	-200.000	0.020	-0.101
-354.552	-66.719	0.204	0.080
-353.537	-42.872	-0.168	-0.085
-352.523	-137.068	0.288	0.033
-351.508	-13.727	0.171	-0.110
-350.493	293.237	-0.049	-0.089
-349.479	-200.000	-0.027	-0.244
-348.464	31.110	-0.163	-0.139
-347.450	-31.198	0.174	-0.098
-346.435	283.938	-0.190	-0.340
-345.420	412.964	-0.031	0.066
-344.406	78.200	0.276	-0.293
-343.391	1.779	0.177	0.126
-342.377	21.980	-0.223	0.180
-341.362	147.352	-0.030	-0.040
-340.348	-67.098	-0.379	-0.149
-339.333	800.000	-0.052	0.205
-338.318	-175.528	0.145	-0.004
-337.304	-200.000	0.016	-0.366
-336.289	-79.428	0.141	-0.047
-335.275	85.808	0.155	0.169
-334.260	49.488	-0.305	-0.285
-333.245	89.098	0.125	-0.139
-332.231	249.054	0.117	0.198
-331.216	-146.596	0.309	0.027
-330.202	65.894	-0.179	0.180
-329.187	169.050	0.061	-0.087
-328.172	-92.108	0.239	-0.067
-327.158	558.360	-0.029	-0.070
-326.143	41.180	0.125	0.112
-325.129	-46.808	0.203	0.099
-324.114	247.963	0.114	0.192
-323.099	800.000	0.042	-0.182
-322.085	156.270	-0.239	0.327
-321.070	-45.933	-0.124	-0.061
-320.056	800.000	-0.090	-0.325
-319.041	-111.894	-0.100	-0.020
-318.026	160.370	-0.116	-0.161
-317.012	21.951	0.068	0.055
-315.997	88.593	0.085	0.093
-314.983	-5.284	-0.120	0.082
-313.968	38.171	0.152	0.134
-312.953	-47.278	-0.245	-0.118
-311.939	-123.990	0.024	-0.004
-310.924	-122.673	-0.343	0.055
-309.910	-140.264	-0.167	0.017
-308.895	800.000	-0.040	0.127
-307.880	-200.000	-0.023	0.107
-306.866	-116.166	0.218	-0.040
-305.851	-75.378	0.431	0.153
-304.837	800.000	-0.046	0.153
-303.822	-149.178	0.100	0.008
-302.807	800.000	-0.049	-0.180
-301.793	-0.461	0.101	0.071
-300.778	-88.986	0.054	-0.016
-299.764	-32.741	0.099	-0.055
-298.749	500.268	-0.053	-0.121
-297.735	76.389	-0.123	-0.130
-296.720	-136.655	0.234	-0.027
-295.705	-88.728	0.209	0.062
-294.691	-200.000	0.029	-0.126
-293.676	-47.944	0.168	0.081
-292.662	-72.333	0.336	-0.123
-291.647	351.301	0.151	0.297
-290.632	-136.650	-0.168	0.019
-289.618	657.895	0.112	-0.286
-288.603	109.944	0.027	-0.032
-287.589	624.246	0.151	-0.378
-286.574	-134.672	-0.172	-0.021
-285.559	-66.924	0.090	-0.035
-284.545	138.942	0.098	-0.128
-283.530	728.383	-0.048	-0.126
-282.516	152.126	-0.114	-0.154
-281.501	-140.962	0.392	0.040
-280.486	-92.397	0.149	-0.042
-279.472	127.938	-0.060	-0.076
-278.457	-127.560	0.133	0.019
-277.443	692.169	-0.039	0.102
-276.428	-33.448	0.115	0.063
-275.413	-200.000	0.033	-0.337
-274.399	431.699	0.079	0.170
-273.384	-200.000	-0.010	-0.234
-272.370	-137.556	-0.213	0.024
-271.355	547.508	0.077	0.182
-270.340	11.411	0.241	-0.183
-269.326	800.000	-0.071	-0.301
-268.311	800.000	-0.091	0.310
-267.297	-16.423	0.141	0.089
-266.282	-132.846	0.125	-0.016
-265.267	-33.437	-0.057	-0.031
-264.253	-79.356	0.112	-0.037
-263.238	-55.298	-0.069	-0.031
-262.224	-122.037	-0.224	0.036
-261.209	188.419	-0.080	0.119
-260.195	-51.911	-0.196	0.090
-259.180	32.783	-0.071	-0.061
-258.165	-200.000	-0.008	-0.081
-257.151	86.680	-0.045	0.050
-256.136	-0.062	-0.238	-0.168
-255.122	-127.769	0.174	0.025
-254.107	224.167	-0.302	0.483
-253.092	-101.939	-0.247	-0.059
-252.078	-67.697	0.281	0.109
-251.063	800.000	-0.066	0.255
-250.049	-200.000	0.012	0.179
-249.034	-61.136	-0.284	0.119
-248.019	800.000	-0.073	-0.259
-247.005	-200.000	0.014	0.107
-245.990	-200.000	0.023	0.162
-244.976	-133.882	-0.233	0.029
-243.961	-200.000	0.188	0.001
-242.946	-200.000	-0.053	-0.291
-241.932	-142.320	-0.200	-0.020
-240.917	111.768	-0.123	-0.147
-239.903	272.087	-0.223	-0.390
-238.888	0.959	-0.026	-0.019
-237.873	74.508	-0.131	-0.136
-236.859	-200.000	0.035	0.310
-235.844	-200.000	0.019	0.283
-234.830	-200.000	-0.003	-0.390
-233.815	-129.768	0.055	-0.007
-232.800	-7.651	-0.138	-0.092
-231.786	-200.000	-0.005	-0.288
-230.771	-96.197	0.169	-0.044
-229.757	-0.921	0.338	-0.236
-228.742	78.461	0.036	0.038
-227.727	250.376	0.040	-0.067
-226.713	375.526	0.105	-0.212
-225.698	800.000	-0.177	-0.528
-224.684	305.623	0.088	-0.163
-223.669	598.985	-0.059	-0.144
-222.655	115.104	-0.100	-0.120
-221.640	194.626	0.101	0.151
-220.625	126.214	-0.307	-0.384
-219.611	7.782	-0.155	-0.115
-218.596	59.761	0.217	0.212
-217.582	-200.000	-0.006	0.069
-216.567	13.838	-0.198	0.152
-215.552	-6.503	-0.221	-0.149
-214.538	-59.002	-0.185	0.079
-213.523	362.508	0.071	0.142
-212.509	-104.261	0.235	-0.054
-211.494	51.323	0.062	0.058
-210.479	533.408	-0.092	0.215
-209.465	-174.790	-0.248	-0.007
-208.450	342.060	-0.022	0.042
-207.436	-60.134	0.516	0.217
-206.421	81.858	-0.307	-0.329
-205.406	-117.421	0.291	-0.052
-204.392	126.280	-0.161	-0.201
-203.377	800.000	-0.079	-0.296
-202.363	329.805	-0.026	-0.049
-201.348	-91.295	0.075	-0.021
-200.333	-183.347	-0.358	0.006
-199.319	16.200	0.152	-0.118
-198.304	-200.000	-0.095	0.000
-197.290	-0.599	-0.191	0.134
-196.275	378.372	-0.113	-0.228
-195.260	-3.284	0.294	-0.202
-194.246	-109.831	-0.072	-0.015
-193.231	70.388	0.110	-0.112
-192.217	-20.571	-0.350	-0.212
-191.202	18.221	-0.047	0.037
-190.187	51.520	-0.127	0.119
-189.173	-200.000	0.019	0.300
-188.158	140.417	-0.215	-0.281
-187.144	292.853	0.137	0.248
-186.129	800.000	-0.093	0.255
-185.114	-169.042	-0.071	0.003
-184.100	-200.000	-0.002	0.266
-183.085	95.835	-0.171	-0.193
-182.071	248.323	0.036	0.060
-181.056	-200.000	-0.007	0.273
-180.042	-200.000	0.002	-0.194
-179.027	-47.105	-0.250	0.120
-178.012	-99.079	-0.101	0.025
-176.998	-165.471	0.257	-0.011
-175.983	-36.464	0.231	-0.123
-174.969	800.000	-0.068	-0.294
-173.954	236.321	-0.025	0.042
-172.939	-200.000	0.060	0.415
-171.925	-30.081	-0.106	0.060
-170.910	7.768	0.176	-0.130
-169.896	-50.046	-0.228	-0.107
-168.881	429.633	-0.043	-0.091
-167.866	-88.114	0.148	0.044
-166.852	9.456	-0.303	-0.226
-165.837	-63.396	0.471	-0.191
-164.823	-187.143	0.170	0.002
-163.808	60.856	0.154	0.151
-162.793	270.900	-0.074	0.129
-161.779	143.796	-0.066	-0.087
-160.764	44.561	-0.074	-0.067
-159.750	41.117	-0.095	0.085
-158.735	-179.131	-0.118	0.003
-157.720	-100.286	-0.262	0.064
-156.706	-200.000	-0.003	0.029
-155.691	-25.416	0.149	0.087
-154.677	122.134	-0.241	-0.297
-153.662	-200.000	-0.010	0.130
-152.647	-89.921	0.032	-0.009
-151.633	55.716	-0.076	0.072
-150.618	-97.021	-0.180	0.047
-149.604	205.878	-0.224	-0.344
-148.589	432.180	0.073	0.155
-147.574	-123.740	0.300	-0.047
-146.560	-200.000	0.042	-0.214
-145.545	116.186	-0.176	-0.213
-144.531	167.422	0.069	-0.097
-143.516	-200.000	-0.001	0.112
-142.502	-200.000	-0.008	-0.064
-141.487	-108.846	0.389	0.082
-140.472	151.328	0.211	0.284
-139.458	-17.372	0.350	0.217
-138.443	-115.051	-0.142	-0.027
-137.429	-11.955	-0.258	-0.166
-136.414	135.899	0.170	-0.219
-135.399	-135.474	-0.088	0.010
-134.385	-200.000	0.001	-0.220
-133.370	-200.000	-0.026	-0.122
-132.356	-94.110	-0.087	0.023
-131.341	-200.000	0.014	-0.376
-130.326	44.229	-0.087	-0.079
-129.312	-189.260	0.173	0.002
-128.297	-200.000	-0.030	-0.342
-127.283	800.000	0.060	-0.202
-126.268	-180.098	-0.238	0.005
-125.253	-89.494	0.168	0.049
-124.239	-151.265	-0.057	0.004
-123.224	640.824	0.055	-0.138
-122.210	-72.310	-0.007	-0.003
-121.195	229.641	0.095	0.153
