DTS Sentinel unit serial number:	SN413079Multiplexer serial number:	ORYXHardware model number:	OX4-SRSoftware version number:	ORYX F/W v4.00 Oryx Data Collector v3.7.2.0data status	okinstallation	princeton_trtdifferential loss correction	single-endedforward channel	channel 3reverse channel	N/Adate	2019/09/16time	18:56:35forward acquisition time	60.00reverse acquisition time	0.00gamma	496.2192k internal	0.2309k external	0.2309temperature offset calibration	0.9935default loss term (dB/km)	0.3790temperature slope calibration	1.0000multiplexer offset coefficient	1.0000multiplexer slope coefficient	1.0000fibre end	0.00T internal ref (°C)	35.73T ext. ref 1 (°C)	0.08T ext. ref 2 (°C)	29.00length (m)	temperature (°C)	Stokes	anti-Stokes-747.200	-114.545	0.044	0.009
-746.185	306.221	0.021	0.039
-745.171	-141.883	-0.286	0.029
-744.156	310.645	-0.126	0.240
-743.142	-200.000	-0.052	-0.385
-742.127	69.306	0.227	0.237
-741.112	-74.629	0.068	0.025
-740.098	800.000	0.033	0.118
-739.083	-200.000	0.016	-0.321
-738.069	485.712	-0.172	0.398
-737.054	440.649	-0.017	-0.038
-736.039	238.672	-0.279	0.471
-735.025	800.000	0.044	0.130
-734.010	-72.677	-0.347	0.130
-732.996	263.323	-0.155	-0.274
-731.981	-162.759	-0.186	0.009
-730.966	-88.746	-0.296	-0.089
-729.952	-200.000	-0.582	-0.001
-728.937	-200.000	-0.015	0.309
-727.923	-54.418	-0.067	0.031
-726.908	-6.515	-0.249	-0.172
-725.894	-200.000	-0.041	0.285
-724.879	-73.981	-0.330	-0.121
-723.864	-166.255	0.217	-0.009
-722.850	174.196	-0.195	-0.285
-721.835	-141.987	-0.146	0.015
-720.821	800.000	0.051	0.211
-719.806	33.403	-0.122	-0.108
-718.791	15.743	-0.097	-0.077
-717.777	-79.881	-0.116	-0.040
-716.762	713.906	0.043	0.117
-715.748	632.802	0.107	-0.275
-714.733	203.576	-0.122	-0.191
-713.718	-128.420	0.521	0.075
-712.704	-200.000	-0.051	-0.245
-711.689	145.225	0.112	0.152
-710.675	-5.382	-0.106	0.074
-709.660	214.762	-0.117	0.188
-708.645	-185.316	0.173	-0.003
-707.631	49.257	-0.074	-0.070
-706.616	325.218	0.132	-0.257
-705.602	89.462	0.176	0.199
-704.587	96.005	-0.213	-0.247
-703.572	800.000	0.026	-0.095
-702.558	398.235	-0.137	-0.290
-701.543	-67.437	-0.338	-0.134
-700.529	105.374	-0.164	-0.197
-699.514	80.890	-0.186	0.203
-698.499	800.000	0.030	0.086
-697.485	-137.356	-0.217	0.025
-696.470	-135.838	0.049	-0.006
-695.456	381.970	-0.092	-0.191
-694.441	145.461	-0.209	-0.284
-693.426	-34.412	-0.178	-0.099
-692.412	800.000	0.046	-0.181
-691.397	-200.000	0.014	0.073
-690.383	162.718	-0.274	0.390
-689.368	800.000	-0.149	-0.447
-688.354	112.257	-0.205	0.251
-687.339	281.290	0.205	-0.372
-686.324	-113.809	0.082	0.016
-685.310	-40.100	-0.087	0.046
-684.295	64.474	-0.041	0.041
-683.281	117.816	-0.095	0.119
-682.266	-200.000	0.019	0.095
-681.251	65.823	-0.047	0.049
-680.237	-200.000	-0.204	-0.001
-679.222	163.803	0.154	0.220
-678.208	-131.735	0.215	-0.029
-677.193	136.201	0.133	-0.176
-676.178	5.931	-0.070	0.053
-675.164	-50.615	-0.191	0.091
-674.149	-154.991	-0.350	-0.023
-673.135	86.673	-0.134	0.150
-672.120	-85.301	-0.324	-0.103
-671.105	318.544	0.100	-0.193
-670.091	116.589	-0.192	-0.239
-669.076	-85.880	0.302	-0.095
-668.062	-54.479	0.176	0.081
-667.047	22.618	0.135	0.112
-666.032	-44.800	0.105	0.053
-665.018	117.699	0.106	0.133
-664.003	131.931	-0.205	-0.267
-662.989	-42.047	0.259	-0.134
-661.974	28.976	0.193	-0.166
-660.959	119.498	0.152	0.191
-659.945	-200.000	0.059	0.302
-658.930	-17.517	-0.120	0.076
-657.916	160.934	0.073	-0.104
-656.901	785.841	-0.097	0.268
-655.886	317.928	-0.113	0.216
-654.872	192.191	0.179	-0.273
-653.857	2.629	-0.305	-0.224
-652.843	126.334	-0.202	-0.258
-651.828	-114.401	-0.468	-0.091
-650.814	30.292	-0.305	-0.264
-649.799	258.276	0.088	0.154
-648.784	-21.515	0.125	-0.077
-647.770	-200.000	-0.033	0.300
-646.755	64.295	0.104	-0.106
-645.741	-23.025	-0.259	0.158
-644.726	419.559	0.021	-0.046
-643.711	800.000	-0.071	-0.241
-642.697	-94.761	0.162	-0.044
-641.682	-70.850	-0.300	-0.114
-640.668	142.136	0.054	0.072
-639.653	-87.774	-0.379	0.115
-638.638	-200.000	-0.030	-0.193
-637.624	-1.939	0.212	0.151
-636.609	194.039	-0.045	0.069
-635.595	-200.000	-0.048	0.289
-634.580	26.711	-0.045	-0.038
-633.565	300.772	-0.074	0.137
-632.551	93.839	0.305	-0.350
-631.536	239.508	0.171	-0.289
-630.522	800.000	0.053	0.175
-629.507	-70.570	-0.178	-0.068
-628.492	-38.692	-0.217	0.116
-627.478	-200.000	0.069	0.407
-626.463	800.000	0.032	0.119
-625.449	-97.162	0.097	-0.026
-624.434	-130.836	-0.228	0.031
-623.419	-27.069	0.118	0.070
-622.405	-105.011	0.223	-0.052
-621.390	80.788	0.154	0.168
-620.376	-200.000	-0.046	0.206
-619.361	338.262	-0.111	-0.219
-618.346	-9.947	0.231	-0.155
-617.332	-200.000	-0.004	0.028
-616.317	81.944	-0.078	-0.086
-615.303	800.000	0.024	0.094
-614.288	-66.587	0.309	0.124
-613.273	-87.261	-0.181	0.055
-612.259	11.547	0.130	-0.101
-611.244	11.487	-0.118	-0.092
-610.230	-20.005	-0.049	0.030
-609.215	428.719	0.071	0.156
-608.201	-112.125	-0.289	-0.059
-607.186	28.293	-0.150	0.128
-606.171	340.311	0.115	-0.228
-605.157	18.522	-0.054	0.044
-604.142	38.936	-0.055	0.050
-603.128	-45.567	0.156	-0.078
-602.113	-39.761	-0.251	0.132
-601.098	-200.000	-0.033	-0.285
-600.084	-90.226	0.417	0.123
-599.069	-139.779	-0.124	0.013
-598.055	-139.190	-0.236	0.026
-597.040	229.857	-0.062	-0.102
-596.025	-9.765	-0.231	0.155
-595.011	-107.690	-0.160	0.035
-593.996	137.109	-0.047	-0.062
-592.982	-9.650	-0.111	0.075
-591.967	413.577	-0.053	0.114
-590.952	-97.970	0.255	0.066
-589.938	203.152	-0.033	-0.052
-588.923	71.318	0.144	-0.150
-587.909	-10.753	0.065	0.043
-586.894	800.000	-0.078	0.224
-585.879	9.547	0.296	0.226
-584.865	202.068	-0.085	-0.132
-583.850	95.492	0.145	0.167
-582.836	-40.790	0.193	0.101
-581.821	-200.000	-0.002	-0.023
-580.806	150.841	-0.127	0.174
-579.792	-200.000	-0.030	0.168
-578.777	-5.513	0.118	-0.081
-577.763	-190.182	0.110	0.001
-576.748	396.793	0.092	-0.193
-575.733	-200.000	-0.007	-0.085
-574.719	147.441	-0.140	0.190
-573.704	-96.475	-0.132	-0.035
-572.690	65.664	0.124	0.127
-571.675	397.592	-0.154	0.325
-570.661	-200.000	0.002	0.089
-569.646	-118.387	-0.294	-0.053
-568.631	24.506	-0.171	0.142
-567.617	-200.000	-0.011	0.241
-566.602	800.000	-0.033	-0.127
-565.588	117.977	-0.137	0.170
-564.573	-49.683	0.142	0.068
-563.558	800.000	0.092	-0.298
-562.544	800.000	0.026	0.087
-561.529	25.040	-0.270	-0.226
-560.515	-74.290	0.092	-0.033
-559.500	265.618	-0.076	-0.134
-558.485	-133.593	0.176	0.022
-557.471	-100.934	-0.225	-0.056
-556.456	16.553	0.125	-0.100
-555.442	159.088	-0.160	-0.224
-554.427	-72.731	0.318	0.118
-553.412	800.000	0.096	-0.421
-552.398	225.218	-0.156	0.254
-551.383	459.659	0.132	-0.295
-550.369	-200.000	-0.047	-0.299
-549.354	-200.000	-0.039	0.187
-548.339	-122.996	-0.225	-0.037
-547.325	-42.658	0.296	-0.152
-546.310	646.271	0.011	-0.028
-545.296	-101.067	0.039	0.010
-544.281	-190.892	0.116	-0.001
-543.266	-47.969	0.370	-0.180
-542.252	800.000	-0.013	0.049
-541.237	-6.624	0.216	0.148
-540.223	-119.172	0.213	0.037
-539.208	79.403	-0.121	-0.131
-538.193	-200.000	0.046	-0.443
-537.179	-58.569	-0.158	0.069
-536.164	-200.000	0.012	0.269
-535.150	-68.855	-0.320	0.125
-534.135	-200.000	-0.019	0.211
-533.121	-136.186	0.034	-0.004
-532.106	-7.768	-0.247	-0.168
-531.091	10.987	0.192	-0.148
-530.077	-200.000	0.002	-0.239
-529.062	503.312	0.046	0.108
-528.048	238.729	-0.058	0.097
-527.033	189.434	0.101	-0.152
-526.018	-136.040	0.356	0.042
-525.004	-112.730	-0.325	-0.065
-523.989	-10.945	0.155	0.103
-522.975	20.073	0.057	-0.047
-521.960	800.000	0.040	-0.147
-520.945	-13.640	-0.143	0.093
-519.931	-192.899	0.402	0.004
-518.916	259.772	-0.139	-0.243
-517.902	34.637	0.226	-0.199
-516.887	51.842	-0.154	0.148
-515.872	-94.084	-0.167	0.046
-514.858	-53.908	-0.146	-0.067
-513.843	87.740	0.105	0.117
-512.829	-44.672	-0.210	-0.106
-511.814	-102.671	0.211	0.051
-510.799	142.754	0.097	0.130
-509.785	-90.912	-0.076	-0.022
-508.770	-84.438	-0.193	0.061
-507.756	-200.000	-0.000	-0.294
-506.741	3.310	-0.212	0.155
-505.726	359.157	0.180	0.362
-504.712	-1.141	-0.224	0.159
-503.697	339.757	-0.142	0.279
-502.683	601.502	0.162	-0.405
-501.668	75.910	-0.062	0.066
-500.653	-110.587	0.204	-0.043
-499.639	800.000	0.093	-0.357
-498.624	-200.000	0.002	-0.188
-497.610	170.442	0.098	0.141
-496.595	5.700	-0.037	-0.028
-495.581	-25.111	-0.001	-0.001
-494.566	-200.000	0.005	-0.199
-493.551	206.897	0.079	-0.124
-492.537	-60.049	0.075	0.032
-491.522	-122.105	0.196	-0.032
-490.508	-69.777	0.143	0.055
-489.493	248.067	-0.163	0.277
-488.478	100.248	0.094	0.110
-487.464	81.466	-0.079	-0.086
-486.449	102.137	-0.155	0.182
-485.435	400.728	0.164	-0.347
-484.420	-128.636	0.361	-0.051
-483.405	532.140	0.126	-0.300
-482.391	800.000	0.030	0.123
-481.376	-200.000	0.039	0.343
-480.362	3.621	-0.217	-0.160
-479.347	-103.989	-0.299	-0.070
-478.332	84.961	0.025	0.027
-477.318	18.943	0.116	0.093
-476.303	183.624	0.118	-0.176
-475.289	62.540	0.019	0.019
-474.274	-68.831	-0.179	-0.070
-473.259	394.157	-0.074	0.156
-472.245	-200.000	0.027	0.126
-471.230	-200.000	0.058	-0.346
-470.216	330.948	0.064	0.124
-469.201	273.934	0.082	0.147
-468.186	118.110	0.068	0.084
-467.172	63.642	0.085	-0.086
-466.157	-200.000	0.014	0.088
-465.143	549.023	-0.137	-0.329
-464.128	255.763	0.122	0.211
-463.113	-200.000	0.011	0.092
-462.099	-78.397	0.296	-0.102
-461.084	293.277	-0.143	-0.261
-460.070	162.169	0.067	0.095
-459.055	-45.352	-0.115	0.057
-458.040	-42.329	0.158	0.081
-457.026	-3.856	-0.273	0.190
-456.011	163.011	0.325	0.458
-454.997	-65.070	0.254	-0.103
-453.982	18.240	0.076	0.061
-452.968	-89.095	0.234	0.069
-451.953	211.462	-0.064	-0.101
-450.938	800.000	0.068	-0.290
-449.924	-200.000	0.013	-0.423
-448.909	-11.005	-0.062	-0.041
-447.895	340.521	-0.091	-0.179
-446.880	-76.354	0.525	-0.185
-445.865	-17.376	0.022	-0.014
-444.851	-23.336	0.134	0.081
-443.836	-76.511	0.300	-0.106
-442.822	-106.205	-0.111	-0.025
-441.807	86.331	-0.137	-0.151
-440.792	27.948	0.073	0.062
-439.778	740.329	0.101	0.272
-438.763	-19.558	-0.205	-0.127
-437.749	89.126	-0.163	0.182
-436.734	-120.102	-0.292	0.050
-435.719	-114.648	-0.196	0.038
-434.705	-101.586	-0.084	0.021
-433.690	59.195	-0.111	-0.110
-432.676	800.000	-0.056	0.204
-431.661	-140.092	-0.094	-0.010
-430.646	60.749	-0.102	-0.101
-429.632	531.038	-0.126	0.300
-428.617	-50.558	-0.194	-0.092
-427.603	92.342	-0.147	0.166
-426.588	207.013	0.100	-0.156
-425.573	-61.388	-0.182	0.077
-424.559	-83.513	-0.225	0.072
-423.544	-113.256	-0.383	-0.076
-422.530	72.762	-0.110	0.115
-421.515	800.000	-0.022	-0.072
-420.500	-175.783	-0.197	0.005
-419.486	-94.144	-0.151	-0.041
-418.471	26.066	-0.253	-0.212
-417.457	29.939	-0.230	0.197
-416.442	-200.000	-0.040	0.177
-415.428	-148.818	-0.171	-0.014
-414.413	-73.898	-0.295	-0.107
-413.398	2.186	-0.104	0.075
-412.384	101.036	-0.099	-0.116
-411.369	210.285	0.178	-0.281
-410.355	-35.090	0.257	0.141
-409.340	-200.000	-0.051	0.296
-408.325	-125.755	0.218	0.033
-407.311	35.972	0.097	0.086
-406.296	-20.193	-0.274	0.169
-405.282	-68.572	-0.284	0.110
-404.267	29.537	0.184	0.157
-403.252	-54.108	0.254	-0.116
-402.238	-42.608	0.167	-0.085
-401.223	272.653	0.181	-0.320
-400.209	-76.623	-0.403	-0.142
-399.194	70.151	-0.230	-0.238
-398.179	-131.986	-0.363	0.047
-397.165	-200.000	0.007	0.089
-396.150	-34.314	0.116	0.064
-395.136	221.919	0.120	0.193
-394.121	-200.000	-0.131	0.000
-393.106	712.892	0.068	0.180
-392.092	-200.000	-0.001	-0.176
-391.077	-40.088	0.127	-0.066
-390.063	-107.255	0.141	-0.031
-389.048	-61.985	0.326	-0.137
-388.033	-8.856	-0.179	0.120
-387.019	83.605	-0.210	0.229
-386.004	-200.000	-0.048	0.322
-384.990	-116.293	-0.224	0.042
-383.975	-196.347	0.232	0.002
-382.960	-138.857	-0.206	0.022
-381.946	-29.901	0.154	0.088
-380.931	-19.154	-0.011	-0.007
-379.917	-38.022	0.106	0.056
-378.902	6.969	-0.169	0.126
-377.888	21.491	-0.259	-0.211
-376.873	480.848	0.046	-0.105
-375.858	-99.292	-0.094	0.024
-374.844	614.442	-0.135	0.338
-373.829	800.000	-0.056	0.202
-372.815	91.845	0.115	0.129
-371.800	94.417	-0.128	-0.146
-370.785	92.507	-0.171	0.193
-369.771	-200.000	-0.491	-0.001
-368.756	-58.131	-0.272	-0.119
-367.742	-200.000	0.004	-0.092
-366.727	800.000	0.150	-0.431
-365.712	-24.561	-0.158	-0.094
-364.698	104.293	-0.037	-0.043
-363.683	62.855	-0.085	0.085
-362.669	-157.819	0.237	-0.014
-361.654	84.163	0.313	0.342
-360.639	-62.836	-0.177	0.073
-359.625	-52.557	0.206	0.095
-358.610	-79.304	-0.134	0.045
-357.596	-200.000	0.079	-0.372
-356.581	800.000	0.031	-0.094
-355.566	15.746	0.104	-0.082
-354.552	82.727	0.266	-0.289
-353.537	401.744	-0.058	0.123
-352.523	359.601	-0.058	-0.117
-351.508	-24.388	0.178	-0.106
-350.493	800.000	-0.059	-0.233
-349.479	144.693	-0.065	-0.087
-348.464	-10.925	0.249	-0.164
-347.450	299.067	0.147	-0.270
-346.435	800.000	-0.048	0.191
-345.420	-51.848	-0.048	-0.022
-344.406	73.226	0.053	-0.055
-343.391	-200.000	-0.015	0.089
-342.377	800.000	-0.108	0.308
-341.362	292.989	0.028	-0.051
-340.348	-120.396	0.224	0.038
-339.333	-88.781	0.188	0.056
-338.318	-200.000	-0.016	0.456
-337.304	-17.281	0.243	0.153
-336.289	-22.464	0.248	-0.150
-335.275	-26.815	-0.053	0.031
-334.260	-135.490	0.192	0.023
-333.245	54.553	-0.161	-0.155
-332.231	252.396	0.171	-0.291
-331.216	-200.000	-0.046	-0.283
-330.202	-95.375	-0.018	-0.005
-329.187	712.001	-0.118	-0.312
-328.172	800.000	0.039	-0.112
-327.158	265.722	-0.124	-0.215
-326.143	61.652	-0.167	-0.166
-325.129	800.000	0.158	0.565
-324.114	-200.000	0.009	-0.080
-323.099	268.439	0.072	0.126
-322.085	-115.191	-0.428	-0.081
-321.070	-93.804	0.172	-0.047
-320.056	-81.298	-0.193	-0.064
-319.041	800.000	-0.049	0.184
-318.026	-35.443	-0.170	0.092
-317.012	102.313	0.163	0.190
-315.997	-24.282	-0.235	-0.140
-314.983	-188.380	-0.228	-0.003
-313.968	-97.020	0.123	-0.032
-312.953	-18.763	-0.282	-0.175
-311.939	-47.820	0.357	0.173
-310.924	-93.848	-0.139	-0.038
-309.910	512.206	-0.127	0.295
-308.895	-110.167	-0.321	0.067
-307.880	-26.889	0.164	-0.095
-306.866	313.399	0.059	0.111
-305.851	-30.947	-0.240	0.135
-304.837	-200.000	-0.020	0.134
-303.822	34.804	0.330	0.288
-302.807	-200.000	0.025	0.370
-301.793	102.591	0.087	0.102
-300.778	-88.259	-0.242	-0.072
-299.764	-121.983	-0.157	0.026
-298.749	651.711	0.065	-0.167
-297.735	140.580	0.116	0.154
-296.720	492.262	0.053	-0.120
-295.705	646.710	0.058	-0.149
-294.691	0.506	-0.251	0.179
-293.676	227.201	-0.094	0.152
-292.662	-116.726	-0.235	-0.043
-291.647	-34.691	0.052	-0.028
-290.632	-74.393	-0.170	0.061
-289.618	-140.605	0.187	0.019
-288.603	800.000	0.105	-0.411
-287.589	-51.315	0.123	0.057
-286.574	546.069	0.048	0.115
-285.559	129.869	0.058	0.075
-284.545	336.968	0.013	0.026
-283.530	-64.854	-0.091	0.037
-282.516	-144.288	-0.534	0.050
-281.501	-18.604	-0.122	-0.076
-280.486	-158.289	0.188	0.011
-279.472	466.712	0.115	0.256
-278.457	102.657	0.178	0.208
-277.443	-200.000	0.005	0.066
-276.428	1.625	-0.047	-0.034
-275.413	-99.938	0.146	-0.036
-274.399	347.999	0.124	0.244
-273.384	-140.082	0.214	-0.022
-272.370	315.453	0.099	0.186
-271.355	508.641	0.074	-0.170
-270.340	-57.494	0.153	0.067
-269.326	-76.662	-0.149	0.052
-268.311	-142.358	-0.158	0.016
-267.297	-118.211	-0.278	0.049
-266.282	-200.000	0.002	0.152
-265.267	-29.974	0.092	0.052
-264.253	-200.000	0.003	0.135
-263.238	-13.916	-0.266	-0.172
-262.224	-11.286	0.258	-0.170
-261.209	230.540	0.164	0.268
-260.195	33.432	0.136	-0.117
-259.180	127.283	-0.104	0.132
-258.165	-87.132	0.184	-0.056
-257.151	105.547	-0.038	-0.045
-256.136	-33.072	0.237	-0.131
-255.122	-89.944	0.109	-0.032
-254.107	67.620	-0.185	-0.188
-253.092	70.375	0.039	0.041
-252.078	322.054	-0.119	-0.225
-251.063	-49.318	-0.205	-0.098
-250.049	-109.050	0.323	-0.069
-249.034	-153.249	0.146	0.010
-248.019	800.000	-0.041	-0.149
-247.005	800.000	-0.066	-0.255
-245.990	111.545	0.131	0.158
-244.976	246.882	-0.047	0.079
-243.961	-185.028	-0.168	0.003
-242.946	21.044	-0.018	-0.014
-241.932	-160.440	-0.178	-0.010
-240.917	-156.077	0.427	0.027
-239.903	800.000	-0.037	0.145
-238.888	-93.321	-0.168	0.046
-237.873	-200.000	-0.029	-0.128
-236.859	166.763	-0.121	0.171
-235.844	-98.966	-0.141	-0.036
-234.830	800.000	0.048	0.162
-233.815	26.956	-0.229	0.192
-232.800	-129.365	-0.220	-0.031
-231.786	244.636	0.108	0.181
-230.771	118.393	0.072	-0.089
-229.757	-138.483	0.263	-0.029
-228.742	42.887	-0.066	-0.060
-227.727	316.787	-0.039	0.073
-226.713	488.282	0.062	0.141
-225.698	-78.282	0.174	-0.059
-224.684	-61.111	0.084	0.035
-223.669	23.895	-0.072	0.059
-222.655	-40.027	-0.351	0.182
-221.640	-69.242	-0.200	-0.076
-220.625	409.027	-0.074	-0.156
-219.611	32.813	-0.088	0.076
-218.596	-54.873	-0.165	-0.074
-217.582	120.937	0.051	0.064
-216.567	51.560	0.048	-0.046
-215.552	28.145	0.198	0.166
-214.538	-149.956	0.106	0.008
-213.523	-85.742	0.347	0.107
-212.509	800.000	0.039	-0.108
-211.494	498.915	0.085	-0.194
-210.479	-10.923	0.229	-0.150
-209.465	-200.000	0.006	-0.137
-208.450	-111.663	-0.230	-0.046
-207.436	-124.436	0.250	-0.039
-206.421	800.000	0.065	0.266
-205.406	52.265	0.225	-0.213
-204.392	136.704	0.320	-0.415
-203.377	-41.821	-0.239	-0.122
-202.363	390.288	0.097	-0.200
-201.348	-200.000	-0.033	-0.163
-200.333	334.045	0.115	0.221
-199.319	378.394	-0.051	0.105
-198.304	-200.000	0.167	-0.000
-197.290	-200.000	0.011	-0.229
-196.275	348.666	0.120	-0.235
-195.260	-30.577	0.142	0.080
-194.246	800.000	0.119	-0.334
-193.231	-200.000	0.005	-0.319
-192.217	-66.314	0.140	0.056
-191.202	673.918	-0.085	0.219
-190.187	19.592	0.173	-0.138
-189.173	800.000	-0.032	0.091
-188.158	-200.000	0.010	-0.090
-187.144	-200.000	0.050	0.400
-186.129	-56.804	-0.300	-0.132
-185.114	-112.396	-0.328	-0.065
-184.100	426.642	-0.008	-0.016
-183.085	-67.818	0.175	0.068
-182.071	87.653	-0.186	-0.204
-181.056	-140.433	0.217	-0.022
-180.042	-171.830	-0.043	0.001
-179.027	-162.807	-0.200	-0.010
-178.012	800.000	-0.065	0.202
-176.998	-172.164	0.071	-0.002
-175.983	-137.495	-0.320	0.036
-174.969	-200.000	-0.066	-0.325
-173.954	-138.559	-0.140	-0.015
-172.939	700.169	0.213	-0.556
-171.925	284.830	-0.080	-0.143
-170.910	-64.893	0.277	-0.111
-169.896	-200.000	0.061	0.276
-168.881	-157.237	-0.218	-0.013
-167.866	-200.000	0.022	-0.143
-166.852	-200.000	0.018	-0.100
-165.837	62.408	0.109	0.108
-164.823	49.416	0.151	-0.141
-163.808	-60.895	0.186	0.078
-162.793	239.272	-0.069	0.113
-161.779	0.202	0.143	0.101
-160.764	-162.077	0.094	0.005
-159.750	-80.222	0.252	-0.084
-158.735	-122.480	-0.142	0.023
-157.720	583.324	0.052	0.127
-156.706	800.000	0.115	0.343
-155.691	268.950	0.040	0.070
-154.677	147.612	-0.124	-0.166
-153.662	-200.000	-0.036	0.188
-152.647	-46.086	0.193	-0.094
-151.633	53.995	0.171	-0.163
-150.618	-128.198	-0.237	0.034
-149.604	63.353	-0.125	-0.124
-148.589	-24.925	0.236	0.139
-147.574	6.209	0.309	-0.228
-146.560	800.000	-0.118	-0.338
-145.545	140.943	0.132	-0.173
-144.531	34.244	-0.148	-0.128
-143.516	-24.872	-0.097	0.057
-142.502	99.283	-0.015	0.017
-141.487	113.900	-0.158	-0.191
-140.472	56.875	-0.149	-0.144
-139.458	-200.000	-0.042	0.298
-138.443	-200.000	0.007	0.319
-137.429	31.807	0.251	-0.214
-136.414	165.577	-0.105	-0.147
-135.399	800.000	0.088	-0.305
-134.385	-113.372	-0.343	-0.067
-133.370	26.880	-0.082	0.068
-132.356	57.715	0.155	0.150
-131.341	55.551	0.105	0.101
-130.326	18.001	-0.118	0.093
-129.312	87.279	-0.181	-0.198
-128.297	291.566	-0.112	-0.202
-127.283	-200.000	0.050	0.222
-126.268	-200.000	-0.067	0.331
-125.253	-200.000	-0.016	0.382
-124.239	-178.401	0.242	0.006
-123.224	-121.901	0.069	-0.011
-122.210	248.225	0.134	0.225
-121.195	-200.000	-0.016	0.191
-120.180	119.299	-0.161	-0.198
