DTS Sentinel unit serial number:	SN413079Multiplexer serial number:	ORYXHardware model number:	OX4-SRSoftware version number:	ORYX F/W v4.00 Oryx Data Collector v3.7.2.0data status	okinstallation	princeton_trtdifferential loss correction	single-endedforward channel	channel 3reverse channel	N/Adate	2019/09/17time	17:16:35forward acquisition time	60.00reverse acquisition time	0.00gamma	496.2192k internal	0.2290k external	0.2290temperature offset calibration	0.9952default loss term (dB/km)	0.3790temperature slope calibration	1.0000multiplexer offset coefficient	1.0000multiplexer slope coefficient	1.0000fibre end	0.00T internal ref (°C)	42.89T ext. ref 1 (°C)	0.34T ext. ref 2 (°C)	38.88length (m)	temperature (°C)	Stokes	anti-Stokes-747.200	216.414	-0.183	0.299
-746.185	6.021	-0.160	0.122
-745.171	191.820	-0.237	-0.367
-744.156	-200.000	-0.054	0.362
-743.142	800.000	-0.117	0.365
-742.127	186.445	0.086	0.131
-741.112	337.042	0.071	0.142
-740.098	123.075	-0.069	0.089
-739.083	571.759	0.050	0.124
-738.069	53.023	-0.114	0.112
-737.054	-200.000	0.019	0.166
-736.039	-36.114	-0.507	0.280
-735.025	-156.311	0.236	0.015
-734.010	55.392	-0.124	-0.123
-732.996	35.554	-0.041	0.036
-731.981	-100.973	0.068	0.017
-730.966	12.878	0.237	-0.188
-729.952	-51.898	-0.252	0.120
-728.937	75.271	-0.068	0.073
-727.923	199.515	0.084	-0.131
-726.908	-139.308	0.086	-0.009
-725.894	800.000	-0.036	-0.159
-724.879	800.000	-0.068	-0.269
-723.864	-109.493	-0.191	-0.041
-722.850	-99.797	-0.058	0.015
-721.835	2.388	-0.200	0.148
-720.821	-48.979	-0.210	0.103
-719.806	-93.890	0.131	0.037
-718.791	-200.000	-0.024	-0.135
-717.777	-171.862	-0.108	-0.004
-716.762	223.442	-0.148	-0.244
-715.748	80.360	0.091	0.100
-714.733	-110.286	-0.115	-0.025
-713.718	91.987	-0.059	-0.068
-712.704	-91.857	0.265	0.077
-711.689	-25.489	0.207	-0.125
-710.675	-9.672	-0.211	0.144
-709.660	-16.198	-0.325	-0.211
-708.645	-151.135	0.071	-0.005
-707.631	-200.000	0.042	-0.216
-706.616	-48.650	0.054	0.027
-705.602	-80.979	0.290	0.098
-704.587	-200.000	0.038	0.341
-703.572	-3.957	-0.304	-0.216
-702.558	128.676	0.140	0.183
-701.543	-88.055	0.331	-0.102
-700.529	-172.484	-0.248	0.008
-699.514	-146.650	0.344	0.030
-698.499	-11.353	0.133	-0.090
-697.485	143.949	-0.143	0.195
-696.470	-200.000	0.050	-0.282
-695.456	311.742	-0.090	-0.172
-694.441	-185.964	0.185	-0.003
-693.426	800.000	-0.061	-0.228
-692.412	-200.000	0.010	0.176
-691.397	-157.531	-0.207	0.013
-690.383	-136.779	-0.375	-0.044
-689.368	800.000	0.008	0.035
-688.354	168.830	-0.217	-0.317
-687.339	474.883	0.100	0.230
-686.324	228.887	-0.129	0.215
-685.310	-200.000	0.021	0.129
-684.295	-43.813	0.078	-0.040
-683.281	800.000	0.084	-0.291
-682.266	-126.338	0.120	0.018
-681.251	-119.210	0.222	-0.040
-680.237	36.037	-0.207	-0.186
-679.222	-47.732	-0.174	0.086
-678.208	664.776	-0.118	0.311
-677.193	316.270	-0.146	-0.281
-676.178	349.357	-0.047	-0.094
-675.164	-15.081	0.165	0.108
-674.149	800.000	-0.069	-0.224
-673.135	7.001	-0.337	-0.257
-672.120	-157.685	-0.158	-0.010
-671.105	-69.228	0.319	-0.125
-670.091	-40.441	-0.260	0.138
-669.076	334.302	0.040	-0.079
-668.062	-199.708	-0.310	-0.002
-667.047	800.000	-0.034	-0.112
-666.032	15.185	-0.257	-0.206
-665.018	0.640	-0.415	-0.303
-664.003	-76.497	-0.141	0.050
-662.989	303.956	-0.156	-0.295
-661.974	-91.775	-0.315	-0.091
-660.959	800.000	-0.046	-0.155
-659.945	24.759	-0.201	-0.170
-658.930	364.912	-0.082	0.169
-657.916	235.573	-0.144	0.242
-656.901	-108.232	-0.156	0.035
-655.886	767.181	0.155	0.430
-654.872	-45.919	0.159	0.080
-653.857	-76.643	0.416	-0.149
-652.843	53.114	0.052	-0.050
-651.828	-200.000	0.052	-0.287
-650.814	-200.000	-0.059	0.435
-649.799	197.030	-0.124	0.193
-648.784	-85.764	-0.118	-0.037
-647.770	-200.000	0.001	0.016
-646.755	86.337	-0.088	0.099
-645.741	16.013	-0.147	-0.118
-644.726	-68.719	-0.155	0.061
-643.711	-2.589	-0.184	0.132
-642.697	178.560	0.160	0.239
-641.682	346.314	-0.079	0.159
-640.668	-22.454	-0.058	0.036
-639.653	-30.757	-0.232	-0.134
-638.638	-144.997	0.316	-0.029
-637.624	254.539	0.034	0.060
-636.609	800.000	-0.024	-0.108
-635.595	-11.834	-0.264	-0.176
-634.580	-67.079	-0.331	0.133
-633.565	-158.875	0.375	0.022
-632.551	117.986	-0.104	0.130
-631.536	-128.990	-0.148	0.021
-630.522	800.000	0.055	0.173
-629.507	-156.421	0.324	0.021
-628.492	-147.200	-0.306	-0.027
-627.478	-65.753	-0.230	0.094
-626.463	701.474	0.051	0.137
-625.449	67.463	0.140	0.146
-624.434	800.000	-0.043	-0.143
-623.419	800.000	0.051	0.216
-622.405	448.839	-0.050	0.113
-621.390	-14.079	-0.035	0.023
-620.376	758.336	0.107	-0.296
-619.361	0.021	0.221	0.160
-618.346	-79.628	0.153	0.053
-617.332	-11.261	-0.191	-0.129
-616.317	800.000	0.058	0.207
-615.303	800.000	-0.043	0.167
-614.288	179.746	-0.286	-0.427
-613.273	235.002	0.080	-0.134
-612.259	-189.218	-0.249	-0.003
-611.244	366.747	-0.206	-0.423
-610.230	-200.000	0.006	-0.182
-609.215	-100.896	0.239	-0.060
-608.201	-200.000	0.017	-0.251
-607.186	83.229	0.154	-0.171
-606.171	92.593	0.262	-0.302
-605.157	-60.228	-0.292	0.127
-604.142	-131.858	0.292	-0.039
-603.128	-200.000	0.005	-0.140
-602.113	129.116	-0.038	0.049
-601.098	-189.499	0.239	0.003
-600.084	-43.485	0.268	-0.138
-599.069	64.639	0.274	-0.281
-598.055	16.596	0.321	-0.259
-597.040	-3.033	-0.188	-0.133
-596.025	-200.000	0.011	-0.296
-595.011	66.025	0.078	-0.081
-593.996	16.953	-0.252	0.203
-592.982	-145.643	0.182	-0.017
-591.967	-102.851	-0.074	-0.018
-590.952	528.199	-0.066	0.159
-589.938	-200.000	0.011	-0.065
-588.923	52.130	-0.179	0.174
-587.909	619.945	-0.077	-0.198
-586.894	800.000	-0.081	0.231
-585.879	64.039	-0.189	0.194
-584.865	-200.000	-0.005	0.266
-583.850	85.047	0.333	0.372
-582.836	214.738	-0.071	-0.115
-581.821	-32.579	0.065	-0.037
-580.806	94.097	0.081	-0.093
-579.792	-200.000	-0.106	-0.555
-578.777	-200.000	0.004	-0.173
-577.763	696.964	-0.028	0.074
-576.748	-81.430	0.213	0.071
-575.733	94.183	0.121	0.140
-574.719	68.004	0.085	0.089
-573.704	106.027	-0.111	0.134
-572.690	205.498	0.115	0.182
-571.675	-200.000	0.005	-0.326
-570.661	-200.000	-0.021	-0.665
-569.646	-200.000	-0.023	-0.311
-568.631	334.694	0.065	-0.128
-567.617	-22.997	-0.136	-0.083
-566.602	115.204	0.249	-0.309
-565.588	-132.140	0.097	0.013
-564.573	112.450	-0.088	0.108
-563.558	-158.853	-0.167	-0.010
-562.544	338.389	0.163	-0.323
-561.529	-200.000	-0.001	-0.159
-560.515	-200.000	0.003	-0.065
-559.500	-6.189	0.096	0.067
-558.485	-70.308	-0.335	-0.129
-557.471	-200.000	-0.027	0.193
-556.456	77.714	0.181	0.196
-555.442	88.670	0.126	-0.143
-554.427	-127.054	-0.118	-0.018
-553.412	-146.060	0.055	-0.005
-552.398	-110.564	-0.027	-0.006
-551.383	96.185	0.164	0.190
-550.369	-12.788	0.273	-0.181
-549.354	254.385	0.138	-0.239
-548.339	48.303	-0.024	-0.023
-547.325	-146.484	-0.230	-0.020
-546.310	-86.892	-0.195	-0.061
-545.296	-160.935	-0.251	0.013
-544.281	-200.000	-0.011	0.413
-543.266	218.358	0.035	0.057
-542.252	-200.000	0.017	-0.091
-541.237	-97.741	0.119	-0.031
-540.223	317.433	0.160	-0.307
-539.208	-68.575	-0.067	-0.026
-538.193	-126.658	-0.342	-0.051
-537.179	193.790	0.054	-0.083
-536.164	-145.601	0.264	0.024
-535.150	800.000	0.082	0.327
-534.135	471.866	0.065	0.148
-533.121	276.309	-0.069	0.125
-532.106	800.000	0.057	-0.184
-531.091	-59.827	-0.212	-0.092
-530.077	-142.448	-0.179	-0.018
-529.062	-96.132	-0.304	-0.082
-528.048	-200.000	-0.018	0.351
-527.033	127.374	0.109	-0.141
-526.018	800.000	-0.112	0.474
-525.004	-32.705	-0.261	-0.148
-523.989	231.423	0.060	0.100
-522.975	-200.000	-0.032	0.208
-521.960	162.421	0.121	0.173
-520.945	541.003	0.056	-0.136
-519.931	-25.169	0.100	0.060
-518.916	167.738	0.003	0.004
-517.902	800.000	-0.052	0.170
-516.887	-126.349	0.161	0.024
-515.872	-200.000	0.050	-0.233
-514.858	610.596	-0.134	0.340
-513.843	178.891	0.108	0.160
-512.829	-125.663	0.116	-0.018
-511.814	132.334	-0.207	-0.271
-510.799	800.000	0.058	-0.192
-509.785	-60.082	0.343	-0.149
-508.770	154.424	0.263	0.367
-507.756	-67.313	-0.294	0.117
-506.741	800.000	-0.046	0.171
-505.726	36.363	0.075	0.067
-504.712	306.789	-0.189	0.358
-503.697	-8.016	-0.317	-0.217
-502.683	-200.000	-0.019	0.198
-501.668	-120.630	-0.230	0.039
-500.653	800.000	-0.052	-0.190
-499.639	-67.156	-0.310	-0.124
-498.624	50.551	-0.160	0.154
-497.610	-129.500	0.366	-0.051
-496.595	94.904	0.081	-0.093
-495.581	-14.034	0.102	-0.067
-494.566	-136.840	0.213	0.025
-493.551	-76.706	0.268	-0.095
-492.537	-193.570	-0.250	0.002
-491.522	-18.171	-0.434	-0.275
-490.508	-55.050	0.283	0.129
-489.493	-200.000	-0.003	0.314
-488.478	-55.496	0.324	0.147
-487.464	356.573	-0.187	0.379
-486.449	143.998	-0.232	0.313
-485.435	-62.132	-0.080	0.034
-484.420	-69.888	-0.488	0.189
-483.405	650.192	0.048	-0.124
-482.391	-26.069	0.139	-0.083
-481.376	149.841	0.082	0.113
-480.362	-65.237	0.207	-0.085
-479.347	106.558	0.151	-0.182
-478.332	-200.000	-0.014	-0.302
-477.318	-152.042	0.235	-0.017
-476.303	-26.872	-0.159	-0.094
-475.289	172.823	0.064	-0.093
-474.274	294.608	-0.233	0.432
-473.259	-96.772	0.276	0.074
-472.245	-0.979	0.105	-0.075
-471.230	66.458	0.110	-0.114
-470.216	-200.000	0.083	-0.476
-469.201	-200.000	0.015	-0.160
-468.186	800.000	0.079	0.297
-467.172	-200.000	-0.053	0.327
-466.157	50.821	-0.212	0.203
-465.143	34.599	-0.172	0.152
-464.128	-59.192	-0.286	0.125
-463.113	771.604	-0.039	0.108
-462.099	71.460	-0.101	-0.106
-461.084	-200.000	-0.030	0.195
-460.070	-200.000	-0.015	-0.617
-459.055	-200.000	0.062	0.345
-458.040	-107.615	-0.185	0.041
-457.026	-106.692	0.323	0.073
-456.011	800.000	0.009	-0.025
-454.997	-73.887	-0.139	-0.051
-453.982	193.717	0.138	-0.212
-452.968	-19.278	-0.102	-0.064
-451.953	13.533	-0.156	-0.122
-450.938	46.536	-0.108	-0.102
-449.924	-108.798	0.344	0.075
-448.909	515.206	-0.126	0.299
-447.895	-200.000	-0.008	-0.125
-446.880	-43.876	-0.268	0.137
-445.865	180.988	-0.011	-0.017
-444.851	-53.648	-0.374	-0.173
-443.836	-200.000	-0.018	0.169
-442.822	-52.333	-0.293	-0.138
-441.807	35.580	-0.208	0.185
-440.792	-55.663	0.152	-0.069
-439.778	21.915	-0.113	-0.093
-438.763	-126.149	0.193	0.029
-437.749	-200.000	-0.010	-0.076
-436.734	-81.509	0.245	-0.082
-435.719	394.931	-0.047	0.099
-434.705	678.261	0.102	-0.269
-433.690	333.614	0.072	0.142
-432.676	-35.181	-0.137	0.075
-431.661	-52.969	-0.070	0.033
-430.646	-200.000	-0.028	-0.232
-429.632	-131.088	-0.048	0.006
-428.617	-88.877	-0.088	-0.026
-427.603	-200.000	-0.013	-0.366
-426.588	661.577	0.044	0.114
-425.573	192.288	0.152	0.232
-424.559	800.000	-0.095	0.368
-423.544	800.000	-0.106	0.342
-422.530	-83.421	0.141	0.046
-421.515	-53.580	0.427	-0.198
-420.500	59.044	-0.176	0.175
-419.486	800.000	-0.007	-0.027
-418.471	-57.252	0.211	0.094
-417.457	-91.791	0.111	0.032
-416.442	-20.022	0.057	0.036
-415.428	-107.197	0.149	0.033
-414.413	-106.709	-0.145	0.032
-413.398	-25.030	0.184	0.111
-412.384	800.000	-0.093	-0.360
-411.369	-89.096	0.252	-0.075
-410.355	176.417	-0.204	-0.300
-409.340	645.393	-0.119	-0.308
-408.325	-40.757	-0.181	-0.095
-407.311	-200.000	-0.047	0.291
-406.296	-41.269	0.134	-0.070
-405.282	-125.180	0.382	-0.059
-404.267	-173.949	-0.124	-0.004
-403.252	-158.432	-0.391	0.023
-402.238	56.328	0.173	-0.169
-401.223	402.337	-0.185	-0.393
-400.209	377.705	-0.236	0.487
-399.194	221.820	0.131	0.213
-398.179	800.000	0.088	0.320
-397.165	-66.843	-0.212	0.085
-396.150	-200.000	-0.035	-0.160
-395.136	-200.000	-0.054	-0.329
-394.121	-30.096	-0.162	-0.093
-393.106	312.123	-0.134	0.253
-392.092	-80.551	-0.039	0.013
-391.077	-120.613	0.374	-0.064
-390.063	-77.100	-0.312	0.110
-389.048	258.604	-0.108	0.188
-388.033	331.931	-0.024	0.047
-387.019	800.000	-0.051	0.212
-386.004	-200.000	-0.023	0.109
-384.990	800.000	0.048	-0.199
-383.975	-200.000	-0.019	-0.196
-382.960	800.000	-0.022	-0.085
-381.946	155.532	0.101	-0.141
-380.931	-200.000	-0.007	-0.123
-379.917	-60.029	0.224	-0.097
-378.902	14.841	-0.015	0.012
-377.888	62.005	0.038	0.039
-376.873	-100.382	-0.250	-0.063
-375.858	394.469	-0.184	0.388
-374.844	150.383	0.083	-0.113
-373.829	800.000	0.049	-0.146
-372.815	243.562	0.166	-0.280
-371.800	141.845	-0.286	-0.383
-370.785	-66.686	-0.191	-0.077
-369.771	-70.875	0.383	0.146
-368.756	18.818	-0.087	0.070
-367.742	-139.147	0.106	-0.012
-366.727	22.464	0.245	0.203
-365.712	250.287	0.264	-0.453
-364.698	-0.676	0.350	0.251
-363.683	800.000	0.112	0.382
-362.669	175.825	-0.097	0.142
-361.654	150.886	0.207	-0.284
-360.639	267.428	0.197	0.348
-359.625	-200.000	-0.054	-0.284
-358.610	-116.702	-0.257	0.048
-357.596	-200.000	0.020	-0.151
-356.581	84.810	0.190	0.211
-355.566	-67.884	0.379	-0.149
-354.552	-48.502	-0.058	-0.028
-353.537	32.521	-0.215	-0.188
-352.523	800.000	-0.089	-0.253
-351.508	193.734	-0.158	0.241
-350.493	568.925	0.066	-0.161
-349.479	-200.000	0.032	-0.152
-348.464	177.417	0.124	-0.182
-347.450	-27.374	-0.288	0.169
-346.435	-35.871	0.231	0.126
-345.420	-61.653	0.164	0.069
-344.406	249.623	-0.063	-0.107
-343.391	-200.000	-0.033	-0.187
-342.377	227.646	-0.113	-0.185
-341.362	-200.000	-0.041	0.185
-340.348	-200.000	0.024	0.347
-339.333	-200.000	0.020	0.199
-338.318	-136.730	0.063	-0.007
-337.304	-94.527	0.057	0.016
-336.289	-200.000	0.030	0.209
-335.275	443.511	-0.003	0.007
-334.260	-77.232	-0.301	0.106
-333.245	-200.000	0.054	0.322
-332.231	700.796	0.131	0.348
-331.216	119.141	-0.070	0.087
-330.202	800.000	-0.027	0.083
-329.187	-144.984	-0.153	-0.014
-328.172	129.205	-0.217	0.279
-327.158	800.000	-0.017	0.057
-326.143	224.069	0.190	0.310
-325.129	-84.377	0.248	0.079
-324.114	183.053	-0.309	0.460
-323.099	-24.619	0.235	-0.141
-322.085	-73.525	0.250	-0.092
-321.070	-96.633	0.120	0.032
-320.056	37.447	-0.092	0.082
-319.041	-27.401	-0.308	-0.181
-318.026	-102.962	-0.145	-0.035
-317.012	-200.000	0.009	-0.110
-315.997	-94.218	0.125	-0.035
-314.983	-93.177	-0.121	0.034
-313.968	115.561	0.229	-0.282
-312.953	-116.205	0.243	0.045
-311.939	706.549	-0.123	0.327
-310.924	800.000	-0.107	-0.342
-309.910	7.153	-0.065	-0.049
-308.895	-77.356	-0.367	-0.128
-307.880	-99.191	0.116	0.029
-306.866	133.521	-0.075	0.097
-305.851	23.429	0.218	-0.181
-304.837	-200.000	0.054	-0.333
-303.822	-42.786	0.053	-0.027
-302.807	48.938	0.074	-0.070
-301.793	-8.275	0.262	0.178
-300.778	8.321	0.294	0.223
-299.764	317.097	-0.126	0.240
-298.749	-12.547	0.043	0.028
-297.735	80.458	-0.101	-0.110
-296.720	79.774	0.124	0.134
-295.705	800.000	0.023	0.087
-294.691	-200.000	0.009	0.141
-293.676	332.637	-0.142	-0.277
-292.662	800.000	-0.114	-0.429
-291.647	-53.916	-0.155	-0.071
-290.632	-111.512	-0.243	0.050
-289.618	-200.000	0.013	0.097
-288.603	800.000	-0.096	-0.308
-287.589	-27.220	-0.251	-0.147
-286.574	295.125	0.155	-0.286
-285.559	79.693	-0.135	-0.146
-284.545	60.474	0.141	-0.141
-283.530	111.681	-0.034	-0.042
-282.516	739.186	0.049	0.132
-281.501	-195.065	-0.200	-0.002
-280.486	-200.000	-0.005	-0.121
-279.472	-57.841	0.086	0.038
-278.457	800.000	0.039	0.131
-277.443	-105.669	-0.428	-0.097
-276.428	-58.876	-0.342	0.149
-275.413	-153.765	0.354	0.024
-274.399	-50.121	0.212	-0.101
-273.384	34.984	-0.199	-0.176
-272.370	512.134	-0.146	-0.341
-271.355	169.298	0.141	-0.202
-270.340	800.000	0.094	-0.281
-269.326	-186.871	0.236	-0.003
-268.311	30.389	-0.098	0.084
-267.297	-178.922	-0.356	0.008
-266.282	-105.205	0.417	0.096
-265.267	-200.000	-0.038	0.187
-264.253	-200.000	-0.017	0.284
-263.238	14.664	0.164	0.129
-262.224	-39.597	-0.094	0.050
-261.209	800.000	0.078	-0.295
-260.195	-147.322	0.179	-0.015
-259.180	-14.893	-0.099	-0.064
-258.165	11.843	-0.166	0.128
-257.151	-133.943	0.149	-0.019
-256.136	800.000	0.058	0.222
-255.122	-85.693	0.089	0.028
-254.107	-7.974	-0.101	0.069
-253.092	-200.000	0.020	0.149
-252.078	-102.637	-0.140	0.034
-251.063	800.000	0.046	-0.160
-250.049	-63.053	-0.327	0.136
-249.034	-14.326	0.024	-0.015
-248.019	16.094	0.139	0.110
-247.005	-200.000	0.021	-0.166
-245.990	385.832	0.051	0.106
-244.976	-19.258	-0.156	0.097
-243.961	800.000	-0.067	-0.210
-242.946	-123.751	0.294	-0.047
-241.932	44.396	0.035	0.032
-240.917	-200.000	0.052	-0.310
-239.903	-200.000	0.007	-0.037
-238.888	-152.976	0.087	0.006
-237.873	-96.615	-0.376	0.100
-236.859	91.448	0.042	0.048
-235.844	-169.172	0.047	-0.002
-234.830	-89.251	-0.393	-0.116
-233.815	-200.000	0.006	0.266
-232.800	-200.000	0.057	0.420
-231.786	517.003	-0.053	-0.125
-230.771	491.935	0.114	-0.262
-229.757	-2.060	0.091	0.064
-228.742	244.079	-0.158	0.266
-227.727	-123.359	-0.249	0.040
-226.713	5.572	-0.008	0.006
-225.698	105.544	-0.045	-0.054
-224.684	-200.000	-0.007	-0.069
-223.669	125.430	-0.091	0.116
-222.655	-39.762	-0.050	-0.026
-221.640	69.213	0.314	-0.324
-220.625	31.950	-0.346	-0.299
-219.611	-200.000	0.008	0.240
-218.596	196.596	0.043	-0.066
-217.582	94.010	-0.043	-0.049
-216.567	-96.078	-0.281	-0.075
-215.552	-200.000	-0.018	0.363
-214.538	163.420	-0.114	0.160
-213.523	308.792	-0.032	0.060
-212.509	-141.647	-0.130	0.013
-211.494	800.000	-0.034	-0.134
-210.479	-59.659	-0.062	-0.027
-209.465	158.374	0.151	-0.211
-208.450	4.685	-0.046	-0.034
-207.436	-45.197	0.105	0.053
-206.421	466.812	0.061	-0.137
-205.406	800.000	-0.116	-0.366
-204.392	176.358	0.129	0.188
-203.377	-92.891	0.192	0.054
-202.363	-200.000	0.041	-0.290
-201.348	-200.000	0.081	0.460
-200.333	-200.000	-0.035	0.165
-199.319	455.352	0.023	-0.052
-198.304	-62.987	-0.170	-0.070
-197.290	-117.238	0.329	0.060
-196.275	765.796	0.072	-0.196
-195.260	-112.079	0.119	0.024
-194.246	183.640	0.280	0.415
-193.231	-134.131	0.174	0.022
-192.217	800.000	0.055	0.181
-191.202	303.026	-0.056	0.104
-190.187	-19.376	-0.318	0.198
-189.173	-200.000	-0.023	0.188
-188.158	27.707	0.076	0.064
-187.144	-200.000	-0.034	-0.231
-186.129	206.734	0.126	0.196
-185.114	-14.455	0.161	0.104
-184.100	158.862	0.135	-0.187
-183.085	203.959	0.093	-0.145
-182.071	-68.769	0.354	0.137
-181.056	800.000	-0.070	0.214
-180.042	800.000	-0.024	-0.100
-179.027	-76.339	-0.121	0.043
-178.012	8.594	0.297	0.224
-176.998	-200.000	0.020	-0.189
-175.983	-200.000	-0.051	-0.359
-174.969	800.000	0.028	0.114
-173.954	-200.000	-0.071	-0.417
-172.939	-162.324	0.324	0.016
-171.925	145.517	0.117	0.157
-170.910	-41.939	0.044	0.023
-169.896	800.000	-0.071	-0.213
-168.881	364.484	-0.149	0.299
-167.866	800.000	-0.029	-0.086
-166.852	-200.000	0.049	-0.237
-165.837	-67.065	0.239	0.095
-164.823	-28.488	0.128	0.074
-163.808	-200.000	0.074	0.529
-162.793	-200.000	-0.053	0.258
-161.779	-15.785	0.188	0.120
-160.764	-166.704	0.022	0.001
-159.750	-47.480	-0.137	0.067
-158.735	414.478	-0.024	0.052
-157.720	-34.938	0.074	0.040
-156.706	109.514	-0.040	-0.048
-155.691	152.675	0.062	-0.084
-154.677	39.067	-0.158	0.141
-153.662	800.000	0.114	-0.374
-152.647	85.504	-0.250	-0.275
-151.633	125.817	0.209	-0.264
-150.618	-200.000	-0.025	-0.183
-149.604	-31.958	-0.225	-0.126
-148.589	-117.541	0.097	0.018
-147.574	128.170	-0.013	-0.016
-146.560	455.703	0.080	0.177
-145.545	67.928	-0.312	0.319
-144.531	-137.515	0.361	-0.041
-143.516	130.507	0.046	0.060
-142.502	117.344	-0.188	0.231
-141.487	450.472	0.041	-0.089
-140.472	-200.000	-0.046	0.254
-139.458	55.195	0.256	0.248
-138.443	-185.900	-0.129	-0.002
-137.429	-126.317	-0.090	-0.013
-136.414	-58.748	0.331	0.143
-135.399	-200.000	0.007	0.164
-134.385	-126.963	-0.110	0.016
-133.370	-200.000	0.021	0.274
-132.356	24.087	0.167	-0.138
-131.341	60.954	0.076	-0.076
-130.326	-43.930	0.095	0.048
-129.312	-65.719	-0.211	-0.085
-128.297	-200.000	-0.007	0.076
-127.283	-200.000	-0.428	-0.002
-126.268	-200.000	0.002	0.265
-125.253	-1.558	-0.065	0.046
-124.239	691.858	0.012	0.032
-123.224	111.123	-0.148	-0.178
-122.210	199.937	-0.019	-0.029
-121.195	26.430	-0.088	-0.074
