DTS Sentinel unit serial number:	SN413079Multiplexer serial number:	ORYXHardware model number:	OX4-SRSoftware version number:	ORYX F/W v4.00 Oryx Data Collector v3.7.2.0data status	okinstallation	princeton_trtdifferential loss correction	single-endedforward channel	channel 3reverse channel	N/Adate	2019/09/13time	17:32:35forward acquisition time	60.00reverse acquisition time	0.00gamma	496.2192k internal	0.2298k external	0.2298temperature offset calibration	1.0121default loss term (dB/km)	0.3790temperature slope calibration	1.0000multiplexer offset coefficient	1.0000multiplexer slope coefficient	1.0000fibre end	0.00T internal ref (°C)	36.06T ext. ref 1 (°C)	5.34T ext. ref 2 (°C)	29.40length (m)	temperature (°C)	Stokes	anti-Stokes-747.200	-31.467	-0.203	-0.116
-746.185	-117.379	0.152	-0.028
-745.171	6.980	-0.089	-0.068
-744.156	-76.567	0.515	0.185
-743.142	-35.826	0.057	0.031
-742.127	13.852	-0.284	0.225
-741.112	-200.000	0.027	-0.172
-740.098	-200.000	-0.053	0.253
-739.083	108.635	0.074	-0.090
-738.069	-200.000	0.033	0.172
-737.054	101.745	0.158	0.188
-736.039	451.260	-0.278	-0.627
-735.025	-200.000	0.039	-0.194
-734.010	-80.695	-0.241	0.082
-732.996	-200.000	0.024	0.238
-731.981	785.377	-0.128	-0.359
-730.966	-133.767	-0.255	0.032
-729.952	429.704	-0.124	0.273
-728.937	-172.121	-0.078	0.003
-727.923	-86.947	-0.196	-0.061
-726.908	796.057	0.075	-0.212
-725.894	170.850	-0.206	-0.301
-724.879	15.678	-0.147	0.118
-723.864	348.228	-0.073	-0.147
-722.850	-200.000	-0.033	0.266
-721.835	-33.410	-0.205	-0.116
-720.821	2.534	-0.402	-0.297
-719.806	270.885	-0.061	-0.110
-718.791	-88.505	-0.310	0.094
-717.777	-54.928	0.171	-0.079
-716.762	-65.510	0.127	-0.052
-715.748	44.527	-0.146	-0.137
-714.733	-97.389	-0.274	-0.073
-713.718	-200.000	-0.065	-0.327
-712.704	-116.172	0.219	0.041
-711.689	-89.969	-0.153	0.046
-710.675	173.027	-0.113	-0.167
-709.660	-63.450	0.239	0.100
-708.645	-200.000	0.002	0.422
-707.631	49.732	-0.096	0.092
-706.616	-200.000	0.010	-0.079
-705.602	-134.651	0.038	-0.005
-704.587	-200.000	0.058	-0.368
-703.572	-37.130	-0.125	0.068
-702.558	-20.245	-0.334	-0.209
-701.543	207.043	-0.144	-0.229
-700.529	-67.241	-0.282	0.113
-699.514	-43.267	-0.040	0.021
-698.499	-142.826	0.517	0.051
-697.485	-200.000	-0.079	0.443
-696.470	-200.000	-0.082	-0.377
-695.456	-135.739	-0.115	0.014
-694.441	-200.000	0.005	0.466
-693.426	-140.546	0.373	0.039
-692.412	-171.796	0.088	-0.003
-691.397	-200.000	-0.025	-0.222
-690.383	-98.504	0.209	-0.054
-689.368	-67.658	-0.290	-0.116
-688.354	-200.000	0.030	0.258
-687.339	800.000	0.008	-0.032
-686.324	-134.823	0.196	0.024
-685.310	741.240	-0.110	0.302
-684.295	800.000	0.037	-0.155
-683.281	116.870	-0.244	0.305
-682.266	-60.132	0.328	-0.143
-681.251	180.531	-0.037	-0.056
-680.237	-90.688	0.185	0.054
-679.222	-200.000	-0.038	-0.335
-678.208	590.023	0.133	0.334
-677.193	800.000	-0.098	0.283
-676.178	-2.480	-0.035	-0.025
-675.164	321.757	-0.118	0.228
-674.149	488.824	-0.056	-0.131
-673.135	-200.000	0.007	-0.210
-672.120	-41.995	-0.201	0.105
-671.105	-11.626	-0.320	0.214
-670.091	-200.000	-0.010	-0.066
-669.076	-57.061	-0.464	0.208
-668.062	-89.821	0.152	0.045
-667.047	493.640	-0.120	0.280
-666.032	-31.605	-0.037	-0.021
-665.018	-133.841	0.136	0.017
-664.003	230.956	-0.069	-0.115
-662.989	-161.136	0.039	-0.002
-661.974	-63.335	0.059	-0.025
-660.959	516.765	0.117	-0.278
-659.945	-35.096	-0.432	-0.240
-658.930	213.874	0.130	0.209
-657.916	-153.547	-0.155	-0.011
-656.901	800.000	-0.059	-0.251
-655.886	-200.000	-0.081	0.397
-654.872	10.343	-0.412	0.319
-653.857	149.952	0.105	-0.145
-652.843	561.570	0.072	-0.177
-651.828	-4.549	-0.447	0.314
-650.814	-19.833	0.143	0.090
-649.799	54.349	-0.120	0.118
-648.784	800.000	-0.041	0.142
-647.770	-200.000	-0.021	0.273
-646.755	-119.597	0.382	-0.067
-645.741	-17.901	0.186	-0.119
-644.726	-58.620	-0.254	-0.112
-643.711	800.000	-0.078	0.265
-642.697	-131.603	-0.337	-0.045
-641.682	-116.696	0.278	-0.052
-640.668	-200.000	-0.015	0.535
-639.653	-79.119	0.206	0.071
-638.638	-80.346	-0.234	-0.080
-637.624	-114.845	0.426	-0.083
-636.609	-200.000	-0.022	-0.146
-635.595	800.000	-0.053	0.204
-634.580	-177.746	0.308	0.008
-633.565	-200.000	0.018	0.338
-632.551	-113.898	-0.289	-0.057
-631.536	-56.655	0.192	0.087
-630.522	129.786	-0.058	0.076
-629.507	-50.351	-0.200	0.096
-628.492	-200.000	-0.018	0.222
-627.478	37.112	0.132	-0.119
-626.463	800.000	0.094	-0.362
-625.449	-200.000	-0.042	-0.227
-624.434	-200.000	0.002	-0.320
-623.419	-43.619	-0.265	-0.136
-622.405	6.257	0.221	-0.167
-621.390	800.000	-0.070	-0.247
-620.376	-151.991	0.174	-0.013
-619.361	-115.752	-0.154	0.029
-618.346	-48.777	-0.179	-0.087
-617.332	-200.000	0.017	-0.096
-616.317	-8.604	-0.151	0.103
-615.303	-72.153	-0.224	-0.084
-614.288	-73.965	0.177	0.065
-613.273	-29.470	-0.485	-0.281
-612.259	-59.738	-0.167	0.073
-611.244	-200.000	0.012	0.130
-610.230	5.285	0.371	-0.277
-609.215	130.621	-0.220	-0.286
-608.201	-134.318	-0.089	0.011
-607.186	-28.236	0.170	0.100
-606.171	-25.547	-0.204	0.122
-605.157	-82.369	0.257	-0.085
-604.142	268.884	-0.074	0.131
-603.128	-59.283	-0.342	0.150
-602.113	-2.946	0.273	-0.193
-601.098	-77.187	0.235	-0.083
-600.084	-71.474	-0.288	-0.110
-599.069	55.812	-0.244	-0.240
-598.055	-160.192	0.345	0.019
-597.040	-71.519	0.455	0.173
-596.025	183.172	-0.016	0.023
-595.011	-151.601	-0.038	0.003
-593.996	-115.665	-0.067	-0.013
-592.982	-57.732	-0.114	0.050
-591.967	455.184	-0.055	-0.124
-590.952	-19.466	0.230	-0.144
-589.938	-200.000	-0.003	0.150
-588.923	-200.000	0.077	0.372
-587.909	-28.912	0.093	-0.054
-586.894	-146.264	-0.207	0.018
-585.879	-95.439	0.359	0.098
-584.865	-200.000	0.012	-0.220
-583.850	84.987	0.108	0.120
-582.836	-45.333	-0.101	0.051
-581.821	156.496	0.065	-0.091
-580.806	57.644	0.243	0.241
-579.792	164.116	0.055	0.079
-578.777	229.065	-0.073	0.121
-577.763	-200.000	0.002	-0.145
-576.748	86.164	-0.219	-0.245
-575.733	-43.124	0.220	0.113
-574.719	243.099	0.021	0.035
-573.704	-122.041	-0.135	-0.022
-572.690	312.116	0.081	0.154
-571.675	-29.617	0.249	-0.144
-570.661	1.935	-0.200	0.147
-569.646	232.710	-0.053	0.088
-568.631	73.952	0.171	0.182
-567.617	414.871	0.047	0.101
-566.602	-174.402	-0.189	0.006
-565.588	-200.000	-0.016	-0.335
-564.573	-60.202	-0.433	0.187
-563.558	-200.000	0.001	0.043
-562.544	215.291	-0.161	0.259
-561.529	800.000	0.084	0.269
-560.515	8.561	-0.448	0.342
-559.500	64.124	-0.087	0.089
-558.485	235.474	0.061	-0.102
-557.471	-131.457	-0.303	0.040
-556.456	55.804	0.175	0.172
-555.442	-38.272	-0.070	-0.038
-554.427	800.000	-0.035	0.100
-553.412	168.564	0.124	0.179
-552.398	66.294	-0.287	0.295
-551.383	188.939	0.109	0.165
-550.369	-200.000	-0.007	-0.069
-549.354	800.000	-0.088	0.308
-548.339	-52.711	0.081	-0.038
-547.325	-200.000	-0.008	-0.288
-546.310	-200.000	0.001	-0.286
-545.296	-122.039	-0.054	-0.009
-544.281	380.833	-0.101	0.211
-543.266	-107.551	-0.451	-0.100
-542.252	-0.180	0.093	0.067
-541.237	23.782	0.208	0.173
-540.223	223.479	-0.080	0.130
-539.208	-184.193	-0.379	0.006
-538.193	-0.134	0.175	0.126
-537.179	227.076	-0.139	0.229
-536.164	-121.723	0.113	0.019
-535.150	-102.940	0.031	0.008
-534.135	-200.000	0.066	-0.293
-533.121	-198.979	-0.374	0.002
-532.106	524.615	-0.071	0.169
-531.091	56.219	-0.153	-0.150
-530.077	-200.000	-0.036	-0.311
-529.062	800.000	0.037	-0.127
-528.048	-200.000	-0.078	0.381
-527.033	-200.000	0.019	0.089
-526.018	-11.519	0.354	-0.235
-525.004	-145.805	-0.186	0.017
-523.989	-94.426	0.533	-0.147
-522.975	69.025	0.131	0.136
-521.960	-160.922	-0.243	0.013
-520.945	276.747	0.109	0.195
-519.931	-101.659	-0.299	0.073
-518.916	-63.352	0.114	-0.047
-517.902	326.536	-0.052	0.101
-516.887	-53.321	0.329	-0.153
-515.872	-200.000	-0.012	-0.293
-514.858	69.301	0.121	0.126
-513.843	162.754	-0.212	-0.301
-512.829	800.000	-0.092	0.349
-511.814	-160.645	-0.057	-0.003
-510.799	279.538	-0.142	0.257
-509.785	-80.380	0.212	-0.071
-508.770	800.000	0.078	-0.265
-507.756	233.299	0.179	-0.298
-506.741	-46.823	0.119	-0.059
-505.726	11.312	-0.040	-0.031
-504.712	-58.621	0.318	0.140
-503.697	800.000	0.018	-0.077
-502.683	-76.596	0.149	0.053
-501.668	800.000	-0.026	0.094
-500.653	-41.684	0.225	-0.117
-499.639	-24.813	-0.108	0.065
-498.624	-109.258	-0.111	-0.024
-497.610	553.459	-0.086	-0.208
-496.595	189.938	-0.073	0.110
-495.581	176.266	0.199	-0.292
-494.566	52.975	-0.084	0.081
-493.551	-56.949	-0.248	-0.110
-492.537	800.000	0.080	0.348
-491.522	507.145	-0.099	0.232
-490.508	33.816	-0.122	-0.107
-489.493	64.033	0.042	-0.043
-488.478	-63.610	-0.453	-0.188
-487.464	-46.650	-0.193	-0.096
-486.449	-54.804	0.077	-0.035
-485.435	-74.460	-0.270	0.099
-484.420	52.767	-0.062	-0.060
-483.405	136.665	-0.299	-0.395
-482.391	-62.504	-0.323	-0.136
-481.376	-200.000	-0.034	0.265
-480.362	-200.000	-0.001	-0.042
-479.347	239.292	0.110	0.184
-478.332	-200.000	0.000	-0.077
-477.318	39.814	-0.122	0.111
-476.303	-200.000	0.069	-0.331
-475.289	632.473	0.076	-0.194
-474.274	34.526	-0.190	0.167
-473.259	-74.663	-0.149	-0.054
-472.245	739.276	-0.071	-0.193
-471.230	33.191	-0.022	-0.019
-470.216	108.584	0.094	0.113
-469.201	52.296	0.304	-0.293
-468.186	6.946	0.140	-0.105
-467.172	800.000	-0.070	0.234
-466.157	-200.000	0.000	0.136
-465.143	451.468	-0.090	0.200
-464.128	-48.654	0.194	0.094
-463.113	-87.713	-0.154	-0.047
-462.099	800.000	-0.047	-0.149
-461.084	50.997	-0.037	0.035
-460.070	605.860	-0.073	0.184
-459.055	-200.000	0.001	-0.177
-458.040	-200.000	-0.020	-0.161
-457.026	-16.950	-0.101	0.064
-456.011	-189.311	0.298	0.004
-454.997	800.000	-0.027	-0.086
-453.982	800.000	-0.033	-0.136
-452.968	46.013	-0.041	-0.038
-451.953	64.746	0.232	-0.236
-450.938	-60.427	0.160	0.068
-449.924	11.335	0.277	0.214
-448.909	92.774	-0.005	0.005
-447.895	-150.190	0.194	-0.015
-446.880	800.000	0.044	-0.130
-445.865	397.560	0.101	-0.213
-444.851	556.258	-0.030	0.073
-443.836	-87.728	-0.069	0.021
-442.822	-200.000	-0.008	0.369
-441.807	102.214	0.285	0.336
-440.792	-32.156	0.119	0.067
-439.778	-200.000	0.001	-0.007
-438.763	-162.516	-0.193	-0.010
-437.749	73.925	-0.270	0.286
-436.734	-15.224	-0.102	-0.066
-435.719	-39.305	-0.494	-0.262
-434.705	-200.000	0.014	0.118
-433.690	115.223	0.092	-0.113
-432.676	30.845	0.127	0.110
-431.661	-200.000	-0.002	0.134
-430.646	-47.930	0.281	0.137
-429.632	-19.097	0.230	0.144
-428.617	-200.000	0.027	0.221
-427.603	36.118	-0.151	-0.134
-426.588	190.847	0.103	0.156
-425.573	-200.000	-0.038	0.193
-424.559	-200.000	0.036	0.344
-423.544	622.213	-0.123	-0.312
-422.530	172.480	0.114	-0.165
-421.515	800.000	-0.034	-0.147
-420.500	366.090	0.010	0.021
-419.486	134.354	-0.239	-0.313
-418.471	-40.270	-0.187	-0.098
-417.457	-200.000	0.021	0.209
-416.442	-200.000	0.046	0.212
-415.428	98.726	-0.201	-0.234
-414.413	-112.640	0.064	0.013
-413.398	54.933	-0.084	-0.081
-412.384	-33.589	-0.115	-0.064
-411.369	147.223	0.012	-0.017
-410.355	-95.702	0.386	0.104
-409.340	59.843	0.278	0.277
-408.325	259.319	-0.066	0.115
-407.311	-124.465	-0.194	0.030
-406.296	489.272	0.065	0.149
-405.282	-3.471	-0.305	0.214
-404.267	139.756	-0.258	-0.342
-403.252	-15.989	-0.100	0.064
-402.238	-79.816	0.078	0.026
-401.223	-88.233	0.450	0.136
-400.209	-200.000	0.054	-0.292
-399.194	800.000	0.008	0.027
-398.179	-18.538	0.148	0.093
-397.165	-107.877	0.131	0.029
-396.150	111.590	-0.158	0.192
-395.136	48.934	0.113	-0.107
-394.121	-200.000	0.011	-0.110
-393.106	-105.068	-0.200	-0.046
-392.092	291.569	0.234	0.429
-391.077	151.117	0.172	-0.235
-390.063	-200.000	-0.011	-0.131
-389.048	82.780	0.108	-0.118
-388.033	-123.663	0.165	0.026
-387.019	204.887	-0.031	-0.049
-386.004	-31.799	0.302	-0.171
-384.990	-132.837	0.279	0.036
-383.975	204.523	-0.032	-0.051
-382.960	-200.000	-0.028	-0.141
-381.946	227.826	-0.071	-0.117
-380.931	-123.065	-0.290	0.047
-379.917	-6.752	-0.240	-0.165
-378.902	101.877	-0.168	-0.198
-377.888	800.000	0.079	0.303
-376.873	594.555	0.064	0.158
-375.858	-200.000	0.011	0.167
-374.844	-26.462	-0.142	0.084
-373.829	-134.325	0.233	0.029
-372.815	-14.161	-0.187	0.121
-371.800	-200.000	0.023	0.261
-370.785	71.057	0.147	0.153
-369.771	312.047	-0.158	0.299
-368.756	-55.317	0.240	0.108
-367.742	227.857	0.088	-0.145
-366.727	-200.000	0.039	-0.218
-365.712	-200.000	-0.029	-0.156
-364.698	-200.000	0.039	0.338
-363.683	-200.000	-0.269	0.001
-362.669	-104.814	-0.458	-0.106
-361.654	-108.424	-0.371	0.080
-360.639	-55.172	0.106	0.048
-359.625	-57.841	-0.220	-0.097
-358.610	-37.747	-0.067	-0.036
-357.596	-159.655	-0.385	0.021
-356.581	11.980	0.023	-0.018
-355.566	16.586	-0.120	0.095
-354.552	373.966	-0.062	0.126
-353.537	-200.000	-0.030	0.168
-352.523	-124.277	-0.116	-0.018
-351.508	179.600	0.137	-0.202
-350.493	-174.238	-0.330	0.010
-349.479	-168.418	-0.053	-0.002
-348.464	126.727	-0.218	-0.277
-347.450	17.950	-0.101	-0.081
-346.435	-200.000	0.034	-0.524
-345.420	481.876	-0.034	-0.077
-344.406	427.516	-0.062	-0.134
-343.391	281.984	-0.164	-0.295
-342.377	555.202	-0.017	-0.041
-341.362	152.834	-0.057	0.078
-340.348	9.805	-0.255	-0.195
-339.333	-129.226	0.291	0.041
-338.318	-85.999	0.074	0.023
-337.304	222.689	-0.017	0.028
-336.289	245.617	0.129	0.217
-335.275	-16.825	-0.133	-0.085
-334.260	-200.000	0.063	0.364
-333.245	0.941	-0.085	0.061
-332.231	48.953	-0.157	-0.148
-331.216	397.860	0.151	-0.317
-330.202	-171.395	0.159	0.005
-329.187	8.670	0.134	-0.102
-328.172	245.932	0.105	0.177
-327.158	294.514	0.104	0.191
-326.143	107.863	-0.128	0.153
-325.129	-1.815	-0.052	-0.037
-324.114	16.762	-0.118	-0.094
-323.099	-88.362	0.147	0.044
-322.085	710.898	0.021	-0.056
-321.070	800.000	0.084	0.302
-320.056	130.457	0.101	0.129
-319.041	86.906	0.126	0.140
-318.026	-200.000	-0.009	0.085
-317.012	-150.787	0.273	0.021
-315.997	-122.948	0.167	-0.027
-314.983	-200.000	0.004	0.163
-313.968	117.300	0.116	-0.143
-312.953	-13.433	0.178	-0.116
-311.939	800.000	-0.036	0.129
-310.924	-15.346	-0.075	-0.048
-309.910	25.360	-0.187	0.156
-308.895	-200.000	-0.008	0.131
-307.880	-92.886	0.353	-0.099
-306.866	-200.000	-0.002	-0.382
-305.851	800.000	0.107	-0.298
-304.837	-200.000	0.012	0.503
-303.822	180.586	-0.113	0.166
-302.807	800.000	0.071	-0.252
-301.793	22.953	0.254	-0.209
-300.778	89.209	0.208	-0.232
-299.764	-200.000	-0.040	0.184
-298.749	-163.270	0.464	0.022
-297.735	-200.000	-0.018	-0.096
-296.720	-163.466	-0.113	0.005
-295.705	32.071	0.197	0.171
-294.691	-79.550	-0.045	0.015
-293.676	-200.000	0.072	0.439
-292.662	-200.000	0.011	-0.082
-291.647	-121.128	-0.130	0.022
-290.632	171.901	0.201	0.289
-289.618	-142.635	-0.121	0.012
-288.603	-12.310	-0.269	0.176
-287.589	-84.836	-0.290	-0.091
-286.574	136.708	0.066	-0.086
-285.559	-76.579	-0.333	0.117
-284.545	38.856	-0.276	-0.247
-283.530	10.699	0.463	0.354
-282.516	243.423	0.135	-0.226
-281.501	-44.582	-0.205	-0.103
-280.486	101.357	-0.102	-0.119
-279.472	-190.490	-0.080	0.001
-278.457	-49.655	-0.229	0.109
-277.443	-106.802	-0.211	-0.047
-276.428	50.431	-0.169	0.160
-275.413	-149.211	0.429	0.034
-274.399	-200.000	-0.020	-0.258
-273.384	-88.265	0.169	0.051
-272.370	83.211	0.165	0.180
-271.355	-180.506	0.251	-0.005
-270.340	-200.000	-0.054	0.239
-269.326	-200.000	0.001	0.085
-268.311	235.499	0.137	-0.227
-267.297	-174.964	-0.144	-0.004
-266.282	60.199	0.247	-0.245
-265.267	112.176	0.288	-0.349
-264.253	-200.000	0.038	-0.199
-263.238	-200.000	0.031	-0.278
-262.224	-200.000	0.006	0.235
-261.209	297.339	0.164	0.301
-260.195	-165.190	0.477	0.021
-259.180	-71.799	-0.088	-0.033
-258.165	21.119	0.149	-0.121
-257.151	-111.184	-0.215	-0.044
-256.136	-94.338	-0.253	-0.069
-255.122	-66.474	0.283	0.113
-254.107	-27.772	-0.048	-0.028
-253.092	-200.000	0.044	0.256
-252.078	-91.965	-0.104	0.029
-251.063	102.345	0.102	-0.120
-250.049	-126.326	0.252	-0.038
-249.034	-82.982	0.268	0.086
-248.019	-200.000	-0.040	-0.297
-247.005	-24.016	-0.305	0.183
-245.990	800.000	0.104	0.297
-244.976	247.816	-0.058	-0.097
-243.961	20.973	-0.116	0.094
-242.946	309.749	-0.175	-0.327
-241.932	800.000	0.103	-0.285
-240.917	-165.035	0.097	-0.004
-239.903	-200.000	-0.035	-0.251
-238.888	182.700	-0.082	-0.120
-237.873	-69.999	0.248	0.094
-236.859	-185.688	0.109	-0.002
-235.844	-165.403	0.317	-0.014
-234.830	800.000	0.086	-0.291
-233.815	-127.785	-0.101	-0.015
-232.800	-90.055	0.059	-0.017
-231.786	308.808	0.158	0.296
-230.771	-200.000	0.075	0.447
-229.757	129.363	-0.125	0.159
-228.742	-172.063	-0.354	-0.011
-227.727	693.450	0.128	-0.336
-226.713	-90.766	0.184	-0.053
-225.698	-200.000	-0.040	0.181
-224.684	-200.000	-0.005	-0.282
-223.669	-45.866	-0.186	-0.092
-222.655	-18.447	0.066	0.041
-221.640	668.860	0.027	0.071
-220.625	-88.056	-0.070	0.021
-219.611	25.734	0.211	-0.176
-218.596	1.013	0.151	-0.108
-217.582	-114.345	-0.109	-0.021
-216.567	-200.000	0.025	0.161
-215.552	800.000	0.105	0.300
-214.538	63.982	-0.260	0.262
-213.523	-200.000	0.000	-0.209
-212.509	-104.401	0.336	0.078
-211.494	-124.945	-0.235	-0.036
-210.479	36.506	0.129	0.114
-209.465	66.400	-0.097	0.098
-208.450	94.184	0.317	-0.360
-207.436	-200.000	0.008	0.194
-206.421	-97.408	0.065	-0.017
-205.406	75.200	-0.129	-0.136
-204.392	30.978	-0.329	-0.282
-203.377	-4.349	0.183	-0.126
-202.363	8.146	0.147	-0.110
-201.348	763.555	-0.090	0.245
-200.333	-24.517	-0.179	0.107
-199.319	-200.000	-0.051	-0.351
-198.304	-113.473	-0.117	-0.023
-197.290	-16.777	0.103	-0.065
-196.275	-98.955	0.204	-0.052
-195.260	800.000	-0.033	0.138
-194.246	-156.652	-0.094	-0.006
-193.231	-200.000	0.001	-0.187
-192.217	-178.006	-0.169	-0.004
-191.202	-28.270	0.417	-0.240
-190.187	17.224	-0.281	0.223
-189.173	-200.000	-0.021	-0.277
-188.158	-13.719	0.053	0.034
-187.144	87.421	-0.059	-0.065
-186.129	-102.755	0.135	-0.032
-185.114	296.975	-0.088	-0.161
-184.100	-200.000	0.054	-0.249
-183.085	562.067	0.011	0.027
-182.071	-145.938	-0.079	-0.007
-181.056	800.000	0.023	-0.063
-180.042	145.565	0.240	-0.321
-179.027	-146.691	0.155	0.013
-178.012	-200.000	0.005	0.060
-176.998	-37.890	-0.228	0.121
-175.983	72.207	-0.222	0.231
-174.969	800.000	-0.038	-0.124
-173.954	-91.505	-0.302	0.086
-172.939	66.598	0.133	-0.135
-171.925	-106.491	-0.045	-0.010
-170.910	138.364	-0.116	-0.152
-169.896	-161.170	-0.125	0.007
-168.881	-200.000	-0.025	-0.313
-167.866	800.000	0.103	-0.340
-166.852	261.033	-0.096	0.165
-165.837	238.810	0.024	0.039
-164.823	-94.132	0.230	-0.063
-163.808	50.737	0.072	0.068
-162.793	800.000	-0.100	-0.308
-161.779	-200.000	0.030	-0.169
-160.764	238.685	0.142	0.236
-159.750	83.031	0.098	0.106
-158.735	265.973	0.096	0.168
-157.720	-200.000	-0.014	0.201
-156.706	-105.854	-0.173	0.039
-155.691	800.000	0.025	0.080
-154.677	-200.000	0.013	0.146
-153.662	800.000	-0.088	-0.256
-152.647	-8.822	-0.078	-0.052
-151.633	72.817	0.083	0.087
-150.618	253.113	-0.132	0.225
-149.604	-173.010	-0.270	-0.008
-148.589	112.639	-0.118	0.143
-147.574	-110.918	0.172	-0.035
-146.560	145.257	-0.184	0.245
-145.545	-14.394	-0.046	0.030
-144.531	-6.256	0.123	0.083
-143.516	-200.000	0.030	-0.395
-142.502	-200.000	0.010	-0.191
-141.487	239.798	-0.182	0.302
-140.472	-94.511	0.136	0.037
-139.458	-79.634	-0.354	-0.119
-138.443	-102.191	0.144	0.035
-137.429	190.623	0.099	0.149
-136.414	-139.241	-0.258	-0.028
-135.399	-157.748	-0.110	-0.007
-134.385	206.527	0.120	0.186
-133.370	-200.000	0.005	-0.058
-132.356	-148.010	-0.195	-0.016
-131.341	-24.150	-0.078	0.047
-130.326	51.774	0.164	-0.156
-129.312	-1.055	0.246	0.174
-128.297	-200.000	0.001	0.107
-127.283	-48.590	-0.206	-0.099
-126.268	-122.177	-0.393	-0.064
-125.253	141.653	0.118	0.156
-124.239	-48.039	0.204	-0.098
-123.224	800.000	-0.056	-0.162
-122.210	318.818	0.135	0.254
