DTS Sentinel unit serial number:	SN413079Multiplexer serial number:	ORYXHardware model number:	OX4-SRSoftware version number:	ORYX F/W v4.00 Oryx Data Collector v3.7.2.0data status	okinstallation	princeton_trtdifferential loss correction	single-endedforward channel	channel 3reverse channel	N/Adate	2019/09/18time	06:12:35forward acquisition time	60.00reverse acquisition time	0.00gamma	496.2192k internal	0.2343k external	0.2343temperature offset calibration	0.9949default loss term (dB/km)	0.3790temperature slope calibration	1.0000multiplexer offset coefficient	1.0000multiplexer slope coefficient	1.0000fibre end	0.00T internal ref (°C)	23.19T ext. ref 1 (°C)	0.18T ext. ref 2 (°C)	17.78length (m)	temperature (°C)	Stokes	anti-Stokes-747.200	-200.000	0.014	-0.102
-746.185	-168.361	-0.112	-0.004
-745.171	-29.078	-0.563	0.323
-744.156	63.705	0.312	0.313
-743.142	193.598	0.128	0.194
-742.127	367.705	0.052	0.105
-741.112	36.501	0.227	-0.200
-740.098	800.000	-0.045	0.136
-739.083	-116.959	-0.190	0.035
-738.069	-200.000	-0.045	0.245
-737.054	-67.274	0.239	0.094
-736.039	259.567	0.149	0.257
-735.025	-7.405	-0.119	0.081
-734.010	-119.335	-0.254	0.044
-732.996	238.182	-0.345	-0.573
-731.981	-64.596	-0.049	-0.020
-730.966	-61.476	-0.206	-0.087
-729.952	-200.000	0.022	-0.176
-728.937	800.000	0.050	0.190
-727.923	2.442	-0.311	0.225
-726.908	-35.913	-0.129	-0.070
-725.894	109.472	0.049	-0.059
-724.879	345.214	-0.220	-0.432
-723.864	-67.927	0.073	0.029
-722.850	-58.285	-0.178	0.078
-721.835	-200.000	0.005	0.070
-720.821	-75.365	0.314	-0.112
-719.806	-29.279	0.247	0.141
-718.791	76.638	-0.210	-0.223
-717.777	-200.000	-0.063	-0.496
-716.762	800.000	-0.088	0.295
-715.748	-9.055	-0.197	0.132
-714.733	-119.747	-0.128	0.022
-713.718	-143.207	0.259	0.025
-712.704	27.854	-0.035	-0.030
-711.689	-200.000	-0.003	-0.144
-710.675	17.961	0.106	-0.084
-709.660	139.087	-0.226	-0.297
-708.645	800.000	0.068	0.289
-707.631	-124.556	0.136	0.021
-706.616	-200.000	0.006	-0.196
-705.602	-94.149	-0.091	0.025
-704.587	41.790	0.100	-0.091
-703.572	108.582	-0.199	-0.237
-702.558	800.000	-0.031	-0.107
-701.543	-134.418	0.133	-0.016
-700.529	327.421	0.036	-0.069
-699.514	-82.201	0.169	-0.055
-698.499	44.242	-0.289	-0.265
-697.485	308.479	-0.163	0.303
-696.470	311.228	-0.132	0.248
-695.456	35.396	-0.113	-0.099
-694.441	-200.000	-0.103	-0.516
-693.426	386.691	0.055	-0.114
-692.412	212.215	-0.140	0.221
-691.397	-102.116	-0.102	-0.025
-690.383	-200.000	0.013	-0.408
-689.368	62.915	-0.151	-0.151
-688.354	-200.000	-0.090	-0.438
-687.339	-181.454	0.523	0.010
-686.324	-75.917	-0.179	-0.063
-685.310	800.000	-0.040	0.144
-684.295	62.497	0.093	-0.092
-683.281	-200.000	-0.019	-0.153
-682.266	119.682	-0.115	-0.142
-681.251	478.615	0.138	-0.312
-680.237	-8.470	-0.132	-0.089
-679.222	-66.689	0.212	-0.084
-678.208	-200.000	0.020	-0.142
-677.193	421.017	0.069	0.148
-676.178	-11.900	-0.183	-0.120
-675.164	9.591	-0.193	-0.146
-674.149	-9.895	0.309	0.206
-673.135	10.845	0.161	0.123
-672.120	37.613	-0.208	-0.184
-671.105	209.769	-0.024	0.037
-670.091	43.506	-0.168	-0.153
-669.076	788.227	-0.087	0.240
-668.062	-146.468	0.193	-0.017
-667.047	139.176	0.117	0.154
-666.032	301.473	0.131	0.241
-665.018	-113.270	0.234	0.046
-664.003	-16.300	0.212	-0.134
-662.989	-200.000	-0.001	-0.087
-661.974	19.309	0.218	-0.175
-660.959	26.242	0.273	-0.227
-659.945	83.602	-0.248	0.269
-658.930	-35.421	-0.303	-0.164
-657.916	320.830	-0.126	0.239
-656.901	-200.000	0.026	-0.269
-655.886	-16.755	-0.031	0.019
-654.872	800.000	0.032	-0.115
-653.857	800.000	0.085	-0.284
-652.843	-184.689	-0.139	-0.002
-651.828	-68.919	-0.113	-0.044
-650.814	82.725	-0.060	0.065
-649.799	-46.971	-0.181	-0.088
-648.784	475.393	-0.160	0.360
-647.770	89.765	0.116	-0.129
-646.755	800.000	0.026	0.079
-645.741	128.986	0.101	-0.129
-644.726	773.927	0.048	-0.130
-643.711	215.330	0.065	0.103
-642.697	94.001	0.197	0.222
-641.682	10.710	-0.160	-0.122
-640.668	12.077	-0.175	-0.134
-639.653	25.205	-0.242	0.201
-638.638	161.256	0.161	0.225
-637.624	800.000	-0.167	0.525
-636.609	800.000	0.083	0.320
-635.595	-4.579	-0.156	-0.108
-634.580	-96.461	0.337	-0.089
-633.565	800.000	0.039	0.136
-632.551	-85.309	0.295	-0.092
-631.536	116.919	0.128	0.157
-630.522	85.227	0.186	-0.204
-629.507	-150.800	-0.279	0.021
-628.492	-102.131	0.181	0.043
-627.478	800.000	0.093	-0.280
-626.463	92.256	0.188	-0.211
-625.449	261.420	0.011	0.019
-624.434	145.193	0.117	0.156
-623.419	216.648	-0.126	-0.200
-622.405	-102.819	0.101	-0.024
-621.390	-200.000	0.027	-0.184
-620.376	-51.890	0.194	0.090
-619.361	-200.000	0.060	-0.299
-618.346	-43.191	-0.130	-0.066
-617.332	-200.000	0.010	-0.241
-616.317	88.441	-0.085	-0.094
-615.303	800.000	0.147	-0.416
-614.288	336.811	0.019	0.036
-613.273	52.937	-0.205	0.195
-612.259	-157.224	-0.268	-0.016
-611.244	-108.326	-0.140	-0.030
-610.230	92.369	0.184	0.207
-609.215	-66.824	-0.320	0.126
-608.201	-77.085	0.205	-0.071
-607.186	-136.715	0.186	0.021
-606.171	7.708	0.010	-0.007
-605.157	-200.000	-0.010	-0.106
-604.142	-113.278	-0.326	-0.064
-603.128	2.079	-0.053	-0.038
-602.113	-200.000	-0.013	-0.094
-601.098	561.644	-0.071	-0.170
-600.084	67.212	0.116	0.117
-599.069	-62.343	-0.211	-0.087
-598.055	23.026	0.353	-0.288
-597.040	-20.238	-0.243	0.149
-596.025	-26.389	0.216	0.126
-595.011	53.110	-0.223	-0.213
-593.996	-5.641	-0.323	-0.221
-592.982	230.303	0.165	0.269
-591.967	-200.000	0.047	-0.513
-590.952	2.905	0.032	0.023
-589.938	-72.806	-0.154	-0.057
-588.923	40.898	0.094	-0.084
-587.909	-200.000	-0.043	-0.194
-586.894	-133.239	-0.289	-0.036
-585.879	800.000	0.020	0.057
-584.865	-129.594	0.446	-0.061
-583.850	-200.000	-0.003	-0.044
-582.836	-200.000	-0.011	0.114
-581.821	65.955	-0.212	-0.214
-580.806	-200.000	0.021	0.201
-579.792	255.832	-0.129	0.220
-578.777	-97.159	0.469	0.122
-577.763	-200.000	0.043	0.222
-576.748	-200.000	-0.057	0.283
-575.733	-200.000	0.009	0.050
-574.719	-11.217	-0.271	0.178
-573.704	646.662	0.111	0.283
-572.690	14.602	-0.164	0.127
-571.675	379.972	0.115	-0.234
-570.661	-200.000	-0.080	-0.358
-569.646	-87.536	0.372	-0.112
-568.631	408.774	0.046	0.098
-567.617	129.871	0.203	-0.259
-566.602	28.873	-0.139	-0.117
-565.588	-84.590	0.250	-0.078
-564.573	223.546	0.086	0.138
-563.558	-200.000	-0.049	-0.243
-562.544	-176.350	-0.065	0.002
-561.529	-92.039	-0.086	0.024
-560.515	-200.000	0.020	-0.108
-559.500	54.515	0.166	-0.159
-558.485	660.825	-0.097	-0.249
-557.471	47.662	0.027	0.025
-556.456	-200.000	-0.030	-0.139
-555.442	-65.319	-0.130	0.052
-554.427	-24.711	0.038	-0.022
-553.412	-117.368	-0.312	0.056
-552.398	101.576	0.111	-0.129
-551.383	82.201	-0.042	0.045
-550.369	14.762	0.270	0.209
-549.354	-14.840	0.026	0.016
-548.339	800.000	-0.096	-0.354
-547.325	51.916	-0.261	0.247
-546.310	-24.917	0.420	-0.248
-545.296	31.424	-0.204	0.174
-544.281	-44.701	0.142	-0.070
-543.266	101.891	-0.069	0.080
-542.252	400.482	-0.149	-0.310
-541.237	-2.595	-0.263	-0.183
-540.223	3.743	-0.117	-0.085
-539.208	-11.412	0.039	0.025
-538.193	-200.000	-0.027	0.143
-537.179	337.096	-0.087	-0.167
-536.164	-90.271	0.297	0.086
-535.150	800.000	-0.076	-0.264
-534.135	800.000	0.028	-0.120
-533.121	-62.518	-0.210	0.087
-532.106	-200.000	0.096	-0.514
-531.091	-200.000	0.023	-0.139
-530.077	-200.000	0.003	-0.242
-529.062	-63.397	0.277	-0.113
-528.048	-69.018	0.179	-0.069
-527.033	10.816	-0.348	-0.264
-526.018	551.388	-0.116	0.277
-525.004	-60.455	-0.166	-0.070
-523.989	89.813	0.110	0.122
-522.975	800.000	0.059	0.171
-521.960	-111.383	-0.183	0.037
-520.945	-43.159	-0.344	-0.173
-519.931	-200.000	0.037	0.207
-518.916	-34.102	-0.215	0.117
-517.902	-80.366	0.357	-0.118
-516.887	-152.637	-0.136	-0.010
-515.872	253.702	-0.142	-0.241
-514.858	-5.920	0.300	-0.204
-513.843	-171.460	-0.146	-0.005
-512.829	263.859	-0.123	-0.213
-511.814	-200.000	0.004	-0.137
-510.799	-200.000	0.031	0.273
-509.785	-200.000	0.001	-0.031
-508.770	-200.000	-0.326	-0.001
-507.756	-20.288	0.144	0.088
-506.741	800.000	-0.064	0.273
-505.726	21.036	0.189	0.152
-504.712	-200.000	0.015	0.108
-503.697	-41.920	0.128	-0.065
-502.683	-87.137	0.095	-0.029
-501.668	800.000	0.024	0.065
-500.653	-94.271	-0.087	-0.024
-499.639	22.463	0.525	0.426
-498.624	2.425	-0.074	-0.053
-497.610	-158.548	-0.224	-0.013
-496.595	257.966	0.099	-0.169
-495.581	240.557	0.161	0.266
-494.566	-88.677	-0.129	-0.038
-493.551	15.514	0.315	-0.245
-492.537	-200.000	-0.023	-0.224
-491.522	-30.800	0.266	-0.149
-490.508	197.660	0.219	0.331
-489.493	-168.462	0.475	-0.018
-488.478	-71.869	0.273	0.101
-487.464	-200.000	-0.046	-0.292
-486.449	326.759	0.047	-0.090
-485.435	-60.610	-0.233	0.098
-484.420	-200.000	-0.037	0.233
-483.405	-82.982	-0.267	-0.085
-482.391	-134.237	0.335	0.041
-481.376	-49.074	-0.073	0.035
-480.362	-47.990	0.262	-0.125
-479.347	140.550	0.072	0.094
-478.332	-50.970	-0.325	-0.151
-477.318	-106.668	-0.413	0.091
-476.303	-189.914	-0.146	-0.002
-475.289	800.000	-0.059	0.169
-474.274	-200.000	-0.023	-0.333
-473.259	-43.204	0.090	0.045
-472.245	-160.698	0.127	0.007
-471.230	800.000	-0.127	-0.438
-470.216	484.122	-0.067	0.151
-469.201	800.000	0.050	-0.166
-468.186	42.910	0.087	-0.079
-467.172	86.989	0.286	0.313
-466.157	30.836	-0.035	-0.030
-465.143	-155.126	-0.065	-0.004
-464.128	126.153	-0.187	-0.235
-463.113	-200.000	0.090	0.445
-462.099	245.950	0.082	0.137
-461.084	791.519	0.029	-0.080
-460.070	262.688	0.040	0.068
-459.055	-58.863	-0.169	0.072
-458.040	125.830	0.115	0.143
-457.026	-62.881	0.090	0.037
-456.011	235.444	0.150	0.245
-454.997	-0.277	-0.154	0.108
-453.982	-74.181	0.268	-0.096
-452.968	-17.197	-0.411	0.256
-451.953	-200.000	-0.018	-0.228
-450.938	442.382	0.132	-0.285
-449.924	0.474	-0.234	0.165
-448.909	-10.354	0.288	-0.189
-447.895	-108.839	0.109	0.023
-446.880	83.490	-0.230	0.248
-445.865	-50.287	-0.099	-0.046
-444.851	-200.000	0.002	-0.064
-443.836	172.647	0.030	-0.042
-442.822	-155.103	0.109	0.007
-441.807	-30.170	0.098	0.055
-440.792	328.896	0.064	0.121
-439.778	-136.001	0.473	-0.055
-438.763	800.000	-0.107	0.357
-437.749	-82.969	-0.294	-0.094
-436.734	225.960	-0.092	-0.147
-435.719	-101.657	-0.108	0.026
-434.705	-17.769	-0.091	0.057
-433.690	-200.000	-0.047	0.314
-432.676	-77.255	-0.196	0.067
-431.661	-36.971	0.216	-0.114
-430.646	-200.000	0.094	-0.415
-429.632	-131.040	0.323	0.043
-428.617	162.565	-0.044	-0.061
-427.603	-79.993	-0.294	-0.098
-426.588	255.570	-0.081	-0.138
-425.573	-50.578	-0.195	0.091
-424.559	665.955	-0.023	0.059
-423.544	-173.192	-0.196	0.006
-422.530	800.000	-0.078	0.238
-421.515	5.578	-0.123	0.090
-420.500	89.029	0.192	-0.212
-419.486	800.000	-0.061	0.183
-418.471	49.252	-0.063	0.058
-417.457	-200.000	-0.021	0.218
-416.442	507.950	-0.112	0.256
-415.428	478.083	-0.084	-0.189
-414.413	-200.000	-0.047	0.210
-413.398	532.127	0.079	0.184
-412.384	-92.654	0.115	0.032
-411.369	-92.069	-0.206	0.058
-410.355	758.741	-0.090	-0.240
-409.340	0.087	0.343	-0.242
-408.325	-200.000	0.167	0.000
-407.311	-200.000	-0.029	-0.128
-406.296	364.053	-0.068	-0.134
-405.282	-182.472	-0.253	0.005
-404.267	247.488	0.100	0.166
-403.252	217.711	-0.084	-0.132
-402.238	1.502	-0.274	-0.195
-401.223	-15.745	-0.239	-0.151
-400.209	463.135	-0.075	0.165
-399.194	-121.055	-0.212	-0.035
-398.179	-200.000	-0.044	-0.249
-397.165	-80.312	-0.078	0.026
-396.150	123.719	0.199	-0.247
-395.136	800.000	0.127	-0.445
-394.121	-39.722	-0.124	0.064
-393.106	0.181	0.097	-0.068
-392.092	-200.000	0.010	0.167
-391.077	800.000	-0.070	0.278
-390.063	800.000	-0.080	0.251
-389.048	-16.831	-0.184	-0.115
-388.033	286.258	0.229	0.408
-387.019	117.076	-0.071	0.086
-386.004	-27.312	-0.342	-0.197
-384.990	108.699	-0.106	0.125
-383.975	-121.731	-0.164	-0.027
-382.960	800.000	-0.038	0.128
-381.946	-143.631	-0.230	-0.022
-380.931	-106.370	-0.189	0.042
-379.917	-29.552	0.064	-0.036
-378.902	160.835	-0.070	0.097
-377.888	451.724	-0.060	0.130
-376.873	800.000	-0.065	-0.249
-375.858	1.028	-0.240	-0.170
-374.844	-125.005	0.106	0.016
-373.829	-145.886	0.177	0.015
-372.815	-15.928	0.202	0.127
-371.800	-41.641	0.300	-0.152
-370.785	245.587	-0.070	-0.116
-369.771	-138.398	0.273	-0.030
-368.756	-152.446	0.038	-0.003
-367.742	-55.801	-0.149	-0.066
-366.727	131.213	0.053	-0.067
-365.712	-200.000	-0.005	0.114
-364.698	210.422	-0.175	0.271
-363.683	356.887	-0.080	0.156
-362.669	586.735	0.062	-0.152
-361.654	-200.000	0.061	-0.408
-360.639	-200.000	-0.034	0.159
-359.625	24.205	0.127	-0.104
-358.610	126.898	0.168	-0.210
-357.596	-70.922	-0.175	-0.065
-356.581	63.276	-0.130	0.129
-355.566	800.000	-0.050	-0.204
-354.552	800.000	-0.025	0.077
-353.537	-52.379	0.211	-0.096
-352.523	-114.545	0.224	-0.042
-351.508	-200.000	0.013	0.094
-350.493	-107.279	-0.323	0.070
-349.479	-91.420	-0.033	0.009
-348.464	-200.000	0.009	0.397
-347.450	-200.000	0.028	0.217
-346.435	-200.000	0.010	-0.167
-345.420	800.000	-0.068	-0.232
-344.406	15.225	-0.389	-0.301
-343.391	800.000	-0.047	0.173
-342.377	-73.139	-0.051	-0.019
-341.362	18.504	0.292	0.230
-340.348	175.922	0.108	0.154
-339.333	27.714	0.033	-0.028
-338.318	-122.668	-0.137	-0.022
-337.304	-98.904	0.094	0.024
-336.289	-200.000	0.037	-0.189
-335.275	-18.392	-0.198	0.122
-334.260	777.990	-0.052	0.139
-333.245	418.086	-0.140	-0.295
-332.231	-85.144	0.111	0.034
-331.216	83.271	-0.123	0.131
-330.202	-16.203	-0.182	0.114
-329.187	42.645	-0.018	-0.016
-328.172	71.401	0.151	-0.154
-327.158	-12.048	-0.252	0.163
-326.143	-200.000	0.004	0.215
-325.129	-140.380	0.330	-0.034
-324.114	84.667	-0.155	0.167
-323.099	-75.899	-0.077	0.027
-322.085	85.311	-0.267	0.289
-321.070	62.320	-0.236	0.232
-320.056	225.178	0.105	0.168
-319.041	39.554	-0.197	0.174
-318.026	-107.052	-0.242	0.053
-317.012	-86.583	-0.217	0.065
-315.997	-178.163	0.204	0.005
-314.983	0.939	0.219	-0.154
-313.968	800.000	-0.018	-0.051
-312.953	-36.511	-0.381	0.202
-311.939	-2.038	-0.323	0.223
-310.924	800.000	0.063	0.173
-309.910	12.444	0.073	0.056
-308.895	-200.000	0.010	-0.179
-307.880	-61.208	-0.056	0.023
-306.866	39.781	-0.083	-0.074
-305.851	800.000	-0.045	-0.140
-304.837	800.000	0.082	0.324
-303.822	92.988	-0.093	0.103
-302.807	557.668	0.093	0.220
-301.793	-21.433	0.363	-0.218
-300.778	361.364	-0.146	0.288
-299.764	-200.000	0.019	0.206
-298.749	385.294	-0.076	0.154
-297.735	-33.727	0.026	0.014
-296.720	-86.097	0.447	0.136
-295.705	84.863	-0.118	-0.127
-294.691	-111.046	0.188	-0.038
-293.676	-200.000	0.061	-0.273
-292.662	-126.503	0.139	0.020
-291.647	-141.395	0.116	-0.012
-290.632	657.310	-0.095	0.241
-289.618	-200.000	0.013	0.145
-288.603	29.755	0.219	-0.184
-287.589	-200.000	0.004	0.210
-286.574	800.000	0.046	-0.130
-285.559	800.000	0.073	-0.246
-284.545	116.004	-0.089	0.107
-283.530	440.645	0.064	0.138
-282.516	-200.000	-0.008	-0.286
-281.501	-116.251	0.215	-0.039
-280.486	-200.000	0.020	0.090
-279.472	-200.000	0.024	0.281
-278.457	16.097	-0.120	-0.093
-277.443	-93.895	0.236	-0.064
-276.428	-200.000	-0.027	0.326
-275.413	-200.000	0.050	-0.221
-274.399	123.627	-0.090	0.111
-273.384	-17.464	-0.375	0.232
-272.370	-12.872	-0.275	0.176
-271.355	10.320	-0.092	-0.069
-270.340	-200.000	-0.018	-0.094
-269.326	800.000	0.087	-0.279
-268.311	192.431	0.153	-0.227
-267.297	-200.000	0.007	-0.277
-266.282	-44.567	0.048	-0.024
-265.267	-4.521	-0.129	-0.088
-264.253	-200.000	0.019	-0.100
-263.238	250.628	-0.039	0.065
-262.224	-128.506	-0.037	-0.005
-261.209	-200.000	-0.019	-0.244
-260.195	-110.162	0.445	-0.091
-259.180	15.507	0.324	0.250
-258.165	32.758	-0.223	-0.190
-257.151	-183.351	-0.199	-0.003
-256.136	-171.782	0.251	-0.008
-255.122	-82.486	0.133	-0.043
-254.107	-55.259	0.260	-0.115
-253.092	-200.000	0.009	0.092
-252.078	535.831	-0.099	-0.230
-251.063	-2.552	0.164	-0.113
-250.049	-84.738	-0.388	-0.120
-249.034	207.313	-0.179	0.274
-248.019	1.288	-0.315	-0.222
-247.005	800.000	-0.061	0.191
-245.990	-41.584	-0.186	-0.094
-244.976	-171.472	0.386	0.013
-243.961	117.453	0.020	0.024
-242.946	-200.000	0.021	-0.422
-241.932	-124.824	0.257	-0.039
-240.917	-95.762	-0.205	0.054
-239.903	-60.538	-0.057	-0.024
-238.888	800.000	-0.049	0.141
-237.873	-17.819	-0.112	-0.069
-236.859	153.980	0.081	-0.109
-235.844	-59.877	0.193	-0.081
-234.830	-107.362	-0.105	0.023
-233.815	-200.000	-0.018	-0.135
-232.800	-132.745	0.145	0.018
-231.786	98.270	-0.046	0.052
-230.771	-200.000	-0.002	0.033
-229.757	81.831	-0.086	-0.092
-228.742	-200.000	0.015	0.617
-227.727	25.748	0.103	-0.084
-226.713	-33.754	0.163	0.088
-225.698	-200.000	0.040	0.250
-224.684	800.000	0.093	0.284
-223.669	-134.242	-0.055	-0.007
-222.655	119.039	0.081	-0.099
-221.640	58.995	0.145	-0.140
-220.625	55.940	-0.224	0.213
-219.611	-200.000	0.035	-0.313
-218.596	637.618	-0.098	-0.245
-217.582	-151.724	0.278	0.020
-216.567	-58.359	0.135	0.058
-215.552	416.747	-0.087	0.183
-214.538	-30.129	-0.190	-0.106
-213.523	-62.843	0.371	0.150
-212.509	800.000	0.041	-0.175
-211.494	-36.008	0.079	0.042
-210.479	-186.866	0.076	0.001
-209.465	-105.269	0.049	0.011
-208.450	-95.991	-0.249	-0.065
-207.436	39.820	-0.128	0.113
-206.421	-135.490	0.164	0.019
-205.406	-127.359	-0.233	-0.033
-204.392	-18.839	-0.017	0.011
-203.377	-69.920	0.195	-0.073
-202.363	-13.854	0.327	-0.207
-201.348	130.987	-0.071	0.090
-200.333	18.333	0.243	0.190
-199.319	256.993	-0.037	0.062
-198.304	-41.045	0.069	-0.035
-197.290	-200.000	0.031	0.167
-196.275	74.206	0.259	0.266
-195.260	800.000	-0.045	0.148
-194.246	-173.830	0.168	0.005
-193.231	-52.071	-0.256	0.117
-192.217	382.086	-0.112	-0.225
-191.202	102.484	0.168	0.193
-190.187	-30.003	0.137	-0.077
-189.173	357.807	0.097	0.190
-188.158	-200.000	0.008	-0.376
-187.144	-200.000	0.011	-0.095
-186.129	-165.806	0.214	0.009
-185.114	98.905	-0.256	0.290
-184.100	800.000	-0.088	-0.250
-183.085	746.511	0.095	0.250
-182.071	796.101	-0.082	0.220
-181.056	-118.852	-0.464	0.080
-180.042	30.862	-0.023	0.019
-179.027	-44.947	0.353	0.172
-178.012	569.103	0.102	0.242
-176.998	270.757	-0.122	-0.210
-175.983	274.744	-0.183	0.318
-174.969	800.000	0.074	0.283
-173.954	-70.687	-0.309	-0.114
-172.939	-117.878	-0.222	0.039
-171.925	-200.000	0.039	0.251
-170.910	140.919	0.076	0.098
-169.896	-200.000	-0.004	-0.148
-168.881	-82.441	0.092	0.029
-167.866	800.000	0.083	-0.230
-166.852	-70.779	0.297	-0.110
-165.837	-200.000	0.011	0.083
-164.823	-4.644	0.211	0.143
-163.808	-109.385	-0.235	-0.049
-162.793	-58.877	-0.149	-0.063
-161.779	107.666	-0.149	0.174
-160.764	177.487	0.094	-0.134
-159.750	-79.935	0.425	0.140
-158.735	211.613	0.057	0.088
-157.720	442.243	0.049	-0.104
-156.706	800.000	0.091	-0.297
-155.691	-131.009	0.243	0.032
-154.677	-200.000	-0.017	-0.124
-153.662	-200.000	0.027	-0.185
-152.647	800.000	0.039	-0.135
-151.633	-70.162	-0.266	0.099
-150.618	-153.111	0.262	0.018
-149.604	-73.624	0.130	-0.046
-148.589	-200.000	-0.085	0.381
-147.574	-55.673	0.207	-0.091
-146.560	113.086	0.201	0.239
-145.545	-98.346	0.047	0.012
-144.531	503.527	-0.249	-0.563
-143.516	800.000	-0.077	-0.291
-142.502	-30.891	0.229	-0.126
-141.487	800.000	0.033	0.134
-140.472	-48.140	0.219	0.104
-139.458	-50.473	0.050	-0.023
-138.443	-200.000	0.032	0.179
-137.429	-200.000	-0.035	0.534
-136.414	800.000	-0.127	-0.346
-135.399	71.217	-0.032	0.033
-134.385	-97.273	0.316	-0.080
-133.370	-22.558	-0.085	0.050
-132.356	292.534	0.124	-0.222
-131.341	-200.000	-0.023	-0.182
-130.326	-89.031	-0.337	-0.098
-129.312	30.917	-0.141	0.118
-128.297	136.837	-0.143	-0.183
-127.283	-200.000	-0.056	-0.271
-126.268	211.264	0.218	0.335
-125.253	-200.000	-0.008	0.290
-124.239	800.000	-0.085	0.335
-123.224	-36.210	-0.333	-0.176
-122.210	30.226	-0.071	-0.059
-121.195	170.971	0.234	-0.328
