DTS Sentinel unit serial number:	SN413079Multiplexer serial number:	ORYXHardware model number:	OX4-SRSoftware version number:	ORYX F/W v4.00 Oryx Data Collector v3.7.2.0data status	okinstallation	princeton_trtdifferential loss correction	single-endedforward channel	channel 3reverse channel	N/Adate	2019/09/17time	10:20:34forward acquisition time	60.00reverse acquisition time	0.00gamma	496.2192k internal	0.2323k external	0.2323temperature offset calibration	0.9945default loss term (dB/km)	0.3790temperature slope calibration	1.0000multiplexer offset coefficient	1.0000multiplexer slope coefficient	1.0000fibre end	0.00T internal ref (°C)	29.87T ext. ref 1 (°C)	0.17T ext. ref 2 (°C)	25.45length (m)	temperature (°C)	Stokes	anti-Stokes-747.200	-105.049	0.325	0.075
-746.185	800.000	0.038	0.150
-745.171	233.364	-0.088	0.146
-744.156	-77.277	0.040	-0.014
-743.142	36.746	-0.151	0.135
-742.127	15.261	-0.096	0.076
-741.112	282.428	-0.175	-0.316
-740.098	96.596	-0.030	0.035
-739.083	38.448	-0.190	-0.171
-738.069	52.491	-0.178	0.171
-737.054	51.536	0.107	0.102
-736.039	96.794	-0.167	-0.193
-735.025	-200.000	0.020	-0.161
-734.010	410.447	-0.147	-0.316
-732.996	435.166	-0.140	-0.308
-731.981	734.354	-0.107	0.289
-730.966	329.435	-0.055	-0.107
-729.952	10.798	0.289	-0.223
-728.937	158.387	0.019	-0.027
-727.923	-17.408	-0.169	0.107
-726.908	-161.251	0.088	0.005
-725.894	518.786	0.063	-0.150
-724.879	-14.354	0.101	0.066
-723.864	71.250	0.078	0.082
-722.850	-113.653	0.194	0.038
-721.835	-39.252	-0.210	-0.111
-720.821	-30.755	-0.244	0.139
-719.806	-88.828	-0.215	-0.064
-718.791	117.501	0.112	-0.139
-717.777	526.364	0.110	0.261
-716.762	60.310	-0.321	0.321
-715.748	-160.358	-0.301	0.016
-714.733	-71.328	0.080	-0.030
-713.718	-76.972	-0.155	0.055
-712.704	70.623	0.125	-0.130
-711.689	424.001	0.095	-0.206
-710.675	38.290	-0.186	0.167
-709.660	153.671	-0.062	0.086
-708.645	31.698	-0.182	-0.158
-707.631	-78.330	-0.317	-0.110
-706.616	-68.543	0.097	-0.038
-705.602	283.926	0.131	0.238
-704.587	-134.279	0.264	-0.033
-703.572	800.000	-0.072	0.267
-702.558	5.819	-0.226	-0.169
-701.543	-34.780	0.241	-0.133
-700.529	-72.139	0.374	0.140
-699.514	-14.759	0.104	0.067
-698.499	-52.646	0.104	-0.048
-697.485	-200.000	-0.024	0.206
-696.470	-157.717	-0.257	0.015
-695.456	-200.000	-0.008	-0.156
-694.441	-120.765	-0.137	-0.023
-693.426	-94.607	-0.085	-0.023
-692.412	-33.909	0.245	-0.136
-691.397	302.188	-0.097	-0.181
-690.383	252.796	-0.108	-0.185
-689.368	56.214	-0.223	-0.218
-688.354	2.283	0.185	0.135
-687.339	-103.038	0.173	-0.041
-686.324	800.000	0.080	0.264
-685.310	95.256	-0.185	-0.213
-684.295	-113.729	0.187	0.037
-683.281	11.114	-0.202	0.155
-682.266	-76.722	-0.288	-0.102
-681.251	-200.000	0.015	0.076
-680.237	232.336	-0.149	0.247
-679.222	-130.859	-0.219	0.030
-678.208	76.184	-0.244	0.260
-677.193	-164.903	0.156	0.007
-676.178	-159.824	-0.244	0.014
-675.164	-144.306	0.204	0.019
-674.149	248.264	0.096	-0.164
-673.135	49.155	-0.139	0.131
-672.120	-200.000	-0.030	0.142
-671.105	391.569	-0.122	0.255
-670.091	-200.000	0.002	0.097
-669.076	101.216	-0.258	0.303
-668.062	-73.222	-0.130	0.048
-667.047	367.317	-0.093	-0.190
-666.032	800.000	-0.123	-0.413
-665.018	76.830	0.312	0.334
-664.003	-37.899	-0.339	0.182
-662.989	278.442	-0.152	-0.273
-661.974	383.319	0.082	0.171
-660.959	-86.344	0.225	0.070
-659.945	70.245	-0.116	0.121
-658.930	-165.591	-0.167	0.007
-657.916	-140.968	-0.010	0.001
-656.901	-43.014	0.208	-0.106
-655.886	117.866	0.200	0.248
-654.872	65.206	-0.239	-0.244
-653.857	800.000	-0.082	-0.307
-652.843	800.000	0.062	-0.191
-651.828	-200.000	-0.001	-0.015
-650.814	800.000	-0.035	-0.137
-649.799	-54.559	0.203	0.093
-648.784	-21.601	-0.394	-0.242
-647.770	192.681	-0.186	-0.283
-646.755	71.030	0.061	0.064
-645.741	-121.685	0.155	-0.026
-644.726	-200.000	-0.014	-0.357
-643.711	-111.420	0.346	0.071
-642.697	-3.565	-0.188	-0.131
-641.682	-200.000	-0.023	-0.407
-640.668	-200.000	-0.040	0.286
-639.653	-102.625	-0.223	0.054
-638.638	-29.813	0.147	0.084
-637.624	-159.154	0.340	0.019
-636.609	-109.655	0.202	-0.043
-635.595	271.860	-0.160	-0.284
-634.580	44.545	-0.279	-0.258
-633.565	-1.170	0.283	-0.201
-632.551	-200.000	-0.012	0.166
-631.536	45.017	0.246	-0.228
-630.522	-114.780	0.223	-0.043
-629.507	374.410	-0.050	-0.103
-628.492	-76.730	-0.122	-0.043
-627.478	156.168	-0.128	-0.177
-626.463	-200.000	0.006	-0.367
-625.449	105.043	-0.145	-0.172
-624.434	59.130	0.103	0.101
-623.419	-200.000	0.028	-0.316
-622.405	-200.000	0.101	-0.664
-621.390	37.841	-0.147	0.131
-620.376	255.324	0.143	0.246
-619.361	75.667	0.249	0.265
-618.346	71.209	-0.206	0.215
-617.332	-121.474	-0.137	-0.023
-616.317	283.538	-0.087	0.157
-615.303	-101.711	0.336	-0.082
-614.288	-45.241	0.336	0.168
-613.273	-200.000	-0.053	0.315
-612.259	-200.000	0.043	0.323
-611.244	-99.542	0.134	0.034
-610.230	0.934	-0.151	-0.109
-609.215	699.984	0.110	0.291
-608.201	-200.000	0.037	0.221
-607.186	-200.000	-0.043	-0.204
-606.171	72.773	0.142	0.149
-605.157	-138.896	-0.061	-0.007
-604.142	663.480	0.138	0.359
-603.128	461.109	-0.066	0.148
-602.113	-200.000	0.342	-0.000
-601.098	101.003	0.128	0.149
-600.084	-149.410	-0.162	0.013
-599.069	316.128	-0.119	0.226
-598.055	-80.044	-0.174	0.059
-597.040	-200.000	0.050	0.259
-596.025	-200.000	0.005	-0.050
-595.011	527.108	0.015	0.036
-593.996	-200.000	0.021	0.340
-592.982	-200.000	0.008	-0.051
-591.967	-200.000	0.031	-0.203
-590.952	-148.612	-0.282	-0.023
-589.938	800.000	-0.102	-0.299
-588.923	-84.717	0.128	0.040
-587.909	-78.641	-0.150	0.052
-586.894	-200.000	0.037	0.214
-585.879	-15.721	-0.146	0.093
-584.865	-76.933	0.256	0.090
-583.850	-200.000	0.034	-0.214
-582.836	291.661	-0.105	0.192
-581.821	590.222	-0.097	-0.241
-580.806	-149.653	-0.296	0.023
-579.792	-200.000	-0.007	0.156
-578.777	3.288	0.419	0.306
-577.763	800.000	-0.041	0.131
-576.748	-132.385	-0.390	-0.051
-575.733	67.080	0.276	-0.282
-574.719	-47.252	-0.060	-0.029
-573.704	319.558	0.078	-0.148
-572.690	-71.748	-0.277	0.104
-571.675	582.416	0.047	0.116
-570.661	-200.000	0.024	0.314
-569.646	-200.000	0.007	-0.214
-568.631	91.731	-0.106	0.119
-567.617	-63.079	0.108	0.045
-566.602	800.000	0.048	0.193
-565.588	-200.000	0.022	0.119
-564.573	370.624	0.084	0.171
-563.558	-84.882	0.370	0.117
-562.544	-200.000	0.009	-0.097
-561.529	135.224	0.161	-0.209
-560.515	125.461	-0.278	-0.351
-559.500	-64.011	0.321	0.131
-558.485	-180.744	-0.115	-0.002
-557.471	-200.000	0.038	-0.281
-556.456	-16.028	0.275	0.175
-555.442	104.404	0.172	-0.203
-554.427	123.069	-0.127	0.159
-553.412	-91.925	0.262	0.074
-552.398	-176.454	-0.159	-0.004
-551.383	-51.580	-0.383	-0.179
-550.369	2.900	0.154	0.112
-549.354	-89.999	-0.162	0.048
-548.339	192.367	-0.116	0.175
-547.325	48.236	0.238	-0.223
-546.310	-151.472	-0.213	-0.016
-545.296	454.137	-0.126	-0.279
-544.281	45.844	-0.134	-0.124
-543.266	-103.845	0.665	0.156
-542.252	99.148	-0.027	0.031
-541.237	-157.801	-0.072	-0.004
-540.223	-87.708	0.400	-0.121
-539.208	-163.927	0.329	-0.015
-538.193	800.000	-0.023	0.077
-537.179	-86.127	0.286	0.088
-536.164	800.000	0.043	0.167
-535.150	-200.000	0.039	0.237
-534.135	-200.000	0.065	0.411
-533.121	800.000	-0.063	-0.247
-532.106	725.023	-0.102	0.272
-531.091	145.090	-0.152	0.204
-530.077	51.193	-0.152	-0.145
-529.062	-91.945	0.134	0.038
-528.048	-44.739	0.153	-0.076
-527.033	219.275	-0.310	0.497
-526.018	45.948	0.108	-0.100
-525.004	-200.000	-0.003	-0.053
-523.989	62.830	-0.098	0.099
-522.975	-94.657	0.134	-0.036
-521.960	569.346	-0.016	-0.040
-520.945	6.256	-0.139	0.103
-519.931	-129.441	-0.027	0.004
-518.916	-99.078	0.224	0.057
-517.902	5.590	-0.082	0.061
-516.887	-51.036	0.099	-0.046
-515.872	-200.000	-0.011	-0.113
-514.858	-142.188	-0.153	0.015
-513.843	143.381	0.059	-0.078
-512.829	-47.965	-0.459	0.222
-511.814	-119.104	0.182	0.032
-510.799	238.062	-0.046	0.076
-509.785	272.963	-0.184	0.326
-508.770	22.479	0.350	-0.286
-507.756	304.431	-0.053	-0.098
-506.741	126.825	0.085	-0.108
-505.726	-200.000	-0.038	0.228
-504.712	199.982	-0.165	-0.253
-503.697	-87.250	-0.515	-0.156
-502.683	-6.727	-0.106	-0.072
-501.668	482.274	0.178	0.405
-500.653	-14.212	-0.205	0.132
-499.639	103.904	-0.257	-0.302
-498.624	-2.697	-0.062	-0.043
-497.610	-67.017	0.112	-0.044
-496.595	3.716	-0.130	-0.095
-495.581	-200.000	-0.024	-0.127
-494.566	30.800	-0.114	-0.098
-493.551	800.000	-0.064	-0.273
-492.537	-104.807	-0.215	-0.049
-491.522	-171.409	0.244	-0.008
-490.508	-118.882	0.160	0.028
-489.493	-170.820	0.315	-0.011
-488.478	800.000	0.032	0.101
-487.464	-100.790	-0.160	-0.039
-486.449	800.000	-0.065	0.278
-485.435	-200.000	0.012	-0.182
-484.420	-200.000	0.040	0.474
-483.405	212.464	0.167	0.263
-482.391	-74.795	-0.154	-0.055
-481.376	-17.490	0.063	0.039
-480.362	-187.822	-0.163	0.002
-479.347	-200.000	-0.038	-0.297
-478.332	-74.207	-0.211	0.076
-477.318	-23.615	0.317	0.190
-476.303	23.860	-0.031	0.026
-475.289	-19.351	-0.279	0.173
-474.274	-88.574	0.242	-0.072
-473.259	68.052	0.150	0.153
-472.245	800.000	-0.143	-0.438
-471.230	800.000	-0.062	-0.175
-470.216	800.000	0.088	-0.257
-469.201	-200.000	0.024	0.330
-468.186	37.976	-0.154	0.137
-467.172	137.606	-0.129	-0.168
-466.157	2.073	-0.053	-0.038
-465.143	127.988	0.172	-0.219
-464.128	-8.258	-0.096	0.064
-463.113	34.546	0.063	0.055
-462.099	694.065	-0.112	-0.294
-461.084	800.000	0.093	0.270
-460.070	186.913	-0.075	-0.112
-459.055	-200.000	0.028	-0.232
-458.040	-41.416	0.228	-0.117
-457.026	-34.099	0.287	0.158
-456.011	-11.194	0.096	0.063
-454.997	36.065	0.395	-0.347
-453.982	196.583	-0.074	0.113
-452.968	244.023	0.134	-0.225
-451.953	800.000	-0.177	0.555
-450.938	-132.180	0.173	-0.022
-449.924	-26.662	0.258	0.151
-448.909	-200.000	0.048	0.390
-447.895	-72.510	-0.524	-0.193
-446.880	-37.483	0.132	0.070
-445.865	-64.377	-0.197	-0.080
-444.851	84.596	0.072	0.079
-443.836	-100.983	-0.127	0.031
-442.822	-193.677	-0.334	0.003
-441.807	272.906	0.148	0.261
-440.792	28.993	-0.195	-0.165
-439.778	360.336	0.124	-0.248
-438.763	5.027	0.183	-0.135
-437.749	592.666	-0.103	0.254
-436.734	28.688	-0.114	-0.096
-435.719	-110.663	0.170	0.035
-434.705	12.806	-0.229	0.176
-433.690	800.000	-0.047	0.158
-432.676	-200.000	0.086	-0.413
-431.661	31.512	-0.186	-0.160
-430.646	28.508	0.344	0.290
-429.632	33.160	0.184	0.159
-428.617	-200.000	-0.033	-0.222
-427.603	800.000	0.094	-0.296
-426.588	-108.825	-0.279	-0.059
-425.573	-87.022	0.243	-0.074
-424.559	-46.416	-0.037	-0.018
-423.544	560.441	0.107	0.259
-422.530	-127.232	-0.021	0.003
-421.515	800.000	0.069	0.235
-420.500	494.692	0.113	0.260
-419.486	-137.675	0.121	-0.014
-418.471	-158.686	0.459	0.026
-417.457	-81.210	-0.215	-0.071
-416.442	-200.000	0.010	-0.146
-415.428	-200.000	-0.031	0.368
-414.413	-97.317	-0.423	-0.110
-413.398	-12.131	-0.059	-0.039
-412.384	-64.184	0.124	-0.050
-411.369	114.064	-0.187	0.226
-410.355	-146.008	0.167	0.015
-409.340	-200.000	0.000	0.188
-408.325	624.061	-0.153	-0.384
-407.311	126.013	0.145	0.183
-406.296	182.868	-0.131	-0.192
-405.282	95.728	-0.056	0.064
-404.267	-83.579	-0.386	-0.123
-403.252	-43.732	0.138	0.069
-402.238	-200.000	-0.040	-0.177
-401.223	-141.955	-0.109	0.011
-400.209	63.125	-0.176	-0.176
-399.194	-6.375	-0.305	0.207
-398.179	-200.000	0.009	0.145
-397.165	-158.609	-0.022	-0.001
-396.150	-200.000	-0.017	0.093
-395.136	-119.193	0.353	0.061
-394.121	1.265	-0.377	0.270
-393.106	-200.000	0.032	0.186
-392.092	-0.762	0.181	-0.128
-391.077	-141.838	0.350	0.035
-390.063	-200.000	0.040	0.241
-389.048	800.000	-0.104	0.328
-388.033	-53.573	0.172	-0.078
-387.019	800.000	0.087	-0.315
-386.004	-68.112	-0.236	-0.091
-384.990	-200.000	0.039	-0.269
-383.975	800.000	-0.056	-0.237
-382.960	600.529	-0.064	-0.158
-381.946	-86.559	0.299	0.091
-380.931	-200.000	0.009	-0.373
-379.917	-70.789	-0.194	0.073
-378.902	800.000	-0.046	0.152
-377.888	-200.000	-0.066	-0.359
-376.873	-200.000	0.008	0.045
-375.858	87.405	0.143	-0.157
-374.844	80.650	-0.102	-0.110
-373.829	-200.000	0.009	-0.198
-372.815	-200.000	-0.006	0.309
-371.800	-85.713	0.295	-0.091
-370.785	26.946	0.235	0.196
-369.771	-83.243	0.156	0.050
-368.756	95.514	0.108	-0.122
-367.742	32.259	-0.292	0.251
-366.727	-200.000	-0.008	-0.248
-365.712	-67.948	0.305	-0.119
-364.698	-200.000	0.021	0.134
-363.683	-46.331	-0.252	-0.123
-362.669	-40.686	0.168	-0.087
-361.654	800.000	0.065	-0.279
-360.639	-95.641	0.037	-0.010
-359.625	-200.000	0.032	0.299
-358.610	86.632	-0.302	0.332
-357.596	-200.000	0.028	-0.173
-356.581	-76.216	-0.293	0.103
-355.566	-23.494	-0.239	0.143
-354.552	-200.000	-0.003	-0.067
-353.537	9.440	-0.190	0.143
-352.523	-200.000	-0.035	0.187
-351.508	-139.262	0.283	0.030
-350.493	-3.785	0.309	0.213
-349.479	-112.023	-0.218	-0.044
-348.464	-200.000	-0.002	-0.298
-347.450	167.507	0.206	-0.292
-346.435	445.727	-0.062	0.136
-345.420	43.283	-0.171	-0.155
-344.406	-5.247	-0.153	0.104
-343.391	-52.478	-0.170	-0.078
-342.377	-200.000	0.026	0.192
-341.362	-91.458	0.213	-0.060
-340.348	-200.000	-0.033	-0.149
-339.333	669.777	0.034	-0.088
-338.318	58.726	-0.106	-0.103
-337.304	-3.690	-0.188	0.130
-336.289	800.000	0.062	0.202
-335.275	95.646	0.056	-0.064
-334.260	50.026	-0.294	0.276
-333.245	-135.261	0.149	-0.018
-332.231	-122.575	0.332	-0.054
-331.216	800.000	0.056	-0.235
-330.202	800.000	0.092	-0.316
-329.187	3.593	0.273	-0.198
-328.172	203.075	0.098	0.151
-327.158	-97.985	-0.058	-0.015
-326.143	-200.000	-0.037	-0.542
-325.129	613.360	0.095	-0.236
-324.114	110.166	-0.206	-0.246
-323.099	748.096	-0.090	0.240
-322.085	-200.000	-0.037	0.228
-321.070	256.474	-0.151	0.257
-320.056	-91.934	-0.257	0.072
-319.041	25.389	0.310	0.256
-318.026	11.359	-0.256	-0.195
-317.012	800.000	-0.099	0.315
-315.997	-200.000	-0.075	-0.381
-314.983	-24.548	0.441	-0.261
-313.968	-200.000	-0.013	0.303
-312.953	-142.213	0.218	-0.021
-311.939	97.372	-0.048	0.054
-310.924	78.154	0.226	0.240
-309.910	-111.036	0.316	-0.064
-308.895	-142.017	0.165	-0.016
-307.880	-200.000	0.034	0.167
-306.866	-42.334	-0.382	0.194
-305.851	-47.755	-0.460	-0.221
-304.837	119.513	-0.282	-0.347
-303.822	800.000	0.054	-0.188
-302.807	30.167	0.087	-0.073
-301.793	-44.862	0.104	-0.052
-300.778	-98.669	0.158	0.040
-299.764	-56.992	0.053	0.023
-298.749	-163.837	-0.194	-0.009
-297.735	82.333	0.142	0.153
-296.720	57.660	0.161	-0.157
-295.705	-200.000	0.024	-0.234
-294.691	-153.188	0.249	-0.017
-293.676	161.259	-0.103	-0.142
-292.662	-183.008	-0.160	0.003
-291.647	66.325	-0.128	0.129
-290.632	-38.254	-0.159	0.084
-289.618	-121.385	0.121	0.020
-288.603	299.529	-0.088	0.162
-287.589	-200.000	0.002	0.307
-286.574	-34.312	0.271	0.147
-285.559	279.144	-0.103	0.182
-284.545	-88.396	-0.255	-0.076
-283.530	-65.531	0.267	0.107
-282.516	800.000	-0.023	-0.088
-281.501	-200.000	0.015	-0.132
-280.486	203.007	-0.032	-0.049
-279.472	-200.000	-0.015	-0.182
-278.457	-69.327	-0.033	0.012
-277.443	-153.120	0.157	-0.011
-276.428	215.982	-0.144	0.227
-275.413	171.292	-0.096	0.137
-274.399	445.214	-0.077	0.168
-273.384	-73.897	0.270	0.097
-272.370	105.096	-0.234	-0.273
-271.355	-133.254	-0.243	0.030
-270.340	-121.154	-0.240	-0.040
-269.326	-34.396	0.243	0.132
-268.311	23.308	0.249	-0.203
-267.297	800.000	-0.045	-0.147
-266.282	6.934	-0.147	-0.109
-265.267	-200.000	0.008	-0.048
-264.253	-200.000	-0.045	-0.271
-263.238	-10.170	0.048	0.032
-262.224	50.652	-0.124	0.116
-261.209	606.658	-0.047	-0.116
-260.195	-200.000	0.093	-0.419
-259.180	-112.839	0.105	-0.021
-258.165	-136.817	-0.153	-0.017
-257.151	-99.951	0.286	-0.071
-256.136	178.238	-0.114	0.164
-255.122	-67.079	-0.196	0.077
-254.107	50.654	0.153	-0.144
-253.092	-1.924	0.263	-0.183
-252.078	131.485	-0.090	-0.115
-251.063	-101.316	0.054	-0.013
-250.049	-67.091	0.182	0.071
-249.034	417.387	0.108	0.228
-248.019	800.000	-0.026	-0.073
-247.005	86.489	-0.197	-0.215
-245.990	-64.817	0.160	-0.064
-244.976	45.284	-0.162	-0.148
-243.961	409.261	-0.142	0.298
-242.946	340.601	-0.029	-0.056
-241.932	800.000	-0.042	0.123
-240.917	800.000	0.136	-0.463
-239.903	-200.000	-0.022	-0.333
-238.888	-127.534	0.156	-0.022
-237.873	800.000	0.108	0.314
-236.859	36.841	0.068	0.060
-235.844	-30.487	-0.245	-0.138
-234.830	207.350	0.100	-0.155
-233.815	25.129	-0.127	-0.105
-232.800	-174.116	-0.224	-0.006
-231.786	800.000	-0.094	-0.309
-230.771	-72.694	-0.424	-0.155
-229.757	-71.384	0.285	0.106
-228.742	-40.443	-0.095	0.049
-227.727	-60.299	-0.262	-0.111
-226.713	-150.415	0.229	-0.017
-225.698	800.000	0.078	-0.218
-224.684	85.311	-0.200	-0.217
-223.669	-200.000	0.030	-0.205
-222.655	-139.614	-0.104	0.011
-221.640	-200.000	0.051	-0.234
-220.625	-200.000	-0.007	0.119
-219.611	428.424	-0.082	0.176
-218.596	-148.233	0.115	0.009
-217.582	-131.164	0.222	-0.029
-216.567	-93.447	0.131	-0.036
-215.552	-200.000	-0.000	0.024
-214.538	-200.000	-0.079	0.365
-213.523	-200.000	-0.019	0.190
-212.509	-83.154	-0.269	0.086
-211.494	-105.354	-0.232	-0.052
-210.479	-200.000	0.057	-0.253
-209.465	-161.839	-0.222	0.011
-208.450	-200.000	0.023	0.318
-207.436	125.792	0.228	0.285
-206.421	757.776	0.070	0.187
-205.406	-200.000	-0.025	0.285
-204.392	-40.571	0.187	0.096
-203.377	-200.000	0.007	0.101
-202.363	519.807	0.017	0.039
-201.348	69.680	0.117	0.119
-200.333	800.000	-0.082	-0.319
-199.319	-200.000	0.004	-0.157
-198.304	800.000	-0.080	0.255
-197.290	67.797	-0.059	0.060
-196.275	800.000	-0.070	-0.271
-195.260	86.990	-0.232	-0.253
-194.246	-200.000	0.021	-0.130
-193.231	119.965	-0.141	0.172
-192.217	800.000	0.021	-0.064
-191.202	10.452	0.211	-0.159
-190.187	200.754	-0.012	-0.018
-189.173	29.157	-0.253	0.212
-188.158	599.904	0.047	0.114
-187.144	-108.897	-0.060	-0.013
-186.129	-44.183	-0.141	-0.070
-185.114	-63.936	0.157	0.063
-184.100	89.784	-0.194	-0.214
-183.085	-25.316	-0.060	0.035
-182.071	118.006	-0.092	-0.111
-181.056	-200.000	0.025	0.282
-180.042	-200.000	0.006	0.087
-179.027	69.052	0.154	0.157
-178.012	23.010	0.411	-0.333
-176.998	-200.000	0.017	-0.132
-175.983	-200.000	0.008	-0.148
-174.969	-200.000	0.016	0.330
-173.954	115.199	-0.153	-0.184
-172.939	68.301	-0.190	0.193
-171.925	-200.000	-0.030	0.176
-170.910	46.196	0.299	-0.273
-169.896	439.543	0.130	0.281
-168.881	423.997	-0.061	-0.130
-167.866	800.000	0.119	-0.385
-166.852	77.192	-0.141	0.148
-165.837	-159.368	-0.077	-0.004
-164.823	437.738	0.045	-0.097
-163.808	-128.821	-0.375	-0.052
-162.793	442.949	-0.082	0.177
-161.779	130.095	-0.094	-0.119
-160.764	-107.244	0.105	0.023
-159.750	328.543	0.018	0.035
-158.735	-200.000	-0.014	-0.204
-157.720	45.945	-0.295	0.269
-156.706	-200.000	0.045	0.380
-155.691	-88.167	-0.285	0.084
-154.677	800.000	-0.085	0.279
-153.662	81.681	-0.019	0.021
-152.647	47.683	-0.116	0.107
-151.633	-82.572	0.517	0.165
-150.618	58.101	-0.152	-0.147
-149.604	568.641	0.017	-0.041
-148.589	-42.681	-0.068	-0.034
-147.574	114.699	0.165	-0.198
-146.560	-29.505	-0.110	-0.062
-145.545	-200.000	-0.009	0.067
-144.531	-84.990	0.164	-0.051
-143.516	6.592	0.079	-0.058
-142.502	-156.517	-0.232	0.014
-141.487	-200.000	-0.014	0.192
-140.472	-200.000	-0.032	-0.180
-139.458	-200.000	0.020	-0.257
-138.443	-182.110	0.137	0.003
-137.429	-200.000	0.002	-0.152
-136.414	-19.542	-0.115	0.070
-135.399	-99.931	0.070	-0.017
-134.385	339.012	0.136	-0.262
-133.370	-114.995	-0.054	0.010
-132.356	93.036	0.076	-0.085
-131.341	200.343	-0.055	-0.084
-130.326	-56.387	-0.094	0.041
-129.312	328.754	-0.242	0.459
-128.297	183.860	-0.083	0.121
-127.283	800.000	0.020	0.080
-126.268	-58.139	0.136	0.058
-125.253	800.000	0.080	0.325
-124.239	-83.861	-0.163	0.051
-123.224	362.504	0.039	-0.077
-122.210	-107.560	0.223	-0.048
-121.195	-56.163	0.138	0.061
