DTS Sentinel unit serial number:	SN413079Multiplexer serial number:	ORYXHardware model number:	OX4-SRSoftware version number:	ORYX F/W v4.00 Oryx Data Collector v3.7.2.0data status	okinstallation	princeton_trtdifferential loss correction	single-endedforward channel	channel 3reverse channel	N/Adate	2019/09/17time	22:24:35forward acquisition time	60.00reverse acquisition time	0.00gamma	496.2192k internal	0.2344k external	0.2344temperature offset calibration	0.9948default loss term (dB/km)	0.3790temperature slope calibration	1.0000multiplexer offset coefficient	1.0000multiplexer slope coefficient	1.0000fibre end	0.00T internal ref (°C)	25.44T ext. ref 1 (°C)	0.17T ext. ref 2 (°C)	18.55length (m)	temperature (°C)	Stokes	anti-Stokes-747.200	120.894	-0.097	-0.121
-746.185	179.763	0.129	-0.189
-745.171	-65.835	0.396	-0.159
-744.156	395.870	-0.110	0.229
-743.142	-43.120	-0.094	-0.048
-742.127	-17.200	0.131	-0.083
-741.112	557.051	0.092	-0.222
-740.098	-90.182	-0.333	0.097
-739.083	-64.427	0.260	0.106
-738.069	-94.445	-0.340	0.093
-737.054	800.000	0.045	-0.178
-736.039	241.611	-0.209	-0.350
-735.025	-62.865	-0.168	0.069
-734.010	-26.853	-0.229	-0.134
-732.996	18.852	-0.005	-0.004
-731.981	91.965	-0.018	-0.021
-730.966	-200.000	-0.024	-0.378
-729.952	-74.158	-0.380	-0.137
-728.937	-200.000	-0.016	-0.219
-727.923	-43.078	0.207	-0.105
-726.908	800.000	0.090	-0.267
-725.894	-113.051	0.186	0.037
-724.879	305.644	-0.169	-0.314
-723.864	-17.984	-0.095	0.059
-722.850	-200.000	-0.013	-0.091
-721.835	507.547	-0.098	-0.227
-720.821	-20.788	0.049	0.030
-719.806	-34.171	-0.272	-0.149
-718.791	-200.000	0.009	0.230
-717.777	160.411	0.070	-0.098
-716.762	41.280	-0.133	-0.121
-715.748	45.552	-0.061	-0.056
-714.733	16.371	0.249	0.196
-713.718	-132.355	0.050	0.007
-712.704	-155.492	0.081	-0.005
-711.689	800.000	0.038	-0.161
-710.675	295.509	-0.025	-0.046
-709.660	29.964	-0.235	-0.200
-708.645	-15.338	0.203	-0.130
-707.631	-79.742	-0.134	-0.045
-706.616	-200.000	-0.028	-0.414
-705.602	-200.000	-0.073	-0.344
-704.587	-43.923	-0.257	-0.129
-703.572	12.670	-0.225	-0.174
-702.558	-35.754	0.201	-0.109
-701.543	800.000	-0.055	-0.176
-700.529	567.160	0.091	-0.220
-699.514	-44.564	-0.456	-0.228
-698.499	10.769	0.087	0.067
-697.485	37.055	0.246	0.217
-696.470	-23.530	-0.465	0.279
-695.456	159.960	-0.191	0.266
-694.441	-174.658	-0.138	-0.004
-693.426	115.756	0.104	0.127
-692.412	-200.000	0.030	0.412
-691.397	166.115	-0.128	0.181
-690.383	-138.170	0.212	0.024
-689.368	-125.302	0.192	0.029
-688.354	383.260	-0.074	0.151
-687.339	12.692	-0.262	0.202
-686.324	-132.949	-0.291	0.037
-685.310	-71.047	0.091	0.034
-684.295	-200.000	-0.009	0.266
-683.281	37.307	0.069	-0.061
-682.266	-89.909	0.052	0.015
-681.251	272.732	-0.065	-0.114
-680.237	-96.141	-0.266	-0.071
-679.222	-68.868	-0.141	-0.054
-678.208	184.620	-0.094	0.139
-677.193	-200.000	0.032	0.171
-676.178	275.078	0.072	-0.127
-675.164	26.925	0.164	0.138
-674.149	-139.254	0.486	-0.052
-673.135	46.514	-0.174	0.161
-672.120	800.000	0.163	0.465
-671.105	-91.739	-0.358	-0.101
-670.091	-33.711	-0.065	-0.036
-669.076	800.000	0.158	-0.499
-668.062	128.798	0.242	-0.308
-667.047	-48.988	-0.303	-0.145
-666.032	-99.241	0.144	0.036
-665.018	-76.650	-0.075	0.026
-664.003	-103.743	0.206	-0.048
-662.989	-54.164	-0.272	0.124
-661.974	-200.000	-0.034	0.218
-660.959	134.671	-0.108	0.140
-659.945	800.000	0.071	0.220
-658.930	-200.000	-0.030	0.327
-657.916	800.000	-0.054	-0.192
-656.901	-200.000	-0.004	0.132
-655.886	-6.960	0.229	-0.155
-654.872	2.301	0.219	-0.158
-653.857	88.227	-0.108	-0.119
-652.843	64.812	-0.016	-0.016
-651.828	47.616	0.234	0.217
-650.814	-200.000	0.014	-0.063
-649.799	256.197	0.102	-0.175
-648.784	20.913	-0.126	0.102
-647.770	64.343	0.078	0.079
-646.755	-200.000	0.044	-0.387
-645.741	-62.520	0.274	-0.113
-644.726	89.462	-0.083	-0.092
-643.711	-99.689	0.212	0.053
-642.697	85.649	-0.152	0.167
-641.682	182.302	-0.285	-0.418
-640.668	-159.799	-0.109	-0.006
-639.653	-200.000	0.021	0.111
-638.638	-138.946	-0.352	-0.038
-637.624	-78.804	0.329	-0.112
-636.609	-200.000	0.039	-0.340
-635.595	629.422	0.096	-0.241
-634.580	-92.471	0.268	-0.075
-633.565	-158.022	-0.176	0.010
-632.551	69.705	0.190	-0.195
-631.536	-4.359	-0.135	-0.093
-630.522	299.068	-0.105	0.192
-629.507	800.000	0.025	-0.086
-628.492	575.435	-0.091	0.222
-627.478	60.457	-0.135	-0.133
-626.463	800.000	0.049	-0.166
-625.449	377.092	-0.282	-0.574
-624.434	18.348	0.207	-0.165
-623.419	222.808	0.173	-0.277
-622.405	-35.151	-0.256	0.139
-621.390	800.000	-0.038	0.152
-620.376	1.304	-0.057	-0.041
-619.361	-200.000	0.018	-0.213
-618.346	126.326	0.174	-0.219
-617.332	409.888	-0.040	-0.085
-616.317	-200.000	0.009	-0.177
-615.303	-96.927	0.139	0.036
-614.288	-69.640	0.231	-0.088
-613.273	-18.477	-0.072	0.045
-612.259	69.275	0.034	-0.035
-611.244	-200.000	-0.011	-0.071
-610.230	800.000	0.092	-0.337
-609.215	-65.994	0.282	-0.112
-608.201	-41.938	0.118	0.060
-607.186	277.618	-0.182	-0.323
-606.171	24.643	-0.220	-0.182
-605.157	605.884	0.062	0.155
-604.142	-200.000	0.049	-0.306
-603.128	34.977	0.065	0.057
-602.113	4.760	-0.040	0.029
-601.098	-11.248	-0.353	0.232
-600.084	16.940	0.014	-0.011
-599.069	-200.000	-0.071	-0.319
-598.055	-77.417	-0.049	-0.017
-597.040	360.655	0.109	0.218
-596.025	-15.551	-0.331	0.210
-595.011	800.000	-0.077	-0.258
-593.996	-200.000	-0.015	-0.113
-592.982	-56.053	-0.102	0.045
-591.967	-200.000	0.016	-0.282
-590.952	685.520	0.066	0.172
-589.938	-178.563	-0.240	-0.006
-588.923	-44.546	0.204	0.102
-587.909	-200.000	0.061	0.306
-586.894	10.764	-0.220	0.167
-585.879	132.042	0.136	0.175
-584.865	-2.080	0.208	0.145
-583.850	-27.123	0.208	0.121
-582.836	148.970	-0.188	0.252
-581.821	-101.075	0.396	-0.096
-580.806	567.015	0.057	0.137
-579.792	-64.134	-0.479	0.194
-578.777	-75.840	-0.174	0.061
-577.763	672.364	0.083	-0.214
-576.748	42.914	-0.207	-0.187
-575.733	108.304	-0.114	-0.135
-574.719	-115.625	-0.209	0.039
-573.704	-200.000	-0.021	-0.098
-572.690	800.000	0.109	0.335
-571.675	-143.214	-0.173	0.017
-570.661	800.000	-0.074	-0.274
-569.646	-184.215	-0.191	-0.003
-568.631	800.000	-0.089	0.286
-567.617	-64.658	0.058	0.023
-566.602	13.597	-0.127	-0.098
-565.588	-133.311	-0.181	-0.023
-564.573	-137.633	-0.146	-0.016
-563.558	70.940	-0.042	0.043
-562.544	78.179	0.147	-0.156
-561.529	171.279	-0.166	0.236
-560.515	18.678	-0.097	-0.077
-559.500	-26.285	-0.177	0.103
-558.485	-200.000	-0.057	-0.281
-557.471	133.822	0.010	-0.013
-556.456	95.957	0.146	-0.166
-555.442	800.000	-0.103	-0.325
-554.427	10.573	-0.103	0.078
-553.412	127.855	-0.117	0.148
-552.398	-176.191	-0.362	0.009
-551.383	-200.000	-0.206	0.000
-550.369	556.774	-0.040	-0.095
-549.354	-200.000	0.027	0.239
-548.339	800.000	-0.126	-0.437
-547.325	-19.992	0.216	0.132
-546.310	800.000	-0.059	0.239
-545.296	800.000	-0.042	-0.182
-544.281	157.590	0.195	-0.268
-543.266	-40.719	0.095	-0.049
-542.252	-200.000	0.003	0.074
-541.237	320.512	-0.052	0.099
-540.223	-133.055	0.298	-0.038
-539.208	-41.586	0.229	0.117
-538.193	800.000	-0.023	0.098
-537.179	-63.589	-0.292	0.119
-536.164	491.286	-0.092	-0.210
-535.150	-200.000	-0.038	0.194
-534.135	800.000	-0.103	0.409
-533.121	236.535	0.147	-0.242
-532.106	-101.405	0.137	0.033
-531.091	146.688	0.192	-0.256
-530.077	-117.248	0.168	-0.030
-529.062	800.000	-0.111	-0.327
-528.048	-71.598	-0.208	-0.077
-527.033	-79.469	0.205	0.069
-526.018	-42.061	0.248	-0.126
-525.004	33.691	0.216	0.187
-523.989	-171.383	-0.132	0.004
-522.975	-33.829	-0.112	-0.061
-521.960	-69.167	-0.189	-0.072
-520.945	-38.032	-0.180	0.095
-519.931	261.725	0.087	0.149
-518.916	-67.542	0.109	0.042
-517.902	-148.906	0.121	-0.010
-516.887	702.257	0.018	0.046
-515.872	116.587	-0.104	-0.126
-514.858	-181.653	0.272	-0.005
-513.843	65.796	0.063	0.063
-512.829	76.162	0.079	-0.083
-511.814	-135.974	-0.279	0.033
-510.799	-69.624	-0.415	0.158
-509.785	487.641	-0.020	0.045
-508.770	-0.205	-0.127	0.089
-507.756	-200.000	-0.002	-0.112
-506.741	-200.000	0.011	-0.250
-505.726	763.271	0.122	-0.329
-504.712	160.413	0.087	-0.121
-503.697	160.998	-0.285	0.394
-502.683	800.000	0.051	0.184
-501.668	174.432	0.033	0.048
-500.653	800.000	-0.060	-0.246
-499.639	104.131	0.284	0.332
-498.624	-132.893	0.174	0.022
-497.610	395.662	0.093	-0.192
-496.595	800.000	0.053	-0.152
-495.581	-167.071	0.479	-0.019
-494.566	-200.000	-0.009	-0.308
-493.551	604.709	0.105	0.258
-492.537	-96.728	0.068	0.018
-491.522	473.518	-0.058	0.130
-490.508	478.409	0.101	0.226
-489.493	800.000	0.040	0.169
-488.478	403.801	0.010	-0.022
-487.464	117.760	0.080	0.097
-486.449	-102.200	0.164	-0.039
-485.435	372.116	0.082	-0.164
-484.420	206.695	0.138	0.213
-483.405	18.496	0.156	-0.124
-482.391	-7.135	-0.274	0.184
-481.376	-200.000	-0.046	-0.414
-480.362	-200.000	0.041	-0.338
-479.347	-200.000	-0.035	0.154
-478.332	-130.433	-0.305	0.041
-477.318	40.284	-0.044	-0.039
-476.303	-200.000	-0.009	0.238
-475.289	-82.255	0.043	0.014
-474.274	129.695	-0.075	0.095
-473.259	4.382	-0.488	-0.354
-472.245	153.216	0.338	-0.458
-471.230	450.057	0.115	-0.252
-470.216	300.232	0.049	-0.089
-469.201	-151.855	-0.101	0.007
-468.186	-136.223	0.206	0.024
-467.172	-79.637	0.194	0.065
-466.157	-200.000	-0.027	0.169
-465.143	-69.929	0.180	0.068
-464.128	-183.692	-0.273	-0.005
-463.113	166.308	0.236	-0.331
-462.099	-117.637	0.165	-0.029
-461.084	-64.691	-0.247	0.099
-460.070	-95.674	0.165	0.044
-459.055	183.366	-0.169	0.247
-458.040	-200.000	0.037	-0.199
-457.026	22.878	-0.142	0.115
-456.011	-51.906	-0.103	-0.047
-454.997	-62.387	-0.397	-0.164
-453.982	15.373	0.330	0.256
-452.968	800.000	-0.090	0.285
-451.953	-31.232	-0.018	0.010
-450.938	-24.561	-0.209	-0.123
-449.924	-200.000	0.025	-0.323
-448.909	26.685	0.220	0.182
-447.895	-14.665	0.159	-0.101
-446.880	-200.000	0.023	-0.385
-445.865	107.694	0.088	-0.104
-444.851	-177.868	-0.010	0.000
-443.836	-108.874	0.258	-0.055
-442.822	-200.000	0.035	-0.313
-441.807	58.127	0.316	0.306
-440.792	63.062	0.107	0.106
-439.778	-41.809	-0.159	-0.081
-438.763	744.560	0.073	0.195
-437.749	-81.603	-0.170	0.055
-436.734	-30.421	0.156	-0.088
-435.719	-50.102	0.252	-0.118
-434.705	566.135	-0.033	0.080
-433.690	58.372	-0.075	-0.073
-432.676	68.700	0.312	-0.317
-431.661	17.298	0.027	0.021
-430.646	121.834	-0.038	0.047
-429.632	-52.679	-0.254	0.116
-428.617	103.726	0.110	0.127
-427.603	800.000	-0.053	0.208
-426.588	800.000	0.131	0.543
-425.573	-108.369	0.257	0.055
-424.559	-200.000	-0.036	0.165
-423.544	-200.000	0.012	0.143
-422.530	-63.589	0.271	0.110
-421.515	-102.232	0.027	0.007
-420.500	187.884	0.174	-0.258
-419.486	762.241	0.070	0.187
-418.471	143.786	-0.231	-0.305
-417.457	302.506	-0.054	0.098
-416.442	-34.721	-0.305	0.165
-415.428	86.344	-0.170	-0.185
-414.413	-70.140	0.144	0.054
-413.398	-33.605	0.261	0.142
-412.384	-39.753	0.121	0.062
-411.369	-200.000	-0.233	0.001
-410.355	74.018	0.267	-0.277
-409.340	745.964	-0.077	-0.206
-408.325	-200.000	0.033	0.222
-407.311	-152.325	-0.231	-0.016
-406.296	-26.418	-0.146	-0.085
-405.282	82.582	-0.152	0.163
-404.267	800.000	0.072	0.238
-403.252	79.459	-0.131	0.138
-402.238	-39.430	0.374	0.194
-401.223	-200.000	-0.014	0.160
-400.209	-200.000	-0.015	0.224
-399.194	-22.084	0.168	0.101
-398.179	-166.648	0.310	0.013
-397.165	-200.000	0.019	-0.101
-396.150	-200.000	0.042	-0.218
-395.136	-104.260	0.201	-0.046
-394.121	-78.019	-0.464	0.158
-393.106	37.905	-0.182	-0.160
-392.092	-64.971	0.046	-0.018
-391.077	520.349	-0.052	-0.120
-390.063	36.092	-0.084	0.073
-389.048	-200.000	-0.024	0.271
-388.033	-28.330	-0.152	0.087
-387.019	800.000	0.078	-0.303
-386.004	800.000	0.167	0.455
-384.990	98.532	-0.107	-0.122
-383.975	-75.900	-0.240	0.084
-382.960	-128.071	0.054	0.008
-381.946	800.000	0.073	0.217
-380.931	114.204	0.149	0.178
-379.917	299.928	0.189	-0.345
-378.902	-200.000	0.072	-0.352
-377.888	800.000	-0.117	-0.398
-376.873	-200.000	-0.030	-0.305
-375.858	393.146	0.092	-0.189
-374.844	-200.000	0.010	-0.064
-373.829	-79.179	0.086	0.029
-372.815	800.000	0.047	-0.169
-371.800	-13.405	-0.211	0.135
-370.785	-29.748	-0.323	0.182
-369.771	-140.591	0.170	-0.017
-368.756	-200.000	-0.012	-0.095
-367.742	-200.000	0.021	-0.257
-366.727	-123.967	0.105	-0.016
-365.712	-200.000	-0.029	0.170
-364.698	-139.089	-0.104	0.011
-363.683	-44.453	0.086	-0.042
-362.669	-91.675	0.565	-0.159
-361.654	21.613	-0.051	0.041
-360.639	-6.856	-0.334	0.224
-359.625	23.043	-0.103	0.084
-358.610	-150.272	-0.123	-0.009
-357.596	-166.500	-0.016	-0.001
-356.581	18.104	-0.228	-0.180
-355.566	-34.783	0.199	0.107
-354.552	281.849	0.062	-0.110
-353.537	-102.588	0.257	0.061
-352.523	-19.833	0.263	0.160
-351.508	-9.108	0.293	-0.193
-350.493	338.528	0.136	0.261
-349.479	-200.000	0.080	-0.361
-348.464	-42.531	0.241	0.121
-347.450	321.980	-0.077	0.145
-346.435	-147.068	-0.214	0.018
-345.420	474.820	-0.093	0.206
-344.406	-80.012	-0.075	0.025
-343.391	-200.000	0.000	0.211
-342.377	186.505	0.127	0.187
-341.362	7.676	0.250	0.184
-340.348	-88.034	0.312	-0.092
-339.333	42.662	-0.209	-0.188
-338.318	-20.942	0.246	-0.149
-337.304	-200.000	0.018	0.185
-336.289	-200.000	0.023	-0.101
-335.275	-112.209	0.162	-0.032
-334.260	-75.086	-0.187	0.066
-333.245	78.185	-0.165	0.173
-332.231	-200.000	-0.023	-0.142
-331.216	-120.170	0.219	0.037
-330.202	30.963	0.150	0.127
-329.187	-200.000	0.039	0.187
-328.172	-200.000	0.027	-0.273
-327.158	44.876	-0.184	0.167
-326.143	10.168	0.113	-0.085
-325.129	-60.857	0.093	-0.039
-324.114	124.350	-0.080	-0.099
-323.099	-38.044	0.184	-0.096
-322.085	268.934	-0.136	-0.234
-321.070	-77.469	-0.098	-0.034
-320.056	-200.000	0.005	0.148
-319.041	177.760	0.106	0.152
-318.026	176.423	-0.140	0.201
-317.012	-98.979	-0.036	0.009
-315.997	237.997	0.060	-0.098
-314.983	-114.936	0.078	0.015
-313.968	-35.644	-0.312	0.167
-312.953	90.776	0.212	0.234
-311.939	150.189	0.097	0.130
-310.924	528.618	-0.070	-0.161
-309.910	182.779	-0.132	-0.191
-308.895	-115.237	-0.133	-0.025
-307.880	-200.000	0.005	-0.101
-306.866	-121.215	0.296	0.049
-305.851	87.327	0.199	0.216
-304.837	-48.876	0.181	0.086
-303.822	-200.000	-0.016	0.325
-302.807	452.194	-0.148	-0.321
-301.793	-44.321	0.264	-0.130
-300.778	-200.000	-0.012	0.119
-299.764	36.796	0.056	0.049
-298.749	-20.129	-0.255	0.154
-297.735	94.468	-0.193	-0.215
-296.720	270.570	0.176	0.304
-295.705	-20.771	-0.034	0.020
-294.691	-94.195	0.079	0.021
-293.676	-89.478	0.187	-0.054
-292.662	201.791	0.150	-0.227
-291.647	259.261	0.057	0.097
-290.632	186.589	-0.159	0.233
-289.618	-165.235	-0.228	0.010
-288.603	-200.000	-0.023	-0.165
-287.589	-200.000	-0.041	0.349
-286.574	138.602	-0.210	-0.272
-285.559	342.688	0.134	0.258
-284.545	-117.593	-0.367	-0.065
-283.530	-200.000	0.052	-0.396
-282.516	-38.472	-0.053	-0.027
-281.501	76.907	0.225	0.235
-280.486	-99.728	-0.225	0.055
-279.472	800.000	0.080	0.268
-278.457	97.525	-0.218	-0.246
-277.443	800.000	0.047	-0.144
-276.428	-200.000	0.024	-0.239
-275.413	418.660	-0.106	0.223
-274.399	-162.719	-0.307	0.015
-273.384	800.000	-0.062	-0.230
-272.370	-146.990	0.216	0.018
-271.355	82.846	0.081	0.087
-270.340	441.541	0.136	-0.292
-269.326	154.801	0.089	0.120
-268.311	-62.393	-0.046	-0.019
-267.297	-51.168	-0.239	0.110
-266.282	-8.513	0.266	-0.176
-265.267	-120.668	-0.179	0.030
-264.253	800.000	0.090	-0.282
-263.238	800.000	-0.048	0.201
-262.224	800.000	-0.075	-0.247
-261.209	-34.011	0.123	-0.066
-260.195	107.256	0.174	-0.204
-259.180	73.904	0.072	-0.074
-258.165	800.000	0.061	-0.183
-257.151	800.000	-0.083	0.271
-256.136	69.226	0.271	0.274
-255.122	800.000	-0.118	0.439
-254.107	-67.558	-0.461	0.177
-253.092	621.136	0.138	-0.341
-252.078	-200.000	0.000	-0.181
-251.063	-200.000	-0.028	-0.188
-250.049	-57.060	0.156	-0.068
-249.034	9.257	0.043	-0.032
-248.019	575.243	0.061	0.147
-247.005	800.000	0.035	0.122
-245.990	166.017	-0.193	0.268
-244.976	274.989	0.139	0.242
-243.961	76.351	0.075	-0.078
-242.946	-200.000	0.029	0.173
-241.932	306.385	-0.089	0.162
-240.917	62.119	-0.215	0.210
-239.903	-25.810	-0.080	-0.046
-238.888	-200.000	-0.015	0.182
-237.873	112.625	-0.102	0.121
-236.859	318.845	-0.107	-0.200
-235.844	-59.872	0.274	-0.115
-234.830	-200.000	-0.004	-0.193
-233.815	-7.717	0.313	-0.207
-232.800	2.557	-0.331	-0.236
-231.786	-159.967	-0.228	-0.012
-230.771	260.759	-0.036	-0.061
-229.757	-200.000	0.000	0.060
-228.742	800.000	0.115	-0.444
-227.727	-18.513	-0.323	0.198
-226.713	-109.054	-0.219	0.046
-225.698	-67.101	-0.085	0.033
-224.684	198.025	0.267	0.400
-223.669	800.000	-0.040	-0.165
-222.655	800.000	-0.061	0.190
-221.640	111.717	-0.304	0.359
-220.625	-200.000	-0.074	0.405
-219.611	-200.000	0.011	0.049
-218.596	-168.627	-0.096	-0.004
-217.582	-112.804	-0.031	0.006
-216.567	171.920	-0.080	0.112
-215.552	450.567	0.099	-0.214
-214.538	-46.525	-0.016	-0.008
-213.523	800.000	-0.032	0.096
-212.509	-149.962	0.276	-0.021
-211.494	-61.940	-0.203	0.083
-210.479	-99.033	0.216	-0.054
-209.465	-38.729	0.193	0.100
-208.450	-9.399	0.407	-0.266
-207.436	-129.172	0.376	0.051
-206.421	-200.000	0.017	-0.154
-205.406	355.475	0.119	0.233
-204.392	-174.508	-0.295	0.008
-203.377	-142.153	-0.228	-0.022
-202.363	272.928	-0.068	-0.118
-201.348	-110.854	0.222	0.045
-200.333	-153.483	-0.238	-0.016
-199.319	800.000	-0.100	0.328
-198.304	-100.260	0.179	-0.043
-197.290	-76.673	0.179	-0.062
-196.275	-105.455	0.278	0.062
-195.260	-60.630	0.261	0.108
-194.246	-200.000	0.015	0.231
-193.231	-200.000	-0.008	0.111
-192.217	-0.343	-0.127	-0.088
-191.202	-125.418	-0.139	-0.021
-190.187	157.659	-0.080	0.109
-189.173	23.385	-0.099	-0.080
-188.158	208.013	0.160	0.245
-187.144	-56.884	-0.382	0.165
-186.129	115.235	-0.138	-0.164
-185.114	-200.000	-0.002	0.207
-184.100	212.512	-0.055	0.086
-183.085	32.713	-0.253	0.215
-182.071	-82.506	-0.136	-0.043
-181.056	760.461	0.120	-0.319
-180.042	-144.014	0.347	-0.032
-179.027	-140.457	-0.308	0.031
-178.012	102.857	0.134	-0.154
-176.998	-109.595	-0.140	0.029
-175.983	-200.000	-0.001	0.050
-174.969	-166.019	-0.115	-0.005
-173.954	7.560	0.249	0.182
-172.939	138.691	-0.096	0.123
-171.925	8.311	0.114	-0.084
-170.910	274.842	-0.119	-0.206
-169.896	184.449	-0.100	0.145
-168.881	-87.893	0.256	0.075
-167.866	-102.662	-0.489	0.114
-166.852	76.763	0.090	0.093
-165.837	9.799	-0.314	0.233
-164.823	655.880	0.109	0.274
-163.808	-200.000	-0.006	-0.194
-162.793	-67.110	0.196	-0.076
-161.779	-69.665	-0.085	0.032
-160.764	-200.000	-0.049	0.212
-159.750	-66.625	0.358	0.139
-158.735	-200.000	-0.023	0.173
-157.720	-118.429	-0.332	0.058
-156.706	-114.189	-0.093	0.018
-155.691	-61.020	0.031	-0.013
-154.677	-43.857	-0.419	-0.206
-153.662	-200.000	-0.025	-0.129
-152.647	-59.808	0.072	0.030
-151.633	-52.848	-0.343	0.155
-150.618	-117.097	0.342	0.061
-149.604	220.009	0.058	0.091
-148.589	-122.117	0.129	-0.021
-147.574	147.165	-0.080	0.105
-146.560	-200.000	0.073	-0.362
-145.545	-114.611	-0.282	-0.053
-144.531	-28.349	0.422	0.238
-143.516	800.000	0.026	0.086
-142.502	-200.000	-0.013	0.188
-141.487	800.000	0.069	0.222
-140.472	-200.000	-0.027	0.221
-139.458	-0.189	-0.423	-0.294
-138.443	-200.000	-0.017	0.173
-137.429	-21.750	0.104	0.062
-136.414	25.835	0.144	0.117
-135.399	-33.345	0.274	-0.148
-134.385	477.887	-0.089	0.197
-133.370	-157.063	0.141	0.008
-132.356	-101.142	-0.135	0.032
-131.341	464.880	-0.156	0.342
-130.326	477.607	-0.094	0.207
-129.312	-122.979	-0.468	0.074
-128.297	-9.725	0.310	0.201
-127.283	35.887	0.190	-0.164
-126.268	-107.212	0.202	-0.044
-125.253	-154.938	-0.076	-0.005
-124.239	272.519	0.129	0.223
-123.224	81.162	0.053	-0.056
-122.210	-136.433	0.122	0.014
-121.195	535.558	0.097	-0.224
