DTS Sentinel unit serial number:	SN413079Multiplexer serial number:	ORYXHardware model number:	OX4-SRSoftware version number:	ORYX F/W v4.00 Oryx Data Collector v3.7.2.0data status	okinstallation	princeton_trtdifferential loss correction	single-endedforward channel	channel 3reverse channel	N/Adate	2019/09/18time	13:28:35forward acquisition time	60.00reverse acquisition time	0.00gamma	496.2192k internal	0.2311k external	0.2311temperature offset calibration	0.9974default loss term (dB/km)	0.3790temperature slope calibration	1.0000multiplexer offset coefficient	1.0000multiplexer slope coefficient	1.0000fibre end	0.00T internal ref (°C)	34.19T ext. ref 1 (°C)	0.62T ext. ref 2 (°C)	30.52length (m)	temperature (°C)	Stokes	anti-Stokes-747.200	-174.345	-0.085	-0.002
-746.185	231.797	-0.060	0.100
-745.171	51.976	-0.098	0.095
-744.156	258.870	0.101	0.176
-743.142	-200.000	-0.028	0.160
-742.127	-88.310	0.194	0.059
-741.112	52.035	0.039	0.038
-740.098	126.375	0.152	0.195
-739.083	-200.000	-0.004	-0.066
-738.069	-102.896	-0.440	0.106
-737.054	348.591	0.034	0.067
-736.039	121.796	0.283	-0.358
-735.025	-72.510	0.205	0.077
-734.010	582.952	-0.136	0.340
-732.996	236.096	-0.157	-0.263
-731.981	232.221	-0.042	0.070
-730.966	297.261	0.177	-0.330
-729.952	211.835	0.158	-0.252
-728.937	515.534	0.211	-0.500
-727.923	120.031	-0.112	-0.141
-726.908	301.093	-0.123	0.230
-725.894	28.385	-0.226	-0.194
-724.879	-200.000	-0.080	-0.392
-723.864	111.648	-0.124	0.152
-722.850	255.387	-0.152	0.264
-721.835	378.423	0.028	0.059
-720.821	75.507	0.218	-0.234
-719.806	800.000	0.083	-0.338
-718.791	-91.694	0.259	0.075
-717.777	-69.545	-0.399	0.155
-716.762	-200.000	-0.022	0.192
-715.748	800.000	-0.062	0.204
-714.733	-173.468	-0.246	-0.008
-713.718	59.965	-0.226	-0.227
-712.704	-177.921	0.142	0.003
-711.689	800.000	0.131	0.524
-710.675	-13.716	0.089	0.058
-709.660	121.966	0.225	0.284
-708.645	1.359	-0.304	0.222
-707.631	102.773	-0.333	0.395
-706.616	-0.324	-0.260	-0.188
-705.602	64.024	-0.072	-0.074
-704.587	10.608	-0.264	0.204
-703.572	-59.063	-0.119	0.052
-702.558	348.894	-0.017	0.034
-701.543	800.000	-0.077	0.284
-700.529	-37.039	-0.015	-0.008
-699.514	-200.000	-0.027	0.123
-698.499	85.392	0.128	-0.142
-697.485	-58.765	0.110	0.048
-696.470	799.712	-0.051	0.142
-695.456	-200.000	-0.000	-0.304
-694.441	244.113	-0.208	0.354
-693.426	-200.000	0.022	0.209
-692.412	15.877	0.085	0.068
-691.397	-200.000	-0.018	0.129
-690.383	161.835	-0.135	0.192
-689.368	-6.553	-0.083	-0.057
-688.354	136.386	0.128	-0.169
-687.339	47.669	0.274	0.259
-686.324	-16.457	0.361	0.232
-685.310	-55.743	0.197	-0.089
-684.295	16.526	0.069	-0.055
-683.281	131.660	-0.146	-0.191
-682.266	-15.101	0.231	-0.150
-681.251	503.181	0.077	-0.180
-680.237	39.468	-0.277	-0.251
-679.222	-105.228	-0.103	-0.024
-678.208	-26.673	0.046	-0.027
-677.193	22.510	0.018	0.015
-676.178	-159.740	0.022	0.001
-675.164	586.900	0.097	0.242
-674.149	-191.383	0.090	0.001
-673.135	800.000	-0.070	-0.198
-672.120	493.693	0.088	0.204
-671.105	-108.958	-0.228	0.049
-670.091	-24.965	-0.286	0.172
-669.076	-200.000	-0.060	-0.269
-668.062	689.909	0.027	-0.073
-667.047	149.027	-0.127	0.174
-666.032	-200.000	-0.036	-0.238
-665.018	-191.244	-0.176	-0.002
-664.003	-200.000	0.027	0.208
-662.989	54.006	0.271	0.263
-661.974	123.562	0.113	0.143
-660.959	362.734	0.150	-0.305
-659.945	-44.198	-0.161	0.081
-658.930	-200.000	-0.029	-0.210
-657.916	800.000	-0.087	-0.376
-656.901	-75.909	-0.261	-0.094
-655.886	-200.000	0.016	-0.125
-654.872	-108.438	-0.162	0.035
-653.857	-94.456	0.290	0.080
-652.843	-23.883	-0.115	-0.070
-651.828	-200.000	-0.016	0.245
-650.814	-94.828	-0.220	-0.060
-649.799	-126.927	-0.440	-0.066
-648.784	290.643	0.033	-0.061
-647.770	-27.390	0.218	-0.128
-646.755	-200.000	-0.010	0.102
-645.741	-166.420	-0.158	0.007
-644.726	-200.000	0.004	0.025
-643.711	-84.929	-0.026	0.008
-642.697	-83.381	-0.172	0.056
-641.682	-136.332	0.208	0.025
-640.668	-44.453	-0.148	-0.075
-639.653	-172.555	-0.112	0.004
-638.638	106.077	-0.232	-0.277
-637.624	-143.300	-0.133	0.013
-636.609	158.822	-0.074	0.105
-635.595	60.676	0.282	0.283
-634.580	180.807	-0.330	0.490
-633.565	64.812	-0.109	-0.111
-632.551	-41.043	-0.478	-0.250
-631.536	138.227	0.164	0.218
-630.522	79.243	0.157	-0.170
-629.507	800.000	0.054	-0.221
-628.492	-124.138	0.130	0.021
-627.478	16.268	0.291	-0.232
-626.463	-126.695	-0.265	-0.040
-625.449	-152.513	-0.236	0.017
-624.434	25.253	0.202	-0.170
-623.419	-200.000	0.011	-0.253
-622.405	-127.593	-0.157	-0.023
-621.390	173.072	0.174	0.253
-620.376	126.218	0.084	0.108
-619.361	716.566	-0.161	0.433
-618.346	111.272	-0.146	0.178
-617.332	-109.652	0.174	0.037
-616.317	-105.954	-0.298	-0.068
-615.303	-131.061	0.068	-0.009
-614.288	-133.572	0.219	-0.028
-613.273	126.667	0.125	0.160
-612.259	-74.429	0.217	-0.079
-611.244	-200.000	0.061	0.309
-610.230	-64.591	-0.027	0.011
-609.215	83.374	0.077	-0.085
-608.201	-200.000	0.002	0.185
-607.186	-136.809	0.291	0.034
-606.171	-200.000	-0.043	-0.247
-605.157	12.294	-0.344	-0.267
-604.142	-137.438	0.093	-0.011
-603.128	-5.905	-0.359	-0.248
-602.113	-200.000	-0.003	0.132
-601.098	-50.190	-0.185	-0.088
-600.084	4.879	0.352	0.261
-599.069	-200.000	-0.025	-0.377
-598.055	-34.814	0.185	0.102
-597.040	800.000	0.140	-0.417
-596.025	-200.000	0.025	-0.237
-595.011	-194.164	0.266	-0.002
-593.996	56.159	0.043	-0.042
-592.982	-136.304	-0.182	0.021
-591.967	-42.831	0.485	0.249
-590.952	-112.526	-0.291	-0.059
-589.938	17.049	0.217	0.174
-588.923	-102.092	-0.194	0.047
-587.909	199.245	-0.139	-0.216
-586.894	565.395	0.071	-0.175
-585.879	-38.849	0.216	0.115
-584.865	-98.398	0.103	-0.027
-583.850	729.495	-0.034	-0.092
-582.836	23.397	-0.059	-0.049
-581.821	-47.242	-0.071	-0.035
-580.806	-94.378	-0.362	0.100
-579.792	-200.000	0.000	-0.041
-578.777	460.056	0.097	0.219
-577.763	480.746	0.110	-0.251
-576.748	234.134	-0.115	-0.192
-575.733	-167.810	-0.206	-0.008
-574.719	314.446	0.088	-0.167
-573.704	-86.831	-0.183	0.056
-572.690	5.477	-0.221	0.165
-571.675	83.346	0.147	0.162
-570.661	-200.000	0.008	0.246
-569.646	-15.809	-0.311	-0.199
-568.631	724.461	0.028	-0.076
-567.617	-81.816	-0.271	-0.089
-566.602	327.651	0.081	-0.156
-565.588	-120.967	-0.187	-0.032
-564.573	83.775	0.073	0.081
-563.558	790.067	0.040	0.110
-562.544	179.578	0.222	-0.328
-561.529	123.806	0.046	0.058
-560.515	-200.000	0.027	-0.185
-559.500	800.000	0.091	-0.271
-558.485	-200.000	-0.021	0.150
-557.471	-200.000	0.012	0.141
-556.456	48.499	-0.080	-0.076
-555.442	676.757	0.039	-0.101
-554.427	254.237	-0.022	0.038
-553.412	109.648	-0.289	0.348
-552.398	305.961	-0.041	-0.076
-551.383	-20.365	0.071	-0.044
-550.369	231.013	-0.070	-0.116
-549.354	-200.000	-0.064	0.382
-548.339	-26.078	-0.204	-0.121
-547.325	800.000	0.047	-0.153
-546.310	-75.037	-0.315	0.114
-545.296	98.289	-0.145	-0.168
-544.281	-136.895	0.229	0.026
-543.266	-41.035	0.056	-0.029
-542.252	-200.000	0.026	-0.144
-541.237	85.346	-0.219	0.242
-540.223	-19.429	0.180	0.112
-539.208	800.000	-0.069	-0.246
-538.193	46.490	-0.141	-0.131
-537.179	-97.875	0.107	-0.028
-536.164	34.758	0.258	0.227
-535.150	131.386	-0.147	0.190
-534.135	-200.000	0.016	-0.233
-533.121	36.971	-0.148	-0.132
-532.106	-73.485	0.279	-0.102
-531.091	-54.270	-0.208	0.095
-530.077	72.200	-0.064	-0.067
-529.062	29.026	-0.194	0.166
-528.048	-109.276	-0.138	-0.029
-527.033	-191.368	0.193	-0.002
-526.018	97.363	0.027	0.031
-525.004	-140.654	0.556	-0.058
-523.989	-200.000	0.025	-0.117
-522.975	105.654	-0.127	-0.151
-521.960	-101.097	0.114	-0.028
-520.945	-68.956	0.170	0.066
-519.931	70.995	0.080	-0.083
-518.916	12.761	0.100	0.077
-517.902	-134.137	-0.357	-0.044
-516.887	21.683	-0.154	-0.126
-515.872	341.393	0.188	-0.370
-514.858	-200.000	-0.074	0.540
-513.843	-56.218	0.196	-0.088
-512.829	-118.828	-0.085	0.015
-511.814	208.385	-0.143	0.225
-510.799	800.000	0.040	-0.175
-509.785	11.509	-0.308	0.238
-508.770	-60.883	-0.237	-0.101
-507.756	-98.710	0.165	0.042
-506.741	800.000	-0.077	0.248
-505.726	225.918	-0.086	-0.140
-504.712	661.472	0.155	-0.402
-503.697	267.280	-0.111	-0.196
-502.683	-200.000	0.078	-0.449
-501.668	228.586	0.071	-0.116
-500.653	-67.924	0.103	-0.041
-499.639	-110.614	0.193	0.040
-498.624	-106.970	0.120	-0.027
-497.610	-65.906	-0.233	-0.093
-496.595	5.003	-0.181	-0.134
-495.581	-17.162	-0.366	0.232
-494.566	1.796	0.142	-0.103
-493.551	617.278	-0.097	0.246
-492.537	252.594	0.163	0.279
-491.522	-93.892	0.322	0.089
-490.508	389.404	0.058	0.121
-489.493	-3.438	0.395	0.277
-488.478	-101.008	-0.302	0.074
-487.464	800.000	-0.043	-0.155
-486.449	-51.440	0.334	-0.157
-485.435	155.810	0.026	-0.036
-484.420	-14.642	0.228	0.147
-483.405	-57.897	0.163	0.071
-482.391	-129.332	-0.243	0.034
-481.376	182.133	-0.119	-0.177
-480.362	-127.539	0.092	0.013
-479.347	-200.000	-0.078	0.481
-478.332	-1.591	0.193	0.137
-477.318	34.030	-0.266	-0.233
-476.303	94.829	-0.406	-0.464
-475.289	-64.530	0.079	0.032
-474.274	800.000	0.073	-0.253
-473.259	800.000	-0.031	0.108
-472.245	-200.000	0.007	0.081
-471.230	104.281	-0.097	0.115
-470.216	110.387	-0.073	-0.088
-469.201	80.691	-0.089	-0.097
-468.186	800.000	-0.010	0.033
-467.172	-154.577	-0.153	0.010
-466.157	-50.657	-0.385	-0.182
-465.143	378.999	0.076	0.156
-464.128	-72.244	-0.228	0.085
-463.113	-72.726	-0.238	-0.088
-462.099	-78.831	-0.157	0.054
-461.084	-50.996	-0.187	-0.088
-460.070	-174.324	0.175	-0.005
-459.055	83.513	-0.062	0.067
-458.040	250.425	-0.042	-0.072
-457.026	-87.407	-0.204	0.062
-456.011	-82.036	0.343	-0.113
-454.997	166.048	0.051	-0.072
-453.982	134.437	0.106	0.137
-452.968	33.464	-0.313	0.273
-451.953	-159.185	-0.125	0.007
-450.938	-75.661	-0.179	-0.064
-449.924	-132.129	0.235	-0.031
-448.909	614.400	-0.092	-0.231
-447.895	-70.888	0.201	-0.076
-446.880	-45.892	-0.211	-0.104
-445.865	800.000	-0.016	0.058
-444.851	800.000	0.044	0.172
-443.836	459.431	0.063	0.140
-442.822	31.486	0.213	0.184
-441.807	-200.000	-0.013	0.198
-440.792	-48.464	0.388	0.188
-439.778	800.000	0.051	-0.149
-438.763	-200.000	0.077	0.366
-437.749	-138.361	0.175	-0.019
-436.734	-96.719	-0.188	0.050
-435.719	-192.218	-0.300	-0.003
-434.705	65.925	0.086	-0.088
-433.690	800.000	0.043	-0.187
-432.676	23.738	-0.116	0.096
-431.661	540.722	0.129	0.308
-430.646	209.551	-0.106	-0.166
-429.632	142.056	-0.131	-0.174
-428.617	-107.357	0.067	0.015
-427.603	109.038	-0.098	0.118
-426.588	168.886	0.149	-0.213
-425.573	377.071	0.079	0.161
-424.559	261.590	0.201	-0.348
-423.544	554.957	0.044	0.105
-422.530	-62.640	-0.112	0.046
-421.515	800.000	-0.129	0.361
-420.500	171.651	0.099	0.143
-419.486	-53.080	-0.261	-0.120
-418.471	-200.000	-0.020	0.120
-417.457	-34.653	-0.170	0.093
-416.442	800.000	0.039	-0.125
-415.428	-71.208	-0.155	-0.058
-414.413	-42.226	-0.237	-0.121
-413.398	-84.467	0.100	0.032
-412.384	-86.385	0.249	0.077
-411.369	-200.000	0.020	0.091
-410.355	376.363	0.143	0.293
-409.340	-200.000	0.042	0.274
-408.325	69.938	0.115	-0.119
-407.311	-51.192	-0.241	0.113
-406.296	-86.612	-0.112	0.034
-405.282	-200.000	0.006	0.073
-404.267	800.000	0.023	-0.076
-403.252	-79.971	-0.021	0.007
-402.238	10.065	-0.227	-0.173
-401.223	6.826	0.191	0.142
-400.209	42.534	0.045	0.041
-399.194	-32.880	-0.052	-0.029
-398.179	-17.079	0.101	0.064
-397.165	-100.703	0.301	-0.074
-396.150	800.000	0.018	-0.064
-395.136	800.000	-0.083	-0.238
-394.121	-61.870	-0.128	-0.054
-393.106	408.352	0.116	0.246
-392.092	684.546	-0.074	0.194
-391.077	-12.544	0.042	0.028
-390.063	-25.498	-0.116	0.069
-389.048	800.000	0.074	0.276
-388.033	244.791	-0.194	0.326
-387.019	80.479	-0.115	-0.124
-386.004	-200.000	0.001	-0.023
-384.990	-84.504	0.123	0.039
-383.975	582.051	-0.109	0.267
-382.960	-37.168	0.372	0.199
-381.946	759.660	0.072	0.195
-380.931	-200.000	-0.018	0.179
-379.917	232.368	0.098	0.162
-378.902	-51.221	0.030	0.014
-377.888	143.018	-0.097	-0.129
-376.873	-200.000	0.004	-0.048
-375.858	411.806	0.116	0.246
-374.844	246.997	0.231	-0.390
-373.829	136.099	0.213	-0.277
-372.815	160.738	0.140	-0.196
-371.800	-200.000	-0.014	0.398
-370.785	-200.000	0.013	-0.211
-369.771	-65.664	-0.260	0.104
-368.756	-75.031	-0.344	0.123
-367.742	-85.587	-0.261	-0.081
-366.727	105.004	0.104	0.123
-365.712	151.472	-0.030	0.040
-364.698	616.907	0.059	0.148
-363.683	129.011	0.218	0.278
-362.669	-63.867	0.184	-0.075
-361.654	800.000	0.049	0.202
-360.639	132.141	-0.237	0.305
-359.625	-52.530	0.126	-0.058
-358.610	-104.844	-0.219	0.050
-357.596	-105.953	-0.213	-0.048
-356.581	390.855	0.063	-0.131
-355.566	-28.423	0.016	-0.009
-354.552	-200.000	0.026	-0.159
-353.537	-7.719	0.430	-0.290
-352.523	800.000	-0.095	0.281
-351.508	145.482	-0.084	0.112
-350.493	-115.192	-0.126	-0.024
-349.479	-200.000	0.004	0.019
-348.464	162.757	0.183	-0.256
-347.450	-114.923	0.470	0.089
-346.435	-89.239	0.402	0.119
-345.420	131.449	-0.060	-0.077
-344.406	97.181	0.104	-0.120
-343.391	26.753	-0.061	-0.051
-342.377	258.318	-0.085	0.147
-341.362	-43.159	-0.160	0.081
-340.348	-128.835	-0.307	-0.043
-339.333	-9.578	-0.197	0.131
-338.318	-29.669	-0.190	0.109
-337.304	16.495	0.247	-0.195
-336.289	-200.000	-0.016	0.117
-335.275	262.114	0.140	0.243
-334.260	800.000	-0.077	-0.229
-333.245	272.092	0.094	0.165
-332.231	-183.057	-0.186	-0.003
-331.216	-55.570	-0.311	0.139
-330.202	-79.554	-0.165	-0.056
-329.187	-200.000	0.005	-0.347
-328.172	-33.579	0.354	-0.195
-327.158	-100.939	-0.141	-0.035
-326.143	249.858	-0.171	0.290
-325.129	-94.496	-0.190	-0.052
-324.114	28.294	-0.224	-0.189
-323.099	-97.207	-0.196	0.051
-322.085	-200.000	-0.034	-0.329
-321.070	800.000	0.032	0.116
-320.056	800.000	0.164	-0.475
-319.041	501.763	-0.047	0.108
-318.026	77.570	0.092	-0.098
-317.012	53.777	-0.152	-0.146
-315.997	-200.000	0.020	-0.114
-314.983	-200.000	0.027	-0.268
-313.968	-95.779	0.148	-0.039
-312.953	-4.995	-0.113	0.078
-311.939	-84.047	0.315	-0.100
-310.924	14.359	0.119	-0.093
-309.910	352.211	-0.096	-0.189
-308.895	-200.000	0.041	-0.211
-307.880	-200.000	0.000	0.151
-306.866	-113.754	0.047	-0.009
-305.851	-200.000	0.057	-0.434
-304.837	280.706	0.096	-0.171
-303.822	-200.000	-0.059	0.332
-302.807	-60.685	-0.084	0.035
-301.793	167.746	-0.153	-0.217
-300.778	317.878	-0.083	-0.156
-299.764	-143.360	-0.319	-0.030
-298.749	-83.547	0.015	0.005
-297.735	800.000	-0.134	-0.410
-296.720	-75.178	-0.087	0.031
-295.705	-20.544	0.252	0.155
-294.691	-200.000	-0.040	-0.316
-293.676	-83.547	-0.072	0.023
-292.662	-71.061	-0.088	0.033
-291.647	-66.890	-0.259	0.102
-290.632	-80.334	-0.334	0.111
-289.618	-28.316	0.479	-0.276
-288.603	408.884	0.186	-0.393
-287.589	-78.495	0.067	0.023
-286.574	-138.788	-0.118	-0.013
-285.559	-7.135	0.160	-0.108
-284.545	-23.998	-0.065	0.039
-283.530	300.105	0.012	0.021
-282.516	-23.095	0.280	0.168
-281.501	-4.366	-0.207	0.143
-280.486	-200.000	-0.044	0.348
-279.472	800.000	-0.046	0.194
-278.457	-180.725	0.162	0.003
-277.443	43.508	-0.213	-0.194
-276.428	-200.000	-0.012	0.143
-275.413	23.877	-0.048	0.040
-274.399	79.623	0.255	-0.273
-273.384	133.223	-0.137	0.177
-272.370	116.595	0.042	-0.051
-271.355	-108.195	0.210	0.045
-270.340	181.839	0.124	-0.182
-269.326	26.441	-0.065	-0.054
-268.311	-28.764	0.310	0.178
-267.297	-53.010	0.205	-0.094
-266.282	-115.127	0.251	0.048
-265.267	88.057	-0.052	0.058
-264.253	-164.448	-0.306	-0.014
-263.238	-91.249	0.057	-0.016
-262.224	-82.574	0.036	-0.012
-261.209	-200.000	-0.080	0.408
-260.195	-200.000	0.065	-0.343
-259.180	249.299	0.161	-0.272
-258.165	-5.711	0.349	-0.238
-257.151	592.000	0.069	-0.171
-256.136	194.449	-0.185	0.280
-255.122	-200.000	-0.034	-0.279
-254.107	-61.592	0.297	0.124
-253.092	-15.864	-0.328	-0.208
-252.078	356.950	-0.110	0.217
-251.063	-82.628	-0.142	-0.046
-250.049	-127.731	0.566	0.081
-249.034	-200.000	-0.054	0.273
-248.019	282.414	-0.033	0.059
-247.005	800.000	-0.013	0.057
-245.990	-4.665	-0.209	0.144
-244.976	-35.689	0.242	-0.131
-243.961	63.833	0.137	0.137
-242.946	-18.949	-0.308	0.191
-241.932	-54.147	-0.213	-0.096
-240.917	61.671	0.110	-0.109
-239.903	400.372	0.093	-0.195
-238.888	-200.000	-0.045	-0.244
-237.873	-200.000	0.042	0.418
-236.859	-116.672	-0.441	-0.081
-235.844	-22.866	0.218	-0.131
-234.830	-200.000	-0.004	0.148
-233.815	78.324	-0.006	-0.007
-232.800	800.000	0.087	0.257
-231.786	-200.000	0.034	0.281
-230.771	40.228	0.094	0.084
-229.757	-167.801	0.133	0.005
-228.742	-73.624	-0.261	-0.095
-227.727	139.183	0.103	-0.135
-226.713	223.859	0.084	0.135
-225.698	-115.123	0.222	-0.042
-224.684	29.346	0.376	-0.318
-223.669	-95.846	-0.172	-0.046
-222.655	-75.465	0.228	0.081
-221.640	-90.923	-0.195	-0.056
-220.625	152.145	0.102	0.138
-219.611	89.329	0.072	-0.080
-218.596	255.154	-0.128	-0.218
-217.582	-79.461	0.325	0.109
-216.567	-135.297	0.250	0.030
-215.552	16.956	0.145	-0.115
-214.538	-61.131	0.354	0.148
-213.523	26.179	0.045	-0.037
-212.509	299.323	0.094	-0.172
-211.494	376.987	-0.061	-0.124
-210.479	-138.040	0.337	0.037
-209.465	-200.000	-0.035	0.216
-208.450	304.159	0.059	0.108
-207.436	-0.683	0.238	-0.168
-206.421	738.232	0.078	0.207
-205.406	102.322	-0.129	0.149
-204.392	144.366	-0.093	0.124
-203.377	-60.536	0.059	0.025
-202.363	-200.000	0.011	0.325
-201.348	800.000	0.073	0.215
-200.333	800.000	0.067	-0.186
-199.319	305.313	0.036	0.067
-198.304	213.771	0.139	0.219
-197.290	520.214	-0.115	-0.268
-196.275	-46.930	-0.032	-0.015
-195.260	731.606	-0.097	-0.257
-194.246	800.000	-0.060	-0.228
-193.231	60.119	-0.223	0.219
-192.217	789.100	-0.031	-0.084
-191.202	800.000	-0.059	-0.211
-190.187	-1.863	0.239	-0.167
-189.173	211.856	0.162	0.253
-188.158	-200.000	-0.087	0.420
-187.144	-99.512	-0.159	-0.040
-186.129	-200.000	0.061	0.267
-185.114	-100.952	0.131	-0.032
-184.100	-138.579	0.156	-0.017
-183.085	13.344	-0.083	0.064
-182.071	-74.468	-0.303	0.108
-181.056	-102.883	0.209	0.049
-180.042	72.711	-0.175	0.182
-179.027	175.336	-0.038	0.054
-178.012	-177.913	-0.223	0.005
-176.998	-123.060	0.332	0.053
-175.983	57.430	-0.211	0.204
-174.969	-122.493	0.312	0.050
-173.954	-21.454	0.068	0.041
-172.939	2.936	-0.092	0.067
-171.925	53.788	-0.182	0.173
-170.910	-89.023	-0.196	-0.058
-169.896	466.968	-0.031	-0.069
-168.881	-27.979	-0.338	0.194
-167.866	800.000	-0.055	0.184
-166.852	-95.108	0.216	-0.058
-165.837	-7.410	0.137	0.092
-164.823	-200.000	-0.038	-0.290
-163.808	-15.670	0.301	-0.190
-162.793	10.286	-0.063	0.048
-161.779	676.734	0.059	-0.153
-160.764	800.000	-0.068	-0.225
-159.750	-188.793	0.077	-0.001
-158.735	246.054	-0.039	-0.065
-157.720	-200.000	-0.002	-0.366
-156.706	800.000	0.032	-0.128
-155.691	17.289	-0.161	0.127
-154.677	-43.017	-0.171	0.086
-153.662	93.646	0.115	-0.130
-152.647	-200.000	-0.008	-0.047
-151.633	-130.764	0.247	0.033
-150.618	171.026	-0.207	-0.294
-149.604	800.000	-0.070	-0.225
-148.589	385.037	0.121	0.248
-147.574	-46.153	0.358	0.175
-146.560	80.695	-0.341	-0.365
-145.545	147.664	0.093	0.125
-144.531	-6.185	0.130	0.088
-143.516	-92.829	-0.129	-0.036
-142.502	800.000	-0.032	-0.116
-141.487	-168.424	-0.393	0.015
-140.472	10.272	-0.068	-0.052
-139.458	16.934	0.225	0.177
-138.443	-32.069	0.104	-0.058
-137.429	-191.755	0.217	-0.002
-136.414	-200.000	-0.039	0.198
-135.399	-71.036	-0.253	-0.094
-134.385	43.200	-0.166	-0.150
-133.370	-92.019	-0.126	0.035
-132.356	-125.517	0.159	0.024
-131.341	0.911	-0.080	0.057
-130.326	-89.066	-0.235	0.069
-129.312	-41.390	-0.399	0.204
-128.297	-99.962	0.326	0.081
-127.283	800.000	-0.059	0.223
-126.268	-200.000	-0.026	0.128
-125.253	-200.000	-0.009	0.332
-124.239	-121.262	-0.323	-0.053
-123.224	-90.336	0.344	0.099
-122.210	-83.925	0.111	-0.035
-121.195	-33.151	-0.072	-0.040
-120.180	-15.965	0.182	-0.115
