DTS Sentinel unit serial number:	SN413079Multiplexer serial number:	ORYXHardware model number:	OX4-SRSoftware version number:	ORYX F/W v4.00 Oryx Data Collector v3.7.2.0data status	okinstallation	princeton_trtdifferential loss correction	single-endedforward channel	channel 3reverse channel	N/Adate	2019/09/14time	01:40:34forward acquisition time	60.00reverse acquisition time	0.00gamma	496.2192k internal	0.2340k external	0.2340temperature offset calibration	1.0053default loss term (dB/km)	0.3790temperature slope calibration	1.0000multiplexer offset coefficient	1.0000multiplexer slope coefficient	1.0000fibre end	0.00T internal ref (°C)	26.44T ext. ref 1 (°C)	3.21T ext. ref 2 (°C)	21.44length (m)	temperature (°C)	Stokes	anti-Stokes-747.200	11.838	-0.132	-0.102
-746.185	-200.000	0.020	0.278
-745.171	-200.000	-0.011	0.260
-744.156	279.525	-0.167	0.298
-743.142	106.641	-0.202	0.241
-742.127	-138.906	-0.090	-0.010
-741.112	-107.567	-0.017	-0.004
-740.098	-123.709	-0.225	0.036
-739.083	-174.967	0.242	-0.007
-738.069	40.417	-0.193	-0.174
-737.054	77.239	0.075	0.080
-736.039	-27.775	0.078	0.045
-735.025	-177.783	0.177	-0.004
-734.010	800.000	0.023	0.088
-732.996	321.406	0.201	-0.384
-731.981	-200.000	0.004	-0.190
-730.966	-1.856	-0.167	-0.118
-729.952	-29.043	-0.326	-0.187
-728.937	800.000	-0.057	-0.241
-727.923	29.062	-0.094	0.080
-726.908	-142.642	-0.372	-0.036
-725.894	-200.000	-0.054	-0.326
-724.879	-50.647	-0.133	0.063
-723.864	56.014	-0.254	-0.247
-722.850	-171.648	0.344	-0.011
-721.835	-200.000	0.005	0.254
-720.821	-80.380	-0.222	-0.074
-719.806	-200.000	0.003	0.153
-718.791	416.538	0.032	0.069
-717.777	-158.690	-0.055	-0.003
-716.762	-107.643	0.501	0.110
-715.748	-200.000	-0.028	-0.225
-714.733	412.632	0.221	-0.471
-713.718	-200.000	-0.030	-0.266
-712.704	-200.000	-0.024	-0.151
-711.689	-200.000	-0.082	-0.366
-710.675	200.167	0.141	-0.217
-709.660	-200.000	-0.028	-0.165
-708.645	-200.000	0.025	-0.203
-707.631	-54.828	-0.121	0.055
-706.616	-200.000	-0.008	-0.304
-705.602	26.217	-0.135	0.112
-704.587	800.000	0.072	0.204
-703.572	-67.860	-0.153	-0.060
-702.558	464.667	0.148	0.332
-701.543	76.981	-0.053	-0.056
-700.529	-184.728	0.104	0.002
-699.514	373.319	0.262	-0.534
-698.499	104.511	0.082	-0.097
-697.485	-170.724	-0.187	0.006
-696.470	91.374	-0.153	0.173
-695.456	695.246	0.089	-0.235
-694.441	-82.008	0.146	-0.048
-693.426	-200.000	0.035	-0.278
-692.412	197.595	0.117	-0.179
-691.397	-55.737	0.170	-0.076
-690.383	125.740	0.162	0.204
-689.368	57.098	0.032	-0.032
-688.354	52.903	-0.052	-0.050
-687.339	247.560	0.267	-0.451
-686.324	78.457	0.109	-0.117
-685.310	58.085	0.062	0.060
-684.295	-100.645	-0.355	-0.088
-683.281	-81.813	0.396	0.130
-682.266	-52.075	-0.251	0.117
-681.251	-36.757	0.244	0.131
-680.237	10.867	-0.247	0.189
-679.222	351.002	0.078	0.155
-678.208	-78.715	-0.204	-0.070
-677.193	227.340	-0.092	-0.150
-676.178	-200.000	-0.056	0.258
-675.164	22.038	-0.077	-0.063
-674.149	591.802	0.154	-0.379
-673.135	294.041	-0.123	-0.225
-672.120	270.107	-0.115	-0.202
-671.105	-200.000	-0.011	0.189
-670.091	-74.061	-0.253	-0.092
-669.076	265.613	-0.146	-0.254
-668.062	243.093	0.056	-0.094
-667.047	24.572	0.195	-0.161
-666.032	-200.000	-0.000	0.016
-665.018	-200.000	-0.028	0.184
-664.003	775.011	0.079	-0.216
-662.989	0.382	-0.369	-0.263
-661.974	-106.222	-0.420	-0.094
-660.959	28.735	0.120	0.102
-659.945	800.000	-0.097	-0.400
-658.930	-190.594	-0.159	0.002
-657.916	520.551	0.082	-0.193
-656.901	762.446	0.123	-0.335
-655.886	201.335	-0.119	-0.183
-654.872	67.016	-0.061	-0.062
-653.857	-52.413	-0.168	-0.078
-652.843	641.911	-0.066	-0.168
-651.828	-200.000	0.001	0.012
-650.814	118.404	0.083	-0.103
-649.799	21.182	0.250	-0.203
-648.784	592.002	0.067	0.165
-647.770	-154.890	0.469	0.031
-646.755	-87.229	0.252	-0.076
-645.741	2.171	0.133	-0.096
-644.726	-200.000	-0.035	0.415
-643.711	-102.100	-0.117	0.028
-642.697	-168.076	0.170	-0.007
-641.682	800.000	-0.073	-0.244
-640.668	-104.871	0.154	-0.035
-639.653	800.000	0.008	0.026
-638.638	-35.478	0.303	-0.165
-637.624	69.096	-0.011	-0.011
-636.609	-113.320	0.266	0.052
-635.595	179.348	0.097	-0.142
-634.580	4.074	-0.152	-0.111
-633.565	-37.351	-0.144	-0.077
-632.551	-12.536	0.102	0.067
-631.536	-200.000	0.087	0.434
-630.522	45.750	0.054	0.050
-629.507	-81.225	0.244	0.080
-628.492	-11.811	-0.324	-0.212
-627.478	-7.444	0.220	-0.148
-626.463	-121.276	-0.373	0.062
-625.449	613.093	0.043	-0.107
-624.434	800.000	0.037	-0.109
-623.419	414.609	-0.151	-0.320
-622.405	-144.691	0.396	-0.036
-621.390	-151.153	0.177	0.013
-620.376	62.379	-0.107	-0.107
-619.361	484.582	-0.110	-0.251
-618.346	333.278	0.071	0.137
-617.332	353.801	-0.149	-0.294
-616.317	-90.217	-0.227	0.066
-615.303	326.651	0.049	-0.094
-614.288	0.595	-0.129	0.092
-613.273	387.794	-0.129	-0.267
-612.259	-200.000	-0.060	-0.350
-611.244	-0.516	-0.026	0.019
-610.230	-109.991	0.280	-0.058
-609.215	-200.000	-0.004	-0.327
-608.201	-40.351	0.157	-0.081
-607.186	-58.150	-0.091	0.040
-606.171	-88.492	-0.506	0.151
-605.157	-200.000	0.043	-0.319
-604.142	209.646	0.106	0.166
-603.128	-200.000	0.016	-0.118
-602.113	23.361	0.050	-0.041
-601.098	800.000	0.046	0.172
-600.084	69.611	-0.172	-0.176
-599.069	60.482	-0.174	-0.172
-598.055	-156.558	0.262	0.016
-597.040	-30.380	0.208	-0.118
-596.025	-200.000	-0.028	-0.193
-595.011	800.000	-0.056	0.223
-593.996	-156.821	-0.262	-0.016
-592.982	-12.360	-0.193	-0.126
-591.967	-76.926	-0.097	0.034
-590.952	320.766	-0.105	-0.198
-589.938	-200.000	0.003	-0.212
-588.923	-101.757	-0.129	-0.031
-587.909	92.837	0.173	-0.195
-586.894	-200.000	-0.023	-0.100
-585.879	489.763	0.167	0.380
-584.865	-200.000	-0.004	-0.041
-583.850	-200.000	0.042	-0.293
-582.836	-176.699	0.366	-0.009
-581.821	-21.645	0.213	-0.129
-580.806	-113.822	-0.273	0.053
-579.792	-67.441	-0.161	0.063
-578.777	-70.198	-0.059	0.022
-577.763	800.000	0.052	-0.168
-576.748	-200.000	-0.036	-0.218
-575.733	144.380	0.040	0.053
-574.719	-85.731	-0.394	-0.122
-573.704	-78.838	-0.284	0.096
-572.690	-200.000	0.001	0.019
-571.675	-27.453	-0.149	0.086
-570.661	-97.325	0.182	0.047
-569.646	800.000	0.064	0.276
-568.631	239.195	-0.100	0.166
-567.617	800.000	0.093	0.291
-566.602	800.000	-0.029	0.111
-565.588	-104.529	0.233	-0.054
-564.573	-200.000	-0.024	-0.285
-563.558	-200.000	0.007	0.123
-562.544	-162.205	0.181	-0.009
-561.529	384.790	0.008	-0.017
-560.515	-200.000	0.149	-0.000
-559.500	-200.000	-0.070	-0.334
-558.485	-82.972	0.166	0.053
-557.471	-200.000	-0.022	0.190
-556.456	227.771	-0.055	-0.088
-555.442	-0.195	0.331	-0.234
-554.427	-72.082	-0.133	-0.049
-553.412	327.508	-0.153	0.291
-552.398	-26.496	0.425	-0.248
-551.383	-35.666	0.008	-0.004
-550.369	-100.356	0.024	-0.006
-549.354	-109.781	0.260	-0.054
-548.339	492.598	0.080	-0.183
-547.325	-140.222	0.378	0.039
-546.310	-141.665	-0.231	0.023
-545.296	51.866	0.407	-0.385
-544.281	-33.635	-0.220	-0.121
-543.266	58.352	-0.071	0.069
-542.252	239.532	0.097	-0.161
-541.237	-141.111	0.117	-0.012
-540.223	71.049	-0.107	0.111
-539.208	-6.139	0.172	0.117
-538.193	91.529	0.133	-0.149
-537.179	-45.351	0.055	0.027
-536.164	-200.000	-0.093	0.421
-535.150	-130.826	0.552	-0.074
-534.135	800.000	0.059	0.172
-533.121	-182.547	-0.509	0.009
-532.106	70.242	0.269	0.276
-531.091	-19.859	0.343	-0.211
-530.077	-2.943	0.104	-0.072
-529.062	43.429	0.179	-0.163
-528.048	-200.000	0.008	-0.126
-527.033	-200.000	0.003	-0.179
-526.018	-118.024	0.259	-0.046
-525.004	800.000	-0.066	-0.238
-523.989	-200.000	0.051	-0.382
-522.975	-19.992	0.256	-0.157
-521.960	-142.846	-0.244	-0.024
-520.945	-26.835	-0.287	0.167
-519.931	-200.000	0.001	-0.055
-518.916	800.000	0.082	-0.324
-517.902	-136.723	-0.034	0.004
-516.887	-89.116	-0.154	-0.045
-515.872	-68.831	0.115	-0.044
-514.858	163.142	-0.168	-0.235
-513.843	800.000	0.027	0.105
-512.829	-200.000	-0.012	-0.201
-511.814	-53.883	-0.163	-0.074
-510.799	628.881	0.025	0.063
-509.785	-200.000	0.001	0.073
-508.770	800.000	0.081	0.321
-507.756	-200.000	0.007	0.279
-506.741	79.534	-0.206	0.219
-505.726	-83.409	0.243	0.077
-504.712	-198.327	0.168	-0.001
-503.697	-48.255	0.194	-0.093
-502.683	-79.304	0.246	0.083
-501.668	-15.277	-0.357	-0.227
-500.653	800.000	-0.063	-0.267
-499.639	71.469	-0.159	0.164
-498.624	-95.272	0.349	0.093
-497.610	-200.000	-0.029	-0.431
-496.595	-121.080	0.122	-0.020
-495.581	-130.283	-0.368	-0.050
-494.566	57.455	0.277	-0.269
-493.551	181.319	-0.211	0.309
-492.537	800.000	0.069	0.215
-491.522	298.257	-0.139	-0.254
-490.508	-51.830	-0.225	0.104
-489.493	-200.000	-0.063	0.575
-488.478	199.016	0.207	-0.314
-487.464	261.487	-0.240	0.413
-486.449	-101.297	-0.257	-0.062
-485.435	800.000	0.118	0.432
-484.420	477.669	-0.073	0.164
-483.405	800.000	0.039	-0.151
-482.391	-32.673	0.131	0.072
-481.376	13.903	-0.222	0.171
-480.362	-60.603	-0.210	-0.088
-479.347	-200.000	-0.021	-0.140
-478.332	369.888	0.058	0.117
-477.318	139.568	0.140	-0.183
-476.303	800.000	0.072	0.293
-475.289	-200.000	-0.012	0.069
-474.274	134.222	0.174	-0.223
-473.259	-200.000	0.018	-0.104
-472.245	-109.429	-0.296	0.062
-471.230	-127.652	-0.116	0.017
-470.216	-149.274	0.177	0.014
-469.201	240.975	-0.105	0.174
-468.186	-200.000	-0.049	-0.275
-467.172	-27.190	0.230	-0.133
-466.157	-29.419	-0.351	-0.199
-465.143	218.355	-0.156	-0.246
-464.128	-200.000	0.019	-0.494
-463.113	221.184	-0.095	-0.151
-462.099	-80.775	0.472	0.156
-461.084	14.923	0.083	0.065
-460.070	194.913	0.111	-0.167
-459.055	-105.648	0.146	0.033
-458.040	-59.855	0.218	0.092
-457.026	111.439	0.249	0.298
-456.011	-68.837	0.221	0.085
-454.997	553.674	0.090	-0.214
-453.982	-133.091	0.091	-0.011
-452.968	697.245	0.035	0.090
-451.953	800.000	0.056	-0.176
-450.938	261.162	-0.137	-0.235
-449.924	-83.526	0.154	0.049
-448.909	-63.549	0.134	-0.054
-447.895	-12.658	-0.184	0.119
-446.880	-200.000	0.043	0.247
-445.865	66.183	0.065	-0.066
-444.851	-115.593	-0.257	0.048
-443.836	489.420	0.215	0.488
-442.822	-200.000	-0.031	-0.320
-441.807	359.558	0.050	-0.099
-440.792	147.953	0.124	0.166
-439.778	208.648	0.192	0.298
-438.763	-43.228	-0.129	-0.064
-437.749	800.000	0.042	-0.126
-436.734	50.622	-0.218	-0.205
-435.719	-199.210	-0.351	0.002
-434.705	800.000	-0.026	0.076
-433.690	-189.024	-0.392	-0.005
-432.676	-4.867	-0.321	0.219
-431.661	151.194	0.086	0.116
-430.646	-25.371	-0.287	-0.168
-429.632	92.003	-0.175	-0.195
-428.617	-84.765	0.190	-0.059
-427.603	-141.350	-0.219	-0.022
-426.588	800.000	-0.142	0.534
-425.573	-131.533	-0.171	0.022
-424.559	216.383	0.121	0.190
-423.544	-200.000	-0.024	-0.129
-422.530	235.252	0.112	-0.183
-421.515	800.000	0.068	0.235
-420.500	-200.000	0.069	-0.000
-419.486	483.181	0.069	0.156
-418.471	-73.479	-0.244	-0.088
-417.457	-200.000	-0.043	-0.233
-416.442	51.609	0.224	0.211
-415.428	-200.000	-0.034	-0.388
-414.413	-37.346	-0.257	-0.136
-413.398	72.311	0.246	-0.253
-412.384	-191.829	-0.164	-0.002
-411.369	-22.100	0.227	0.136
-410.355	-58.997	0.224	0.096
-409.340	-171.841	-0.108	0.003
-408.325	-74.720	-0.257	0.091
-407.311	223.781	-0.097	-0.155
-406.296	32.283	0.225	0.193
-405.282	115.283	-0.061	0.074
-404.267	191.160	0.086	-0.128
-403.252	-78.277	0.175	0.060
-402.238	-28.524	-0.225	-0.128
-401.223	-157.310	0.361	-0.022
-400.209	-34.674	-0.095	-0.051
-399.194	-36.042	-0.342	0.183
-398.179	37.614	-0.199	-0.175
-397.165	501.869	0.059	0.135
-396.150	-30.070	0.061	0.034
-395.136	-88.546	0.211	-0.062
-394.121	-116.517	-0.473	-0.086
-393.106	141.318	-0.198	-0.259
-392.092	-106.958	-0.032	0.007
-391.077	154.668	-0.141	-0.192
-390.063	800.000	0.055	0.172
-389.048	-200.000	0.012	0.228
-388.033	-200.000	-0.031	0.371
-387.019	-200.000	0.000	-0.045
-386.004	224.504	-0.107	-0.171
-384.990	242.324	0.103	0.170
-383.975	23.699	-0.014	0.011
-382.960	219.983	-0.144	0.228
-381.946	-200.000	0.015	-0.278
-380.931	-93.782	-0.181	-0.049
-379.917	-192.978	-0.421	0.004
-378.902	-82.229	-0.125	-0.040
-377.888	102.918	-0.107	0.124
-376.873	-200.000	-0.013	0.183
-375.858	-200.000	-0.018	0.272
-374.844	-141.274	-0.129	0.013
-373.829	-200.000	0.022	-0.168
-372.815	-200.000	-0.043	-0.555
-371.800	-43.926	0.137	0.068
-370.785	219.452	0.110	0.174
-369.771	431.912	-0.110	-0.235
-368.756	404.119	-0.043	-0.089
-367.742	-186.659	0.338	-0.005
-366.727	73.896	0.212	0.220
-365.712	216.181	0.120	-0.188
-364.698	-65.386	-0.117	-0.046
-363.683	800.000	0.131	0.402
-362.669	195.562	-0.076	-0.113
-361.654	-36.604	0.217	0.115
-360.639	800.000	0.102	0.339
-359.625	357.871	0.044	-0.086
-358.610	-70.018	-0.159	-0.060
-357.596	-200.000	0.008	0.127
-356.581	-127.653	-0.131	0.019
-355.566	167.585	0.095	0.134
-354.552	68.058	-0.201	0.203
-353.537	-18.401	-0.115	-0.071
-352.523	190.549	-0.034	0.051
-351.508	-76.909	-0.188	0.065
-350.493	-156.757	0.150	0.009
-349.479	-200.000	0.047	-0.379
-348.464	800.000	0.072	0.286
-347.450	749.252	-0.048	0.129
-346.435	444.019	0.072	-0.157
-345.420	800.000	-0.002	0.008
-344.406	-83.680	-0.048	0.015
-343.391	-124.904	0.103	-0.016
-342.377	114.474	0.060	-0.072
-341.362	412.512	-0.031	0.066
-340.348	-76.378	-0.302	0.105
-339.333	-200.000	0.011	0.228
-338.318	108.878	0.093	0.110
-337.304	-52.370	-0.312	-0.142
-336.289	-14.905	-0.262	0.166
-335.275	157.006	0.189	-0.258
-334.260	-200.000	-0.057	-0.307
-333.245	-139.848	0.070	0.007
-332.231	-200.000	0.065	0.335
-331.216	-183.630	0.366	-0.006
-330.202	-141.785	0.283	-0.028
-329.187	29.775	0.241	0.202
-328.172	-200.000	-0.037	0.310
-327.158	666.111	-0.131	-0.333
-326.143	400.283	-0.044	-0.090
-325.129	-200.000	-0.018	0.189
-324.114	-159.038	-0.134	-0.007
-323.099	-200.000	0.003	-0.245
-322.085	-139.681	-0.362	-0.038
-321.070	-63.878	0.110	0.045
-320.056	-111.965	0.034	-0.007
-319.041	-94.687	-0.340	-0.091
-318.026	-12.846	-0.117	0.075
-317.012	456.938	-0.097	0.213
-315.997	212.824	-0.134	0.208
-314.983	130.691	-0.160	0.202
-313.968	57.195	0.025	-0.024
-312.953	-145.247	-0.084	-0.008
-311.939	272.664	-0.039	0.067
-310.924	-107.866	-0.210	0.045
-309.910	-166.548	-0.319	0.013
-308.895	-200.000	-0.021	0.147
-307.880	800.000	-0.042	0.123
-306.866	156.428	0.031	0.043
-305.851	-60.504	0.328	0.137
-304.837	-134.122	-0.312	-0.038
-303.822	682.389	-0.058	0.149
-302.807	-126.464	0.233	-0.034
-301.793	-200.000	0.001	0.077
-300.778	-93.578	0.398	0.108
-299.764	-200.000	0.019	-0.136
-298.749	368.606	-0.110	0.219
-297.735	-18.801	0.041	0.025
-296.720	246.913	-0.143	0.238
-295.705	421.754	0.100	-0.212
-294.691	-200.000	0.098	-0.475
-293.676	409.678	-0.087	-0.182
-292.662	-127.206	-0.139	0.020
-291.647	366.980	0.064	0.128
-290.632	-82.960	0.198	-0.063
-289.618	34.499	0.053	-0.046
-288.603	625.255	-0.027	0.068
-287.589	-8.304	-0.160	-0.106
-286.574	800.000	0.077	-0.233
-285.559	-52.058	0.299	-0.137
-284.545	15.825	0.213	0.165
-283.530	-41.138	0.261	-0.133
-282.516	-200.000	-0.007	0.235
-281.501	272.841	-0.148	0.257
-280.486	-37.263	0.217	0.114
-279.472	-200.000	0.002	0.046
-278.457	-34.475	-0.114	-0.062
-277.443	-200.000	0.039	-0.208
-276.428	157.433	-0.005	0.007
-275.413	-17.902	0.017	-0.011
-274.399	-200.000	0.018	-0.136
-273.384	-9.659	0.297	-0.195
-272.370	397.777	0.151	-0.310
-271.355	8.993	0.123	0.091
-270.340	-200.000	-0.022	0.414
-269.326	-169.258	0.206	-0.007
-268.311	-45.370	-0.078	0.038
-267.297	-88.292	0.259	-0.076
-266.282	-28.319	-0.441	0.251
-265.267	-200.000	0.005	-0.200
-264.253	250.110	0.139	0.232
-263.238	-145.995	0.263	-0.023
-262.224	-51.067	0.383	0.177
-261.209	-170.531	-0.240	-0.008
-260.195	95.498	-0.183	0.205
-259.180	422.640	0.052	-0.111
-258.165	101.411	0.365	0.418
-257.151	26.415	-0.161	-0.132
-256.136	198.749	0.126	-0.190
-255.122	-37.770	-0.438	0.229
-254.107	-200.000	-0.008	0.267
-253.092	10.123	-0.193	-0.144
-252.078	-0.390	-0.057	0.040
-251.063	50.024	-0.205	0.191
-250.049	-200.000	-0.001	0.241
-249.034	75.970	-0.016	-0.017
-248.019	481.347	-0.006	-0.013
-247.005	6.775	0.260	0.190
-245.990	279.986	0.099	0.174
-244.976	-59.260	-0.263	0.111
-243.961	-200.000	-0.047	0.313
-242.946	-86.508	-0.159	-0.048
-241.932	-61.122	0.123	-0.051
-240.917	-100.981	0.220	-0.053
-239.903	114.776	0.186	0.223
-238.888	779.406	0.071	0.191
-237.873	297.317	-0.165	0.298
-236.859	7.593	-0.149	0.110
-235.844	-200.000	0.003	-0.056
-234.830	-92.618	-0.356	-0.098
-233.815	800.000	0.017	-0.061
-232.800	800.000	-0.066	0.213
-231.786	-70.029	0.286	-0.107
-230.771	76.027	-0.099	0.102
-229.757	-156.369	0.161	-0.010
-228.742	466.393	0.156	-0.344
-227.727	-200.000	0.023	0.198
-226.713	-25.679	0.013	0.008
-225.698	-139.734	-0.174	0.018
-224.684	-200.000	-0.015	0.067
-223.669	5.392	-0.375	0.272
-222.655	662.048	-0.030	-0.077
-221.640	-46.841	-0.218	0.105
-220.625	24.362	-0.292	0.237
-219.611	88.801	0.079	0.086
-218.596	100.738	-0.119	-0.136
-217.582	-124.287	0.394	-0.060
-216.567	16.598	-0.236	-0.183
-215.552	20.133	0.177	-0.140
-214.538	132.901	0.274	0.348
-213.523	-123.438	0.159	0.025
-212.509	-6.777	0.072	0.048
-211.494	-119.232	0.461	0.079
-210.479	-200.000	0.032	-0.226
-209.465	62.576	-0.238	-0.234
-208.450	-64.445	-0.531	-0.212
-207.436	252.358	-0.070	0.117
-206.421	-111.681	0.580	-0.115
-205.406	800.000	0.127	0.379
-204.392	800.000	0.136	0.490
-203.377	24.269	-0.248	0.201
-202.363	17.952	-0.043	-0.034
-201.348	757.672	0.119	-0.317
-200.333	82.611	0.112	-0.119
-199.319	-79.634	0.387	-0.128
-198.304	800.000	0.066	-0.193
-197.290	206.281	-0.342	-0.522
-196.275	42.461	0.145	0.130
-195.260	-49.649	0.306	-0.143
-194.246	-172.741	-0.413	-0.013
-193.231	-20.139	0.039	-0.024
-192.217	-200.000	0.020	0.135
-191.202	-200.000	0.014	-0.100
-190.187	126.820	-0.181	0.225
-189.173	800.000	-0.070	-0.276
-188.158	-3.665	-0.308	0.210
-187.144	314.353	0.011	0.020
-186.129	-97.693	-0.035	-0.009
-185.114	176.525	0.127	-0.181
-184.100	-97.537	-0.303	0.077
-183.085	61.101	-0.072	0.070
-182.071	494.952	-0.096	0.216
-181.056	-200.000	-0.013	-0.159
-180.042	48.120	0.178	-0.163
-179.027	612.599	0.107	-0.262
-178.012	147.915	0.103	-0.136
-176.998	68.047	0.088	0.089
-175.983	-55.224	0.257	-0.113
-174.969	5.040	-0.143	-0.103
-173.954	-200.000	0.062	0.419
-172.939	-176.961	-0.359	-0.009
-171.925	-44.652	-0.296	-0.145
-170.910	-52.991	-0.117	0.053
-169.896	-38.144	-0.159	0.083
-168.881	-176.274	0.268	0.007
-167.866	-149.148	0.103	0.008
-166.852	-2.528	-0.133	-0.092
-165.837	-200.000	-0.042	0.325
-164.823	28.477	-0.092	-0.076
-163.808	-73.673	-0.131	-0.047
-162.793	14.827	0.256	0.196
-161.779	64.450	-0.174	-0.172
-160.764	-200.000	-0.013	0.194
-159.750	-46.992	-0.257	-0.123
-158.735	4.966	-0.126	0.091
-157.720	-139.936	-0.347	0.036
-156.706	800.000	-0.058	-0.171
-155.691	-112.446	0.052	0.010
-154.677	-200.000	-0.007	0.258
-153.662	218.854	-0.126	0.197
-152.647	-200.000	-0.008	-0.060
-151.633	-23.037	-0.193	-0.114
-150.618	306.336	-0.179	0.326
-149.604	41.172	0.009	-0.008
-148.589	-200.000	-0.003	0.018
-147.574	-113.048	-0.466	-0.090
-146.560	-139.228	0.391	0.041
-145.545	-200.000	0.034	-0.316
-144.531	-200.000	-0.017	0.189
-143.516	-143.681	-0.164	0.015
-142.502	-200.000	-0.001	-0.209
-141.487	800.000	-0.008	0.022
-140.472	171.756	-0.133	0.186
-139.458	-200.000	-0.014	0.451
-138.443	800.000	-0.020	-0.084
-137.429	-200.000	0.006	0.053
-136.414	-200.000	0.008	-0.149
-135.399	340.732	-0.241	-0.461
-134.385	27.499	-0.264	0.218
-133.370	-80.602	0.325	0.106
-132.356	207.128	-0.143	0.218
-131.341	144.835	-0.114	0.149
-130.326	-172.812	-0.458	0.014
-129.312	-121.998	0.106	-0.017
-128.297	593.986	0.150	0.363
-127.283	40.685	-0.025	0.022
-126.268	-163.304	-0.299	0.014
-125.253	191.418	0.114	0.168
-124.239	782.673	0.082	-0.221
-123.224	91.130	0.220	0.242
