DTS Sentinel unit serial number:	SN413079Multiplexer serial number:	ORYXHardware model number:	OX4-SRSoftware version number:	ORYX F/W v4.00 Oryx Data Collector v3.7.2.0data status	okinstallation	princeton_trtdifferential loss correction	single-endedforward channel	channel 3reverse channel	N/Adate	2019/09/16time	23:56:35forward acquisition time	60.00reverse acquisition time	0.00gamma	496.2192k internal	0.2326k external	0.2326temperature offset calibration	0.9941default loss term (dB/km)	0.3790temperature slope calibration	1.0000multiplexer offset coefficient	1.0000multiplexer slope coefficient	1.0000fibre end	0.00T internal ref (°C)	29.62T ext. ref 1 (°C)	0.09T ext. ref 2 (°C)	23.94length (m)	temperature (°C)	Stokes	anti-Stokes-747.200	-39.975	-0.387	0.204
-746.185	-200.000	0.021	-0.317
-745.171	260.812	-0.033	0.058
-744.156	125.164	-0.118	-0.150
-743.142	-154.561	-0.246	0.017
-742.127	-30.037	-0.056	0.032
-741.112	-18.505	0.300	-0.189
-740.098	193.147	-0.068	-0.104
-739.083	136.714	-0.069	-0.091
-738.069	-96.931	-0.414	-0.109
-737.054	-39.950	0.142	-0.075
-736.039	267.434	0.160	0.283
-735.025	533.169	0.048	-0.115
-734.010	-200.000	-0.011	-0.245
-732.996	-73.808	-0.337	0.123
-731.981	7.879	-0.428	0.323
-730.966	55.624	0.215	-0.210
-729.952	-183.185	-0.149	-0.003
-728.937	-11.957	-0.061	-0.040
-727.923	-125.625	0.251	0.038
-726.908	-200.000	0.029	-0.215
-725.894	38.839	0.151	-0.136
-724.879	800.000	-0.048	-0.150
-723.864	-138.339	0.084	-0.009
-722.850	-200.000	0.005	0.207
-721.835	-200.000	0.036	0.258
-720.821	800.000	0.050	0.193
-719.806	800.000	-0.074	0.262
-718.791	78.489	0.153	-0.164
-717.777	11.086	-0.094	0.072
-716.762	800.000	-0.062	-0.241
-715.748	-183.561	0.426	-0.007
-714.733	762.256	-0.160	0.438
-713.718	8.425	0.242	0.183
-712.704	535.341	0.071	0.169
-711.689	-154.282	-0.341	0.023
-710.675	416.082	0.185	-0.398
-709.660	-200.000	0.102	-0.467
-708.645	2.826	0.148	0.108
-707.631	-200.000	-0.010	0.061
-706.616	309.297	0.141	-0.265
-705.602	178.121	0.172	-0.253
-704.587	135.772	-0.227	0.298
-703.572	180.805	-0.054	-0.080
-702.558	552.115	0.116	0.280
-701.543	26.889	-0.150	0.127
-700.529	-200.000	-0.020	0.091
-699.514	108.137	0.139	-0.167
-698.499	-200.000	0.034	-0.247
-697.485	175.145	-0.091	-0.133
-696.470	-124.190	0.068	0.011
-695.456	-200.000	0.010	-0.116
-694.441	694.448	-0.114	0.300
-693.426	-42.944	-0.165	-0.084
-692.412	255.654	-0.043	0.075
-691.397	-200.000	0.035	-0.258
-690.383	-132.391	-0.236	0.031
-689.368	168.076	0.153	-0.219
-688.354	100.151	-0.170	-0.199
-687.339	699.130	-0.119	-0.314
-686.324	800.000	-0.033	-0.121
-685.310	-200.000	-0.013	0.184
-684.295	24.503	-0.201	0.168
-683.281	-50.063	0.258	-0.123
-682.266	-28.510	-0.163	-0.095
-681.251	-32.416	-0.161	0.090
-680.237	-34.210	-0.008	-0.005
-679.222	-125.374	0.231	-0.035
-678.208	72.533	-0.090	-0.094
-677.193	-39.049	0.152	-0.081
-676.178	405.566	0.137	-0.291
-675.164	-92.859	0.174	0.049
-674.149	-200.000	0.017	0.128
-673.135	-70.532	0.222	-0.085
-672.120	43.537	-0.127	0.117
-671.105	751.391	0.127	0.344
-670.091	-90.544	-0.229	0.067
-669.076	221.808	-0.116	-0.188
-668.062	289.923	0.173	-0.315
-667.047	66.991	-0.224	0.229
-666.032	347.596	0.217	0.431
-665.018	-200.000	0.044	-0.336
-664.003	800.000	-0.061	0.173
-662.989	32.733	-0.083	0.073
-661.974	127.895	-0.015	0.019
-660.959	-200.000	0.009	0.148
-659.945	-13.499	-0.188	0.123
-658.930	280.268	0.123	0.222
-657.916	32.115	0.290	-0.251
-656.901	161.092	-0.109	0.153
-655.886	800.000	-0.149	0.444
-654.872	310.028	0.181	0.341
-653.857	800.000	0.087	0.301
-652.843	464.581	-0.039	0.088
-651.828	10.654	0.149	0.114
-650.814	13.281	0.148	0.116
-649.799	-108.331	0.200	-0.043
-648.784	93.839	-0.026	0.030
-647.770	-150.116	-0.301	-0.023
-646.755	-194.961	0.054	-0.000
-645.741	-113.113	-0.463	-0.092
-644.726	800.000	0.086	0.266
-643.711	-17.400	-0.174	0.110
-642.697	102.314	0.224	-0.262
-641.682	-15.010	-0.072	-0.046
-640.668	-199.945	-0.153	0.001
-639.653	-21.306	0.253	-0.155
-638.638	160.150	0.094	0.132
-637.624	800.000	-0.065	-0.253
-636.609	555.018	0.069	-0.167
-635.595	11.202	-0.119	-0.092
-634.580	-20.541	0.361	0.223
-633.565	365.633	-0.039	-0.079
-632.551	187.763	-0.052	-0.077
-631.536	59.931	0.139	0.138
-630.522	-56.634	0.321	0.143
-629.507	-51.032	-0.244	-0.115
-628.492	-200.000	-0.004	0.267
-627.478	-200.000	-0.010	0.094
-626.463	-57.179	0.208	0.092
-625.449	-89.064	0.114	0.034
-624.434	-200.000	0.030	-0.163
-623.419	177.102	0.085	0.125
-622.405	-43.082	0.107	0.054
-621.390	-200.000	0.019	-0.232
-620.376	98.815	-0.161	0.186
-619.361	66.201	-0.158	0.161
-618.346	800.000	0.041	0.135
-617.332	138.703	-0.095	-0.125
-616.317	441.926	0.184	0.404
-615.303	-24.863	-0.295	0.176
-614.288	-138.698	0.131	0.014
-613.273	-38.777	-0.267	0.141
-612.259	-200.000	-0.011	0.222
-611.244	-63.450	-0.126	-0.052
-610.230	495.542	-0.093	0.216
-609.215	-200.000	0.049	0.384
-608.201	-110.913	-0.206	0.043
-607.186	-107.908	-0.167	-0.037
-606.171	228.902	0.107	0.175
-605.157	92.850	-0.086	0.098
-604.142	79.291	-0.098	-0.105
-603.128	309.111	-0.121	-0.227
-602.113	226.352	-0.185	-0.302
-601.098	180.153	0.134	-0.196
-600.084	193.423	-0.185	-0.280
-599.069	800.000	0.063	-0.241
-598.055	-200.000	-0.043	-0.196
-597.040	778.441	-0.065	0.177
-596.025	-200.000	0.055	0.387
-595.011	-200.000	-0.000	0.035
-593.996	-200.000	-0.016	-0.081
-592.982	294.812	-0.182	0.334
-591.967	-24.252	-0.196	0.117
-590.952	-160.548	-0.183	-0.010
-589.938	289.239	0.145	0.263
-588.923	126.217	-0.044	0.056
-587.909	81.628	0.072	-0.078
-586.894	395.121	-0.102	-0.214
-585.879	58.138	0.128	0.125
-584.865	-89.838	0.165	0.048
-583.850	-77.302	-0.521	-0.182
-582.836	-92.347	0.083	0.024
-581.821	253.436	0.160	-0.274
-580.806	60.769	-0.213	-0.212
-579.792	68.554	0.169	0.174
-578.777	-40.244	0.197	0.103
-577.763	-32.907	-0.471	-0.262
-576.748	-111.244	-0.181	-0.037
-575.733	-66.350	0.289	-0.115
-574.719	-200.000	-0.037	-0.352
-573.704	189.812	-0.138	-0.207
-572.690	800.000	-0.040	0.172
-571.675	39.706	0.233	0.210
-570.661	-117.959	-0.179	-0.032
-569.646	67.551	-0.301	-0.308
-568.631	128.476	0.061	0.078
-567.617	-120.509	0.401	-0.068
-566.602	-135.975	-0.180	0.021
-565.588	18.215	0.124	-0.099
-564.573	-0.597	-0.359	0.255
-563.558	-14.662	-0.080	0.051
-562.544	-61.830	-0.322	0.135
-561.529	-200.000	-0.012	0.216
-560.515	-71.960	0.162	0.060
-559.500	800.000	0.061	0.237
-558.485	-200.000	-0.117	0.517
-557.471	53.894	-0.329	0.317
-556.456	44.466	0.123	0.113
-555.442	-67.600	0.486	-0.191
-554.427	-200.000	-0.069	0.399
-553.412	-166.153	0.041	-0.002
-552.398	-121.633	-0.245	0.041
-551.383	-200.000	-0.035	-0.293
-550.369	37.008	-0.035	-0.031
-549.354	-57.579	-0.112	-0.049
-548.339	-200.000	0.013	0.127
-547.325	-200.000	-0.018	0.177
-546.310	-125.078	-0.310	-0.048
-545.296	117.990	0.129	-0.159
-544.281	287.761	-0.131	0.237
-543.266	352.414	0.108	0.214
-542.252	-200.000	-0.021	0.191
-541.237	800.000	-0.046	0.198
-540.223	-200.000	0.023	0.258
-539.208	-149.929	-0.208	-0.016
-538.193	219.360	0.021	-0.033
-537.179	148.163	0.090	-0.121
-536.164	800.000	-0.063	0.239
-535.150	238.399	-0.120	-0.199
-534.135	800.000	-0.040	0.157
-533.121	-63.778	-0.087	-0.036
-532.106	41.870	0.074	-0.067
-531.091	-200.000	-0.002	-0.207
-530.077	47.304	0.072	-0.067
-529.062	11.069	0.082	-0.063
-528.048	-80.307	0.316	-0.105
-527.033	800.000	-0.118	-0.328
-526.018	800.000	0.080	-0.233
-525.004	-200.000	-0.005	0.031
-523.989	48.484	0.213	-0.200
-522.975	800.000	-0.144	0.439
-521.960	560.374	0.032	-0.076
-520.945	-134.662	0.268	0.033
-519.931	766.721	-0.072	0.196
-518.916	134.524	0.102	-0.132
-517.902	-87.874	-0.143	0.043
-516.887	164.034	-0.264	0.371
-515.872	144.812	0.174	-0.232
-514.858	226.699	0.163	-0.265
-513.843	-88.803	0.257	-0.076
-512.829	720.614	0.065	-0.172
-511.814	800.000	0.045	-0.167
-510.799	-200.000	0.013	0.156
-509.785	332.668	-0.140	-0.270
-508.770	-200.000	0.000	0.023
-507.756	726.426	0.080	0.214
-506.741	-171.374	-0.163	-0.005
-505.726	-136.032	0.298	-0.035
-504.712	-156.568	0.204	0.013
-503.697	-29.994	-0.263	-0.150
-502.683	-160.613	-0.094	-0.005
-501.668	800.000	-0.101	0.338
-500.653	143.577	-0.075	-0.099
-499.639	-90.842	0.463	0.133
-498.624	-27.834	-0.202	-0.117
-497.610	800.000	-0.067	-0.190
-496.595	-122.822	0.085	-0.014
-495.581	-200.000	-0.083	0.449
-494.566	-66.794	0.271	0.107
-493.551	-186.683	0.076	-0.001
-492.537	17.376	-0.122	0.097
-491.522	-200.000	0.040	-0.449
-490.508	800.000	0.027	-0.103
-489.493	800.000	-0.048	0.143
-488.478	791.573	-0.068	0.185
-487.464	-112.014	0.187	0.038
-486.449	-108.538	-0.202	-0.043
-485.435	2.692	-0.143	0.103
-484.420	-200.000	-0.042	0.188
-483.405	325.964	0.154	-0.294
-482.391	-84.991	-0.024	-0.008
-481.376	-62.369	-0.294	0.122
-480.362	-200.000	-0.071	-0.487
-479.347	800.000	0.107	0.413
-478.332	28.976	0.250	-0.211
-477.318	-1.622	-0.145	0.102
-476.303	800.000	0.045	-0.176
-475.289	-85.451	0.238	0.074
-474.274	-6.922	-0.333	0.226
-473.259	-200.000	-0.005	-0.056
-472.245	-64.127	0.270	0.110
-471.230	515.985	0.124	0.290
-470.216	-112.703	-0.134	-0.027
-469.201	800.000	0.040	0.125
-468.186	-170.886	-0.188	0.006
-467.172	158.271	-0.135	-0.188
-466.157	-78.789	-0.265	-0.090
-465.143	-200.000	0.043	-0.391
-464.128	-123.376	-0.279	-0.044
-463.113	-103.951	0.379	0.088
-462.099	-60.765	0.301	-0.127
-461.084	-83.346	-0.344	-0.110
-460.070	-200.000	-0.046	0.432
-459.055	121.686	-0.137	0.170
-458.040	67.204	-0.270	0.274
-457.026	-42.182	0.220	0.112
-456.011	-171.877	-0.172	-0.006
-454.997	338.607	-0.035	-0.068
-453.982	55.911	0.216	-0.209
-452.968	-200.000	-0.080	-0.419
-451.953	251.072	-0.087	0.147
-450.938	638.049	-0.060	0.153
-449.924	-151.877	-0.338	0.025
-448.909	-200.000	0.012	-0.153
-447.895	107.940	-0.166	0.198
-446.880	-200.000	0.032	0.140
-445.865	-200.000	0.078	0.506
-444.851	-34.071	0.100	0.055
-443.836	-200.000	0.053	0.406
-442.822	-64.550	-0.030	0.012
-441.807	5.890	0.047	-0.035
-440.792	284.394	0.107	-0.191
-439.778	-200.000	-0.017	-0.203
-438.763	315.393	0.170	-0.320
-437.749	-22.221	0.150	0.090
-436.734	270.534	0.114	-0.201
-435.719	117.175	0.055	-0.067
-434.705	-200.000	0.017	0.265
-433.690	1.778	0.144	0.104
-432.676	-65.377	0.344	-0.138
-431.661	29.919	-0.185	-0.157
-430.646	-62.547	-0.205	0.085
-429.632	-10.001	-0.059	0.039
-428.617	-200.000	0.294	-0.001
-427.603	-61.525	0.084	-0.035
-426.588	54.929	-0.071	-0.068
-425.573	66.050	-0.258	-0.260
-424.559	800.000	0.036	0.122
-423.544	24.349	-0.190	0.156
-422.530	-55.601	0.311	0.139
-421.515	-39.829	0.235	-0.122
-420.500	-200.000	0.007	-0.129
-419.486	-59.809	-0.256	0.109
-418.471	-200.000	-0.013	-0.165
-417.457	-34.079	0.109	0.060
-416.442	-122.624	0.157	-0.025
-415.428	225.032	0.125	-0.201
-414.413	-200.000	-0.028	0.148
-413.398	-34.015	0.269	-0.147
-412.384	-200.000	-0.012	-0.586
-411.369	-54.558	-0.304	-0.137
-410.355	-110.904	0.229	0.047
-409.340	-200.000	0.022	0.131
-408.325	189.899	0.033	0.050
-407.311	64.520	0.148	-0.149
-406.296	-200.000	0.094	0.479
-405.282	-67.017	-0.285	-0.112
-404.267	-131.630	0.264	-0.035
-403.252	545.980	-0.077	0.184
-402.238	-93.774	0.270	0.074
-401.223	-83.214	0.172	0.055
-400.209	800.000	-0.016	0.056
-399.194	-121.146	0.267	0.045
-398.179	-200.000	-0.026	0.144
-397.165	-32.501	-0.104	-0.058
-396.150	63.913	0.321	0.321
-395.136	168.253	-0.065	0.093
-394.121	800.000	0.059	-0.254
-393.106	-125.869	0.305	-0.046
-392.092	-145.541	0.138	0.012
-391.077	-127.362	-0.395	-0.057
-390.063	-71.766	0.265	0.098
-389.048	-34.778	-0.135	-0.073
-388.033	-178.206	0.252	0.006
-387.019	108.404	-0.270	-0.320
-386.004	200.337	0.101	0.155
-384.990	-18.199	-0.196	-0.122
-383.975	-27.030	0.226	-0.131
-382.960	325.373	-0.251	0.478
-381.946	-67.417	0.197	-0.077
-380.931	83.466	-0.098	-0.107
-379.917	295.138	-0.144	-0.263
-378.902	83.235	-0.121	-0.131
-377.888	-200.000	0.007	-0.086
-376.873	-157.575	-0.202	0.012
-375.858	-38.367	-0.195	-0.103
-374.844	133.891	0.162	0.209
-373.829	57.907	0.209	-0.204
-372.815	-200.000	0.017	-0.158
-371.800	595.858	0.150	0.368
-370.785	-200.000	0.029	0.409
-369.771	394.981	0.088	0.182
-368.756	-57.099	-0.146	0.064
-367.742	376.660	0.058	-0.117
-366.727	-200.000	0.025	-0.213
-365.712	-200.000	-0.014	0.305
-364.698	151.189	0.200	0.270
-363.683	-28.028	-0.126	-0.073
-362.669	-75.314	0.382	-0.135
-361.654	-63.834	0.076	-0.031
-360.639	-200.000	-0.052	-0.344
-359.625	-96.268	-0.278	0.073
-358.610	-71.483	-0.016	0.006
-357.596	-105.395	-0.313	0.071
-356.581	-106.005	-0.081	-0.018
-355.566	-95.168	-0.161	0.043
-354.552	-200.000	-0.019	-0.127
-353.537	-101.644	0.421	0.102
-352.523	-200.000	0.043	0.363
-351.508	-63.411	0.200	-0.082
-350.493	-188.369	-0.299	0.004
-349.479	492.853	-0.046	-0.105
-348.464	-149.210	-0.356	-0.028
-347.450	-39.501	0.062	0.032
-346.435	7.034	0.112	0.083
-345.420	-81.661	0.195	0.064
-344.406	98.948	0.176	0.201
-343.391	-200.000	-0.010	-0.339
-342.377	761.608	-0.113	-0.305
-341.362	800.000	0.119	-0.406
-340.348	800.000	0.077	-0.333
-339.333	-200.000	-0.028	-0.142
-338.318	-184.460	0.320	-0.005
-337.304	329.540	0.091	-0.174
-336.289	98.427	0.024	0.028
-335.275	299.198	-0.078	-0.143
-334.260	800.000	-0.055	-0.193
-333.245	800.000	-0.039	0.109
-332.231	-132.307	0.337	-0.043
-331.216	298.490	-0.099	-0.181
-330.202	177.160	0.095	-0.137
-329.187	-200.000	-0.009	0.358
-328.172	800.000	-0.030	0.104
-327.158	314.046	-0.102	0.191
-326.143	-200.000	-0.042	-0.196
-325.129	636.682	-0.064	0.160
-324.114	-10.065	-0.215	0.142
-323.099	-92.042	0.176	0.049
-322.085	-130.471	0.220	-0.029
-321.070	-200.000	-0.004	0.094
-320.056	744.863	-0.058	-0.155
-319.041	524.899	-0.098	-0.229
-318.026	32.310	0.239	0.204
-317.012	117.067	0.162	0.198
-315.997	-115.098	0.192	0.036
-314.983	72.359	0.134	0.139
-313.968	155.989	0.034	-0.046
-312.953	-182.120	0.237	0.004
-311.939	11.537	-0.088	0.067
-310.924	-184.505	0.444	-0.007
-309.910	-200.000	-0.051	-0.334
-308.895	-161.823	-0.158	0.008
-307.880	800.000	-0.100	0.317
-306.866	-200.000	0.005	-0.064
-305.851	-115.997	0.357	0.066
-304.837	-122.378	-0.163	-0.026
-303.822	178.111	-0.113	-0.163
-302.807	-145.647	-0.089	-0.008
-301.793	25.502	0.062	0.051
-300.778	303.181	0.067	-0.122
-299.764	-200.000	-0.040	0.251
-298.749	-42.413	-0.132	-0.067
-297.735	-200.000	0.031	0.220
-296.720	-200.000	-0.056	-0.413
-295.705	-56.945	-0.147	-0.064
-294.691	680.873	-0.090	0.231
-293.676	-20.319	0.063	0.038
-292.662	-9.079	0.410	0.272
-291.647	-66.586	-0.416	-0.164
-290.632	-90.567	-0.663	-0.190
-289.618	-165.992	0.203	-0.009
-288.603	-200.000	0.025	0.174
-287.589	76.435	-0.196	0.206
-286.574	-71.080	0.111	0.041
-285.559	63.128	0.230	-0.228
-284.545	-92.623	-0.222	0.062
-283.530	666.699	0.009	-0.024
-282.516	33.439	-0.073	-0.063
-281.501	-89.534	0.061	0.018
-280.486	-114.866	-0.071	0.013
-279.472	216.439	0.176	-0.277
-278.457	-200.000	-0.015	0.130
-277.443	196.537	-0.200	0.301
-276.428	313.193	-0.133	-0.247
-275.413	-40.029	-0.163	0.084
-274.399	800.000	-0.061	-0.203
-273.384	-200.000	-0.006	0.098
-272.370	13.565	0.269	0.207
-271.355	240.821	-0.160	-0.264
-270.340	40.482	-0.208	-0.186
-269.326	-109.427	-0.416	-0.087
-268.311	-48.183	-0.057	-0.027
-267.297	-200.000	-0.007	-0.195
-266.282	-200.000	0.011	-0.205
-265.267	800.000	0.055	-0.200
-264.253	-200.000	0.038	-0.203
-263.238	43.011	0.038	-0.034
-262.224	240.738	0.177	-0.293
-261.209	259.287	0.158	0.269
-260.195	49.462	0.199	-0.186
-259.180	609.852	0.107	0.266
-258.165	-71.420	-0.315	0.117
-257.151	-200.000	-0.012	-0.104
-256.136	-103.761	-0.138	-0.032
-255.122	-17.817	0.218	-0.135
-254.107	-57.323	0.188	-0.082
-253.092	318.181	-0.061	0.115
-252.078	-60.702	-0.187	0.078
-251.063	-103.930	0.116	0.027
-250.049	-45.745	0.054	-0.026
-249.034	800.000	-0.116	0.408
-248.019	-200.000	-0.013	0.066
-247.005	-200.000	0.039	0.243
-245.990	-126.533	0.251	0.037
-244.976	-80.307	-0.272	-0.090
-243.961	-67.610	-0.137	0.053
-242.946	34.569	0.114	0.098
-241.932	-200.000	0.004	0.079
-240.917	-74.860	-0.051	-0.018
-239.903	-200.000	0.002	-0.090
-238.888	57.645	-0.063	0.061
-237.873	-162.838	0.212	0.010
-236.859	452.244	0.178	-0.388
-235.844	-105.671	-0.296	-0.066
-234.830	157.441	0.009	-0.012
-233.815	62.375	-0.170	0.168
-232.800	-48.395	0.115	-0.055
-231.786	-0.170	-0.177	0.124
-230.771	500.068	-0.090	0.205
-229.757	397.063	-0.036	0.073
-228.742	7.253	0.180	-0.133
-227.727	16.493	-0.073	0.057
-226.713	-200.000	0.067	-0.471
-225.698	-111.939	0.378	0.075
-224.684	-74.478	0.308	-0.110
-223.669	72.661	0.128	-0.132
-222.655	800.000	-0.059	-0.172
-221.640	-114.264	0.061	-0.012
-220.625	-200.000	0.002	0.123
-219.611	197.203	-0.128	-0.193
-218.596	-165.953	0.136	-0.006
-217.582	-200.000	0.048	0.253
-216.567	-1.640	0.133	0.093
-215.552	-115.201	0.097	-0.018
-214.538	-200.000	-0.189	-0.000
-213.523	734.084	0.032	0.086
-212.509	-200.000	0.029	-0.353
-211.494	-54.167	0.366	-0.164
-210.479	-37.100	0.340	-0.180
-209.465	-200.000	-0.038	0.167
-208.450	-69.892	0.303	0.114
-207.436	-100.868	-0.252	-0.061
-206.421	-74.994	0.162	0.057
-205.406	-76.996	0.083	-0.029
-204.392	-167.779	-0.239	-0.009
-203.377	617.311	0.034	-0.083
-202.363	193.839	0.077	-0.115
-201.348	800.000	-0.105	-0.417
-200.333	-167.891	-0.160	-0.006
-199.319	-200.000	0.017	0.261
-198.304	-145.628	0.201	-0.018
-197.290	110.648	-0.296	0.351
-196.275	-200.000	-0.041	0.217
-195.260	-13.383	-0.125	0.080
-194.246	20.051	-0.296	0.236
-193.231	163.496	0.028	-0.039
-192.217	-109.300	-0.107	0.022
-191.202	-189.718	-0.476	-0.005
-190.187	-166.669	0.199	-0.008
-189.173	-88.513	0.429	-0.126
-188.158	-200.000	0.004	-0.136
-187.144	63.575	0.129	-0.128
-186.129	-110.461	-0.086	-0.018
-185.114	342.445	0.110	0.212
-184.100	-108.881	0.062	-0.013
-183.085	-200.000	0.017	-0.314
-182.071	800.000	-0.031	0.094
-181.056	-30.182	0.156	0.088
-180.042	167.272	0.087	-0.122
-179.027	800.000	-0.056	-0.159
-178.012	59.132	0.238	-0.231
-176.998	-135.278	-0.283	-0.033
-175.983	-69.478	-0.063	-0.024
-174.969	-200.000	0.045	-0.323
-173.954	-10.764	-0.354	0.231
-172.939	263.174	-0.077	0.132
-171.925	362.686	0.119	0.236
-170.910	56.899	-0.177	0.170
-169.896	800.000	0.026	-0.087
-168.881	207.127	-0.156	-0.239
-167.866	62.483	-0.022	0.022
-166.852	328.971	-0.072	0.137
-165.837	-105.778	0.123	0.027
-164.823	-200.000	-0.051	0.372
-163.808	647.101	0.071	-0.180
-162.793	-68.201	-0.330	-0.127
-161.779	-200.000	0.019	-0.261
-160.764	5.810	-0.171	-0.125
-159.750	386.252	-0.034	-0.069
-158.735	-173.789	-0.201	0.006
-157.720	12.741	0.100	-0.076
-156.706	202.645	0.054	0.083
-155.691	322.590	-0.157	0.295
-154.677	82.699	0.249	-0.266
-153.662	-200.000	-0.060	-0.264
-152.647	701.539	0.075	-0.194
-151.633	-45.907	0.061	0.030
-150.618	280.191	0.076	-0.133
-149.604	-104.638	0.221	0.050
-148.589	-200.000	0.014	0.096
-147.574	-189.909	-0.158	-0.002
-146.560	295.989	0.051	-0.092
-145.545	-159.564	-0.336	-0.018
-144.531	495.828	-0.056	-0.126
-143.516	-94.695	0.169	0.045
-142.502	67.395	0.065	0.065
-141.487	95.434	0.271	0.304
-140.472	-200.000	-0.001	-0.021
-139.458	33.115	0.058	-0.049
-138.443	-65.157	-0.164	-0.065
-137.429	345.481	-0.070	0.135
-136.414	22.646	0.115	0.092
-135.399	-159.106	-0.184	0.010
-134.385	800.000	0.042	0.145
-133.370	-117.322	0.085	-0.015
-132.356	-18.928	0.130	0.079
-131.341	321.450	-0.194	0.364
-130.326	-200.000	0.005	0.404
-129.312	-200.000	0.020	-0.370
-128.297	167.914	0.104	0.146
-127.283	87.117	-0.233	-0.254
-126.268	264.402	0.108	-0.184
-125.253	-200.000	0.004	0.097
-124.239	-90.731	0.171	-0.049
-123.224	800.000	0.112	0.322
-122.210	-103.624	-0.083	0.019
