DTS Sentinel unit serial number:	SN413079Multiplexer serial number:	ORYXHardware model number:	OX4-SRSoftware version number:	ORYX F/W v4.00 Oryx Data Collector v3.7.2.0data status	okinstallation	princeton_trtdifferential loss correction	single-endedforward channel	channel 3reverse channel	N/Adate	2019/09/18time	16:28:35forward acquisition time	60.00reverse acquisition time	0.00gamma	496.2192k internal	0.2292k external	0.2292temperature offset calibration	0.9982default loss term (dB/km)	0.3790temperature slope calibration	1.0000multiplexer offset coefficient	1.0000multiplexer slope coefficient	1.0000fibre end	0.00T internal ref (°C)	39.12T ext. ref 1 (°C)	0.86T ext. ref 2 (°C)	36.33length (m)	temperature (°C)	Stokes	anti-Stokes-747.200	129.509	-0.074	0.096
-746.185	-45.602	0.299	0.152
-745.171	272.167	-0.145	-0.261
-744.156	574.127	0.023	0.057
-743.142	80.943	0.151	0.167
-742.127	12.452	0.167	0.132
-741.112	-169.396	-0.181	0.007
-740.098	800.000	0.035	0.153
-739.083	70.721	-0.053	-0.056
-738.069	150.270	0.165	0.230
-737.054	59.954	-0.065	0.066
-736.039	800.000	0.082	-0.331
-735.025	243.491	0.052	-0.089
-734.010	-76.697	-0.167	0.060
-732.996	-57.050	-0.224	0.101
-731.981	417.219	0.081	-0.176
-730.966	19.829	-0.146	-0.120
-729.952	-124.281	-0.449	0.072
-728.937	33.105	0.132	-0.117
-727.923	272.927	0.111	-0.200
-726.908	800.000	-0.099	0.358
-725.894	46.357	-0.302	0.287
-724.879	118.943	-0.116	0.147
-723.864	361.930	-0.075	0.153
-722.850	15.216	-0.117	-0.093
-721.835	46.175	-0.190	0.180
-720.821	96.621	-0.201	-0.235
-719.806	-200.000	-0.010	0.200
-718.791	6.515	0.123	-0.093
-717.777	-182.000	-0.091	0.002
-716.762	331.617	0.034	-0.068
-715.748	-200.000	-0.010	0.231
-714.733	9.016	0.174	0.134
-713.718	-15.992	0.337	-0.219
-712.704	-125.864	0.357	-0.055
-711.689	-200.000	-0.010	-0.075
-710.675	47.157	0.058	0.055
-709.660	-200.000	0.000	0.131
-708.645	-141.004	-0.366	0.038
-707.631	-114.977	0.121	-0.023
-706.616	-14.944	-0.064	-0.042
-705.602	800.000	-0.045	0.134
-704.587	31.209	0.173	-0.152
-703.572	800.000	-0.043	0.125
-702.558	-77.407	0.105	0.037
-701.543	-200.000	0.042	0.359
-700.529	125.381	-0.265	0.342
-699.514	800.000	-0.039	-0.132
-698.499	800.000	0.049	-0.143
-697.485	-200.000	-0.026	-0.265
-696.470	169.046	0.130	-0.190
-695.456	57.353	-0.250	0.250
-694.441	68.453	0.121	-0.127
-693.426	-200.000	-0.023	-0.289
-692.412	-49.906	-0.230	0.112
-691.397	-168.341	0.143	0.006
-690.383	25.723	-0.216	0.184
-689.368	-20.601	0.271	0.170
-688.354	-40.004	0.120	-0.064
-687.339	800.000	0.011	-0.038
-686.324	800.000	-0.040	-0.159
-685.310	-135.558	-0.278	0.034
-684.295	220.773	0.105	-0.172
-683.281	-171.720	-0.411	-0.014
-682.266	41.037	0.140	-0.129
-681.251	800.000	0.034	-0.107
-680.237	-124.860	-0.159	-0.025
-679.222	-88.164	-0.156	-0.048
-678.208	607.309	-0.040	-0.102
-677.193	-66.609	0.220	0.089
-676.178	70.919	-0.108	0.114
-675.164	-13.889	0.091	0.060
-674.149	-106.761	0.407	0.092
-673.135	-0.999	0.337	0.243
-672.120	494.927	-0.104	0.244
-671.105	-200.000	-0.003	-0.053
-670.091	-106.074	0.336	-0.077
-669.076	-200.000	-0.045	-0.226
-668.062	800.000	-0.108	-0.327
-667.047	-168.618	-0.264	0.010
-666.032	800.000	0.021	0.073
-665.018	-200.000	0.019	0.309
-664.003	-83.803	-0.034	-0.011
-662.989	-200.000	0.056	0.276
-661.974	341.872	-0.030	-0.060
-660.959	-122.420	-0.295	0.049
-659.945	-200.000	0.002	0.102
-658.930	-57.687	0.223	0.100
-657.916	116.299	0.113	-0.141
-656.901	-200.000	0.083	0.420
-655.886	-200.000	0.027	-0.125
-654.872	768.988	-0.039	0.108
-653.857	743.031	-0.082	-0.224
-652.843	-48.795	0.216	-0.106
-651.828	462.632	-0.119	0.271
-650.814	-200.000	-0.001	0.194
-649.799	227.612	0.077	-0.128
-648.784	12.190	0.215	0.169
-647.770	431.866	0.089	0.197
-646.755	-88.703	-0.144	0.044
-645.741	328.121	0.172	0.337
-644.726	-50.123	-0.251	-0.121
-643.711	341.945	0.111	0.222
-642.697	64.403	-0.107	0.109
-641.682	-194.607	0.169	-0.001
-640.668	159.751	-0.181	0.257
-639.653	800.000	-0.053	0.215
-638.638	-200.000	0.008	-0.089
-637.624	-200.000	0.009	-0.103
-636.609	-52.789	0.131	0.062
-635.595	153.205	-0.109	0.152
-634.580	800.000	0.111	0.372
-633.565	34.976	-0.207	-0.185
-632.551	215.036	0.160	-0.259
-631.536	800.000	0.030	0.105
-630.522	-16.597	0.222	0.143
-629.507	-149.462	0.120	-0.010
-628.492	92.039	-0.165	-0.189
-627.478	-174.545	-0.157	0.005
-626.463	69.530	0.126	-0.132
-625.449	74.864	-0.199	-0.213
-624.434	-33.716	-0.250	-0.141
-623.419	190.344	0.141	-0.216
-622.405	626.377	0.057	-0.147
-621.390	-65.002	0.142	0.058
-620.376	715.792	0.086	-0.233
-619.361	-99.606	0.337	-0.086
-618.346	7.789	0.197	-0.150
-617.332	148.699	-0.117	-0.161
-616.317	187.482	-0.100	0.152
-615.303	-151.832	-0.185	-0.014
-614.288	-80.528	-0.030	-0.010
-613.273	156.247	-0.147	-0.207
-612.259	-107.664	-0.336	0.075
-611.244	56.945	-0.130	-0.129
-610.230	800.000	0.017	0.070
-609.215	-168.001	0.398	0.016
-608.201	517.304	0.180	-0.428
-607.186	-200.000	-0.090	0.408
-606.171	-200.000	0.030	0.272
-605.157	352.186	-0.119	0.240
-604.142	675.701	-0.063	-0.167
-603.128	298.425	-0.093	-0.173
-602.113	-200.000	0.062	-0.339
-601.098	-22.428	0.023	-0.014
-600.084	365.233	0.073	-0.149
-599.069	765.437	0.098	0.270
-598.055	611.796	-0.024	0.062
-597.040	-200.000	-0.003	0.070
-596.025	-99.015	0.083	-0.022
-595.011	800.000	0.096	-0.298
-593.996	-116.444	0.147	-0.028
-592.982	-7.600	-0.154	0.106
-591.967	-200.000	0.040	-0.220
-590.952	-128.312	0.162	0.023
-589.938	83.955	0.108	-0.120
-588.923	15.422	-0.160	0.128
-587.909	59.946	-0.078	-0.078
-586.894	-200.000	0.055	0.250
-585.879	70.028	-0.249	0.262
-584.865	-123.997	0.204	0.033
-583.850	378.331	-0.002	-0.003
-582.836	141.154	-0.155	-0.209
-581.821	-89.021	0.211	-0.064
-580.806	102.045	0.151	-0.179
-579.792	-200.000	-0.041	0.312
-578.777	-145.361	-0.217	-0.020
-577.763	-200.000	0.018	0.113
-576.748	-28.071	0.270	-0.159
-575.733	191.376	0.051	-0.078
-574.719	168.777	0.186	0.269
-573.704	35.048	-0.110	0.098
-572.690	220.514	-0.050	-0.082
-571.675	800.000	-0.055	-0.227
-570.661	297.727	0.112	-0.210
-569.646	800.000	0.115	-0.440
-568.631	116.961	0.242	0.302
-567.617	105.418	0.243	-0.292
-566.602	19.904	-0.184	-0.150
-565.588	-200.000	-0.086	0.430
-564.573	55.658	0.029	0.029
-563.558	-9.824	-0.181	0.122
-562.544	-106.284	0.011	0.002
-561.529	388.816	0.132	0.277
-560.515	13.053	-0.325	0.256
-559.500	151.119	0.101	-0.139
-558.485	-192.053	-0.169	-0.002
-557.471	732.897	-0.134	-0.363
-556.456	-200.000	-0.017	-0.212
-555.442	220.216	-0.156	0.255
-554.427	-67.900	0.143	-0.057
-553.412	-86.856	0.194	0.060
-552.398	-124.232	-0.112	-0.018
-551.383	-85.304	0.332	-0.105
-550.369	-15.381	0.190	0.123
-549.354	194.039	-0.135	0.208
-548.339	89.900	-0.145	0.165
-547.325	40.296	0.121	-0.110
-546.310	41.006	-0.218	0.200
-545.296	11.807	0.237	-0.185
-544.281	-37.364	0.341	0.185
-543.266	384.108	-0.159	0.333
-542.252	-24.101	-0.383	-0.232
-541.237	-6.586	0.249	0.172
-540.223	-114.881	-0.042	-0.008
-539.208	-178.116	0.068	-0.002
-538.193	-74.676	0.177	-0.065
-537.179	-70.222	0.056	0.022
-536.164	333.003	-0.029	0.056
-535.150	-64.940	0.118	0.048
-534.135	-72.310	-0.043	-0.016
-533.121	-105.686	-0.240	0.055
-532.106	-200.000	0.012	0.324
-531.091	21.246	0.377	0.311
-530.077	-39.316	-0.308	-0.164
-529.062	-101.257	-0.318	0.079
-528.048	-200.000	0.009	-0.172
-527.033	800.000	-0.073	-0.252
-526.018	10.417	0.216	-0.167
-525.004	-140.440	-0.004	0.000
-523.989	-118.419	-0.227	0.041
-522.975	-63.455	-0.245	-0.102
-521.960	-79.634	-0.567	-0.194
-520.945	-67.950	0.112	0.044
-519.931	-17.193	0.260	-0.166
-518.916	-200.000	0.266	0.001
-517.902	58.086	0.048	0.047
-516.887	-57.733	-0.314	0.139
-515.872	14.945	0.361	-0.287
-514.858	800.000	-0.051	-0.179
-513.843	-115.177	0.188	0.036
-512.829	103.267	-0.148	-0.176
-511.814	-81.984	-0.223	-0.074
-510.799	218.658	0.203	0.328
-509.785	207.280	-0.122	-0.192
-508.770	-50.243	-0.194	-0.093
-507.756	-76.945	-0.200	-0.071
-506.741	-62.180	-0.101	0.043
-505.726	-200.000	0.067	-0.336
-504.712	-127.655	0.249	0.036
-503.697	-200.000	-0.020	0.219
-502.683	174.221	-0.151	0.221
-501.668	-4.955	0.101	0.071
-500.653	375.013	0.035	-0.072
-499.639	-99.626	-0.156	-0.040
-498.624	-200.000	-0.010	-0.054
-497.610	-200.000	0.011	0.374
-496.595	152.411	0.053	0.074
-495.581	49.747	-0.130	0.124
-494.566	-101.329	-0.127	-0.031
-493.551	-102.911	-0.181	-0.044
-492.537	-200.000	-0.016	0.167
-491.522	-111.864	-0.193	-0.039
-490.508	312.504	-0.038	-0.073
-489.493	148.678	-0.197	0.270
-488.478	-107.998	-0.074	0.016
-487.464	29.944	0.213	0.184
-486.449	-14.236	-0.183	0.120
-485.435	20.910	-0.297	-0.244
-484.420	-16.951	-0.491	-0.314
-483.405	211.810	0.275	-0.439
-482.391	-200.000	0.060	-0.390
-481.376	31.178	-0.184	-0.160
-480.362	800.000	0.058	-0.185
-479.347	800.000	-0.124	0.381
-478.332	581.452	-0.180	0.447
-477.318	-200.000	-0.011	0.264
-476.303	-121.578	-0.220	-0.037
-475.289	218.084	0.008	-0.012
-474.274	76.910	-0.010	0.011
-473.259	42.322	0.041	0.038
-472.245	-200.000	0.020	-0.227
-471.230	-128.531	-0.213	0.031
-470.216	-163.968	-0.337	-0.016
-469.201	4.670	-0.141	-0.105
-468.186	-162.616	0.310	0.015
-467.172	-200.000	-0.060	-0.444
-466.157	-107.315	-0.379	-0.084
-465.143	8.002	-0.226	0.172
-464.128	-115.575	0.121	0.023
-463.113	86.561	0.233	0.261
-462.099	-200.000	-0.033	0.167
-461.084	-98.513	0.348	-0.090
-460.070	-167.574	-0.187	0.008
-459.055	-50.980	0.234	0.111
-458.040	40.123	-0.198	-0.180
-457.026	-112.515	-0.135	-0.027
-456.011	-66.507	0.208	0.084
-454.997	12.688	-0.088	-0.069
-453.982	-200.000	0.060	0.409
-452.968	-43.329	0.270	-0.138
-451.953	-157.465	-0.293	0.018
-450.938	581.346	-0.046	-0.114
-449.924	38.599	-0.089	-0.080
-448.909	-92.925	0.052	0.015
-447.895	800.000	-0.048	0.136
-446.880	580.551	-0.066	0.163
-445.865	-200.000	0.024	0.234
-444.851	-76.666	0.148	0.052
-443.836	-69.817	0.231	-0.089
-442.822	408.652	0.101	0.215
-441.807	726.351	-0.122	-0.329
-440.792	-49.682	-0.170	0.082
-439.778	68.906	0.202	0.209
-438.763	5.419	0.351	-0.262
-437.749	-10.215	0.142	0.095
-436.734	-200.000	0.062	-0.327
-435.719	31.522	0.055	0.048
-434.705	-33.451	0.299	0.167
-433.690	-41.712	0.232	-0.121
-432.676	-200.000	-0.033	0.316
-431.661	-51.469	0.242	0.115
-430.646	70.593	-0.161	0.169
-429.632	285.879	-0.086	-0.156
-428.617	-105.876	0.058	0.013
-427.603	280.672	0.125	0.226
-426.588	312.790	0.130	-0.246
-425.573	165.770	0.101	-0.145
-424.559	-200.000	-0.031	-0.210
-423.544	-48.774	-0.093	0.045
-422.530	-200.000	0.073	0.465
-421.515	800.000	-0.045	-0.132
-420.500	-10.287	0.224	-0.150
-419.486	-115.077	0.163	-0.031
-418.471	-19.619	-0.154	-0.096
-417.457	-200.000	-0.040	0.207
-416.442	-29.328	-0.157	-0.091
-415.428	-50.735	-0.168	-0.080
-414.413	800.000	0.058	0.165
-413.398	338.669	-0.114	0.224
-412.384	-115.541	-0.261	0.050
-411.369	59.972	0.022	-0.022
-410.355	39.525	-0.257	-0.232
-409.340	-35.571	-0.248	0.136
-408.325	22.865	0.182	0.151
-407.311	-81.025	0.158	0.053
-406.296	86.210	-0.234	-0.260
-405.282	340.604	-0.172	-0.339
-404.267	-185.021	-0.067	-0.001
-403.252	-88.365	0.108	-0.033
-402.238	209.672	-0.129	-0.203
-401.223	-47.187	0.106	-0.052
-400.209	-118.340	0.257	-0.046
-399.194	504.553	-0.133	0.310
-398.179	800.000	0.140	-0.465
-397.165	-15.290	-0.156	-0.100
-396.150	800.000	-0.072	0.234
-395.136	-129.796	0.214	-0.030
-394.121	-200.000	-0.027	-0.140
-393.106	29.605	-0.435	-0.373
-392.092	-61.615	0.170	-0.072
-391.077	-200.000	0.016	-0.228
-390.063	244.435	-0.089	-0.151
-389.048	-111.993	0.182	-0.037
-388.033	191.511	-0.086	0.131
-387.019	-14.120	-0.212	-0.138
-386.004	479.375	0.098	-0.224
-384.990	-2.253	0.106	0.075
-383.975	-10.931	0.198	0.132
-382.960	800.000	0.073	0.265
-381.946	-200.000	0.032	-0.246
-380.931	-200.000	0.009	0.269
-379.917	3.492	-0.216	-0.159
-378.902	-12.723	0.060	0.039
-377.888	68.704	0.084	0.087
-376.873	205.555	0.104	-0.163
-375.858	-69.658	-0.256	-0.099
-374.844	571.119	-0.091	-0.225
-373.829	-118.396	-0.363	0.065
-372.815	-93.240	-0.311	-0.087
-371.800	800.000	0.043	0.173
-370.785	800.000	0.065	-0.246
-369.771	-200.000	-0.029	-0.241
-368.756	75.470	0.211	0.224
-367.742	-10.614	-0.148	-0.099
-366.727	-200.000	0.033	-0.399
-365.712	6.765	-0.104	-0.078
-364.698	-85.119	0.177	0.056
-363.683	-200.000	-0.023	0.317
-362.669	36.965	0.111	-0.099
-361.654	-200.000	0.084	-0.385
-360.639	-80.760	-0.382	-0.128
-359.625	92.960	-0.209	-0.238
-358.610	27.286	-0.249	-0.211
-357.596	-9.533	-0.123	0.083
-356.581	-81.708	-0.109	0.036
-355.566	-200.000	0.023	-0.127
-354.552	-104.353	0.098	0.023
-353.537	-200.000	0.005	-0.188
-352.523	-200.000	-0.008	0.053
-351.508	30.948	-0.204	-0.177
-350.493	-71.670	-0.125	-0.047
-349.479	106.506	0.146	0.175
-348.464	11.669	-0.154	-0.119
-347.450	-200.000	-0.016	0.291
-346.435	-79.686	-0.155	-0.053
-345.420	-50.038	0.087	-0.042
-344.406	-200.000	-0.032	0.189
-343.391	-4.250	0.282	-0.197
-342.377	-200.000	0.027	0.290
-341.362	-114.248	-0.154	-0.030
-340.348	-25.537	0.156	0.093
-339.333	118.968	0.166	0.207
-338.318	67.494	-0.228	-0.234
-337.304	-113.736	0.119	0.023
-336.289	-115.141	-0.337	-0.064
-335.275	334.300	-0.086	-0.167
-334.260	-94.391	0.212	-0.058
-333.245	-76.419	0.162	0.058
-332.231	-59.164	-0.183	0.080
-331.216	14.653	-0.226	0.178
-330.202	454.222	-0.083	-0.185
-329.187	-45.100	0.074	0.037
-328.172	277.650	-0.082	-0.147
-327.158	-200.000	-0.023	-0.361
-326.143	85.418	-0.136	-0.150
-325.129	106.430	-0.171	0.204
-324.114	424.723	-0.114	-0.247
-323.099	800.000	-0.059	-0.165
-322.085	-164.059	0.299	0.014
-321.070	261.822	-0.097	0.170
-320.056	-104.387	0.118	-0.028
-319.041	-65.107	0.237	0.096
-318.026	-5.031	-0.325	0.226
-317.012	-151.937	-0.107	0.008
-315.997	800.000	0.023	0.066
-314.983	200.024	0.232	0.359
-313.968	364.340	-0.053	0.107
-312.953	11.744	0.076	-0.059
-311.939	386.195	-0.021	-0.043
-310.924	800.000	0.051	-0.144
-309.910	7.069	-0.106	0.080
-308.895	249.164	0.245	0.418
-307.880	-52.727	-0.038	-0.018
-306.866	-76.803	-0.130	-0.046
-305.851	-200.000	-0.039	-0.190
-304.837	65.555	-0.202	-0.205
-303.822	-26.881	0.119	0.070
-302.807	107.662	-0.172	0.206
-301.793	357.259	0.105	0.211
-300.778	-13.907	0.231	0.150
-299.764	800.000	0.109	0.376
-298.749	247.326	0.195	-0.331
-297.735	-155.894	0.160	-0.010
-296.720	61.560	0.293	0.293
-295.705	-63.781	-0.033	0.014
-294.691	24.408	-0.197	0.164
-293.676	-200.000	-0.032	-0.203
-292.662	-123.273	0.116	-0.019
-291.647	-99.313	0.453	-0.115
-290.632	304.193	-0.213	-0.398
-289.618	-125.267	0.372	-0.057
-288.603	-200.000	-0.029	0.185
-287.589	163.760	0.291	0.411
-286.574	-200.000	0.340	0.002
-285.559	800.000	-0.162	-0.590
-284.545	443.580	0.097	0.213
-283.530	-200.000	-0.039	-0.241
-282.516	-145.473	0.241	0.022
-281.501	-42.739	-0.129	0.066
-280.486	800.000	-0.115	-0.483
-279.472	220.961	0.264	0.427
-278.457	800.000	0.022	-0.077
-277.443	-137.102	-0.035	0.004
-276.428	800.000	-0.049	-0.150
-275.413	-0.472	0.113	-0.080
-274.399	131.830	0.249	0.322
-273.384	-114.933	-0.289	-0.055
-272.370	-44.752	0.271	0.136
-271.355	-140.714	0.272	-0.028
-270.340	-159.700	0.233	-0.013
-269.326	-11.528	-0.160	-0.106
-268.311	-200.000	-0.010	-0.054
-267.297	11.454	-0.129	-0.099
-266.282	-96.943	-0.453	0.119
-265.267	-135.112	0.516	-0.062
-264.253	230.838	0.201	0.330
-263.238	141.951	-0.072	0.096
-262.224	129.919	0.156	0.200
-261.209	407.929	-0.082	-0.173
-260.195	155.248	0.154	-0.212
-259.180	-63.864	0.060	0.024
-258.165	-42.280	-0.130	0.067
-257.151	130.072	0.069	0.089
-256.136	124.780	-0.118	-0.149
-255.122	323.188	-0.094	0.180
-254.107	-200.000	-0.021	0.182
-253.092	-51.618	0.178	-0.084
-252.078	22.046	0.282	-0.231
-251.063	448.366	-0.024	0.052
-250.049	243.793	0.074	0.124
-249.034	-200.000	0.001	-0.141
-248.019	49.846	0.301	0.285
-247.005	148.024	0.168	0.227
-245.990	-2.021	0.188	-0.133
-244.976	-200.000	0.008	-0.052
-243.961	40.560	-0.173	-0.157
-242.946	-66.304	0.091	0.036
-241.932	800.000	0.046	0.174
-240.917	-128.663	0.211	-0.030
-239.903	367.879	0.149	-0.303
-238.888	-108.883	-0.388	0.083
-237.873	-67.892	0.305	0.120
-236.859	-36.159	-0.193	0.104
-235.844	-200.000	-0.009	-0.093
-234.830	-164.984	0.259	-0.012
-233.815	511.028	-0.166	-0.387
-232.800	33.724	0.353	0.308
-231.786	10.478	-0.071	0.054
-230.771	-200.000	-0.014	-0.091
-229.757	-200.000	-0.026	-0.411
-228.742	800.000	-0.033	0.107
-227.727	479.658	-0.087	0.197
-226.713	84.314	0.158	-0.173
-225.698	-7.674	0.079	0.053
-224.684	43.929	-0.116	-0.107
-223.669	99.700	-0.092	0.107
-222.655	60.202	-0.168	-0.166
-221.640	21.521	0.152	-0.124
-220.625	55.998	0.215	-0.209
-219.611	-90.340	-0.172	-0.050
-218.596	800.000	0.064	0.226
-217.582	-130.300	-0.166	0.023
-216.567	-200.000	-0.026	-0.190
-215.552	-200.000	0.014	0.140
-214.538	187.325	-0.181	0.270
-213.523	800.000	0.042	-0.122
-212.509	30.818	-0.244	0.209
-211.494	110.769	-0.082	-0.099
-210.479	105.113	-0.338	0.400
-209.465	240.676	0.110	-0.183
-208.450	-37.578	0.259	-0.139
-207.436	-90.701	-0.285	0.082
-206.421	43.638	-0.206	-0.189
-205.406	255.844	0.264	0.454
-204.392	-15.276	0.241	-0.154
-203.377	799.893	-0.108	0.299
-202.363	-200.000	-0.002	-0.115
-201.348	-75.296	0.145	-0.052
-200.333	54.645	0.120	0.116
-199.319	-200.000	-0.001	-0.254
-198.304	-64.306	0.263	-0.107
-197.290	91.945	0.254	-0.287
-196.275	-10.130	0.162	-0.108
-195.260	-170.505	-0.116	-0.004
-194.246	-200.000	0.085	0.418
-193.231	-200.000	-0.004	0.147
-192.217	-161.053	-0.141	0.007
-191.202	-122.123	-0.202	0.033
-190.187	755.859	0.049	0.132
-189.173	248.352	0.093	0.158
-188.158	800.000	0.102	-0.316
-187.144	21.125	-0.114	0.093
-186.129	800.000	0.066	0.218
-185.114	-200.000	-0.088	0.447
-184.100	419.604	-0.193	0.415
-183.085	2.046	-0.201	0.145
-182.071	-47.489	0.078	-0.038
-181.056	35.758	-0.110	0.097
-180.042	15.382	0.027	0.021
-179.027	-139.441	0.245	0.026
-178.012	-191.408	0.233	0.002
-176.998	-0.164	0.168	0.120
-175.983	-144.481	-0.287	-0.027
-174.969	800.000	-0.102	-0.346
-173.954	-30.695	-0.249	-0.141
-172.939	55.567	0.262	-0.254
-171.925	4.629	0.170	-0.125
-170.910	572.364	-0.061	0.149
-169.896	221.415	-0.148	0.238
-168.881	-200.000	0.008	0.186
-167.866	-129.437	0.296	0.041
-166.852	613.750	-0.082	0.206
-165.837	200.154	0.026	-0.041
-164.823	106.038	0.067	0.079
-163.808	-23.800	-0.044	0.026
-162.793	8.678	-0.296	-0.223
-161.779	136.593	0.047	-0.061
-160.764	-111.883	-0.130	0.026
-159.750	7.126	-0.169	-0.126
-158.735	-50.579	-0.085	0.040
-157.720	800.000	0.087	0.323
-156.706	16.695	-0.308	0.243
-155.691	-200.000	-0.028	0.213
-154.677	800.000	0.084	-0.271
-153.662	147.797	-0.190	0.257
-152.647	-44.353	-0.216	0.108
-151.633	-127.467	0.251	-0.037
-150.618	-34.459	0.130	0.071
-149.604	-11.910	-0.024	0.016
-148.589	92.507	0.033	-0.037
-147.574	-136.176	-0.198	0.023
-146.560	-119.640	-0.152	-0.026
-145.545	-118.577	-0.061	0.011
-144.531	-113.427	0.206	0.040
-143.516	-132.148	-0.304	0.039
-142.502	67.329	-0.125	0.128
-141.487	62.391	-0.195	-0.195
-140.472	52.096	-0.200	0.191
-139.458	120.943	-0.084	0.105
-138.443	18.270	0.098	0.078
-137.429	-200.000	-0.078	0.368
-136.414	-200.000	0.003	-0.089
-135.399	442.169	0.165	0.361
-134.385	-118.979	-0.358	-0.063
-133.370	-0.418	-0.106	0.075
-132.356	-28.066	-0.076	-0.044
-131.341	78.066	-0.044	0.046
-130.326	91.956	0.137	-0.154
-129.312	455.949	-0.045	0.100
-128.297	1.973	-0.034	-0.025
-127.283	207.982	0.033	0.051
-126.268	800.000	0.009	0.033
-125.253	-200.000	0.087	0.428
-124.239	-147.223	0.127	0.011
-123.224	-9.598	-0.162	0.108
-122.210	800.000	0.011	0.047
-121.195	615.928	-0.053	-0.133
-120.180	-63.015	-0.127	0.052
