DTS Sentinel unit serial number:	SN413079Multiplexer serial number:	ORYXHardware model number:	OX4-SRSoftware version number:	ORYX F/W v4.00 Oryx Data Collector v3.7.2.0data status	okinstallation	princeton_trtdifferential loss correction	single-endedforward channel	channel 3reverse channel	N/Adate	2019/09/15time	08:44:35forward acquisition time	60.00reverse acquisition time	0.00gamma	496.2192k internal	0.2318k external	0.2318temperature offset calibration	0.9976default loss term (dB/km)	0.3790temperature slope calibration	1.0000multiplexer offset coefficient	1.0000multiplexer slope coefficient	1.0000fibre end	0.00T internal ref (°C)	32.16T ext. ref 1 (°C)	4.98T ext. ref 2 (°C)	29.40length (m)	temperature (°C)	Stokes	anti-Stokes-747.200	375.178	0.251	-0.519
-746.185	-64.130	-0.211	0.087
-745.171	446.429	-0.126	-0.281
-744.156	-75.474	0.144	0.052
-743.142	11.947	-0.209	-0.163
-742.127	-136.100	-0.032	0.004
-741.112	-114.646	-0.251	0.049
-740.098	-41.395	0.112	0.058
-739.083	262.137	-0.123	0.216
-738.069	-81.031	-0.067	-0.023
-737.054	6.953	-0.112	-0.084
-736.039	310.280	0.088	-0.168
-735.025	260.130	0.120	0.210
-734.010	16.845	0.100	-0.080
-732.996	592.171	-0.117	-0.291
-731.981	-43.723	-0.123	0.063
-730.966	-13.118	-0.121	-0.080
-729.952	800.000	0.085	0.241
-728.937	190.928	0.107	0.163
-727.923	164.117	-0.144	-0.205
-726.908	135.549	-0.162	0.213
-725.894	407.292	-0.020	-0.043
-724.879	-200.000	0.020	-0.412
-723.864	-38.443	-0.288	-0.154
-722.850	-56.536	-0.201	0.090
-721.835	-104.632	-0.032	-0.007
-720.821	-92.794	-0.168	-0.048
-719.806	43.889	-0.150	0.139
-718.791	-200.000	-0.005	-0.149
-717.777	-200.000	0.035	-0.226
-716.762	-200.000	-0.096	0.429
-715.748	6.361	0.160	-0.120
-714.733	48.215	-0.238	0.225
-713.718	-129.438	-0.184	-0.026
-712.704	79.561	0.185	-0.201
-711.689	-148.769	0.103	0.008
-710.675	-10.461	0.084	0.056
-709.660	-42.250	-0.154	-0.080
-708.645	800.000	-0.011	0.030
-707.631	46.776	0.167	-0.156
-706.616	800.000	-0.074	-0.211
-705.602	-181.393	-0.297	0.006
-704.587	673.962	-0.028	0.074
-703.572	800.000	-0.081	0.270
-702.558	-200.000	-0.250	0.001
-701.543	85.006	-0.086	0.095
-700.529	800.000	0.100	0.298
-699.514	-68.482	0.395	-0.155
-698.499	-89.070	-0.168	0.050
-697.485	98.314	0.058	0.067
-696.470	53.105	0.098	0.095
-695.456	562.823	0.110	-0.268
-694.441	-200.000	-0.088	-0.392
-693.426	800.000	-0.070	0.274
-692.412	-101.858	0.237	-0.058
-691.397	153.822	0.021	0.029
-690.383	-200.000	0.018	0.101
-689.368	-72.788	0.118	0.044
-688.354	704.037	0.094	0.251
-687.339	-79.914	0.283	0.096
-686.324	-200.000	-0.029	-0.247
-685.310	67.838	-0.107	0.110
-684.295	800.000	-0.109	-0.310
-683.281	25.267	-0.081	0.068
-682.266	-84.540	-0.287	0.091
-681.251	126.697	0.215	-0.275
-680.237	-10.506	0.318	-0.213
-679.222	-132.528	0.091	0.012
-678.208	193.520	0.081	-0.124
-677.193	219.677	-0.087	-0.141
-676.178	-148.104	-0.227	-0.019
-675.164	-140.822	0.174	-0.018
-674.149	800.000	0.025	0.077
-673.135	-200.000	0.025	-0.375
-672.120	-82.521	-0.037	0.012
-671.105	675.032	-0.134	0.351
-670.091	-15.548	0.027	-0.017
-669.076	83.064	-0.131	0.144
-668.062	40.182	0.144	0.130
-667.047	-102.470	-0.320	0.077
-666.032	8.912	0.412	0.314
-665.018	-141.959	0.160	0.016
-664.003	-128.211	0.073	-0.011
-662.989	-16.700	-0.019	-0.012
-661.974	159.427	-0.056	-0.078
-660.959	-172.276	-0.036	0.001
-659.945	-198.408	-0.276	0.002
-658.930	-74.052	0.261	0.095
-657.916	42.568	0.002	-0.002
-656.901	533.113	0.019	0.046
-655.886	610.792	-0.117	0.296
-654.872	-100.058	-0.252	-0.063
-653.857	800.000	-0.102	-0.286
-652.843	800.000	-0.096	-0.271
-651.828	-139.147	0.254	0.028
-650.814	482.076	-0.150	0.343
-649.799	-98.861	-0.114	-0.029
-648.784	701.107	0.064	-0.171
-647.770	414.629	-0.037	-0.080
-646.755	-200.000	-0.024	-0.299
-645.741	69.500	-0.229	0.238
-644.726	248.682	-0.042	-0.071
-643.711	-31.095	0.172	-0.098
-642.697	-200.000	-0.024	0.162
-641.682	440.886	-0.146	0.322
-640.668	800.000	0.125	0.391
-639.653	137.275	0.223	-0.293
-638.638	151.563	0.079	-0.109
-637.624	78.987	-0.152	0.164
-636.609	800.000	0.051	-0.186
-635.595	-110.031	-0.129	0.027
-634.580	50.468	0.167	0.159
-633.565	-200.000	0.007	0.247
-632.551	-140.328	-0.063	0.007
-631.536	800.000	0.042	-0.160
-630.522	150.082	-0.199	0.273
-629.507	-21.988	-0.246	-0.150
-628.492	309.913	-0.059	-0.111
-627.478	800.000	-0.049	-0.179
-626.463	-19.341	0.038	0.024
-625.449	552.572	-0.139	-0.337
-624.434	48.937	-0.135	0.128
-623.419	363.260	0.113	-0.229
-622.405	-141.000	0.204	-0.021
-621.390	-106.660	-0.389	-0.087
-620.376	-200.000	-0.029	-0.243
-619.361	28.789	-0.300	-0.256
-618.346	800.000	0.063	-0.233
-617.332	15.289	-0.117	0.093
-616.317	-158.428	-0.328	-0.019
-615.303	-160.612	-0.132	0.007
-614.288	78.955	-0.058	0.062
-613.273	30.348	0.093	0.080
-612.259	63.979	0.036	0.037
-611.244	279.740	0.131	0.236
-610.230	-190.437	-0.187	0.002
-609.215	800.000	0.067	-0.265
-608.201	253.227	0.131	0.225
-607.186	-161.069	-0.355	-0.019
-606.171	-3.678	-0.146	-0.102
-605.157	-109.653	0.270	-0.057
-604.142	-78.497	0.270	-0.093
-603.128	-24.275	0.234	-0.140
-602.113	-100.053	0.142	0.036
-601.098	225.509	-0.127	-0.207
-600.084	24.962	-0.210	0.175
-599.069	168.748	-0.121	-0.173
-598.055	-111.074	-0.141	0.029
-597.040	-200.000	0.031	-0.243
-596.025	258.162	-0.160	-0.277
-595.011	-200.000	-0.038	-0.185
-593.996	800.000	0.039	-0.146
-592.982	306.960	0.077	0.144
-591.967	-79.079	0.167	-0.057
-590.952	-200.000	0.005	0.035
-589.938	-113.324	0.135	-0.027
-588.923	-200.000	0.074	-0.446
-587.909	-177.855	0.179	-0.004
-586.894	68.448	0.125	0.129
-585.879	-200.000	0.023	0.129
-584.865	256.620	0.084	-0.145
-583.850	-80.568	0.047	0.016
-582.836	148.275	0.155	0.211
-581.821	57.855	-0.161	-0.158
-580.806	-82.071	-0.265	-0.087
-579.792	800.000	-0.035	-0.105
-578.777	-40.854	-0.217	-0.113
-577.763	-67.652	-0.017	-0.007
-576.748	118.238	-0.130	0.162
-575.733	-85.042	-0.064	-0.020
-574.719	578.464	0.033	-0.081
-573.704	345.112	0.100	-0.197
-572.690	-83.507	0.132	-0.042
-571.675	156.963	0.101	0.141
-570.661	-134.379	0.357	0.044
-569.646	-200.000	-0.038	-0.270
-568.631	-72.660	-0.271	-0.101
-567.617	194.320	-0.052	-0.078
-566.602	601.590	-0.106	-0.265
-565.588	199.851	-0.191	0.294
-564.573	74.352	0.062	0.065
-563.558	8.081	-0.122	0.092
-562.544	466.974	-0.074	0.166
-561.529	800.000	0.111	-0.393
-560.515	-200.000	-0.016	-0.159
-559.500	-200.000	0.048	-0.236
-558.485	324.236	0.149	-0.286
-557.471	-27.884	-0.218	-0.127
-556.456	-71.201	-0.169	-0.064
-555.442	-200.000	0.055	-0.278
-554.427	6.434	0.092	0.069
-553.412	-154.486	-0.185	0.012
-552.398	800.000	-0.048	0.170
-551.383	800.000	0.025	0.110
-550.369	-40.562	-0.352	-0.183
-549.354	-186.552	0.351	0.005
-548.339	-75.158	0.176	-0.063
-547.325	-135.354	-0.250	-0.030
-546.310	-96.535	-0.102	-0.027
-545.296	-82.080	0.279	-0.092
-544.281	-200.000	0.011	0.198
-543.266	-144.085	-0.296	-0.028
-542.252	800.000	0.048	0.201
-541.237	570.016	-0.115	-0.282
-540.223	334.317	-0.058	-0.113
-539.208	-100.503	-0.482	-0.120
-538.193	800.000	0.016	-0.047
-537.179	98.885	0.196	-0.227
-536.164	67.020	-0.272	0.279
-535.150	-200.000	-0.030	-0.450
-534.135	-103.093	-0.198	0.047
-533.121	-99.524	0.314	0.079
-532.106	19.891	0.276	0.223
-531.091	-58.458	0.064	0.028
-530.077	-200.000	-0.003	-0.037
-529.062	800.000	-0.061	-0.207
-528.048	35.163	-0.037	0.032
-527.033	477.732	-0.055	0.126
-526.018	-66.648	-0.190	0.076
-525.004	15.944	-0.173	-0.137
-523.989	135.911	-0.128	-0.167
-522.975	-86.924	0.248	0.076
-521.960	-200.000	0.025	-0.199
-520.945	-9.439	-0.172	0.115
-519.931	-5.690	0.281	0.193
-518.916	-94.571	0.060	0.016
-517.902	-66.317	0.445	-0.178
-516.887	-81.499	-0.256	0.084
-515.872	212.702	-0.134	0.212
-514.858	-96.084	0.373	0.099
-513.843	-20.341	-0.402	-0.248
-512.829	-9.679	0.177	-0.118
-511.814	800.000	0.029	-0.092
-510.799	-113.568	0.188	-0.037
-509.785	-144.310	-0.388	-0.036
-508.770	-141.088	-0.177	-0.018
-507.756	-200.000	-0.003	0.173
-506.741	-70.686	0.152	-0.058
-505.726	157.296	0.064	0.089
-504.712	-130.277	0.052	-0.007
-503.697	688.547	0.120	0.316
-502.683	272.402	0.114	0.202
-501.668	-43.375	0.206	0.104
-500.653	51.918	-0.109	0.105
-499.639	54.773	0.130	0.126
-498.624	273.227	-0.043	0.077
-497.610	-121.425	-0.115	0.019
-496.595	-105.104	0.342	0.078
-495.581	-97.405	-0.145	-0.038
-494.566	107.796	-0.169	0.202
-493.551	-200.000	-0.001	0.095
-492.537	383.627	-0.073	0.151
-491.522	177.930	-0.111	0.162
-490.508	-200.000	0.051	-0.404
-489.493	-79.999	0.045	0.015
-488.478	-7.286	-0.046	0.032
-487.464	257.758	0.136	0.235
-486.449	-191.734	-0.132	0.001
-485.435	716.886	-0.095	0.254
-484.420	-87.879	-0.342	0.103
-483.405	1.394	0.288	0.207
-482.391	-62.320	-0.229	-0.096
-481.376	-200.000	-0.004	-0.387
-480.362	64.198	-0.176	-0.177
-479.347	322.673	-0.123	-0.235
-478.332	-22.655	-0.201	0.122
-477.318	-131.086	0.126	-0.017
-476.303	-200.000	-0.018	0.114
-475.289	-12.101	-0.166	-0.109
-474.274	-46.460	0.099	0.049
-473.259	655.791	0.070	-0.180
-472.245	89.573	0.139	0.156
-471.230	-164.814	0.199	-0.009
-470.216	23.232	-0.196	0.161
-469.201	-114.660	-0.349	-0.067
-468.186	-78.722	-0.176	-0.060
-467.172	141.838	0.048	-0.063
-466.157	-52.578	-0.010	-0.004
-465.143	-19.781	-0.279	-0.173
-464.128	115.280	-0.252	-0.308
-463.113	123.195	-0.002	-0.002
-462.099	-106.672	-0.279	-0.062
-461.084	110.521	-0.199	-0.239
-460.070	-135.681	-0.108	-0.013
-459.055	-25.899	0.161	-0.095
-458.040	134.685	0.098	-0.128
-457.026	-200.000	-0.043	0.248
-456.011	-95.108	-0.113	-0.031
-454.997	-153.417	0.366	0.025
-453.982	116.071	0.199	-0.244
-452.968	-200.000	-0.041	-0.255
-451.953	-31.748	-0.153	0.086
-450.938	-112.185	0.211	-0.042
-449.924	-200.000	-0.023	0.201
-448.909	178.086	0.088	-0.129
-447.895	55.824	-0.184	-0.178
-446.880	108.377	-0.244	-0.292
-445.865	89.100	0.338	0.376
-444.851	30.496	0.157	-0.134
-443.836	-75.651	0.037	0.013
-442.822	-200.000	-0.041	0.298
-441.807	-103.923	0.134	0.031
-440.792	32.951	-0.127	0.110
-439.778	90.501	0.293	-0.328
-438.763	800.000	-0.038	-0.115
-437.749	-82.101	-0.219	0.072
-436.734	210.207	0.111	0.174
-435.719	228.594	0.059	-0.096
-434.705	-200.000	0.000	-0.065
-433.690	40.063	0.214	0.192
-432.676	76.208	-0.113	-0.120
-431.661	0.885	-0.175	-0.125
-430.646	-31.198	-0.128	0.072
-429.632	18.906	0.088	-0.071
-428.617	-200.000	-0.013	-0.146
-427.603	-200.000	-0.035	-0.166
-426.588	-15.471	0.249	0.159
-425.573	-200.000	-0.006	0.368
-424.559	786.903	-0.022	-0.059
-423.544	-200.000	0.058	-0.282
-422.530	66.137	0.207	0.210
-421.515	91.265	0.105	0.117
-420.500	190.013	0.115	0.172
-419.486	-200.000	-0.055	0.251
-418.471	-200.000	0.008	0.078
-417.457	-200.000	0.070	-0.314
-416.442	800.000	0.040	0.135
-415.428	800.000	0.057	0.172
-414.413	800.000	0.053	-0.200
-413.398	-200.000	0.084	0.428
-412.384	-41.399	0.210	0.108
-411.369	39.011	0.099	-0.089
-410.355	-18.679	-0.059	0.036
-409.340	-172.115	0.369	-0.012
-408.325	-83.967	-0.389	-0.124
-407.311	-81.312	-0.217	0.071
-406.296	-149.971	0.026	0.002
-405.282	800.000	0.083	0.328
-404.267	-200.000	0.083	-0.461
-403.252	127.573	-0.072	-0.092
-402.238	-64.842	-0.190	0.077
-401.223	312.063	0.126	-0.237
-400.209	-193.655	0.231	-0.002
-399.194	-49.183	0.246	-0.118
-398.179	773.225	0.051	-0.139
-397.165	800.000	0.072	-0.296
-396.150	-24.192	0.167	0.100
-395.136	-106.335	-0.017	-0.004
-394.121	-114.327	-0.276	-0.053
-393.106	367.097	-0.083	-0.167
-392.092	-194.618	-0.165	0.001
-391.077	60.454	0.280	0.276
-390.063	-200.000	0.033	0.166
-389.048	26.518	0.291	-0.243
-388.033	-145.602	-0.113	-0.010
-387.019	235.837	-0.214	-0.354
-386.004	126.552	-0.124	0.157
-384.990	377.145	0.176	0.360
-383.975	334.420	0.110	0.212
-382.960	65.754	0.111	-0.113
-381.946	-96.118	0.207	0.055
-380.931	-200.000	0.023	0.246
-379.917	-200.000	-0.053	0.235
-378.902	-200.000	-0.034	0.222
-377.888	-183.053	0.182	0.003
-376.873	800.000	0.087	0.299
-375.858	80.689	0.091	0.098
-374.844	-26.253	-0.174	0.102
-373.829	-147.825	0.434	-0.036
-372.815	-164.019	-0.278	0.013
-371.800	23.268	0.286	0.234
-370.785	20.651	-0.132	0.107
-369.771	668.997	0.094	0.244
-368.756	142.942	0.190	0.252
-367.742	-105.207	0.474	0.108
-366.727	-47.021	-0.311	0.151
-365.712	559.315	0.058	-0.139
-364.698	-96.082	-0.253	0.067
-363.683	40.605	-0.172	-0.154
-362.669	228.041	-0.069	0.112
-361.654	-27.704	-0.207	-0.120
-360.639	-200.000	-0.040	-0.215
-359.625	182.251	-0.195	-0.286
-358.610	-78.068	-0.215	-0.074
-357.596	-200.000	-0.010	0.133
-356.581	630.276	-0.057	0.143
-355.566	-33.289	0.232	0.128
-354.552	800.000	0.036	0.144
-353.537	-200.000	0.009	0.110
-352.523	108.445	-0.050	0.059
-351.508	-88.387	-0.212	-0.063
-350.493	58.181	-0.071	-0.069
-349.479	-200.000	0.053	-0.244
-348.464	214.822	-0.111	0.176
-347.450	-100.590	-0.152	0.037
-346.435	301.049	-0.096	0.177
-345.420	-200.000	-0.039	-0.336
-344.406	-102.552	0.199	0.047
-343.391	-200.000	-0.003	0.073
-342.377	126.485	-0.053	-0.067
-341.362	-14.156	-0.424	0.273
-340.348	222.211	0.113	-0.181
-339.333	213.259	0.025	-0.040
-338.318	800.000	0.018	-0.051
-337.304	324.596	0.227	0.432
-336.289	-22.740	-0.158	0.095
-335.275	800.000	0.107	0.376
-334.260	-22.812	0.044	-0.027
-333.245	-200.000	0.002	-0.184
-332.231	176.029	0.234	-0.338
-331.216	-74.194	0.434	-0.156
-330.202	11.054	0.107	-0.081
-329.187	800.000	-0.044	-0.138
-328.172	3.936	0.186	0.136
-327.158	105.666	0.104	-0.123
-326.143	-82.069	-0.334	-0.108
-325.129	27.816	0.168	-0.141
-324.114	-147.855	-0.240	0.020
-323.099	230.053	0.118	0.192
-322.085	199.620	0.099	-0.151
-321.070	21.998	0.072	0.058
-320.056	-200.000	-0.031	0.244
-319.041	44.647	-0.112	0.102
-318.026	611.035	0.148	0.368
-317.012	115.782	0.174	0.212
-315.997	77.927	0.058	0.062
-314.983	-31.407	-0.274	-0.154
-313.968	800.000	-0.146	-0.497
-312.953	-97.997	0.274	-0.070
-311.939	-22.204	-0.130	0.078
-310.924	143.819	0.145	-0.193
-309.910	9.059	-0.109	0.082
-308.895	8.274	-0.324	0.242
-307.880	284.267	-0.192	-0.343
-306.866	-91.813	0.200	-0.057
-305.851	-200.000	-0.015	-0.150
-304.837	156.069	-0.245	0.336
-303.822	-200.000	0.028	-0.158
-302.807	150.219	-0.232	0.313
-301.793	71.204	-0.116	-0.120
-300.778	669.473	0.061	-0.156
-299.764	-135.448	0.256	0.030
-298.749	1.142	-0.068	-0.048
-297.735	310.355	-0.105	-0.195
-296.720	5.492	0.098	-0.072
-295.705	-46.102	-0.189	0.093
-294.691	-76.946	-0.190	-0.066
-293.676	-200.000	0.024	-0.220
-292.662	130.958	0.194	-0.248
-291.647	800.000	-0.032	0.117
-290.632	94.715	-0.217	-0.246
-289.618	58.163	0.072	-0.070
-288.603	-200.000	-0.041	0.282
-287.589	-200.000	0.031	-0.182
-286.574	-200.000	-0.005	0.166
-285.559	800.000	0.076	0.312
-284.545	-133.254	0.430	0.054
-283.530	-118.721	-0.185	-0.032
-282.516	-119.566	-0.329	0.057
-281.501	800.000	-0.100	-0.351
-280.486	-200.000	-0.025	0.356
-279.472	-5.761	0.133	-0.091
-278.457	127.942	0.202	0.256
-277.443	-17.643	-0.160	0.100
-276.428	-146.766	-0.241	0.021
-275.413	-200.000	-0.042	0.224
-274.399	800.000	0.088	-0.359
-273.384	148.637	0.056	0.075
-272.370	236.823	0.150	0.247
-271.355	-200.000	-0.041	0.248
-270.340	432.115	-0.079	0.171
-269.326	495.107	0.074	0.168
-268.311	325.861	-0.151	0.287
-267.297	-200.000	0.004	0.184
-266.282	81.645	0.201	-0.217
-265.267	-88.300	-0.180	-0.053
-264.253	800.000	-0.065	0.257
-263.238	-141.602	-0.221	-0.022
-262.224	-119.556	-0.161	-0.028
-261.209	-84.434	0.087	-0.027
-260.195	-75.546	-0.116	0.041
-259.180	-200.000	0.067	0.362
-258.165	-27.799	-0.449	-0.258
-257.151	-118.823	0.386	0.067
-256.136	-200.000	0.026	0.288
-255.122	-117.134	0.230	0.042
-254.107	-200.000	0.019	-0.216
-253.092	-200.000	-0.041	0.325
-252.078	-161.996	0.449	0.023
-251.063	800.000	-0.051	-0.167
-250.049	27.940	0.305	-0.255
-249.034	556.490	-0.069	0.164
-248.019	-88.568	0.164	-0.049
-247.005	59.054	0.137	-0.133
-245.990	-71.278	0.044	-0.016
-244.976	-122.663	-0.210	0.034
-243.961	800.000	-0.078	0.291
-242.946	92.332	0.063	0.070
-241.932	-200.000	0.016	0.103
-240.917	-101.062	0.395	-0.096
-239.903	654.926	-0.088	0.225
-238.888	72.892	0.049	0.051
-237.873	-200.000	-0.033	-0.147
-236.859	-9.885	0.385	0.254
-235.844	-116.282	0.204	-0.038
-234.830	-200.000	-0.022	-0.103
-233.815	-200.000	0.025	0.141
-232.800	-54.937	-0.038	-0.017
-231.786	-168.848	-0.106	0.004
-230.771	94.820	-0.119	-0.134
-229.757	-60.990	0.225	-0.094
-228.742	-200.000	-0.223	0.000
-227.727	-48.039	0.174	-0.083
-226.713	-200.000	0.038	0.417
-225.698	20.351	0.275	0.221
-224.684	-122.705	0.340	0.055
-223.669	-142.934	-0.136	-0.013
-222.655	61.446	0.117	0.116
-221.640	92.441	-0.156	0.174
-220.625	244.949	0.068	-0.113
-219.611	-200.000	-0.011	-0.122
-218.596	138.922	0.214	0.279
-217.582	1.211	-0.145	0.103
-216.567	-51.752	0.166	-0.077
-215.552	258.868	0.044	0.075
-214.538	-37.343	-0.353	-0.187
-213.523	-200.000	0.015	0.132
-212.509	-86.313	-0.224	0.068
-211.494	-158.300	-0.219	-0.013
-210.479	800.000	0.040	-0.120
-209.465	-30.609	-0.123	0.069
-208.450	357.954	0.066	0.131
-207.436	436.784	0.093	0.201
-206.421	131.711	0.086	0.109
-205.406	251.583	-0.110	-0.186
-204.392	432.442	0.097	-0.209
-203.377	-200.000	-0.043	-0.356
-202.363	-200.000	-0.021	0.156
-201.348	-136.801	-0.143	-0.016
-200.333	-200.000	0.073	0.425
-199.319	800.000	-0.045	-0.168
-198.304	-78.861	-0.291	-0.098
-197.290	476.969	-0.124	-0.278
-196.275	40.681	0.106	-0.095
-195.260	800.000	0.044	-0.131
-194.246	-76.955	-0.183	0.063
-193.231	-200.000	0.072	-0.000
-192.217	270.730	0.133	-0.232
-191.202	-32.503	0.227	-0.125
-190.187	-49.096	0.077	0.036
-189.173	-200.000	0.010	-0.159
-188.158	-146.999	-0.109	-0.009
-187.144	-200.000	0.036	0.173
-186.129	-20.558	0.031	-0.019
-185.114	800.000	-0.046	-0.172
-184.100	328.252	0.052	0.099
-183.085	14.974	-0.252	0.195
-182.071	800.000	0.076	0.225
-181.056	-95.335	0.304	-0.081
-180.042	-200.000	0.059	-0.278
-179.027	-92.638	-0.073	0.020
-178.012	248.097	-0.090	-0.151
-176.998	-29.845	-0.045	0.025
-175.983	589.497	0.028	0.069
-174.969	-200.000	0.026	0.333
-173.954	52.965	0.134	0.127
-172.939	98.242	0.214	-0.244
-171.925	-64.884	-0.117	0.047
-170.910	-81.616	0.052	-0.017
-169.896	-78.882	0.193	-0.065
-168.881	-200.000	0.018	0.107
-167.866	231.970	0.076	0.123
-166.852	431.468	0.028	0.059
-165.837	20.537	-0.214	0.172
-164.823	240.830	0.108	0.178
-163.808	93.727	0.084	-0.094
-162.793	-101.414	-0.239	-0.058
-161.779	221.135	-0.048	0.077
-160.764	184.897	0.106	0.156
-159.750	-200.000	0.001	-0.240
-158.735	552.261	0.153	-0.364
-157.720	800.000	-0.033	-0.096
-156.706	-20.096	-0.231	-0.141
-155.691	-200.000	0.035	-0.186
-154.677	-122.426	0.280	0.045
-153.662	-124.585	0.251	0.039
-152.647	544.431	-0.109	0.258
-151.633	197.132	0.175	0.264
-150.618	152.211	0.061	-0.082
-149.604	288.826	-0.114	0.204
-148.589	18.306	-0.155	0.122
-147.574	-200.000	-0.031	0.233
-146.560	-200.000	-0.005	-0.085
-145.545	-33.640	0.183	0.100
-144.531	-27.258	-0.211	0.122
-143.516	89.155	-0.114	-0.126
-142.502	-55.577	-0.284	0.126
-141.487	108.830	0.068	-0.081
-140.472	-74.573	0.294	0.105
-139.458	-64.615	-0.455	0.182
-138.443	484.901	-0.185	-0.417
-137.429	174.801	-0.036	-0.051
-136.414	-136.193	-0.300	0.035
-135.399	-200.000	-0.035	0.341
-134.385	-200.000	-0.007	0.188
-133.370	800.000	0.028	-0.110
-132.356	-88.709	0.377	0.111
-131.341	-113.461	0.375	-0.073
-130.326	-200.000	0.004	0.321
-129.312	800.000	-0.108	-0.354
-128.297	-97.780	0.070	-0.018
-127.283	-41.086	-0.203	-0.104
-126.268	-47.278	0.201	-0.097
-125.253	247.681	0.081	0.135
-124.239	-108.892	-0.200	-0.042
-123.224	61.749	-0.138	-0.135
-122.210	-51.347	-0.168	0.078
-121.195	172.631	-0.182	0.259
