DTS Sentinel unit serial number:	SN413079Multiplexer serial number:	ORYXHardware model number:	OX4-SRSoftware version number:	ORYX F/W v4.00 Oryx Data Collector v3.7.2.0data status	okinstallation	princeton_trtdifferential loss correction	single-endedforward channel	channel 3reverse channel	N/Adate	2019/09/15time	19:16:34forward acquisition time	60.00reverse acquisition time	0.00gamma	496.2192k internal	0.2295k external	0.2295temperature offset calibration	0.9936default loss term (dB/km)	0.3790temperature slope calibration	1.0000multiplexer offset coefficient	1.0000multiplexer slope coefficient	1.0000fibre end	0.00T internal ref (°C)	40.30T ext. ref 1 (°C)	7.18T ext. ref 2 (°C)	29.55length (m)	temperature (°C)	Stokes	anti-Stokes-747.200	-42.352	0.206	-0.108
-746.185	208.428	-0.245	0.391
-745.171	133.044	0.058	-0.077
-744.156	800.000	-0.041	0.147
-743.142	-26.358	-0.216	0.130
-742.127	22.584	-0.266	0.223
-741.112	-155.097	-0.205	0.014
-740.098	-32.143	-0.274	0.157
-739.083	10.828	-0.081	0.063
-738.069	-6.011	-0.396	-0.277
-737.054	276.371	-0.215	-0.390
-736.039	-108.700	-0.229	0.050
-735.025	-137.523	-0.084	0.010
-734.010	-200.000	-0.012	-0.423
-732.996	5.635	-0.156	-0.118
-731.981	4.126	0.288	-0.215
-730.966	157.355	-0.191	-0.270
-729.952	-112.523	-0.386	-0.079
-728.937	-50.521	0.047	-0.022
-727.923	-42.596	-0.057	0.030
-726.908	539.224	0.090	-0.219
-725.894	-12.346	0.065	-0.043
-724.879	5.811	-0.218	-0.165
-723.864	-71.637	0.017	0.006
-722.850	-56.505	0.120	0.054
-721.835	-95.379	-0.181	0.050
-720.821	800.000	-0.060	0.173
-719.806	216.599	-0.160	0.260
-718.791	-25.859	-0.220	-0.133
-717.777	-109.406	0.260	0.056
-716.762	-200.000	0.002	0.347
-715.748	116.641	0.131	-0.164
-714.733	-200.000	0.050	0.245
-713.718	-191.173	0.106	0.001
-712.704	800.000	0.031	-0.102
-711.689	10.720	0.048	0.038
-710.675	-31.222	-0.228	-0.131
-709.660	-12.770	-0.041	0.027
-708.645	800.000	0.115	0.411
-707.631	800.000	0.064	0.195
-706.616	-20.990	0.126	0.079
-705.602	-16.901	0.394	0.254
-704.587	294.309	0.077	0.143
-703.572	800.000	0.059	-0.229
-702.558	-200.000	0.015	-0.123
-701.543	-20.787	0.231	-0.145
-700.529	-40.622	-0.208	-0.110
-699.514	63.119	-0.114	-0.116
-698.499	372.549	0.174	-0.362
-697.485	-145.309	-0.324	-0.030
-696.470	800.000	-0.084	0.244
-695.456	100.103	0.023	-0.027
-694.441	800.000	-0.041	0.160
-693.426	781.373	0.043	-0.120
-692.412	-28.518	-0.146	0.086
-691.397	-200.000	-0.046	0.278
-690.383	-137.721	-0.220	0.025
-689.368	55.707	0.039	-0.039
-688.354	124.847	0.216	0.277
-687.339	-140.859	0.101	-0.011
-686.324	223.355	0.201	-0.331
-685.310	86.116	-0.210	0.236
-684.295	-200.000	-0.015	0.116
-683.281	-142.607	-0.261	-0.026
-682.266	46.865	-0.183	-0.173
-681.251	32.757	0.195	-0.172
-680.237	-31.507	-0.152	0.087
-679.222	-89.055	-0.168	-0.051
-678.208	161.359	-0.176	0.251
-677.193	-126.968	0.261	-0.039
-676.178	-200.000	0.006	0.040
-675.164	91.749	0.193	-0.221
-674.149	224.274	0.066	0.108
-673.135	-124.378	-0.292	-0.046
-672.120	169.099	0.217	-0.315
-671.105	800.000	0.019	-0.076
-670.091	418.620	-0.166	-0.361
-669.076	-135.144	0.120	-0.015
-668.062	416.910	0.001	0.002
-667.047	800.000	0.074	-0.301
-666.032	-9.532	0.079	-0.053
-665.018	-128.445	-0.201	-0.029
-664.003	-200.000	0.017	-0.175
-662.989	-103.868	0.086	-0.021
-661.974	-200.000	-0.125	-0.558
-660.959	27.193	-0.071	-0.061
-659.945	-27.312	-0.397	-0.235
-658.930	343.457	0.100	0.200
-657.916	-103.465	0.111	0.026
-656.901	150.532	0.130	-0.180
-655.886	147.169	-0.242	0.331
-654.872	124.882	0.168	-0.215
-653.857	800.000	0.077	-0.218
-652.843	322.107	-0.062	0.119
-651.828	146.962	0.122	-0.167
-650.814	-200.000	0.010	-0.177
-649.799	547.042	0.061	0.148
-648.784	57.982	-0.147	0.146
-647.770	-131.382	-0.346	-0.047
-646.755	28.571	0.146	-0.126
-645.741	316.751	-0.132	0.255
-644.726	235.007	0.075	-0.126
-643.711	668.818	0.126	-0.331
-642.697	0.757	-0.206	0.150
-641.682	-157.770	-0.266	0.016
-640.668	225.646	0.018	0.029
-639.653	-70.312	-0.161	0.062
-638.638	-19.862	-0.296	0.186
-637.624	-77.625	0.169	0.060
-636.609	138.938	0.162	0.217
-635.595	-200.000	-0.122	0.667
-634.580	-82.765	-0.177	-0.058
-633.565	-48.878	-0.231	0.113
-632.551	-170.586	-0.077	-0.003
-631.536	-151.352	-0.334	0.025
-630.522	800.000	0.041	0.119
-629.507	416.543	-0.040	-0.086
-628.492	-168.406	0.374	-0.015
-627.478	-200.000	-0.013	0.169
-626.463	150.429	-0.122	0.168
-625.449	-84.480	-0.233	-0.075
-624.434	-119.055	0.267	-0.048
-623.419	800.000	-0.030	0.086
-622.405	-200.000	-0.021	0.278
-621.390	-200.000	-0.000	-0.335
-620.376	-200.000	0.022	-0.105
-619.361	141.504	0.148	-0.199
-618.346	-131.180	-0.085	0.011
-617.332	101.881	0.171	-0.203
-616.317	-52.390	0.073	-0.034
-615.303	800.000	-0.065	0.241
-614.288	800.000	0.045	0.180
-613.273	-97.137	0.149	-0.040
-612.259	69.826	0.379	-0.397
-611.244	-200.000	-0.037	-0.314
-610.230	555.756	-0.098	0.240
-609.215	-191.219	0.119	-0.001
-608.201	-200.000	-0.018	-0.146
-607.186	59.869	0.234	-0.235
-606.171	71.067	-0.113	0.119
-605.157	-149.965	-0.139	-0.011
-604.142	-200.000	0.009	0.172
-603.128	-106.987	-0.439	0.099
-602.113	-139.752	-0.362	-0.039
-601.098	-114.936	0.437	-0.085
-600.084	28.839	0.094	-0.081
-599.069	-200.000	-0.009	-0.351
-598.055	-49.322	0.082	0.040
-597.040	-100.278	-0.183	-0.046
-596.025	-183.709	0.150	0.003
-595.011	263.026	-0.087	-0.154
-593.996	-20.454	-0.082	-0.051
-592.982	-168.808	-0.134	0.005
-591.967	-200.000	-0.073	-0.344
-590.952	-98.332	-0.020	-0.005
-589.938	-200.000	0.001	-0.271
-588.923	397.336	0.119	-0.252
-587.909	-3.171	0.164	-0.116
-586.894	-79.417	-0.203	-0.070
-585.879	-39.537	0.073	0.039
-584.865	-61.198	-0.051	-0.022
-583.850	-200.000	0.020	0.157
-582.836	-188.308	0.386	-0.005
-581.821	-31.726	0.228	-0.130
-580.806	54.857	0.142	-0.139
-579.792	-64.905	0.238	0.098
-578.777	-35.104	0.324	-0.179
-577.763	800.000	-0.050	-0.192
-576.748	-200.000	0.038	-0.216
-575.733	-32.007	-0.179	0.102
-574.719	-141.506	-0.164	-0.017
-573.704	-200.000	0.038	0.347
-572.690	444.769	0.103	0.230
-571.675	-198.258	-0.112	-0.001
-570.661	166.262	0.221	0.317
-569.646	-113.327	-0.217	-0.043
-568.631	800.000	-0.063	0.182
-567.617	526.911	-0.012	-0.029
-566.602	-79.750	-0.192	0.065
-565.588	-28.257	-0.110	0.064
-564.573	-51.401	-0.443	-0.210
-563.558	-200.000	0.053	-0.298
-562.544	-193.207	0.126	0.001
-561.529	-200.000	0.000	-0.414
-560.515	-21.192	-0.376	0.234
-559.500	-200.000	-0.020	-0.201
-558.485	65.056	0.060	-0.062
-557.471	608.078	-0.079	0.200
-556.456	-200.000	-0.021	0.310
-555.442	490.109	-0.130	0.302
-554.427	-48.186	-0.106	0.052
-553.412	175.430	0.282	-0.415
-552.398	106.954	-0.122	-0.147
-551.383	-97.029	0.098	-0.026
-550.369	88.446	-0.232	-0.262
-549.354	-101.311	0.267	0.066
-548.339	-44.988	0.163	0.083
-547.325	216.373	0.099	-0.160
-546.310	-200.000	0.012	-0.120
-545.296	-200.000	-0.023	0.177
-544.281	-125.438	0.105	-0.016
-543.266	58.409	-0.113	0.112
-542.252	-25.348	-0.129	-0.077
-541.237	-72.780	0.139	-0.052
-540.223	-200.000	-0.032	0.306
-539.208	-34.245	-0.127	-0.071
-538.193	800.000	-0.076	0.234
-537.179	-56.703	0.211	-0.095
-536.164	632.794	-0.067	-0.173
-535.150	41.703	0.148	0.136
-534.135	-200.000	-0.054	0.245
-533.121	-48.662	-0.237	0.115
-532.106	265.112	0.135	0.239
-531.091	-113.696	-0.312	-0.062
-530.077	637.088	0.031	0.080
-529.062	57.132	-0.181	0.179
-528.048	91.459	-0.226	-0.258
-527.033	-122.262	0.069	-0.011
-526.018	493.697	0.097	0.226
-525.004	-200.000	-0.010	0.058
-523.989	-80.026	-0.268	-0.091
-522.975	800.000	-0.106	0.349
-521.960	-50.523	-0.104	-0.050
-520.945	180.900	0.138	0.206
-519.931	-38.798	0.072	0.038
-518.916	-102.866	0.237	0.057
-517.902	140.633	-0.109	0.146
-516.887	-200.000	-0.071	0.381
-515.872	-200.000	-0.037	-0.233
-514.858	-128.691	0.191	-0.027
-513.843	6.858	0.193	0.146
-512.829	800.000	0.046	0.176
-511.814	59.357	-0.102	-0.101
-510.799	2.032	-0.052	-0.038
-509.785	588.308	0.043	-0.108
-508.770	102.986	-0.155	-0.184
-507.756	-200.000	-0.013	-0.110
-506.741	200.792	0.158	0.246
-505.726	-90.803	0.259	0.076
-504.712	-61.170	-0.112	-0.048
-503.697	-85.643	-0.142	-0.045
-502.683	-200.000	0.009	0.106
-501.668	492.399	-0.048	-0.110
-500.653	115.545	-0.181	-0.224
-499.639	151.975	-0.086	-0.118
-498.624	-111.623	0.220	-0.045
-497.610	800.000	-0.096	0.336
-496.595	54.552	-0.170	0.166
-495.581	34.048	-0.243	-0.214
-494.566	629.405	-0.045	0.114
-493.551	-69.848	-0.118	0.045
-492.537	256.030	0.108	0.187
-491.522	-122.402	0.055	-0.009
-490.508	10.234	0.049	-0.038
-489.493	-200.000	0.063	0.413
-488.478	-200.000	-0.011	-0.053
-487.464	-144.727	-0.292	-0.027
-486.449	-94.730	-0.131	0.036
-485.435	24.184	0.110	0.092
-484.420	42.022	-0.120	0.110
-483.405	113.278	0.042	0.052
-482.391	50.501	0.286	-0.273
-481.376	263.469	0.148	0.261
-480.362	-200.000	0.004	0.321
-479.347	-102.438	-0.155	-0.037
-478.332	-183.589	-0.183	-0.003
-477.318	800.000	0.046	0.132
-476.303	-64.244	-0.252	0.104
-475.289	5.802	-0.272	0.204
-474.274	-98.810	0.211	0.054
-473.259	48.615	0.059	0.056
-472.245	213.924	0.170	0.271
-471.230	61.113	0.051	0.052
-470.216	658.937	0.018	-0.046
-469.201	255.047	0.099	-0.171
-468.186	-51.353	-0.125	-0.059
-467.172	-17.183	0.230	0.147
-466.157	-113.893	0.219	-0.043
-465.143	-200.000	-0.006	-0.482
-464.128	60.998	-0.353	-0.354
-463.113	-15.399	-0.129	0.083
-462.099	103.198	0.174	0.206
-461.084	-6.929	0.247	-0.170
-460.070	333.121	-0.165	-0.322
-459.055	-161.573	0.213	-0.011
-458.040	800.000	0.070	-0.241
-457.026	-105.777	-0.181	-0.041
-456.011	-117.365	-0.128	0.024
-454.997	-131.531	0.275	-0.037
-453.982	800.000	0.088	0.302
-452.968	199.249	0.091	-0.142
-451.953	133.356	-0.072	0.094
-450.938	-144.547	-0.107	0.010
-449.924	-101.000	0.227	-0.056
-448.909	-20.953	-0.034	-0.021
-447.895	-105.132	-0.323	0.075
-446.880	-37.546	-0.081	0.044
-445.865	55.444	0.073	0.072
-444.851	-132.245	-0.144	-0.019
-443.836	104.313	0.217	0.258
-442.822	63.980	0.230	0.233
-441.807	257.137	-0.051	0.089
-440.792	-200.000	0.001	0.049
-439.778	-65.333	0.393	-0.160
-438.763	-119.216	0.188	0.033
-437.749	232.849	-0.049	-0.082
-436.734	-200.000	0.012	0.102
-435.719	-32.259	-0.153	-0.087
-434.705	311.375	-0.141	-0.266
-433.690	-200.000	-0.021	0.132
-432.676	-200.000	-0.022	0.231
-431.661	800.000	0.045	-0.130
-430.646	-200.000	0.007	0.185
-429.632	-4.741	-0.133	-0.093
-428.617	77.001	-0.024	-0.025
-427.603	-40.042	-0.269	0.142
-426.588	-62.614	0.306	0.128
-425.573	-200.000	-0.001	-0.075
-424.559	-64.135	-0.280	-0.115
-423.544	-29.520	0.080	-0.046
-422.530	-121.626	-0.262	-0.044
-421.515	-149.372	-0.291	0.023
-420.500	-83.394	0.128	0.041
-419.486	20.742	0.058	0.047
-418.471	-200.000	-0.048	-0.256
-417.457	35.182	0.142	0.126
-416.442	-185.631	0.084	0.001
-415.428	-200.000	0.006	0.104
-414.413	56.804	-0.182	0.178
-413.398	751.877	0.057	0.154
-412.384	67.604	-0.124	-0.128
-411.369	108.781	0.316	-0.381
-410.355	323.528	-0.086	0.166
-409.340	800.000	0.074	-0.280
-408.325	-200.000	-0.007	-0.135
-407.311	-100.734	-0.230	-0.057
-406.296	-200.000	0.015	-0.156
-405.282	440.518	0.083	-0.182
-404.267	-200.000	-0.007	-0.102
-403.252	800.000	0.020	0.074
-402.238	238.711	-0.170	0.285
-401.223	800.000	-0.024	-0.077
-400.209	76.328	-0.204	0.218
-399.194	-50.287	-0.171	-0.081
-398.179	54.154	0.074	-0.071
-397.165	43.345	-0.026	0.024
-396.150	-200.000	-0.067	-0.309
-395.136	-26.150	0.265	-0.157
-394.121	361.687	0.075	-0.151
-393.106	473.686	-0.081	-0.185
-392.092	79.307	0.173	-0.187
-391.077	147.073	0.031	0.042
-390.063	460.411	0.167	0.374
-389.048	-45.744	-0.271	0.135
-388.033	-145.504	-0.180	0.016
-387.019	332.956	0.064	0.125
-386.004	800.000	-0.098	0.389
-384.990	-198.884	-0.149	0.001
-383.975	-135.164	0.384	-0.046
-382.960	-77.352	-0.242	-0.085
-381.946	800.000	0.072	0.259
-380.931	84.084	-0.256	0.282
-379.917	-4.779	-0.055	0.038
-378.902	77.498	-0.299	-0.321
-377.888	-144.725	0.077	-0.007
-376.873	-72.827	0.286	-0.106
-375.858	800.000	-0.052	-0.178
-374.844	-146.422	0.269	0.024
-373.829	-128.691	0.170	0.024
-372.815	-149.358	-0.308	-0.025
-371.800	-21.980	-0.242	0.148
-370.785	-200.000	0.031	0.317
-369.771	121.728	0.221	-0.277
-368.756	21.972	-0.293	-0.241
-367.742	715.453	-0.066	-0.176
-366.727	-161.057	0.671	0.035
-365.712	21.988	0.041	-0.033
-364.698	64.250	0.128	0.130
-363.683	-58.187	0.184	-0.081
-362.669	250.737	-0.261	-0.446
-361.654	7.557	0.205	0.155
-360.639	-200.000	0.008	0.171
-359.625	23.010	0.108	0.089
-358.610	400.274	0.028	-0.060
-357.596	218.814	0.088	-0.142
-356.581	-34.418	-0.159	0.088
-355.566	-131.104	-0.157	-0.021
-354.552	613.414	-0.094	0.238
-353.537	-45.261	0.244	-0.122
-352.523	-6.473	-0.263	-0.181
-351.508	1.335	0.097	-0.070
-350.493	-155.539	-0.396	-0.026
-349.479	-113.276	0.201	0.040
-348.464	-182.951	-0.358	-0.006
-347.450	4.637	-0.161	-0.119
-346.435	-128.130	0.160	-0.023
-345.420	-200.000	0.003	0.090
-344.406	224.708	-0.182	-0.297
-343.391	-77.682	-0.130	0.045
-342.377	-200.000	-0.018	-0.443
-341.362	443.694	-0.116	0.257
-340.348	-51.216	0.050	0.024
-339.333	800.000	0.027	-0.082
-338.318	13.750	0.126	0.099
-337.304	155.700	0.242	-0.336
-336.289	800.000	-0.027	0.090
-335.275	800.000	-0.061	-0.215
-334.260	74.285	-0.246	-0.260
-333.245	800.000	0.064	0.218
-332.231	-200.000	0.052	0.277
-331.216	53.925	-0.210	0.203
-330.202	-115.310	0.146	-0.028
-329.187	74.413	0.120	-0.127
-328.172	-83.741	-0.095	-0.031
-327.158	-1.383	0.110	0.078
-326.143	-200.000	-0.001	0.013
-325.129	-16.816	0.342	0.217
-324.114	213.287	0.124	-0.197
-323.099	520.850	0.073	-0.173
-322.085	-165.634	0.097	0.004
-321.070	-43.968	0.152	0.077
-320.056	-200.000	-0.001	0.065
-319.041	-200.000	0.073	0.343
-318.026	31.816	0.151	0.131
-317.012	-120.766	0.290	0.049
-315.997	-88.544	0.180	0.054
-314.983	559.027	0.023	0.055
-313.968	-60.262	0.112	-0.048
-312.953	5.951	0.230	0.172
-311.939	23.007	0.225	0.186
-310.924	-42.016	-0.097	-0.050
-309.910	10.412	-0.118	-0.090
-308.895	-74.534	-0.245	0.089
-307.880	-200.000	0.016	0.126
-306.866	119.563	-0.190	-0.236
-305.851	800.000	-0.077	-0.296
-304.837	-200.000	0.024	0.111
-303.822	-40.681	0.380	-0.198
-302.807	123.803	-0.101	-0.128
-301.793	800.000	0.038	0.142
-300.778	3.407	0.319	-0.234
-299.764	-19.137	-0.031	-0.019
-298.749	-183.199	-0.297	-0.005
-297.735	-85.757	0.164	-0.051
-296.720	-200.000	0.008	-0.136
-295.705	23.037	-0.169	-0.139
-294.691	-173.447	-0.179	0.005
-293.676	131.581	-0.071	0.091
-292.662	89.982	0.282	-0.317
-291.647	-116.853	-0.384	-0.071
-290.632	800.000	-0.054	0.211
-289.618	-70.114	0.218	0.083
-288.603	-95.461	0.308	-0.083
-287.589	800.000	0.079	-0.307
-286.574	11.439	0.111	0.085
-285.559	-93.509	0.267	-0.074
-284.545	-13.394	0.285	-0.185
-283.530	-60.389	-0.061	0.026
-282.516	357.035	-0.077	-0.154
-281.501	233.014	-0.090	-0.148
-280.486	192.058	-0.029	-0.044
-279.472	-68.666	0.092	-0.036
-278.457	-135.713	-0.511	-0.061
-277.443	-54.071	0.100	0.046
-276.428	-113.575	0.268	-0.053
-275.413	-53.224	-0.185	-0.085
-274.399	-118.449	0.315	-0.056
-273.384	109.108	0.126	0.152
-272.370	-200.000	-0.015	-0.165
-271.355	-104.178	0.156	-0.036
-270.340	192.013	-0.228	0.345
-269.326	-107.518	0.116	0.025
-268.311	-49.588	-0.072	0.034
-267.297	663.859	-0.115	0.297
-266.282	-200.000	-0.025	-0.137
-265.267	-18.044	0.259	-0.163
-264.253	137.841	-0.133	0.174
-263.238	98.622	0.121	0.140
-262.224	-103.284	0.131	0.031
-261.209	-200.000	-0.034	0.229
-260.195	-141.110	-0.124	-0.013
-259.180	-52.159	0.065	-0.030
-258.165	-13.503	-0.153	0.100
-257.151	125.159	-0.186	-0.236
-256.136	-200.000	-0.008	-0.061
-255.122	-109.422	-0.367	0.078
-254.107	585.342	-0.060	-0.148
-253.092	537.075	0.049	0.117
-252.078	-147.384	0.153	0.013
-251.063	297.427	-0.074	0.136
-250.049	20.774	-0.123	-0.100
-249.034	47.216	-0.107	-0.100
-248.019	-29.816	-0.178	-0.102
-247.005	-137.058	-0.164	-0.019
-245.990	675.505	-0.074	-0.194
-244.976	287.982	-0.073	-0.132
-243.961	-200.000	0.027	0.410
-242.946	221.056	-0.203	0.327
-241.932	800.000	-0.093	0.339
-240.917	-91.810	-0.293	-0.083
-239.903	800.000	-0.033	0.117
-238.888	-5.276	-0.263	0.181
-237.873	708.675	0.031	-0.083
-236.859	34.019	-0.024	0.021
-235.844	-44.979	0.269	0.134
-234.830	417.084	-0.106	-0.227
-233.815	-200.000	0.004	-0.069
-232.800	-152.412	-0.120	-0.009
-231.786	-200.000	-0.031	-0.240
-230.771	-112.908	-0.125	0.025
-229.757	-200.000	-0.023	0.228
-228.742	296.564	0.133	0.245
-227.727	-41.737	-0.360	-0.185
-226.713	-10.634	0.189	0.125
-225.698	800.000	-0.016	-0.053
-224.684	-165.325	0.130	-0.006
-223.669	-156.119	0.102	-0.006
-222.655	-200.000	-0.028	-0.209
-221.640	-71.726	0.420	-0.157
-220.625	85.682	0.231	-0.254
-219.611	237.357	0.102	-0.169
-218.596	-136.341	0.170	0.020
-217.582	-30.367	-0.219	-0.125
-216.567	149.916	-0.131	-0.178
-215.552	800.000	-0.043	-0.143
-214.538	92.761	0.208	-0.235
-213.523	165.631	0.216	0.306
-212.509	-200.000	-0.041	0.223
-211.494	188.758	-0.187	-0.279
-210.479	20.601	0.105	-0.085
-209.465	-3.428	-0.150	-0.105
-208.450	-63.087	-0.216	0.089
-207.436	800.000	-0.065	-0.232
-206.421	-39.574	-0.239	-0.125
-205.406	-200.000	-0.001	-0.225
-204.392	-200.000	0.020	-0.174
-203.377	33.425	-0.076	-0.066
-202.363	-147.978	0.473	0.039
-201.348	-49.105	0.165	-0.079
-200.333	91.438	0.245	-0.275
-199.319	-65.268	-0.094	-0.038
-198.304	-200.000	0.011	0.135
-197.290	356.366	-0.086	0.172
-196.275	-99.808	0.123	-0.031
-195.260	-56.722	0.198	0.088
-194.246	-29.150	0.246	-0.141
-193.231	-200.000	-0.039	0.180
-192.217	77.677	-0.130	0.138
-191.202	-200.000	-0.007	0.155
-190.187	-111.627	0.086	-0.017
-189.173	-103.968	-0.323	0.075
-188.158	643.514	-0.088	0.224
-187.144	800.000	0.051	0.215
-186.129	-134.896	-0.424	-0.051
-185.114	-125.757	0.187	-0.028
-184.100	800.000	-0.022	-0.089
-183.085	-200.000	-0.019	-0.146
-182.071	382.500	0.129	-0.266
-181.056	-200.000	-0.001	0.039
-180.042	270.752	-0.020	0.035
-179.027	4.763	0.172	-0.126
-178.012	165.204	0.164	0.232
-176.998	-73.144	0.225	0.082
-175.983	-50.932	0.252	0.118
-174.969	-200.000	0.004	-0.019
-173.954	36.626	0.167	-0.147
-172.939	43.505	-0.126	0.115
-171.925	-6.928	0.152	-0.103
-170.910	100.822	0.183	0.212
-169.896	-200.000	0.001	0.025
-168.881	-200.000	0.000	0.229
-167.866	-118.422	-0.135	0.024
-166.852	69.094	0.128	0.131
-165.837	-200.000	-0.012	0.250
-164.823	491.175	-0.175	-0.401
-163.808	56.759	-0.114	0.111
-162.793	21.192	0.205	-0.166
-161.779	-81.263	-0.204	0.067
-160.764	-44.854	0.339	0.169
-159.750	582.321	-0.098	0.241
-158.735	-200.000	0.002	0.079
-157.720	-200.000	-0.008	0.068
-156.706	-97.917	0.162	-0.042
-155.691	800.000	0.031	-0.117
-154.677	45.384	0.173	0.160
-153.662	140.043	0.262	-0.344
-152.647	-143.261	-0.208	-0.020
-151.633	800.000	0.086	0.286
-150.618	800.000	0.078	0.235
-149.604	130.830	0.082	-0.105
-148.589	-200.000	-0.002	-0.126
-147.574	-186.936	-0.380	-0.005
-146.560	72.970	-0.082	0.085
-145.545	-31.662	0.140	0.079
-144.531	-200.000	0.001	-0.239
-143.516	-17.101	0.153	0.096
-142.502	26.135	-0.174	0.145
-141.487	7.607	0.134	-0.100
-140.472	-52.952	0.087	-0.040
-139.458	-32.865	-0.128	-0.071
-138.443	179.448	-0.155	0.227
-137.429	-64.961	-0.157	0.063
-136.414	-200.000	0.032	0.421
-135.399	-200.000	0.071	-0.411
-134.385	-52.272	-0.071	-0.033
-133.370	800.000	0.067	-0.234
-132.356	-27.843	0.100	-0.058
-131.341	-111.459	0.062	-0.013
-130.326	522.442	-0.075	-0.177
-129.312	-90.731	-0.093	0.027
-128.297	333.315	-0.121	0.234
-127.283	-148.035	-0.074	-0.006
-126.268	800.000	-0.063	-0.251
-125.253	42.388	0.208	0.188
-124.239	41.478	0.248	0.224
-123.224	800.000	-0.093	-0.378
-122.210	67.048	0.253	-0.257
