DTS Sentinel unit serial number:	SN413079Multiplexer serial number:	ORYXHardware model number:	OX4-SRSoftware version number:	ORYX F/W v4.00 Oryx Data Collector v3.7.2.0data status	okinstallation	princeton_trtdifferential loss correction	single-endedforward channel	channel 3reverse channel	N/Adate	2019/09/11time	13:30:11forward acquisition time	60.00reverse acquisition time	0.00gamma	496.2192k internal	0.2293k external	0.2293temperature offset calibration	0.9976default loss term (dB/km)	0.3790temperature slope calibration	1.0000multiplexer offset coefficient	1.0000multiplexer slope coefficient	1.0000fibre end	0.00T internal ref (°C)	41.95T ext. ref 1 (°C)	0.83T ext. ref 2 (°C)	37.40length (m)	temperature (°C)	Stokes	anti-Stokes-747.200	44.011	-0.350	0.328
-746.185	-32.990	0.200	0.114
-745.171	87.262	0.032	-0.036
-744.156	-44.593	0.140	0.071
-743.142	478.434	0.132	0.306
-742.127	-143.959	-0.151	-0.015
-741.112	800.000	0.047	-0.203
-740.098	43.472	-0.266	0.249
-739.083	-3.375	-0.254	-0.181
-738.069	-62.672	-0.049	-0.021
-737.054	67.928	-0.047	-0.049
-736.039	106.007	-0.269	0.326
-735.025	-200.000	-0.094	0.514
-734.010	-200.000	-0.006	0.129
-732.996	-111.751	0.100	-0.021
-731.981	1.671	-0.079	0.058
-730.966	800.000	0.053	-0.152
-729.952	170.601	0.239	0.351
-728.937	261.350	0.015	0.027
-727.923	68.971	-0.130	0.136
-726.908	-50.111	-0.299	0.145
-725.894	800.000	0.050	-0.212
-724.879	-168.846	-0.343	0.013
-723.864	-200.000	-0.026	0.355
-722.850	396.961	0.095	-0.202
-721.835	-193.812	-0.362	0.003
-720.821	-166.891	0.148	-0.006
-719.806	310.773	-0.055	-0.106
-718.791	36.054	0.123	0.111
-717.777	67.767	-0.120	0.125
-716.762	-115.362	0.092	-0.018
-715.748	-84.032	-0.502	0.163
-714.733	12.014	-0.137	-0.108
-713.718	-177.802	0.301	-0.007
-712.704	-200.000	-0.015	-0.333
-711.689	608.413	0.066	0.168
-710.675	-200.000	0.024	-0.226
-709.660	140.462	0.261	0.352
-708.645	-30.369	-0.110	0.064
-707.631	161.952	-0.128	0.184
-706.616	-35.760	-0.236	-0.131
-705.602	-109.044	0.243	0.053
-704.587	53.781	-0.198	-0.194
-703.572	-164.350	0.047	-0.002
-702.558	800.000	-0.145	0.428
-701.543	-156.066	-0.202	-0.013
-700.529	160.877	0.071	-0.102
-699.514	377.758	-0.210	-0.438
-698.499	394.056	-0.066	0.140
-697.485	-64.536	0.250	0.104
-696.470	364.918	-0.102	-0.209
-695.456	63.780	0.081	-0.083
-694.441	140.572	-0.063	-0.085
-693.426	308.941	-0.049	0.094
-692.412	-59.567	0.105	0.046
-691.397	8.696	-0.169	-0.130
-690.383	-120.280	-0.076	-0.013
-689.368	-59.936	-0.122	-0.053
-688.354	45.943	-0.081	-0.077
-687.339	-31.679	-0.100	-0.057
-686.324	29.492	-0.041	-0.036
-685.310	-105.429	-0.119	0.028
-684.295	-200.000	-0.018	-0.098
-683.281	585.389	0.087	-0.219
-682.266	-200.000	-0.003	0.330
-681.251	546.010	0.011	0.026
-680.237	-101.079	-0.267	0.067
-679.222	-12.510	0.091	-0.060
-678.208	474.344	0.012	-0.027
-677.193	800.000	-0.082	-0.278
-676.178	800.000	0.071	-0.272
-675.164	590.042	-0.104	-0.261
-674.149	-200.000	-0.017	0.196
-673.135	-200.000	-0.010	-0.125
-672.120	-26.332	0.416	0.249
-671.105	-200.000	0.040	-0.236
-670.091	-32.476	-0.028	0.016
-669.076	7.175	-0.295	0.224
-668.062	618.126	0.011	-0.028
-667.047	-53.751	-0.047	-0.022
-666.032	90.596	0.045	0.052
-665.018	-200.000	-0.022	0.127
-664.003	-18.520	-0.244	0.155
-662.989	-48.497	0.159	0.078
-661.974	-158.469	-0.274	0.016
-660.959	-10.694	0.014	0.009
-659.945	39.907	-0.178	0.163
-658.930	63.569	0.172	-0.176
-657.916	-36.596	-0.225	0.124
-656.901	800.000	-0.032	-0.137
-655.886	6.243	-0.127	-0.096
-654.872	104.112	-0.216	-0.259
-653.857	143.327	-0.177	0.240
-652.843	7.486	-0.232	-0.177
-651.828	-139.640	0.081	0.009
-650.814	69.516	-0.027	0.028
-649.799	79.206	-0.177	0.193
-648.784	-171.617	-0.158	-0.005
-647.770	-165.137	-0.095	-0.004
-646.755	701.889	-0.215	-0.577
-645.741	176.748	-0.116	-0.172
-644.726	242.029	0.240	0.408
-643.711	59.725	-0.148	-0.149
-642.697	118.231	-0.099	0.124
-641.682	-200.000	-0.064	0.293
-640.668	-27.917	0.189	-0.112
-639.653	-3.003	-0.466	-0.331
-638.638	-200.000	0.008	-0.113
-637.624	22.330	0.095	-0.079
-636.609	218.247	-0.136	-0.221
-635.595	454.117	0.142	0.320
-634.580	800.000	0.076	0.216
-633.565	800.000	0.111	-0.361
-632.551	-7.603	-0.119	0.082
-631.536	-48.245	0.139	0.068
-630.522	98.484	0.122	-0.143
-629.507	800.000	-0.096	-0.280
-628.492	-27.989	0.068	-0.040
-627.478	111.818	0.091	-0.111
-626.463	-118.316	-0.395	0.072
-625.449	271.828	0.039	-0.070
-624.434	-200.000	-0.046	0.241
-623.419	176.541	0.139	-0.206
-622.405	519.885	-0.173	0.412
-621.390	33.470	-0.159	-0.141
-620.376	52.832	0.028	-0.027
-619.361	242.370	-0.049	0.083
-618.346	-200.000	0.018	-0.083
-617.332	-78.448	0.206	-0.072
-616.317	-200.000	0.047	-0.210
-615.303	72.608	-0.025	-0.027
-614.288	-58.317	0.274	0.121
-613.273	3.506	-0.189	-0.140
-612.259	800.000	0.059	0.176
-611.244	-172.357	0.269	-0.009
-610.230	-155.897	-0.163	0.011
-609.215	-200.000	0.043	-0.213
-608.201	-71.671	-0.030	-0.011
-607.186	800.000	-0.107	-0.313
-606.171	-66.093	-0.341	-0.138
-605.157	105.625	0.097	-0.117
-604.142	-182.597	-0.287	-0.005
-603.128	365.468	0.084	0.172
-602.113	570.819	-0.077	0.190
-601.098	67.951	0.158	-0.165
-600.084	800.000	0.044	-0.157
-599.069	-106.255	-0.471	0.107
-598.055	-200.000	-0.014	-0.225
-597.040	23.270	0.067	0.056
-596.025	-2.254	0.134	0.096
-595.011	-26.440	-0.233	0.139
-593.996	-200.000	-0.044	-0.259
-592.982	76.751	-0.093	-0.100
-591.967	-200.000	-0.034	-0.258
-590.952	-200.000	-0.002	-0.340
-589.938	-37.203	0.145	-0.079
-588.923	96.283	0.100	-0.117
-587.909	-79.249	0.367	0.126
-586.894	-113.035	-0.394	0.079
-585.879	-54.098	0.303	0.140
-584.865	-200.000	0.034	0.295
-583.850	-200.000	-0.023	0.232
-582.836	-71.179	-0.232	0.088
-581.821	0.022	-0.148	-0.107
-580.806	49.493	0.193	0.185
-579.792	-151.372	0.217	0.016
-578.777	21.526	-0.357	0.295
-577.763	-14.771	-0.018	-0.012
-576.748	-147.881	-0.248	-0.021
-575.733	-13.127	0.174	-0.115
-574.719	436.492	-0.059	0.130
-573.704	44.526	-0.181	0.169
-572.690	73.234	-0.264	0.281
-571.675	-52.231	-0.304	-0.143
-570.661	-200.000	0.084	-0.475
-569.646	64.005	0.151	0.154
-568.631	-28.020	-0.215	0.127
-567.617	-200.000	0.014	0.265
-566.602	-200.000	0.021	-0.153
-565.588	145.044	-0.111	0.151
-564.573	-39.270	0.296	-0.158
-563.558	-99.721	-0.153	-0.039
-562.544	378.253	0.156	-0.324
-561.529	-64.061	0.277	-0.115
-560.515	79.070	-0.094	-0.102
-559.500	800.000	-0.034	-0.145
-558.485	427.472	-0.041	0.090
-557.471	-177.790	-0.200	-0.005
-556.456	-82.287	0.243	-0.080
-555.442	-39.207	-0.235	-0.125
-554.427	-156.610	0.414	0.026
-553.412	-34.801	-0.165	-0.092
-552.398	-4.650	-0.241	-0.169
-551.383	-200.000	-0.011	-0.117
-550.369	-200.000	0.006	-0.239
-549.354	-141.091	0.181	-0.019
-548.339	299.926	-0.072	0.135
-547.325	-200.000	-0.034	0.179
-546.310	-200.000	-0.022	-0.132
-545.296	-139.032	-0.313	0.034
-544.281	-200.000	-0.024	0.174
-543.266	800.000	0.095	-0.304
-542.252	800.000	0.084	0.368
-541.237	-200.000	-0.000	0.201
-540.223	541.011	-0.106	0.257
-539.208	146.005	-0.055	0.075
-538.193	-81.599	-0.343	-0.114
-537.179	66.836	0.180	0.186
-536.164	-110.700	-0.387	0.081
-535.150	-200.000	0.001	0.021
-534.135	-187.299	-0.196	0.003
-533.121	363.449	0.111	0.227
-532.106	180.894	-0.034	-0.051
-531.091	-14.272	-0.114	0.075
-530.077	800.000	-0.072	0.269
-529.062	-3.605	0.299	0.211
-528.048	111.313	-0.133	0.163
-527.033	669.596	0.066	-0.172
-526.018	56.978	-0.210	0.207
-525.004	-200.000	0.023	0.236
-523.989	-86.005	-0.269	0.084
-522.975	-200.000	0.019	0.289
-521.960	265.115	-0.091	0.161
-520.945	63.628	-0.229	-0.233
-519.931	800.000	-0.041	-0.141
-518.916	195.146	0.166	0.256
-517.902	-41.866	-0.274	-0.143
-516.887	-200.000	0.053	-0.280
-515.872	-142.610	0.155	-0.015
-514.858	-200.000	0.012	-0.078
-513.843	-200.000	-0.006	0.068
-512.829	800.000	-0.048	-0.140
-511.814	-200.000	-0.027	-0.305
-510.799	-200.000	0.012	-0.488
-509.785	-200.000	-0.006	0.145
-508.770	-82.506	0.112	-0.037
-507.756	35.713	-0.082	0.073
-506.741	-174.599	-0.149	0.004
-505.726	127.890	-0.144	-0.186
-504.712	800.000	-0.123	-0.345
-503.697	34.307	0.063	-0.056
-502.683	144.978	-0.020	0.028
-501.668	-76.957	0.223	-0.079
-500.653	130.881	-0.056	0.073
-499.639	290.801	-0.125	-0.231
-498.624	506.914	0.057	-0.134
-497.610	-95.054	-0.188	0.051
-496.595	-80.619	0.239	-0.081
-495.581	18.655	-0.159	0.129
-494.566	-48.221	-0.178	0.087
-493.551	-10.970	0.277	-0.185
-492.537	136.471	-0.219	-0.289
-491.522	738.699	0.087	0.236
-490.508	800.000	0.095	0.312
-489.493	496.489	-0.061	0.141
-488.478	429.413	-0.049	0.108
-487.464	-83.766	-0.176	-0.057
-486.449	-75.354	0.406	-0.147
-485.435	20.836	0.263	-0.216
-484.420	-47.546	0.208	0.102
-483.405	-14.225	0.190	-0.124
-482.391	-148.933	-0.221	0.018
-481.376	166.082	-0.008	-0.012
-480.362	77.213	0.113	-0.121
-479.347	-158.795	0.363	-0.021
-478.332	64.771	0.124	-0.127
-477.318	-30.202	-0.188	-0.108
-476.303	800.000	-0.047	0.182
-475.289	-200.000	-0.073	-0.397
-474.274	169.473	-0.049	0.071
-473.259	800.000	0.010	-0.037
-472.245	-107.162	0.106	-0.024
-471.230	30.330	-0.054	-0.047
-470.216	800.000	0.070	0.226
-469.201	412.529	-0.129	0.278
-468.186	45.477	0.081	0.076
-467.172	800.000	-0.055	0.190
-466.157	-200.000	-0.002	0.064
-465.143	-134.165	-0.300	-0.037
-464.128	-154.506	-0.414	0.028
-463.113	800.000	0.068	-0.200
-462.099	-136.392	0.171	-0.020
-461.084	-200.000	0.025	0.278
-460.070	4.832	0.292	0.217
-459.055	-44.989	0.249	-0.126
-458.040	-10.643	-0.038	0.025
-457.026	246.010	-0.079	-0.134
-456.011	28.483	-0.153	-0.131
-454.997	-200.000	0.000	-0.044
-453.982	374.231	-0.156	0.321
-452.968	-81.285	0.271	0.090
-451.953	502.554	0.131	-0.305
-450.938	19.292	0.288	-0.234
-449.924	92.493	0.032	0.036
-448.909	-190.644	0.207	0.002
-447.895	800.000	-0.048	-0.210
-446.880	-10.255	0.257	0.173
-445.865	-200.000	0.013	0.316
-444.851	-157.640	-0.304	-0.018
-443.836	-57.570	0.111	0.049
-442.822	-120.487	-0.342	0.059
-441.807	-185.662	0.340	-0.005
-440.792	-34.779	-0.136	-0.075
-439.778	800.000	-0.080	0.298
-438.763	-134.306	-0.172	0.021
-437.749	174.887	0.148	0.217
-436.734	7.183	-0.213	-0.160
-435.719	-65.865	-0.235	0.095
-434.705	564.662	-0.096	-0.236
-433.690	-130.083	-0.389	-0.054
-432.676	-101.417	-0.360	0.089
-431.661	800.000	0.049	-0.216
-430.646	-200.000	0.002	-0.368
-429.632	-16.013	0.198	0.127
-428.617	-57.329	0.098	-0.044
-427.603	175.273	-0.092	0.135
-426.588	800.000	0.057	0.166
-425.573	110.346	0.071	-0.087
-424.559	-93.680	0.147	-0.041
-423.544	297.194	0.091	0.169
-422.530	800.000	-0.035	0.132
-421.515	-91.779	0.204	-0.059
-420.500	355.685	0.071	0.143
-419.486	-66.191	-0.158	-0.064
-418.471	-124.474	0.070	0.011
-417.457	52.977	0.128	-0.123
-416.442	158.913	0.042	0.060
-415.428	-136.818	-0.319	0.037
-414.413	800.000	0.042	-0.174
-413.398	-40.359	-0.208	-0.109
-412.384	-200.000	-0.020	0.176
-411.369	151.877	0.074	-0.102
-410.355	319.680	-0.033	-0.064
-409.340	-200.000	0.050	0.597
-408.325	-200.000	0.004	0.127
-407.311	-125.016	-0.104	-0.016
-406.296	800.000	-0.098	-0.321
-405.282	22.424	0.327	0.270
-404.267	-86.218	0.250	-0.078
-403.252	27.703	-0.138	-0.117
-402.238	186.515	-0.189	-0.283
-401.223	-108.297	-0.142	0.031
-400.209	-200.000	-0.014	0.182
-399.194	198.975	0.286	-0.443
-398.179	766.648	-0.048	-0.131
-397.165	19.961	0.123	-0.100
-396.150	-106.618	-0.323	0.072
-395.136	-82.154	0.092	-0.030
-394.121	94.115	0.283	0.324
-393.106	26.632	-0.191	-0.161
-392.092	57.995	-0.223	0.221
-391.077	800.000	-0.032	-0.128
-390.063	-105.427	0.140	0.032
-389.048	180.315	0.161	0.238
-388.033	174.985	-0.205	0.299
-387.019	800.000	0.023	-0.089
-386.004	7.769	0.267	-0.202
-384.990	411.721	0.101	-0.215
-383.975	19.246	-0.202	0.163
-382.960	135.905	0.093	-0.122
-381.946	-102.077	0.111	-0.027
-380.931	121.668	-0.246	0.310
-379.917	181.570	0.146	-0.216
-378.902	149.969	-0.114	0.156
-377.888	-75.252	-0.236	-0.085
-376.873	-69.790	-0.200	-0.077
-375.858	800.000	-0.028	0.121
-374.844	233.758	-0.187	0.311
-373.829	-51.719	0.375	-0.176
-372.815	-200.000	-0.014	-0.080
-371.800	188.975	0.039	-0.059
-370.785	-38.446	-0.078	0.042
-369.771	81.790	0.121	-0.132
-368.756	-200.000	0.008	0.156
-367.742	-88.376	0.348	0.105
-366.727	-200.000	-0.012	-0.208
-365.712	-28.726	-0.286	-0.166
-364.698	-78.352	-0.327	-0.113
-363.683	198.935	-0.176	-0.272
-362.669	-72.213	0.308	-0.115
-361.654	265.367	-0.087	0.153
-360.639	-162.385	0.240	-0.012
-359.625	800.000	0.038	-0.106
-358.610	-0.063	-0.210	0.151
-357.596	-119.799	-0.364	0.063
-356.581	-101.847	0.195	-0.047
-355.566	800.000	0.045	-0.132
-354.552	56.104	-0.148	-0.145
-353.537	-117.623	0.184	-0.033
-352.523	-200.000	-0.009	-0.359
-351.508	-8.636	0.173	-0.117
-350.493	-200.000	-0.026	-0.190
-349.479	-200.000	0.023	-0.119
-348.464	-200.000	-0.036	0.186
-347.450	-54.586	0.030	-0.014
-346.435	-85.350	-0.271	-0.085
-345.420	-7.361	0.212	-0.145
-344.406	-200.000	0.416	0.001
-343.391	-141.190	-0.183	-0.019
-342.377	597.371	-0.151	0.377
-341.362	75.260	-0.236	-0.250
-340.348	113.917	-0.029	-0.036
-339.333	-122.152	0.041	0.007
-338.318	26.596	0.160	-0.135
-337.304	800.000	0.074	0.250
-336.289	-40.994	-0.277	0.144
-335.275	-200.000	-0.033	-0.222
-334.260	296.310	0.079	0.147
-333.245	268.366	-0.075	0.133
-332.231	-72.937	-0.096	-0.035
-331.216	-21.096	-0.061	0.037
-330.202	22.733	0.122	0.101
-329.187	800.000	0.082	-0.228
-328.172	-115.117	0.189	-0.036
-327.158	-21.854	0.249	-0.153
-326.143	-26.803	-0.174	0.102
-325.129	430.028	-0.181	0.394
-324.114	261.952	0.138	0.241
-323.099	-98.669	0.254	0.065
-322.085	-17.237	0.147	-0.093
-321.070	-21.582	0.255	0.156
-320.056	-23.765	0.032	-0.019
-319.041	-200.000	-0.001	0.290
-318.026	-125.632	0.152	0.023
-317.012	-31.161	0.163	0.092
-315.997	800.000	0.024	-0.104
-314.983	-47.109	-0.168	0.082
-313.968	-79.205	0.083	0.028
-312.953	-200.000	0.027	-0.153
-311.939	136.925	-0.172	-0.226
-310.924	61.082	-0.219	0.219
-309.910	109.327	-0.073	0.088
-308.895	-28.607	0.070	-0.041
-307.880	-87.999	-0.259	0.078
-306.866	211.127	0.155	-0.245
-305.851	139.363	-0.097	0.128
-304.837	-119.683	0.344	-0.060
-303.822	800.000	-0.099	0.274
-302.807	59.341	-0.082	0.081
-301.793	296.124	-0.061	-0.113
-300.778	-200.000	0.001	-0.215
-299.764	376.338	0.169	-0.347
-298.749	-180.893	-0.285	0.006
-297.735	-134.077	0.105	-0.013
-296.720	-127.636	-0.085	-0.012
-295.705	-49.190	0.226	0.109
-294.691	45.716	-0.170	-0.158
-293.676	-200.000	-0.031	-0.534
-292.662	-14.761	-0.123	-0.079
-291.647	800.000	-0.079	0.247
-290.632	-168.007	0.203	-0.008
-289.618	424.726	0.011	-0.024
-288.603	-32.432	0.356	-0.200
-287.589	-4.121	-0.170	0.118
-286.574	187.724	-0.136	0.203
-285.559	-153.441	0.221	-0.015
-284.545	233.929	0.189	0.312
-283.530	-105.563	0.053	0.012
-282.516	-91.162	-0.284	-0.082
-281.501	66.050	0.178	0.181
-280.486	114.096	0.362	0.442
-279.472	-2.588	-0.189	-0.133
-278.457	104.053	0.141	0.167
-277.443	-200.000	0.002	0.350
-276.428	390.280	-0.102	0.213
-275.413	63.715	-0.237	-0.239
-274.399	-0.714	0.273	0.194
-273.384	-18.294	0.083	-0.052
-272.370	-126.969	-0.242	-0.036
-271.355	-111.782	-0.183	-0.037
-270.340	342.465	0.085	0.166
-269.326	-141.755	-0.268	-0.027
-268.311	800.000	-0.077	0.237
-267.297	74.946	-0.051	-0.054
-266.282	536.381	-0.039	0.093
-265.267	1.775	-0.319	-0.231
-264.253	-200.000	-0.012	-0.187
-263.238	-14.008	0.109	0.071
-262.224	497.949	0.041	-0.094
-261.209	232.251	-0.246	0.406
-260.195	3.553	0.280	0.205
-259.180	672.583	-0.024	0.062
-258.165	176.171	0.029	0.042
-257.151	-26.443	-0.184	0.108
-256.136	168.278	0.096	0.138
-255.122	-63.120	0.074	0.031
-254.107	-189.974	0.156	-0.002
-253.092	-158.517	0.056	-0.003
-252.078	79.523	-0.071	0.076
-251.063	800.000	-0.038	-0.108
-250.049	-73.787	0.103	-0.038
-249.034	800.000	-0.052	-0.202
-248.019	-180.924	0.059	0.001
-247.005	-200.000	-0.017	-0.249
-245.990	-71.824	0.069	0.026
-244.976	-103.382	-0.248	-0.059
-243.961	-196.294	0.298	-0.002
-242.946	196.751	0.062	0.095
-241.932	88.670	0.111	-0.124
-240.917	-155.841	0.431	0.028
-239.903	124.973	0.283	-0.357
-238.888	-200.000	-0.042	-0.223
-237.873	-128.953	-0.400	0.056
-236.859	-63.210	0.167	0.069
-235.844	193.265	0.132	-0.200
-234.830	800.000	0.084	-0.237
-233.815	283.788	-0.110	0.198
-232.800	346.544	0.086	0.169
-231.786	285.583	-0.166	-0.300
-230.771	195.498	-0.159	-0.242
-229.757	800.000	-0.103	0.363
-228.742	-130.343	-0.313	0.043
-227.727	90.575	0.129	0.145
-226.713	-50.453	0.102	-0.048
-225.698	404.924	0.156	0.330
-224.684	-200.000	0.033	-0.315
-223.669	341.122	0.124	-0.243
-222.655	-91.369	0.246	-0.070
-221.640	38.539	-0.144	0.129
-220.625	187.891	-0.045	0.068
-219.611	-150.415	0.416	0.032
-218.596	521.096	-0.133	-0.312
-217.582	-66.705	-0.174	-0.069
-216.567	-148.594	-0.234	0.019
-215.552	211.058	0.061	-0.096
-214.538	364.752	-0.142	0.287
-213.523	500.484	-0.085	0.196
-212.509	-13.472	0.212	0.137
-211.494	117.581	0.289	-0.356
-210.479	303.638	-0.100	-0.187
-209.465	115.696	0.106	-0.130
-208.450	-200.000	-0.008	0.124
-207.436	-51.402	0.386	0.181
-206.421	800.000	0.046	0.170
-205.406	-36.876	0.375	0.201
-204.392	-29.373	0.335	0.192
-203.377	65.838	0.081	-0.082
-202.363	-106.177	0.297	-0.067
-201.348	800.000	0.074	-0.222
-200.333	-200.000	0.005	-0.298
-199.319	41.166	-0.183	-0.166
-198.304	-17.470	0.297	-0.187
-197.290	356.051	0.072	0.143
-196.275	-82.592	-0.337	-0.109
-195.260	-200.000	0.039	-0.251
-194.246	-20.755	-0.165	0.102
-193.231	40.623	0.082	0.074
-192.217	-50.914	-0.262	0.123
-191.202	-200.000	-0.149	0.662
-190.187	270.332	0.125	-0.221
-189.173	226.468	-0.203	0.330
-188.158	-66.555	0.253	0.100
-187.144	800.000	0.046	0.197
-186.129	-17.600	-0.145	-0.091
-185.114	86.607	0.190	-0.210
-184.100	-160.561	-0.247	0.013
-183.085	-45.394	-0.083	0.041
-182.071	-86.514	0.463	-0.142
-181.056	-106.433	0.221	0.049
-180.042	179.533	-0.120	0.176
-179.027	-200.000	-0.013	0.126
-178.012	800.000	-0.046	-0.176
-176.998	201.820	0.249	0.384
-175.983	-200.000	-0.013	0.157
-174.969	120.860	-0.091	0.113
-173.954	-52.878	0.128	0.059
-172.939	-104.729	0.075	-0.017
-171.925	-132.915	0.187	-0.024
-170.910	-129.918	0.221	0.030
-169.896	-10.179	0.376	0.250
-168.881	100.882	-0.092	0.107
-167.866	-91.459	0.238	0.068
-166.852	87.691	0.061	0.068
-165.837	-200.000	-0.024	-0.179
-164.823	-200.000	-0.003	0.078
-163.808	268.592	0.156	-0.273
-162.793	46.442	-0.287	-0.266
-161.779	4.366	-0.141	-0.103
-160.764	-32.742	0.538	0.299
-159.750	-13.406	-0.195	0.126
-158.735	-131.900	-0.485	0.063
-157.720	206.620	0.113	0.176
-156.706	145.285	0.106	0.142
-155.691	69.997	0.198	0.204
-154.677	800.000	-0.051	-0.160
-153.662	340.145	-0.068	-0.133
-152.647	687.267	-0.067	-0.175
-151.633	800.000	0.044	0.154
-150.618	-12.835	-0.083	0.054
-149.604	366.939	0.158	-0.319
-148.589	305.527	0.082	-0.153
-147.574	-105.571	-0.154	0.035
-146.560	-200.000	0.009	-0.152
-145.545	-153.026	-0.251	-0.018
-144.531	-12.476	-0.262	0.171
-143.516	25.498	-0.159	-0.132
-142.502	769.248	-0.156	-0.424
-141.487	-29.676	0.152	-0.087
-140.472	9.081	-0.060	-0.045
-139.458	271.360	-0.181	0.319
-138.443	-200.000	0.024	0.148
-137.429	-102.110	-0.282	0.068
-136.414	249.316	0.141	0.239
-135.399	-200.000	-0.048	0.399
-134.385	96.657	-0.237	-0.272
-133.370	-200.000	-0.003	-0.115
-132.356	-31.676	-0.375	-0.210
-131.341	-126.126	0.225	-0.034
-130.326	-27.075	0.122	-0.071
-129.312	-141.262	-0.085	0.009
-128.297	-43.694	-0.200	0.101
-127.283	800.000	0.098	0.307
-126.268	-1.294	0.341	0.240
-125.253	-68.751	0.150	0.058
-124.239	-57.208	0.529	0.233
-123.224	233.292	0.066	0.108
-122.210	69.341	-0.198	-0.204
-121.195	263.798	-0.061	0.105
