DTS Sentinel unit serial number:	SN413079Multiplexer serial number:	ORYXHardware model number:	OX4-SRSoftware version number:	ORYX F/W v4.00 Oryx Data Collector v3.7.2.0data status	okinstallation	princeton_trtdifferential loss correction	single-endedforward channel	channel 3reverse channel	N/Adate	2019/09/13time	15:44:34forward acquisition time	60.00reverse acquisition time	0.00gamma	496.2192k internal	0.2307k external	0.2307temperature offset calibration	1.0145default loss term (dB/km)	0.3790temperature slope calibration	1.0000multiplexer offset coefficient	1.0000multiplexer slope coefficient	1.0000fibre end	0.00T internal ref (°C)	34.77T ext. ref 1 (°C)	4.76T ext. ref 2 (°C)	29.27length (m)	temperature (°C)	Stokes	anti-Stokes-747.200	-26.242	0.313	-0.187
-746.185	-184.306	0.190	0.003
-745.171	668.230	-0.021	0.054
-744.156	500.087	0.177	0.415
-743.142	218.535	0.121	0.197
-742.127	800.000	0.146	0.637
-741.112	-17.885	-0.280	-0.179
-740.098	147.587	0.150	0.206
-739.083	800.000	0.061	0.202
-738.069	784.635	0.086	0.241
-737.054	31.455	-0.209	-0.182
-736.039	-200.000	-0.021	-0.398
-735.025	800.000	0.052	-0.196
-734.010	-200.000	0.031	0.148
-732.996	800.000	-0.138	-0.467
-731.981	-200.000	0.020	-0.241
-730.966	800.000	0.020	0.067
-729.952	121.688	0.168	0.213
-728.937	50.420	-0.159	0.153
-727.923	-86.396	0.151	-0.047
-726.908	-200.000	-0.049	0.429
-725.894	-139.401	-0.203	0.022
-724.879	-79.659	-0.244	0.084
-723.864	-181.923	-0.258	-0.005
-722.850	169.918	-0.088	-0.129
-721.835	-99.806	0.127	0.032
-720.821	-200.000	-0.037	-0.203
-719.806	800.000	-0.089	0.267
-718.791	34.969	0.204	0.181
-717.777	800.000	0.054	-0.164
-716.762	33.686	-0.092	0.081
-715.748	-200.000	0.007	-0.342
-714.733	-200.000	-0.049	0.225
-713.718	34.268	-0.323	-0.286
-712.704	-119.600	-0.375	-0.066
-711.689	-146.769	0.413	0.036
-710.675	6.610	0.211	-0.159
-709.660	67.245	-0.261	-0.270
-708.645	-63.794	0.185	-0.077
-707.631	376.761	-0.096	-0.199
-706.616	48.772	-0.078	-0.074
-705.602	-200.000	0.022	-0.220
-704.587	-200.000	-0.083	-0.425
-703.572	320.280	-0.118	-0.227
-702.558	-17.584	0.262	-0.167
-701.543	207.912	-0.118	0.186
-700.529	33.287	-0.250	-0.220
-699.514	-86.778	0.073	-0.023
-698.499	800.000	-0.091	0.322
-697.485	431.118	0.207	0.454
-696.470	445.072	-0.048	-0.108
-695.456	-200.000	0.001	0.066
-694.441	-23.821	0.240	-0.146
-693.426	54.441	0.189	0.185
-692.412	29.612	0.089	-0.077
-691.397	-200.000	-0.019	-0.127
-690.383	-200.000	-0.001	-0.029
-689.368	-133.406	0.256	-0.033
-688.354	-103.958	-0.124	-0.029
-687.339	-49.511	-0.048	-0.023
-686.324	-36.548	0.221	-0.121
-685.310	-43.827	-0.140	-0.072
-684.295	800.000	-0.103	-0.401
-683.281	-35.322	0.271	0.149
-682.266	-105.557	-0.259	0.060
-681.251	27.796	0.040	0.034
-680.237	64.148	-0.395	-0.403
-679.222	-200.000	-0.037	-0.189
-678.208	-200.000	0.008	0.089
-677.193	14.508	-0.112	0.088
-676.178	-200.000	-0.056	0.333
-675.164	81.873	0.198	0.218
-674.149	305.001	-0.152	0.287
-673.135	73.883	0.161	-0.171
-672.120	325.783	-0.289	-0.561
-671.105	-90.760	-0.250	0.073
-670.091	-98.327	0.280	0.073
-669.076	184.444	-0.065	0.097
-668.062	-140.073	-0.115	-0.012
-667.047	-64.557	0.259	0.107
-666.032	405.563	0.060	0.128
-665.018	-200.000	0.021	-0.218
-664.003	93.086	-0.082	-0.094
-662.989	-200.000	0.036	-0.213
-661.974	-185.215	-0.203	-0.003
-660.959	800.000	0.059	-0.177
-659.945	-200.000	-0.029	-0.291
-658.930	800.000	-0.056	-0.173
-657.916	-53.093	0.100	-0.047
-656.901	-72.085	-0.320	0.120
-655.886	-200.000	0.022	0.187
-654.872	800.000	0.044	0.183
-653.857	-90.884	0.089	0.026
-652.843	122.622	-0.297	-0.377
-651.828	566.439	0.127	0.312
-650.814	-42.107	-0.049	-0.026
-649.799	-77.603	-0.185	0.065
-648.784	800.000	0.017	0.062
-647.770	342.648	0.106	-0.211
-646.755	800.000	-0.088	0.245
-645.741	-200.000	0.017	0.312
-644.726	107.284	0.140	0.169
-643.711	230.211	-0.268	-0.444
-642.697	117.659	-0.039	0.048
-641.682	-123.501	-0.234	0.038
-640.668	-53.683	0.038	0.018
-639.653	-200.000	-0.027	-0.207
-638.638	721.485	0.064	0.172
-637.624	-48.177	-0.056	-0.028
-636.609	216.495	0.072	-0.116
-635.595	-200.000	-0.039	-0.257
-634.580	-67.558	0.119	-0.047
-633.565	-42.485	0.123	-0.063
-632.551	673.265	-0.172	0.453
-631.536	-200.000	0.037	-0.263
-630.522	-200.000	-0.019	-0.281
-629.507	-129.784	0.536	-0.075
-628.492	164.974	0.072	-0.103
-627.478	-76.282	-0.132	-0.047
-626.463	-200.000	0.053	-0.246
-625.449	60.165	-0.181	0.181
-624.434	-104.493	0.211	0.049
-623.419	-126.099	0.073	0.011
-622.405	-114.206	0.453	0.088
-621.390	-30.277	-0.392	-0.226
-620.376	-200.000	-0.028	0.337
-619.361	-200.000	-0.095	0.423
-618.346	486.546	0.037	0.085
-617.332	141.592	-0.052	0.070
-616.317	-200.000	-0.009	-0.051
-615.303	-64.394	0.056	-0.023
-614.288	97.789	0.224	-0.261
-613.273	-180.874	-0.142	-0.003
-612.259	295.392	0.025	-0.047
-611.244	-194.843	-0.332	-0.003
-610.230	-25.209	0.086	0.052
-609.215	-17.812	-0.190	0.121
-608.201	-57.151	-0.131	0.058
-607.186	-100.253	0.336	0.084
-606.171	800.000	-0.049	-0.177
-605.157	-133.243	-0.090	0.011
-604.142	115.839	0.092	0.113
-603.128	-200.000	-0.009	0.291
-602.113	30.537	-0.282	-0.244
-601.098	190.221	-0.086	-0.131
-600.084	133.967	-0.153	0.200
-599.069	516.169	-0.115	0.273
-598.055	359.841	-0.114	-0.231
-597.040	323.288	0.042	-0.080
-596.025	-12.565	0.019	0.013
-595.011	12.765	0.324	-0.253
-593.996	-11.970	0.026	-0.017
-592.982	-200.000	-0.016	-0.318
-591.967	-58.850	-0.140	-0.061
-590.952	-158.660	-0.149	0.009
-589.938	800.000	-0.113	-0.325
-588.923	-200.000	-0.009	-0.192
-587.909	13.219	-0.170	0.133
-586.894	-200.000	0.007	-0.228
-585.879	-45.930	-0.383	0.191
-584.865	-200.000	0.008	0.236
-583.850	-200.000	0.042	-0.404
-582.836	-112.517	-0.149	-0.030
-581.821	-200.000	0.002	0.024
-580.806	5.257	-0.268	-0.200
-579.792	82.314	-0.069	-0.075
-578.777	44.213	0.290	0.269
-577.763	-33.736	-0.178	0.099
-576.748	698.463	-0.215	0.572
-575.733	28.989	0.072	0.062
-574.719	-60.814	-0.354	0.151
-573.704	258.859	0.192	-0.335
-572.690	-200.000	-0.011	-0.107
-571.675	-42.883	-0.156	-0.080
-570.661	-200.000	0.011	-0.147
-569.646	-118.943	-0.112	-0.020
-568.631	-34.773	-0.259	0.143
-567.617	-97.197	-0.163	-0.043
-566.602	-21.546	-0.104	-0.064
-565.588	-169.486	-0.392	0.014
-564.573	-37.065	-0.070	-0.038
-563.558	-179.707	-0.208	-0.005
-562.544	640.450	-0.069	0.177
-561.529	199.599	0.030	0.047
-560.515	-200.000	-0.013	0.341
-559.500	-37.053	-0.201	-0.109
-558.485	70.867	0.176	0.184
-557.471	-126.823	0.143	0.021
-556.456	-98.256	0.198	-0.051
-555.442	-15.997	0.314	0.202
-554.427	545.536	0.138	0.333
-553.412	-34.511	-0.396	-0.219
-552.398	627.539	0.027	0.069
-551.383	323.980	-0.114	0.219
-550.369	-88.069	0.194	-0.059
-549.354	-56.860	0.215	-0.096
-548.339	263.626	0.196	-0.344
-547.325	-176.454	0.264	0.007
-546.310	-71.010	-0.094	-0.036
-545.296	-90.174	-0.227	-0.067
-544.281	184.899	0.185	0.277
-543.266	22.226	0.315	0.260
-542.252	800.000	0.036	0.151
-541.237	-148.297	0.256	-0.021
-540.223	-107.656	-0.055	0.012
-539.208	-143.401	-0.093	0.009
-538.193	77.002	0.189	-0.203
-537.179	-13.960	0.116	0.076
-536.164	-50.183	0.188	0.090
-535.150	800.000	0.014	-0.060
-534.135	170.242	0.078	-0.113
-533.121	-45.496	-0.176	-0.088
-532.106	-113.601	-0.320	-0.063
-531.091	-22.087	0.421	0.258
-530.077	112.592	-0.185	-0.226
-529.062	-200.000	-0.003	0.262
-528.048	-200.000	-0.008	0.188
-527.033	265.048	0.035	-0.061
-526.018	-200.000	0.044	0.244
-525.004	176.858	-0.126	-0.184
-523.989	-136.151	-0.193	-0.023
-522.975	-200.000	0.027	-0.123
-521.960	800.000	0.112	-0.402
-520.945	149.283	0.214	0.292
-519.931	357.347	-0.034	-0.069
-518.916	-101.740	0.195	0.048
-517.902	-79.885	-0.097	0.033
-516.887	98.622	-0.097	0.113
-515.872	71.272	-0.144	-0.150
-514.858	80.546	0.198	0.215
-513.843	-106.065	-0.045	0.010
-512.829	44.250	-0.233	-0.216
-511.814	-53.469	-0.101	0.046
-510.799	-51.073	0.147	0.069
-509.785	71.604	-0.292	0.306
-508.770	41.853	-0.186	0.170
-507.756	31.485	0.164	-0.142
-506.741	149.486	0.069	0.094
-505.726	-125.457	0.342	-0.052
-504.712	-49.013	-0.297	-0.143
-503.697	-112.814	0.345	-0.069
-502.683	-107.316	-0.372	-0.082
-501.668	-76.154	0.092	-0.033
-500.653	-76.138	0.207	-0.074
-499.639	-143.504	-0.056	0.005
-498.624	-157.456	-0.144	-0.009
-497.610	227.917	-0.142	0.234
-496.595	800.000	-0.132	0.464
-495.581	800.000	-0.067	0.198
-494.566	-166.151	0.221	-0.009
-493.551	-69.756	-0.306	-0.118
-492.537	352.377	-0.187	-0.374
-491.522	33.003	-0.143	-0.125
-490.508	-120.563	-0.291	0.050
-489.493	59.361	0.218	0.216
-488.478	-133.420	-0.345	-0.044
-487.464	66.352	-0.293	0.300
-486.449	-121.294	-0.226	0.038
-485.435	800.000	0.065	-0.188
-484.420	-145.562	0.071	0.006
-483.405	157.133	-0.221	-0.307
-482.391	-189.815	0.407	0.005
-481.376	161.144	-0.145	-0.204
-480.362	-69.904	0.309	0.119
-479.347	167.398	0.145	0.207
-478.332	-200.000	-0.030	0.136
-477.318	-111.342	0.143	0.029
-476.303	-200.000	0.015	-0.251
-475.289	-4.103	-0.132	0.092
-474.274	47.202	0.055	-0.051
-473.259	-200.000	-0.032	0.357
-472.245	-150.180	0.132	-0.010
-471.230	-200.000	0.023	-0.168
-470.216	-35.016	-0.044	-0.024
-469.201	-123.612	-0.194	-0.031
-468.186	800.000	-0.061	-0.259
-467.172	-75.357	-0.213	0.076
-466.157	-113.829	0.232	-0.045
-465.143	800.000	0.096	0.298
-464.128	-200.000	0.009	-0.102
-463.113	-159.832	0.141	0.008
-462.099	114.223	-0.155	0.189
-461.084	-138.252	-0.194	-0.022
-460.070	800.000	0.127	-0.363
-459.055	-84.683	0.391	0.124
-458.040	-38.189	-0.106	-0.056
-457.026	-155.084	0.057	0.004
-456.011	351.679	-0.127	0.253
-454.997	169.126	0.041	-0.059
-453.982	-200.000	0.021	0.188
-452.968	5.201	-0.258	0.191
-451.953	-108.689	0.130	-0.028
-450.938	-200.000	-0.006	0.137
-449.924	179.741	0.206	-0.304
-448.909	145.564	-0.019	0.026
-447.895	73.675	-0.062	0.066
-446.880	-121.782	0.267	-0.044
-445.865	395.625	0.106	0.223
-444.851	-112.181	0.127	0.026
-443.836	512.200	0.020	-0.047
-442.822	-172.782	0.224	0.007
-441.807	-151.056	-0.301	-0.023
-440.792	-200.000	-0.032	-0.171
-439.778	44.372	-0.196	-0.181
-438.763	-123.623	0.148	0.024
-437.749	-94.238	0.086	-0.024
-436.734	48.552	-0.152	0.143
-435.719	800.000	-0.064	0.193
-434.705	-200.000	-0.004	0.152
-433.690	-200.000	0.047	0.219
-432.676	67.159	0.105	0.107
-431.661	-37.229	-0.123	0.066
-430.646	-10.179	0.171	-0.114
-429.632	800.000	-0.018	0.062
-428.617	-200.000	0.023	0.162
-427.603	715.980	-0.025	0.067
-426.588	-53.170	0.302	0.139
-425.573	439.634	0.012	-0.026
-424.559	-200.000	-0.029	-0.170
-423.544	187.762	-0.127	0.190
-422.530	-14.053	-0.089	-0.058
-421.515	382.729	-0.051	0.106
-420.500	-165.673	-0.152	-0.007
-419.486	-200.000	-0.058	0.597
-418.471	-131.122	-0.092	-0.012
-417.457	390.689	0.042	-0.088
-416.442	800.000	-0.028	-0.090
-415.428	-30.665	0.287	-0.163
-414.413	406.492	0.038	0.081
-413.398	343.404	0.082	0.162
-412.384	-109.995	0.251	-0.053
-411.369	197.343	-0.285	-0.437
-410.355	113.018	0.111	-0.135
-409.340	59.821	-0.184	-0.182
-408.325	-44.947	-0.283	0.142
-407.311	-130.344	-0.286	0.039
-406.296	-48.999	-0.246	0.118
-405.282	-200.000	-0.051	0.245
-404.267	52.146	-0.037	-0.036
-403.252	291.674	-0.023	-0.043
-402.238	-43.792	0.192	0.097
-401.223	50.952	0.141	0.134
-400.209	-131.490	0.078	-0.010
-399.194	-86.516	-0.085	0.026
-398.179	-200.000	-0.010	-0.085
-397.165	-72.386	-0.228	-0.085
-396.150	241.217	0.116	-0.195
-395.136	-200.000	0.030	0.141
-394.121	102.189	-0.044	0.052
-393.106	-200.000	0.009	0.219
-392.092	71.530	0.072	-0.075
-391.077	800.000	0.207	-0.619
-390.063	800.000	0.091	-0.275
-389.048	99.929	-0.109	-0.127
-388.033	-143.798	0.182	-0.017
-387.019	85.872	0.152	-0.168
-386.004	-100.251	-0.113	0.028
-384.990	-158.928	-0.217	-0.012
-383.975	-67.763	-0.351	-0.138
-382.960	64.451	-0.078	0.079
-381.946	800.000	-0.027	0.099
-380.931	336.844	0.088	-0.172
-379.917	25.846	0.041	0.035
-378.902	48.142	0.100	-0.094
-377.888	-200.000	-0.020	-0.142
-376.873	107.042	-0.081	-0.096
-375.858	288.770	0.034	0.062
-374.844	-99.644	-0.206	-0.052
-373.829	72.969	-0.249	-0.261
-372.815	-200.000	-0.004	-0.185
-371.800	100.456	0.169	0.196
-370.785	85.926	0.205	-0.226
-369.771	-200.000	0.027	-0.120
-368.756	-200.000	-0.169	-0.001
-367.742	251.385	0.051	-0.088
-366.727	-200.000	-0.009	-0.122
-365.712	-145.126	0.317	0.029
-364.698	-200.000	-0.007	-0.218
-363.683	185.659	0.136	0.203
-362.669	139.664	-0.111	-0.146
-361.654	115.133	-0.217	0.265
-360.639	800.000	0.040	-0.114
-359.625	9.030	0.149	-0.113
-358.610	-55.637	0.259	-0.116
-357.596	183.480	0.156	0.231
-356.581	-14.305	0.162	-0.104
-355.566	378.639	0.110	-0.225
-354.552	379.956	-0.081	-0.165
-353.537	-200.000	-0.027	0.135
-352.523	-200.000	-0.069	0.339
-351.508	-200.000	0.021	0.216
-350.493	-116.654	-0.271	-0.050
-349.479	216.471	-0.082	0.131
-348.464	-163.724	0.147	-0.007
-347.450	-200.000	0.027	0.216
-346.435	-200.000	-0.017	0.146
-345.420	72.388	0.134	-0.140
-344.406	-142.754	0.381	-0.037
-343.391	-51.356	-0.200	0.094
-342.377	-48.209	0.320	0.155
-341.362	-12.236	-0.205	-0.134
-340.348	-101.746	-0.553	-0.134
-339.333	335.618	0.121	-0.235
-338.318	-200.000	-0.035	-0.269
-337.304	-83.865	-0.406	-0.130
-336.289	705.757	-0.049	0.128
-335.275	-200.000	-0.022	0.197
-334.260	-21.604	-0.181	-0.110
-333.245	-173.674	-0.082	-0.002
-332.231	-200.000	0.024	0.125
-331.216	-153.751	-0.191	0.013
-330.202	121.625	-0.250	0.312
-329.187	-145.019	-0.219	0.020
-328.172	-114.307	0.465	-0.090
-327.158	17.546	-0.181	-0.144
-326.143	-84.385	-0.419	-0.133
-325.129	800.000	-0.061	-0.260
-324.114	375.466	0.066	0.134
-323.099	-44.577	0.314	-0.157
-322.085	-99.628	0.164	0.041
-321.070	-200.000	-0.005	-0.073
-320.056	-56.234	0.023	-0.010
-319.041	365.606	0.066	-0.133
-318.026	-87.054	0.155	-0.047
-317.012	295.241	-0.096	0.175
-315.997	-51.551	-0.257	0.120
-314.983	182.970	-0.154	0.228
-313.968	800.000	0.038	0.113
-312.953	251.136	0.070	-0.119
-311.939	-200.000	0.002	0.170
-310.924	549.589	-0.125	0.299
-309.910	673.072	0.067	0.174
-308.895	15.677	0.188	0.147
-307.880	800.000	0.034	-0.135
-306.866	800.000	-0.063	-0.223
-305.851	800.000	0.038	0.135
-304.837	-29.595	-0.148	-0.084
-303.822	-23.311	-0.093	0.056
-302.807	216.956	0.139	0.221
-301.793	-103.727	0.192	-0.045
-300.778	-51.706	0.112	0.052
-299.764	-200.000	-0.013	0.145
-298.749	-81.385	0.339	0.112
-297.735	254.425	0.141	-0.242
-296.720	364.513	0.079	0.158
-295.705	114.561	-0.186	0.226
-294.691	377.518	0.045	0.091
-293.676	-105.570	-0.349	0.079
-292.662	-200.000	-0.010	-0.158
-291.647	-34.076	0.286	-0.157
-290.632	181.226	-0.119	-0.175
-289.618	138.957	0.254	-0.333
-288.603	-174.905	0.082	0.002
-287.589	-200.000	-0.016	0.082
-286.574	253.163	-0.031	-0.053
-285.559	517.718	-0.112	-0.262
-284.545	-64.871	-0.187	0.075
-283.530	800.000	-0.065	0.202
-282.516	800.000	0.020	0.081
-281.501	64.150	0.257	0.258
-280.486	-20.370	-0.337	0.207
-279.472	214.757	0.015	-0.023
-278.457	-200.000	0.031	0.169
-277.443	800.000	-0.057	0.236
-276.428	-69.786	0.222	-0.085
-275.413	-34.436	0.160	0.088
-274.399	-200.000	-0.017	0.113
-273.384	-115.275	0.268	-0.051
-272.370	143.436	0.132	0.176
-271.355	31.024	0.077	0.066
-270.340	516.889	0.075	-0.175
-269.326	781.068	0.092	-0.252
-268.311	95.617	-0.078	0.089
-267.297	-54.321	0.268	0.121
-266.282	-87.776	-0.154	0.046
-265.267	-69.368	-0.046	-0.017
-264.253	-200.000	0.017	0.161
-263.238	184.787	0.078	-0.116
-262.224	-80.840	-0.298	-0.099
-261.209	15.397	-0.076	0.059
-260.195	-200.000	-0.044	0.281
-259.180	-44.829	0.240	0.119
-258.165	-180.899	-0.040	0.001
-257.151	-200.000	0.021	0.311
-256.136	-125.959	0.316	-0.047
-255.122	-78.429	0.301	-0.103
-254.107	-172.932	-0.348	0.011
-253.092	197.656	0.178	0.270
-252.078	-200.000	0.010	-0.095
-251.063	-103.142	0.379	0.089
-250.049	-44.715	0.115	-0.057
-249.034	296.486	0.199	-0.363
-248.019	-200.000	0.001	-0.137
-247.005	125.294	-0.094	0.118
-245.990	800.000	0.070	0.269
-244.976	-106.543	0.385	-0.086
-243.961	800.000	-0.076	0.279
-242.946	91.635	0.073	-0.082
-241.932	-40.166	0.188	-0.097
-240.917	158.327	0.142	0.197
-239.903	129.634	-0.333	-0.424
-238.888	-88.106	-0.135	0.040
-237.873	-66.142	0.321	-0.128
-236.859	-200.000	-0.002	0.139
-235.844	99.797	0.266	-0.307
-234.830	194.717	0.075	-0.113
-233.815	-200.000	-0.053	-0.275
-232.800	81.808	-0.244	0.264
-231.786	192.710	0.011	-0.017
-230.771	15.482	0.199	-0.156
-229.757	-200.000	-0.001	0.097
-228.742	160.493	-0.144	0.200
-227.727	-200.000	0.060	-0.336
-226.713	75.281	-0.211	0.221
-225.698	-122.579	-0.451	0.073
-224.684	139.728	-0.122	-0.160
-223.669	57.401	-0.307	0.299
-222.655	323.336	0.055	-0.105
-221.640	-200.000	0.023	0.131
-220.625	3.477	0.140	-0.102
-219.611	100.589	0.145	0.167
-218.596	47.810	-0.179	0.167
-217.582	-127.745	0.280	0.040
-216.567	-67.050	-0.355	0.140
-215.552	-146.282	0.161	-0.014
-214.538	-13.488	-0.106	-0.068
-213.523	800.000	0.125	-0.420
-212.509	-146.058	0.097	-0.009
-211.494	76.946	-0.013	-0.014
-210.479	-120.984	-0.164	0.027
-209.465	2.811	0.307	-0.222
-208.450	2.016	-0.343	0.246
-207.436	46.977	0.168	-0.156
-206.421	800.000	-0.072	-0.262
-205.406	800.000	0.052	0.149
-204.392	65.788	0.139	0.141
-203.377	299.665	-0.332	-0.608
-202.363	-47.452	0.283	0.137
-201.348	270.039	0.064	-0.111
-200.333	-112.644	0.048	-0.009
-199.319	-69.202	-0.273	-0.104
-198.304	-25.026	0.256	-0.151
-197.290	-146.884	-0.375	0.032
-196.275	-99.572	-0.271	-0.068
-195.260	30.533	0.294	-0.251
-194.246	800.000	0.025	-0.101
-193.231	268.436	-0.065	0.114
-192.217	-200.000	-0.044	-0.197
-191.202	183.867	-0.199	0.293
-190.187	-49.883	0.137	0.065
-189.173	800.000	-0.023	-0.092
-188.158	0.549	0.178	0.126
-187.144	82.043	0.055	-0.060
-186.129	-200.000	0.024	-0.225
-185.114	32.792	0.157	-0.135
-184.100	-200.000	-0.003	0.211
-183.085	70.359	0.160	-0.164
-182.071	-60.507	-0.116	-0.049
-181.056	54.983	0.154	0.148
-180.042	47.439	0.101	0.093
-179.027	800.000	0.063	-0.179
-178.012	-58.145	0.065	0.028
-176.998	-129.324	0.328	0.045
-175.983	-94.239	-0.382	-0.104
-174.969	-132.034	0.179	-0.023
-173.954	800.000	0.051	0.211
-172.939	-139.323	0.529	0.057
-171.925	-177.929	-0.090	0.002
-170.910	-54.454	-0.124	0.056
-169.896	800.000	-0.034	-0.112
-168.881	63.625	0.232	-0.231
-167.866	548.629	-0.025	0.059
-166.852	-56.338	-0.151	-0.067
-165.837	-128.162	0.110	-0.016
-164.823	48.848	0.165	-0.154
-163.808	101.986	-0.149	-0.172
-162.793	-200.000	0.068	-0.400
-161.779	68.539	-0.074	-0.075
-160.764	-96.509	-0.216	0.057
-159.750	89.192	0.261	-0.289
-158.735	406.017	-0.069	0.145
-157.720	-75.990	-0.106	-0.037
-156.706	25.711	0.182	0.151
-155.691	-102.568	-0.187	0.044
-154.677	-200.000	-0.022	0.330
-153.662	239.492	0.054	-0.089
-152.647	-135.060	0.328	-0.039
-151.633	800.000	0.065	-0.204
-150.618	86.000	0.238	0.261
-149.604	229.002	0.126	0.204
-148.589	-138.574	0.261	-0.028
-147.574	198.948	-0.190	-0.290
-146.560	-200.000	0.004	0.346
-145.545	800.000	-0.036	0.133
-144.531	-122.884	-0.130	-0.021
-143.516	-145.521	0.388	0.035
-142.502	-200.000	0.005	0.099
-141.487	-65.076	0.152	0.061
-140.472	10.992	0.341	-0.259
-139.458	346.820	-0.138	-0.270
-138.443	-9.003	0.144	-0.096
-137.429	800.000	-0.124	0.404
-136.414	800.000	-0.029	0.083
-135.399	37.863	-0.293	-0.258
-134.385	449.141	0.023	-0.051
-133.370	103.743	-0.070	0.082
-132.356	800.000	0.013	-0.047
-131.341	800.000	-0.018	0.077
-130.326	800.000	-0.072	0.246
-129.312	-62.319	-0.306	0.126
-128.297	244.996	0.049	-0.082
-127.283	148.034	0.128	0.172
-126.268	36.060	-0.168	-0.147
-125.253	92.997	-0.053	0.059
-124.239	-200.000	-0.016	0.077
-123.224	727.939	-0.167	0.442
-122.210	43.925	-0.217	0.198
