DTS Sentinel unit serial number:	SN413079Multiplexer serial number:	ORYXHardware model number:	OX4-SRSoftware version number:	ORYX F/W v4.00 Oryx Data Collector v3.7.2.0data status	okinstallation	princeton_trtdifferential loss correction	single-endedforward channel	channel 3reverse channel	N/Adate	2019/09/14time	23:24:35forward acquisition time	60.00reverse acquisition time	0.00gamma	496.2192k internal	0.2319k external	0.2319temperature offset calibration	0.9981default loss term (dB/km)	0.3790temperature slope calibration	1.0000multiplexer offset coefficient	1.0000multiplexer slope coefficient	1.0000fibre end	0.00T internal ref (°C)	32.37T ext. ref 1 (°C)	4.62T ext. ref 2 (°C)	27.40length (m)	temperature (°C)	Stokes	anti-Stokes-747.200	15.101	0.020	-0.016
-746.185	49.024	-0.093	0.088
-745.171	42.308	0.270	0.249
-744.156	127.499	-0.167	0.214
-743.142	328.752	-0.206	0.401
-742.127	728.129	0.074	0.199
-741.112	-54.889	0.187	0.085
-740.098	-200.000	-0.010	0.113
-739.083	800.000	-0.110	0.394
-738.069	111.493	-0.163	0.198
-737.054	176.687	0.053	0.078
-736.039	35.638	-0.049	-0.043
-735.025	-96.629	0.132	0.035
-734.010	-200.000	0.023	-0.130
-732.996	-11.186	-0.127	-0.085
-731.981	58.695	-0.177	0.176
-730.966	623.628	0.032	0.082
-729.952	249.942	-0.005	-0.009
-728.937	403.659	-0.116	0.247
-727.923	-159.793	-0.130	0.007
-726.908	-102.622	-0.060	0.015
-725.894	477.837	0.100	-0.230
-724.879	800.000	0.034	-0.125
-723.864	-144.979	0.017	0.002
-722.850	77.985	-0.229	-0.247
-721.835	-46.742	-0.389	-0.192
-720.821	352.642	-0.132	-0.265
-719.806	131.043	-0.216	-0.280
-718.791	-38.741	-0.047	0.025
-717.777	-200.000	-0.083	0.424
-716.762	-93.908	-0.168	0.047
-715.748	-200.000	-0.007	-0.263
-714.733	-86.587	-0.583	-0.181
-713.718	419.827	0.023	-0.050
-712.704	-83.532	-0.469	-0.152
-711.689	412.646	-0.037	0.079
-710.675	-46.600	0.342	0.169
-709.660	-200.000	-0.013	-0.094
-708.645	352.588	-0.013	-0.027
-707.631	-62.479	0.299	-0.125
-706.616	-137.317	0.327	0.038
-705.602	-158.662	0.137	0.008
-704.587	751.224	0.088	-0.239
-703.572	62.604	0.125	0.126
-702.558	357.279	-0.044	0.088
-701.543	-200.000	0.029	-0.352
-700.529	-78.483	-0.313	0.108
-699.514	-122.928	0.188	-0.031
-698.499	124.322	-0.159	0.201
-697.485	800.000	-0.034	0.144
-696.470	140.156	-0.262	-0.349
-695.456	161.686	-0.128	0.180
-694.441	-11.134	-0.130	-0.087
-693.426	-125.859	0.173	-0.026
-692.412	-46.410	-0.192	0.095
-691.397	-4.095	-0.144	0.101
-690.383	-26.194	-0.149	-0.089
-689.368	23.610	-0.088	-0.073
-688.354	8.079	0.095	-0.072
-687.339	-27.918	0.093	-0.055
-686.324	-147.718	-0.205	0.017
-685.310	315.934	-0.048	-0.092
-684.295	-128.047	0.357	0.052
-683.281	-200.000	-0.007	-0.315
-682.266	2.516	0.046	-0.034
-681.251	-154.482	-0.266	-0.018
-680.237	156.622	0.187	0.260
-679.222	13.821	-0.181	-0.142
-678.208	-9.509	0.083	0.056
-677.193	-104.104	0.241	-0.057
-676.178	-22.337	0.151	-0.092
-675.164	105.864	-0.053	0.064
-674.149	52.546	-0.153	-0.147
-673.135	-62.239	0.162	-0.068
-672.120	112.578	0.173	-0.211
-671.105	-137.402	0.159	-0.018
-670.091	-110.397	-0.090	0.019
-669.076	800.000	-0.066	0.266
-668.062	-200.000	-0.070	-0.367
-667.047	-200.000	0.031	-0.173
-666.032	-161.305	-0.295	-0.015
-665.018	-26.150	-0.261	0.155
-664.003	-114.950	-0.128	0.025
-662.989	297.451	-0.037	-0.068
-661.974	800.000	0.132	-0.467
-660.959	655.154	0.078	0.202
-659.945	-200.000	-0.040	0.179
-658.930	197.594	-0.061	-0.093
-657.916	331.468	-0.254	0.493
-656.901	239.939	-0.123	-0.207
-655.886	377.661	-0.050	-0.102
-654.872	-131.007	-0.076	0.010
-653.857	-56.838	0.220	-0.098
-652.843	-126.160	0.098	0.015
-651.828	-148.023	-0.216	0.018
-650.814	800.000	-0.107	-0.306
-649.799	-184.516	-0.081	0.001
-648.784	-40.377	0.048	-0.025
-647.770	800.000	0.051	0.150
-646.755	79.165	0.170	-0.184
-645.741	-134.788	0.086	-0.011
-644.726	800.000	-0.048	-0.182
-643.711	-17.600	0.121	-0.077
-642.697	-165.653	-0.346	0.015
-641.682	-200.000	-0.058	-0.274
-640.668	796.731	0.063	-0.175
-639.653	-200.000	0.073	-0.342
-638.638	227.644	0.088	-0.144
-637.624	-134.652	-0.170	0.021
-636.609	-175.727	0.284	0.008
-635.595	64.512	0.098	-0.099
-634.580	122.693	-0.187	-0.235
-633.565	27.429	-0.146	0.124
-632.551	577.828	0.158	0.388
-631.536	13.976	-0.245	-0.192
-630.522	239.812	0.226	-0.378
-629.507	800.000	0.068	0.227
-628.492	-44.559	-0.143	0.072
-627.478	268.270	-0.109	-0.192
-626.463	64.373	0.230	0.233
-625.449	-200.000	-0.007	-0.196
-624.434	114.755	-0.219	0.269
-623.419	-200.000	-0.026	0.147
-622.405	44.110	0.288	0.265
-621.390	-200.000	-0.005	0.169
-620.376	146.702	-0.054	-0.073
-619.361	140.361	0.169	-0.225
-618.346	264.912	-0.126	-0.221
-617.332	-30.862	-0.211	0.120
-616.317	270.132	0.210	0.371
-615.303	800.000	-0.069	-0.222
-614.288	-120.318	0.147	0.025
-613.273	110.263	0.176	0.213
-612.259	254.962	0.126	0.218
-611.244	-200.000	-0.003	-0.217
-610.230	322.612	-0.109	-0.208
-609.215	-200.000	-0.007	-0.074
-608.201	-10.865	-0.173	0.115
-607.186	800.000	0.020	-0.067
-606.171	157.836	-0.152	-0.212
-605.157	-200.000	0.032	-0.219
-604.142	-8.993	-0.254	-0.171
-603.128	-67.868	0.057	0.022
-602.113	800.000	0.050	-0.138
-601.098	121.405	0.158	-0.198
-600.084	645.962	0.053	-0.136
-599.069	90.590	0.082	-0.093
-598.055	36.918	0.208	0.185
-597.040	-60.949	-0.143	-0.061
-596.025	-96.790	-0.179	0.047
-595.011	25.163	0.046	-0.038
-593.996	122.984	0.189	0.238
-592.982	-21.224	-0.201	0.124
-591.967	-200.000	-0.008	0.083
-590.952	-137.231	-0.333	0.038
-589.938	180.875	-0.092	-0.136
-588.923	-200.000	-0.060	0.320
-587.909	800.000	0.095	-0.352
-586.894	-90.751	0.234	0.068
-585.879	142.494	-0.100	0.133
-584.865	-105.323	0.267	0.061
-583.850	511.593	0.141	-0.330
-582.836	341.893	-0.081	0.159
-581.821	-106.857	-0.226	-0.050
-580.806	-97.207	-0.251	0.066
-579.792	-67.181	0.261	0.103
-578.777	-200.000	-0.035	0.207
-577.763	-200.000	0.003	0.038
-576.748	-115.066	-0.052	0.010
-575.733	-75.681	-0.241	0.086
-574.719	-52.185	-0.148	-0.069
-573.704	-200.000	0.035	-0.175
-572.690	-200.000	-0.038	-0.221
-571.675	-200.000	0.002	0.308
-570.661	-89.911	0.283	0.083
-569.646	73.343	0.102	-0.108
-568.631	800.000	-0.082	-0.361
-567.617	212.374	0.127	-0.201
-566.602	418.681	-0.246	-0.529
-565.588	800.000	-0.151	0.420
-564.573	778.284	-0.121	-0.333
-563.558	62.329	0.132	-0.132
-562.544	26.345	-0.168	-0.141
-561.529	88.847	-0.029	-0.033
-560.515	-3.821	-0.432	0.301
-559.500	-70.430	-0.188	0.071
-558.485	56.709	-0.262	-0.256
-557.471	128.272	0.121	-0.154
-556.456	-200.000	0.039	0.265
-555.442	-157.999	-0.156	-0.009
-554.427	221.192	0.080	0.130
-553.412	599.815	-0.141	0.351
-552.398	-200.000	-0.028	-0.177
-551.383	94.608	-0.123	0.140
-550.369	-88.794	-0.180	0.054
-549.354	-200.000	-0.014	0.146
-548.339	22.002	-0.032	0.026
-547.325	60.866	0.055	-0.055
-546.310	-116.663	-0.321	0.059
-545.296	-200.000	0.035	-0.195
-544.281	-65.646	-0.299	0.120
-543.266	800.000	0.123	0.341
-542.252	-58.464	-0.177	-0.077
-541.237	-190.395	0.030	-0.000
-540.223	-23.357	-0.235	-0.142
-539.208	-122.083	-0.193	-0.032
-538.193	261.455	0.084	0.146
-537.179	7.472	-0.250	-0.187
-536.164	56.077	-0.044	-0.043
-535.150	553.384	0.059	0.143
-534.135	-172.990	0.167	0.005
-533.121	-200.000	0.008	-0.303
-532.106	-23.870	0.099	0.059
-531.091	112.689	-0.112	0.137
-530.077	506.627	0.084	0.196
-529.062	-200.000	0.019	-0.136
-528.048	800.000	0.061	-0.242
-527.033	-2.190	-0.064	0.045
-526.018	-83.264	0.234	0.075
-525.004	-117.177	-0.276	-0.050
-523.989	464.443	0.109	0.244
-522.975	-14.921	-0.096	-0.061
-521.960	56.650	-0.269	-0.262
-520.945	-79.937	-0.159	0.054
-519.931	366.732	0.076	0.154
-518.916	800.000	-0.062	0.177
-517.902	-2.597	-0.060	-0.042
-516.887	196.741	0.060	-0.092
-515.872	176.737	0.067	0.098
-514.858	60.280	0.172	-0.170
-513.843	-125.765	0.282	-0.043
-512.829	84.252	-0.188	-0.206
-511.814	-82.819	0.027	0.009
-510.799	154.247	-0.072	0.099
-509.785	594.454	0.106	0.262
-508.770	-200.000	-0.010	0.087
-507.756	-200.000	0.011	-0.102
-506.741	7.893	-0.057	0.043
-505.726	86.626	-0.167	0.185
-504.712	-75.977	-0.100	-0.035
-503.697	110.057	0.157	-0.188
-502.683	800.000	0.071	0.225
-501.668	29.213	-0.266	-0.226
-500.653	380.946	-0.154	-0.317
-499.639	38.994	-0.384	0.344
-498.624	82.718	0.226	0.246
-497.610	-16.947	0.177	0.112
-496.595	-31.918	0.049	0.028
-495.581	74.985	-0.143	-0.151
-494.566	800.000	0.011	-0.033
-493.551	369.122	0.188	0.380
-492.537	-123.944	-0.113	-0.018
-491.522	63.016	-0.271	-0.272
-490.508	33.495	-0.152	0.132
-489.493	800.000	-0.105	-0.363
-488.478	-142.380	0.046	0.005
-487.464	-103.574	0.297	-0.070
-486.449	-200.000	0.005	-0.273
-485.435	-200.000	0.019	0.142
-484.420	-19.146	-0.219	0.136
-483.405	424.198	-0.149	0.321
-482.391	193.886	0.091	-0.139
-481.376	-200.000	-0.040	-0.424
-480.362	223.110	-0.179	-0.289
-479.347	62.154	-0.291	-0.291
-478.332	-13.035	-0.197	-0.128
-477.318	-200.000	-0.010	-0.080
-476.303	11.093	-0.168	-0.129
-475.289	555.473	0.054	-0.129
-474.274	-200.000	0.013	-0.138
-473.259	-151.884	-0.190	-0.014
-472.245	-95.754	0.512	0.137
-471.230	-20.979	0.134	-0.082
-470.216	386.641	-0.069	-0.142
-469.201	-19.466	0.063	0.039
-468.186	-200.000	0.005	0.071
-467.172	800.000	0.056	-0.191
-466.157	-102.563	-0.266	-0.064
-465.143	82.071	-0.241	0.261
-464.128	195.590	0.206	0.314
-463.113	-112.194	-0.199	0.040
-462.099	-84.667	0.072	0.023
-461.084	-200.000	0.032	0.175
-460.070	66.441	0.115	0.117
-459.055	-200.000	-0.052	0.264
-458.040	261.429	-0.106	-0.183
-457.026	-200.000	-0.031	0.247
-456.011	800.000	-0.031	-0.135
-454.997	51.099	0.251	-0.238
-453.982	307.943	-0.130	-0.243
-452.968	688.110	-0.142	0.370
-451.953	300.353	0.174	0.322
-450.938	-22.214	0.221	-0.134
-449.924	10.472	0.125	-0.095
-448.909	-91.452	-0.092	0.026
-447.895	532.264	0.176	-0.416
-446.880	-86.487	-0.394	-0.121
-445.865	-200.000	-0.057	-0.320
-444.851	-200.000	0.008	0.519
-443.836	-32.825	0.252	-0.140
-442.822	-141.098	-0.421	-0.043
-441.807	-94.269	0.305	0.083
-440.792	63.667	-0.247	-0.248
-439.778	800.000	-0.033	-0.095
-438.763	14.127	-0.151	-0.117
-437.749	-156.489	0.122	-0.008
-436.734	-24.128	0.029	-0.017
-435.719	-34.552	-0.304	-0.166
-434.705	-73.468	-0.281	0.102
-433.690	-132.508	0.023	0.003
-432.676	-113.146	0.396	0.078
-431.661	-44.863	0.541	0.269
-430.646	800.000	-0.062	0.208
-429.632	-101.965	-0.281	0.068
-428.617	800.000	-0.019	-0.068
-427.603	4.086	-0.490	-0.358
-426.588	-80.530	-0.267	0.089
-425.573	194.715	0.105	0.159
-424.559	-97.324	0.226	0.059
-423.544	127.739	-0.095	-0.120
-422.530	-89.300	0.296	-0.087
-421.515	372.180	0.070	-0.142
-420.500	-200.000	0.001	-0.065
-419.486	55.746	-0.212	-0.205
-418.471	159.615	-0.247	0.343
-417.457	147.379	0.177	-0.238
-416.442	-13.130	0.199	0.129
-415.428	-59.650	-0.040	-0.017
-414.413	308.554	0.100	0.186
-413.398	596.104	-0.069	0.170
-412.384	800.000	-0.037	0.146
-411.369	-17.276	-0.240	0.151
-410.355	-7.478	-0.110	0.074
-409.340	-94.315	0.168	0.046
-408.325	665.439	-0.098	0.253
-407.311	-200.000	-0.015	0.496
-406.296	41.422	-0.029	0.026
-405.282	-200.000	0.019	0.198
-404.267	208.518	-0.054	-0.084
-403.252	-155.085	-0.049	0.003
-402.238	24.348	-0.237	-0.195
-401.223	63.389	0.144	0.144
-400.209	21.432	0.138	0.112
-399.194	97.604	-0.048	-0.055
-398.179	92.941	0.192	0.217
-397.165	233.446	0.060	0.098
-396.150	551.456	0.032	0.077
-395.136	321.351	0.244	0.463
-394.121	-67.048	-0.223	-0.088
-393.106	540.203	0.141	-0.334
-392.092	-46.085	0.252	-0.124
-391.077	60.651	-0.102	-0.100
-390.063	265.457	0.108	-0.188
-389.048	-74.226	-0.325	0.117
-388.033	800.000	-0.121	0.354
-387.019	-165.895	0.063	-0.003
-386.004	-10.159	-0.121	-0.080
-384.990	-49.515	-0.363	-0.173
-383.975	-123.606	0.208	-0.033
-382.960	-117.141	0.300	0.054
-381.946	61.248	0.115	0.114
-380.931	509.167	-0.123	0.285
-379.917	99.181	0.066	-0.076
-378.902	51.467	-0.146	-0.138
-377.888	349.071	-0.050	-0.098
-376.873	800.000	0.175	-0.483
-375.858	-83.372	0.109	-0.035
-374.844	-91.886	0.074	0.021
-373.829	-200.000	0.010	0.196
-372.815	-200.000	-0.027	0.227
-371.800	116.488	0.228	0.279
-370.785	800.000	-0.061	-0.235
-369.771	714.512	0.081	-0.214
-368.756	-92.946	0.096	0.027
-367.742	-84.370	-0.226	-0.071
-366.727	-200.000	-0.010	0.258
-365.712	-179.610	-0.430	0.009
-364.698	139.828	-0.080	-0.105
-363.683	-33.962	-0.195	-0.107
-362.669	-6.510	0.112	-0.076
-361.654	202.867	-0.012	0.018
-360.639	-171.800	-0.253	0.008
-359.625	800.000	-0.057	-0.161
-358.610	-30.147	-0.120	0.068
-357.596	350.363	0.040	-0.078
-356.581	-122.441	-0.240	0.039
-355.566	-104.116	0.137	0.032
-354.552	-24.269	0.103	-0.061
-353.537	800.000	0.067	-0.223
-352.523	-79.454	-0.296	-0.100
-351.508	-200.000	-0.017	0.090
-350.493	-35.050	0.075	0.041
-349.479	766.389	0.109	0.296
-348.464	-75.003	0.097	-0.035
-347.450	-12.963	0.281	0.182
-346.435	49.035	0.137	-0.128
-345.420	-167.421	0.423	0.017
-344.406	34.492	-0.333	0.290
-343.391	-158.063	0.114	-0.007
-342.377	-65.845	-0.196	0.078
-341.362	41.814	0.128	-0.116
-340.348	-106.889	0.385	-0.085
-339.333	127.069	0.170	0.215
-338.318	-152.996	-0.395	0.028
-337.304	-14.920	0.266	-0.170
-336.289	353.221	-0.104	0.205
-335.275	55.392	-0.024	-0.023
-334.260	765.443	0.114	-0.308
-333.245	-35.364	-0.290	0.157
-332.231	-81.589	0.386	-0.126
-331.216	-41.800	0.118	0.060
-330.202	24.992	0.078	0.065
-329.187	32.456	0.147	-0.126
-328.172	800.000	0.046	-0.167
-327.158	-187.851	0.194	0.003
-326.143	-95.199	0.238	-0.064
-325.129	-75.942	0.163	0.057
-324.114	-16.237	-0.129	0.082
-323.099	-200.000	0.027	-0.153
-322.085	-200.000	0.044	0.219
-321.070	-173.309	0.108	0.003
-320.056	-37.779	-0.087	-0.046
-319.041	-111.272	-0.179	0.036
-318.026	70.123	0.040	-0.041
-317.012	-141.958	0.203	-0.020
-315.997	-89.381	0.208	-0.061
-314.983	127.126	-0.187	0.236
-313.968	800.000	0.057	0.169
-312.953	800.000	0.058	-0.248
-311.939	-74.257	0.275	-0.099
-310.924	733.107	-0.045	-0.121
-309.910	328.752	0.053	0.101
-308.895	118.184	-0.098	-0.120
-307.880	348.294	-0.124	-0.243
-306.866	472.985	-0.096	-0.216
-305.851	41.653	0.263	0.237
-304.837	-164.262	0.178	0.008
-303.822	-200.000	-0.024	0.310
-302.807	-121.068	0.083	-0.014
-301.793	-200.000	0.013	-0.068
-300.778	80.926	0.290	0.311
-299.764	48.069	0.226	-0.210
-298.749	-200.000	0.036	0.224
-297.735	-24.033	0.172	0.102
-296.720	549.048	-0.059	-0.141
-295.705	251.352	-0.152	-0.257
-294.691	104.716	0.143	0.167
-293.676	101.024	0.097	0.112
-292.662	186.233	-0.153	-0.226
-291.647	800.000	0.080	-0.248
-290.632	-77.503	-0.279	0.096
-289.618	437.974	-0.091	0.198
-288.603	-200.000	0.051	-0.466
-287.589	800.000	-0.043	-0.145
-286.574	82.419	0.189	0.204
-285.559	86.580	-0.112	-0.122
-284.545	-106.652	0.009	0.002
-283.530	42.994	0.082	0.074
-282.516	-10.924	0.394	-0.258
-281.501	140.327	0.086	0.113
-280.486	499.453	-0.097	0.222
-279.472	77.733	0.274	-0.290
-278.457	800.000	0.093	0.331
-277.443	-23.250	-0.256	-0.153
-276.428	-30.215	0.062	0.035
-275.413	100.820	0.309	0.357
-274.399	-121.819	0.158	-0.026
-273.384	-148.482	-0.448	0.036
-272.370	-156.381	0.251	-0.016
-271.355	100.273	-0.102	-0.117
-270.340	800.000	0.010	0.030
-269.326	-200.000	-0.028	-0.171
-268.311	60.749	0.057	-0.056
-267.297	25.424	0.310	0.256
-266.282	-89.312	0.348	0.102
-265.267	-147.284	0.385	-0.033
-264.253	115.047	0.100	0.121
-263.238	-57.028	0.105	-0.046
-262.224	-90.824	0.349	-0.100
-261.209	179.998	-0.049	0.071
-260.195	337.483	-0.132	-0.255
-259.180	-113.708	-0.230	0.044
-258.165	-156.143	-0.102	-0.006
-257.151	-200.000	0.023	0.145
-256.136	733.242	-0.055	0.147
-255.122	-200.000	0.002	0.126
-254.107	59.671	0.142	0.139
-253.092	-74.088	0.081	-0.029
-252.078	262.521	-0.330	-0.567
-251.063	-200.000	-0.017	-0.254
-250.049	50.916	0.151	-0.142
-249.034	-135.645	-0.246	-0.029
-248.019	-200.000	0.015	0.109
-247.005	-138.782	0.170	-0.018
-245.990	42.849	-0.208	0.188
-244.976	-102.775	-0.164	-0.039
-243.961	-90.194	0.342	-0.099
-242.946	539.973	-0.113	0.268
-241.932	-0.482	-0.093	-0.065
-240.917	150.852	-0.044	-0.059
-239.903	-43.453	0.158	-0.079
-238.888	-108.075	0.089	0.019
-237.873	-93.246	-0.371	0.102
-236.859	5.695	-0.243	-0.178
-235.844	-19.037	0.183	0.113
-234.830	-49.640	-0.361	0.171
-233.815	-200.000	0.005	-0.051
-232.800	-200.000	-0.021	-0.171
-231.786	26.736	-0.172	0.143
-230.771	-150.464	0.309	0.024
-229.757	800.000	-0.067	0.223
-228.742	-200.000	-0.026	0.193
-227.727	294.369	0.145	0.263
-226.713	18.095	0.089	0.070
-225.698	-27.333	0.218	-0.126
-224.684	-193.857	-0.103	0.001
-223.669	149.708	-0.042	0.056
-222.655	89.064	0.103	0.114
-221.640	-132.992	-0.133	0.017
-220.625	-135.718	-0.247	-0.029
-219.611	-156.489	0.368	-0.023
-218.596	17.532	0.285	0.224
-217.582	581.112	0.049	0.120
-216.567	-96.974	0.138	-0.036
-215.552	121.206	-0.034	-0.042
-214.538	318.117	-0.245	0.459
-213.523	251.314	0.078	0.132
-212.509	82.849	0.166	-0.179
-211.494	-100.012	0.125	-0.031
-210.479	-67.899	-0.161	0.062
-209.465	-30.618	-0.134	-0.075
-208.450	186.562	-0.023	0.033
-207.436	135.127	-0.156	0.201
-206.421	397.131	-0.111	-0.229
-205.406	-54.496	0.180	0.081
-204.392	107.756	0.044	0.052
-203.377	437.121	-0.166	-0.358
-202.363	-137.617	0.377	0.042
-201.348	121.787	0.105	-0.129
-200.333	202.542	-0.073	0.112
-199.319	242.607	-0.046	-0.076
-198.304	-62.246	0.494	0.204
-197.290	-123.717	-0.325	-0.051
-196.275	-200.000	0.033	-0.185
-195.260	-100.088	0.452	0.111
-194.246	-57.267	0.198	0.086
-193.231	51.491	-0.010	-0.009
-192.217	537.942	0.061	-0.143
-191.202	149.001	0.072	-0.096
-190.187	-200.000	0.015	-0.097
-189.173	-16.896	0.225	-0.141
-188.158	-33.960	0.124	-0.067
-187.144	292.190	-0.050	0.089
-186.129	52.250	-0.082	0.078
-185.114	800.000	0.110	-0.320
-184.100	43.829	-0.080	-0.073
-183.085	297.421	-0.074	-0.134
-182.071	245.318	-0.086	0.143
-181.056	168.826	-0.054	0.076
-180.042	-110.530	0.231	0.047
-179.027	9.485	0.152	-0.114
-178.012	727.272	0.093	0.245
-176.998	230.849	0.108	-0.175
-175.983	32.288	0.133	-0.113
-174.969	-42.975	-0.268	0.135
-173.954	-32.621	0.236	0.130
-172.939	-121.785	0.073	-0.012
-171.925	508.326	-0.042	0.097
-170.910	404.227	0.018	-0.037
-169.896	-4.857	-0.346	0.236
-168.881	111.432	0.149	0.177
-167.866	-114.065	-0.324	-0.062
-166.852	623.653	0.031	0.077
-165.837	-61.463	-0.339	0.141
-164.823	407.733	0.139	-0.291
-163.808	171.965	0.150	-0.213
-162.793	-2.179	-0.114	-0.079
-161.779	-200.000	-0.026	-0.196
-160.764	468.547	0.068	0.150
-159.750	343.105	-0.154	0.299
-158.735	-45.904	-0.249	-0.122
-157.720	-200.000	0.009	-0.066
-156.706	-200.000	-0.042	0.249
-155.691	-112.598	-0.359	0.071
-154.677	800.000	0.124	0.486
-153.662	48.038	0.068	0.063
-152.647	16.143	-0.276	-0.215
-151.633	-139.540	0.226	0.024
-150.618	451.817	0.049	-0.107
-149.604	-200.000	0.042	0.257
-148.589	-0.335	-0.232	0.163
-147.574	93.463	0.189	0.211
-146.560	302.073	0.137	0.251
-145.545	-200.000	-0.038	0.457
-144.531	50.170	0.108	-0.101
-143.516	-44.259	-0.229	0.113
-142.502	-83.732	0.300	-0.095
-141.487	-180.452	-0.302	0.006
-140.472	57.729	0.241	-0.232
-139.458	800.000	0.066	0.229
-138.443	92.547	-0.127	0.142
-137.429	-200.000	-0.002	0.121
-136.414	93.426	0.135	0.150
-135.399	110.316	0.195	-0.232
-134.385	-84.597	0.232	0.072
-133.370	130.991	0.369	-0.467
-132.356	-132.510	-0.419	0.053
-131.341	134.543	-0.107	-0.137
-130.326	506.549	0.110	-0.252
-129.312	612.798	-0.005	-0.013
-128.297	6.019	0.052	-0.038
-127.283	92.803	0.168	-0.188
-126.268	-77.995	-0.202	-0.069
-125.253	-150.231	-0.200	0.015
-124.239	366.160	-0.043	-0.086
-123.224	24.080	0.183	-0.149
-122.210	25.854	-0.166	0.136
-121.195	760.504	0.086	-0.231
-120.180	-159.076	0.151	0.008
