DTS Sentinel unit serial number:	SN413079Multiplexer serial number:	ORYXHardware model number:	OX4-SRSoftware version number:	ORYX F/W v4.00 Oryx Data Collector v3.7.2.0data status	okinstallation	princeton_trtdifferential loss correction	single-endedforward channel	channel 3reverse channel	N/Adate	2019/09/19time	13:52:35forward acquisition time	60.00reverse acquisition time	0.00gamma	496.2192k internal	0.2324k external	0.2324temperature offset calibration	0.9998default loss term (dB/km)	0.3790temperature slope calibration	1.0000multiplexer offset coefficient	1.0000multiplexer slope coefficient	1.0000fibre end	0.00T internal ref (°C)	30.83T ext. ref 1 (°C)	1.00T ext. ref 2 (°C)	28.22length (m)	temperature (°C)	Stokes	anti-Stokes-747.200	70.652	0.251	0.262
-746.185	84.582	-0.036	0.039
-745.171	96.200	0.113	-0.130
-744.156	-33.050	0.097	0.055
-743.142	-21.170	0.274	0.169
-742.127	387.795	-0.087	0.183
-741.112	-42.370	-0.194	0.100
-740.098	732.945	-0.045	0.122
-739.083	-200.000	0.001	-0.120
-738.069	124.641	0.152	0.193
-737.054	800.000	-0.100	0.336
-736.039	-50.998	0.094	0.044
-735.025	85.659	0.029	-0.032
-734.010	-61.424	-0.225	-0.096
-732.996	-30.056	-0.328	-0.188
-731.981	16.176	-0.330	-0.262
-730.966	25.042	-0.135	-0.113
-729.952	-82.623	0.049	-0.016
-728.937	-106.656	-0.378	0.085
-727.923	-200.000	0.011	-0.056
-726.908	-188.675	-0.203	-0.003
-725.894	-145.109	-0.266	0.024
-724.879	-43.817	-0.214	-0.109
-723.864	28.722	0.233	0.199
-722.850	73.380	-0.095	-0.100
-721.835	517.266	-0.077	-0.181
-720.821	800.000	-0.133	-0.404
-719.806	-200.000	-0.008	-0.242
-718.791	22.832	-0.119	0.099
-717.777	-36.375	0.086	-0.047
-716.762	-79.749	-0.146	0.050
-715.748	-18.038	-0.201	0.127
-714.733	-94.378	-0.252	0.069
-713.718	-102.693	-0.309	-0.074
-712.704	63.096	-0.173	0.174
-711.689	178.195	-0.063	0.092
-710.675	466.575	0.138	-0.311
-709.660	800.000	-0.026	0.093
-708.645	800.000	-0.028	0.079
-707.631	-138.517	-0.184	0.020
-706.616	800.000	0.111	-0.370
-705.602	-194.310	-0.316	-0.003
-704.587	-200.000	0.001	0.116
-703.572	-59.437	0.272	-0.118
-702.558	364.336	0.107	-0.217
-701.543	-15.500	0.199	0.128
-700.529	-10.597	-0.134	-0.090
-699.514	800.000	0.038	-0.106
-698.499	-200.000	-0.028	0.145
-697.485	-139.313	-0.390	0.042
-696.470	259.316	0.186	0.323
-695.456	-148.408	0.256	0.021
-694.441	-140.182	0.247	0.026
-693.426	-38.261	-0.191	-0.102
-692.412	13.896	-0.343	-0.269
-691.397	181.030	0.161	-0.239
-690.383	460.687	-0.132	-0.296
-689.368	-100.651	-0.212	-0.053
-688.354	-134.384	0.122	0.015
-687.339	176.301	-0.077	0.113
-686.324	-74.480	-0.320	0.116
-685.310	289.795	0.256	-0.467
-684.295	800.000	-0.010	0.038
-683.281	472.947	0.104	-0.237
-682.266	314.975	0.076	0.144
-681.251	-23.027	-0.266	-0.161
-680.237	212.457	-0.230	-0.365
-679.222	444.528	0.137	-0.302
-678.208	115.679	-0.185	-0.228
-677.193	800.000	-0.033	-0.136
-676.178	-8.700	-0.123	0.083
-675.164	-43.860	-0.266	0.135
-674.149	190.077	-0.256	0.387
-673.135	229.075	-0.272	-0.446
-672.120	-200.000	-0.032	-0.155
-671.105	723.843	0.155	0.415
-670.091	63.196	-0.180	0.182
-669.076	136.849	0.133	-0.175
-668.062	92.787	-0.090	-0.102
-667.047	800.000	0.111	0.366
-666.032	507.496	0.072	0.169
-665.018	73.756	-0.086	-0.091
-664.003	145.256	0.087	-0.117
-662.989	-136.515	-0.030	0.004
-661.974	-98.723	0.271	-0.070
-660.959	-200.000	0.044	-0.261
-659.945	132.861	0.109	-0.142
-658.930	45.873	-0.137	0.127
-657.916	-87.235	-0.207	-0.063
-656.901	90.688	0.059	0.066
-655.886	-41.098	0.120	-0.062
-654.872	-92.203	0.175	0.050
-653.857	617.378	0.075	0.190
-652.843	-200.000	-0.018	0.191
-651.828	-199.694	0.202	0.001
-650.814	-4.299	0.161	-0.112
-649.799	-89.703	-0.068	0.020
-648.784	443.847	-0.075	-0.164
-647.770	-121.155	0.357	-0.060
-646.755	-200.000	-0.026	0.214
-645.741	800.000	-0.094	-0.314
-644.726	463.565	-0.186	-0.418
-643.711	-200.000	0.021	-0.187
-642.697	76.617	0.123	0.132
-641.682	-163.259	-0.086	-0.004
-640.668	-112.707	-0.366	0.073
-639.653	-90.561	-0.334	0.097
-638.638	800.000	0.047	0.149
-637.624	65.623	0.200	-0.204
-636.609	487.697	-0.063	-0.144
-635.595	543.962	-0.106	-0.254
-634.580	-92.816	-0.314	-0.088
-633.565	-113.193	-0.548	0.108
-632.551	583.872	0.061	0.151
-631.536	356.579	0.103	0.206
-630.522	50.131	0.238	-0.226
-629.507	222.214	0.103	0.166
-628.492	-59.382	0.024	-0.010
-627.478	117.529	0.160	-0.197
-626.463	168.272	0.107	-0.153
-625.449	61.944	0.044	0.044
-624.434	-73.053	-0.090	-0.033
-623.419	53.618	-0.114	0.110
-622.405	-200.000	0.011	-0.435
-621.390	518.295	0.035	-0.083
-620.376	-40.756	0.219	-0.114
-619.361	-76.363	-0.270	0.095
-618.346	-200.000	-0.082	0.410
-617.332	91.598	0.347	0.392
-616.317	-163.364	0.366	-0.018
-615.303	800.000	-0.052	0.170
-614.288	-90.465	0.464	-0.135
-613.273	367.483	-0.027	-0.055
-612.259	-24.567	-0.194	0.116
-611.244	-132.746	0.426	0.055
-610.230	-109.704	-0.273	-0.058
-609.215	162.593	-0.196	0.277
-608.201	83.250	-0.017	-0.019
-607.186	800.000	0.125	-0.441
-606.171	-47.134	-0.472	-0.231
-605.157	-100.611	-0.388	0.096
-604.142	-78.826	0.384	0.132
-603.128	-200.000	-0.052	0.259
-602.113	777.313	-0.070	0.193
-601.098	-84.355	-0.192	-0.061
-600.084	-0.769	0.124	-0.088
-599.069	86.860	-0.167	-0.185
-598.055	800.000	0.114	-0.321
-597.040	800.000	0.043	-0.155
-596.025	-91.262	0.058	0.017
-595.011	-200.000	-0.007	0.222
-593.996	800.000	-0.070	-0.250
-592.982	73.365	-0.185	0.194
-591.967	-93.563	0.093	-0.026
-590.952	-200.000	0.054	-0.374
-589.938	-124.920	0.299	0.046
-588.923	-52.165	0.160	0.075
-587.909	44.430	-0.023	-0.021
-586.894	38.861	-0.081	0.072
-585.879	-177.440	-0.237	-0.006
-584.865	-200.000	0.039	-0.237
-583.850	-47.284	0.325	0.159
-582.836	76.632	-0.115	-0.123
-581.821	-7.600	0.279	0.190
-580.806	-113.884	-0.101	-0.020
-579.792	-157.635	-0.219	-0.013
-578.777	-200.000	-0.032	0.263
-577.763	11.806	-0.231	-0.178
-576.748	-200.000	-0.097	-0.430
-575.733	-69.381	0.315	-0.121
-574.719	415.669	-0.144	-0.308
-573.704	241.170	-0.049	-0.083
-572.690	-200.000	0.012	-0.107
-571.675	-200.000	-0.002	0.164
-570.661	27.391	-0.125	-0.105
-569.646	800.000	-0.067	-0.291
-568.631	-129.045	0.185	0.026
-567.617	5.709	0.118	-0.088
-566.602	238.250	0.044	-0.073
-565.588	-33.110	-0.125	-0.070
-564.573	-200.000	-0.037	0.328
-563.558	192.556	0.141	-0.213
-562.544	187.150	0.102	-0.152
-561.529	47.953	0.070	-0.066
-560.515	252.612	-0.100	0.171
-559.500	-54.699	0.204	0.092
-558.485	-44.572	0.197	-0.099
-557.471	120.254	-0.097	-0.120
-556.456	-200.000	0.063	-0.331
-555.442	76.192	0.147	0.156
-554.427	800.000	-0.056	0.221
-553.412	-200.000	0.057	0.347
-552.398	800.000	-0.059	-0.237
-551.383	321.837	-0.034	-0.065
-550.369	157.391	-0.103	-0.142
-549.354	-30.961	-0.091	0.052
-548.339	-23.430	-0.246	0.148
-547.325	800.000	0.047	0.174
-546.310	-27.688	0.254	0.148
-545.296	-56.889	-0.380	0.168
-544.281	47.501	0.037	0.035
-543.266	-37.123	0.234	-0.126
-542.252	-144.087	0.221	-0.021
-541.237	437.044	-0.118	-0.257
-540.223	-200.000	0.060	0.297
-539.208	-103.412	0.257	-0.061
-538.193	9.520	-0.217	0.165
-537.179	-200.000	0.017	-0.091
-536.164	800.000	0.047	-0.202
-535.150	132.261	0.169	0.218
-534.135	197.609	0.111	0.170
-533.121	-48.590	0.035	-0.017
-532.106	376.745	0.221	0.451
-531.091	-10.841	0.249	-0.165
-530.077	189.486	-0.083	-0.125
-529.062	800.000	0.071	0.278
-528.048	-39.518	-0.154	-0.081
-527.033	191.710	-0.120	-0.181
-526.018	655.259	-0.198	-0.510
-525.004	296.091	-0.116	-0.213
-523.989	-200.000	-0.005	-0.216
-522.975	800.000	-0.067	-0.224
-521.960	-200.000	-0.009	-0.064
-520.945	44.189	-0.085	0.078
-519.931	154.631	-0.114	0.157
-518.916	178.841	-0.081	-0.118
-517.902	7.643	0.120	-0.090
-516.887	157.243	-0.299	-0.414
-515.872	-81.768	-0.068	-0.022
-514.858	293.298	0.071	-0.130
-513.843	-60.267	-0.207	-0.088
-512.829	266.546	-0.171	-0.299
-511.814	-140.524	-0.220	-0.023
-510.799	141.368	0.191	0.253
-509.785	-8.243	0.095	0.064
-508.770	-154.944	-0.220	0.014
-507.756	171.471	0.174	-0.249
-506.741	800.000	0.061	-0.174
-505.726	800.000	0.084	0.340
-504.712	106.897	-0.140	-0.166
-503.697	-16.775	0.104	-0.066
-502.683	-6.290	0.404	0.275
-501.668	-79.012	0.172	0.058
-500.653	-200.000	0.005	0.162
-499.639	800.000	-0.092	-0.265
-498.624	-39.978	0.121	-0.063
-497.610	186.235	-0.090	-0.134
-496.595	-143.579	0.238	0.023
-495.581	-57.090	0.243	-0.107
-494.566	-200.000	-0.031	-0.495
-493.551	59.151	0.227	0.223
-492.537	-162.204	-0.198	0.010
-491.522	-174.318	0.103	-0.003
-490.508	-102.925	-0.232	-0.055
-489.493	225.187	-0.130	-0.210
-488.478	40.974	-0.170	-0.154
-487.464	-1.719	0.191	-0.134
-486.449	-19.411	0.042	0.026
-485.435	66.621	0.112	-0.114
-484.420	182.985	0.094	0.138
-483.405	16.349	0.268	-0.211
-482.391	800.000	0.087	-0.270
-481.376	129.259	0.198	-0.253
-480.362	-71.211	-0.211	-0.079
-479.347	800.000	0.023	0.065
-478.332	-94.484	-0.261	0.071
-477.318	14.658	-0.122	0.095
-476.303	-22.595	0.063	0.038
-475.289	193.503	0.126	0.190
-474.274	-200.000	-0.010	-0.130
-473.259	-113.787	-0.297	-0.058
-472.245	-147.386	0.324	0.027
-471.230	800.000	0.178	0.532
-470.216	228.339	-0.274	0.446
-469.201	48.562	0.429	-0.401
-468.186	170.957	0.054	-0.077
-467.172	-23.366	0.070	-0.042
-466.157	54.996	0.113	-0.109
-465.143	-126.329	-0.257	0.038
-464.128	-44.944	-0.366	0.182
-463.113	-200.000	-0.018	-0.137
-462.099	25.853	-0.172	-0.144
-461.084	-90.617	0.138	0.040
-460.070	546.088	-0.047	0.113
-459.055	49.037	-0.289	-0.271
-458.040	-53.487	-0.067	-0.030
-457.026	-150.583	-0.311	0.024
-456.011	-37.953	-0.197	0.105
-454.997	-77.024	0.268	-0.093
-453.982	420.469	-0.106	-0.228
-452.968	800.000	-0.040	-0.171
-451.953	-79.309	-0.098	0.033
-450.938	-2.996	0.257	0.179
-449.924	-57.702	-0.445	0.195
-448.909	15.083	0.083	0.065
-447.895	-200.000	0.003	0.114
-446.880	-200.000	0.065	-0.443
-445.865	800.000	0.107	-0.350
-444.851	-65.124	0.119	0.048
-443.836	800.000	0.014	-0.050
-442.822	48.529	-0.237	-0.222
-441.807	-103.221	-0.335	-0.079
-440.792	428.006	0.156	0.336
-439.778	-41.065	0.245	-0.126
-438.763	-81.214	0.109	0.036
-437.749	-117.498	-0.293	-0.053
-436.734	194.990	0.059	0.089
-435.719	-64.691	0.091	0.037
-434.705	-128.316	0.237	0.034
-433.690	44.945	-0.223	0.205
-432.676	-32.162	0.345	-0.193
-431.661	686.314	0.044	0.115
-430.646	52.016	0.076	-0.072
-429.632	800.000	-0.031	0.100
-428.617	-51.563	0.177	-0.082
-427.603	15.170	-0.086	0.067
-426.588	800.000	-0.039	0.131
-425.573	88.399	0.086	-0.095
-424.559	154.988	0.096	-0.132
-423.544	-200.000	-0.003	0.113
-422.530	-85.723	-0.199	0.062
-421.515	128.608	0.074	0.094
-420.500	-200.000	0.000	-0.014
-419.486	302.962	0.117	0.215
-418.471	-110.724	-0.115	0.024
-417.457	-102.973	-0.310	0.073
-416.442	-143.051	-0.259	-0.025
-415.428	679.899	-0.049	0.126
-414.413	-12.833	-0.143	-0.093
-413.398	126.368	0.290	-0.366
-412.384	-55.718	0.261	0.116
-411.369	-161.175	0.287	0.015
-410.355	-20.793	-0.369	-0.226
-409.340	-144.263	0.173	-0.016
-408.325	-200.000	-0.034	-0.161
-407.311	800.000	0.017	-0.053
-406.296	-200.000	0.039	-0.214
-405.282	22.269	-0.169	0.137
-404.267	-94.559	0.206	-0.056
-403.252	-200.000	0.026	-0.275
-402.238	376.865	0.156	-0.317
-401.223	-154.782	0.042	0.003
-400.209	464.927	-0.087	-0.194
-399.194	47.077	-0.149	0.138
-398.179	-200.000	0.014	-0.109
-397.165	-200.000	0.032	-0.339
-396.150	-154.107	0.345	0.023
-395.136	418.087	-0.070	-0.149
-394.121	-38.852	0.031	0.016
-393.106	-200.000	-0.046	-0.249
-392.092	212.191	-0.017	-0.026
-391.077	86.535	0.189	-0.208
-390.063	-50.972	-0.120	0.056
-389.048	800.000	0.061	-0.229
-388.033	-60.252	-0.279	-0.118
-387.019	119.628	0.191	0.236
-386.004	800.000	-0.064	0.266
-384.990	-58.253	-0.442	-0.192
-383.975	-114.480	0.217	0.042
-382.960	-200.000	-0.091	0.424
-381.946	-200.000	0.001	0.063
-380.931	-90.818	0.330	0.095
-379.917	-58.575	0.043	-0.019
-378.902	-132.582	0.225	0.029
-377.888	800.000	-0.042	0.131
-376.873	-27.005	-0.208	0.121
-375.858	6.485	-0.299	0.221
-374.844	-137.183	-0.257	0.029
-373.829	-97.359	-0.112	0.029
-372.815	122.233	0.107	0.133
-371.800	-200.000	0.019	0.233
-370.785	338.048	-0.087	-0.168
-369.771	-200.000	0.028	0.367
-368.756	-76.548	-0.141	-0.049
-367.742	249.249	-0.193	0.325
-366.727	-200.000	0.060	0.530
-365.712	196.903	0.105	0.159
-364.698	-173.452	0.250	0.008
-363.683	3.580	0.139	-0.101
-362.669	369.084	0.092	0.184
-361.654	800.000	-0.078	0.220
-360.639	64.908	-0.069	-0.069
-359.625	-50.674	0.065	0.030
-358.610	-200.000	0.064	0.290
-357.596	-165.754	-0.280	0.012
-356.581	-150.684	-0.277	0.021
-355.566	-161.359	0.118	0.006
-354.552	482.881	-0.049	-0.111
-353.537	571.227	0.072	0.173
-352.523	-53.596	-0.118	0.054
-351.508	567.213	-0.044	0.106
-350.493	-141.704	-0.265	-0.026
-349.479	-200.000	-0.048	-0.235
-348.464	-12.168	0.178	-0.115
-347.450	190.291	-0.095	-0.141
-346.435	-140.447	-0.067	0.007
-345.420	461.615	0.160	0.354
-344.406	191.756	0.056	-0.083
-343.391	135.221	0.062	-0.080
-342.377	80.069	0.065	0.070
-341.362	135.445	0.166	0.214
-340.348	800.000	-0.035	0.122
-339.333	-97.593	0.135	-0.035
-338.318	-200.000	-0.032	-0.202
-337.304	-1.350	-0.128	0.090
-336.289	87.111	-0.182	0.200
-335.275	800.000	0.021	-0.069
-334.260	-109.478	-0.277	0.058
-333.245	-120.650	-0.145	0.024
-332.231	-47.164	0.197	-0.096
-331.216	-71.962	-0.131	-0.048
-330.202	45.706	-0.103	-0.095
-329.187	73.425	0.099	-0.103
-328.172	-25.901	-0.203	0.118
-327.158	-200.000	0.020	0.166
-326.143	155.498	-0.093	0.127
-325.129	-200.000	-0.004	0.259
-324.114	-10.859	0.141	0.093
-323.099	-102.127	-0.201	-0.048
-322.085	-52.302	0.191	0.088
-321.070	-100.133	-0.098	0.024
-320.056	-36.407	0.139	-0.074
-319.041	234.770	0.058	0.095
-318.026	-95.484	-0.052	0.014
-317.012	-135.805	0.202	0.024
-315.997	-127.629	0.318	-0.046
-314.983	80.331	0.137	0.147
-313.968	68.843	-0.232	0.237
-312.953	-17.390	-0.379	0.237
-311.939	-132.568	0.332	-0.042
-310.924	748.806	0.039	0.104
-309.910	-113.920	-0.246	0.047
-308.895	59.946	-0.199	0.195
-307.880	389.798	0.154	-0.317
-306.866	-200.000	0.044	-0.202
-305.851	-200.000	-0.010	0.237
-304.837	-140.771	-0.298	0.031
-303.822	77.193	-0.057	0.060
-302.807	-200.000	-0.038	0.215
-301.793	-62.817	0.085	-0.035
-300.778	800.000	0.009	0.028
-299.764	88.638	0.057	-0.063
-298.749	628.409	-0.063	0.157
-297.735	800.000	-0.132	-0.422
-296.720	-39.415	0.237	-0.123
-295.705	800.000	0.043	0.161
-294.691	-150.777	0.053	-0.004
-293.676	122.933	0.191	-0.237
-292.662	-132.863	0.133	0.017
-291.647	234.105	-0.142	-0.232
-290.632	236.859	-0.180	-0.295
-289.618	245.773	-0.021	0.036
-288.603	800.000	-0.130	-0.441
-287.589	101.144	-0.024	-0.028
-286.574	-200.000	-0.036	0.408
-285.559	351.249	-0.045	0.088
-284.545	-39.955	-0.092	-0.048
-283.530	-110.494	0.267	-0.055
-282.516	800.000	0.034	0.128
-281.501	800.000	0.063	0.186
-280.486	-127.387	-0.181	-0.026
-279.472	-33.569	-0.075	-0.041
-278.457	17.099	0.231	-0.182
-277.443	150.817	-0.151	0.203
-276.428	-200.000	-0.072	0.350
-275.413	-50.706	0.244	-0.114
-274.399	-29.548	-0.111	-0.063
-273.384	800.000	-0.125	0.534
-272.370	91.682	-0.167	-0.186
-271.355	213.024	0.048	0.075
-270.340	-73.515	-0.286	0.104
-269.326	-200.000	-0.012	0.057
-268.311	346.681	0.171	-0.334
-267.297	33.452	0.085	-0.073
-266.282	97.561	-0.229	-0.261
-265.267	800.000	0.041	-0.155
-264.253	-71.008	-0.077	-0.029
-263.238	-25.465	0.170	0.099
-262.224	-56.307	0.289	-0.127
-261.209	-124.200	0.219	-0.034
-260.195	179.549	0.106	-0.153
-259.180	434.026	0.141	0.302
-258.165	116.583	-0.065	0.078
-257.151	266.700	0.132	0.228
-256.136	-12.143	0.035	-0.023
-255.122	14.564	-0.187	0.145
-254.107	48.023	-0.117	0.108
-253.092	-200.000	0.022	0.152
-252.078	-1.171	0.208	-0.146
-251.063	627.364	0.089	0.222
-250.049	187.836	-0.091	0.135
-249.034	-200.000	-0.060	0.308
-248.019	-200.000	0.133	0.000
-247.005	-143.013	0.292	-0.028
-245.990	135.386	0.158	0.204
-244.976	-23.673	-0.245	-0.146
-243.961	637.395	-0.078	0.195
-242.946	-13.349	0.172	-0.111
-241.932	-86.263	0.074	0.023
-240.917	-37.078	-0.422	0.224
-239.903	-76.006	0.343	0.120
-238.888	-48.534	-0.249	0.119
-237.873	-76.076	0.368	0.129
-236.859	-5.449	-0.023	0.016
-235.844	327.239	0.044	-0.083
-234.830	53.751	-0.399	0.379
-233.815	-123.661	0.092	-0.014
-232.800	800.000	0.071	-0.193
-231.786	-18.931	0.295	0.181
-230.771	24.478	-0.048	-0.040
-229.757	-200.000	0.010	0.111
-228.742	-200.000	-0.275	-0.001
-227.727	-200.000	0.014	-0.245
-226.713	-200.000	-0.064	-0.293
-225.698	-200.000	0.006	0.083
-224.684	-70.903	0.456	-0.170
-223.669	476.594	-0.089	0.200
-222.655	-141.383	0.147	-0.015
-221.640	-18.177	-0.331	0.205
-220.625	-76.344	-0.198	-0.069
-219.611	-96.119	-0.104	-0.027
-218.596	0.371	0.168	0.118
-217.582	28.556	0.237	0.199
-216.567	192.362	0.164	0.245
-215.552	-55.268	-0.060	-0.027
-214.538	-41.803	0.176	-0.090
-213.523	241.805	-0.118	-0.196
-212.509	65.004	-0.230	-0.230
-211.494	-129.235	0.220	-0.030
-210.479	-200.000	-0.002	-0.174
-209.465	283.716	-0.055	0.098
-208.450	-91.284	-0.110	0.031
-207.436	-157.223	0.423	-0.025
-206.421	123.860	-0.248	0.307
-205.406	362.253	0.073	-0.144
-204.392	133.061	-0.215	0.275
-203.377	-106.860	0.368	0.081
-202.363	-58.207	0.225	0.097
-201.348	-200.000	-0.015	-0.226
-200.333	-131.931	0.092	0.012
-199.319	-200.000	-0.007	-0.105
-198.304	-200.000	0.011	0.090
-197.290	800.000	0.017	-0.049
-196.275	-78.637	0.061	0.021
-195.260	-200.000	0.045	-0.362
-194.246	160.033	-0.064	-0.088
-193.231	-200.000	0.002	-0.053
-192.217	-113.298	0.131	-0.025
-191.202	59.109	-0.290	0.282
-190.187	-157.239	-0.226	-0.014
-189.173	61.395	0.153	-0.151
-188.158	-74.380	0.336	-0.120
-187.144	-111.529	-0.295	0.059
-186.129	-41.791	-0.113	-0.057
-185.114	10.252	-0.047	0.035
-184.100	-103.696	0.432	0.100
-183.085	-200.000	-0.031	-0.176
-182.071	196.487	0.136	0.205
-181.056	800.000	0.086	0.347
-180.042	-16.029	-0.142	-0.089
-179.027	-200.000	-0.057	0.291
-178.012	-172.958	-0.353	0.011
-176.998	-24.073	-0.132	0.078
-175.983	16.032	0.294	0.228
-174.969	-149.400	-0.189	0.015
-173.954	800.000	-0.048	0.204
-172.939	-84.266	-0.138	0.043
-171.925	161.230	0.120	0.165
-170.910	-200.000	-0.025	0.286
-169.896	-200.000	0.020	-0.088
-168.881	132.793	-0.050	0.063
-167.866	-26.482	-0.170	-0.099
-166.852	259.794	0.070	-0.119
-165.837	4.148	0.124	-0.089
-164.823	-158.688	-0.196	-0.011
-163.808	-12.261	0.198	-0.127
-162.793	0.591	-0.178	0.125
-161.779	-53.085	-0.286	0.130
-160.764	-76.872	0.268	0.092
-159.750	329.990	0.045	0.085
-158.735	-60.519	-0.257	0.108
-157.720	206.549	0.173	-0.266
-156.706	11.412	-0.138	-0.104
-155.691	312.308	0.128	-0.237
-154.677	-59.368	-0.248	-0.105
-153.662	548.299	0.091	0.214
-152.647	800.000	0.025	-0.084
-151.633	535.325	0.141	0.329
-150.618	-200.000	0.007	0.311
-149.604	-28.860	-0.155	0.088
-148.589	-150.423	-0.229	0.017
-147.574	-53.317	-0.234	-0.106
-146.560	-200.000	-0.005	0.022
-145.545	-200.000	0.015	0.104
-144.531	234.950	-0.083	0.135
-143.516	800.000	0.026	0.074
-142.502	151.223	-0.113	-0.151
-141.487	-128.857	-0.177	0.025
-140.472	647.466	0.153	-0.386
-139.458	308.641	0.060	-0.111
-138.443	-25.509	-0.186	0.108
-137.429	-200.000	-0.058	-0.453
-136.414	-39.308	-0.130	-0.068
-135.399	57.961	0.122	0.118
-134.385	-200.000	0.044	0.343
-133.370	-200.000	0.005	0.061
-132.356	-100.403	0.319	-0.078
-131.341	-200.000	-0.019	0.104
-130.326	391.767	-0.035	-0.072
-129.312	714.665	0.058	-0.151
-128.297	800.000	-0.031	0.108
-127.283	-200.000	0.045	-0.291
-126.268	-10.684	-0.247	0.161
-125.253	-88.055	-0.109	0.032
-124.239	286.850	0.074	-0.131
-123.224	-200.000	0.086	-0.373
-122.210	615.932	0.148	0.365
-121.195	-94.238	0.036	0.010
