DTS Sentinel unit serial number:	SN413079Multiplexer serial number:	ORYXHardware model number:	OX4-SRSoftware version number:	ORYX F/W v4.00 Oryx Data Collector v3.7.2.0data status	okinstallation	princeton_trtdifferential loss correction	single-endedforward channel	channel 3reverse channel	N/Adate	2019/09/16time	11:04:35forward acquisition time	60.00reverse acquisition time	0.00gamma	496.2192k internal	0.2300k external	0.2300temperature offset calibration	0.9948default loss term (dB/km)	0.3790temperature slope calibration	1.0000multiplexer offset coefficient	1.0000multiplexer slope coefficient	1.0000fibre end	0.00T internal ref (°C)	36.94T ext. ref 1 (°C)	12.78T ext. ref 2 (°C)	33.79length (m)	temperature (°C)	Stokes	anti-Stokes-747.200	249.065	0.142	0.246
-746.185	42.539	-0.050	0.047
-745.171	87.125	0.239	-0.269
-744.156	-200.000	-0.032	0.260
-743.142	-47.694	0.129	0.064
-742.127	-108.362	-0.534	0.118
-741.112	-105.022	0.080	0.019
-740.098	-5.502	-0.219	0.153
-739.083	-138.948	-0.089	-0.010
-738.069	-200.000	-0.001	0.196
-737.054	-64.092	-0.133	-0.055
-736.039	-42.836	-0.044	-0.023
-735.025	-200.000	0.035	-0.512
-734.010	800.000	-0.090	0.335
-732.996	-200.000	-0.012	-0.460
-731.981	-200.000	-0.031	-0.186
-730.966	-7.293	0.052	-0.036
-729.952	-200.000	-0.047	0.286
-728.937	-200.000	-0.016	-0.280
-727.923	4.926	0.147	0.110
-726.908	29.540	0.211	-0.183
-725.894	800.000	-0.119	-0.480
-724.879	-65.928	0.027	0.011
-723.864	-126.803	0.043	0.006
-722.850	-200.000	-0.050	-0.523
-721.835	-77.216	-0.179	0.064
-720.821	-200.000	0.044	0.230
-719.806	353.230	-0.098	0.198
-718.791	68.639	-0.287	0.300
-717.777	-200.000	-0.024	0.112
-716.762	800.000	0.106	-0.320
-715.748	50.025	-0.207	-0.199
-714.733	66.157	0.126	0.130
-713.718	-152.209	0.144	0.011
-712.704	-89.340	-0.291	0.087
-711.689	-200.000	0.025	0.214
-710.675	-200.000	-0.029	-0.382
-709.660	-69.534	0.393	0.153
-708.645	-200.000	0.016	0.092
-707.631	19.222	-0.177	0.145
-706.616	-11.103	0.325	-0.218
-705.602	-50.286	-0.303	-0.146
-704.587	-195.088	0.386	-0.003
-703.572	-116.791	0.215	0.040
-702.558	-17.918	0.216	-0.138
-701.543	16.787	0.091	-0.074
-700.529	137.676	-0.166	0.222
-699.514	523.339	0.032	0.076
-698.499	800.000	-0.052	0.200
-697.485	-100.144	0.333	0.084
-696.470	86.153	-0.179	0.200
-695.456	-53.218	0.397	-0.186
-694.441	27.121	-0.070	-0.060
-693.426	26.587	-0.261	0.222
-692.412	315.849	0.020	0.039
-691.397	-105.704	-0.105	0.024
-690.383	-200.000	-0.029	-0.153
-689.368	75.519	-0.136	-0.146
-688.354	-127.075	0.135	-0.020
-687.339	361.560	-0.141	0.287
-686.324	116.929	0.402	0.503
-685.310	-101.445	-0.370	-0.092
-684.295	-50.632	-0.180	-0.086
-683.281	607.513	0.078	-0.197
-682.266	123.143	0.164	-0.209
-681.251	265.158	-0.210	-0.372
-680.237	800.000	0.116	-0.352
-679.222	800.000	0.048	-0.204
-678.208	24.674	-0.291	-0.245
-677.193	-102.473	0.088	0.021
-676.178	-69.055	-0.209	0.082
-675.164	52.097	-0.289	-0.280
-674.149	115.888	0.159	0.198
-673.135	111.599	-0.112	0.138
-672.120	182.038	-0.069	0.103
-671.105	261.046	-0.101	0.178
-670.091	613.285	-0.025	-0.064
-669.076	243.831	-0.223	-0.381
-668.062	304.978	-0.150	0.284
-667.047	18.169	0.187	0.152
-666.032	-114.498	-0.159	-0.031
-665.018	800.000	-0.040	-0.143
-664.003	-200.000	-0.016	0.095
-662.989	-68.511	-0.503	-0.198
-661.974	-50.553	0.161	-0.077
-660.959	-71.566	-0.218	0.083
-659.945	-43.859	0.034	-0.018
-658.930	-200.000	-0.069	0.507
-657.916	-30.276	0.083	-0.048
-656.901	-200.000	0.007	0.377
-655.886	328.357	-0.056	-0.109
-654.872	-61.376	0.205	0.088
-653.857	603.840	0.126	-0.319
-652.843	44.066	0.106	-0.099
-651.828	-200.000	-0.012	-0.179
-650.814	-197.191	0.152	0.001
-649.799	-200.000	-0.023	-0.408
-648.784	-200.000	-0.016	0.513
-647.770	-87.022	-0.152	-0.047
-646.755	-200.000	-0.022	0.164
-645.741	29.677	-0.155	0.134
-644.726	111.605	-0.086	0.105
-643.711	800.000	0.100	0.422
-642.697	13.119	-0.376	-0.296
-641.682	180.940	-0.300	-0.448
-640.668	415.978	-0.074	-0.161
-639.653	-5.810	-0.195	-0.136
-638.638	3.484	-0.387	0.287
-637.624	800.000	-0.159	0.527
-636.609	800.000	-0.059	-0.237
-635.595	-105.467	-0.163	-0.038
-634.580	-48.169	0.344	0.169
-633.565	-134.396	0.423	0.053
-632.551	303.845	-0.173	0.326
-631.536	246.384	-0.062	0.106
-630.522	-69.168	-0.265	0.103
-629.507	336.106	0.075	0.148
-628.492	-104.576	-0.448	0.105
-627.478	280.595	-0.113	-0.205
-626.463	183.738	-0.116	-0.175
-625.449	55.060	0.169	-0.166
-624.434	61.789	-0.061	0.062
-623.419	-156.886	0.152	0.009
-622.405	800.000	0.050	-0.143
-621.390	92.170	-0.118	-0.135
-620.376	-200.000	-0.023	0.271
-619.361	800.000	0.080	-0.227
-618.346	18.995	-0.098	0.079
-617.332	-153.342	0.182	0.013
-616.317	86.905	0.017	0.019
-615.303	312.887	-0.188	-0.359
-614.288	800.000	0.050	-0.194
-613.273	-83.379	-0.103	0.034
-612.259	-55.957	-0.089	0.040
-611.244	-60.133	-0.173	0.075
-610.230	800.000	0.060	0.248
-609.215	7.080	0.242	0.183
-608.201	452.693	0.071	-0.159
-607.186	-34.275	-0.103	0.057
-606.171	-78.041	0.323	-0.113
-605.157	-61.809	0.078	-0.033
-604.142	-58.594	-0.151	-0.067
-603.128	113.390	0.109	-0.134
-602.113	-36.706	-0.092	-0.050
-601.098	111.038	0.113	0.138
-600.084	-22.052	-0.074	0.046
-599.069	137.425	0.137	-0.181
-598.055	-200.000	-0.038	-0.304
-597.040	800.000	0.091	0.285
-596.025	-40.738	-0.172	-0.090
-595.011	800.000	-0.073	0.234
-593.996	-200.000	0.037	-0.200
-592.982	15.623	0.069	0.055
-591.967	106.031	-0.263	-0.316
-590.952	41.459	0.112	0.103
-589.938	-200.000	0.012	0.317
-588.923	-200.000	0.013	0.198
-587.909	-2.296	-0.226	-0.161
-586.894	-24.597	0.053	-0.032
-585.879	-143.557	-0.149	0.014
-584.865	-63.158	-0.545	-0.228
-583.850	-90.729	0.222	0.065
-582.836	-121.945	-0.257	-0.043
-581.821	22.199	0.187	0.155
-580.806	-200.000	0.009	0.175
-579.792	-49.056	-0.170	-0.083
-578.777	50.720	0.198	0.190
-577.763	-200.000	-0.031	-0.159
-576.748	99.286	-0.075	-0.088
-575.733	395.053	-0.027	0.057
-574.719	-73.056	-0.061	0.023
-573.704	49.123	0.095	-0.090
-572.690	-49.256	-0.171	-0.083
-571.675	-105.529	0.284	-0.065
-570.661	-40.188	0.171	-0.090
-569.646	130.721	0.056	-0.073
-568.631	800.000	0.065	-0.260
-567.617	484.068	0.113	-0.260
-566.602	800.000	0.020	-0.069
-565.588	-70.070	-0.100	0.039
-564.573	-200.000	0.033	0.211
-563.558	-200.000	-0.001	-0.251
-562.544	-124.460	-0.226	0.036
-561.529	-200.000	0.046	0.421
-560.515	-55.567	-0.133	-0.060
-559.500	33.440	0.118	-0.104
-558.485	-200.000	-0.035	0.224
-557.471	371.205	-0.180	0.369
-556.456	20.646	-0.066	-0.054
-555.442	-29.042	0.225	0.131
-554.427	136.861	-0.110	0.145
-553.412	-51.934	-0.130	-0.061
-552.398	800.000	0.052	-0.153
-551.383	-200.000	-0.013	-0.087
-550.369	418.925	0.065	-0.140
-549.354	-46.999	-0.030	-0.015
-548.339	-88.196	0.058	-0.018
-547.325	134.912	-0.120	0.157
-546.310	-161.740	0.153	-0.008
-545.296	-119.502	-0.240	0.042
-544.281	-38.436	0.094	0.050
-543.266	631.059	0.069	-0.176
-542.252	-200.000	-0.034	0.248
-541.237	-74.682	0.068	-0.025
-540.223	-50.351	-0.098	-0.047
-539.208	-69.421	-0.348	0.135
-538.193	-200.000	-0.012	0.412
-537.179	-145.849	0.234	0.021
-536.164	800.000	0.092	-0.320
-535.150	-48.865	0.146	-0.071
-534.135	-79.281	-0.189	-0.065
-533.121	-82.959	-0.139	-0.045
-532.106	14.042	-0.231	-0.182
-531.091	-112.586	0.111	-0.022
-530.077	-102.191	0.310	-0.075
-529.062	-32.269	-0.171	0.096
-528.048	1.675	0.114	0.083
-527.033	88.225	-0.180	-0.202
-526.018	800.000	0.048	-0.172
-525.004	800.000	-0.061	0.201
-523.989	315.953	0.222	0.424
-522.975	-200.000	-0.018	-0.088
-521.960	10.816	-0.082	0.063
-520.945	-200.000	-0.243	0.000
-519.931	233.915	0.155	0.258
-518.916	800.000	-0.035	0.129
-517.902	336.266	0.117	-0.230
-516.887	800.000	0.036	-0.102
-515.872	36.727	-0.086	-0.077
-514.858	237.564	0.066	0.110
-513.843	333.118	0.058	0.113
-512.829	-30.399	-0.065	-0.037
-511.814	-157.507	-0.380	-0.023
-510.799	634.050	-0.088	0.227
-509.785	-25.842	0.075	0.044
-508.770	99.231	-0.249	-0.291
-507.756	-200.000	-0.020	-0.145
-506.741	-76.429	0.231	-0.082
-505.726	-200.000	0.017	0.198
-504.712	-200.000	0.075	0.372
-503.697	-61.674	-0.129	0.055
-502.683	422.215	-0.037	0.079
-501.668	31.782	-0.024	-0.021
-500.653	167.812	-0.095	0.137
-499.639	2.860	0.090	0.066
-498.624	-200.000	0.001	-0.298
-497.610	-14.599	0.199	0.129
-496.595	28.092	0.182	0.156
-495.581	627.412	0.077	0.197
-494.566	14.475	-0.137	-0.108
-493.551	-200.000	-0.026	-0.190
-492.537	-13.707	0.128	-0.084
-491.522	41.589	-0.336	-0.307
-490.508	323.906	0.112	-0.215
-489.493	-86.812	-0.254	-0.078
-488.478	-200.000	-0.003	0.299
-487.464	-95.555	0.308	0.083
-486.449	800.000	-0.004	-0.013
-485.435	1.133	-0.217	0.157
-484.420	-3.173	0.298	0.210
-483.405	621.222	-0.136	-0.345
-482.391	-92.377	0.047	-0.013
-481.376	-124.510	0.331	-0.052
-480.362	800.000	0.015	0.065
-479.347	-109.755	0.309	0.066
-478.332	-17.888	-0.194	0.123
-477.318	414.257	-0.099	0.213
-476.303	-200.000	0.015	0.199
-475.289	276.083	0.071	-0.127
-474.274	-200.000	0.011	0.215
-473.259	17.732	0.130	0.105
-472.245	63.864	0.069	0.070
-471.230	-168.778	0.410	-0.016
-470.216	-85.064	0.160	-0.051
-469.201	-44.443	-0.083	0.042
-468.186	-27.159	-0.246	-0.145
-467.172	183.608	-0.101	-0.151
-466.157	-53.196	-0.184	-0.085
-465.143	52.024	-0.019	-0.018
-464.128	10.935	0.268	0.206
-463.113	-178.911	-0.396	0.009
-462.099	144.998	-0.111	0.150
-461.084	-2.420	-0.098	-0.069
-460.070	-200.000	-0.032	-0.210
-459.055	800.000	0.068	-0.275
-458.040	-200.000	-0.022	-0.440
-457.026	-152.526	-0.113	-0.008
-456.011	-27.568	-0.064	-0.037
-454.997	-68.447	-0.112	-0.044
-453.982	-126.528	-0.173	-0.026
-452.968	-73.839	-0.228	0.083
-451.953	-200.000	0.028	0.130
-450.938	97.887	-0.204	-0.237
-449.924	-97.158	0.073	0.019
-448.909	-29.385	0.081	-0.047
-447.895	99.876	0.157	-0.183
-446.880	-78.186	-0.266	0.092
-445.865	352.879	0.126	0.253
-444.851	800.000	0.050	0.170
-443.836	-200.000	-0.028	-0.195
-442.822	-170.089	-0.219	0.008
-441.807	-200.000	-0.041	0.336
-440.792	64.590	-0.191	-0.194
-439.778	203.415	0.083	0.130
-438.763	-110.280	0.527	-0.111
-437.749	106.836	-0.105	-0.125
-436.734	800.000	-0.059	0.221
-435.719	-177.191	0.263	-0.007
-434.705	-96.900	-0.387	0.102
-433.690	-10.780	0.085	-0.057
-432.676	-200.000	-0.002	0.060
-431.661	-108.411	0.060	-0.013
-430.646	177.232	-0.181	0.266
-429.632	4.683	0.113	0.084
-428.617	19.511	0.126	0.102
-427.603	147.755	0.153	0.208
-426.588	-200.000	0.000	0.305
-425.573	9.297	-0.039	0.030
-424.559	35.097	-0.043	-0.038
-423.544	-88.297	-0.277	0.083
-422.530	27.850	-0.094	0.079
-421.515	21.657	0.143	-0.117
-420.500	262.879	-0.037	0.065
-419.486	214.806	0.133	-0.212
-418.471	-88.369	0.113	0.034
-417.457	-200.000	-0.007	-0.148
-416.442	-200.000	-0.020	-0.181
-415.428	-200.000	0.011	0.098
-414.413	103.234	0.183	0.216
-413.398	197.486	0.076	0.118
-412.384	93.684	-0.163	-0.185
-411.369	-166.789	0.145	0.006
-410.355	349.604	0.141	0.281
-409.340	108.513	0.164	0.197
-408.325	-175.811	-0.122	-0.003
-407.311	41.924	-0.177	0.161
-406.296	187.930	0.084	0.127
-405.282	-19.584	0.160	-0.100
-404.267	44.081	-0.187	0.173
-403.252	800.000	0.012	-0.044
-402.238	-163.522	0.206	-0.010
-401.223	100.377	-0.086	-0.100
-400.209	-28.567	-0.170	-0.099
-399.194	-112.494	0.195	-0.039
-398.179	6.424	0.116	0.087
-397.165	-200.000	-0.037	0.196
-396.150	52.653	-0.373	-0.358
-395.136	-130.072	0.092	0.013
-394.121	-118.906	0.370	0.065
-393.106	-200.000	0.029	-0.180
-392.092	35.106	-0.125	0.111
-391.077	-200.000	0.019	0.362
-390.063	-95.817	-0.195	0.052
-389.048	-12.126	0.251	0.166
-388.033	-38.004	0.054	0.029
-387.019	196.167	0.131	-0.200
-386.004	107.414	-0.226	-0.270
-384.990	38.142	0.039	-0.035
-383.975	-200.000	-0.011	-0.105
-382.960	-200.000	0.015	0.084
-381.946	95.099	0.240	-0.275
-380.931	800.000	0.120	0.343
-379.917	-107.505	-0.221	0.049
-378.902	-65.526	0.421	-0.170
-377.888	800.000	-0.077	0.292
-376.873	-135.039	0.458	-0.056
-375.858	-200.000	-0.049	-0.304
-374.844	-53.249	-0.384	-0.177
-373.829	103.427	-0.110	-0.130
-372.815	411.680	0.033	0.070
-371.800	58.602	-0.046	-0.045
-370.785	-73.413	0.235	0.086
-369.771	102.043	0.254	0.298
-368.756	-85.577	-0.315	0.099
-367.742	-200.000	-0.024	0.261
-366.727	-200.000	0.003	0.189
-365.712	8.961	-0.067	0.050
-364.698	-104.422	0.220	-0.051
-363.683	-130.519	-0.237	0.032
-362.669	-200.000	0.002	-0.156
-361.654	-95.786	0.050	0.013
-360.639	305.555	-0.014	-0.027
-359.625	-85.446	-0.482	-0.151
-358.610	-200.000	0.059	0.336
-357.596	102.333	0.124	0.146
-356.581	-113.821	0.150	0.029
-355.566	800.000	0.038	0.147
-354.552	467.265	0.123	-0.276
-353.537	-200.000	0.005	0.234
-352.523	-11.321	-0.174	0.115
-351.508	-63.833	0.295	-0.121
-350.493	68.469	-0.072	-0.074
-349.479	-146.852	0.230	-0.020
-348.464	-200.000	0.023	-0.138
-347.450	-76.860	-0.269	0.095
-346.435	220.536	-0.042	0.067
-345.420	-112.073	0.303	0.061
-344.406	32.070	0.102	0.088
-343.391	46.757	0.164	0.153
-342.377	26.274	-0.096	0.081
-341.362	-71.110	0.230	-0.087
-340.348	-200.000	0.028	0.278
-339.333	635.348	0.037	-0.094
-338.318	76.653	-0.219	0.233
-337.304	484.764	0.040	0.092
-336.289	204.648	0.046	0.072
-335.275	-91.010	-0.349	-0.101
-334.260	135.670	-0.191	-0.249
-333.245	-65.834	0.129	-0.052
-332.231	-200.000	-0.012	-0.159
-331.216	-14.386	-0.150	0.097
-330.202	-115.594	0.355	0.067
-329.187	224.473	0.150	-0.243
-328.172	-108.337	-0.373	0.081
-327.158	-200.000	-0.011	0.243
-326.143	800.000	-0.105	-0.341
-325.129	756.510	-0.128	0.346
-324.114	-80.601	-0.305	0.102
-323.099	145.234	0.213	-0.286
-322.085	-72.174	0.119	0.044
-321.070	-200.000	-0.030	0.159
-320.056	-59.218	-0.102	-0.044
-319.041	0.995	0.333	-0.240
-318.026	-41.108	-0.257	0.133
-317.012	-83.236	-0.200	-0.065
-315.997	-200.000	-0.014	0.136
-314.983	-200.000	0.013	-0.090
-313.968	438.908	0.033	-0.071
-312.953	-139.506	-0.249	0.027
-311.939	6.672	-0.165	0.123
-310.924	-200.000	-0.064	0.318
-309.910	-200.000	0.052	-0.238
-308.895	-200.000	-0.016	-0.171
-307.880	61.960	-0.110	0.110
-306.866	238.179	0.136	-0.226
-305.851	-68.490	-0.043	0.017
-304.837	-83.767	0.176	0.056
-303.822	4.687	0.050	0.037
-302.807	46.137	-0.235	-0.218
-301.793	800.000	0.039	-0.123
-300.778	-36.175	0.094	0.051
-299.764	-200.000	0.002	-0.086
-298.749	-36.503	0.253	0.137
-297.735	-200.000	-0.015	-0.073
-296.720	-90.312	-0.142	0.041
-295.705	-151.945	0.283	0.021
-294.691	-200.000	0.026	-0.116
-293.676	-35.622	0.192	-0.104
-292.662	-200.000	-0.034	-0.189
-291.647	196.185	0.107	-0.164
-290.632	800.000	0.029	-0.090
-289.618	530.016	0.046	0.108
-288.603	-30.620	-0.093	0.053
-287.589	145.664	0.150	0.201
-286.574	12.776	-0.202	-0.157
-285.559	-200.000	0.015	0.173
-284.545	-141.679	0.205	-0.021
-283.530	800.000	-0.047	-0.154
-282.516	37.569	-0.161	0.143
-281.501	-131.295	-0.212	-0.028
-280.486	30.590	-0.105	-0.090
-279.472	-11.984	0.309	-0.203
-278.457	96.195	0.341	0.390
-277.443	172.603	-0.023	0.033
-276.428	-92.803	0.067	0.019
-275.413	711.304	0.062	0.165
-274.399	385.704	-0.060	-0.125
-273.384	-111.742	-0.167	-0.034
-272.370	-12.454	0.076	-0.050
-271.355	575.058	-0.013	0.032
-270.340	-91.937	0.239	-0.068
-269.326	-191.202	0.211	0.002
-268.311	38.664	0.114	-0.102
-267.297	183.971	-0.074	-0.109
-266.282	20.032	0.193	-0.156
-265.267	-200.000	0.034	-0.180
-264.253	-59.655	-0.471	-0.202
-263.238	8.546	0.178	0.134
-262.224	800.000	0.010	0.044
-261.209	36.598	0.167	-0.147
-260.195	800.000	0.065	0.251
-259.180	-200.000	-0.003	0.259
-258.165	-87.428	0.161	0.049
-257.151	-192.144	-0.211	0.002
-256.136	95.953	0.069	0.079
-255.122	-200.000	0.007	0.040
-254.107	319.720	0.013	0.025
-253.092	-89.460	0.180	0.053
-252.078	101.392	-0.234	-0.273
-251.063	117.933	-0.211	-0.260
-250.049	355.860	0.103	-0.205
-249.034	617.002	0.064	-0.159
-248.019	-200.000	0.087	0.517
-247.005	800.000	-0.055	0.169
-245.990	800.000	0.070	-0.218
-244.976	25.171	0.010	0.008
-243.961	-6.808	-0.169	-0.115
-242.946	-66.815	-0.122	0.048
-241.932	-29.785	-0.135	0.077
-240.917	-55.474	0.198	0.089
-239.903	-200.000	0.013	0.084
-238.888	43.602	-0.163	0.149
-237.873	23.380	0.256	-0.210
-236.859	800.000	0.040	-0.129
-235.844	-200.000	-0.018	0.118
-234.830	-44.925	0.167	-0.083
-233.815	-200.000	0.010	-0.113
-232.800	427.393	0.081	-0.176
-231.786	-44.124	-0.184	0.092
-230.771	5.613	-0.287	-0.212
-229.757	-160.140	-0.159	-0.009
-228.742	-200.000	0.049	-0.244
-227.727	-54.310	0.316	0.143
-226.713	-166.607	0.119	-0.005
-225.698	635.399	-0.063	0.160
-224.684	208.969	0.033	0.051
-223.669	18.815	-0.231	0.185
-222.655	411.658	0.153	-0.324
-221.640	255.156	-0.071	0.122
-220.625	800.000	0.033	-0.109
-219.611	-200.000	-0.040	-0.202
-218.596	800.000	0.021	0.089
-217.582	-28.717	0.074	-0.042
-216.567	-200.000	-0.001	-0.114
-215.552	-100.956	0.440	-0.108
-214.538	-12.056	-0.308	0.202
-213.523	-3.457	0.359	-0.250
-212.509	-200.000	-0.014	-0.119
-211.494	90.984	-0.117	-0.131
-210.479	-158.727	0.346	0.020
-209.465	46.643	-0.021	0.019
-208.450	259.114	-0.089	-0.153
-207.436	184.606	-0.032	0.048
-206.421	732.624	0.058	-0.155
-205.406	-27.719	0.115	0.066
-204.392	100.284	0.133	-0.154
-203.377	-200.000	-0.038	0.218
-202.363	65.378	-0.336	-0.339
-201.348	-138.585	0.168	0.018
-200.333	154.794	-0.050	-0.068
-199.319	-138.931	0.457	-0.050
-198.304	-200.000	-0.032	-0.330
-197.290	245.152	0.150	-0.253
-196.275	800.000	-0.018	-0.071
-195.260	15.812	0.172	0.135
-194.246	-11.733	0.065	-0.043
-193.231	112.104	0.121	-0.146
-192.217	-200.000	0.015	0.527
-191.202	800.000	0.018	-0.073
-190.187	347.778	-0.034	-0.068
-189.173	-200.000	0.014	-0.193
-188.158	-128.504	0.136	-0.019
-187.144	-106.615	-0.262	0.058
-186.129	746.771	-0.063	0.170
-185.114	800.000	0.041	-0.178
-184.100	-167.759	0.122	-0.005
-183.085	-140.659	0.210	0.022
-182.071	163.723	-0.163	0.229
-181.056	-113.243	0.264	0.052
-180.042	613.596	0.026	0.065
-179.027	-103.918	0.275	-0.064
-178.012	146.840	0.131	0.175
-176.998	63.965	0.059	-0.059
-175.983	-200.000	0.021	-0.195
-174.969	121.256	-0.157	0.195
-173.954	166.741	-0.151	0.214
-172.939	122.260	-0.095	0.118
-171.925	532.239	0.159	-0.375
-170.910	-69.755	-0.340	0.129
-169.896	-89.581	-0.334	0.098
-168.881	211.813	-0.041	-0.064
-167.866	-63.116	-0.388	-0.160
-166.852	-141.707	0.242	-0.024
-165.837	-200.000	-0.005	-0.179
-164.823	-200.000	-0.010	-0.287
-163.808	33.572	0.225	-0.195
-162.793	-73.872	-0.330	-0.119
-161.779	-132.884	0.200	-0.025
-160.764	60.792	-0.156	-0.154
-159.750	623.507	0.176	-0.441
-158.735	-200.000	0.060	-0.305
-157.720	-68.190	0.300	-0.116
-156.706	142.614	0.108	0.142
-155.691	540.967	-0.078	0.185
-154.677	-30.875	0.092	0.052
-153.662	-95.769	-0.202	-0.054
-152.647	250.196	-0.059	0.099
-151.633	-200.000	-0.047	0.428
-150.618	159.263	0.141	0.195
-149.604	311.492	0.061	-0.113
-148.589	-96.379	-0.208	-0.055
-147.574	-178.507	0.202	-0.005
-146.560	-112.745	-0.401	-0.079
-145.545	-83.439	0.182	-0.058
-144.531	28.999	-0.137	-0.116
-143.516	-66.614	-0.370	0.146
-142.502	-104.373	-0.105	0.024
-141.487	-24.039	0.087	-0.052
-140.472	-60.380	-0.374	-0.158
-139.458	-1.117	-0.022	-0.016
-138.443	-123.099	-0.096	-0.015
-137.429	-108.330	0.305	-0.066
-136.414	-200.000	0.033	-0.323
-135.399	-200.000	-0.041	-0.192
-134.385	40.368	-0.118	0.106
-133.370	-200.000	-0.016	0.234
-132.356	286.919	-0.124	-0.222
-131.341	50.467	0.228	-0.215
-130.326	-136.928	-0.174	-0.020
-129.312	70.656	0.124	-0.128
-128.297	36.098	0.189	-0.166
-127.283	744.322	-0.063	0.168
-126.268	-152.638	-0.282	-0.020
-125.253	-25.439	0.312	0.184
-124.239	-81.961	0.300	-0.098
-123.224	-125.477	-0.087	0.013
-122.210	-138.619	-0.362	0.039
-121.195	-101.432	0.392	0.095
