DTS Sentinel unit serial number:	SN413079Multiplexer serial number:	ORYXHardware model number:	OX4-SRSoftware version number:	ORYX F/W v4.00 Oryx Data Collector v3.7.2.0data status	okinstallation	princeton_trtdifferential loss correction	single-endedforward channel	channel 3reverse channel	N/Adate	2019/09/19time	06:16:34forward acquisition time	60.00reverse acquisition time	0.00gamma	496.2192k internal	0.2348k external	0.2348temperature offset calibration	0.9987default loss term (dB/km)	0.3790temperature slope calibration	1.0000multiplexer offset coefficient	1.0000multiplexer slope coefficient	1.0000fibre end	0.00T internal ref (°C)	19.06T ext. ref 1 (°C)	0.57T ext. ref 2 (°C)	12.74length (m)	temperature (°C)	Stokes	anti-Stokes-747.200	82.213	0.146	0.158
-746.185	72.642	-0.321	0.335
-745.171	-151.517	0.093	-0.007
-744.156	-200.000	0.024	0.181
-743.142	464.102	-0.108	-0.242
-742.127	-87.595	-0.299	-0.090
-741.112	-109.129	0.321	0.068
-740.098	104.028	-0.508	0.597
-739.083	-200.000	-0.002	0.144
-738.069	166.505	0.055	0.078
-737.054	-69.910	-0.170	0.065
-736.039	-92.489	0.199	0.056
-735.025	-126.511	0.563	-0.084
-734.010	-90.218	-0.204	-0.059
-732.996	800.000	0.073	-0.270
-731.981	73.123	0.144	-0.150
-730.966	-199.720	0.513	-0.003
-729.952	12.824	-0.185	0.143
-728.937	722.112	-0.143	-0.381
-727.923	100.601	0.134	-0.156
-726.908	-133.326	-0.572	0.072
-725.894	-173.079	-0.523	-0.016
-724.879	-58.298	-0.269	0.117
-723.864	-125.964	-0.580	0.087
-722.850	-200.000	0.044	-0.227
-721.835	79.723	-0.256	0.274
-720.821	-200.000	-0.057	-0.313
-719.806	-200.000	-0.023	-0.135
-718.791	-156.937	-0.452	0.028
-717.777	-71.567	-0.166	-0.062
-716.762	177.808	-0.098	0.143
-715.748	425.146	-0.177	-0.380
-714.733	185.817	-0.277	-0.412
-713.718	-200.000	0.002	0.073
-712.704	-9.343	-0.315	-0.210
-711.689	-104.157	-0.324	-0.075
-710.675	24.218	0.052	0.043
-709.660	-104.458	0.273	-0.063
-708.645	59.922	0.148	-0.145
-707.631	-200.000	0.034	0.316
-706.616	266.433	-0.042	-0.074
-705.602	-196.142	-0.227	0.002
-704.587	4.710	-0.139	-0.102
-703.572	-25.354	-0.100	-0.059
-702.558	-94.462	0.193	-0.052
-701.543	-200.000	0.008	-0.154
-700.529	-80.914	-0.208	0.069
-699.514	95.896	0.126	-0.144
-698.499	-110.173	-0.084	-0.017
-697.485	331.975	-0.080	-0.153
-696.470	-134.393	0.160	-0.020
-695.456	52.269	-0.231	-0.219
-694.441	800.000	0.065	0.281
-693.426	800.000	0.100	-0.311
-692.412	-189.960	0.431	-0.005
-691.397	707.073	-0.125	-0.330
-690.383	-126.761	-0.171	0.025
-689.368	463.341	-0.034	-0.075
-688.354	-200.000	-0.012	0.183
-687.339	-38.716	0.244	-0.128
-686.324	598.847	-0.085	-0.210
-685.310	287.645	-0.054	-0.097
-684.295	200.132	0.106	-0.163
-683.281	289.301	-0.016	0.029
-682.266	-181.073	0.196	0.004
-681.251	-180.071	-0.166	0.004
-680.237	-90.951	0.066	0.019
-679.222	-121.342	-0.126	0.021
-678.208	-200.000	-0.042	-0.473
-677.193	44.035	-0.035	0.032
-676.178	291.685	-0.027	0.049
-675.164	510.016	0.085	0.196
-674.149	-100.229	-0.133	0.033
-673.135	31.485	-0.307	-0.263
-672.120	-33.010	0.367	-0.203
-671.105	-60.368	0.143	0.060
-670.091	60.596	0.187	-0.185
-669.076	-47.429	-0.065	-0.032
-668.062	178.169	0.047	0.068
-667.047	-80.029	0.073	-0.024
-666.032	320.355	-0.016	0.030
-665.018	-98.441	-0.054	0.014
-664.003	75.239	-0.090	-0.094
-662.989	233.430	-0.056	0.092
-661.974	50.806	-0.279	0.263
-660.959	-102.246	0.398	0.095
-659.945	-79.099	0.127	-0.043
-658.930	-168.864	-0.338	-0.013
-657.916	-200.000	0.060	-0.273
-656.901	800.000	-0.076	0.268
-655.886	-38.930	0.157	0.083
-654.872	-11.486	0.119	0.078
-653.857	-200.000	-0.029	-0.469
-652.843	-105.133	-0.195	0.044
-651.828	-22.135	-0.047	-0.028
-650.814	-99.899	-0.053	0.013
-649.799	108.224	0.170	0.201
-648.784	-84.701	-0.110	-0.034
-647.770	-66.714	0.108	-0.042
-646.755	-49.168	0.077	-0.037
-645.741	248.585	0.149	-0.251
-644.726	-143.203	-0.108	0.010
-643.711	93.926	-0.069	-0.077
-642.697	-65.016	-0.146	0.059
-641.682	-17.743	-0.141	0.088
-640.668	466.462	0.132	-0.294
-639.653	-46.663	-0.198	0.096
-638.638	-12.571	-0.228	0.148
-637.624	-199.967	0.282	0.001
-636.609	-200.000	-0.025	0.160
-635.595	-200.000	0.004	-0.187
-634.580	22.105	-0.090	-0.073
-633.565	227.324	0.220	0.356
-632.551	-131.158	0.200	-0.026
-631.536	679.043	0.051	-0.131
-630.522	-107.388	-0.158	-0.035
-629.507	393.110	0.099	-0.206
-628.492	-51.965	-0.374	-0.173
-627.478	-200.000	-0.059	-0.261
-626.463	298.037	-0.113	-0.207
-625.449	-27.262	0.204	-0.118
-624.434	-132.199	0.059	0.008
-623.419	-38.279	-0.187	0.099
-622.405	-161.787	0.269	0.014
-621.390	-200.000	-0.042	-0.291
-620.376	-200.000	-0.010	-0.164
-619.361	320.445	0.013	0.024
-618.346	-140.516	0.114	-0.012
-617.332	62.149	-0.316	-0.314
-616.317	-176.835	0.055	-0.001
-615.303	619.903	-0.013	-0.032
-614.288	-8.011	0.210	0.141
-613.273	81.758	0.069	0.074
-612.259	-27.824	-0.158	-0.091
-611.244	151.744	0.122	-0.166
-610.230	800.000	-0.042	0.126
-609.215	800.000	0.053	-0.149
-608.201	-123.887	0.370	-0.058
-607.186	223.334	0.205	-0.328
-606.171	24.670	0.229	0.188
-605.157	407.344	0.033	0.070
-604.142	-31.818	-0.297	0.166
-603.128	800.000	-0.066	0.222
-602.113	169.590	-0.065	0.092
-601.098	-200.000	0.011	0.186
-600.084	44.593	0.238	0.217
-599.069	-200.000	-0.022	0.265
-598.055	-200.000	-0.013	0.103
-597.040	-200.000	-0.004	-0.200
-596.025	-200.000	-0.018	0.104
-595.011	146.296	0.157	0.210
-593.996	-7.669	0.287	0.192
-592.982	-200.000	0.038	-0.272
-591.967	157.107	0.116	0.159
-590.952	800.000	0.077	-0.256
-589.938	162.951	0.195	-0.272
-588.923	271.953	-0.074	0.129
-587.909	-119.905	-0.233	0.040
-586.894	52.168	0.273	-0.259
-585.879	-103.811	-0.270	-0.063
-584.865	-200.000	0.027	0.316
-583.850	122.816	0.060	-0.074
-582.836	-200.000	0.041	0.244
-581.821	168.559	0.251	-0.354
-580.806	-54.069	-0.169	0.076
-579.792	-200.000	-0.032	-0.356
-578.777	-200.000	-0.019	-0.091
-577.763	800.000	0.065	-0.245
-576.748	-11.454	0.068	0.044
-575.733	192.487	0.106	-0.159
-574.719	-200.000	-0.004	-0.128
-573.704	126.810	-0.056	-0.070
-572.690	-200.000	-0.051	-0.254
-571.675	-200.000	-0.060	0.365
-570.661	2.714	0.196	0.141
-569.646	800.000	-0.041	-0.135
-568.631	800.000	0.054	-0.203
-567.617	-27.158	0.084	-0.049
-566.602	-98.911	-0.413	0.104
-565.588	109.851	-0.060	0.071
-564.573	-200.000	-0.012	-0.178
-563.558	333.679	0.098	0.189
-562.544	-30.813	0.287	-0.161
-561.529	-36.795	0.071	-0.038
-560.515	-151.185	0.055	-0.004
-559.500	118.643	-0.086	-0.106
-558.485	149.167	-0.085	-0.114
-557.471	-200.000	-0.014	-0.174
-556.456	-28.440	0.038	0.022
-555.442	-81.367	-0.172	0.056
-554.427	43.866	-0.127	-0.115
-553.412	18.793	0.169	0.134
-552.398	-30.019	-0.233	-0.132
-551.383	-81.331	-0.182	-0.060
-550.369	27.005	0.119	-0.099
-549.354	-173.733	0.183	-0.005
-548.339	733.280	-0.039	0.103
-547.325	30.078	0.085	0.072
-546.310	-200.000	0.019	0.151
-545.296	-200.000	-0.017	0.186
-544.281	800.000	-0.062	0.241
-543.266	-93.030	-0.217	0.060
-542.252	-200.000	0.011	0.454
-541.237	-200.000	-0.035	0.282
-540.223	13.636	0.020	0.016
-539.208	-91.343	-0.405	-0.115
-538.193	230.418	0.232	0.377
-537.179	54.074	-0.101	-0.097
-536.164	41.819	0.208	-0.187
-535.150	115.831	0.123	0.149
-534.135	800.000	0.022	-0.089
-533.121	-71.860	0.252	0.093
-532.106	561.348	0.039	-0.093
-531.091	-141.921	-0.113	-0.011
-530.077	44.979	0.191	-0.174
-529.062	-92.503	-0.407	-0.113
-528.048	-200.000	0.262	-0.001
-527.033	439.218	-0.133	0.287
-526.018	800.000	-0.103	0.425
-525.004	-27.368	-0.026	0.015
-523.989	800.000	-0.035	0.105
-522.975	-125.246	0.048	-0.007
-521.960	-63.379	0.180	-0.073
-520.945	800.000	0.041	-0.165
-519.931	63.906	-0.022	0.022
-518.916	71.008	-0.068	-0.069
-517.902	17.972	-0.161	-0.127
-516.887	-74.411	-0.347	0.124
-515.872	-140.073	0.456	0.048
-514.858	-29.027	0.349	-0.198
-513.843	129.873	-0.171	-0.217
-512.829	117.240	0.334	0.406
-511.814	-5.547	0.282	-0.191
-510.799	27.625	-0.191	-0.159
-509.785	-77.907	-0.103	0.035
-508.770	174.106	-0.092	0.132
-507.756	415.856	-0.106	-0.224
-506.741	113.051	0.043	0.052
-505.726	-7.598	-0.366	-0.245
-504.712	-93.571	-0.239	0.065
-503.697	-70.238	-0.042	0.016
-502.683	163.263	-0.151	-0.210
-501.668	-24.037	0.120	0.071
-500.653	359.601	-0.058	0.116
-499.639	29.566	0.138	0.116
-498.624	800.000	-0.088	0.263
-497.610	-133.499	-0.255	0.032
-496.595	-200.000	-0.015	-0.085
-495.581	298.948	-0.108	-0.196
-494.566	-125.677	-0.133	-0.020
-493.551	311.000	-0.088	-0.163
-492.537	-52.724	-0.119	0.054
-491.522	246.291	0.204	0.340
-490.508	-150.702	0.297	0.022
-489.493	-84.358	-0.423	-0.132
-488.478	16.314	0.123	-0.096
-487.464	670.899	0.029	0.073
-486.449	800.000	-0.093	0.358
-485.435	-132.081	0.189	-0.024
-484.420	800.000	0.234	-0.641
-483.405	655.091	0.074	0.188
-482.391	-96.621	0.209	0.054
-481.376	-200.000	-0.015	-0.300
-480.362	-77.833	0.140	0.048
-479.347	-200.000	0.009	0.146
-478.332	32.755	-0.067	-0.057
-477.318	263.106	0.188	-0.322
-476.303	21.903	-0.254	0.205
-475.289	-61.307	-0.128	-0.053
-474.274	-200.000	-0.016	-0.179
-473.259	-65.724	-0.211	0.083
-472.245	-109.135	0.148	-0.031
-471.230	174.465	0.134	-0.192
-470.216	94.868	-0.289	-0.325
-469.201	-56.828	0.355	0.155
-468.186	-141.192	0.199	-0.020
-467.172	439.297	0.097	-0.210
-466.157	131.504	0.234	-0.297
-465.143	-200.000	0.010	-0.135
-464.128	197.007	-0.075	0.113
-463.113	-200.000	0.033	-0.511
-462.099	329.223	0.071	0.134
-461.084	172.177	0.090	0.128
-460.070	-85.042	0.106	-0.033
-459.055	-109.543	-0.197	-0.041
-458.040	-200.000	-0.015	-0.127
-457.026	-200.000	-0.030	0.134
-456.011	306.691	0.116	-0.213
-454.997	10.658	-0.119	-0.090
-453.982	-200.000	-0.004	-0.145
-452.968	260.279	-0.127	0.217
-451.953	-136.763	0.282	-0.032
-450.938	155.437	0.171	-0.233
-449.924	171.386	0.178	-0.253
-448.909	217.125	-0.232	0.365
-447.895	612.486	0.148	0.365
-446.880	-40.713	-0.118	0.060
-445.865	0.710	0.184	0.130
-444.851	-65.689	-0.233	-0.092
-443.836	800.000	-0.073	0.278
-442.822	662.404	-0.066	0.167
-441.807	-3.867	0.049	0.034
-440.792	-200.000	0.012	0.062
-439.778	-156.278	-0.138	0.009
-438.763	-57.118	0.255	0.111
-437.749	800.000	-0.073	-0.252
-436.734	37.471	0.257	-0.225
-435.719	-98.952	0.370	-0.093
-434.705	199.431	0.147	0.222
-433.690	65.676	0.089	0.089
-432.676	88.432	0.174	0.191
-431.661	282.711	0.083	-0.147
-430.646	321.687	0.058	0.108
-429.632	658.526	-0.145	-0.367
-428.617	111.263	-0.138	0.164
-427.603	-83.488	-0.252	0.080
-426.588	105.079	-0.079	-0.092
-425.573	30.929	-0.157	0.133
-424.559	800.000	-0.070	0.268
-423.544	641.231	0.134	-0.338
-422.530	31.897	-0.039	-0.033
-421.515	-100.981	0.243	-0.059
-420.500	-74.937	-0.122	0.043
-419.486	161.233	-0.045	0.062
-418.471	-76.888	-0.165	-0.057
-417.457	-103.361	-0.125	-0.029
-416.442	180.590	-0.169	0.245
-415.428	-200.000	0.014	0.082
-414.413	-137.110	-0.331	-0.037
-413.398	-104.962	-0.149	0.034
-412.384	-114.649	0.427	-0.081
-411.369	124.081	0.225	0.279
-410.355	93.188	-0.336	0.375
-409.340	530.986	-0.035	-0.082
-408.325	-67.261	-0.216	0.084
-407.311	109.543	-0.086	-0.101
-406.296	-64.599	0.202	-0.081
-405.282	-114.919	0.313	0.059
-404.267	-134.894	-0.402	0.048
-403.252	800.000	-0.050	-0.151
-402.238	-92.063	-0.230	-0.064
-401.223	13.452	-0.064	0.049
-400.209	-79.891	-0.327	0.108
-399.194	-200.000	0.000	0.288
-398.179	35.172	-0.140	-0.121
-397.165	-196.995	-0.618	0.004
-396.150	-48.995	-0.178	0.084
-395.136	231.698	-0.124	-0.201
-394.121	-92.184	0.239	0.067
-393.106	289.444	-0.117	0.210
-392.092	58.805	0.210	0.203
-391.077	-103.855	0.064	0.015
-390.063	267.101	0.104	-0.179
-389.048	3.455	0.226	0.162
-388.033	-29.472	-0.155	0.087
-387.019	172.501	0.104	-0.148
-386.004	67.611	-0.169	0.170
-384.990	98.792	0.220	-0.251
-383.975	-200.000	0.007	-0.152
-382.960	97.486	0.176	0.199
-381.946	505.718	0.087	0.199
-380.931	-167.110	-0.190	-0.008
-379.917	378.310	-0.149	0.301
-378.902	-88.015	-0.138	-0.041
-377.888	-62.447	-0.208	0.085
-376.873	-52.816	-0.249	0.113
-375.858	800.000	0.089	-0.273
-374.844	-109.654	-0.200	-0.042
-373.829	-155.809	-0.343	0.022
-372.815	57.793	0.203	0.195
-371.800	-200.000	-0.006	-0.443
-370.785	750.801	-0.125	0.332
-369.771	180.666	-0.187	0.271
-368.756	-134.373	0.207	-0.025
-367.742	-127.281	-0.098	-0.014
-366.727	-167.241	-0.129	0.005
-365.712	-127.552	0.376	0.054
-364.698	30.513	0.128	0.108
-363.683	369.083	0.154	-0.306
-362.669	-40.854	0.225	0.114
-361.654	658.958	-0.055	0.141
-360.639	-27.355	0.088	-0.050
-359.625	342.978	0.046	0.089
-358.610	800.000	0.021	-0.070
-357.596	-60.160	0.038	-0.016
-356.581	278.349	0.167	-0.294
-355.566	16.150	-0.242	-0.188
-354.552	66.910	0.113	-0.113
-353.537	106.161	0.046	-0.054
-352.523	-200.000	-0.017	0.571
-351.508	-200.000	0.020	-0.133
-350.493	800.000	0.035	-0.112
-349.479	212.747	-0.146	-0.227
-348.464	-149.339	-0.411	-0.032
-347.450	-26.775	0.267	-0.154
-346.435	-56.035	0.242	-0.106
-345.420	-200.000	-0.009	0.168
-344.406	-166.008	0.051	-0.002
-343.391	-65.443	-0.312	-0.123
-342.377	610.229	0.058	0.142
-341.362	800.000	0.035	-0.138
-340.348	168.502	-0.009	-0.012
-339.333	368.406	-0.071	-0.142
-338.318	-119.669	0.230	-0.039
-337.304	800.000	0.038	0.115
-336.289	489.862	0.103	-0.232
-335.275	800.000	-0.102	-0.357
-334.260	-114.782	0.176	-0.033
-333.245	-200.000	0.035	0.181
-332.231	610.371	0.068	-0.167
-331.216	-200.000	0.016	0.250
-330.202	-28.731	-0.077	-0.044
-329.187	276.469	0.072	0.126
-328.172	31.518	-0.129	-0.109
-327.158	199.223	0.093	-0.141
-326.143	-157.999	0.365	0.021
-325.129	146.279	-0.064	0.084
-324.114	3.866	-0.201	-0.144
-323.099	7.577	0.094	0.069
-322.085	-8.816	-0.222	-0.146
-321.070	-54.824	-0.104	-0.046
-320.056	13.902	-0.145	0.111
-319.041	0.756	0.315	0.222
-318.026	-4.789	-0.195	-0.132
-317.012	174.859	-0.218	0.310
-315.997	282.050	0.058	0.103
-314.983	336.645	0.044	0.085
-313.968	-200.000	0.041	0.437
-312.953	275.351	0.004	0.007
-311.939	-122.419	-0.427	0.068
-310.924	-24.337	-0.328	0.192
-309.910	94.957	0.104	0.117
-308.895	-24.835	0.320	-0.187
-307.880	127.346	-0.024	0.030
-306.866	-200.000	-0.006	-0.045
-305.851	-87.347	-0.363	-0.108
-304.837	-65.650	0.099	0.039
-303.822	800.000	0.080	-0.217
-302.807	800.000	-0.041	0.145
-301.793	-107.585	-0.058	0.012
-300.778	-121.558	-0.205	0.033
-299.764	22.697	-0.064	0.052
-298.749	-23.837	0.317	0.186
-297.735	-200.000	0.041	0.268
-296.720	-49.517	-0.108	-0.051
-295.705	32.953	0.170	-0.144
-294.691	83.309	0.070	-0.075
-293.676	111.808	0.128	-0.151
-292.662	-116.135	0.255	0.046
-291.647	-15.702	-0.148	0.092
-290.632	158.512	0.135	-0.184
-289.618	-200.000	0.024	-0.221
-288.603	-66.854	-0.379	-0.147
-287.589	195.976	-0.127	-0.190
-286.574	335.574	-0.059	0.113
-285.559	32.569	0.113	-0.096
-284.545	-146.059	-0.193	-0.017
-283.530	526.858	0.099	0.230
-282.516	-59.902	-0.069	-0.029
-281.501	483.333	-0.031	-0.070
-280.486	36.718	0.199	0.172
-279.472	128.207	0.166	0.207
-278.457	-79.993	-0.035	0.011
-277.443	239.427	-0.211	-0.345
-276.428	151.677	-0.218	-0.292
-275.413	-69.944	-0.085	0.032
-274.399	-101.846	-0.252	0.060
-273.384	-200.000	-0.003	0.081
-272.370	-200.000	0.067	-0.462
-271.355	-30.795	-0.205	-0.114
-270.340	-47.354	0.383	0.183
-269.326	-27.323	0.172	0.098
-268.311	-29.126	0.264	-0.148
-267.297	511.952	-0.026	-0.060
-266.282	273.317	0.038	-0.066
-265.267	-26.519	0.145	-0.083
-264.253	7.381	0.166	0.121
-263.238	298.943	0.180	0.325
-262.224	800.000	0.043	0.171
-261.209	93.899	-0.202	-0.224
-260.195	-200.000	0.001	-0.216
-259.180	0.628	0.101	0.071
-258.165	-58.681	-0.375	-0.159
-257.151	-95.399	-0.243	-0.064
-256.136	400.608	-0.087	0.179
-255.122	113.596	0.119	0.142
-254.107	-200.000	-0.015	-0.320
-253.092	564.620	0.123	-0.292
-252.078	-168.157	0.361	-0.014
-251.063	62.421	-0.344	-0.337
-250.049	208.866	0.210	0.321
-249.034	-59.679	-0.176	0.074
-248.019	800.000	-0.112	-0.326
-247.005	-173.966	0.207	-0.006
-245.990	-150.756	0.232	0.017
-244.976	46.211	-0.161	-0.146
-243.961	-87.161	0.097	0.029
-242.946	-45.004	-0.107	-0.052
-241.932	-122.986	-0.122	0.019
-240.917	53.759	-0.069	0.065
-239.903	88.825	0.415	0.452
-238.888	248.564	-0.181	0.299
-237.873	471.239	-0.017	-0.038
-236.859	-110.504	-0.297	0.060
-235.844	-126.342	-0.214	-0.031
-234.830	327.640	0.070	0.131
-233.815	-200.000	0.036	-0.453
-232.800	-2.367	0.066	0.045
-231.786	-54.157	-0.353	0.157
-230.771	-200.000	-0.022	0.132
-229.757	-200.000	0.011	-0.088
-228.742	22.647	-0.150	-0.120
-227.727	-43.592	-0.263	0.130
-226.713	90.302	0.199	0.218
-225.698	227.661	0.057	-0.091
-224.684	800.000	0.072	0.234
-223.669	-200.000	0.011	-0.082
-222.655	-34.727	0.489	0.262
-221.640	-80.343	0.089	-0.029
-220.625	144.152	-0.141	0.184
-219.611	-200.000	-0.016	0.262
-218.596	-25.584	-0.056	-0.032
-217.582	167.036	0.132	-0.183
-216.567	-200.000	0.023	-0.308
-215.552	531.990	0.142	-0.328
-214.538	800.000	-0.075	-0.222
-213.523	49.797	0.143	0.132
-212.509	262.622	-0.114	-0.194
-211.494	-200.000	0.017	0.352
-210.479	22.629	-0.158	-0.127
-209.465	-101.215	0.070	0.017
-208.450	159.765	-0.028	0.038
-207.436	481.340	-0.088	0.196
-206.421	-20.346	-0.210	0.126
-205.406	488.278	-0.059	-0.132
-204.392	-200.000	-0.014	0.223
-203.377	-176.378	-0.096	0.002
-202.363	-47.128	-0.067	-0.032
-201.348	800.000	0.139	0.442
-200.333	-129.951	0.125	0.017
-199.319	-200.000	0.026	-0.235
-198.304	-200.000	-0.003	-0.090
-197.290	-200.000	0.053	0.236
-196.275	-200.000	-0.081	0.432
-195.260	-90.157	-0.162	0.046
-194.246	333.079	0.066	0.124
-193.231	148.794	0.154	0.203
-192.217	800.000	-0.116	0.376
-191.202	800.000	0.035	0.121
-190.187	-65.564	-0.395	-0.155
-189.173	-200.000	0.014	-0.151
-188.158	-200.000	-0.013	-0.367
-187.144	-200.000	0.009	0.083
-186.129	26.400	0.090	0.074
-185.114	24.984	0.238	0.193
-184.100	214.745	-0.097	0.150
-183.085	-131.371	0.125	0.016
-182.071	18.382	0.025	-0.019
-181.056	800.000	0.039	-0.148
-180.042	-158.286	0.050	-0.003
-179.027	153.822	0.039	-0.052
-178.012	-140.775	0.100	-0.010
-176.998	83.223	-0.087	-0.092
-175.983	-154.320	0.288	0.019
-174.969	263.156	0.145	0.247
-173.954	-55.868	-0.061	-0.027
-172.939	800.000	-0.131	0.458
-171.925	13.375	-0.120	0.091
-170.910	441.086	-0.178	-0.380
-169.896	-136.425	0.322	-0.037
-168.881	591.538	-0.055	0.132
-167.866	396.881	0.087	-0.177
-166.852	208.201	0.089	0.135
-165.837	1.564	0.221	0.155
-164.823	-84.717	-0.235	0.072
-163.808	-131.165	0.368	0.048
-162.793	-200.000	-0.025	-0.117
-161.779	-200.000	-0.050	-0.426
-160.764	-16.777	0.301	-0.186
-159.750	132.693	0.119	-0.150
-158.735	-34.637	-0.302	0.161
-157.720	369.900	0.125	0.248
-156.706	366.072	-0.018	0.034
-155.691	-36.538	0.168	0.088
-154.677	-124.784	-0.323	-0.049
-153.662	168.896	-0.152	0.212
-152.647	727.387	-0.062	-0.161
-151.633	-8.570	-0.220	-0.144
-150.618	33.837	-0.277	0.235
-149.604	800.000	-0.108	-0.328
-148.589	-101.165	-0.156	-0.037
-147.574	-200.000	0.003	-0.048
-146.560	182.533	-0.072	-0.104
-145.545	-69.637	-0.257	0.096
-144.531	-144.110	0.333	0.030
-143.516	38.722	-0.167	-0.145
-142.502	241.590	-0.126	-0.206
-141.487	246.599	-0.064	-0.105
-140.472	126.148	-0.085	0.105
-139.458	142.449	-0.140	0.181
-138.443	-100.924	-0.086	-0.021
-137.429	30.397	0.328	0.274
-136.414	-86.260	-0.476	-0.143
-135.399	-116.774	-0.100	-0.018
-134.385	77.323	-0.191	0.198
-133.370	316.536	0.220	-0.405
-132.356	-118.683	-0.166	-0.029
-131.341	764.694	-0.053	0.140
-130.326	-73.733	-0.544	0.193
-129.312	85.431	0.246	0.263
-128.297	-74.225	-0.332	-0.117
-127.283	26.540	0.174	-0.142
-126.268	24.349	0.169	-0.137
-125.253	800.000	-0.055	-0.212
-124.239	-200.000	-0.036	-0.196
-123.224	-200.000	-0.031	0.273
-122.210	297.951	-0.120	-0.216
