DTS Sentinel unit serial number:	SN413079Multiplexer serial number:	ORYXHardware model number:	OX4-SRSoftware version number:	ORYX F/W v4.00 Oryx Data Collector v3.7.2.0data status	okinstallation	princeton_trtdifferential loss correction	single-endedforward channel	channel 3reverse channel	N/Adate	2019/09/18time	07:08:35forward acquisition time	60.00reverse acquisition time	0.00gamma	496.2192k internal	0.2343k external	0.2343temperature offset calibration	0.9949default loss term (dB/km)	0.3790temperature slope calibration	1.0000multiplexer offset coefficient	1.0000multiplexer slope coefficient	1.0000fibre end	0.00T internal ref (°C)	23.19T ext. ref 1 (°C)	0.19T ext. ref 2 (°C)	17.35length (m)	temperature (°C)	Stokes	anti-Stokes-747.200	-200.000	0.012	-0.262
-746.185	489.797	-0.110	-0.252
-745.171	-200.000	0.008	-0.069
-744.156	405.824	-0.064	0.135
-743.142	170.684	0.135	0.194
-742.127	-14.551	-0.041	-0.026
-741.112	800.000	0.091	-0.348
-740.098	-111.767	-0.409	-0.083
-739.083	-24.833	0.200	0.119
-738.069	-200.000	0.056	0.300
-737.054	-51.843	0.191	0.089
-736.039	-16.934	-0.335	-0.212
-735.025	182.143	0.149	-0.220
-734.010	587.170	0.096	-0.237
-732.996	-200.000	-0.003	0.351
-731.981	-163.096	-0.097	-0.005
-730.966	-47.836	-0.204	-0.099
-729.952	134.855	0.072	0.093
-728.937	135.153	-0.264	0.343
-727.923	-115.821	-0.123	-0.023
-726.908	211.842	0.153	0.241
-725.894	205.216	0.081	0.126
-724.879	-48.043	-0.040	0.019
-723.864	-51.751	-0.283	-0.132
-722.850	-200.000	-0.038	0.207
-721.835	120.663	0.109	0.135
-720.821	-200.000	-0.015	-0.336
-719.806	-32.412	0.315	0.176
-718.791	-155.570	0.159	-0.010
-717.777	90.001	-0.226	-0.252
-716.762	-85.922	0.205	-0.064
-715.748	182.744	-0.116	0.171
-714.733	-43.311	0.280	0.142
-713.718	287.531	0.044	0.079
-712.704	-39.313	0.044	-0.023
-711.689	36.285	-0.124	-0.109
-710.675	-9.776	-0.417	-0.277
-709.660	800.000	-0.052	-0.204
-708.645	-160.760	0.233	-0.012
-707.631	32.361	-0.423	-0.365
-706.616	-162.394	-0.171	-0.008
-705.602	-112.138	-0.370	0.074
-704.587	800.000	-0.080	-0.247
-703.572	-76.284	-0.131	0.046
-702.558	-200.000	0.060	0.298
-701.543	-200.000	-0.059	0.267
-700.529	800.000	-0.019	-0.075
-699.514	800.000	0.053	0.213
-698.499	3.682	-0.175	-0.128
-697.485	274.747	0.255	0.451
-696.470	-99.891	0.199	0.050
-695.456	-200.000	-0.020	0.118
-694.441	157.112	-0.009	0.012
-693.426	117.022	-0.224	-0.275
-692.412	-27.214	0.155	-0.090
-691.397	-200.000	-0.037	-0.315
-690.383	182.054	0.137	-0.201
-689.368	-200.000	0.025	0.109
-688.354	-71.932	-0.253	-0.094
-687.339	181.172	-0.118	0.173
-686.324	-118.252	-0.046	-0.008
-685.310	-104.321	-0.097	-0.023
-684.295	275.159	-0.101	0.179
-683.281	39.179	-0.118	-0.105
-682.266	519.905	0.144	0.337
-681.251	143.206	-0.177	0.235
-680.237	161.109	-0.261	0.364
-679.222	-200.000	0.037	0.324
-678.208	104.242	0.088	0.103
-677.193	-85.821	0.156	0.048
-676.178	-80.498	-0.240	-0.080
-675.164	201.972	-0.055	-0.085
-674.149	-62.298	0.047	-0.019
-673.135	-109.428	-0.254	0.054
-672.120	-51.494	0.075	0.035
-671.105	-200.000	-0.032	-0.266
-670.091	-88.642	-0.278	-0.083
-669.076	32.288	-0.168	0.145
-668.062	-144.660	-0.162	-0.015
-667.047	-200.000	0.018	-0.248
-666.032	-200.000	-0.006	0.066
-665.018	-98.276	-0.089	-0.023
-664.003	-200.000	-0.033	0.286
-662.989	144.419	0.260	-0.346
-661.974	-51.834	-0.136	0.063
-660.959	241.293	0.136	-0.226
-659.945	-19.970	-0.227	-0.140
-658.930	-200.000	0.000	0.075
-657.916	128.146	0.132	0.167
-656.901	4.614	-0.201	0.147
-655.886	800.000	-0.060	-0.168
-654.872	-155.323	-0.095	-0.006
-653.857	-101.365	-0.308	-0.075
-652.843	83.818	0.029	0.032
-651.828	-200.000	-0.206	-0.000
-650.814	-46.512	-0.206	0.101
-649.799	-152.231	0.125	0.009
-648.784	165.222	-0.170	0.239
-647.770	74.139	-0.048	0.051
-646.755	-61.885	-0.166	-0.069
-645.741	-56.657	-0.450	-0.199
-644.726	-92.993	-0.281	-0.078
-643.711	140.797	0.224	-0.295
-642.697	694.021	-0.024	-0.063
-641.682	-166.990	-0.363	0.015
-640.668	169.180	-0.106	-0.150
-639.653	-195.808	0.191	-0.001
-638.638	114.280	-0.184	0.223
-637.624	129.423	-0.262	-0.334
-636.609	115.820	0.085	0.103
-635.595	-3.819	0.110	-0.076
-634.580	254.205	0.048	-0.082
-633.565	-12.245	0.192	0.125
-632.551	-114.982	-0.479	0.091
-631.536	214.785	0.171	0.271
-630.522	97.693	-0.070	0.080
-629.507	403.965	0.076	0.160
-628.492	52.578	-0.088	0.084
-627.478	-84.156	0.227	-0.072
-626.463	-200.000	0.029	-0.131
-625.449	-98.871	-0.224	0.057
-624.434	-62.737	0.342	-0.141
-623.419	-35.165	0.217	0.118
-622.405	-73.629	0.175	0.063
-621.390	-1.035	0.254	0.179
-620.376	327.587	-0.126	-0.241
-619.361	-95.748	-0.177	-0.047
-618.346	-17.144	-0.124	-0.078
-617.332	80.604	0.076	-0.082
-616.317	-146.345	-0.176	-0.015
-615.303	80.793	0.195	0.209
-614.288	5.052	0.249	0.183
-613.273	-200.000	0.031	-0.197
-612.259	-20.554	0.201	-0.123
-611.244	-61.716	-0.256	-0.107
-610.230	-167.013	-0.484	-0.020
-609.215	312.039	-0.103	-0.192
-608.201	123.979	-0.349	0.436
-607.186	-200.000	-0.038	0.166
-606.171	-19.706	0.032	-0.020
-605.157	175.681	-0.214	-0.310
-604.142	76.145	0.205	0.216
-603.128	-50.059	0.253	-0.119
-602.113	176.879	0.150	0.217
-601.098	56.806	-0.119	-0.115
-600.084	-200.000	0.013	-0.192
-599.069	-53.311	-0.372	-0.170
-598.055	-200.000	0.005	-0.118
-597.040	-200.000	0.008	-0.076
-596.025	-4.347	-0.292	-0.201
-595.011	-200.000	-0.006	-0.354
-593.996	-200.000	-0.017	-0.208
-592.982	387.563	0.043	0.088
-591.967	800.000	-0.047	-0.131
-590.952	-79.754	-0.140	-0.047
-589.938	800.000	-0.038	0.117
-588.923	-141.403	0.417	-0.042
-587.909	-132.708	-0.108	0.014
-586.894	-1.503	-0.276	0.194
-585.879	-156.209	-0.290	0.018
-584.865	129.712	-0.038	0.049
-583.850	91.844	0.106	-0.119
-582.836	-24.150	-0.089	0.053
-581.821	800.000	0.117	0.433
-580.806	-174.697	-0.088	0.002
-579.792	-138.883	0.445	-0.048
-578.777	-200.000	0.075	-0.389
-577.763	101.725	-0.147	-0.171
-576.748	311.505	-0.163	-0.303
-575.733	-103.313	-0.153	-0.036
-574.719	335.592	0.066	-0.128
-573.704	-89.923	0.387	-0.112
-572.690	447.049	-0.191	-0.417
-571.675	-62.672	-0.145	0.060
-570.661	93.648	0.146	0.164
-569.646	118.229	-0.052	-0.063
-568.631	800.000	0.036	-0.104
-567.617	-200.000	0.023	0.103
-566.602	-15.850	0.056	0.035
-565.588	203.267	0.067	0.102
-564.573	610.279	-0.065	-0.162
-563.558	-20.090	0.224	0.137
-562.544	800.000	-0.025	0.104
-561.529	-200.000	-0.026	0.199
-560.515	-52.342	-0.067	-0.031
-559.500	-200.000	-0.055	-0.256
-558.485	-39.300	-0.123	-0.064
-557.471	-83.541	0.406	0.129
-556.456	-63.969	-0.067	-0.027
-555.442	800.000	0.126	-0.409
-554.427	-11.822	0.265	-0.173
-553.412	388.128	-0.099	0.204
-552.398	-117.882	0.134	-0.024
-551.383	-200.000	0.005	0.033
-550.369	-27.957	-0.279	0.160
-549.354	-12.604	-0.158	-0.102
-548.339	-115.882	0.240	0.044
-547.325	155.311	0.095	0.129
-546.310	-110.285	0.246	0.051
-545.296	800.000	-0.042	0.121
-544.281	-24.191	-0.243	-0.144
-543.266	800.000	0.098	0.276
-542.252	-200.000	-0.024	0.267
-541.237	-116.761	0.198	0.036
-540.223	-101.602	0.391	0.094
-539.208	79.347	0.154	0.164
-538.193	-121.959	0.043	0.007
-537.179	800.000	-0.047	-0.165
-536.164	705.600	0.037	-0.098
-535.150	-98.332	-0.111	-0.028
-534.135	99.719	-0.180	0.207
-533.121	-200.000	-0.001	-0.153
-532.106	489.396	-0.202	-0.459
-531.091	-200.000	0.047	0.276
-530.077	-64.815	0.157	-0.063
-529.062	32.128	0.153	0.131
-528.048	-200.000	-0.044	0.371
-527.033	-179.095	0.122	0.003
-526.018	-49.568	-0.152	-0.072
-525.004	-128.384	-0.287	0.041
-523.989	-66.124	0.092	0.036
-522.975	-190.032	-0.165	0.002
-521.960	83.105	-0.208	0.225
-520.945	-68.327	0.164	0.063
-519.931	-97.543	0.143	0.037
-518.916	-93.286	-0.205	-0.056
-517.902	-200.000	0.014	0.111
-516.887	-12.466	0.383	-0.248
-515.872	-46.311	-0.128	-0.063
-514.858	704.669	0.101	-0.263
-513.843	800.000	0.091	-0.318
-512.829	-173.023	0.200	0.006
-511.814	277.618	-0.054	0.095
-510.799	203.002	0.173	-0.265
-509.785	422.755	0.082	0.174
-508.770	28.010	0.248	-0.208
-507.756	-200.000	-0.003	0.076
-506.741	-77.395	-0.106	-0.037
-505.726	-200.000	-0.041	-0.245
-504.712	-200.000	0.010	-0.054
-503.697	800.000	-0.114	0.338
-502.683	401.342	-0.122	0.253
-501.668	492.069	-0.076	0.172
-500.653	-97.428	-0.138	-0.036
-499.639	-200.000	-0.024	-0.118
-498.624	-45.927	-0.129	-0.063
-497.610	-200.000	-0.011	-0.083
-496.595	13.955	-0.280	0.216
-495.581	-126.318	-0.219	0.032
-494.566	-200.000	-0.034	-0.262
-493.551	0.480	-0.006	0.005
-492.537	707.337	0.162	0.425
-491.522	-108.650	-0.153	-0.033
-490.508	800.000	-0.055	0.182
-489.493	-165.690	0.210	0.009
-488.478	-47.074	-0.488	0.236
-487.464	163.776	0.222	-0.310
-486.449	-75.491	0.188	-0.066
-485.435	577.030	-0.020	-0.049
-484.420	-50.252	0.129	0.060
-483.405	-200.000	0.025	-0.248
-482.391	164.395	0.047	-0.066
-481.376	43.997	0.097	0.088
-480.362	-132.356	-0.229	-0.029
-479.347	54.344	-0.106	0.101
-478.332	800.000	0.077	0.236
-477.318	-200.000	-0.036	0.206
-476.303	415.700	-0.093	-0.197
-475.289	-75.476	0.059	-0.021
-474.274	-129.846	-0.048	-0.006
-473.259	-152.982	0.359	0.025
-472.245	70.734	0.186	-0.190
-471.230	-200.000	0.034	-0.374
-470.216	-200.000	-0.029	-0.165
-469.201	244.486	0.075	-0.125
-468.186	480.164	0.024	-0.054
-467.172	800.000	-0.033	0.107
-466.157	193.475	-0.139	0.209
-465.143	105.428	0.107	0.125
-464.128	-41.109	-0.272	-0.139
-463.113	-82.133	-0.315	-0.102
-462.099	238.277	0.204	0.335
-461.084	-85.427	-0.308	0.095
-460.070	592.157	0.038	-0.092
-459.055	-150.611	0.062	0.005
-458.040	170.944	-0.133	0.189
-457.026	-32.491	0.185	-0.102
-456.011	-5.497	-0.246	0.167
-454.997	33.289	-0.159	0.136
-453.982	-200.000	0.004	-0.052
-452.968	-200.000	0.089	0.390
-451.953	87.886	-0.202	0.222
-450.938	-34.409	0.125	0.068
-449.924	-187.774	-0.156	-0.002
-448.909	509.663	0.147	0.338
-447.895	-179.289	0.262	-0.006
-446.880	263.438	0.050	-0.086
-445.865	-134.442	0.177	0.021
-444.851	-200.000	-0.035	0.156
-443.836	-148.118	-0.202	-0.017
-442.822	-146.345	0.155	-0.013
-441.807	214.889	-0.082	-0.128
-440.792	-134.154	0.157	-0.019
-439.778	-200.000	-0.019	0.282
-438.763	-200.000	0.010	-0.053
-437.749	-55.659	0.205	-0.091
-436.734	-200.000	0.011	-0.288
-435.719	157.577	-0.093	-0.127
-434.705	-200.000	0.015	0.089
-433.690	82.293	-0.239	0.256
-432.676	294.446	-0.167	-0.303
-431.661	-144.345	0.054	-0.005
-430.646	-45.903	0.163	-0.079
-429.632	-7.960	-0.262	-0.175
-428.617	-14.252	0.227	0.145
-427.603	446.820	-0.127	0.276
-426.588	-120.326	0.050	-0.008
-425.573	-92.200	-0.137	0.038
-424.559	-102.308	0.119	-0.028
-423.544	-44.135	0.310	-0.154
-422.530	81.634	0.129	-0.138
-421.515	-50.960	0.374	0.174
-420.500	-200.000	0.012	-0.130
-419.486	-200.000	-0.020	-0.276
-418.471	219.819	-0.174	-0.275
-417.457	-11.816	-0.085	-0.055
-416.442	-155.915	-0.243	0.015
-415.428	-185.727	-0.187	-0.003
-414.413	223.421	-0.144	0.230
-413.398	114.367	0.082	0.099
-412.384	-114.955	-0.232	0.044
-411.369	-81.916	-0.182	0.059
-410.355	291.630	-0.202	0.363
-409.340	110.665	0.185	-0.220
-408.325	330.398	-0.081	-0.153
-407.311	-200.000	-0.046	0.205
-406.296	-38.546	0.147	0.077
-405.282	436.756	0.058	0.125
-404.267	435.838	0.105	0.225
-403.252	275.828	0.197	-0.346
-402.238	-200.000	-0.105	0.482
-401.223	-47.441	-0.059	-0.028
-400.209	409.944	-0.051	0.106
-399.194	452.162	0.186	-0.407
-398.179	-200.000	-0.042	-0.247
-397.165	-200.000	-0.013	0.087
-396.150	38.142	0.364	0.320
-395.136	800.000	0.066	-0.226
-394.121	-200.000	0.039	0.220
-393.106	-3.051	0.114	-0.079
-392.092	-200.000	0.057	0.262
-391.077	298.590	-0.146	0.265
-390.063	-200.000	-0.015	-0.265
-389.048	206.095	0.070	-0.108
-388.033	-141.689	-0.030	0.003
-387.019	800.000	0.052	0.145
-386.004	264.534	-0.213	0.366
-384.990	-164.702	-0.634	0.028
-383.975	-6.726	-0.175	-0.117
-382.960	30.911	0.083	-0.070
-381.946	-200.000	0.039	-0.387
-380.931	100.865	0.170	0.195
-379.917	-175.721	0.169	-0.004
-378.902	51.002	0.206	-0.193
-377.888	90.260	-0.083	0.092
-376.873	-56.623	0.080	0.035
-375.858	-200.000	-0.055	0.336
-374.844	62.433	0.110	0.109
-373.829	323.373	-0.163	-0.307
-372.815	30.321	-0.409	0.345
-371.800	-32.135	-0.254	0.140
-370.785	-200.000	-0.040	0.179
-369.771	138.986	0.127	-0.164
-368.756	380.098	-0.194	0.393
-367.742	-200.000	0.013	0.242
-366.727	337.764	0.065	0.125
-365.712	-200.000	0.038	-0.183
-364.698	466.277	0.146	-0.324
-363.683	53.735	-0.209	-0.198
-362.669	273.637	0.065	-0.114
-361.654	-158.540	-0.512	-0.029
-360.639	800.000	0.029	0.121
-359.625	0.348	0.205	-0.145
-358.610	249.220	-0.066	0.111
-357.596	-34.990	-0.247	0.133
-356.581	12.956	0.209	0.159
-355.566	-200.000	0.018	0.102
-354.552	206.673	-0.150	0.230
-353.537	285.470	-0.136	-0.241
-352.523	346.911	0.074	0.144
-351.508	7.052	0.116	0.085
-350.493	43.090	-0.160	0.144
-349.479	-200.000	0.029	0.335
-348.464	18.347	-0.332	-0.262
-347.450	1.919	-0.229	-0.163
-346.435	215.298	0.158	-0.248
-345.420	248.738	0.173	-0.288
-344.406	-43.535	0.171	-0.085
-343.391	60.290	-0.141	0.137
-342.377	-5.377	0.237	-0.160
-341.362	8.870	-0.064	-0.048
-340.348	800.000	0.090	-0.350
-339.333	118.475	-0.134	-0.163
-338.318	110.371	-0.150	0.178
-337.304	247.320	0.159	0.264
-336.289	-155.286	-0.177	0.011
-335.275	248.799	0.163	-0.273
-334.260	218.181	0.061	0.096
-333.245	-5.490	0.128	-0.087
-332.231	-200.000	0.018	-0.100
-331.216	-6.832	-0.182	0.122
-330.202	-104.771	-0.518	0.117
-329.187	542.205	0.113	0.266
-328.172	-85.467	-0.134	0.041
-327.158	-113.762	0.472	0.091
-326.143	-200.000	0.014	0.076
-325.129	-1.093	-0.291	0.203
-324.114	86.222	-0.233	0.253
-323.099	76.547	-0.225	-0.235
-322.085	-119.595	-0.027	-0.005
-321.070	41.048	-0.141	-0.126
-320.056	-200.000	-0.011	-0.276
-319.041	-90.653	-0.196	0.056
-318.026	-200.000	0.004	-0.142
-317.012	344.338	0.157	0.302
-315.997	-132.955	-0.055	0.007
-314.983	-200.000	-0.004	0.215
-313.968	-28.723	0.208	0.118
-312.953	-104.805	0.021	0.005
-311.939	659.184	0.076	-0.194
-310.924	77.182	0.044	-0.046
-309.910	302.889	0.071	-0.130
-308.895	566.940	0.131	-0.314
-307.880	-200.000	-0.002	0.231
-306.866	-200.000	-0.023	-0.135
-305.851	-81.920	0.269	-0.087
-304.837	-37.722	0.275	-0.144
-303.822	338.665	-0.027	-0.052
-302.807	53.661	-0.161	-0.152
-301.793	800.000	0.005	0.017
-300.778	411.032	-0.061	0.127
-299.764	-111.753	0.450	-0.090
-298.749	-87.079	-0.250	0.075
-297.735	-33.815	-0.313	0.170
-296.720	124.270	-0.158	0.195
-295.705	10.000	0.130	0.097
-294.691	79.322	0.129	-0.137
-293.676	306.527	-0.110	0.202
-292.662	20.725	0.076	-0.061
-291.647	740.548	0.058	0.153
-290.632	60.574	-0.232	-0.227
-289.618	-77.882	0.363	-0.123
-288.603	-143.381	-0.307	0.029
-287.589	48.828	0.293	-0.270
-286.574	-69.455	0.199	-0.075
-285.559	-42.344	0.279	-0.140
-284.545	13.205	-0.128	-0.098
-283.530	-41.742	-0.074	0.037
-282.516	427.464	-0.157	0.333
-281.501	625.230	-0.111	0.274
-280.486	800.000	-0.157	-0.576
-279.472	654.761	0.073	-0.184
-278.457	518.801	-0.093	0.215
-277.443	-140.027	0.303	-0.031
-276.428	704.286	0.107	0.276
-275.413	-200.000	-0.006	0.198
-274.399	-200.000	-0.017	-0.077
-273.384	458.731	0.093	-0.203
-272.370	-23.415	-0.182	-0.107
-271.355	102.587	0.153	0.176
-270.340	-120.992	-0.195	-0.032
-269.326	158.082	-0.229	-0.312
-268.311	-28.456	0.168	0.095
-267.297	673.501	0.121	-0.308
-266.282	-200.000	-0.016	-0.224
-265.267	-115.672	0.094	-0.017
-264.253	-26.593	-0.208	-0.120
-263.238	-200.000	-0.242	0.000
-262.224	-165.428	0.055	0.002
-261.209	226.799	-0.033	0.053
-260.195	-200.000	-0.020	0.194
-259.180	-159.021	0.418	-0.023
-258.165	-96.750	0.183	-0.047
-257.151	800.000	0.034	0.124
-256.136	-200.000	-0.013	0.061
-255.122	-200.000	0.006	0.208
-254.107	142.070	0.127	0.165
-253.092	800.000	-0.044	-0.178
-252.078	-40.339	-0.050	0.025
-251.063	-46.478	-0.060	-0.029
-250.049	-106.499	0.293	0.064
-249.034	198.690	0.052	-0.079
-248.019	204.315	0.194	0.295
-247.005	287.078	-0.188	-0.333
-245.990	-200.000	0.007	0.131
-244.976	187.870	0.173	-0.254
-243.961	-169.344	0.307	0.011
-242.946	252.127	-0.163	-0.272
-241.932	630.091	0.125	-0.311
-240.917	-47.040	0.281	-0.134
-239.903	800.000	0.103	0.286
-238.888	-200.000	-0.001	-0.181
-237.873	-12.745	-0.051	0.032
-236.859	-126.924	0.017	0.002
-235.844	588.120	0.116	-0.280
-234.830	-133.871	0.193	-0.024
-233.815	-148.856	-0.065	0.005
-232.800	205.882	0.129	-0.196
-231.786	6.335	-0.193	0.140
-230.771	168.664	0.096	-0.134
-229.757	1.606	0.181	-0.128
-228.742	339.808	0.148	-0.283
-227.727	-200.000	-0.063	-0.310
-226.713	800.000	0.091	0.344
-225.698	206.097	0.151	-0.231
-224.684	800.000	0.049	0.166
-223.669	105.399	0.167	0.193
-222.655	-127.575	-0.184	0.026
-221.640	163.000	-0.035	0.048
-220.625	800.000	-0.054	-0.173
-219.611	-59.072	0.079	0.034
-218.596	-200.000	0.046	-0.239
-217.582	-200.000	-0.005	0.049
-216.567	272.533	-0.084	0.146
-215.552	171.495	0.241	0.339
-214.538	696.209	0.090	0.232
-213.523	38.529	-0.209	0.183
-212.509	194.821	-0.096	-0.143
-211.494	-19.169	0.150	-0.092
-210.479	-200.000	-0.021	0.094
-209.465	11.173	-0.172	-0.129
-208.450	-200.000	0.001	-0.187
-207.436	-48.038	0.245	0.116
-206.421	239.454	-0.045	-0.073
-205.406	111.702	0.083	0.098
-204.392	-200.000	-0.008	0.305
-203.377	264.416	0.133	0.227
-202.363	800.000	0.115	0.411
-201.348	-200.000	0.002	0.347
-200.333	-25.256	0.394	-0.228
-199.319	143.234	0.108	-0.140
-198.304	800.000	-0.044	0.163
-197.290	86.394	0.225	-0.243
-196.275	-29.278	0.060	0.034
-195.260	-44.066	0.302	0.149
-194.246	-72.638	0.181	0.066
-193.231	800.000	-0.082	-0.320
-192.217	51.489	-0.057	-0.053
-191.202	-49.021	-0.283	-0.133
-190.187	-200.000	-0.004	0.192
-189.173	366.301	0.115	-0.227
-188.158	-102.629	0.118	-0.028
-187.144	109.590	-0.121	0.143
-186.129	-200.000	-0.010	-0.091
-185.114	-36.819	-0.274	-0.144
-184.100	575.840	0.046	-0.110
-183.085	62.931	-0.070	-0.069
-182.071	-144.533	-0.271	-0.025
-181.056	-200.000	0.008	0.109
-180.042	-200.000	0.001	-0.161
-179.027	-62.649	0.062	0.025
-178.012	-200.000	-0.017	-0.111
-176.998	-73.691	0.130	-0.046
-175.983	-60.177	-0.365	-0.152
-174.969	-200.000	0.048	0.659
-173.954	146.001	-0.142	0.186
-172.939	71.634	0.071	0.073
-171.925	-190.463	0.177	-0.002
-170.910	243.721	-0.175	-0.287
-169.896	-200.000	-0.007	0.483
-168.881	800.000	0.037	0.156
-167.866	-161.658	-0.226	0.011
-166.852	-151.146	-0.414	0.030
-165.837	52.140	0.207	0.193
-164.823	110.042	0.106	0.124
-163.808	-44.669	-0.386	-0.189
-162.793	66.583	0.179	0.178
-161.779	800.000	-0.098	-0.350
-160.764	-200.000	-0.021	-0.312
-159.750	344.736	0.057	-0.109
-158.735	269.952	0.111	0.191
-157.720	90.857	-0.191	0.209
-156.706	-84.758	0.180	-0.055
-155.691	48.961	-0.068	-0.062
-154.677	81.740	-0.056	0.059
-153.662	-200.000	-0.012	0.148
-152.647	-35.906	0.364	0.193
-151.633	317.142	0.142	-0.263
-150.618	493.780	0.096	-0.216
-149.604	-107.447	0.277	0.059
-148.589	725.976	-0.039	0.102
-147.574	150.179	0.130	-0.173
-146.560	-200.000	-0.013	0.220
-145.545	-51.022	-0.272	-0.125
-144.531	-200.000	-0.044	0.214
-143.516	239.806	-0.199	-0.324
-142.502	-83.948	0.229	-0.071
-141.487	-200.000	-0.004	-0.041
-140.472	588.816	-0.107	-0.258
-139.458	-200.000	0.003	0.214
-138.443	-200.000	0.007	0.358
-137.429	-200.000	-0.076	0.494
-136.414	-104.262	-0.100	0.023
-135.399	309.142	-0.213	0.389
-134.385	193.245	-0.054	0.080
-133.370	436.168	-0.091	0.194
-132.356	-152.881	0.247	-0.017
-131.341	781.331	-0.065	-0.174
-130.326	-96.717	0.107	0.027
-129.312	-64.185	0.223	0.089
-128.297	-200.000	-0.001	0.076
-127.283	-120.290	-0.230	0.038
-126.268	-40.609	-0.161	-0.082
-125.253	-66.596	-0.265	0.103
-124.239	382.266	-0.149	-0.299
-123.224	-94.806	0.207	-0.055
-122.210	76.783	-0.196	-0.203
