DTS Sentinel unit serial number:	SN413079Multiplexer serial number:	ORYXHardware model number:	OX4-SRSoftware version number:	ORYX F/W v4.00 Oryx Data Collector v3.7.2.0data status	okinstallation	princeton_trtdifferential loss correction	single-endedforward channel	channel 3reverse channel	N/Adate	2019/09/13time	08:04:35forward acquisition time	60.00reverse acquisition time	0.00gamma	496.2192k internal	0.2334k external	0.2334temperature offset calibration	1.0139default loss term (dB/km)	0.3790temperature slope calibration	1.0000multiplexer offset coefficient	1.0000multiplexer slope coefficient	1.0000fibre end	0.00T internal ref (°C)	26.94T ext. ref 1 (°C)	4.25T ext. ref 2 (°C)	23.21length (m)	temperature (°C)	Stokes	anti-Stokes-747.200	-41.063	0.281	-0.146
-746.185	-83.442	-0.207	-0.067
-745.171	-27.488	0.127	0.074
-744.156	800.000	-0.040	-0.113
-743.142	0.141	0.380	0.272
-742.127	-190.438	-0.269	-0.003
-741.112	79.497	0.214	0.231
-740.098	-79.232	0.062	-0.021
-739.083	-78.989	-0.221	0.076
-738.069	120.037	-0.192	0.240
-737.054	58.963	0.112	-0.111
-736.039	167.281	-0.109	-0.156
-735.025	-128.109	-0.037	0.005
-734.010	800.000	0.042	0.152
-732.996	-73.379	-0.158	0.058
-731.981	-141.488	0.282	0.029
-730.966	345.228	0.091	-0.179
-729.952	63.591	0.226	-0.228
-728.937	104.623	0.178	0.211
-727.923	365.009	-0.203	0.411
-726.908	-200.000	-0.007	-0.094
-725.894	229.600	0.030	0.049
-724.879	7.540	-0.299	-0.225
-723.864	25.616	0.186	-0.155
-722.850	124.125	-0.037	0.046
-721.835	197.579	-0.102	0.157
-720.821	72.674	0.134	-0.140
-719.806	-128.767	-0.273	-0.039
-718.791	-137.507	0.392	0.044
-717.777	238.129	-0.042	-0.070
-716.762	-200.000	-0.063	-0.282
-715.748	-200.000	0.022	0.287
-714.733	-74.532	-0.138	-0.050
-713.718	483.547	0.080	-0.183
-712.704	522.057	0.150	0.353
-711.689	-98.511	-0.187	-0.048
-710.675	700.774	0.061	-0.160
-709.660	221.697	0.094	0.151
-708.645	-68.830	0.256	-0.099
-707.631	-76.948	-0.165	0.058
-706.616	-77.879	-0.228	-0.079
-705.602	-200.000	-0.008	0.130
-704.587	-23.093	-0.268	-0.162
-703.572	84.593	0.134	-0.147
-702.558	800.000	-0.036	0.156
-701.543	206.910	0.218	-0.340
-700.529	-82.678	0.239	0.078
-699.514	800.000	-0.042	0.159
-698.499	210.468	0.054	-0.086
-697.485	-200.000	-0.000	-0.034
-696.470	410.959	-0.113	-0.241
-695.456	-45.633	0.216	0.107
-694.441	800.000	0.052	0.167
-693.426	643.309	0.063	0.161
-692.412	24.891	-0.129	-0.107
-691.397	57.377	-0.212	0.208
-690.383	-22.884	0.226	0.137
-689.368	-50.269	-0.168	-0.079
-688.354	-91.189	0.122	-0.035
-687.339	233.253	-0.113	-0.187
-686.324	800.000	0.088	0.306
-685.310	800.000	0.111	0.315
-684.295	6.674	0.076	-0.057
-683.281	-108.462	-0.056	-0.012
-682.266	-200.000	-0.043	-0.240
-681.251	-200.000	0.036	-0.262
-680.237	44.190	-0.140	0.129
-679.222	-2.405	0.209	0.147
-678.208	-108.004	-0.330	-0.072
-677.193	728.698	-0.063	-0.168
-676.178	-118.641	0.298	0.053
-675.164	586.086	0.064	0.158
-674.149	-200.000	0.016	-0.089
-673.135	-4.567	0.260	-0.180
-672.120	213.101	-0.152	0.241
-671.105	800.000	0.018	-0.075
-670.091	-8.567	0.257	0.173
-669.076	314.805	-0.066	-0.125
-668.062	-200.000	-0.044	0.293
-667.047	-120.627	-0.314	-0.053
-666.032	-123.101	0.383	-0.062
-665.018	-121.634	-0.268	-0.044
-664.003	-65.064	0.400	0.162
-662.989	74.320	0.081	-0.085
-661.974	-7.984	-0.163	0.110
-660.959	54.534	0.126	-0.122
-659.945	16.688	-0.135	0.107
-658.930	608.684	-0.090	-0.225
-657.916	-58.461	0.201	0.087
-656.901	-41.894	0.101	0.052
-655.886	416.813	0.104	-0.222
-654.872	-200.000	-0.017	-0.190
-653.857	-200.000	0.008	0.258
-652.843	-200.000	0.022	-0.187
-651.828	800.000	0.075	-0.230
-650.814	-78.608	-0.370	-0.127
-649.799	757.463	0.038	-0.103
-648.784	-200.000	-0.041	-0.474
-647.770	-147.396	0.227	-0.019
-646.755	-200.000	0.021	0.121
-645.741	-91.577	-0.279	-0.080
-644.726	-170.200	0.418	-0.015
-643.711	-49.321	-0.071	-0.034
-642.697	205.542	-0.177	-0.276
-641.682	36.317	0.163	-0.144
-640.668	44.491	0.280	0.258
-639.653	507.339	-0.171	-0.396
-638.638	-200.000	0.014	-0.206
-637.624	557.966	-0.003	0.007
-636.609	390.836	0.090	-0.186
-635.595	422.664	0.062	-0.133
-634.580	193.030	0.030	0.046
-633.565	465.797	0.091	-0.204
-632.551	-46.616	-0.081	0.040
-631.536	114.393	-0.173	-0.210
-630.522	127.284	0.169	-0.214
-629.507	-78.793	-0.181	0.062
-628.492	800.000	-0.100	0.320
-627.478	-101.677	-0.163	-0.040
-626.463	324.773	0.042	0.080
-625.449	-136.273	0.266	-0.031
-624.434	-128.334	-0.275	0.039
-623.419	-200.000	-0.014	-0.170
-622.405	-200.000	0.086	0.432
-621.390	-24.044	-0.209	0.125
-620.376	-200.000	-0.047	0.215
-619.361	800.000	0.036	0.149
-618.346	-156.968	-0.439	0.027
-617.332	-200.000	0.012	0.263
-616.317	-200.000	0.024	-0.125
-615.303	222.760	-0.023	-0.038
-614.288	800.000	0.111	0.353
-613.273	-200.000	-0.004	-0.035
-612.259	-71.557	-0.129	0.048
-611.244	-126.664	-0.276	-0.041
-610.230	-8.567	0.156	-0.105
-609.215	-107.043	-0.143	-0.032
-608.201	800.000	-0.077	-0.258
-607.186	83.604	0.110	-0.120
-606.171	-200.000	0.076	-0.520
-605.157	426.463	0.069	-0.149
-604.142	-200.000	0.034	-0.223
-603.128	39.465	0.192	-0.172
-602.113	279.381	0.171	-0.305
-601.098	-200.000	0.084	0.398
-600.084	-12.564	0.296	-0.193
-599.069	220.905	-0.067	-0.108
-598.055	51.172	0.107	-0.101
-597.040	-176.975	0.073	0.002
-596.025	-174.041	0.090	-0.003
-595.011	-156.093	-0.539	0.034
-593.996	119.963	-0.343	-0.424
-592.982	91.806	-0.159	-0.179
-591.967	800.000	0.121	-0.466
-590.952	-57.899	-0.172	-0.075
-589.938	800.000	-0.061	-0.249
-588.923	-59.591	0.113	-0.048
-587.909	-15.862	-0.044	0.028
-586.894	800.000	-0.027	0.084
-585.879	-90.290	0.063	0.018
-584.865	83.611	-0.127	-0.138
-583.850	-200.000	0.033	0.196
-582.836	800.000	0.089	0.270
-581.821	109.310	0.032	-0.039
-580.806	35.172	-0.103	0.090
-579.792	-168.520	-0.425	0.016
-578.777	-200.000	0.002	0.140
-577.763	447.992	0.112	-0.247
-576.748	41.093	0.047	0.042
-575.733	-37.516	-0.124	0.066
-574.719	-124.638	0.194	0.030
-573.704	-94.097	-0.108	-0.030
-572.690	118.464	-0.182	-0.225
-571.675	47.018	0.073	-0.068
-570.661	-200.000	-0.035	0.194
-569.646	-200.000	-0.141	0.000
-568.631	-200.000	0.019	-0.338
-567.617	357.194	-0.198	-0.394
-566.602	-200.000	-0.001	-0.090
-565.588	212.924	0.137	-0.215
-564.573	-147.320	0.015	0.001
-563.558	21.123	0.315	-0.255
-562.544	800.000	0.040	0.137
-561.529	198.504	-0.091	0.139
-560.515	291.138	0.017	-0.031
-559.500	-119.049	-0.425	0.074
-558.485	222.296	-0.160	0.256
-557.471	-200.000	0.007	0.057
-556.456	-161.478	0.382	0.020
-555.442	-137.336	-0.222	0.025
-554.427	-46.440	0.143	0.070
-553.412	-200.000	-0.017	0.255
-552.398	42.187	0.117	-0.106
-551.383	-65.474	-0.218	-0.087
-550.369	564.993	-0.076	-0.183
-549.354	408.322	-0.046	-0.097
-548.339	800.000	-0.064	-0.253
-547.325	800.000	-0.058	0.207
-546.310	320.843	0.172	0.326
-545.296	-116.630	-0.037	0.007
-544.281	-83.160	-0.216	0.069
-543.266	-127.017	0.102	0.015
-542.252	-13.211	-0.384	-0.249
-541.237	107.973	0.325	-0.386
-540.223	230.494	-0.069	0.112
-539.208	678.003	-0.095	-0.245
-538.193	156.665	0.231	-0.317
-537.179	8.902	0.027	0.020
-536.164	-122.388	0.266	0.043
-535.150	346.265	-0.062	0.121
-534.135	21.883	-0.199	0.162
-533.121	-96.434	0.215	-0.057
-532.106	-36.302	-0.235	-0.126
-531.091	800.000	0.058	0.220
-530.077	-200.000	-0.016	-0.089
-529.062	-200.000	0.012	-0.196
-528.048	-200.000	-0.018	-0.160
-527.033	5.111	0.093	-0.068
-526.018	-143.839	-0.423	-0.040
-525.004	26.401	0.147	-0.122
-523.989	-16.917	-0.092	-0.058
-522.975	20.256	0.082	0.066
-521.960	800.000	-0.056	-0.156
-520.945	-200.000	0.042	0.312
-519.931	497.605	0.114	0.260
-518.916	371.773	0.093	0.189
-517.902	-200.000	0.016	0.130
-516.887	-18.942	-0.107	0.067
-515.872	307.676	-0.064	-0.118
-514.858	136.293	0.368	-0.477
-513.843	-63.791	-0.167	0.068
-512.829	-120.352	-0.112	0.019
-511.814	-141.147	0.211	-0.021
-510.799	155.731	0.252	0.346
-509.785	-156.376	-0.268	-0.017
-508.770	217.989	0.045	-0.071
-507.756	64.408	-0.096	0.096
-506.741	-22.431	0.296	-0.178
-505.726	-200.000	-0.009	-0.114
-504.712	-173.392	-0.345	0.010
-503.697	348.020	0.125	0.245
-502.683	674.516	-0.194	-0.500
-501.668	-49.914	0.004	-0.002
-500.653	336.736	0.171	0.331
-499.639	-95.253	-0.120	0.032
-498.624	-200.000	-0.010	-0.061
-497.610	-134.911	-0.182	0.022
-496.595	165.426	-0.109	-0.153
-495.581	-200.000	0.050	0.262
-494.566	142.779	-0.125	-0.165
-493.551	51.682	0.203	0.192
-492.537	172.012	-0.134	-0.192
-491.522	-50.022	0.240	-0.113
-490.508	-89.651	-0.498	-0.145
-489.493	-41.487	0.034	-0.018
-488.478	-200.000	0.023	-0.127
-487.464	22.121	0.181	-0.147
-486.449	-133.000	-0.289	0.037
-485.435	64.281	0.074	0.074
-484.420	72.881	0.046	0.048
-483.405	-82.705	0.230	-0.074
-482.391	16.356	0.241	-0.189
-481.376	800.000	0.063	-0.230
-480.362	62.292	0.308	0.306
-479.347	11.881	-0.072	0.055
-478.332	134.245	0.076	-0.098
-477.318	-139.926	0.386	-0.041
-476.303	212.775	0.141	0.221
-475.289	-31.870	-0.203	-0.113
-474.274	-51.594	0.245	0.113
-473.259	800.000	0.011	-0.034
-472.245	356.000	0.089	0.176
-471.230	-72.039	-0.261	0.096
-470.216	-135.198	-0.169	0.020
-469.201	27.809	0.328	-0.275
-468.186	-82.600	-0.081	0.026
-467.172	-5.017	0.239	0.163
-466.157	349.889	-0.103	-0.203
-465.143	228.154	-0.103	0.166
-464.128	38.286	0.322	-0.285
-463.113	-182.130	0.131	-0.002
-462.099	-140.053	0.203	0.021
-461.084	-200.000	0.018	0.165
-460.070	-200.000	0.019	-0.213
-459.055	-74.538	0.132	-0.047
-458.040	800.000	0.062	0.178
-457.026	48.963	-0.097	0.091
-456.011	141.727	-0.180	0.237
-454.997	-200.000	-0.064	-0.358
-453.982	44.437	-0.264	0.241
-452.968	-66.154	0.127	0.050
-451.953	-61.543	-0.375	0.156
-450.938	182.976	-0.201	-0.295
-449.924	140.436	0.054	0.071
-448.909	305.254	-0.061	-0.112
-447.895	-200.000	-0.009	-0.179
-446.880	98.621	-0.095	0.108
-445.865	-48.869	0.171	0.081
-444.851	73.148	-0.058	0.060
-443.836	2.519	-0.055	-0.040
-442.822	-200.000	0.014	-0.098
-441.807	29.620	0.293	-0.248
-440.792	-103.042	0.118	-0.028
-439.778	800.000	0.033	-0.105
-438.763	81.828	-0.079	-0.085
-437.749	-200.000	-0.015	-0.098
-436.734	800.000	-0.015	0.052
-435.719	800.000	0.086	0.309
-434.705	-200.000	0.046	-0.470
-433.690	-46.774	0.487	-0.237
-432.676	677.862	-0.063	0.164
-431.661	11.006	-0.137	0.104
-430.646	800.000	0.010	-0.029
-429.632	-5.381	0.229	-0.156
-428.617	-200.000	-0.014	-0.173
-427.603	-200.000	0.014	0.206
-426.588	-69.915	-0.157	0.059
-425.573	39.664	-0.172	-0.153
-424.559	47.863	0.221	0.205
-423.544	569.863	-0.172	0.416
-422.530	55.868	0.115	0.111
-421.515	-12.203	0.147	0.096
-420.500	-22.527	-0.234	0.140
-419.486	-1.271	0.243	0.171
-418.471	-57.874	-0.218	0.094
-417.457	48.766	-0.039	-0.036
-416.442	-9.766	-0.229	0.151
-415.428	-21.178	0.297	0.180
-414.413	-16.697	0.088	0.055
-413.398	-58.060	-0.197	-0.085
-412.384	2.644	-0.248	-0.178
-411.369	183.526	-0.115	-0.168
-410.355	-110.567	0.453	0.093
-409.340	-129.916	0.126	0.017
-408.325	-200.000	0.017	0.114
-407.311	800.000	0.116	0.401
-406.296	86.518	0.082	0.090
-405.282	-142.016	-0.033	0.003
-404.267	800.000	-0.074	0.299
-403.252	-4.949	0.076	-0.052
-402.238	128.545	-0.048	-0.061
-401.223	22.655	0.183	0.148
-400.209	-200.000	-0.025	-0.130
-399.194	126.180	-0.024	0.030
-398.179	184.149	-0.215	0.315
-397.165	116.669	-0.072	-0.087
-396.150	-158.128	-0.307	0.018
-395.136	73.868	-0.140	0.146
-394.121	800.000	0.108	-0.317
-393.106	490.909	-0.055	0.126
-392.092	-200.000	0.064	0.439
-391.077	-79.924	-0.256	-0.085
-390.063	739.911	-0.017	0.046
-389.048	-101.327	-0.194	-0.047
-388.033	-146.945	-0.057	-0.005
-387.019	22.566	0.072	0.058
-386.004	128.153	-0.155	0.195
-384.990	-120.519	0.215	0.036
-383.975	219.857	-0.084	0.134
-382.960	-69.248	-0.475	0.181
-381.946	-109.905	-0.099	0.021
-380.931	800.000	0.062	0.209
-379.917	-200.000	-0.049	-0.277
-378.902	108.114	-0.118	-0.139
-377.888	800.000	-0.090	0.286
-376.873	-200.000	0.026	0.226
-375.858	-188.876	0.118	-0.001
-374.844	-200.000	-0.015	-0.096
-373.829	-33.423	0.319	0.175
-372.815	-68.996	-0.202	-0.077
-371.800	-200.000	-0.002	0.192
-370.785	62.272	-0.207	-0.205
-369.771	21.130	0.322	0.259
-368.756	227.764	0.013	-0.021
-367.742	362.982	0.158	0.314
-366.727	57.053	0.206	0.199
-365.712	-200.000	-0.049	-0.219
-364.698	55.205	0.123	-0.117
-363.683	-137.781	0.101	0.011
-362.669	418.796	-0.028	0.060
-361.654	-119.261	-0.046	-0.008
-360.639	-43.033	0.264	-0.133
-359.625	-87.006	0.345	-0.104
-358.610	-77.490	0.031	-0.010
-357.596	133.435	-0.164	0.210
-356.581	-200.000	0.066	0.316
-355.566	-155.903	-0.032	0.002
-354.552	-76.073	-0.299	0.104
-353.537	-43.399	-0.231	-0.115
-352.523	-200.000	0.012	0.121
-351.508	800.000	-0.058	-0.168
-350.493	685.962	-0.082	-0.213
-349.479	20.918	0.130	-0.105
-348.464	336.189	0.184	-0.353
-347.450	-161.307	0.094	-0.005
-346.435	800.000	-0.034	-0.134
-345.420	42.163	0.323	-0.290
-344.406	800.000	0.047	0.134
-343.391	171.097	-0.069	0.097
-342.377	725.163	-0.114	0.300
-341.362	253.765	0.047	0.079
-340.348	-200.000	-0.036	0.160
-339.333	11.994	0.273	0.208
-338.318	-200.000	0.008	0.095
-337.304	-31.915	-0.448	-0.248
-336.289	-54.596	0.265	-0.119
-335.275	18.996	0.268	-0.212
-334.260	-124.005	-0.376	-0.059
-333.245	305.203	-0.072	-0.133
-332.231	-200.000	0.002	-0.050
-331.216	-32.837	-0.215	0.118
-330.202	145.158	-0.125	0.165
-329.187	440.470	-0.042	0.091
-328.172	800.000	0.159	0.502
-327.158	54.502	-0.172	-0.164
-326.143	147.016	-0.114	-0.152
-325.129	205.624	-0.024	-0.037
-324.114	-200.000	-0.022	-0.238
-323.099	-200.000	-0.008	-0.323
-322.085	-29.938	0.154	0.087
-321.070	800.000	-0.090	0.273
-320.056	490.628	-0.089	0.201
-319.041	1.882	0.270	-0.193
-318.026	-138.196	0.248	0.027
-317.012	-11.245	0.051	0.033
-315.997	-98.841	0.258	-0.065
-314.983	-200.000	-0.021	0.260
-313.968	95.815	-0.298	-0.336
-312.953	800.000	0.054	-0.162
-311.939	-200.000	-0.004	0.230
-310.924	-55.364	-0.137	0.061
-309.910	-64.718	-0.090	-0.036
-308.895	109.385	0.223	0.263
-307.880	800.000	-0.082	-0.251
-306.866	800.000	0.015	-0.053
-305.851	66.047	0.232	-0.233
-304.837	-114.487	-0.260	0.049
-303.822	58.663	0.235	-0.228
-302.807	-32.990	0.133	0.073
-301.793	-200.000	-0.302	0.000
-300.778	-200.000	-0.021	0.373
-299.764	-56.817	-0.150	0.066
-298.749	160.819	0.219	0.301
-297.735	-200.000	0.038	-0.262
-296.720	-134.047	-0.405	-0.049
-295.705	800.000	-0.150	0.415
-294.691	38.346	0.219	-0.193
-293.676	174.701	-0.114	-0.164
-292.662	800.000	-0.062	0.213
-291.647	-178.279	0.268	-0.006
-290.632	296.232	0.142	-0.258
-289.618	-27.663	-0.232	0.133
-288.603	15.394	-0.226	-0.175
-287.589	107.923	0.160	0.188
-286.574	-91.551	-0.234	0.066
-285.559	110.691	0.151	0.180
-284.545	-119.728	0.086	-0.015
-283.530	152.700	0.141	-0.190
-282.516	21.368	0.292	0.235
-281.501	-1.035	-0.172	0.120
-280.486	-93.510	0.357	0.097
-279.472	-200.000	-0.035	0.171
-278.457	-72.031	-0.448	0.164
-277.443	-40.310	-0.345	0.177
-276.428	50.232	0.230	0.214
-275.413	732.625	-0.128	-0.338
-274.399	800.000	-0.063	0.183
-273.384	-200.000	-0.203	-0.001
-272.370	-9.837	0.073	0.048
-271.355	190.280	0.137	-0.202
-270.340	556.036	0.133	-0.315
-269.326	-26.823	0.074	0.043
-268.311	-200.000	0.034	-0.181
-267.297	-62.356	0.258	-0.106
-266.282	-154.234	-0.248	0.017
-265.267	-200.000	-0.014	-0.071
-264.253	308.802	-0.030	-0.056
-263.238	401.776	0.206	-0.426
-262.224	-161.227	-0.198	-0.010
-261.209	-200.000	-0.000	-0.074
-260.195	-103.359	0.322	-0.075
-259.180	300.922	0.029	0.053
-258.165	-24.610	0.109	0.064
-257.151	347.745	0.117	0.227
-256.136	265.426	-0.101	0.173
-255.122	800.000	-0.101	0.343
-254.107	-161.645	0.078	-0.004
-253.092	-14.605	0.148	0.094
-252.078	-200.000	0.081	0.374
-251.063	-200.000	0.050	0.241
-250.049	-41.456	0.066	-0.034
-249.034	-200.000	-0.020	0.304
-248.019	-98.595	0.423	-0.106
-247.005	-27.793	0.284	-0.162
-245.990	-43.445	-0.294	-0.146
-244.976	94.962	-0.131	0.147
-243.961	0.472	-0.132	0.093
-242.946	-173.870	-0.077	0.002
-241.932	800.000	0.020	-0.085
-240.917	40.669	-0.124	-0.110
-239.903	64.346	0.276	0.274
-238.888	146.539	0.217	-0.287
-237.873	179.773	0.057	-0.083
-236.859	-200.000	-0.019	0.312
-235.844	-43.734	-0.317	0.157
-234.830	-160.870	0.228	-0.012
-233.815	621.711	-0.206	-0.511
-232.800	-200.000	-0.023	-0.230
-231.786	-200.000	0.006	0.173
-230.771	-141.936	0.071	0.007
-229.757	286.889	-0.047	0.083
-228.742	50.863	-0.044	0.041
-227.727	-200.000	0.023	-0.130
-226.713	800.000	-0.024	0.076
-225.698	800.000	-0.058	0.217
-224.684	-58.169	0.089	-0.038
-223.669	-200.000	0.017	-0.260
-222.655	280.144	0.095	0.167
-221.640	105.169	0.086	0.100
-220.625	-92.791	-0.133	0.037
-219.611	-154.139	-0.061	0.004
-218.596	41.763	0.056	0.050
-217.582	-200.000	-0.021	0.103
-216.567	-200.000	0.057	-0.265
-215.552	-185.381	0.102	0.002
-214.538	-133.833	-0.258	-0.032
-213.523	800.000	0.049	0.147
-212.509	-23.400	0.260	0.154
-211.494	-86.501	0.103	0.031
-210.479	322.069	-0.070	0.131
-209.465	-51.068	0.191	0.088
-208.450	-50.027	-0.231	-0.108
-207.436	-135.486	-0.199	-0.023
-206.421	-200.000	-0.011	-0.102
-205.406	37.970	0.152	-0.133
-204.392	17.053	-0.226	0.176
-203.377	108.119	-0.075	0.087
-202.363	66.482	-0.323	0.323
-201.348	-57.642	-0.107	0.046
-200.333	43.859	-0.200	0.181
-199.319	-200.000	0.013	0.140
-198.304	250.626	0.133	-0.222
-197.290	45.648	0.257	-0.234
-196.275	355.449	-0.064	0.126
-195.260	226.975	-0.075	0.119
-194.246	-77.902	0.092	-0.031
-193.231	-54.017	0.180	0.080
-192.217	-94.361	-0.543	0.146
-191.202	24.486	0.135	-0.110
-190.187	57.419	-0.191	-0.184
-189.173	264.781	0.067	-0.115
-188.158	-200.000	-0.070	0.322
-187.144	-200.000	-0.028	-0.207
-186.129	-65.208	0.246	-0.098
-185.114	-162.310	-0.222	0.011
-184.100	-69.415	-0.242	0.091
-183.085	-14.838	-0.329	-0.208
-182.071	-200.000	-0.207	-0.000
-181.056	39.675	0.241	0.212
-180.042	-200.000	-0.006	0.175
-179.027	-137.719	0.127	-0.014
-178.012	225.065	0.110	-0.176
-176.998	-120.427	-0.050	-0.008
-175.983	-200.000	0.027	-0.171
-174.969	233.879	0.060	-0.097
-173.954	111.935	0.158	0.187
-172.939	-39.451	0.148	0.076
-171.925	111.234	-0.081	-0.096
-170.910	-74.116	0.252	-0.090
-169.896	-154.314	0.277	-0.018
-168.881	600.356	0.162	-0.395
-167.866	800.000	0.074	0.213
-166.852	-200.000	0.054	-0.279
-165.837	118.737	0.047	0.057
-164.823	800.000	-0.017	-0.048
-163.808	-116.161	0.269	0.049
-162.793	-140.794	-0.070	-0.007
-161.779	800.000	0.093	0.313
-160.764	-200.000	-0.047	0.344
-159.750	67.178	-0.034	0.034
-158.735	212.629	0.117	-0.181
-157.720	-200.000	-0.041	0.252
-156.706	260.977	-0.050	-0.086
-155.691	201.087	-0.136	0.205
-154.677	612.418	-0.113	0.277
-153.662	170.827	-0.209	0.294
-152.647	58.998	-0.108	-0.104
-151.633	-200.000	0.045	-0.371
-150.618	-200.000	0.031	-0.137
-149.604	-97.361	-0.499	0.128
-148.589	175.100	-0.052	-0.075
-147.574	-68.367	0.045	0.017
-146.560	189.486	-0.171	0.252
-145.545	225.596	-0.200	-0.318
-144.531	-200.000	-0.021	0.294
-143.516	-200.000	0.013	0.232
-142.502	614.789	0.158	0.389
-141.487	-23.920	0.064	0.038
-140.472	76.691	0.320	-0.333
-139.458	-175.634	-0.365	0.010
-138.443	-113.478	-0.117	-0.022
-137.429	612.765	-0.017	0.041
-136.414	-200.000	0.001	0.152
-135.399	501.878	0.111	-0.251
-134.385	-44.888	0.147	0.072
-133.370	106.418	0.105	0.122
-132.356	262.103	0.098	-0.167
-131.341	-45.580	-0.350	-0.170
-130.326	72.252	0.073	0.075
-129.312	69.156	-0.168	-0.170
-128.297	-200.000	-0.030	-0.186
-127.283	-200.000	-0.021	-0.144
-126.268	-40.501	-0.020	0.010
-125.253	595.966	-0.038	-0.093
-124.239	368.795	-0.049	-0.097
-123.224	-30.101	-0.366	0.204
-122.210	800.000	0.050	0.194
-121.195	-34.347	0.174	0.094
