DTS Sentinel unit serial number:	SN413079Multiplexer serial number:	ORYXHardware model number:	OX4-SRSoftware version number:	ORYX F/W v4.00 Oryx Data Collector v3.7.2.0data status	okinstallation	princeton_trtdifferential loss correction	single-endedforward channel	channel 3reverse channel	N/Adate	2019/09/14time	18:12:35forward acquisition time	60.00reverse acquisition time	0.00gamma	496.2192k internal	0.2301k external	0.2301temperature offset calibration	1.0017default loss term (dB/km)	0.3790temperature slope calibration	1.0000multiplexer offset coefficient	1.0000multiplexer slope coefficient	1.0000fibre end	0.00T internal ref (°C)	37.09T ext. ref 1 (°C)	4.96T ext. ref 2 (°C)	31.29length (m)	temperature (°C)	Stokes	anti-Stokes-747.200	63.306	0.207	0.211
-746.185	21.306	-0.081	-0.067
-745.171	-17.185	-0.302	0.194
-744.156	-16.877	-0.340	0.219
-743.142	-128.042	-0.110	0.016
-742.127	-122.019	0.163	0.027
-741.112	516.824	-0.052	0.123
-740.098	-9.216	-0.275	0.187
-739.083	-82.475	-0.196	0.065
-738.069	253.697	-0.110	0.192
-737.054	-200.000	-0.025	0.355
-736.039	240.684	-0.107	-0.182
-735.025	-200.000	0.012	0.120
-734.010	75.410	-0.199	-0.214
-732.996	55.097	-0.080	-0.079
-731.981	28.550	-0.026	-0.023
-730.966	455.893	-0.028	0.064
-729.952	800.000	0.048	-0.145
-728.937	159.457	-0.114	-0.161
-727.923	-75.539	-0.288	0.104
-726.908	-123.324	-0.327	0.053
-725.894	206.510	0.120	-0.191
-724.879	25.343	0.172	0.146
-723.864	-137.227	0.466	-0.054
-722.850	-200.000	0.006	0.164
-721.835	-138.480	-0.126	-0.014
-720.821	-55.829	-0.282	0.128
-719.806	126.832	0.105	0.136
-718.791	-123.622	0.177	0.029
-717.777	135.894	-0.086	-0.114
-716.762	-200.000	-0.029	-0.327
-715.748	-200.000	0.001	0.121
-714.733	96.597	-0.104	0.121
-713.718	-200.000	-0.041	0.232
-712.704	402.834	-0.099	0.212
-711.689	640.232	-0.089	0.230
-710.675	-48.258	0.152	0.075
-709.660	73.736	-0.270	-0.288
-708.645	5.943	-0.168	-0.127
-707.631	2.150	-0.175	0.129
-706.616	-64.596	0.285	0.118
-705.602	20.487	0.273	0.225
-704.587	242.683	-0.059	-0.101
-703.572	426.557	-0.049	0.108
-702.558	800.000	-0.086	0.324
-701.543	25.524	-0.088	0.074
-700.529	184.923	0.130	0.196
-699.514	348.063	-0.112	0.224
-698.499	-8.051	-0.254	-0.174
-697.485	582.894	0.097	-0.241
-696.470	313.039	-0.117	-0.223
-695.456	163.166	-0.116	-0.166
-694.441	344.243	-0.050	0.100
-693.426	286.439	0.093	0.172
-692.412	32.873	-0.141	-0.124
-691.397	445.351	0.041	-0.091
-690.383	-134.811	0.151	0.019
-689.368	-91.524	-0.243	0.071
-688.354	-200.000	-0.025	-0.180
-687.339	573.254	0.090	-0.224
-686.324	10.492	-0.053	-0.041
-685.310	49.104	-0.270	0.258
-684.295	-200.000	0.003	0.036
-683.281	783.297	0.014	0.039
-682.266	-66.177	0.109	-0.044
-681.251	-200.000	-0.021	-0.156
-680.237	-200.000	0.047	0.269
-679.222	-200.000	0.003	0.142
-678.208	800.000	-0.084	-0.350
-677.193	-89.188	-0.242	-0.073
-676.178	-88.857	0.188	0.057
-675.164	52.031	-0.102	0.099
-674.149	31.853	-0.114	-0.099
-673.135	76.969	-0.105	0.113
-672.120	-126.598	0.212	0.032
-671.105	796.875	0.106	-0.298
-670.091	103.530	-0.198	-0.236
-669.076	489.500	-0.123	0.285
-668.062	410.291	-0.164	-0.353
-667.047	-200.000	0.031	-0.325
-666.032	-103.640	-0.232	-0.055
-665.018	59.190	-0.084	-0.084
-664.003	134.150	-0.064	0.084
-662.989	-137.586	-0.208	0.024
-661.974	800.000	-0.098	-0.318
-660.959	-200.000	0.035	-0.191
-659.945	-82.869	0.147	0.048
-658.930	-65.144	-0.274	-0.112
-657.916	-92.986	-0.278	-0.079
-656.901	89.464	-0.115	0.131
-655.886	41.985	0.220	0.203
-654.872	-200.000	-0.002	0.098
-653.857	-121.278	0.144	-0.024
-652.843	-84.080	-0.035	-0.011
-651.828	-31.783	0.270	-0.154
-650.814	800.000	0.017	0.067
-649.799	-21.865	-0.323	0.199
-648.784	-181.893	0.207	0.004
-647.770	-200.000	0.007	0.170
-646.755	-128.493	-0.282	0.041
-645.741	601.731	-0.022	-0.055
-644.726	-64.961	-0.230	0.094
-643.711	800.000	0.082	0.255
-642.697	247.134	-0.065	0.112
-641.682	291.057	0.053	-0.098
-640.668	226.872	0.155	-0.255
-639.653	338.744	0.081	0.160
-638.638	-123.823	-0.277	-0.044
-637.624	376.655	0.091	0.188
-636.609	-200.000	-0.052	0.245
-635.595	800.000	-0.108	0.376
-634.580	-117.345	0.073	0.013
-633.565	-76.122	-0.165	0.059
-632.551	283.973	-0.061	0.112
-631.536	-191.531	0.106	-0.001
-630.522	-141.031	0.200	0.021
-629.507	-43.613	-0.253	0.129
-628.492	47.960	-0.097	-0.092
-627.478	800.000	-0.032	0.114
-626.463	-143.456	-0.021	0.002
-625.449	-200.000	0.020	0.220
-624.434	-92.938	0.103	-0.029
-623.419	83.525	0.107	-0.119
-622.405	-200.000	-0.024	0.458
-621.390	359.520	-0.143	-0.290
-620.376	-92.829	0.206	0.059
-619.361	-9.229	0.140	-0.095
-618.346	92.522	0.105	0.121
-617.332	-200.000	-0.009	0.066
-616.317	-45.059	-0.146	-0.074
-615.303	-167.174	-0.046	0.002
-614.288	-97.681	0.143	0.038
-613.273	-65.813	-0.013	-0.005
-612.259	-150.701	-0.077	-0.006
-611.244	104.154	-0.049	-0.058
-610.230	-200.000	-0.057	-0.285
-609.215	300.364	-0.133	-0.248
-608.201	192.696	0.040	0.061
-607.186	-2.897	0.291	0.206
-606.171	800.000	-0.122	0.372
-605.157	-155.028	-0.199	-0.013
-604.142	800.000	0.078	-0.341
-603.128	-12.156	0.385	-0.255
-602.113	-13.839	-0.126	-0.082
-601.098	103.726	-0.069	0.083
-600.084	-70.605	-0.166	0.064
-599.069	-116.806	-0.122	0.023
-598.055	800.000	0.059	-0.192
-597.040	48.581	-0.060	-0.057
-596.025	-200.000	0.022	0.223
-595.011	-102.687	-0.592	-0.143
-593.996	51.937	-0.305	0.294
-592.982	-67.316	-0.159	0.063
-591.967	57.622	-0.106	-0.105
-590.952	58.921	0.094	-0.094
-589.938	3.730	0.310	-0.230
-588.923	15.955	0.217	-0.174
-587.909	-157.599	0.095	-0.006
-586.894	77.904	0.123	-0.133
-585.879	287.020	0.170	-0.311
-584.865	6.151	0.216	0.162
-583.850	200.985	-0.144	0.224
-582.836	-10.704	-0.240	0.161
-581.821	132.834	-0.087	0.114
-580.806	-91.088	-0.166	0.048
-579.792	466.564	0.069	-0.156
-578.777	-52.695	0.207	-0.097
-577.763	-200.000	0.003	-0.035
-576.748	-79.876	-0.112	-0.038
-575.733	-138.052	0.079	0.009
-574.719	800.000	-0.061	0.182
-573.704	-126.742	-0.237	0.035
-572.690	592.238	0.060	0.151
-571.675	-6.106	-0.126	-0.087
-570.661	-81.915	0.083	0.027
-569.646	-17.487	0.180	0.115
-568.631	55.630	-0.107	0.105
-567.617	34.166	-0.104	-0.092
-566.602	-29.648	-0.081	0.047
-565.588	-157.235	0.082	0.005
-564.573	234.967	-0.078	-0.130
-563.558	-10.572	0.341	-0.228
-562.544	35.980	0.237	-0.211
-561.529	254.144	0.079	-0.137
-560.515	83.527	0.046	-0.050
-559.500	-50.565	-0.090	-0.043
-558.485	-49.075	-0.222	-0.108
-557.471	800.000	-0.082	-0.316
-556.456	80.316	0.260	-0.283
-555.442	-200.000	-0.023	0.275
-554.427	-111.998	-0.254	-0.052
-553.412	527.055	0.138	0.328
-552.398	666.224	0.144	-0.377
-551.383	-132.111	-0.130	-0.017
-550.369	-200.000	-0.005	-0.154
-549.354	4.741	0.268	-0.200
-548.339	800.000	0.094	-0.294
-547.325	-118.861	-0.200	-0.036
-546.310	237.976	-0.125	0.210
-545.296	240.013	0.155	0.261
-544.281	727.653	-0.123	-0.333
-543.266	-63.264	0.151	0.063
-542.252	800.000	0.012	-0.053
-541.237	-128.792	-0.271	-0.039
-540.223	-137.557	-0.117	-0.013
-539.208	-200.000	0.006	0.127
-538.193	-19.757	-0.170	-0.106
-537.179	-185.129	-0.254	0.004
-536.164	-76.042	0.151	0.054
-535.150	-73.064	-0.042	-0.016
-534.135	-54.655	0.387	-0.177
-533.121	-107.858	-0.154	-0.034
-532.106	-200.000	0.016	0.075
-531.091	-200.000	-0.081	-0.525
-530.077	-94.706	0.112	-0.031
-529.062	-173.294	-0.159	-0.005
-528.048	-94.097	-0.147	0.041
-527.033	57.609	0.218	0.216
-526.018	-77.717	-0.261	-0.091
-525.004	483.989	0.114	-0.262
-523.989	54.191	-0.293	0.285
-522.975	47.358	-0.503	-0.474
-521.960	-200.000	0.025	0.141
-520.945	-200.000	0.020	-0.298
-519.931	41.135	0.186	0.170
-518.916	-200.000	0.005	0.163
-517.902	70.652	0.195	0.204
-516.887	-74.632	0.283	0.103
-515.872	328.697	0.018	0.036
-514.858	-116.988	0.212	0.039
-513.843	-37.772	-0.059	-0.032
-512.829	-200.000	-0.010	0.085
-511.814	-124.898	0.302	0.047
-510.799	84.909	-0.193	-0.213
-509.785	-18.600	-0.267	0.168
-508.770	438.153	-0.087	-0.192
-507.756	-124.651	-0.066	-0.010
-506.741	-98.363	0.186	-0.048
-505.726	800.000	0.057	-0.208
-504.712	23.445	0.210	0.174
-503.697	48.249	0.105	0.099
-502.683	-200.000	-0.017	-0.440
-501.668	11.461	-0.244	0.189
-500.653	-200.000	0.021	-0.164
-499.639	-200.000	-0.006	0.158
-498.624	264.419	0.126	-0.222
-497.610	-42.311	0.086	-0.044
-496.595	800.000	-0.076	-0.220
-495.581	280.859	-0.094	-0.170
-494.566	800.000	-0.101	-0.294
-493.551	142.123	-0.049	-0.065
-492.537	51.847	0.169	-0.162
-491.522	237.409	0.095	0.159
-490.508	758.064	-0.071	0.193
-489.493	800.000	-0.037	-0.139
-488.478	114.845	0.031	0.038
-487.464	-81.788	0.241	0.080
-486.449	-36.953	-0.064	0.035
-485.435	507.527	0.070	0.164
-484.420	-200.000	0.011	0.159
-483.405	-200.000	0.004	0.038
-482.391	-89.042	-0.223	-0.067
-481.376	246.211	0.080	-0.136
-480.362	-177.267	0.273	0.007
-479.347	788.667	-0.087	0.242
-478.332	-200.000	-0.021	-0.105
-477.318	-150.115	0.165	-0.013
-476.303	800.000	0.083	0.275
-475.289	-200.000	-0.029	-0.370
-474.274	304.781	0.054	-0.100
-473.259	59.135	-0.193	-0.192
-472.245	-33.371	-0.182	-0.101
-471.230	800.000	0.131	0.375
-470.216	-172.626	-0.084	0.003
-469.201	112.214	-0.247	-0.301
-468.186	-200.000	-0.019	-0.157
-467.172	-79.886	0.117	0.040
-466.157	45.574	-0.220	-0.205
-465.143	-35.113	0.135	0.074
-464.128	800.000	-0.021	-0.086
-463.113	-200.000	0.017	0.100
-462.099	800.000	0.046	0.129
-461.084	800.000	-0.033	0.095
-460.070	-47.810	-0.211	0.103
-459.055	-56.916	0.293	0.130
-458.040	-17.472	-0.196	0.124
-457.026	-151.232	0.380	-0.029
-456.011	17.507	0.038	0.030
-454.997	800.000	0.099	0.312
-453.982	-99.462	0.453	0.115
-452.968	-109.315	-0.039	-0.008
-451.953	800.000	0.074	0.214
-450.938	-200.000	-0.034	0.332
-449.924	-103.489	0.176	0.042
-448.909	-98.530	-0.246	0.063
-447.895	215.058	-0.064	-0.103
-446.880	-45.553	0.087	0.043
-445.865	142.027	0.103	-0.137
-444.851	343.003	-0.052	0.103
-443.836	800.000	0.082	0.322
-442.822	180.567	-0.170	0.252
-441.807	503.929	0.172	-0.401
-440.792	100.308	-0.023	-0.026
-439.778	800.000	0.019	0.064
-438.763	-200.000	0.027	0.263
-437.749	65.178	-0.262	-0.266
-436.734	199.367	0.149	-0.230
-435.719	290.243	0.111	-0.203
-434.705	344.533	0.224	0.443
-433.690	800.000	0.050	-0.158
-432.676	-15.310	0.285	0.184
-431.661	800.000	0.039	-0.115
-430.646	204.165	-0.123	-0.191
-429.632	-200.000	0.001	0.076
-428.617	-200.000	-0.050	-0.235
-427.603	-200.000	-0.064	0.442
-426.588	800.000	0.081	-0.341
-425.573	-200.000	0.021	0.175
-424.559	800.000	-0.015	-0.046
-423.544	-94.186	0.220	-0.061
-422.530	-102.887	-0.234	0.056
-421.515	37.868	-0.071	0.064
-420.500	-99.722	0.324	0.082
-419.486	-200.000	0.007	0.334
-418.471	228.844	-0.166	0.273
-417.457	-102.166	-0.192	0.047
-416.442	107.888	-0.154	-0.185
-415.428	200.482	-0.201	0.311
-414.413	-26.082	0.368	-0.218
-413.398	768.710	-0.033	0.090
-412.384	-200.000	0.042	0.189
-411.369	226.784	-0.115	0.188
-410.355	-115.695	-0.207	-0.039
-409.340	-23.950	0.102	0.062
-408.325	353.531	0.100	-0.200
-407.311	-95.738	-0.146	-0.039
-406.296	-140.369	0.128	0.013
-405.282	-65.331	0.189	-0.077
-404.267	154.528	-0.075	-0.103
-403.252	-16.256	0.060	-0.038
-402.238	-200.000	-0.024	-0.407
-401.223	-126.084	0.218	-0.033
-400.209	169.228	0.130	-0.187
-399.194	-18.527	-0.058	-0.036
-398.179	42.414	0.201	0.184
-397.165	-52.147	-0.456	-0.213
-396.150	-1.567	-0.147	0.104
-395.136	-0.278	-0.122	-0.087
-394.121	-24.314	-0.292	-0.175
-393.106	-143.471	0.239	-0.023
-392.092	-200.000	-0.024	-0.260
-391.077	-44.527	-0.140	0.070
-390.063	129.292	-0.145	0.187
-389.048	76.721	0.068	0.073
-388.033	260.308	0.061	0.106
-387.019	19.548	-0.198	-0.160
-386.004	525.815	-0.030	-0.070
-384.990	55.862	-0.152	-0.148
-383.975	-107.232	-0.233	-0.052
-382.960	41.160	-0.067	-0.061
-381.946	-94.999	-0.350	-0.095
-380.931	-200.000	-0.030	-0.338
-379.917	-200.000	-0.009	-0.148
-378.902	-200.000	-0.004	0.038
-377.888	-33.948	-0.327	-0.181
-376.873	-200.000	0.041	0.302
-375.858	77.781	0.245	0.263
-374.844	295.977	0.144	0.265
-373.829	505.992	-0.113	-0.264
-372.815	167.491	0.063	-0.090
-371.800	193.921	-0.163	0.248
-370.785	-53.600	-0.196	0.090
-369.771	-99.096	-0.270	0.069
-368.756	-18.594	0.282	-0.177
-367.742	-116.077	-0.234	0.044
-366.727	-200.000	-0.036	-0.181
-365.712	-162.151	0.316	-0.016
-364.698	16.471	0.062	-0.049
-363.683	-35.846	-0.064	-0.035
-362.669	3.231	0.179	0.131
-361.654	-134.817	0.268	-0.033
-360.639	-104.615	-0.145	0.034
-359.625	147.013	0.076	0.103
-358.610	-44.031	-0.152	0.077
-357.596	-55.074	0.074	-0.034
-356.581	160.487	0.051	-0.072
-355.566	-200.000	0.031	-0.148
-354.552	-127.909	-0.392	-0.057
-353.537	59.117	-0.199	0.197
-352.523	-65.809	0.166	0.067
-351.508	48.412	-0.084	0.079
-350.493	-65.188	-0.119	0.048
-349.479	-200.000	0.031	-0.167
-348.464	-92.843	0.354	-0.099
-347.450	-200.000	0.019	-0.260
-346.435	194.324	0.095	-0.145
-345.420	-57.379	-0.464	-0.205
-344.406	-6.209	0.169	-0.116
-343.391	167.819	-0.060	0.086
-342.377	800.000	0.048	-0.136
-341.362	-200.000	0.008	-0.130
-340.348	306.191	0.219	-0.409
-339.333	556.884	0.098	-0.238
-338.318	68.280	-0.018	0.019
-337.304	533.187	0.073	-0.174
-336.289	-34.851	0.120	0.066
-335.275	-200.000	0.057	-0.289
-334.260	800.000	0.067	-0.197
-333.245	800.000	-0.025	-0.106
-332.231	-41.976	0.078	-0.040
-331.216	21.572	0.065	-0.053
-330.202	-138.799	-0.091	0.010
-329.187	-10.767	-0.072	0.048
-328.172	-120.008	0.203	0.035
-327.158	-90.147	0.667	0.195
-326.143	-200.000	0.000	-0.066
-325.129	-200.000	-0.042	0.424
-324.114	79.871	-0.144	-0.155
-323.099	696.898	0.045	-0.119
-322.085	254.273	0.227	0.390
-321.070	-114.390	0.109	-0.021
-320.056	800.000	0.018	-0.051
-319.041	-119.105	-0.090	0.016
-318.026	-137.376	-0.189	-0.022
-317.012	-92.058	-0.245	-0.070
-315.997	-200.000	0.031	0.194
-314.983	284.296	0.125	-0.226
-313.968	-200.000	0.016	0.396
-312.953	121.150	-0.086	0.108
-311.939	-5.270	0.230	-0.159
-310.924	800.000	0.006	-0.023
-309.910	303.737	0.121	0.225
-308.895	3.261	0.263	-0.192
-307.880	534.785	0.095	-0.227
-306.866	330.763	0.082	0.159
-305.851	-66.459	-0.098	-0.039
-304.837	-17.679	0.292	0.184
-303.822	66.117	0.092	0.093
-302.807	210.354	0.090	-0.142
-301.793	-200.000	0.009	-0.084
-300.778	-32.044	0.176	0.099
-299.764	800.000	-0.092	-0.278
-298.749	-192.992	-0.226	0.002
-297.735	-16.197	-0.358	-0.228
-296.720	9.720	-0.270	0.205
-295.705	800.000	-0.090	-0.369
-294.691	100.589	0.087	-0.101
-293.676	-200.000	-0.054	0.375
-292.662	-59.118	0.200	-0.086
-291.647	383.426	-0.079	-0.163
-290.632	10.180	-0.241	-0.183
-289.618	35.339	-0.180	-0.158
-288.603	-200.000	0.021	-0.358
-287.589	440.924	0.143	0.313
-286.574	-64.290	-0.123	-0.050
-285.559	-200.000	-0.004	-0.113
-284.545	-172.744	-0.221	0.007
-283.530	97.807	-0.155	-0.178
-282.516	800.000	-0.128	-0.364
-281.501	190.973	-0.157	0.237
-280.486	-116.062	0.148	0.028
-279.472	-12.846	-0.041	0.027
-278.457	-200.000	0.013	0.353
-277.443	-200.000	0.011	0.090
-276.428	129.889	-0.112	0.143
-275.413	-200.000	-0.045	0.396
-274.399	-118.099	-0.431	-0.077
-273.384	-139.214	-0.122	-0.013
-272.370	439.824	0.087	0.191
-271.355	12.538	-0.162	-0.125
-270.340	92.679	0.152	-0.172
-269.326	218.130	-0.041	-0.066
-268.311	-107.764	-0.177	0.039
-267.297	-103.060	-0.143	0.034
-266.282	340.049	-0.104	-0.204
-265.267	-200.000	0.043	0.479
-264.253	-200.000	-0.033	-0.154
-263.238	28.122	-0.115	-0.097
-262.224	-30.784	0.076	-0.043
-261.209	-51.600	0.157	0.073
-260.195	-200.000	0.015	0.264
-259.180	-77.442	0.126	0.044
-258.165	287.744	-0.058	0.105
-257.151	-75.829	-0.110	-0.039
-256.136	373.315	0.045	-0.091
-255.122	800.000	-0.135	-0.580
-254.107	89.122	0.148	-0.165
-253.092	-200.000	0.015	0.363
-252.078	-104.322	0.255	0.059
-251.063	800.000	0.021	0.066
-250.049	2.532	0.188	0.136
-249.034	-64.714	0.069	0.028
-248.019	-54.982	-0.084	-0.038
-247.005	-167.428	0.233	-0.009
-245.990	0.187	0.181	0.129
-244.976	-121.787	-0.057	0.009
-243.961	57.463	-0.215	0.210
-242.946	-135.376	-0.181	-0.022
-241.932	-64.459	-0.157	-0.064
-240.917	59.406	-0.056	-0.055
-239.903	-200.000	-0.043	-0.472
-238.888	124.785	-0.034	0.043
-237.873	-103.696	0.168	-0.039
-236.859	570.557	-0.088	0.213
-235.844	128.784	0.073	-0.093
-234.830	-1.581	0.313	0.220
-233.815	800.000	-0.044	0.173
-232.800	-36.893	-0.139	0.074
-231.786	-68.345	0.302	-0.117
-230.771	-20.022	-0.367	0.226
-229.757	-90.349	-0.256	-0.074
-228.742	-131.264	0.553	0.073
-227.727	-122.512	0.296	-0.048
-226.713	19.153	0.180	-0.144
-225.698	461.317	0.038	0.084
-224.684	-28.604	-0.362	0.208
-223.669	-65.194	-0.241	-0.097
-222.655	-200.000	0.001	0.202
-221.640	672.080	0.047	-0.123
-220.625	-200.000	0.005	-0.302
-219.611	-53.528	0.155	0.071
-218.596	-30.433	0.344	-0.195
-217.582	-78.537	0.166	-0.057
-216.567	-161.222	0.071	0.004
-215.552	176.364	0.120	0.174
-214.538	88.340	-0.115	0.127
-213.523	717.329	-0.062	-0.165
-212.509	-200.000	-0.002	-0.139
-211.494	-88.164	-0.229	-0.068
-210.479	626.011	-0.090	-0.228
-209.465	-200.000	-0.012	0.410
-208.450	-61.931	0.359	-0.150
-207.436	-21.199	0.126	0.077
-206.421	54.078	0.363	0.348
-205.406	-200.000	0.008	0.069
-204.392	232.941	-0.228	-0.375
-203.377	-53.309	0.090	0.041
-202.363	44.866	0.320	0.294
-201.348	125.240	0.121	0.152
-200.333	800.000	-0.075	-0.233
-199.319	119.896	-0.082	0.101
-198.304	-56.873	-0.259	0.114
-197.290	-200.000	0.050	0.565
-196.275	800.000	-0.030	0.125
-195.260	800.000	0.051	0.192
-194.246	343.502	-0.074	-0.145
-193.231	-66.332	0.082	0.033
-192.217	-200.000	0.016	0.180
-191.202	-137.287	0.086	0.010
-190.187	106.218	0.111	0.131
-189.173	-96.827	-0.229	-0.060
-188.158	-200.000	0.028	0.447
-187.144	678.011	-0.059	-0.153
-186.129	-168.836	0.533	-0.020
-185.114	-200.000	0.029	0.230
-184.100	230.090	0.145	0.236
-183.085	-41.105	-0.119	-0.061
-182.071	-56.361	0.020	-0.009
-181.056	-132.416	-0.320	0.041
-180.042	202.675	0.132	0.204
-179.027	301.633	-0.052	0.096
-178.012	-25.246	-0.166	0.098
-176.998	56.402	0.287	-0.278
-175.983	-175.753	-0.100	-0.003
-174.969	-200.000	0.020	-0.211
-173.954	8.316	-0.247	0.185
-172.939	-112.546	-0.104	0.021
-171.925	549.781	-0.029	-0.070
-170.910	-146.289	0.155	-0.014
-169.896	-37.637	-0.127	-0.067
-168.881	-27.261	-0.144	-0.083
-167.866	-9.607	0.185	0.123
-166.852	434.453	0.074	0.160
-165.837	-7.573	-0.110	0.074
-164.823	-122.890	0.258	0.041
-163.808	9.467	0.122	0.092
-162.793	151.661	0.036	-0.049
-161.779	59.958	0.099	0.098
-160.764	4.239	0.100	-0.073
-159.750	-16.291	-0.209	0.132
-158.735	6.221	-0.108	0.080
-157.720	187.167	0.037	0.055
-156.706	-54.371	0.247	-0.111
-155.691	136.173	-0.209	-0.272
-154.677	384.425	-0.185	0.379
-153.662	-120.465	0.270	-0.046
-152.647	-46.913	-0.130	-0.063
-151.633	165.183	-0.135	0.190
-150.618	800.000	-0.091	0.355
-149.604	475.738	-0.134	-0.301
-148.589	115.017	-0.098	-0.119
-147.574	400.498	0.053	0.112
-146.560	-173.069	-0.405	0.012
-145.545	236.477	-0.248	0.408
-144.531	-200.000	0.021	-0.163
-143.516	-200.000	0.032	-0.307
-142.502	-15.386	-0.284	-0.181
-141.487	800.000	0.043	-0.130
-140.472	-116.145	-0.174	-0.032
-139.458	800.000	0.087	0.296
-138.443	800.000	-0.080	0.238
-137.429	-90.699	0.230	-0.066
-136.414	-117.932	-0.442	-0.079
-135.399	-200.000	0.010	0.239
-134.385	93.585	-0.092	0.104
-133.370	84.643	0.151	0.165
-132.356	-200.000	0.023	0.125
-131.341	800.000	-0.038	-0.149
-130.326	-69.215	-0.101	0.039
-129.312	89.146	0.092	0.102
-128.297	9.454	-0.191	-0.144
-127.283	32.025	-0.094	-0.080
-126.268	56.104	-0.157	0.152
-125.253	-5.570	0.336	0.229
-124.239	-100.140	-0.165	-0.041
-123.224	18.172	0.310	-0.246
-122.210	800.000	-0.056	-0.170
-121.195	-48.881	0.208	0.099
