DTS Sentinel unit serial number:	SN413079Multiplexer serial number:	ORYXHardware model number:	OX4-SRSoftware version number:	ORYX F/W v4.00 Oryx Data Collector v3.7.2.0data status	okinstallation	princeton_trtdifferential loss correction	single-endedforward channel	channel 3reverse channel	N/Adate	2019/09/17time	03:52:34forward acquisition time	60.00reverse acquisition time	0.00gamma	496.2192k internal	0.2323k external	0.2323temperature offset calibration	0.9942default loss term (dB/km)	0.3790temperature slope calibration	1.0000multiplexer offset coefficient	1.0000multiplexer slope coefficient	1.0000fibre end	0.00T internal ref (°C)	29.94T ext. ref 1 (°C)	0.14T ext. ref 2 (°C)	24.45length (m)	temperature (°C)	Stokes	anti-Stokes-747.200	-184.227	-0.268	-0.004
-746.185	654.856	0.037	-0.095
-745.171	138.419	0.209	-0.276
-744.156	208.727	-0.187	-0.296
-743.142	180.807	0.056	0.083
-742.127	-200.000	-0.049	0.281
-741.112	31.967	-0.135	0.117
-740.098	198.005	-0.225	0.347
-739.083	-200.000	0.063	0.383
-738.069	308.203	-0.164	-0.310
-737.054	-200.000	0.036	-0.227
-736.039	-200.000	0.000	-0.246
-735.025	-31.021	-0.165	-0.094
-734.010	-200.000	0.013	0.114
-732.996	-141.258	-0.309	0.032
-731.981	-15.812	-0.474	-0.305
-730.966	24.085	0.158	0.132
-729.952	389.279	0.164	0.344
-728.937	800.000	0.058	0.253
-727.923	151.454	-0.167	0.229
-726.908	81.320	0.057	-0.062
-725.894	-200.000	0.029	0.365
-724.879	-7.612	-0.198	0.135
-723.864	-15.128	-0.405	0.261
-722.850	258.656	0.162	0.282
-721.835	-200.000	-0.003	0.225
-720.821	-51.808	-0.177	0.083
-719.806	-200.000	-0.014	-0.075
-718.791	15.242	-0.291	0.230
-717.777	781.027	0.083	-0.230
-716.762	79.239	-0.137	0.148
-715.748	-200.000	-0.020	0.187
-714.733	-200.000	0.056	0.281
-713.718	-27.834	-0.248	-0.145
-712.704	800.000	-0.144	-0.510
-711.689	29.212	-0.201	-0.172
-710.675	-1.506	-0.364	-0.259
-709.660	-200.000	0.017	-0.136
-708.645	345.521	0.086	-0.171
-707.631	332.359	-0.155	0.302
-706.616	-30.014	0.032	0.019
-705.602	-65.966	0.294	0.118
-704.587	552.535	0.020	-0.048
-703.572	19.573	0.365	-0.296
-702.558	-200.000	-0.003	0.273
-701.543	-105.363	0.424	-0.097
-700.529	-200.000	0.001	-0.049
-699.514	-83.887	0.136	0.044
-698.499	98.257	0.241	-0.279
-697.485	154.985	0.240	0.332
-696.470	-200.000	0.042	-0.205
-695.456	-119.361	0.067	0.012
-694.441	43.841	0.171	0.158
-693.426	-141.796	-0.248	-0.025
-692.412	297.024	0.031	0.057
-691.397	112.746	-0.182	-0.222
-690.383	-113.295	0.102	-0.020
-689.368	-65.688	0.337	0.136
-688.354	-200.000	0.031	-0.347
-687.339	-96.336	0.088	-0.023
-686.324	17.173	-0.270	-0.216
-685.310	12.830	-0.297	-0.231
-684.295	-200.000	-0.036	-0.251
-683.281	-87.381	0.218	-0.067
-682.266	800.000	0.047	-0.189
-681.251	-200.000	0.038	-0.339
-680.237	-200.000	-0.016	-0.094
-679.222	-168.643	0.104	-0.004
-678.208	788.344	-0.028	-0.078
-677.193	-193.566	0.533	0.005
-676.178	-168.426	-0.143	-0.006
-675.164	242.156	-0.072	-0.121
-674.149	383.923	0.060	0.125
-673.135	-29.442	0.130	0.075
-672.120	24.528	-0.142	0.118
-671.105	-200.000	0.080	0.377
-670.091	-21.075	-0.095	0.059
-669.076	-150.521	-0.457	-0.035
-668.062	-156.954	-0.483	0.030
-667.047	68.003	-0.229	-0.236
-666.032	-84.735	-0.210	-0.067
-665.018	-13.279	0.388	-0.254
-664.003	269.363	-0.115	-0.203
-662.989	800.000	0.018	0.060
-661.974	741.358	0.073	0.196
-660.959	-200.000	0.018	-0.089
-659.945	23.943	-0.142	0.118
-658.930	-124.585	0.214	0.033
-657.916	649.462	0.085	-0.220
-656.901	800.000	-0.098	0.317
-655.886	-61.575	-0.315	0.133
-654.872	-68.155	0.126	-0.049
-653.857	800.000	0.046	0.137
-652.843	61.999	-0.137	0.137
-651.828	-120.590	-0.157	-0.027
-650.814	-65.376	-0.283	0.114
-649.799	-200.000	0.018	-0.254
-648.784	-54.941	0.110	0.050
-647.770	36.832	-0.229	-0.203
-646.755	305.486	-0.156	-0.291
-645.741	-51.503	0.219	-0.103
-644.726	-44.427	0.473	-0.238
-643.711	178.730	0.119	-0.175
-642.697	-129.262	-0.323	0.045
-641.682	-19.224	0.095	-0.059
-640.668	-99.327	0.299	0.076
-639.653	508.457	-0.058	0.136
-638.638	357.049	-0.077	-0.153
-637.624	33.262	-0.189	-0.165
-636.609	193.866	0.188	0.286
-635.595	152.095	-0.187	-0.256
-634.580	800.000	-0.055	-0.225
-633.565	-108.397	-0.070	0.015
-632.551	-109.920	0.502	0.106
-631.536	157.227	-0.149	0.207
-630.522	-200.000	0.006	-0.089
-629.507	-84.995	0.298	0.094
-628.492	48.041	-0.190	-0.179
-627.478	492.325	-0.065	0.150
-626.463	-24.026	-0.115	0.069
-625.449	-129.489	-0.191	-0.027
-624.434	-141.569	-0.402	0.041
-623.419	-50.904	0.305	0.144
-622.405	800.000	-0.027	0.087
-621.390	800.000	0.032	-0.100
-620.376	249.431	0.019	-0.032
-619.361	48.987	0.243	-0.230
-618.346	-160.037	0.076	-0.004
-617.332	-200.000	0.002	0.158
-616.317	-200.000	-0.002	-0.089
-615.303	144.667	0.110	-0.147
-614.288	-64.262	-0.341	-0.140
-613.273	-109.331	-0.239	0.051
-612.259	-50.829	-0.149	-0.070
-611.244	-24.133	-0.168	-0.101
-610.230	-111.647	-0.402	0.082
-609.215	-30.417	-0.089	-0.051
-608.201	-148.505	0.098	0.008
-607.186	-71.865	0.350	0.131
-606.171	-90.250	0.323	0.094
-605.157	-200.000	-0.007	-0.099
-604.142	89.737	-0.106	-0.119
-603.128	39.316	0.055	-0.049
-602.113	102.927	-0.120	0.141
-601.098	-25.942	-0.153	-0.090
-600.084	-98.688	0.423	-0.108
-599.069	-148.764	-0.211	0.017
-598.055	197.250	-0.053	0.081
-597.040	152.386	-0.057	-0.078
-596.025	-131.226	-0.407	-0.054
-595.011	222.314	0.186	-0.301
-593.996	-200.000	-0.015	0.278
-592.982	800.000	0.055	-0.178
-591.967	-200.000	0.006	0.368
-590.952	145.443	-0.054	-0.073
-589.938	235.747	0.079	-0.131
-588.923	-73.516	-0.135	-0.049
-587.909	-200.000	-0.050	-0.372
-586.894	-33.470	0.156	0.086
-585.879	800.000	-0.042	-0.149
-584.865	-200.000	0.010	0.345
-583.850	-149.170	-0.303	-0.024
-582.836	495.380	0.144	-0.333
-581.821	-74.058	-0.213	0.078
-580.806	347.773	0.097	-0.191
-579.792	504.536	-0.132	0.306
-578.777	-137.098	0.328	-0.038
-577.763	-47.892	-0.157	-0.077
-576.748	-106.570	-0.261	-0.058
-575.733	-90.841	-0.323	-0.093
-574.719	-200.000	0.010	-0.166
-573.704	-160.042	0.204	0.011
-572.690	-200.000	-0.001	-0.027
-571.675	-64.741	0.416	0.169
-570.661	430.211	-0.049	-0.105
-569.646	-132.534	-0.133	0.017
-568.631	-32.887	-0.306	0.170
-567.617	-22.522	-0.267	0.162
-566.602	20.231	0.155	0.125
-565.588	197.164	0.025	-0.038
-564.573	26.335	-0.164	-0.137
-563.558	568.614	0.045	-0.109
-562.544	-138.901	-0.338	0.037
-561.529	-200.000	-0.058	-0.288
-560.515	153.674	-0.171	-0.235
-559.500	-52.339	0.323	-0.150
-558.485	-200.000	0.042	-0.224
-557.471	31.494	0.135	0.116
-556.456	339.450	0.106	-0.207
-555.442	-23.164	-0.239	-0.144
-554.427	-200.000	-0.021	-0.327
-553.412	31.697	0.096	0.083
-552.398	800.000	-0.056	0.242
-551.383	7.805	-0.148	0.111
-550.369	122.015	-0.205	-0.257
-549.354	-200.000	0.065	0.297
-548.339	212.766	0.023	0.036
-547.325	-1.991	-0.179	0.126
-546.310	14.671	-0.237	0.186
-545.296	595.006	0.061	-0.152
-544.281	800.000	0.069	0.202
-543.266	-186.531	-0.124	-0.002
-542.252	-12.950	0.140	0.092
-541.237	-159.481	0.075	0.004
-540.223	-200.000	0.005	0.072
-539.208	-27.050	0.179	-0.105
-538.193	-39.681	0.130	0.068
-537.179	477.835	0.093	-0.210
-536.164	350.944	0.191	0.379
-535.150	800.000	0.036	-0.101
-534.135	-109.623	0.220	-0.046
-533.121	800.000	0.096	-0.275
-532.106	185.844	0.192	-0.286
-531.091	426.335	-0.065	-0.141
-530.077	343.557	0.116	0.227
-529.062	800.000	-0.181	0.534
-528.048	-102.099	0.307	-0.074
-527.033	-7.341	0.143	0.097
-526.018	97.968	-0.118	0.136
-525.004	-5.603	0.135	-0.093
-523.989	-19.588	-0.435	-0.270
-522.975	-200.000	0.040	-0.294
-521.960	83.091	0.173	0.188
-520.945	23.785	-0.131	-0.108
-519.931	107.864	-0.171	-0.204
-518.916	-200.000	-0.012	0.075
-517.902	-200.000	0.068	0.389
-516.887	-89.895	0.476	-0.139
-515.872	-79.032	-0.196	0.067
-514.858	144.084	-0.041	-0.055
-513.843	-142.171	0.187	-0.019
-512.829	-200.000	-0.043	-0.229
-511.814	583.873	-0.015	-0.037
-510.799	-61.897	0.260	-0.109
-509.785	-58.576	-0.151	0.066
-508.770	112.860	-0.126	0.152
-507.756	-160.429	0.524	0.028
-506.741	-32.882	0.350	-0.195
-505.726	22.662	-0.262	0.214
-504.712	-78.402	-0.055	-0.019
-503.697	800.000	-0.039	0.129
-502.683	-200.000	0.024	0.348
-501.668	10.238	-0.215	-0.164
-500.653	-200.000	0.153	0.001
-499.639	-200.000	0.001	-0.104
-498.624	16.788	-0.112	-0.089
-497.610	800.000	0.050	0.169
-496.595	118.582	-0.020	0.024
-495.581	8.898	0.111	-0.084
-494.566	800.000	0.031	0.114
-493.551	-135.595	0.208	0.025
-492.537	800.000	0.081	0.252
-491.522	800.000	0.095	-0.362
-490.508	-73.466	0.158	-0.058
-489.493	-200.000	-0.008	-0.131
-488.478	-144.316	0.231	-0.021
-487.464	-98.128	-0.221	-0.057
-486.449	-48.181	0.489	-0.236
-485.435	-200.000	-0.013	0.141
-484.420	181.030	0.087	-0.127
-483.405	-21.470	0.125	0.076
-482.391	39.933	0.112	-0.100
-481.376	-89.614	0.186	0.055
-480.362	-82.342	0.272	-0.089
-479.347	-48.156	0.068	0.033
-478.332	694.296	0.077	-0.202
-477.318	252.999	-0.222	-0.379
-476.303	-44.516	-0.094	-0.047
-475.289	45.201	0.142	-0.131
-474.274	-65.726	-0.307	-0.123
-473.259	374.978	-0.096	0.196
-472.245	242.463	0.191	-0.319
-471.230	800.000	-0.128	-0.359
-470.216	-92.079	-0.099	0.028
-469.201	-200.000	-0.012	0.082
-468.186	344.986	0.035	-0.068
-467.172	-42.981	0.138	-0.070
-466.157	-200.000	0.003	0.031
-465.143	184.425	0.136	0.201
-464.128	93.441	0.187	-0.212
-463.113	2.184	-0.359	0.259
-462.099	-200.000	0.034	0.167
-461.084	-200.000	0.051	-0.322
-460.070	-34.704	0.223	-0.122
-459.055	-46.040	0.114	0.056
-458.040	38.531	0.188	-0.168
-457.026	41.599	0.127	0.115
-456.011	-200.000	0.033	0.265
-454.997	-1.123	-0.141	-0.100
-453.982	185.697	-0.115	0.170
-452.968	319.426	-0.049	0.094
-451.953	-128.718	-0.309	-0.044
-450.938	3.249	-0.226	0.164
-449.924	-161.222	0.112	0.006
-448.909	-109.231	0.125	-0.027
-447.895	-50.233	-0.214	-0.101
-446.880	791.660	-0.136	0.374
-445.865	800.000	-0.077	-0.246
-444.851	-59.046	-0.349	0.150
-443.836	-74.428	-0.135	0.049
-442.822	800.000	-0.047	0.160
-441.807	-24.871	-0.178	0.106
-440.792	-186.791	0.210	0.003
-439.778	-1.767	-0.184	0.130
-438.763	-2.430	-0.135	0.094
-437.749	800.000	-0.067	-0.258
-436.734	-92.370	-0.128	0.036
-435.719	-200.000	0.032	0.452
-434.705	161.955	0.077	-0.107
-433.690	-97.589	0.074	-0.019
-432.676	800.000	0.053	-0.150
-431.661	181.690	-0.104	-0.153
-430.646	42.152	-0.148	0.134
-429.632	-200.000	0.008	0.227
-428.617	-56.225	0.180	0.080
-427.603	226.501	0.257	-0.416
-426.588	-200.000	0.034	0.198
-425.573	-161.584	0.139	-0.007
-424.559	-200.000	-0.013	0.193
-423.544	-2.435	0.354	0.247
-422.530	-114.354	-0.152	-0.029
-421.515	-89.291	-0.098	0.029
-420.500	-200.000	-0.028	0.149
-419.486	-4.515	-0.293	-0.202
-418.471	-67.649	0.468	0.183
-417.457	-200.000	0.022	-0.308
-416.442	232.221	-0.037	0.061
-415.428	-166.877	-0.535	-0.022
-414.413	-68.268	0.207	0.080
-413.398	-107.541	0.342	0.075
-412.384	-200.000	-0.004	-0.024
-411.369	-47.995	-0.116	0.056
-410.355	-200.000	0.037	0.459
-409.340	425.510	-0.055	-0.119
-408.325	-200.000	0.002	-0.068
-407.311	-148.119	-0.252	0.021
-406.296	-155.984	0.275	-0.017
-405.282	-24.443	0.144	0.085
-404.267	15.756	-0.137	0.107
-403.252	104.561	0.191	-0.224
-402.238	-3.118	-0.151	0.105
-401.223	-35.592	0.490	-0.265
-400.209	-96.322	0.080	0.021
-399.194	-121.811	-0.143	0.024
-398.179	-93.421	0.328	0.091
-397.165	14.354	0.087	-0.068
-396.150	77.346	0.172	0.183
-395.136	-16.462	-0.551	-0.348
-394.121	-200.000	-0.013	0.086
-393.106	360.564	-0.034	-0.069
-392.092	94.468	0.285	0.323
-391.077	-99.989	-0.175	0.044
-390.063	114.658	0.094	0.114
-389.048	407.415	-0.054	0.113
-388.033	-107.148	0.125	0.027
-387.019	-104.455	-0.238	0.055
-386.004	-127.432	0.192	0.028
-384.990	308.714	-0.045	-0.083
-383.975	-167.566	0.150	-0.006
-382.960	174.528	-0.188	0.270
-381.946	101.069	-0.023	0.026
-380.931	10.910	-0.107	-0.082
-379.917	-47.907	0.287	0.138
-378.902	131.778	-0.136	0.174
-377.888	-122.800	0.138	0.022
-376.873	-102.623	0.225	0.053
-375.858	-24.395	0.322	0.191
-374.844	152.760	-0.171	0.232
-373.829	-13.957	0.380	0.244
-372.815	204.594	-0.144	0.222
-371.800	-40.217	-0.130	-0.067
-370.785	-130.238	-0.189	-0.026
-369.771	-200.000	0.027	0.203
-368.756	314.816	-0.167	0.312
-367.742	-200.000	-0.030	0.217
-366.727	-200.000	0.091	-0.432
-365.712	-200.000	0.009	0.412
-364.698	304.036	0.194	-0.358
-363.683	3.717	-0.115	0.084
-362.669	326.682	-0.105	-0.200
-361.654	800.000	-0.084	-0.265
-360.639	-114.014	0.144	0.028
-359.625	-200.000	-0.026	-0.189
-358.610	154.817	0.036	-0.050
-357.596	-53.104	0.062	0.028
-356.581	-140.410	0.300	-0.031
-355.566	501.246	-0.060	0.138
-354.552	-75.385	0.243	0.086
-353.537	-200.000	0.023	-0.130
-352.523	-70.640	-0.198	0.075
-351.508	-200.000	-0.049	-0.368
-350.493	-95.666	0.211	-0.056
-349.479	-200.000	0.068	-0.325
-348.464	90.651	-0.074	-0.082
-347.450	362.516	0.158	0.315
-346.435	-56.396	0.202	-0.089
-345.420	-62.620	0.223	-0.092
-344.406	178.129	0.153	-0.221
-343.391	-61.569	-0.088	0.037
-342.377	49.452	0.078	0.073
-341.362	680.935	0.076	0.196
-340.348	451.306	0.127	-0.279
-339.333	-53.257	-0.271	-0.123
-338.318	-66.091	0.074	0.029
-337.304	800.000	0.063	-0.226
-336.289	-138.350	0.292	0.032
-335.275	-91.685	-0.287	-0.081
-334.260	212.869	0.111	0.174
-333.245	44.962	-0.061	0.056
-332.231	-80.503	-0.199	0.066
-331.216	31.598	-0.301	0.257
-330.202	-70.607	0.085	0.032
-329.187	800.000	-0.053	0.202
-328.172	-51.680	-0.194	0.090
-327.158	-70.187	0.253	0.096
-326.143	-31.894	-0.324	0.181
-325.129	-200.000	0.008	0.133
-324.114	-94.868	-0.254	-0.069
-323.099	31.546	-0.209	-0.178
-322.085	21.742	-0.249	-0.201
-321.070	-200.000	0.075	0.347
-320.056	800.000	0.096	0.378
-319.041	47.992	-0.090	-0.083
-318.026	-180.871	0.213	-0.004
-317.012	435.543	0.081	-0.176
-315.997	-200.000	0.041	0.380
-314.983	-109.909	-0.452	-0.094
-313.968	650.730	-0.094	0.239
-312.953	-9.124	0.222	-0.148
-311.939	-63.166	-0.097	0.040
-310.924	43.999	-0.167	-0.152
-309.910	231.583	0.115	-0.187
-308.895	800.000	-0.079	0.258
-307.880	-55.345	-0.225	-0.100
-306.866	800.000	-0.050	-0.142
-305.851	0.632	-0.311	0.221
-304.837	64.983	-0.142	-0.142
-303.822	16.929	-0.194	0.153
-302.807	429.611	0.028	-0.059
-301.793	800.000	-0.051	-0.183
-300.778	110.340	0.034	-0.040
-299.764	800.000	-0.085	-0.333
-298.749	-93.044	-0.285	0.079
-297.735	-200.000	0.044	-0.371
-296.720	-200.000	-0.004	0.105
-295.705	6.946	-0.138	0.102
-294.691	-35.332	-0.239	0.129
-293.676	800.000	0.075	0.286
-292.662	800.000	-0.034	-0.097
-291.647	-116.248	-0.346	0.064
-290.632	131.489	-0.085	-0.109
-289.618	-52.584	0.274	-0.126
-288.603	-200.000	0.018	0.133
-287.589	140.339	-0.003	-0.004
-286.574	54.004	0.227	0.216
-285.559	-76.758	-0.111	-0.039
-284.545	-200.000	-0.023	0.207
-283.530	-87.651	-0.259	-0.078
-282.516	105.455	0.122	-0.143
-281.501	-125.716	0.121	-0.018
-280.486	800.000	-0.098	0.325
-279.472	-45.329	-0.113	0.056
-278.457	269.359	-0.144	-0.250
-277.443	-134.414	-0.377	0.046
-276.428	-23.446	0.226	-0.135
-275.413	317.778	-0.210	0.394
-274.399	336.096	0.108	0.207
-273.384	81.767	0.113	0.122
-272.370	-111.826	-0.026	0.005
-271.355	49.372	0.039	0.037
-270.340	800.000	-0.007	0.030
-269.326	156.028	-0.142	-0.194
-268.311	800.000	-0.112	-0.372
-267.297	800.000	-0.067	0.219
-266.282	-113.295	-0.696	0.136
-265.267	40.355	0.045	0.040
-264.253	156.383	-0.195	-0.267
-263.238	-155.465	0.136	-0.009
-262.224	26.096	0.235	-0.194
-261.209	800.000	0.051	-0.147
-260.195	117.096	-0.133	-0.162
-259.180	-48.692	0.380	0.181
-258.165	-74.990	-0.308	-0.109
-257.151	152.835	0.170	-0.230
-256.136	-34.559	0.169	-0.092
-255.122	272.038	0.133	0.232
-254.107	14.516	0.251	-0.194
-253.092	788.979	0.060	0.165
-252.078	292.852	0.159	0.287
-251.063	800.000	-0.076	0.299
-250.049	248.383	-0.074	-0.124
-249.034	23.308	0.194	0.158
-248.019	-200.000	-0.004	-0.257
-247.005	28.076	0.278	-0.233
-245.990	-200.000	0.041	-0.179
-244.976	-69.355	0.300	-0.114
-243.961	201.581	-0.168	-0.256
-242.946	4.616	0.125	-0.091
-241.932	-16.466	-0.100	-0.063
-240.917	89.856	0.065	0.071
-239.903	-41.973	0.208	0.105
-238.888	140.382	0.217	-0.284
-237.873	-4.371	-0.384	0.263
-236.859	242.701	-0.134	-0.222
-235.844	283.973	-0.293	-0.522
-234.830	49.680	-0.135	0.125
-233.815	800.000	-0.018	0.061
-232.800	800.000	-0.083	0.358
-231.786	23.411	0.044	0.035
-230.771	144.907	-0.153	0.202
-229.757	339.551	-0.082	-0.159
-228.742	66.858	0.153	0.154
-227.727	182.144	0.185	0.269
-226.713	-78.844	-0.137	0.046
-225.698	-30.691	-0.118	0.066
-224.684	148.075	-0.162	0.216
-223.669	26.217	0.210	-0.174
-222.655	479.054	-0.031	-0.069
-221.640	-200.000	0.047	-0.228
-220.625	-200.000	0.034	-0.180
-219.611	-90.386	0.187	-0.054
-218.596	-200.000	0.018	-0.103
-217.582	-92.686	-0.284	0.079
-216.567	-131.734	0.135	-0.017
-215.552	800.000	-0.055	-0.228
-214.538	800.000	-0.045	0.147
-213.523	-200.000	0.050	-0.291
-212.509	-4.258	0.130	0.089
-211.494	-111.278	0.204	-0.041
-210.479	-169.301	0.167	-0.006
-209.465	-40.645	-0.252	-0.129
-208.450	100.099	0.047	-0.054
-207.436	-128.660	-0.239	0.033
-206.421	-44.949	-0.159	0.078
-205.406	265.647	0.091	0.156
-204.392	30.253	-0.077	-0.065
-203.377	285.401	-0.037	-0.067
-202.363	-158.253	-0.239	0.014
-201.348	-200.000	-0.011	0.134
-200.333	800.000	0.063	0.212
-199.319	-200.000	0.004	0.118
-198.304	313.158	0.152	0.282
-197.290	323.958	-0.109	-0.206
-196.275	-76.751	-0.294	-0.102
-195.260	-180.448	0.269	-0.006
-194.246	10.789	0.251	0.190
-193.231	800.000	-0.088	0.290
-192.217	166.414	0.228	-0.319
-191.202	142.868	0.130	-0.171
-190.187	64.435	-0.213	0.213
-189.173	93.325	0.116	-0.130
-188.158	-47.688	0.040	-0.019
-187.144	800.000	-0.069	-0.205
-186.129	800.000	0.060	0.211
-185.114	-157.517	-0.162	0.010
-184.100	-27.828	0.149	0.085
-183.085	-107.840	0.167	0.036
-182.071	-200.000	0.017	0.134
-181.056	-168.840	0.284	-0.011
-180.042	675.354	-0.117	0.301
-179.027	800.000	-0.069	-0.282
-178.012	-34.881	0.130	-0.070
-176.998	10.220	-0.249	-0.187
-175.983	800.000	0.048	-0.190
-174.969	-200.000	0.054	0.420
-173.954	-195.438	-0.083	0.001
-172.939	4.926	0.084	0.061
-171.925	-200.000	0.248	0.001
-170.910	741.773	-0.017	-0.044
-169.896	-126.403	-0.141	0.021
-168.881	-70.838	0.111	0.041
-167.866	800.000	0.097	0.280
-166.852	-195.029	0.181	-0.001
-165.837	354.137	-0.143	0.280
-164.823	-200.000	0.021	-0.220
-163.808	-75.270	0.210	-0.074
-162.793	-68.666	-0.158	-0.060
-161.779	283.427	0.096	0.171
-160.764	-92.390	0.039	-0.011
-159.750	800.000	-0.073	-0.250
-158.735	321.933	-0.041	0.077
-157.720	114.799	-0.092	-0.110
-156.706	60.918	-0.227	0.223
-155.691	586.139	0.154	0.375
-154.677	-200.000	-0.095	0.419
-153.662	-58.569	-0.149	0.064
-152.647	-9.286	0.271	0.179
-151.633	-14.036	-0.363	-0.231
-150.618	-110.423	0.185	-0.038
-149.604	-200.000	0.028	0.261
-148.589	-112.911	0.184	0.036
-147.574	3.238	0.062	-0.044
-146.560	128.044	-0.079	-0.099
-145.545	800.000	0.106	0.401
-144.531	-120.448	-0.151	0.025
-143.516	-66.408	0.278	-0.109
-142.502	172.535	-0.261	0.370
-141.487	-18.215	-0.208	0.128
-140.472	-71.408	0.148	0.055
-139.458	512.930	0.105	-0.242
-138.443	-98.416	-0.046	-0.012
-137.429	-67.633	0.153	-0.059
-136.414	-200.000	0.012	0.187
-135.399	800.000	0.055	0.153
-134.385	-200.000	0.017	-0.179
-133.370	-121.566	-0.438	-0.072
-132.356	-200.000	-0.052	0.300
-131.341	-141.029	-0.225	0.023
-130.326	-67.321	0.225	-0.087
-129.312	-68.628	0.075	-0.029
-128.297	-116.387	0.280	0.051
-127.283	800.000	-0.019	-0.071
-126.268	263.693	-0.086	0.147
-125.253	125.245	-0.032	0.040
-124.239	-94.810	-0.205	0.055
-123.224	448.868	0.085	0.185
-122.210	-180.535	0.137	0.003
-121.195	263.485	-0.040	0.069
