DTS Sentinel unit serial number:	SN413079Multiplexer serial number:	ORYXHardware model number:	OX4-SRSoftware version number:	ORYX F/W v4.00 Oryx Data Collector v3.7.2.0data status	okinstallation	princeton_trtdifferential loss correction	single-endedforward channel	channel 3reverse channel	N/Adate	2019/09/12time	12:42:11forward acquisition time	60.00reverse acquisition time	0.00gamma	496.2192k internal	0.2291k external	0.2291temperature offset calibration	1.0042default loss term (dB/km)	0.3790temperature slope calibration	1.0000multiplexer offset coefficient	1.0000multiplexer slope coefficient	1.0000fibre end	0.00T internal ref (°C)	40.50T ext. ref 1 (°C)	2.02T ext. ref 2 (°C)	37.30length (m)	temperature (°C)	Stokes	anti-Stokes-747.200	219.185	-0.029	-0.047
-746.185	41.866	0.130	0.120
-745.171	-62.886	0.072	0.030
-744.156	213.545	-0.128	0.207
-743.142	319.064	-0.112	-0.217
-742.127	-56.000	-0.101	0.046
-741.112	-184.800	-0.282	-0.005
-740.098	177.430	0.081	0.120
-739.083	247.047	0.177	-0.306
-738.069	-200.000	0.039	-0.221
-737.054	-89.813	0.247	0.074
-736.039	-121.279	-0.439	0.075
-735.025	-200.000	0.006	0.029
-734.010	-200.000	0.012	0.426
-732.996	20.601	-0.100	-0.083
-731.981	93.443	-0.166	0.192
-730.966	139.961	0.158	0.213
-729.952	4.636	0.143	-0.107
-728.937	-70.560	0.173	-0.067
-727.923	11.184	-0.259	-0.203
-726.908	82.414	-0.084	0.094
-725.894	-51.054	-0.321	0.154
-724.879	-36.220	0.201	-0.111
-723.864	-48.255	-0.119	0.059
-722.850	-90.278	-0.307	-0.091
-721.835	-9.418	-0.166	0.113
-720.821	280.685	0.122	0.223
-719.806	800.000	0.036	0.122
-718.791	-128.308	-0.225	0.033
-717.777	-200.000	0.015	-0.220
-716.762	-79.509	-0.321	-0.111
-715.748	-126.389	0.104	-0.016
-714.733	-93.552	-0.164	0.046
-713.718	52.012	0.094	-0.091
-712.704	-200.000	0.044	-0.210
-711.689	-200.000	0.020	-0.093
-710.675	-119.980	0.062	0.011
-709.660	-106.115	-0.178	0.041
-708.645	-183.698	0.110	-0.002
-707.631	67.674	-0.170	-0.177
-706.616	493.845	-0.166	0.390
-705.602	300.735	-0.097	0.183
-704.587	-76.576	-0.253	-0.091
-703.572	-200.000	-0.007	-0.121
-702.558	181.990	0.108	-0.162
-701.543	41.854	-0.142	0.131
-700.529	167.116	0.145	-0.211
-699.514	-152.099	-0.069	0.005
-698.499	-40.243	-0.252	-0.134
-697.485	75.931	0.152	-0.164
-696.470	215.048	-0.061	-0.099
-695.456	-13.709	-0.161	0.106
-694.441	-161.041	0.028	0.001
-693.426	514.297	-0.055	-0.131
-692.412	-200.000	-0.010	0.090
-691.397	15.008	-0.092	-0.073
-690.383	157.594	-0.183	0.258
-689.368	-200.000	0.001	-0.112
-688.354	-200.000	0.011	-0.158
-687.339	-200.000	-0.009	0.245
-686.324	800.000	0.025	0.108
-685.310	82.700	0.097	-0.107
-684.295	18.619	-0.309	-0.253
-683.281	34.782	-0.182	-0.163
-682.266	-68.108	0.277	0.110
-681.251	9.506	-0.186	0.144
-680.237	-166.392	-0.591	0.025
-679.222	166.738	-0.108	0.156
-678.208	146.899	-0.146	-0.201
-677.193	-8.606	0.186	-0.128
-676.178	-200.000	0.052	0.259
-675.164	-116.757	0.356	-0.067
-674.149	-200.000	0.033	-0.256
-673.135	-42.518	0.193	0.101
-672.120	-22.313	0.155	0.096
-671.105	-61.082	-0.255	0.110
-670.091	42.581	-0.090	-0.084
-669.076	800.000	-0.088	-0.299
-668.062	91.719	-0.192	-0.220
-667.047	487.889	0.109	0.254
-666.032	-60.207	0.199	-0.086
-665.018	55.488	-0.388	0.384
-664.003	-78.994	0.135	-0.047
-662.989	-56.137	0.047	-0.021
-661.974	-200.000	-0.036	-0.488
-660.959	-93.405	0.411	-0.116
-659.945	800.000	0.029	0.118
-658.930	156.121	0.071	-0.100
-657.916	537.731	0.101	0.246
-656.901	-112.039	-0.174	-0.036
-655.886	-200.000	-0.029	-0.202
-654.872	-139.666	0.249	0.027
-653.857	110.783	0.236	-0.289
-652.843	19.240	0.076	0.063
-651.828	106.017	-0.076	-0.091
-650.814	800.000	-0.040	-0.147
-649.799	384.366	-0.119	-0.250
-648.784	-74.998	-0.171	0.063
-647.770	117.651	0.161	0.203
-646.755	126.563	-0.061	0.079
-645.741	56.246	-0.297	-0.295
-644.726	-44.751	-0.393	-0.200
-643.711	-19.576	0.323	-0.204
-642.697	-123.332	-0.183	0.030
-641.682	68.672	-0.073	0.076
-640.668	-8.248	-0.182	-0.125
-639.653	-40.460	-0.074	-0.039
-638.638	-156.000	-0.116	-0.007
-637.624	-130.580	0.345	0.047
-636.609	800.000	-0.115	0.420
-635.595	-79.584	0.315	0.109
-634.580	-200.000	0.000	-0.155
-633.565	196.254	-0.076	0.118
-632.551	14.342	-0.169	0.135
-631.536	551.986	-0.041	-0.101
-630.522	-181.179	0.238	0.005
-629.507	453.747	0.075	0.170
-628.492	-140.415	0.079	-0.008
-627.478	-200.000	0.023	0.134
-626.463	-200.000	0.019	-0.203
-625.449	764.174	-0.011	0.031
-624.434	-200.000	-0.006	-0.200
-623.419	-74.707	0.410	-0.150
-622.405	-200.000	-0.019	-0.216
-621.390	175.115	-0.138	0.204
-620.376	693.893	0.042	-0.112
-619.361	-33.849	-0.378	-0.212
-618.346	800.000	0.046	-0.182
-617.332	-200.000	-0.008	-0.134
-616.317	-31.284	0.427	0.245
-615.303	800.000	-0.073	0.237
-614.288	-98.693	-0.370	0.096
-613.273	77.682	0.082	-0.089
-612.259	0.192	-0.237	-0.173
-611.244	38.768	-0.215	-0.195
-610.230	-28.317	0.242	-0.142
-609.215	800.000	0.064	-0.199
-608.201	19.083	-0.174	-0.142
-607.186	-68.043	-0.220	0.087
-606.171	-200.000	-0.019	0.172
-605.157	-200.000	-0.025	-0.139
-604.142	-136.842	-0.083	0.010
-603.128	1.202	0.143	0.105
-602.113	304.814	0.107	0.203
-601.098	60.065	0.256	-0.258
-600.084	-200.000	-0.041	-0.218
-599.069	-81.462	0.085	-0.028
-598.055	-200.000	0.046	0.300
-597.040	301.346	-0.038	-0.071
-596.025	-22.454	-0.069	-0.042
-595.011	-105.267	0.112	0.026
-593.996	87.283	-0.160	-0.181
-592.982	25.556	-0.101	-0.086
-591.967	800.000	0.071	0.207
-590.952	281.669	-0.129	-0.235
-589.938	-200.000	0.011	-0.188
-588.923	97.108	-0.137	0.160
-587.909	-200.000	-0.024	0.184
-586.894	-41.807	0.269	0.140
-585.879	758.667	-0.023	0.064
-584.865	-200.000	0.021	0.104
-583.850	-66.354	0.126	0.051
-582.836	235.109	-0.085	-0.143
-581.821	380.275	0.072	0.150
-580.806	13.718	-0.137	-0.109
-579.792	-200.000	0.057	0.319
-578.777	-113.656	-0.256	0.051
-577.763	-200.000	0.004	0.160
-576.748	-200.000	-0.049	0.457
-575.733	-23.862	0.297	-0.181
-574.719	800.000	-0.022	0.064
-573.704	106.501	-0.110	-0.133
-572.690	800.000	-0.094	0.339
-571.675	-150.485	-0.503	0.039
-570.661	110.535	-0.046	0.056
-569.646	-200.000	-0.017	-0.117
-568.631	-15.375	-0.239	0.155
-567.617	6.982	-0.215	-0.163
-566.602	88.827	-0.101	-0.115
-565.588	2.171	0.191	0.141
-564.573	18.689	0.135	-0.110
-563.558	110.192	-0.058	0.071
-562.544	-14.921	-0.157	-0.103
-561.529	800.000	0.062	0.269
-560.515	13.555	-0.108	0.086
-559.500	207.243	0.207	-0.328
-558.485	3.802	-0.140	-0.104
-557.471	26.568	0.086	0.073
-556.456	-150.945	-0.193	-0.015
-555.442	7.696	0.342	-0.260
-554.427	-101.116	-0.177	-0.044
-553.412	85.013	0.183	-0.203
-552.398	-100.152	-0.151	0.038
-551.383	166.015	0.225	0.324
-550.369	-95.333	0.250	0.068
-549.354	-68.963	0.125	0.049
-548.339	-200.000	-0.017	0.143
-547.325	-1.449	-0.085	-0.061
-546.310	-60.398	-0.062	0.027
-545.296	-200.000	-0.007	-0.085
-544.281	170.139	-0.197	0.286
-543.266	-71.614	0.253	-0.096
-542.252	134.161	0.119	0.157
-541.237	44.201	0.208	-0.194
-540.223	55.307	0.186	0.183
-539.208	271.025	-0.234	0.419
-538.193	-34.111	0.156	-0.087
-537.179	-131.344	0.348	-0.047
-536.164	-200.000	0.021	-0.301
-535.150	-121.213	-0.233	-0.040
-534.135	700.222	0.127	0.339
-533.121	-200.000	0.040	0.336
-532.106	-87.020	-0.234	-0.072
-531.091	800.000	-0.086	0.289
-530.077	800.000	-0.101	0.420
-529.062	-6.129	-0.177	0.123
-528.048	5.879	0.082	-0.061
-527.033	-200.000	0.021	0.285
-526.018	-138.743	0.205	0.023
-525.004	-168.842	-0.204	-0.008
-523.989	800.000	-0.062	0.204
-522.975	20.965	0.031	0.026
-521.960	-82.087	0.071	-0.024
-520.945	128.172	0.178	-0.230
-519.931	85.038	-0.214	0.238
-518.916	-200.000	0.066	-0.334
-517.902	27.269	-0.320	-0.273
-516.887	-200.000	-0.006	0.096
-515.872	41.111	-0.016	-0.015
-514.858	73.562	0.087	0.092
-513.843	134.361	-0.137	0.181
-512.829	596.895	-0.069	-0.173
-511.814	-108.952	0.092	0.020
-510.799	-12.136	0.126	0.083
-509.785	-150.085	-0.282	-0.022
-508.770	139.592	-0.262	-0.350
-507.756	-26.965	0.126	-0.075
-506.741	-200.000	0.055	-0.291
-505.726	-51.789	-0.173	0.082
-504.712	-200.000	-0.004	0.080
-503.697	-200.000	-0.017	-0.083
-502.683	-200.000	-0.014	-0.166
-501.668	-200.000	-0.017	0.174
-500.653	-35.264	-0.311	0.172
-499.639	19.627	-0.215	-0.175
-498.624	94.511	-0.137	0.158
-497.610	-40.846	-0.318	0.167
-496.595	-200.000	-0.028	0.163
-495.581	-51.527	-0.171	-0.081
-494.566	193.831	-0.019	-0.030
-493.551	-150.658	0.286	0.022
-492.537	-200.000	0.049	-0.295
-491.522	-76.799	0.154	-0.055
-490.508	373.673	-0.099	-0.204
-489.493	37.176	0.175	-0.157
-488.478	91.121	-0.108	0.123
-487.464	800.000	0.036	-0.152
-486.449	228.403	-0.061	-0.101
-485.435	-200.000	-0.046	0.314
-484.420	-51.877	0.211	-0.100
-483.405	491.820	-0.132	0.307
-482.391	288.482	-0.034	0.063
-481.376	-71.556	0.241	-0.091
-480.362	-139.825	-0.285	0.031
-479.347	-38.910	-0.302	-0.161
-478.332	113.474	0.085	0.104
-477.318	45.776	0.190	0.178
-476.303	39.449	0.144	0.130
-475.289	800.000	-0.061	-0.237
-474.274	-200.000	0.042	0.431
-473.259	-56.382	0.154	0.069
-472.245	25.980	-0.132	0.111
-471.230	-143.335	-0.522	0.051
-470.216	-60.791	-0.169	0.072
-469.201	5.602	-0.109	-0.082
-468.186	306.243	0.071	0.134
-467.172	-136.475	-0.048	0.006
-466.157	755.063	0.040	0.109
-465.143	-9.964	-0.277	-0.186
-464.128	-108.607	0.157	-0.034
-463.113	-144.013	-0.229	0.022
-462.099	-200.000	-0.023	-0.157
-461.084	178.594	-0.103	-0.152
-460.070	-200.000	-0.018	-0.416
-459.055	261.492	-0.055	-0.097
-458.040	-200.000	0.043	-0.205
-457.026	601.160	-0.103	0.259
-456.011	-200.000	-0.083	0.370
-454.997	-200.000	-0.026	-0.125
-453.982	43.601	-0.216	-0.200
-452.968	-200.000	0.015	0.176
-451.953	800.000	0.051	0.200
-450.938	800.000	0.059	-0.221
-449.924	-200.000	0.086	-0.426
-448.909	-128.380	0.246	0.035
-447.895	193.988	0.129	-0.198
-446.880	115.517	-0.132	-0.164
-445.865	32.998	-0.100	-0.087
-444.851	-84.797	0.254	0.081
-443.836	172.367	0.073	-0.106
-442.822	83.476	0.169	-0.186
-441.807	-55.757	0.088	-0.040
-440.792	-14.117	0.240	-0.156
-439.778	52.124	0.101	0.098
-438.763	-129.645	0.132	-0.018
-437.749	-47.031	0.513	-0.253
-436.734	-200.000	-0.050	0.363
-435.719	-138.131	0.130	-0.015
-434.705	-84.085	0.143	0.046
-433.690	132.058	-0.130	0.169
-432.676	-136.428	-0.314	-0.037
-431.661	239.913	-0.138	-0.232
-430.646	-93.503	-0.531	-0.149
-429.632	32.063	0.158	-0.138
-428.617	364.684	0.155	-0.315
-427.603	-200.000	-0.058	0.301
-426.588	-200.000	0.004	-0.114
-425.573	-152.803	-0.117	0.008
-424.559	54.112	0.027	-0.026
-423.544	-18.839	-0.135	-0.085
-422.530	52.903	0.090	-0.087
-421.515	578.082	0.083	-0.206
-420.500	800.000	-0.102	-0.348
-419.486	176.313	-0.006	-0.009
-418.471	-196.631	-0.131	-0.001
-417.457	-132.488	0.243	0.032
-416.442	-200.000	0.049	0.292
-415.428	-61.462	0.292	0.124
-414.413	-142.875	0.163	0.016
-413.398	-200.000	0.019	-0.203
-412.384	722.779	-0.048	0.130
-411.369	-60.170	-0.244	0.105
-410.355	800.000	-0.064	0.202
-409.340	284.591	-0.021	0.037
-408.325	-67.861	0.272	0.107
-407.311	800.000	0.058	-0.245
-406.296	14.540	-0.132	-0.104
-405.282	98.702	-0.247	0.288
-404.267	251.196	-0.103	-0.177
-403.252	-20.063	0.092	-0.057
-402.238	-200.000	-0.014	-0.224
-401.223	46.874	0.188	0.177
-400.209	750.285	0.055	0.150
-399.194	320.177	-0.143	0.275
-398.179	-200.000	0.031	0.167
-397.165	-200.000	-0.042	0.462
-396.150	125.046	-0.081	-0.103
-395.136	-138.154	0.195	-0.022
-394.121	-200.000	0.032	-0.369
-393.106	100.541	0.221	-0.259
-392.092	194.732	-0.093	-0.142
-391.077	-49.129	-0.495	-0.239
-390.063	-25.310	-0.030	0.018
-389.048	800.000	0.032	0.132
-388.033	42.228	0.228	0.209
-387.019	-135.423	-0.313	-0.038
-386.004	-200.000	-0.080	-0.404
-384.990	-200.000	-0.004	-0.078
-383.975	43.738	0.428	0.396
-382.960	-54.668	0.088	-0.040
-381.946	269.592	-0.072	-0.128
-380.931	-200.000	0.061	0.311
-379.917	-119.559	0.278	-0.049
-378.902	81.597	-0.129	0.141
-377.888	-200.000	0.043	0.213
-376.873	-200.000	-0.017	0.229
-375.858	800.000	-0.049	0.172
-374.844	-48.778	-0.030	-0.014
-373.829	-0.696	-0.035	-0.025
-372.815	9.275	-0.210	0.160
-371.800	-6.271	0.390	-0.269
-370.785	-105.303	0.474	0.109
-369.771	432.156	-0.056	0.122
-368.756	-200.000	-0.013	0.105
-367.742	102.130	0.117	-0.138
-366.727	132.373	0.310	-0.403
-365.712	800.000	0.105	0.320
-364.698	800.000	-0.014	-0.043
-363.683	-85.769	-0.402	0.126
-362.669	-40.033	-0.284	-0.149
-361.654	132.958	0.184	0.240
-360.639	52.458	-0.187	-0.180
-359.625	-85.515	-0.039	-0.012
-358.610	-125.114	0.336	0.052
-357.596	20.205	0.230	0.187
-356.581	237.090	-0.212	0.355
-355.566	-109.377	-0.090	0.019
-354.552	-161.602	0.070	0.004
-353.537	-75.794	-0.232	0.083
-352.523	800.000	-0.021	-0.067
-351.508	-155.330	0.202	-0.013
-350.493	800.000	-0.069	0.242
-349.479	-99.076	-0.232	-0.059
-348.464	-1.029	-0.235	-0.168
-347.450	760.989	0.034	0.092
-346.435	4.502	-0.347	-0.256
-345.420	-84.696	0.391	0.124
-344.406	800.000	-0.099	0.360
-343.391	-81.202	-0.299	0.100
-342.377	121.045	0.179	-0.224
-341.362	800.000	0.102	0.350
-340.348	-200.000	0.015	0.175
-339.333	598.540	-0.107	0.267
-338.318	105.324	0.117	0.139
-337.304	104.233	0.065	0.077
-336.289	800.000	0.033	-0.119
-335.275	-61.597	0.279	0.118
-334.260	-127.008	0.236	0.035
-333.245	-168.206	-0.076	-0.003
-332.231	-200.000	0.073	0.482
-331.216	68.685	0.175	0.181
-330.202	-200.000	-0.012	-0.225
-329.187	-200.000	-0.014	-0.077
-328.172	-41.091	-0.376	0.196
-327.158	800.000	0.072	-0.205
-326.143	117.943	-0.131	-0.162
-325.129	-200.000	0.022	0.284
-324.114	147.843	0.027	0.036
-323.099	52.406	0.057	-0.055
-322.085	-152.748	0.500	0.036
-321.070	17.104	0.255	-0.203
-320.056	-200.000	-0.062	0.384
-319.041	-121.680	0.096	0.016
-318.026	-135.697	0.098	-0.012
-317.012	52.949	0.089	-0.086
-315.997	238.868	-0.015	-0.026
-314.983	-200.000	0.016	0.354
-313.968	-200.000	0.002	0.246
-312.953	5.195	0.146	0.108
-311.939	-200.000	-0.034	-0.264
-310.924	800.000	0.098	-0.313
-309.910	-24.039	0.163	0.098
-308.895	-70.406	0.099	0.038
-307.880	-57.325	0.175	-0.078
-306.866	-200.000	0.060	0.380
-305.851	-200.000	-0.053	-0.257
-304.837	153.150	0.153	-0.211
-303.822	800.000	0.083	0.256
-302.807	-200.000	-0.007	-0.136
-301.793	-200.000	-0.024	0.162
-300.778	-200.000	0.030	0.178
-299.764	-13.328	0.157	-0.102
-298.749	209.996	0.201	-0.317
-297.735	-200.000	-0.017	0.375
-296.720	-200.000	-0.001	0.132
-295.705	-48.418	-0.151	0.073
-294.691	800.000	-0.062	0.238
-293.676	-22.244	-0.413	0.252
-292.662	61.769	0.087	-0.088
-291.647	-86.299	0.255	-0.079
-290.632	-170.285	0.369	0.013
-289.618	-66.303	-0.296	0.119
-288.603	36.150	0.127	0.113
-287.589	-200.000	-0.066	-0.345
-286.574	-6.235	0.052	0.036
-285.559	63.202	0.162	0.163
-284.545	85.568	0.072	0.080
-283.530	800.000	-0.047	0.147
-282.516	-34.708	0.186	-0.102
-281.501	-22.254	0.104	-0.064
-280.486	-57.268	0.157	0.069
-279.472	246.827	0.105	0.178
-278.457	-85.251	-0.369	0.116
-277.443	255.449	-0.073	-0.126
-276.428	-14.919	-0.010	0.006
-275.413	-151.448	0.057	-0.004
-274.399	192.990	0.063	-0.096
-273.384	31.121	0.255	0.220
-272.370	-132.614	-0.177	0.023
-271.355	57.632	-0.212	-0.208
-270.340	42.217	-0.166	-0.152
-269.326	25.924	-0.204	0.171
-268.311	80.947	0.232	-0.251
-267.297	-103.137	0.258	0.061
-266.282	-83.165	0.229	-0.074
-265.267	5.968	-0.419	0.312
-264.253	-200.000	-0.015	0.256
-263.238	-63.299	0.255	0.105
-262.224	-125.755	0.105	0.016
-261.209	-200.000	-0.059	-0.328
-260.195	800.000	-0.028	-0.091
-259.180	-25.184	-0.149	0.088
-258.165	-131.200	-0.209	0.028
-257.151	-33.776	-0.192	0.107
-256.136	126.947	-0.212	-0.271
-255.122	-117.097	0.304	0.056
-254.107	800.000	0.105	-0.344
-253.092	81.490	0.060	-0.065
-252.078	-42.573	-0.356	-0.182
-251.063	-200.000	0.036	-0.323
-250.049	5.956	-0.217	0.161
-249.034	-125.334	0.179	0.028
-248.019	52.847	-0.102	-0.098
-247.005	232.550	0.093	-0.154
-245.990	800.000	-0.060	0.209
-244.976	-30.367	0.221	-0.126
-243.961	175.828	0.201	-0.293
-242.946	-32.720	-0.169	-0.095
-241.932	-127.274	-0.482	0.071
-240.917	800.000	-0.033	-0.129
-239.903	-116.838	-0.156	-0.029
-238.888	-111.972	0.299	0.061
-237.873	-108.628	0.151	0.033
-236.859	453.488	-0.052	0.116
-235.844	-200.000	0.041	-0.340
-234.830	710.243	0.101	-0.267
-233.815	75.561	-0.165	-0.175
-232.800	-47.276	0.145	-0.071
-231.786	-200.000	-0.005	-0.172
-230.771	111.143	-0.128	-0.155
-229.757	800.000	0.092	0.377
-228.742	-37.571	0.265	-0.142
-227.727	-45.592	0.248	0.123
-226.713	-59.234	0.163	-0.070
-225.698	-200.000	0.061	-0.381
-224.684	-76.243	-0.321	-0.113
-223.669	800.000	-0.088	-0.268
-222.655	800.000	-0.049	0.153
-221.640	643.578	-0.135	0.344
-220.625	23.410	0.122	0.101
-219.611	-52.862	0.248	-0.115
-218.596	-76.601	0.124	-0.044
-217.582	-47.343	0.422	0.206
-216.567	-100.458	-0.276	-0.068
-215.552	-156.919	-0.121	0.007
-214.538	-116.172	-0.291	0.054
-213.523	800.000	0.022	-0.062
-212.509	456.035	-0.015	-0.034
-211.494	4.407	0.277	-0.203
-210.479	382.135	0.198	-0.408
-209.465	550.508	0.067	0.161
-208.450	606.007	0.048	-0.120
-207.436	-200.000	-0.057	-0.361
-206.421	800.000	-0.045	-0.140
-205.406	-200.000	-0.066	0.318
-204.392	-139.725	0.106	0.011
-203.377	-97.742	-0.233	0.061
-202.363	-85.109	-0.220	0.069
-201.348	303.449	-0.216	-0.401
-200.333	3.970	0.185	-0.136
-199.319	694.854	-0.039	-0.102
-198.304	-128.788	0.067	-0.009
-197.290	-145.528	0.127	-0.011
-196.275	-12.064	-0.049	0.032
-195.260	-199.319	0.196	-0.001
-194.246	81.767	0.085	-0.092
-193.231	-160.089	-0.245	0.013
-192.217	800.000	0.052	-0.180
-191.202	60.232	0.148	0.147
-190.187	53.540	-0.083	-0.080
-189.173	-200.000	0.040	0.323
-188.158	800.000	0.076	0.215
-187.144	452.820	-0.098	-0.218
-186.129	-106.291	0.163	-0.037
-185.114	63.814	-0.261	-0.263
-184.100	321.516	0.038	0.072
-183.085	-61.403	0.188	-0.079
-182.071	198.316	0.149	0.228
-181.056	-64.623	0.387	-0.157
-180.042	-200.000	0.013	0.359
-179.027	-76.932	-0.231	-0.081
-178.012	-22.754	0.213	0.129
-176.998	257.322	-0.270	0.465
-175.983	-200.000	-0.004	-0.214
-174.969	41.810	0.208	-0.188
-173.954	-23.196	0.467	-0.281
-172.939	-198.274	-0.128	0.001
-171.925	417.112	-0.058	-0.124
-170.910	-200.000	0.009	-0.495
-169.896	-152.243	-0.474	-0.034
-168.881	216.711	-0.057	-0.091
-167.866	31.457	-0.271	-0.233
-166.852	-200.000	-0.022	-0.208
-165.837	-111.748	-0.165	0.033
-164.823	800.000	0.041	0.174
-163.808	-2.650	-0.215	0.150
-162.793	126.323	-0.162	0.206
-161.779	66.912	0.059	-0.060
-160.764	-68.776	-0.123	0.047
-159.750	-185.332	-0.168	0.003
-158.735	-200.000	0.020	-0.125
-157.720	-200.000	0.003	0.149
-156.706	-150.381	0.375	0.029
-155.691	-48.575	-0.092	-0.044
-154.677	-119.901	0.134	0.023
-153.662	-200.000	0.003	-0.453
-152.647	45.055	-0.125	0.116
-151.633	19.668	-0.133	0.107
-150.618	-63.639	-0.240	-0.099
-149.604	-54.381	-0.122	-0.055
-148.589	-55.420	0.074	-0.033
-147.574	-40.280	0.465	0.242
-146.560	-68.613	0.398	0.154
-145.545	1.935	0.028	-0.020
-144.531	214.358	0.183	0.291
-143.516	405.759	-0.094	0.199
-142.502	-115.606	-0.167	-0.031
-141.487	800.000	-0.024	0.084
-140.472	-145.614	0.202	0.018
-139.458	-110.552	0.347	0.072
-138.443	242.627	0.056	0.094
-137.429	-200.000	-0.061	-0.441
-136.414	-58.787	-0.087	-0.038
-135.399	-12.310	-0.249	-0.163
-134.385	-124.462	0.294	-0.046
-133.370	363.802	-0.102	-0.205
-132.356	800.000	0.120	-0.362
-131.341	94.293	-0.188	0.213
-130.326	-114.293	-0.180	-0.035
-129.312	-200.000	0.007	0.167
-128.297	800.000	0.048	0.167
-127.283	-200.000	-0.020	0.136
-126.268	-67.592	0.245	-0.096
-125.253	-186.422	-0.336	0.005
-124.239	36.994	-0.259	0.229
-123.224	-200.000	0.013	0.156
-122.210	-25.763	0.186	0.109
-121.195	-200.000	0.014	-0.137
