DTS Sentinel unit serial number:	SN413079Multiplexer serial number:	ORYXHardware model number:	OX4-SRSoftware version number:	ORYX F/W v4.00 Oryx Data Collector v3.7.2.0data status	okinstallation	princeton_trtdifferential loss correction	single-endedforward channel	channel 3reverse channel	N/Adate	2019/09/16time	06:36:35forward acquisition time	60.00reverse acquisition time	0.00gamma	496.2192k internal	0.2335k external	0.2335temperature offset calibration	0.9959default loss term (dB/km)	0.3790temperature slope calibration	1.0000multiplexer offset coefficient	1.0000multiplexer slope coefficient	1.0000fibre end	0.00T internal ref (°C)	27.37T ext. ref 1 (°C)	11.40T ext. ref 2 (°C)	21.89length (m)	temperature (°C)	Stokes	anti-Stokes-747.200	-16.202	-0.228	-0.145
-746.185	-149.457	-0.013	0.001
-745.171	-200.000	-0.057	-0.305
-744.156	-74.836	-0.309	0.111
-743.142	-39.110	0.176	0.093
-742.127	102.411	-0.072	0.085
-741.112	800.000	-0.123	0.364
-740.098	280.882	-0.188	0.339
-739.083	-66.008	0.427	-0.171
-738.069	-82.275	-0.397	0.130
-737.054	249.293	-0.084	-0.143
-736.039	34.740	-0.170	0.149
-735.025	350.004	0.175	0.348
-734.010	-200.000	-0.031	-0.144
-732.996	26.526	0.123	-0.104
-731.981	669.883	0.075	0.195
-730.966	-96.399	0.167	-0.044
-729.952	-39.937	0.038	-0.020
-728.937	-200.000	0.059	0.471
-727.923	-159.268	-0.223	0.013
-726.908	161.221	0.040	-0.056
-725.894	-200.000	-0.067	-0.389
-724.879	-124.539	-0.349	0.054
-723.864	-114.092	-0.506	0.098
-722.850	-63.503	-0.157	-0.065
-721.835	-37.604	-0.257	0.137
-720.821	800.000	0.044	0.172
-719.806	100.863	0.163	-0.191
-718.791	-119.109	-0.260	0.046
-717.777	288.387	0.070	0.128
-716.762	-200.000	0.065	-0.377
-715.748	-200.000	-0.051	-0.262
-714.733	112.325	-0.064	0.078
-713.718	348.766	-0.066	-0.131
-712.704	-200.000	-0.007	0.231
-711.689	102.374	0.223	0.261
-710.675	281.984	0.118	-0.212
-709.660	-200.000	0.049	0.242
-708.645	183.864	-0.145	0.215
-707.631	133.442	-0.079	-0.103
-706.616	-181.353	0.163	-0.003
-705.602	728.824	0.083	-0.222
-704.587	-69.582	0.253	0.097
-703.572	-60.424	0.129	-0.055
-702.558	-21.978	-0.219	0.133
-701.543	-52.263	-0.058	0.027
-700.529	-200.000	0.040	-0.303
-699.514	-200.000	-0.001	0.136
-698.499	-200.000	-0.049	-0.225
-697.485	-94.780	-0.217	0.059
-696.470	800.000	0.077	0.329
-695.456	-200.000	-0.001	-0.058
-694.441	-57.151	-0.334	-0.148
-693.426	-200.000	-0.029	-0.289
-692.412	-200.000	-0.010	-0.156
-691.397	64.001	0.194	-0.196
-690.383	800.000	0.107	-0.312
-689.368	-200.000	-0.033	-0.319
-688.354	432.380	-0.059	0.128
-687.339	580.256	-0.117	0.288
-686.324	30.979	0.181	-0.156
-685.310	-142.913	-0.210	0.020
-684.295	19.389	-0.227	0.183
-683.281	532.808	0.175	0.416
-682.266	-40.156	0.455	-0.238
-681.251	-80.007	-0.182	-0.061
-680.237	44.021	0.124	-0.114
-679.222	239.267	0.016	-0.027
-678.208	-118.426	0.180	-0.032
-677.193	166.602	0.081	0.115
-676.178	-46.068	0.215	0.106
-675.164	-200.000	0.003	-0.159
-674.149	581.811	0.077	-0.189
-673.135	692.598	-0.102	0.267
-672.120	151.839	0.094	0.128
-671.105	-2.949	-0.271	-0.190
-670.091	-119.105	-0.085	0.015
-669.076	-200.000	-0.081	-0.417
-668.062	-83.685	-0.142	-0.045
-667.047	-59.947	-0.347	-0.148
-666.032	-200.000	0.002	-0.231
-665.018	357.255	0.153	0.307
-664.003	62.116	0.127	-0.127
-662.989	496.802	-0.073	-0.169
-661.974	-45.797	0.142	0.070
-660.959	-200.000	0.028	-0.216
-659.945	510.785	-0.100	0.233
-658.930	276.181	-0.140	-0.248
-657.916	82.159	-0.179	0.195
-656.901	126.438	-0.242	-0.307
-655.886	-148.690	0.270	0.022
-654.872	-200.000	-0.016	-0.383
-653.857	-138.857	0.246	-0.027
-652.843	-27.402	-0.073	-0.043
-651.828	-76.686	-0.357	-0.125
-650.814	-200.000	0.006	-0.447
-649.799	82.008	-0.174	0.189
-648.784	94.861	0.085	0.097
-647.770	29.509	0.336	0.286
-646.755	292.547	0.246	-0.449
-645.741	264.252	-0.241	-0.419
-644.726	800.000	0.051	-0.163
-643.711	-141.899	0.333	0.033
-642.697	284.267	0.116	-0.209
-641.682	-200.000	0.017	-0.138
-640.668	119.871	0.170	-0.211
-639.653	-190.988	-0.444	0.005
-638.638	-28.566	-0.099	-0.057
-637.624	-183.364	-0.303	-0.005
-636.609	-86.145	-0.284	-0.088
-635.595	285.052	-0.131	0.236
-634.580	662.429	0.079	0.203
-633.565	78.530	0.077	0.082
-632.551	-80.924	-0.074	0.024
-631.536	209.515	0.183	-0.287
-630.522	-10.509	0.255	-0.169
-629.507	800.000	0.040	-0.143
-628.492	701.032	-0.131	0.346
-627.478	-39.711	-0.109	0.057
-626.463	-88.864	0.175	-0.052
-625.449	-93.010	-0.177	0.049
-624.434	-200.000	-0.057	-0.303
-623.419	-200.000	-0.027	-0.244
-622.405	800.000	0.062	0.253
-621.390	-138.733	-0.286	-0.031
-620.376	-200.000	-0.004	0.038
-619.361	-112.180	0.353	-0.071
-618.346	32.250	-0.282	-0.244
-617.332	-65.679	-0.096	0.038
-616.317	342.447	-0.105	-0.206
-615.303	152.652	-0.261	-0.357
-614.288	-200.000	-0.000	-0.068
-613.273	286.833	-0.173	0.313
-612.259	277.327	0.151	-0.268
-611.244	331.234	-0.113	-0.218
-610.230	-121.907	-0.085	0.014
-609.215	348.392	0.079	-0.155
-608.201	786.964	-0.057	0.157
-607.186	-42.640	-0.212	0.108
-606.171	-200.000	-0.004	-0.128
-605.157	11.117	-0.060	-0.046
-604.142	103.918	-0.089	0.105
-603.128	48.432	0.155	0.145
-602.113	-94.304	-0.182	0.050
-601.098	-200.000	0.006	-0.052
-600.084	77.853	0.208	-0.221
-599.069	-105.720	-0.358	0.081
-598.055	-15.969	-0.079	-0.050
-597.040	-123.998	0.144	-0.023
-596.025	36.043	0.192	-0.169
-595.011	100.984	-0.235	0.273
-593.996	-200.000	0.067	0.415
-592.982	800.000	-0.071	-0.217
-591.967	125.185	-0.266	0.335
-590.952	52.604	-0.132	-0.126
-589.938	-8.020	-0.069	-0.046
-588.923	-42.409	-0.240	-0.122
-587.909	571.969	-0.037	-0.090
-586.894	-155.168	0.070	-0.005
-585.879	258.731	-0.130	0.225
-584.865	-200.000	0.030	0.171
-583.850	-91.406	-0.046	-0.013
-582.836	-164.966	-0.157	0.007
-581.821	-53.454	0.063	0.029
-580.806	563.034	-0.082	0.199
-579.792	274.078	0.069	0.123
-578.777	47.005	-0.086	0.080
-577.763	55.069	0.139	0.134
-576.748	-200.000	-0.003	0.225
-575.733	-74.733	0.065	0.023
-574.719	-200.000	0.069	-0.397
-573.704	-156.550	-0.072	-0.004
-572.690	52.782	-0.059	0.056
-571.675	27.907	-0.227	0.191
-570.661	188.226	-0.012	-0.017
-569.646	71.724	-0.195	-0.203
-568.631	-200.000	-0.030	-0.146
-567.617	-153.719	-0.108	-0.007
-566.602	207.065	-0.123	-0.191
-565.588	-121.569	-0.179	0.030
-564.573	51.066	-0.127	-0.120
-563.558	-15.773	-0.099	0.063
-562.544	-31.409	-0.156	-0.087
-561.529	-54.009	-0.099	0.045
-560.515	-200.000	0.016	-0.420
-559.500	-64.990	0.007	-0.003
-558.485	-200.000	0.037	0.178
-557.471	316.560	0.043	-0.082
-556.456	-12.194	-0.199	-0.130
-555.442	-152.022	-0.102	-0.007
-554.427	-52.755	0.165	-0.076
-553.412	-111.417	-0.153	-0.031
-552.398	-12.382	-0.140	0.091
-551.383	106.088	-0.097	0.115
-550.369	-153.174	-0.319	0.022
-549.354	-140.370	0.175	-0.018
-548.339	-26.809	-0.276	0.161
-547.325	-132.597	-0.312	-0.040
-546.310	-133.977	-0.364	-0.045
-545.296	297.383	0.095	-0.173
-544.281	-172.888	0.092	0.003
-543.266	800.000	0.071	-0.289
-542.252	267.586	0.025	-0.044
-541.237	275.137	-0.142	0.251
-540.223	38.229	-0.202	-0.179
-539.208	43.545	-0.183	-0.166
-538.193	22.904	0.037	0.031
-537.179	-103.695	0.252	-0.059
-536.164	-84.054	0.114	-0.036
-535.150	636.866	-0.054	0.136
-534.135	-44.336	0.113	-0.056
-533.121	-10.017	0.385	0.255
-532.106	-144.131	0.436	0.041
-531.091	-24.075	0.129	-0.077
-530.077	286.866	0.080	-0.145
-529.062	-41.339	0.101	-0.052
-528.048	226.657	-0.122	-0.197
-527.033	-200.000	0.032	-0.228
-526.018	229.354	0.068	-0.110
-525.004	109.292	-0.209	-0.249
-523.989	-100.322	-0.131	-0.032
-522.975	-20.862	-0.210	0.128
-521.960	-200.000	-0.012	-0.209
-520.945	-64.051	-0.116	0.047
-519.931	47.879	-0.138	-0.129
-518.916	-130.672	0.338	0.045
-517.902	-52.854	-0.065	0.030
-516.887	61.746	-0.105	-0.104
-515.872	-57.339	-0.346	-0.152
-514.858	4.456	-0.205	-0.150
-513.843	-102.965	-0.179	-0.042
-512.829	280.921	-0.040	0.072
-511.814	562.871	0.047	-0.113
-510.799	21.157	0.087	0.070
-509.785	15.662	0.059	0.046
-508.770	-200.000	-0.024	-0.217
-507.756	-200.000	-0.038	-0.392
-506.741	-172.446	0.253	0.008
-505.726	-29.516	0.216	-0.123
-504.712	92.446	0.237	0.266
-503.697	49.285	-0.256	0.239
-502.683	98.738	0.099	0.113
-501.668	-200.000	-0.014	-0.074
-500.653	-172.512	-0.354	-0.011
-499.639	-167.706	-0.179	-0.007
-498.624	-2.546	0.125	0.087
-497.610	431.083	0.042	0.091
-496.595	-88.794	-0.227	-0.067
-495.581	-200.000	-0.005	-0.043
-494.566	800.000	0.034	-0.119
-493.551	-200.000	-0.079	-0.496
-492.537	6.135	0.056	0.041
-491.522	231.851	0.255	0.415
-490.508	-61.645	0.002	0.001
-489.493	-52.656	0.104	-0.048
-488.478	718.524	-0.047	0.123
-487.464	-74.566	-0.447	-0.160
-486.449	207.564	-0.063	0.098
-485.435	-200.000	0.009	-0.258
-484.420	-140.725	-0.209	-0.022
-483.405	408.250	0.107	-0.224
-482.391	800.000	0.021	0.086
-481.376	800.000	0.067	0.262
-480.362	-160.915	-0.240	0.013
-479.347	223.799	0.140	0.225
-478.332	81.874	-0.240	0.259
-477.318	-60.427	0.197	-0.083
-476.303	197.184	-0.257	-0.390
-475.289	-138.106	0.224	-0.025
-474.274	772.110	0.065	0.176
-473.259	56.007	-0.126	-0.121
-472.245	-200.000	0.003	0.018
-471.230	23.708	-0.143	0.117
-470.216	109.442	-0.172	0.205
-469.201	216.175	-0.080	-0.127
-468.186	-159.136	0.158	0.009
-467.172	-200.000	0.006	-0.110
-466.157	-0.471	-0.351	-0.248
-465.143	-3.807	-0.092	0.064
-464.128	-200.000	-0.030	0.300
-463.113	-87.745	0.334	-0.100
-462.099	-46.746	-0.282	0.137
-461.084	-36.136	-0.145	-0.078
-460.070	519.776	0.109	-0.253
-459.055	-48.483	-0.181	0.087
-458.040	-101.582	0.050	0.012
-457.026	-31.749	-0.207	0.115
-456.011	123.757	0.125	0.156
-454.997	199.322	-0.170	0.259
-453.982	118.055	0.133	0.163
-452.968	800.000	0.015	0.056
-451.953	-81.624	-0.214	-0.070
-450.938	-200.000	0.007	0.112
-449.924	-187.422	0.243	0.003
-448.909	-133.876	-0.142	0.018
-447.895	7.232	-0.146	0.109
-446.880	5.333	0.287	-0.210
-445.865	78.644	0.086	-0.092
-444.851	116.460	0.147	0.179
-443.836	461.583	0.059	-0.130
-442.822	503.997	0.031	0.071
-441.807	-200.000	-0.032	0.146
-440.792	97.399	-0.096	-0.110
-439.778	-110.120	0.074	0.015
-438.763	-200.000	-0.004	-0.166
-437.749	119.053	-0.132	-0.162
-436.734	85.069	0.289	-0.315
-435.719	-8.884	0.171	-0.113
-434.705	303.062	-0.073	0.135
-433.690	-97.098	0.179	-0.046
-432.676	13.603	0.194	0.150
-431.661	320.543	-0.098	-0.185
-430.646	-7.320	-0.199	0.134
-429.632	-42.170	0.235	0.119
-428.617	-63.760	0.294	0.119
-427.603	-106.377	0.301	-0.067
-426.588	800.000	-0.042	0.176
-425.573	-113.597	0.199	0.039
-424.559	70.720	0.198	-0.203
-423.544	-144.306	-0.472	0.044
-422.530	-200.000	0.002	0.020
-421.515	160.236	-0.099	0.137
-420.500	22.888	0.126	0.102
-419.486	325.161	0.137	-0.259
-418.471	-200.000	0.026	0.166
-417.457	415.157	0.113	0.239
-416.442	778.497	0.137	0.371
-415.428	800.000	-0.020	0.080
-414.413	-200.000	0.036	-0.181
-413.398	-16.361	0.359	0.226
-412.384	428.507	-0.068	0.145
-411.369	800.000	0.060	-0.202
-410.355	-61.138	-0.105	0.044
-409.340	-160.836	0.458	0.024
-408.325	386.793	-0.017	-0.035
-407.311	-176.529	-0.210	-0.005
-406.296	412.796	0.110	-0.231
-405.282	-16.018	0.031	0.020
-404.267	-200.000	-0.085	0.381
-403.252	10.801	0.218	0.165
-402.238	27.807	-0.053	-0.044
-401.223	-82.345	0.280	-0.090
-400.209	61.868	0.252	-0.249
-399.194	-22.104	0.108	-0.065
-398.179	-129.891	0.271	-0.037
-397.165	-200.000	0.004	0.168
-396.150	-106.580	-0.194	0.043
-395.136	492.365	0.078	-0.178
-394.121	800.000	0.022	0.084
-393.106	-200.000	0.028	0.251
-392.092	-118.938	-0.127	0.022
-391.077	-200.000	0.017	0.208
-390.063	800.000	-0.067	-0.199
-389.048	464.665	-0.039	0.086
-388.033	-108.188	-0.201	-0.043
-387.019	-144.181	-0.194	-0.018
-386.004	-200.000	-0.002	0.289
-384.990	8.000	-0.090	-0.067
-383.975	29.707	0.153	0.129
-382.960	794.911	-0.091	-0.250
-381.946	65.022	0.045	-0.045
-380.931	-28.541	0.127	-0.072
-379.917	124.555	0.155	-0.193
-378.902	-47.639	-0.234	-0.112
-377.888	159.535	-0.147	0.202
-376.873	70.164	0.148	0.152
-375.858	527.911	0.071	-0.167
-374.844	-84.336	0.314	-0.098
-373.829	-59.679	0.077	-0.033
-372.815	598.284	-0.079	0.193
-371.800	-128.581	-0.213	-0.030
-370.785	-89.228	-0.098	0.029
-369.771	-116.346	0.071	0.013
-368.756	-149.259	-0.364	-0.029
-367.742	-10.001	-0.243	0.160
-366.727	-200.000	-0.039	-0.257
-365.712	-200.000	-0.030	-0.177
-364.698	180.066	-0.053	-0.077
-363.683	-166.537	-0.150	-0.006
-362.669	-23.546	0.179	-0.106
-361.654	85.924	0.177	-0.192
-360.639	800.000	-0.089	-0.313
-359.625	-200.000	-0.038	-0.230
-358.610	800.000	-0.101	0.290
-357.596	284.439	-0.064	0.113
-356.581	391.248	-0.027	0.055
-355.566	-123.687	-0.202	0.032
-354.552	294.455	-0.036	-0.064
-353.537	800.000	-0.082	-0.259
-352.523	-200.000	-0.005	-0.258
-351.508	184.266	-0.058	0.085
-350.493	-175.925	-0.333	-0.009
-349.479	-134.699	0.128	-0.015
-348.464	-200.000	-0.006	0.042
-347.450	93.649	-0.049	-0.055
-346.435	-38.120	0.212	-0.111
-345.420	800.000	-0.014	-0.046
-344.406	800.000	0.049	-0.208
-343.391	-27.006	0.320	0.185
-342.377	-50.376	-0.171	-0.080
-341.362	114.643	0.217	-0.261
-340.348	106.114	0.148	0.173
-339.333	-59.761	0.022	0.009
-338.318	-198.930	0.133	0.001
-337.304	15.138	0.200	0.155
-336.289	-108.979	-0.313	0.066
-335.275	115.431	0.218	0.263
-334.260	-44.723	-0.251	-0.124
-333.245	234.800	-0.111	-0.181
-332.231	-200.000	0.039	-0.193
-331.216	5.639	0.133	0.097
-330.202	-200.000	0.015	0.077
-329.187	-200.000	0.002	-0.088
-328.172	800.000	0.084	0.281
-327.158	-200.000	0.031	-0.286
-326.143	137.275	0.172	0.222
-325.129	269.089	0.106	0.184
-324.114	-200.000	0.028	0.186
-323.099	-74.442	-0.153	-0.054
-322.085	-200.000	-0.034	0.311
-321.070	-77.614	-0.183	0.063
-320.056	554.163	0.095	0.226
-319.041	-200.000	-0.022	0.101
-318.026	50.950	0.124	-0.116
-317.012	390.654	-0.084	-0.172
-315.997	181.033	0.072	0.104
-314.983	338.835	0.075	-0.145
-313.968	226.419	-0.033	-0.053
-312.953	-200.000	0.079	-0.363
-311.939	-37.051	0.222	0.118
-310.924	800.000	0.019	0.063
-309.910	-200.000	-0.073	-0.330
-308.895	-36.650	0.205	-0.109
-307.880	105.393	-0.298	0.348
-306.866	-200.000	0.010	0.049
-305.851	539.528	0.019	0.044
-304.837	56.592	-0.157	0.151
-303.822	-200.000	0.061	0.307
-302.807	-13.165	-0.137	0.088
-301.793	-164.421	-0.148	-0.007
-300.778	-200.000	-0.034	0.172
-299.764	-200.000	0.009	0.132
-298.749	35.730	0.304	-0.264
-297.735	-153.377	-0.162	-0.011
-296.720	137.662	-0.139	0.179
-295.705	12.946	-0.285	-0.217
-294.691	-123.367	0.193	-0.030
-293.676	287.244	-0.053	0.095
-292.662	-101.255	0.357	-0.086
-291.647	-52.587	0.237	0.108
-290.632	-108.880	-0.187	-0.039
-289.618	87.153	0.170	0.186
-288.603	-200.000	-0.001	0.303
-287.589	-200.000	-0.002	0.190
-286.574	800.000	0.044	0.163
-285.559	-69.008	0.047	0.018
-284.545	161.179	0.129	0.178
-283.530	27.684	-0.195	0.162
-282.516	280.993	0.020	-0.035
-281.501	-200.000	0.069	-0.334
-280.486	-13.795	0.325	0.207
-279.472	102.208	0.190	0.219
-278.457	35.088	0.177	0.153
-277.443	800.000	-0.089	0.342
-276.428	119.324	-0.120	-0.147
-275.413	94.678	-0.246	-0.276
-274.399	-58.494	-0.159	0.068
-273.384	641.636	0.098	-0.247
-272.370	800.000	-0.069	0.266
-271.355	-5.861	0.077	-0.052
-270.340	-24.099	0.070	-0.041
-269.326	102.447	0.083	0.096
-268.311	-128.231	0.209	0.029
-267.297	-46.120	0.160	-0.078
-266.282	-44.348	0.150	-0.074
-265.267	800.000	-0.068	0.239
-264.253	-51.900	-0.173	-0.079
-263.238	-27.411	-0.320	0.184
-262.224	800.000	0.034	0.126
-261.209	-200.000	0.016	-0.251
-260.195	-125.666	-0.364	-0.054
-259.180	31.406	-0.305	0.258
-258.165	-62.746	0.127	-0.052
-257.151	-70.186	-0.306	-0.115
-256.136	178.851	-0.065	0.094
-255.122	-148.964	-0.158	0.013
-254.107	158.202	0.184	0.252
-253.092	109.339	-0.153	0.180
-252.078	39.133	-0.038	0.033
-251.063	107.493	0.325	-0.382
-250.049	800.000	-0.076	0.227
-249.034	-130.351	-0.404	0.054
-248.019	800.000	0.073	0.253
-247.005	-200.000	0.019	-0.383
-245.990	-97.114	0.100	0.026
-244.976	204.510	-0.173	-0.265
-243.961	262.716	-0.134	0.228
-242.946	-200.000	0.020	-0.097
-241.932	-63.915	0.307	0.124
-240.917	180.294	-0.060	0.087
-239.903	32.692	0.111	0.094
-238.888	800.000	0.104	-0.377
-237.873	-200.000	-0.007	0.374
-236.859	186.938	0.090	-0.132
-235.844	192.746	0.214	-0.318
-234.830	-4.888	0.067	0.046
-233.815	251.121	0.057	0.095
-232.800	-200.000	-0.023	-0.303
-231.786	800.000	-0.037	0.142
-230.771	800.000	-0.067	0.242
-229.757	-1.850	0.111	-0.077
-228.742	-200.000	0.009	0.142
-227.727	158.921	-0.063	-0.087
-226.713	-200.000	0.015	-0.252
-225.698	800.000	-0.059	-0.241
-224.684	305.912	0.064	0.118
-223.669	-27.718	-0.054	-0.031
-222.655	-87.060	0.418	-0.125
-221.640	-97.932	-0.015	0.004
-220.625	-200.000	-0.028	0.379
-219.611	-21.955	0.085	0.051
-218.596	58.122	-0.404	-0.390
-217.582	251.871	0.184	0.308
-216.567	-130.563	0.312	-0.041
-215.552	-106.359	0.295	0.065
-214.538	645.220	0.057	0.143
-213.523	-108.342	-0.117	-0.025
-212.509	-123.025	-0.184	0.029
-211.494	-21.102	0.099	-0.059
-210.479	47.257	0.076	-0.070
-209.465	800.000	-0.068	0.227
-208.450	708.418	0.126	-0.327
-207.436	-200.000	0.017	0.443
-206.421	-117.002	0.388	0.070
-205.406	-200.000	0.002	-0.122
-204.392	-200.000	0.000	0.081
-203.377	-200.000	-0.018	0.211
-202.363	800.000	0.020	-0.056
-201.348	-62.866	0.103	0.042
-200.333	0.419	0.030	0.021
-199.319	38.256	-0.174	0.152
-198.304	-49.646	0.142	0.067
-197.290	-199.510	0.503	0.003
-196.275	141.622	0.043	-0.056
-195.260	67.004	-0.229	-0.229
-194.246	-33.822	0.137	-0.074
-193.231	75.399	-0.117	0.121
-192.217	-107.360	0.248	0.054
-191.202	-138.958	0.177	0.019
-190.187	-200.000	-0.066	0.301
-189.173	93.970	0.290	0.323
-188.158	14.844	-0.135	-0.104
-187.144	-78.897	0.307	-0.103
-186.129	800.000	0.040	-0.147
-185.114	800.000	0.156	-0.478
-184.100	-97.156	0.331	-0.085
-183.085	-200.000	0.006	0.122
-182.071	263.232	0.109	-0.185
-181.056	-125.680	-0.078	-0.012
-180.042	800.000	0.098	-0.420
-179.027	-200.000	-0.048	-0.309
-178.012	-200.000	0.044	0.256
-176.998	115.180	0.253	-0.304
-175.983	78.279	-0.046	-0.048
-174.969	585.666	-0.136	-0.328
-173.954	-8.581	0.292	-0.193
-172.939	-200.000	-0.013	-0.095
-171.925	145.122	-0.104	0.137
-170.910	179.569	0.184	0.264
-169.896	123.401	0.197	-0.243
-168.881	-122.807	-0.343	0.054
-167.866	-121.695	-0.199	0.032
-166.852	232.325	-0.072	0.115
-165.837	190.407	0.262	0.387
-164.823	-141.158	-0.288	-0.029
-163.808	-200.000	-0.017	0.301
-162.793	-200.000	-0.007	0.108
-161.779	800.000	0.069	0.221
-160.764	158.818	0.210	0.286
-159.750	68.881	0.100	0.100
-158.735	800.000	-0.066	0.217
-157.720	195.755	0.016	0.023
-156.706	33.749	0.167	-0.142
-155.691	326.169	-0.095	0.179
-154.677	38.526	0.165	0.144
-153.662	-200.000	-0.024	-0.127
-152.647	-57.281	0.183	0.079
-151.633	-200.000	-0.004	0.074
-150.618	-148.554	-0.293	0.023
-149.604	800.000	0.060	-0.221
-148.589	800.000	-0.102	-0.279
-147.574	-71.668	0.417	0.153
-146.560	222.428	0.024	0.038
-145.545	-123.147	0.093	-0.015
-144.531	800.000	-0.071	-0.225
-143.516	-94.776	-0.169	0.045
-142.502	-95.941	0.140	-0.037
-141.487	636.163	-0.165	0.412
-140.472	178.946	0.166	0.238
-139.458	-97.332	-0.243	0.062
-138.443	-23.984	0.054	0.032
-137.429	-200.000	0.053	0.371
-136.414	800.000	0.095	0.289
-135.399	800.000	-0.039	0.140
-134.385	-200.000	-0.014	-0.155
-133.370	50.460	-0.141	-0.131
-132.356	-131.613	0.197	0.025
-131.341	2.440	0.150	-0.107
-130.326	-200.000	-0.032	0.147
-129.312	1.581	0.208	-0.147
-128.297	-200.000	-0.046	0.285
-127.283	-200.000	-0.022	0.244
-126.268	800.000	-0.067	0.257
-125.253	176.180	-0.126	0.179
-124.239	289.626	0.067	-0.120
-123.224	-37.390	0.280	0.147
-122.210	136.889	-0.201	0.258
