DTS Sentinel unit serial number:	SN413079Multiplexer serial number:	ORYXHardware model number:	OX4-SRSoftware version number:	ORYX F/W v4.00 Oryx Data Collector v3.7.2.0data status	okinstallation	princeton_trtdifferential loss correction	single-endedforward channel	channel 3reverse channel	N/Adate	2019/09/16time	22:52:35forward acquisition time	60.00reverse acquisition time	0.00gamma	496.2192k internal	0.2324k external	0.2324temperature offset calibration	0.9942default loss term (dB/km)	0.3790temperature slope calibration	1.0000multiplexer offset coefficient	1.0000multiplexer slope coefficient	1.0000fibre end	0.00T internal ref (°C)	30.44T ext. ref 1 (°C)	0.09T ext. ref 2 (°C)	24.06length (m)	temperature (°C)	Stokes	anti-Stokes-747.200	-130.913	-0.089	-0.012
-746.185	-34.085	-0.241	0.134
-745.171	40.134	-0.073	0.066
-744.156	-200.000	-0.047	0.253
-743.142	-65.484	-0.277	0.112
-742.127	800.000	-0.024	0.078
-741.112	-169.576	-0.357	0.013
-740.098	15.169	0.066	-0.052
-739.083	-41.683	-0.187	0.097
-738.069	196.631	0.057	0.087
-737.054	-90.204	-0.461	-0.135
-736.039	-93.680	0.179	0.050
-735.025	385.910	-0.051	0.107
-734.010	-62.965	-0.264	-0.110
-732.996	-200.000	-0.051	0.289
-731.981	88.869	-0.051	0.058
-730.966	-200.000	-0.004	0.028
-729.952	-200.000	-0.030	-0.230
-728.937	-200.000	-0.017	-0.283
-727.923	20.224	-0.216	0.176
-726.908	-127.030	0.149	0.022
-725.894	-200.000	0.025	0.403
-724.879	-200.000	0.016	-0.076
-723.864	-178.372	-0.236	0.006
-722.850	-5.863	-0.467	-0.322
-721.835	-200.000	0.000	0.247
-720.821	373.567	-0.062	0.127
-719.806	128.265	-0.093	-0.120
-718.791	-42.968	0.075	-0.039
-717.777	-134.196	-0.126	-0.016
-716.762	248.096	-0.065	-0.110
-715.748	477.259	0.147	0.334
-714.733	155.145	0.119	-0.165
-713.718	-30.854	0.163	0.093
-712.704	-12.530	-0.426	0.281
-711.689	314.746	-0.030	-0.057
-710.675	-200.000	0.014	0.182
-709.660	46.274	-0.237	-0.222
-708.645	-200.000	0.031	0.212
-707.631	-200.000	-0.019	-0.153
-706.616	-158.737	0.361	0.021
-705.602	-165.424	-0.620	0.027
-704.587	-92.436	-0.030	0.009
-703.572	-9.937	-0.163	-0.109
-702.558	100.858	0.074	-0.087
-701.543	800.000	0.038	0.146
-700.529	614.294	0.046	0.117
-699.514	-138.728	0.347	0.038
-698.499	-107.225	-0.332	0.074
-697.485	-200.000	-0.020	0.131
-696.470	101.184	-0.115	-0.134
-695.456	-200.000	0.035	0.379
-694.441	116.812	0.025	-0.031
-693.426	574.523	-0.061	-0.151
-692.412	184.599	-0.135	-0.202
-691.397	800.000	-0.075	-0.250
-690.383	800.000	-0.089	-0.275
-689.368	-200.000	-0.028	-0.293
-688.354	-129.942	-0.226	-0.031
-687.339	-95.411	0.190	0.052
-686.324	800.000	-0.020	-0.061
-685.310	1.329	-0.096	0.070
-684.295	-84.086	-0.395	-0.126
-683.281	800.000	-0.044	0.176
-682.266	450.899	-0.097	-0.216
-681.251	45.288	-0.192	-0.178
-680.237	452.124	-0.087	-0.194
-679.222	348.866	-0.137	-0.273
-678.208	-38.167	-0.197	0.105
-677.193	331.901	0.084	0.164
-676.178	-71.042	-0.419	-0.159
-675.164	-200.000	-0.019	-0.151
-674.149	681.246	-0.036	-0.095
-673.135	83.035	-0.120	-0.131
-672.120	184.390	-0.122	0.181
-671.105	14.768	0.241	0.190
-670.091	-200.000	-0.020	-0.400
-669.076	-200.000	-0.019	-0.111
-668.062	-33.210	-0.173	-0.096
-667.047	-200.000	0.056	-0.257
-666.032	-98.464	-0.378	-0.097
-665.018	-95.055	-0.137	-0.037
-664.003	5.541	-0.248	-0.184
-662.989	46.599	0.035	-0.032
-661.974	-200.000	0.033	0.155
-660.959	-132.765	-0.244	0.031
-659.945	56.430	-0.064	-0.063
-658.930	-186.624	-0.235	-0.003
-657.916	-125.645	0.251	-0.038
-656.901	78.942	-0.075	-0.080
-655.886	125.046	-0.265	-0.336
-654.872	-48.030	-0.277	0.135
-653.857	-200.000	-0.020	-0.239
-652.843	-136.218	0.187	0.022
-651.828	-73.220	-0.187	0.069
-650.814	239.795	-0.115	-0.192
-649.799	-144.263	0.104	0.010
-648.784	-200.000	-0.031	0.172
-647.770	-121.158	0.255	0.043
-646.755	76.395	-0.085	0.090
-645.741	-200.000	0.025	0.321
-644.726	334.472	0.044	0.085
-643.711	-69.771	0.059	-0.023
-642.697	-57.684	0.042	-0.018
-641.682	-200.000	-0.009	-0.070
-640.668	-96.976	-0.261	0.069
-639.653	-71.325	-0.330	0.124
-638.638	63.977	0.143	0.144
-637.624	-26.056	0.347	0.205
-636.609	-85.197	0.254	-0.080
-635.595	800.000	-0.082	-0.292
-634.580	-200.000	-0.004	0.138
-633.565	-200.000	-0.010	-0.274
-632.551	-1.240	-0.070	0.050
-631.536	-128.844	0.284	-0.040
-630.522	-200.000	-0.081	-0.452
-629.507	20.332	0.175	-0.142
-628.492	-45.327	0.370	-0.184
-627.478	-56.479	-0.231	-0.103
-626.463	-99.027	0.194	0.049
-625.449	-66.436	-0.094	-0.038
-624.434	-200.000	-0.015	-0.159
-623.419	-200.000	0.011	0.154
-622.405	4.650	-0.146	0.107
-621.390	-156.695	-0.106	-0.007
-620.376	-64.429	0.258	0.105
-619.361	-5.402	0.129	-0.089
-618.346	-152.838	0.141	-0.010
-617.332	250.468	-0.192	-0.327
-616.317	-12.006	0.133	-0.088
-615.303	-200.000	-0.016	0.275
-614.288	-143.038	-0.351	-0.034
-613.273	-200.000	0.022	0.096
-612.259	-60.836	0.392	-0.167
-611.244	-80.850	-0.313	-0.104
-610.230	768.373	0.053	0.145
-609.215	800.000	-0.046	-0.171
-608.201	187.727	0.054	-0.081
-607.186	102.648	0.176	-0.207
-606.171	-102.370	0.297	-0.071
-605.157	62.897	-0.239	0.240
-604.142	385.997	-0.087	0.181
-603.128	800.000	0.043	0.179
-602.113	-19.826	-0.237	0.147
-601.098	104.906	-0.186	-0.220
-600.084	800.000	0.053	0.210
-599.069	401.729	0.094	-0.198
-598.055	-200.000	-0.005	-0.323
-597.040	-145.018	0.336	-0.031
-596.025	118.276	-0.146	-0.180
-595.011	-53.267	-0.140	0.064
-593.996	791.657	0.142	0.393
-592.982	94.011	-0.191	0.217
-591.967	-59.192	-0.143	0.062
-590.952	-200.000	-0.013	-0.119
-589.938	800.000	-0.084	-0.317
-588.923	602.584	-0.064	0.161
-587.909	105.454	-0.346	-0.410
-586.894	115.702	-0.279	0.342
-585.879	-77.406	-0.157	-0.055
-584.865	675.943	-0.034	-0.088
-583.850	74.676	-0.068	0.072
-582.836	280.498	0.172	-0.308
-581.821	-200.000	-0.074	-0.376
-580.806	800.000	0.023	0.097
-579.792	217.662	0.026	-0.041
-578.777	297.633	-0.101	-0.186
-577.763	317.060	0.183	0.346
-576.748	123.713	0.049	0.062
-575.733	-200.000	-0.003	0.235
-574.719	13.887	0.231	-0.180
-573.704	800.000	-0.053	-0.227
-572.690	-58.599	-0.425	0.185
-571.675	-85.917	-0.145	0.045
-570.661	-119.654	0.148	-0.026
-569.646	-144.565	-0.284	0.026
-568.631	-89.803	-0.182	-0.053
-567.617	-165.454	0.442	-0.019
-566.602	-32.530	0.289	-0.161
-565.588	-194.817	-0.297	-0.002
-564.573	-115.980	0.150	-0.028
-563.558	800.000	-0.058	-0.200
-562.544	564.743	-0.103	-0.251
-561.529	-71.754	0.142	0.053
-560.515	800.000	-0.178	-0.503
-559.500	-117.999	-0.169	0.030
-558.485	-144.423	-0.267	-0.025
-557.471	117.991	0.161	-0.199
-556.456	-147.571	-0.029	-0.002
-555.442	171.380	0.105	0.151
-554.427	-14.095	0.219	0.142
-553.412	12.086	0.022	-0.017
-552.398	-23.818	-0.263	-0.158
-551.383	58.087	-0.044	0.044
-550.369	-113.984	0.116	0.022
-549.354	310.143	-0.141	-0.265
-548.339	800.000	0.099	-0.355
-547.325	186.896	0.057	-0.085
-546.310	800.000	0.015	-0.061
-545.296	-121.408	-0.442	-0.074
-544.281	800.000	-0.103	-0.357
-543.266	-95.899	-0.477	-0.127
-542.252	-200.000	0.012	0.153
-541.237	-168.707	0.241	-0.009
-540.223	-30.935	0.113	0.064
-539.208	800.000	0.108	0.318
-538.193	800.000	-0.051	-0.167
-537.179	-30.104	-0.236	-0.134
-536.164	429.013	-0.206	-0.445
-535.150	-7.486	-0.199	-0.135
-534.135	238.672	-0.124	-0.206
-533.121	268.589	-0.135	-0.237
-532.106	792.348	-0.039	0.107
-531.091	65.672	-0.304	-0.308
-530.077	8.160	-0.146	0.110
-529.062	-168.667	-0.081	-0.003
-528.048	-200.000	-0.024	0.175
-527.033	-64.626	-0.288	-0.117
-526.018	-200.000	0.008	-0.234
-525.004	-67.481	0.106	-0.042
-523.989	-23.186	0.256	0.154
-522.975	800.000	-0.051	-0.145
-521.960	629.485	-0.135	0.342
-520.945	-169.432	0.318	-0.012
-519.931	-200.000	-0.019	-0.287
-518.916	-200.000	0.011	-0.070
-517.902	55.033	-0.135	-0.130
-516.887	-44.675	-0.128	-0.064
-515.872	66.701	-0.128	-0.131
-514.858	-39.472	0.135	-0.071
-513.843	800.000	-0.073	-0.300
-512.829	-128.446	0.195	0.028
-511.814	-42.803	-0.169	0.086
-510.799	22.862	-0.249	0.204
-509.785	-200.000	0.019	-0.207
-508.770	800.000	-0.027	-0.104
-507.756	-41.832	-0.362	-0.186
-506.741	24.308	-0.135	-0.112
-505.726	513.706	0.100	0.233
-504.712	4.021	-0.247	-0.181
-503.697	-75.838	0.077	0.027
-502.683	110.177	-0.113	-0.135
-501.668	186.744	0.200	0.297
-500.653	-34.747	0.048	-0.026
-499.639	-200.000	-0.015	-0.101
-498.624	-42.365	-0.129	0.066
-497.610	319.956	-0.053	0.100
-496.595	-146.597	0.236	0.021
-495.581	-36.636	0.288	0.155
-494.566	800.000	0.029	0.113
-493.551	-77.230	0.111	0.038
-492.537	-87.917	-0.170	0.051
-491.522	-200.000	0.023	-0.109
-490.508	292.195	0.122	-0.222
-489.493	106.101	0.235	-0.278
-488.478	-92.445	-0.187	0.053
-487.464	280.757	0.106	0.189
-486.449	-136.551	0.143	-0.017
-485.435	800.000	0.040	0.147
-484.420	137.409	-0.129	-0.169
-483.405	8.096	0.320	0.240
-482.391	613.305	-0.055	0.138
-481.376	800.000	0.067	0.186
-480.362	-200.000	-0.002	-0.044
-479.347	765.400	0.090	0.243
-478.332	362.977	0.150	0.302
-477.318	177.959	-0.213	0.310
-476.303	-52.264	0.283	-0.131
-475.289	1.348	-0.166	0.119
-474.274	-21.191	-0.070	0.042
-473.259	-200.000	0.007	-0.324
-472.245	513.586	0.087	0.203
-471.230	800.000	0.076	-0.283
-470.216	327.374	-0.365	-0.699
-469.201	67.274	0.253	0.257
-468.186	438.132	0.015	-0.032
-467.172	-58.616	-0.069	-0.030
-466.157	-200.000	0.070	-0.366
-465.143	800.000	0.084	-0.279
-464.128	302.202	-0.117	0.215
-463.113	237.320	0.035	0.058
-462.099	-122.487	0.341	-0.055
-461.084	156.574	-0.053	-0.073
-460.070	-28.286	0.225	-0.130
-459.055	371.507	-0.061	0.124
-458.040	23.978	0.019	0.016
-457.026	-200.000	-0.015	0.119
-456.011	-23.733	-0.121	-0.072
-454.997	-118.221	0.274	-0.049
-453.982	-83.519	-0.042	0.013
-452.968	299.769	0.053	0.097
-451.953	-43.642	-0.134	0.068
-450.938	219.273	0.079	0.126
-449.924	73.376	0.223	-0.233
-448.909	800.000	-0.146	-0.582
-447.895	-200.000	0.002	-0.158
-446.880	-200.000	0.040	0.387
-445.865	-170.989	0.250	0.009
-444.851	-87.306	-0.212	0.064
-443.836	77.428	0.101	-0.107
-442.822	36.243	-0.345	-0.303
-441.807	-47.888	-0.357	0.172
-440.792	-73.073	0.187	-0.068
-439.778	407.488	-0.068	0.143
-438.763	-113.549	-0.171	0.033
-437.749	497.319	0.203	0.467
-436.734	-86.026	0.262	-0.081
-435.719	-130.986	-0.187	0.025
-434.705	-139.267	-0.084	0.009
-433.690	-200.000	0.007	0.269
-432.676	-171.918	-0.149	0.005
-431.661	66.935	0.175	0.178
-430.646	-100.539	0.279	-0.069
-429.632	-200.000	0.032	-0.239
-428.617	-200.000	0.034	0.210
-427.603	-180.825	0.127	0.003
-426.588	-128.928	-0.170	0.024
-425.573	800.000	-0.050	0.165
-424.559	-160.472	0.384	-0.021
-423.544	-162.445	-0.260	-0.013
-422.530	189.748	0.089	0.134
-421.515	162.262	-0.191	0.266
-420.500	207.569	0.072	-0.112
-419.486	50.581	0.092	-0.087
-418.471	324.419	-0.128	-0.244
-417.457	507.455	-0.135	-0.311
-416.442	-200.000	0.041	-0.268
-415.428	800.000	0.060	-0.240
-414.413	-86.298	0.175	0.054
-413.398	10.720	0.097	-0.073
-412.384	-142.863	-0.436	-0.042
-411.369	-200.000	-0.001	-0.058
-410.355	72.628	0.164	-0.170
-409.340	-90.231	0.258	0.075
-408.325	-200.000	-0.007	0.114
-407.311	790.072	0.081	-0.223
-406.296	-54.552	-0.059	-0.027
-405.282	800.000	0.071	-0.228
-404.267	-181.165	0.392	-0.008
-403.252	-200.000	-0.017	0.075
-402.238	120.662	0.270	0.334
-401.223	141.076	0.069	0.091
-400.209	-119.245	-0.012	0.002
-399.194	433.134	-0.137	-0.295
-398.179	-200.000	-0.051	-0.278
-397.165	12.903	-0.182	0.140
-396.150	152.752	-0.111	0.151
-395.136	170.882	0.165	0.235
-394.121	-200.000	-0.015	-0.077
-393.106	-58.790	0.257	-0.111
-392.092	211.230	-0.055	0.086
-391.077	-200.000	-0.018	0.326
-390.063	800.000	-0.052	0.185
-389.048	-128.186	0.300	-0.043
-388.033	-192.022	0.270	0.003
-387.019	760.857	-0.124	-0.334
-386.004	-103.536	-0.400	0.094
-384.990	-2.416	0.165	0.115
-383.975	181.259	0.087	-0.127
-382.960	-200.000	0.031	0.202
-381.946	-79.415	0.204	0.069
-380.931	-200.000	0.009	0.324
-379.917	-1.467	0.253	0.178
-378.902	-90.700	0.167	-0.048
-377.888	589.143	0.040	0.099
-376.873	-108.497	0.307	0.066
-375.858	135.663	0.068	0.088
-374.844	778.344	-0.050	0.136
-373.829	-200.000	-0.006	0.252
-372.815	-108.399	-0.439	0.094
-371.800	272.306	-0.077	0.134
-370.785	16.077	-0.270	0.212
-369.771	-67.627	0.348	-0.136
-368.756	252.625	-0.078	0.132
-367.742	-200.000	0.030	-0.202
-366.727	90.749	-0.151	0.168
-365.712	-100.867	0.189	0.046
-364.698	794.699	-0.090	0.247
-363.683	-100.192	-0.222	-0.055
-362.669	-59.230	-0.153	-0.065
-361.654	-125.816	-0.430	0.065
-360.639	-49.699	0.356	0.168
-359.625	271.881	-0.145	0.254
-358.610	7.493	-0.087	0.065
-357.596	51.849	0.164	0.155
-356.581	800.000	0.060	-0.236
-355.566	145.427	0.151	-0.201
-354.552	-113.211	0.249	-0.049
-353.537	205.157	-0.113	0.174
-352.523	1.036	-0.120	-0.085
-351.508	93.316	-0.161	0.182
-350.493	234.623	-0.109	0.178
-349.479	-190.181	-0.344	0.004
-348.464	-200.000	0.030	0.233
-347.450	-200.000	-0.005	0.199
-346.435	-105.768	-0.142	-0.032
-345.420	-200.000	0.003	-0.255
-344.406	-66.900	0.146	0.057
-343.391	-32.590	-0.190	0.105
-342.377	139.422	-0.118	-0.154
-341.362	-44.925	0.014	0.007
-340.348	-43.981	0.217	-0.108
-339.333	-161.054	0.161	-0.008
-338.318	-9.422	0.140	0.093
-337.304	-110.839	0.392	0.080
-336.289	-42.536	0.172	-0.087
-335.275	-200.000	0.066	-0.442
-334.260	-200.000	-0.011	0.226
-333.245	-200.000	0.054	0.268
-332.231	87.026	0.142	0.156
-331.216	158.022	-0.100	0.137
-330.202	-66.165	-0.155	-0.061
-329.187	-107.350	0.140	0.030
-328.172	-50.064	-0.249	-0.117
-327.158	169.055	-0.106	-0.150
-326.143	800.000	-0.108	0.332
-325.129	-55.820	-0.320	0.142
-324.114	325.621	-0.029	0.055
-323.099	62.926	0.108	-0.108
-322.085	-75.455	0.200	-0.071
-321.070	-159.977	-0.266	-0.014
-320.056	2.056	0.296	-0.212
-319.041	-82.229	-0.200	0.065
-318.026	-200.000	-0.014	0.123
-317.012	3.927	0.169	0.123
-315.997	56.826	0.186	0.179
-314.983	132.921	-0.084	0.108
-313.968	-26.535	-0.149	-0.086
-312.953	800.000	-0.127	0.381
-311.939	-46.336	-0.213	0.104
-310.924	3.746	0.364	-0.263
-309.910	65.322	0.185	-0.185
-308.895	10.130	-0.275	-0.208
-307.880	-200.000	0.030	0.205
-306.866	-72.137	0.213	-0.078
-305.851	716.030	-0.055	0.144
-304.837	85.735	0.198	-0.216
-303.822	385.444	-0.060	-0.122
-302.807	-115.808	0.050	0.009
-301.793	58.786	-0.139	0.136
-300.778	-200.000	0.037	0.181
-299.764	-160.283	0.198	0.011
-298.749	240.899	0.141	0.234
-297.735	65.863	-0.176	-0.177
-296.720	-89.315	0.210	-0.061
-295.705	-200.000	0.002	0.042
-294.691	-132.706	-0.303	-0.038
-293.676	800.000	0.080	-0.246
-292.662	56.422	-0.291	-0.281
-291.647	-200.000	-0.007	0.228
-290.632	-195.043	-0.187	0.001
-289.618	-200.000	0.011	0.159
-288.603	800.000	-0.043	0.135
-287.589	35.646	0.333	-0.290
-286.574	-121.734	-0.223	0.037
-285.559	800.000	-0.086	0.255
-284.545	-71.665	-0.122	-0.045
-283.530	-91.514	0.109	0.031
-282.516	57.671	-0.171	0.165
-281.501	-200.000	0.015	-0.157
-280.486	-9.888	0.370	-0.244
-279.472	238.611	0.145	0.239
-278.457	57.858	0.145	0.141
-277.443	86.213	-0.239	0.260
-276.428	-200.000	0.509	-0.000
-275.413	467.931	0.055	0.123
-274.399	17.554	-0.081	-0.064
-273.384	-200.000	0.002	0.264
-272.370	800.000	0.081	0.329
-271.355	-124.334	-0.291	0.045
-270.340	1.325	-0.358	-0.255
-269.326	-127.375	-0.098	0.014
-268.311	330.913	-0.060	-0.114
-267.297	17.900	0.052	-0.041
-266.282	-22.364	-0.170	0.102
-265.267	-56.161	-0.017	0.007
-264.253	721.480	-0.119	0.315
-263.238	355.377	0.079	0.156
-262.224	439.754	0.175	0.379
-261.209	-12.714	0.283	-0.182
-260.195	793.848	0.081	-0.222
-259.180	678.505	-0.039	0.100
-258.165	117.327	0.055	0.067
-257.151	-106.401	0.299	-0.066
-256.136	-69.579	0.098	-0.037
-255.122	167.390	-0.165	0.232
-254.107	-200.000	0.016	-0.517
-253.092	200.997	-0.053	0.081
-252.078	800.000	0.021	0.085
-251.063	-23.050	-0.248	0.148
-250.049	-42.838	-0.150	0.075
-249.034	800.000	-0.049	-0.197
-248.019	66.516	0.196	0.198
-247.005	800.000	-0.081	-0.341
-245.990	800.000	-0.087	-0.250
-244.976	-113.401	-0.411	-0.080
-243.961	-119.106	-0.465	0.080
-242.946	-3.839	-0.200	0.137
-241.932	608.119	-0.092	0.227
-240.917	21.238	0.321	0.258
-239.903	-200.000	0.016	-0.174
-238.888	-200.000	-0.008	-0.121
-237.873	-126.713	-0.235	0.034
-236.859	-200.000	-0.010	0.264
-235.844	15.243	-0.241	0.187
-234.830	44.341	-0.221	-0.200
-233.815	-21.545	0.177	-0.107
-232.800	-200.000	-0.022	-0.164
-231.786	154.442	-0.170	0.231
-230.771	443.551	-0.222	0.482
-229.757	7.898	0.175	0.130
-228.742	422.824	0.104	-0.221
-227.727	289.681	0.065	0.116
-226.713	451.727	-0.097	-0.212
-225.698	-105.698	0.166	-0.037
-224.684	502.791	-0.099	-0.226
-223.669	-200.000	-0.008	-0.186
-222.655	-40.738	0.422	-0.216
-221.640	-101.193	0.254	0.061
-220.625	55.132	0.019	0.018
-219.611	-171.087	-0.060	0.002
-218.596	-82.753	0.255	0.082
-217.582	-131.465	-0.293	0.038
-216.567	-16.706	-0.299	0.187
-215.552	40.481	0.098	0.087
-214.538	430.838	-0.012	0.026
-213.523	800.000	-0.072	0.226
-212.509	-60.015	-0.235	-0.099
-211.494	800.000	-0.041	-0.150
-210.479	144.563	0.146	-0.192
-209.465	145.285	-0.107	0.142
-208.450	4.569	0.288	-0.209
-207.436	-77.969	0.611	0.208
-206.421	-200.000	0.000	0.124
-205.406	767.220	0.041	-0.109
-204.392	169.665	0.183	-0.258
-203.377	-130.675	0.191	-0.025
-202.363	-200.000	-0.017	0.148
-201.348	155.069	0.055	-0.074
-200.333	389.533	0.060	0.124
-199.319	118.633	-0.268	0.327
-198.304	-200.000	0.289	-0.001
-197.290	-200.000	0.056	-0.255
-196.275	-58.292	-0.134	-0.058
-195.260	198.441	0.214	-0.323
-194.246	-58.420	0.447	0.192
-193.231	171.050	0.137	-0.193
-192.217	7.900	0.294	-0.218
-191.202	15.062	-0.229	0.177
-190.187	-156.835	-0.111	-0.007
-189.173	-82.049	0.131	-0.042
-188.158	59.716	-0.225	0.219
-187.144	-200.000	-0.038	-0.223
-186.129	800.000	0.026	0.076
-185.114	-14.014	-0.358	0.228
-184.100	-200.000	-0.007	0.155
-183.085	134.899	-0.090	0.115
-182.071	199.352	-0.080	0.121
-181.056	-165.891	0.233	0.010
-180.042	-47.021	-0.034	0.016
-179.027	101.279	0.289	-0.332
-178.012	489.831	-0.083	-0.187
-176.998	-66.587	0.249	0.098
-175.983	-200.000	0.106	0.585
-174.969	-55.930	-0.397	0.175
-173.954	-78.533	0.142	-0.048
-172.939	191.834	0.157	-0.234
-171.925	-95.476	-0.527	-0.140
-170.910	-117.723	0.108	-0.019
-169.896	-129.296	0.072	-0.010
-168.881	800.000	-0.063	0.184
-167.866	14.655	0.166	-0.128
-166.852	-105.759	0.133	0.030
-165.837	-200.000	0.029	-0.156
-164.823	47.162	0.186	0.171
-163.808	-147.427	0.191	0.016
-162.793	-57.325	-0.303	0.132
-161.779	419.744	0.059	-0.124
-160.764	295.756	-0.073	-0.133
-159.750	800.000	0.083	-0.277
-158.735	-144.854	-0.124	0.011
-157.720	-101.584	0.117	0.028
-156.706	-105.373	0.282	-0.063
-155.691	-52.661	0.365	0.166
-154.677	53.634	-0.346	0.327
-153.662	-115.119	-0.307	0.057
-152.647	-192.214	-0.086	-0.001
-151.633	-14.177	-0.253	0.161
-150.618	-133.162	-0.364	-0.045
-149.604	800.000	-0.046	-0.194
-148.589	371.342	0.111	0.222
-147.574	-196.206	0.225	0.002
-146.560	-200.000	-0.004	-0.206
-145.545	-121.351	-0.219	-0.036
-144.531	-200.000	-0.015	0.292
-143.516	265.889	-0.147	0.253
-142.502	-103.487	-0.072	-0.017
-141.487	800.000	0.067	-0.225
-140.472	-4.923	0.278	-0.189
-139.458	312.134	0.063	-0.116
-138.443	-200.000	0.078	-0.352
-137.429	-23.188	0.455	-0.270
-136.414	-200.000	0.027	0.217
-135.399	-141.125	0.130	-0.013
-134.385	-78.657	0.242	0.081
-133.370	-191.237	0.273	-0.003
-132.356	-158.584	0.226	0.013
-131.341	-70.170	-0.134	0.050
-130.326	-25.749	-0.135	0.078
-129.312	800.000	-0.101	0.295
-128.297	800.000	0.043	-0.118
-127.283	58.143	-0.194	-0.188
-126.268	589.355	0.126	-0.307
-125.253	-10.416	-0.102	-0.067
-124.239	16.073	0.337	0.262
-123.224	311.945	0.114	-0.210
-122.210	-200.000	0.018	0.133
