DTS Sentinel unit serial number:	SN413079Multiplexer serial number:	ORYXHardware model number:	OX4-SRSoftware version number:	ORYX F/W v4.00 Oryx Data Collector v3.7.2.0data status	okinstallation	princeton_trtdifferential loss correction	single-endedforward channel	channel 3reverse channel	N/Adate	2019/09/13time	14:32:34forward acquisition time	60.00reverse acquisition time	0.00gamma	496.2192k internal	0.2302k external	0.2302temperature offset calibration	1.0150default loss term (dB/km)	0.3790temperature slope calibration	1.0000multiplexer offset coefficient	1.0000multiplexer slope coefficient	1.0000fibre end	0.00T internal ref (°C)	35.27T ext. ref 1 (°C)	4.64T ext. ref 2 (°C)	31.74length (m)	temperature (°C)	Stokes	anti-Stokes-747.200	-128.756	-0.408	-0.059
-746.185	800.000	-0.020	0.083
-745.171	-82.456	0.193	0.064
-744.156	-56.769	-0.077	-0.035
-743.142	-74.445	0.215	-0.079
-742.127	-82.248	-0.470	0.156
-741.112	87.211	-0.283	0.319
-740.098	35.952	-0.032	0.028
-739.083	194.481	0.062	0.095
-738.069	-99.589	-0.205	0.052
-737.054	-113.693	0.544	-0.108
-736.039	144.652	-0.178	0.243
-735.025	-67.453	0.194	-0.078
-734.010	277.634	-0.236	-0.428
-732.996	800.000	-0.146	-0.431
-731.981	-30.239	-0.155	-0.090
-730.966	-200.000	-0.017	-0.256
-729.952	800.000	-0.064	-0.193
-728.937	51.039	-0.058	-0.056
-727.923	28.685	-0.013	0.011
-726.908	607.818	0.019	-0.047
-725.894	46.103	0.162	-0.153
-724.879	15.011	0.215	-0.171
-723.864	800.000	0.113	-0.376
-722.850	1.147	0.078	0.057
-721.835	2.304	-0.139	-0.102
-720.821	321.271	-0.209	-0.404
-719.806	441.551	0.076	-0.170
-718.791	1.556	0.237	-0.173
-717.777	30.780	-0.182	0.158
-716.762	800.000	-0.055	0.163
-715.748	-200.000	-0.001	-0.048
-714.733	-95.832	0.298	-0.081
-713.718	128.365	-0.215	-0.279
-712.704	-200.000	0.037	0.195
-711.689	-4.325	-0.238	0.168
-710.675	-28.480	-0.076	0.044
-709.660	35.099	-0.060	-0.053
-708.645	-87.168	-0.043	-0.013
-707.631	-10.502	0.083	-0.056
-706.616	-97.479	0.209	0.055
-705.602	671.060	-0.062	-0.164
-704.587	46.634	0.114	-0.108
-703.572	83.852	0.066	-0.073
-702.558	19.958	-0.326	0.267
-701.543	47.859	0.138	0.132
-700.529	10.997	-0.128	0.099
-699.514	162.321	0.064	-0.092
-698.499	369.272	0.092	-0.189
-697.485	-76.108	0.143	0.052
-696.470	98.598	-0.196	-0.230
-695.456	-55.479	0.164	-0.075
-694.441	-197.043	0.309	-0.002
-693.426	200.740	0.187	-0.293
-692.412	-122.115	-0.171	0.029
-691.397	-57.112	-0.168	-0.075
-690.383	-24.835	0.165	-0.100
-689.368	-127.736	0.357	-0.052
-688.354	49.676	-0.162	0.155
-687.339	800.000	0.028	-0.113
-686.324	-34.219	-0.287	-0.160
-685.310	-31.050	-0.461	0.265
-684.295	-200.000	0.022	0.183
-683.281	-94.960	-0.071	0.019
-682.266	-200.000	0.034	-0.462
-681.251	800.000	0.014	-0.056
-680.237	800.000	0.061	-0.244
-679.222	482.704	0.132	0.306
-678.208	-200.000	-0.015	0.089
-677.193	-64.091	-0.132	-0.055
-676.178	800.000	0.062	-0.180
-675.164	-200.000	-0.012	0.244
-674.149	114.231	0.150	0.186
-673.135	800.000	-0.088	-0.387
-672.120	800.000	-0.024	-0.091
-671.105	718.014	0.111	0.299
-670.091	19.882	0.402	-0.330
-669.076	-73.103	-0.225	0.084
-668.062	128.293	-0.131	0.169
-667.047	262.639	-0.111	0.195
-666.032	620.768	-0.141	0.362
-665.018	86.268	0.152	0.170
-664.003	-3.600	-0.159	0.112
-662.989	-80.948	0.163	0.055
-661.974	147.490	0.219	0.300
-660.959	19.636	0.327	0.267
-659.945	236.588	-0.161	-0.271
-658.930	55.782	-0.182	-0.179
-657.916	95.015	0.141	-0.163
-656.901	340.674	0.169	0.334
-655.886	-72.415	0.339	-0.127
-654.872	42.341	-0.297	-0.274
-653.857	-176.150	-0.418	0.011
-652.843	-199.829	-0.251	-0.001
-651.828	-114.785	-0.113	0.022
-650.814	-200.000	-0.070	-0.333
-649.799	409.188	-0.074	0.160
-648.784	-200.000	-0.020	-0.371
-647.770	-47.434	0.152	-0.075
-646.755	-200.000	-0.002	-0.198
-645.741	800.000	-0.088	-0.295
-644.726	-200.000	0.048	0.314
-643.711	-200.000	0.011	0.087
-642.697	-101.462	-0.377	-0.093
-641.682	-64.888	0.413	0.169
-640.668	-64.568	-0.105	0.043
-639.653	-49.371	-0.060	-0.029
-638.638	-53.308	-0.029	0.014
-637.624	-123.103	0.288	0.047
-636.609	56.647	0.036	-0.036
-635.595	480.206	-0.039	0.090
-634.580	284.721	0.146	-0.268
-633.565	-200.000	-0.031	-0.370
-632.551	12.025	0.210	-0.164
-631.536	-26.552	-0.159	-0.094
-630.522	-66.402	-0.077	-0.031
-629.507	210.417	0.176	-0.281
-628.492	43.100	0.200	-0.185
-627.478	-200.000	-0.116	0.545
-626.463	-184.481	-0.024	-0.000
-625.449	97.710	-0.080	-0.093
-624.434	554.816	0.029	-0.071
-623.419	4.802	0.089	-0.067
-622.405	-200.000	0.017	0.252
-621.390	-200.000	-0.067	-0.298
-620.376	653.336	-0.035	-0.092
-619.361	800.000	-0.033	-0.098
-618.346	-122.828	-0.241	0.039
-617.332	657.136	-0.027	-0.071
-616.317	119.397	-0.055	-0.069
-615.303	-101.879	-0.098	0.024
-614.288	-134.356	-0.201	0.025
-613.273	-99.960	0.184	-0.047
-612.259	463.450	0.051	0.116
-611.244	410.842	0.072	-0.156
-610.230	-200.000	0.024	-0.114
-609.215	-119.725	0.211	-0.037
-608.201	-200.000	0.021	-0.113
-607.186	57.536	-0.393	0.389
-606.171	-79.717	-0.262	-0.089
-605.157	-51.778	0.356	-0.168
-604.142	-200.000	0.017	0.289
-603.128	-95.045	-0.182	0.050
-602.113	-117.344	-0.208	0.038
-601.098	90.922	-0.169	-0.192
-600.084	117.989	-0.084	0.105
-599.069	141.420	-0.171	0.230
-598.055	800.000	-0.027	0.114
-597.040	-200.000	-0.048	0.287
-596.025	800.000	0.006	0.026
-595.011	-104.917	-0.285	0.066
-593.996	433.496	0.081	-0.178
-592.982	-28.292	-0.247	-0.144
-591.967	-109.293	0.119	-0.026
-590.952	800.000	0.056	0.235
-589.938	800.000	-0.090	-0.274
-588.923	-87.061	-0.454	-0.140
-587.909	-200.000	-0.042	-0.285
-586.894	800.000	-0.041	-0.145
-585.879	800.000	-0.002	0.006
-584.865	201.516	0.068	-0.106
-583.850	81.123	0.125	-0.137
-582.836	800.000	0.008	0.037
-581.821	-83.246	-0.270	0.088
-580.806	-55.641	0.167	0.076
-579.792	-146.877	0.331	-0.029
-578.777	148.021	-0.116	0.159
-577.763	-200.000	0.039	-0.219
-576.748	800.000	-0.098	-0.316
-575.733	-200.000	-0.031	-0.159
-574.719	-200.000	-0.027	-0.344
-573.704	-200.000	-0.071	-0.385
-572.690	321.537	0.035	0.068
-571.675	-115.552	0.281	-0.053
-570.661	-37.089	0.240	-0.130
-569.646	102.934	-0.189	0.224
-568.631	-79.162	-0.467	0.161
-567.617	-89.073	0.161	0.048
-566.602	248.848	0.168	0.288
-565.588	-82.582	0.235	0.077
-564.573	362.990	0.102	-0.207
-563.558	520.761	0.059	0.140
-562.544	-200.000	0.065	-0.305
-561.529	-54.134	-0.139	-0.064
-560.515	-20.796	-0.255	-0.158
-559.500	733.125	-0.040	-0.108
-558.485	62.337	0.207	0.209
-557.471	117.407	-0.101	-0.126
-556.456	800.000	-0.093	-0.266
-555.442	121.390	-0.211	0.266
-554.427	-79.432	0.547	0.187
-553.412	75.690	-0.141	-0.150
-552.398	329.182	0.109	-0.211
-551.383	456.785	0.021	-0.048
-550.369	144.044	-0.301	0.406
-549.354	-200.000	0.222	-0.000
-548.339	107.815	0.111	-0.134
-547.325	108.810	-0.088	-0.106
-546.310	93.882	-0.283	-0.324
-545.296	-200.000	-0.012	0.095
-544.281	455.102	0.082	0.185
-543.266	800.000	0.120	-0.364
-542.252	37.604	-0.276	0.248
-541.237	-139.927	-0.080	0.009
-540.223	-200.000	0.003	0.163
-539.208	-119.517	0.282	-0.049
-538.193	-46.725	-0.307	0.152
-537.179	164.681	-0.197	-0.281
-536.164	-49.307	-0.100	0.048
-535.150	532.578	-0.158	0.378
-534.135	-131.134	-0.298	0.040
-533.121	24.892	-0.297	-0.249
-532.106	24.914	0.031	-0.026
-531.091	329.839	0.183	-0.355
-530.077	-46.451	-0.263	0.131
-529.062	-6.246	-0.388	-0.268
-528.048	-200.000	-0.009	0.270
-527.033	154.842	0.175	-0.243
-526.018	78.872	-0.230	-0.249
-525.004	-20.125	-0.218	0.136
-523.989	-115.537	-0.118	-0.022
-522.975	-130.451	0.151	0.021
-521.960	265.199	0.053	0.093
-520.945	-200.000	-0.070	0.338
-519.931	95.591	-0.148	-0.171
-518.916	-182.167	-0.206	0.004
-517.902	800.000	0.114	-0.333
-516.887	-200.000	0.063	0.388
-515.872	800.000	-0.089	0.285
-514.858	-130.358	-0.089	-0.012
-513.843	196.200	-0.072	0.111
-512.829	-105.395	-0.213	0.049
-511.814	-200.000	-0.038	0.242
-510.799	155.315	0.252	0.351
-509.785	-69.475	0.133	-0.052
-508.770	-109.727	0.095	0.020
-507.756	-166.206	0.197	-0.008
-506.741	291.936	0.044	-0.081
-505.726	-62.569	0.405	-0.170
-504.712	800.000	0.082	-0.275
-503.697	197.570	-0.043	-0.067
-502.683	-200.000	0.080	0.428
-501.668	-200.000	0.001	0.148
-500.653	235.102	0.092	0.154
-499.639	15.940	0.178	0.142
-498.624	152.175	-0.124	0.170
-497.610	18.337	-0.107	-0.087
-496.595	-200.000	0.033	0.146
-495.581	-200.000	-0.014	-0.132
-494.566	-17.984	-0.180	0.114
-493.551	-140.906	0.242	-0.025
-492.537	-200.000	-0.033	0.197
-491.522	-132.359	0.180	0.023
-490.508	-107.380	0.369	0.082
-489.493	737.222	-0.103	-0.279
-488.478	652.686	-0.086	0.222
-487.464	-200.000	-0.050	0.271
-486.449	17.384	-0.244	-0.195
-485.435	8.590	0.039	0.030
-484.420	800.000	-0.029	-0.101
-483.405	-9.178	-0.049	0.033
-482.391	-90.045	-0.335	-0.098
-481.376	-91.039	0.453	-0.131
-480.362	21.574	0.337	0.277
-479.347	710.765	0.104	0.279
-478.332	170.051	-0.129	-0.186
-477.318	-124.396	0.311	-0.049
-476.303	19.448	0.345	-0.279
-475.289	-197.880	-0.204	0.001
-474.274	34.414	-0.169	0.148
-473.259	-170.575	-0.117	-0.004
-472.245	75.863	0.042	0.045
-471.230	-62.738	-0.108	-0.045
-470.216	68.638	-0.167	0.173
-469.201	-83.118	-0.196	0.064
-468.186	-80.424	-0.025	0.008
-467.172	622.089	-0.205	-0.519
-466.157	-19.322	-0.028	-0.018
-465.143	10.286	0.284	0.218
-464.128	-147.698	0.246	0.021
-463.113	-200.000	0.005	0.262
-462.099	-138.232	-0.476	0.053
-461.084	93.566	-0.114	-0.130
-460.070	82.506	-0.066	-0.073
-459.055	-200.000	0.013	0.175
-458.040	800.000	-0.062	-0.177
-457.026	-200.000	0.022	-0.127
-456.011	-200.000	0.000	-0.004
-454.997	261.544	0.171	-0.299
-453.982	-108.732	-0.287	0.062
-452.968	174.162	0.018	-0.026
-451.953	-200.000	-0.039	-0.280
-450.938	-79.246	-0.137	-0.047
-449.924	800.000	0.057	0.194
-448.909	771.453	-0.119	-0.327
-447.895	-4.331	-0.336	-0.234
-446.880	180.930	-0.043	-0.064
-445.865	57.417	0.212	-0.208
-444.851	800.000	-0.016	0.054
-443.836	400.609	-0.129	0.272
-442.822	-143.195	-0.079	-0.008
-441.807	-200.000	0.013	0.075
-440.792	177.915	-0.101	0.149
-439.778	-45.534	-0.261	-0.130
-438.763	-54.476	0.079	-0.036
-437.749	179.742	0.071	-0.105
-436.734	15.161	0.148	0.117
-435.719	-200.000	0.025	-0.293
-434.705	-63.265	-0.144	-0.060
-433.690	-200.000	-0.240	-0.001
-432.676	182.194	0.228	-0.338
-431.661	53.765	0.315	-0.304
-430.646	-200.000	-0.010	-0.228
-429.632	800.000	-0.063	-0.193
-428.617	-138.187	-0.062	0.007
-427.603	-41.713	0.218	-0.113
-426.588	800.000	-0.023	-0.093
-425.573	-48.145	0.146	-0.071
-424.559	-91.258	-0.256	0.074
-423.544	37.234	-0.080	-0.072
-422.530	-200.000	0.029	-0.216
-421.515	579.550	0.091	0.225
-420.500	-83.779	-0.515	0.165
-419.486	377.036	-0.019	-0.038
-418.471	49.435	-0.208	-0.197
-417.457	439.314	-0.168	-0.370
-416.442	23.852	-0.279	-0.231
-415.428	-108.176	-0.104	0.023
-414.413	29.969	-0.107	0.092
-413.398	-94.574	0.090	0.025
-412.384	-11.640	-0.123	0.081
-411.369	-200.000	-0.004	0.284
-410.355	114.445	0.254	0.311
-409.340	-147.793	0.126	-0.011
-408.325	-200.000	0.027	0.191
-407.311	-200.000	-0.044	0.221
-406.296	-148.042	-0.228	0.019
-405.282	800.000	0.017	0.062
-404.267	-12.577	-0.129	0.085
-403.252	800.000	0.062	0.188
-402.238	-104.200	0.046	-0.011
-401.223	-76.805	0.152	-0.053
-400.209	122.888	0.052	0.065
-399.194	-122.145	0.248	0.041
-398.179	-100.906	0.133	-0.033
-397.165	86.650	0.085	0.094
-396.150	10.940	0.112	-0.086
-395.136	12.546	0.148	-0.115
-394.121	-56.717	0.134	0.060
-393.106	-200.000	-0.090	-0.440
-392.092	-94.935	0.116	0.032
-391.077	-6.746	-0.293	-0.200
-390.063	708.264	-0.134	0.357
-389.048	-9.181	0.264	-0.178
-388.033	-200.000	-0.004	-0.248
-387.019	611.778	-0.041	-0.102
-386.004	3.629	0.123	0.090
-384.990	-200.000	-0.072	0.442
-383.975	-87.169	0.276	0.084
-382.960	-154.227	0.453	0.031
-381.946	-200.000	-0.017	-0.414
-380.931	800.000	-0.022	-0.085
-379.917	37.858	-0.065	0.058
-378.902	-24.840	0.249	-0.149
-377.888	297.445	0.118	0.219
-376.873	-137.799	-0.228	0.026
-375.858	-63.798	0.229	-0.094
-374.844	745.767	-0.022	-0.060
-373.829	20.883	0.361	0.294
-372.815	251.158	0.138	0.236
-371.800	101.463	-0.164	-0.192
-370.785	233.541	-0.112	0.185
-369.771	19.178	0.435	-0.350
-368.756	800.000	-0.054	-0.223
-367.742	-85.446	0.286	0.089
-366.727	-10.331	-0.067	0.045
-365.712	152.711	0.032	0.043
-364.698	410.078	-0.103	-0.219
-363.683	160.960	-0.103	-0.144
-362.669	-69.165	0.306	0.118
-361.654	-38.731	0.090	-0.048
-360.639	800.000	-0.051	-0.143
-359.625	-99.376	0.004	0.001
-358.610	-68.705	0.305	-0.118
-357.596	800.000	-0.059	0.211
-356.581	46.458	-0.160	0.149
-355.566	47.958	-0.128	0.120
-354.552	-169.291	-0.231	-0.009
-353.537	-200.000	0.052	-0.263
-352.523	29.791	-0.159	0.136
-351.508	-73.462	-0.200	-0.073
-350.493	-142.843	0.262	0.026
-349.479	-40.111	0.204	-0.107
-348.464	800.000	0.045	0.131
-347.450	-42.069	0.276	0.142
-346.435	104.659	0.126	0.149
-345.420	84.803	-0.345	0.380
-344.406	-200.000	0.018	-0.180
-343.391	190.167	0.119	0.179
-342.377	68.446	0.076	0.078
-341.362	2.655	0.243	-0.177
-340.348	-57.806	-0.279	-0.122
-339.333	20.285	0.340	-0.276
-338.318	-80.536	-0.227	-0.076
-337.304	-144.282	-0.044	-0.004
-336.289	-80.354	0.254	0.085
-335.275	531.043	0.127	-0.301
-334.260	465.032	-0.194	0.436
-333.245	-200.000	-0.000	0.111
-332.231	-200.000	-0.010	0.067
-331.216	-113.654	0.354	0.069
-330.202	-200.000	-0.008	0.278
-329.187	-164.754	-0.201	0.009
-328.172	484.151	0.130	-0.296
-327.158	-31.603	-0.280	-0.157
-326.143	-200.000	0.030	-0.230
-325.129	-30.285	-0.200	-0.114
-324.114	-149.933	0.078	0.006
-323.099	77.488	0.198	0.211
-322.085	22.696	0.199	-0.163
-321.070	-140.995	0.272	-0.028
-320.056	800.000	-0.020	0.065
-319.041	-200.000	-0.034	0.179
-318.026	-6.829	0.224	0.153
-317.012	-123.413	0.204	-0.033
-315.997	800.000	0.073	0.256
-314.983	-52.987	-0.128	0.059
-313.968	9.017	-0.169	0.128
-312.953	-200.000	0.034	0.486
-311.939	-7.939	0.218	0.147
-310.924	-68.207	-0.090	0.035
-309.910	15.398	0.277	0.218
-308.895	-85.724	-0.179	-0.056
-307.880	-200.000	-0.029	-0.313
-306.866	-58.414	0.257	0.112
-305.851	250.675	0.064	0.109
-304.837	-75.472	0.106	0.038
-303.822	-113.270	0.311	0.061
-302.807	-200.000	0.010	-0.110
-301.793	800.000	0.051	-0.153
-300.778	146.701	-0.096	-0.129
-299.764	-137.339	-0.366	0.042
-298.749	-168.461	-0.196	-0.008
-297.735	-14.222	0.240	0.155
-296.720	800.000	-0.118	0.345
-295.705	291.581	-0.035	0.063
-294.691	-49.419	-0.327	-0.156
-293.676	148.517	0.164	-0.222
-292.662	635.892	0.087	-0.220
-291.647	50.494	-0.092	-0.087
-290.632	-37.588	-0.209	-0.112
-289.618	37.707	-0.352	0.313
-288.603	-200.000	0.050	-0.291
-287.589	-36.704	-0.129	-0.069
-286.574	-27.638	-0.261	0.151
-285.559	-34.178	-0.277	-0.153
-284.545	218.036	0.253	-0.404
-283.530	-21.420	0.449	-0.275
-282.516	800.000	-0.008	-0.025
-281.501	-200.000	0.009	-0.086
-280.486	-167.182	-0.235	0.010
-279.472	800.000	0.068	-0.196
-278.457	645.382	0.137	0.349
-277.443	-113.370	-0.466	0.092
-276.428	239.777	-0.050	0.083
-275.413	-76.779	0.169	0.059
-274.399	-124.317	0.308	-0.048
-273.384	-134.490	0.364	-0.045
-272.370	-14.925	-0.109	0.070
-271.355	-71.354	-0.196	0.073
-270.340	310.415	-0.222	0.416
-269.326	-45.797	0.183	0.090
-268.311	-67.355	0.571	-0.224
-267.297	156.440	-0.111	0.153
-266.282	-146.481	0.144	-0.013
-265.267	38.554	-0.168	0.150
-264.253	-49.566	-0.305	0.145
-263.238	338.835	-0.057	-0.112
-262.224	-32.522	-0.215	-0.120
-261.209	-48.476	-0.139	0.067
-260.195	-60.999	0.253	-0.107
-259.180	800.000	0.097	0.284
-258.165	-35.708	0.223	0.121
-257.151	-62.480	-0.387	0.161
-256.136	-95.003	0.374	0.101
-255.122	-200.000	-0.032	0.253
-254.107	-40.445	0.036	-0.018
-253.092	-99.739	0.113	0.028
-252.078	800.000	-0.071	-0.198
-251.063	-2.122	-0.226	0.159
-250.049	-95.973	0.110	0.029
-249.034	147.730	0.064	0.087
-248.019	-29.804	-0.238	-0.136
-247.005	800.000	0.051	0.159
-245.990	-200.000	-0.009	0.273
-244.976	-27.156	-0.350	-0.204
-243.961	-56.358	-0.109	-0.049
-242.946	-40.196	-0.201	0.105
-241.932	100.600	0.044	0.051
-240.917	-200.000	0.014	-0.199
-239.903	-200.000	0.080	-0.000
-238.888	-34.914	-0.253	0.138
-237.873	-92.942	0.188	-0.052
-236.859	15.819	-0.213	-0.168
-235.844	-25.365	0.048	-0.029
-234.830	800.000	0.020	0.059
-233.815	-76.980	0.168	-0.059
-232.800	-200.000	0.024	0.145
-231.786	152.412	-0.074	-0.101
-230.771	-136.165	0.351	-0.041
-229.757	800.000	-0.027	-0.111
-228.742	-150.178	-0.204	-0.016
-227.727	-51.880	-0.104	0.048
-226.713	-14.041	0.089	0.057
-225.698	554.696	-0.059	0.143
-224.684	34.078	0.273	-0.238
-223.669	123.516	0.047	0.058
-222.655	225.079	0.106	0.171
-221.640	43.038	0.219	-0.199
-220.625	161.259	0.183	0.255
-219.611	18.853	0.081	0.065
-218.596	271.944	0.067	-0.117
-217.582	-200.000	0.034	0.313
-216.567	87.333	0.139	0.153
-215.552	410.511	0.095	0.202
-214.538	-124.185	-0.432	-0.068
-213.523	-93.121	-0.216	0.060
-212.509	800.000	0.068	0.288
-211.494	-19.853	-0.281	0.173
-210.479	-200.000	0.017	-0.122
-209.465	-200.000	-0.023	0.213
-208.450	-156.935	-0.161	0.010
-207.436	-108.291	-0.119	0.026
-206.421	-71.080	0.178	-0.067
-205.406	-186.401	0.193	-0.003
-204.392	-200.000	0.034	-0.373
-203.377	-27.186	-0.112	0.065
-202.363	-75.484	0.186	0.066
-201.348	-89.095	0.245	-0.072
-200.333	-200.000	-0.014	-0.296
-199.319	494.656	-0.056	-0.128
-198.304	-105.594	0.173	-0.039
-197.290	-200.000	0.009	0.103
-196.275	-23.141	0.156	0.094
-195.260	-168.871	-0.228	-0.009
-194.246	800.000	0.131	0.422
-193.231	-200.000	-0.008	0.316
-192.217	120.194	0.015	0.019
-191.202	32.762	0.110	0.095
-190.187	222.884	0.124	0.200
-189.173	441.636	0.133	-0.290
-188.158	800.000	-0.013	0.051
-187.144	-12.847	-0.095	0.062
-186.129	461.683	-0.118	0.263
-185.114	419.556	0.096	0.205
-184.100	-133.760	-0.278	-0.035
-183.085	-81.309	-0.112	0.037
-182.071	-68.643	-0.202	-0.078
-181.056	-53.483	-0.113	-0.052
-180.042	800.000	-0.018	0.066
-179.027	538.842	-0.081	0.193
-178.012	-43.574	0.041	-0.021
-176.998	-138.680	0.121	-0.013
-175.983	12.768	0.083	0.064
-174.969	-200.000	0.248	0.001
-173.954	-200.000	-0.013	-0.075
-172.939	70.409	-0.041	0.042
-171.925	-84.488	-0.179	-0.056
-170.910	-200.000	0.023	-0.530
-169.896	-31.960	0.273	0.152
-168.881	-29.536	-0.083	-0.048
-167.866	-64.384	0.303	-0.123
-166.852	-54.776	0.149	-0.067
-165.837	-140.567	-0.196	-0.020
-164.823	-104.418	-0.439	0.101
-163.808	800.000	0.122	0.503
-162.793	-104.609	0.353	0.081
-161.779	-154.653	-0.313	-0.021
-160.764	68.003	0.097	-0.099
-159.750	-33.424	0.096	-0.053
-158.735	-165.518	-0.200	-0.009
-157.720	-74.232	0.410	0.148
-156.706	-85.922	-0.221	0.068
-155.691	-128.683	0.378	-0.053
-154.677	33.651	-0.141	-0.122
-153.662	800.000	0.063	-0.184
-152.647	-200.000	0.019	0.194
-151.633	154.929	0.060	-0.082
-150.618	29.041	0.095	0.080
-149.604	-200.000	-0.018	0.275
-148.589	496.395	0.124	-0.283
-147.574	-126.399	0.133	0.020
-146.560	-26.541	-0.149	-0.087
-145.545	181.198	-0.019	0.028
-144.531	686.887	0.083	-0.216
-143.516	291.057	-0.126	-0.228
-142.502	-129.128	0.144	-0.020
-141.487	-150.924	0.434	0.033
-140.472	-64.932	-0.179	0.072
-139.458	379.896	-0.100	-0.203
-138.443	-39.515	0.263	-0.137
-137.429	-95.234	-0.472	0.127
-136.414	-200.000	0.006	-0.119
-135.399	800.000	0.002	0.007
-134.385	800.000	-0.066	-0.275
-133.370	93.892	0.120	-0.136
-132.356	800.000	0.025	-0.084
-131.341	-33.974	0.359	-0.197
-130.326	40.074	-0.088	0.079
-129.312	6.236	-0.209	0.154
-128.297	-174.262	-0.053	0.002
-127.283	440.946	-0.075	-0.163
-126.268	-77.739	0.161	-0.056
-125.253	-72.389	0.066	0.024
-124.239	-49.556	0.047	-0.022
-123.224	-176.626	-0.083	0.002
-122.210	-200.000	0.016	-0.082
-121.195	800.000	0.110	-0.367
