DTS Sentinel unit serial number:	SN413079Multiplexer serial number:	ORYXHardware model number:	OX4-SRSoftware version number:	ORYX F/W v4.00 Oryx Data Collector v3.7.2.0data status	okinstallation	princeton_trtdifferential loss correction	single-endedforward channel	channel 3reverse channel	N/Adate	2019/09/14time	15:52:34forward acquisition time	60.00reverse acquisition time	0.00gamma	496.2192k internal	0.2294k external	0.2294temperature offset calibration	1.0053default loss term (dB/km)	0.3790temperature slope calibration	1.0000multiplexer offset coefficient	1.0000multiplexer slope coefficient	1.0000fibre end	0.00T internal ref (°C)	38.69T ext. ref 1 (°C)	5.12T ext. ref 2 (°C)	33.49length (m)	temperature (°C)	Stokes	anti-Stokes-747.200	213.169	-0.218	0.352
-746.185	-97.183	0.440	0.117
-745.171	103.207	-0.184	0.221
-744.156	797.245	-0.015	0.042
-743.142	86.390	0.108	0.121
-742.127	-200.000	0.012	0.237
-741.112	-200.000	-0.044	0.547
-740.098	63.860	0.173	0.178
-739.083	-120.637	-0.107	0.019
-738.069	91.083	-0.152	-0.174
-737.054	-54.032	0.090	-0.042
-736.039	37.705	-0.252	0.229
-735.025	-83.540	-0.244	-0.080
-734.010	800.000	0.012	-0.043
-732.996	-102.544	-0.079	-0.019
-731.981	-170.758	0.143	0.005
-730.966	-118.555	-0.385	0.070
-729.952	-186.584	-0.154	-0.002
-728.937	-75.017	-0.208	0.076
-727.923	69.085	0.162	0.171
-726.908	-200.000	-0.007	-0.487
-725.894	591.303	-0.089	0.224
-724.879	133.237	0.072	0.095
-723.864	800.000	0.079	-0.314
-722.850	729.808	-0.079	0.217
-721.835	250.657	0.064	-0.110
-720.821	-30.732	0.132	-0.076
-719.806	316.662	0.053	0.103
-718.791	-200.000	-0.041	-0.363
-717.777	69.094	0.217	-0.228
-716.762	205.175	-0.093	-0.147
-715.748	-200.000	0.027	0.217
-714.733	-4.877	-0.179	-0.126
-713.718	800.000	-0.140	0.407
-712.704	-45.822	0.129	-0.065
-711.689	444.594	-0.103	-0.230
-710.675	-200.000	-0.229	-0.001
-709.660	-200.000	0.007	0.095
-708.645	187.934	-0.058	-0.089
-707.631	-119.294	-0.042	0.008
-706.616	51.378	-0.268	-0.259
-705.602	-10.345	0.113	-0.076
-704.587	35.360	0.188	-0.168
-703.572	800.000	0.060	0.214
-702.558	-125.567	0.399	0.062
-701.543	-61.108	0.360	0.155
-700.529	-88.191	-0.095	-0.029
-699.514	261.898	-0.243	-0.430
-698.499	107.011	-0.074	0.090
-697.485	55.820	0.023	0.023
-696.470	311.454	0.103	-0.197
-695.456	46.567	0.145	-0.137
-694.441	36.340	0.020	0.018
-693.426	-26.658	-0.029	0.017
-692.412	-120.283	-0.255	-0.044
-691.397	10.419	0.095	-0.074
-690.383	-149.389	0.320	-0.026
-689.368	536.448	-0.152	-0.369
-688.354	-145.633	-0.096	-0.009
-687.339	188.701	0.036	0.056
-686.324	436.030	-0.067	-0.150
-685.310	700.056	0.041	0.111
-684.295	-181.877	-0.260	0.005
-683.281	7.828	0.058	-0.044
-682.266	-48.852	-0.310	0.152
-681.251	6.795	-0.076	0.058
-680.237	203.007	-0.044	0.070
-679.222	-39.468	0.155	0.083
-678.208	-84.603	-0.226	-0.073
-677.193	-144.238	-0.114	0.011
-676.178	65.346	-0.012	-0.012
-675.164	-200.000	0.013	-0.099
-674.149	-138.781	0.096	0.011
-673.135	-99.918	0.292	-0.074
-672.120	14.837	-0.390	-0.311
-671.105	-200.000	-0.018	-0.109
-670.091	-168.167	0.098	0.004
-669.076	-200.000	0.016	-0.114
-668.062	-7.627	-0.313	-0.216
-667.047	617.823	0.107	-0.274
-666.032	-123.986	-0.569	-0.091
-665.018	-16.611	-0.005	0.003
-664.003	-200.000	-0.007	0.285
-662.989	205.141	0.208	-0.329
-661.974	-200.000	-0.037	0.287
-660.959	800.000	-0.088	-0.353
-659.945	-52.824	-0.193	-0.090
-658.930	260.864	0.105	-0.185
-657.916	-30.274	0.361	-0.209
-656.901	-161.887	0.336	-0.017
-655.886	110.778	0.136	0.167
-654.872	800.000	-0.122	0.413
-653.857	-72.450	-0.393	-0.148
-652.843	-122.139	-0.299	0.050
-651.828	-131.545	0.274	-0.037
-650.814	142.230	0.098	-0.132
-649.799	105.564	-0.436	-0.525
-648.784	403.474	-0.088	-0.188
-647.770	-98.239	0.241	-0.063
-646.755	-130.480	0.138	0.019
-645.741	173.893	0.230	-0.339
-644.726	-12.804	-0.083	0.055
-643.711	-64.129	-0.269	-0.112
-642.697	-54.324	-0.162	0.075
-641.682	-129.187	-0.192	-0.027
-640.668	-200.000	0.011	0.260
-639.653	666.638	-0.069	-0.182
-638.638	8.793	-0.173	-0.133
-637.624	-70.332	0.126	0.049
-636.609	800.000	0.029	0.118
-635.595	-76.668	-0.092	-0.033
-634.580	-183.539	-0.067	0.001
-633.565	-155.399	-0.120	0.008
-632.551	-100.404	0.297	-0.075
-631.536	703.145	0.082	-0.220
-630.522	96.567	-0.142	-0.166
-629.507	74.020	-0.075	-0.080
-628.492	-200.000	0.064	-0.330
-627.478	-115.969	-0.312	-0.059
-626.463	-200.000	-0.031	0.285
-625.449	306.074	0.048	-0.092
-624.434	-86.568	0.067	0.021
-623.419	-58.830	0.144	-0.064
-622.405	378.971	-0.014	-0.030
-621.390	-95.791	0.032	0.009
-620.376	413.831	-0.110	-0.239
-619.361	561.168	0.112	-0.276
-618.346	-104.477	0.289	0.068
-617.332	78.050	-0.057	-0.061
-616.317	22.707	0.242	0.201
-615.303	166.541	0.098	0.141
-614.288	800.000	-0.030	-0.122
-613.273	-131.849	0.483	0.064
-612.259	385.763	0.053	0.112
-611.244	-200.000	-0.023	0.128
-610.230	-200.000	0.028	0.160
-609.215	407.555	0.150	-0.323
-608.201	800.000	0.060	0.232
-607.186	-153.040	0.257	0.018
-606.171	-14.369	-0.220	-0.144
-605.157	-140.901	-0.057	0.006
-604.142	153.304	0.179	-0.249
-603.128	36.261	-0.201	-0.180
-602.113	-180.582	-0.241	-0.005
-601.098	-105.602	0.189	0.043
-600.084	800.000	-0.094	0.394
-599.069	199.920	0.119	0.186
-598.055	7.399	0.173	0.131
-597.040	-200.000	-0.086	0.386
-596.025	-200.000	0.019	-0.120
-595.011	-200.000	0.021	0.212
-593.996	-31.072	-0.291	0.167
-592.982	-7.527	-0.112	0.077
-591.967	-31.604	-0.334	0.191
-590.952	-200.000	0.000	-0.085
-589.938	-200.000	-0.023	0.288
-588.923	800.000	0.071	0.299
-587.909	800.000	0.092	-0.294
-586.894	162.950	-0.105	-0.150
-585.879	2.279	-0.259	-0.191
-584.865	-87.966	-0.120	0.037
-583.850	-200.000	-0.014	-0.407
-582.836	800.000	0.093	0.347
-581.821	800.000	-0.108	0.429
-580.806	-53.853	-0.234	-0.108
-579.792	-80.170	-0.437	-0.149
-578.777	726.986	0.043	-0.116
-577.763	-30.304	0.403	0.233
-576.748	290.794	-0.073	0.135
-575.733	159.373	0.050	0.071
-574.719	-194.535	0.290	-0.002
-573.704	-121.954	-0.336	-0.056
-572.690	9.463	0.113	-0.087
-571.675	258.072	-0.048	0.084
-570.661	-200.000	0.035	-0.223
-569.646	167.254	-0.108	-0.156
-568.631	-153.266	-0.329	0.023
-567.617	70.647	-0.040	-0.042
-566.602	-61.632	0.091	-0.039
-565.588	-200.000	-0.024	0.222
-564.573	-166.906	-0.537	-0.022
-563.558	222.987	-0.073	-0.119
-562.544	99.141	-0.170	-0.199
-561.529	-108.109	-0.162	-0.036
-560.515	-200.000	0.234	-0.001
-559.500	-21.098	-0.042	0.026
-558.485	-164.096	0.215	0.010
-557.471	-200.000	0.068	0.436
-556.456	-200.000	-0.010	-0.181
-555.442	800.000	0.068	-0.284
-554.427	-200.000	-0.089	0.405
-553.412	-130.990	0.126	-0.017
-552.398	-62.169	-0.077	-0.033
-551.383	111.197	-0.125	0.153
-550.369	-65.137	-0.104	-0.042
-549.354	-170.475	-0.352	0.012
-548.339	201.846	0.164	-0.256
-547.325	-126.935	-0.114	-0.017
-546.310	-21.999	0.062	0.038
-545.296	-49.731	0.285	-0.137
-544.281	-200.000	0.029	0.202
-543.266	101.981	-0.082	0.097
-542.252	-39.639	0.152	0.081
-541.237	-146.598	-0.077	0.007
-540.223	-200.000	0.001	-0.132
-539.208	-131.880	0.068	-0.009
-538.193	-39.199	0.042	0.022
-537.179	-29.572	-0.121	-0.070
-536.164	-94.171	-0.508	0.141
-535.150	-82.545	0.134	0.044
-534.135	50.804	-0.261	0.250
-533.121	88.754	0.063	-0.071
-532.106	-200.000	0.024	-0.241
-531.091	-46.071	-0.376	-0.188
-530.077	-72.056	0.303	-0.114
-529.062	15.833	-0.334	-0.266
-528.048	303.730	0.101	0.189
-527.033	800.000	0.028	0.083
-526.018	-54.848	-0.276	-0.126
-525.004	410.048	0.073	-0.156
-523.989	-18.806	-0.319	-0.201
-522.975	444.919	0.098	-0.219
-521.960	-71.497	0.262	0.100
-520.945	-200.000	-0.041	0.224
-519.931	-200.000	-0.002	0.132
-518.916	-29.031	0.270	-0.157
-517.902	-54.323	-0.377	-0.173
-516.887	-183.550	0.237	0.004
-515.872	-174.815	-0.395	0.011
-514.858	249.365	0.071	0.122
-513.843	53.863	-0.085	0.083
-512.829	-200.000	-0.019	0.243
-511.814	-56.168	-0.066	0.030
-510.799	37.020	-0.180	-0.161
-509.785	46.416	0.138	-0.130
-508.770	630.617	0.024	0.063
-507.756	-51.125	-0.225	-0.107
-506.741	34.797	0.267	-0.236
-505.726	-158.838	-0.044	0.003
-504.712	61.234	-0.102	0.102
-503.697	-57.390	-0.186	0.083
-502.683	-31.338	-0.154	-0.088
-501.668	-100.534	-0.298	-0.075
-500.653	800.000	-0.151	0.439
-499.639	-101.838	0.225	0.055
-498.624	128.806	0.194	0.251
-497.610	28.580	-0.094	-0.080
-496.595	77.113	-0.026	-0.028
-495.581	-35.103	0.206	-0.113
-494.566	-7.621	-0.170	-0.116
-493.551	39.734	-0.380	0.345
-492.537	79.922	-0.107	-0.116
-491.522	-36.578	-0.077	0.042
-490.508	-27.477	-0.169	0.100
-489.493	118.539	0.031	0.039
-488.478	-200.000	-0.043	0.314
-487.464	-100.012	0.211	-0.053
-486.449	-70.242	0.147	-0.057
-485.435	-70.429	0.193	0.074
-484.420	19.577	-0.140	-0.114
-483.405	-23.122	0.172	-0.105
-482.391	473.088	-0.036	-0.082
-481.376	-96.856	0.125	0.033
-480.362	800.000	-0.046	-0.160
-479.347	-111.500	-0.143	0.030
-478.332	-25.833	0.325	0.194
-477.318	-159.067	0.217	-0.012
-476.303	-93.617	-0.332	0.093
-475.289	76.117	-0.077	0.083
-474.274	59.172	-0.096	0.096
-473.259	6.863	0.152	-0.115
-472.245	-200.000	0.000	-0.059
-471.230	-171.904	0.253	0.008
-470.216	275.030	0.139	0.250
-469.201	-200.000	-0.031	0.190
-468.186	36.624	0.115	0.103
-467.172	-42.663	0.427	0.220
-466.157	540.159	0.150	-0.361
-465.143	9.369	-0.196	0.150
-464.128	197.945	0.060	0.093
-463.113	800.000	0.046	-0.170
-462.099	327.822	-0.057	-0.111
-461.084	-180.752	-0.289	0.006
-460.070	-200.000	-0.026	-0.287
-459.055	220.278	-0.064	0.103
-458.040	225.981	0.090	0.147
-457.026	14.914	-0.162	0.128
-456.011	-200.000	-0.044	-0.212
-454.997	397.050	0.145	-0.305
-453.982	-33.356	-0.306	-0.171
-452.968	-104.211	0.299	0.070
-451.953	-160.841	-0.147	0.008
-450.938	332.451	0.135	0.263
-449.924	27.383	0.052	-0.044
-448.909	-33.466	0.213	0.119
-447.895	705.516	0.030	-0.081
-446.880	40.035	0.065	-0.059
-445.865	-133.517	0.073	-0.009
-444.851	49.722	-0.135	-0.129
-443.836	-96.678	0.205	0.055
-442.822	-83.554	-0.137	-0.044
-441.807	724.439	0.108	-0.292
-440.792	77.005	-0.032	0.035
-439.778	-200.000	0.003	-0.106
-438.763	163.121	0.312	-0.443
-437.749	216.565	0.111	-0.179
-436.734	-36.365	0.382	0.208
-435.719	-20.544	-0.107	0.066
-434.705	-200.000	0.004	0.042
-433.690	-132.563	0.356	0.046
-432.676	-41.218	0.066	-0.035
-431.661	412.210	-0.106	0.227
-430.646	-42.934	-0.101	-0.052
-429.632	800.000	0.127	0.422
-428.617	-69.558	0.308	0.119
-427.603	13.829	0.356	0.279
-426.588	44.512	-0.182	0.168
-425.573	-17.401	0.212	0.135
-424.559	-200.000	-0.002	-0.101
-423.544	800.000	-0.073	0.255
-422.530	800.000	0.056	0.163
-421.515	-200.000	0.041	-0.287
-420.500	88.926	0.054	-0.061
-419.486	17.283	0.260	0.209
-418.471	800.000	0.066	0.197
-417.457	-57.206	0.082	0.037
-416.442	-11.662	-0.275	-0.182
-415.428	-11.912	0.099	0.065
-414.413	-122.581	0.218	0.036
-413.398	-200.000	0.056	0.251
-412.384	-200.000	0.027	0.135
-411.369	-124.061	0.083	-0.013
-410.355	-200.000	0.027	0.439
-409.340	-200.000	0.045	-0.330
-408.325	363.332	0.030	0.060
-407.311	50.901	0.267	0.256
-406.296	113.899	0.079	0.097
-405.282	-19.342	0.054	0.034
-404.267	178.594	0.072	0.106
-403.252	33.438	-0.101	0.089
-402.238	-78.355	-0.479	0.166
-401.223	18.308	-0.042	0.034
-400.209	800.000	0.059	-0.179
-399.194	126.591	0.138	0.176
-398.179	-200.000	-0.006	0.191
-397.165	-200.000	0.028	0.246
-396.150	80.677	0.110	-0.120
-395.136	-49.427	-0.323	0.155
-394.121	-19.454	0.083	-0.052
-393.106	370.806	0.206	-0.421
-392.092	-200.000	-0.006	0.050
-391.077	-112.195	-0.262	0.053
-390.063	-59.266	-0.266	-0.115
-389.048	-178.147	-0.243	-0.006
-388.033	-200.000	-0.014	0.229
-387.019	-200.000	0.078	-0.363
-386.004	-89.072	-0.259	-0.077
-384.990	-75.520	-0.174	0.062
-383.975	-127.071	0.306	-0.045
-382.960	23.525	-0.069	0.057
-381.946	57.431	-0.088	0.087
-380.931	43.439	0.215	-0.198
-379.917	-200.000	-0.000	0.235
-378.902	-86.585	0.095	-0.029
-377.888	-200.000	0.011	0.050
-376.873	627.480	-0.045	0.113
-375.858	131.318	0.091	-0.118
-374.844	-66.822	0.178	-0.071
-373.829	529.341	0.076	0.180
-372.815	67.897	-0.224	-0.231
-371.800	800.000	-0.074	-0.215
-370.785	28.722	-0.019	-0.016
-369.771	136.087	0.064	-0.084
-368.756	-69.508	-0.364	0.141
-367.742	101.454	-0.147	-0.173
-366.727	-69.955	-0.092	-0.035
-365.712	-74.934	0.039	0.014
-364.698	399.386	0.069	0.146
-363.683	-152.847	0.299	-0.021
-362.669	64.425	0.220	0.223
-361.654	106.885	-0.194	0.232
-360.639	-78.139	0.144	-0.050
-359.625	-200.000	-0.045	-0.219
-358.610	-200.000	0.036	-0.166
-357.596	-28.439	-0.358	-0.208
-356.581	294.786	-0.164	-0.303
-355.566	-108.057	-0.065	0.014
-354.552	166.930	-0.118	0.168
-353.537	784.964	0.086	-0.237
-352.523	-168.103	0.390	0.015
-351.508	800.000	0.019	-0.075
-350.493	-200.000	0.016	0.294
-349.479	-48.823	-0.265	-0.128
-348.464	195.178	-0.108	-0.165
-347.450	-0.287	0.154	-0.111
-346.435	-200.000	-0.033	0.220
-345.420	91.512	-0.116	-0.131
-344.406	-200.000	-0.013	-0.139
-343.391	499.350	-0.047	0.109
-342.377	23.406	-0.175	-0.145
-341.362	-50.519	0.319	-0.151
-340.348	-19.623	0.106	-0.066
-339.333	29.006	-0.244	0.209
-338.318	-106.143	-0.282	0.064
-337.304	-200.000	-0.003	-0.126
-336.289	-87.490	0.388	-0.118
-335.275	419.179	0.048	-0.102
-334.260	-200.000	-0.013	0.125
-333.245	-164.826	-0.255	-0.012
-332.231	800.000	0.014	-0.059
-331.216	-200.000	0.020	-0.261
-330.202	-22.296	0.242	0.148
-329.187	-140.166	0.084	0.009
-328.172	529.050	-0.030	0.072
-327.158	-10.473	-0.038	-0.025
-326.143	-182.651	-0.242	0.004
-325.129	-200.000	0.035	-0.450
-324.114	30.507	0.038	0.032
-323.099	-200.000	0.047	0.377
-322.085	-164.286	-0.266	0.012
-321.070	-29.024	-0.235	-0.136
-320.056	-200.000	-0.001	0.044
-319.041	-11.130	-0.146	-0.097
-318.026	290.027	-0.072	-0.132
-317.012	800.000	0.097	-0.376
-315.997	117.015	0.176	-0.217
-314.983	-190.539	0.243	-0.003
-313.968	457.997	0.066	0.148
-312.953	133.353	0.026	0.034
-311.939	702.652	0.092	0.244
-310.924	-100.511	0.059	0.015
-309.910	589.489	-0.087	0.217
-308.895	-200.000	-0.046	0.228
-307.880	160.912	0.218	-0.306
-306.866	800.000	-0.154	-0.538
-305.851	3.818	0.127	0.093
-304.837	800.000	-0.005	-0.020
-303.822	361.211	-0.072	0.144
-302.807	800.000	0.087	0.288
-301.793	-34.369	0.277	-0.153
-300.778	-200.000	-0.042	0.319
-299.764	531.626	-0.122	0.289
-298.749	100.310	0.079	-0.093
-297.735	800.000	-0.093	0.381
-296.720	800.000	0.056	0.207
-295.705	0.274	0.123	-0.089
-294.691	-154.891	-0.132	-0.009
-293.676	-200.000	0.013	-0.117
-292.662	-79.339	0.205	-0.070
-291.647	201.962	-0.132	0.204
-290.632	44.168	0.151	-0.139
-289.618	150.921	0.181	-0.247
-288.603	722.743	-0.066	-0.177
-287.589	94.809	0.248	-0.283
-286.574	85.954	0.234	0.259
-285.559	-129.075	-0.303	-0.043
-284.545	437.313	0.134	0.293
-283.530	199.921	0.007	0.012
-282.516	800.000	-0.026	0.080
-281.501	-200.000	0.017	-0.380
-280.486	-106.161	-0.120	0.027
-279.472	800.000	0.051	0.181
-278.457	17.281	-0.129	0.103
-277.443	-200.000	0.000	-0.026
-276.428	336.905	-0.077	-0.150
-275.413	211.327	0.155	0.245
-274.399	-27.677	0.068	0.039
-273.384	800.000	0.100	-0.292
-272.370	-161.565	0.187	-0.010
-271.355	258.480	-0.134	0.233
-270.340	103.293	-0.109	0.128
-269.326	-132.131	0.308	0.040
-268.311	-200.000	-0.026	0.382
-267.297	114.974	-0.122	0.150
-266.282	209.526	-0.138	0.218
-265.267	-46.951	0.229	0.112
-264.253	-83.461	0.413	0.133
-263.238	42.541	-0.370	-0.338
-262.224	800.000	-0.107	0.319
-261.209	-113.635	0.311	-0.061
-260.195	178.763	-0.073	-0.107
-259.180	260.945	0.156	0.271
-258.165	36.043	-0.212	0.188
-257.151	-161.826	0.364	0.019
-256.136	800.000	0.018	-0.076
-255.122	-4.463	-0.257	-0.178
-254.107	-96.192	0.326	-0.087
-253.092	-94.618	-0.121	-0.033
-252.078	-112.721	0.289	0.058
-251.063	-38.825	0.199	0.105
-250.049	18.202	-0.070	0.056
-249.034	800.000	0.048	-0.141
-248.019	667.504	-0.094	0.244
-247.005	236.083	-0.123	-0.205
-245.990	-93.077	0.237	0.066
-244.976	319.866	-0.095	0.181
-243.961	371.507	0.129	0.263
-242.946	-29.084	0.161	0.093
-241.932	-200.000	-0.050	0.302
-240.917	-159.883	0.208	0.011
-239.903	800.000	-0.060	-0.230
-238.888	345.674	0.076	0.150
-237.873	-136.645	-0.126	0.015
-236.859	-92.757	0.345	-0.097
-235.844	96.587	-0.025	-0.028
-234.830	-165.658	-0.365	-0.016
-233.815	247.266	-0.116	-0.196
-232.800	-200.000	-0.024	0.180
-231.786	-82.078	0.252	-0.083
-230.771	68.690	-0.237	-0.243
-229.757	-200.000	0.001	0.084
-228.742	185.704	-0.126	-0.188
-227.727	436.699	0.111	-0.243
-226.713	-36.862	0.193	0.104
-225.698	218.593	0.142	0.227
-224.684	-200.000	-0.001	0.218
-223.669	-200.000	0.036	0.406
-222.655	-174.208	0.107	-0.003
-221.640	-200.000	0.037	-0.396
-220.625	167.926	0.215	-0.306
-219.611	-58.048	0.353	-0.154
-218.596	309.668	-0.102	-0.191
-217.582	800.000	-0.133	-0.370
-216.567	800.000	-0.037	0.114
-215.552	15.493	0.154	-0.121
-214.538	-186.252	0.091	0.001
-213.523	70.618	0.100	0.103
-212.509	129.934	0.047	0.060
-211.494	-60.125	-0.266	0.114
-210.479	-36.923	-0.169	-0.091
-209.465	-58.891	0.083	-0.036
-208.450	223.184	-0.135	0.219
-207.436	-200.000	0.007	0.129
-206.421	142.467	0.072	0.096
-205.406	207.302	-0.115	-0.179
-204.392	27.653	0.192	-0.162
-203.377	-200.000	-0.018	-0.136
-202.363	28.439	-0.050	0.042
-201.348	111.329	-0.189	-0.228
-200.333	109.101	-0.111	-0.133
-199.319	103.451	0.073	-0.086
-198.304	-200.000	0.034	-0.330
-197.290	10.415	0.223	-0.170
-196.275	-126.646	-0.230	-0.034
-195.260	-13.911	-0.090	-0.058
-194.246	-169.021	-0.302	-0.011
-193.231	48.486	0.069	-0.064
-192.217	15.338	-0.222	-0.174
-191.202	373.971	0.103	0.210
-190.187	800.000	0.007	-0.024
-189.173	800.000	0.091	0.297
-188.158	-99.404	0.390	0.098
-187.144	-148.729	0.131	-0.011
-186.129	40.811	0.219	-0.197
-185.114	-200.000	0.021	0.261
-184.100	51.189	-0.271	-0.257
-183.085	45.769	0.075	-0.069
-182.071	79.310	0.177	-0.190
-181.056	800.000	-0.059	-0.226
-180.042	-200.000	-0.031	0.257
-179.027	72.056	-0.144	0.150
-178.012	16.462	-0.167	0.132
-176.998	-86.757	-0.212	0.065
-175.983	-129.079	-0.268	-0.038
-174.969	-28.669	-0.335	0.193
-173.954	-19.106	0.220	0.137
-172.939	-15.016	0.102	0.065
-171.925	-95.434	0.249	-0.067
-170.910	-26.916	0.197	-0.115
-169.896	345.935	0.057	0.112
-168.881	-200.000	0.012	-0.103
-167.866	-200.000	-0.033	-0.163
-166.852	618.824	0.085	0.214
-165.837	-40.143	0.179	0.093
-164.823	-0.278	0.217	-0.154
-163.808	-198.104	-0.301	0.002
-162.793	-73.304	-0.490	-0.179
-161.779	60.285	0.101	-0.100
-160.764	-45.156	-0.229	-0.114
-159.750	-179.999	-0.111	0.002
-158.735	-93.499	-0.189	0.052
-157.720	-12.016	-0.188	-0.123
-156.706	-200.000	-0.001	0.067
-155.691	-200.000	-0.040	-0.278
-154.677	-32.633	-0.151	0.084
-153.662	-76.586	-0.198	-0.069
-152.647	-53.043	0.061	-0.028
-151.633	95.506	-0.079	-0.090
-150.618	-200.000	0.047	-0.246
-149.604	271.497	-0.118	-0.208
-148.589	-200.000	0.053	-0.439
-147.574	240.226	0.056	-0.093
-146.560	-5.007	-0.075	0.051
-145.545	156.441	0.200	-0.276
-144.531	390.560	-0.025	-0.052
-143.516	235.684	0.098	-0.161
-142.502	103.614	-0.289	-0.339
-141.487	-200.000	0.030	0.199
-140.472	144.418	-0.104	0.139
-139.458	-42.658	-0.149	-0.075
-138.443	-65.615	-0.125	0.050
-137.429	-200.000	-0.011	-0.062
-136.414	800.000	0.027	0.079
-135.399	118.117	0.087	-0.107
-134.385	-101.187	0.341	0.083
-133.370	-61.097	0.072	-0.030
-132.356	-91.307	0.129	0.037
-131.341	800.000	-0.052	-0.166
-130.326	318.247	-0.154	-0.291
-129.312	-73.884	-0.176	0.064
-128.297	-90.282	0.185	0.054
-127.283	-8.722	0.235	0.157
-126.268	800.000	-0.023	-0.098
-125.253	-63.047	-0.251	0.104
-124.239	165.588	0.362	0.510
-123.224	214.648	0.105	0.166
-122.210	134.796	0.047	0.061
-121.195	-73.380	0.154	0.056
