DTS Sentinel unit serial number:	SN413079Multiplexer serial number:	ORYXHardware model number:	OX4-SRSoftware version number:	ORYX F/W v4.00 Oryx Data Collector v3.7.2.0data status	okinstallation	princeton_trtdifferential loss correction	single-endedforward channel	channel 3reverse channel	N/Adate	2019/09/14time	14:56:35forward acquisition time	60.00reverse acquisition time	0.00gamma	496.2192k internal	0.2293k external	0.2293temperature offset calibration	1.0057default loss term (dB/km)	0.3790temperature slope calibration	1.0000multiplexer offset coefficient	1.0000multiplexer slope coefficient	1.0000fibre end	0.00T internal ref (°C)	39.09T ext. ref 1 (°C)	5.01T ext. ref 2 (°C)	34.38length (m)	temperature (°C)	Stokes	anti-Stokes-747.200	46.488	-0.052	-0.049
-746.185	346.010	-0.129	0.260
-745.171	97.848	-0.032	0.037
-744.156	-88.418	0.228	0.070
-743.142	57.516	0.071	0.071
-742.127	336.035	0.159	0.316
-741.112	182.538	-0.157	-0.237
-740.098	-71.840	-0.116	0.044
-739.083	-95.520	0.130	0.036
-738.069	-200.000	0.006	0.091
-737.054	-200.000	-0.037	-0.301
-736.039	-129.524	-0.073	0.010
-735.025	196.758	0.224	0.349
-734.010	-130.892	-0.326	-0.045
-732.996	117.305	-0.212	-0.266
-731.981	201.850	0.172	0.271
-730.966	-22.081	-0.108	-0.067
-729.952	-200.000	0.008	0.175
-728.937	800.000	0.015	0.049
-727.923	-48.843	0.129	0.063
-726.908	-100.728	0.056	0.014
-725.894	101.441	-0.146	0.173
-724.879	717.425	0.134	-0.364
-723.864	141.855	-0.136	0.185
-722.850	627.331	0.054	-0.141
-721.835	-28.712	-0.146	0.086
-720.821	-10.083	0.198	-0.134
-719.806	263.091	-0.122	-0.217
-718.791	-200.000	-0.015	-0.173
-717.777	-14.963	-0.187	-0.123
-716.762	210.567	-0.089	0.143
-715.748	-200.000	-0.001	-0.198
-714.733	-2.202	-0.181	-0.130
-713.718	64.451	-0.027	0.027
-712.704	382.761	-0.084	0.178
-711.689	-39.712	-0.252	-0.135
-710.675	311.364	-0.101	0.193
-709.660	-31.623	0.120	-0.069
-708.645	782.756	0.149	0.418
-707.631	-200.000	0.009	0.121
-706.616	-59.762	0.072	0.031
-705.602	-114.309	-0.138	0.027
-704.587	-44.361	0.195	0.100
-703.572	-89.834	0.374	0.112
-702.558	164.326	0.095	-0.137
-701.543	800.000	0.028	-0.108
-700.529	170.067	0.163	-0.239
-699.514	53.960	0.043	0.042
-698.499	-143.766	0.129	-0.013
-697.485	124.264	0.222	-0.285
-696.470	-200.000	-0.016	-0.232
-695.456	-50.410	0.120	0.058
-694.441	-200.000	0.007	-0.069
-693.426	2.713	-0.097	-0.071
-692.412	3.091	-0.140	0.104
-691.397	-200.000	-0.026	0.289
-690.383	194.361	0.163	0.252
-689.368	-119.414	-0.446	-0.079
-688.354	168.335	0.066	-0.096
-687.339	-84.915	-0.122	-0.039
-686.324	-96.576	0.153	0.041
-685.310	-79.667	0.114	0.039
-684.295	206.814	-0.113	0.179
-683.281	3.183	-0.136	-0.101
-682.266	34.484	-0.147	-0.131
-681.251	130.605	-0.338	0.442
-680.237	-74.627	0.227	0.083
-679.222	409.328	0.027	0.058
-678.208	-11.491	0.120	-0.081
-677.193	11.204	0.111	0.086
-676.178	-142.070	0.348	0.035
-675.164	97.391	0.175	-0.205
-674.149	800.000	-0.088	-0.294
-673.135	-151.649	-0.182	-0.014
-672.120	766.735	-0.118	-0.328
-671.105	-46.494	0.484	-0.242
-670.091	13.669	-0.203	-0.161
-669.076	132.251	0.092	0.122
-668.062	-200.000	-0.020	-0.089
-667.047	442.679	-0.169	-0.378
-666.032	-32.748	-0.216	0.122
-665.018	-127.739	0.234	0.035
-664.003	82.405	-0.179	0.198
-662.989	12.314	0.124	-0.098
-661.974	-130.929	0.119	-0.016
-660.959	-86.595	-0.248	-0.077
-659.945	800.000	-0.052	-0.184
-658.930	-200.000	0.026	0.149
-657.916	800.000	-0.039	0.121
-656.901	-200.000	0.054	-0.550
-655.886	46.665	0.119	-0.113
-654.872	-33.513	0.300	-0.169
-653.857	-107.251	0.140	-0.032
-652.843	-177.898	0.216	-0.005
-651.828	711.128	0.030	0.080
-650.814	-94.285	0.192	-0.053
-649.799	-103.507	-0.032	-0.008
-648.784	98.145	0.195	0.229
-647.770	-50.511	0.156	0.075
-646.755	-71.632	0.232	-0.088
-645.741	166.017	-0.119	-0.171
-644.726	45.053	-0.208	0.195
-643.711	800.000	0.041	-0.148
-642.697	-73.882	-0.248	-0.092
-641.682	276.002	0.128	-0.231
-640.668	96.327	-0.164	0.191
-639.653	-24.904	-0.310	-0.188
-638.638	0.567	-0.219	-0.160
-637.624	-157.407	0.268	0.016
-636.609	110.734	-0.094	0.116
-635.595	42.491	-0.083	-0.077
-634.580	-200.000	-0.062	-0.392
-633.565	97.867	-0.190	-0.223
-632.551	302.802	-0.121	-0.228
-631.536	82.587	0.098	-0.109
-630.522	57.283	-0.222	-0.220
-629.507	-54.428	0.171	-0.079
-628.492	-137.500	0.181	-0.021
-627.478	-4.927	-0.214	0.150
-626.463	147.402	-0.151	0.207
-625.449	-200.000	0.038	0.192
-624.434	251.627	-0.177	-0.307
-623.419	72.258	-0.181	-0.192
-622.405	25.851	0.119	-0.101
-621.390	30.983	-0.145	0.127
-620.376	134.666	-0.213	-0.282
-619.361	-155.616	0.226	0.015
-618.346	277.348	0.091	-0.165
-617.332	68.220	0.046	-0.048
-616.317	-200.000	-0.027	0.165
-615.303	-132.847	0.084	0.011
-614.288	-146.251	0.441	0.039
-613.273	165.912	-0.109	0.158
-612.259	800.000	0.099	0.302
-611.244	46.482	0.082	-0.077
-610.230	-200.000	-0.027	-0.311
-609.215	178.359	0.122	-0.181
-608.201	82.080	0.059	-0.065
-607.186	-89.095	0.101	-0.030
-606.171	316.822	-0.021	0.040
-605.157	-111.560	0.050	-0.010
-604.142	184.936	0.127	0.192
-603.128	-100.098	-0.172	0.044
-602.113	57.789	0.042	-0.042
-601.098	-65.876	-0.076	0.031
-600.084	-46.142	-0.134	-0.067
-599.069	101.069	0.028	-0.033
-598.055	134.532	-0.053	-0.069
-597.040	-200.000	-0.024	-0.109
-596.025	-97.996	-0.530	-0.139
-595.011	-200.000	-0.043	-0.294
-593.996	60.521	-0.107	-0.108
-592.982	-66.605	0.161	0.065
-591.967	-10.653	0.093	-0.062
-590.952	11.437	0.236	-0.184
-589.938	236.464	0.166	-0.279
-588.923	-200.000	0.050	0.370
-587.909	85.745	-0.041	-0.045
-586.894	-16.853	0.124	0.079
-585.879	5.608	-0.045	0.033
-584.865	115.171	-0.100	-0.124
-583.850	25.724	-0.150	-0.127
-582.836	617.668	-0.083	-0.211
-581.821	-49.098	0.216	0.105
-580.806	-200.000	0.046	-0.308
-579.792	26.262	-0.130	0.110
-578.777	778.038	-0.097	-0.269
-577.763	-136.801	0.222	0.026
-576.748	523.445	-0.099	0.236
-575.733	-163.733	-0.294	0.014
-574.719	-154.062	-0.247	0.017
-573.704	-200.000	-0.015	-0.069
-572.690	800.000	-0.058	-0.214
-571.675	-200.000	0.015	-0.143
-570.661	-140.194	-0.122	0.013
-569.646	249.139	-0.050	-0.085
-568.631	-8.080	0.102	0.070
-567.617	119.395	-0.010	0.013
-566.602	314.967	0.063	0.121
-565.588	68.220	-0.071	-0.073
-564.573	800.000	-0.050	-0.149
-563.558	-104.796	0.235	-0.055
-562.544	551.021	-0.114	-0.279
-561.529	239.121	0.055	-0.093
-560.515	149.851	-0.149	0.205
-559.500	-13.471	0.297	-0.196
-558.485	353.578	0.072	0.145
-557.471	72.120	-0.073	-0.077
-556.456	106.525	-0.161	-0.194
-555.442	157.525	-0.049	-0.069
-554.427	-200.000	-0.004	0.044
-553.412	-0.391	-0.366	-0.264
-552.398	138.963	-0.181	0.241
-551.383	178.006	-0.204	0.302
-550.369	42.430	-0.357	0.330
-549.354	440.049	0.050	0.110
-548.339	46.797	0.099	-0.093
-547.325	186.037	0.067	0.101
-546.310	-41.777	-0.094	-0.049
-545.296	-200.000	-0.034	0.261
-544.281	-127.540	0.279	0.041
-543.266	-153.481	0.073	-0.005
-542.252	55.312	0.116	0.114
-541.237	-200.000	-0.001	0.208
-540.223	31.173	0.070	0.061
-539.208	-200.000	-0.001	0.022
-538.193	-20.221	-0.248	-0.155
-537.179	46.431	-0.128	-0.121
-536.164	-148.676	0.216	-0.018
-535.150	-119.273	-0.295	0.052
-534.135	608.208	-0.028	-0.071
-533.121	-151.019	0.191	0.015
-532.106	-100.311	0.122	0.031
-531.091	-176.006	-0.207	-0.006
-530.077	-39.153	-0.086	0.046
-529.062	800.000	0.074	0.218
-528.048	-30.994	0.430	0.246
-527.033	-200.000	0.040	0.364
-526.018	52.096	0.039	-0.037
-525.004	4.544	-0.135	0.101
-523.989	7.773	0.122	0.093
-522.975	800.000	-0.134	-0.380
-521.960	800.000	0.024	0.076
-520.945	97.117	-0.067	-0.078
-519.931	-96.366	-0.109	-0.029
-518.916	-43.463	-0.242	0.124
-517.902	-63.576	0.123	-0.051
-516.887	-117.644	0.265	0.048
-515.872	238.106	0.147	0.248
-514.858	-16.344	0.162	0.104
-513.843	-100.075	0.394	0.100
-512.829	-139.913	0.177	0.019
-511.814	800.000	-0.047	-0.159
-510.799	279.860	-0.101	-0.183
-509.785	-79.650	-0.198	0.068
-508.770	800.000	-0.022	-0.074
-507.756	-197.364	-0.250	0.002
-506.741	-49.388	0.215	0.104
-505.726	-126.284	-0.411	-0.062
-504.712	-200.000	-0.064	-0.500
-503.697	-200.000	-0.029	-0.141
-502.683	82.469	-0.187	-0.206
-501.668	-3.272	0.125	-0.088
-500.653	64.392	0.205	0.209
-499.639	71.644	-0.229	0.241
-498.624	228.193	-0.170	0.280
-497.610	-99.155	0.082	0.021
-496.595	-152.674	0.597	0.043
-495.581	-200.000	-0.048	0.264
-494.566	-93.712	0.264	0.074
-493.551	-22.544	-0.155	-0.095
-492.537	-81.816	-0.121	0.040
-491.522	-128.932	0.393	0.056
-490.508	800.000	-0.016	-0.066
-489.493	-31.524	0.148	-0.085
-488.478	316.887	-0.136	0.261
-487.464	-31.611	-0.107	0.061
-486.449	-132.134	-0.258	-0.034
-485.435	201.332	0.023	0.036
-484.420	122.487	0.153	0.194
-483.405	480.211	0.173	0.397
-482.391	-7.755	0.268	0.183
-481.376	-75.822	0.211	-0.076
-480.362	-200.000	-0.003	0.160
-479.347	-75.832	0.336	0.121
-478.332	-73.191	-0.198	0.073
-477.318	109.724	0.104	-0.127
-476.303	-52.858	-0.195	-0.091
-475.289	66.663	0.146	-0.150
-474.274	49.202	0.225	-0.214
-473.259	-28.362	-0.175	-0.102
-472.245	-131.259	-0.467	-0.063
-471.230	-200.000	-0.029	-0.193
-470.216	105.290	-0.162	-0.194
-469.201	232.191	-0.023	-0.038
-468.186	520.580	-0.078	0.185
-467.172	29.056	0.096	-0.083
-466.157	-161.891	-0.120	0.006
-465.143	461.670	-0.060	-0.136
-464.128	42.616	-0.086	-0.079
-463.113	-52.825	0.043	-0.020
-462.099	-1.113	0.206	-0.147
-461.084	49.869	0.073	-0.070
-460.070	47.064	0.087	-0.082
-459.055	112.514	-0.170	-0.208
-458.040	56.074	-0.179	0.176
-457.026	-106.094	0.450	-0.102
-456.011	207.320	0.216	0.342
-454.997	-84.337	0.115	0.037
-453.982	-200.000	-0.021	-0.319
-452.968	-11.443	-0.425	0.283
-451.953	-35.844	0.172	-0.094
-450.938	-118.611	-0.306	0.055
-449.924	-200.000	0.051	0.295
-448.909	59.345	-0.073	-0.072
-447.895	260.387	0.143	-0.251
-446.880	-99.973	0.218	-0.055
-445.865	-146.883	0.132	0.012
-444.851	-200.000	0.030	-0.270
-443.836	-200.000	-0.062	0.281
-442.822	800.000	-0.091	-0.294
-441.807	-40.255	-0.104	-0.055
-440.792	-158.766	0.103	-0.006
-439.778	-200.000	-0.029	0.173
-438.763	800.000	0.043	-0.122
-437.749	800.000	0.044	0.187
-436.734	-200.000	0.027	0.162
-435.719	54.548	-0.183	0.178
-434.705	-110.401	0.234	-0.049
-433.690	523.728	-0.171	-0.407
-432.676	210.300	0.150	-0.239
-431.661	298.793	0.046	0.085
-430.646	800.000	0.042	0.172
-429.632	-52.264	0.232	0.108
-428.617	57.746	-0.145	0.143
-427.603	44.064	0.257	-0.238
-426.588	783.274	0.069	-0.192
-425.573	4.390	0.281	0.208
-424.559	165.222	0.130	-0.186
-423.544	211.786	0.097	-0.155
-422.530	501.318	0.088	0.205
-421.515	141.398	0.081	0.109
-420.500	-156.925	0.196	0.012
-419.486	9.306	-0.024	-0.019
-418.471	230.246	-0.113	0.186
-417.457	622.463	0.060	-0.153
-416.442	-65.229	-0.148	0.060
-415.428	127.646	-0.085	0.109
-414.413	95.285	-0.146	-0.168
-413.398	-58.466	0.128	-0.056
-412.384	87.715	0.147	0.165
-411.369	76.975	0.028	0.030
-410.355	64.977	0.032	-0.033
-409.340	-108.465	-0.101	0.022
-408.325	-45.630	0.097	0.049
-407.311	-111.469	-0.283	-0.058
-406.296	-107.190	0.178	0.040
-405.282	81.913	0.049	-0.053
-404.267	-7.236	0.084	0.058
-403.252	167.197	-0.202	-0.289
-402.238	123.225	-0.024	-0.031
-401.223	110.601	0.112	0.135
-400.209	-79.350	0.148	0.051
-399.194	-126.384	-0.095	-0.014
-398.179	800.000	0.067	-0.293
-397.165	-200.000	-0.021	0.264
-396.150	144.784	-0.179	-0.241
-395.136	-119.847	0.317	0.055
-394.121	56.963	0.047	0.046
-393.106	405.630	-0.104	0.221
-392.092	78.646	0.093	-0.100
-391.077	-154.162	0.171	-0.012
-390.063	-20.572	-0.088	-0.055
-389.048	19.617	0.074	-0.060
-388.033	-146.960	0.098	-0.009
-387.019	66.643	-0.154	0.158
-386.004	-161.506	-0.151	0.008
-384.990	453.725	-0.079	-0.176
-383.975	558.916	-0.049	0.119
-382.960	-200.000	0.037	-0.334
-381.946	-63.552	-0.132	-0.055
-380.931	48.819	0.250	-0.237
-379.917	-200.000	-0.004	0.033
-378.902	460.247	0.109	-0.245
-377.888	-39.729	-0.292	0.154
-376.873	-36.370	-0.111	-0.060
-375.858	-33.386	-0.169	-0.094
-374.844	-81.896	0.139	-0.046
-373.829	-200.000	0.008	-0.068
-372.815	-91.253	0.058	0.017
-371.800	85.648	0.324	0.359
-370.785	525.149	0.089	0.212
-369.771	-112.528	0.175	0.035
-368.756	368.894	-0.072	0.146
-367.742	157.773	0.150	-0.209
-366.727	-70.911	0.220	0.084
-365.712	800.000	-0.036	0.100
-364.698	-76.538	0.272	0.096
-363.683	-122.114	0.333	0.055
-362.669	-29.432	0.182	-0.105
-361.654	-114.109	-0.349	-0.068
-360.639	-3.690	-0.156	-0.109
-359.625	95.661	0.088	0.101
-358.610	-200.000	-0.057	0.394
-357.596	-5.186	-0.275	-0.191
-356.581	609.536	0.050	0.125
-355.566	0.270	-0.184	-0.132
-354.552	144.432	-0.093	0.125
-353.537	141.797	-0.228	0.305
-352.523	-92.109	-0.271	0.077
-351.508	-76.425	0.180	0.064
-350.493	800.000	-0.039	0.157
-349.479	239.221	-0.053	0.089
-348.464	-28.099	-0.273	-0.159
-347.450	374.008	-0.086	-0.176
-346.435	800.000	-0.059	-0.186
-345.420	-200.000	-0.001	-0.058
-344.406	472.588	-0.083	0.189
-343.391	-34.803	0.208	-0.114
-342.377	465.617	0.041	-0.092
-341.362	-200.000	0.023	0.380
-340.348	130.661	-0.129	0.166
-339.333	-16.878	0.061	-0.039
-338.318	800.000	0.090	0.346
-337.304	476.368	-0.091	0.208
-336.289	286.463	-0.074	-0.135
-335.275	-115.575	-0.140	-0.026
-334.260	-200.000	-0.022	-0.387
-333.245	-23.139	0.079	-0.048
-332.231	763.616	-0.021	0.057
-331.216	-200.000	0.021	-0.113
-330.202	-36.895	-0.057	0.031
-329.187	800.000	0.037	-0.123
-328.172	337.533	-0.069	-0.135
-327.158	-32.689	0.334	0.187
-326.143	-11.846	-0.061	0.040
-325.129	-83.398	0.366	-0.118
-324.114	177.548	-0.079	0.115
-323.099	-200.000	-0.014	-0.127
-322.085	-184.078	0.367	0.006
-321.070	-119.073	0.291	-0.051
-320.056	-200.000	-0.001	-0.038
-319.041	-88.333	0.047	0.014
-318.026	457.505	-0.122	0.274
-317.012	-87.411	-0.294	-0.090
-315.997	-85.298	-0.105	-0.033
-314.983	27.663	-0.155	0.131
-313.968	-200.000	-0.016	-0.107
-312.953	-129.986	-0.124	-0.017
-311.939	-81.527	0.259	0.086
-310.924	-0.578	-0.091	0.065
-309.910	800.000	-0.056	0.222
-308.895	-195.503	0.376	0.003
-307.880	800.000	0.015	-0.045
-306.866	-200.000	-0.012	-0.071
-305.851	-122.645	-0.322	-0.052
-304.837	448.966	-0.108	0.240
-303.822	-144.353	0.245	-0.023
-302.807	-128.463	0.172	0.025
-301.793	152.534	0.140	0.193
-300.778	533.318	0.176	-0.419
-299.764	-20.555	-0.224	0.138
-298.749	569.670	-0.177	0.433
-297.735	161.581	-0.176	-0.248
-296.720	-117.938	-0.377	0.068
-295.705	-15.152	-0.209	-0.134
-294.691	-200.000	-0.022	0.187
-293.676	615.918	-0.169	0.426
-292.662	39.323	-0.060	0.054
-291.647	-94.801	-0.082	0.022
-290.632	-200.000	-0.026	-0.192
-289.618	800.000	0.049	-0.163
-288.603	-160.308	0.279	0.015
-287.589	-51.314	-0.205	0.096
-286.574	-57.849	-0.204	0.090
-285.559	-81.791	0.284	0.093
-284.545	11.729	0.112	-0.086
-283.530	218.486	-0.048	-0.077
-282.516	-105.070	-0.423	-0.097
-281.501	-100.387	0.116	-0.029
-280.486	-170.952	0.105	-0.004
-279.472	-151.784	0.116	0.009
-278.457	-200.000	-0.018	0.298
-277.443	311.815	-0.154	0.291
-276.428	11.617	0.083	-0.064
-275.413	113.982	-0.139	-0.170
-274.399	6.410	0.144	-0.108
-273.384	800.000	0.090	-0.259
-272.370	-200.000	-0.015	0.140
-271.355	-117.826	0.169	0.031
-270.340	284.470	0.097	-0.175
-269.326	-200.000	0.010	0.166
-268.311	-152.973	-0.114	-0.008
-267.297	587.941	-0.014	-0.035
-266.282	-31.887	-0.373	0.210
-265.267	-200.000	0.004	-0.058
-264.253	-60.491	0.194	-0.083
-263.238	-83.270	0.255	0.082
-262.224	46.629	0.222	-0.207
-261.209	-200.000	-0.011	0.204
-260.195	125.360	0.125	0.159
-259.180	800.000	-0.132	0.417
-258.165	467.638	0.056	-0.127
-257.151	-129.853	0.427	0.059
-256.136	-63.615	-0.501	0.206
-255.122	-90.213	-0.205	-0.060
-254.107	-115.534	-0.290	-0.055
-253.092	440.227	0.133	-0.291
-252.078	-60.558	0.227	0.097
-251.063	302.789	0.034	-0.062
-250.049	357.155	-0.085	0.170
-249.034	-119.125	-0.213	0.037
-248.019	55.997	-0.027	-0.026
-247.005	-47.236	0.066	-0.032
-245.990	-142.326	0.364	0.036
-244.976	-76.489	-0.196	0.069
-243.961	55.377	0.077	0.075
-242.946	519.564	0.063	-0.147
-241.932	-129.644	-0.237	-0.033
-240.917	164.919	0.299	0.423
-239.903	-97.096	0.066	0.017
-238.888	800.000	-0.010	0.031
-237.873	-59.536	-0.398	-0.171
-236.859	-103.886	0.216	0.051
-235.844	2.779	0.176	0.128
-234.830	-99.279	-0.123	-0.031
-233.815	306.148	-0.158	-0.295
-232.800	39.539	-0.234	0.211
-231.786	261.187	-0.046	-0.080
-230.771	113.021	-0.188	0.228
-229.757	152.002	-0.101	-0.138
-228.742	-50.268	-0.144	0.068
-227.727	-42.604	-0.384	-0.196
-226.713	62.213	0.263	-0.263
-225.698	172.379	-0.087	-0.126
-224.684	-110.315	-0.173	-0.036
-223.669	127.858	0.039	-0.049
-222.655	86.887	-0.275	-0.305
-221.640	-55.812	-0.176	-0.079
-220.625	80.552	0.031	0.034
-219.611	787.697	-0.144	0.396
-218.596	436.555	0.207	0.451
-217.582	139.853	0.047	-0.062
-216.567	439.018	0.083	-0.182
-215.552	-154.513	-0.148	0.010
-214.538	-109.135	0.409	-0.087
-213.523	273.068	-0.128	0.227
-212.509	-121.621	-0.084	0.014
-211.494	-200.000	-0.013	0.183
-210.479	212.859	-0.354	0.559
-209.465	-34.379	0.219	0.120
-208.450	169.831	-0.090	-0.130
-207.436	73.003	0.221	0.232
-206.421	10.755	0.033	0.025
-205.406	800.000	0.050	0.163
-204.392	-200.000	-0.064	0.285
-203.377	293.774	0.180	-0.330
-202.363	-39.410	0.195	0.102
-201.348	73.188	-0.140	0.147
-200.333	-82.440	0.120	-0.039
-199.319	800.000	-0.043	0.161
-198.304	105.103	0.290	-0.342
-197.290	-200.000	-0.049	-0.247
-196.275	-200.000	0.023	-0.127
-195.260	-101.490	0.187	-0.046
-194.246	800.000	-0.164	0.483
-193.231	-69.933	0.366	-0.140
-192.217	-75.367	-0.428	-0.153
-191.202	-20.467	0.157	-0.097
-190.187	166.399	0.161	-0.228
-189.173	219.362	-0.165	0.264
-188.158	-43.622	-0.346	0.175
-187.144	-200.000	-0.017	0.098
-186.129	1.128	0.301	-0.216
-185.114	789.538	0.032	0.088
-184.100	-200.000	0.005	-0.137
-183.085	248.073	0.095	-0.162
-182.071	292.108	-0.068	-0.124
-181.056	-79.484	-0.219	-0.074
-180.042	701.921	0.035	0.092
-179.027	-200.000	0.019	0.407
-178.012	697.880	0.042	0.110
-176.998	131.128	0.058	0.074
-175.983	17.688	-0.139	-0.111
-174.969	327.533	-0.104	0.199
-173.954	-61.918	0.018	0.008
-172.939	242.626	0.056	0.094
-171.925	-46.269	0.064	-0.031
-170.910	15.736	0.052	0.041
-169.896	-58.160	0.265	-0.116
-168.881	443.359	0.078	0.170
-167.866	-60.597	0.126	-0.053
-166.852	-200.000	0.023	0.143
-165.837	800.000	-0.042	-0.156
-164.823	-30.380	-0.548	-0.311
-163.808	800.000	0.059	-0.235
-162.793	-71.031	-0.026	0.010
-161.779	30.594	0.145	0.124
-160.764	-92.530	-0.136	0.038
-159.750	158.655	0.360	-0.500
-158.735	800.000	-0.038	0.132
-157.720	-49.177	-0.176	-0.084
-156.706	-54.856	-0.057	0.026
-155.691	109.069	0.100	-0.119
-154.677	27.953	-0.087	0.074
-153.662	800.000	0.102	-0.389
-152.647	800.000	-0.022	-0.079
-151.633	7.334	0.206	0.154
-150.618	18.028	0.116	-0.092
-149.604	-155.971	-0.298	-0.019
-148.589	-13.809	0.195	-0.126
-147.574	-110.308	-0.090	-0.019
-146.560	800.000	-0.037	0.118
-145.545	800.000	0.042	0.132
-144.531	119.731	-0.262	-0.325
-143.516	-115.375	-0.400	-0.075
-142.502	-200.000	0.056	0.264
-141.487	-200.000	-0.014	-0.240
-140.472	-111.678	-0.154	0.031
-139.458	146.782	-0.120	-0.161
-138.443	-109.196	-0.135	0.029
-137.429	-106.361	0.359	-0.080
-136.414	109.253	0.074	-0.088
-135.399	800.000	-0.063	0.244
-134.385	40.808	-0.208	0.187
-133.370	50.334	-0.294	0.277
-132.356	-150.500	0.214	-0.016
-131.341	278.903	0.217	-0.387
-130.326	755.276	-0.094	0.253
-129.312	800.000	-0.064	-0.275
-128.297	564.069	0.031	0.076
-127.283	129.747	-0.019	-0.024
-126.268	-137.200	0.061	0.007
-125.253	-200.000	-0.000	0.122
-124.239	-122.208	-0.209	-0.034
-123.224	-53.333	0.427	-0.195
-122.210	478.022	0.069	0.156
-121.195	-49.245	-0.249	-0.119
