DTS Sentinel unit serial number:	SN413079Multiplexer serial number:	ORYXHardware model number:	OX4-SRSoftware version number:	ORYX F/W v4.00 Oryx Data Collector v3.7.2.0data status	okinstallation	princeton_trtdifferential loss correction	single-endedforward channel	channel 3reverse channel	N/Adate	2019/09/11time	19:10:11forward acquisition time	60.00reverse acquisition time	0.00gamma	496.2192k internal	0.2292k external	0.2292temperature offset calibration	1.0013default loss term (dB/km)	0.3790temperature slope calibration	1.0000multiplexer offset coefficient	1.0000multiplexer slope coefficient	1.0000fibre end	0.00T internal ref (°C)	41.67T ext. ref 1 (°C)	1.28T ext. ref 2 (°C)	33.80length (m)	temperature (°C)	Stokes	anti-Stokes-747.200	0.667	-0.064	-0.047
-746.185	-36.595	-0.206	0.113
-745.171	417.482	0.011	0.024
-744.156	-126.214	0.161	-0.025
-743.142	390.594	-0.018	0.039
-742.127	-5.505	0.459	0.323
-741.112	-200.000	0.010	0.066
-740.098	266.416	0.014	-0.024
-739.083	-200.000	-0.002	-0.195
-738.069	-200.000	0.048	0.235
-737.054	-19.938	0.350	-0.221
-736.039	342.465	0.126	0.253
-735.025	-71.688	0.221	0.084
-734.010	-9.569	0.097	-0.066
-732.996	339.598	-0.134	-0.267
-731.981	-11.846	-0.121	0.082
-730.966	299.555	-0.129	0.242
-729.952	800.000	-0.026	0.097
-728.937	171.682	-0.055	0.080
-727.923	68.142	-0.127	0.133
-726.908	-112.530	-0.084	-0.017
-725.894	-36.490	-0.294	-0.162
-724.879	99.169	-0.222	-0.262
-723.864	-134.712	-0.281	0.035
-722.850	-200.000	0.004	0.218
-721.835	-161.111	-0.245	-0.013
-720.821	-200.000	0.037	-0.180
-719.806	164.031	-0.131	-0.188
-718.791	-18.513	-0.070	0.044
-717.777	-200.000	0.011	-0.119
-716.762	-136.297	-0.284	-0.034
-715.748	-66.730	0.285	0.115
-714.733	-26.149	-0.262	0.157
-713.718	-94.983	-0.434	0.120
-712.704	82.194	-0.183	0.203
-711.689	800.000	0.048	0.190
-710.675	-41.551	-0.359	-0.189
-709.660	-66.296	-0.176	-0.072
-708.645	-85.349	-0.253	-0.081
-707.631	-119.894	0.038	-0.007
-706.616	800.000	-0.088	-0.272
-705.602	23.396	0.074	-0.062
-704.587	49.652	-0.123	-0.118
-703.572	92.247	-0.141	-0.162
-702.558	-141.807	-0.061	-0.006
-701.543	92.310	-0.051	-0.058
-700.529	251.502	0.264	0.459
-699.514	30.462	-0.149	0.130
-698.499	800.000	0.025	0.075
-697.485	98.199	-0.092	-0.109
-696.470	-200.000	-0.012	-0.286
-695.456	162.200	-0.117	0.167
-694.441	-112.040	-0.302	-0.062
-693.426	800.000	-0.049	0.152
-692.412	347.230	0.074	-0.149
-691.397	-56.863	-0.260	0.117
-690.383	-178.033	0.422	-0.010
-689.368	-39.350	0.343	-0.184
-688.354	-77.862	0.230	0.081
-687.339	-181.077	-0.246	0.005
-686.324	214.430	-0.061	0.098
-685.310	542.202	-0.109	-0.265
-684.295	-83.275	-0.107	-0.035
-683.281	-89.756	0.117	0.035
-682.266	30.886	0.068	0.059
-681.251	-200.000	-0.020	-0.296
-680.237	800.000	0.092	-0.319
-679.222	570.881	0.052	0.129
-678.208	-10.692	-0.051	0.035
-677.193	-102.676	-0.118	-0.029
-676.178	-200.000	0.000	-0.058
-675.164	321.980	-0.136	-0.265
-674.149	128.746	-0.067	0.088
-673.135	-200.000	0.030	-0.291
-672.120	171.798	0.098	0.144
-671.105	457.059	-0.037	-0.084
-670.091	62.724	-0.058	0.059
-669.076	-69.912	0.107	-0.042
-668.062	-14.361	0.338	-0.222
-667.047	-124.098	0.133	-0.021
-666.032	-48.335	0.195	0.096
-665.018	-200.000	0.032	0.234
-664.003	-52.816	0.080	-0.038
-662.989	264.441	-0.077	0.137
-661.974	-131.084	-0.608	-0.083
-660.959	498.743	0.051	-0.119
-659.945	-200.000	-0.001	-0.018
-658.930	72.553	-0.273	-0.291
-657.916	47.797	0.151	0.143
-656.901	469.952	-0.091	-0.208
-655.886	30.813	-0.152	-0.133
-654.872	47.146	-0.132	-0.125
-653.857	-53.695	-0.036	-0.017
-652.843	800.000	0.063	-0.247
-651.828	-63.600	-0.442	-0.185
-650.814	14.426	0.182	-0.145
-649.799	-165.115	0.285	-0.013
-648.784	-200.000	0.009	-0.063
-647.770	1.192	0.325	-0.238
-646.755	233.141	0.177	-0.297
-645.741	440.459	-0.118	-0.263
-644.726	800.000	0.077	0.242
-643.711	-80.617	-0.496	-0.168
-642.697	-45.696	0.344	-0.173
-641.682	557.906	0.006	-0.016
-640.668	-200.000	0.014	-0.114
-639.653	-36.085	-0.058	0.032
-638.638	272.826	-0.019	-0.034
-637.624	-57.282	-0.349	0.157
-636.609	-7.251	0.119	-0.082
-635.595	-200.000	0.017	0.109
-634.580	-172.326	-0.204	0.007
-633.565	-67.808	-0.047	-0.019
-632.551	-177.803	-0.386	0.009
-631.536	-200.000	-0.000	0.209
-630.522	-86.325	0.321	0.101
-629.507	-100.055	0.381	-0.097
-628.492	448.398	0.075	-0.169
-627.478	179.572	0.124	-0.186
-626.463	340.595	0.116	-0.231
-625.449	142.700	-0.030	0.040
-624.434	-132.927	-0.174	-0.023
-623.419	-200.000	-0.018	-0.110
-622.405	800.000	0.072	-0.294
-621.390	-7.212	-0.249	-0.172
-620.376	-114.338	0.372	0.073
-619.361	70.599	-0.367	0.387
-618.346	447.626	0.019	0.042
-617.332	67.845	0.336	-0.350
-616.317	-188.719	-0.120	-0.002
-615.303	634.009	0.082	0.211
-614.288	800.000	-0.057	0.233
-613.273	-49.122	-0.125	-0.061
-612.259	108.704	0.101	-0.123
-611.244	-200.000	0.003	0.232
-610.230	-28.861	-0.256	0.150
-609.215	-60.286	-0.155	0.067
-608.201	-200.000	0.013	-0.064
-607.186	-200.000	-0.011	0.155
-606.171	128.221	0.176	-0.228
-605.157	-153.646	-0.057	-0.004
-604.142	266.141	-0.142	0.252
-603.128	800.000	-0.057	0.181
-602.113	-65.127	-0.163	-0.067
-601.098	-68.607	-0.017	-0.007
-600.084	-90.653	-0.148	-0.044
-599.069	800.000	0.092	-0.351
-598.055	363.866	-0.069	-0.142
-597.040	-83.553	-0.083	0.027
-596.025	-46.823	-0.065	-0.032
-595.011	-125.072	0.125	0.020
-593.996	-200.000	0.050	-0.229
-592.982	165.683	0.056	0.080
-591.967	-66.391	0.169	0.068
-590.952	-73.183	-0.298	0.111
-589.938	-78.822	0.425	-0.147
-588.923	551.030	-0.092	0.225
-587.909	-52.677	-0.318	0.149
-586.894	-200.000	-0.017	0.115
-585.879	-200.000	-0.005	0.144
-584.865	-166.756	-0.091	0.004
-583.850	-43.707	0.237	-0.122
-582.836	-92.659	-0.157	0.045
-581.821	439.679	0.043	-0.096
-580.806	19.227	0.122	-0.100
-579.792	-58.781	-0.222	-0.098
-578.777	545.183	0.093	-0.226
-577.763	-86.013	-0.306	-0.096
-576.748	-41.161	0.140	0.073
-575.733	-200.000	0.032	0.264
-574.719	-156.970	-0.138	0.009
-573.704	242.779	-0.163	-0.277
-572.690	-35.300	0.111	0.062
-571.675	-46.379	0.233	-0.116
-570.661	-113.868	0.031	0.006
-569.646	756.723	0.110	-0.303
-568.631	800.000	-0.059	-0.211
-567.617	800.000	0.078	0.308
-566.602	75.314	-0.252	0.270
-565.588	-15.008	0.085	0.055
-564.573	800.000	0.026	0.087
-563.558	-77.336	-0.261	0.092
-562.544	-41.037	-0.054	-0.028
-561.529	-200.000	0.008	-0.140
-560.515	639.308	0.115	-0.298
-559.500	-150.904	0.169	0.013
-558.485	208.704	0.267	-0.424
-557.471	-97.301	-0.209	0.055
-556.456	17.332	-0.094	0.075
-555.442	-172.901	-0.245	-0.008
-554.427	30.516	0.043	0.038
-553.412	-148.477	0.199	0.017
-552.398	2.074	0.333	-0.244
-551.383	-73.564	-0.260	-0.096
-550.369	-110.572	0.193	-0.040
-549.354	-89.041	0.334	-0.100
-548.339	153.253	-0.161	0.224
-547.325	-200.000	0.013	0.125
-546.310	-40.238	-0.277	0.146
-545.296	-200.000	-0.054	0.461
-544.281	-138.175	-0.232	-0.026
-543.266	-46.289	0.134	0.067
-542.252	-183.361	0.109	-0.002
-541.237	-200.000	0.042	-0.565
-540.223	800.000	0.113	-0.322
-539.208	-175.109	0.530	0.015
-538.193	800.000	0.045	-0.192
-537.179	-87.330	-0.364	0.112
-536.164	82.119	0.059	0.064
-535.150	-62.788	-0.199	0.084
-534.135	80.543	0.129	0.141
-533.121	-160.795	0.289	0.016
-532.106	-200.000	0.003	-0.213
-531.091	14.414	0.155	-0.123
-530.077	288.916	0.163	-0.300
-529.062	91.774	-0.152	-0.173
-528.048	-52.190	0.123	0.058
-527.033	348.919	0.125	-0.251
-526.018	64.886	-0.128	-0.131
-525.004	-134.587	-0.157	-0.019
-523.989	-200.000	0.010	0.215
-522.975	-200.000	-0.039	0.282
-521.960	-120.739	-0.170	-0.029
-520.945	-82.216	0.313	0.103
-519.931	-49.067	-0.211	0.102
-518.916	207.685	-0.052	-0.082
-517.902	-111.780	0.141	0.029
-516.887	800.000	-0.062	0.177
-515.872	-147.441	0.199	0.017
-514.858	12.233	0.082	0.064
-513.843	-67.444	0.172	0.068
-512.829	-129.743	-0.088	0.012
-511.814	32.062	-0.321	-0.281
-510.799	-45.729	-0.180	0.090
-509.785	-50.039	0.286	0.137
-508.770	-200.000	-0.020	0.362
-507.756	-200.000	0.015	0.165
-506.741	800.000	0.013	-0.039
-505.726	72.674	-0.041	0.043
-504.712	24.583	0.128	-0.107
-503.697	258.763	0.217	0.380
-502.683	-200.000	0.068	0.305
-501.668	101.252	-0.053	0.062
-500.653	-103.295	-0.037	-0.009
-499.639	783.749	-0.048	0.133
-498.624	800.000	-0.121	0.350
-497.610	-200.000	0.038	-0.264
-496.595	60.206	-0.038	0.038
-495.581	800.000	-0.074	0.214
-494.566	800.000	-0.031	0.134
-493.551	550.609	-0.091	0.221
-492.537	152.532	0.195	0.270
-491.522	61.319	-0.122	0.123
-490.508	-84.410	0.231	-0.074
-489.493	-51.447	-0.157	-0.074
-488.478	800.000	-0.087	0.316
-487.464	211.475	-0.037	0.059
-486.449	-7.072	0.322	0.222
-485.435	-114.117	0.205	0.040
-484.420	203.636	-0.201	-0.315
-483.405	-131.692	0.163	-0.022
-482.391	-200.000	-0.046	-0.262
-481.376	229.110	0.083	0.137
-480.362	136.225	-0.137	0.180
-479.347	197.596	-0.154	-0.238
-478.332	266.026	-0.117	0.207
-477.318	700.848	-0.071	-0.188
-476.303	800.000	0.085	0.303
-475.289	-28.390	0.109	-0.064
-474.274	16.398	0.052	-0.042
-473.259	-179.384	-0.107	-0.002
-472.245	-200.000	0.032	-0.259
-471.230	-200.000	0.037	-0.235
-470.216	-200.000	0.010	0.109
-469.201	800.000	0.016	-0.065
-468.186	88.434	0.075	0.084
-467.172	378.930	-0.147	0.304
-466.157	-200.000	-0.006	0.097
-465.143	108.691	0.024	0.029
-464.128	26.898	-0.056	0.048
-463.113	385.654	-0.059	-0.123
-462.099	-200.000	0.008	0.172
-461.084	-15.589	-0.120	0.077
-460.070	-61.960	-0.400	0.169
-459.055	-23.179	-0.172	0.105
-458.040	19.575	0.223	0.182
-457.026	289.614	-0.031	-0.058
-456.011	-34.297	-0.042	0.023
-454.997	70.927	0.244	0.256
-453.982	-38.114	0.028	0.015
-452.968	-200.000	0.048	-0.224
-451.953	55.105	-0.162	-0.158
-450.938	-200.000	-0.069	-0.316
-449.924	111.502	-0.065	-0.079
-448.909	800.000	-0.024	-0.099
-447.895	350.807	-0.071	-0.143
-446.880	-26.051	-0.044	-0.026
-445.865	10.877	0.136	-0.105
-444.851	353.589	0.064	0.129
-443.836	-146.808	0.233	0.020
-442.822	-102.159	-0.249	0.060
-441.807	-60.511	-0.342	-0.147
-440.792	528.138	-0.025	0.060
-439.778	-158.788	-0.387	0.022
-438.763	-0.133	0.238	-0.171
-437.749	-38.826	-0.229	0.122
-436.734	669.099	0.054	0.143
-435.719	800.000	0.001	0.003
-434.705	-200.000	0.010	-0.080
-433.690	800.000	0.031	0.136
-432.676	-145.794	0.273	0.025
-431.661	114.400	-0.283	-0.348
-430.646	-143.320	-0.205	-0.020
-429.632	103.382	0.117	-0.139
-428.617	454.199	0.056	-0.126
-427.603	800.000	0.035	-0.118
-426.588	800.000	0.136	-0.390
-425.573	-106.180	-0.361	-0.082
-424.559	-164.675	0.228	-0.010
-423.544	35.104	-0.266	-0.235
-422.530	-200.000	-0.006	0.063
-421.515	-200.000	0.010	-0.217
-420.500	142.315	0.040	-0.054
-419.486	-171.297	0.218	0.007
-418.471	800.000	-0.064	0.261
-417.457	-71.794	0.085	-0.032
-416.442	-165.872	0.106	-0.005
-415.428	-131.902	-0.489	-0.065
-414.413	800.000	0.027	-0.106
-413.398	665.977	0.029	-0.076
-412.384	-189.270	0.262	-0.003
-411.369	-200.000	-0.012	-0.068
-410.355	-10.258	0.351	-0.235
-409.340	115.443	-0.095	-0.117
-408.325	653.108	-0.025	-0.065
-407.311	-131.643	0.079	-0.011
-406.296	800.000	0.032	0.128
-405.282	241.206	-0.306	-0.516
-404.267	86.887	-0.061	-0.068
-403.252	-99.171	-0.110	0.028
-402.238	255.001	-0.163	-0.282
-401.223	-73.522	0.312	-0.115
-400.209	176.215	-0.062	0.091
-399.194	10.575	-0.224	0.173
-398.179	-10.078	0.238	-0.160
-397.165	-200.000	-0.002	0.407
-396.150	-200.000	-0.086	0.523
-395.136	238.972	0.217	-0.365
-394.121	-200.000	-0.068	-0.393
-393.106	589.541	-0.207	-0.515
-392.092	82.524	0.100	0.109
-391.077	800.000	-0.061	0.223
-390.063	-4.745	-0.109	-0.076
-389.048	594.430	0.085	-0.211
-388.033	-119.999	-0.157	-0.027
-387.019	-200.000	0.047	-0.280
-386.004	49.068	-0.228	-0.217
-384.990	393.160	-0.042	0.089
-383.975	800.000	-0.033	0.131
-382.960	191.912	0.232	0.353
-381.946	332.269	0.047	-0.091
-380.931	-88.970	0.245	0.073
-379.917	-181.002	-0.168	0.003
-378.902	228.406	0.082	-0.135
-377.888	-119.069	0.201	0.035
-376.873	-65.335	0.099	-0.040
-375.858	739.533	0.104	0.280
-374.844	412.607	-0.051	-0.110
-373.829	-200.000	0.001	-0.060
-372.815	-81.650	0.339	-0.112
-371.800	-200.000	-0.020	-0.253
-370.785	-200.000	0.066	0.528
-369.771	-21.592	-0.264	0.162
-368.756	613.794	0.025	0.062
-367.742	-17.170	-0.141	0.089
-366.727	133.603	-0.137	0.179
-365.712	108.492	-0.165	-0.199
-364.698	-56.270	-0.045	0.020
-363.683	-16.469	-0.102	-0.065
-362.669	-79.070	-0.170	-0.058
-361.654	224.275	0.003	0.004
-360.639	-76.392	-0.104	-0.037
-359.625	115.531	0.183	0.225
-358.610	-112.791	-0.309	-0.062
-357.596	-111.460	0.087	0.018
-356.581	-24.244	-0.140	-0.084
-355.566	-125.138	-0.277	-0.043
-354.552	-98.227	-0.139	-0.036
-353.537	800.000	-0.047	0.178
-352.523	-132.075	-0.090	0.012
-351.508	486.193	-0.069	-0.159
-350.493	-200.000	-0.001	0.013
-349.479	91.861	-0.272	-0.309
-348.464	-54.725	-0.230	0.105
-347.450	-89.488	-0.150	-0.044
-346.435	-76.517	0.154	0.055
-345.420	568.504	0.084	-0.205
-344.406	76.490	-0.113	-0.121
-343.391	-200.000	-0.065	0.303
-342.377	549.657	0.053	-0.127
-341.362	35.739	-0.239	0.211
-340.348	120.043	0.130	0.163
-339.333	-200.000	0.006	0.228
-338.318	-18.540	-0.154	-0.097
-337.304	-75.496	0.084	-0.030
-336.289	-147.390	0.137	0.012
-335.275	87.629	-0.095	-0.106
-334.260	-134.274	0.067	0.008
-333.245	-157.164	0.324	0.020
-332.231	-200.000	0.044	-0.200
-331.216	140.128	-0.217	0.288
-330.202	-200.000	0.042	-0.289
-329.187	198.808	-0.114	-0.175
-328.172	-38.591	0.033	-0.018
-327.158	-46.543	0.283	-0.140
-326.143	800.000	0.150	0.522
-325.129	-78.530	0.095	0.033
-324.114	162.118	0.139	-0.197
-323.099	4.044	-0.240	-0.177
-322.085	44.363	-0.234	-0.216
-321.070	2.059	-0.275	-0.200
-320.056	-47.608	-0.339	0.166
-319.041	800.000	0.064	0.249
-318.026	-158.604	0.075	-0.004
-317.012	800.000	-0.087	-0.277
-315.997	-200.000	0.076	0.417
-314.983	-120.967	0.227	-0.038
-313.968	-89.820	0.293	0.086
-312.953	587.235	0.049	0.121
-311.939	-200.000	-0.018	-0.122
-310.924	-69.249	-0.102	0.039
-309.910	-47.265	-0.324	-0.159
-308.895	177.696	-0.085	0.124
-307.880	-59.010	-0.276	0.120
-306.866	223.434	-0.039	-0.063
-305.851	-9.441	0.107	-0.072
-304.837	-91.090	0.268	-0.077
-303.822	-200.000	0.059	0.267
-302.807	31.354	-0.101	-0.088
-301.793	-124.228	0.048	-0.008
-300.778	159.796	0.059	-0.083
-299.764	253.006	0.039	0.067
-298.749	800.000	0.072	0.245
-297.735	-2.342	-0.224	-0.158
-296.720	-103.732	-0.330	0.078
-295.705	387.649	-0.090	-0.188
-294.691	3.029	-0.074	-0.054
-293.676	800.000	-0.036	0.145
-292.662	63.677	0.234	0.237
-291.647	580.538	-0.079	0.195
-290.632	-115.615	-0.355	-0.067
-289.618	-200.000	-0.001	-0.132
-288.603	-48.553	0.263	-0.127
-287.589	800.000	0.121	0.341
-286.574	-0.454	0.121	-0.086
-285.559	142.017	-0.328	-0.438
-284.545	40.402	-0.230	0.208
-283.530	-108.043	-0.249	0.054
-282.516	379.466	-0.120	0.248
-281.501	-58.730	0.238	-0.104
-280.486	-23.745	-0.378	-0.227
-279.472	-200.000	0.009	-0.136
-278.457	-200.000	-0.057	0.260
-277.443	262.371	0.117	0.204
-276.428	-61.338	0.327	0.138
-275.413	377.122	0.074	-0.152
-274.399	-200.000	0.031	0.284
-273.384	130.959	0.364	-0.470
-272.370	347.348	0.143	-0.284
-271.355	-76.104	0.282	0.100
-270.340	800.000	0.081	0.241
-269.326	16.010	0.216	0.171
-268.311	-131.887	0.273	-0.036
-267.297	29.994	-0.255	0.218
-266.282	-146.256	0.071	-0.006
-265.267	-125.144	0.391	-0.060
-264.253	-32.905	0.358	0.200
-263.238	-62.459	-0.206	-0.086
-262.224	-35.457	0.274	-0.150
-261.209	59.111	0.116	0.114
-260.195	43.797	-0.352	0.324
-259.180	228.488	0.086	0.141
-258.165	-38.516	-0.183	-0.097
-257.151	-126.842	-0.084	0.012
-256.136	-200.000	-0.006	0.123
-255.122	70.675	-0.098	-0.102
-254.107	-64.326	0.143	0.059
-253.092	800.000	0.074	-0.291
-252.078	800.000	-0.081	0.277
-251.063	-30.722	-0.037	-0.021
-250.049	-112.696	0.222	0.044
-249.034	-12.237	0.265	0.174
-248.019	687.512	-0.083	-0.217
-247.005	109.679	-0.083	-0.100
-245.990	-108.583	0.415	0.090
-244.976	-115.634	-0.047	-0.009
-243.961	-125.187	-0.211	-0.032
-242.946	800.000	0.053	-0.201
-241.932	79.501	-0.203	0.218
-240.917	463.396	-0.057	-0.127
-239.903	361.129	-0.097	-0.195
-238.888	-21.563	-0.200	0.122
-237.873	800.000	-0.087	0.290
-236.859	-138.437	0.534	0.059
-235.844	259.199	0.053	-0.091
-234.830	-151.678	0.080	0.006
-233.815	758.714	0.114	-0.311
-232.800	800.000	-0.102	0.337
-231.786	-19.454	0.168	0.104
-230.771	-138.725	-0.187	-0.020
-229.757	-75.741	-0.171	-0.061
-228.742	38.479	-0.139	-0.124
-227.727	-56.351	0.313	0.139
-226.713	-131.656	0.164	-0.022
-225.698	-51.495	0.255	0.120
-224.684	-129.459	0.166	0.023
-223.669	288.121	-0.137	-0.249
-222.655	800.000	0.009	0.036
-221.640	347.065	0.054	0.107
-220.625	-17.550	0.162	-0.102
-219.611	-200.000	-0.085	-0.443
-218.596	-76.418	0.180	0.064
-217.582	800.000	-0.054	-0.150
-216.567	179.874	-0.065	0.095
-215.552	-200.000	0.008	-0.118
-214.538	78.907	0.305	-0.327
-213.523	-200.000	0.014	-0.206
-212.509	-161.866	0.037	0.002
-211.494	800.000	-0.088	-0.322
-210.479	-68.995	-0.288	0.111
-209.465	-69.622	0.119	-0.046
-208.450	40.325	0.206	0.186
-207.436	-200.000	-0.002	0.041
-206.421	-82.835	0.199	-0.065
-205.406	-200.000	0.054	0.455
-204.392	-200.000	0.057	0.285
-203.377	-159.204	-0.415	0.023
-202.363	97.039	0.041	-0.047
-201.348	214.719	0.068	0.108
-200.333	310.374	-0.133	-0.250
-199.319	-127.481	0.143	-0.021
-198.304	120.783	-0.111	0.139
-197.290	115.186	-0.098	0.120
-196.275	234.894	-0.217	-0.358
-195.260	-133.381	0.092	0.012
-194.246	-200.000	-0.052	0.366
-193.231	-114.049	0.142	0.028
-192.217	800.000	-0.033	0.129
-191.202	800.000	-0.045	-0.131
-190.187	-200.000	0.013	0.129
-189.173	-117.754	-0.301	-0.054
-188.158	182.144	0.184	-0.272
-187.144	638.539	0.078	0.199
-186.129	-45.163	0.356	-0.177
-185.114	800.000	0.125	-0.389
-184.100	268.585	-0.173	0.304
-183.085	-200.000	0.030	-0.447
-182.071	-200.000	-0.006	-0.156
-181.056	376.145	0.051	-0.104
-180.042	33.203	0.288	-0.250
-179.027	26.008	0.294	0.245
-178.012	795.803	-0.082	0.226
-176.998	-67.467	0.359	0.141
-175.983	800.000	0.050	0.193
-174.969	-143.498	-0.078	0.007
-173.954	188.353	0.175	0.262
-172.939	-17.935	0.155	0.097
-171.925	113.569	-0.076	0.093
-170.910	273.353	-0.165	0.293
-169.896	687.400	-0.087	0.228
-168.881	-127.186	-0.040	-0.006
-167.866	678.354	-0.108	0.282
-166.852	-200.000	-0.040	0.193
-165.837	-63.958	-0.112	-0.046
-164.823	-22.725	-0.210	-0.127
-163.808	800.000	-0.017	0.073
-162.793	323.196	0.152	-0.289
-161.779	135.658	-0.130	-0.169
-160.764	413.372	-0.165	0.351
-159.750	-65.210	-0.256	-0.103
-158.735	273.804	-0.116	0.205
-157.720	678.716	-0.162	0.420
-156.706	-200.000	0.004	0.038
-155.691	138.398	-0.025	-0.032
-154.677	74.963	-0.119	-0.126
-153.662	100.692	0.199	0.232
-152.647	6.001	0.344	0.255
-151.633	-1.035	0.186	-0.132
-150.618	54.822	0.047	-0.046
-149.604	-40.642	-0.198	0.102
-148.589	78.991	-0.141	0.151
-147.574	-200.000	0.010	-0.138
-146.560	219.126	-0.113	-0.180
-145.545	440.726	-0.107	0.234
-144.531	-45.920	0.116	0.057
-143.516	-200.000	-0.042	0.283
-142.502	296.864	0.113	0.208
-141.487	-46.876	-0.176	0.086
-140.472	-37.752	0.101	-0.054
-139.458	-157.278	0.245	0.015
-138.443	-3.188	0.117	0.081
-137.429	-110.283	-0.232	-0.048
-136.414	-200.000	-0.004	-0.068
-135.399	-200.000	0.005	-0.283
-134.385	83.853	-0.167	0.182
-133.370	-113.712	-0.275	-0.054
-132.356	800.000	-0.082	0.269
-131.341	-200.000	0.006	0.062
-130.326	726.598	0.093	-0.249
-129.312	267.823	0.182	-0.319
-128.297	161.832	-0.134	0.188
-127.283	800.000	0.056	0.176
-126.268	-103.099	-0.164	0.039
-125.253	-19.063	-0.041	-0.026
-124.239	-200.000	-0.043	0.292
-123.224	14.285	0.346	0.270
-122.210	361.387	0.101	-0.203
