DTS Sentinel unit serial number:	SN413079Multiplexer serial number:	ORYXHardware model number:	OX4-SRSoftware version number:	ORYX F/W v4.00 Oryx Data Collector v3.7.2.0data status	okinstallation	princeton_trtdifferential loss correction	single-endedforward channel	channel 3reverse channel	N/Adate	2019/09/18time	11:24:35forward acquisition time	60.00reverse acquisition time	0.00gamma	496.2192k internal	0.2325k external	0.2325temperature offset calibration	0.9956default loss term (dB/km)	0.3790temperature slope calibration	1.0000multiplexer offset coefficient	1.0000multiplexer slope coefficient	1.0000fibre end	0.00T internal ref (°C)	30.16T ext. ref 1 (°C)	0.43T ext. ref 2 (°C)	28.06length (m)	temperature (°C)	Stokes	anti-Stokes-747.200	109.657	-0.008	0.010
-746.185	-200.000	-0.011	-0.074
-745.171	800.000	0.011	-0.039
-744.156	-20.660	-0.270	-0.167
-743.142	-82.621	0.122	0.040
-742.127	341.589	0.075	0.147
-741.112	84.620	-0.183	0.202
-740.098	-200.000	0.004	0.210
-739.083	608.552	0.075	0.188
-738.069	101.011	-0.163	-0.191
-737.054	591.397	0.022	0.054
-736.039	-68.580	-0.299	-0.117
-735.025	-83.129	0.179	0.058
-734.010	128.216	-0.144	-0.184
-732.996	-73.994	-0.156	-0.057
-731.981	72.348	-0.261	-0.275
-730.966	282.968	-0.189	0.342
-729.952	-58.112	-0.253	-0.111
-728.937	-200.000	0.065	-0.357
-727.923	-151.604	0.238	0.018
-726.908	260.769	-0.055	-0.096
-725.894	800.000	-0.137	-0.500
-724.879	-200.000	0.032	0.291
-723.864	-200.000	0.016	-0.142
-722.850	31.910	0.253	-0.220
-721.835	560.735	-0.085	-0.206
-720.821	-152.620	0.027	-0.002
-719.806	377.927	-0.138	-0.285
-718.791	-150.040	-0.238	-0.019
-717.777	-138.606	0.056	0.006
-716.762	300.054	0.106	-0.198
-715.748	213.304	0.139	0.221
-714.733	-110.288	-0.281	0.059
-713.718	-200.000	-0.088	-0.433
-712.704	800.000	0.040	0.141
-711.689	-200.000	-0.035	0.255
-710.675	-200.000	-0.015	0.214
-709.660	26.514	-0.176	-0.148
-708.645	35.003	0.264	-0.233
-707.631	800.000	-0.072	0.204
-706.616	23.580	-0.161	0.133
-705.602	-21.432	0.122	-0.075
-704.587	442.046	-0.107	0.236
-703.572	-102.001	-0.019	-0.005
-702.558	37.013	0.114	-0.102
-701.543	-200.000	0.004	-0.165
-700.529	-65.557	0.037	0.015
-699.514	97.950	0.123	-0.143
-698.499	62.654	-0.102	0.103
-697.485	245.384	-0.133	-0.225
-696.470	800.000	0.043	0.152
-695.456	-200.000	-0.002	-0.145
-694.441	-200.000	0.061	-0.000
-693.426	-200.000	0.022	-0.239
-692.412	199.426	-0.181	0.279
-691.397	-12.376	-0.102	-0.067
-690.383	800.000	0.120	-0.421
-689.368	-200.000	-0.032	0.211
-688.354	800.000	0.050	-0.144
-687.339	733.603	-0.082	0.220
-686.324	-78.209	-0.354	-0.123
-685.310	49.721	-0.180	0.170
-684.295	800.000	0.088	-0.295
-683.281	76.744	-0.141	0.151
-682.266	-3.151	-0.288	0.202
-681.251	-53.721	0.224	-0.103
-680.237	-50.646	0.229	0.109
-679.222	393.285	-0.127	-0.266
-678.208	-200.000	0.043	0.227
-677.193	-200.000	-0.010	-0.298
-676.178	-151.329	0.292	0.022
-675.164	-44.554	-0.245	0.123
-674.149	-200.000	0.002	-0.135
-673.135	196.511	-0.157	0.241
-672.120	628.889	-0.135	-0.343
-671.105	-176.871	0.137	-0.003
-670.091	800.000	0.080	0.329
-669.076	-87.057	-0.315	-0.097
-668.062	-200.000	0.046	-0.371
-667.047	-48.566	0.079	0.038
-666.032	-82.767	-0.259	-0.084
-665.018	176.148	-0.031	0.045
-664.003	-107.811	-0.055	-0.012
-662.989	-148.283	-0.310	0.026
-661.974	-14.020	0.084	-0.055
-660.959	-200.000	0.007	-0.229
-659.945	-1.652	-0.330	-0.234
-658.930	-130.808	0.176	0.024
-657.916	268.914	0.151	0.267
-656.901	-64.635	0.263	0.107
-655.886	-200.000	0.014	0.277
-654.872	-84.969	0.275	0.087
-653.857	-38.634	-0.318	0.169
-652.843	275.392	0.175	0.312
-651.828	-200.000	-0.055	-0.339
-650.814	700.142	-0.076	-0.202
-649.799	301.569	0.065	0.121
-648.784	144.186	-0.082	0.111
-647.770	-200.000	-0.064	0.330
-646.755	-145.216	0.154	0.014
-645.741	9.168	0.057	-0.043
-644.726	-102.905	-0.092	0.022
-643.711	783.879	0.050	-0.137
-642.697	391.866	-0.173	-0.362
-641.682	387.338	0.181	-0.376
-640.668	71.814	-0.144	0.151
-639.653	202.241	-0.292	0.452
-638.638	-200.000	0.018	0.168
-637.624	246.426	-0.068	0.115
-636.609	91.583	-0.002	-0.002
-635.595	800.000	0.051	-0.217
-634.580	-83.325	0.325	0.105
-633.565	535.697	0.071	-0.170
-632.551	-124.450	0.090	-0.014
-631.536	-57.476	-0.122	-0.054
-630.522	-150.968	0.304	-0.023
-629.507	5.876	-0.066	0.049
-628.492	144.672	0.137	0.184
-627.478	800.000	-0.120	-0.521
-626.463	169.067	0.050	-0.072
-625.449	264.901	0.119	-0.208
-624.434	8.731	-0.136	-0.103
-623.419	10.487	-0.227	-0.174
-622.405	7.336	0.101	-0.076
-621.390	-200.000	0.182	-0.001
-620.376	253.675	0.270	-0.463
-619.361	-2.709	-0.300	-0.211
-618.346	-168.330	-0.140	0.005
-617.332	617.426	0.063	-0.159
-616.317	-200.000	0.011	0.170
-615.303	800.000	-0.049	-0.182
-614.288	394.193	-0.211	-0.442
-613.273	-200.000	-0.012	0.148
-612.259	185.277	-0.233	-0.347
-611.244	-200.000	0.013	-0.195
-610.230	800.000	0.066	-0.250
-609.215	-200.000	-0.006	0.183
-608.201	-8.900	-0.119	-0.080
-607.186	97.207	-0.147	-0.170
-606.171	280.846	-0.128	-0.229
-605.157	-200.000	-0.066	-0.364
-604.142	-200.000	0.009	-0.407
-603.128	207.056	-0.117	-0.182
-602.113	86.562	0.299	0.331
-601.098	-149.064	-0.051	0.004
-600.084	104.692	-0.107	-0.127
-599.069	207.213	0.190	-0.297
-598.055	4.799	0.430	0.317
-597.040	-95.623	-0.221	-0.059
-596.025	43.986	0.296	-0.272
-595.011	116.880	-0.159	-0.196
-593.996	27.925	0.331	0.280
-592.982	329.901	-0.114	0.219
-591.967	129.164	0.089	0.114
-590.952	-181.610	-0.115	-0.002
-589.938	242.297	0.044	0.073
-588.923	-139.032	0.228	0.025
-587.909	-102.670	-0.285	0.068
-586.894	339.244	0.063	0.124
-585.879	800.000	0.018	-0.064
-584.865	21.175	-0.161	-0.131
-583.850	-67.247	-0.095	0.037
-582.836	-200.000	0.015	0.129
-581.821	204.389	-0.065	0.101
-580.806	139.099	-0.128	-0.168
-579.792	42.832	0.382	-0.349
-578.777	-200.000	0.007	0.054
-577.763	785.552	-0.050	0.138
-576.748	62.642	-0.056	-0.057
-575.733	148.977	0.103	-0.140
-574.719	-121.263	0.074	-0.012
-573.704	-140.422	0.199	-0.021
-572.690	-42.655	0.045	0.023
-571.675	-200.000	0.004	0.082
-570.661	-15.970	0.074	-0.047
-569.646	-200.000	-0.006	0.437
-568.631	800.000	0.067	0.210
-567.617	710.814	0.032	0.084
-566.602	18.854	0.281	0.225
-565.588	-200.000	-0.156	0.000
-564.573	-200.000	-0.078	0.349
-563.558	-44.907	-0.158	-0.079
-562.544	-185.150	-0.228	0.004
-561.529	-44.240	-0.164	0.082
-560.515	335.011	0.024	-0.047
-559.500	-28.072	-0.240	-0.139
-558.485	-200.000	-0.023	0.153
-557.471	800.000	-0.096	0.339
-556.456	-200.000	0.018	-0.186
-555.442	-200.000	0.033	-0.245
-554.427	-47.008	-0.177	-0.087
-553.412	-85.451	-0.227	-0.071
-552.398	-60.192	0.221	0.094
-551.383	8.882	-0.149	0.113
-550.369	-113.568	0.182	-0.036
-549.354	-200.000	0.001	0.084
-548.339	12.937	-0.112	-0.087
-547.325	800.000	0.085	0.258
-546.310	-105.884	-0.207	0.047
-545.296	-124.768	-0.196	0.030
-544.281	800.000	-0.056	-0.175
-543.266	-43.303	0.100	0.051
-542.252	-18.832	-0.134	-0.083
-541.237	472.306	0.084	0.189
-540.223	539.153	-0.112	0.267
-539.208	51.443	0.144	0.137
-538.193	-200.000	-0.038	-0.304
-537.179	-200.000	0.080	-0.644
-536.164	-152.060	0.136	0.010
-535.150	626.008	0.076	-0.191
-534.135	-200.000	-0.012	0.247
-533.121	-69.739	0.083	0.032
-532.106	-26.045	0.282	0.166
-531.091	-75.657	-0.190	-0.068
-530.077	314.826	-0.178	-0.335
-529.062	545.622	0.187	-0.448
-528.048	-108.682	0.169	0.036
-527.033	-200.000	-0.004	-0.062
-526.018	429.680	-0.144	0.311
-525.004	-3.725	0.142	-0.099
-523.989	336.872	0.083	0.160
-522.975	-200.000	-0.009	-0.319
-521.960	-169.697	0.197	0.007
-520.945	131.855	-0.242	-0.311
-519.931	800.000	0.070	0.306
-518.916	296.604	-0.037	0.067
-517.902	99.538	0.290	-0.335
-516.887	-142.323	-0.074	-0.007
-515.872	607.585	0.120	-0.299
-514.858	-82.777	0.280	-0.090
-513.843	286.027	-0.024	-0.043
-512.829	-93.156	-0.101	-0.028
-511.814	-140.030	0.048	-0.005
-510.799	-77.501	-0.106	-0.037
-509.785	-15.092	-0.165	0.105
-508.770	-200.000	0.028	0.357
-507.756	-32.842	0.160	-0.089
-506.741	800.000	-0.039	-0.139
-505.726	-200.000	-0.016	0.172
-504.712	16.143	-0.097	-0.077
-503.697	-12.895	-0.253	0.164
-502.683	-139.474	-0.301	0.032
-501.668	-200.000	-0.003	-0.361
-500.653	-84.435	-0.058	0.018
-499.639	35.392	-0.157	-0.137
-498.624	248.478	-0.186	-0.314
-497.610	175.613	0.055	-0.079
-496.595	-151.026	0.155	0.012
-495.581	148.351	-0.047	0.064
-494.566	611.842	0.013	-0.032
-493.551	274.158	-0.099	0.175
-492.537	213.612	0.125	-0.198
-491.522	-96.504	0.554	-0.146
-490.508	-113.676	-0.020	0.004
-489.493	-46.139	-0.250	-0.123
-488.478	-177.921	-0.171	-0.004
-487.464	338.552	-0.133	-0.258
-486.449	-119.892	0.195	0.034
-485.435	25.412	-0.261	-0.217
-484.420	-55.774	-0.132	-0.059
-483.405	76.897	0.305	-0.323
-482.391	102.535	0.197	0.230
-481.376	-200.000	-0.014	0.198
-480.362	-200.000	-0.021	0.185
-479.347	-9.007	0.111	0.074
-478.332	-27.592	0.122	0.071
-477.318	-15.010	-0.269	0.172
-476.303	113.816	-0.037	-0.045
-475.289	-200.000	-0.044	-0.266
-474.274	-200.000	-0.009	0.136
-473.259	-57.459	0.171	0.075
-472.245	-29.446	-0.282	0.161
-471.230	110.242	-0.123	0.147
-470.216	-113.238	-0.635	-0.125
-469.201	115.821	0.103	-0.126
-468.186	-200.000	-0.002	0.139
-467.172	-188.129	0.209	-0.003
-466.157	303.540	-0.028	0.051
-465.143	-146.049	-0.182	-0.016
-464.128	52.633	0.324	0.309
-463.113	514.375	-0.070	0.162
-462.099	-67.676	0.353	-0.138
-461.084	800.000	0.122	0.483
-460.070	142.919	0.086	0.114
-459.055	-167.433	-0.530	-0.021
-458.040	-94.886	-0.176	-0.048
-457.026	-200.000	-0.072	-0.330
-456.011	26.926	-0.279	0.233
-454.997	230.461	-0.027	0.044
-453.982	401.268	-0.113	0.237
-452.968	-125.419	-0.285	-0.043
-451.953	-156.608	0.143	0.009
-450.938	-99.670	-0.129	0.032
-449.924	800.000	-0.024	-0.084
-448.909	-77.917	0.217	-0.075
-447.895	-43.115	-0.236	-0.119
-446.880	-173.278	0.098	0.003
-445.865	-200.000	0.010	-0.077
-444.851	-200.000	0.014	-0.079
-443.836	133.981	-0.302	0.391
-442.822	-57.178	-0.139	0.061
-441.807	107.723	0.077	-0.091
-440.792	800.000	0.098	-0.307
-439.778	328.445	0.289	0.554
-438.763	61.446	0.275	0.272
-437.749	-97.557	0.095	0.025
-436.734	-200.000	-0.008	0.079
-435.719	-118.088	0.347	0.062
-434.705	289.054	-0.191	-0.345
-433.690	793.680	-0.063	0.172
-432.676	-62.255	-0.140	0.058
-431.661	1.461	0.037	-0.026
-430.646	528.696	-0.104	-0.245
-429.632	-44.081	-0.046	-0.023
-428.617	-200.000	-0.028	0.172
-427.603	43.282	-0.146	0.133
-426.588	173.952	-0.311	-0.447
-425.573	-32.935	-0.178	-0.099
-424.559	-42.383	0.195	-0.099
-423.544	79.471	0.220	0.235
-422.530	-141.510	0.221	-0.022
-421.515	11.077	-0.135	-0.103
-420.500	-70.317	-0.328	0.124
-419.486	392.727	0.066	-0.137
-418.471	-200.000	-0.023	-0.111
-417.457	585.248	-0.068	0.166
-416.442	3.519	0.117	0.085
-415.428	53.101	-0.084	0.080
-414.413	-200.000	0.013	0.086
-413.398	118.794	0.086	-0.106
-412.384	-142.476	-0.085	-0.008
-411.369	14.742	-0.154	0.120
-410.355	-74.234	0.236	0.085
-409.340	-200.000	0.002	-0.072
-408.325	29.304	-0.049	-0.042
-407.311	143.347	0.232	0.308
-406.296	75.012	-0.114	0.120
-405.282	-200.000	-0.047	-0.236
-404.267	800.000	-0.032	0.091
-403.252	151.339	-0.066	-0.090
-402.238	-200.000	-0.005	0.109
-401.223	800.000	-0.036	0.108
-400.209	-16.883	-0.165	-0.104
-399.194	257.666	0.065	0.111
-398.179	-93.844	0.152	0.042
-397.165	-140.676	-0.451	-0.046
-396.150	212.086	0.101	-0.159
-395.136	302.258	0.027	-0.050
-394.121	-187.067	0.314	0.004
-393.106	10.073	-0.329	0.249
-392.092	800.000	0.103	0.406
-391.077	180.212	-0.134	0.196
-390.063	-18.155	0.146	-0.091
-389.048	-200.000	-0.003	-0.114
-388.033	800.000	0.014	0.060
-387.019	181.060	-0.044	-0.064
-386.004	-133.538	-0.068	-0.008
-384.990	-73.738	0.059	-0.021
-383.975	-104.605	0.286	0.066
-382.960	33.147	0.159	-0.138
-381.946	-33.492	-0.241	-0.133
-380.931	-91.935	0.052	0.015
-379.917	-200.000	0.001	0.323
-378.902	-200.000	0.012	-0.064
-377.888	723.039	-0.053	0.141
-376.873	42.512	0.344	0.311
-375.858	-150.704	0.294	-0.022
-374.844	-64.594	0.265	-0.107
-373.829	759.461	-0.020	0.053
-372.815	800.000	0.023	-0.064
-371.800	-200.000	0.001	-0.557
-370.785	-181.145	-0.258	0.005
-369.771	711.457	0.079	-0.208
-368.756	-156.291	-0.175	0.011
-367.742	68.772	-0.264	0.270
-366.727	-200.000	-0.042	-0.349
-365.712	-158.129	-0.214	0.012
-364.698	-200.000	0.053	-0.326
-363.683	61.653	0.053	-0.053
-362.669	-44.996	-0.157	0.078
-361.654	-200.000	0.017	-0.188
-360.639	-20.035	0.168	-0.103
-359.625	-200.000	-0.022	-0.116
-358.610	47.943	0.105	0.098
-357.596	602.392	0.127	-0.313
-356.581	28.536	0.201	0.169
-355.566	-9.302	-0.229	-0.152
-354.552	-25.621	0.099	-0.058
-353.537	12.339	0.153	-0.117
-352.523	90.484	0.366	0.407
-351.508	-72.038	-0.186	0.069
-350.493	291.981	0.019	0.035
-349.479	-99.926	0.380	-0.094
-348.464	117.887	-0.072	0.088
-347.450	-102.737	-0.120	-0.028
-346.435	-86.436	0.362	0.110
-345.420	419.678	-0.036	0.076
-344.406	200.245	-0.065	-0.100
-343.391	-79.234	0.018	-0.006
-342.377	181.000	0.119	0.173
-341.362	600.576	-0.125	-0.309
-340.348	800.000	0.042	-0.142
-339.333	-189.118	0.112	0.001
-338.318	-192.582	-0.089	-0.001
-337.304	-49.273	0.388	-0.184
-336.289	-96.953	-0.058	0.015
-335.275	-194.501	0.244	-0.002
-334.260	-31.570	0.148	-0.083
-333.245	-200.000	0.037	0.226
-332.231	168.872	-0.132	0.186
-331.216	-14.217	0.185	0.119
-330.202	7.304	0.125	0.093
-329.187	28.862	-0.294	-0.247
-328.172	357.937	-0.024	-0.047
-327.158	183.681	0.059	-0.086
-326.143	-47.505	0.052	0.025
-325.129	520.618	0.075	0.175
-324.114	-200.000	-0.001	0.029
-323.099	253.842	-0.136	0.230
-322.085	43.741	-0.269	0.245
-321.070	-200.000	0.016	0.073
-320.056	-2.865	-0.323	-0.224
-319.041	-61.175	0.225	0.094
-318.026	-136.865	-0.153	-0.017
-317.012	-176.639	-0.193	-0.005
-315.997	369.916	0.243	0.487
-314.983	-200.000	-0.005	-0.067
-313.968	-42.128	0.167	-0.085
-312.953	800.000	-0.040	0.171
-311.939	-153.237	-0.388	0.027
-310.924	-200.000	-0.011	0.135
-309.910	18.164	0.156	-0.124
-308.895	62.107	0.080	-0.079
-307.880	-200.000	-0.005	0.087
-306.866	800.000	-0.037	-0.107
-305.851	-200.000	0.019	-0.168
-304.837	-200.000	0.003	-0.124
-303.822	7.734	0.091	0.068
-302.807	800.000	-0.010	0.031
-301.793	-6.968	0.078	0.052
-300.778	800.000	0.042	0.144
-299.764	534.815	-0.095	0.223
-298.749	-106.287	-0.129	-0.029
-297.735	-110.562	-0.380	0.078
-296.720	-138.910	0.282	0.030
-295.705	-24.276	0.264	-0.156
-294.691	143.392	-0.084	-0.111
-293.676	117.592	0.192	-0.234
-292.662	-145.111	-0.056	0.005
-291.647	55.337	0.082	-0.079
-290.632	-110.270	0.343	0.071
-289.618	800.000	-0.057	0.181
-288.603	2.956	-0.263	-0.190
-287.589	-15.204	-0.181	0.115
-286.574	287.038	-0.107	-0.191
-285.559	-200.000	0.050	-0.239
-284.545	55.416	0.039	0.038
-283.530	33.502	-0.219	0.188
-282.516	-200.000	-0.007	0.271
-281.501	-200.000	-0.041	-0.238
-280.486	110.913	0.183	-0.218
-279.472	-46.200	0.169	-0.082
-278.457	21.082	0.342	-0.275
-277.443	347.143	-0.186	-0.364
-276.428	800.000	0.075	0.274
-275.413	450.007	0.054	-0.117
-274.399	-65.045	-0.193	-0.077
-273.384	-119.812	-0.152	-0.026
-272.370	800.000	0.078	0.221
-271.355	-57.637	-0.241	-0.105
-270.340	-200.000	-0.063	0.374
-269.326	-200.000	-0.061	-0.463
-268.311	-53.057	-0.264	0.120
-267.297	-200.000	-0.001	-0.100
-266.282	-156.049	0.343	-0.022
-265.267	-200.000	-0.001	0.015
-264.253	-200.000	0.026	0.149
-263.238	64.933	-0.307	0.307
-262.224	-96.179	-0.272	-0.071
-261.209	-115.239	0.285	-0.053
-260.195	-200.000	-0.008	0.112
-259.180	72.235	-0.217	0.224
-258.165	800.000	-0.087	0.264
-257.151	332.273	-0.027	0.051
-256.136	-50.077	-0.409	-0.192
-255.122	-145.633	-0.250	0.022
-254.107	51.343	0.155	-0.146
-253.092	677.895	-0.089	0.230
-252.078	-10.328	-0.279	0.183
-251.063	800.000	0.043	0.171
-250.049	50.189	0.202	0.188
-249.034	-138.677	-0.354	-0.038
-248.019	138.425	0.094	0.123
-247.005	-200.000	0.004	-0.295
-245.990	-24.192	-0.234	-0.138
-244.976	-29.166	0.199	-0.113
-243.961	109.456	-0.277	0.328
-242.946	-200.000	0.019	0.299
-241.932	431.384	-0.097	-0.207
-240.917	-154.970	0.320	0.021
-239.903	187.394	-0.152	0.225
-238.888	24.676	0.124	0.102
-237.873	250.261	-0.030	0.051
-236.859	-167.793	-0.340	-0.013
-235.844	-60.829	0.110	-0.046
-234.830	192.739	-0.136	-0.203
-233.815	122.144	-0.023	0.028
-232.800	318.838	0.092	0.172
-231.786	44.594	-0.225	0.205
-230.771	-142.737	-0.210	0.020
-229.757	-150.759	-0.247	-0.019
-228.742	91.833	0.031	0.034
-227.727	-200.000	-0.037	-0.215
-226.713	-113.146	0.167	-0.033
-225.698	471.991	-0.069	0.154
-224.684	800.000	0.010	0.033
-223.669	-45.535	0.128	-0.062
-222.655	-49.695	-0.256	0.120
-221.640	-133.206	-0.038	-0.005
-220.625	-200.000	0.006	-0.151
-219.611	312.194	0.209	-0.388
-218.596	147.188	-0.038	-0.051
-217.582	50.831	0.325	0.305
-216.567	206.801	0.021	-0.032
-215.552	-109.670	0.037	0.008
-214.538	-160.305	-0.063	-0.003
-213.523	93.340	0.082	0.091
-212.509	101.966	0.291	-0.336
-211.494	-200.000	-0.014	0.074
-210.479	7.488	0.299	0.221
-209.465	731.866	0.081	-0.213
-208.450	800.000	0.039	-0.151
-207.436	107.423	0.107	0.125
-206.421	-149.094	0.235	0.019
-205.406	297.748	0.127	0.231
-204.392	800.000	-0.080	0.326
-203.377	800.000	-0.147	0.422
-202.363	156.356	0.172	0.235
-201.348	259.386	-0.078	-0.133
-200.333	-116.888	-0.087	-0.016
-199.319	205.017	-0.128	0.196
-198.304	-94.774	-0.396	0.106
-197.290	-62.667	0.395	0.162
-196.275	224.133	0.027	-0.044
-195.260	-26.586	-0.218	-0.126
-194.246	76.435	-0.235	-0.246
-193.231	-66.120	0.098	0.039
-192.217	126.997	-0.058	0.072
-191.202	800.000	0.105	-0.391
-190.187	47.672	-0.078	-0.072
-189.173	23.394	-0.125	0.101
-188.158	800.000	0.096	-0.267
-187.144	-200.000	0.033	0.187
-186.129	117.269	0.196	0.238
-185.114	-200.000	-0.013	0.303
-184.100	-84.183	-0.137	-0.043
-183.085	-28.828	0.200	0.114
-182.071	58.958	-0.118	-0.114
-181.056	800.000	0.015	0.047
-180.042	304.830	-0.103	0.189
-179.027	153.778	-0.106	-0.143
-178.012	170.514	0.289	-0.408
-176.998	154.968	0.111	0.151
-175.983	2.439	0.009	0.007
-174.969	-16.538	-0.134	0.084
-173.954	-12.451	0.309	-0.199
-172.939	-155.390	-0.193	-0.012
-171.925	5.122	0.223	0.162
-170.910	-200.000	-0.043	0.478
-169.896	-53.880	0.124	-0.056
-168.881	-174.847	0.427	0.012
-167.866	-200.000	-0.016	-0.136
-166.852	-28.917	0.395	-0.224
-165.837	765.850	-0.057	-0.153
-164.823	209.690	0.162	0.250
-163.808	-200.000	0.028	0.446
-162.793	800.000	0.043	0.143
-161.779	-146.903	-0.113	0.010
-160.764	499.574	-0.121	-0.274
-159.750	173.023	-0.081	-0.115
-158.735	334.678	0.102	0.194
-157.720	-17.253	0.099	-0.062
-156.706	256.905	0.129	0.218
-155.691	-84.649	0.169	-0.053
-154.677	-22.007	0.039	-0.023
-153.662	207.132	0.123	0.189
-152.647	800.000	-0.033	0.124
-151.633	-152.389	0.279	0.020
-150.618	-48.803	0.142	0.067
-149.604	680.443	0.045	0.115
-148.589	-200.000	0.032	0.182
-147.574	-131.794	0.073	-0.009
-146.560	-49.480	-0.209	-0.098
-145.545	390.235	0.040	0.082
-144.531	-111.825	-0.176	-0.035
-143.516	68.439	0.062	-0.063
-142.502	98.004	-0.136	-0.154
-141.487	236.754	0.086	0.141
-140.472	560.760	-0.102	0.243
-139.458	73.692	0.252	-0.260
-138.443	-113.087	0.111	-0.022
-137.429	37.667	0.072	0.063
-136.414	-120.565	-0.303	0.051
-135.399	47.429	-0.213	0.195
-134.385	-25.997	0.517	0.300
-133.370	16.991	-0.160	0.125
-132.356	-39.678	-0.366	0.189
-131.341	-98.504	0.077	-0.020
-130.326	237.676	0.097	0.158
-129.312	170.718	-0.232	-0.328
-128.297	-200.000	-0.030	-0.259
-127.283	-120.374	-0.159	-0.027
-126.268	800.000	0.059	0.175
-125.253	-133.684	0.105	0.013
-124.239	-200.000	0.030	-0.445
-123.224	800.000	0.044	-0.172
-122.210	-105.777	0.293	-0.065
