DTS Sentinel unit serial number:	SN413079Multiplexer serial number:	ORYXHardware model number:	OX4-SRSoftware version number:	ORYX F/W v4.00 Oryx Data Collector v3.7.2.0data status	okinstallation	princeton_trtdifferential loss correction	single-endedforward channel	channel 3reverse channel	N/Adate	2019/09/16time	06:12:35forward acquisition time	60.00reverse acquisition time	0.00gamma	496.2192k internal	0.2334k external	0.2334temperature offset calibration	0.9958default loss term (dB/km)	0.3790temperature slope calibration	1.0000multiplexer offset coefficient	1.0000multiplexer slope coefficient	1.0000fibre end	0.00T internal ref (°C)	27.44T ext. ref 1 (°C)	11.30T ext. ref 2 (°C)	21.73length (m)	temperature (°C)	Stokes	anti-Stokes-747.200	-43.049	0.092	-0.047
-746.185	-200.000	-0.017	0.388
-745.171	686.800	-0.069	-0.182
-744.156	4.152	-0.136	-0.100
-743.142	468.247	0.072	-0.162
-742.127	-200.000	-0.040	0.218
-741.112	123.740	0.209	0.264
-740.098	-200.000	0.038	0.314
-739.083	-200.000	-0.024	0.137
-738.069	50.341	0.218	0.207
-737.054	-122.497	-0.039	0.006
-736.039	-51.880	-0.138	-0.064
-735.025	-54.307	0.364	-0.166
-734.010	-200.000	-0.037	-0.291
-732.996	-40.713	-0.036	0.019
-731.981	-77.640	-0.274	-0.095
-730.966	108.074	-0.118	0.141
-729.952	382.173	0.145	0.299
-728.937	0.457	-0.296	0.212
-727.923	-200.000	-0.035	0.165
-726.908	-200.000	-0.002	-0.139
-725.894	-147.780	-0.301	-0.025
-724.879	-200.000	-0.010	-0.110
-723.864	-27.129	-0.290	-0.170
-722.850	219.224	-0.164	-0.264
-721.835	-200.000	0.024	-0.144
-720.821	241.502	0.237	0.398
-719.806	395.965	0.037	0.077
-718.791	82.832	-0.064	0.069
-717.777	-200.000	-0.013	-0.149
-716.762	24.465	-0.133	-0.111
-715.748	18.653	-0.116	0.093
-714.733	367.850	0.111	-0.226
-713.718	203.875	-0.066	0.102
-712.704	-200.000	-0.036	-0.323
-711.689	-58.833	0.593	-0.257
-710.675	22.727	0.092	0.076
-709.660	-100.078	-0.213	0.053
-708.645	-200.000	-0.004	-0.412
-707.631	800.000	0.054	0.227
-706.616	378.048	-0.040	-0.083
-705.602	-111.093	-0.282	-0.058
-704.587	-200.000	0.046	0.246
-703.572	296.154	0.104	-0.191
-702.558	800.000	-0.061	-0.168
-701.543	209.896	0.069	-0.108
-700.529	-53.308	0.128	-0.059
-699.514	-94.387	0.324	0.089
-698.499	543.900	-0.118	-0.282
-697.485	304.658	-0.150	0.279
-696.470	692.398	0.089	0.235
-695.456	306.437	0.043	-0.081
-694.441	-70.318	-0.238	-0.091
-693.426	-84.039	-0.267	0.085
-692.412	-176.362	0.163	0.004
-691.397	-19.244	0.165	-0.103
-690.383	800.000	-0.019	0.086
-689.368	306.853	-0.061	-0.115
-688.354	-155.632	-0.590	-0.038
-687.339	238.735	0.310	0.516
-686.324	-193.093	0.204	-0.002
-685.310	-25.375	0.159	-0.094
-684.295	-137.841	-0.410	0.046
-683.281	800.000	-0.035	-0.097
-682.266	800.000	-0.057	0.199
-681.251	22.731	-0.182	-0.149
-680.237	800.000	-0.018	0.053
-679.222	800.000	-0.079	0.299
-678.208	1.497	-0.503	-0.363
-677.193	410.433	0.053	-0.114
-676.178	-112.640	-0.057	0.011
-675.164	-105.697	-0.206	-0.047
-674.149	800.000	-0.075	-0.284
-673.135	-99.837	-0.126	0.032
-672.120	-60.611	0.311	-0.132
-671.105	-94.617	-0.346	-0.094
-670.091	-86.272	0.258	0.080
-669.076	-200.000	0.019	0.120
-668.062	-200.000	-0.040	0.291
-667.047	17.337	-0.308	-0.245
-666.032	29.216	-0.182	-0.155
-665.018	-148.441	-0.255	0.021
-664.003	800.000	-0.028	-0.091
-662.989	-130.428	0.207	0.028
-661.974	317.277	0.129	-0.244
-660.959	-16.673	0.181	-0.115
-659.945	488.471	-0.089	-0.204
-658.930	672.985	0.110	-0.286
-657.916	-90.736	-0.382	0.110
-656.901	-160.185	0.166	-0.009
-655.886	186.068	0.248	-0.369
-654.872	-30.726	0.455	-0.258
-653.857	237.672	0.305	-0.507
-652.843	495.093	0.067	-0.154
-651.828	206.983	-0.215	-0.335
-650.814	-200.000	-0.010	-0.273
-649.799	361.556	0.111	0.222
-648.784	-65.607	-0.214	-0.086
-647.770	-200.000	0.076	0.349
-646.755	800.000	-0.085	-0.238
-645.741	716.677	0.110	0.292
-644.726	-200.000	-0.026	0.370
-643.711	-42.341	-0.336	0.172
-642.697	11.042	-0.113	-0.087
-641.682	-103.547	-0.372	0.088
-640.668	-116.085	0.105	-0.020
-639.653	-167.160	0.220	-0.009
-638.638	-77.649	-0.290	-0.100
-637.624	800.000	-0.125	0.356
-636.609	-99.103	0.071	-0.018
-635.595	-200.000	-0.080	-0.398
-634.580	72.904	-0.141	-0.147
-633.565	-56.601	0.039	-0.017
-632.551	-200.000	0.033	-0.238
-631.536	103.897	-0.118	-0.139
-630.522	-50.680	0.123	-0.058
-629.507	-40.631	-0.298	0.155
-628.492	-78.392	0.237	0.081
-627.478	-200.000	0.010	-0.064
-626.463	-200.000	0.001	0.114
-625.449	-90.798	0.127	0.037
-624.434	49.792	-0.134	0.126
-623.419	85.120	-0.301	0.330
-622.405	-98.819	0.292	0.074
-621.390	-42.576	0.180	0.092
-620.376	-79.403	-0.274	0.093
-619.361	-189.292	-0.034	0.000
-618.346	-200.000	-0.011	0.078
-617.332	-149.762	-0.091	-0.007
-616.317	19.874	-0.095	0.077
-615.303	-159.444	-0.051	-0.003
-614.288	-96.992	-0.189	-0.049
-613.273	800.000	-0.046	0.143
-612.259	-99.138	-0.141	0.036
-611.244	374.964	0.162	0.329
-610.230	-200.000	0.049	0.241
-609.215	150.724	-0.227	-0.309
-608.201	-200.000	-0.009	0.128
-607.186	-200.000	-0.009	-0.365
-606.171	56.005	-0.208	-0.202
-605.157	-38.748	-0.445	-0.234
-604.142	-40.750	0.210	0.109
-603.128	156.340	0.050	-0.069
-602.113	57.825	0.141	0.138
-601.098	-40.099	0.107	0.056
-600.084	-141.799	0.248	-0.025
-599.069	-103.857	0.400	0.094
-598.055	-160.421	-0.240	-0.013
-597.040	6.898	-0.197	0.146
-596.025	-13.820	-0.309	0.200
-595.011	164.932	-0.146	-0.206
-593.996	-150.090	-0.085	-0.007
-592.982	43.876	0.178	0.163
-591.967	-136.529	-0.186	-0.022
-590.952	-18.886	-0.098	0.061
-589.938	-81.356	-0.290	-0.095
-588.923	-112.233	-0.330	-0.066
-587.909	800.000	0.086	0.269
-586.894	192.281	0.063	0.094
-585.879	-7.764	0.453	-0.306
-584.865	496.074	0.035	-0.081
-583.850	97.685	-0.138	0.158
-582.836	58.823	0.042	-0.041
-581.821	-125.085	-0.252	0.039
-580.806	-200.000	0.010	-0.370
-579.792	19.209	0.338	0.271
-578.777	150.471	0.172	0.233
-577.763	168.164	-0.141	0.200
-576.748	38.940	-0.239	0.213
-575.733	-41.282	0.071	-0.037
-574.719	-130.115	-0.241	0.033
-573.704	-200.000	0.010	0.089
-572.690	244.755	-0.178	-0.299
-571.675	-18.589	0.073	-0.045
-570.661	322.870	0.111	-0.210
-569.646	8.861	-0.242	-0.182
-568.631	155.245	-0.294	0.403
-567.617	-200.000	0.002	0.264
-566.602	-65.678	0.260	-0.104
-565.588	-200.000	0.007	-0.189
-564.573	800.000	-0.046	0.131
-563.558	-112.752	0.385	0.076
-562.544	800.000	-0.076	0.245
-561.529	-200.000	0.026	0.149
-560.515	-104.898	-0.229	-0.052
-559.500	-128.137	-0.180	-0.026
-558.485	-16.661	0.367	-0.232
-557.471	304.356	0.113	-0.208
-556.456	38.838	0.143	0.127
-555.442	169.367	0.155	0.221
-554.427	38.830	-0.178	-0.159
-553.412	-200.000	0.000	-0.147
-552.398	143.861	0.109	0.145
-551.383	505.123	-0.122	-0.283
-550.369	-35.738	-0.187	-0.101
-549.354	800.000	-0.064	0.183
-548.339	-47.342	0.168	0.082
-547.325	13.128	0.180	0.139
-546.310	-200.000	-0.033	0.187
-545.296	-7.654	0.156	-0.105
-544.281	-200.000	0.063	0.297
-543.266	800.000	0.024	0.077
-542.252	-200.000	-0.020	0.357
-541.237	-60.626	-0.112	-0.047
-540.223	-200.000	0.058	-0.287
-539.208	-40.574	-0.140	-0.072
-538.193	86.523	0.106	0.117
-537.179	-61.186	-0.401	-0.168
-536.164	217.980	0.237	-0.377
-535.150	-4.977	0.096	-0.066
-534.135	142.058	0.224	-0.296
-533.121	-161.317	-0.357	0.018
-532.106	800.000	-0.086	0.365
-531.091	-200.000	-0.017	0.000
-530.077	-200.000	0.025	0.175
-529.062	-200.000	0.037	-0.251
-528.048	-200.000	-0.017	0.097
-527.033	163.557	-0.240	0.337
-526.018	70.754	0.178	-0.183
-525.004	117.966	0.145	0.178
-523.989	381.050	-0.055	0.113
-522.975	102.790	-0.121	0.141
-521.960	-200.000	0.028	-0.172
-520.945	230.037	0.206	0.335
-519.931	273.101	0.006	0.010
-518.916	-200.000	-0.008	-0.041
-517.902	441.001	-0.052	-0.114
-516.887	-200.000	-0.032	-0.229
-515.872	4.084	-0.164	-0.119
-514.858	-63.681	-0.221	-0.090
-513.843	122.308	-0.137	-0.170
-512.829	-53.356	-0.202	-0.092
-511.814	-170.397	0.235	-0.008
-510.799	800.000	-0.065	-0.259
-509.785	349.789	0.033	0.065
-508.770	-163.064	0.107	-0.005
-507.756	131.389	0.120	0.154
-506.741	-200.000	0.016	-0.128
-505.726	27.600	-0.202	-0.170
-504.712	50.293	-0.149	0.140
-503.697	173.239	-0.141	-0.203
-502.683	-200.000	-0.040	-0.323
-501.668	693.813	-0.028	-0.073
-500.653	800.000	-0.030	0.105
-499.639	171.390	0.152	-0.218
-498.624	571.044	0.136	-0.330
-497.610	491.203	-0.053	-0.121
-496.595	53.385	-0.157	0.150
-495.581	-95.585	-0.068	0.018
-494.566	-54.691	0.263	-0.118
-493.551	401.757	-0.126	0.262
-492.537	49.749	0.192	-0.180
-491.522	-121.350	-0.457	-0.076
-490.508	-18.414	0.065	0.041
-489.493	-200.000	-0.044	0.248
-488.478	-200.000	0.048	0.249
-487.464	-140.426	0.438	-0.045
-486.449	788.333	-0.037	-0.102
-485.435	-200.000	-0.008	-0.071
-484.420	-40.255	0.361	0.187
-483.405	-78.408	0.265	-0.090
-482.391	-118.216	-0.165	-0.029
-481.376	-118.775	-0.224	0.039
-480.362	246.886	-0.319	0.535
-479.347	-111.507	0.140	0.028
-478.332	-2.597	-0.041	0.028
-477.318	-142.055	-0.257	0.025
-476.303	-200.000	-0.012	-0.069
-475.289	12.610	-0.212	-0.163
-474.274	-200.000	0.000	0.003
-473.259	-200.000	0.027	0.235
-472.245	61.893	-0.121	0.119
-471.230	406.316	0.125	-0.262
-470.216	-153.681	0.090	-0.006
-469.201	136.299	0.242	0.314
-468.186	-90.557	-0.264	-0.076
-467.172	103.226	0.065	-0.076
-466.157	13.569	-0.066	-0.051
-465.143	-18.761	0.308	0.191
-464.128	-1.073	-0.186	0.131
-463.113	-158.487	-0.150	-0.009
-462.099	-138.538	-0.238	0.026
-461.084	-15.710	0.208	0.132
-460.070	-140.116	0.164	-0.017
-459.055	-32.395	-0.229	-0.127
-458.040	-81.361	-0.306	-0.100
-457.026	538.530	-0.088	0.207
-456.011	-153.599	0.282	-0.019
-454.997	2.900	-0.066	0.048
-453.982	30.878	0.193	0.165
-452.968	-42.626	-0.101	-0.051
-451.953	800.000	-0.044	0.182
-450.938	-200.000	0.019	0.183
-449.924	-138.548	0.102	0.011
-448.909	-28.766	-0.030	0.017
-447.895	-120.031	0.461	-0.079
-446.880	286.670	-0.091	-0.164
-445.865	28.263	0.112	-0.094
-444.851	800.000	-0.115	-0.363
-443.836	-200.000	-0.045	-0.286
-442.822	537.684	-0.117	0.277
-441.807	-49.403	0.144	-0.068
-440.792	-200.000	0.026	0.215
-439.778	158.657	-0.011	-0.015
-438.763	-200.000	-0.019	0.207
-437.749	-81.370	-0.040	0.013
-436.734	-200.000	0.020	0.215
-435.719	-25.834	0.182	0.106
-434.705	-90.140	0.265	0.077
-433.690	99.350	-0.143	0.164
-432.676	-71.061	0.303	-0.113
-431.661	62.186	0.282	0.279
-430.646	-85.390	0.236	0.073
-429.632	252.146	0.021	0.036
-428.617	800.000	-0.088	-0.336
-427.603	-200.000	-0.075	-0.352
-426.588	167.515	-0.036	-0.050
-425.573	27.522	0.112	0.094
-424.559	-200.000	-0.028	0.248
-423.544	-12.575	0.259	0.168
-422.530	800.000	0.054	0.178
-421.515	-95.081	0.026	-0.007
-420.500	429.527	-0.199	0.426
-419.486	800.000	0.106	-0.321
-418.471	800.000	-0.071	0.294
-417.457	-78.661	0.329	-0.111
-416.442	-200.000	0.007	0.047
-415.428	800.000	-0.100	-0.318
-414.413	33.569	0.241	-0.208
-413.398	-200.000	0.019	0.172
-412.384	571.745	0.144	0.348
-411.369	-154.126	0.179	0.012
-410.355	-200.000	0.019	-0.203
-409.340	405.973	0.073	-0.154
-408.325	-78.148	-0.237	0.081
-407.311	-200.000	0.022	0.588
-406.296	226.237	0.200	0.322
-405.282	-200.000	-0.027	0.248
-404.267	-31.518	0.142	0.079
-403.252	-81.492	-0.342	-0.112
-402.238	-49.769	0.343	0.162
-401.223	390.129	0.011	-0.023
-400.209	-134.361	-0.310	-0.038
-399.194	28.416	0.190	0.159
-398.179	-115.609	-0.125	-0.023
-397.165	-200.000	-0.042	-0.235
-396.150	43.490	0.150	0.136
-395.136	487.752	-0.037	-0.084
-394.121	-125.706	-0.198	-0.030
-393.106	434.165	-0.107	0.230
-392.092	-125.693	0.221	-0.033
-391.077	-50.508	-0.086	-0.040
-390.063	164.289	-0.067	0.094
-389.048	-142.369	0.015	-0.001
-388.033	-84.953	-0.163	-0.051
-387.019	800.000	0.022	0.069
-386.004	-31.307	-0.345	-0.192
-384.990	105.962	0.123	-0.144
-383.975	203.469	0.083	-0.127
-382.960	-26.567	-0.096	-0.056
-381.946	800.000	-0.107	0.443
-380.931	581.945	-0.187	0.455
-379.917	-200.000	-0.014	-0.103
-378.902	-105.379	0.198	0.045
-377.888	14.884	0.064	-0.050
-376.873	14.676	-0.134	-0.104
-375.858	-93.720	0.655	-0.179
-374.844	34.440	-0.158	0.137
-373.829	83.290	0.138	0.149
-372.815	-42.494	-0.523	-0.264
-371.800	800.000	-0.074	-0.213
-370.785	-42.170	-0.079	0.040
-369.771	800.000	-0.087	-0.315
-368.756	-28.713	0.339	0.193
-367.742	-60.089	-0.245	-0.104
-366.727	-155.615	0.315	0.020
-365.712	-200.000	0.033	-0.180
-364.698	-13.760	-0.461	-0.295
-363.683	-200.000	0.023	0.142
-362.669	201.881	0.133	-0.204
-361.654	-200.000	-0.383	-0.002
-360.639	130.696	-0.120	0.152
-359.625	83.382	-0.132	-0.142
-358.610	-58.761	0.124	0.053
-357.596	-101.836	-0.221	-0.053
-356.581	800.000	-0.019	-0.061
-355.566	-200.000	-0.002	-0.094
-354.552	33.043	0.018	0.015
-353.537	-40.314	0.171	-0.088
-352.523	-148.023	0.543	0.045
-351.508	158.978	0.216	-0.296
-350.493	-200.000	-0.004	-0.472
-349.479	800.000	0.089	0.350
-348.464	-36.757	-0.193	0.102
-347.450	800.000	-0.086	-0.289
-346.435	-200.000	-0.012	-0.054
-345.420	-135.609	-0.230	0.027
-344.406	291.938	-0.066	-0.120
-343.391	706.291	-0.121	-0.316
-342.377	800.000	0.071	-0.287
-341.362	396.351	-0.051	0.106
-340.348	-23.829	-0.131	0.078
-339.333	-28.645	0.185	-0.106
-338.318	125.892	0.044	0.055
-337.304	-20.812	-0.098	-0.059
-336.289	-200.000	-0.017	0.166
-335.275	4.915	0.095	-0.069
-334.260	94.767	-0.093	0.105
-333.245	152.338	0.178	0.240
-332.231	800.000	-0.150	-0.413
-331.216	247.651	0.081	-0.135
-330.202	-99.725	0.128	-0.032
-329.187	280.629	0.180	0.319
-328.172	-200.000	-0.013	0.134
-327.158	-59.735	0.018	0.008
-326.143	507.758	0.117	-0.268
-325.129	165.772	-0.076	-0.106
-324.114	-110.431	0.346	0.071
-323.099	-200.000	-0.021	0.093
-322.085	60.499	-0.052	0.051
-321.070	-125.741	-0.418	-0.062
-320.056	-200.000	-0.033	0.269
-319.041	538.891	0.118	0.277
-318.026	68.095	0.182	-0.184
-317.012	15.063	0.050	0.039
-315.997	-200.000	0.023	0.156
-314.983	-57.473	-0.146	-0.063
-313.968	202.557	-0.113	0.172
-312.953	-109.684	-0.198	-0.041
-311.939	172.889	0.097	0.138
-310.924	211.325	-0.073	0.114
-309.910	626.095	0.158	-0.395
-308.895	-127.965	0.308	0.044
-307.880	234.345	0.139	0.226
-306.866	-182.144	-0.413	0.008
-305.851	-62.030	-0.243	-0.100
-304.837	49.289	0.173	0.161
-303.822	673.252	-0.066	0.170
-302.807	98.862	0.049	0.056
-301.793	518.224	-0.031	-0.071
-300.778	-116.372	0.154	-0.028
-299.764	348.877	-0.073	0.143
-298.749	192.588	0.245	-0.366
-297.735	800.000	-0.059	-0.217
-296.720	320.528	0.107	-0.201
-295.705	309.986	0.110	-0.203
-294.691	800.000	0.077	-0.326
-293.676	-200.000	0.001	-0.323
-292.662	-9.960	-0.085	-0.056
-291.647	-200.000	0.016	0.236
-290.632	-200.000	-0.020	0.314
-289.618	-24.884	0.220	0.129
-288.603	-77.047	-0.305	0.105
-287.589	49.478	-0.151	-0.140
-286.574	-200.000	-0.047	-0.400
-285.559	-61.857	0.239	-0.099
-284.545	41.334	-0.056	0.050
-283.530	-101.757	0.171	0.041
-282.516	-200.000	0.031	-0.307
-281.501	106.790	0.146	0.171
-280.486	360.847	-0.132	0.261
-279.472	-10.415	-0.354	-0.232
-278.457	-138.761	0.073	0.008
-277.443	-191.347	0.123	0.001
-276.428	269.286	-0.074	0.129
-275.413	-200.000	-0.020	-0.111
-274.399	-200.000	0.007	0.092
-273.384	-200.000	-0.047	0.356
-272.370	336.896	0.118	0.226
-271.355	-27.590	0.141	-0.081
-270.340	-68.001	0.232	-0.089
-269.326	177.008	0.028	-0.040
-268.311	-200.000	0.013	-0.166
-267.297	36.703	0.163	0.142
-266.282	-8.316	-0.238	-0.158
-265.267	-94.986	0.052	-0.014
-264.253	152.776	-0.130	-0.175
-263.238	200.405	-0.182	0.276
-262.224	-177.855	0.409	-0.010
-261.209	-200.000	-0.015	-0.216
-260.195	-85.250	-0.340	-0.105
-259.180	-200.000	0.027	0.134
-258.165	-87.253	-0.324	0.097
-257.151	27.839	0.150	0.125
-256.136	-27.467	0.090	-0.052
-255.122	-200.000	-0.000	0.284
-254.107	-85.405	-0.228	-0.070
-253.092	272.954	-0.081	0.141
-252.078	212.551	-0.078	-0.121
-251.063	-200.000	0.000	-0.122
-250.049	-106.265	0.331	-0.073
-249.034	-200.000	-0.022	0.203
-248.019	-200.000	-0.037	-0.364
-247.005	577.212	-0.057	0.137
-245.990	459.013	-0.115	-0.253
-244.976	121.414	0.108	-0.133
-243.961	81.377	0.114	0.122
-242.946	-79.461	0.119	0.039
-241.932	-200.000	-0.026	-0.172
-240.917	-5.228	-0.375	0.254
-239.903	420.053	-0.116	0.245
-238.888	800.000	0.080	0.330
-237.873	800.000	0.062	-0.191
-236.859	218.588	0.262	-0.412
-235.844	134.414	-0.007	-0.009
-234.830	800.000	0.114	0.431
-233.815	-22.132	0.386	-0.231
-232.800	-122.492	-0.386	-0.062
-231.786	-88.084	-0.180	-0.053
-230.771	134.265	0.097	-0.124
-229.757	264.045	-0.046	-0.080
-228.742	6.117	0.063	0.046
-227.727	-200.000	-0.010	0.337
-226.713	-200.000	0.036	-0.212
-225.698	-200.000	-0.014	-0.142
-224.684	223.514	0.015	0.024
-223.669	-47.722	-0.049	-0.024
-222.655	309.809	0.040	0.073
-221.640	-200.000	0.025	-0.265
-220.625	-159.295	-0.307	0.017
-219.611	-131.263	0.297	0.039
-218.596	-52.488	-0.194	0.088
-217.582	35.056	0.221	-0.191
-216.567	-166.499	-0.088	0.004
-215.552	-134.439	-0.362	0.044
-214.538	-62.142	-0.067	0.027
-213.523	62.947	0.246	-0.243
-212.509	123.774	-0.136	-0.168
-211.494	-200.000	0.049	0.262
-210.479	-17.368	0.283	-0.175
-209.465	179.122	0.329	0.474
-208.450	-200.000	0.200	-0.000
-207.436	-107.210	-0.198	0.043
-206.421	-112.776	-0.073	-0.014
-205.406	-72.746	0.144	-0.052
-204.392	-200.000	0.054	-0.268
-203.377	55.341	0.098	0.093
-202.363	-125.158	0.002	0.000
-201.348	115.243	0.183	0.220
-200.333	-47.965	-0.189	-0.090
-199.319	800.000	-0.043	-0.128
-198.304	138.072	0.029	-0.038
-197.290	-200.000	-0.036	-0.359
-196.275	-37.831	-0.165	-0.086
-195.260	-187.134	0.102	-0.001
-194.246	145.969	0.088	0.116
-193.231	7.624	0.177	0.131
-192.217	41.858	-0.115	-0.103
-191.202	264.274	-0.036	-0.062
-190.187	-111.848	0.288	-0.057
-189.173	-144.671	0.311	-0.028
-188.158	-162.618	-0.246	0.012
-187.144	-73.863	0.114	-0.041
-186.129	800.000	-0.079	0.292
-185.114	-200.000	0.028	-0.368
-184.100	-2.545	-0.084	0.058
-183.085	-93.647	0.146	-0.040
-182.071	-57.148	0.048	0.021
-181.056	9.334	-0.185	0.138
-180.042	126.523	-0.152	-0.189
-179.027	-135.411	0.053	0.006
-178.012	6.511	0.103	-0.075
-176.998	282.954	0.040	-0.070
-175.983	-94.484	0.329	0.088
-174.969	800.000	-0.061	-0.196
-173.954	-40.983	-0.192	0.097
-172.939	233.210	-0.149	-0.241
-171.925	-182.941	0.225	-0.004
-170.910	-164.039	0.199	-0.009
-169.896	-200.000	-0.011	-0.242
-168.881	-93.373	-0.299	-0.082
-167.866	393.420	-0.122	-0.249
-166.852	-120.983	-0.145	0.024
-165.837	-91.362	0.406	0.114
-164.823	74.325	0.121	0.125
-163.808	-8.009	0.173	0.115
-162.793	350.893	0.040	0.078
-161.779	-34.628	-0.285	-0.153
-160.764	-200.000	0.025	0.124
-159.750	-128.757	0.094	-0.013
-158.735	-200.000	-0.012	0.145
-157.720	235.028	0.168	-0.273
-156.706	-70.441	0.244	-0.091
-155.691	-200.000	-0.008	-0.263
-154.677	100.249	0.084	0.096
-153.662	-200.000	-0.030	-0.225
-152.647	25.703	0.059	-0.048
-151.633	497.618	-0.079	-0.179
-150.618	450.751	0.063	-0.136
-149.604	63.956	-0.129	-0.127
-148.589	-200.000	0.035	-0.223
-147.574	-200.000	0.011	0.236
-146.560	-65.923	-0.132	-0.052
-145.545	-52.796	0.336	-0.152
-144.531	-105.722	-0.293	-0.065
-143.516	-200.000	-0.036	-0.172
-142.502	-118.935	0.054	-0.009
-141.487	103.225	0.045	-0.051
-140.472	-96.244	-0.190	0.049
-139.458	194.677	0.123	0.183
-138.443	-164.378	-0.164	0.007
-137.429	-86.256	-0.230	-0.070
-136.414	600.908	0.136	0.333
-135.399	-69.863	-0.095	0.036
-134.385	-40.782	0.099	0.050
-133.370	-200.000	0.019	0.101
-132.356	-102.320	0.338	-0.080
-131.341	-135.928	-0.150	0.017
-130.326	800.000	0.056	0.167
-129.312	-129.284	-0.303	0.041
-128.297	9.100	0.126	0.094
-127.283	-73.056	0.238	0.086
-126.268	-117.584	-0.422	0.075
-125.253	-7.920	0.162	0.107
-124.239	-84.632	-0.240	-0.074
-123.224	-106.296	0.343	0.075
