DTS Sentinel unit serial number:	SN413079Multiplexer serial number:	ORYXHardware model number:	OX4-SRSoftware version number:	ORYX F/W v4.00 Oryx Data Collector v3.7.2.0data status	okinstallation	princeton_trtdifferential loss correction	single-endedforward channel	channel 3reverse channel	N/Adate	2019/09/16time	21:52:34forward acquisition time	60.00reverse acquisition time	0.00gamma	496.2192k internal	0.2325k external	0.2325temperature offset calibration	0.9936default loss term (dB/km)	0.3790temperature slope calibration	1.0000multiplexer offset coefficient	1.0000multiplexer slope coefficient	1.0000fibre end	0.00T internal ref (°C)	31.25T ext. ref 1 (°C)	0.07T ext. ref 2 (°C)	25.58length (m)	temperature (°C)	Stokes	anti-Stokes-747.200	379.553	0.060	0.123
-746.185	-200.000	-0.002	0.045
-745.171	-121.078	0.232	0.039
-744.156	99.421	-0.215	-0.251
-743.142	7.665	0.079	-0.059
-742.127	-36.633	-0.130	0.070
-741.112	230.281	0.043	0.071
-740.098	520.576	0.067	0.160
-739.083	296.596	-0.079	-0.147
-738.069	-108.161	-0.229	0.050
-737.054	800.000	-0.031	0.139
-736.039	-135.246	-0.191	0.023
-735.025	328.710	0.141	0.273
-734.010	25.159	0.101	0.085
-732.996	-200.000	-0.026	-0.202
-731.981	-200.000	-0.026	-0.116
-730.966	-63.205	-0.242	0.101
-729.952	-107.265	0.166	-0.037
-728.937	-149.222	-0.484	-0.039
-727.923	220.078	-0.145	-0.235
-726.908	-88.646	0.181	0.054
-725.894	21.834	0.061	0.051
-724.879	204.564	-0.121	0.189
-723.864	-131.550	-0.130	-0.017
-722.850	-62.268	0.108	-0.046
-721.835	-63.861	-0.059	0.024
-720.821	210.375	-0.175	-0.277
-719.806	-67.410	-0.076	-0.030
-718.791	-57.993	-0.144	-0.063
-717.777	332.530	-0.016	0.032
-716.762	800.000	0.034	-0.102
-715.748	71.237	-0.182	-0.191
-714.733	-37.156	-0.273	-0.147
-713.718	2.559	0.247	0.180
-712.704	210.000	0.032	-0.051
-711.689	201.759	-0.168	-0.261
-710.675	-52.494	-0.129	-0.060
-709.660	800.000	-0.121	0.369
-708.645	-200.000	-0.006	-0.246
-707.631	-23.288	0.150	-0.091
-706.616	665.034	0.039	-0.101
-705.602	-200.000	0.001	0.260
-704.587	-34.460	-0.284	0.157
-703.572	-177.766	-0.120	0.003
-702.558	-6.510	0.160	0.110
-701.543	-134.694	0.156	-0.019
-700.529	-161.967	0.332	-0.017
-699.514	168.859	-0.080	0.114
-698.499	40.133	-0.369	0.334
-697.485	577.826	0.083	-0.204
-696.470	178.304	0.122	0.179
-695.456	-200.000	0.032	0.232
-694.441	-160.708	0.272	-0.015
-693.426	74.400	-0.188	-0.199
-692.412	-200.000	0.044	-0.308
-691.397	-200.000	0.020	-0.123
-690.383	-200.000	-0.010	-0.200
-689.368	-57.918	0.263	-0.116
-688.354	-200.000	-0.015	-0.145
-687.339	-96.456	-0.304	-0.081
-686.324	-9.683	-0.034	-0.023
-685.310	51.865	0.126	-0.121
-684.295	800.000	0.061	-0.243
-683.281	120.108	-0.186	-0.232
-682.266	792.446	-0.139	0.386
-681.251	-8.104	-0.130	0.088
-680.237	-67.969	0.147	-0.058
-679.222	80.589	0.081	0.088
-678.208	11.215	-0.145	0.111
-677.193	140.381	0.068	-0.091
-676.178	417.050	0.095	-0.204
-675.164	-200.000	-0.016	0.158
-674.149	31.220	-0.233	0.201
-673.135	-66.737	0.105	0.042
-672.120	-200.000	-0.035	-0.163
-671.105	-92.777	0.083	0.023
-670.091	-73.814	-0.271	0.099
-669.076	551.522	-0.062	0.150
-668.062	-165.634	0.054	-0.002
-667.047	-139.639	-0.242	0.026
-666.032	370.166	0.035	0.072
-665.018	800.000	0.065	-0.228
-664.003	112.582	0.273	0.333
-662.989	33.930	-0.089	0.078
-661.974	-64.649	0.090	0.037
-660.959	-104.326	0.026	-0.006
-659.945	-27.668	-0.130	-0.076
-658.930	-200.000	-0.031	-0.221
-657.916	-83.060	0.199	0.064
-656.901	222.559	-0.072	0.117
-655.886	-74.422	-0.206	-0.075
-654.872	-200.000	0.103	0.000
-653.857	-200.000	-0.013	-0.215
-652.843	-119.909	-0.105	-0.018
-651.828	-55.475	0.303	-0.136
-650.814	-9.623	0.081	0.055
-649.799	-135.779	0.170	-0.020
-648.784	5.770	-0.257	-0.191
-647.770	168.647	0.103	-0.148
-646.755	192.049	-0.223	-0.338
-645.741	800.000	0.088	-0.282
-644.726	-83.279	-0.192	0.062
-643.711	75.634	-0.113	0.120
-642.697	342.352	-0.112	-0.221
-641.682	800.000	0.021	-0.088
-640.668	-46.686	-0.094	0.046
-639.653	-157.360	-0.159	0.010
-638.638	-26.769	0.257	0.151
-637.624	800.000	-0.129	-0.375
-636.609	249.976	-0.162	0.277
-635.595	43.872	-0.032	-0.029
-634.580	152.451	-0.132	0.181
-633.565	-118.295	-0.239	-0.043
-632.551	-34.847	-0.192	0.105
-631.536	636.824	0.121	0.309
-630.522	-200.000	0.039	0.312
-629.507	-132.016	0.093	-0.012
-628.492	-200.000	-0.033	-0.197
-627.478	-13.135	-0.050	0.033
-626.463	-140.696	0.144	0.015
-625.449	-0.067	0.159	-0.114
-624.434	66.669	0.242	-0.248
-623.419	800.000	0.101	0.352
-622.405	78.866	0.161	0.173
-621.390	-15.092	-0.209	-0.135
-620.376	-83.513	-0.073	-0.023
-619.361	336.152	-0.067	-0.130
-618.346	116.946	0.157	0.193
-617.332	21.420	-0.178	0.146
-616.317	-99.388	-0.327	0.083
-615.303	217.416	0.092	0.148
-614.288	-200.000	0.001	-0.151
-613.273	223.150	-0.074	0.120
-612.259	-18.069	0.172	-0.108
-611.244	800.000	0.021	0.073
-610.230	-10.905	0.170	-0.113
-609.215	169.142	-0.054	-0.077
-608.201	-200.000	0.003	-0.366
-607.186	800.000	0.037	0.108
-606.171	85.726	-0.006	-0.006
-605.157	429.160	-0.073	-0.157
-604.142	-52.424	0.421	0.195
-603.128	0.456	-0.231	0.165
-602.113	-200.000	-0.001	0.017
-601.098	194.730	-0.142	-0.216
-600.084	-15.039	-0.306	-0.197
-599.069	-200.000	-0.001	-0.119
-598.055	-56.105	-0.187	0.083
-597.040	-65.304	0.147	0.059
-596.025	-200.000	-0.025	0.383
-595.011	-51.639	-0.277	0.130
-593.996	-75.487	0.024	0.009
-592.982	-91.377	0.026	-0.008
-591.967	-163.766	-0.218	-0.010
-590.952	-200.000	0.013	0.228
-589.938	133.727	-0.055	-0.072
-588.923	-57.214	0.048	-0.021
-587.909	622.031	0.082	0.207
-586.894	-101.795	-0.108	-0.026
-585.879	127.665	0.121	0.154
-584.865	231.376	0.044	-0.072
-583.850	92.592	0.060	0.068
-582.836	333.941	-0.211	-0.409
-581.821	-30.847	-0.138	-0.078
-580.806	800.000	0.070	0.260
-579.792	53.417	-0.261	-0.251
-578.777	-110.596	-0.392	-0.081
-577.763	-116.107	0.330	-0.062
-576.748	143.203	-0.242	0.323
-575.733	-15.077	0.253	-0.163
-574.719	79.535	0.067	-0.072
-573.704	103.238	0.118	-0.139
-572.690	-97.228	0.138	-0.036
-571.675	324.327	-0.032	-0.061
-570.661	231.452	-0.237	-0.389
-569.646	392.498	-0.076	-0.157
-568.631	800.000	-0.045	-0.139
-567.617	25.340	0.156	-0.130
-566.602	-200.000	-0.004	-0.037
-565.588	25.957	-0.064	-0.054
-564.573	800.000	-0.107	-0.402
-563.558	-1.536	0.336	-0.237
-562.544	274.552	0.106	0.189
-561.529	-200.000	-0.052	-0.235
-560.515	800.000	0.012	0.045
-559.500	-105.421	-0.144	0.033
-558.485	172.804	-0.083	0.120
-557.471	2.109	-0.455	-0.330
-556.456	103.786	0.110	0.129
-555.442	-9.565	0.068	0.046
-554.427	38.898	0.180	-0.161
-553.412	97.156	0.096	-0.110
-552.398	-200.000	-0.018	0.090
-551.383	-151.241	-0.096	-0.007
-550.369	-67.268	-0.125	-0.049
-549.354	-157.009	-0.291	-0.018
-548.339	-200.000	0.038	-0.172
-547.325	186.852	-0.195	-0.291
-546.310	182.114	-0.153	0.226
-545.296	-200.000	0.051	0.327
-544.281	-200.000	-0.008	0.163
-543.266	-36.644	-0.163	-0.088
-542.252	-110.009	-0.184	0.039
-541.237	56.162	0.175	0.170
-540.223	-11.792	0.208	-0.137
-539.208	9.657	0.093	0.071
-538.193	687.969	-0.049	-0.127
-537.179	376.386	0.074	0.150
-536.164	800.000	0.085	-0.287
-535.150	234.680	0.176	0.291
-534.135	198.954	0.192	-0.294
-533.121	800.000	-0.060	-0.178
-532.106	2.682	0.151	-0.110
-531.091	133.342	0.012	-0.016
-530.077	159.406	-0.105	-0.146
-529.062	187.187	-0.188	-0.281
-528.048	800.000	0.104	-0.382
-527.033	-200.000	0.037	-0.171
-526.018	26.831	0.191	0.160
-525.004	36.771	-0.157	-0.139
-523.989	-101.724	0.217	0.053
-522.975	-1.894	-0.101	-0.071
-521.960	26.511	-0.111	0.093
-520.945	-24.177	-0.101	0.061
-519.931	-29.760	0.091	-0.052
-518.916	180.317	-0.076	-0.111
-517.902	-35.969	0.161	0.087
-516.887	800.000	-0.078	0.256
-515.872	-76.583	0.143	-0.050
-514.858	-23.132	-0.226	-0.136
-513.843	800.000	0.058	0.216
-512.829	3.345	-0.132	-0.096
-511.814	-200.000	-0.028	-0.246
-510.799	239.939	0.255	0.425
-509.785	-200.000	0.009	-0.085
-508.770	800.000	0.067	-0.229
-507.756	-119.518	-0.122	0.021
-506.741	88.382	-0.009	0.010
-505.726	800.000	-0.063	0.185
-504.712	48.312	0.187	0.175
-503.697	-163.532	-0.166	-0.008
-502.683	-5.601	-0.257	0.176
-501.668	-44.461	0.050	-0.025
-500.653	-4.446	0.119	-0.082
-499.639	-200.000	-0.004	-0.387
-498.624	-129.242	-0.096	0.013
-497.610	113.206	0.091	-0.110
-496.595	50.297	0.375	0.354
-495.581	-133.739	0.085	-0.011
-494.566	-75.251	-0.059	0.021
-493.551	800.000	-0.086	0.363
-492.537	-60.687	-0.154	-0.065
-491.522	246.352	0.113	-0.190
-490.508	-123.951	0.255	0.040
-489.493	-200.000	-0.060	-0.268
-488.478	-143.302	-0.234	-0.022
-487.464	-200.000	-0.049	0.219
-486.449	-69.688	-0.401	0.153
-485.435	800.000	-0.118	0.416
-484.420	-99.959	-0.188	-0.047
-483.405	-200.000	0.011	-0.243
-482.391	111.693	-0.123	-0.149
-481.376	-200.000	-0.076	0.709
-480.362	30.642	0.248	-0.212
-479.347	149.063	0.273	0.368
-478.332	745.385	0.077	0.208
-477.318	800.000	-0.036	-0.148
-476.303	-200.000	-0.111	-0.577
-475.289	126.767	-0.215	0.272
-474.274	-58.710	-0.085	-0.037
-473.259	158.597	0.070	-0.096
-472.245	-200.000	-0.022	0.107
-471.230	51.015	0.299	0.283
-470.216	381.864	-0.196	0.403
-469.201	800.000	0.066	-0.202
-468.186	-17.121	0.018	-0.011
-467.172	-116.912	-0.068	-0.012
-466.157	-200.000	-0.024	-0.249
-465.143	11.938	0.458	0.351
-464.128	-50.766	-0.222	0.104
-463.113	-89.979	0.115	0.034
-462.099	116.670	-0.136	0.166
-461.084	34.344	0.019	-0.017
-460.070	-69.334	0.070	0.027
-459.055	-44.265	0.345	-0.172
-458.040	81.024	-0.032	0.034
-457.026	800.000	-0.035	-0.113
-456.011	-122.614	-0.198	-0.032
-454.997	-200.000	0.001	-0.066
-453.982	41.139	-0.242	0.218
-452.968	800.000	-0.111	0.341
-451.953	102.722	0.350	0.408
-450.938	110.315	0.192	0.230
-449.924	-200.000	-0.031	-0.150
-448.909	-118.053	0.211	-0.038
-447.895	-71.437	-0.170	-0.063
-446.880	408.060	0.044	-0.092
-445.865	18.941	-0.103	0.082
-444.851	-117.977	0.117	-0.021
-443.836	-132.482	0.399	-0.051
-442.822	143.857	0.097	0.129
-441.807	-15.573	-0.297	-0.189
-440.792	-74.177	-0.271	-0.098
-439.778	38.448	-0.239	-0.212
-438.763	107.789	0.197	0.234
-437.749	-200.000	0.011	0.219
-436.734	-200.000	-0.000	0.171
-435.719	-49.659	-0.054	-0.026
-434.705	1.727	-0.422	-0.303
-433.690	-31.672	0.028	-0.016
-432.676	170.221	0.067	-0.096
-431.661	0.303	-0.207	0.147
-430.646	196.192	0.224	-0.340
-429.632	-61.217	-0.185	-0.078
-428.617	-131.814	-0.360	0.047
-427.603	-200.000	-0.061	0.307
-426.588	-56.275	0.249	-0.110
-425.573	295.245	-0.094	-0.171
-424.559	608.352	0.077	-0.192
-423.544	-63.280	0.381	0.156
-422.530	-67.285	0.084	-0.033
-421.515	-58.083	-0.284	0.123
-420.500	-48.187	0.233	0.112
-419.486	258.741	0.024	-0.041
-418.471	800.000	-0.128	0.426
-417.457	232.238	0.106	0.173
-416.442	-118.805	-0.316	-0.055
-415.428	-200.000	0.013	0.203
-414.413	649.500	0.047	0.121
-413.398	-59.661	0.229	-0.098
-412.384	81.552	-0.077	0.082
-411.369	20.244	-0.157	0.126
-410.355	-200.000	-0.031	-0.341
-409.340	-200.000	0.017	-0.162
-408.325	-200.000	0.004	0.028
-407.311	167.013	0.158	0.223
-406.296	-200.000	0.011	-0.095
-405.282	126.170	0.114	-0.144
-404.267	-200.000	0.012	0.056
-403.252	-69.549	0.188	-0.072
-402.238	800.000	0.129	-0.406
-401.223	495.428	-0.113	-0.259
-400.209	13.138	0.262	-0.202
-399.194	800.000	0.089	0.319
-398.179	-200.000	0.011	0.156
-397.165	-100.853	0.070	0.017
-396.150	-80.375	-0.342	-0.114
-395.136	263.107	0.031	-0.054
-394.121	-200.000	0.026	-0.147
-393.106	-128.235	0.095	0.013
-392.092	-135.976	0.270	0.032
-391.077	529.100	-0.042	-0.099
-390.063	23.529	-0.153	-0.125
-389.048	-73.811	-0.060	-0.022
-388.033	800.000	0.048	0.174
-387.019	-32.149	0.142	0.079
-386.004	-200.000	-0.039	0.224
-384.990	-200.000	0.025	-0.361
-383.975	-123.467	-0.194	-0.031
-382.960	-84.638	-0.272	0.085
-381.946	33.331	0.078	0.067
-380.931	18.266	-0.135	-0.108
-379.917	-16.067	-0.158	0.100
-378.902	117.647	-0.157	0.192
-377.888	574.184	-0.036	0.087
-376.873	495.187	-0.066	-0.152
-375.858	-97.941	-0.150	0.039
-374.844	324.392	0.081	0.153
-373.829	44.131	0.098	-0.089
-372.815	2.672	0.598	-0.431
-371.800	-200.000	-0.056	0.263
-370.785	-200.000	0.014	-0.151
-369.771	202.960	-0.198	-0.304
-368.756	404.529	-0.049	-0.104
-367.742	147.025	0.100	-0.134
-366.727	-70.613	0.055	0.021
-365.712	800.000	0.028	0.085
-364.698	0.859	0.324	0.231
-363.683	498.104	-0.091	0.209
-362.669	15.286	0.083	0.065
-361.654	331.861	0.031	0.059
-360.639	-167.127	-0.151	-0.006
-359.625	-200.000	0.040	-0.225
-358.610	-104.288	-0.130	0.030
-357.596	-108.278	-0.159	0.034
-356.581	-60.363	0.174	0.074
-355.566	784.796	-0.054	-0.148
-354.552	121.254	0.232	-0.287
-353.537	-25.404	0.059	0.035
-352.523	294.489	-0.093	0.169
-351.508	141.092	0.154	-0.202
-350.493	-46.459	0.122	-0.060
-349.479	124.808	-0.080	0.100
-348.464	-200.000	0.015	-0.324
-347.450	-28.856	0.153	0.088
-346.435	659.008	0.122	0.313
-345.420	-82.628	0.137	-0.044
-344.406	-146.040	-0.177	0.016
-343.391	175.492	0.146	0.210
-342.377	191.130	-0.104	-0.155
-341.362	-105.802	-0.529	0.119
-340.348	59.384	-0.066	0.065
-339.333	-200.000	-0.019	-0.467
-338.318	-25.575	0.141	0.082
-337.304	101.022	-0.040	-0.046
-336.289	-86.356	0.184	-0.056
-335.275	-189.022	-0.248	0.003
-334.260	-54.001	-0.069	-0.031
-333.245	-38.581	0.169	0.089
-332.231	20.905	-0.155	-0.125
-331.216	118.880	0.072	0.088
-330.202	277.604	0.166	0.293
-329.187	456.441	-0.076	0.167
-328.172	293.836	-0.165	-0.300
-327.158	-200.000	-0.032	-0.144
-326.143	723.755	0.074	-0.196
-325.129	17.143	0.106	0.083
-324.114	-200.000	0.024	-0.291
-323.099	-200.000	0.002	-0.119
-322.085	-200.000	-0.039	-0.171
-321.070	-58.150	-0.175	0.076
-320.056	-59.003	0.394	-0.169
-319.041	-200.000	-0.043	-0.212
-318.026	543.610	-0.053	-0.125
-317.012	540.539	0.021	-0.049
-315.997	-200.000	-0.001	-0.099
-314.983	-63.007	-0.101	0.041
-313.968	740.078	0.094	-0.250
-312.953	-124.432	-0.296	-0.046
-311.939	-200.000	0.021	-0.346
-310.924	-200.000	0.076	0.342
-309.910	73.740	0.136	-0.142
-308.895	85.468	0.157	0.172
-307.880	176.221	-0.103	0.149
-306.866	21.228	0.099	-0.080
-305.851	-200.000	0.002	0.180
-304.837	51.139	-0.374	0.352
-303.822	218.194	0.142	-0.224
-302.807	36.692	-0.241	-0.211
-301.793	-37.434	-0.222	0.118
-300.778	-200.000	-0.005	-0.054
-299.764	204.558	-0.235	0.361
-298.749	-99.616	-0.397	0.099
-297.735	-200.000	0.004	0.244
-296.720	800.000	-0.084	0.301
-295.705	-200.000	0.013	0.095
-294.691	-116.192	-0.089	0.016
-293.676	-86.659	0.300	0.091
-292.662	-82.017	-0.163	0.053
-291.647	-125.908	0.369	0.055
-290.632	461.786	0.108	-0.239
-289.618	-200.000	-0.028	0.460
-288.603	800.000	0.047	0.164
-287.589	645.436	-0.054	-0.136
-286.574	55.272	0.207	0.199
-285.559	-200.000	-0.053	-0.247
-284.545	52.581	0.091	-0.086
-283.530	-200.000	-0.004	-0.041
-282.516	0.771	0.141	-0.100
-281.501	558.435	-0.134	-0.320
-280.486	212.678	-0.087	-0.137
-279.472	54.928	0.226	0.216
-278.457	224.275	0.158	-0.253
-277.443	800.000	0.055	-0.200
-276.428	-21.244	0.034	-0.020
-275.413	431.124	0.104	0.223
-274.399	657.696	-0.084	0.215
-273.384	82.660	0.095	0.103
-272.370	-200.000	-0.016	0.222
-271.355	107.549	0.221	0.260
-270.340	-40.291	0.098	-0.050
-269.326	214.063	-0.069	0.108
-268.311	-200.000	0.034	0.207
-267.297	286.439	-0.111	-0.199
-266.282	-41.118	0.276	0.141
-265.267	-19.537	-0.082	0.050
-264.253	216.780	0.183	-0.288
-263.238	800.000	-0.095	0.305
-262.224	800.000	-0.159	-0.455
-261.209	54.798	-0.147	-0.140
-260.195	185.884	-0.132	0.195
-259.180	-200.000	-0.017	-0.156
-258.165	-58.900	-0.153	-0.066
-257.151	800.000	-0.025	-0.087
-256.136	800.000	0.103	0.354
-255.122	25.527	-0.262	0.216
-254.107	221.556	0.153	0.243
-253.092	5.551	-0.147	-0.107
-252.078	-200.000	-0.002	-0.265
-251.063	800.000	-0.023	0.073
-250.049	800.000	-0.041	-0.141
-249.034	23.139	0.259	0.211
-248.019	-0.112	0.139	-0.098
-247.005	-200.000	0.016	-0.118
-245.990	315.514	-0.151	0.282
-244.976	800.000	0.088	0.345
-243.961	177.765	0.168	0.242
-242.946	57.738	0.172	-0.166
-241.932	-29.450	0.266	-0.150
-240.917	-91.215	0.124	0.035
-239.903	-11.081	-0.163	0.106
-238.888	800.000	-0.053	-0.189
-237.873	800.000	0.141	-0.421
-236.859	112.498	-0.083	0.099
-235.844	180.664	0.267	0.388
-234.830	-200.000	0.005	0.165
-233.815	-27.624	0.403	0.231
-232.800	-200.000	0.033	0.322
-231.786	108.840	-0.177	0.210
-230.771	675.849	0.014	-0.036
-229.757	462.902	0.043	-0.095
-228.742	-163.599	-0.213	-0.010
-227.727	-92.826	-0.228	0.063
-226.713	107.685	0.243	-0.286
-225.698	-163.675	0.178	0.008
-224.684	433.160	-0.155	0.332
-223.669	380.221	-0.092	-0.187
-222.655	-135.187	0.017	-0.002
-221.640	-25.680	-0.046	-0.027
-220.625	-200.000	0.029	0.198
-219.611	528.660	-0.047	0.109
-218.596	296.949	0.050	0.091
-217.582	-8.142	0.123	0.082
-216.567	25.005	-0.031	-0.026
-215.552	-130.275	-0.254	-0.034
-214.538	-53.542	0.107	0.048
-213.523	-182.042	0.230	-0.004
-212.509	121.918	-0.050	0.062
-211.494	-200.000	-0.017	0.165
-210.479	58.466	0.298	0.289
-209.465	94.025	-0.186	0.209
-208.450	-1.234	0.113	0.079
-207.436	-200.000	-0.027	0.292
-206.421	92.816	-0.241	0.269
-205.406	-200.000	-0.003	-0.206
-204.392	-85.242	0.226	0.070
-203.377	-200.000	0.005	-0.413
-202.363	631.735	0.103	-0.257
-201.348	-175.867	-0.107	0.003
-200.333	-115.601	0.222	-0.041
-199.319	60.378	-0.106	-0.104
-198.304	800.000	0.097	0.266
-197.290	68.613	-0.100	-0.102
-196.275	-22.235	0.160	-0.096
-195.260	115.686	-0.105	-0.127
-194.246	336.615	0.100	0.192
-193.231	178.062	0.130	0.187
-192.217	-200.000	-0.090	0.589
-191.202	-9.064	0.426	0.282
-190.187	286.668	-0.109	0.195
-189.173	-200.000	-0.012	0.057
-188.158	786.674	0.077	0.209
-187.144	122.890	-0.181	0.224
-186.129	800.000	0.036	-0.126
-185.114	-200.000	0.013	-0.088
-184.100	394.635	0.024	0.050
-183.085	-2.444	-0.049	-0.034
-182.071	-200.000	0.053	-0.523
-181.056	644.605	0.033	-0.084
-180.042	387.801	0.008	0.017
-179.027	-81.708	0.373	0.121
-178.012	71.977	-0.245	0.252
-176.998	287.776	0.218	-0.388
-175.983	532.115	0.070	0.163
-174.969	28.306	0.019	0.016
-173.954	-200.000	0.042	-0.216
-172.939	120.354	-0.175	-0.215
-171.925	800.000	0.095	-0.355
-170.910	-90.390	0.272	0.078
-169.896	-200.000	0.003	-0.126
-168.881	-50.788	0.103	0.048
-167.866	-200.000	0.041	-0.244
-166.852	271.404	0.120	0.209
-165.837	410.204	-0.073	-0.152
-164.823	-200.000	-0.026	-0.297
-163.808	-13.395	-0.261	-0.167
-162.793	197.226	0.122	0.184
-161.779	735.810	0.062	-0.163
-160.764	-167.660	-0.261	0.010
-159.750	54.357	-0.139	-0.132
-158.735	140.895	-0.214	-0.280
-157.720	92.905	0.258	0.287
-156.706	36.411	-0.169	-0.147
-155.691	46.214	-0.252	-0.231
-154.677	800.000	-0.066	-0.191
-153.662	-13.749	0.126	0.080
-152.647	282.104	-0.062	0.110
-151.633	-38.964	0.131	0.068
-150.618	-200.000	0.034	-0.335
-149.604	-61.574	-0.137	0.057
-148.589	-26.109	0.444	0.257
-147.574	13.451	-0.384	0.293
-146.560	652.715	0.069	0.174
-145.545	285.424	0.037	-0.065
-144.531	-200.000	-0.023	-0.133
-143.516	269.331	0.101	0.175
-142.502	-59.816	0.268	0.113
-141.487	800.000	0.134	0.489
-140.472	-131.434	-0.360	-0.047
-139.458	-200.000	0.039	-0.292
-138.443	270.511	-0.225	0.390
-137.429	800.000	-0.051	-0.195
-136.414	-145.278	0.223	-0.020
-135.399	-7.636	0.110	0.073
-134.385	-111.701	0.184	-0.037
-133.370	-200.000	0.002	-0.380
-132.356	800.000	-0.126	-0.488
-131.341	-95.949	0.183	-0.048
-130.326	800.000	-0.074	0.288
-129.312	100.157	0.020	0.023
-128.297	461.266	0.064	0.140
-127.283	-200.000	0.047	0.487
-126.268	-124.936	-0.420	0.064
-125.253	-175.705	0.164	-0.004
-124.239	-200.000	0.038	0.225
-123.224	-200.000	0.001	-0.304
-122.210	-14.436	-0.058	0.036
-121.195	148.672	-0.189	0.251
