DTS Sentinel unit serial number:	SN413079Multiplexer serial number:	ORYXHardware model number:	OX4-SRSoftware version number:	ORYX F/W v4.00 Oryx Data Collector v3.7.2.0data status	okinstallation	princeton_trtdifferential loss correction	single-endedforward channel	channel 3reverse channel	N/Adate	2019/09/16time	19:40:35forward acquisition time	60.00reverse acquisition time	0.00gamma	496.2192k internal	0.2317k external	0.2317temperature offset calibration	0.9943default loss term (dB/km)	0.3790temperature slope calibration	1.0000multiplexer offset coefficient	1.0000multiplexer slope coefficient	1.0000fibre end	0.00T internal ref (°C)	34.09T ext. ref 1 (°C)	0.09T ext. ref 2 (°C)	27.02length (m)	temperature (°C)	Stokes	anti-Stokes-747.200	-27.233	0.243	-0.143
-746.185	-37.895	-0.293	0.158
-745.171	455.103	-0.083	0.186
-744.156	-200.000	0.025	0.444
-743.142	-58.803	0.367	-0.161
-742.127	-81.645	0.329	-0.109
-741.112	-146.804	0.473	0.041
-740.098	114.848	-0.211	0.260
-739.083	800.000	-0.069	0.271
-738.069	-128.810	-0.366	-0.052
-737.054	-200.000	0.026	-0.316
-736.039	145.322	-0.266	-0.360
-735.025	-74.657	0.341	0.124
-734.010	-110.479	-0.185	0.039
-732.996	-10.044	0.392	-0.264
-731.981	195.925	0.086	0.132
-730.966	175.939	-0.097	0.142
-729.952	14.693	-0.229	-0.181
-728.937	142.911	-0.188	-0.253
-727.923	131.508	-0.081	-0.105
-726.908	313.780	-0.090	0.171
-725.894	158.262	-0.049	-0.069
-724.879	279.854	-0.029	-0.053
-723.864	-200.000	0.005	0.209
-722.850	-150.258	0.289	0.023
-721.835	-50.222	0.054	-0.026
-720.821	621.356	0.024	0.062
-719.806	-116.373	0.390	-0.073
-718.791	303.449	0.206	-0.386
-717.777	-200.000	0.007	-0.156
-716.762	49.152	-0.181	-0.172
-715.748	-81.711	-0.242	0.080
-714.733	-200.000	-0.034	0.325
-713.718	-73.153	0.226	0.084
-712.704	236.095	0.087	-0.146
-711.689	355.387	-0.148	-0.298
-710.675	-150.600	-0.030	-0.002
-709.660	-200.000	0.013	-0.113
-708.645	-134.688	-0.283	-0.035
-707.631	800.000	-0.012	0.036
-706.616	447.626	0.080	-0.177
-705.602	-118.299	-0.264	-0.047
-704.587	-59.918	-0.172	-0.074
-703.572	-65.754	-0.086	0.035
-702.558	-122.176	-0.309	-0.051
-701.543	-200.000	-0.000	0.035
-700.529	-119.456	-0.040	-0.007
-699.514	-91.272	-0.269	-0.078
-698.499	800.000	0.100	-0.314
-697.485	-47.752	0.152	-0.074
-696.470	106.600	-0.212	-0.254
-695.456	-32.543	-0.071	0.040
-694.441	151.220	-0.174	-0.240
-693.426	236.755	-0.086	0.145
-692.412	587.565	0.118	-0.294
-691.397	511.371	-0.092	-0.217
-690.383	361.945	-0.032	0.066
-689.368	269.559	0.094	0.167
-688.354	-99.256	0.319	0.081
-687.339	-52.056	-0.091	0.043
-686.324	142.674	-0.117	-0.157
-685.310	800.000	-0.074	-0.236
-684.295	145.089	-0.148	-0.200
-683.281	-200.000	0.280	-0.001
-682.266	-200.000	0.012	0.115
-681.251	53.599	0.080	0.078
-680.237	-200.000	0.016	0.193
-679.222	-69.793	0.310	-0.120
-678.208	800.000	-0.039	0.142
-677.193	-200.000	0.009	-0.268
-676.178	326.107	0.125	0.241
-675.164	-200.000	0.069	-0.310
-674.149	512.764	-0.135	-0.317
-673.135	-7.778	-0.343	-0.234
-672.120	-15.005	-0.250	0.162
-671.105	-64.182	0.109	-0.045
-670.091	109.406	-0.101	0.122
-669.076	-139.181	0.133	-0.015
-668.062	185.351	0.121	-0.181
-667.047	-11.187	0.107	-0.071
-666.032	-118.734	0.083	0.015
-665.018	-200.000	-0.028	0.348
-664.003	-117.689	0.219	-0.040
-662.989	800.000	-0.131	-0.427
-661.974	183.365	0.076	-0.114
-660.959	49.831	0.049	-0.047
-659.945	-200.000	-0.043	0.197
-658.930	-200.000	-0.003	0.043
-657.916	96.853	0.050	-0.058
-656.901	800.000	0.037	-0.115
-655.886	265.411	-0.096	-0.170
-654.872	7.673	-0.077	-0.058
-653.857	-200.000	0.012	0.104
-652.843	-122.261	-0.164	0.027
-651.828	120.620	-0.030	-0.037
-650.814	-82.789	-0.139	-0.045
-649.799	-1.683	-0.183	-0.130
-648.784	289.692	-0.106	0.194
-647.770	800.000	-0.095	-0.331
-646.755	83.244	0.153	0.168
-645.741	41.527	-0.119	-0.108
-644.726	-35.150	-0.061	0.033
-643.711	-100.619	-0.311	-0.077
-642.697	-171.554	0.241	0.008
-641.682	-46.877	-0.084	-0.041
-640.668	-36.639	-0.160	-0.087
-639.653	-102.499	-0.118	-0.028
-638.638	12.860	0.271	0.211
-637.624	103.401	-0.082	-0.098
-636.609	16.578	-0.112	-0.089
-635.595	-21.734	0.213	0.131
-634.580	-74.950	0.392	0.142
-633.565	486.692	0.152	-0.349
-632.551	-102.855	0.141	-0.034
-631.536	-64.813	-0.223	-0.091
-630.522	120.385	0.074	-0.092
-629.507	-0.132	0.252	0.181
-628.492	-152.566	0.283	-0.020
-627.478	10.470	-0.232	-0.178
-626.463	-47.548	-0.514	-0.252
-625.449	-51.070	-0.122	-0.058
-624.434	-200.000	-0.005	-0.113
-623.419	-91.935	-0.354	-0.101
-622.405	118.680	0.103	0.129
-621.390	9.514	-0.092	0.070
-620.376	-72.658	-0.090	0.033
-619.361	183.829	0.222	-0.331
-618.346	7.662	0.133	-0.100
-617.332	63.680	-0.096	0.097
-616.317	-58.551	-0.184	-0.081
-615.303	-56.815	-0.178	-0.079
-614.288	95.503	-0.262	0.301
-613.273	231.265	0.150	-0.248
-612.259	-167.793	0.109	0.004
-611.244	658.504	-0.041	-0.105
-610.230	-119.267	-0.138	0.024
-609.215	-140.867	-0.167	-0.017
-608.201	15.810	-0.160	-0.127
-607.186	177.807	-0.055	0.081
-606.171	66.740	-0.062	-0.064
-605.157	-136.134	0.154	-0.018
-604.142	-149.929	-0.540	0.042
-603.128	705.590	-0.049	-0.131
-602.113	266.016	-0.163	0.286
-601.098	451.954	-0.092	-0.205
-600.084	-179.175	0.101	0.002
-599.069	-200.000	-0.013	0.262
-598.055	57.377	-0.066	-0.065
-597.040	-200.000	-0.046	0.276
-596.025	-94.792	0.278	0.076
-595.011	-64.957	-0.358	0.146
-593.996	800.000	-0.165	-0.476
-592.982	-117.195	0.233	-0.043
-591.967	-200.000	-0.004	0.031
-590.952	-200.000	0.005	0.211
-589.938	-46.778	-0.066	0.033
-588.923	-145.013	-0.205	-0.019
-587.909	39.971	-0.052	-0.047
-586.894	800.000	-0.075	-0.247
-585.879	282.282	0.106	0.191
-584.865	351.041	-0.122	-0.243
-583.850	464.194	-0.113	-0.253
-582.836	-200.000	-0.011	0.166
-581.821	110.693	-0.210	-0.254
-580.806	-200.000	-0.049	-0.329
-579.792	-27.369	0.288	-0.169
-578.777	-1.500	0.150	-0.107
-577.763	32.733	-0.229	-0.199
-576.748	407.940	0.205	0.436
-575.733	63.912	0.111	0.112
-574.719	-53.657	-0.156	-0.072
-573.704	-200.000	-0.056	0.520
-572.690	-102.614	0.095	-0.023
-571.675	-200.000	0.007	0.068
-570.661	207.673	0.140	-0.220
-569.646	99.590	0.249	0.290
-568.631	-200.000	-0.039	0.305
-567.617	245.395	0.073	0.123
-566.602	114.635	0.098	-0.120
-565.588	-200.000	0.015	-0.352
-564.573	-26.186	-0.184	0.109
-563.558	-200.000	-0.028	-0.261
-562.544	30.326	-0.199	-0.171
-561.529	-12.037	0.352	0.232
-560.515	402.258	0.079	-0.167
-559.500	40.525	0.095	-0.086
-558.485	800.000	-0.103	0.433
-557.471	292.764	0.176	0.323
-556.456	-78.053	-0.418	-0.145
-555.442	-73.314	-0.107	0.040
-554.427	-9.403	-0.176	0.118
-553.412	-200.000	-0.003	-0.074
-552.398	95.615	-0.181	0.207
-551.383	-119.624	-0.287	-0.050
-550.369	-200.000	0.005	-0.389
-549.354	-200.000	0.007	-0.045
-548.339	-36.955	0.227	0.123
-547.325	-200.000	-0.021	-0.171
-546.310	-23.722	0.131	0.079
-545.296	-200.000	0.019	-0.119
-544.281	-163.370	-0.209	0.010
-543.266	-200.000	-0.038	-0.496
-542.252	-131.454	-0.547	0.073
-541.237	-9.979	0.274	-0.183
-540.223	800.000	-0.034	0.124
-539.208	152.016	0.044	0.060
-538.193	-200.000	0.002	0.264
-537.179	54.272	0.257	-0.248
-536.164	-123.763	0.381	0.060
-535.150	22.124	-0.242	0.199
-534.135	800.000	-0.015	-0.060
-533.121	-200.000	-0.243	0.000
-532.106	-118.329	0.318	0.057
-531.091	-91.162	-0.327	-0.094
-530.077	287.754	0.149	0.271
-529.062	184.314	0.145	-0.216
-528.048	-110.731	-0.332	0.069
-527.033	800.000	0.067	-0.235
-526.018	-29.338	0.281	0.161
-525.004	-160.801	0.527	-0.028
-523.989	800.000	0.093	-0.314
-522.975	-200.000	0.024	-0.213
-521.960	12.496	0.112	-0.087
-520.945	32.241	-0.304	-0.263
-519.931	800.000	0.100	-0.294
-518.916	-137.153	-0.303	0.035
-517.902	3.069	-0.322	-0.235
-516.887	-31.987	0.205	0.115
-515.872	92.359	0.141	-0.160
-514.858	220.235	0.066	-0.107
-513.843	15.990	-0.179	0.142
-512.829	37.183	-0.195	-0.174
-511.814	-200.000	-0.038	0.190
-510.799	-200.000	-0.007	-0.219
-509.785	-200.000	-0.040	0.210
-508.770	-183.445	0.233	0.004
-507.756	28.361	0.321	-0.272
-506.741	9.295	-0.058	0.044
-505.726	30.109	0.050	0.043
-504.712	235.491	0.031	-0.051
-503.697	-200.000	-0.046	0.302
-502.683	235.806	0.075	0.125
-501.668	-34.515	-0.433	-0.238
-500.653	-57.706	-0.315	-0.138
-499.639	-126.878	0.045	-0.007
-498.624	25.510	-0.088	0.073
-497.610	-119.436	-0.212	0.037
-496.595	-69.986	-0.306	-0.117
-495.581	800.000	-0.031	0.123
-494.566	800.000	-0.141	-0.460
-493.551	526.758	0.090	-0.214
-492.537	-200.000	0.053	-0.310
-491.522	19.711	0.164	-0.133
-490.508	-2.632	0.165	0.116
-489.493	581.785	0.054	-0.133
-488.478	-146.859	-0.397	-0.034
-487.464	519.842	-0.140	0.328
-486.449	114.774	-0.128	-0.156
-485.435	800.000	-0.053	0.152
-484.420	-123.709	-0.113	0.018
-483.405	24.938	0.168	0.139
-482.391	171.274	0.112	0.162
-481.376	403.542	-0.038	0.080
-480.362	-200.000	0.013	-0.082
-479.347	238.450	0.097	-0.161
-478.332	-144.680	-0.206	0.019
-477.318	-123.565	-0.191	-0.030
-476.303	14.958	0.227	-0.178
-475.289	-44.126	0.069	-0.035
-474.274	314.973	0.039	0.074
-473.259	800.000	-0.012	-0.044
-472.245	136.096	-0.198	-0.258
-471.230	157.445	-0.097	0.134
-470.216	201.918	0.066	-0.103
-469.201	-115.791	0.272	0.051
-468.186	-35.274	-0.187	0.102
-467.172	13.636	0.274	-0.213
-466.157	-88.405	-0.114	-0.034
-465.143	-200.000	-0.015	0.140
-464.128	640.576	0.035	-0.089
-463.113	-48.443	-0.317	-0.153
-462.099	376.411	-0.100	0.205
-461.084	326.146	-0.079	0.152
-460.070	800.000	0.048	0.147
-459.055	-200.000	0.001	0.038
-458.040	0.978	-0.161	-0.115
-457.026	-84.336	0.185	-0.059
-456.011	-5.559	0.153	-0.105
-454.997	199.341	0.048	-0.073
-453.982	-86.192	-0.175	0.054
-452.968	-29.048	-0.063	0.036
-451.953	-106.164	0.145	-0.033
-450.938	-102.927	-0.242	0.058
-449.924	-200.000	-0.018	-0.129
-448.909	-122.288	0.168	0.028
-447.895	-200.000	0.062	0.418
-446.880	19.921	0.329	0.265
-445.865	-1.016	0.184	-0.130
-444.851	3.372	0.130	-0.094
-443.836	-200.000	0.027	0.165
-442.822	136.375	0.212	0.277
-441.807	183.712	0.134	-0.198
-440.792	-6.365	-0.251	0.171
-439.778	59.709	-0.301	-0.297
-438.763	64.359	-0.051	-0.052
-437.749	75.104	0.088	0.093
-436.734	564.218	0.153	-0.372
-435.719	-35.241	-0.136	0.074
-434.705	-85.011	-0.272	0.085
-433.690	-200.000	0.006	0.093
-432.676	118.663	0.117	-0.144
-431.661	-200.000	0.028	0.165
-430.646	-200.000	0.008	-0.140
-429.632	-32.210	0.041	-0.023
-428.617	-25.809	0.204	0.120
-427.603	-139.894	0.259	0.027
-426.588	243.482	0.115	-0.193
-425.573	154.035	0.077	-0.106
-424.559	-139.419	0.074	-0.008
-423.544	512.950	0.113	-0.263
-422.530	-122.950	0.277	0.045
-421.515	45.578	-0.081	-0.074
-420.500	392.114	0.171	0.355
-419.486	550.292	-0.115	0.275
-418.471	-92.850	-0.082	0.023
-417.457	74.105	0.169	0.178
-416.442	160.177	0.116	-0.161
-415.428	-116.121	-0.150	0.028
-414.413	-110.119	-0.152	-0.032
-413.398	-58.806	-0.313	0.136
-412.384	-74.311	-0.277	-0.100
-411.369	-136.036	-0.400	-0.047
-410.355	526.514	0.134	-0.315
-409.340	299.442	-0.249	0.459
-408.325	75.663	0.073	-0.077
-407.311	-138.957	0.060	-0.006
-406.296	-200.000	0.040	0.186
-405.282	-200.000	-0.023	0.227
-404.267	-200.000	0.081	0.415
-403.252	800.000	-0.106	0.431
-402.238	-20.652	-0.279	0.171
-401.223	560.442	0.157	0.379
-400.209	8.710	0.122	0.092
-399.194	41.797	-0.091	0.083
-398.179	-39.000	-0.070	-0.037
-397.165	255.072	-0.092	-0.157
-396.150	800.000	0.034	0.135
-395.136	-30.482	-0.028	0.016
-394.121	-200.000	-0.024	-0.394
-393.106	-145.678	-0.019	-0.002
-392.092	-21.695	0.251	-0.153
-391.077	-5.580	-0.222	0.152
-390.063	16.830	-0.184	0.146
-389.048	-126.716	0.215	0.032
-388.033	-129.227	0.219	-0.031
-387.019	57.177	-0.097	0.095
-386.004	106.626	0.104	0.123
-384.990	-200.000	-0.013	0.234
-383.975	1.540	0.217	-0.156
-382.960	-17.806	-0.042	-0.027
-381.946	4.278	0.207	0.151
-380.931	-118.429	0.115	-0.020
-379.917	-118.252	0.219	0.039
-378.902	-135.133	0.213	0.026
-377.888	87.964	-0.143	-0.158
-376.873	-88.488	-0.103	0.031
-375.858	-34.902	0.243	0.132
-374.844	-77.301	0.180	0.062
-373.829	-16.537	0.319	-0.202
-372.815	30.717	-0.164	-0.141
-371.800	-14.564	-0.306	-0.197
-370.785	221.636	-0.182	-0.293
-369.771	39.149	0.260	0.232
-368.756	-116.074	-0.236	-0.044
-367.742	-149.622	-0.139	-0.011
-366.727	369.203	0.054	-0.110
-365.712	-11.790	0.276	-0.180
-364.698	-188.405	0.051	0.001
-363.683	120.197	-0.244	-0.302
-362.669	58.115	0.145	-0.142
-361.654	696.882	-0.043	-0.113
-360.639	25.840	0.075	-0.062
-359.625	-15.600	-0.128	0.082
-358.610	348.561	-0.031	-0.060
-357.596	-21.902	0.096	-0.058
-356.581	-144.325	-0.271	-0.025
-355.566	-22.941	-0.122	0.074
-354.552	-20.684	-0.121	0.074
-353.537	-49.052	-0.193	0.092
-352.523	-26.617	0.293	-0.171
-351.508	90.425	0.027	0.030
-350.493	-200.000	0.020	0.131
-349.479	-67.828	-0.128	-0.050
-348.464	-128.854	0.259	-0.036
-347.450	-110.508	-0.181	-0.037
-346.435	-140.062	-0.080	-0.008
-345.420	800.000	-0.110	-0.337
-344.406	800.000	0.035	0.114
-343.391	707.735	0.065	0.172
-342.377	-27.712	-0.146	-0.084
-341.362	145.311	-0.156	0.208
-340.348	-50.568	-0.172	0.081
-339.333	-81.724	-0.241	-0.079
-338.318	-170.893	-0.155	-0.005
-337.304	-89.992	0.071	0.021
-336.289	-59.212	0.298	0.128
-335.275	-63.639	-0.376	-0.154
-334.260	59.519	0.021	0.021
-333.245	-111.283	0.210	-0.043
-332.231	-108.307	-0.222	0.048
-331.216	747.468	0.086	-0.230
-330.202	462.452	0.141	0.314
-329.187	225.522	0.135	0.218
-328.172	251.459	-0.122	0.207
-327.158	800.000	0.094	-0.322
-326.143	23.829	0.221	-0.181
-325.129	-200.000	0.034	0.301
-324.114	-17.675	-0.288	0.180
-323.099	-139.672	-0.180	0.019
-322.085	-200.000	-0.042	0.225
-321.070	-178.819	0.082	-0.002
-320.056	44.812	0.445	0.408
-319.041	392.068	-0.106	0.220
-318.026	-200.000	0.008	-0.122
-317.012	-167.589	-0.399	-0.016
-315.997	173.360	0.143	0.205
-314.983	506.438	0.095	-0.219
-313.968	-5.296	0.281	0.193
-312.953	205.282	-0.068	-0.105
-311.939	-86.973	-0.156	-0.047
-310.924	-122.755	-0.344	0.055
-309.910	463.794	0.096	0.214
-308.895	313.230	0.135	-0.253
-307.880	269.369	0.236	0.413
-306.866	-200.000	-0.006	0.176
-305.851	38.976	-0.277	0.246
-304.837	126.700	0.092	-0.116
-303.822	257.062	0.105	0.180
-302.807	-200.000	0.028	-0.132
-301.793	-32.346	0.124	-0.069
-300.778	283.596	0.063	-0.113
-299.764	588.302	-0.080	0.196
-298.749	-102.881	0.116	0.028
-297.735	-200.000	0.000	-0.511
-296.720	-52.750	-0.169	-0.078
-295.705	-25.622	0.199	-0.117
-294.691	-200.000	0.003	-0.115
-293.676	49.081	0.198	-0.185
-292.662	-200.000	0.052	0.253
-291.647	-200.000	0.027	0.146
-290.632	49.725	0.109	0.102
-289.618	-22.657	0.050	-0.030
-288.603	121.113	0.044	-0.054
-287.589	-117.422	-0.150	0.027
-286.574	-14.702	0.097	0.062
-285.559	32.542	-0.222	-0.191
-284.545	800.000	-0.026	-0.080
-283.530	-143.773	0.226	0.021
-282.516	-200.000	-0.015	0.083
-281.501	11.841	-0.301	-0.230
-280.486	46.394	0.192	-0.177
-279.472	-143.720	0.319	0.030
-278.457	143.831	0.274	-0.363
-277.443	770.173	0.074	-0.200
-276.428	-8.258	0.059	-0.040
-275.413	99.068	0.212	-0.243
-274.399	57.429	-0.211	-0.205
-273.384	-93.270	0.195	0.054
-272.370	-33.553	0.372	-0.204
-271.355	248.796	-0.018	-0.031
-270.340	-31.940	0.346	0.193
-269.326	154.373	0.106	-0.145
-268.311	33.513	-0.111	0.096
-267.297	132.392	-0.187	-0.239
-266.282	556.516	0.044	-0.106
-265.267	8.559	-0.148	0.111
-264.253	-161.746	-0.342	-0.017
-263.238	241.495	0.156	-0.259
-262.224	800.000	-0.071	0.199
-261.209	-10.555	0.193	0.127
-260.195	-116.577	0.346	0.063
-259.180	-60.874	-0.562	0.236
-258.165	-187.285	0.337	-0.005
-257.151	-109.820	0.404	0.084
-256.136	249.267	-0.079	-0.134
-255.122	610.654	-0.063	0.156
-254.107	-106.555	0.246	0.054
-253.092	-11.826	0.305	0.199
-252.078	-96.967	0.243	-0.063
-251.063	800.000	-0.083	0.232
-250.049	71.110	0.326	0.336
-249.034	-36.081	-0.208	0.111
-248.019	-72.051	0.126	0.047
-247.005	-120.949	-0.257	0.043
-245.990	-144.997	-0.142	0.013
-244.976	-200.000	0.011	-0.359
-243.961	563.199	0.088	-0.212
-242.946	800.000	0.084	0.355
-241.932	-83.580	-0.223	0.071
-240.917	-200.000	0.048	-0.229
-239.903	40.304	0.188	-0.168
-238.888	-200.000	-0.044	-0.233
-237.873	205.793	-0.258	0.398
-236.859	140.055	0.243	-0.317
-235.844	0.272	-0.117	-0.083
-234.830	-34.025	0.299	0.163
-233.815	-30.559	0.048	0.027
-232.800	-84.565	0.082	-0.026
-231.786	574.726	0.151	0.366
-230.771	-21.854	-0.208	0.125
-229.757	180.866	-0.089	0.129
-228.742	51.405	-0.246	0.232
-227.727	800.000	0.033	0.123
-226.713	-60.335	-0.251	0.106
-225.698	-26.517	-0.170	0.099
-224.684	15.301	0.164	-0.128
-223.669	-10.859	-0.269	0.176
-222.655	-200.000	0.013	0.350
-221.640	-131.617	0.246	-0.032
-220.625	800.000	-0.104	-0.317
-219.611	-6.661	-0.496	0.335
-218.596	-37.276	0.180	-0.096
-217.582	132.945	0.079	-0.102
-216.567	-69.090	0.178	-0.068
-215.552	-109.929	-0.383	0.080
-214.538	40.312	-0.158	-0.141
-213.523	248.156	-0.155	0.260
-212.509	-200.000	-0.012	-0.212
-211.494	-13.608	-0.329	0.211
-210.479	4.714	-0.330	0.240
-209.465	76.309	0.236	0.248
-208.450	9.714	0.253	0.190
-207.436	800.000	0.053	-0.153
-206.421	223.050	0.034	-0.054
-205.406	-25.382	0.194	-0.114
-204.392	33.827	0.247	-0.213
-203.377	145.622	-0.276	0.366
-202.363	-152.472	-0.196	-0.014
-201.348	-60.617	0.414	-0.174
-200.333	-10.965	-0.079	0.052
-199.319	800.000	-0.112	0.321
-198.304	70.816	-0.239	-0.245
-197.290	-144.039	0.420	-0.039
-196.275	-200.000	-0.041	0.245
-195.260	15.925	0.200	-0.156
-194.246	-38.756	0.087	-0.045
-193.231	23.457	0.122	-0.099
-192.217	-200.000	0.013	0.097
-191.202	175.799	-0.126	-0.181
-190.187	17.146	-0.154	0.121
-189.173	-65.855	-0.154	-0.061
-188.158	800.000	0.087	0.294
-187.144	336.595	0.059	0.113
-186.129	-192.309	0.290	0.003
-185.114	800.000	-0.035	-0.110
-184.100	430.800	0.164	0.352
-183.085	-89.287	0.187	0.055
-182.071	800.000	0.033	-0.096
-181.056	-200.000	0.004	0.123
-180.042	179.282	0.020	0.029
-179.027	-165.638	-0.330	0.014
-178.012	-142.816	0.201	0.019
-176.998	458.883	-0.114	-0.251
-175.983	-200.000	0.001	-0.195
-174.969	-21.435	0.175	0.106
-173.954	-200.000	-0.046	-0.229
-172.939	30.505	0.329	-0.278
-171.925	-200.000	-0.019	0.173
-170.910	-110.872	-0.190	-0.039
-169.896	69.149	0.119	0.121
-168.881	31.693	0.076	-0.065
-167.866	800.000	-0.135	-0.429
-166.852	136.625	0.068	0.088
-165.837	119.086	0.054	-0.066
-164.823	-109.154	0.270	-0.057
-163.808	-32.481	0.117	0.065
-162.793	-200.000	0.046	-0.199
-161.779	-123.373	0.052	-0.008
-160.764	800.000	0.038	0.144
-159.750	800.000	0.118	-0.404
-158.735	108.277	-0.078	0.092
-157.720	-15.526	-0.106	0.067
-156.706	800.000	-0.128	0.381
-155.691	-135.185	0.365	0.043
-154.677	203.976	-0.145	0.222
-153.662	-59.338	-0.005	-0.002
-152.647	231.220	0.139	0.226
-151.633	-200.000	0.043	0.360
-150.618	-200.000	-0.050	0.225
-149.604	-108.931	0.209	-0.044
-148.589	104.482	0.197	-0.230
-147.574	786.127	0.007	0.018
-146.560	136.097	0.324	-0.418
-145.545	800.000	-0.032	-0.127
-144.531	-200.000	-0.047	0.276
-143.516	-112.222	0.086	0.017
-142.502	479.376	0.138	0.309
-141.487	-98.281	0.091	0.023
-140.472	-200.000	-0.017	0.286
-139.458	14.422	0.112	-0.086
-138.443	-138.142	-0.206	0.023
-137.429	111.077	0.034	-0.041
-136.414	800.000	-0.016	-0.061
-135.399	-138.746	0.097	-0.010
-134.385	489.106	0.016	-0.036
-133.370	-200.000	-0.005	0.578
-132.356	187.270	0.337	0.497
-131.341	193.584	-0.192	0.288
-130.326	17.171	0.291	0.228
-129.312	75.880	-0.220	0.230
-128.297	197.531	0.050	0.076
-127.283	-96.800	-0.082	-0.021
-126.268	-114.529	0.105	-0.020
-125.253	-200.000	-0.033	0.165
-124.239	-102.916	-0.460	-0.108
-123.224	-139.120	-0.130	-0.014
-122.210	-79.595	0.302	0.101
-121.195	800.000	-0.090	-0.270
