DTS Sentinel unit serial number:	SN413079Multiplexer serial number:	ORYXHardware model number:	OX4-SRSoftware version number:	ORYX F/W v4.00 Oryx Data Collector v3.7.2.0data status	okinstallation	princeton_trtdifferential loss correction	single-endedforward channel	channel 3reverse channel	N/Adate	2019/09/12time	18:26:04forward acquisition time	15.00reverse acquisition time	0.00gamma	496.2192k internal	0.2318k external	0.2318temperature offset calibration	1.0086default loss term (dB/km)	0.3790temperature slope calibration	1.0000multiplexer offset coefficient	1.0000multiplexer slope coefficient	1.0000fibre end	0.00T internal ref (°C)	33.31T ext. ref 1 (°C)	2.95T ext. ref 2 (°C)	27.96length (m)	temperature (°C)	Stokes	anti-Stokes-747.200	201.540	0.074	0.116
-746.185	15.101	0.533	0.423
-745.171	32.336	-0.205	-0.179
-744.156	5.396	0.098	0.073
-743.142	52.234	0.334	0.322
-742.127	32.711	0.600	-0.525
-741.112	-200.000	-0.247	0.000
-740.098	265.113	-0.154	-0.272
-739.083	123.306	-0.511	-0.648
-738.069	-44.908	-0.319	0.161
-737.054	121.119	0.399	0.502
-736.039	-4.281	-0.327	0.229
-735.025	35.138	0.194	-0.172
-734.010	-76.384	-0.239	-0.085
-732.996	2.057	0.634	-0.464
-731.981	-136.708	-1.073	-0.125
-730.966	-121.525	-0.548	-0.092
-729.952	-41.333	0.418	0.218
-728.937	-156.761	0.080	-0.005
-727.923	-103.590	-0.465	-0.110
-726.908	-93.522	-0.207	0.058
-725.894	-200.000	-0.065	0.705
-724.879	192.127	-0.320	0.488
-723.864	-200.000	-0.105	-0.488
-722.850	-111.817	0.516	-0.106
-721.835	-90.373	0.450	-0.132
-720.821	39.287	-0.745	-0.675
-719.806	27.796	-0.422	-0.360
-718.791	-22.304	-0.469	-0.288
-717.777	67.054	-0.664	-0.684
-716.762	800.000	-0.165	0.676
-715.748	-43.392	-0.610	0.312
-714.733	510.589	-0.122	-0.288
-713.718	167.988	-0.251	0.362
-712.704	-200.000	0.004	-0.871
-711.689	246.250	0.224	0.382
-710.675	161.414	0.165	0.233
-709.660	79.855	-0.320	-0.348
-708.645	-43.368	0.451	-0.230
-707.631	137.171	0.350	-0.462
-706.616	160.390	-0.171	0.241
-705.602	-145.932	0.191	0.017
-704.587	412.255	0.024	-0.052
-703.572	-2.783	-0.452	0.320
-702.558	-200.000	-0.073	0.352
-701.543	800.000	-0.147	0.526
-700.529	723.244	0.097	-0.261
-699.514	800.000	-0.259	0.902
-698.499	128.661	0.358	0.461
-697.485	-56.361	-0.764	0.343
-696.470	-200.000	-0.010	0.203
-695.456	-82.623	0.603	0.197
-694.441	-51.853	-0.286	0.134
-693.426	311.106	0.204	-0.386
-692.412	-200.000	-0.010	0.134
-691.397	-162.360	0.476	0.024
-690.383	-200.000	-0.117	0.591
-689.368	-200.000	-0.008	-0.097
-688.354	800.000	0.184	-0.550
-687.339	-187.749	-0.454	-0.006
-686.324	722.413	-0.131	-0.353
-685.310	-11.186	0.254	0.169
-684.295	43.091	0.011	0.010
-683.281	-28.436	0.333	-0.194
-682.266	29.977	0.270	0.232
-681.251	467.720	-0.192	-0.434
-680.237	537.122	0.199	-0.477
-679.222	-156.614	-0.582	-0.036
-678.208	268.160	0.410	0.726
-677.193	170.013	0.434	-0.627
-676.178	-200.000	-0.052	-0.771
-675.164	-120.351	-0.960	-0.165
-674.149	-52.946	0.894	0.415
-673.135	-46.227	0.534	0.265
-672.120	-200.000	-0.017	-0.503
-671.105	-200.000	0.001	-0.337
-670.091	-27.508	-0.135	0.079
-669.076	-71.898	0.582	-0.219
-668.062	800.000	-0.166	-0.615
-667.047	705.028	0.127	-0.339
-666.032	39.383	-1.032	-0.933
-665.018	-200.000	0.023	0.296
-664.003	-196.755	-0.334	0.002
-662.989	-200.000	0.043	0.377
-661.974	-41.983	0.267	-0.138
-660.959	-97.604	0.689	-0.180
-659.945	4.308	0.604	-0.446
-658.930	-200.000	0.075	-0.469
-657.916	415.582	0.236	-0.507
-656.901	-200.000	-0.032	0.359
-655.886	170.138	-0.174	0.251
-654.872	-200.000	0.070	0.879
-653.857	-200.000	0.168	1.071
-652.843	-91.091	-0.710	0.206
-651.828	-82.622	-0.745	-0.243
-650.814	254.970	-0.314	-0.543
-649.799	-200.000	-0.220	-1.451
-648.784	-200.000	0.037	0.488
-647.770	-200.000	-0.091	0.430
-646.755	-21.320	-0.352	-0.217
-645.741	361.769	0.140	0.283
-644.726	346.897	0.185	0.367
-643.711	13.276	-0.307	-0.240
-642.697	233.655	-0.024	0.040
-641.682	800.000	-0.238	-0.702
-640.668	-159.709	-0.356	0.020
-639.653	157.483	-0.237	0.331
-638.638	64.516	0.532	0.541
-637.624	65.327	-0.390	-0.397
-636.609	-50.981	-0.498	-0.236
-635.595	336.690	-0.335	0.655
-634.580	-188.225	-0.592	-0.008
-633.565	800.000	-0.082	0.248
-632.551	-200.000	0.030	0.381
-631.536	-53.127	-0.210	-0.097
-630.522	800.000	0.145	-0.457
-629.507	-25.697	-0.521	0.310
-628.492	162.531	-0.288	-0.407
-627.478	-200.000	-0.063	-0.481
-626.463	50.136	0.236	0.225
-625.449	-25.103	-0.460	-0.275
-624.434	-63.919	-0.966	-0.398
-623.419	204.313	-0.363	-0.567
-622.405	-23.357	-0.229	0.139
-621.390	-137.800	-0.651	-0.073
-620.376	-200.000	0.079	0.549
-619.361	154.145	-0.204	-0.281
-618.346	47.333	0.085	0.080
-617.332	-92.970	0.745	0.209
-616.317	-200.000	-0.055	0.459
-615.303	-42.798	0.161	-0.082
-614.288	81.501	0.353	0.385
-613.273	-51.745	-0.844	-0.396
-612.259	707.166	0.249	-0.661
-611.244	800.000	-0.174	-0.551
-610.230	800.000	-0.080	-0.266
-609.215	-39.913	-0.149	-0.078
-608.201	-71.786	0.814	0.305
-607.186	102.702	0.445	0.524
-606.171	318.487	-0.189	0.361
-605.157	-53.279	0.397	-0.183
-604.142	-93.295	-0.317	0.089
-603.128	800.000	0.179	0.653
-602.113	781.247	0.121	0.333
-601.098	-200.000	0.024	0.320
-600.084	800.000	0.238	0.875
-599.069	-176.551	-0.679	-0.018
-598.055	-105.831	-1.143	0.260
-597.040	800.000	-0.162	-0.533
-596.025	290.829	-0.263	0.481
-595.011	-200.000	0.010	0.053
-593.996	-200.000	-0.023	-0.347
-592.982	96.747	0.628	-0.724
-591.967	122.706	0.094	0.118
-590.952	43.860	-0.188	-0.173
-589.938	-200.000	0.091	-0.475
-588.923	64.116	-0.576	0.583
-587.909	-26.332	-0.238	-0.140
-586.894	-70.453	-0.344	0.131
-585.879	-51.989	0.734	-0.343
-584.865	-50.571	-0.074	0.035
-583.850	-33.904	0.819	-0.454
-582.836	-153.972	-0.682	-0.047
-581.821	-61.095	-0.947	-0.402
-580.806	56.150	0.730	0.713
-579.792	-200.000	0.040	0.361
-578.777	-200.000	-0.008	0.346
-577.763	-3.450	0.171	0.120
-576.748	-40.982	-0.161	-0.084
-575.733	-200.000	0.165	0.736
-574.719	162.871	-0.567	-0.801
-573.704	800.000	0.052	0.184
-572.690	663.057	0.196	0.509
-571.675	-80.162	0.592	0.199
-570.661	30.357	0.439	-0.377
-569.646	387.927	-0.288	0.598
-568.631	-31.026	-0.558	-0.317
-567.617	86.185	0.220	-0.244
-566.602	800.000	0.330	1.006
-565.588	800.000	-0.078	-0.274
-564.573	558.159	-0.146	-0.353
-563.558	181.666	0.197	-0.292
-562.544	5.824	0.585	0.435
-561.529	100.993	0.113	-0.132
-560.515	-32.816	0.586	-0.328
-559.500	26.120	-0.232	-0.194
-558.485	-200.000	0.011	-0.325
-557.471	-200.000	-0.010	-0.186
-556.456	667.888	-0.309	-0.803
-555.442	-104.541	-0.356	0.083
-554.427	-51.129	-0.746	0.351
-553.412	-76.540	0.300	-0.106
-552.398	278.187	0.397	-0.710
-551.383	-113.236	-0.533	0.105
-550.369	-4.276	0.438	-0.304
-549.354	60.242	-0.654	-0.650
-548.339	135.227	0.550	0.718
-547.325	-131.483	-0.241	-0.032
-546.310	-70.872	0.247	0.094
-545.296	544.504	-0.243	-0.582
-544.281	9.027	-0.205	-0.155
-543.266	-200.000	0.042	0.754
-542.252	254.657	0.199	0.343
-541.237	-200.000	0.081	0.389
-540.223	71.540	-0.513	0.535
-539.208	98.516	-0.244	-0.282
-538.193	549.836	0.212	-0.510
-537.179	-47.623	0.881	-0.429
-536.164	129.689	-0.447	-0.573
-535.150	-86.692	-1.186	-0.364
-534.135	-129.620	-0.124	-0.017
-533.121	-167.228	0.515	-0.021
-532.106	219.984	0.268	-0.432
-531.091	-200.000	-0.106	-0.790
-530.077	-56.165	-0.353	-0.158
-529.062	-69.842	0.403	0.155
-528.048	53.232	0.491	-0.472
-527.033	-179.794	-0.618	0.013
-526.018	-129.585	0.730	0.101
-525.004	-87.085	-0.707	0.216
-523.989	-75.410	-0.654	0.234
-522.975	656.932	0.070	0.181
-521.960	20.012	0.465	-0.376
-520.945	-129.081	0.767	-0.108
-519.931	-101.872	-0.971	0.236
-518.916	800.000	-0.209	0.606
-517.902	171.502	0.159	0.229
-516.887	33.694	0.273	0.238
-515.872	-200.000	-0.156	-0.714
-514.858	357.322	-0.483	0.965
-513.843	-200.000	-0.159	0.701
-512.829	4.434	-0.347	-0.255
-511.814	-200.000	0.037	0.518
-510.799	-200.000	-0.025	0.644
-509.785	142.593	0.344	-0.458
-508.770	-43.163	0.711	0.361
-507.756	219.560	-0.410	0.658
-506.741	73.097	-0.351	0.368
-505.726	11.320	0.347	-0.266
-504.712	-80.178	-0.303	0.102
-503.697	20.627	0.500	-0.406
-502.683	448.836	-0.182	0.402
-501.668	-200.000	0.012	-0.346
-500.653	653.662	0.402	1.034
-499.639	-20.830	0.326	0.201
-498.624	-200.000	-0.132	0.615
-497.610	281.890	-0.110	0.198
-496.595	91.453	-0.418	0.471
-495.581	-69.762	-0.414	0.159
-494.566	-33.947	-0.508	-0.280
-493.551	-51.914	0.437	0.204
-492.537	-22.733	-0.834	-0.505
-491.522	651.429	-0.094	-0.242
-490.508	-112.233	-0.608	-0.122
-489.493	-63.441	0.845	-0.348
-488.478	83.439	-0.429	-0.468
-487.464	800.000	-0.150	-0.512
-486.449	77.956	-0.207	-0.221
-485.435	678.021	0.252	-0.656
-484.420	50.009	0.368	0.348
-483.405	-28.148	0.608	0.352
-482.391	-200.000	-0.121	-0.612
-481.376	45.753	-0.596	-0.552
-480.362	-16.991	-0.766	0.484
-479.347	-134.982	0.419	0.051
-478.332	46.466	-0.225	-0.209
-477.318	553.203	0.237	0.571
-476.303	-11.462	0.498	0.328
-475.289	-10.866	0.705	-0.467
-474.274	-190.682	-0.562	0.006
-473.259	9.056	-0.591	0.447
-472.245	-7.620	-0.440	0.298
-471.230	205.648	-0.223	0.347
-470.216	-121.709	0.517	-0.086
-469.201	353.848	-0.193	0.383
-468.186	-107.389	-0.825	-0.181
-467.172	-5.976	-0.373	-0.256
-466.157	724.964	-0.183	-0.488
-465.143	83.686	-0.135	0.147
-464.128	-200.000	-0.022	0.235
-463.113	85.905	0.331	-0.364
-462.099	800.000	0.202	-0.660
-461.084	41.359	-0.096	-0.087
-460.070	-48.353	-0.459	0.221
-459.055	37.183	-0.301	0.267
-458.040	-135.390	0.506	-0.061
-457.026	44.715	0.451	-0.415
-456.011	-71.735	1.286	-0.480
-454.997	74.154	-0.344	0.361
-453.982	-200.000	-0.044	0.620
-452.968	-200.000	-0.133	-0.801
-451.953	-200.000	-0.043	0.448
-450.938	-8.662	0.342	-0.229
-449.924	-16.757	0.701	-0.444
-448.909	-134.395	1.054	-0.129
-447.895	-110.225	0.650	-0.136
-446.880	59.988	0.190	-0.187
-445.865	-200.000	0.026	0.242
-444.851	-129.400	0.285	0.040
-443.836	-200.000	-0.030	-0.264
-442.822	97.922	0.182	0.209
-441.807	341.726	-0.174	-0.341
-440.792	412.699	-0.394	0.837
-439.778	-107.116	0.429	0.095
-438.763	-17.567	-0.385	0.242
-437.749	-91.105	0.850	-0.244
-436.734	-41.066	0.748	0.386
-435.719	800.000	0.079	0.240
-434.705	-200.000	0.072	0.388
-433.690	-113.383	0.624	0.122
-432.676	720.860	0.223	0.594
-431.661	-200.000	-0.039	-0.294
-430.646	-91.003	-0.904	0.260
-429.632	-76.063	0.562	-0.198
-428.617	-117.442	-0.670	-0.121
-427.603	-200.000	-0.059	0.393
-426.588	94.514	-0.108	-0.123
-425.573	-78.294	0.055	0.019
-424.559	-128.349	-0.479	-0.068
-423.544	-152.217	0.457	0.033
-422.530	84.968	0.781	0.856
-421.515	59.566	0.197	0.194
-420.500	800.000	0.299	1.234
-419.486	800.000	0.147	-0.525
-418.471	-200.000	0.178	-1.013
-417.457	800.000	-0.061	0.233
-416.442	-200.000	0.103	-0.925
-415.428	-93.641	-0.585	0.161
-414.413	40.140	0.317	0.285
-413.398	537.003	-0.343	-0.814
-412.384	18.541	0.253	0.202
-411.369	68.275	-0.314	0.322
-410.355	-4.413	-0.595	-0.411
-409.340	-200.000	-0.029	1.110
-408.325	148.893	0.586	-0.791
-407.311	106.301	0.374	0.442
-406.296	199.625	-0.329	0.504
-405.282	142.518	0.137	0.182
-404.267	-198.850	0.486	0.003
-403.252	493.046	0.144	0.331
-402.238	-124.264	0.264	-0.041
-401.223	-200.000	-0.016	-0.130
-400.209	-2.978	-0.434	-0.302
-399.194	546.464	-0.099	-0.237
-398.179	26.907	-0.328	0.274
-397.165	138.044	-0.239	0.313
-396.150	-45.051	0.255	0.126
-395.136	14.379	0.482	0.376
-394.121	-179.368	-0.641	-0.014
-393.106	800.000	-0.335	-1.112
-392.092	186.070	-0.432	-0.641
-391.077	-200.000	-0.063	-0.312
-390.063	244.134	0.100	0.168
-389.048	43.806	0.485	-0.443
-388.033	-200.000	0.026	0.307
-387.019	-200.000	0.005	-0.493
-386.004	506.823	-0.268	0.620
-384.990	330.262	-0.346	0.665
-383.975	-161.208	0.681	-0.035
-382.960	-200.000	-0.060	-0.336
-381.946	334.335	0.190	0.367
-380.931	191.573	0.178	-0.268
-379.917	154.883	0.246	0.337
-378.902	-127.842	-0.460	0.066
-377.888	336.838	-0.407	0.788
-376.873	-116.675	0.883	-0.162
-375.858	-17.397	0.439	-0.276
-374.844	278.714	-0.315	0.561
-373.829	-4.950	-0.381	0.262
-372.815	162.851	-0.128	0.179
-371.800	-30.465	-0.655	-0.371
-370.785	-200.000	-0.008	-0.130
-369.771	-149.270	0.485	-0.039
-368.756	197.362	0.230	-0.350
-367.742	-128.727	0.854	-0.120
-366.727	-200.000	0.015	-0.186
-365.712	-23.753	-0.717	-0.428
-364.698	29.536	-0.593	-0.503
-363.683	-123.377	-0.756	-0.120
-362.669	-24.080	0.436	-0.260
-361.654	-32.789	-0.416	0.231
-360.639	-200.000	0.034	0.514
-359.625	-200.000	-0.213	0.942
-358.610	166.783	-0.081	0.115
-357.596	-200.000	-0.009	-0.594
-356.581	-200.000	0.026	0.454
-355.566	-149.359	0.387	-0.031
-354.552	458.681	-0.268	0.594
-353.537	3.129	-0.658	0.477
-352.523	-200.000	0.014	-0.110
-351.508	196.281	-0.589	-0.894
-350.493	-118.850	-0.303	-0.053
-349.479	800.000	0.170	0.607
-348.464	3.505	-0.757	-0.550
-347.450	-100.236	1.009	-0.250
-346.435	93.318	-0.267	-0.301
-345.420	-132.516	-0.356	0.046
-344.406	-68.280	0.724	-0.281
-343.391	-102.205	0.503	0.120
-342.377	-200.000	0.032	0.183
-341.362	-200.000	0.047	-0.986
-340.348	-194.472	-0.838	0.007
-339.333	21.814	0.420	-0.341
-338.318	-60.399	0.716	-0.303
-337.304	288.256	-0.148	-0.267
-336.289	-110.612	0.852	-0.176
-335.275	-98.941	0.296	0.075
-334.260	-61.124	-0.479	0.201
-333.245	-44.030	0.294	-0.147
-332.231	256.416	-0.504	-0.862
-331.216	460.511	-0.082	-0.182
-330.202	-200.000	0.077	0.819
-329.187	143.602	-0.255	-0.338
-328.172	198.439	-0.098	0.150
-327.158	-134.045	-0.624	-0.077
-326.143	-60.963	0.807	-0.340
-325.129	800.000	0.165	-0.608
-324.114	-64.410	0.639	0.259
-323.099	-74.635	-0.689	-0.247
-322.085	302.298	0.279	0.514
-321.070	800.000	0.199	0.580
-320.056	-31.509	0.138	-0.077
-319.041	-164.680	-0.559	-0.025
-318.026	403.476	-0.368	-0.770
-317.012	-22.685	0.476	-0.286
-315.997	-200.000	-0.042	-0.248
-314.983	-87.729	-0.200	-0.060
-313.968	-200.000	0.084	-0.509
-312.953	-158.822	-0.666	-0.038
-311.939	-200.000	0.012	0.415
-310.924	179.460	0.296	0.431
-309.910	724.459	0.188	-0.499
-308.895	-141.333	-0.084	-0.008
-307.880	59.404	0.442	-0.434
-306.866	-200.000	0.052	-0.329
-305.851	-153.559	0.550	-0.038
-304.837	-107.312	1.005	-0.220
-303.822	-165.443	-0.949	0.041
-302.807	187.398	-0.110	0.163
-301.793	-200.000	-0.013	0.435
-300.778	-200.000	-0.126	0.834
-299.764	282.717	0.292	0.521
-298.749	800.000	0.125	0.411
-297.735	800.000	-0.155	0.556
-296.720	-103.142	-0.595	0.140
-295.705	34.702	-0.448	0.390
-294.691	-49.515	0.457	-0.216
-293.676	-126.560	-0.253	-0.037
-292.662	-178.558	-0.189	-0.004
-291.647	52.414	-0.622	-0.590
-290.632	800.000	0.075	-0.297
-289.618	-138.206	0.366	-0.040
-288.603	269.299	0.107	0.187
-287.589	-122.404	-0.892	-0.145
-286.574	-200.000	0.173	0.892
-285.559	-35.854	-0.218	-0.117
-284.545	141.080	-0.243	0.320
-283.530	141.415	0.362	-0.476
-282.516	-200.000	0.010	0.115
-281.501	-83.132	-0.665	0.213
-280.486	-107.271	1.192	-0.261
-279.472	-75.949	0.698	-0.245
-278.457	136.236	-0.210	0.272
-277.443	-155.050	0.459	0.030
-276.428	53.398	0.495	-0.471
-275.413	-200.000	0.150	0.733
-274.399	-200.000	-0.016	-0.122
-273.384	198.727	-0.554	-0.842
-272.370	-53.951	1.201	-0.543
-271.355	176.880	0.412	-0.596
-270.340	-100.799	0.978	0.239
-269.326	-27.284	-0.471	-0.272
-268.311	-200.000	-0.182	-0.848
-267.297	72.725	-0.369	-0.383
-266.282	-82.559	0.750	-0.242
-265.267	-143.121	-0.710	-0.068
-264.253	-106.461	-0.312	0.069
-263.238	508.916	-0.072	-0.167
-262.224	0.032	0.398	0.282
-261.209	141.205	-0.660	0.867
-260.195	-18.534	-0.539	0.334
-259.180	44.691	-0.048	-0.044
-258.165	800.000	-0.051	0.211
-257.151	322.283	0.358	0.678
-256.136	73.031	0.284	0.295
-255.122	-200.000	-0.042	0.217
-254.107	784.245	0.162	-0.442
-253.092	554.913	-0.249	0.596
-252.078	-163.025	0.093	-0.004
-251.063	-149.197	0.484	0.038
-250.049	99.137	-0.159	0.183
-249.034	-161.381	-0.625	-0.032
-248.019	341.138	0.178	0.346
-247.005	-32.036	-0.594	-0.330
-245.990	554.583	-0.157	0.374
-244.976	800.000	-0.052	0.211
-243.961	-200.000	-0.040	-0.556
-242.946	303.253	-0.136	-0.249
-241.932	-114.297	-0.822	-0.157
-240.917	-93.780	-0.252	-0.069
-239.903	-200.000	0.046	0.410
-238.888	800.000	0.212	0.604
-237.873	-146.626	0.365	0.031
-236.859	10.840	0.424	0.321
-235.844	108.290	-0.266	-0.315
-234.830	800.000	0.193	-0.606
-233.815	81.434	-0.534	-0.573
-232.800	215.463	0.156	-0.246
-231.786	-200.000	0.215	-0.953
-230.771	-108.991	0.756	-0.160
-229.757	-140.422	-0.659	-0.068
-228.742	-200.000	-0.056	-0.584
-227.727	800.000	0.228	0.692
-226.713	370.632	0.209	0.421
-225.698	353.775	-0.328	0.646
-224.684	-132.209	-0.148	-0.019
-223.669	-83.816	0.656	0.207
-222.655	-200.000	0.066	0.385
-221.640	115.851	-0.205	-0.248
-220.625	107.325	0.202	-0.239
-219.611	117.900	0.104	0.127
-218.596	446.630	0.106	0.232
-217.582	-92.895	-0.281	0.078
-216.567	-71.678	-0.955	0.354
-215.552	164.669	-0.360	0.504
-214.538	800.000	-0.117	-0.458
-213.523	-70.236	0.563	0.212
-212.509	41.959	0.302	-0.272
-211.494	-164.698	-1.097	-0.049
-210.479	165.374	-0.356	0.499
-209.465	-44.392	-0.550	0.273
-208.450	102.244	0.513	-0.594
-207.436	-149.785	-0.654	-0.051
-206.421	74.550	0.297	-0.310
-205.406	373.222	-0.319	-0.644
-204.392	-125.736	0.508	0.076
-203.377	-150.714	-0.254	-0.019
-202.363	-200.000	-0.043	-1.181
-201.348	-53.908	0.384	-0.173
-200.333	-24.112	0.663	0.392
-199.319	-36.787	0.203	0.108
-198.304	-51.574	0.523	-0.242
-197.290	-200.000	-0.038	-0.260
-196.275	-200.000	0.039	0.221
-195.260	-173.993	-0.551	0.016
-194.246	47.376	0.729	-0.673
-193.231	-200.000	0.019	-0.558
-192.217	-101.723	0.552	-0.132
-191.202	608.358	-0.144	-0.355
-190.187	800.000	0.202	0.588
-189.173	-88.121	0.787	0.234
-188.158	210.139	0.204	-0.317
-187.144	302.882	-0.338	-0.620
-186.129	-134.022	0.426	0.052
-185.114	99.686	-0.232	-0.266
-184.100	-200.000	0.019	-0.408
-183.085	-200.000	0.144	0.816
-182.071	800.000	0.280	0.770
-181.056	-36.137	0.924	0.494
-180.042	-142.929	-0.177	0.017
-179.027	-200.000	-0.015	-0.296
-178.012	-60.797	-0.304	-0.128
-176.998	-59.060	0.599	0.256
-175.983	-13.010	-0.772	-0.497
-174.969	-200.000	-0.061	-0.376
-173.954	205.104	-0.682	1.048
-172.939	161.701	0.521	0.721
-171.925	-40.703	0.695	-0.357
-170.910	118.673	0.305	0.372
-169.896	232.289	0.237	-0.384
-168.881	604.560	-0.151	-0.373
-167.866	107.697	0.210	0.247
-166.852	800.000	0.186	0.588
-165.837	421.929	0.212	-0.451
-164.823	-200.000	-0.087	0.952
-163.808	351.572	-0.124	-0.243
-162.793	423.579	-0.393	0.837
-161.779	234.241	0.092	-0.151
-160.764	-81.471	0.633	-0.206
-159.750	-200.000	-0.061	0.996
-158.735	-93.455	0.649	-0.178
-157.720	110.239	0.692	-0.822
-156.706	800.000	0.094	0.403
-155.691	-72.536	0.216	0.079
-154.677	800.000	0.290	0.828
-153.662	285.068	0.392	-0.699
-152.647	-159.129	-0.985	-0.055
-151.633	-84.274	0.045	0.014
-150.618	800.000	-0.102	-0.358
-149.604	217.513	0.445	0.702
-148.589	-116.151	-0.660	-0.121
-147.574	-200.000	0.828	0.004
-146.560	-200.000	-0.051	0.590
-145.545	184.838	0.328	0.481
-144.531	-138.699	-0.845	0.091
-143.516	-49.121	0.364	0.172
-142.502	-153.824	0.884	-0.060
-141.487	2.926	-0.421	0.302
-140.472	-132.739	0.906	0.115
-139.458	-5.859	0.421	-0.285
-138.443	-200.000	-0.076	-0.879
-137.429	147.895	-0.338	-0.451
-136.414	142.706	-0.215	-0.282
-135.399	800.000	0.269	-0.736
-134.385	71.133	-0.489	-0.501
-133.370	49.488	-0.440	-0.409
-132.356	477.417	-0.251	0.561
-131.341	-48.061	0.454	0.217
-130.326	43.487	-0.592	0.534
-129.312	188.042	0.398	0.587
-128.297	45.257	0.274	-0.250
-127.283	800.000	-0.259	-0.754
-126.268	-56.833	0.701	0.306
-125.253	241.564	0.346	0.572
-124.239	-96.719	-0.360	0.094
-123.224	-200.000	0.044	1.002
-122.210	-61.581	0.427	0.177
