DTS Sentinel unit serial number:	SN413079Multiplexer serial number:	ORYXHardware model number:	OX4-SRSoftware version number:	ORYX F/W v4.00 Oryx Data Collector v3.7.2.0data status	okinstallation	princeton_trtdifferential loss correction	single-endedforward channel	channel 3reverse channel	N/Adate	2019/09/19time	12:36:34forward acquisition time	60.00reverse acquisition time	0.00gamma	496.2192k internal	0.2334k external	0.2334temperature offset calibration	0.9993default loss term (dB/km)	0.3790temperature slope calibration	1.0000multiplexer offset coefficient	1.0000multiplexer slope coefficient	1.0000fibre end	0.00T internal ref (°C)	27.34T ext. ref 1 (°C)	0.88T ext. ref 2 (°C)	25.12length (m)	temperature (°C)	Stokes	anti-Stokes-747.200	77.882	-0.109	-0.117
-746.185	-200.000	-0.023	0.396
-745.171	101.937	-0.094	-0.110
-744.156	800.000	-0.099	0.305
-743.142	483.668	-0.134	-0.306
-742.127	-200.000	-0.004	-0.044
-741.112	-165.403	0.210	-0.009
-740.098	-200.000	0.012	0.228
-739.083	-57.429	-0.453	-0.200
-738.069	800.000	-0.151	0.447
-737.054	207.616	0.201	0.316
-736.039	35.087	-0.197	-0.174
-735.025	800.000	0.045	-0.126
-734.010	-40.694	0.179	-0.093
-732.996	365.607	0.113	-0.228
-731.981	-19.483	-0.280	0.175
-730.966	62.048	-0.258	0.258
-729.952	693.539	0.059	-0.156
-728.937	-123.456	-0.206	0.033
-727.923	-110.970	-0.240	-0.049
-726.908	-109.269	-0.053	0.011
-725.894	1.315	0.222	-0.160
-724.879	98.962	-0.294	-0.341
-723.864	58.453	-0.197	-0.194
-722.850	145.004	-0.043	-0.057
-721.835	800.000	0.048	0.171
-720.821	63.605	-0.049	-0.050
-719.806	-200.000	0.006	-0.398
-718.791	532.964	0.161	-0.382
-717.777	-76.339	-0.071	-0.025
-716.762	687.888	0.018	0.047
-715.748	-137.804	-0.160	-0.018
-714.733	587.317	0.050	-0.123
-713.718	-167.411	0.234	-0.009
-712.704	-182.845	0.055	0.001
-711.689	300.880	0.153	-0.284
-710.675	-200.000	-0.002	0.149
-709.660	71.725	0.299	0.312
-708.645	-18.060	-0.089	0.056
-707.631	-183.802	0.256	0.004
-706.616	-6.887	-0.226	-0.154
-705.602	800.000	-0.106	-0.437
-704.587	414.467	-0.084	0.179
-703.572	535.322	-0.165	0.393
-702.558	82.008	-0.149	0.162
-701.543	139.587	-0.173	-0.228
-700.529	-104.394	0.244	-0.057
-699.514	68.209	0.454	-0.467
-698.499	23.299	0.199	-0.164
-697.485	-92.818	-0.123	0.035
-696.470	-200.000	-0.016	-0.101
-695.456	-141.829	0.154	-0.016
-694.441	-100.819	-0.324	0.080
-693.426	800.000	0.057	0.201
-692.412	-48.105	0.097	0.047
-691.397	43.399	-0.170	-0.155
-690.383	-200.000	0.029	0.280
-689.368	-185.329	-0.131	-0.002
-688.354	800.000	0.051	0.182
-687.339	-194.933	0.161	0.001
-686.324	-85.307	-0.387	0.121
-685.310	-67.377	-0.164	-0.065
-684.295	210.306	-0.033	-0.052
-683.281	-122.143	0.325	-0.053
-682.266	19.637	-0.053	-0.043
-681.251	-200.000	0.030	-0.153
-680.237	-200.000	0.045	0.324
-679.222	723.112	0.058	-0.155
-678.208	800.000	-0.036	-0.108
-677.193	-123.035	0.289	0.046
-676.178	130.824	0.065	-0.084
-675.164	-200.000	0.030	-0.309
-674.149	95.733	-0.103	0.118
-673.135	-146.149	-0.140	0.012
-672.120	-62.797	0.196	-0.082
-671.105	-141.652	-0.305	-0.031
-670.091	-200.000	0.053	0.415
-669.076	395.720	-0.146	0.305
-668.062	-200.000	-0.033	0.144
-667.047	22.055	0.197	0.161
-666.032	-77.387	-0.513	0.179
-665.018	-116.038	-0.194	0.036
-664.003	-200.000	-0.009	0.155
-662.989	316.838	-0.080	-0.151
-661.974	137.992	0.104	-0.137
-660.959	-185.453	0.130	0.002
-659.945	-200.000	0.008	0.112
-658.930	117.453	0.181	-0.223
-657.916	-170.461	-0.184	-0.006
-656.901	-10.911	-0.137	-0.091
-655.886	-153.963	0.172	-0.012
-654.872	193.911	-0.213	-0.323
-653.857	-146.863	-0.261	0.022
-652.843	12.886	0.041	-0.032
-651.828	216.368	0.163	-0.260
-650.814	-57.311	0.152	-0.067
-649.799	-35.368	-0.039	-0.021
-648.784	510.767	-0.042	0.098
-647.770	-53.999	0.217	-0.099
-646.755	-200.000	-0.031	0.149
-645.741	-77.993	0.250	0.086
-644.726	339.871	-0.057	-0.111
-643.711	170.570	0.095	0.136
-642.697	-17.281	0.309	0.195
-641.682	-135.522	-0.134	-0.016
-640.668	-48.564	0.288	-0.139
-639.653	-174.997	-0.099	0.003
-638.638	-200.000	0.040	-0.203
-637.624	-200.000	-0.026	0.266
-636.609	-78.570	-0.084	0.029
-635.595	742.035	0.042	-0.114
-634.580	68.295	0.126	-0.129
-633.565	-89.540	0.236	0.069
-632.551	238.683	-0.208	-0.347
-631.536	-89.718	-0.296	-0.087
-630.522	8.072	-0.148	0.111
-629.507	-116.689	-0.336	0.062
-628.492	244.096	0.140	0.235
-627.478	156.218	-0.169	-0.233
-626.463	-48.668	0.078	0.038
-625.449	-200.000	0.063	0.320
-624.434	-84.048	-0.205	-0.065
-623.419	99.626	-0.047	-0.054
-622.405	257.561	-0.021	0.036
-621.390	428.777	0.146	-0.317
-620.376	-200.000	-0.030	-0.241
-619.361	-78.485	-0.098	0.034
-618.346	-73.721	0.336	-0.122
-617.332	475.706	-0.104	-0.234
-616.317	-200.000	0.007	-0.141
-615.303	367.257	-0.118	0.239
-614.288	544.781	-0.138	0.330
-613.273	-146.460	0.111	-0.010
-612.259	7.187	0.249	0.186
-611.244	233.389	0.069	0.113
-610.230	223.073	-0.175	-0.283
-609.215	-200.000	0.006	-0.208
-608.201	282.999	-0.095	0.171
-607.186	-200.000	0.018	0.251
-606.171	5.018	-0.284	0.209
-605.157	-55.780	0.223	-0.099
-604.142	-200.000	-0.000	-0.015
-603.128	-64.391	-0.133	-0.054
-602.113	-83.108	0.219	-0.070
-601.098	-146.886	0.161	0.014
-600.084	-98.633	0.136	0.035
-599.069	-70.463	0.237	0.090
-598.055	116.369	-0.076	-0.093
-597.040	-34.168	-0.105	0.058
-596.025	-191.518	0.050	0.001
-595.011	-135.748	0.084	0.010
-593.996	-93.753	-0.157	0.043
-592.982	214.018	-0.076	-0.120
-591.967	-10.432	-0.196	0.130
-590.952	800.000	-0.018	-0.057
-589.938	-41.938	0.311	-0.159
-588.923	-65.734	0.177	-0.071
-587.909	-149.042	0.108	0.009
-586.894	-200.000	0.020	0.102
-585.879	-140.548	-0.080	-0.008
-584.865	77.125	0.157	0.167
-583.850	-75.319	-0.085	0.030
-582.836	-118.751	-0.196	-0.034
-581.821	144.255	-0.102	-0.136
-580.806	-71.503	0.029	-0.011
-579.792	-188.912	-0.324	0.004
-578.777	-124.805	-0.052	0.008
-577.763	-200.000	-0.011	-0.252
-576.748	-200.000	-0.042	0.200
-575.733	800.000	0.111	0.328
-574.719	-45.322	0.202	0.100
-573.704	-14.639	-0.192	-0.123
-572.690	590.029	-0.103	-0.253
-571.675	630.617	-0.070	-0.176
-570.661	441.038	0.079	-0.172
-569.646	-200.000	-0.011	-0.076
-568.631	-200.000	-0.018	-0.176
-567.617	-200.000	-0.030	-0.378
-566.602	-200.000	-0.085	-0.464
-565.588	98.275	0.232	0.267
-564.573	176.038	-0.171	0.248
-563.558	-94.697	0.085	0.023
-562.544	-105.482	0.231	0.052
-561.529	800.000	-0.008	-0.030
-560.515	-33.600	-0.475	0.262
-559.500	800.000	-0.042	0.135
-558.485	-200.000	0.008	0.129
-557.471	51.913	-0.079	0.075
-556.456	-57.912	-0.305	0.133
-555.442	800.000	-0.008	-0.033
-554.427	-52.012	0.023	0.010
-553.412	111.792	-0.143	-0.173
-552.398	42.118	0.255	-0.231
-551.383	-88.961	0.363	-0.107
-550.369	538.647	-0.070	0.165
-549.354	-118.836	-0.285	0.050
-548.339	539.292	-0.143	0.338
-547.325	272.458	-0.059	-0.105
-546.310	-159.931	-0.316	-0.017
-545.296	-76.195	0.170	-0.060
-544.281	223.074	-0.024	0.038
-543.266	101.824	0.206	0.240
-542.252	-200.000	-0.029	-0.341
-541.237	96.735	0.090	-0.103
-540.223	800.000	0.053	-0.160
-539.208	395.376	-0.163	0.338
-538.193	479.850	-0.113	0.255
-537.179	-51.752	-0.444	-0.206
-536.164	-200.000	0.003	0.109
-535.150	800.000	0.008	0.028
-534.135	298.794	0.137	0.252
-533.121	800.000	0.042	-0.153
-532.106	-104.908	-0.295	-0.068
-531.091	-109.668	0.529	-0.111
-530.077	95.907	0.070	0.080
-529.062	-122.103	0.208	0.034
-528.048	-200.000	-0.053	-0.255
-527.033	43.171	-0.101	0.092
-526.018	185.937	0.080	0.119
-525.004	-200.000	-0.001	-0.052
-523.989	43.098	0.146	-0.132
-522.975	-200.000	0.054	0.273
-521.960	-200.000	-0.003	0.132
-520.945	-34.718	-0.376	-0.205
-519.931	800.000	0.044	-0.184
-518.916	211.046	-0.082	-0.128
-517.902	420.797	-0.152	-0.325
-516.887	-200.000	0.026	-0.264
-515.872	800.000	0.070	-0.213
-514.858	80.952	-0.151	0.163
-513.843	416.847	-0.018	0.038
-512.829	-56.624	-0.056	0.025
-511.814	-88.364	0.129	-0.038
-510.799	-22.653	0.126	0.076
-509.785	-87.849	-0.233	-0.070
-508.770	13.158	-0.228	-0.176
-507.756	-200.000	0.015	-0.210
-506.741	-20.028	-0.079	0.049
-505.726	-119.484	0.071	0.012
-504.712	50.934	-0.164	-0.155
-503.697	260.582	0.038	0.066
-502.683	-104.267	-0.143	0.033
-501.668	168.913	-0.177	0.251
-500.653	387.085	-0.087	-0.180
-499.639	68.096	-0.114	-0.117
-498.624	-200.000	-0.013	0.153
-497.610	293.697	-0.127	0.230
-496.595	-65.919	0.186	0.074
-495.581	-200.000	0.037	-0.250
-494.566	-200.000	0.091	-0.460
-493.551	127.059	-0.273	0.345
-492.537	-70.427	0.244	0.092
-491.522	80.636	0.394	-0.423
-490.508	81.066	0.146	0.157
-489.493	176.890	-0.224	0.324
-488.478	-138.124	0.138	-0.015
-487.464	-150.896	-0.196	-0.015
-486.449	16.444	-0.272	-0.214
-485.435	-100.626	0.222	-0.055
-484.420	-56.925	0.179	-0.078
-483.405	-165.700	0.205	-0.009
-482.391	-200.000	-0.005	0.026
-481.376	10.211	0.175	0.133
-480.362	-95.624	0.083	0.022
-479.347	-117.361	0.416	-0.075
-478.332	-98.507	-0.186	0.047
-477.318	180.461	-0.055	0.080
-476.303	34.904	-0.162	-0.141
-475.289	-117.599	-0.363	0.065
-474.274	800.000	0.109	0.367
-473.259	636.790	-0.046	0.116
-472.245	-200.000	-0.041	-0.237
-471.230	-46.653	0.039	-0.019
-470.216	-69.257	0.070	-0.027
-469.201	254.547	-0.118	-0.200
-468.186	-36.275	-0.150	-0.080
-467.172	-200.000	-0.031	-0.189
-466.157	-113.179	0.312	-0.061
-465.143	-57.532	0.179	0.078
-464.128	30.484	0.135	0.115
-463.113	99.594	0.185	0.213
-462.099	-142.078	0.130	-0.013
-461.084	20.488	-0.144	0.116
-460.070	-11.452	0.227	0.148
-459.055	-10.806	0.199	0.131
-458.040	-110.533	0.119	-0.024
-457.026	86.487	-0.103	-0.113
-456.011	58.142	-0.144	0.141
-454.997	-165.666	-0.150	0.006
-453.982	2.053	-0.249	-0.178
-452.968	-96.508	0.090	-0.024
-451.953	-173.144	-0.240	0.007
-450.938	-200.000	-0.009	0.190
-449.924	-200.000	0.023	0.127
-448.909	-79.849	0.269	-0.090
-447.895	-200.000	0.025	-0.253
-446.880	-200.000	-0.348	0.001
-445.865	-177.272	0.269	-0.007
-444.851	93.909	-0.059	0.066
-443.836	73.559	0.155	0.161
-442.822	357.468	0.133	-0.263
-441.807	202.433	0.168	0.258
-440.792	-103.349	0.124	0.029
-439.778	22.156	0.468	0.380
-438.763	-200.000	0.015	-0.084
-437.749	-175.999	0.161	-0.004
-436.734	569.801	0.146	-0.352
-435.719	-49.789	-0.316	-0.149
-434.705	473.294	0.060	0.134
-433.690	-81.382	-0.073	-0.024
-432.676	-68.613	-0.114	-0.044
-431.661	-51.954	0.420	-0.194
-430.646	-200.000	0.009	0.162
-429.632	90.359	0.091	0.101
-428.617	57.003	-0.024	-0.023
-427.603	-9.312	-0.101	-0.067
-426.588	178.562	-0.316	-0.458
-425.573	-114.881	-0.189	0.036
-424.559	-99.999	0.393	0.097
-423.544	-36.656	0.075	-0.040
-422.530	188.802	0.173	-0.256
-421.515	487.294	-0.057	-0.129
-420.500	-194.099	-0.206	-0.002
-419.486	-17.956	0.140	0.087
-418.471	800.000	-0.052	-0.208
-417.457	800.000	0.043	-0.131
-416.442	800.000	-0.026	0.082
-415.428	-200.000	-0.022	-0.280
-414.413	234.833	0.131	-0.215
-413.398	-200.000	-0.020	0.416
-412.384	21.993	-0.214	0.173
-411.369	-200.000	0.023	0.166
-410.355	151.612	0.158	-0.214
-409.340	-67.633	-0.464	-0.180
-408.325	335.066	0.202	-0.388
-407.311	84.139	0.041	0.045
-406.296	-63.841	0.288	0.117
-405.282	-124.534	0.065	0.010
-404.267	-200.000	0.028	-0.238
-403.252	4.029	-0.216	-0.157
-402.238	145.147	-0.271	-0.359
-401.223	39.698	-0.077	-0.068
-400.209	800.000	-0.137	-0.446
-399.194	42.635	0.126	0.114
-398.179	477.613	0.105	0.235
-397.165	-20.808	0.343	0.209
-396.150	-129.009	-0.299	-0.042
-395.136	372.153	-0.096	-0.193
-394.121	-33.475	0.115	-0.063
-393.106	8.246	-0.146	-0.109
-392.092	-112.183	0.173	0.034
-391.077	-200.000	0.001	0.434
-390.063	-82.600	-0.352	-0.113
-389.048	800.000	0.056	0.219
-388.033	94.277	-0.142	-0.159
-387.019	-200.000	0.036	-0.179
-386.004	800.000	0.050	-0.198
-384.990	78.521	0.028	0.030
-383.975	393.525	-0.133	0.274
-382.960	800.000	-0.047	-0.167
-381.946	-42.267	0.147	-0.075
-380.931	-127.490	0.168	0.024
-379.917	-200.000	0.022	0.375
-378.902	-79.862	0.167	-0.056
-377.888	288.669	0.037	0.066
-376.873	558.413	-0.120	-0.287
-375.858	13.931	0.026	0.020
-374.844	50.952	0.189	-0.177
-373.829	800.000	-0.150	-0.465
-372.815	4.664	0.069	-0.051
-371.800	-110.825	0.225	-0.046
-370.785	93.697	-0.024	0.027
-369.771	-150.132	-0.063	0.005
-368.756	16.281	-0.321	0.251
-367.742	173.512	0.104	-0.148
-366.727	-200.000	0.002	0.073
-365.712	37.488	0.126	-0.110
-364.698	-100.153	0.100	0.025
-363.683	254.314	-0.065	0.110
-362.669	168.896	-0.136	-0.193
-361.654	-200.000	-0.019	-0.154
-360.639	-111.743	-0.173	0.035
-359.625	800.000	-0.052	0.176
-358.610	800.000	0.073	-0.252
-357.596	97.031	-0.093	-0.105
-356.581	159.799	0.055	0.076
-355.566	-62.685	-0.128	-0.053
-354.552	319.946	-0.114	0.215
-353.537	239.357	0.109	0.180
-352.523	-7.207	0.167	-0.112
-351.508	30.778	-0.078	0.066
-350.493	304.087	0.057	-0.104
-349.479	56.490	-0.123	0.118
-348.464	271.916	-0.077	0.134
-347.450	-100.347	0.304	-0.075
-346.435	800.000	0.082	0.328
-345.420	119.370	-0.243	0.297
-344.406	195.117	-0.034	0.050
-343.391	-200.000	-0.025	-0.108
-342.377	372.238	0.245	0.491
-341.362	-29.202	0.467	-0.265
-340.348	758.308	0.067	-0.179
-339.333	53.880	-0.079	-0.075
-338.318	-56.543	0.212	0.093
-337.304	48.862	0.232	0.215
-336.289	-200.000	0.007	0.133
-335.275	-97.012	-0.146	-0.038
-334.260	-120.207	-0.093	-0.016
-333.245	-6.509	0.130	-0.087
-332.231	-104.556	-0.484	-0.111
-331.216	92.361	-0.072	-0.080
-330.202	-124.528	0.135	0.021
-329.187	-200.000	0.045	0.266
-328.172	-74.955	-0.384	0.136
-327.158	-63.468	0.307	-0.125
-326.143	-134.702	0.135	-0.016
-325.129	-101.143	-0.140	0.034
-324.114	-200.000	0.012	0.242
-323.099	-200.000	0.022	0.342
-322.085	-56.667	-0.123	0.054
-321.070	800.000	-0.086	0.337
-320.056	13.767	-0.199	-0.153
-319.041	800.000	-0.029	0.105
-318.026	174.054	0.071	0.101
-317.012	88.986	-0.028	-0.030
-315.997	3.446	0.105	-0.075
-314.983	-200.000	0.017	-0.215
-313.968	800.000	-0.072	-0.242
-312.953	142.596	0.201	-0.264
-311.939	-126.257	0.409	-0.060
-310.924	800.000	-0.143	0.430
-309.910	-200.000	0.003	0.112
-308.895	31.182	-0.307	0.261
-307.880	-81.162	0.259	-0.085
-306.866	87.806	0.156	-0.171
-305.851	-12.931	0.226	-0.145
-304.837	-138.527	-0.237	0.026
-303.822	-89.369	0.238	0.069
-302.807	-149.839	-0.208	0.016
-301.793	317.046	-0.070	0.130
-300.778	-47.019	-0.220	0.106
-299.764	-200.000	-0.023	-0.136
-298.749	93.360	0.110	0.123
-297.735	-172.702	0.065	-0.002
-296.720	800.000	0.024	0.090
-295.705	800.000	-0.050	-0.212
-294.691	-18.383	0.155	0.095
-293.676	-47.964	-0.263	-0.125
-292.662	-81.410	0.187	0.061
-291.647	500.535	0.090	0.205
-290.632	38.286	-0.053	0.047
-289.618	-98.734	0.225	-0.056
-288.603	-99.476	-0.175	-0.044
-287.589	-23.208	-0.130	-0.077
-286.574	183.955	-0.006	-0.009
-285.559	-41.386	-0.170	-0.086
-284.545	800.000	0.104	0.311
-283.530	-200.000	-0.014	0.326
-282.516	-126.757	-0.133	0.019
-281.501	710.152	-0.120	-0.313
-280.486	-126.492	-0.152	-0.022
-279.472	-200.000	0.014	0.090
-278.457	-121.876	0.144	-0.023
-277.443	59.870	0.191	0.187
-276.428	340.146	-0.183	0.352
-275.413	-200.000	0.013	0.089
-274.399	-200.000	0.006	0.037
-273.384	-102.237	0.060	-0.014
-272.370	-200.000	0.014	0.237
-271.355	111.953	-0.232	0.277
-270.340	-88.340	-0.042	-0.012
-269.326	-13.957	-0.362	0.231
-268.311	53.273	-0.060	-0.057
-267.297	-200.000	-0.004	-0.064
-266.282	-200.000	0.047	0.281
-265.267	-200.000	-0.005	0.190
-264.253	-190.452	-0.227	-0.002
-263.238	224.245	-0.096	-0.153
-262.224	-131.626	0.148	-0.019
-261.209	-200.000	0.031	-0.357
-260.195	65.883	-0.025	0.025
-259.180	-114.161	0.387	-0.074
-258.165	-200.000	0.029	-0.139
-257.151	-100.572	-0.433	-0.106
-256.136	205.251	0.165	0.253
-255.122	73.823	-0.221	0.229
-254.107	-80.832	0.103	0.034
-253.092	-200.000	0.007	0.060
-252.078	800.000	0.058	0.167
-251.063	-93.980	-0.186	-0.050
-250.049	219.932	-0.092	-0.145
-249.034	188.901	-0.057	-0.084
-248.019	323.100	0.233	0.437
-247.005	-6.755	0.107	-0.071
-245.990	800.000	0.059	0.196
-244.976	-84.067	0.278	0.087
-243.961	13.654	-0.197	0.151
-242.946	-200.000	-0.000	0.316
-241.932	-155.257	-0.128	-0.008
-240.917	13.615	-0.438	-0.335
-239.903	-48.762	-0.254	0.120
-238.888	-29.256	-0.149	-0.084
-237.873	382.874	0.083	0.168
-236.859	18.518	-0.166	0.131
-235.844	-200.000	-0.007	0.058
-234.830	99.670	0.175	0.200
-233.815	-6.896	-0.283	-0.189
-232.800	301.590	-0.125	-0.228
-231.786	-200.000	0.022	-0.114
-230.771	-116.773	0.046	-0.008
-229.757	-65.871	-0.110	-0.044
-228.742	-27.762	-0.075	-0.043
-227.727	-83.481	0.195	0.061
-226.713	8.962	-0.174	-0.129
-225.698	-200.000	-0.002	-0.017
-224.684	800.000	-0.027	-0.097
-223.669	-200.000	0.001	-0.136
-222.655	-8.785	0.240	0.158
-221.640	-200.000	-0.086	-0.448
-220.625	-109.478	-0.139	-0.029
-219.611	12.604	0.150	-0.114
-218.596	-97.527	-0.080	-0.021
-217.582	345.330	-0.013	-0.026
-216.567	-163.064	-0.195	0.009
-215.552	15.415	-0.074	-0.057
-214.538	-113.470	-0.533	0.103
-213.523	-110.490	0.238	-0.049
-212.509	-200.000	0.017	0.134
-211.494	80.609	0.093	-0.098
-210.479	67.226	0.094	-0.094
-209.465	-200.000	-0.009	-0.091
-208.450	103.511	-0.186	0.215
-207.436	800.000	0.037	0.127
-206.421	133.683	-0.024	-0.030
-205.406	701.505	-0.046	-0.118
-204.392	800.000	0.106	-0.321
-203.377	-200.000	0.005	-0.142
-202.363	-97.266	0.191	0.049
-201.348	1.310	0.275	-0.194
-200.333	-139.011	0.229	0.024
-199.319	-133.624	-0.045	-0.006
-198.304	156.536	0.126	-0.171
-197.290	-200.000	0.006	0.055
-196.275	-40.517	-0.071	-0.036
-195.260	-3.805	0.182	-0.124
-194.246	-80.775	0.212	0.069
-193.231	45.318	-0.270	-0.245
-192.217	-200.000	0.040	-0.282
-191.202	136.580	0.022	0.028
-190.187	-58.286	-0.273	0.117
-189.173	20.245	0.212	0.168
-188.158	53.122	0.213	-0.200
-187.144	224.126	0.140	-0.223
-186.129	-59.027	-0.188	-0.080
-185.114	-44.062	-0.237	0.117
-184.100	255.620	-0.126	0.213
-183.085	800.000	-0.041	0.170
-182.071	417.875	0.107	-0.226
-181.056	43.730	-0.086	-0.078
-180.042	-149.649	0.041	0.003
-179.027	800.000	-0.058	-0.178
-178.012	306.865	-0.045	0.083
-176.998	-200.000	0.059	0.282
-175.983	800.000	-0.098	0.299
-174.969	98.382	-0.249	0.282
-173.954	-200.000	-0.021	-0.147
-172.939	-26.011	0.386	0.223
-171.925	-200.000	-0.002	0.385
-170.910	-150.289	0.197	0.015
-169.896	-79.369	0.252	-0.084
-168.881	-200.000	0.004	0.168
-167.866	625.035	0.010	0.025
-166.852	-137.546	-0.207	0.023
-165.837	501.793	-0.093	-0.212
-164.823	800.000	0.100	-0.326
-163.808	422.537	-0.105	-0.222
-162.793	800.000	0.018	-0.074
-161.779	800.000	0.075	0.282
-160.764	37.582	0.114	0.100
-159.750	-180.793	0.285	0.006
-158.735	-117.106	0.407	0.073
-157.720	-200.000	-0.009	0.286
-156.706	157.631	-0.083	0.113
-155.691	800.000	-0.072	0.199
-154.677	-76.705	0.053	-0.018
-153.662	-200.000	-0.001	0.056
-152.647	260.769	-0.081	-0.137
-151.633	-12.168	0.290	0.187
-150.618	217.768	-0.109	0.171
-149.604	-186.151	-0.263	0.004
-148.589	-85.279	0.114	0.035
-147.574	-200.000	0.036	-0.157
-146.560	626.607	-0.104	0.258
-145.545	-200.000	0.001	-0.118
-144.531	89.736	0.248	0.271
-143.516	100.420	0.047	-0.054
-142.502	768.937	0.154	-0.411
-141.487	152.408	-0.100	-0.134
-140.472	-118.452	-0.197	-0.034
-139.458	-109.444	0.301	-0.062
-138.443	22.208	-0.161	0.129
-137.429	-68.038	-0.239	0.091
-136.414	-109.190	0.347	0.072
-135.399	-162.308	0.162	0.008
-134.385	32.689	0.126	0.107
-133.370	-48.085	0.345	-0.164
-132.356	-200.000	-0.018	-0.323
-131.341	-184.898	0.225	-0.004
-130.326	-112.722	0.235	0.046
-129.312	-51.680	0.183	-0.084
-128.297	386.839	-0.078	0.159
-127.283	-135.795	-0.036	0.004
-126.268	-200.000	0.027	-0.171
-125.253	800.000	-0.116	0.322
-124.239	-73.178	-0.239	0.086
-123.224	56.262	-0.137	-0.130
-122.210	-55.733	-0.359	-0.157
