DTS Sentinel unit serial number:	SN413079Multiplexer serial number:	ORYXHardware model number:	OX4-SRSoftware version number:	ORYX F/W v4.00 Oryx Data Collector v3.7.2.0data status	okinstallation	princeton_trtdifferential loss correction	single-endedforward channel	channel 3reverse channel	N/Adate	2019/09/13time	23:52:35forward acquisition time	60.00reverse acquisition time	0.00gamma	496.2192k internal	0.2340k external	0.2340temperature offset calibration	1.0061default loss term (dB/km)	0.3790temperature slope calibration	1.0000multiplexer offset coefficient	1.0000multiplexer slope coefficient	1.0000fibre end	0.00T internal ref (°C)	26.56T ext. ref 1 (°C)	3.17T ext. ref 2 (°C)	21.10length (m)	temperature (°C)	Stokes	anti-Stokes-747.200	-200.000	-0.018	0.124
-746.185	-200.000	-0.367	0.001
-745.171	148.194	0.217	-0.293
-744.156	-56.471	0.080	0.036
-743.142	396.929	-0.085	0.179
-742.127	-200.000	0.014	0.122
-741.112	412.277	0.127	0.270
-740.098	-169.636	0.132	0.005
-739.083	109.859	-0.111	-0.133
-738.069	60.769	-0.069	-0.068
-737.054	125.087	-0.108	0.137
-736.039	-19.485	-0.312	0.194
-735.025	96.643	0.062	0.072
-734.010	528.197	-0.144	0.340
-732.996	-107.405	-0.212	-0.047
-731.981	5.231	-0.153	-0.113
-730.966	800.000	-0.218	-0.614
-729.952	-54.381	0.206	0.094
-728.937	-124.089	0.060	-0.009
-727.923	-119.548	-0.247	0.043
-726.908	-82.747	-0.134	0.043
-725.894	800.000	0.013	0.054
-724.879	-200.000	-0.044	-0.299
-723.864	29.459	0.184	0.157
-722.850	-84.476	-0.253	-0.080
-721.835	272.888	-0.101	0.179
-720.821	72.222	0.105	-0.109
-719.806	272.124	-0.080	-0.141
-718.791	-63.759	-0.131	0.054
-717.777	-200.000	-0.022	-0.303
-716.762	-13.707	-0.303	-0.196
-715.748	65.304	-0.117	-0.118
-714.733	-35.473	-0.124	-0.068
-713.718	314.711	-0.089	0.167
-712.704	800.000	-0.003	-0.010
-711.689	348.761	0.088	0.175
-710.675	-17.152	-0.113	-0.071
-709.660	18.972	0.289	0.232
-708.645	262.949	0.033	-0.058
-707.631	-163.626	-0.128	-0.006
-706.616	-177.860	-0.356	-0.009
-705.602	-24.424	0.163	-0.097
-704.587	-69.066	-0.176	0.068
-703.572	-200.000	0.038	0.342
-702.558	33.938	-0.172	-0.150
-701.543	-200.000	-0.022	-0.170
-700.529	-37.548	-0.107	-0.057
-699.514	0.526	-0.350	-0.250
-698.499	-7.365	0.232	-0.157
-697.485	114.987	-0.074	0.091
-696.470	-157.900	-0.194	0.011
-695.456	10.948	-0.266	-0.203
-694.441	-200.000	-0.013	-0.157
-693.426	451.018	0.070	0.155
-692.412	265.861	-0.181	0.316
-691.397	-108.885	0.291	-0.062
-690.383	-105.572	-0.083	0.019
-689.368	-173.061	0.215	-0.007
-688.354	130.056	-0.086	0.111
-687.339	800.000	0.082	0.283
-686.324	-200.000	0.026	0.181
-685.310	223.347	0.134	0.216
-684.295	216.996	0.126	-0.200
-683.281	800.000	0.103	0.292
-682.266	800.000	-0.098	0.285
-681.251	-23.777	-0.047	0.028
-680.237	-66.272	-0.327	-0.130
-679.222	-27.191	0.380	0.221
-678.208	800.000	-0.121	-0.338
-677.193	-149.473	-0.207	-0.016
-676.178	-3.679	0.094	-0.066
-675.164	179.586	0.093	-0.136
-674.149	-39.285	-0.175	-0.092
-673.135	-200.000	0.017	-0.161
-672.120	-200.000	0.046	-0.346
-671.105	-4.308	-0.189	0.131
-670.091	779.204	-0.039	0.105
-669.076	-200.000	-0.025	0.217
-668.062	-150.487	0.389	0.030
-667.047	196.652	0.135	-0.206
-666.032	737.993	-0.115	-0.308
-665.018	-73.317	0.051	0.019
-664.003	45.003	-0.048	0.044
-662.989	-185.547	-0.134	-0.002
-661.974	338.737	-0.115	-0.225
-660.959	-82.484	0.169	0.055
-659.945	71.989	-0.171	-0.178
-658.930	-93.057	0.168	0.047
-657.916	-105.658	-0.153	0.035
-656.901	598.434	-0.088	0.217
-655.886	151.730	-0.225	-0.306
-654.872	-100.469	0.077	-0.019
-653.857	-56.526	-0.183	0.081
-652.843	82.724	0.101	-0.110
-651.828	800.000	0.085	-0.276
-650.814	-200.000	-0.091	-0.437
-649.799	19.491	-0.106	0.085
-648.784	164.441	-0.231	0.326
-647.770	17.830	-0.306	-0.243
-646.755	-117.288	-0.084	0.015
-645.741	-26.016	-0.191	-0.112
-644.726	42.418	0.407	-0.369
-643.711	-200.000	0.085	-0.402
-642.697	45.935	0.155	-0.144
-641.682	76.699	0.236	-0.250
-640.668	82.982	-0.035	-0.038
-639.653	-65.084	0.241	0.097
-638.638	-200.000	-0.424	-0.001
-637.624	-117.505	0.074	0.013
-636.609	-34.586	0.211	0.115
-635.595	-200.000	0.025	-0.227
-634.580	800.000	-0.033	-0.104
-633.565	-171.295	0.134	0.004
-632.551	5.029	-0.161	-0.118
-631.536	-147.417	-0.267	0.023
-630.522	-140.866	0.138	0.014
-629.507	161.692	-0.125	-0.174
-628.492	155.444	-0.129	-0.177
-627.478	338.973	-0.106	-0.206
-626.463	-200.000	0.015	-0.097
-625.449	468.118	0.159	-0.356
-624.434	-33.595	-0.174	0.096
-623.419	564.997	-0.045	-0.110
-622.405	-200.000	0.014	0.560
-621.390	34.384	-0.199	0.174
-620.376	-97.032	-0.104	0.027
-619.361	502.215	0.092	-0.211
-618.346	-200.000	-0.012	0.167
-617.332	-200.000	-0.057	0.280
-616.317	52.487	0.105	-0.100
-615.303	569.080	-0.097	0.234
-614.288	142.071	-0.050	0.067
-613.273	372.554	-0.067	-0.136
-612.259	-26.065	0.218	-0.128
-611.244	58.448	-0.077	-0.075
-610.230	37.850	-0.152	0.134
-609.215	419.946	0.067	-0.143
-608.201	-37.317	-0.133	0.071
-607.186	-129.479	0.399	-0.055
-606.171	214.366	-0.099	-0.157
-605.157	-200.000	0.021	0.316
-604.142	497.189	-0.061	-0.139
-603.128	-200.000	-0.031	0.349
-602.113	-200.000	-0.002	0.070
-601.098	-65.781	0.124	-0.049
-600.084	-39.594	0.119	0.062
-599.069	153.710	-0.101	-0.138
-598.055	800.000	-0.061	0.180
-597.040	-91.737	0.291	-0.082
-596.025	-73.310	0.164	-0.060
-595.011	-52.856	0.090	0.041
-593.996	-200.000	0.021	-0.105
-592.982	724.049	0.139	-0.369
-591.967	276.133	0.124	-0.219
-590.952	239.569	0.076	-0.125
-589.938	800.000	-0.116	-0.356
-588.923	-92.752	0.174	0.049
-587.909	138.551	-0.211	-0.276
-586.894	425.952	0.041	0.089
-585.879	800.000	-0.040	-0.143
-584.865	-149.369	0.431	0.034
-583.850	-8.587	0.246	0.164
-582.836	191.356	-0.091	-0.136
-581.821	262.661	0.085	0.146
-580.806	-79.994	0.410	-0.137
-579.792	352.849	0.111	-0.218
-578.777	800.000	0.052	0.193
-577.763	317.845	-0.208	-0.392
-576.748	-46.761	0.284	0.138
-575.733	-200.000	0.002	-0.026
-574.719	468.855	-0.041	0.091
-573.704	-200.000	-0.024	0.117
-572.690	153.315	-0.172	0.234
-571.675	168.043	-0.145	-0.206
-570.661	800.000	-0.008	-0.029
-569.646	-18.969	0.077	-0.048
-568.631	-200.000	0.019	0.251
-567.617	-102.377	-0.025	-0.006
-566.602	800.000	0.054	0.173
-565.588	-200.000	-0.023	0.305
-564.573	451.288	-0.059	0.130
-563.558	789.247	-0.023	-0.063
-562.544	149.040	0.093	0.126
-561.529	-136.712	0.233	-0.027
-560.515	435.498	-0.169	-0.367
-559.500	250.541	-0.195	0.330
-558.485	-62.481	-0.113	-0.047
-557.471	-81.744	0.174	0.057
-556.456	800.000	0.118	0.336
-555.442	-36.342	0.336	0.180
-554.427	800.000	-0.018	0.064
-553.412	-117.303	0.021	-0.004
-552.398	-76.766	-0.178	-0.062
-551.383	-93.708	0.166	-0.045
-550.369	-6.003	-0.113	-0.077
-549.354	-112.138	0.263	0.053
-548.339	477.270	0.119	0.268
-547.325	-36.527	-0.170	0.091
-546.310	-20.142	-0.409	0.251
-545.296	285.779	-0.034	0.062
-544.281	104.765	-0.310	0.363
-543.266	-130.907	0.156	-0.021
-542.252	91.243	-0.021	0.023
-541.237	344.077	-0.120	0.234
-540.223	-106.318	-0.235	0.052
-539.208	-200.000	-0.087	-0.534
-538.193	107.315	-0.040	-0.047
-537.179	-200.000	0.019	-0.426
-536.164	-40.165	-0.172	-0.089
-535.150	347.489	0.040	-0.078
-534.135	-143.776	0.199	0.019
-533.121	56.701	0.026	-0.025
-532.106	800.000	-0.073	-0.261
-531.091	127.314	-0.193	-0.244
-530.077	800.000	-0.050	-0.171
-529.062	208.944	-0.067	-0.104
-528.048	23.622	0.123	-0.101
-527.033	168.075	0.052	-0.074
-526.018	-200.000	-0.007	0.286
-525.004	-48.378	-0.303	0.145
-523.989	-70.319	-0.148	-0.056
-522.975	-200.000	0.015	0.232
-521.960	277.008	0.036	-0.064
-520.945	142.233	-0.276	-0.364
-519.931	68.073	-0.263	0.267
-518.916	-39.095	0.341	-0.178
-517.902	151.231	-0.081	0.110
-516.887	-82.066	-0.093	0.030
-515.872	-51.915	-0.099	0.046
-514.858	413.520	0.108	0.227
-513.843	98.925	0.153	-0.175
-512.829	-140.428	0.372	-0.039
-511.814	-169.870	0.192	0.007
-510.799	-200.000	-0.012	0.076
-509.785	-86.668	-0.250	-0.076
-508.770	-200.000	-0.019	0.139
-507.756	193.498	0.050	0.075
-506.741	-200.000	-0.034	-0.454
-505.726	-53.079	-0.183	-0.084
-504.712	-200.000	-0.022	0.244
-503.697	-47.868	-0.149	-0.072
-502.683	-41.661	0.271	0.138
-501.668	154.196	0.049	0.067
-500.653	10.465	0.068	0.052
-499.639	16.646	-0.192	0.151
-498.624	-183.709	-0.405	0.007
-497.610	-200.000	-0.049	-0.354
-496.595	-153.703	-0.086	-0.006
-495.581	34.196	-0.091	0.079
-494.566	-47.586	-0.224	0.108
-493.551	800.000	0.030	0.125
-492.537	-112.021	-0.173	-0.035
-491.522	-95.027	0.391	-0.105
-490.508	48.215	0.138	0.128
-489.493	-115.992	-0.339	0.063
-488.478	-44.131	-0.339	0.169
-487.464	-183.894	-0.139	-0.002
-486.449	800.000	-0.116	-0.356
-485.435	214.467	-0.139	-0.219
-484.420	800.000	0.070	0.225
-483.405	-116.730	-0.149	-0.027
-482.391	-66.317	-0.353	-0.139
-481.376	584.696	0.022	-0.054
-480.362	-117.380	0.072	0.013
-479.347	672.863	-0.071	0.183
-478.332	-101.108	-0.099	-0.024
-477.318	-51.992	-0.062	-0.028
-476.303	-140.789	-0.023	-0.002
-475.289	-200.000	-0.365	-0.001
-474.274	-181.483	-0.273	-0.005
-473.259	-112.789	-0.242	-0.048
-472.245	422.520	-0.122	-0.259
-471.230	-87.520	-0.249	-0.075
-470.216	-54.044	-0.273	0.123
-469.201	47.102	0.236	-0.218
-468.186	25.451	-0.159	-0.131
-467.172	800.000	-0.015	-0.042
-466.157	-25.525	-0.329	0.193
-465.143	-200.000	-0.034	0.164
-464.128	368.490	-0.089	0.178
-463.113	-51.317	-0.085	0.039
-462.099	713.250	-0.051	-0.134
-461.084	433.910	0.091	0.195
-460.070	170.727	-0.281	0.399
-459.055	-59.878	-0.124	-0.053
-458.040	-200.000	0.007	0.043
-457.026	263.000	-0.043	0.074
-456.011	-6.133	0.113	-0.076
-454.997	-5.183	-0.332	-0.227
-453.982	-32.206	0.293	-0.162
-452.968	30.467	0.316	-0.268
-451.953	-200.000	0.016	-0.268
-450.938	511.305	-0.024	-0.055
-449.924	-62.801	-0.242	0.099
-448.909	31.045	0.211	0.179
-447.895	-170.867	-0.169	-0.006
-446.880	464.888	-0.133	-0.296
-445.865	-200.000	0.003	0.076
-444.851	-33.675	0.113	0.062
-443.836	800.000	0.069	-0.225
-442.822	604.188	-0.047	-0.117
-441.807	-43.024	0.293	-0.147
-440.792	-48.606	0.187	0.089
-439.778	-200.000	0.037	-0.228
-438.763	800.000	-0.003	-0.009
-437.749	800.000	0.035	-0.104
-436.734	-58.710	-0.103	-0.044
-435.719	106.340	0.060	0.071
-434.705	754.469	0.039	-0.103
-433.690	-200.000	0.014	0.078
-432.676	520.948	-0.052	-0.121
-431.661	-123.371	0.162	0.026
-430.646	-96.741	-0.233	-0.061
-429.632	540.996	0.145	-0.342
-428.617	-7.119	-0.123	0.082
-427.603	-126.658	-0.404	0.059
-426.588	-200.000	0.000	0.482
-425.573	13.161	0.105	-0.081
-424.559	-28.428	-0.151	-0.086
-423.544	170.392	0.075	-0.106
-422.530	-200.000	-0.010	-0.127
-421.515	286.172	0.150	0.267
-420.500	-200.000	-0.015	0.272
-419.486	-13.398	-0.174	0.112
-418.471	37.518	-0.202	-0.177
-417.457	137.891	0.050	-0.064
-416.442	-200.000	0.009	0.096
-415.428	270.767	0.169	0.295
-414.413	800.000	0.035	-0.141
-413.398	800.000	-0.076	-0.247
-412.384	-148.059	0.091	0.007
-411.369	77.467	-0.072	0.076
-410.355	-129.138	0.094	0.013
-409.340	-200.000	-0.046	-0.229
-408.325	68.271	-0.114	0.115
-407.311	-129.388	-0.278	-0.038
-406.296	-200.000	0.030	-0.348
-405.282	800.000	0.049	-0.181
-404.267	1.174	0.126	0.090
-403.252	139.206	-0.147	-0.191
-402.238	-11.572	0.131	0.085
-401.223	35.295	-0.073	-0.063
-400.209	-36.015	0.263	0.141
-399.194	-149.282	-0.234	-0.018
-398.179	-146.008	-0.215	-0.019
-397.165	800.000	0.030	0.118
-396.150	-23.959	-0.199	0.118
-395.136	-103.162	0.290	-0.068
-394.121	-87.127	-0.228	-0.068
-393.106	-17.802	0.267	0.166
-392.092	-79.020	0.253	-0.085
-391.077	800.000	0.080	-0.218
-390.063	-110.136	0.135	0.028
-389.048	-99.803	0.155	-0.038
-388.033	-174.441	0.218	-0.006
-387.019	-200.000	-0.023	0.114
-386.004	242.058	0.158	0.261
-384.990	-200.000	-0.043	0.242
-383.975	11.502	0.216	0.163
-382.960	-72.328	-0.189	0.069
-381.946	-200.000	-0.001	-0.028
-380.931	137.508	-0.201	0.260
-379.917	-2.114	0.244	-0.169
-378.902	15.004	0.206	-0.159
-377.888	-200.000	-0.053	-0.233
-376.873	-138.147	0.315	0.035
-375.858	-33.832	0.250	0.136
-374.844	196.691	-0.121	0.182
-373.829	800.000	-0.070	0.191
-372.815	242.781	-0.160	0.264
-371.800	800.000	0.117	0.326
-370.785	-200.000	0.073	-0.434
-369.771	623.695	0.109	0.271
-368.756	433.857	-0.088	0.188
-367.742	63.562	-0.161	-0.160
-366.727	-53.274	-0.067	0.030
-365.712	155.608	0.258	0.351
-364.698	-200.000	-0.005	0.217
-363.683	-200.000	-0.090	-0.407
-362.669	217.243	-0.113	-0.177
-361.654	44.593	-0.069	-0.063
-360.639	264.126	0.026	-0.044
-359.625	800.000	-0.109	-0.316
-358.610	155.289	0.137	0.186
-357.596	-28.290	-0.021	-0.012
-356.581	-144.764	-0.629	-0.057
-355.566	155.493	0.066	0.090
-354.552	-200.000	0.015	-0.157
-353.537	-45.791	-0.124	0.060
-352.523	164.599	0.205	0.286
-351.508	-200.000	-0.001	0.153
-350.493	-140.316	0.584	0.060
-349.479	-200.000	0.008	0.170
-348.464	69.974	-0.117	0.120
-347.450	-9.676	-0.077	0.051
-346.435	22.790	0.091	0.073
-345.420	800.000	0.085	-0.331
-344.406	-155.968	-0.243	-0.015
-343.391	-200.000	0.037	0.307
-342.377	-200.000	-0.012	0.155
-341.362	-39.860	0.208	0.107
-340.348	-41.289	-0.169	-0.086
-339.333	568.131	0.106	-0.254
-338.318	-185.809	0.043	0.001
-337.304	277.080	0.085	-0.149
-336.289	-57.398	-0.284	0.123
-335.275	31.930	0.045	0.039
-334.260	800.000	-0.075	0.245
-333.245	-200.000	0.022	0.100
-332.231	-77.565	-0.255	0.087
-331.216	191.169	-0.092	0.136
-330.202	-97.806	-0.069	0.018
-329.187	-15.185	-0.288	-0.182
-328.172	61.916	0.245	0.241
-327.158	431.972	-0.021	0.045
-326.143	800.000	0.065	0.273
-325.129	-200.000	0.038	-0.419
-324.114	800.000	-0.036	0.149
-323.099	-177.587	-0.208	-0.005
-322.085	-200.000	-0.004	0.138
-321.070	-72.500	-0.289	-0.105
-320.056	150.074	0.118	-0.158
-319.041	-163.089	-0.305	-0.014
-318.026	164.345	-0.010	-0.014
-317.012	82.392	-0.147	0.157
-315.997	341.051	0.090	-0.174
-314.983	351.108	0.072	-0.140
-313.968	800.000	0.113	0.314
-312.953	-104.456	0.231	-0.053
-311.939	51.712	0.071	-0.066
-310.924	759.130	-0.109	0.290
-309.910	-115.725	0.277	-0.051
-308.895	82.830	0.103	-0.110
-307.880	-78.062	-0.143	-0.049
-306.866	-85.853	-0.296	0.091
-305.851	7.177	-0.066	-0.049
-304.837	-108.299	-0.094	0.020
-303.822	284.136	-0.041	-0.072
-302.807	-93.447	0.176	-0.048
-301.793	-125.483	-0.388	0.058
-300.778	127.571	0.050	-0.062
-299.764	-83.770	0.188	0.059
-298.749	-200.000	0.027	-0.247
-297.735	114.447	-0.071	-0.086
-296.720	-39.753	0.347	-0.179
-295.705	-200.000	-0.020	0.128
-294.691	349.711	-0.118	-0.229
-293.676	35.146	0.072	-0.062
-292.662	-5.451	0.191	-0.129
-291.647	-106.013	0.274	0.061
-290.632	-154.162	-0.301	0.020
-289.618	36.604	-0.283	-0.246
-288.603	-28.919	-0.094	-0.053
-287.589	-200.000	-0.006	-0.045
-286.574	-200.000	-0.090	0.395
-285.559	-108.997	0.209	-0.044
-284.545	-127.785	0.036	0.005
-283.530	473.075	-0.114	0.253
-282.516	-200.000	0.013	-0.105
-281.501	-200.000	-0.010	0.140
-280.486	56.722	-0.061	-0.059
-279.472	-80.992	0.180	-0.059
-278.457	-102.843	0.379	0.089
-277.443	-151.353	-0.358	0.026
-276.428	91.869	0.093	-0.103
-275.413	-198.683	0.331	0.002
-274.399	-6.755	-0.093	-0.063
-273.384	-152.931	-0.142	-0.010
-272.370	222.191	0.071	-0.112
-271.355	-200.000	-0.004	0.095
-270.340	-38.942	-0.140	-0.073
-269.326	-20.011	0.239	-0.145
-268.311	15.337	0.039	-0.030
-267.297	-128.484	0.325	-0.045
-266.282	-134.941	0.227	0.027
-265.267	-200.000	0.002	-0.049
-264.253	747.579	0.084	0.221
-263.238	-8.900	-0.256	0.169
-262.224	-51.032	-0.175	0.081
-261.209	-200.000	0.028	0.619
-260.195	800.000	0.072	0.232
-259.180	-36.729	-0.195	0.103
-258.165	86.898	0.326	0.355
-257.151	-72.835	0.143	-0.052
-256.136	-99.670	-0.407	-0.101
-255.122	-92.512	0.167	-0.046
-254.107	-11.901	0.324	-0.209
-253.092	64.989	0.114	0.114
-252.078	385.847	0.082	-0.167
-251.063	81.492	0.072	0.077
-250.049	453.372	-0.103	-0.223
-249.034	800.000	0.083	0.297
-248.019	-27.246	-0.207	-0.118
-247.005	-79.907	-0.237	0.078
-245.990	800.000	0.011	0.033
-244.976	-123.167	-0.558	0.088
-243.961	-81.989	0.236	0.076
-242.946	-106.633	-0.066	0.014
-241.932	219.495	0.115	0.182
-240.917	-192.336	-0.139	-0.001
-239.903	-87.621	0.235	0.070
-238.888	5.074	-0.290	-0.210
-237.873	-109.315	0.132	0.027
-236.859	800.000	0.027	-0.102
-235.844	97.361	0.061	0.069
-234.830	-200.000	0.070	-0.477
-233.815	-83.915	0.149	-0.047
-232.800	44.114	-0.043	0.038
-231.786	-38.222	-0.347	-0.181
-230.771	-200.000	-0.018	0.245
-229.757	-28.789	0.384	0.217
-228.742	-79.890	0.037	-0.012
-227.727	-200.000	0.036	-0.298
-226.713	-121.084	-0.076	0.012
-225.698	29.778	-0.194	-0.163
-224.684	-79.107	0.339	0.113
-223.669	-142.020	0.107	0.010
-222.655	-140.852	0.139	-0.014
-221.640	-200.000	-0.027	0.176
-220.625	-200.000	-0.019	-0.138
-219.611	-123.881	0.275	0.043
-218.596	-123.452	-0.091	0.014
-217.582	800.000	0.092	0.263
-216.567	96.493	-0.083	0.094
-215.552	104.210	0.198	0.228
-214.538	-122.063	0.216	0.035
-213.523	-106.226	-0.058	0.013
-212.509	-38.886	0.269	-0.139
-211.494	796.111	0.049	0.134
-210.479	-200.000	-0.009	-0.157
-209.465	144.582	0.086	0.113
-208.450	-200.000	0.051	-0.288
-207.436	311.217	0.092	-0.168
-206.421	800.000	0.119	0.471
-205.406	-66.663	-0.219	0.085
-204.392	241.231	0.200	0.329
-203.377	-122.054	-0.353	-0.057
-202.363	-47.179	0.348	-0.167
-201.348	-200.000	0.052	-0.403
-200.333	-78.751	0.106	0.035
-199.319	-6.859	0.384	-0.256
-198.304	397.389	-0.102	-0.209
-197.290	-79.512	0.276	-0.092
-196.275	-200.000	-0.053	0.266
-195.260	437.296	0.033	0.071
-194.246	-53.919	0.319	0.143
-193.231	-119.324	-0.407	0.069
-192.217	136.493	0.152	0.194
-191.202	9.281	-0.212	0.158
-190.187	-134.879	0.472	0.056
-189.173	45.081	-0.019	0.018
-188.158	47.808	-0.092	0.085
-187.144	-200.000	-0.042	0.253
-186.129	-174.925	0.255	0.007
-185.114	27.543	0.041	0.034
-184.100	372.869	0.084	0.167
-183.085	-123.042	0.152	0.024
-182.071	233.116	-0.072	-0.116
-181.056	192.424	0.191	-0.283
-180.042	322.447	0.082	-0.153
-179.027	-9.288	0.255	0.167
-178.012	800.000	-0.064	-0.210
-176.998	-49.143	0.135	0.063
-175.983	800.000	-0.085	-0.253
-174.969	-148.513	-0.163	0.013
-173.954	-200.000	0.023	0.143
-172.939	784.673	0.103	0.277
-171.925	-200.000	0.035	-0.262
-170.910	142.326	-0.159	-0.206
-169.896	187.229	0.120	-0.176
-168.881	606.372	0.021	0.052
-167.866	353.960	0.204	-0.397
-166.852	63.837	0.108	0.107
-165.837	-66.237	0.047	-0.018
-164.823	466.656	0.182	0.400
-163.808	-22.856	-0.109	0.064
-162.793	-134.772	-0.071	-0.008
-161.779	-95.430	-0.167	-0.044
-160.764	-35.247	-0.277	0.148
-159.750	-200.000	-0.005	-0.079
-158.735	-16.653	0.147	0.091
-157.720	-122.849	0.188	-0.030
-156.706	-28.839	-0.133	0.075
-155.691	-156.877	0.321	0.019
-154.677	-159.421	-0.115	0.006
-153.662	268.724	0.029	-0.050
-152.647	181.671	-0.192	-0.277
-151.633	71.742	-0.082	-0.084
-150.618	-200.000	0.001	-0.054
-149.604	-108.557	-0.118	-0.025
-148.589	-154.902	0.306	0.020
-147.574	-57.950	0.085	-0.036
-146.560	496.300	0.128	0.289
-145.545	-200.000	0.052	-0.233
-144.531	133.996	-0.216	-0.275
-143.516	-197.528	0.287	-0.002
-142.502	-63.031	0.481	0.195
-141.487	-78.588	0.365	0.122
-140.472	800.000	-0.032	0.134
-139.458	290.527	0.094	0.167
-138.443	-83.145	0.211	0.066
-137.429	800.000	0.076	-0.218
-136.414	-113.079	-0.178	0.034
-135.399	-200.000	-0.005	-0.032
-134.385	217.124	-0.186	-0.290
-133.370	-16.995	0.149	-0.092
-132.356	-27.128	-0.133	0.076
-131.341	-95.691	-0.111	-0.029
-130.326	-200.000	-0.053	0.459
-129.312	645.067	-0.063	-0.157
-128.297	126.147	0.144	0.178
-127.283	800.000	0.044	0.152
-126.268	-38.743	0.056	-0.029
-125.253	-25.837	0.083	0.048
-124.239	800.000	0.059	-0.160
-123.224	448.467	0.127	0.274
-122.210	800.000	0.086	0.250
