DTS Sentinel unit serial number:	SN413079Multiplexer serial number:	ORYXHardware model number:	OX4-SRSoftware version number:	ORYX F/W v4.00 Oryx Data Collector v3.7.2.0data status	okinstallation	princeton_trtdifferential loss correction	single-endedforward channel	channel 3reverse channel	N/Adate	2019/09/13time	18:16:35forward acquisition time	60.00reverse acquisition time	0.00gamma	496.2192k internal	0.2311k external	0.2311temperature offset calibration	1.0116default loss term (dB/km)	0.3790temperature slope calibration	1.0000multiplexer offset coefficient	1.0000multiplexer slope coefficient	1.0000fibre end	0.00T internal ref (°C)	34.14T ext. ref 1 (°C)	4.43T ext. ref 2 (°C)	27.04length (m)	temperature (°C)	Stokes	anti-Stokes-747.200	490.314	0.168	0.391
-746.185	704.169	-0.154	0.412
-745.171	-200.000	0.025	0.479
-744.156	-117.460	-0.303	0.056
-743.142	-33.178	0.183	0.103
-742.127	63.841	-0.270	-0.275
-741.112	-150.578	0.030	-0.002
-740.098	-200.000	-0.054	0.246
-739.083	405.381	-0.146	-0.313
-738.069	343.585	-0.084	-0.168
-737.054	81.014	0.185	0.203
-736.039	154.185	0.055	-0.077
-735.025	800.000	-0.104	0.312
-734.010	32.399	-0.175	-0.153
-732.996	-200.000	0.034	-0.182
-731.981	90.008	-0.207	0.235
-730.966	-97.345	-0.338	0.089
-729.952	-38.213	-0.204	0.109
-728.937	264.904	-0.076	-0.134
-727.923	-40.514	-0.253	0.133
-726.908	173.717	-0.094	0.138
-725.894	275.573	-0.088	0.159
-724.879	205.170	-0.148	0.233
-723.864	168.453	-0.181	0.261
-722.850	-200.000	0.017	0.210
-721.835	-84.636	-0.431	-0.138
-720.821	-128.721	0.398	-0.057
-719.806	-200.000	0.009	-0.041
-718.791	-48.594	0.142	-0.069
-717.777	-88.162	0.037	0.011
-716.762	-48.108	-0.292	0.143
-715.748	155.336	-0.242	-0.338
-714.733	-45.390	0.162	-0.081
-713.718	-36.947	-0.197	0.107
-712.704	800.000	0.058	-0.213
-711.689	131.510	0.035	0.045
-710.675	13.655	0.249	-0.196
-709.660	275.866	-0.161	-0.290
-708.645	800.000	0.064	0.275
-707.631	161.887	-0.098	-0.139
-706.616	-67.657	0.112	0.044
-705.602	85.199	-0.077	-0.086
-704.587	546.514	0.077	-0.186
-703.572	641.479	-0.030	-0.077
-702.558	-200.000	0.034	0.239
-701.543	23.437	0.062	0.051
-700.529	265.252	-0.100	0.176
-699.514	800.000	-0.048	0.213
-698.499	127.456	0.081	-0.104
-697.485	-200.000	-0.022	0.138
-696.470	-200.000	0.011	-0.074
-695.456	-133.083	-0.344	-0.044
-694.441	408.825	0.139	0.299
-693.426	209.433	-0.059	0.093
-692.412	259.126	0.276	0.482
-691.397	-91.278	0.191	0.055
-690.383	181.709	-0.073	-0.109
-689.368	1.719	-0.244	-0.178
-688.354	-200.000	-0.387	-0.000
-687.339	374.095	-0.047	-0.098
-686.324	-169.659	0.107	-0.004
-685.310	-54.960	0.365	0.167
-684.295	800.000	0.022	0.083
-683.281	-74.238	-0.383	0.140
-682.266	800.000	0.042	0.158
-681.251	-51.183	-0.329	0.156
-680.237	-200.000	-0.005	-0.134
-679.222	214.470	0.127	0.204
-678.208	-99.020	-0.019	-0.005
-677.193	-83.654	-0.231	0.075
-676.178	-52.028	-0.346	-0.163
-675.164	-89.232	0.119	-0.036
-674.149	-104.893	-0.458	0.106
-673.135	-15.470	-0.102	-0.066
-672.120	-200.000	0.041	-0.224
-671.105	800.000	0.032	-0.093
-670.091	-89.933	-0.176	-0.052
-669.076	-47.412	-0.332	-0.163
-668.062	-200.000	0.060	0.283
-667.047	-96.693	0.221	-0.059
-666.032	182.028	-0.107	0.160
-665.018	-5.371	0.086	-0.060
-664.003	-179.815	-0.228	-0.005
-662.989	-173.206	-0.140	0.004
-661.974	-141.088	-0.200	-0.021
-660.959	800.000	0.060	-0.219
-659.945	-110.183	-0.177	0.037
-658.930	0.463	-0.140	-0.101
-657.916	181.232	0.144	0.214
-656.901	66.502	-0.065	0.067
-655.886	-117.105	-0.141	-0.026
-654.872	303.142	-0.124	0.231
-653.857	25.438	0.276	0.232
-652.843	-81.781	-0.171	0.057
-651.828	176.661	-0.208	-0.306
-650.814	-115.230	-0.046	0.009
-649.799	800.000	-0.030	-0.130
-648.784	14.337	0.104	-0.082
-647.770	-136.033	-0.164	-0.020
-646.755	-74.302	-0.105	0.038
-645.741	-24.849	-0.236	0.142
-644.726	-200.000	-0.005	-0.122
-643.711	-1.215	-0.131	-0.094
-642.697	15.909	0.256	-0.204
-641.682	-82.352	-0.238	-0.078
-640.668	-200.000	0.006	0.205
-639.653	-0.687	-0.167	0.120
-638.638	-200.000	0.021	-0.331
-637.624	800.000	-0.086	0.309
-636.609	-71.087	-0.252	-0.096
-635.595	-42.374	-0.023	0.012
-634.580	800.000	-0.065	0.183
-633.565	-89.041	0.180	-0.054
-632.551	-102.158	-0.246	0.060
-631.536	160.059	-0.116	0.163
-630.522	82.116	-0.092	0.101
-629.507	776.454	0.058	-0.161
-628.492	-166.432	0.628	0.027
-627.478	-81.593	-0.402	-0.133
-626.463	245.228	-0.106	-0.179
-625.449	-135.680	0.364	0.044
-624.434	79.202	-0.040	-0.043
-623.419	-46.690	0.093	0.046
-622.405	-40.125	-0.266	-0.140
-621.390	-200.000	0.003	0.190
-620.376	116.760	0.018	-0.022
-619.361	-169.209	-0.208	-0.008
-618.346	87.565	-0.078	-0.087
-617.332	800.000	0.019	0.059
-616.317	24.243	-0.223	0.186
-615.303	-1.979	-0.225	-0.160
-614.288	-11.145	0.088	0.059
-613.273	-16.117	0.281	0.180
-612.259	528.217	0.046	0.109
-611.244	-64.664	-0.121	0.049
-610.230	35.053	-0.082	0.072
-609.215	-29.134	0.158	0.092
-608.201	64.610	0.120	-0.123
-607.186	-99.204	-0.096	-0.024
-606.171	-65.871	-0.035	-0.014
-605.157	-103.934	-0.164	-0.039
-604.142	-18.415	0.390	0.246
-603.128	-19.678	-0.308	-0.192
-602.113	-89.907	0.319	0.094
-601.098	-119.155	-0.204	0.036
-600.084	-200.000	0.056	-0.379
-599.069	-36.870	0.121	0.065
-598.055	-200.000	-0.004	0.117
-597.040	12.074	-0.146	0.113
-596.025	-200.000	-0.036	0.222
-595.011	249.182	0.100	-0.172
-593.996	9.024	-0.219	0.166
-592.982	-200.000	0.015	0.225
-591.967	-123.349	0.052	-0.008
-590.952	39.070	-0.350	0.316
-589.938	800.000	-0.061	-0.222
-588.923	97.986	0.118	-0.137
-587.909	6.859	-0.306	-0.230
-586.894	-185.674	0.406	0.006
-585.879	800.000	0.103	0.333
-584.865	-133.462	0.321	-0.041
-583.850	-45.189	0.172	0.086
-582.836	-50.594	0.165	0.078
-581.821	-31.149	-0.077	-0.044
-580.806	-89.967	0.264	0.078
-579.792	-64.521	0.395	0.162
-578.777	-50.708	-0.413	-0.196
-577.763	180.888	0.095	0.140
-576.748	-78.571	-0.216	0.074
-575.733	-129.004	-0.416	0.059
-574.719	-200.000	0.006	-0.067
-573.704	105.083	-0.186	-0.221
-572.690	-137.611	-0.121	0.014
-571.675	62.070	0.185	-0.186
-570.661	354.599	0.046	0.093
-569.646	-131.517	0.345	-0.046
-568.631	361.825	-0.108	-0.218
-567.617	-30.050	0.284	-0.163
-566.602	-14.488	-0.281	0.182
-565.588	-200.000	0.009	-0.192
-564.573	235.078	-0.160	-0.267
-563.558	407.906	-0.091	-0.195
-562.544	580.373	-0.085	0.209
-561.529	-200.000	-0.001	0.233
-560.515	-200.000	-0.001	0.132
-559.500	195.473	-0.028	-0.043
-558.485	29.262	-0.071	0.061
-557.471	-70.209	0.100	-0.038
-556.456	-200.000	0.010	-0.131
-555.442	-126.354	-0.361	-0.054
-554.427	800.000	-0.098	-0.388
-553.412	92.527	-0.154	0.175
-552.398	800.000	-0.017	0.071
-551.383	15.645	-0.137	-0.109
-550.369	-103.778	-0.408	-0.096
-549.354	-37.732	0.423	0.227
-548.339	-200.000	-0.002	-0.039
-547.325	122.670	0.057	-0.072
-546.310	3.879	-0.162	0.119
-545.296	-200.000	0.053	-0.234
-544.281	-75.449	-0.201	-0.072
-543.266	-7.450	-0.171	0.116
-542.252	-80.828	0.183	-0.061
-541.237	214.977	-0.132	-0.211
-540.223	21.251	0.183	-0.149
-539.208	-200.000	0.063	-0.343
-538.193	-101.563	-0.035	0.009
-537.179	-200.000	0.031	-0.150
-536.164	14.379	0.160	0.126
-535.150	-98.113	-0.062	-0.016
-534.135	252.949	-0.132	-0.227
-533.121	-157.693	-0.065	0.004
-532.106	800.000	-0.089	0.281
-531.091	577.143	-0.064	0.158
-530.077	-200.000	-0.014	-0.151
-529.062	13.076	0.072	0.056
-528.048	-179.982	0.093	-0.002
-527.033	-59.401	0.146	0.063
-526.018	-200.000	-0.001	0.061
-525.004	38.589	-0.292	0.262
-523.989	207.349	-0.262	-0.412
-522.975	60.646	0.122	-0.122
-521.960	389.863	-0.152	0.317
-520.945	197.618	0.103	-0.159
-519.931	-5.738	-0.202	0.139
-518.916	-1.139	0.286	-0.203
-517.902	-156.020	-0.243	-0.016
-516.887	196.007	-0.176	-0.270
-515.872	40.516	-0.066	0.060
-514.858	-92.558	-0.205	0.058
-513.843	-71.922	0.183	-0.069
-512.829	31.418	0.053	-0.046
-511.814	76.725	-0.131	0.140
-510.799	66.851	0.103	-0.105
-509.785	-96.366	0.212	-0.056
-508.770	-200.000	0.026	0.179
-507.756	800.000	-0.103	-0.288
-506.741	37.121	0.160	0.142
-505.726	-200.000	-0.008	-0.043
-504.712	288.627	-0.131	-0.238
-503.697	72.882	-0.232	-0.243
-502.683	-110.154	-0.259	0.054
-501.668	-6.935	-0.130	0.089
-500.653	283.772	0.154	0.278
-499.639	249.395	0.077	0.131
-498.624	-200.000	-0.038	-0.233
-497.610	-141.624	0.089	-0.009
-496.595	-200.000	-0.011	0.474
-495.581	59.293	-0.026	0.025
-494.566	-50.776	-0.133	0.063
-493.551	-155.508	-0.033	-0.002
-492.537	223.603	-0.071	-0.116
-491.522	-188.830	-0.262	0.003
-490.508	-80.476	0.225	-0.075
-489.493	225.990	-0.176	0.287
-488.478	8.744	0.060	-0.045
-487.464	779.884	0.056	0.155
-486.449	-200.000	-0.065	-0.331
-485.435	-200.000	0.034	-0.156
-484.420	539.242	0.107	0.256
-483.405	91.002	-0.026	-0.029
-482.391	235.740	-0.163	0.271
-481.376	570.254	-0.123	0.300
-480.362	800.000	-0.023	0.091
-479.347	-51.395	-0.204	0.096
-478.332	140.254	0.080	0.106
-477.318	800.000	0.076	-0.311
-476.303	800.000	-0.019	-0.052
-475.289	-169.287	0.143	0.005
-474.274	-80.510	-0.137	-0.046
-473.259	-200.000	-0.002	0.624
-472.245	163.487	-0.176	-0.249
-471.230	738.678	0.094	-0.252
-470.216	800.000	0.091	0.263
-469.201	-57.542	0.230	0.101
-468.186	800.000	-0.072	0.229
-467.172	-114.551	0.246	-0.047
-466.157	182.249	0.052	-0.076
-465.143	-200.000	0.004	-0.386
-464.128	375.718	-0.012	0.024
-463.113	87.602	-0.157	-0.175
-462.099	-95.252	0.174	-0.047
-461.084	-121.478	-0.130	0.022
-460.070	535.053	-0.063	0.149
-459.055	244.031	0.150	0.253
-458.040	-42.350	-0.086	-0.044
-457.026	-120.422	-0.143	-0.024
-456.011	69.168	-0.192	0.199
-454.997	-42.754	-0.062	-0.031
-453.982	800.000	-0.073	-0.249
-452.968	265.170	0.067	0.118
-451.953	-171.686	-0.188	-0.006
-450.938	-200.000	-0.029	0.129
-449.924	76.702	-0.201	0.214
-448.909	-200.000	0.008	0.095
-447.895	800.000	-0.039	0.146
-446.880	-180.801	-0.157	0.003
-445.865	106.304	-0.076	0.090
-444.851	277.842	0.054	0.096
-443.836	-200.000	0.011	-0.051
-442.822	-50.053	0.191	0.091
-441.807	113.743	-0.304	-0.370
-440.792	-131.772	-0.130	-0.017
-439.778	-200.000	0.035	0.485
-438.763	-148.746	0.107	-0.009
-437.749	-33.921	-0.204	-0.113
-436.734	-11.112	0.011	-0.007
-435.719	-182.300	-0.367	0.007
-434.705	73.009	-0.197	0.206
-433.690	-123.677	0.069	-0.011
-432.676	-13.241	-0.105	0.068
-431.661	-200.000	-0.054	-0.441
-430.646	-38.644	-0.159	0.084
-429.632	-200.000	0.022	-0.133
-428.617	-200.000	-0.012	-0.097
-427.603	-89.587	-0.301	-0.089
-426.588	346.808	-0.197	0.389
-425.573	-8.992	0.164	-0.110
-424.559	800.000	-0.055	-0.236
-423.544	-39.100	0.223	-0.118
-422.530	81.641	-0.086	-0.094
-421.515	-147.577	0.051	0.004
-420.500	86.529	-0.210	-0.233
-419.486	800.000	0.055	-0.198
-418.471	-6.072	0.155	0.106
-417.457	800.000	-0.026	0.083
-416.442	-85.359	0.353	0.110
-415.428	204.808	-0.049	0.076
-414.413	800.000	-0.072	0.263
-413.398	133.573	0.161	0.209
-412.384	83.046	-0.162	0.177
-411.369	332.457	0.033	0.064
-410.355	-77.966	0.236	-0.082
-409.340	632.464	-0.031	-0.078
-408.325	-200.000	0.010	-0.329
-407.311	59.597	0.262	0.258
-406.296	245.745	0.123	-0.207
-405.282	14.211	0.155	-0.121
-404.267	800.000	0.102	0.316
-403.252	-200.000	0.017	0.143
-402.238	-200.000	0.001	-0.053
-401.223	-37.707	0.340	-0.181
-400.209	75.966	0.233	-0.246
-399.194	121.656	0.073	-0.091
-398.179	49.041	0.063	-0.059
-397.165	-93.282	0.409	-0.114
-396.150	-145.499	0.364	-0.033
-395.136	800.000	0.153	-0.439
-394.121	800.000	-0.109	-0.343
-393.106	-34.291	0.108	0.059
-392.092	60.323	0.130	-0.129
-391.077	-140.775	0.420	0.043
-390.063	-117.917	-0.296	-0.053
-389.048	-128.707	-0.110	0.016
-388.033	800.000	-0.048	0.171
-387.019	-48.363	0.283	-0.137
-386.004	-21.972	-0.200	-0.122
-384.990	-111.193	0.173	0.035
-383.975	73.848	-0.091	0.096
-382.960	800.000	-0.052	-0.212
-381.946	-120.752	0.403	0.068
-380.931	-13.204	-0.248	-0.161
-379.917	-108.677	0.092	-0.020
-378.902	336.440	-0.024	-0.047
-377.888	-46.113	-0.125	0.062
-376.873	-154.215	0.167	-0.011
-375.858	800.000	0.056	-0.180
-374.844	72.092	-0.113	0.117
-373.829	-70.084	0.122	-0.046
-372.815	48.892	-0.114	-0.107
-371.800	90.313	-0.019	0.021
-370.785	-200.000	-0.015	-0.128
-369.771	14.598	0.188	-0.147
-368.756	121.842	0.355	0.443
-367.742	800.000	-0.012	-0.045
-366.727	300.967	0.104	-0.192
-365.712	317.228	0.125	0.236
-364.698	-168.295	-0.243	0.009
-363.683	-200.000	-0.021	-0.194
-362.669	156.508	0.086	-0.119
-361.654	-74.882	0.358	0.128
-360.639	535.728	-0.042	-0.100
-359.625	800.000	0.055	-0.213
-358.610	54.633	-0.143	-0.138
-357.596	-114.763	0.186	0.036
-356.581	259.668	0.223	-0.384
-355.566	-1.308	-0.130	0.092
-354.552	279.856	0.030	-0.053
-353.537	185.838	0.074	-0.110
-352.523	-97.026	-0.146	-0.038
-351.508	800.000	0.083	0.238
-350.493	-63.604	-0.214	-0.088
-349.479	659.080	0.109	0.281
-348.464	-95.735	0.265	0.071
-347.450	122.700	0.262	0.328
-346.435	352.730	0.087	-0.172
-345.420	800.000	-0.116	0.459
-344.406	800.000	-0.088	0.295
-343.391	-199.698	-0.187	-0.001
-342.377	9.807	-0.029	0.022
-341.362	-200.000	-0.023	-0.197
-340.348	455.436	0.090	0.199
-339.333	90.971	0.075	0.084
-338.318	-95.899	0.122	-0.032
-337.304	-21.275	-0.250	-0.153
-336.289	-76.420	-0.138	-0.048
-335.275	800.000	0.057	0.196
-334.260	129.816	-0.124	0.159
-333.245	-200.000	0.016	-0.081
-332.231	88.488	0.147	-0.163
-331.216	572.325	-0.098	0.239
-330.202	319.047	0.063	0.120
-329.187	-113.596	-0.081	-0.016
-328.172	-66.052	-0.133	-0.053
-327.158	-93.884	0.188	-0.052
-326.143	-120.385	0.244	-0.041
-325.129	-61.855	-0.208	-0.087
-324.114	800.000	-0.107	0.308
-323.099	-92.147	0.257	0.072
-322.085	-200.000	0.052	-0.323
-321.070	-200.000	0.071	0.426
-320.056	-42.434	-0.175	0.089
-319.041	223.500	0.145	0.234
-318.026	-27.138	-0.139	0.081
-317.012	-116.323	0.128	-0.024
-315.997	-200.000	0.041	-0.339
-314.983	-57.616	0.162	0.071
-313.968	-108.810	0.141	0.030
-312.953	37.466	0.153	0.135
-311.939	624.695	-0.096	0.241
-310.924	445.967	0.058	-0.128
-309.910	-44.350	0.218	-0.109
-308.895	-18.775	0.103	0.064
-307.880	578.127	0.149	0.363
-306.866	-111.210	-0.307	0.063
-305.851	-73.862	0.239	0.087
-304.837	-128.797	-0.085	-0.012
-303.822	270.118	-0.037	0.065
-302.807	-47.802	0.062	-0.030
-301.793	529.575	-0.103	0.243
-300.778	206.475	0.072	-0.112
-299.764	800.000	0.078	-0.243
-298.749	114.097	0.103	-0.126
-297.735	73.005	-0.153	0.159
-296.720	-151.289	-0.144	-0.011
-295.705	-127.152	-0.254	-0.037
-294.691	52.769	0.338	0.322
-293.676	130.711	-0.198	0.253
-292.662	542.801	0.049	0.117
-291.647	-174.740	0.300	0.008
-290.632	65.226	-0.279	0.281
-289.618	-63.544	-0.304	0.124
-288.603	-35.398	0.372	-0.202
-287.589	-200.000	0.018	0.335
-286.574	800.000	0.060	0.173
-285.559	-149.474	-0.154	-0.012
-284.545	138.501	0.216	-0.283
-283.530	14.152	-0.150	0.116
-282.516	93.478	-0.203	0.229
-281.501	-50.964	-0.425	-0.199
-280.486	-33.879	0.247	-0.136
-279.472	-29.554	-0.081	0.046
-278.457	231.612	-0.112	-0.184
-277.443	75.537	-0.382	0.402
-276.428	144.914	-0.089	0.119
-275.413	-200.000	0.014	-0.118
-274.399	-129.372	0.339	-0.047
-273.384	9.734	-0.221	0.167
-272.370	-43.475	0.285	0.143
-271.355	-43.965	-0.120	0.060
-270.340	-78.798	-0.157	0.053
-269.326	-58.016	-0.158	0.069
-268.311	-95.547	-0.229	-0.061
-267.297	74.273	0.217	0.227
-266.282	-187.801	0.369	-0.005
-265.267	250.143	-0.301	0.509
-264.253	647.565	0.114	0.290
-263.238	-63.972	0.298	-0.121
-262.224	-200.000	-0.015	-0.156
-261.209	-200.000	-0.031	-0.222
-260.195	59.157	-0.112	-0.110
-259.180	-34.742	0.126	-0.069
-258.165	-54.450	-0.398	0.180
-257.151	360.784	-0.064	0.127
-256.136	767.311	0.074	0.201
-255.122	-159.111	0.180	0.010
-254.107	-93.074	-0.311	0.086
-253.092	172.155	-0.155	-0.222
-252.078	3.427	0.282	-0.205
-251.063	268.641	-0.063	0.110
-250.049	18.379	-0.088	-0.070
-249.034	226.444	0.167	0.270
-248.019	34.596	-0.041	0.035
-247.005	200.808	-0.039	0.059
-245.990	-200.000	-0.010	0.146
-244.976	-36.090	0.216	-0.116
-243.961	58.880	0.187	0.183
-242.946	47.414	-0.067	0.062
-241.932	-81.424	0.376	-0.123
-240.917	60.403	-0.046	0.045
-239.903	-2.431	-0.183	-0.128
-238.888	-200.000	0.002	-0.093
-237.873	-200.000	-0.073	-0.391
-236.859	308.581	-0.049	0.092
-235.844	-142.559	0.246	-0.024
-234.830	-8.501	0.092	0.062
-233.815	318.019	0.084	-0.158
-232.800	800.000	-0.040	0.121
-231.786	88.013	-0.174	-0.192
-230.771	7.594	-0.387	-0.288
-229.757	-131.463	0.132	0.017
-228.742	800.000	0.043	0.146
-227.727	155.302	0.079	-0.108
-226.713	-85.506	-0.191	0.059
-225.698	168.020	0.081	-0.114
-224.684	800.000	-0.035	-0.113
-223.669	209.128	-0.066	-0.103
-222.655	-79.643	0.141	0.047
-221.640	-159.561	-0.160	-0.009
-220.625	800.000	0.084	0.295
-219.611	-168.441	-0.330	0.013
-218.596	-200.000	0.012	-0.140
-217.582	-42.916	-0.024	-0.012
-216.567	800.000	0.077	-0.220
-215.552	-200.000	0.004	-0.064
-214.538	-200.000	0.035	-0.339
-213.523	159.850	-0.195	-0.270
-212.509	-106.255	0.181	-0.040
-211.494	55.539	0.171	0.164
-210.479	-200.000	0.053	0.384
-209.465	-200.000	-0.035	0.259
-208.450	-144.164	0.059	-0.005
-207.436	-155.976	0.256	0.016
-206.421	-36.406	0.184	-0.098
-205.406	27.678	0.242	0.203
-204.392	-48.624	-0.062	-0.030
-203.377	800.000	-0.089	-0.275
-202.363	-108.802	0.083	-0.018
-201.348	-200.000	0.034	0.243
-200.333	-137.676	-0.245	0.027
-199.319	353.739	0.158	-0.312
-198.304	-200.000	-0.043	-0.258
-197.290	253.728	-0.069	-0.117
-196.275	153.098	0.249	0.338
-195.260	115.298	-0.118	-0.144
-194.246	-106.988	-0.102	0.022
-193.231	-99.715	-0.316	-0.079
-192.217	697.422	-0.113	-0.294
-191.202	800.000	0.091	0.286
-190.187	229.422	-0.042	-0.068
-189.173	616.201	-0.103	-0.258
-188.158	-157.695	0.301	0.018
-187.144	-178.797	0.042	-0.001
-186.129	-20.283	0.270	0.165
-185.114	-178.902	0.161	-0.004
-184.100	-200.000	-0.003	0.051
-183.085	-18.839	0.151	-0.094
-182.071	-200.000	0.004	0.271
-181.056	-75.011	-0.161	0.057
-180.042	-200.000	0.024	0.393
-179.027	-200.000	0.014	-0.175
-178.012	-200.000	0.003	0.023
-176.998	-117.429	0.349	-0.063
-175.983	139.063	-0.063	-0.082
-174.969	1.550	0.122	-0.087
-173.954	178.222	-0.065	-0.095
-172.939	86.121	0.345	-0.377
-171.925	-200.000	-0.004	0.130
-170.910	800.000	0.029	-0.087
-169.896	198.572	-0.162	-0.245
-168.881	-200.000	0.019	0.117
-167.866	-42.959	0.072	-0.036
-166.852	-18.842	-0.112	-0.069
-165.837	61.143	-0.118	0.116
-164.823	50.181	-0.297	-0.278
-163.808	-140.617	0.273	0.028
-162.793	-116.228	0.239	-0.044
-161.779	278.784	0.220	-0.390
-160.764	16.110	0.322	-0.251
-159.750	22.234	-0.188	0.153
-158.735	-200.000	-0.016	-0.181
-157.720	-200.000	-0.041	-0.220
-156.706	-71.740	-0.178	-0.066
-155.691	-42.969	-0.166	0.084
-154.677	69.866	0.174	-0.178
-153.662	-200.000	0.045	-0.283
-152.647	-200.000	0.000	0.191
-151.633	-85.591	-0.074	0.023
-150.618	-80.174	-0.163	-0.054
-149.604	336.383	-0.111	0.215
-148.589	-200.000	0.009	0.329
-147.574	256.993	0.059	-0.100
-146.560	-77.438	0.121	-0.042
-145.545	-63.010	0.080	-0.033
-144.531	-169.494	0.330	-0.012
-143.516	29.881	-0.230	-0.195
-142.502	-131.785	0.149	0.019
-141.487	258.330	0.049	0.084
-140.472	-79.090	0.044	0.015
-139.458	-200.000	-0.046	-0.283
-138.443	46.778	-0.111	-0.102
-137.429	-157.691	0.093	-0.005
-136.414	-193.200	0.112	0.001
-135.399	-33.282	-0.300	0.164
-134.385	118.280	0.110	0.135
-133.370	576.887	-0.108	-0.262
-132.356	-21.117	0.190	0.115
-131.341	-200.000	0.006	-0.109
-130.326	264.835	-0.068	0.118
-129.312	72.963	-0.052	0.054
-128.297	342.923	-0.117	-0.227
-127.283	113.848	0.175	-0.211
-126.268	7.143	0.269	-0.199
-125.253	-200.000	0.018	-0.355
-124.239	-126.415	0.319	-0.047
-123.224	-106.392	-0.290	-0.064
-122.210	-74.048	0.210	0.075
