DTS Sentinel unit serial number:	SN413079Multiplexer serial number:	ORYXHardware model number:	OX4-SRSoftware version number:	ORYX F/W v4.00 Oryx Data Collector v3.7.2.0data status	okinstallation	princeton_trtdifferential loss correction	single-endedforward channel	channel 3reverse channel	N/Adate	2019/09/18time	15:52:35forward acquisition time	60.00reverse acquisition time	0.00gamma	496.2192k internal	0.2295k external	0.2295temperature offset calibration	0.9978default loss term (dB/km)	0.3790temperature slope calibration	1.0000multiplexer offset coefficient	1.0000multiplexer slope coefficient	1.0000fibre end	0.00T internal ref (°C)	36.80T ext. ref 1 (°C)	0.80T ext. ref 2 (°C)	35.60length (m)	temperature (°C)	Stokes	anti-Stokes-747.200	-200.000	-0.005	-0.047
-746.185	134.381	-0.257	0.340
-745.171	-200.000	0.016	0.110
-744.156	-200.000	-0.031	0.447
-743.142	123.394	0.259	0.332
-742.127	14.712	-0.096	0.077
-741.112	-46.260	-0.142	-0.071
-740.098	151.235	-0.100	0.139
-739.083	-9.784	0.173	0.118
-738.069	-10.230	-0.053	0.036
-737.054	-41.070	-0.302	-0.160
-736.039	50.529	-0.197	0.191
-735.025	463.557	0.102	0.233
-734.010	-33.471	-0.016	-0.009
-732.996	81.943	-0.126	0.139
-731.981	-99.935	-0.083	-0.021
-730.966	-91.874	0.327	0.095
-729.952	-200.000	-0.042	-0.638
-728.937	-200.000	0.024	-0.162
-727.923	-100.392	-0.229	-0.058
-726.908	43.682	-0.206	-0.193
-725.894	-200.000	-0.032	0.170
-724.879	29.631	0.192	0.166
-723.864	51.564	-0.100	0.097
-722.850	-143.208	-0.012	-0.001
-721.835	3.908	-0.083	-0.062
-720.821	85.757	-0.084	0.094
-719.806	-200.000	-0.020	-0.284
-718.791	-126.519	-0.191	0.029
-717.777	-200.000	-0.036	0.196
-716.762	-73.964	0.210	0.078
-715.748	63.962	-0.063	0.065
-714.733	45.593	-0.144	0.136
-713.718	174.982	0.095	0.140
-712.704	-37.542	-0.159	-0.086
-711.689	262.447	0.157	-0.277
-710.675	-200.000	0.005	-0.138
-709.660	-89.602	-0.241	-0.072
-708.645	-31.202	0.144	-0.083
-707.631	-56.625	0.039	-0.018
-706.616	140.266	0.261	0.352
-705.602	-200.000	-0.026	-0.371
-704.587	-174.680	-0.378	-0.011
-703.572	553.132	0.124	-0.303
-702.558	-54.328	-0.485	-0.224
-701.543	88.504	0.235	-0.266
-700.529	-200.000	-0.045	-0.426
-699.514	800.000	0.033	-0.111
-698.499	-200.000	0.019	-0.157
-697.485	381.211	-0.054	-0.114
-696.470	800.000	-0.051	0.201
-695.456	331.555	-0.105	0.207
-694.441	-200.000	-0.033	-0.149
-693.426	-84.828	-0.316	-0.101
-692.412	421.691	0.139	-0.304
-691.397	58.478	0.298	-0.298
-690.383	150.121	0.081	-0.112
-689.368	413.662	-0.096	-0.207
-688.354	-200.000	0.036	-0.330
-687.339	100.600	-0.069	0.081
-686.324	800.000	0.065	0.279
-685.310	622.130	-0.029	-0.075
-684.295	-28.644	0.432	0.254
-683.281	-100.066	0.214	0.054
-682.266	800.000	-0.051	-0.182
-681.251	39.201	0.009	-0.008
-680.237	-116.665	0.265	-0.050
-679.222	-69.830	0.072	0.028
-678.208	83.495	0.156	0.173
-677.193	800.000	0.051	0.208
-676.178	-158.111	-0.102	0.006
-675.164	1.012	-0.092	-0.067
-674.149	-7.799	0.121	0.083
-673.135	-54.116	-0.116	-0.054
-672.120	-49.218	0.357	-0.174
-671.105	-132.533	0.223	-0.029
-670.091	428.843	-0.080	-0.177
-669.076	-20.358	-0.159	0.100
-668.062	315.828	-0.141	-0.271
-667.047	71.167	-0.120	-0.127
-666.032	-51.213	0.121	0.058
-665.018	-104.857	-0.228	0.053
-664.003	-12.833	0.131	-0.087
-662.989	-98.577	-0.232	-0.060
-661.974	10.540	0.114	-0.089
-660.959	92.291	0.215	0.246
-659.945	9.930	0.078	-0.061
-658.930	-136.396	-0.321	0.038
-657.916	-54.728	-0.191	0.088
-656.901	-200.000	0.039	0.275
-655.886	-75.151	0.142	0.052
-654.872	11.387	-0.240	-0.188
-653.857	-7.121	0.337	-0.233
-652.843	560.625	0.057	-0.141
-651.828	-200.000	0.075	-0.388
-650.814	279.011	0.065	-0.119
-649.799	-26.318	-0.273	0.163
-648.784	329.079	0.074	0.145
-647.770	17.452	-0.129	-0.104
-646.755	130.156	-0.225	-0.294
-645.741	-161.791	-0.166	-0.009
-644.726	50.723	-0.067	-0.064
-643.711	80.539	0.193	0.212
-642.697	93.586	0.109	-0.126
-641.682	91.856	0.114	0.131
-640.668	-70.793	-0.434	-0.167
-639.653	39.307	0.312	-0.284
-638.638	559.414	-0.031	0.076
-637.624	-183.241	-0.065	-0.001
-636.609	25.022	-0.106	-0.089
-635.595	159.759	-0.040	0.057
-634.580	-38.539	0.306	0.164
-633.565	-6.738	0.329	0.228
-632.551	776.068	0.048	0.134
-631.536	800.000	0.074	-0.259
-630.522	19.825	-0.198	-0.162
-629.507	-200.000	-0.035	-0.368
-628.492	30.848	0.206	0.180
-627.478	800.000	0.146	-0.468
-626.463	800.000	0.033	0.124
-625.449	244.526	0.093	-0.159
-624.434	45.618	-0.129	-0.121
-623.419	-26.200	0.193	-0.116
-622.405	-200.000	-0.021	-0.241
-621.390	281.300	-0.073	0.133
-620.376	781.136	-0.110	-0.305
-619.361	800.000	0.055	0.181
-618.346	-133.397	-0.189	0.024
-617.332	-87.415	-0.298	-0.092
-616.317	-40.451	0.205	-0.108
-615.303	759.693	0.038	0.104
-614.288	420.190	0.096	-0.209
-613.273	51.152	-0.339	-0.327
-612.259	628.537	0.097	0.249
-611.244	-200.000	0.001	-0.278
-610.230	800.000	-0.043	0.190
-609.215	-161.862	-0.256	-0.013
-608.201	-139.533	-0.201	-0.022
-607.186	-71.302	-0.314	0.120
-606.171	492.627	-0.164	-0.382
-605.157	-78.373	-0.158	0.055
-604.142	57.268	0.181	0.179
-603.128	-139.449	0.386	0.042
-602.113	-91.319	-0.276	0.080
-601.098	-200.000	0.003	-0.206
-600.084	-129.520	0.213	-0.030
-599.069	27.435	-0.166	-0.142
-598.055	15.892	-0.171	-0.137
-597.040	-47.283	-0.120	0.059
-596.025	-97.600	-0.222	-0.058
-595.011	-23.438	-0.127	-0.078
-593.996	-41.923	0.230	0.120
-592.982	800.000	-0.045	0.165
-591.967	-8.718	0.399	-0.272
-590.952	-200.000	0.011	0.316
-589.938	800.000	-0.108	0.333
-588.923	195.943	-0.143	-0.221
-587.909	800.000	0.028	0.089
-586.894	-157.460	-0.292	0.018
-585.879	-52.802	0.091	-0.043
-584.865	-4.097	-0.098	-0.069
-583.850	800.000	0.122	0.384
-582.836	-46.600	0.059	-0.029
-581.821	289.740	0.077	0.142
-580.806	-200.000	-0.081	0.387
-579.792	-200.000	0.032	-0.148
-578.777	-200.000	-0.034	-0.258
-577.763	421.715	-0.126	-0.274
-576.748	-180.053	-0.164	-0.004
-575.733	-60.349	-0.165	0.071
-574.719	512.732	-0.017	0.039
-573.704	-120.676	-0.133	0.023
-572.690	-58.415	-0.293	-0.129
-571.675	14.428	-0.094	0.074
-570.661	-16.830	-0.093	0.060
-569.646	-74.235	0.088	0.032
-568.631	-200.000	0.001	-0.270
-567.617	-89.757	-0.283	-0.084
-566.602	-72.075	-0.165	-0.062
-565.588	-200.000	0.072	-0.391
-564.573	-130.781	0.132	0.018
-563.558	-17.141	0.016	0.010
-562.544	78.718	0.116	-0.125
-561.529	-8.790	-0.082	-0.056
-560.515	-52.732	-0.035	-0.016
-559.500	-200.000	0.001	0.169
-558.485	-57.515	0.203	0.090
-557.471	-200.000	-0.046	-0.375
-556.456	-200.000	-0.030	-0.372
-555.442	-200.000	0.019	-0.333
-554.427	-113.914	0.144	0.028
-553.412	-83.905	0.201	0.065
-552.398	-115.166	-0.345	0.066
-551.383	-21.520	-0.392	0.243
-550.369	218.296	0.206	-0.334
-549.354	202.276	-0.089	-0.140
-548.339	-136.317	0.176	0.021
-547.325	48.468	0.271	-0.257
-546.310	300.030	0.130	-0.242
-545.296	11.308	0.323	-0.251
-544.281	-102.933	-0.048	0.012
-543.266	-169.002	-0.124	0.005
-542.252	-85.877	-0.271	0.085
-541.237	-116.742	0.104	0.019
-540.223	800.000	-0.119	-0.367
-539.208	-66.219	0.169	0.068
-538.193	202.731	0.134	0.211
-537.179	-14.402	-0.135	-0.088
-536.164	-200.000	-0.013	0.110
-535.150	168.473	-0.097	-0.139
-534.135	208.002	-0.138	0.218
-533.121	-182.669	-0.267	-0.005
-532.106	720.463	0.074	0.199
-531.091	-200.000	-0.033	0.197
-530.077	-86.970	0.126	-0.039
-529.062	383.285	-0.110	-0.230
-528.048	68.046	-0.121	-0.125
-527.033	9.104	0.184	0.141
-526.018	-36.031	-0.270	0.148
-525.004	90.264	0.251	0.284
-523.989	-200.000	0.076	0.337
-522.975	-85.856	0.051	0.016
-521.960	-105.974	0.108	0.025
-520.945	800.000	-0.107	0.324
-519.931	800.000	-0.096	-0.368
-518.916	800.000	0.056	-0.167
-517.902	-200.000	0.002	-0.221
-516.887	-35.158	0.085	-0.047
-515.872	-190.056	-0.081	0.001
-514.858	52.828	0.232	-0.225
-513.843	-200.000	-0.069	0.360
-512.829	-50.743	0.283	0.135
-511.814	65.183	-0.097	0.099
-510.799	-138.849	-0.269	0.030
-509.785	-190.528	0.640	0.007
-508.770	-200.000	0.031	0.344
-507.756	375.953	-0.130	-0.268
-506.741	281.551	-0.094	-0.170
-505.726	226.903	0.131	0.215
-504.712	30.444	-0.077	0.066
-503.697	338.562	-0.064	-0.127
-502.683	222.682	0.006	-0.009
-501.668	-60.828	0.148	-0.063
-500.653	674.180	-0.031	-0.082
-499.639	145.740	-0.067	-0.092
-498.624	385.825	0.154	-0.322
-497.610	-200.000	-0.026	-0.167
-496.595	71.750	0.126	0.132
-495.581	-155.905	0.265	-0.017
-494.566	-200.000	0.032	-0.309
-493.551	-180.689	0.042	-0.001
-492.537	27.373	0.149	0.127
-491.522	-90.280	-0.162	-0.048
-490.508	-53.984	-0.267	0.123
-489.493	-2.418	-0.243	-0.173
-488.478	-144.012	-0.261	-0.025
-487.464	279.144	0.221	-0.399
-486.449	-49.461	-0.423	0.204
-485.435	40.563	-0.182	0.166
-484.420	-165.041	-0.396	-0.018
-483.405	-91.941	0.264	-0.076
-482.391	-66.309	-0.229	-0.092
-481.376	80.646	0.213	-0.232
-480.362	-200.000	0.005	0.083
-479.347	-188.332	0.083	0.001
-478.332	-200.000	0.264	0.000
-477.318	280.456	-0.171	-0.309
-476.303	166.689	0.083	0.120
-475.289	253.988	-0.111	0.192
-474.274	800.000	-0.040	0.133
-473.259	-76.343	-0.122	-0.043
-472.245	190.529	0.125	-0.189
-471.230	369.075	0.152	-0.311
-470.216	-18.668	-0.234	0.147
-469.201	-92.305	0.180	0.051
-468.186	-81.247	0.137	-0.046
-467.172	34.493	0.208	0.184
-466.157	-200.000	-0.028	-0.483
-465.143	-128.269	-0.202	0.029
-464.128	-200.000	-0.026	-0.159
-463.113	800.000	0.122	-0.352
-462.099	-80.024	0.286	0.097
-461.084	800.000	0.022	-0.083
-460.070	141.924	0.219	0.293
-459.055	-200.000	-0.027	0.258
-458.040	100.795	0.085	0.100
-457.026	-140.607	-0.131	0.014
-456.011	-71.286	0.275	-0.104
-454.997	-110.714	-0.152	-0.032
-453.982	-32.358	0.235	-0.132
-452.968	-93.555	0.103	-0.029
-451.953	103.324	0.032	-0.038
-450.938	451.670	0.094	0.210
-449.924	-42.877	0.050	-0.026
-448.909	-130.272	-0.243	0.033
-447.895	55.776	0.202	-0.198
-446.880	46.346	-0.114	-0.107
-445.865	76.650	0.165	0.176
-444.851	-120.828	-0.056	-0.010
-443.836	272.003	-0.083	0.149
-442.822	-86.666	0.279	0.086
-441.807	224.520	0.233	0.380
-440.792	99.193	-0.062	0.072
-439.778	74.515	-0.196	-0.208
-438.763	-16.626	-0.329	0.210
-437.749	-87.276	-0.117	0.036
-436.734	-200.000	-0.008	0.044
-435.719	149.690	-0.120	-0.164
-434.705	800.000	-0.071	0.274
-433.690	99.930	0.213	0.249
-432.676	179.725	0.072	-0.106
-431.661	33.684	0.315	-0.277
-430.646	-97.263	-0.298	0.078
-429.632	-70.388	0.278	-0.107
-428.617	63.362	0.102	-0.103
-427.603	109.214	0.120	-0.145
-426.588	-9.996	-0.114	-0.077
-425.573	-149.443	-0.253	0.020
-424.559	-200.000	0.033	-0.288
-423.544	391.901	0.132	-0.276
-422.530	-114.646	0.337	-0.065
-421.515	85.083	0.134	0.148
-420.500	-59.119	-0.079	-0.034
-419.486	800.000	0.066	0.235
-418.471	-130.037	0.428	0.059
-417.457	154.779	0.163	-0.226
-416.442	0.990	0.236	-0.171
-415.428	52.606	0.099	-0.096
-414.413	-93.951	0.190	-0.053
-413.398	221.800	-0.049	0.079
-412.384	-141.454	0.122	0.012
-411.369	-87.552	-0.211	0.065
-410.355	-200.000	0.016	-0.149
-409.340	-49.797	-0.350	0.168
-408.325	-170.280	-0.402	0.014
-407.311	186.662	0.065	-0.097
-406.296	-160.066	-0.300	0.016
-405.282	545.329	-0.055	-0.133
-404.267	-57.309	-0.055	-0.024
-403.252	-143.848	0.201	-0.019
-402.238	-161.253	0.207	0.011
-401.223	33.385	-0.325	0.284
-400.209	40.971	-0.246	-0.224
-399.194	-42.004	0.332	0.171
-398.179	322.003	-0.112	0.215
-397.165	33.294	0.314	0.275
-396.150	-172.496	0.371	-0.012
-395.136	-200.000	0.007	0.064
-394.121	-200.000	-0.041	0.230
-393.106	-71.994	-0.297	0.111
-392.092	-112.552	-0.277	-0.056
-391.077	-52.024	-0.203	-0.095
-390.063	-69.460	-0.053	-0.020
-389.048	348.696	-0.053	0.105
-388.033	68.627	-0.046	0.048
-387.019	517.287	0.035	-0.082
-386.004	-102.069	-0.209	-0.051
-384.990	-50.730	0.211	0.100
-383.975	295.030	-0.181	-0.333
-382.960	-24.853	0.182	-0.109
-381.946	181.818	-0.042	-0.062
-380.931	218.380	0.237	-0.381
-379.917	-88.968	0.102	-0.030
-378.902	-131.097	-0.140	0.019
-377.888	110.651	-0.135	0.164
-376.873	190.229	-0.157	0.238
-375.858	141.275	-0.171	-0.228
-374.844	304.137	0.082	-0.154
-373.829	-48.458	-0.177	-0.086
-372.815	284.402	-0.154	0.280
-371.800	402.065	-0.164	0.347
-370.785	82.549	-0.196	-0.214
-369.771	226.484	0.016	-0.026
-368.756	800.000	0.108	-0.384
-367.742	-200.000	0.028	0.311
-366.727	-70.538	-0.241	-0.092
-365.712	-200.000	0.014	-0.123
-364.698	-200.000	-0.015	-0.206
-363.683	-200.000	0.014	-0.272
-362.669	-76.918	0.019	-0.007
-361.654	312.279	0.079	0.149
-360.639	621.044	0.065	-0.165
-359.625	417.401	-0.130	0.280
-358.610	78.003	-0.265	0.284
-357.596	-28.091	-0.032	-0.018
-356.581	81.485	-0.122	-0.133
-355.566	101.671	0.204	0.239
-354.552	-92.295	-0.377	0.107
-353.537	790.849	0.081	0.225
-352.523	-200.000	-0.047	-0.315
-351.508	249.830	0.160	-0.273
-350.493	163.007	0.112	0.158
-349.479	-111.630	0.506	0.103
-348.464	49.867	0.127	0.121
-347.450	198.212	0.040	-0.061
-346.435	-44.961	0.201	0.101
-345.420	-99.062	-0.181	0.046
-344.406	-23.580	-0.157	0.095
-343.391	-122.771	0.064	-0.010
-342.377	-94.225	0.135	-0.037
-341.362	618.048	-0.052	-0.132
-340.348	800.000	-0.136	-0.415
-339.333	-57.833	0.279	-0.123
-338.318	-120.006	-0.059	0.010
-337.304	-36.168	-0.198	-0.108
-336.289	800.000	-0.064	0.280
-335.275	173.550	0.082	0.118
-334.260	254.902	-0.048	-0.082
-333.245	-186.113	-0.233	0.003
-332.231	-200.000	0.019	0.416
-331.216	-114.402	0.256	0.049
-330.202	-200.000	-0.008	0.267
-329.187	-105.262	0.014	0.003
-328.172	-54.177	0.329	0.150
-327.158	-170.210	0.205	0.007
-326.143	-87.145	-0.337	-0.103
-325.129	60.988	0.100	-0.099
-324.114	172.844	-0.015	-0.022
-323.099	17.614	0.127	0.101
-322.085	-200.000	0.023	-0.202
-321.070	-26.489	-0.071	0.042
-320.056	-200.000	0.005	0.071
-319.041	132.634	0.080	0.104
-318.026	-132.164	0.053	-0.007
-317.012	-106.682	-0.133	0.030
-315.997	-16.467	-0.178	-0.113
-314.983	-12.552	0.249	0.163
-313.968	40.142	-0.298	0.269
-312.953	453.876	0.021	0.048
-311.939	261.708	0.079	0.137
-310.924	-126.467	0.272	0.041
-309.910	-96.257	0.328	0.087
-308.895	-114.448	0.186	-0.036
-307.880	-25.563	-0.089	-0.053
-306.866	-53.654	-0.131	0.060
-305.851	-49.012	0.262	-0.126
-304.837	-76.177	0.186	0.066
-303.822	-200.000	-0.005	-0.377
-302.807	-46.599	0.233	-0.115
-301.793	299.759	0.058	-0.107
-300.778	125.733	-0.198	-0.252
-299.764	-19.610	0.239	-0.149
-298.749	-3.212	0.100	-0.070
-297.735	-200.000	0.028	0.249
-296.720	-61.527	-0.040	0.017
-295.705	89.339	-0.059	-0.067
-294.691	703.012	-0.073	0.194
-293.676	-50.996	0.215	-0.102
-292.662	-152.004	0.341	0.025
-291.647	-128.604	0.105	-0.015
-290.632	-27.840	-0.211	0.123
-289.618	541.564	0.059	0.141
-288.603	298.186	-0.077	-0.143
-287.589	-200.000	0.013	-0.154
-286.574	-4.710	0.139	0.096
-285.559	204.806	0.192	0.299
-284.545	441.456	-0.069	0.152
-283.530	-200.000	-0.061	-0.374
-282.516	-200.000	0.025	-0.352
-281.501	5.524	0.099	0.073
-280.486	-114.947	0.109	-0.021
-279.472	-200.000	0.030	-0.162
-278.457	800.000	-0.042	0.181
-277.443	-200.000	-0.016	0.076
-276.428	800.000	-0.062	0.218
-275.413	800.000	-0.030	0.108
-274.399	-154.911	-0.024	-0.002
-273.384	58.753	0.192	-0.189
-272.370	-16.767	0.321	-0.204
-271.355	-200.000	-0.066	0.351
-270.340	800.000	-0.043	0.166
-269.326	-107.860	0.018	0.004
-268.311	800.000	-0.087	0.280
-267.297	101.719	-0.090	0.106
-266.282	-200.000	0.045	-0.271
-265.267	-116.587	0.166	-0.031
-264.253	-3.932	0.097	0.067
-263.238	36.334	0.098	0.087
-262.224	-84.970	-0.417	0.131
-261.209	-200.000	0.074	-0.327
-260.195	-113.675	-0.170	0.033
-259.180	73.377	0.170	-0.179
-258.165	-200.000	-0.069	0.389
-257.151	-5.104	-0.235	-0.162
-256.136	268.494	0.060	0.105
-255.122	242.497	-0.188	0.316
-254.107	54.611	0.025	-0.024
-253.092	-67.917	-0.289	0.113
-252.078	-181.219	-0.024	0.000
-251.063	-47.967	0.192	0.093
-250.049	723.936	-0.016	-0.043
-249.034	-53.365	0.217	0.100
-248.019	-111.604	0.409	-0.083
-247.005	-100.566	0.203	0.050
-245.990	-73.262	-0.277	0.102
-244.976	800.000	-0.071	0.199
-243.961	-29.123	-0.135	-0.078
-242.946	-200.000	0.035	0.168
-241.932	800.000	0.058	0.230
-240.917	98.125	-0.245	0.283
-239.903	231.548	-0.189	0.310
-238.888	637.458	0.187	0.476
-237.873	31.833	-0.065	0.056
-236.859	-34.139	0.142	0.078
-235.844	-29.335	0.268	0.154
-234.830	9.359	-0.205	0.155
-233.815	800.000	-0.075	-0.292
-232.800	191.766	-0.093	-0.141
-231.786	-119.779	0.044	0.008
-230.771	11.814	-0.149	0.115
-229.757	-200.000	0.021	0.284
-228.742	-200.000	0.018	-0.183
-227.727	-0.679	-0.334	0.237
-226.713	52.744	0.135	0.129
-225.698	-193.171	-0.198	-0.002
-224.684	122.605	0.052	0.065
-223.669	-95.863	0.322	0.086
-222.655	70.210	-0.303	-0.313
-221.640	480.781	0.100	0.226
-220.625	-24.272	0.021	0.013
-219.611	-82.910	-0.321	0.104
-218.596	-143.231	0.146	0.014
-217.582	402.418	0.010	-0.021
-216.567	67.350	-0.061	-0.062
-215.552	-200.000	0.008	-0.290
-214.538	97.744	-0.306	0.352
-213.523	-36.998	-0.462	0.248
-212.509	-200.000	-0.029	-0.168
-211.494	-82.641	0.173	-0.056
-210.479	36.424	-0.108	-0.095
-209.465	-200.000	-0.021	0.160
-208.450	304.395	0.095	0.176
-207.436	46.914	-0.270	0.251
-206.421	-19.988	0.137	0.085
-205.406	195.103	-0.172	0.262
-204.392	800.000	-0.070	-0.260
-203.377	-46.758	-0.181	-0.089
-202.363	-70.098	0.115	-0.044
-201.348	-200.000	0.021	-0.289
-200.333	59.382	0.191	-0.188
-199.319	295.413	-0.138	-0.252
-198.304	-140.678	0.106	0.011
-197.290	-200.000	-0.021	-0.346
-196.275	147.637	0.131	-0.177
-195.260	46.716	0.226	0.210
-194.246	260.535	0.116	-0.201
-193.231	-161.578	-0.118	-0.006
-192.217	174.585	-0.029	0.042
-191.202	98.774	-0.357	-0.412
-190.187	-132.406	-0.194	-0.025
-189.173	-200.000	0.125	0.616
-188.158	-4.816	-0.065	-0.045
-187.144	-116.133	-0.194	-0.036
-186.129	-200.000	0.011	0.348
-185.114	-18.813	-0.207	-0.129
-184.100	-135.517	-0.149	-0.018
-183.085	800.000	-0.018	0.062
-182.071	517.338	0.072	0.169
-181.056	-69.291	0.214	0.082
-180.042	-58.310	-0.277	0.120
-179.027	92.087	0.127	0.143
-178.012	-200.000	0.002	0.192
-176.998	-2.187	0.248	-0.174
-175.983	114.950	-0.284	0.347
-174.969	247.746	0.122	0.206
-173.954	-134.926	-0.353	-0.043
-172.939	496.866	0.149	0.343
-171.925	-137.183	-0.212	0.024
-170.910	105.391	0.243	0.287
-169.896	-72.267	0.136	0.050
-168.881	-55.332	0.257	-0.115
-167.866	-57.633	-0.233	-0.102
-166.852	-74.350	0.386	-0.139
-165.837	800.000	0.017	0.068
-164.823	81.784	0.252	-0.272
-163.808	-200.000	-0.012	-0.140
-162.793	-9.880	0.159	-0.105
-161.779	-126.426	-0.192	-0.029
-160.764	-90.757	0.243	-0.070
-159.750	302.380	0.141	-0.261
-158.735	308.598	0.065	-0.121
-157.720	104.554	0.205	0.241
-156.706	-200.000	0.016	0.293
-155.691	434.590	-0.250	0.543
-154.677	-37.636	0.102	0.054
-153.662	-200.000	0.073	-0.530
-152.647	729.268	-0.111	0.296
-151.633	-41.122	0.148	0.076
-150.618	800.000	-0.081	0.270
-149.604	-97.303	0.156	-0.041
-148.589	133.338	-0.145	-0.187
-147.574	-86.557	-0.328	-0.100
-146.560	-10.048	-0.106	0.071
-145.545	605.673	-0.039	-0.097
-144.531	100.885	0.107	-0.124
-143.516	8.560	-0.092	-0.069
-142.502	-183.180	0.204	0.004
-141.487	26.560	-0.080	-0.067
-140.472	213.325	-0.072	0.113
-139.458	-82.073	-0.189	-0.062
-138.443	-200.000	-0.016	-0.341
-137.429	12.913	-0.179	0.138
-136.414	800.000	0.092	0.379
-135.399	265.708	-0.067	-0.117
-134.385	800.000	-0.045	0.182
-133.370	-200.000	-0.058	0.271
-132.356	-200.000	0.054	-0.306
-131.341	-200.000	-0.002	0.281
-130.326	455.024	-0.104	0.229
-129.312	800.000	0.050	0.166
-128.297	-200.000	-0.015	0.122
-127.283	-174.403	0.174	0.005
-126.268	-200.000	0.054	-0.413
-125.253	800.000	0.012	-0.048
-124.239	437.839	-0.067	-0.145
-123.224	415.674	0.087	-0.185
-122.210	312.435	-0.083	0.156
-121.195	800.000	-0.079	0.219
