DTS Sentinel unit serial number:	SN413079Multiplexer serial number:	ORYXHardware model number:	OX4-SRSoftware version number:	ORYX F/W v4.00 Oryx Data Collector v3.7.2.0data status	okinstallation	princeton_trtdifferential loss correction	single-endedforward channel	channel 3reverse channel	N/Adate	2019/09/15time	04:48:35forward acquisition time	60.00reverse acquisition time	0.00gamma	496.2192k internal	0.2324k external	0.2324temperature offset calibration	0.9978default loss term (dB/km)	0.3790temperature slope calibration	1.0000multiplexer offset coefficient	1.0000multiplexer slope coefficient	1.0000fibre end	0.00T internal ref (°C)	30.75T ext. ref 1 (°C)	4.76T ext. ref 2 (°C)	25.30length (m)	temperature (°C)	Stokes	anti-Stokes-747.200	677.459	0.074	0.194
-746.185	-149.958	-0.324	-0.025
-745.171	104.823	0.161	0.191
-744.156	31.010	0.317	0.274
-743.142	-200.000	-0.013	-0.198
-742.127	-145.376	-0.251	0.023
-741.112	-61.283	-0.298	0.127
-740.098	-38.146	-0.258	0.138
-739.083	419.380	-0.177	0.382
-738.069	52.044	-0.154	0.148
-737.054	56.369	0.253	-0.248
-736.039	-155.591	0.140	0.009
-735.025	800.000	-0.047	0.194
-734.010	-93.215	-0.334	-0.094
-732.996	800.000	0.070	-0.271
-731.981	-68.518	-0.110	-0.043
-730.966	-60.714	-0.148	0.063
-729.952	-16.512	-0.144	-0.092
-728.937	3.864	-0.272	-0.200
-727.923	800.000	0.011	-0.035
-726.908	-83.611	-0.172	-0.055
-725.894	-9.746	0.343	-0.231
-724.879	-6.077	-0.090	-0.062
-723.864	583.371	-0.144	0.357
-722.850	64.241	-0.134	-0.136
-721.835	59.962	-0.210	-0.209
-720.821	1.156	-0.118	-0.085
-719.806	-50.702	-0.109	0.052
-718.791	19.755	0.039	0.032
-717.777	595.910	0.108	0.270
-716.762	109.989	-0.063	0.077
-715.748	-138.146	0.066	-0.007
-714.733	78.100	-0.099	0.107
-713.718	800.000	0.103	-0.355
-712.704	342.265	-0.059	-0.116
-711.689	198.169	0.072	0.112
-710.675	741.624	0.075	0.203
-709.660	-68.204	0.310	0.121
-708.645	-88.506	0.259	-0.078
-707.631	46.007	0.027	-0.025
-706.616	-190.995	-0.305	-0.003
-705.602	625.995	-0.068	0.173
-704.587	800.000	-0.068	0.197
-703.572	278.172	-0.157	0.281
-702.558	264.676	0.098	-0.172
-701.543	462.536	0.182	0.410
-700.529	78.202	0.069	-0.075
-699.514	-165.753	0.140	0.006
-698.499	-169.997	0.051	0.002
-697.485	322.454	-0.068	0.131
-696.470	-120.690	-0.440	-0.075
-695.456	-160.262	-0.254	0.014
-694.441	268.372	-0.180	-0.317
-693.426	-11.375	0.170	-0.113
-692.412	-200.000	0.020	0.142
-691.397	296.316	0.134	0.248
-690.383	585.542	-0.114	0.282
-689.368	-200.000	-0.003	0.183
-688.354	-15.730	-0.058	-0.037
-687.339	-114.409	0.234	0.045
-686.324	111.747	-0.119	0.145
-685.310	-62.497	0.280	0.117
-684.295	-125.044	-0.231	0.036
-683.281	172.533	0.034	0.050
-682.266	800.000	-0.021	0.085
-681.251	788.511	-0.158	0.436
-680.237	800.000	-0.023	-0.073
-679.222	226.362	-0.062	0.101
-678.208	153.506	0.113	-0.156
-677.193	157.252	-0.194	-0.270
-676.178	1.065	-0.024	0.017
-675.164	-131.893	-0.046	-0.006
-674.149	-15.286	0.438	-0.282
-673.135	125.369	-0.134	0.170
-672.120	59.660	0.077	-0.077
-671.105	-16.373	-0.129	-0.083
-670.091	-123.901	0.287	-0.045
-669.076	-78.423	-0.282	0.097
-668.062	24.490	0.136	-0.113
-667.047	800.000	0.062	0.189
-666.032	-5.473	0.138	-0.096
-665.018	524.399	-0.072	-0.171
-664.003	-200.000	-0.053	-0.335
-662.989	-101.168	0.239	0.059
-661.974	800.000	-0.082	0.260
-660.959	32.908	-0.157	0.137
-659.945	800.000	-0.068	0.197
-658.930	-110.661	0.233	-0.048
-657.916	566.946	-0.041	0.100
-656.901	-146.117	-0.266	-0.024
-655.886	212.645	-0.046	-0.073
-654.872	282.387	0.038	0.068
-653.857	-200.000	-0.001	0.090
-652.843	350.113	0.159	-0.316
-651.828	-200.000	-0.040	-0.252
-650.814	-200.000	-0.013	0.120
-649.799	-129.433	-0.269	-0.037
-648.784	-4.780	0.070	-0.048
-647.770	-62.318	0.068	-0.028
-646.755	92.900	-0.230	-0.261
-645.741	-200.000	0.009	-0.089
-644.726	-130.166	-0.136	0.019
-643.711	-200.000	0.003	0.221
-642.697	-200.000	-0.082	-0.421
-641.682	800.000	-0.095	-0.358
-640.668	-70.133	-0.188	0.072
-639.653	52.215	0.167	-0.160
-638.638	-41.120	-0.237	-0.123
-637.624	-119.759	0.254	0.044
-636.609	-200.000	-0.025	0.380
-635.595	-200.000	-0.050	0.314
-634.580	800.000	0.059	0.195
-633.565	-97.084	0.107	0.028
-632.551	800.000	-0.048	-0.176
-631.536	-138.132	-0.321	0.036
-630.522	-18.499	-0.096	0.060
-629.507	-200.000	-0.006	0.333
-628.492	264.039	-0.173	0.302
-627.478	-200.000	0.022	-0.288
-626.463	-99.349	-0.112	0.028
-625.449	-65.715	-0.241	-0.097
-624.434	-163.777	-0.076	0.004
-623.419	-131.858	-0.225	-0.030
-622.405	-34.254	0.161	-0.089
-621.390	-18.738	0.237	0.149
-620.376	175.082	0.097	-0.141
-619.361	33.017	0.270	0.235
-618.346	304.089	0.042	0.078
-617.332	800.000	0.016	0.053
-616.317	-117.989	0.245	-0.044
-615.303	-200.000	-0.053	-0.468
-614.288	-169.412	-0.351	0.013
-613.273	800.000	0.108	-0.388
-612.259	-80.276	0.330	-0.111
-611.244	-19.651	-0.131	0.082
-610.230	179.201	0.183	0.269
-609.215	-21.098	0.136	0.084
-608.201	11.521	-0.081	0.062
-607.186	-56.708	-0.077	-0.034
-606.171	-68.744	-0.216	-0.084
-605.157	234.139	0.096	-0.158
-604.142	800.000	0.032	0.100
-603.128	-140.553	-0.497	-0.052
-602.113	-100.185	-0.084	0.021
-601.098	630.006	0.066	-0.168
-600.084	-160.331	0.222	-0.012
-599.069	-13.288	-0.207	0.135
-598.055	-37.707	-0.111	-0.059
-597.040	60.158	0.056	0.055
-596.025	-83.135	-0.193	0.062
-595.011	-31.687	0.047	0.027
-593.996	-133.942	0.270	-0.034
-592.982	-102.764	0.070	0.017
-591.967	102.222	0.076	0.089
-590.952	125.397	0.026	0.033
-589.938	142.072	0.074	-0.098
-588.923	-173.692	-0.028	-0.001
-587.909	-200.000	-0.060	-0.363
-586.894	-95.051	0.055	-0.015
-585.879	-121.252	0.122	0.020
-584.865	-169.486	-0.172	-0.006
-583.850	-107.670	-0.258	0.057
-582.836	463.922	0.094	0.212
-581.821	-200.000	0.001	-0.078
-580.806	489.266	-0.029	-0.068
-579.792	-200.000	-0.092	0.505
-578.777	-116.512	0.215	-0.040
-577.763	325.284	0.108	-0.207
-576.748	-103.804	-0.477	-0.112
-575.733	-139.966	-0.066	-0.007
-574.719	63.669	-0.082	-0.083
-573.704	-200.000	0.017	0.336
-572.690	-84.308	-0.189	-0.060
-571.675	498.652	-0.125	0.288
-570.661	-200.000	0.045	0.263
-569.646	246.042	-0.122	0.206
-568.631	-37.627	0.134	-0.072
-567.617	204.141	0.094	0.146
-566.602	-200.000	-0.017	-0.180
-565.588	145.614	-0.191	-0.257
-564.573	-132.522	0.094	-0.012
-563.558	272.188	-0.088	-0.156
-562.544	800.000	-0.072	0.225
-561.529	-9.548	0.067	0.045
-560.515	800.000	0.071	-0.243
-559.500	-200.000	-0.027	-0.155
-558.485	89.640	0.105	0.118
-557.471	-4.215	-0.099	-0.069
-556.456	-166.739	-0.384	0.016
-555.442	298.108	0.131	0.241
-554.427	694.308	0.043	-0.114
-553.412	41.174	0.320	-0.290
-552.398	-156.003	0.135	-0.009
-551.383	-17.951	-0.254	-0.160
-550.369	-200.000	0.026	-0.173
-549.354	102.215	0.266	-0.312
-548.339	777.893	-0.107	-0.292
-547.325	-122.468	0.292	0.048
-546.310	35.002	0.084	-0.074
-545.296	-84.349	0.127	-0.040
-544.281	173.985	-0.058	-0.084
-543.266	244.691	-0.038	0.064
-542.252	776.408	0.058	-0.158
-541.237	-21.689	-0.108	-0.066
-540.223	-200.000	0.053	-0.242
-539.208	-42.694	0.339	0.173
-538.193	346.923	-0.020	-0.039
-537.179	-4.018	-0.134	-0.093
-536.164	-200.000	-0.086	-0.450
-535.150	-200.000	0.040	-0.226
-534.135	800.000	-0.040	0.157
-533.121	209.150	-0.206	0.323
-532.106	-126.781	-0.198	-0.029
-531.091	14.645	-0.324	0.253
-530.077	-76.830	-0.281	-0.098
-529.062	-40.131	0.020	-0.011
-528.048	209.218	-0.208	0.327
-527.033	-200.000	0.063	0.327
-526.018	800.000	-0.044	-0.165
-525.004	287.887	0.083	0.150
-523.989	315.892	0.141	0.267
-522.975	-200.000	-0.019	0.163
-521.960	800.000	0.089	-0.351
-520.945	-200.000	-0.003	0.279
-519.931	-42.912	0.147	-0.075
-518.916	724.539	-0.061	0.164
-517.902	-117.563	0.256	-0.046
-516.887	-96.280	-0.259	-0.069
-515.872	-77.347	-0.100	-0.035
-514.858	-200.000	0.044	-0.307
-513.843	-74.321	0.397	0.143
-512.829	800.000	0.043	0.187
-511.814	106.306	0.232	0.275
-510.799	-86.420	-0.432	0.133
-509.785	607.157	-0.032	-0.081
-508.770	176.614	0.171	-0.248
-507.756	-200.000	-0.020	-0.467
-506.741	-14.501	0.207	0.133
-505.726	70.669	-0.089	-0.092
-504.712	723.795	-0.145	0.387
-503.697	-106.111	-0.414	0.093
-502.683	205.412	0.189	0.294
-501.668	26.633	0.308	0.258
-500.653	202.991	-0.244	-0.377
-499.639	310.975	-0.097	0.182
-498.624	27.941	0.190	-0.160
-497.610	-68.186	0.034	0.013
-496.595	17.125	0.151	0.120
-495.581	352.418	-0.090	0.177
-494.566	328.903	0.075	0.143
-493.551	-53.868	-0.177	0.081
-492.537	800.000	0.065	-0.199
-491.522	251.187	0.206	-0.350
-490.508	-107.059	0.101	0.022
-489.493	288.871	0.111	0.201
-488.478	-10.182	0.128	-0.085
-487.464	800.000	0.049	0.142
-486.449	-109.724	0.074	0.016
-485.435	62.070	0.235	-0.234
-484.420	444.572	-0.131	0.288
-483.405	4.110	0.056	0.041
-482.391	-146.905	-0.443	-0.038
-481.376	33.140	0.174	0.151
-480.362	-58.043	0.074	-0.032
-479.347	118.295	0.093	0.115
-478.332	-200.000	0.025	0.142
-477.318	-42.784	0.417	-0.212
-476.303	-152.410	-0.188	0.014
-475.289	110.511	-0.142	-0.171
-474.274	-200.000	0.027	-0.313
-473.259	80.192	-0.107	-0.115
-472.245	-90.862	-0.320	0.092
-471.230	-200.000	0.006	-0.237
-470.216	-17.476	0.130	0.081
-469.201	-124.107	0.312	-0.049
-468.186	250.360	0.172	0.292
-467.172	339.978	0.090	-0.176
-466.157	125.741	0.087	-0.110
-465.143	118.487	0.171	-0.211
-464.128	-68.571	-0.155	0.060
-463.113	-54.923	0.107	-0.048
-462.099	181.275	-0.163	-0.239
-461.084	1.525	0.079	-0.057
-460.070	800.000	0.057	-0.160
-459.055	-200.000	-0.035	-0.355
-458.040	175.812	0.135	-0.195
-457.026	800.000	-0.070	-0.194
-456.011	-78.233	-0.109	0.037
-454.997	-200.000	0.019	0.204
-453.982	-96.203	-0.235	-0.062
-452.968	-142.797	0.374	0.036
-451.953	-200.000	-0.007	0.096
-450.938	175.250	0.061	-0.088
-449.924	161.491	-0.212	-0.296
-448.909	-106.633	0.109	-0.024
-447.895	-45.511	-0.056	-0.028
-446.880	-200.000	-0.016	0.093
-445.865	-98.041	-0.071	-0.018
-444.851	49.951	0.087	-0.082
-443.836	-200.000	-0.079	-0.360
-442.822	800.000	0.043	0.149
-441.807	607.734	0.015	0.037
-440.792	-25.376	0.020	0.012
-439.778	-125.378	-0.100	0.015
-438.763	800.000	0.030	0.108
-437.749	-136.019	-0.277	0.032
-436.734	-26.407	0.153	0.090
-435.719	-200.000	-0.004	-0.120
-434.705	-200.000	-0.018	-0.081
-433.690	-200.000	-0.001	0.053
-432.676	46.635	0.220	0.203
-431.661	-200.000	-0.052	0.301
-430.646	360.717	-0.164	0.328
-429.632	-139.058	0.181	-0.020
-428.617	-158.023	0.228	0.013
-427.603	-145.727	-0.172	-0.015
-426.588	-123.797	0.347	0.055
-425.573	-71.122	0.200	0.075
-424.559	-200.000	-0.007	-0.325
-423.544	-28.881	-0.149	-0.086
-422.530	55.842	0.056	-0.054
-421.515	-200.000	0.017	0.502
-420.500	240.730	-0.139	0.231
-419.486	125.164	-0.092	-0.115
-418.471	-9.505	-0.248	-0.165
-417.457	800.000	-0.050	-0.143
-416.442	441.532	-0.079	0.173
-415.428	283.904	0.174	-0.312
-414.413	268.113	-0.136	-0.238
-413.398	-165.019	-0.100	-0.004
-412.384	-200.000	-0.005	-0.125
-411.369	20.804	-0.245	0.198
-410.355	800.000	-0.047	-0.153
-409.340	-143.286	0.098	-0.009
-408.325	-200.000	0.014	-0.197
-407.311	131.491	-0.076	0.097
-406.296	-200.000	-0.003	0.238
-405.282	402.737	0.097	-0.204
-404.267	-188.768	-0.309	0.004
-403.252	-83.637	0.063	-0.020
-402.238	-200.000	-0.017	0.246
-401.223	147.719	-0.217	-0.291
-400.209	-66.248	0.177	0.070
-399.194	26.606	0.119	0.099
-398.179	41.754	-0.344	-0.311
-397.165	-130.066	0.313	-0.043
-396.150	-48.147	0.072	0.034
-395.136	800.000	0.152	-0.431
-394.121	494.161	-0.097	0.221
-393.106	800.000	0.090	-0.299
-392.092	2.525	-0.312	-0.225
-391.077	-3.861	0.307	-0.212
-390.063	-29.765	-0.253	0.144
-389.048	295.340	-0.059	0.108
-388.033	-59.993	-0.127	-0.054
-387.019	-52.429	0.241	-0.111
-386.004	-26.085	-0.209	0.122
-384.990	354.729	0.145	0.286
-383.975	-175.240	0.310	0.009
-382.960	126.720	-0.124	-0.156
-381.946	157.921	0.084	0.116
-380.931	-200.000	-0.040	0.181
-379.917	434.487	-0.184	0.398
-378.902	-22.302	0.112	-0.068
-377.888	800.000	0.033	-0.101
-376.873	69.619	-0.154	0.157
-375.858	-121.300	0.244	0.041
-374.844	-115.317	0.198	0.037
-373.829	-200.000	0.041	0.361
-372.815	-200.000	0.032	-0.389
-371.800	-122.948	0.364	-0.058
-370.785	-200.000	0.055	0.247
-369.771	800.000	0.061	0.244
-368.756	226.571	-0.120	0.194
-367.742	-75.145	0.188	-0.067
-366.727	-113.510	0.159	0.031
-365.712	182.845	-0.163	0.239
-364.698	-188.259	-0.154	0.002
-363.683	800.000	-0.032	-0.122
-362.669	-148.940	-0.297	-0.024
-361.654	449.556	-0.234	0.514
-360.639	-200.000	-0.057	0.301
-359.625	272.130	-0.071	0.125
-358.610	800.000	0.017	-0.061
-357.596	243.442	0.146	-0.243
-356.581	82.104	-0.240	-0.259
-355.566	800.000	-0.027	0.104
-354.552	-72.164	-0.275	-0.101
-353.537	349.364	-0.012	-0.023
-352.523	-200.000	-0.017	0.096
-351.508	-163.217	0.321	0.015
-350.493	-174.444	-0.077	-0.002
-349.479	69.064	-0.184	-0.188
-348.464	7.189	0.119	0.088
-347.450	-76.838	-0.187	0.065
-346.435	-200.000	-0.135	-0.590
-345.420	-200.000	-0.004	0.073
-344.406	-200.000	-0.017	0.387
-343.391	-200.000	-0.011	0.173
-342.377	-134.177	0.128	0.016
-341.362	167.716	-0.139	-0.197
-340.348	-200.000	-0.002	0.064
-339.333	53.346	0.189	0.180
-338.318	-84.595	0.099	-0.031
-337.304	197.332	-0.126	0.191
-336.289	-200.000	-0.032	-0.189
-335.275	338.926	0.078	0.151
-334.260	93.523	0.199	0.224
-333.245	-145.662	0.098	-0.009
-332.231	-200.000	-0.021	0.536
-331.216	800.000	-0.062	-0.182
-330.202	67.128	0.143	-0.145
-329.187	-87.188	0.223	0.067
-328.172	-72.803	-0.238	-0.087
-327.158	-18.242	-0.213	-0.132
-326.143	126.213	0.228	-0.287
-325.129	431.552	0.050	0.107
-324.114	125.230	0.210	0.263
-323.099	-61.781	0.077	0.032
-322.085	-62.082	0.169	-0.070
-321.070	-119.583	-0.282	0.049
-320.056	-53.441	0.262	-0.119
-319.041	-127.899	-0.100	0.014
-318.026	59.340	-0.155	0.152
-317.012	800.000	-0.127	0.433
-315.997	110.743	-0.057	0.068
-314.983	-7.688	-0.232	0.156
-313.968	-141.531	-0.120	-0.012
-312.953	71.000	0.042	0.044
-311.939	663.729	-0.066	0.168
-310.924	-200.000	-0.018	0.085
-309.910	-130.891	0.185	0.025
-308.895	-200.000	0.014	0.273
-307.880	-200.000	-0.012	-0.051
-306.866	-200.000	0.094	-0.441
-305.851	51.751	0.172	0.162
-304.837	17.982	0.032	-0.025
-303.822	109.492	-0.029	0.035
-302.807	87.708	0.063	0.069
-301.793	771.382	-0.078	-0.211
-300.778	-132.629	0.264	-0.034
-299.764	4.621	-0.178	0.130
-298.749	-142.192	0.061	-0.006
-297.735	-89.257	-0.051	0.015
-296.720	-200.000	-0.025	0.195
-295.705	105.063	0.184	0.215
-294.691	800.000	0.084	-0.314
-293.676	-40.023	-0.259	0.134
-292.662	800.000	-0.101	0.311
-291.647	-124.365	0.102	-0.016
-290.632	-14.812	-0.304	0.194
-289.618	800.000	-0.076	-0.228
-288.603	46.679	-0.147	0.135
-287.589	-200.000	-0.035	-0.256
-286.574	-200.000	-0.011	-0.279
-285.559	51.335	0.106	-0.100
-284.545	-200.000	0.028	-0.231
-283.530	32.937	0.206	-0.177
-282.516	31.883	0.272	-0.232
-281.501	-200.000	-0.024	0.119
-280.486	31.956	-0.275	-0.235
-279.472	3.065	-0.123	-0.088
-278.457	-65.513	-0.096	-0.038
-277.443	-18.238	-0.342	-0.212
-276.428	329.082	0.087	-0.166
-275.413	-78.498	0.102	0.035
-274.399	112.736	0.184	-0.221
-273.384	-41.813	0.153	0.078
-272.370	-157.787	0.122	0.007
-271.355	-66.135	0.152	-0.060
-270.340	-147.885	-0.243	-0.020
-269.326	-65.110	0.365	-0.146
-268.311	194.742	0.112	0.168
-267.297	-54.211	-0.287	0.129
-266.282	25.762	-0.076	0.063
-265.267	-57.596	-0.339	-0.147
-264.253	292.331	0.224	0.405
-263.238	800.000	-0.023	-0.082
-262.224	144.340	-0.154	-0.203
-261.209	-200.000	-0.018	0.226
-260.195	128.718	0.010	0.012
-259.180	800.000	0.095	-0.277
-258.165	-200.000	-0.012	-0.087
-257.151	-13.291	0.235	-0.151
-256.136	-108.883	0.227	0.048
-255.122	-200.000	-0.001	0.220
-254.107	-20.922	0.084	0.051
-253.092	-40.473	0.376	0.193
-252.078	449.590	0.086	-0.189
-251.063	-157.466	0.177	0.011
-250.049	188.080	0.139	-0.205
-249.034	474.488	-0.116	-0.259
-248.019	225.635	0.015	-0.025
-247.005	548.474	0.024	-0.057
-245.990	-111.440	0.228	0.046
-244.976	56.760	0.152	-0.146
-243.961	281.511	-0.261	0.462
-242.946	39.550	-0.125	-0.111
-241.932	427.638	-0.074	0.158
-240.917	10.461	-0.336	-0.253
-239.903	-5.522	-0.162	0.110
-238.888	17.879	-0.216	0.171
-237.873	-88.309	-0.240	0.071
-236.859	-61.328	0.439	0.183
-235.844	-200.000	0.003	-0.102
-234.830	477.923	-0.054	-0.120
-233.815	-200.000	0.038	0.251
-232.800	172.098	0.094	0.134
-231.786	-24.437	0.306	-0.181
-230.771	-129.677	-0.065	-0.009
-229.757	-64.958	-0.255	0.102
-228.742	-26.273	-0.092	-0.054
-227.727	15.843	-0.384	0.299
-226.713	308.495	0.005	-0.009
-225.698	800.000	0.095	-0.338
-224.684	-200.000	-0.017	-0.128
-223.669	800.000	0.034	-0.129
-222.655	0.017	0.147	0.103
-221.640	-144.923	0.198	-0.018
-220.625	629.163	0.078	-0.195
-219.611	24.214	-0.303	-0.247
-218.596	-180.212	-0.370	-0.008
-217.582	-200.000	-0.015	0.085
-216.567	94.172	0.241	0.270
-215.552	-200.000	0.182	0.000
-214.538	459.835	0.091	0.200
-213.523	-200.000	0.021	0.299
-212.509	-45.174	-0.062	-0.031
-211.494	-67.168	-0.386	-0.150
-210.479	544.535	0.121	0.286
-209.465	68.881	-0.125	-0.127
-208.450	-150.795	-0.263	-0.020
-207.436	-115.609	-0.380	0.070
-206.421	-147.864	-0.122	-0.010
-205.406	-17.339	0.172	0.107
-204.392	800.000	-0.030	0.126
-203.377	-131.067	0.246	-0.032
-202.363	800.000	0.105	0.372
-201.348	-54.916	-0.048	-0.022
-200.333	-141.964	0.083	0.008
-199.319	-18.282	0.160	-0.099
-198.304	-200.000	0.024	-0.370
-197.290	-124.421	-0.209	0.032
-196.275	-200.000	-0.031	-0.275
-195.260	170.038	0.153	0.217
-194.246	800.000	0.037	0.108
-193.231	11.296	0.185	0.140
-192.217	-152.205	-0.220	0.016
-191.202	800.000	-0.047	0.171
-190.187	-146.831	0.169	-0.014
-189.173	20.613	-0.045	0.036
-188.158	-95.183	0.311	-0.083
-187.144	192.003	0.052	-0.077
-186.129	-48.470	-0.119	-0.056
-185.114	-39.559	0.073	-0.038
-184.100	-200.000	0.045	0.246
-183.085	-104.253	0.247	0.057
-182.071	-94.345	0.196	0.053
-181.056	478.632	0.021	0.046
-180.042	155.368	-0.063	0.086
-179.027	68.914	-0.250	-0.253
-178.012	-200.000	0.006	-0.141
-176.998	-200.000	0.006	-0.194
-175.983	-15.142	0.297	0.188
-174.969	-200.000	-0.012	-0.381
-173.954	-200.000	0.019	-0.102
-172.939	129.815	-0.044	0.055
-171.925	-200.000	0.007	-0.172
-170.910	-137.485	-0.182	-0.020
-169.896	-200.000	0.026	0.174
-168.881	-173.165	0.124	0.004
-167.866	-76.708	-0.062	-0.021
-166.852	-200.000	-0.029	0.341
-165.837	-42.044	0.206	0.104
-164.823	800.000	0.088	-0.261
-163.808	243.960	0.056	-0.092
-162.793	-8.373	-0.092	-0.061
-161.779	-200.000	-0.005	-0.106
-160.764	17.234	0.341	0.267
-159.750	-117.645	-0.118	-0.021
-158.735	-106.894	-0.167	0.036
-157.720	800.000	-0.013	0.045
-156.706	-200.000	0.006	0.228
-155.691	-93.620	0.205	0.056
-154.677	213.991	-0.076	0.119
-153.662	-66.718	0.140	-0.055
-152.647	-98.211	-0.216	0.055
-151.633	763.467	-0.044	-0.119
-150.618	-16.330	0.178	-0.111
-149.604	-162.556	-0.049	-0.002
-148.589	-55.138	0.145	-0.064
-147.574	-64.659	0.383	0.153
-146.560	-200.000	-0.018	0.329
-145.545	-17.485	-0.081	-0.050
-144.531	-57.203	0.287	0.125
-143.516	-6.505	0.122	-0.082
-142.502	409.620	0.063	0.132
-141.487	37.486	-0.099	0.087
-140.472	116.927	0.119	-0.144
-139.458	-6.108	0.077	-0.052
-138.443	-81.058	0.219	-0.071
-137.429	-99.955	0.281	0.069
-136.414	-12.205	-0.103	0.067
-135.399	276.835	0.074	0.130
-134.385	-200.000	-0.025	-0.179
-133.370	176.192	0.140	-0.201
-132.356	-104.510	-0.467	-0.106
-131.341	-40.196	-0.390	0.200
-130.326	-112.262	-0.182	-0.036
-129.312	54.987	-0.160	0.152
-128.297	-35.115	-0.225	0.121
-127.283	-79.294	0.128	0.043
-126.268	114.514	0.109	0.131
-125.253	-143.246	0.097	-0.009
-124.239	-200.000	-0.009	-0.323
-123.224	-4.503	-0.383	0.261
-122.210	-74.790	-0.242	-0.086
