DTS Sentinel unit serial number:	SN413079Multiplexer serial number:	ORYXHardware model number:	OX4-SRSoftware version number:	ORYX F/W v4.00 Oryx Data Collector v3.7.2.0data status	okinstallation	princeton_trtdifferential loss correction	single-endedforward channel	channel 3reverse channel	N/Adate	2019/09/18time	19:52:35forward acquisition time	60.00reverse acquisition time	0.00gamma	496.2192k internal	0.2327k external	0.2327temperature offset calibration	1.0005default loss term (dB/km)	0.3790temperature slope calibration	1.0000multiplexer offset coefficient	1.0000multiplexer slope coefficient	1.0000fibre end	0.00T internal ref (°C)	30.97T ext. ref 1 (°C)	1.04T ext. ref 2 (°C)	21.87length (m)	temperature (°C)	Stokes	anti-Stokes-747.200	-200.000	-0.000	-0.179
-746.185	800.000	-0.030	-0.089
-745.171	-69.727	0.032	-0.012
-744.156	488.622	0.024	-0.055
-743.142	223.225	0.137	0.222
-742.127	800.000	-0.065	0.245
-741.112	-129.190	0.221	0.031
-740.098	-132.308	-0.362	-0.047
-739.083	-101.858	0.214	0.052
-738.069	-35.336	-0.069	-0.038
-737.054	-134.650	-0.075	-0.009
-736.039	-80.901	-0.329	0.110
-735.025	-0.517	0.263	0.188
-734.010	67.489	0.268	-0.276
-732.996	363.031	0.032	0.065
-731.981	800.000	-0.040	-0.125
-730.966	-117.976	-0.164	0.030
-729.952	-4.231	-0.121	0.085
-728.937	-47.623	0.128	0.063
-727.923	34.581	-0.162	-0.142
-726.908	28.466	-0.186	-0.159
-725.894	-77.188	-0.281	-0.099
-724.879	-154.941	-0.210	-0.014
-723.864	-78.080	-0.118	0.041
-722.850	-200.000	-0.004	-0.266
-721.835	-30.228	-0.128	0.073
-720.821	353.974	-0.169	-0.337
-719.806	-187.643	-0.120	-0.002
-718.791	134.526	-0.220	-0.287
-717.777	76.746	0.255	-0.273
-716.762	-29.095	-0.072	-0.042
-715.748	-147.146	-0.430	0.037
-714.733	-96.676	-0.049	-0.013
-713.718	-12.957	0.086	-0.056
-712.704	-89.387	0.107	0.032
-711.689	-200.000	0.048	0.257
-710.675	-24.099	-0.193	-0.116
-709.660	-200.000	-0.091	0.443
-708.645	-114.229	-0.168	-0.033
-707.631	-200.000	-0.008	-0.043
-706.616	502.472	-0.110	-0.255
-705.602	194.961	-0.119	0.181
-704.587	15.257	-0.125	-0.098
-703.572	-42.971	-0.165	-0.084
-702.558	-135.487	-0.166	-0.020
-701.543	-200.000	0.034	-0.164
-700.529	-156.944	-0.168	0.010
-699.514	-20.200	-0.083	-0.052
-698.499	-40.543	-0.093	-0.048
-697.485	642.506	-0.046	-0.118
-696.470	-200.000	-0.013	0.211
-695.456	-200.000	-0.000	0.217
-694.441	58.462	-0.190	-0.187
-693.426	-101.278	-0.411	-0.101
-692.412	-108.059	-0.255	0.056
-691.397	66.659	0.262	0.268
-690.383	-33.793	-0.113	0.062
-689.368	-76.301	-0.105	-0.037
-688.354	282.623	0.165	0.298
-687.339	580.672	0.207	0.510
-686.324	-200.000	-0.010	0.114
-685.310	-81.267	0.116	-0.039
-684.295	43.919	-0.265	0.244
-683.281	-88.518	-0.197	-0.059
-682.266	-142.546	0.416	0.041
-681.251	211.934	-0.117	0.185
-680.237	-82.093	-0.184	-0.061
-679.222	-26.275	-0.162	-0.096
-678.208	-22.458	-0.171	0.104
-677.193	173.192	-0.072	-0.104
-676.178	-200.000	-0.011	0.176
-675.164	112.051	-0.223	0.271
-674.149	-170.667	-0.149	-0.005
-673.135	-74.792	-0.152	0.055
-672.120	546.841	0.038	0.091
-671.105	-200.000	-0.043	0.295
-670.091	32.378	0.306	0.265
-669.076	43.357	-0.138	-0.126
-668.062	217.204	-0.099	0.159
-667.047	-77.055	0.114	0.040
-666.032	800.000	-0.046	-0.129
-665.018	523.774	0.055	0.129
-664.003	-108.693	0.391	-0.084
-662.989	211.362	0.109	-0.173
-661.974	-70.154	0.132	-0.050
-660.959	5.501	0.384	0.285
-659.945	-122.855	-0.246	-0.040
-658.930	-200.000	-0.024	-0.167
-657.916	-179.792	-0.014	-0.000
-656.901	14.481	-0.303	0.238
-655.886	-73.926	0.059	-0.021
-654.872	6.622	0.243	0.182
-653.857	773.210	0.019	-0.052
-652.843	-200.000	0.006	-0.103
-651.828	28.736	-0.094	-0.080
-650.814	-92.886	0.111	0.031
-649.799	800.000	-0.115	-0.450
-648.784	203.061	-0.301	0.467
-647.770	800.000	0.072	-0.220
-646.755	30.467	-0.104	-0.090
-645.741	246.913	0.077	-0.130
-644.726	-112.899	0.326	-0.065
-643.711	-32.161	0.073	0.041
-642.697	-178.522	-0.273	-0.006
-641.682	208.570	-0.140	0.220
-640.668	231.505	0.007	0.012
-639.653	368.919	-0.121	0.247
-638.638	-200.000	-0.030	-0.241
-637.624	365.340	0.121	0.245
-636.609	451.756	-0.054	-0.120
-635.595	-146.869	0.250	-0.022
-634.580	-200.000	0.002	0.252
-633.565	-187.005	-0.150	0.002
-632.551	-95.996	-0.377	-0.101
-631.536	-200.000	-0.010	-0.267
-630.522	800.000	0.080	-0.249
-629.507	-200.000	0.037	0.174
-628.492	-126.995	-0.106	0.016
-627.478	-14.681	-0.180	0.116
-626.463	-28.675	-0.391	0.226
-625.449	-133.305	-0.268	-0.034
-624.434	-200.000	-0.017	-0.177
-623.419	-200.000	0.096	-0.459
-622.405	-67.723	0.550	0.216
-621.390	-200.000	-0.007	0.244
-620.376	143.864	0.036	-0.048
-619.361	-63.339	-0.239	0.099
-618.346	-200.000	-0.058	-0.317
-617.332	-18.213	-0.100	-0.063
-616.317	-187.609	0.058	0.001
-615.303	68.381	-0.057	0.059
-614.288	-200.000	0.207	-0.001
-613.273	-70.356	0.297	0.113
-612.259	-83.845	-0.244	-0.078
-611.244	-21.921	-0.194	-0.118
-610.230	-45.827	-0.463	0.229
-609.215	139.822	-0.195	-0.257
-608.201	759.305	0.053	0.143
-607.186	-40.810	-0.077	0.040
-606.171	-200.000	-0.011	-0.074
-605.157	21.264	0.471	0.384
-604.142	-200.000	0.059	-0.280
-603.128	-116.490	-0.101	-0.019
-602.113	-59.080	0.199	0.086
-601.098	205.509	0.181	0.282
-600.084	-200.000	0.040	-0.179
-599.069	360.519	0.066	-0.132
-598.055	-69.899	0.263	0.101
-597.040	-70.473	-0.168	0.064
-596.025	330.053	-0.069	0.132
-595.011	499.507	0.144	-0.333
-593.996	68.243	-0.116	0.119
-592.982	800.000	0.093	-0.333
-591.967	265.062	0.164	-0.287
-590.952	-200.000	0.001	-0.349
-589.938	340.029	-0.203	0.396
-588.923	4.667	-0.252	0.186
-587.909	-200.000	-0.008	-0.061
-586.894	-148.984	0.107	-0.009
-585.879	-94.127	0.062	0.017
-584.865	-66.847	-0.304	-0.121
-583.850	-38.422	-0.096	0.051
-582.836	26.380	-0.215	0.180
-581.821	-119.345	-0.107	0.019
-580.806	-176.536	0.391	-0.010
-579.792	-200.000	0.011	0.154
-578.777	800.000	-0.075	0.257
-577.763	800.000	-0.013	-0.054
-576.748	76.970	-0.128	0.136
-575.733	52.153	0.196	-0.187
-574.719	29.025	-0.209	-0.178
-573.704	-114.389	0.137	-0.026
-572.690	-200.000	-0.120	-0.000
-571.675	-176.676	0.540	0.014
-570.661	2.603	-0.289	0.210
-569.646	147.102	-0.155	-0.209
-568.631	238.924	-0.103	0.171
-567.617	62.992	0.308	-0.309
-566.602	-9.025	0.276	0.185
-565.588	-200.000	-0.014	0.104
-564.573	12.646	0.100	-0.077
-563.558	191.903	-0.221	-0.333
-562.544	-153.558	-0.092	0.006
-561.529	-112.851	0.285	-0.057
-560.515	-108.512	-0.048	-0.010
-559.500	-72.046	-0.317	0.118
-558.485	162.578	-0.055	-0.078
-557.471	-39.927	-0.096	0.050
-556.456	92.207	-0.067	0.076
-555.442	156.087	-0.161	0.223
-554.427	49.965	-0.077	-0.073
-553.412	37.466	-0.112	-0.099
-552.398	-41.176	0.178	-0.092
-551.383	173.305	0.055	-0.079
-550.369	-33.219	0.052	-0.029
-549.354	369.080	0.125	-0.252
-548.339	-200.000	0.011	0.269
-547.325	-133.530	0.053	0.007
-546.310	83.103	0.151	0.164
-545.296	-36.182	-0.221	0.119
-544.281	78.579	-0.160	-0.171
-543.266	260.125	0.043	-0.074
-542.252	4.715	-0.158	0.116
-541.237	-200.000	0.034	0.347
-540.223	243.405	0.032	-0.054
-539.208	-128.578	-0.320	0.045
-538.193	-133.014	-0.364	0.046
-537.179	800.000	0.136	-0.392
-536.164	-91.852	0.468	-0.133
-535.150	-162.702	-0.060	-0.003
-534.135	-129.675	-0.018	0.003
-533.121	26.451	-0.151	-0.126
-532.106	-200.000	0.044	-0.566
-531.091	-200.000	0.045	0.241
-530.077	768.369	0.091	0.248
-529.062	-117.076	-0.106	-0.019
-528.048	-200.000	-0.031	0.276
-527.033	119.840	0.154	0.191
-526.018	-38.245	-0.172	-0.091
-525.004	31.832	-0.071	0.061
-523.989	-94.827	0.145	0.039
-522.975	-101.040	-0.100	-0.025
-521.960	83.245	0.079	0.086
-520.945	-91.590	0.273	0.078
-519.931	-200.000	0.064	0.364
-518.916	800.000	-0.050	-0.209
-517.902	800.000	-0.040	-0.130
-516.887	800.000	-0.025	0.076
-515.872	-25.378	-0.070	-0.041
-514.858	9.658	-0.069	0.052
-513.843	-200.000	0.002	-0.127
-512.829	-95.983	-0.286	0.076
-511.814	800.000	0.146	-0.560
-510.799	191.253	-0.181	-0.271
-509.785	-25.768	-0.132	-0.078
-508.770	255.812	-0.033	-0.057
-507.756	-35.304	-0.432	0.235
-506.741	96.511	-0.166	0.190
-505.726	-200.000	-0.057	0.252
-504.712	36.870	-0.254	0.224
-503.697	800.000	0.063	0.231
-502.683	-70.045	-0.175	0.067
-501.668	234.139	-0.155	-0.255
-500.653	8.557	0.239	0.179
-499.639	515.752	0.182	0.425
-498.624	-200.000	-0.017	0.141
-497.610	-13.899	0.136	0.088
-496.595	54.807	0.251	-0.242
-495.581	-21.840	-0.518	-0.315
-494.566	-19.993	0.188	-0.116
-493.551	83.304	-0.097	-0.105
-492.537	301.712	-0.077	-0.142
-491.522	-200.000	-0.018	0.195
-490.508	800.000	-0.087	0.313
-489.493	-127.387	0.043	0.006
-488.478	22.100	-0.096	-0.078
-487.464	-65.555	-0.180	-0.072
-486.449	-174.798	-0.091	0.003
-485.435	-117.266	0.038	-0.007
-484.420	-8.982	0.213	-0.142
-483.405	800.000	0.075	-0.326
-482.391	800.000	0.061	-0.214
-481.376	-112.299	-0.061	-0.012
-480.362	190.573	-0.188	0.282
-479.347	-200.000	0.048	0.296
-478.332	-200.000	-0.017	-0.082
-477.318	-80.150	-0.207	0.069
-476.303	135.441	-0.006	-0.008
-475.289	-182.520	-0.138	-0.003
-474.274	61.285	0.057	0.057
-473.259	-129.333	-0.175	0.024
-472.245	-38.527	-0.334	-0.176
-471.230	-50.558	0.237	0.112
-470.216	24.981	0.174	-0.144
-469.201	-137.957	0.207	-0.023
-468.186	419.477	0.047	0.101
-467.172	-11.318	-0.071	-0.047
-466.157	53.820	0.148	-0.141
-465.143	41.383	0.076	0.068
-464.128	674.246	-0.073	0.190
-463.113	250.967	-0.102	-0.174
-462.099	-94.417	-0.218	-0.059
-461.084	55.652	0.265	-0.256
-460.070	144.362	0.130	-0.174
-459.055	211.993	-0.150	0.236
-458.040	113.941	-0.269	0.326
-457.026	-9.196	-0.322	0.214
-456.011	2.173	-0.251	-0.181
-454.997	-200.000	-0.010	-0.287
-453.982	352.648	-0.029	0.058
-452.968	546.516	-0.136	-0.325
-451.953	800.000	-0.014	0.057
-450.938	18.034	-0.085	0.068
-449.924	183.216	0.025	0.036
-448.909	-124.389	-0.170	0.026
-447.895	-23.618	0.340	0.203
-446.880	160.528	0.111	-0.154
-445.865	135.430	0.063	0.082
-444.851	-70.659	-0.241	0.091
-443.836	-140.370	-0.384	0.040
-442.822	800.000	0.062	-0.182
-441.807	-200.000	-0.004	0.062
-440.792	147.811	-0.108	0.145
-439.778	-200.000	0.011	0.159
-438.763	345.239	-0.124	0.243
-437.749	212.175	-0.039	0.062
-436.734	-89.839	0.058	0.017
-435.719	539.386	0.062	0.146
-434.705	23.885	0.116	-0.095
-433.690	-200.000	0.020	0.155
-432.676	76.486	0.126	-0.133
-431.661	253.427	-0.076	0.129
-430.646	800.000	-0.014	0.048
-429.632	800.000	-0.072	0.203
-428.617	-0.210	0.134	0.095
-427.603	583.981	0.104	-0.254
-426.588	165.664	0.068	-0.096
-425.573	-200.000	0.008	0.140
-424.559	-14.337	0.300	-0.192
-423.544	510.683	0.127	-0.295
-422.530	-24.212	-0.075	-0.045
-421.515	-161.211	-0.244	0.013
-420.500	-50.944	-0.240	-0.112
-419.486	123.658	0.117	0.146
-418.471	110.752	-0.097	-0.116
-417.457	-200.000	-0.015	-0.290
-416.442	3.872	-0.302	-0.220
-415.428	-146.893	-0.113	0.010
-414.413	71.185	-0.221	0.228
-413.398	461.223	0.162	0.360
-412.384	6.294	-0.280	0.207
-411.369	240.136	0.121	0.200
-410.355	800.000	0.042	0.137
-409.340	800.000	0.061	0.234
-408.325	-15.040	-0.191	0.122
-407.311	-48.321	0.241	0.116
-406.296	-127.728	0.196	0.028
-405.282	-76.599	-0.309	-0.108
-404.267	429.330	0.149	-0.320
-403.252	-46.567	0.165	-0.080
-402.238	13.304	0.122	0.094
-401.223	-200.000	0.008	0.238
-400.209	-149.256	0.164	0.013
-399.194	124.020	0.201	-0.251
-398.179	-200.000	0.041	-0.367
-397.165	436.939	-0.215	-0.466
-396.150	-200.000	-0.045	-0.280
-395.136	-81.050	-0.037	-0.012
-394.121	-55.865	-0.149	-0.066
-393.106	-200.000	-0.034	0.175
-392.092	800.000	-0.046	-0.169
-391.077	-200.000	0.030	-0.157
-390.063	-23.943	-0.285	-0.170
-389.048	-80.670	0.179	-0.059
-388.033	-200.000	-0.010	-0.127
-387.019	-175.857	-0.130	0.003
-386.004	147.064	-0.138	-0.185
-384.990	795.529	0.116	0.317
-383.975	318.706	-0.222	0.418
-382.960	109.373	-0.261	-0.311
-381.946	-100.048	-0.186	-0.046
-380.931	29.462	0.168	0.142
-379.917	332.975	0.259	0.498
-378.902	-92.013	0.129	0.036
-377.888	298.952	-0.091	0.166
-376.873	-99.007	0.303	-0.076
-375.858	-181.994	0.189	0.004
-374.844	-96.787	0.147	0.038
-373.829	-71.448	-0.244	-0.091
-372.815	-67.711	-0.118	0.046
-371.800	108.383	0.166	0.197
-370.785	-200.000	0.057	-0.538
-369.771	104.987	-0.278	-0.326
-368.756	-200.000	-0.006	-0.349
-367.742	-200.000	0.038	-0.298
-366.727	176.767	-0.216	0.312
-365.712	-200.000	-0.020	-0.164
-364.698	-29.567	0.048	-0.027
-363.683	-29.439	0.152	0.087
-362.669	-49.985	-0.305	0.143
-361.654	-144.464	0.180	-0.017
-360.639	-38.338	0.318	-0.167
-359.625	94.178	-0.032	-0.037
-358.610	-29.676	-0.326	-0.185
-357.596	-70.972	-0.332	-0.124
-356.581	800.000	0.005	-0.014
-355.566	-60.495	0.195	0.082
-354.552	-200.000	-0.034	-0.271
-353.537	50.391	0.118	0.111
-352.523	22.175	0.044	-0.035
-351.508	-200.000	0.009	0.114
-350.493	93.211	-0.178	-0.200
-349.479	-200.000	-0.046	-0.246
-348.464	313.429	0.135	-0.252
-347.450	-8.214	0.524	-0.350
-346.435	217.101	-0.181	-0.286
-345.420	117.733	-0.087	0.107
-344.406	221.425	0.169	0.269
-343.391	-63.246	-0.108	0.044
-342.377	438.663	0.028	0.060
-341.362	-200.000	-0.214	-0.000
-340.348	-10.829	0.173	-0.113
-339.333	62.261	-0.203	-0.201
-338.318	-200.000	-0.079	0.381
-337.304	103.929	-0.168	0.196
-336.289	-178.602	-0.086	0.002
-335.275	6.930	0.247	-0.183
-334.260	351.725	-0.089	-0.176
-333.245	-118.910	0.243	0.042
-332.231	84.494	-0.142	0.154
-331.216	-200.000	-0.023	0.290
-330.202	426.423	-0.098	-0.210
-329.187	149.433	0.107	0.143
-328.172	-188.538	0.238	-0.003
-327.158	-129.681	-0.634	-0.087
-326.143	-6.190	0.178	0.120
-325.129	-194.373	-0.316	-0.003
-324.114	-168.184	0.296	-0.011
-323.099	110.241	-0.319	-0.380
-322.085	384.836	0.096	-0.197
-321.070	-74.515	-0.080	-0.029
-320.056	329.244	-0.051	-0.097
-319.041	142.528	0.223	-0.293
-318.026	800.000	0.025	-0.105
-317.012	74.688	0.193	-0.201
-315.997	800.000	-0.064	-0.179
-314.983	800.000	0.074	0.263
-313.968	800.000	0.079	0.248
-312.953	21.511	0.392	0.316
-311.939	756.642	-0.058	-0.155
-310.924	-123.520	-0.251	-0.040
-309.910	575.214	0.086	0.207
-308.895	-109.085	0.340	0.072
-307.880	800.000	0.009	0.028
-306.866	-58.795	0.075	0.032
-305.851	-132.629	-0.157	-0.020
-304.837	-200.000	-0.047	0.292
-303.822	380.467	-0.079	0.161
-302.807	-77.259	0.212	0.073
-301.793	447.966	0.164	0.358
-300.778	-200.000	-0.006	-0.092
-299.764	-90.826	0.305	0.087
-298.749	-200.000	0.023	0.223
-297.735	278.134	0.113	-0.200
-296.720	-26.364	-0.193	-0.112
-295.705	91.357	-0.147	-0.163
-294.691	-200.000	0.020	-0.135
-293.676	55.247	0.146	0.139
-292.662	-43.956	-0.456	-0.227
-291.647	-195.272	-0.224	0.002
-290.632	270.197	0.199	-0.347
-289.618	145.430	0.069	-0.092
-288.603	-21.415	-0.084	-0.051
-287.589	173.043	0.233	-0.333
-286.574	-37.736	0.235	0.124
-285.559	-137.895	-0.248	-0.027
-284.545	-134.738	0.138	-0.017
-283.530	-200.000	-0.026	0.336
-282.516	479.063	0.047	-0.104
-281.501	-12.377	0.167	0.108
-280.486	-61.980	0.147	-0.061
-279.472	-116.980	0.266	0.048
-278.457	-58.843	0.419	-0.180
-277.443	221.480	-0.034	-0.054
-276.428	201.373	0.159	0.243
-275.413	-65.299	0.040	0.016
-274.399	8.979	0.426	0.318
-273.384	414.146	-0.091	-0.193
-272.370	-71.019	-0.102	-0.038
-271.355	-21.142	-0.325	0.197
-270.340	-200.000	-0.016	-0.355
-269.326	-57.604	-0.363	-0.157
-268.311	-200.000	-0.013	-0.086
-267.297	6.941	0.240	0.177
-266.282	-141.046	-0.319	0.032
-265.267	-200.000	-0.005	0.033
-264.253	529.056	0.107	0.251
-263.238	-108.103	-0.317	-0.068
-262.224	17.063	0.294	0.231
-261.209	-23.557	-0.123	0.073
-260.195	475.783	-0.054	-0.121
-259.180	-115.273	0.145	0.027
-258.165	-119.396	-0.248	0.043
-257.151	-36.648	-0.201	0.107
-256.136	-35.168	-0.172	0.093
-255.122	8.896	0.237	0.177
-254.107	-105.912	0.097	-0.022
-253.092	20.352	-0.160	-0.128
-252.078	7.459	0.096	0.071
-251.063	279.709	-0.044	-0.077
-250.049	800.000	-0.104	-0.305
-249.034	-2.025	0.132	-0.091
-248.019	40.437	0.085	-0.076
-247.005	-200.000	0.017	0.123
-245.990	800.000	0.028	0.087
-244.976	-44.626	0.161	0.080
-243.961	-200.000	-0.033	-0.166
-242.946	-162.146	-0.119	-0.006
-241.932	41.342	-0.153	-0.137
-240.917	-200.000	0.053	-0.335
-239.903	-200.000	-0.019	0.484
-238.888	-84.790	-0.169	0.052
-237.873	611.844	0.030	-0.074
-236.859	800.000	0.090	0.321
-235.844	-49.214	0.248	-0.117
-234.830	-79.631	0.120	0.040
-233.815	123.840	-0.127	-0.157
-232.800	-73.173	0.194	-0.070
-231.786	-200.000	0.039	0.190
-230.771	88.847	-0.040	0.044
-229.757	34.247	0.205	0.176
-228.742	-200.000	-0.039	0.271
-227.727	-29.822	0.328	-0.185
-226.713	-137.766	0.196	-0.022
-225.698	460.413	0.147	-0.324
-224.684	800.000	0.142	0.480
-223.669	41.709	0.124	-0.111
-222.655	-28.740	0.279	-0.158
-221.640	339.147	0.118	0.226
-220.625	800.000	-0.059	-0.204
-219.611	-63.440	0.229	0.093
-218.596	-68.626	-0.216	-0.083
-217.582	-7.802	0.219	0.146
-216.567	50.066	0.079	0.074
-215.552	768.813	-0.079	0.213
-214.538	-21.810	-0.157	-0.095
-213.523	-50.310	0.279	0.130
-212.509	55.495	0.114	-0.109
-211.494	-2.438	-0.117	0.081
-210.479	-34.994	0.098	0.053
-209.465	800.000	0.071	0.202
-208.450	-114.773	0.151	0.029
-207.436	145.672	0.201	-0.266
-206.421	-86.415	0.040	-0.012
-205.406	109.412	0.251	0.297
-204.392	-147.979	0.380	0.031
-203.377	139.957	0.134	0.175
-202.363	7.766	-0.268	-0.198
-201.348	-200.000	0.024	-0.167
-200.333	-49.338	-0.164	-0.077
-199.319	-185.154	-0.077	0.001
-198.304	23.862	0.257	0.209
-197.290	514.743	0.146	0.336
-196.275	30.791	0.167	-0.141
-195.260	-200.000	0.004	-0.021
-194.246	257.851	0.106	0.180
-193.231	-22.225	0.253	0.152
-192.217	-63.328	-0.058	0.024
-191.202	161.722	0.104	0.144
-190.187	80.913	0.157	-0.167
-189.173	-96.338	-0.222	-0.058
-188.158	-156.183	-0.300	-0.019
-187.144	-68.563	-0.178	-0.068
-186.129	2.297	-0.137	-0.098
-185.114	-200.000	-0.019	0.184
-184.100	217.777	0.104	-0.163
-183.085	-66.600	0.246	0.096
-182.071	800.000	-0.135	0.541
-181.056	91.596	0.152	0.168
-180.042	-91.423	0.176	-0.050
-179.027	-65.510	-0.031	-0.012
-178.012	-54.207	0.244	0.109
-176.998	800.000	-0.076	0.284
-175.983	-58.247	-0.304	0.131
-174.969	800.000	0.054	-0.151
-173.954	424.916	-0.062	-0.131
-172.939	-200.000	-0.007	0.073
-171.925	-117.571	0.295	0.053
-170.910	129.784	-0.043	-0.054
-169.896	-148.919	0.187	0.015
-168.881	-93.361	-0.325	-0.089
-167.866	78.681	0.202	0.213
-166.852	59.643	0.058	-0.057
-165.837	-127.816	-0.243	0.035
-164.823	-5.135	0.304	0.206
-163.808	-31.697	0.066	-0.036
-162.793	-28.163	0.214	-0.122
-161.779	-22.841	-0.058	0.034
-160.764	-200.000	-0.041	-0.182
-159.750	605.322	0.085	0.209
-158.735	-84.598	0.152	-0.047
-157.720	106.300	0.179	-0.209
-156.706	-55.892	0.033	-0.015
-155.691	-61.954	-0.075	-0.031
-154.677	410.569	-0.078	0.162
-153.662	800.000	-0.138	-0.381
-152.647	-200.000	0.045	0.229
-151.633	-27.574	-0.097	-0.055
-150.618	63.421	0.035	-0.035
-149.604	255.441	-0.149	0.251
-148.589	800.000	0.028	-0.122
-147.574	67.878	-0.180	0.181
-146.560	-108.087	0.255	-0.054
-145.545	-136.985	-0.248	-0.028
-144.531	-55.322	0.350	0.155
-143.516	-164.659	-0.132	-0.006
-142.502	800.000	0.048	0.148
-141.487	-188.046	-0.044	-0.001
-140.472	-27.059	0.110	0.063
-139.458	26.551	0.295	-0.243
-138.443	297.273	-0.053	-0.097
-137.429	-63.020	0.391	-0.159
-136.414	312.410	-0.057	0.106
-135.399	-27.859	-0.102	-0.058
-134.385	-119.473	-0.249	0.043
-133.370	-88.927	0.205	-0.060
-132.356	-65.057	0.153	-0.061
-131.341	-200.000	0.029	0.132
-130.326	-119.609	-0.080	0.014
-129.312	317.868	0.141	-0.262
-128.297	561.231	-0.053	-0.125
-127.283	-63.367	0.089	0.036
-126.268	303.401	0.211	0.384
-125.253	1.685	-0.057	0.041
-124.239	-157.981	0.378	-0.022
-123.224	-200.000	0.007	-0.106
-122.210	714.856	0.055	-0.143
