DTS Sentinel unit serial number:	SN413079Multiplexer serial number:	ORYXHardware model number:	OX4-SRSoftware version number:	ORYX F/W v4.00 Oryx Data Collector v3.7.2.0data status	okinstallation	princeton_trtdifferential loss correction	single-endedforward channel	channel 3reverse channel	N/Adate	2019/09/11time	12:22:11forward acquisition time	60.00reverse acquisition time	0.00gamma	496.2192k internal	0.2294k external	0.2294temperature offset calibration	0.9932default loss term (dB/km)	0.3790temperature slope calibration	1.0000multiplexer offset coefficient	1.0000multiplexer slope coefficient	1.0000fibre end	0.00T internal ref (°C)	40.19T ext. ref 1 (°C)	0.19T ext. ref 2 (°C)	38.44length (m)	temperature (°C)	Stokes	anti-Stokes-747.200	176.857	0.076	0.113
-746.185	-34.118	-0.231	0.130
-745.171	103.587	-0.209	-0.251
-744.156	164.652	0.162	0.234
-743.142	467.520	0.175	-0.401
-742.127	624.211	-0.058	0.150
-741.112	247.936	-0.089	-0.153
-740.098	784.234	-0.054	-0.150
-739.083	271.833	0.151	-0.272
-738.069	-104.764	-0.343	0.081
-737.054	-182.947	0.323	-0.006
-736.039	95.648	-0.091	0.106
-735.025	-200.000	0.097	0.620
-734.010	361.584	-0.225	0.462
-732.996	800.000	-0.071	-0.215
-731.981	-56.410	0.301	0.137
-730.966	94.489	0.083	-0.097
-729.952	800.000	0.016	0.073
-728.937	-200.000	-0.030	-0.373
-727.923	-21.519	-0.125	-0.078
-726.908	-100.874	-0.065	0.016
-725.894	-72.111	-0.203	-0.077
-724.879	109.083	0.200	-0.244
-723.864	313.925	0.142	-0.274
-722.850	-200.000	-0.020	0.172
-721.835	29.747	-0.221	0.193
-720.821	357.665	0.024	-0.048
-719.806	-69.250	-0.165	0.065
-718.791	800.000	0.008	-0.027
-717.777	479.328	0.124	-0.288
-716.762	265.153	-0.053	0.094
-715.748	800.000	-0.057	-0.173
-714.733	-1.841	-0.135	-0.097
-713.718	-136.303	-0.328	-0.039
-712.704	-200.000	-0.026	-0.147
-711.689	-22.836	0.138	-0.085
-710.675	800.000	0.037	0.105
-709.660	-44.710	-0.181	-0.092
-708.645	435.371	-0.067	-0.149
-707.631	-13.474	-0.120	-0.079
-706.616	51.040	0.169	0.164
-705.602	-146.678	0.229	0.020
-704.587	800.000	-0.075	-0.275
-703.572	-135.394	-0.121	0.015
-702.558	115.599	-0.179	-0.223
-701.543	-200.000	0.070	0.363
-700.529	-200.000	-0.017	0.101
-699.514	-120.468	0.124	-0.022
-698.499	-121.010	0.172	0.029
-697.485	-90.723	-0.211	0.062
-696.470	-103.159	0.267	-0.064
-695.456	-200.000	-0.017	0.566
-694.441	357.234	-0.062	0.125
-693.426	69.152	0.107	-0.113
-692.412	800.000	0.037	-0.107
-691.397	800.000	0.025	0.092
-690.383	54.904	0.198	-0.195
-689.368	800.000	-0.065	-0.198
-688.354	-180.240	0.123	-0.003
-687.339	450.766	0.152	0.343
-686.324	-200.000	0.147	0.000
-685.310	428.124	0.119	0.262
-684.295	242.214	-0.146	0.249
-683.281	396.665	-0.052	-0.112
-682.266	-200.000	0.046	-0.283
-681.251	-200.000	-0.024	-0.247
-680.237	-13.697	-0.094	-0.062
-679.222	147.404	-0.022	0.031
-678.208	-200.000	0.006	-0.233
-677.193	-30.823	-0.268	-0.155
-676.178	136.864	-0.066	0.088
-675.164	-161.024	-0.277	0.015
-674.149	-200.000	-0.034	0.300
-673.135	-200.000	-0.017	0.217
-672.120	-200.000	0.004	-0.062
-671.105	-160.666	0.110	-0.006
-670.091	-52.367	-0.067	-0.032
-669.076	756.848	-0.031	0.087
-668.062	470.668	-0.057	-0.132
-667.047	-200.000	0.002	-0.179
-666.032	106.058	0.107	-0.129
-665.018	-200.000	-0.002	-0.145
-664.003	68.910	-0.057	-0.059
-662.989	800.000	0.031	0.114
-661.974	-137.213	0.393	0.046
-660.959	-95.752	0.346	-0.094
-659.945	157.124	0.053	0.075
-658.930	-11.835	0.183	-0.123
-657.916	800.000	0.030	-0.133
-656.901	-200.000	0.026	0.155
-655.886	-200.000	0.008	0.101
-654.872	-50.379	-0.255	-0.123
-653.857	-200.000	0.034	0.269
-652.843	68.707	0.088	0.092
-651.828	11.562	-0.258	0.201
-650.814	-200.000	0.050	0.244
-649.799	227.908	-0.178	-0.295
-648.784	313.632	-0.130	0.250
-647.770	-81.022	-0.215	-0.072
-646.755	-200.000	-0.001	0.017
-645.741	140.629	0.111	0.150
-644.726	-163.744	0.125	-0.006
-643.711	800.000	0.121	-0.355
-642.697	-49.095	-0.147	-0.071
-641.682	-1.289	-0.334	-0.240
-640.668	572.034	0.191	-0.473
-639.653	-200.000	0.078	-0.383
-638.638	9.353	0.057	-0.044
-637.624	800.000	-0.051	0.203
-636.609	-121.223	-0.467	0.080
-635.595	-83.358	0.308	0.101
-634.580	95.086	-0.154	-0.179
-633.565	-134.792	-0.153	-0.019
-632.551	27.597	-0.116	-0.100
-631.536	800.000	-0.150	-0.465
-630.522	-118.627	0.453	0.081
-629.507	-200.000	0.008	0.141
-628.492	244.292	-0.154	0.264
-627.478	-102.836	0.209	-0.051
-626.463	415.941	0.028	-0.061
-625.449	-64.057	0.127	-0.053
-624.434	242.519	0.076	0.130
-623.419	37.535	-0.096	-0.087
-622.405	-61.720	-0.170	0.073
-621.390	156.548	0.070	-0.099
-620.376	33.775	0.143	-0.127
-619.361	800.000	0.058	-0.217
-618.346	-71.150	0.288	-0.110
-617.332	22.746	0.303	-0.252
-616.317	-51.718	0.263	0.124
-615.303	71.117	0.156	0.165
-614.288	220.834	0.066	0.108
-613.273	-92.243	-0.149	0.043
-612.259	555.312	-0.053	0.129
-611.244	642.542	-0.063	-0.163
-610.230	-169.186	-0.233	-0.009
-609.215	38.993	-0.253	0.230
-608.201	800.000	0.084	0.248
-607.186	118.951	0.058	0.073
-606.171	-200.000	-0.034	-0.340
-605.157	-27.761	0.212	0.125
-604.142	58.831	0.140	-0.140
-603.128	-100.089	-0.245	-0.062
-602.113	132.902	0.087	0.115
-601.098	-118.087	-0.089	-0.016
-600.084	-45.713	0.340	-0.171
-599.069	-93.437	0.261	-0.073
-598.055	3.315	-0.087	0.064
-597.040	-144.423	-0.127	-0.012
-596.025	-200.000	-0.029	-0.222
-595.011	247.521	0.234	0.402
-593.996	107.359	0.053	0.065
-592.982	121.421	0.139	0.176
-591.967	-155.418	0.321	-0.021
-590.952	-200.000	-0.053	0.346
-589.938	-19.619	0.214	0.134
-588.923	45.428	-0.441	0.414
-587.909	-200.000	-0.024	0.282
-586.894	-107.706	-0.369	0.082
-585.879	-133.764	0.265	-0.034
-584.865	-145.922	-0.061	-0.005
-583.850	180.173	-0.023	0.035
-582.836	652.696	-0.052	0.135
-581.821	-37.937	0.298	-0.161
-580.806	207.626	-0.083	-0.131
-579.792	-79.061	-0.338	-0.117
-578.777	-102.607	-0.226	-0.055
-577.763	41.282	0.395	-0.363
-576.748	-200.000	0.003	-0.121
-575.733	410.287	0.030	0.064
-574.719	209.468	-0.123	-0.195
-573.704	233.174	-0.083	0.138
-572.690	613.583	-0.059	0.151
-571.675	-119.023	-0.049	-0.009
-570.661	-27.376	-0.006	0.004
-569.646	-62.370	0.117	0.050
-568.631	129.938	0.180	-0.234
-567.617	392.836	-0.129	0.272
-566.602	-200.000	0.004	-0.187
-565.588	-200.000	-0.037	0.238
-564.573	-76.104	-0.201	0.072
-563.558	-6.920	-0.248	0.171
-562.544	76.983	-0.110	-0.118
-561.529	-121.408	0.472	-0.080
-560.515	368.187	0.026	-0.053
-559.500	-126.298	0.214	0.032
-558.485	132.677	0.117	0.153
-557.471	-179.922	0.221	-0.005
-556.456	-141.902	-0.314	-0.032
-555.442	-44.222	-0.056	0.029
-554.427	-6.254	-0.156	0.108
-553.412	95.175	0.105	-0.122
-552.398	-115.085	0.170	0.033
-551.383	-100.788	-0.249	-0.062
-550.369	-70.020	-0.051	0.020
-549.354	-200.000	-0.004	0.040
-548.339	-80.271	0.072	-0.025
-547.325	-126.086	0.158	-0.024
-546.310	-153.450	0.124	-0.009
-545.296	81.629	-0.329	0.361
-544.281	-14.352	0.048	0.032
-543.266	-28.505	0.193	0.113
-542.252	-157.651	-0.094	0.006
-541.237	-72.372	-0.013	0.005
-540.223	246.983	0.190	-0.325
-539.208	-78.977	0.093	-0.032
-538.193	800.000	0.056	0.223
-537.179	800.000	0.061	-0.218
-536.164	-78.717	-0.567	0.196
-535.150	-200.000	-0.006	0.255
-534.135	-4.374	-0.323	-0.227
-533.121	63.580	-0.120	-0.123
-532.106	-12.847	-0.156	-0.103
-531.091	-48.227	0.140	-0.068
-530.077	-200.000	-0.003	-0.151
-529.062	800.000	-0.020	0.059
-528.048	326.068	0.059	0.114
-527.033	-1.524	0.010	-0.007
-526.018	800.000	-0.048	0.174
-525.004	800.000	0.036	-0.148
-523.989	-200.000	-0.027	0.249
-522.975	139.496	-0.200	-0.267
-521.960	-59.292	0.071	-0.031
-520.945	-75.497	-0.409	-0.148
-519.931	-2.855	-0.189	0.134
-518.916	-104.844	0.172	-0.040
-517.902	-146.679	-0.447	-0.039
-516.887	-20.756	-0.222	-0.138
-515.872	-200.000	-0.017	-0.207
-514.858	-125.509	0.267	0.041
-513.843	-156.835	-0.208	0.013
-512.829	-20.900	-0.115	-0.072
-511.814	-69.233	0.479	0.186
-510.799	325.684	0.053	-0.103
-509.785	189.185	0.097	0.147
-508.770	246.868	0.065	0.111
-507.756	-61.260	-0.312	0.133
-506.741	-132.566	-0.420	-0.055
-505.726	235.727	-0.052	0.086
-504.712	-149.112	-0.412	0.034
-503.697	59.768	-0.148	-0.148
-502.683	-200.000	-0.042	-0.219
-501.668	372.979	0.088	-0.181
-500.653	11.763	-0.249	-0.193
-499.639	15.593	0.121	-0.096
-498.624	-200.000	0.029	-0.188
-497.610	-61.148	0.141	-0.060
-496.595	800.000	-0.102	0.375
-495.581	295.563	0.126	0.234
-494.566	-51.343	-0.314	0.149
-493.551	-43.370	0.168	-0.086
-492.537	183.883	-0.136	0.204
-491.522	-20.084	0.209	0.130
-490.508	-10.594	0.118	-0.079
-489.493	-200.000	-0.012	-0.150
-488.478	18.090	-0.149	-0.120
-487.464	94.926	0.073	0.084
-486.449	176.527	-0.070	-0.104
-485.435	-200.000	-0.019	-0.116
-484.420	-1.762	-0.385	0.274
-483.405	-200.000	0.066	0.365
-482.391	-200.000	-0.001	0.055
-481.376	-43.858	-0.108	0.055
-480.362	800.000	0.010	0.038
-479.347	800.000	0.052	-0.220
-478.332	196.304	0.162	-0.250
-477.318	-146.549	0.349	0.031
-476.303	-69.897	-0.404	0.156
-475.289	800.000	-0.013	0.037
-474.274	-180.716	0.300	0.006
-473.259	125.719	-0.113	-0.145
-472.245	641.317	0.055	-0.141
-471.230	800.000	-0.069	-0.213
-470.216	800.000	0.089	0.297
-469.201	-200.000	-0.042	-0.219
-468.186	44.366	-0.320	-0.298
-467.172	2.472	0.176	0.129
-466.157	-15.481	-0.154	0.099
-465.143	-171.986	-0.184	-0.006
-464.128	69.978	0.218	0.227
-463.113	-147.296	-0.303	0.026
-462.099	4.853	0.099	0.074
-461.084	-200.000	-0.016	-0.150
-460.070	87.889	0.149	-0.167
-459.055	-22.202	0.154	-0.094
-458.040	33.204	0.139	-0.122
-457.026	-21.442	-0.138	-0.085
-456.011	-38.505	-0.060	-0.032
-454.997	800.000	0.081	0.346
-453.982	-200.000	-0.005	-0.033
-452.968	-35.277	0.162	-0.089
-451.953	-98.684	-0.150	0.039
-450.938	-94.631	-0.444	-0.122
-449.924	-200.000	0.014	-0.244
-448.909	-47.878	0.062	-0.030
-447.895	-200.000	0.025	0.329
-446.880	-97.401	0.262	-0.069
-445.865	-166.566	0.193	0.008
-444.851	158.527	0.092	-0.129
-443.836	175.004	-0.151	-0.221
-442.822	146.726	0.223	-0.303
-441.807	-123.700	-0.210	0.034
-440.792	-29.726	-0.090	-0.052
-439.778	-13.570	-0.078	0.051
-438.763	30.014	-0.431	0.371
-437.749	81.336	-0.365	-0.399
-436.734	391.012	0.162	-0.339
-435.719	-48.204	0.332	-0.162
-434.705	-56.472	0.195	-0.087
-433.690	6.834	-0.303	0.228
-432.676	-6.304	0.116	-0.080
-431.661	-78.946	-0.236	-0.081
-430.646	744.888	-0.020	-0.055
-429.632	-1.992	-0.204	0.145
-428.617	75.278	0.010	-0.011
-427.603	12.780	0.117	0.092
-426.588	-87.575	-0.135	-0.041
-425.573	9.484	0.218	-0.167
-424.559	-3.097	-0.342	-0.241
-423.544	30.688	-0.109	-0.094
-422.530	421.864	0.050	-0.108
-421.515	96.938	-0.189	-0.219
-420.500	359.553	0.095	0.192
-419.486	-85.531	-0.095	-0.030
-418.471	800.000	0.099	0.305
-417.457	-36.136	-0.302	-0.165
-416.442	-75.486	0.122	0.044
-415.428	119.301	0.167	0.208
-414.413	51.821	-0.303	-0.291
-413.398	-74.629	0.269	0.098
-412.384	3.407	0.089	0.065
-411.369	-82.808	0.275	0.090
-410.355	-33.859	-0.034	-0.019
-409.340	-200.000	0.024	-0.116
-408.325	-200.000	-0.094	-0.428
-407.311	-120.470	0.035	0.006
-406.296	177.868	0.017	0.025
-405.282	121.667	0.170	-0.214
-404.267	73.497	0.200	-0.211
-403.252	-180.910	0.340	0.007
-402.238	-79.099	-0.240	0.082
-401.223	15.993	-0.128	0.102
-400.209	800.000	0.057	-0.252
-399.194	-121.646	0.057	-0.010
-398.179	528.351	0.199	0.474
-397.165	800.000	0.053	-0.206
-396.150	235.474	-0.245	0.408
-395.136	-91.405	-0.390	0.112
-394.121	-200.000	-0.031	-0.157
-393.106	22.271	0.147	0.122
-392.092	800.000	-0.107	0.330
-391.077	-115.133	0.112	0.021
-390.063	-106.242	0.145	0.033
-389.048	-117.060	-0.013	0.002
-388.033	46.979	0.097	-0.091
-387.019	158.529	-0.229	-0.320
-386.004	-9.812	-0.134	-0.090
-384.990	-200.000	-0.031	0.337
-383.975	75.505	0.312	0.333
-382.960	86.201	0.125	0.139
-381.946	-32.863	0.127	-0.071
-380.931	395.227	0.090	0.190
-379.917	68.755	0.134	-0.138
-378.902	25.264	0.051	0.043
-377.888	-141.934	0.141	-0.014
-376.873	62.391	0.203	0.205
-375.858	-90.449	-0.139	0.041
-374.844	344.097	0.050	-0.099
-373.829	-190.157	-0.189	0.002
-372.815	455.220	0.119	0.265
-371.800	-87.717	-0.200	-0.061
-370.785	-200.000	0.005	-0.256
-369.771	202.741	0.055	-0.085
-368.756	-134.445	0.039	-0.005
-367.742	-83.580	-0.212	-0.068
-366.727	-73.307	-0.298	0.110
-365.712	-19.073	-0.145	-0.091
-364.698	-107.237	0.200	0.044
-363.683	101.234	0.141	-0.165
-362.669	-113.828	0.105	-0.021
-361.654	-197.944	0.056	0.000
-360.639	-100.889	-0.181	-0.045
-359.625	-24.871	0.265	0.159
-358.610	-172.126	-0.381	-0.012
-357.596	-73.833	0.207	-0.076
-356.581	99.181	-0.180	-0.209
-355.566	-94.770	0.400	0.109
-354.552	92.721	0.220	-0.250
-353.537	529.979	0.176	-0.418
-352.523	157.607	-0.251	-0.350
-351.508	-99.183	0.157	-0.040
-350.493	368.569	0.107	-0.217
-349.479	-200.000	-0.005	-0.164
-348.464	-108.983	0.203	-0.044
-347.450	519.756	-0.084	-0.199
-346.435	17.189	0.104	0.083
-345.420	-76.082	0.095	-0.034
-344.406	-200.000	-0.013	-0.192
-343.391	-130.753	-0.244	-0.033
-342.377	-200.000	-0.027	-0.246
-341.362	-128.025	-0.238	-0.034
-340.348	800.000	-0.024	0.074
-339.333	264.210	0.183	0.320
-338.318	189.274	-0.116	0.175
-337.304	35.558	0.239	0.211
-336.289	7.642	-0.193	0.145
-335.275	-200.000	-0.022	0.119
-334.260	-200.000	-0.026	0.320
-333.245	257.376	-0.110	0.190
-332.231	-17.471	-0.211	0.134
-331.216	-200.000	0.021	-0.275
-330.202	-200.000	0.008	0.068
-329.187	-133.380	0.157	-0.020
-328.172	75.553	0.017	0.018
-327.158	-101.010	-0.537	-0.133
-326.143	800.000	0.050	-0.174
-325.129	-46.800	0.238	-0.117
-324.114	-200.000	0.013	-0.201
-323.099	-111.057	0.085	-0.018
-322.085	-123.970	0.072	0.011
-321.070	175.999	-0.100	0.146
-320.056	-2.464	-0.261	-0.184
-319.041	-69.991	-0.176	-0.068
-318.026	-158.603	-0.085	-0.005
-317.012	-142.002	-0.257	-0.026
-315.997	-127.074	-0.230	0.034
-314.983	224.953	0.203	-0.330
-313.968	-63.127	0.158	0.066
-312.953	322.206	0.048	0.091
-311.939	-136.163	-0.346	0.041
-310.924	800.000	0.043	0.129
-309.910	208.557	-0.043	0.067
-308.895	-62.072	0.251	-0.105
-307.880	563.253	0.059	0.143
-306.866	83.992	-0.182	-0.200
-305.851	-200.000	-0.001	0.062
-304.837	240.684	0.126	0.211
-303.822	-152.843	0.246	-0.018
-302.807	-200.000	-0.085	0.393
-301.793	250.717	0.046	-0.078
-300.778	-200.000	-0.026	0.261
-299.764	-200.000	0.042	-0.241
-298.749	293.353	-0.076	-0.139
-297.735	-200.000	-0.006	-0.135
-296.720	-17.719	0.126	-0.079
-295.705	800.000	0.005	-0.022
-294.691	-64.495	-0.024	0.010
-293.676	598.160	0.069	0.172
-292.662	-200.000	0.045	0.253
-291.647	-200.000	-0.019	-0.151
-290.632	168.368	-0.173	-0.247
-289.618	-123.349	0.047	-0.007
-288.603	-93.002	0.198	0.055
-287.589	-21.227	-0.090	-0.056
-286.574	-42.534	-0.142	-0.073
-285.559	265.367	-0.215	0.377
-284.545	-95.335	-0.203	0.055
-283.530	15.714	0.066	0.052
-282.516	439.970	-0.096	-0.211
-281.501	731.890	0.121	-0.326
-280.486	-25.310	-0.044	-0.026
-279.472	-79.670	0.191	-0.065
-278.457	-122.159	-0.326	-0.054
-277.443	626.340	0.054	0.136
-276.428	800.000	-0.068	0.194
-275.413	27.288	-0.243	-0.205
-274.399	181.779	0.113	0.167
-273.384	-119.915	-0.345	0.060
-272.370	433.569	-0.141	0.307
-271.355	599.650	0.026	-0.066
-270.340	96.088	-0.042	0.048
-269.326	-17.696	-0.152	-0.096
-268.311	548.340	0.020	0.048
-267.297	114.463	-0.033	-0.041
-266.282	-52.594	0.351	-0.163
-265.267	800.000	-0.154	0.467
-264.253	127.947	0.087	-0.111
-263.238	104.482	-0.154	0.183
-262.224	-130.134	0.112	0.015
-261.209	-122.289	0.056	0.009
-260.195	-200.000	-0.000	-0.313
-259.180	-8.151	-0.319	0.216
-258.165	-200.000	-0.028	0.525
-257.151	-16.184	0.404	0.257
-256.136	800.000	0.039	-0.147
-255.122	-35.601	-0.126	-0.068
-254.107	734.106	0.077	0.208
-253.092	209.536	0.029	0.045
-252.078	-20.123	-0.265	0.164
-251.063	-58.730	0.259	-0.113
-250.049	28.321	-0.200	-0.169
-249.034	800.000	-0.089	-0.324
-248.019	61.141	0.367	-0.366
-247.005	383.219	0.062	0.129
-245.990	179.178	0.153	0.224
-244.976	-67.121	0.306	0.121
-243.961	145.706	0.318	0.427
-242.946	-175.100	0.084	0.002
-241.932	-23.123	0.087	0.053
-240.917	-157.797	0.442	-0.026
-239.903	212.555	0.042	0.067
-238.888	-46.053	0.319	0.158
-237.873	68.881	0.157	-0.162
-236.859	-23.613	0.227	-0.136
-235.844	333.180	0.082	0.159
-234.830	800.000	-0.059	0.247
-233.815	-13.247	-0.155	-0.101
-232.800	-85.129	0.258	0.081
-231.786	800.000	-0.050	0.168
-230.771	-200.000	-0.236	-0.000
-229.757	367.144	0.162	0.328
-228.742	29.084	0.223	-0.190
-227.727	88.039	0.210	0.233
-226.713	-124.704	0.063	0.010
-225.698	800.000	-0.134	-0.378
-224.684	-69.509	-0.220	-0.085
-223.669	161.682	-0.090	0.126
-222.655	183.067	-0.044	0.065
-221.640	-200.000	-0.022	-0.242
-220.625	-156.979	0.331	0.020
-219.611	-63.925	0.118	0.048
-218.596	7.211	0.149	0.111
-217.582	-200.000	-0.093	0.439
-216.567	-72.309	0.477	-0.177
-215.552	-92.550	0.146	-0.041
-214.538	89.922	0.275	0.307
-213.523	-18.286	-0.073	-0.046
-212.509	190.659	-0.079	-0.119
-211.494	-77.719	-0.113	0.039
-210.479	-200.000	0.005	0.109
-209.465	30.600	-0.242	0.207
-208.450	10.630	-0.116	-0.088
-207.436	79.524	0.042	0.045
-206.421	-106.535	-0.148	-0.033
-205.406	800.000	-0.066	-0.201
-204.392	70.985	-0.191	0.198
-203.377	-60.428	0.192	-0.082
-202.363	-161.570	0.515	-0.026
-201.348	37.704	0.263	-0.234
-200.333	-144.592	-0.199	0.018
-199.319	-36.261	0.219	0.118
-198.304	-14.206	-0.150	-0.097
-197.290	409.713	0.141	-0.300
-196.275	-200.000	-0.025	-0.158
-195.260	-64.739	-0.197	0.080
-194.246	-84.097	-0.167	0.053
-193.231	142.375	0.110	0.146
-192.217	-40.209	-0.226	-0.118
-191.202	-200.000	-0.002	-0.089
-190.187	-160.540	0.534	-0.029
-189.173	740.429	0.011	0.029
-188.158	-200.000	-0.020	-0.226
-187.144	-200.000	0.046	0.346
-186.129	55.691	-0.072	0.070
-185.114	-94.640	-0.162	-0.044
-184.100	-167.627	-0.249	0.010
-183.085	281.699	-0.167	-0.300
-182.071	143.617	-0.116	-0.154
-181.056	398.409	0.064	-0.133
-180.042	108.490	-0.177	0.211
-179.027	143.870	-0.137	0.182
-178.012	166.686	0.291	0.412
-176.998	-95.407	0.144	-0.039
-175.983	46.655	0.095	0.089
-174.969	800.000	0.009	-0.037
-173.954	21.036	0.262	0.212
-172.939	-58.293	-0.162	0.070
-171.925	800.000	0.176	0.511
-170.910	-200.000	0.048	0.385
-169.896	60.011	-0.078	-0.077
-168.881	800.000	-0.009	-0.031
-167.866	-93.719	-0.275	0.076
-166.852	-148.953	0.142	0.011
-165.837	273.346	-0.078	-0.137
-164.823	-109.706	0.331	0.070
-163.808	257.479	-0.048	-0.083
-162.793	-132.036	0.169	0.022
-161.779	-26.826	-0.272	0.159
-160.764	-61.324	-0.119	0.050
-159.750	-200.000	0.009	0.088
-158.735	-73.080	0.431	-0.158
-157.720	-24.787	0.094	-0.056
-156.706	533.015	0.119	0.281
-155.691	-200.000	-0.165	0.000
-154.677	-200.000	-0.022	0.124
-153.662	-200.000	0.002	-0.448
-152.647	-83.102	-0.293	0.094
-151.633	800.000	0.007	-0.030
-150.618	-108.969	0.089	-0.019
-149.604	11.047	-0.156	0.119
-148.589	800.000	0.069	-0.201
-147.574	-71.512	-0.094	0.035
-146.560	150.861	0.233	0.316
-145.545	-58.844	-0.181	0.078
-144.531	-200.000	-0.066	0.449
-143.516	390.894	-0.147	0.305
-142.502	-128.349	0.487	-0.069
-141.487	53.584	-0.173	-0.165
-140.472	-200.000	0.066	0.356
-139.458	-63.831	0.018	-0.007
-138.443	-154.377	-0.140	0.009
-137.429	433.100	0.248	0.537
-136.414	73.928	-0.240	-0.252
-135.399	-123.187	0.346	-0.055
-134.385	-79.430	-0.034	0.011
-133.370	800.000	0.105	-0.346
-132.356	-97.953	0.248	-0.064
-131.341	-122.352	0.071	-0.012
-130.326	800.000	-0.080	0.275
-129.312	128.508	0.213	0.271
-128.297	-200.000	0.036	0.258
-127.283	187.498	-0.202	0.301
-126.268	800.000	-0.027	-0.074
-125.253	-26.742	-0.123	0.072
-124.239	-200.000	-0.030	0.323
-123.224	48.837	-0.093	0.087
-122.210	-157.615	0.196	-0.012
