DTS Sentinel unit serial number:	SN413079Multiplexer serial number:	ORYXHardware model number:	OX4-SRSoftware version number:	ORYX F/W v4.00 Oryx Data Collector v3.7.2.0data status	okinstallation	princeton_trtdifferential loss correction	single-endedforward channel	channel 3reverse channel	N/Adate	2019/09/17time	05:24:34forward acquisition time	60.00reverse acquisition time	0.00gamma	496.2192k internal	0.2325k external	0.2325temperature offset calibration	0.9941default loss term (dB/km)	0.3790temperature slope calibration	1.0000multiplexer offset coefficient	1.0000multiplexer slope coefficient	1.0000fibre end	0.00T internal ref (°C)	29.31T ext. ref 1 (°C)	0.15T ext. ref 2 (°C)	23.48length (m)	temperature (°C)	Stokes	anti-Stokes-747.200	419.257	-0.019	0.041
-746.185	-200.000	-0.030	0.200
-745.171	-113.234	0.120	-0.024
-744.156	16.934	-0.366	0.293
-743.142	-85.971	-0.099	0.031
-742.127	-113.323	-0.127	-0.025
-741.112	33.427	-0.192	-0.169
-740.098	-135.519	-0.194	-0.023
-739.083	242.208	0.137	-0.230
-738.069	229.936	-0.092	0.151
-737.054	-62.700	-0.322	0.135
-736.039	-118.374	-0.278	0.050
-735.025	66.913	0.058	0.059
-734.010	-53.551	-0.064	0.029
-732.996	241.911	0.073	-0.124
-731.981	-123.703	-0.416	-0.067
-730.966	-149.316	0.184	-0.015
-729.952	236.493	-0.132	0.220
-728.937	59.912	0.142	-0.142
-727.923	-121.322	-0.095	-0.016
-726.908	800.000	0.046	0.193
-725.894	800.000	-0.082	0.358
-724.879	238.793	-0.195	-0.326
-723.864	-52.780	-0.154	-0.072
-722.850	-50.415	-0.055	-0.026
-721.835	-85.797	-0.366	-0.114
-720.821	268.257	-0.149	0.263
-719.806	800.000	0.067	-0.248
-718.791	-35.564	0.305	0.167
-717.777	60.161	-0.256	-0.255
-716.762	-147.274	-0.181	-0.016
-715.748	-200.000	-0.007	0.379
-714.733	-200.000	0.010	0.142
-713.718	-101.382	0.188	-0.046
-712.704	115.333	0.106	0.131
-711.689	-45.792	0.426	0.212
-710.675	137.272	-0.152	0.201
-709.660	73.954	-0.364	-0.385
-708.645	-200.000	-0.061	-0.418
-707.631	-200.000	-0.001	-0.104
-706.616	800.000	0.162	0.547
-705.602	-85.042	-0.378	0.119
-704.587	800.000	-0.192	0.572
-703.572	577.104	-0.073	-0.181
-702.558	60.024	-0.055	-0.054
-701.543	-200.000	0.069	0.307
-700.529	800.000	0.032	0.112
-699.514	56.316	-0.089	-0.087
-698.499	265.003	-0.266	-0.466
-697.485	-93.076	0.350	-0.098
-696.470	-200.000	-0.036	-0.414
-695.456	800.000	-0.128	-0.377
-694.441	-96.377	0.217	-0.058
-693.426	77.612	0.104	-0.111
-692.412	6.836	0.231	-0.173
-691.397	654.676	-0.107	0.276
-690.383	337.883	-0.151	-0.296
-689.368	-73.853	0.244	-0.089
-688.354	-200.000	0.006	-0.207
-687.339	13.353	0.254	0.198
-686.324	156.539	0.012	-0.017
-685.310	-200.000	0.007	-0.131
-684.295	-59.613	0.044	0.019
-683.281	127.158	0.173	-0.221
-682.266	-47.594	0.158	-0.077
-681.251	368.065	0.155	-0.315
-680.237	-200.000	0.026	0.141
-679.222	160.555	0.010	0.014
-678.208	-200.000	0.026	0.134
-677.193	800.000	-0.101	-0.384
-676.178	-200.000	-0.002	0.118
-675.164	800.000	-0.055	0.168
-674.149	-200.000	0.045	0.319
-673.135	-200.000	0.028	0.471
-672.120	-189.353	-0.135	-0.002
-671.105	72.134	-0.138	0.145
-670.091	52.934	-0.058	-0.056
-669.076	-5.145	0.192	-0.133
-668.062	-200.000	-0.050	-0.485
-667.047	109.708	-0.147	0.177
-666.032	173.594	0.092	0.134
-665.018	49.598	0.164	-0.156
-664.003	-88.301	-0.315	-0.095
-662.989	-52.579	0.159	0.074
-661.974	-85.341	-0.147	0.046
-660.959	-200.000	0.024	0.128
-659.945	-137.635	0.232	-0.026
-658.930	-200.000	0.046	-0.224
-657.916	56.552	-0.166	0.162
-656.901	-112.769	-0.185	0.037
-655.886	-173.513	0.094	0.003
-654.872	-0.369	-0.377	-0.269
-653.857	800.000	-0.117	0.366
-652.843	800.000	0.091	-0.372
-651.828	-71.759	-0.350	0.131
-650.814	20.263	0.251	0.204
-649.799	175.808	-0.125	-0.183
-648.784	-200.000	-0.064	-0.453
-647.770	-6.986	0.139	-0.095
-646.755	-149.134	0.191	-0.015
-645.741	-5.466	-0.126	-0.087
-644.726	131.884	0.046	-0.059
-643.711	11.614	0.211	0.163
-642.697	699.159	0.032	-0.086
-641.682	0.621	-0.277	-0.199
-640.668	-0.536	0.103	-0.073
-639.653	58.290	0.095	0.093
-638.638	-200.000	0.057	0.310
-637.624	7.638	-0.209	-0.157
-636.609	-200.000	0.011	0.114
-635.595	-45.047	-0.135	0.068
-634.580	-117.818	-0.093	-0.017
-633.565	45.793	0.231	0.214
-632.551	-200.000	0.037	-0.194
-631.536	345.525	0.176	0.348
-630.522	210.765	-0.007	0.011
-629.507	-200.000	0.053	-0.577
-628.492	84.557	0.184	0.203
-627.478	-67.218	0.250	-0.099
-626.463	-118.269	-0.072	-0.013
-625.449	92.048	0.172	0.194
-624.434	-60.832	-0.209	-0.089
-623.419	44.930	0.051	-0.047
-622.405	-36.363	-0.199	-0.108
-621.390	-67.715	-0.197	-0.077
-620.376	217.890	-0.066	0.106
-619.361	-105.680	0.210	-0.048
-618.346	38.447	0.356	0.319
-617.332	-200.000	0.003	0.054
-616.317	224.602	0.312	0.507
-615.303	133.350	0.075	-0.098
-614.288	-77.714	-0.401	0.139
-613.273	-49.095	-0.124	-0.059
-612.259	300.132	0.242	-0.448
-611.244	-76.539	0.115	-0.041
-610.230	227.270	0.091	-0.149
-609.215	-80.821	0.156	-0.052
-608.201	8.913	-0.207	-0.157
-607.186	200.088	-0.166	-0.256
-606.171	247.743	-0.186	-0.316
-605.157	90.682	0.224	-0.252
-604.142	37.196	0.163	-0.145
-603.128	733.054	0.044	-0.119
-602.113	-200.000	-0.007	-0.159
-601.098	-18.010	0.120	-0.075
-600.084	-8.421	0.235	-0.158
-599.069	-138.807	-0.166	-0.018
-598.055	-26.876	0.288	-0.169
-597.040	118.106	0.170	-0.210
-596.025	-200.000	0.005	0.159
-595.011	182.099	-0.063	-0.093
-593.996	65.185	-0.130	-0.132
-592.982	-117.921	0.253	-0.045
-591.967	68.585	-0.017	0.017
-590.952	81.838	-0.224	-0.244
-589.938	-200.000	0.045	-0.232
-588.923	-67.406	-0.365	0.144
-587.909	-25.604	-0.149	-0.088
-586.894	800.000	0.006	-0.018
-585.879	10.063	-0.326	-0.248
-584.865	-16.562	0.146	-0.093
-583.850	-73.318	-0.121	0.045
-582.836	138.308	0.160	-0.211
-581.821	-77.102	-0.068	-0.024
-580.806	800.000	-0.079	-0.218
-579.792	12.775	0.052	-0.040
-578.777	-200.000	-0.018	0.134
-577.763	-80.729	0.176	-0.059
-576.748	182.798	0.167	0.247
-575.733	-39.156	-0.134	0.071
-574.719	-119.982	0.282	0.049
-573.704	24.346	-0.322	0.267
-572.690	96.489	-0.208	-0.238
-571.675	800.000	0.012	0.048
-570.661	106.182	0.248	0.295
-569.646	-29.544	0.197	-0.113
-568.631	-62.647	0.316	0.131
-567.617	-70.395	0.336	0.128
-566.602	800.000	-0.078	-0.306
-565.588	-155.353	0.409	-0.027
-564.573	-200.000	-0.011	-0.140
-563.558	279.169	0.141	-0.253
-562.544	7.442	-0.123	0.092
-561.529	800.000	-0.021	0.086
-560.515	-154.895	-0.088	0.006
-559.500	-188.742	-0.127	-0.002
-558.485	281.766	0.126	0.226
-557.471	85.882	-0.149	0.164
-556.456	-162.729	0.117	-0.006
-555.442	46.963	-0.166	-0.154
-554.427	-106.924	-0.143	0.032
-553.412	208.596	-0.259	-0.406
-552.398	167.112	0.051	0.072
-551.383	87.095	-0.046	-0.051
-550.369	-200.000	-0.003	0.034
-549.354	352.364	0.160	0.317
-548.339	-71.575	0.195	0.073
-547.325	800.000	-0.087	0.373
-546.310	-119.722	-0.136	0.023
-545.296	-200.000	0.018	0.290
-544.281	-14.908	0.084	-0.054
-543.266	-200.000	0.010	-0.128
-542.252	126.135	0.195	0.247
-541.237	131.022	-0.042	0.054
-540.223	-19.519	0.153	-0.095
-539.208	-66.782	-0.122	0.048
-538.193	49.890	0.211	-0.199
-537.179	800.000	0.085	-0.241
-536.164	800.000	-0.009	-0.029
-535.150	17.636	-0.174	0.138
-534.135	-200.000	0.002	0.046
-533.121	-76.601	-0.151	-0.053
-532.106	107.118	-0.131	0.155
-531.091	71.623	-0.181	0.188
-530.077	18.837	0.155	-0.124
-529.062	-23.031	-0.169	-0.102
-528.048	-129.611	0.119	-0.016
-527.033	78.893	0.039	-0.042
-526.018	-160.657	0.331	-0.018
-525.004	16.244	-0.295	0.232
-523.989	540.532	-0.069	-0.164
-522.975	-149.374	0.122	0.010
-521.960	-131.986	-0.124	-0.016
-520.945	-24.715	-0.188	0.112
-519.931	318.058	-0.139	-0.264
-518.916	-80.404	-0.114	-0.038
-517.902	-65.642	0.389	-0.156
-516.887	-200.000	-0.017	0.115
-515.872	249.498	-0.145	0.246
-514.858	305.621	0.146	0.271
-513.843	-200.000	0.024	-0.126
-512.829	-100.104	-0.159	-0.040
-511.814	-37.451	0.145	0.077
-510.799	-37.904	-0.096	-0.051
-509.785	141.584	-0.007	-0.010
-508.770	-7.360	-0.155	-0.105
-507.756	50.522	0.212	-0.201
-506.741	33.786	-0.206	0.179
-505.726	4.673	0.135	-0.099
-504.712	-40.239	-0.112	0.058
-503.697	114.873	-0.150	-0.183
-502.683	-116.044	-0.133	-0.025
-501.668	765.310	-0.063	0.172
-500.653	-114.853	-0.266	-0.051
-499.639	-44.802	-0.050	0.025
-498.624	-9.965	0.369	0.245
-497.610	800.000	0.043	0.127
-496.595	-200.000	-0.004	-0.212
-495.581	8.274	-0.315	-0.237
-494.566	800.000	-0.050	-0.218
-493.551	89.218	-0.216	-0.241
-492.537	-90.657	0.212	0.061
-491.522	-76.285	0.187	-0.066
-490.508	578.837	-0.097	-0.238
-489.493	-164.580	-0.289	0.013
-488.478	800.000	-0.109	0.364
-487.464	-8.930	-0.320	0.214
-486.449	-200.000	0.078	0.361
-485.435	-61.960	-0.150	-0.063
-484.420	625.291	0.220	0.555
-483.405	-149.150	-0.209	-0.017
-482.391	41.885	0.248	0.225
-481.376	123.782	0.141	0.176
-480.362	-136.653	0.132	0.015
-479.347	163.201	0.095	0.133
-478.332	239.245	0.071	-0.119
-477.318	62.051	-0.250	0.249
-476.303	447.125	0.117	0.258
-475.289	-25.860	0.082	0.048
-474.274	-200.000	0.012	-0.109
-473.259	-170.857	0.112	-0.004
-472.245	-11.388	-0.239	0.157
-471.230	800.000	0.094	0.277
-470.216	-200.000	-0.021	0.123
-469.201	-176.661	-0.175	0.004
-468.186	601.631	0.039	0.096
-467.172	-108.489	-0.325	-0.070
-466.157	800.000	-0.070	-0.246
-465.143	514.404	0.031	-0.073
-464.128	-200.000	-0.002	0.688
-463.113	-39.011	-0.320	0.168
-462.099	800.000	0.049	0.209
-461.084	-1.120	-0.016	0.011
-460.070	-122.485	0.351	-0.057
-459.055	433.043	-0.066	-0.143
-458.040	-33.949	-0.367	-0.202
-457.026	-200.000	-0.093	-0.478
-456.011	-65.364	0.277	0.111
-454.997	-164.926	-0.243	0.011
-453.982	721.547	-0.052	-0.139
-452.968	-100.029	0.234	0.058
-451.953	33.801	0.103	-0.089
-450.938	-14.745	-0.517	0.331
-449.924	33.102	-0.288	-0.249
-448.909	648.870	0.052	0.134
-447.895	-200.000	-0.035	-0.223
-446.880	-200.000	0.033	-0.226
-445.865	-37.277	-0.212	-0.113
-444.851	-38.631	0.186	0.098
-443.836	800.000	0.049	-0.202
-442.822	157.843	0.142	-0.196
-441.807	800.000	-0.065	0.196
-440.792	-199.960	0.096	0.000
-439.778	-58.662	-0.069	0.030
-438.763	-31.362	-0.337	-0.189
-437.749	145.539	0.091	0.121
-436.734	171.124	-0.187	0.267
-435.719	-44.701	0.222	-0.111
-434.705	-16.603	0.203	0.128
-433.690	-81.709	-0.250	0.082
-432.676	54.005	0.287	0.275
-431.661	-200.000	0.006	-0.247
-430.646	12.867	-0.043	-0.033
-429.632	800.000	0.082	0.284
-428.617	800.000	0.041	-0.155
-427.603	-97.773	0.317	-0.082
-426.588	-30.699	0.175	-0.099
-425.573	343.852	0.062	0.120
-424.559	-70.204	0.391	-0.148
-423.544	-53.426	0.139	0.064
-422.530	-48.723	-0.093	-0.044
-421.515	-132.220	0.221	0.029
-420.500	103.299	-0.169	0.197
-419.486	41.119	0.179	0.161
-418.471	-200.000	-0.019	0.139
-417.457	75.033	-0.156	-0.164
-416.442	-16.550	-0.229	0.144
-415.428	105.228	0.161	-0.189
-414.413	-200.000	-0.046	-0.573
-413.398	-18.074	0.246	-0.154
-412.384	489.828	-0.138	-0.315
-411.369	136.523	-0.132	0.171
-410.355	97.531	-0.075	0.086
-409.340	299.234	-0.077	0.141
-408.325	-200.000	0.047	0.534
-407.311	108.154	-0.087	-0.104
-406.296	-200.000	0.012	-0.295
-405.282	-200.000	0.000	-0.045
-404.267	64.384	-0.257	-0.258
-403.252	-116.730	0.215	-0.039
-402.238	12.971	0.162	0.125
-401.223	74.367	-0.508	-0.531
-400.209	91.351	0.183	0.204
-399.194	-200.000	0.006	-0.117
-398.179	800.000	-0.085	-0.295
-397.165	-200.000	-0.039	0.325
-396.150	94.342	0.195	-0.220
-395.136	800.000	0.061	-0.246
-394.121	102.995	0.217	0.253
-393.106	-200.000	0.010	-0.118
-392.092	133.550	-0.108	-0.139
-391.077	800.000	0.034	-0.107
-390.063	-30.489	-0.399	0.225
-389.048	346.758	0.104	-0.204
-388.033	21.688	0.089	-0.072
-387.019	-89.779	0.424	-0.124
-386.004	800.000	0.040	-0.160
-384.990	-112.362	-0.271	0.054
-383.975	-130.170	-0.492	0.067
-382.960	160.440	-0.081	-0.113
-381.946	800.000	-0.028	-0.091
-380.931	-24.874	-0.025	-0.015
-379.917	-200.000	0.014	-0.119
-378.902	-200.000	-0.027	-0.227
-377.888	474.692	0.103	0.231
-376.873	-145.429	-0.108	0.010
-375.858	-26.251	0.158	0.092
-374.844	266.625	0.135	-0.235
-373.829	-186.761	-0.066	0.001
-372.815	-200.000	0.048	-0.217
-371.800	-200.000	-0.087	0.405
-370.785	-43.509	0.114	-0.057
-369.771	-56.004	-0.152	0.067
-368.756	-142.477	0.307	0.030
-367.742	327.069	0.169	0.322
-366.727	-139.012	0.137	0.015
-365.712	800.000	-0.090	0.293
-364.698	24.686	0.391	0.322
-363.683	175.965	-0.019	0.028
-362.669	-86.257	0.101	0.031
-361.654	800.000	0.016	-0.064
-360.639	800.000	0.062	-0.254
-359.625	-56.338	0.131	-0.058
-358.610	800.000	0.056	0.194
-357.596	-200.000	0.017	0.177
-356.581	-123.944	-0.032	-0.005
-355.566	-200.000	0.003	-0.128
-354.552	800.000	-0.028	-0.101
-353.537	-84.916	-0.127	0.039
-352.523	-25.093	-0.184	-0.108
-351.508	50.862	-0.153	0.144
-350.493	-200.000	-0.021	0.107
-349.479	800.000	0.013	0.039
-348.464	103.744	-0.278	0.325
-347.450	-124.256	0.081	-0.013
-346.435	800.000	0.032	-0.094
-345.420	-70.910	0.316	0.118
-344.406	603.974	0.105	-0.258
-343.391	-6.458	-0.210	0.143
-342.377	195.477	0.110	0.167
-341.362	-200.000	-0.015	0.142
-340.348	-106.670	0.075	-0.017
-339.333	-89.391	-0.374	0.109
-338.318	442.281	-0.050	-0.109
-337.304	3.112	-0.096	-0.069
-336.289	800.000	0.101	-0.317
-335.275	-52.799	-0.116	-0.053
-334.260	248.658	-0.121	0.203
-333.245	-90.629	-0.027	-0.008
-332.231	-140.405	0.044	-0.005
-331.216	800.000	0.039	-0.113
-330.202	-89.832	0.334	0.097
-329.187	8.880	-0.335	-0.251
-328.172	-58.632	0.229	-0.099
-327.158	-146.175	0.356	-0.031
-326.143	-103.980	-0.147	0.034
-325.129	-119.236	0.241	0.042
-324.114	277.312	0.134	0.236
-323.099	800.000	0.049	0.186
-322.085	-7.380	0.086	0.058
-321.070	-135.724	-0.206	0.024
-320.056	800.000	-0.139	-0.455
-319.041	-134.431	0.223	-0.027
-318.026	-85.704	-0.074	0.023
-317.012	800.000	0.061	-0.258
-315.997	-81.542	0.388	0.127
-314.983	-200.000	0.017	-0.077
-313.968	-98.306	-0.131	-0.033
-312.953	682.569	0.138	0.357
-311.939	-112.118	0.029	0.006
-310.924	-200.000	-0.003	-0.180
-309.910	396.290	0.076	0.158
-308.895	-179.067	0.088	0.002
-307.880	-133.769	-0.316	-0.039
-306.866	50.079	0.158	-0.148
-305.851	195.151	0.028	0.043
-304.837	471.336	0.087	-0.195
-303.822	800.000	0.062	0.242
-302.807	-143.974	0.204	0.019
-301.793	-200.000	-0.030	-0.146
-300.778	78.192	0.092	-0.097
-299.764	209.022	-0.179	0.278
-298.749	-200.000	-0.066	0.304
-297.735	290.217	0.107	0.192
-296.720	-200.000	-0.004	-0.086
-295.705	-33.350	-0.110	-0.060
-294.691	-200.000	-0.032	-0.250
-293.676	466.676	-0.132	0.293
-292.662	80.536	-0.228	0.244
-291.647	-114.724	-0.422	-0.080
-290.632	-200.000	-0.019	0.501
-289.618	763.006	-0.094	0.254
-288.603	800.000	-0.105	-0.446
-287.589	30.983	0.094	-0.080
-286.574	266.233	-0.200	-0.345
-285.559	-82.341	-0.359	-0.116
-284.545	-124.892	-0.164	-0.025
-283.530	-127.352	-0.061	-0.009
-282.516	-200.000	0.071	0.309
-281.501	145.433	-0.110	-0.146
-280.486	227.152	-0.163	0.263
-279.472	-15.318	-0.086	-0.055
-278.457	509.307	0.106	-0.244
-277.443	166.419	0.077	0.108
-276.428	-138.360	-0.247	-0.027
-275.413	-144.050	0.412	-0.038
-274.399	800.000	0.087	-0.291
-273.384	-94.371	-0.233	-0.063
-272.370	-159.987	-0.280	0.015
-271.355	161.776	0.168	-0.233
-270.340	110.162	-0.071	0.085
-269.326	-28.468	0.049	-0.028
-268.311	-115.614	-0.179	0.033
-267.297	-50.653	0.168	-0.078
-266.282	-200.000	-0.014	-0.341
-265.267	-200.000	-0.049	-0.251
-264.253	760.396	0.135	-0.364
-263.238	123.206	-0.075	-0.094
-262.224	-16.586	-0.076	-0.048
-261.209	164.139	0.136	-0.189
-260.195	164.517	0.134	0.187
-259.180	-94.964	-0.186	0.050
-258.165	-133.240	-0.184	0.023
-257.151	-169.622	-0.361	0.013
-256.136	-44.641	-0.420	0.208
-255.122	-8.012	-0.234	0.156
-254.107	-70.301	0.285	0.107
-253.092	49.939	-0.111	-0.104
-252.078	-47.069	-0.319	-0.154
-251.063	390.879	-0.142	0.293
-250.049	800.000	0.081	-0.318
-249.034	-48.749	-0.084	-0.040
-248.019	69.491	-0.076	0.078
-247.005	-200.000	0.008	0.294
-245.990	528.618	0.121	0.283
-244.976	-8.751	0.070	-0.046
-243.961	162.321	-0.210	-0.291
-242.946	2.988	0.001	0.001
-241.932	-86.840	0.202	0.061
-240.917	-84.372	0.071	-0.022
-239.903	-171.716	-0.168	-0.005
-238.888	685.858	-0.070	0.181
-237.873	-200.000	0.002	-0.272
-236.859	-200.000	0.004	-0.466
-235.844	-156.660	0.409	-0.025
-234.830	-107.013	0.411	-0.090
-233.815	-10.389	-0.128	0.084
-232.800	-97.150	0.180	-0.047
-231.786	-129.283	0.255	-0.035
-230.771	118.039	-0.257	-0.313
-229.757	146.577	0.143	0.190
-228.742	800.000	-0.040	-0.126
-227.727	800.000	0.044	-0.145
-226.713	800.000	0.127	0.399
-225.698	800.000	-0.132	0.515
-224.684	-43.189	0.221	-0.111
-223.669	38.539	0.107	0.094
-222.655	800.000	0.110	0.455
-221.640	358.850	0.063	-0.125
-220.625	18.753	0.062	0.049
-219.611	161.814	-0.079	-0.110
-218.596	-47.454	-0.074	0.035
-217.582	526.555	0.007	-0.016
-216.567	-111.917	0.139	-0.028
-215.552	47.722	-0.255	0.235
-214.538	800.000	0.099	-0.305
-213.523	224.457	-0.157	0.250
-212.509	-104.524	0.388	0.089
-211.494	-36.854	0.042	-0.022
-210.479	-32.708	0.326	-0.179
-209.465	-120.161	0.289	-0.049
-208.450	-200.000	0.000	-0.249
-207.436	-106.085	-0.110	0.024
-206.421	96.955	-0.196	-0.222
-205.406	-114.326	0.260	-0.049
-204.392	-24.012	-0.254	0.150
-203.377	-142.205	0.197	0.019
-202.363	-66.659	-0.324	0.127
-201.348	-200.000	0.017	-0.220
-200.333	6.699	-0.238	0.175
-199.319	-63.059	0.341	0.139
-198.304	17.844	0.159	0.125
-197.290	170.030	-0.118	0.166
-196.275	-159.595	-0.370	-0.020
-195.260	434.581	0.107	-0.229
-194.246	724.871	-0.136	0.358
-193.231	800.000	0.085	0.270
-192.217	97.683	-0.108	0.122
-191.202	-37.814	0.143	0.075
-190.187	-200.000	0.038	0.304
-189.173	92.885	0.146	0.163
-188.158	-77.647	0.336	-0.115
-187.144	-200.000	0.012	-0.212
-186.129	-200.000	0.039	-0.453
-185.114	-200.000	0.028	-0.155
-184.100	-99.571	0.359	0.089
-183.085	-98.174	-0.244	-0.062
-182.071	-200.000	-0.002	0.269
-181.056	800.000	0.059	0.203
-180.042	593.350	0.145	0.353
-179.027	-92.984	0.130	-0.036
-178.012	-200.000	-0.035	0.186
-176.998	33.388	-0.240	0.205
-175.983	-200.000	-0.015	0.231
-174.969	-43.797	0.100	0.050
-173.954	11.998	-0.229	0.174
-172.939	-200.000	0.051	-0.270
-171.925	-1.512	0.432	-0.301
-170.910	-200.000	0.027	0.210
-169.896	184.507	-0.044	-0.064
-168.881	433.859	-0.154	0.330
-167.866	-137.761	-0.148	0.016
-166.852	169.004	0.176	0.248
-165.837	64.936	-0.066	0.065
-164.823	-200.000	-0.002	0.206
-163.808	-167.971	-0.298	0.011
-162.793	-200.000	0.044	0.345
-161.779	-79.231	-0.190	-0.064
-160.764	723.110	-0.064	0.167
-159.750	150.003	0.057	0.077
-158.735	-167.040	-0.102	-0.004
-157.720	-68.022	-0.107	-0.041
-156.706	127.620	-0.080	-0.100
-155.691	-200.000	0.019	-0.166
-154.677	-45.356	-0.206	0.101
-153.662	12.930	-0.203	-0.155
-152.647	200.024	-0.034	-0.051
-151.633	-90.623	0.234	-0.067
-150.618	-6.996	-0.025	-0.017
-149.604	-200.000	-0.021	-0.117
-148.589	200.174	-0.085	0.128
-147.574	19.914	0.144	-0.114
-146.560	166.604	0.169	0.236
-145.545	187.624	0.146	0.215
-144.531	-21.922	-0.349	0.209
-143.516	-35.520	0.159	-0.085
-142.502	800.000	0.080	0.279
-141.487	-128.801	0.055	0.008
-140.472	-200.000	-0.020	-0.275
-139.458	62.333	0.168	-0.165
-138.443	-50.429	0.173	0.081
-137.429	351.025	-0.133	-0.259
-136.414	800.000	0.036	-0.112
-135.399	-93.634	-0.051	0.014
-134.385	800.000	-0.039	0.111
-133.370	234.411	-0.154	0.250
-132.356	-160.276	-0.089	-0.005
-131.341	-177.924	-0.255	0.006
-130.326	55.814	-0.179	0.171
-129.312	105.897	-0.052	-0.061
-128.297	24.194	0.301	0.245
-127.283	379.906	0.156	0.315
-126.268	24.534	-0.198	-0.162
-125.253	-200.000	0.001	-0.221
-124.239	242.751	0.219	-0.361
-123.224	410.643	-0.139	-0.291
-122.210	110.542	0.144	-0.170
-121.195	139.321	-0.257	0.333
