DTS Sentinel unit serial number:	SN413079Multiplexer serial number:	ORYXHardware model number:	OX4-SRSoftware version number:	ORYX F/W v4.00 Oryx Data Collector v3.7.2.0data status	okinstallation	princeton_trtdifferential loss correction	single-endedforward channel	channel 3reverse channel	N/Adate	2019/09/19time	06:48:35forward acquisition time	60.00reverse acquisition time	0.00gamma	496.2192k internal	0.2349k external	0.2349temperature offset calibration	0.9986default loss term (dB/km)	0.3790temperature slope calibration	1.0000multiplexer offset coefficient	1.0000multiplexer slope coefficient	1.0000fibre end	0.00T internal ref (°C)	19.02T ext. ref 1 (°C)	0.56T ext. ref 2 (°C)	12.76length (m)	temperature (°C)	Stokes	anti-Stokes-747.200	-11.106	0.340	0.224
-746.185	-37.379	0.481	0.256
-745.171	-134.751	-0.269	0.033
-744.156	-72.570	-0.267	-0.098
-743.142	-115.254	0.201	0.038
-742.127	20.247	-0.320	0.258
-741.112	-70.691	-0.203	-0.076
-740.098	330.285	-0.039	-0.074
-739.083	43.945	0.027	-0.025
-738.069	800.000	-0.085	0.342
-737.054	800.000	0.043	0.132
-736.039	228.094	-0.119	-0.194
-735.025	-200.000	-0.002	0.144
-734.010	-121.288	-0.348	0.058
-732.996	-88.090	-0.236	-0.071
-731.981	58.834	-0.127	0.124
-730.966	-28.065	-0.344	-0.199
-729.952	800.000	0.065	-0.231
-728.937	182.715	-0.098	0.145
-727.923	43.312	-0.116	-0.106
-726.908	126.895	-0.168	-0.213
-725.894	124.495	-0.102	-0.128
-724.879	-160.375	-0.105	0.006
-723.864	82.370	0.118	0.128
-722.850	194.871	-0.084	-0.127
-721.835	112.752	-0.338	-0.408
-720.821	-200.000	0.000	-0.042
-719.806	800.000	-0.094	0.355
-718.791	200.093	0.073	-0.112
-717.777	-176.423	0.505	0.013
-716.762	-200.000	-0.021	0.140
-715.748	-77.451	-0.194	-0.067
-714.733	-10.226	0.171	0.113
-713.718	74.936	-0.073	0.077
-712.704	-34.205	-0.090	-0.049
-711.689	461.809	0.107	0.238
-710.675	-156.677	-0.438	-0.027
-709.660	11.854	-0.054	-0.041
-708.645	-79.938	-0.268	0.090
-707.631	-58.836	0.241	0.104
-706.616	-184.343	0.309	0.005
-705.602	800.000	0.119	0.369
-704.587	5.392	0.098	-0.072
-703.572	-200.000	-0.074	0.368
-702.558	-52.548	-0.296	-0.136
-701.543	480.128	0.048	-0.109
-700.529	455.997	0.134	-0.297
-699.514	-96.942	-0.197	-0.052
-698.499	215.773	-0.054	0.086
-697.485	-200.000	0.035	0.184
-696.470	305.549	0.172	-0.318
-695.456	-14.984	0.133	-0.085
-694.441	58.627	0.201	-0.196
-693.426	-41.399	-0.111	-0.057
-692.412	-112.426	-0.171	0.034
-691.397	-96.247	-0.181	-0.048
-690.383	-82.899	0.073	0.023
-689.368	-66.019	-0.255	0.101
-688.354	-166.231	0.215	-0.009
-687.339	-94.212	0.247	-0.067
-686.324	-16.541	0.042	-0.027
-685.310	-200.000	0.001	0.128
-684.295	-200.000	-0.041	-0.191
-683.281	-148.075	-0.182	0.015
-682.266	794.933	0.082	0.225
-681.251	-40.470	0.182	-0.094
-680.237	-130.168	0.230	0.031
-679.222	-29.839	-0.300	0.171
-678.208	-153.411	-0.208	-0.014
-677.193	-24.547	-0.055	0.033
-676.178	163.558	-0.056	-0.078
-675.164	-65.722	-0.266	-0.106
-674.149	-200.000	-0.011	-0.296
-673.135	-200.000	-0.002	0.136
-672.120	-79.675	-0.213	0.071
-671.105	-33.193	-0.292	0.161
-670.091	-98.002	-0.159	-0.041
-669.076	387.735	0.084	-0.174
-668.062	-200.000	0.014	-0.460
-667.047	-200.000	-0.037	0.310
-666.032	284.988	-0.041	0.074
-665.018	708.853	-0.131	-0.344
-664.003	-14.854	-0.250	0.160
-662.989	-97.323	0.267	0.069
-661.974	34.411	-0.158	0.138
-660.959	-61.078	-0.083	-0.035
-659.945	-49.883	-0.061	0.029
-658.930	-74.175	-0.204	-0.073
-657.916	-138.853	0.111	-0.012
-656.901	32.112	-0.495	-0.425
-655.886	67.434	0.228	-0.231
-654.872	10.555	-0.297	0.225
-653.857	-165.649	-0.296	-0.013
-652.843	705.039	-0.066	-0.173
-651.828	-108.536	0.170	-0.036
-650.814	-75.012	0.167	-0.060
-649.799	28.024	-0.213	0.179
-648.784	-147.143	0.253	0.022
-647.770	-200.000	-0.022	0.148
-646.755	-129.954	-0.116	0.016
-645.741	26.621	0.047	0.039
-644.726	175.549	-0.140	0.202
-643.711	-200.000	-0.051	0.300
-642.697	-44.797	-0.057	0.028
-641.682	31.811	-0.297	-0.254
-640.668	-16.837	0.006	0.004
-639.653	108.138	-0.075	0.089
-638.638	207.998	0.075	-0.117
-637.624	-92.069	-0.174	0.049
-636.609	274.622	-0.182	0.321
-635.595	317.138	0.151	0.283
-634.580	-69.203	-0.234	0.089
-633.565	-200.000	-0.035	-0.347
-632.551	107.223	-0.147	0.173
-631.536	800.000	-0.070	0.209
-630.522	124.425	-0.224	-0.280
-629.507	-200.000	0.010	-0.098
-628.492	99.068	0.109	0.125
-627.478	-110.830	-0.284	0.058
-626.463	-39.929	-0.083	0.043
-625.449	-40.805	-0.281	-0.145
-624.434	173.174	0.182	0.261
-623.419	-138.306	-0.170	-0.019
-622.405	-200.000	0.032	-0.319
-621.390	-200.000	-0.021	-0.392
-620.376	-173.754	-0.397	0.012
-619.361	606.238	0.041	-0.103
-618.346	419.897	-0.083	-0.177
-617.332	800.000	0.036	0.105
-616.317	227.062	0.161	0.260
-615.303	59.793	-0.083	0.082
-614.288	800.000	0.008	0.023
-613.273	-3.897	-0.331	0.228
-612.259	-200.000	0.001	0.180
-611.244	106.366	-0.262	0.308
-610.230	-176.258	0.189	0.005
-609.215	175.927	0.132	0.190
-608.201	-200.000	0.036	0.180
-607.186	800.000	-0.043	-0.142
-606.171	-69.910	0.165	0.063
-605.157	800.000	-0.021	-0.068
-604.142	374.733	-0.144	0.292
-603.128	493.922	-0.158	0.359
-602.113	33.796	-0.354	0.306
-601.098	633.225	0.092	0.232
-600.084	-17.871	-0.214	-0.133
-599.069	245.908	0.110	-0.184
-598.055	660.254	0.159	0.407
-597.040	-23.135	-0.188	-0.112
-596.025	800.000	-0.033	0.091
-595.011	131.260	-0.104	-0.133
-593.996	280.371	-0.097	0.172
-592.982	-136.918	-0.019	-0.002
-591.967	-38.711	-0.146	0.076
-590.952	179.916	0.118	-0.171
-589.938	-200.000	0.039	-0.424
-588.923	-100.925	-0.220	-0.054
-587.909	11.454	-0.256	-0.195
-586.894	-155.044	-0.208	0.014
-585.879	124.427	0.116	-0.145
-584.865	-189.960	-0.347	0.004
-583.850	-32.106	0.294	0.163
-582.836	1.441	-0.306	-0.218
-581.821	33.229	0.023	0.020
-580.806	-150.218	-0.282	-0.022
-579.792	107.479	0.287	0.338
-578.777	-200.000	-0.066	0.421
-577.763	782.866	-0.053	0.144
-576.748	7.496	-0.175	-0.130
-575.733	-45.124	-0.057	-0.028
-574.719	75.409	0.118	-0.124
-573.704	32.793	-0.179	-0.154
-572.690	-8.550	-0.216	-0.144
-571.675	-110.834	0.317	0.065
-570.661	146.819	-0.290	0.387
-569.646	-60.070	-0.346	-0.147
-568.631	-94.923	0.359	-0.096
-567.617	174.518	0.101	-0.146
-566.602	613.598	-0.008	-0.020
-565.588	800.000	0.095	0.263
-564.573	37.400	0.063	0.055
-563.558	-8.806	0.088	0.058
-562.544	-92.630	-0.251	0.070
-561.529	-127.555	0.206	-0.030
-560.515	-1.887	-0.030	0.021
-559.500	-200.000	0.010	0.090
-558.485	57.236	0.296	-0.286
-557.471	800.000	0.068	0.284
-556.456	66.182	0.258	-0.260
-555.442	186.037	-0.157	-0.232
-554.427	-200.000	-0.004	-0.296
-553.412	117.832	-0.176	-0.215
-552.398	-16.751	0.099	-0.062
-551.383	215.395	0.055	-0.086
-550.369	-181.706	0.226	0.004
-549.354	160.127	0.254	0.351
-548.339	800.000	-0.067	0.210
-547.325	677.178	-0.012	-0.030
-546.310	-37.960	0.328	-0.173
-545.296	-119.251	-0.064	-0.011
-544.281	521.790	-0.069	0.159
-543.266	6.813	0.289	-0.213
-542.252	-13.538	0.403	-0.259
-541.237	-171.478	-0.211	-0.007
-540.223	800.000	-0.012	-0.036
-539.208	-164.293	0.186	0.008
-538.193	-103.241	0.270	0.063
-537.179	1.581	-0.368	-0.262
-536.164	-7.592	0.186	0.124
-535.150	-99.416	-0.274	-0.068
-534.135	-102.428	0.160	0.038
-533.121	-131.188	0.223	0.029
-532.106	248.051	-0.041	-0.069
-531.091	127.981	-0.090	-0.114
-530.077	-200.000	0.024	0.331
-529.062	2.361	-0.075	0.054
-528.048	-22.473	-0.161	0.096
-527.033	193.884	0.068	-0.102
-526.018	-19.518	-0.131	-0.080
-525.004	-178.976	0.293	0.007
-523.989	-200.000	-0.050	-0.289
-522.975	800.000	0.116	0.420
-521.960	-85.285	0.062	0.019
-520.945	489.710	-0.078	0.176
-519.931	10.280	-0.368	-0.277
-518.916	800.000	0.090	-0.278
-517.902	-3.337	0.097	-0.067
-516.887	-200.000	-0.045	-0.300
-515.872	-200.000	0.073	0.385
-514.858	-45.601	-0.200	0.098
-513.843	16.398	0.156	0.122
-512.829	239.005	0.212	-0.350
-511.814	800.000	-0.080	0.241
-510.799	-175.475	0.072	0.002
-509.785	-200.000	0.010	-0.098
-508.770	-147.080	-0.326	-0.028
-507.756	541.728	0.090	0.212
-506.741	-5.699	-0.047	-0.032
-505.726	-35.821	-0.193	0.104
-504.712	-200.000	0.046	-0.356
-503.697	7.159	0.062	-0.045
-502.683	800.000	-0.070	-0.193
-501.668	57.831	0.170	-0.164
-500.653	9.498	-0.187	-0.140
-499.639	-90.788	-0.131	0.037
-498.624	-95.939	-0.415	-0.109
-497.610	147.921	0.011	0.015
-496.595	-200.000	-0.070	0.000
-495.581	-200.000	-0.008	-0.093
-494.566	-200.000	-0.018	0.081
-493.551	-40.390	-0.122	-0.062
-492.537	-69.239	-0.184	-0.070
-491.522	800.000	0.064	-0.183
-490.508	-61.982	0.391	-0.162
-489.493	-15.566	-0.250	0.158
-488.478	87.043	-0.335	-0.366
-487.464	-90.469	0.166	0.048
-486.449	-53.217	-0.148	-0.067
-485.435	-200.000	0.003	0.168
-484.420	337.764	-0.067	0.130
-483.405	-171.538	0.159	0.005
-482.391	123.082	0.049	-0.060
-481.376	19.459	-0.260	-0.207
-480.362	-45.072	0.174	-0.085
-479.347	255.843	0.084	0.143
-478.332	-120.658	-0.151	-0.025
-477.318	236.773	-0.037	0.060
-476.303	8.289	-0.320	0.238
-475.289	566.595	0.021	0.050
-474.274	-67.663	0.116	-0.045
-473.259	-200.000	-0.038	0.208
-472.245	250.412	0.291	-0.488
-471.230	-103.531	0.163	0.038
-470.216	-200.000	-0.002	-0.083
-469.201	-71.201	-0.103	0.038
-468.186	19.119	-0.128	-0.101
-467.172	-200.000	0.032	0.184
-466.157	-184.515	-0.083	-0.001
-465.143	-200.000	0.004	-0.346
-464.128	38.757	0.083	-0.073
-463.113	43.307	0.182	-0.164
-462.099	800.000	-0.022	-0.073
-461.084	-140.280	-0.230	0.024
-460.070	641.683	-0.068	-0.171
-459.055	800.000	-0.079	-0.222
-458.040	-200.000	0.012	-0.065
-457.026	-37.877	-0.221	-0.116
-456.011	146.778	0.175	-0.233
-454.997	-13.285	-0.074	0.047
-453.982	-90.293	0.432	-0.124
-452.968	-119.317	-0.160	0.027
-451.953	-149.348	0.151	-0.012
-450.938	-200.000	0.020	0.147
-449.924	-200.000	0.048	-0.298
-448.909	-24.913	-0.188	-0.110
-447.895	-184.568	-0.252	0.004
-446.880	282.999	0.076	0.135
-445.865	-80.153	-0.155	-0.051
-444.851	214.623	-0.210	-0.329
-443.836	-105.160	-0.117	-0.026
-442.822	-58.048	-0.091	-0.039
-441.807	176.952	-0.098	0.140
-440.792	-41.806	0.041	-0.021
-439.778	-114.908	-0.343	0.064
-438.763	800.000	-0.087	-0.243
-437.749	-100.859	-0.127	0.031
-436.734	-11.584	0.083	0.054
-435.719	800.000	0.033	0.105
-434.705	73.286	0.191	-0.197
-433.690	-200.000	-0.001	0.093
-432.676	-117.433	-0.170	0.030
-431.661	-9.571	0.481	0.316
-430.646	114.195	0.138	0.166
-429.632	-50.943	-0.286	-0.133
-428.617	-200.000	-0.004	-0.099
-427.603	-200.000	0.029	-0.336
-426.588	767.170	-0.117	0.314
-425.573	192.625	0.058	-0.087
-424.559	-145.618	0.276	-0.024
-423.544	227.002	-0.110	-0.176
-422.530	38.529	-0.155	-0.136
-421.515	285.647	0.062	0.110
-420.500	-200.000	-0.007	0.068
-419.486	452.795	-0.105	0.228
-418.471	-132.787	-0.401	0.051
-417.457	-145.391	-0.496	-0.044
-416.442	800.000	-0.106	-0.406
-415.428	-106.843	-0.219	-0.048
-414.413	-185.378	0.119	0.002
-413.398	-59.400	-0.298	0.126
-412.384	-56.878	0.062	-0.027
-411.369	-128.641	0.157	0.022
-410.355	27.277	0.214	0.177
-409.340	-200.000	0.026	0.125
-408.325	55.341	0.229	-0.218
-407.311	13.149	-0.184	0.141
-406.296	800.000	-0.039	-0.152
-405.282	34.259	0.419	-0.361
-404.267	322.433	0.097	0.183
-403.252	-90.382	0.260	-0.074
-402.238	57.082	-0.186	0.178
-401.223	-112.134	-0.115	-0.023
-400.209	-45.548	0.349	0.170
-399.194	187.812	-0.214	0.315
-398.179	-159.607	0.161	0.009
-397.165	-95.430	0.231	0.061
-396.150	-81.423	0.303	0.098
-395.136	-55.056	-0.261	0.116
-394.121	800.000	-0.066	0.211
-393.106	352.997	0.127	-0.249
-392.092	-200.000	0.052	0.332
-391.077	-200.000	-0.010	0.230
-390.063	-200.000	-0.021	0.219
-389.048	-142.738	-0.066	-0.006
-388.033	-51.797	-0.193	0.089
-387.019	106.581	0.091	0.106
-386.004	-200.000	0.033	0.214
-384.990	202.134	-0.128	0.194
-383.975	-200.000	-0.001	-0.051
-382.960	230.940	-0.081	0.131
-381.946	759.865	0.113	0.303
-380.931	142.675	0.222	0.290
-379.917	132.148	-0.074	0.094
-378.902	-200.000	0.010	-0.047
-377.888	-5.902	-0.186	0.125
-376.873	-144.413	0.127	0.012
-375.858	-6.276	-0.147	0.098
-374.844	-90.691	0.220	0.063
-373.829	102.173	-0.148	-0.170
-372.815	-200.000	0.024	-0.259
-371.800	11.277	0.243	-0.183
-370.785	268.414	-0.154	0.265
-369.771	19.038	-0.129	-0.102
-368.756	197.923	0.103	-0.155
-367.742	61.024	0.143	0.140
-366.727	629.244	0.174	0.433
-365.712	-104.264	0.113	0.026
-364.698	63.345	-0.193	-0.191
-363.683	800.000	-0.059	-0.242
-362.669	305.482	-0.080	0.146
-361.654	-200.000	0.003	-0.189
-360.639	-200.000	0.043	0.224
-359.625	-200.000	0.024	0.328
-358.610	-14.594	0.231	-0.146
-357.596	-125.791	0.240	0.036
-356.581	55.126	0.157	-0.150
-355.566	58.942	0.353	-0.342
-354.552	-120.391	0.208	0.035
-353.537	-63.547	0.424	0.171
-352.523	593.586	-0.093	-0.227
-351.508	612.470	0.107	-0.263
-350.493	74.414	0.251	0.259
-349.479	-200.000	0.032	0.144
-348.464	7.685	-0.133	-0.098
-347.450	121.698	-0.147	0.180
-346.435	-69.366	-0.057	-0.022
-345.420	-200.000	0.018	0.116
-344.406	257.772	-0.104	-0.176
-343.391	182.934	0.203	0.295
-342.377	800.000	0.025	0.092
-341.362	48.037	0.026	0.024
-340.348	-200.000	-0.058	0.269
-339.333	479.266	-0.047	0.104
-338.318	43.568	0.278	-0.250
-337.304	-105.319	-0.383	0.086
-336.289	316.979	0.100	0.187
-335.275	41.967	-0.176	-0.157
-334.260	-24.794	0.108	0.063
-333.245	-8.724	-0.060	-0.040
-332.231	-27.229	0.115	0.066
-331.216	10.919	0.311	0.234
-330.202	-200.000	-0.004	-0.067
-329.187	233.290	0.104	-0.169
-328.172	6.640	0.102	-0.074
-327.158	158.991	0.297	0.406
-326.143	14.179	-0.065	0.049
-325.129	-137.595	-0.327	-0.036
-324.114	800.000	0.133	0.487
-323.099	48.545	-0.123	-0.113
-322.085	2.909	-0.014	0.010
-321.070	53.994	0.070	0.066
-320.056	800.000	-0.043	0.177
-319.041	44.132	0.065	-0.059
-318.026	39.061	-0.030	0.027
-317.012	-200.000	0.010	-0.290
-315.997	-164.664	0.288	0.013
-314.983	800.000	-0.088	0.258
-313.968	-88.412	-0.395	0.116
-312.953	-45.793	-0.136	-0.066
-311.939	-22.250	0.164	0.098
-310.924	302.125	-0.160	0.291
-309.910	-10.311	0.092	-0.060
-308.895	-198.115	0.152	-0.001
-307.880	-78.616	0.296	0.099
-306.866	-85.428	0.228	-0.070
-305.851	-90.752	0.143	-0.040
-304.837	-200.000	-0.043	0.247
-303.822	-36.614	-0.172	-0.091
-302.807	-175.989	0.132	0.003
-301.793	216.073	0.173	-0.270
-300.778	109.504	0.208	-0.245
-299.764	-75.747	-0.159	-0.055
-298.749	447.712	0.105	-0.228
-297.735	-101.831	-0.012	-0.003
-296.720	167.751	0.113	0.158
-295.705	153.760	-0.084	-0.113
-294.691	-200.000	0.022	-0.129
-293.676	102.352	0.088	-0.101
-292.662	507.572	-0.034	-0.077
-291.647	800.000	0.042	0.117
-290.632	-116.618	0.093	0.017
-289.618	-200.000	0.026	-0.185
-288.603	800.000	0.047	-0.162
-287.589	-1.762	0.150	0.104
-286.574	88.608	-0.222	-0.242
-285.559	-154.779	-0.089	0.006
-284.545	192.426	0.070	-0.103
-283.530	-74.057	-0.165	-0.058
-282.516	-47.440	-0.266	0.127
-281.501	-144.207	0.389	-0.036
-280.486	6.133	0.080	-0.058
-279.472	-143.669	0.145	-0.014
-278.457	159.355	-0.063	-0.086
-277.443	-80.956	0.138	-0.045
-276.428	50.793	-0.077	-0.071
-275.413	-57.252	0.231	0.100
-274.399	187.568	0.100	-0.147
-273.384	-91.308	-0.254	0.071
-272.370	6.469	0.172	0.125
-271.355	-200.000	0.024	0.211
-270.340	-62.954	0.199	0.080
-269.326	460.959	-0.156	0.341
-268.311	-12.481	0.191	-0.122
-267.297	-200.000	-0.067	0.316
-266.282	-143.379	-0.320	0.030
-265.267	-28.460	0.440	-0.249
-264.253	323.476	-0.160	-0.300
-263.238	-200.000	0.048	-0.211
-262.224	-68.038	-0.148	0.057
-261.209	184.904	-0.135	0.196
-260.195	-98.484	-0.039	0.010
-259.180	130.057	-0.178	0.223
-258.165	-54.276	-0.203	0.090
-257.151	663.819	-0.039	-0.098
-256.136	56.796	0.180	-0.172
-255.122	207.498	0.112	0.171
-254.107	-169.592	-0.233	-0.008
-253.092	471.180	-0.107	-0.235
-252.078	-171.925	-0.168	0.005
-251.063	48.386	-0.117	0.107
-250.049	-200.000	-0.023	0.266
-249.034	13.068	-0.141	0.107
-248.019	429.710	0.056	0.118
-247.005	-200.000	0.027	-0.375
-245.990	191.362	-0.045	-0.067
-244.976	-200.000	-0.052	0.253
-243.961	10.463	0.070	-0.052
-242.946	800.000	0.113	0.342
-241.932	800.000	-0.052	0.173
-240.917	-105.744	0.076	-0.017
-239.903	-200.000	-0.106	-0.510
-238.888	78.459	0.189	-0.198
-237.873	-32.191	0.152	0.083
-236.859	-174.831	-0.188	-0.005
-235.844	-44.919	-0.183	-0.089
-234.830	232.865	0.130	-0.210
-233.815	-171.997	0.182	-0.006
-232.800	48.421	-0.214	0.196
-231.786	-200.000	-0.096	-0.564
-230.771	393.563	0.039	-0.079
-229.757	244.796	-0.139	-0.229
-228.742	739.693	0.117	-0.308
-227.727	12.923	-0.204	0.155
-226.713	67.948	0.117	0.117
-225.698	-200.000	0.028	0.123
-224.684	800.000	-0.117	0.417
-223.669	-113.429	0.333	-0.064
-222.655	-57.853	-0.168	-0.072
-221.640	800.000	0.033	0.118
-220.625	-184.663	0.180	0.003
-219.611	800.000	0.011	-0.041
-218.596	52.142	-0.380	-0.354
-217.582	-128.855	0.189	0.026
-216.567	-115.586	-0.163	0.030
-215.552	800.000	-0.037	0.153
-214.538	-200.000	0.019	-0.154
-213.523	-134.744	0.288	-0.034
-212.509	800.000	0.010	-0.027
-211.494	-14.322	0.280	-0.176
-210.479	48.983	-0.248	0.228
-209.465	-31.968	-0.051	-0.028
-208.450	234.276	0.062	0.101
-207.436	800.000	-0.034	0.126
-206.421	-121.397	0.337	-0.055
-205.406	-121.853	0.193	-0.031
-204.392	-200.000	0.033	0.152
-203.377	-2.758	0.173	-0.118
-202.363	209.044	-0.074	0.113
-201.348	-92.326	0.181	0.050
-200.333	2.847	-0.193	-0.137
-199.319	-33.225	0.151	-0.082
-198.304	-61.932	0.061	0.025
-197.290	-16.306	-0.196	-0.122
-196.275	-114.972	0.060	-0.011
-195.260	800.000	0.154	0.437
-194.246	416.980	0.071	-0.149
-193.231	99.249	-0.109	-0.123
-192.217	-92.028	-0.125	-0.035
-191.202	-94.482	0.454	0.121
-190.187	-104.351	-0.180	0.041
-189.173	2.318	-0.287	0.203
-188.158	-118.490	0.360	-0.062
-187.144	629.987	-0.081	0.200
-186.129	-138.114	0.252	0.027
-185.114	142.043	0.134	0.173
-184.100	-200.000	-0.003	-0.442
-183.085	-200.000	0.031	-0.413
-182.071	-200.000	-0.029	0.169
-181.056	-50.345	-0.234	-0.108
-180.042	80.833	-0.347	-0.366
-179.027	-75.327	0.288	0.100
-178.012	-78.636	0.157	-0.053
-176.998	-200.000	0.056	0.267
-175.983	-46.380	0.045	-0.022
-174.969	-200.000	-0.085	-0.365
-173.954	10.554	-0.177	-0.132
-172.939	800.000	-0.043	0.166
-171.925	352.923	-0.097	0.188
-170.910	-200.000	-0.010	-0.331
-169.896	-39.846	-0.293	0.150
-168.881	394.529	0.090	-0.183
-167.866	18.147	0.149	-0.116
-166.852	-128.572	0.114	0.016
-165.837	800.000	0.118	-0.326
-164.823	83.084	0.139	-0.148
-163.808	800.000	-0.082	0.251
-162.793	423.799	0.128	0.268
-161.779	-127.206	0.161	0.023
-160.764	-140.822	-0.056	0.006
-159.750	134.966	0.094	0.119
-158.735	-74.440	0.192	0.068
-157.720	-183.762	0.259	-0.004
-156.706	-38.843	-0.281	-0.145
-155.691	-5.365	0.196	0.131
-154.677	118.182	0.141	-0.170
-153.662	-200.000	0.036	-0.529
-152.647	186.483	0.142	-0.207
-151.633	-40.472	0.117	-0.060
-150.618	28.366	0.214	0.176
-149.604	-36.072	0.166	-0.087
-148.589	-103.066	0.172	0.040
-147.574	-89.882	0.337	-0.096
-146.560	247.650	-0.070	-0.115
-145.545	64.170	0.057	0.056
-144.531	556.424	-0.068	-0.159
-143.516	2.593	0.487	-0.344
-142.502	146.170	-0.292	0.383
-141.487	-119.719	0.104	0.018
-140.472	562.169	0.154	0.365
-139.458	37.955	0.055	0.048
-138.443	-111.274	0.481	-0.096
-137.429	-200.000	-0.002	0.106
-136.414	310.643	0.120	0.218
-135.399	-200.000	0.017	-0.277
-134.385	-127.208	0.175	-0.025
-133.370	29.316	0.191	-0.159
-132.356	800.000	-0.076	-0.236
-131.341	-143.334	-0.203	0.019
-130.326	187.432	0.081	-0.118
-129.312	-57.947	-0.108	0.046
-128.297	-187.615	-0.185	0.002
-127.283	-200.000	0.053	0.417
-126.268	643.426	-0.045	0.112
-125.253	-109.428	0.120	0.025
-124.239	-13.602	0.178	-0.113
-123.224	800.000	-0.021	-0.071
-122.210	800.000	-0.024	-0.068
-121.195	-200.000	-0.028	-0.121
