DTS Sentinel unit serial number:	SN413079Multiplexer serial number:	ORYXHardware model number:	OX4-SRSoftware version number:	ORYX F/W v4.00 Oryx Data Collector v3.7.2.0data status	okinstallation	princeton_trtdifferential loss correction	single-endedforward channel	channel 3reverse channel	N/Adate	2019/09/10time	23:26:11forward acquisition time	60.00reverse acquisition time	0.00gamma	496.2192k internal	0.2331k external	0.2331temperature offset calibration	0.9917default loss term (dB/km)	0.3790temperature slope calibration	1.0000multiplexer offset coefficient	1.0000multiplexer slope coefficient	1.0000fibre end	0.00T internal ref (°C)	29.75T ext. ref 1 (°C)	-0.32T ext. ref 2 (°C)	23.11length (m)	temperature (°C)	Stokes	anti-Stokes-747.200	130.055	-0.083	0.107
-746.185	197.861	0.151	0.232
-745.171	-200.000	-0.005	0.045
-744.156	175.557	0.271	-0.396
-743.142	-79.166	0.081	-0.028
-742.127	26.070	-0.354	0.297
-741.112	37.509	-0.072	0.064
-740.098	-90.400	-0.387	-0.113
-739.083	-200.000	-0.024	-0.214
-738.069	-42.633	-0.158	0.081
-737.054	-71.663	0.158	-0.059
-736.039	-122.633	-0.190	-0.031
-735.025	-200.000	0.049	-0.231
-734.010	-96.580	-0.164	0.044
-732.996	-7.215	-0.307	-0.210
-731.981	190.596	0.080	-0.120
-730.966	-28.355	0.325	-0.189
-729.952	-200.000	0.046	-0.434
-728.937	-88.265	-0.271	-0.082
-727.923	86.504	-0.045	-0.050
-726.908	432.067	0.105	-0.228
-725.894	-12.217	-0.328	-0.216
-724.879	-85.793	-0.360	-0.112
-723.864	696.306	0.051	-0.135
-722.850	109.783	0.127	-0.153
-721.835	440.458	0.076	-0.168
-720.821	-200.000	-0.029	0.134
-719.806	286.723	-0.077	0.140
-718.791	-76.519	0.207	-0.073
-717.777	800.000	-0.061	-0.228
-716.762	-200.000	-0.034	0.209
-715.748	284.281	-0.057	0.103
-714.733	-101.015	0.172	0.042
-713.718	-200.000	-0.038	-0.301
-712.704	-200.000	0.012	-0.237
-711.689	-65.133	0.248	0.101
-710.675	759.866	-0.106	-0.289
-709.660	800.000	0.027	-0.089
-708.645	-56.364	-0.252	-0.113
-707.631	-7.514	-0.217	-0.147
-706.616	103.912	-0.134	-0.159
-705.602	356.266	0.099	-0.198
-704.587	800.000	0.069	-0.280
-703.572	-200.000	-0.002	-0.232
-702.558	-154.661	0.175	-0.012
-701.543	-200.000	0.056	0.391
-700.529	-110.100	0.291	-0.061
-699.514	35.319	0.199	0.176
-698.499	65.395	0.143	0.145
-697.485	-200.000	-0.006	0.077
-696.470	-146.835	-0.409	-0.035
-695.456	-98.873	-0.277	-0.071
-694.441	-200.000	0.006	0.136
-693.426	-24.104	-0.217	-0.130
-692.412	150.638	-0.033	-0.045
-691.397	-39.746	-0.195	0.102
-690.383	-200.000	-0.041	-0.224
-689.368	-200.000	-0.035	0.172
-688.354	800.000	0.078	0.221
-687.339	-43.080	0.239	0.121
-686.324	800.000	0.087	-0.294
-685.310	66.835	-0.136	-0.139
-684.295	-78.121	-0.169	-0.058
-683.281	-31.515	0.197	0.111
-682.266	-18.433	-0.132	-0.083
-681.251	500.209	0.058	0.134
-680.237	68.334	-0.077	-0.079
-679.222	520.468	0.053	-0.126
-678.208	800.000	0.021	-0.093
-677.193	-112.643	-0.226	-0.045
-676.178	-63.088	0.203	0.084
-675.164	-81.075	-0.139	-0.046
-674.149	-47.508	-0.062	-0.030
-673.135	-17.614	-0.330	-0.208
-672.120	595.418	-0.117	0.292
-671.105	144.753	-0.154	0.206
-670.091	-49.711	-0.294	-0.140
-669.076	-18.562	-0.161	-0.101
-668.062	-200.000	-0.018	-0.236
-667.047	326.666	0.072	-0.139
-666.032	-89.319	-0.178	0.053
-665.018	221.911	0.192	-0.310
-664.003	553.431	0.040	0.096
-662.989	-124.526	-0.366	-0.057
-661.974	121.409	0.133	-0.166
-660.959	-37.965	-0.218	0.116
-659.945	30.500	-0.196	0.168
-658.930	-200.000	0.036	-0.216
-657.916	166.397	-0.269	-0.383
-656.901	-35.912	-0.174	-0.095
-655.886	166.092	-0.080	0.113
-654.872	800.000	-0.080	0.239
-653.857	-200.000	0.034	0.274
-652.843	155.452	0.132	-0.182
-651.828	-200.000	-0.022	0.135
-650.814	112.339	-0.159	-0.193
-649.799	97.505	0.155	-0.178
-648.784	-19.007	0.249	0.155
-647.770	125.395	-0.083	-0.105
-646.755	-74.426	-0.102	-0.037
-645.741	285.964	0.089	-0.162
-644.726	22.200	0.252	-0.206
-643.711	800.000	0.068	0.252
-642.697	-100.393	-0.302	-0.075
-641.682	-59.803	0.090	0.039
-640.668	-64.997	0.213	-0.086
-639.653	-56.529	0.210	0.093
-638.638	45.367	-0.311	-0.288
-637.624	-163.611	0.195	0.009
-636.609	-145.145	-0.316	-0.029
-635.595	800.000	-0.051	0.204
-634.580	-122.483	-0.068	-0.011
-633.565	800.000	0.116	0.452
-632.551	-131.344	0.067	0.009
-631.536	-87.661	-0.135	-0.041
-630.522	197.752	0.089	-0.136
-629.507	-200.000	-0.019	0.169
-628.492	288.565	0.037	-0.068
-627.478	120.154	-0.211	-0.262
-626.463	-155.347	0.345	-0.022
-625.449	278.569	0.113	-0.202
-624.434	-113.909	0.153	0.030
-623.419	-135.124	0.220	0.027
-622.405	383.872	-0.090	-0.185
-621.390	-175.431	-0.249	-0.007
-620.376	-139.795	-0.115	-0.012
-619.361	-200.000	-0.023	0.161
-618.346	7.339	0.244	0.183
-617.332	-200.000	0.012	0.088
-616.317	479.865	-0.108	0.246
-615.303	-141.765	-0.074	0.007
-614.288	-200.000	-0.001	0.034
-613.273	800.000	0.065	0.277
-612.259	-117.877	0.384	-0.069
-611.244	272.653	0.094	-0.166
-610.230	180.182	-0.047	0.069
-609.215	11.446	0.129	-0.099
-608.201	-98.504	-0.192	0.049
-607.186	-41.183	0.130	0.067
-606.171	67.242	-0.187	-0.191
-605.157	800.000	0.051	0.208
-604.142	496.998	-0.099	0.227
-603.128	-61.402	0.224	0.095
-602.113	-77.564	0.205	0.071
-601.098	201.772	0.120	-0.186
-600.084	434.881	0.053	0.116
-599.069	-200.000	0.016	-0.312
-598.055	-115.634	0.523	0.098
-597.040	-200.000	0.064	-0.295
-596.025	58.311	-0.123	-0.121
-595.011	11.324	-0.056	0.043
-593.996	192.389	-0.272	-0.411
-592.982	-144.536	0.399	0.037
-591.967	401.207	0.143	0.301
-590.952	30.382	0.285	-0.244
-589.938	33.633	-0.196	0.170
-588.923	-4.652	-0.126	-0.087
-587.909	-33.892	0.129	0.071
-586.894	347.161	-0.166	-0.328
-585.879	630.124	-0.163	-0.412
-584.865	-106.919	-0.204	-0.045
-583.850	800.000	0.052	-0.214
-582.836	-200.000	0.020	0.237
-581.821	269.202	-0.132	0.231
-580.806	-157.049	-0.277	-0.017
-579.792	-109.179	0.071	-0.015
-578.777	57.879	0.372	-0.364
-577.763	-200.000	-0.028	0.186
-576.748	-83.866	0.052	-0.016
-575.733	-76.016	-0.246	-0.087
-574.719	-152.493	0.143	0.010
-573.704	800.000	-0.022	-0.089
-572.690	-200.000	-0.016	0.207
-571.675	-200.000	-0.014	-0.201
-570.661	263.085	0.198	-0.343
-569.646	163.902	-0.235	-0.330
-568.631	-7.893	0.071	-0.048
-567.617	-103.988	-0.259	0.060
-566.602	368.504	0.111	0.225
-565.588	800.000	0.052	0.176
-564.573	-200.000	0.007	-0.143
-563.558	128.160	-0.083	0.105
-562.544	88.906	-0.047	0.052
-561.529	187.656	-0.042	-0.063
-560.515	81.204	-0.071	0.077
-559.500	800.000	0.096	-0.342
-558.485	-200.000	-0.007	-0.177
-557.471	36.204	0.160	-0.141
-556.456	-200.000	-0.027	-0.137
-555.442	-112.195	-0.185	-0.037
-554.427	-155.416	0.381	0.025
-553.412	-200.000	-0.060	0.389
-552.398	55.035	0.201	-0.194
-551.383	-200.000	0.009	-0.149
-550.369	303.761	0.039	0.073
-549.354	360.269	-0.150	0.300
-548.339	8.524	-0.205	0.154
-547.325	628.103	0.054	-0.136
-546.310	88.417	-0.160	-0.177
-545.296	139.709	0.195	0.257
-544.281	224.102	0.214	0.345
-543.266	49.155	-0.013	-0.012
-542.252	121.469	0.126	0.156
-541.237	-200.000	-0.029	-0.358
-540.223	679.167	0.061	-0.159
-539.208	396.553	-0.139	-0.289
-538.193	84.832	0.174	0.190
-537.179	4.121	0.199	0.146
-536.164	-200.000	-0.065	0.412
-535.150	80.909	-0.062	0.067
-534.135	314.672	-0.077	0.144
-533.121	-200.000	0.003	0.034
-532.106	-122.680	0.104	-0.017
-531.091	-114.733	-0.376	-0.072
-530.077	-200.000	-0.007	0.155
-529.062	-200.000	-0.032	0.271
-528.048	-76.687	0.289	-0.101
-527.033	-69.700	-0.389	0.148
-526.018	-123.896	-0.330	0.052
-525.004	234.657	-0.070	0.115
-523.989	387.880	0.110	-0.228
-522.975	-200.000	-0.017	-0.223
-521.960	798.740	-0.131	0.360
-520.945	17.065	-0.140	0.111
-519.931	369.177	-0.172	0.348
-518.916	158.563	0.060	0.084
-517.902	629.517	0.080	0.202
-516.887	-161.829	0.140	0.007
-515.872	146.120	-0.192	-0.256
-514.858	800.000	-0.060	-0.204
-513.843	14.466	-0.324	0.252
-512.829	233.762	0.046	-0.075
-511.814	-200.000	-0.057	-0.349
-510.799	-19.258	-0.133	0.083
-509.785	-200.000	-0.019	-0.270
-508.770	21.143	0.237	-0.192
-507.756	473.317	-0.101	-0.226
-506.741	-77.128	-0.044	-0.015
-505.726	137.915	-0.151	0.197
-504.712	34.219	0.271	0.236
-503.697	-160.500	-0.445	0.024
-502.683	-200.000	0.010	0.193
-501.668	-200.000	0.220	-0.001
-500.653	-4.307	0.127	-0.088
-499.639	-139.901	0.318	-0.034
-498.624	-20.660	0.055	-0.034
-497.610	-200.000	0.006	0.130
-496.595	-76.917	0.208	0.072
-495.581	800.000	0.099	0.397
-494.566	-14.007	0.212	-0.136
-493.551	-200.000	-0.044	0.339
-492.537	-65.698	0.258	0.103
-491.522	-200.000	0.049	-0.452
-490.508	93.526	0.089	-0.100
-489.493	106.907	0.045	-0.053
-488.478	-200.000	-0.029	-0.243
-487.464	-123.125	-0.028	-0.004
-486.449	356.506	-0.126	0.249
-485.435	-102.219	0.091	0.022
-484.420	-147.059	0.193	-0.016
-483.405	-59.376	-0.339	0.145
-482.391	800.000	0.120	0.352
-481.376	115.002	-0.138	0.168
-480.362	58.524	0.405	0.396
-479.347	-200.000	-0.042	0.216
-478.332	-155.857	0.115	-0.007
-477.318	549.751	0.058	-0.138
-476.303	-69.731	-0.420	-0.160
-475.289	-200.000	-0.008	0.131
-474.274	800.000	-0.054	0.163
-473.259	-119.759	-0.224	-0.039
-472.245	798.577	-0.047	-0.128
-471.230	-200.000	-0.021	0.142
-470.216	-200.000	-0.006	-0.460
-469.201	800.000	0.055	-0.234
-468.186	800.000	0.045	0.181
-467.172	154.751	-0.361	-0.494
-466.157	20.947	0.073	-0.059
-465.143	413.885	-0.013	0.027
-464.128	-68.986	0.359	0.138
-463.113	-142.413	-0.215	0.021
-462.099	261.524	0.140	-0.241
-461.084	16.770	0.273	-0.215
-460.070	-103.175	-0.236	0.056
-459.055	-167.236	-0.608	0.024
-458.040	225.481	-0.096	0.154
-457.026	-138.924	-0.077	0.008
-456.011	430.463	0.082	0.176
-454.997	222.907	0.304	0.487
-453.982	-200.000	-0.042	-0.415
-452.968	272.534	0.045	-0.079
-451.953	-166.893	0.145	0.006
-450.938	-200.000	0.022	-0.190
-449.924	-48.330	-0.049	-0.023
-448.909	-93.045	0.113	-0.031
-447.895	-18.288	0.338	-0.210
-446.880	115.755	0.368	-0.448
-445.865	-25.331	0.176	0.104
-444.851	155.472	-0.220	-0.302
-443.836	86.928	-0.139	-0.153
-442.822	-34.745	-0.079	-0.043
-441.807	-36.519	-0.238	-0.128
-440.792	-118.341	0.448	-0.079
-439.778	-141.956	-0.305	-0.030
-438.763	80.474	0.158	0.170
-437.749	-160.847	0.108	-0.006
-436.734	-19.101	-0.102	0.063
-435.719	-200.000	0.047	0.218
-434.705	96.374	-0.192	0.218
-433.690	-70.231	0.126	-0.047
-432.676	308.005	-0.181	0.336
-431.661	-200.000	0.060	0.315
-430.646	-58.953	-0.314	0.135
-429.632	121.173	0.292	-0.362
-428.617	-67.535	-0.098	0.038
-427.603	595.042	-0.131	-0.321
-426.588	-200.000	-0.047	-0.207
-425.573	175.659	0.069	0.100
-424.559	800.000	0.068	0.217
-423.544	-145.685	-0.384	-0.034
-422.530	-200.000	-0.015	-0.171
-421.515	-93.357	-0.107	-0.029
-420.500	137.577	-0.164	-0.213
-419.486	444.119	0.042	0.092
-418.471	559.297	-0.061	-0.146
-417.457	800.000	-0.054	-0.233
-416.442	800.000	0.024	-0.103
-415.428	-200.000	-0.019	-0.140
-414.413	6.136	-0.128	-0.095
-413.398	-200.000	0.006	-0.286
-412.384	399.394	0.077	-0.161
-411.369	117.654	-0.197	0.240
-410.355	-200.000	-0.024	-0.139
-409.340	82.796	0.246	0.266
-408.325	404.640	0.140	0.293
-407.311	-83.977	-0.213	0.067
-406.296	800.000	0.079	-0.235
-405.282	364.863	-0.056	-0.112
-404.267	208.577	-0.033	-0.052
-403.252	-43.758	-0.047	0.023
-402.238	17.132	-0.082	-0.064
-401.223	-50.933	-0.196	-0.091
-400.209	152.204	-0.144	0.195
-399.194	-40.664	-0.178	-0.092
-398.179	128.656	-0.117	0.148
-397.165	-200.000	0.009	-0.171
-396.150	98.918	-0.062	0.071
-395.136	-200.000	-0.030	-0.165
-394.121	163.456	0.197	0.276
-393.106	-200.000	0.019	-0.279
-392.092	-200.000	-0.022	-0.290
-391.077	800.000	0.031	-0.112
-390.063	-200.000	0.002	-0.036
-389.048	800.000	0.049	0.208
-388.033	658.927	-0.188	0.479
-387.019	434.757	0.119	0.256
-386.004	-66.896	0.351	-0.138
-384.990	669.811	0.049	-0.127
-383.975	800.000	0.031	0.132
-382.960	-2.680	-0.208	0.144
-381.946	6.855	-0.208	0.154
-380.931	-127.576	-0.213	-0.031
-379.917	-10.320	0.016	0.011
-378.902	16.663	-0.350	-0.275
-377.888	-200.000	0.037	-0.274
-376.873	107.512	-0.151	0.178
-375.858	-200.000	0.004	0.296
-374.844	-200.000	0.022	-0.406
-373.829	55.643	0.047	-0.045
-372.815	800.000	0.032	0.114
-371.800	-107.521	0.088	-0.019
-370.785	202.264	-0.087	0.134
-369.771	291.458	0.029	0.052
-368.756	800.000	-0.034	0.110
-367.742	-102.839	-0.375	-0.088
-366.727	-109.937	0.201	-0.042
-365.712	800.000	0.074	-0.231
-364.698	-78.461	-0.114	-0.039
-363.683	6.252	-0.149	-0.109
-362.669	-1.162	0.225	0.158
-361.654	-115.456	-0.224	-0.042
-360.639	-11.320	-0.139	0.091
-359.625	-46.240	-0.301	0.147
-358.610	29.207	0.081	-0.068
-357.596	-17.810	0.110	-0.068
-356.581	-200.000	-0.008	0.219
-355.566	31.372	-0.116	0.099
-354.552	716.525	0.054	-0.142
-353.537	800.000	-0.032	-0.132
-352.523	260.871	0.170	0.292
-351.508	800.000	-0.056	-0.191
-350.493	-104.585	0.469	0.107
-349.479	11.489	-0.265	0.202
-348.464	151.665	-0.106	-0.144
-347.450	-200.000	-0.009	0.322
-346.435	-200.000	0.065	0.312
-345.420	800.000	-0.049	0.166
-344.406	115.987	-0.181	-0.219
-343.391	-107.984	0.357	-0.077
-342.377	84.044	0.015	0.017
-341.362	9.692	-0.155	0.116
-340.348	-116.438	-0.110	0.020
-339.333	-86.525	-0.501	-0.152
-338.318	-82.414	0.187	-0.060
-337.304	-152.729	-0.404	-0.028
-336.289	530.519	0.176	-0.412
-335.275	-175.563	-0.215	-0.006
-334.260	286.630	-0.095	-0.170
-333.245	446.883	-0.131	0.284
-332.231	-65.624	-0.136	0.054
-331.216	39.593	-0.042	-0.038
-330.202	800.000	-0.032	-0.114
-329.187	-113.074	-0.286	0.056
-328.172	800.000	-0.056	0.203
-327.158	26.464	0.302	0.250
-326.143	-177.724	0.433	0.010
-325.129	146.584	-0.065	-0.086
-324.114	-86.629	-0.318	0.097
-323.099	-112.064	0.329	-0.066
-322.085	311.715	0.094	0.175
-321.070	-35.534	-0.081	-0.043
-320.056	568.749	-0.093	0.225
-319.041	-107.491	0.349	-0.076
-318.026	58.378	0.197	0.191
-317.012	-200.000	-0.071	0.403
-315.997	-46.135	-0.318	0.155
-314.983	-5.578	-0.040	-0.027
-313.968	216.839	-0.076	-0.120
-312.953	-76.411	0.348	0.121
-311.939	264.771	-0.128	-0.221
-310.924	5.652	0.165	-0.121
-309.910	59.894	-0.075	-0.074
-308.895	164.443	0.112	-0.156
-307.880	142.815	0.110	-0.145
-306.866	19.470	0.102	0.081
-305.851	-200.000	-0.006	0.053
-304.837	-200.000	0.004	-0.078
-303.822	-39.464	-0.176	0.092
-302.807	-81.913	-0.155	-0.050
-301.793	171.272	-0.116	0.164
-300.778	313.315	0.179	0.333
-299.764	369.843	0.047	0.095
-298.749	312.922	-0.085	-0.158
-297.735	800.000	0.080	0.332
-296.720	145.174	-0.178	0.235
-295.705	-16.031	0.150	0.094
-294.691	114.093	0.145	-0.175
-293.676	-40.276	-0.202	-0.104
-292.662	-140.009	-0.176	-0.018
-291.647	-122.289	0.111	0.018
-290.632	-200.000	0.008	0.116
-289.618	593.604	-0.032	-0.077
-288.603	-168.863	-0.143	-0.005
-287.589	550.610	-0.087	-0.206
-286.574	610.512	-0.113	0.278
-285.559	723.234	0.028	0.075
-284.545	299.917	0.009	-0.016
-283.530	-20.451	0.353	0.215
-282.516	-200.000	-0.324	0.001
-281.501	66.262	-0.125	0.125
-280.486	800.000	-0.136	0.372
-279.472	-101.685	0.184	0.044
-278.457	324.322	-0.161	-0.304
-277.443	-149.546	-0.545	-0.043
-276.428	-15.507	0.275	0.174
-275.413	204.658	0.053	0.082
-274.399	-200.000	0.020	0.093
-273.384	135.769	0.142	0.183
-272.370	-31.373	0.571	-0.317
-271.355	800.000	-0.079	-0.237
-270.340	-122.719	0.467	-0.075
-269.326	234.953	-0.144	-0.235
-268.311	-129.509	-0.115	-0.016
-267.297	-15.845	0.064	-0.040
-266.282	8.345	0.217	-0.161
-265.267	-19.559	-0.070	-0.043
-264.253	-200.000	0.016	-0.324
-263.238	-72.350	-0.162	0.059
-262.224	-12.234	0.009	0.006
-261.209	-24.118	-0.163	-0.096
-260.195	482.119	0.083	0.186
-259.180	-91.426	0.228	-0.064
-258.165	307.519	-0.079	-0.146
-257.151	449.348	0.226	0.492
-256.136	800.000	-0.074	-0.279
-255.122	-39.456	0.104	-0.054
-254.107	72.777	0.351	0.362
-253.092	-15.086	0.238	0.150
-252.078	-200.000	0.104	-0.499
-251.063	-2.090	-0.308	0.214
-250.049	-101.509	-0.047	-0.011
-249.034	-153.850	0.145	-0.010
-248.019	-113.500	-0.356	-0.069
-247.005	-158.332	-0.214	0.012
-245.990	8.736	0.120	0.090
-244.976	7.670	-0.175	0.129
-243.961	-96.813	-0.018	-0.005
-242.946	800.000	-0.055	-0.219
-241.932	20.668	-0.354	0.283
-240.917	-200.000	-0.027	0.299
-239.903	-87.735	0.434	0.129
-238.888	615.908	0.108	-0.266
-237.873	-35.909	-0.139	-0.074
-236.859	800.000	0.072	-0.303
-235.844	-171.181	0.045	0.002
-234.830	-102.381	-0.193	-0.046
-233.815	-84.280	0.409	0.128
-232.800	257.655	-0.162	-0.276
-231.786	-103.808	0.154	-0.035
-230.771	79.556	-0.099	0.105
-229.757	-200.000	-0.027	-0.139
-228.742	1.459	0.366	-0.260
-227.727	-61.152	-0.380	0.158
-226.713	-200.000	0.014	0.339
-225.698	386.492	0.167	-0.341
-224.684	-54.581	-0.307	0.137
-223.669	-200.000	-0.002	0.141
-222.655	-200.000	-0.038	-0.323
-221.640	249.732	0.096	-0.161
-220.625	55.459	0.191	0.182
-219.611	-151.849	0.121	0.009
-218.596	282.498	-0.163	-0.288
-217.582	-168.398	0.109	-0.004
-216.567	-200.000	0.060	0.274
-215.552	336.208	-0.196	-0.374
-214.538	-200.000	-0.034	0.170
-213.523	-200.000	0.033	0.147
-212.509	305.623	0.181	0.332
-211.494	-200.000	-0.020	0.152
-210.479	800.000	0.044	0.156
-209.465	27.825	-0.102	-0.084
-208.450	-42.164	-0.022	0.011
-207.436	-88.375	-0.151	-0.044
-206.421	-13.331	0.226	-0.144
-205.406	73.561	0.143	0.147
-204.392	153.588	0.096	0.129
-203.377	34.120	-0.151	-0.130
-202.363	-6.567	0.193	0.129
-201.348	104.006	0.161	-0.186
-200.333	-164.594	0.342	0.015
-199.319	470.415	-0.097	-0.214
-198.304	26.985	-0.127	0.105
-197.290	-123.819	0.099	0.015
-196.275	-165.730	-0.111	0.005
-195.260	-129.409	-0.319	0.044
-194.246	-200.000	0.000	0.106
-193.231	763.158	-0.082	-0.220
-192.217	-117.190	0.245	-0.044
-191.202	-200.000	0.032	0.186
-190.187	122.014	-0.062	0.077
-189.173	-200.000	0.016	0.271
-188.158	-1.862	0.100	0.069
-187.144	-200.000	0.079	-0.000
-186.129	-8.290	0.115	0.076
-185.114	-73.581	0.099	-0.036
-184.100	185.651	-0.098	0.144
-183.085	320.248	0.140	0.262
-182.071	-36.165	0.123	0.065
-181.056	-31.082	0.312	-0.174
-180.042	575.046	0.118	-0.284
-179.027	-33.909	-0.243	-0.132
-178.012	283.846	-0.050	-0.089
-176.998	291.626	0.164	-0.294
-175.983	-200.000	-0.067	-0.530
-174.969	97.437	-0.020	0.022
-173.954	-66.737	-0.172	-0.067
-172.939	147.037	-0.219	-0.290
-171.925	-200.000	-0.001	0.257
-170.910	61.857	0.251	0.247
-169.896	-200.000	-0.001	-0.149
-168.881	20.081	0.082	0.065
-167.866	-28.144	0.051	-0.029
-166.852	-67.889	-0.372	-0.143
-165.837	-34.025	-0.263	0.142
-164.823	-200.000	0.027	-0.142
-163.808	-200.000	0.008	0.088
-162.793	-200.000	-0.006	-0.055
-161.779	-200.000	-0.033	0.345
-160.764	800.000	-0.061	0.247
-159.750	185.343	0.084	0.122
-158.735	-200.000	0.042	0.309
-157.720	-200.000	0.039	0.167
-156.706	-200.000	0.000	-0.017
-155.691	-141.237	0.050	0.005
-154.677	106.163	-0.166	-0.194
-153.662	800.000	0.106	-0.328
-152.647	-126.191	0.203	-0.030
-151.633	-200.000	-0.004	-0.275
-150.618	673.105	-0.106	-0.269
-149.604	227.461	0.177	0.283
-148.589	-34.452	0.191	0.103
-147.574	-34.429	0.091	-0.049
-146.560	-2.731	0.167	0.115
-145.545	627.703	0.218	-0.540
-144.531	-72.760	-0.291	0.105
-143.516	800.000	0.103	0.432
-142.502	52.381	0.319	0.299
-141.487	10.613	0.148	-0.111
-140.472	5.540	-0.378	-0.274
-139.458	-131.929	0.120	-0.015
-138.443	296.248	0.154	0.278
-137.429	-200.000	-0.029	0.257
-136.414	174.628	-0.068	0.097
-135.399	19.299	-0.217	-0.171
-134.385	9.080	0.176	-0.131
-133.370	-117.336	0.365	-0.065
-132.356	-200.000	-0.002	-0.085
-131.341	453.140	0.102	-0.222
-130.326	-200.000	0.018	0.177
-129.312	-98.444	0.125	-0.031
-128.297	14.176	-0.183	0.140
-127.283	258.945	-0.179	-0.304
-126.268	-49.594	-0.081	-0.038
-125.253	800.000	-0.032	0.104
-124.239	111.512	-0.130	0.154
-123.224	-200.000	0.035	0.229
