DTS Sentinel unit serial number:	SN413079Multiplexer serial number:	ORYXHardware model number:	OX4-SRSoftware version number:	ORYX F/W v4.00 Oryx Data Collector v3.7.2.0data status	okinstallation	princeton_trtdifferential loss correction	single-endedforward channel	channel 3reverse channel	N/Adate	2019/09/17time	04:20:34forward acquisition time	60.00reverse acquisition time	0.00gamma	496.2192k internal	0.2323k external	0.2323temperature offset calibration	0.9942default loss term (dB/km)	0.3790temperature slope calibration	1.0000multiplexer offset coefficient	1.0000multiplexer slope coefficient	1.0000fibre end	0.00T internal ref (°C)	29.75T ext. ref 1 (°C)	0.13T ext. ref 2 (°C)	24.23length (m)	temperature (°C)	Stokes	anti-Stokes-747.200	-113.653	0.140	0.028
-746.185	-87.407	0.005	0.002
-745.171	-72.482	-0.118	-0.044
-744.156	-174.762	0.116	0.003
-743.142	698.638	-0.116	0.309
-742.127	800.000	-0.041	0.119
-741.112	86.899	-0.214	-0.239
-740.098	-4.192	0.018	0.013
-739.083	22.377	0.179	0.148
-738.069	-200.000	0.067	0.522
-737.054	44.227	0.234	-0.217
-736.039	800.000	-0.031	-0.107
-735.025	465.540	0.081	0.184
-734.010	126.054	0.070	0.090
-732.996	-46.657	-0.398	-0.197
-731.981	800.000	0.076	-0.323
-730.966	63.051	-0.252	0.254
-729.952	-114.667	-0.212	-0.041
-728.937	-75.864	0.071	-0.025
-727.923	-200.000	0.000	-0.496
-726.908	66.741	-0.188	-0.194
-725.894	-150.320	-0.128	0.010
-724.879	-87.610	0.066	-0.020
-723.864	-100.590	0.187	-0.047
-722.850	90.734	0.102	0.116
-721.835	-151.979	0.065	0.005
-720.821	800.000	-0.119	0.442
-719.806	-108.061	-0.128	0.028
-718.791	268.690	-0.065	0.116
-717.777	-200.000	-0.003	-0.131
-716.762	-200.000	0.048	0.380
-715.748	-200.000	0.039	0.191
-714.733	-39.002	0.376	0.200
-713.718	-95.294	0.016	0.004
-712.704	44.292	0.137	0.127
-711.689	-81.811	-0.174	0.057
-710.675	19.099	-0.296	-0.239
-709.660	-164.018	0.100	-0.005
-708.645	66.234	-0.040	-0.041
-707.631	-200.000	0.001	-0.152
-706.616	248.788	0.121	-0.207
-705.602	-183.777	-0.176	0.003
-704.587	27.716	0.115	0.097
-703.572	-134.619	0.075	0.009
-702.558	-200.000	0.086	0.459
-701.543	-200.000	0.019	-0.234
-700.529	800.000	-0.075	0.261
-699.514	-45.852	0.059	-0.029
-698.499	-124.575	0.101	-0.016
-697.485	94.583	-0.263	-0.301
-696.470	-53.591	-0.178	-0.082
-695.456	-124.347	-0.226	-0.036
-694.441	-200.000	-0.004	-0.110
-693.426	-22.343	0.135	-0.083
-692.412	-26.938	-0.293	-0.173
-691.397	-200.000	-0.016	-0.210
-690.383	-123.092	0.320	0.052
-689.368	-30.462	-0.178	0.102
-688.354	202.324	-0.291	0.453
-687.339	307.369	0.048	-0.090
-686.324	800.000	0.033	-0.100
-685.310	87.732	-0.084	-0.093
-684.295	26.326	0.182	-0.153
-683.281	382.829	-0.087	0.180
-682.266	-124.911	-0.193	0.030
-681.251	800.000	0.050	0.148
-680.237	111.261	0.269	0.326
-679.222	-200.000	-0.027	-0.143
-678.208	157.467	-0.106	-0.148
-677.193	-135.389	0.219	-0.026
-676.178	-200.000	0.032	-0.291
-675.164	-200.000	-0.009	-0.076
-674.149	-127.342	0.131	-0.019
-673.135	-179.863	0.231	-0.005
-672.120	407.035	0.164	0.350
-671.105	-139.839	0.139	-0.015
-670.091	-85.266	0.165	0.052
-669.076	-200.000	-0.003	0.097
-668.062	800.000	-0.039	0.135
-667.047	800.000	-0.053	0.165
-666.032	-200.000	0.014	0.131
-665.018	-109.480	0.152	0.032
-664.003	111.787	0.160	0.194
-662.989	194.528	-0.068	0.104
-661.974	-200.000	-0.023	-0.145
-660.959	-107.679	0.220	-0.048
-659.945	-200.000	-0.038	0.225
-658.930	176.593	-0.080	0.117
-657.916	-46.677	-0.282	0.139
-656.901	-0.736	0.228	0.162
-655.886	-121.503	-0.128	-0.021
-654.872	59.465	0.044	-0.044
-653.857	-123.984	0.234	-0.037
-652.843	800.000	0.087	0.262
-651.828	-200.000	0.008	0.056
-650.814	32.393	0.110	0.095
-649.799	106.171	0.151	-0.180
-648.784	248.252	0.220	0.374
-647.770	252.320	-0.215	-0.369
-646.755	-115.568	0.332	-0.063
-645.741	445.956	0.109	0.242
-644.726	170.516	-0.039	0.056
-643.711	-123.723	0.161	-0.026
-642.697	-49.978	0.187	-0.089
-641.682	-99.316	0.161	0.041
-640.668	284.037	-0.203	0.368
-639.653	21.199	0.014	-0.011
-638.638	139.250	0.099	0.131
-637.624	-101.226	0.297	-0.073
-636.609	53.120	-0.146	-0.141
-635.595	-96.153	-0.033	0.009
-634.580	-200.000	-0.069	0.371
-633.565	-1.621	-0.046	-0.033
-632.551	27.824	0.170	-0.144
-631.536	71.889	-0.270	-0.282
-630.522	-96.207	-0.377	0.100
-629.507	-200.000	-0.044	-0.216
-628.492	51.645	-0.167	-0.160
-627.478	5.575	-0.171	0.127
-626.463	-45.746	0.303	0.151
-625.449	-34.099	-0.181	-0.100
-624.434	54.055	-0.159	0.154
-623.419	-7.341	0.378	-0.257
-622.405	74.521	0.149	0.158
-621.390	-145.634	-0.321	-0.029
-620.376	137.030	-0.030	-0.040
-619.361	-200.000	0.034	0.252
-618.346	200.135	-0.066	0.102
-617.332	267.429	-0.160	-0.281
-616.317	800.000	-0.085	-0.273
-615.303	-136.901	-0.288	0.033
-614.288	800.000	-0.096	0.328
-613.273	79.504	0.135	-0.146
-612.259	153.656	0.232	0.320
-611.244	-200.000	-0.022	0.200
-610.230	-60.149	-0.306	0.131
-609.215	58.767	0.170	0.168
-608.201	-36.662	0.153	0.083
-607.186	635.575	0.016	0.040
-606.171	89.855	0.257	0.288
-605.157	113.227	-0.262	0.319
-604.142	-6.627	-0.160	0.109
-603.128	-142.650	-0.287	-0.028
-602.113	-120.753	-0.109	-0.018
-601.098	128.182	0.113	-0.145
-600.084	-134.783	-0.166	-0.020
-599.069	53.136	0.127	-0.122
-598.055	327.431	-0.058	0.111
-597.040	-80.068	0.179	0.060
-596.025	800.000	-0.024	-0.095
-595.011	-87.609	0.114	-0.035
-593.996	44.770	0.136	0.125
-592.982	87.331	0.267	-0.296
-591.967	-200.000	-0.068	-0.358
-590.952	-178.654	-0.264	0.006
-589.938	800.000	0.032	-0.124
-588.923	-115.937	0.036	-0.007
-587.909	3.985	-0.152	-0.111
-586.894	41.004	-0.180	-0.163
-585.879	-26.202	-0.397	-0.234
-584.865	-98.115	0.582	-0.150
-583.850	376.741	-0.061	0.125
-582.836	-127.203	-0.159	0.023
-581.821	189.077	-0.055	-0.083
-580.806	-200.000	0.020	0.351
-579.792	232.904	0.130	-0.215
-578.777	108.231	0.090	0.108
-577.763	-200.000	0.004	0.030
-576.748	-72.261	0.124	-0.046
-575.733	323.648	0.086	-0.164
-574.719	-200.000	0.015	0.183
-573.704	219.199	0.145	-0.233
-572.690	800.000	-0.098	-0.337
-571.675	800.000	0.051	0.153
-570.661	0.826	-0.162	-0.116
-569.646	-200.000	-0.000	-0.028
-568.631	-26.404	0.116	0.068
-567.617	133.579	0.123	-0.160
-566.602	21.755	0.202	-0.165
-565.588	324.877	-0.101	-0.193
-564.573	-50.788	0.145	-0.068
-563.558	-167.990	0.145	0.006
-562.544	-200.000	-0.022	-0.235
-561.529	18.588	0.176	-0.141
-560.515	-114.961	-0.218	-0.042
-559.500	133.685	-0.108	-0.140
-558.485	97.338	0.181	-0.208
-557.471	5.801	0.151	-0.112
-556.456	360.514	0.180	-0.361
-555.442	437.425	-0.172	0.377
-554.427	94.391	0.218	0.249
-553.412	58.453	-0.222	-0.218
-552.398	-30.446	0.094	-0.054
-551.383	587.741	0.020	0.049
-550.369	-15.142	-0.316	0.203
-549.354	-49.846	-0.078	0.037
-548.339	-133.669	-0.310	0.039
-547.325	65.399	0.331	-0.336
-546.310	800.000	-0.031	-0.107
-545.296	-67.485	0.338	-0.133
-544.281	-200.000	-0.003	0.152
-543.266	45.703	0.013	-0.012
-542.252	-200.000	-0.063	-0.331
-541.237	-0.330	0.155	0.110
-540.223	800.000	0.093	-0.258
-539.208	596.313	0.212	-0.527
-538.193	-200.000	-0.007	-0.548
-537.179	-29.055	-0.428	-0.246
-536.164	155.062	0.058	0.080
-535.150	317.797	0.091	0.172
-534.135	127.274	0.160	-0.204
-533.121	151.032	0.078	-0.106
-532.106	-200.000	0.017	-0.081
-531.091	237.133	0.102	0.169
-530.077	28.324	-0.175	-0.148
-529.062	-200.000	0.028	0.175
-528.048	174.986	0.045	-0.066
-527.033	-83.252	0.038	0.012
-526.018	193.875	0.075	-0.113
-525.004	-21.454	0.396	0.242
-523.989	-67.285	-0.182	0.072
-522.975	-122.539	-0.100	0.016
-521.960	84.258	-0.136	-0.149
-520.945	800.000	-0.054	-0.150
-519.931	657.726	-0.031	0.079
-518.916	-10.315	0.059	-0.039
-517.902	-200.000	-0.005	-0.131
-516.887	96.325	-0.117	-0.134
-515.872	56.126	-0.276	0.268
-514.858	84.796	0.039	0.043
-513.843	800.000	0.058	0.226
-512.829	28.653	-0.190	0.161
-511.814	411.029	0.070	0.149
-510.799	81.216	0.197	-0.213
-509.785	800.000	-0.092	-0.331
-508.770	40.312	-0.174	0.157
-507.756	14.453	-0.095	0.074
-506.741	-200.000	0.008	0.048
-505.726	-18.431	-0.164	0.103
-504.712	37.050	0.099	0.088
-503.697	-118.589	-0.200	0.035
-502.683	30.297	0.175	0.150
-501.668	-146.284	-0.248	-0.022
-500.653	212.643	0.091	-0.144
-499.639	234.191	0.055	0.091
-498.624	8.722	-0.248	-0.187
-497.610	-143.655	-0.234	-0.022
-496.595	800.000	-0.025	0.089
-495.581	-20.944	-0.368	0.226
-494.566	-200.000	-0.021	-0.432
-493.551	172.867	0.255	-0.368
-492.537	-169.098	-0.102	-0.004
-491.522	-36.676	0.201	0.108
-490.508	-103.390	-0.484	0.114
-489.493	175.161	-0.105	0.152
-488.478	-200.000	-0.009	-0.222
-487.464	-124.049	0.446	0.070
-486.449	-200.000	-0.022	0.193
-485.435	-5.935	-0.051	-0.035
-484.420	-63.782	-0.216	-0.088
-483.405	-81.899	-0.208	0.068
-482.391	-200.000	0.024	0.133
-481.376	-186.785	0.094	-0.001
-480.362	-30.301	-0.134	0.076
-479.347	-200.000	-0.006	-0.172
-478.332	-200.000	0.024	0.330
-477.318	19.998	-0.056	-0.045
-476.303	-132.827	-0.039	-0.005
-475.289	-200.000	0.002	0.344
-474.274	283.237	0.047	-0.085
-473.259	48.325	-0.189	-0.177
-472.245	65.753	-0.101	-0.102
-471.230	161.479	0.131	0.183
-470.216	-125.129	-0.142	-0.022
-469.201	-92.655	-0.239	0.067
-468.186	-84.671	0.247	0.078
-467.172	-170.677	0.211	0.007
-466.157	-200.000	-0.036	0.205
-465.143	-200.000	0.007	0.227
-464.128	7.615	-0.145	-0.108
-463.113	-73.373	-0.147	-0.054
-462.099	800.000	-0.058	0.248
-461.084	-40.946	-0.300	0.155
-460.070	-27.401	0.111	-0.064
-459.055	65.422	-0.066	0.067
-458.040	111.483	0.161	-0.194
-457.026	-200.000	-0.030	0.220
-456.011	-147.773	0.265	0.022
-454.997	-4.022	0.157	0.109
-453.982	-125.538	-0.075	0.011
-452.968	85.936	-0.148	-0.163
-451.953	0.118	-0.224	-0.160
-450.938	-200.000	-0.033	-0.355
-449.924	-200.000	-0.043	0.364
-448.909	134.844	-0.102	0.132
-447.895	-109.822	0.088	0.018
-446.880	-143.109	-0.159	0.015
-445.865	653.546	0.172	0.442
-444.851	-200.000	-0.022	-0.377
-443.836	262.496	-0.191	-0.331
-442.822	-66.364	-0.059	0.023
-441.807	-140.789	-0.133	-0.014
-440.792	201.100	-0.135	-0.208
-439.778	-170.326	0.134	-0.005
-438.763	-90.880	-0.186	-0.053
-437.749	-200.000	0.040	0.265
-436.734	45.571	-0.126	0.116
-435.719	-33.460	0.051	0.028
-434.705	33.510	-0.260	-0.226
-433.690	-82.727	-0.024	0.008
-432.676	507.067	0.104	-0.242
-431.661	800.000	0.145	-0.451
-430.646	577.295	-0.144	-0.351
-429.632	7.945	0.379	0.284
-428.617	-40.740	-0.253	-0.131
-427.603	10.505	-0.149	-0.113
-426.588	800.000	-0.091	0.300
-425.573	48.323	-0.028	0.026
-424.559	-108.050	-0.333	-0.072
-423.544	-200.000	-0.052	0.326
-422.530	110.250	-0.078	0.093
-421.515	404.163	0.151	-0.318
-420.500	-200.000	0.025	-0.239
-419.486	-200.000	0.028	0.134
-418.471	-200.000	0.047	0.406
-417.457	-160.415	-0.120	0.006
-416.442	19.161	0.103	0.082
-415.428	-200.000	0.032	-0.309
-414.413	-200.000	0.022	0.221
-413.398	93.047	0.082	0.093
-412.384	98.242	-0.373	0.429
-411.369	-73.404	0.174	0.063
-410.355	-200.000	-0.006	-0.376
-409.340	-200.000	-0.012	0.311
-408.325	-29.272	-0.393	-0.225
-407.311	-122.319	0.340	0.055
-406.296	800.000	0.067	0.215
-405.282	144.533	-0.199	-0.264
-404.267	-36.316	0.141	-0.076
-403.252	800.000	0.026	-0.077
-402.238	-166.902	0.271	-0.011
-401.223	366.742	0.104	-0.208
-400.209	-200.000	0.059	-0.427
-399.194	-200.000	-0.019	-0.247
-398.179	45.247	-0.134	-0.123
-397.165	-200.000	-0.025	-0.112
-396.150	-26.006	-0.113	0.066
-395.136	262.749	0.082	-0.143
-394.121	-200.000	-0.011	0.142
-393.106	-42.897	0.258	0.131
-392.092	-200.000	0.009	-0.285
-391.077	-71.427	0.279	0.104
-390.063	-142.405	-0.065	0.006
-389.048	-11.289	0.244	0.160
-388.033	-200.000	0.003	0.184
-387.019	-117.047	-0.325	0.059
-386.004	244.086	0.151	0.253
-384.990	-140.511	-0.623	0.065
-383.975	2.184	0.384	0.277
-382.960	170.264	0.052	-0.074
-381.946	97.990	0.187	0.215
-380.931	-62.150	-0.355	0.148
-379.917	711.639	0.062	-0.163
-378.902	70.390	-0.146	-0.150
-377.888	800.000	0.013	0.055
-376.873	-140.784	0.194	-0.020
-375.858	-6.676	0.287	0.194
-374.844	8.087	0.179	-0.134
-373.829	-200.000	0.012	-0.245
-372.815	-109.409	0.138	0.029
-371.800	-109.617	-0.158	-0.033
-370.785	-82.052	0.233	-0.076
-369.771	92.010	0.095	-0.106
-368.756	800.000	-0.086	-0.238
-367.742	50.530	0.339	-0.319
-366.727	1.891	-0.199	-0.143
-365.712	282.447	0.162	0.290
-364.698	-21.578	-0.051	-0.031
-363.683	49.256	-0.044	0.041
-362.669	372.252	-0.142	0.287
-361.654	32.150	0.139	0.119
-360.639	663.605	0.100	-0.256
-359.625	67.430	0.116	-0.118
-358.610	-81.822	-0.346	0.113
-357.596	-200.000	-0.002	0.051
-356.581	2.135	-0.211	0.151
-355.566	-51.382	-0.247	0.115
-354.552	-200.000	0.001	-0.136
-353.537	636.875	0.042	-0.107
-352.523	22.848	-0.361	-0.294
-351.508	3.097	-0.213	-0.154
-350.493	-55.134	0.276	0.124
-349.479	-189.209	-0.278	0.003
-348.464	79.544	-0.126	0.135
-347.450	-102.105	-0.321	-0.077
-346.435	-177.737	-0.181	0.004
-345.420	800.000	-0.013	0.043
-344.406	-139.546	0.087	-0.009
-343.391	419.234	-0.105	-0.223
-342.377	-146.004	0.120	0.011
-341.362	96.294	0.180	0.205
-340.348	38.413	-0.231	-0.204
-339.333	-38.094	-0.207	0.109
-338.318	800.000	-0.025	0.069
-337.304	-101.549	-0.070	-0.017
-336.289	800.000	-0.071	-0.279
-335.275	-153.701	0.080	-0.005
-334.260	-11.679	-0.215	0.140
-333.245	516.495	-0.031	-0.073
-332.231	97.383	-0.111	-0.127
-331.216	-81.170	-0.061	0.020
-330.202	-24.234	-0.094	-0.056
-329.187	-143.210	0.090	0.009
-328.172	176.269	-0.136	-0.196
-327.158	-27.892	-0.159	0.092
-326.143	504.748	0.038	0.088
-325.129	-200.000	-0.014	-0.163
-324.114	17.547	0.357	0.282
-323.099	-200.000	0.012	-0.098
-322.085	81.830	0.208	0.224
-321.070	-200.000	-0.078	0.687
-320.056	-200.000	0.048	0.308
-319.041	-200.000	-0.012	-0.169
-318.026	-66.726	0.033	0.013
-317.012	800.000	0.044	0.185
-315.997	354.380	0.030	-0.060
-314.983	-59.924	0.126	0.054
-313.968	20.997	0.084	0.068
-312.953	-76.220	0.288	0.101
-311.939	-15.177	0.125	-0.079
-310.924	-78.028	0.121	0.042
-309.910	-170.749	0.305	0.010
-308.895	800.000	0.090	-0.321
-307.880	-200.000	0.060	0.430
-306.866	-43.089	0.078	0.039
-305.851	-76.246	-0.308	0.108
-304.837	-120.449	0.115	-0.019
-303.822	-18.650	-0.074	-0.046
-302.807	9.942	-0.171	0.129
-301.793	-89.192	-0.104	0.031
-300.778	-157.549	0.321	-0.019
-299.764	241.648	0.141	-0.235
-298.749	-137.496	-0.267	-0.030
-297.735	-117.692	-0.398	-0.071
-296.720	22.172	0.119	0.097
-295.705	-62.711	0.480	-0.198
-294.691	-88.083	-0.093	-0.028
-293.676	261.084	0.141	0.243
-292.662	231.010	0.106	0.172
-291.647	800.000	-0.024	0.087
-290.632	167.243	-0.122	-0.171
-289.618	591.479	0.023	0.055
-288.603	-38.627	-0.250	0.131
-287.589	461.497	-0.113	0.249
-286.574	-200.000	-0.007	0.141
-285.559	-174.709	-0.146	-0.004
-284.545	-63.457	0.099	-0.040
-283.530	-33.386	0.126	0.069
-282.516	-53.786	0.075	-0.034
-281.501	440.273	0.066	0.144
-280.486	-109.205	-0.134	0.028
-279.472	15.806	0.228	-0.178
-278.457	-200.000	0.003	0.169
-277.443	800.000	-0.058	-0.173
-276.428	-109.885	-0.130	-0.027
-275.413	-200.000	0.019	0.125
-274.399	-200.000	0.054	0.285
-273.384	316.389	0.060	0.113
-272.370	-47.892	0.344	0.165
-271.355	-200.000	0.019	-0.091
-270.340	-200.000	0.014	-0.322
-269.326	281.763	0.207	0.368
-268.311	-35.950	0.313	-0.168
-267.297	112.903	0.120	0.144
-266.282	-7.263	-0.112	-0.075
-265.267	-200.000	0.013	0.127
-264.253	-200.000	-0.008	0.268
-263.238	-105.277	-0.288	0.065
-262.224	800.000	-0.134	0.382
-261.209	-187.816	-0.134	-0.002
-260.195	-97.338	-0.132	-0.034
-259.180	299.847	0.053	0.096
-258.165	-168.301	-0.190	-0.007
-257.151	40.370	-0.160	0.143
-256.136	-138.483	0.210	0.023
-255.122	48.129	0.159	0.147
-254.107	100.445	-0.127	-0.146
-253.092	-122.933	-0.322	0.051
-252.078	66.996	0.145	-0.146
-251.063	-200.000	-0.008	0.070
-250.049	149.994	0.130	0.175
-249.034	800.000	0.120	0.349
-248.019	-106.149	0.250	-0.056
-247.005	-21.405	0.148	-0.090
-245.990	-54.691	0.278	-0.125
-244.976	26.279	-0.304	0.252
-243.961	20.762	0.240	-0.192
-242.946	447.940	-0.244	-0.532
-241.932	800.000	-0.074	-0.272
-240.917	-70.126	0.070	-0.026
-239.903	16.146	0.162	-0.127
-238.888	-200.000	0.063	-0.451
-237.873	-99.077	-0.138	0.035
-236.859	-26.251	-0.260	0.151
-235.844	-34.229	-0.122	0.066
-234.830	-164.026	-0.167	-0.008
-233.815	471.373	0.150	-0.334
-232.800	800.000	-0.061	-0.250
-231.786	800.000	0.031	0.110
-230.771	-200.000	-0.077	-0.371
-229.757	-38.406	0.157	0.082
-228.742	-8.313	0.170	0.113
-227.727	165.191	0.249	0.347
-226.713	-79.375	0.146	-0.049
-225.698	-146.057	0.241	0.021
-224.684	500.439	0.038	0.086
-223.669	-139.595	-0.215	-0.023
-222.655	-126.954	-0.295	-0.043
-221.640	-63.726	0.234	0.095
-220.625	96.440	-0.163	-0.185
-219.611	-95.619	-0.179	0.047
-218.596	-115.225	-0.471	0.088
-217.582	-200.000	-0.008	0.175
-216.567	-50.896	-0.120	-0.056
-215.552	-200.000	0.050	0.317
-214.538	-139.894	0.094	-0.010
-213.523	-171.374	-0.062	-0.002
-212.509	-200.000	0.016	-0.147
-211.494	-200.000	0.011	0.156
-210.479	800.000	0.057	-0.162
-209.465	172.996	0.142	0.202
-208.450	-17.353	0.357	0.222
-207.436	800.000	-0.100	0.309
-206.421	800.000	0.109	0.319
-205.406	130.842	-0.108	0.137
-204.392	-54.046	0.067	0.030
-203.377	-169.231	0.244	0.009
-202.363	140.019	-0.197	0.257
-201.348	-200.000	0.007	-0.099
-200.333	-114.972	-0.188	-0.035
-199.319	56.424	-0.231	0.222
-198.304	364.950	-0.180	-0.358
-197.290	51.446	-0.235	0.221
-196.275	-149.452	0.545	0.043
-195.260	-52.929	-0.087	-0.039
-194.246	386.800	0.103	0.210
-193.231	-46.756	-0.195	-0.095
-192.217	138.883	-0.036	0.047
-191.202	266.194	0.090	-0.156
-190.187	24.488	-0.052	0.042
-189.173	-0.477	0.074	-0.052
-188.158	-18.703	0.134	-0.082
-187.144	110.438	-0.182	0.217
-186.129	-200.000	0.013	-0.104
-185.114	-200.000	-0.023	0.123
-184.100	-117.935	-0.257	0.046
-183.085	85.510	0.233	0.253
-182.071	800.000	0.058	0.212
-181.056	63.281	-0.132	-0.130
-180.042	107.896	-0.183	-0.215
-179.027	122.465	0.126	0.156
-178.012	-200.000	-0.009	-0.083
-176.998	-101.897	0.090	0.022
-175.983	-118.629	-0.089	-0.016
-174.969	-171.497	0.235	0.008
-173.954	-99.864	0.299	-0.074
-172.939	-111.762	0.230	-0.046
-171.925	-118.752	0.416	-0.072
-170.910	20.520	0.057	0.046
-169.896	-200.000	-0.009	-0.090
-168.881	800.000	-0.085	-0.336
-167.866	273.963	-0.058	0.102
-166.852	442.436	0.043	0.094
-165.837	-200.000	0.021	-0.098
-164.823	350.121	0.066	-0.129
-163.808	73.841	0.292	-0.303
-162.793	321.971	0.160	-0.301
-161.779	282.826	0.210	-0.373
-160.764	-200.000	-0.000	0.291
-159.750	310.624	-0.211	-0.391
-158.735	24.783	0.196	-0.160
-157.720	800.000	-0.039	-0.126
-156.706	800.000	0.049	0.201
-155.691	800.000	-0.102	0.283
-154.677	92.880	0.223	0.248
-153.662	-146.701	0.386	0.033
-152.647	88.643	0.138	0.151
-151.633	-81.670	-0.142	0.046
-150.618	322.967	0.090	-0.170
-149.604	-104.003	-0.387	-0.089
-148.589	3.182	-0.116	0.083
-147.574	800.000	0.067	-0.251
-146.560	580.505	-0.040	-0.097
-145.545	-176.192	0.300	0.008
-144.531	290.428	-0.035	-0.064
-143.516	-90.996	0.524	-0.149
-142.502	384.248	-0.038	-0.078
-141.487	31.138	-0.196	-0.166
-140.472	311.774	0.084	-0.155
-139.458	-116.237	-0.366	0.067
-138.443	-200.000	0.050	0.218
-137.429	444.414	-0.044	-0.095
-136.414	-122.366	0.095	-0.015
-135.399	-113.948	-0.320	-0.061
-134.385	-48.038	0.070	-0.033
-133.370	208.549	-0.137	-0.211
-132.356	116.704	0.253	0.306
-131.341	28.348	0.102	-0.085
-130.326	309.074	0.130	-0.239
-129.312	-169.573	0.085	-0.003
-128.297	-200.000	0.344	0.001
-127.283	-200.000	0.024	-0.291
-126.268	1.610	0.206	-0.147
-125.253	-200.000	0.010	0.250
-124.239	-62.056	0.155	0.064
-123.224	-81.390	-0.244	0.079
-122.210	268.268	0.135	-0.234
-121.195	-22.664	0.208	-0.124
