DTS Sentinel unit serial number:	SN413079Multiplexer serial number:	ORYXHardware model number:	OX4-SRSoftware version number:	ORYX F/W v4.00 Oryx Data Collector v3.7.2.0data status	okinstallation	princeton_trtdifferential loss correction	single-endedforward channel	channel 3reverse channel	N/Adate	2019/09/18time	19:12:34forward acquisition time	60.00reverse acquisition time	0.00gamma	496.2192k internal	0.2315k external	0.2315temperature offset calibration	1.0017default loss term (dB/km)	0.3790temperature slope calibration	1.0000multiplexer offset coefficient	1.0000multiplexer slope coefficient	1.0000fibre end	0.00T internal ref (°C)	34.73T ext. ref 1 (°C)	1.17T ext. ref 2 (°C)	23.90length (m)	temperature (°C)	Stokes	anti-Stokes-747.200	-200.000	-0.039	0.194
-746.185	800.000	0.078	-0.341
-745.171	87.062	0.079	0.088
-744.156	280.876	-0.151	0.273
-743.142	-27.478	0.248	0.146
-742.127	800.000	0.017	0.072
-741.112	-200.000	-0.295	-0.001
-740.098	-117.284	-0.042	0.008
-739.083	-200.000	0.001	0.055
-738.069	-39.700	-0.283	0.150
-737.054	6.883	-0.258	0.195
-736.039	-0.790	-0.147	-0.105
-735.025	11.292	-0.260	0.202
-734.010	-101.591	0.075	-0.019
-732.996	33.917	0.181	-0.160
-731.981	-91.757	0.175	-0.050
-730.966	445.171	-0.176	0.391
-729.952	-200.000	0.008	0.246
-728.937	-21.909	-0.104	0.064
-727.923	-113.581	-0.212	0.042
-726.908	-174.132	0.123	-0.004
-725.894	-200.000	0.030	-0.398
-724.879	800.000	-0.086	0.316
-723.864	-184.588	-0.352	-0.006
-722.850	433.378	-0.096	0.212
-721.835	-21.248	-0.352	-0.218
-720.821	-169.287	0.097	-0.004
-719.806	-153.262	-0.091	0.006
-718.791	-32.867	0.068	-0.038
-717.777	14.933	-0.278	-0.220
-716.762	-41.504	-0.281	0.146
-715.748	230.910	0.058	-0.096
-714.733	-58.536	-0.141	-0.062
-713.718	106.822	0.156	-0.187
-712.704	-114.307	-0.227	0.044
-711.689	-40.738	-0.125	0.065
-710.675	110.551	-0.186	0.226
-709.660	800.000	-0.068	-0.242
-708.645	98.268	-0.062	-0.072
-707.631	195.580	0.232	-0.356
-706.616	179.644	-0.078	-0.116
-705.602	48.728	-0.445	-0.423
-704.587	-174.039	0.343	0.010
-703.572	-58.341	0.161	-0.071
-702.558	-80.711	0.153	-0.052
-701.543	-200.000	-0.021	0.180
-700.529	62.615	-0.263	0.266
-699.514	-121.155	0.266	0.045
-698.499	-200.000	0.014	-0.130
-697.485	800.000	-0.093	-0.303
-696.470	800.000	-0.020	0.079
-695.456	-28.429	-0.158	-0.092
-694.441	343.534	-0.037	0.073
-693.426	34.819	0.145	0.129
-692.412	-200.000	0.038	0.331
-691.397	800.000	-0.100	0.355
-690.383	-93.938	-0.329	0.091
-689.368	-200.000	0.027	0.132
-688.354	-200.000	-0.046	0.281
-687.339	50.278	-0.064	0.061
-686.324	116.178	-0.221	-0.273
-685.310	-18.457	0.387	0.244
-684.295	-164.573	-0.390	0.018
-683.281	-16.708	0.085	-0.054
-682.266	24.382	0.019	-0.016
-681.251	-151.538	0.168	-0.013
-680.237	227.349	-0.097	-0.159
-679.222	88.021	-0.136	0.152
-678.208	-76.409	-0.214	0.076
-677.193	414.350	0.102	0.220
-676.178	-42.340	0.057	0.030
-675.164	-200.000	0.004	0.166
-674.149	-200.000	-0.036	0.365
-673.135	-33.715	-0.347	-0.193
-672.120	-163.460	-0.496	0.024
-671.105	-26.635	-0.208	0.123
-670.091	-94.154	-0.054	0.015
-669.076	-160.514	-0.233	-0.013
-668.062	28.241	-0.255	-0.218
-667.047	125.289	0.117	0.150
-666.032	15.881	-0.068	0.054
-665.018	-200.000	0.059	0.368
-664.003	-56.088	-0.140	-0.063
-662.989	122.856	-0.104	-0.131
-661.974	-133.001	-0.026	0.003
-660.959	-200.000	-0.013	0.243
-659.945	-185.558	-0.188	-0.003
-658.930	495.824	0.091	-0.212
-657.916	800.000	-0.106	-0.304
-656.901	-21.275	-0.241	0.149
-655.886	-24.003	-0.394	-0.238
-654.872	71.245	0.036	-0.038
-653.857	12.445	-0.234	-0.182
-652.843	206.520	0.168	0.264
-651.828	800.000	0.077	0.253
-650.814	71.647	-0.187	0.196
-649.799	533.041	-0.086	-0.206
-648.784	-139.521	-0.196	0.021
-647.770	-7.868	-0.166	-0.113
-646.755	30.126	0.166	-0.143
-645.741	-200.000	-0.015	-0.126
-644.726	-7.543	-0.044	0.030
-643.711	-200.000	-0.009	0.061
-642.697	13.457	0.226	-0.177
-641.682	-31.828	-0.337	-0.191
-640.668	-34.191	-0.318	0.176
-639.653	-77.783	-0.280	-0.098
-638.638	140.141	0.174	-0.232
-637.624	800.000	0.083	0.252
-636.609	-83.206	0.338	-0.110
-635.595	425.846	0.036	0.079
-634.580	-200.000	0.003	-0.103
-633.565	188.893	0.073	-0.110
-632.551	-22.805	-0.186	-0.113
-631.536	218.592	0.135	-0.218
-630.522	-93.647	-0.268	0.075
-629.507	-15.985	-0.371	-0.238
-628.492	612.077	0.066	0.166
-627.478	95.755	-0.107	0.124
-626.463	800.000	0.042	-0.176
-625.449	-200.000	0.001	0.042
-624.434	-164.925	-0.182	0.008
-623.419	325.823	0.159	-0.307
-622.405	-110.128	0.253	-0.053
-621.390	800.000	-0.043	-0.164
-620.376	800.000	-0.061	0.175
-619.361	-47.891	0.107	-0.052
-618.346	605.251	0.037	0.092
-617.332	-80.972	0.268	0.089
-616.317	-200.000	0.022	-0.276
-615.303	147.185	-0.131	0.178
-614.288	-48.733	0.050	-0.024
-613.273	62.700	-0.156	-0.157
-612.259	-113.581	0.413	-0.081
-611.244	113.993	-0.196	0.240
-610.230	186.958	0.166	-0.249
-609.215	77.861	0.071	-0.076
-608.201	11.213	0.239	0.184
-607.186	122.524	-0.008	0.010
-606.171	-200.000	-0.001	0.121
-605.157	-158.158	-0.285	-0.017
-604.142	291.423	-0.162	-0.298
-603.128	-111.160	-0.215	-0.044
-602.113	-66.954	0.305	-0.121
-601.098	-200.000	0.030	-0.228
-600.084	416.506	0.075	0.161
-599.069	439.727	0.068	-0.149
-598.055	-151.851	0.205	-0.015
-597.040	435.976	0.100	-0.219
-596.025	-120.931	-0.402	-0.068
-595.011	-107.127	0.206	-0.046
-593.996	-139.504	-0.044	0.005
-592.982	-21.876	0.076	-0.047
-591.967	-43.748	0.275	-0.139
-590.952	18.819	0.124	-0.100
-589.938	109.108	0.125	0.151
-588.923	-14.305	0.229	-0.149
-587.909	96.370	-0.190	-0.219
-586.894	43.589	-0.091	-0.084
-585.879	457.144	-0.203	-0.454
-584.865	85.598	0.171	-0.189
-583.850	-170.167	0.078	-0.003
-582.836	-136.299	-0.228	-0.027
-581.821	800.000	0.122	-0.341
-580.806	-200.000	-0.002	-0.068
-579.792	-114.666	-0.257	0.050
-578.777	45.096	0.142	0.132
-577.763	-200.000	-0.053	-0.393
-576.748	-56.827	-0.252	0.112
-575.733	-57.065	-0.147	0.065
-574.719	108.494	0.166	0.200
-573.704	317.294	0.076	0.144
-572.690	-184.409	-0.096	0.002
-571.675	-200.000	-0.007	0.071
-570.661	4.396	0.268	0.198
-569.646	800.000	0.101	0.329
-568.631	-200.000	-0.050	-0.284
-567.617	78.402	0.174	-0.186
-566.602	-148.153	-0.124	-0.010
-565.588	800.000	-0.089	-0.380
-564.573	-174.322	0.146	0.004
-563.558	90.975	-0.073	-0.082
-562.544	-0.922	-0.210	-0.149
-561.529	-200.000	-0.055	0.352
-560.515	-66.364	-0.183	-0.073
-559.500	800.000	0.071	0.290
-558.485	-45.326	-0.201	-0.100
-557.471	-200.000	-0.011	0.088
-556.456	800.000	0.027	0.105
-555.442	-24.609	0.044	0.027
-554.427	-177.868	0.250	0.006
-553.412	-124.442	-0.100	-0.016
-552.398	45.227	0.199	0.184
-551.383	40.225	-0.030	0.027
-550.369	-104.340	-0.063	0.015
-549.354	-28.436	0.053	-0.031
-548.339	440.803	-0.058	-0.127
-547.325	327.094	0.093	0.179
-546.310	800.000	-0.051	-0.149
-545.296	245.262	-0.196	-0.332
-544.281	-117.307	-0.272	-0.050
-543.266	-85.045	0.013	-0.004
-542.252	-61.828	-0.310	-0.131
-541.237	155.446	0.258	0.357
-540.223	239.151	0.137	-0.229
-539.208	44.226	0.154	-0.142
-538.193	30.576	-0.142	-0.122
-537.179	-200.000	-0.004	-0.188
-536.164	-51.920	-0.129	0.060
-535.150	-137.108	0.073	-0.008
-534.135	151.441	0.072	0.098
-533.121	-200.000	0.079	-0.416
-532.106	-142.439	-0.223	0.022
-531.091	748.285	0.062	0.168
-530.077	-146.878	-0.222	-0.019
-529.062	193.716	-0.037	0.057
-528.048	-89.593	-0.174	0.051
-527.033	9.346	-0.255	-0.194
-526.018	800.000	0.009	0.036
-525.004	-70.378	-0.224	0.085
-523.989	28.949	-0.096	0.082
-522.975	-200.000	0.015	-0.150
-521.960	-12.711	-0.168	0.110
-520.945	-8.399	-0.035	0.024
-519.931	-146.237	-0.287	-0.025
-518.916	229.519	0.139	0.227
-517.902	-75.391	0.064	0.023
-516.887	-117.243	-0.155	0.028
-515.872	800.000	-0.092	-0.372
-514.858	-99.265	-0.299	-0.076
-513.843	-200.000	-0.036	-0.176
-512.829	-108.403	0.294	0.064
-511.814	800.000	-0.059	0.177
-510.799	314.227	0.143	-0.270
-509.785	573.688	-0.070	-0.170
-508.770	-200.000	-0.021	0.357
-507.756	-66.039	-0.214	0.086
-506.741	-136.918	-0.477	0.055
-505.726	162.444	0.192	-0.270
-504.712	-200.000	0.010	-0.367
-503.697	63.227	0.036	-0.037
-502.683	-165.735	0.124	0.005
-501.668	-173.054	-0.252	-0.008
-500.653	-2.970	0.094	-0.066
-499.639	-54.706	0.112	-0.051
-498.624	136.349	-0.227	0.296
-497.610	278.647	0.042	0.075
-496.595	157.418	-0.137	-0.191
-495.581	800.000	-0.022	-0.075
-494.566	282.005	-0.049	-0.088
-493.551	-109.808	0.169	0.036
-492.537	104.612	-0.154	-0.181
-491.522	-154.423	0.243	-0.016
-490.508	800.000	0.090	0.345
-489.493	-13.945	-0.253	0.164
-488.478	-84.237	-0.262	0.083
-487.464	-200.000	-0.032	-0.197
-486.449	-68.088	-0.248	0.097
-485.435	-24.896	-0.257	0.153
-484.420	-26.660	0.083	0.049
-483.405	99.819	0.050	0.058
-482.391	270.009	-0.282	-0.497
-481.376	800.000	0.062	-0.237
-480.362	800.000	0.116	-0.355
-479.347	126.677	-0.135	-0.172
-478.332	79.257	0.194	-0.208
-477.318	-150.710	0.063	0.005
-476.303	-89.653	-0.147	-0.043
-475.289	3.404	0.212	0.155
-474.274	800.000	-0.053	-0.228
-473.259	-35.644	0.132	-0.072
-472.245	-125.602	0.288	-0.044
-471.230	293.544	0.034	0.063
-470.216	43.035	0.233	-0.213
-469.201	91.366	0.243	0.273
-468.186	341.522	-0.160	0.313
-467.172	-121.428	0.088	-0.015
-466.157	315.077	0.110	0.209
-465.143	291.159	-0.037	-0.068
-464.128	591.915	-0.160	-0.397
-463.113	-89.076	0.134	0.040
-462.099	-36.774	0.070	0.038
-461.084	-95.944	0.078	0.021
-460.070	-100.171	0.103	-0.026
-459.055	10.160	-0.180	0.137
-458.040	184.571	0.114	-0.169
-457.026	-1.158	-0.303	-0.214
-456.011	448.222	0.065	-0.143
-454.997	167.076	0.191	-0.272
-453.982	-5.835	-0.143	-0.098
-452.968	95.885	0.011	0.013
-451.953	-41.856	0.116	-0.060
-450.938	282.201	-0.055	-0.099
-449.924	44.225	-0.261	0.240
-448.909	-146.396	-0.333	-0.029
-447.895	-200.000	0.034	0.265
-446.880	116.165	0.040	0.049
-445.865	-38.211	-0.279	-0.148
-444.851	90.189	-0.243	0.273
-443.836	-200.000	-0.031	0.243
-442.822	-45.293	-0.184	-0.091
-441.807	800.000	-0.058	0.194
-440.792	-18.336	0.297	0.186
-439.778	-166.633	0.106	-0.004
-438.763	48.314	-0.108	-0.101
-437.749	-200.000	0.043	0.296
-436.734	800.000	0.087	0.352
-435.719	-200.000	0.053	0.319
-434.705	800.000	-0.055	0.156
-433.690	396.621	-0.134	0.280
-432.676	-200.000	0.006	0.037
-431.661	-193.499	0.169	-0.001
-430.646	-200.000	-0.000	-0.301
-429.632	-8.765	-0.198	-0.133
-428.617	282.536	0.113	0.202
-427.603	294.898	0.080	0.147
-426.588	319.915	-0.146	0.278
-425.573	13.941	0.087	0.067
-424.559	800.000	-0.041	-0.119
-423.544	-79.397	-0.236	0.080
-422.530	290.110	0.012	-0.021
-421.515	358.254	-0.138	0.276
-420.500	39.284	0.042	0.037
-419.486	-193.744	0.242	-0.002
-418.471	16.943	0.162	-0.128
-417.457	702.269	-0.091	0.240
-416.442	46.771	0.179	0.166
-415.428	-106.061	0.183	-0.041
-414.413	101.293	0.284	-0.331
-413.398	-200.000	0.106	-0.517
-412.384	800.000	0.073	-0.257
-411.369	-130.261	0.324	0.044
-410.355	174.487	-0.033	0.048
-409.340	187.353	0.122	0.183
-408.325	-92.318	-0.114	-0.032
-407.311	-84.405	-0.224	-0.071
-406.296	-18.387	0.097	-0.061
-405.282	-37.110	-0.166	0.089
-404.267	-153.488	-0.322	-0.022
-403.252	419.136	0.021	-0.046
-402.238	-200.000	-0.025	0.278
-401.223	-70.234	0.221	0.084
-400.209	-200.000	-0.003	-0.141
-399.194	-200.000	-0.101	0.563
-398.179	-120.199	0.207	0.035
-397.165	-76.898	0.016	0.006
-396.150	-139.795	-0.207	0.022
-395.136	-88.678	0.380	0.113
-394.121	27.788	0.232	-0.196
-393.106	-105.890	-0.116	0.026
-392.092	-10.942	0.143	-0.095
-391.077	62.560	0.129	0.129
-390.063	-24.077	-0.096	0.058
-389.048	-66.125	0.198	-0.079
-388.033	433.046	-0.133	0.288
-387.019	6.263	-0.069	0.051
-386.004	-98.331	-0.070	-0.018
-384.990	-167.635	-0.169	0.007
-383.975	352.493	-0.148	0.293
-382.960	-128.160	0.287	0.041
-381.946	382.711	0.049	0.100
-380.931	-200.000	-0.012	-0.062
-379.917	-200.000	0.027	0.189
-378.902	129.213	-0.141	-0.180
-377.888	-90.083	0.185	0.054
-376.873	63.500	0.235	-0.236
-375.858	-200.000	0.031	-0.319
-374.844	-97.644	0.380	0.098
-373.829	-128.750	0.143	0.020
-372.815	56.734	0.104	-0.101
-371.800	-109.953	0.301	0.063
-370.785	-200.000	0.005	-0.055
-369.771	31.199	0.230	0.197
-368.756	68.155	-0.131	0.133
-367.742	106.265	0.166	0.196
-366.727	-190.987	-0.083	-0.001
-365.712	121.096	-0.038	-0.047
-364.698	175.466	-0.118	-0.171
-363.683	-81.895	0.323	-0.106
-362.669	-19.474	-0.071	0.044
-361.654	-200.000	0.057	0.287
-360.639	46.879	-0.172	-0.160
-359.625	-64.287	-0.271	0.110
-358.610	-96.266	-0.156	0.041
-357.596	-51.199	0.290	0.135
-356.581	536.411	0.114	-0.270
-355.566	-200.000	0.002	0.015
-354.552	800.000	0.048	-0.148
-353.537	81.026	0.151	0.163
-352.523	48.112	0.019	-0.018
-351.508	-200.000	-0.055	-0.285
-350.493	71.066	-0.066	-0.068
-349.479	119.811	-0.261	-0.323
-348.464	800.000	0.029	0.098
-347.450	-200.000	0.001	-0.008
-346.435	68.168	-0.154	-0.157
-345.420	-169.347	0.293	-0.011
-344.406	226.713	0.122	0.198
-343.391	-54.633	0.504	0.227
-342.377	159.899	0.103	-0.143
-341.362	7.328	0.208	-0.155
-340.348	50.421	-0.308	0.290
-339.333	800.000	0.069	-0.276
-338.318	32.230	0.023	-0.020
-337.304	-26.322	-0.057	0.033
-336.289	71.441	0.091	-0.094
-335.275	800.000	-0.020	0.064
-334.260	-14.127	-0.137	-0.088
-333.245	40.694	0.072	0.065
-332.231	-200.000	0.000	-0.057
-331.216	800.000	0.059	-0.172
-330.202	-200.000	0.045	0.425
-329.187	80.393	0.096	0.104
-328.172	-40.408	-0.182	-0.094
-327.158	-104.347	0.149	0.035
-326.143	41.021	0.060	0.054
-325.129	-156.382	-0.337	-0.021
-324.114	783.652	0.149	-0.408
-323.099	274.259	0.090	-0.159
-322.085	-200.000	0.042	-0.241
-321.070	-200.000	0.005	0.064
-320.056	113.487	0.057	-0.069
-319.041	-200.000	0.009	0.306
-318.026	359.914	0.133	0.265
-317.012	462.971	-0.031	0.070
-315.997	51.502	0.157	0.148
-314.983	-200.000	0.009	-0.065
-313.968	-200.000	0.000	-0.226
-312.953	233.422	-0.124	-0.203
-311.939	780.228	0.106	-0.289
-310.924	13.350	-0.194	-0.150
-309.910	-61.471	0.456	0.191
-308.895	-200.000	-0.001	0.264
-307.880	-40.670	0.095	0.049
-306.866	-25.459	-0.227	-0.134
-305.851	-200.000	-0.016	0.219
-304.837	-106.304	0.242	-0.054
-303.822	33.184	-0.052	-0.045
-302.807	126.745	0.214	-0.269
-301.793	-99.514	-0.320	-0.080
-300.778	-161.498	0.192	-0.010
-299.764	-200.000	0.005	0.094
-298.749	800.000	-0.032	0.092
-297.735	82.912	-0.156	-0.169
-296.720	84.085	0.187	-0.203
-295.705	53.437	0.122	0.116
-294.691	800.000	-0.056	-0.186
-293.676	265.519	0.091	0.159
-292.662	-92.331	-0.463	-0.130
-291.647	-177.690	-0.387	-0.009
-290.632	-68.865	0.174	-0.067
-289.618	-127.887	0.247	-0.035
-288.603	-84.026	0.329	0.104
-287.589	-200.000	-0.022	0.188
-286.574	398.231	-0.129	0.268
-285.559	150.254	0.162	0.219
-284.545	-8.045	0.318	0.214
-283.530	334.602	-0.121	-0.233
-282.516	-65.402	0.061	-0.024
-281.501	-29.674	-0.355	0.202
-280.486	-121.580	-0.209	-0.034
-279.472	-16.703	0.295	-0.186
-278.457	484.271	-0.177	-0.400
-277.443	-89.802	-0.089	-0.026
-276.428	-200.000	-0.004	-0.109
-275.413	-65.201	-0.493	-0.198
-274.399	538.373	-0.081	0.191
-273.384	-61.387	0.138	0.058
-272.370	-200.000	0.042	0.250
-271.355	-200.000	0.038	-0.372
-270.340	-200.000	-0.019	-0.133
-269.326	434.071	0.055	0.119
-268.311	800.000	0.042	0.135
-267.297	-28.802	0.088	0.050
-266.282	-21.694	-0.074	-0.045
-265.267	-114.884	-0.126	0.024
-264.253	80.036	-0.059	-0.063
-263.238	-200.000	0.024	0.173
-262.224	-76.948	-0.336	-0.117
-261.209	38.948	-0.055	0.049
-260.195	155.867	0.097	-0.133
-259.180	800.000	0.045	0.162
-258.165	-200.000	-0.019	0.466
-257.151	-71.867	0.114	0.042
-256.136	-200.000	-0.013	0.063
-255.122	-71.476	-0.296	-0.110
-254.107	-45.548	0.274	0.135
-253.092	136.954	0.091	0.119
-252.078	-100.528	-0.200	0.049
-251.063	216.817	0.060	0.095
-250.049	190.788	-0.108	-0.161
-249.034	-96.550	0.259	-0.068
-248.019	97.781	-0.146	0.167
-247.005	-97.526	0.091	-0.024
-245.990	-200.000	-0.039	0.184
-244.976	-9.596	0.168	0.111
-243.961	-106.211	0.280	-0.062
-242.946	-200.000	0.003	0.083
-241.932	4.957	-0.387	-0.283
-240.917	800.000	-0.032	-0.097
-239.903	3.265	0.267	0.193
-238.888	79.549	0.182	0.194
-237.873	406.756	0.169	0.355
-236.859	-200.000	0.007	-0.126
-235.844	312.007	-0.117	-0.219
-234.830	-200.000	0.011	-0.235
-233.815	-95.709	-0.127	0.034
-232.800	-73.504	-0.151	0.055
-231.786	-200.000	-0.003	-0.126
-230.771	-114.559	0.317	-0.060
-229.757	-98.039	-0.225	0.058
-228.742	119.193	-0.189	-0.232
-227.727	-95.495	0.239	0.064
-226.713	-142.652	0.141	0.014
-225.698	8.635	-0.106	-0.079
-224.684	-200.000	0.029	0.168
-223.669	66.231	0.177	0.179
-222.655	-67.215	-0.201	-0.079
-221.640	598.791	0.075	0.186
-220.625	617.966	0.034	0.084
-219.611	-14.010	0.198	0.127
-218.596	-151.935	0.243	-0.018
-217.582	20.393	0.242	0.194
-216.567	319.808	0.097	0.183
-215.552	648.510	-0.119	-0.303
-214.538	-7.805	0.210	0.141
-213.523	-120.330	-0.116	-0.020
-212.509	-200.000	-0.010	0.062
-211.494	742.372	0.174	0.464
-210.479	-200.000	0.003	-0.035
-209.465	-200.000	-0.070	0.390
-208.450	800.000	0.042	-0.144
-207.436	-36.573	-0.387	-0.207
-206.421	-44.126	-0.294	-0.147
-205.406	-164.398	-0.129	-0.006
-204.392	-122.907	-0.454	0.073
-203.377	26.489	0.131	0.109
-202.363	15.393	-0.256	-0.199
-201.348	-200.000	-0.047	0.326
-200.333	-189.193	0.237	-0.003
-199.319	129.255	0.106	0.135
-198.304	-40.671	-0.145	0.075
-197.290	-200.000	-0.044	0.251
-196.275	-83.796	-0.049	0.016
-195.260	17.465	0.146	0.115
-194.246	-200.000	0.021	-0.285
-193.231	-200.000	-0.031	0.275
-192.217	177.467	-0.154	0.223
-191.202	2.101	-0.113	0.081
-190.187	315.473	0.079	-0.147
-189.173	-200.000	-0.057	-0.310
-188.158	800.000	-0.157	0.571
-187.144	142.689	0.130	-0.171
-186.129	439.291	0.137	0.296
-185.114	-87.311	0.061	0.018
-184.100	102.694	-0.152	0.176
-183.085	26.922	-0.180	0.150
-182.071	-112.105	-0.295	-0.059
-181.056	-90.953	-0.172	-0.049
-180.042	-102.984	0.301	0.071
-179.027	-128.096	0.267	0.038
-178.012	-45.993	-0.349	0.170
-176.998	-92.021	-0.256	-0.072
-175.983	31.814	-0.349	-0.298
-174.969	-79.525	-0.351	0.117
-173.954	-46.909	0.003	-0.002
-172.939	-151.224	0.425	0.032
-171.925	-140.784	0.348	-0.036
-170.910	-69.214	0.212	0.081
-169.896	800.000	0.021	0.066
-168.881	-53.310	0.264	-0.120
-167.866	115.739	-0.127	0.154
-166.852	29.025	0.141	0.119
-165.837	800.000	0.062	0.266
-164.823	635.142	-0.118	0.295
-163.808	800.000	-0.087	0.275
-162.793	-129.210	0.223	0.031
-161.779	800.000	0.058	0.191
-160.764	12.526	-0.142	-0.109
-159.750	745.504	-0.165	0.439
-158.735	18.835	0.170	-0.135
-157.720	-35.880	-0.312	-0.167
-156.706	144.167	0.095	-0.126
-155.691	-200.000	0.013	-0.145
-154.677	-59.616	0.296	-0.126
-153.662	-30.316	0.152	-0.085
-152.647	12.207	-0.295	0.225
-151.633	800.000	-0.021	0.087
-150.618	141.191	0.147	-0.192
-149.604	-83.506	0.210	-0.066
-148.589	-179.283	-0.091	-0.002
-147.574	-141.175	-0.251	-0.025
-146.560	-45.981	0.151	-0.074
-145.545	464.235	-0.160	0.353
-144.531	53.729	-0.100	-0.095
-143.516	280.980	0.028	-0.049
-142.502	-138.872	0.141	-0.015
-141.487	125.030	0.130	-0.162
-140.472	738.917	0.112	-0.297
-139.458	158.342	-0.150	0.206
-138.443	-200.000	-0.046	0.305
-137.429	-12.373	-0.162	-0.105
-136.414	800.000	0.100	0.331
-135.399	238.895	0.125	-0.206
-134.385	-85.615	-0.049	-0.015
-133.370	800.000	-0.028	0.099
-132.356	800.000	0.046	0.143
-131.341	-186.740	0.151	0.002
-130.326	262.477	0.017	-0.030
-129.312	-181.561	-0.269	-0.005
-128.297	525.401	0.013	-0.030
-127.283	-3.744	-0.123	0.084
-126.268	-4.867	-0.301	-0.205
-125.253	25.518	0.081	0.067
-124.239	-140.420	-0.221	0.023
-123.224	201.531	-0.091	0.138
-122.210	6.359	-0.303	0.222
-121.195	102.387	0.129	-0.149
