DTS Sentinel unit serial number:	SN413079Multiplexer serial number:	ORYXHardware model number:	OX4-SRSoftware version number:	ORYX F/W v4.00 Oryx Data Collector v3.7.2.0data status	okinstallation	princeton_trtdifferential loss correction	single-endedforward channel	channel 3reverse channel	N/Adate	2019/09/12time	13:50:11forward acquisition time	60.00reverse acquisition time	0.00gamma	496.2192k internal	0.2291k external	0.2291temperature offset calibration	1.0044default loss term (dB/km)	0.3790temperature slope calibration	1.0000multiplexer offset coefficient	1.0000multiplexer slope coefficient	1.0000fibre end	0.00T internal ref (°C)	40.89T ext. ref 1 (°C)	2.19T ext. ref 2 (°C)	35.12length (m)	temperature (°C)	Stokes	anti-Stokes-747.200	-74.189	-0.014	-0.005
-746.185	63.555	-0.340	0.350
-745.171	-92.092	0.272	-0.079
-744.156	-200.000	-0.070	0.381
-743.142	135.176	0.177	0.236
-742.127	92.207	-0.184	0.212
-741.112	32.080	0.123	0.108
-740.098	-47.625	-0.181	-0.090
-739.083	65.943	-0.309	-0.320
-738.069	-87.739	-0.232	-0.072
-737.054	-112.798	-0.104	0.021
-736.039	151.060	-0.222	0.309
-735.025	28.968	0.185	0.161
-734.010	289.987	-0.066	0.123
-732.996	-61.482	-0.203	0.087
-731.981	-139.097	-0.200	0.022
-730.966	-127.292	-0.097	-0.014
-729.952	312.926	0.155	0.298
-728.937	800.000	-0.038	0.110
-727.923	-160.129	-0.220	0.012
-726.908	-200.000	0.000	0.224
-725.894	-200.000	0.018	0.337
-724.879	-200.000	-0.011	-0.146
-723.864	143.913	0.087	0.119
-722.850	-143.310	-0.069	-0.007
-721.835	-73.538	-0.474	-0.177
-720.821	-19.657	-0.026	-0.017
-719.806	-123.426	0.083	-0.014
-718.791	-200.000	-0.004	0.043
-717.777	15.977	-0.214	0.172
-716.762	-37.958	-0.159	-0.086
-715.748	-27.509	-0.120	-0.071
-714.733	-21.467	0.105	-0.065
-713.718	47.006	-0.253	0.241
-712.704	426.646	-0.052	0.115
-711.689	-121.443	0.074	0.013
-710.675	-119.910	-0.244	-0.043
-709.660	356.026	-0.107	-0.217
-708.645	-200.000	-0.041	-0.511
-707.631	190.886	-0.199	-0.305
-706.616	-74.770	-0.053	-0.020
-705.602	-148.955	0.159	-0.013
-704.587	-78.972	-0.377	-0.131
-703.572	379.767	-0.173	0.363
-702.558	26.148	0.290	0.248
-701.543	57.655	0.099	-0.099
-700.529	-159.547	0.184	-0.010
-699.514	-75.565	-0.318	0.115
-698.499	-125.749	0.223	-0.034
-697.485	-69.476	-0.042	-0.017
-696.470	56.210	0.085	0.084
-695.456	-135.183	-0.212	0.026
-694.441	-26.107	-0.184	0.110
-693.426	-75.108	-0.060	-0.022
-692.412	-83.365	-0.113	0.037
-691.397	-127.275	0.248	0.037
-690.383	111.132	-0.253	-0.312
-689.368	800.000	0.116	0.488
-688.354	-200.000	-0.013	0.083
-687.339	-143.413	-0.204	0.020
-686.324	-95.036	0.380	-0.105
-685.310	-73.193	0.173	-0.065
-684.295	-200.000	-0.022	-0.101
-683.281	-200.000	-0.106	-0.515
-682.266	302.491	-0.160	-0.303
-681.251	194.010	0.176	0.272
-680.237	-22.219	0.257	0.159
-679.222	-110.253	0.079	0.017
-678.208	-91.920	-0.075	-0.022
-677.193	800.000	0.070	0.295
-676.178	-61.658	0.077	0.033
-675.164	12.393	-0.122	0.096
-674.149	229.140	-0.094	-0.156
-673.135	-126.071	-0.399	0.061
-672.120	-200.000	0.015	0.187
-671.105	146.113	0.211	0.289
-670.091	-200.000	-0.027	-0.140
-669.076	800.000	-0.070	-0.264
-668.062	41.650	-0.106	0.098
-667.047	767.294	0.075	-0.207
-666.032	-200.000	-0.054	-0.307
-665.018	-68.042	-0.113	0.045
-664.003	425.014	-0.103	0.227
-662.989	37.866	0.202	-0.183
-661.974	347.273	0.047	-0.095
-660.959	800.000	-0.069	-0.268
-659.945	-2.393	-0.178	-0.127
-658.930	800.000	-0.095	0.273
-657.916	-200.000	0.055	-0.290
-656.901	-200.000	-0.067	0.316
-655.886	-43.122	-0.081	0.042
-654.872	589.200	-0.084	0.211
-653.857	-10.334	0.175	-0.118
-652.843	-82.576	0.055	0.018
-651.828	68.565	-0.257	0.269
-650.814	-142.047	-0.356	-0.036
-649.799	-60.618	-0.026	-0.011
-648.784	-49.662	-0.433	0.210
-647.770	148.879	0.134	-0.184
-646.755	-28.611	0.278	-0.164
-645.741	-65.239	-0.103	0.042
-644.726	800.000	-0.019	0.057
-643.711	326.528	0.137	-0.267
-642.697	-200.000	0.011	-0.293
-641.682	-200.000	0.031	-0.180
-640.668	231.257	0.055	-0.092
-639.653	548.549	0.035	0.084
-638.638	-58.787	0.105	-0.046
-637.624	-9.533	0.394	0.268
-636.609	-125.225	-0.196	0.031
-635.595	124.432	-0.144	-0.184
-634.580	-29.888	0.182	0.106
-633.565	75.435	-0.153	-0.165
-632.551	-59.002	0.065	0.029
-631.536	-84.039	0.091	0.029
-630.522	63.365	0.102	0.105
-629.507	-98.344	-0.110	0.029
-628.492	537.713	0.061	0.148
-627.478	-200.000	-0.043	-0.357
-626.463	-5.094	0.232	-0.163
-625.449	-73.853	0.277	0.102
-624.434	-174.497	0.297	0.009
-623.419	-200.000	0.038	-0.435
-622.405	160.762	-0.165	0.235
-621.390	-144.423	0.245	0.023
-620.376	800.000	-0.073	0.322
-619.361	-15.768	0.143	0.093
-618.346	34.150	-0.227	0.202
-617.332	-39.492	-0.147	-0.078
-616.317	10.879	-0.225	-0.175
-615.303	-20.642	-0.169	0.106
-614.288	82.795	-0.181	0.200
-613.273	800.000	0.012	-0.048
-612.259	-200.000	0.025	-0.254
-611.244	127.063	-0.060	-0.077
-610.230	0.775	0.187	-0.136
-609.215	327.099	-0.180	-0.352
-608.201	74.917	0.069	-0.073
-607.186	-1.620	-0.107	-0.077
-606.171	-200.000	-0.011	-0.211
-605.157	372.119	0.077	-0.158
-604.142	-41.842	0.104	-0.054
-603.128	-53.742	-0.181	-0.084
-602.113	-30.155	-0.032	0.018
-601.098	-17.769	-0.104	0.067
-600.084	16.816	-0.152	0.122
-599.069	345.607	-0.016	-0.031
-598.055	10.533	-0.375	0.291
-597.040	-80.827	-0.227	0.077
-596.025	-110.533	0.524	-0.111
-595.011	517.439	0.143	-0.340
-593.996	357.293	-0.127	0.258
-592.982	-200.000	0.044	0.225
-591.967	66.803	0.154	0.159
-590.952	-102.418	0.093	-0.023
-589.938	87.835	-0.135	-0.153
-588.923	-200.000	-0.012	-0.260
-587.909	81.340	0.102	0.112
-586.894	302.998	-0.101	-0.191
-585.879	418.585	0.087	-0.190
-584.865	124.372	-0.117	-0.150
-583.850	149.320	0.184	-0.253
-582.836	800.000	0.018	-0.055
-581.821	-57.226	-0.109	0.049
-580.806	-147.973	-0.339	-0.029
-579.792	-149.287	-0.461	0.037
-578.777	51.900	-0.182	0.176
-577.763	-86.032	0.079	-0.025
-576.748	800.000	0.024	0.091
-575.733	-27.705	0.073	-0.043
-574.719	255.015	-0.193	-0.336
-573.704	-141.983	0.213	0.022
-572.690	-68.432	-0.197	0.078
-571.675	-42.088	0.193	0.100
-570.661	-177.929	0.138	-0.003
-569.646	800.000	0.042	0.162
-568.631	151.262	-0.075	0.103
-567.617	-74.329	-0.184	-0.067
-566.602	-200.000	0.014	-0.204
-565.588	239.283	0.019	-0.031
-564.573	-200.000	0.031	0.342
-563.558	-200.000	-0.041	-0.353
-562.544	382.452	0.103	0.214
-561.529	-83.196	0.240	0.079
-560.515	165.684	-0.085	0.123
-559.500	-30.003	0.041	-0.024
-558.485	-20.305	-0.209	-0.131
-557.471	-200.000	0.002	-0.208
-556.456	-200.000	-0.007	0.132
-555.442	66.469	0.226	0.233
-554.427	-200.000	0.024	0.285
-553.412	-9.688	-0.147	-0.100
-552.398	613.874	-0.099	-0.252
-551.383	-179.130	-0.330	-0.008
-550.369	12.429	-0.170	0.133
-549.354	113.474	0.092	-0.114
-548.339	-200.000	0.006	-0.040
-547.325	450.072	-0.255	-0.572
-546.310	162.800	-0.099	0.142
-545.296	343.889	0.046	-0.092
-544.281	25.134	-0.056	0.047
-543.266	-41.658	-0.255	0.133
-542.252	-13.951	0.356	-0.234
-541.237	162.483	-0.129	-0.184
-540.223	-121.622	0.133	0.022
-539.208	-154.786	-0.069	0.005
-538.193	11.598	0.119	-0.093
-537.179	-200.000	0.026	0.195
-536.164	-93.174	-0.166	-0.047
-535.150	-200.000	0.014	0.120
-534.135	455.352	0.028	0.062
-533.121	100.211	0.220	-0.259
-532.106	54.950	-0.256	0.251
-531.091	73.612	0.103	0.110
-530.077	-34.015	0.035	-0.019
-529.062	167.298	-0.127	0.184
-528.048	480.455	0.036	-0.084
-527.033	-200.000	0.030	0.492
-526.018	-116.616	-0.177	-0.033
-525.004	-36.028	-0.279	-0.153
-523.989	134.798	-0.098	0.129
-522.975	89.214	0.142	0.161
-521.960	-76.486	0.101	0.036
-520.945	136.839	0.246	0.326
-519.931	760.592	0.087	0.239
-518.916	-200.000	-0.003	-0.014
-517.902	94.806	-0.118	0.137
-516.887	24.226	0.237	0.199
-515.872	418.740	-0.239	0.518
-514.858	-36.476	0.262	0.143
-513.843	86.301	0.120	0.135
-512.829	104.162	0.047	-0.056
-511.814	-200.000	0.057	0.262
-510.799	-45.779	0.238	-0.119
-509.785	133.730	-0.110	-0.144
-508.770	-91.158	-0.289	-0.084
-507.756	-101.210	-0.280	-0.069
-506.741	-20.554	0.342	0.213
-505.726	800.000	-0.049	0.209
-504.712	102.556	0.101	-0.119
-503.697	230.269	0.002	0.004
-502.683	90.989	0.157	0.178
-501.668	-200.000	0.030	-0.228
-500.653	-21.567	0.277	-0.171
-499.639	-103.876	-0.255	-0.060
-498.624	-77.455	-0.414	-0.146
-497.610	-131.245	-0.254	0.034
-496.595	-137.078	-0.245	-0.028
-495.581	-98.409	0.398	-0.103
-494.566	-150.180	0.111	-0.009
-493.551	800.000	-0.101	0.295
-492.537	-159.517	-0.120	-0.007
-491.522	-76.060	-0.330	0.118
-490.508	-200.000	0.000	0.077
-489.493	77.582	-0.079	-0.086
-488.478	-200.000	-0.027	0.170
-487.464	555.330	-0.061	-0.148
-486.449	630.715	0.059	-0.152
-485.435	-200.000	0.002	0.222
-484.420	-200.000	0.040	-0.186
-483.405	-36.221	0.232	-0.127
-482.391	-3.283	0.140	-0.099
-481.376	-200.000	0.006	-0.242
-480.362	695.700	-0.066	-0.176
-479.347	-83.469	0.204	0.066
-478.332	121.539	-0.084	0.107
-477.318	-139.579	0.115	-0.012
-476.303	13.515	0.203	0.160
-475.289	-200.000	0.006	0.217
-474.274	33.582	0.244	-0.215
-473.259	8.756	0.052	-0.040
-472.245	800.000	-0.059	-0.201
-471.230	-94.623	-0.109	-0.030
-470.216	-200.000	-0.016	-0.389
-469.201	-64.267	0.112	-0.046
-468.186	-84.258	0.272	0.087
-467.172	-56.156	0.380	0.171
-466.157	5.623	0.218	-0.163
-465.143	800.000	-0.066	0.189
-464.128	167.323	0.074	0.106
-463.113	-68.716	0.120	-0.047
-462.099	-200.000	-0.003	0.102
-461.084	-200.000	-0.034	0.177
-460.070	-79.910	-0.487	0.166
-459.055	79.358	0.180	0.195
-458.040	107.823	-0.198	0.238
-457.026	-155.219	0.323	-0.021
-456.011	6.829	-0.353	0.266
-454.997	-142.759	0.103	0.010
-453.982	203.558	-0.074	0.116
-452.968	-200.000	-0.019	0.124
-451.953	-93.593	-0.453	-0.127
-450.938	136.719	-0.169	-0.224
-449.924	142.830	-0.030	-0.040
-448.909	-176.030	-0.290	0.008
-447.895	-200.000	0.000	-0.153
-446.880	-154.160	0.378	0.026
-445.865	-9.304	-0.117	0.079
-444.851	102.337	-0.134	-0.159
-443.836	-158.946	-0.177	-0.010
-442.822	-200.000	0.024	-0.305
-441.807	-136.627	-0.116	-0.014
-440.792	-42.508	-0.189	-0.098
-439.778	366.096	0.035	-0.072
-438.763	-106.003	-0.221	-0.050
-437.749	-200.000	-0.002	-0.098
-436.734	800.000	-0.056	-0.168
-435.719	-70.774	-0.022	-0.009
-434.705	609.676	-0.067	-0.169
-433.690	-102.858	0.451	-0.108
-432.676	-179.379	0.023	0.001
-431.661	-200.000	0.001	-0.184
-430.646	-200.000	-0.032	0.188
-429.632	62.806	0.194	0.197
-428.617	5.825	-0.419	-0.314
-427.603	97.210	-0.093	-0.108
-426.588	-200.000	0.018	-0.392
-425.573	73.054	0.077	-0.082
-424.559	214.944	0.029	-0.046
-423.544	-82.069	0.336	-0.111
-422.530	385.398	0.137	0.287
-421.515	431.705	-0.078	-0.172
-420.500	392.304	-0.064	-0.135
-419.486	800.000	-0.039	-0.170
-418.471	12.445	-0.211	0.164
-417.457	-114.363	-0.158	-0.031
-416.442	-76.431	-0.117	-0.042
-415.428	-135.514	-0.263	0.032
-414.413	40.524	-0.068	0.061
-413.398	-200.000	-0.165	0.001
-412.384	-49.907	-0.404	-0.194
-411.369	-94.018	-0.102	0.028
-410.355	-200.000	0.006	0.099
-409.340	-156.956	-0.154	0.010
-408.325	46.918	-0.193	-0.181
-407.311	754.166	0.080	0.218
-406.296	-200.000	-0.028	0.286
-405.282	-200.000	0.001	-0.105
-404.267	-39.887	0.033	-0.018
-403.252	120.823	-0.066	0.083
-402.238	-200.000	-0.018	0.175
-401.223	-110.465	-0.208	-0.044
-400.209	280.268	0.091	-0.165
-399.194	-200.000	0.040	0.233
-398.179	170.517	-0.107	0.155
-397.165	127.549	0.193	0.247
-396.150	-60.481	-0.236	0.101
-395.136	-200.000	0.018	0.140
-394.121	-93.552	0.176	-0.049
-393.106	-23.241	0.117	-0.071
-392.092	-143.611	-0.262	-0.025
-391.077	-44.560	0.390	-0.197
-390.063	-65.859	0.203	-0.082
-389.048	753.307	-0.113	-0.308
-388.033	800.000	0.023	0.103
-387.019	113.092	-0.254	0.311
-386.004	-198.701	0.406	0.002
-384.990	-200.000	0.042	-0.278
-383.975	800.000	-0.055	0.206
-382.960	-101.809	0.109	-0.027
-381.946	-200.000	-0.076	-0.362
-380.931	408.725	0.083	-0.178
-379.917	195.116	0.102	-0.156
-378.902	-118.770	0.274	-0.049
-377.888	-27.740	-0.361	-0.211
-376.873	180.373	-0.237	0.350
-375.858	-119.650	0.421	-0.073
-374.844	800.000	-0.136	-0.385
-373.829	-121.464	0.141	-0.024
-372.815	475.250	0.094	-0.214
-371.800	-87.780	-0.032	0.010
-370.785	800.000	-0.042	-0.127
-369.771	0.618	0.160	0.115
-368.756	800.000	0.018	0.072
-367.742	-132.440	0.225	-0.029
-366.727	154.200	-0.094	-0.130
-365.712	46.456	-0.159	0.149
-364.698	167.935	-0.109	0.157
-363.683	310.821	0.086	0.162
-362.669	-65.874	-0.162	-0.065
-361.654	38.221	-0.549	-0.493
-360.639	-95.627	0.297	0.080
-359.625	-51.304	0.068	0.032
-358.610	-200.000	-0.077	-0.339
-357.596	-140.371	0.075	-0.008
-356.581	-70.556	0.203	-0.077
-355.566	-200.000	0.020	0.264
-354.552	269.971	0.084	0.150
-353.537	446.974	0.128	-0.284
-352.523	322.386	0.220	-0.423
-351.508	800.000	-0.061	0.214
-350.493	220.715	0.170	0.274
-349.479	54.699	-0.095	-0.092
-348.464	-147.360	-0.202	-0.017
-347.450	-49.188	-0.025	-0.012
-346.435	183.858	-0.097	-0.145
-345.420	-119.076	0.423	-0.075
-344.406	433.982	-0.160	-0.351
-343.391	800.000	0.073	0.224
-342.377	-37.087	-0.123	0.066
-341.362	-200.000	0.003	-0.168
-340.348	-200.000	-0.055	0.459
-339.333	467.101	-0.032	0.072
-338.318	182.365	0.130	0.193
-337.304	-77.599	0.342	-0.119
-336.289	-48.199	0.094	0.046
-335.275	-200.000	0.010	0.168
-334.260	138.593	-0.096	0.127
-333.245	9.293	0.178	-0.136
-332.231	-107.867	-0.209	-0.046
-331.216	-200.000	-0.040	0.268
-330.202	-2.980	0.082	-0.057
-329.187	-31.901	-0.090	-0.051
-328.172	253.120	-0.120	0.205
-327.158	617.963	-0.040	0.101
-326.143	-189.748	0.240	-0.003
-325.129	-53.867	-0.175	-0.080
-324.114	-9.829	-0.072	0.048
-323.099	2.126	0.302	0.220
-322.085	-40.946	0.040	-0.021
-321.070	95.230	-0.129	-0.148
-320.056	-102.499	-0.091	-0.022
-319.041	-28.040	0.304	-0.177
-318.026	28.138	-0.106	0.090
-317.012	-174.398	-0.090	-0.003
-315.997	81.709	-0.215	-0.234
-314.983	800.000	0.074	0.244
-313.968	-8.496	-0.355	0.240
-312.953	12.578	0.035	0.028
-311.939	-193.365	0.243	0.002
-310.924	-200.000	0.020	0.177
-309.910	0.843	-0.092	0.066
-308.895	-174.418	-0.264	-0.008
-307.880	10.100	0.082	-0.063
-306.866	-23.126	-0.108	-0.066
-305.851	-200.000	-0.019	0.137
-304.837	-200.000	-0.095	0.513
-303.822	-33.648	0.249	-0.138
-302.807	459.576	0.074	0.165
-301.793	214.821	-0.172	0.275
-300.778	-69.148	0.148	-0.057
-299.764	22.429	-0.132	-0.108
-298.749	175.954	-0.042	-0.062
-297.735	194.133	-0.113	0.172
-296.720	68.891	0.120	-0.124
-295.705	-143.284	-0.297	0.029
-294.691	-200.000	0.014	0.085
-293.676	-64.672	0.166	-0.068
-292.662	43.856	0.104	-0.096
-291.647	702.755	-0.105	0.277
-290.632	-171.099	-0.316	-0.011
-289.618	-6.662	0.178	-0.122
-288.603	207.937	-0.072	0.114
-287.589	800.000	0.063	-0.254
-286.574	144.390	-0.169	-0.226
-285.559	221.590	-0.224	0.362
-284.545	319.614	-0.048	-0.092
-283.530	-200.000	0.012	0.411
-282.516	-76.580	0.388	0.137
-281.501	-200.000	-0.020	-0.160
-280.486	-131.325	0.219	-0.029
-279.472	135.607	-0.144	0.188
-278.457	255.668	0.062	-0.106
-277.443	163.743	-0.165	0.233
-276.428	800.000	-0.041	-0.159
-275.413	85.169	0.291	0.321
-274.399	-200.000	-0.019	-0.116
-273.384	-200.000	-0.026	-0.301
-272.370	64.927	-0.052	0.053
-271.355	-94.071	0.064	0.018
-270.340	107.277	0.146	0.174
-269.326	44.621	-0.303	-0.279
-268.311	-200.000	-0.023	0.215
-267.297	5.960	0.144	-0.107
-266.282	154.742	0.054	0.074
-265.267	63.737	0.228	0.230
-264.253	-46.080	0.311	0.154
-263.238	99.536	-0.134	0.155
-262.224	61.204	0.309	-0.308
-261.209	-129.219	0.091	-0.013
-260.195	248.663	-0.203	0.346
-259.180	-41.447	0.127	-0.065
-258.165	-41.266	-0.248	-0.129
-257.151	202.859	0.097	0.150
-256.136	-200.000	0.001	0.217
-255.122	-47.046	-0.059	-0.029
-254.107	33.103	-0.120	0.105
-253.092	-51.909	-0.015	-0.007
-252.078	245.466	0.165	0.278
-251.063	57.068	-0.123	-0.121
-250.049	-46.606	0.044	-0.022
-249.034	800.000	-0.061	-0.213
-248.019	59.129	0.054	0.053
-247.005	-62.024	0.064	0.027
-245.990	-86.627	-0.130	-0.040
-244.976	-200.000	0.033	-0.269
-243.961	314.234	-0.214	0.405
-242.946	-133.598	0.032	0.004
-241.932	-9.526	-0.218	-0.146
-240.917	-10.032	0.240	-0.160
-239.903	146.429	0.239	-0.323
-238.888	-95.542	-0.038	0.010
-237.873	-4.630	0.337	0.233
-236.859	128.676	0.265	0.339
-235.844	129.891	0.147	-0.189
-234.830	-113.665	0.115	0.023
-233.815	51.816	0.304	0.291
-232.800	800.000	-0.145	0.481
-231.786	-200.000	-0.041	-0.188
-230.771	800.000	-0.047	0.161
-229.757	-200.000	-0.056	0.277
-228.742	20.370	-0.122	-0.099
-227.727	113.991	0.106	0.129
-226.713	-144.471	-0.156	-0.014
-225.698	-26.332	0.159	-0.094
-224.684	800.000	-0.024	-0.080
-223.669	-200.000	0.011	0.121
-222.655	96.819	0.173	0.199
-221.640	250.708	0.171	-0.292
-220.625	-11.828	-0.421	-0.277
-219.611	-200.000	0.000	-0.009
-218.596	191.692	-0.133	0.201
-217.582	216.860	-0.070	0.112
-216.567	179.502	0.169	0.248
-215.552	-200.000	-0.004	0.105
-214.538	-200.000	-0.020	0.164
-213.523	127.211	0.300	-0.381
-212.509	-200.000	-0.018	-0.160
-211.494	55.850	0.327	0.318
-210.479	277.764	-0.116	-0.207
-209.465	-82.643	0.187	0.061
-208.450	145.757	0.166	0.223
-207.436	-117.891	0.141	-0.025
-206.421	402.265	0.107	0.226
-205.406	147.906	0.174	-0.235
-204.392	69.271	0.259	-0.267
-203.377	360.753	0.097	-0.196
-202.363	-39.924	0.285	-0.149
-201.348	800.000	0.059	-0.246
-200.333	-6.553	0.100	-0.068
-199.319	800.000	-0.026	-0.089
-198.304	800.000	-0.096	-0.405
-197.290	-72.259	-0.282	0.105
-196.275	211.355	0.298	-0.469
-195.260	-200.000	-0.008	0.136
-194.246	-9.099	0.113	-0.076
-193.231	-28.047	0.089	-0.051
-192.217	79.421	0.114	-0.123
-191.202	171.244	-0.144	0.207
-190.187	123.258	0.143	-0.179
-189.173	50.853	0.033	-0.031
-188.158	-200.000	0.058	0.254
-187.144	-200.000	0.021	-0.135
-186.129	-200.000	-0.003	-0.188
-185.114	-99.534	0.287	0.072
-184.100	117.201	-0.136	0.168
-183.085	-200.000	0.056	0.360
-182.071	-103.851	0.113	0.026
-181.056	209.435	-0.058	0.091
-180.042	398.536	-0.050	0.105
-179.027	-200.000	-0.002	-0.192
-178.012	8.599	0.040	0.030
-176.998	390.916	0.114	-0.237
-175.983	148.590	-0.081	0.109
-174.969	218.365	0.098	0.156
-173.954	-56.019	-0.192	0.086
-172.939	-200.000	-0.041	-0.461
-171.925	89.489	0.246	0.275
-170.910	-200.000	-0.040	-0.180
-169.896	120.985	-0.292	-0.364
-168.881	-109.574	-0.116	-0.024
-167.866	-111.157	0.196	0.040
-166.852	-200.000	-0.002	0.091
-165.837	8.844	-0.139	0.105
-164.823	-200.000	0.007	-0.511
-163.808	-136.992	0.059	0.007
-162.793	122.360	-0.243	0.304
-161.779	10.803	-0.366	-0.279
-160.764	108.403	-0.033	0.039
-159.750	-100.560	0.342	-0.085
-158.735	66.991	-0.101	0.103
-157.720	186.223	-0.194	0.288
-156.706	800.000	0.022	0.086
-155.691	-200.000	-0.068	0.324
-154.677	-42.526	-0.194	0.099
-153.662	-200.000	0.031	-0.202
-152.647	12.046	-0.372	0.286
-151.633	-10.673	-0.194	-0.128
-150.618	237.758	0.064	0.106
-149.604	246.187	-0.137	0.230
-148.589	-62.824	0.165	-0.068
-147.574	800.000	-0.059	0.196
-146.560	183.661	0.261	0.386
-145.545	-102.842	-0.147	0.035
-144.531	406.252	0.092	-0.195
-143.516	223.869	0.127	-0.205
-142.502	164.903	-0.341	-0.482
-141.487	303.068	0.139	0.257
-140.472	-200.000	0.022	0.246
-139.458	800.000	-0.079	0.293
-138.443	-200.000	0.013	0.107
-137.429	800.000	-0.065	0.274
-136.414	-15.183	0.449	0.288
-135.399	-39.897	0.173	-0.090
-134.385	-200.000	-0.032	0.151
-133.370	-21.787	0.060	-0.036
-132.356	260.436	-0.143	-0.248
-131.341	-58.154	-0.047	-0.020
-130.326	-125.474	-0.146	-0.022
-129.312	73.140	-0.087	0.091
-128.297	-117.348	0.099	-0.018
-127.283	179.727	-0.096	0.141
-126.268	-20.211	-0.309	0.190
-125.253	-200.000	-0.055	0.357
-124.239	-19.932	0.159	0.098
-123.224	-59.375	-0.190	-0.082
-122.210	-59.465	0.258	0.111
-121.195	-200.000	0.012	0.476
