DTS Sentinel unit serial number:	SN413079Multiplexer serial number:	ORYXHardware model number:	OX4-SRSoftware version number:	ORYX F/W v4.00 Oryx Data Collector v3.7.2.0data status	okinstallation	princeton_trtdifferential loss correction	single-endedforward channel	channel 3reverse channel	N/Adate	2019/09/19time	02:40:35forward acquisition time	60.00reverse acquisition time	0.00gamma	496.2192k internal	0.2348k external	0.2348temperature offset calibration	0.9993default loss term (dB/km)	0.3790temperature slope calibration	1.0000multiplexer offset coefficient	1.0000multiplexer slope coefficient	1.0000fibre end	0.00T internal ref (°C)	20.94T ext. ref 1 (°C)	0.67T ext. ref 2 (°C)	14.81length (m)	temperature (°C)	Stokes	anti-Stokes-747.200	-200.000	0.039	0.231
-746.185	87.018	-0.030	-0.033
-745.171	545.462	0.159	0.381
-744.156	211.554	0.159	0.251
-743.142	-137.015	0.185	0.021
-742.127	78.225	-0.276	0.294
-741.112	-46.544	0.108	0.053
-740.098	-200.000	0.063	-0.314
-739.083	-200.000	-0.037	-0.263
-738.069	-200.000	0.038	0.307
-737.054	720.425	-0.044	0.116
-736.039	-37.621	0.091	0.048
-735.025	-200.000	0.016	0.096
-734.010	800.000	-0.077	-0.238
-732.996	-117.387	0.040	-0.007
-731.981	-144.886	0.191	0.017
-730.966	232.839	0.028	0.046
-729.952	-2.999	0.207	-0.145
-728.937	-112.005	-0.224	0.045
-727.923	-82.709	0.174	0.056
-726.908	48.336	-0.279	0.260
-725.894	-112.341	0.168	0.034
-724.879	-200.000	0.015	0.179
-723.864	-200.000	-0.013	0.187
-722.850	-200.000	0.067	-0.296
-721.835	-27.617	0.143	-0.083
-720.821	187.939	0.017	-0.025
-719.806	-21.686	-0.113	0.069
-718.791	753.162	-0.062	0.166
-717.777	409.919	0.141	-0.298
-716.762	-61.151	0.193	-0.081
-715.748	-200.000	0.016	0.132
-714.733	-85.466	-0.166	-0.052
-713.718	107.848	-0.180	-0.214
-712.704	45.795	-0.119	-0.110
-711.689	-52.505	0.087	-0.040
-710.675	-52.738	-0.186	0.086
-709.660	118.099	-0.129	-0.158
-708.645	229.451	-0.121	-0.197
-707.631	-200.000	-0.015	-0.305
-706.616	3.757	-0.041	0.030
-705.602	21.267	0.141	-0.115
-704.587	-136.509	-0.226	-0.026
-703.572	-57.320	0.298	0.131
-702.558	-141.414	0.340	-0.034
-701.543	-91.686	-0.134	-0.038
-700.529	200.781	0.130	0.200
-699.514	-86.094	-0.156	-0.048
-698.499	7.023	-0.120	0.089
-697.485	211.322	0.056	-0.089
-696.470	66.599	0.184	0.187
-695.456	303.680	-0.190	0.351
-694.441	0.856	-0.392	-0.280
-693.426	-147.656	-0.124	0.010
-692.412	-200.000	0.029	-0.289
-691.397	303.682	-0.080	-0.148
-690.383	-26.012	0.072	-0.042
-689.368	279.173	0.156	-0.277
-688.354	-30.317	0.294	-0.166
-687.339	32.795	-0.212	-0.183
-686.324	-200.000	-0.012	-0.193
-685.310	36.983	0.103	-0.091
-684.295	-71.833	0.449	-0.167
-683.281	800.000	0.009	0.032
-682.266	719.550	-0.146	-0.386
-681.251	-161.097	0.562	-0.029
-680.237	573.492	0.100	0.244
-679.222	352.009	-0.034	-0.067
-678.208	-78.271	0.328	0.112
-677.193	187.342	0.190	-0.283
-676.178	800.000	-0.060	0.223
-675.164	-36.948	-0.144	-0.077
-674.149	-200.000	0.006	-0.300
-673.135	-71.149	0.285	0.107
-672.120	-59.347	0.065	0.028
-671.105	-200.000	-0.000	0.226
-670.091	-164.471	0.182	0.008
-669.076	-147.692	0.072	0.006
-668.062	329.475	0.100	-0.191
-667.047	-122.321	0.082	-0.013
-666.032	215.041	-0.115	0.181
-665.018	63.520	0.125	0.125
-664.003	214.250	0.106	-0.167
-662.989	-162.011	0.291	-0.015
-661.974	112.183	-0.331	-0.399
-660.959	214.475	0.120	-0.190
-659.945	-95.751	-0.076	-0.020
-658.930	50.335	0.178	-0.168
-657.916	-158.286	-0.278	0.016
-656.901	225.584	0.084	-0.135
-655.886	-20.922	-0.144	-0.088
-654.872	22.069	-0.163	0.132
-653.857	104.252	-0.067	0.079
-652.843	143.387	0.191	-0.253
-651.828	-84.638	-0.180	-0.056
-650.814	800.000	-0.010	-0.038
-649.799	-200.000	-0.053	-0.368
-648.784	-12.669	0.091	-0.059
-647.770	97.407	0.136	-0.156
-646.755	-16.302	-0.374	0.236
-645.741	749.366	0.086	0.230
-644.726	-200.000	0.020	-0.127
-643.711	709.883	-0.013	-0.035
-642.697	-172.721	0.178	-0.006
-641.682	-122.064	-0.165	0.027
-640.668	-63.896	0.157	-0.064
-639.653	-144.907	0.173	-0.016
-638.638	524.836	0.089	0.208
-637.624	800.000	-0.027	-0.110
-636.609	-200.000	0.004	0.310
-635.595	-46.786	0.326	0.159
-634.580	91.674	-0.110	0.123
-633.565	-39.764	-0.341	0.178
-632.551	-12.587	-0.365	0.237
-631.536	800.000	0.045	-0.195
-630.522	800.000	0.101	0.402
-629.507	-131.330	-0.086	0.011
-628.492	72.936	0.088	-0.092
-627.478	85.263	0.142	0.155
-626.463	98.592	0.201	0.230
-625.449	190.370	0.277	-0.413
-624.434	-14.161	-0.181	-0.116
-623.419	623.109	-0.171	0.428
-622.405	-200.000	-0.081	0.470
-621.390	-68.189	-0.137	0.053
-620.376	98.694	-0.085	-0.097
-619.361	-99.428	-0.436	-0.109
-618.346	-200.000	0.010	-0.072
-617.332	52.041	-0.275	-0.261
-616.317	74.227	-0.088	-0.092
-615.303	243.707	0.060	-0.100
-614.288	-131.145	0.134	0.018
-613.273	38.011	-0.113	-0.100
-612.259	620.121	0.045	0.112
-611.244	378.021	0.077	0.156
-610.230	-200.000	-0.006	-0.062
-609.215	14.566	-0.181	0.141
-608.201	98.674	-0.144	-0.165
-607.186	-1.561	-0.163	0.114
-606.171	-200.000	-0.016	-0.526
-605.157	121.618	-0.084	0.104
-604.142	41.140	0.254	-0.228
-603.128	55.242	-0.119	0.115
-602.113	-52.656	-0.145	0.066
-601.098	-200.000	0.006	0.205
-600.084	-129.597	-0.305	-0.042
-599.069	138.884	-0.113	0.148
-598.055	149.706	0.079	-0.106
-597.040	-115.769	-0.442	-0.082
-596.025	-36.691	0.306	0.163
-595.011	-118.176	0.201	-0.036
-593.996	-99.826	-0.100	-0.025
-592.982	-61.923	-0.112	-0.047
-591.967	465.099	0.017	0.038
-590.952	-131.706	-0.278	-0.036
-589.938	-71.568	-0.181	-0.067
-588.923	-90.603	-0.317	-0.091
-587.909	48.583	-0.214	-0.199
-586.894	-58.686	0.151	-0.065
-585.879	164.711	0.074	-0.103
-584.865	204.035	-0.132	0.204
-583.850	-200.000	-0.012	-0.089
-582.836	-107.593	0.219	0.047
-581.821	45.503	-0.101	-0.093
-580.806	81.801	0.154	0.166
-579.792	-150.283	-0.233	-0.018
-578.777	393.930	0.042	0.086
-577.763	-139.195	-0.080	0.009
-576.748	-116.996	-0.169	0.031
-575.733	510.709	0.016	-0.038
-574.719	-159.882	0.133	0.007
-573.704	-83.213	-0.255	0.081
-572.690	35.525	0.217	0.189
-571.675	179.972	-0.332	-0.484
-570.661	26.267	-0.188	-0.156
-569.646	-99.702	-0.123	-0.031
-568.631	-200.000	0.001	0.035
-567.617	2.146	-0.124	-0.089
-566.602	19.605	-0.231	0.184
-565.588	5.190	-0.091	0.067
-564.573	384.497	-0.045	0.092
-563.558	-62.002	-0.188	0.078
-562.544	-133.663	0.240	-0.030
-561.529	-41.154	-0.471	0.241
-560.515	-200.000	-0.035	0.382
-559.500	628.285	-0.048	-0.120
-558.485	54.002	-0.227	-0.217
-557.471	-149.103	-0.190	0.015
-556.456	-115.490	0.207	-0.039
-555.442	40.151	-0.188	0.168
-554.427	-20.694	-0.328	-0.200
-553.412	57.151	0.072	-0.069
-552.398	-122.384	0.117	0.019
-551.383	-172.278	0.151	-0.005
-550.369	-54.584	-0.179	-0.080
-549.354	606.758	-0.045	0.111
-548.339	441.021	0.088	0.191
-547.325	-148.023	0.235	-0.019
-546.310	800.000	-0.074	0.270
-545.296	-200.000	0.018	0.449
-544.281	-84.071	-0.266	0.084
-543.266	-9.089	-0.294	-0.195
-542.252	216.758	0.217	0.342
-541.237	-200.000	-0.041	-0.277
-540.223	229.144	-0.149	0.241
-539.208	-125.997	-0.548	0.082
-538.193	-78.864	0.349	0.118
-537.179	44.355	0.146	0.133
-536.164	38.378	0.125	0.110
-535.150	800.000	0.016	0.063
-534.135	514.038	0.161	-0.371
-533.121	-15.125	-0.237	-0.150
-532.106	282.363	0.180	-0.321
-531.091	83.325	0.090	-0.098
-530.077	107.332	-0.293	-0.345
-529.062	260.424	0.117	-0.201
-528.048	-109.165	0.276	0.058
-527.033	248.416	0.188	-0.315
-526.018	-107.664	-0.371	-0.080
-525.004	186.111	0.066	0.097
-523.989	310.762	0.109	0.202
-522.975	142.496	0.138	0.181
-521.960	-200.000	0.001	0.022
-520.945	-80.955	0.070	-0.023
-519.931	13.154	0.128	-0.098
-518.916	-200.000	0.050	-0.317
-517.902	44.743	0.293	-0.267
-516.887	-153.916	-0.509	0.034
-515.872	-18.370	0.096	0.059
-514.858	152.183	0.053	0.072
-513.843	-200.000	0.022	0.158
-512.829	35.648	0.159	0.138
-511.814	-47.927	-0.138	-0.066
-510.799	-75.002	-0.598	0.212
-509.785	800.000	-0.093	-0.264
-508.770	-200.000	-0.002	0.190
-507.756	800.000	-0.046	0.153
-506.741	-149.172	-0.280	0.022
-505.726	-90.681	-0.196	-0.056
-504.712	-68.142	0.120	0.046
-503.697	401.727	0.086	0.179
-502.683	55.013	0.012	-0.012
-501.668	359.835	-0.083	-0.164
-500.653	-134.144	-0.083	-0.010
-499.639	310.345	0.178	-0.330
-498.624	800.000	0.073	-0.235
-497.610	-2.710	0.227	-0.157
-496.595	800.000	-0.093	-0.365
-495.581	-47.265	-0.044	-0.021
-494.566	472.629	0.015	-0.034
-493.551	-169.671	-0.343	0.012
-492.537	800.000	0.081	-0.320
-491.522	-71.093	-0.108	0.040
-490.508	-62.170	0.090	-0.037
-489.493	-10.401	0.114	-0.075
-488.478	-129.461	0.305	-0.042
-487.464	-6.893	0.179	0.120
-486.449	-52.557	0.222	0.102
-485.435	22.548	0.032	0.026
-484.420	447.307	0.076	0.166
-483.405	800.000	0.168	-0.467
-482.391	-73.183	-0.337	0.122
-481.376	-135.682	0.064	-0.007
-480.362	-26.771	-0.274	0.159
-479.347	800.000	0.083	0.256
-478.332	530.513	0.124	-0.289
-477.318	40.075	-0.074	0.066
-476.303	588.599	-0.105	0.257
-475.289	41.120	-0.253	-0.226
-474.274	234.050	-0.141	0.230
-473.259	519.972	-0.065	-0.152
-472.245	16.152	0.106	-0.083
-471.230	-85.882	0.323	0.099
-470.216	800.000	-0.025	-0.078
-469.201	800.000	0.050	0.182
-468.186	188.081	-0.047	-0.070
-467.172	-60.161	0.197	0.083
-466.157	-80.004	-0.186	0.062
-465.143	-82.163	0.312	0.100
-464.128	-156.205	-0.294	-0.018
-463.113	-138.737	-0.061	0.007
-462.099	7.688	-0.118	0.088
-461.084	-98.219	0.299	0.076
-460.070	-181.073	0.348	-0.007
-459.055	-200.000	-0.058	0.262
-458.040	188.850	0.112	0.165
-457.026	-139.303	0.014	-0.002
-456.011	-47.147	0.251	-0.121
-454.997	-22.377	-0.173	0.103
-453.982	-200.000	0.093	0.450
-452.968	8.767	-0.265	-0.197
-451.953	-200.000	0.008	0.130
-450.938	-200.000	-0.044	0.380
-449.924	-114.413	0.325	-0.062
-448.909	142.168	0.142	-0.186
-447.895	-200.000	0.002	0.096
-446.880	-200.000	0.016	0.076
-445.865	582.219	0.074	0.180
-444.851	-105.142	-0.366	0.083
-443.836	71.265	0.108	0.110
-442.822	-25.609	0.235	-0.137
-441.807	-126.949	0.088	-0.013
-440.792	203.281	0.096	0.146
-439.778	-42.101	-0.108	-0.055
-438.763	386.485	0.099	0.201
-437.749	-39.731	-0.367	0.190
-436.734	238.231	-0.021	-0.035
-435.719	94.285	0.163	0.183
-434.705	38.888	-0.302	0.267
-433.690	504.599	0.096	-0.219
-432.676	65.446	-0.125	-0.125
-431.661	-105.963	-0.067	-0.015
-430.646	-52.946	0.407	0.185
-429.632	-111.060	0.337	-0.068
-428.617	103.380	0.084	-0.097
-427.603	800.000	0.051	-0.194
-426.588	-124.445	0.256	-0.039
-425.573	64.160	-0.125	-0.124
-424.559	306.254	-0.056	0.103
-423.544	-151.806	0.118	0.009
-422.530	800.000	0.078	0.255
-421.515	19.476	0.128	0.102
-420.500	-67.688	0.064	-0.025
-419.486	231.127	-0.200	0.324
-418.471	-124.182	-0.344	0.053
-417.457	-26.168	0.203	0.117
-416.442	-21.231	0.248	-0.149
-415.428	800.000	0.030	0.092
-414.413	-200.000	-0.003	0.316
-413.398	-73.527	-0.104	-0.037
-412.384	-16.636	0.106	0.066
-411.369	18.266	0.048	-0.038
-410.355	352.919	0.075	0.146
-409.340	576.559	-0.060	0.145
-408.325	-97.425	-0.130	-0.033
-407.311	-200.000	-0.022	-0.261
-406.296	-200.000	0.028	-0.385
-405.282	233.504	-0.033	-0.053
-404.267	92.057	0.050	0.055
-403.252	-200.000	0.038	-0.180
-402.238	7.069	-0.152	-0.112
-401.223	77.068	-0.282	-0.296
-400.209	-23.400	0.075	-0.044
-399.194	648.389	-0.155	-0.392
-398.179	800.000	0.029	0.091
-397.165	-200.000	0.028	-0.327
-396.150	-200.000	-0.030	-0.402
-395.136	55.738	0.130	0.125
-394.121	106.185	-0.067	0.078
-393.106	-42.712	0.140	-0.070
-392.092	-70.201	-0.156	-0.058
-391.077	-60.723	-0.166	0.069
-390.063	139.123	0.235	-0.305
-389.048	427.349	0.091	-0.193
-388.033	10.192	-0.091	0.068
-387.019	-166.965	-0.244	-0.010
-386.004	300.530	-0.090	-0.163
-384.990	-111.580	-0.096	0.019
-383.975	-28.817	0.246	-0.140
-382.960	493.888	-0.117	0.265
-381.946	-33.761	0.509	-0.276
-380.931	-200.000	0.015	-0.182
-379.917	22.801	0.104	0.084
-378.902	-200.000	0.047	0.342
-377.888	-62.289	-0.275	0.113
-376.873	-141.528	0.238	-0.024
-375.858	55.598	0.101	0.096
-374.844	-80.076	0.061	0.020
-373.829	341.579	-0.293	0.563
-372.815	-43.821	0.362	0.179
-371.800	-79.908	0.272	-0.090
-370.785	-36.491	0.095	0.050
-369.771	-63.780	0.257	0.104
-368.756	114.779	-0.008	-0.010
-367.742	512.947	-0.027	-0.062
-366.727	72.935	0.298	-0.307
-365.712	39.792	-0.254	0.225
-364.698	-200.000	0.006	0.172
-363.683	30.570	0.166	0.139
-362.669	-200.000	-0.125	0.000
-361.654	-200.000	-0.059	0.573
-360.639	100.769	0.208	-0.238
-359.625	-200.000	0.017	-0.233
-358.610	-200.000	0.021	0.101
-357.596	-106.051	0.303	-0.067
-356.581	-62.444	0.488	-0.200
-355.566	-71.713	-0.275	0.101
-354.552	-200.000	-0.024	0.223
-353.537	118.350	0.145	-0.176
-352.523	-11.933	-0.026	-0.017
-351.508	144.728	0.126	-0.166
-350.493	-200.000	-0.011	0.171
-349.479	800.000	0.052	0.176
-348.464	-200.000	0.029	0.280
-347.450	-0.738	0.206	-0.144
-346.435	15.820	0.221	-0.171
-345.420	-200.000	0.023	0.144
-344.406	-200.000	-0.078	-0.355
-343.391	28.090	-0.189	-0.157
-342.377	493.067	-0.046	-0.104
-341.362	-12.841	-0.185	-0.119
-340.348	-97.717	0.252	0.064
-339.333	-200.000	-0.004	0.051
-338.318	575.359	0.087	-0.210
-337.304	-109.684	0.150	-0.031
-336.289	-200.000	0.054	-0.236
-335.275	-36.547	0.282	-0.149
-334.260	293.883	0.194	-0.349
-333.245	9.319	-0.198	0.148
-332.231	800.000	0.045	-0.172
-331.216	169.650	-0.219	-0.308
-330.202	-184.753	-0.177	0.003
-329.187	-41.428	0.346	0.175
-328.172	409.784	-0.192	-0.399
-327.158	256.219	0.154	-0.260
-326.143	662.331	-0.061	-0.156
-325.129	-98.792	0.228	0.057
-324.114	-97.430	-0.130	-0.033
-323.099	-82.904	-0.625	-0.198
-322.085	446.199	-0.021	0.045
-321.070	-78.058	-0.307	-0.104
-320.056	-141.010	-0.222	0.022
-319.041	20.430	0.101	-0.080
-318.026	27.776	0.104	-0.086
-317.012	-70.488	0.155	0.058
-315.997	-7.662	0.042	-0.028
-314.983	-124.220	0.219	0.034
-313.968	213.354	0.077	0.120
-312.953	800.000	0.091	0.313
-311.939	153.566	-0.287	-0.386
-310.924	153.521	0.108	-0.145
-309.910	32.032	0.236	0.200
-308.895	507.519	-0.057	0.130
-307.880	-156.075	0.201	-0.013
-306.866	800.000	-0.079	0.322
-305.851	-70.494	0.486	0.181
-304.837	-162.978	-0.244	-0.012
-303.822	566.818	0.078	-0.185
-302.807	-200.000	-0.052	0.293
-301.793	-106.920	0.071	0.015
-300.778	794.549	0.116	-0.315
-299.764	800.000	0.083	0.233
-298.749	-107.155	-0.037	-0.008
-297.735	169.895	0.238	0.334
-296.720	-200.000	0.038	0.316
-295.705	-55.642	0.061	0.027
-294.691	40.755	0.145	-0.128
-293.676	-200.000	-0.022	0.189
-292.662	-136.191	-0.323	0.037
-291.647	-177.687	0.298	0.007
-290.632	-23.177	-0.094	-0.056
-289.618	27.111	0.242	-0.199
-288.603	384.518	-0.141	0.285
-287.589	-200.000	-0.018	-0.103
-286.574	-45.248	-0.092	-0.045
-285.559	-110.986	0.174	0.035
-284.545	-125.483	-0.180	-0.027
-283.530	-81.341	0.516	0.167
-282.516	800.000	-0.082	-0.242
-281.501	308.034	-0.182	0.333
-280.486	597.061	-0.074	0.179
-279.472	376.268	0.137	-0.274
-278.457	-160.334	0.319	0.017
-277.443	800.000	-0.039	-0.158
-276.428	-133.295	0.148	0.018
-275.413	-200.000	0.022	0.387
-274.399	53.709	-0.079	-0.074
-273.384	310.259	-0.109	0.200
-272.370	800.000	0.101	-0.422
-271.355	101.235	-0.181	-0.207
-270.340	-88.101	-0.256	0.075
-269.326	-41.490	-0.120	-0.061
-268.311	-2.653	0.270	-0.185
-267.297	-82.114	-0.144	0.046
-266.282	-69.471	0.098	0.037
-265.267	208.595	0.171	0.263
-264.253	-200.000	-0.010	-0.106
-263.238	-148.013	-0.323	-0.026
-262.224	-200.000	0.025	0.259
-261.209	-178.065	0.046	-0.001
-260.195	255.112	-0.118	-0.198
-259.180	81.530	0.035	-0.037
-258.165	-200.000	0.006	-0.251
-257.151	-127.454	-0.264	-0.038
-256.136	-118.975	-0.522	0.090
-255.122	-66.975	0.111	0.043
-254.107	-200.000	-0.003	-0.183
-253.092	-119.160	0.391	-0.067
-252.078	-2.010	-0.295	-0.203
-251.063	-46.670	-0.186	0.089
-250.049	-121.200	-0.293	-0.048
-249.034	74.476	0.160	0.165
-248.019	-111.498	0.071	-0.014
-247.005	487.687	-0.048	-0.108
-245.990	800.000	-0.045	0.155
-244.976	80.266	0.197	-0.208
-243.961	250.090	0.122	-0.203
-242.946	-200.000	-0.084	0.374
-241.932	-168.154	0.416	0.016
-240.917	-165.930	0.049	0.002
-239.903	-56.399	0.199	-0.087
-238.888	347.673	-0.166	-0.320
-237.873	-200.000	0.051	-0.245
-236.859	800.000	0.076	-0.259
-235.844	-18.792	-0.062	-0.038
-234.830	-60.128	0.164	-0.068
-233.815	-200.000	0.023	0.226
-232.800	-1.314	0.065	-0.045
-231.786	-63.543	0.129	-0.052
-230.771	-122.424	-0.299	-0.048
-229.757	-116.269	0.240	-0.044
-228.742	-200.000	0.019	0.194
-227.727	800.000	0.030	0.104
-226.713	269.301	0.094	-0.161
-225.698	800.000	0.018	-0.054
-224.684	-200.000	-0.045	-0.238
-223.669	-160.007	-0.199	0.011
-222.655	-118.474	-0.293	0.051
-221.640	-200.000	0.046	0.487
-220.625	-9.975	-0.162	-0.105
-219.611	-6.469	-0.129	-0.086
-218.596	-109.116	0.095	-0.020
-217.582	541.885	-0.042	-0.099
-216.567	-10.261	-0.298	-0.194
-215.552	1.820	0.178	0.126
-214.538	-200.000	0.077	0.380
-213.523	-122.756	0.125	0.020
-212.509	-116.563	-0.197	-0.036
-211.494	290.671	-0.052	0.092
-210.479	229.033	-0.064	-0.101
-209.465	182.690	-0.046	-0.066
-208.450	173.832	0.196	-0.277
-207.436	-53.841	-0.352	0.157
-206.421	-116.043	0.159	-0.029
-205.406	-45.813	0.118	0.057
-204.392	-200.000	-0.022	0.576
-203.377	18.805	0.191	0.150
-202.363	800.000	-0.069	0.219
-201.348	-200.000	0.050	-0.267
-200.333	164.005	-0.481	0.663
-199.319	795.734	0.014	-0.038
-198.304	369.146	0.127	-0.251
-197.290	800.000	-0.031	-0.111
-196.275	6.837	-0.140	-0.102
-195.260	-2.867	0.148	-0.101
-194.246	-70.587	-0.080	-0.029
-193.231	-88.044	-0.503	0.148
-192.217	800.000	0.068	-0.192
-191.202	-200.000	-0.006	-0.154
-190.187	800.000	-0.026	0.078
-189.173	-81.942	0.152	0.049
-188.158	150.129	0.044	-0.059
-187.144	-94.275	-0.335	0.090
-186.129	165.158	0.136	0.187
-185.114	-200.000	0.016	0.158
-184.100	-66.681	-0.095	0.037
-183.085	-200.000	0.034	-0.429
-182.071	-151.877	0.379	0.027
-181.056	182.836	-0.116	-0.168
-180.042	-93.124	-0.301	-0.082
-179.027	-100.941	0.414	0.099
-178.012	-94.567	0.065	0.017
-176.998	52.739	0.130	-0.121
-175.983	-141.567	0.299	-0.029
-174.969	-126.947	0.075	-0.011
-173.954	-200.000	0.014	0.093
-172.939	800.000	-0.091	-0.336
-171.925	-29.119	0.248	0.139
-170.910	278.436	0.125	0.218
-169.896	73.609	-0.188	0.192
-168.881	24.856	-0.272	0.220
-167.866	-129.194	0.340	0.046
-166.852	91.674	0.165	-0.181
-165.837	-25.136	-0.154	0.089
-164.823	-23.064	-0.116	0.068
-163.808	608.761	0.138	0.336
-162.793	-200.000	0.004	-0.084
-161.779	-48.008	0.114	0.054
-160.764	-117.921	-0.051	0.009
-159.750	159.185	-0.195	-0.265
-158.735	-22.776	0.208	-0.123
-157.720	-29.538	0.344	-0.192
-156.706	14.952	-0.138	0.105
-155.691	535.245	0.156	0.361
-154.677	-200.000	0.035	-0.168
-153.662	-200.000	-0.001	-0.242
-152.647	-200.000	-0.035	-0.241
-151.633	-160.890	-0.386	0.020
-150.618	16.548	-0.165	0.127
-149.604	-170.501	0.233	-0.008
-148.589	-55.355	-0.067	0.029
-147.574	-81.845	-0.196	-0.063
-146.560	87.002	-0.210	-0.227
-145.545	-200.000	0.019	-0.105
-144.531	-111.204	-0.062	0.012
-143.516	85.640	0.148	-0.158
-142.502	-200.000	-0.078	-0.433
-141.487	-129.990	0.116	0.016
-140.472	-200.000	0.001	0.348
-139.458	207.276	0.079	0.120
-138.443	-81.586	-0.211	0.068
-137.429	-3.029	0.326	-0.222
-136.414	-200.000	-0.052	0.264
-135.399	-200.000	0.010	-0.046
-134.385	-85.231	0.247	0.075
-133.370	628.896	0.058	-0.142
-132.356	-200.000	0.020	-0.385
-131.341	-76.945	0.527	-0.180
-130.326	-200.000	-0.007	0.058
-129.312	-62.825	0.350	0.141
-128.297	45.900	-0.178	-0.160
-127.283	30.764	0.124	-0.104
-126.268	19.923	-0.062	0.049
-125.253	92.287	0.218	0.240
-124.239	119.499	0.145	0.175
-123.224	488.071	0.166	0.369
-122.210	420.783	0.055	-0.115
-121.195	20.401	0.071	-0.056
