DTS Sentinel unit serial number:	SN413079Multiplexer serial number:	ORYXHardware model number:	OX4-SRSoftware version number:	ORYX F/W v4.00 Oryx Data Collector v3.7.2.0data status	okinstallation	princeton_trtdifferential loss correction	single-endedforward channel	channel 3reverse channel	N/Adate	2019/09/12time	19:57:03forward acquisition time	15.00reverse acquisition time	0.00gamma	496.2192k internal	0.2323k external	0.2323temperature offset calibration	1.0116default loss term (dB/km)	0.3790temperature slope calibration	1.0000multiplexer offset coefficient	1.0000multiplexer slope coefficient	1.0000fibre end	0.00T internal ref (°C)	31.81T ext. ref 1 (°C)	3.39T ext. ref 2 (°C)	26.39length (m)	temperature (°C)	Stokes	anti-Stokes-747.200	641.243	-0.322	-0.829
-746.185	-80.834	-0.653	-0.219
-745.171	246.846	0.492	0.838
-744.156	800.000	0.085	-0.332
-743.142	92.439	0.207	0.236
-742.127	-200.000	-0.019	-0.210
-741.112	-200.000	0.024	-0.436
-740.098	800.000	-0.206	0.911
-739.083	26.953	-0.536	0.454
-738.069	-200.000	-0.098	0.947
-737.054	-37.950	-0.762	0.409
-736.039	800.000	-0.176	-0.547
-735.025	-200.000	0.059	1.201
-734.010	-80.499	0.906	0.305
-732.996	-200.000	-0.027	0.407
-731.981	4.756	0.539	0.400
-730.966	-145.041	-0.514	-0.047
-729.952	-200.000	0.043	0.877
-728.937	261.570	-0.144	-0.252
-727.923	14.680	0.057	0.045
-726.908	218.472	-0.287	-0.462
-725.894	-200.000	0.011	0.149
-724.879	-200.000	0.121	0.793
-723.864	-101.097	-0.294	-0.073
-722.850	-7.322	0.797	-0.545
-721.835	351.337	-0.356	-0.711
-720.821	37.250	0.321	-0.287
-719.806	-48.686	0.506	0.245
-718.791	589.619	-0.120	-0.298
-717.777	216.740	0.311	-0.499
-716.762	-200.000	0.002	-0.277
-715.748	-69.449	0.274	-0.106
-714.733	-128.403	-0.611	0.088
-713.718	426.584	-0.147	0.320
-712.704	-66.521	0.719	0.288
-711.689	800.000	0.172	0.522
-710.675	-109.608	-1.110	0.236
-709.660	308.134	-0.173	0.326
-708.645	-200.000	-0.029	-0.674
-707.631	-57.736	-0.381	0.168
-706.616	-200.000	-0.038	0.294
-705.602	60.562	-0.161	0.161
-704.587	-107.023	0.900	0.201
-703.572	-75.118	-0.420	-0.151
-702.558	77.213	0.179	0.191
-701.543	-100.593	-0.165	-0.041
-700.529	-38.691	0.284	-0.151
-699.514	-114.266	-0.498	-0.097
-698.499	64.932	0.295	-0.300
-697.485	-99.871	0.404	-0.102
-696.470	-200.000	-0.162	1.249
-695.456	36.148	-0.894	0.794
-694.441	98.924	0.364	-0.424
-693.426	414.015	-0.157	0.336
-692.412	-111.085	-0.761	0.157
-691.397	-200.000	-0.174	-0.909
-690.383	61.405	0.358	-0.359
-689.368	-86.096	0.572	-0.178
-688.354	-200.000	0.087	-0.620
-687.339	254.931	0.226	-0.390
-686.324	-32.474	1.306	0.734
-685.310	236.656	0.290	0.483
-684.295	-200.000	0.087	-0.665
-683.281	-200.000	0.006	-0.470
-682.266	648.811	0.061	-0.158
-681.251	228.969	-0.229	0.376
-680.237	71.596	0.250	-0.262
-679.222	-188.683	-0.432	0.005
-678.208	230.263	0.227	-0.373
-677.193	40.283	-0.185	-0.168
-676.178	263.855	0.338	-0.593
-675.164	-200.000	0.066	-0.664
-674.149	800.000	-0.224	0.713
-673.135	-64.319	0.856	0.351
-672.120	422.181	0.262	0.567
-671.105	-35.453	-0.522	0.286
-670.091	-69.953	-0.319	0.123
-669.076	-6.226	-0.579	0.398
-668.062	-122.626	-0.646	0.106
-667.047	-200.000	-0.012	-0.084
-666.032	21.599	0.338	-0.277
-665.018	-85.362	0.476	-0.149
-664.003	-10.501	0.267	-0.178
-662.989	-200.000	-0.096	-0.810
-661.974	-75.873	0.319	0.114
-660.959	-86.863	-0.915	-0.281
-659.945	30.382	0.169	-0.145
-658.930	-200.000	0.011	0.177
-657.916	-105.757	-0.804	-0.183
-656.901	-69.722	0.575	-0.221
-655.886	-59.002	0.425	0.185
-654.872	229.899	-0.148	-0.243
-653.857	-64.124	0.982	0.403
-652.843	-200.000	0.003	-0.498
-651.828	-138.982	-0.291	0.032
-650.814	-152.537	0.562	-0.040
-649.799	-116.202	0.471	0.088
-648.784	291.879	-0.274	0.502
-647.770	40.178	-0.267	-0.242
-646.755	-72.349	-0.489	-0.182
-645.741	-52.495	0.383	0.178
-644.726	-9.699	-0.689	-0.462
-643.711	-39.594	-0.259	-0.136
-642.697	-18.211	-0.798	0.502
-641.682	262.223	-0.167	-0.291
-640.668	18.284	-0.298	-0.240
-639.653	-200.000	-0.008	1.018
-638.638	800.000	-0.131	-0.559
-637.624	-155.291	-1.129	0.074
-636.609	-87.751	0.293	-0.089
-635.595	-75.266	0.508	0.182
-634.580	800.000	-0.099	-0.363
-633.565	-91.486	0.495	-0.142
-632.551	-196.536	0.512	0.003
-631.536	800.000	-0.162	-0.612
-630.522	-102.435	-0.867	0.209
-629.507	-122.042	0.632	0.104
-628.492	-100.947	0.169	0.042
-627.478	119.415	0.116	-0.144
-626.463	800.000	0.121	0.500
-625.449	-124.394	-0.463	0.073
-624.434	-87.759	0.114	-0.034
-623.419	-25.652	-0.691	0.410
-622.405	688.193	0.085	0.222
-621.390	405.711	0.239	0.507
-620.376	-147.152	0.611	-0.052
-619.361	-97.497	0.543	-0.142
-618.346	-68.993	0.736	-0.285
-617.332	800.000	0.195	-0.736
-616.317	97.428	0.227	-0.262
-615.303	-57.089	1.202	0.533
-614.288	-69.901	0.488	0.187
-613.273	683.500	-0.192	0.504
-612.259	-87.097	0.435	-0.133
-611.244	56.582	0.150	-0.146
-610.230	-200.000	-0.059	0.367
-609.215	540.233	-0.142	-0.338
-608.201	-92.864	-0.664	0.186
-607.186	800.000	0.052	-0.203
-606.171	-51.714	-0.837	0.392
-605.157	-60.619	0.942	0.401
-604.142	-198.384	-0.981	-0.006
-603.128	-71.222	-0.198	-0.075
-602.113	-156.611	0.374	0.023
-601.098	-200.000	0.018	-0.256
-600.084	591.070	0.068	0.169
-599.069	-153.359	-0.733	0.051
-598.055	-25.667	0.553	0.328
-597.040	-59.708	-0.491	-0.211
-596.025	-46.103	0.407	0.201
-595.011	9.415	0.317	-0.241
-593.996	-200.000	-0.087	-0.862
-592.982	43.709	-0.286	-0.263
-591.967	-139.087	-0.100	-0.011
-590.952	260.691	0.440	-0.765
-589.938	-200.000	-0.030	0.727
-588.923	225.962	-0.159	0.259
-587.909	-123.591	-0.164	0.026
-586.894	196.944	0.430	-0.657
-585.879	-143.170	0.461	0.045
-584.865	251.134	0.563	-0.960
-583.850	337.070	0.228	-0.445
-582.836	177.419	-0.218	0.319
-581.821	333.569	0.444	-0.861
-580.806	216.137	-0.159	-0.253
-579.792	278.283	0.473	-0.846
-578.777	-10.365	0.525	0.349
-577.763	-200.000	0.164	0.860
-576.748	-200.000	0.035	-0.313
-575.733	-106.377	0.470	0.106
-574.719	114.197	0.373	-0.455
-573.704	-1.166	0.039	0.028
-572.690	255.790	0.334	-0.574
-571.675	75.468	-0.246	0.261
-570.661	-154.979	0.103	0.007
-569.646	-200.000	0.066	-0.413
-568.631	-90.877	-0.264	-0.076
-567.617	800.000	0.338	-0.969
-566.602	-59.879	-0.665	0.285
-565.588	22.614	-0.343	0.282
-564.573	7.780	0.589	0.442
-563.558	588.814	0.279	0.690
-562.544	244.376	-0.311	0.523
-561.529	-14.907	-0.529	0.340
-560.515	-99.824	0.688	0.173
-559.500	-200.000	0.281	0.001
-558.485	-200.000	-0.056	-0.693
-557.471	-24.262	0.204	0.122
-556.456	351.756	0.128	0.253
-555.442	-153.231	0.042	0.003
-554.427	-124.049	0.998	-0.157
-553.412	800.000	0.159	-0.472
-552.398	800.000	-0.149	-0.485
-551.383	-52.666	-0.176	-0.081
-550.369	-200.000	0.030	0.706
-549.354	140.586	0.147	0.194
-548.339	-131.418	-0.318	-0.042
-547.325	280.213	-0.366	-0.655
-546.310	-84.103	-0.642	0.204
-545.296	-116.164	0.373	-0.069
-544.281	134.262	0.325	0.422
-543.266	365.178	0.227	-0.457
-542.252	201.197	-0.164	0.252
-541.237	28.907	-0.329	-0.279
-540.223	-128.805	-0.062	0.009
-539.208	-200.000	-0.104	0.728
-538.193	60.104	-0.855	-0.847
-537.179	78.940	-0.014	-0.015
-536.164	-200.000	0.089	0.566
-535.150	587.949	0.257	0.635
-534.135	-200.000	0.130	0.615
-533.121	5.183	-0.679	-0.501
-532.106	54.828	-0.214	0.207
-531.091	-19.845	0.835	-0.517
-530.077	-179.703	0.609	-0.013
-529.062	615.765	0.165	0.415
-528.048	-200.000	0.052	-0.338
-527.033	-141.599	0.280	-0.028
-526.018	379.008	-0.195	-0.400
-525.004	800.000	0.120	-0.358
-523.989	-200.000	-0.004	-0.189
-522.975	-149.099	0.412	0.033
-521.960	2.190	-0.689	-0.498
-520.945	-66.266	-0.118	0.047
-519.931	-200.000	0.008	0.548
-518.916	-133.537	0.869	0.109
-517.902	-125.657	0.928	0.141
-516.887	-200.000	0.013	-0.267
-515.872	15.346	0.223	-0.175
-514.858	-200.000	-0.100	0.547
-513.843	-200.000	0.023	-0.434
-512.829	-200.000	0.007	-0.968
-511.814	31.671	0.337	-0.290
-510.799	-200.000	0.163	0.881
-509.785	18.105	-0.753	0.601
-508.770	-12.197	-0.525	0.344
-507.756	14.957	0.264	-0.207
-506.741	55.765	-0.395	0.383
-505.726	-38.926	-0.791	0.417
-504.712	-177.971	0.620	-0.015
-503.697	-125.116	-0.499	-0.077
-502.683	-200.000	-0.021	-0.373
-501.668	-200.000	0.069	0.800
-500.653	135.974	0.363	-0.473
-499.639	24.520	-0.555	0.459
-498.624	311.080	-0.209	0.392
-497.610	328.263	-0.186	-0.358
-496.595	-31.137	0.772	0.435
-495.581	92.840	-0.349	-0.394
-494.566	45.183	0.531	-0.489
-493.551	-44.183	0.555	0.278
-492.537	99.076	-0.304	-0.351
-491.522	-0.886	-0.691	-0.489
-490.508	1.340	-0.659	-0.474
-489.493	800.000	-0.200	-0.582
-488.478	-62.183	0.503	-0.210
-487.464	-16.650	0.161	-0.102
-486.449	800.000	0.106	-0.411
-485.435	800.000	0.201	0.601
-484.420	-8.304	-0.759	-0.510
-483.405	-39.190	0.405	-0.213
-482.391	-103.526	-0.251	-0.059
-481.376	-180.745	0.220	0.004
-480.362	-200.000	-0.183	-1.069
-479.347	-16.215	-0.673	-0.427
-478.332	-33.259	-0.192	-0.107
-477.318	68.301	-0.802	0.821
-476.303	722.412	0.087	-0.232
-475.289	-56.211	0.886	0.394
-474.274	98.670	0.555	0.640
-473.259	800.000	0.128	0.417
-472.245	323.471	-0.224	-0.426
-471.230	-5.393	-0.586	0.402
-470.216	223.046	-0.272	-0.438
-469.201	-83.901	-0.069	-0.022
-468.186	-80.658	-0.561	0.187
-467.172	-200.000	-0.001	-1.014
-466.157	-83.863	-0.190	0.060
-465.143	40.461	0.154	0.138
-464.128	-200.000	-0.025	-0.557
-463.113	4.289	0.583	0.426
-462.099	-200.000	-0.007	0.749
-461.084	68.994	0.112	0.115
-460.070	-96.470	0.008	-0.002
-459.055	333.413	-0.246	-0.475
-458.040	0.942	-0.255	-0.182
-457.026	283.424	0.117	0.209
-456.011	-115.856	-1.069	-0.200
-454.997	-122.541	0.697	0.113
-453.982	-182.098	-0.214	0.004
-452.968	47.189	-0.305	0.284
-451.953	-61.265	0.467	0.196
-450.938	-114.749	-0.259	0.049
-449.924	-22.297	-0.517	0.313
-448.909	317.569	-0.197	0.372
-447.895	552.272	-0.115	-0.275
-446.880	740.959	-0.409	1.097
-445.865	800.000	-0.129	-0.393
-444.851	-125.778	-0.620	0.094
-443.836	9.976	-0.528	0.401
-442.822	-1.255	-0.369	0.260
-441.807	-83.714	0.375	-0.119
-440.792	-124.304	-0.695	-0.108
-439.778	-124.858	0.600	-0.092
-438.763	-134.556	0.361	-0.044
-437.749	-200.000	0.017	-0.679
-436.734	-26.402	1.147	0.671
-435.719	800.000	0.085	0.358
-434.705	-121.439	-0.485	0.081
-433.690	18.876	-0.300	-0.240
-432.676	-200.000	0.064	0.426
-431.661	196.071	0.049	0.075
-430.646	-54.895	0.183	0.082
-429.632	152.811	0.533	0.727
-428.617	49.886	-0.699	-0.657
-427.603	0.997	0.245	0.175
-426.588	-200.000	-0.036	-0.178
-425.573	9.850	0.874	0.661
-424.559	-88.264	-0.648	-0.193
-423.544	-77.108	-0.805	0.280
-422.530	83.077	0.232	0.251
-421.515	165.624	0.330	-0.465
-420.500	-167.596	-0.913	-0.036
-419.486	87.939	-0.645	-0.714
-418.471	-38.996	-0.577	0.303
-417.457	66.341	0.398	0.403
-416.442	199.843	0.361	0.553
-415.428	-40.831	-0.144	0.074
-414.413	800.000	0.335	-1.025
-413.398	60.280	-0.821	0.810
-412.384	-102.774	0.385	0.091
-411.369	-93.199	-0.332	-0.092
-410.355	342.636	0.296	0.578
-409.340	64.629	-0.599	0.602
-408.325	428.016	-0.228	-0.491
-407.311	-200.000	0.021	0.956
-406.296	-95.149	0.406	0.109
-405.282	-200.000	0.060	0.294
-404.267	-200.000	-0.046	-0.475
-403.252	79.796	0.263	0.282
-402.238	65.662	-0.200	0.202
-401.223	-68.537	0.291	0.112
-400.209	2.454	-0.447	0.322
-399.194	-31.966	-0.739	-0.412
-398.179	-200.000	0.034	-0.724
-397.165	-200.000	-0.141	-0.758
-396.150	-200.000	-0.100	0.869
-395.136	184.142	-0.295	0.436
-394.121	800.000	-0.086	0.312
-393.106	-88.283	-0.602	0.179
-392.092	-55.812	0.521	0.232
-391.077	51.227	-0.322	-0.304
-390.063	641.963	-0.149	-0.377
-389.048	800.000	-0.125	-0.445
-388.033	40.293	0.396	0.355
-387.019	-152.199	-0.758	0.055
-386.004	-200.000	-0.063	-0.401
-384.990	-124.333	-0.221	0.034
-383.975	224.426	0.402	0.648
-382.960	-127.062	-0.245	-0.036
-381.946	-8.471	0.597	-0.399
-380.931	-90.684	0.292	-0.084
-379.917	203.296	-0.622	-0.958
-378.902	574.110	-0.174	-0.422
-377.888	-200.000	0.101	0.538
-376.873	123.259	-0.151	0.189
-375.858	293.221	0.161	0.293
-374.844	136.950	0.389	0.506
-373.829	18.197	-0.373	-0.296
-372.815	353.541	0.351	0.695
-371.800	-133.160	-0.574	0.072
-370.785	800.000	-0.155	0.616
-369.771	-99.034	-0.404	-0.102
-368.756	57.508	0.542	0.527
-367.742	101.613	0.328	-0.381
-366.727	-200.000	-0.007	-0.264
-365.712	259.461	-0.183	0.314
-364.698	-9.685	0.855	-0.567
-363.683	16.374	-0.838	0.658
-362.669	122.557	0.329	0.409
-361.654	256.441	-0.244	-0.417
-360.639	55.579	0.123	0.118
-359.625	-82.816	-0.667	-0.214
-358.610	-185.440	0.745	-0.011
-357.596	-135.896	0.618	0.073
-356.581	-133.829	-0.778	0.096
-355.566	641.943	-0.119	0.301
-354.552	67.260	-0.629	0.638
-353.537	800.000	-0.221	0.758
-352.523	-176.410	-0.491	-0.013
-351.508	117.773	-0.371	0.454
-350.493	38.301	0.246	0.218
-349.479	-109.333	0.490	-0.103
-348.464	-200.000	0.040	0.194
-347.450	-1.721	0.254	0.178
-346.435	280.484	0.418	-0.744
-345.420	-83.612	-0.642	0.204
-344.406	10.800	0.082	0.062
-343.391	-14.172	-0.779	0.500
-342.377	-200.000	-0.020	0.723
-341.362	-69.329	0.525	-0.200
-340.348	-44.612	-0.591	0.294
-339.333	120.735	-0.180	-0.223
-338.318	-112.437	0.748	-0.149
-337.304	-86.504	0.911	-0.278
-336.289	-137.315	0.871	0.098
-335.275	-200.000	0.115	0.580
-334.260	98.666	0.368	0.422
-333.245	49.409	0.199	-0.187
-332.231	-200.000	0.174	0.828
-331.216	152.113	-0.478	-0.648
-330.202	-166.716	0.776	-0.032
-329.187	343.962	-0.241	0.469
-328.172	-80.276	0.069	0.023
-327.158	8.864	0.642	-0.481
-326.143	-40.537	0.180	0.093
-325.129	-131.296	0.483	-0.064
-324.114	252.142	0.368	0.623
-323.099	-160.865	0.528	-0.028
-322.085	-138.053	-0.526	0.058
-321.070	121.699	-0.303	0.375
-320.056	-102.054	0.517	0.124
-319.041	256.170	-0.461	-0.786
-318.026	66.834	-0.626	0.633
-317.012	-6.148	-0.516	0.350
-315.997	-68.921	-0.250	-0.096
-314.983	-114.488	-0.973	-0.186
-313.968	-200.000	-0.137	-0.792
-312.953	-142.095	0.129	-0.013
-311.939	-200.000	0.245	1.193
-310.924	-193.739	0.362	0.003
-309.910	30.942	0.584	0.497
-308.895	211.787	-0.073	0.115
-307.880	97.150	-0.074	0.084
-306.866	434.011	-0.158	-0.340
-305.851	-119.773	-0.211	0.036
-304.837	-23.244	0.214	-0.128
-303.822	-150.268	0.266	0.020
-302.807	111.954	-0.219	-0.262
-301.793	-41.304	1.340	0.686
-300.778	-200.000	-0.025	0.484
-299.764	800.000	-0.051	0.201
-298.749	344.962	0.206	-0.402
-297.735	53.563	0.381	0.363
-296.720	35.679	0.788	-0.687
-295.705	150.205	0.343	-0.461
-294.691	-109.011	0.897	-0.190
-293.676	-110.214	-0.125	-0.026
-292.662	356.822	-0.208	0.412
-291.647	-70.928	0.259	0.097
-290.632	-106.293	0.713	-0.158
-289.618	66.424	-0.320	-0.323
-288.603	-44.377	-0.354	-0.176
-287.589	-200.000	-0.012	-0.128
-286.574	47.439	-0.634	0.586
-285.559	109.346	-0.738	0.877
-284.545	-200.000	0.165	0.833
-283.530	-12.917	-0.497	0.321
-282.516	34.508	0.305	-0.264
-281.501	-21.236	-0.879	-0.533
-280.486	-200.000	0.065	-0.331
-279.472	-101.689	0.473	0.114
-278.457	146.761	0.186	-0.249
-277.443	47.994	-0.091	-0.084
-276.428	36.335	0.272	0.237
-275.413	5.600	-0.337	-0.247
-274.399	-114.498	-0.449	-0.086
-273.384	-67.138	-0.586	-0.229
-272.370	-27.512	-0.437	-0.252
-271.355	-48.703	0.384	0.183
-270.340	114.463	0.265	-0.320
-269.326	7.267	-0.170	0.126
-268.311	112.552	0.323	-0.388
-267.297	-73.338	-0.948	-0.344
-266.282	-79.454	-0.539	0.181
-265.267	43.424	0.396	-0.359
-264.253	43.840	0.722	-0.655
-263.238	-147.948	0.506	-0.042
-262.224	40.877	0.362	-0.324
-261.209	-113.369	-0.930	0.181
-260.195	-135.612	0.720	0.085
-259.180	-200.000	0.121	-0.645
-258.165	279.941	0.123	0.218
-257.151	269.096	0.158	0.275
-256.136	73.550	0.258	0.268
-255.122	402.930	-0.175	0.364
-254.107	800.000	-0.199	-0.551
-253.092	-200.000	0.109	-0.790
-252.078	-150.131	-0.374	0.029
-251.063	6.156	0.356	0.262
-250.049	6.126	0.584	0.429
-249.034	394.049	0.192	0.397
-248.019	-200.000	0.064	-0.846
-247.005	73.203	-0.530	-0.549
-245.990	800.000	-0.068	-0.209
-244.976	-53.909	0.351	-0.158
-243.961	-53.667	0.405	0.183
-242.946	228.952	-0.230	-0.372
-241.932	-37.429	-0.141	0.074
-240.917	54.345	-0.951	-0.907
-239.903	-200.000	-0.014	-0.441
-238.888	56.469	-0.368	0.354
-237.873	133.744	-0.214	-0.274
-236.859	-154.184	-0.680	-0.046
-235.844	181.303	0.456	0.663
-234.830	-200.000	-0.088	0.451
-233.815	7.235	0.148	-0.109
-232.800	644.282	0.148	0.373
-231.786	800.000	0.111	0.444
-230.771	71.500	-0.328	0.338
-229.757	-82.820	0.995	-0.318
-228.742	630.461	-0.074	0.185
-227.727	-16.454	0.213	0.134
-226.713	7.631	-0.151	0.112
-225.698	705.082	-0.342	-0.892
-224.684	-200.000	0.073	-0.779
-223.669	-200.000	-0.071	-0.637
-222.655	267.963	0.414	0.717
-221.640	-42.375	0.267	0.135
-220.625	-71.182	-0.533	0.198
-219.611	-79.715	0.110	0.037
-218.596	-177.129	-0.792	-0.020
-217.582	691.436	-0.277	-0.719
-216.567	-200.000	0.030	-0.395
-215.552	-22.742	0.368	-0.220
-214.538	-147.916	0.453	-0.037
-213.523	-139.338	-0.823	0.087
-212.509	-127.025	0.439	-0.064
-211.494	-41.601	-0.503	-0.256
-210.479	-86.209	0.911	-0.278
-209.465	-130.873	-0.796	-0.105
-208.450	-181.698	0.583	-0.011
-207.436	302.827	0.322	0.590
-206.421	44.810	-0.117	0.106
-205.406	409.995	0.270	-0.567
-204.392	-200.000	-0.075	-0.678
-203.377	120.107	0.253	-0.311
-202.363	-46.492	-0.435	-0.211
-201.348	-23.955	0.129	-0.076
-200.333	-54.351	0.559	-0.251
-199.319	42.901	-0.292	-0.263
-198.304	749.960	-0.406	-1.084
-197.290	255.628	0.489	-0.829
-196.275	356.184	-0.217	-0.428
-195.260	-63.621	-0.210	0.085
-194.246	157.365	0.293	-0.400
-193.231	60.467	-0.287	0.281
-192.217	-32.448	-0.858	-0.473
-191.202	13.514	-0.612	0.469
-190.187	59.296	0.485	-0.472
-189.173	-26.895	0.784	0.452
-188.158	800.000	0.142	-0.503
-187.144	-151.553	0.223	-0.016
-186.129	-49.670	-0.285	0.134
-185.114	-28.778	-0.307	0.175
-184.100	-61.487	-0.596	-0.248
-183.085	-200.000	-0.049	0.342
-182.071	-22.490	0.760	-0.454
-181.056	-200.000	-0.037	0.830
-180.042	423.374	-0.155	-0.329
-179.027	125.455	-0.320	0.398
-178.012	2.687	-0.561	0.402
-176.998	-17.911	-0.125	-0.078
-175.983	-121.349	0.323	0.053
-174.969	-200.000	0.077	0.549
-173.954	-200.000	0.043	-0.240
-172.939	-39.963	-0.374	-0.193
-171.925	-34.995	0.489	-0.263
-170.910	800.000	-0.229	0.775
-169.896	-4.900	-0.161	-0.110
-168.881	-91.315	0.474	0.134
-167.866	0.936	-0.297	-0.210
-166.852	45.648	0.421	0.384
-165.837	256.418	0.456	0.774
-164.823	800.000	-0.010	-0.045
-163.808	313.748	-0.033	0.061
-162.793	-200.000	0.012	0.176
-161.779	467.529	-0.153	-0.339
-160.764	168.681	0.574	-0.808
-159.750	800.000	0.110	0.316
-158.735	220.286	-0.455	-0.721
-157.720	78.788	0.263	-0.278
-156.706	-191.878	-1.377	0.013
-155.691	263.924	0.390	0.670
-154.677	-138.249	0.539	0.059
-153.662	-32.029	0.322	0.178
-152.647	111.016	-0.178	0.211
-151.633	-118.356	0.530	-0.093
-150.618	-32.249	-0.848	-0.467
-149.604	-200.000	-0.073	0.531
-148.589	13.902	0.450	0.345
-147.574	19.246	-0.417	0.331
-146.560	-200.000	0.024	0.468
-145.545	45.220	0.333	0.303
-144.531	-82.483	-0.788	0.252
-143.516	800.000	-0.260	-0.856
-142.502	45.630	-0.209	0.190
-141.487	-200.000	0.053	0.370
-140.472	-75.779	0.088	0.031
-139.458	-40.735	0.312	0.159
-138.443	-36.143	-0.751	-0.400
-137.429	-157.153	0.716	-0.043
-136.414	209.373	-0.325	0.502
-135.399	-52.825	-0.401	0.182
-134.385	-200.000	-0.039	0.618
-133.370	-81.258	-0.565	-0.184
-132.356	0.394	0.382	-0.269
-131.341	-122.979	-0.134	-0.021
-130.326	95.565	-0.475	0.535
-129.312	-5.825	-0.575	-0.388
-128.297	-7.233	0.655	-0.438
-127.283	107.992	0.073	-0.086
-126.268	-145.435	0.270	0.024
-125.253	-15.715	-0.365	-0.229
-124.239	23.024	-0.511	-0.414
-123.224	24.596	-0.160	-0.131
-122.210	-95.012	0.349	0.093
-121.195	315.944	0.342	0.637
-120.180	3.174	-0.499	-0.358
