DTS Sentinel unit serial number:	SN413079Multiplexer serial number:	ORYXHardware model number:	OX4-SRSoftware version number:	ORYX F/W v4.00 Oryx Data Collector v3.7.2.0data status	okinstallation	princeton_trtdifferential loss correction	single-endedforward channel	channel 3reverse channel	N/Adate	2019/09/11time	07:02:11forward acquisition time	60.00reverse acquisition time	0.00gamma	496.2192k internal	0.2328k external	0.2328temperature offset calibration	0.9903default loss term (dB/km)	0.3790temperature slope calibration	1.0000multiplexer offset coefficient	1.0000multiplexer slope coefficient	1.0000fibre end	0.00T internal ref (°C)	30.19T ext. ref 1 (°C)	-0.10T ext. ref 2 (°C)	25.98length (m)	temperature (°C)	Stokes	anti-Stokes-747.200	-68.583	-0.306	0.119
-746.185	-174.823	-0.314	0.009
-745.171	800.000	0.034	0.114
-744.156	-130.574	-0.346	0.047
-743.142	222.718	0.102	0.165
-742.127	-171.687	-0.466	0.015
-741.112	-156.791	-0.158	-0.010
-740.098	97.609	-0.213	0.246
-739.083	-200.000	-0.009	-0.373
-738.069	140.721	0.112	0.150
-737.054	-200.000	0.001	0.028
-736.039	-55.869	-0.124	-0.056
-735.025	90.989	0.346	0.391
-734.010	352.187	0.087	0.174
-732.996	415.508	-0.106	0.228
-731.981	-95.689	-0.283	0.076
-730.966	-129.257	0.327	-0.046
-729.952	0.758	-0.283	-0.204
-728.937	-200.000	0.000	0.159
-727.923	148.976	-0.141	-0.191
-726.908	666.197	-0.154	0.400
-725.894	-76.766	-0.204	-0.072
-724.879	675.931	-0.077	0.202
-723.864	-121.922	-0.197	-0.033
-722.850	-200.000	-0.013	-0.087
-721.835	472.687	-0.144	0.327
-720.821	669.843	0.063	0.164
-719.806	-126.604	-0.227	-0.034
-718.791	82.836	-0.145	-0.158
-717.777	127.758	-0.302	0.387
-716.762	41.358	-0.109	0.099
-715.748	52.222	-0.179	0.172
-714.733	-153.105	0.050	-0.004
-713.718	8.108	0.246	-0.186
-712.704	-200.000	0.041	0.249
-711.689	82.248	-0.262	0.285
-710.675	90.137	-0.069	0.078
-709.660	-200.000	0.047	-0.236
-708.645	-93.816	0.240	-0.067
-707.631	199.411	0.135	-0.208
-706.616	-27.538	-0.106	-0.062
-705.602	-56.405	-0.085	0.038
-704.587	-66.059	-0.062	-0.025
-703.572	-104.031	0.127	0.030
-702.558	-200.000	0.053	-0.261
-701.543	800.000	0.107	-0.454
-700.529	-200.000	0.015	-0.197
-699.514	-88.178	-0.379	0.114
-698.499	-4.337	-0.154	-0.107
-697.485	197.544	0.041	-0.063
-696.470	-2.640	-0.109	-0.077
-695.456	34.103	-0.276	-0.242
-694.441	-200.000	-0.000	0.006
-693.426	3.437	0.262	0.192
-692.412	-94.194	-0.181	-0.050
-691.397	421.987	-0.119	-0.258
-690.383	58.808	0.027	-0.027
-689.368	-92.028	-0.221	-0.063
-688.354	249.921	0.122	-0.208
-687.339	-200.000	-0.069	-0.448
-686.324	-70.609	-0.103	0.039
-685.310	-200.000	-0.004	-0.134
-684.295	51.893	-0.186	-0.178
-683.281	61.338	0.083	-0.083
-682.266	-57.441	0.327	-0.144
-681.251	292.544	0.013	0.023
-680.237	800.000	0.069	0.299
-679.222	243.788	-0.169	0.286
-678.208	-116.758	-0.261	-0.048
-677.193	763.128	0.053	0.144
-676.178	-200.000	0.004	0.264
-675.164	-200.000	0.005	-0.197
-674.149	-17.830	-0.085	-0.053
-673.135	-200.000	0.021	-0.231
-672.120	39.621	0.181	0.163
-671.105	202.551	0.102	-0.159
-670.091	-110.513	-0.243	-0.051
-669.076	-86.362	-0.461	0.143
-668.062	-172.447	-0.037	0.001
-667.047	104.379	0.045	-0.053
-666.032	39.622	0.229	0.206
-665.018	-200.000	-0.004	0.063
-664.003	-200.000	-0.009	-0.068
-662.989	-200.000	-0.017	0.118
-661.974	-109.465	0.419	0.089
-660.959	-62.348	0.142	0.059
-659.945	619.412	-0.165	-0.417
-658.930	-146.050	0.015	-0.001
-657.916	800.000	-0.099	-0.356
-656.901	184.663	0.151	0.225
-655.886	-200.000	-0.001	0.227
-654.872	332.934	0.178	-0.346
-653.857	1.133	-0.084	-0.061
-652.843	-20.564	-0.289	0.178
-651.828	-43.874	0.227	0.115
-650.814	31.182	0.368	0.317
-649.799	-113.490	0.317	-0.062
-648.784	-117.589	-0.565	-0.102
-647.770	44.454	0.059	-0.055
-646.755	-102.944	-0.384	0.092
-645.741	7.521	-0.078	0.058
-644.726	70.685	0.201	-0.209
-643.711	3.368	-0.329	-0.241
-642.697	-157.598	-0.234	-0.014
-641.682	70.042	-0.083	-0.086
-640.668	605.659	0.093	-0.234
-639.653	-93.569	-0.304	-0.084
-638.638	72.728	-0.322	-0.338
-637.624	-100.191	-0.146	0.036
-636.609	123.227	-0.172	0.216
-635.595	-127.659	-0.163	-0.024
-634.580	0.289	-0.069	-0.049
-633.565	198.500	0.004	0.005
-632.551	-61.695	0.073	-0.031
-631.536	800.000	0.073	0.314
-630.522	-200.000	0.011	0.132
-629.507	-99.940	-0.215	-0.054
-628.492	-200.000	0.001	0.306
-627.478	-15.943	-0.073	0.047
-626.463	-55.866	-0.076	0.034
-625.449	-200.000	-0.025	0.202
-624.434	800.000	-0.061	-0.202
-623.419	172.001	0.018	0.026
-622.405	34.082	-0.195	0.170
-621.390	263.089	0.094	0.163
-620.376	-200.000	0.022	-0.199
-619.361	-200.000	-0.204	-0.001
-618.346	148.992	-0.055	-0.075
-617.332	-120.816	0.424	-0.072
-616.317	108.896	0.035	-0.042
-615.303	-200.000	0.026	0.143
-614.288	61.615	-0.322	-0.321
-613.273	707.166	0.039	0.104
-612.259	101.216	0.101	0.118
-611.244	-102.656	0.178	0.043
-610.230	-200.000	-0.035	0.188
-609.215	-52.816	-0.316	-0.146
-608.201	-200.000	-0.065	-0.287
-607.186	324.192	-0.151	-0.289
-606.171	114.191	0.062	-0.076
-605.157	-2.575	-0.031	-0.022
-604.142	319.546	-0.217	-0.412
-603.128	-137.184	0.143	-0.016
-602.113	-43.918	0.058	0.029
-601.098	-56.648	-0.306	-0.136
-600.084	-200.000	-0.018	-0.218
-599.069	2.503	-0.092	-0.067
-598.055	800.000	-0.027	-0.094
-597.040	126.273	0.028	-0.036
-596.025	-192.677	-0.051	0.000
-595.011	310.910	0.014	0.025
-593.996	-200.000	-0.005	0.238
-592.982	-175.464	-0.255	-0.007
-591.967	193.183	-0.088	0.133
-590.952	183.031	0.043	0.064
-589.938	-4.657	0.152	0.105
-588.923	800.000	0.041	-0.138
-587.909	-158.240	0.207	-0.012
-586.894	-71.353	0.153	-0.057
-585.879	308.237	0.115	-0.215
-584.865	-122.018	0.128	0.021
-583.850	618.827	-0.080	-0.202
-582.836	-37.078	-0.320	0.171
-581.821	-144.056	0.465	-0.044
-580.806	-200.000	0.023	-0.472
-579.792	-200.000	0.058	-0.291
-578.777	709.010	0.113	-0.298
-577.763	-132.415	0.201	0.026
-576.748	615.064	0.102	-0.256
-575.733	-54.616	0.017	0.008
-574.719	-105.935	0.395	-0.089
-573.704	132.984	-0.142	-0.184
-572.690	-200.000	-0.012	-0.185
-571.675	-200.000	-0.035	-0.434
-570.661	800.000	0.096	-0.413
-569.646	-70.118	-0.186	-0.071
-568.631	-138.971	-0.265	-0.029
-567.617	-60.835	0.069	-0.029
-566.602	207.340	-0.105	-0.163
-565.588	68.200	-0.234	-0.240
-564.573	523.023	-0.059	0.138
-563.558	-55.171	-0.259	0.116
-562.544	35.037	0.097	0.085
-561.529	-140.394	0.319	0.033
-560.515	771.098	-0.042	0.114
-559.500	-6.718	0.218	-0.148
-558.485	-115.062	-0.155	0.030
-557.471	27.903	-0.180	-0.152
-556.456	613.512	0.087	-0.218
-555.442	217.604	-0.059	-0.094
-554.427	-71.320	0.053	0.020
-553.412	-94.011	-0.076	-0.021
-552.398	14.990	0.103	-0.080
-551.383	-200.000	0.005	-0.223
-550.369	192.734	-0.074	0.112
-549.354	48.847	-0.021	0.019
-548.339	-31.105	-0.273	-0.154
-547.325	635.072	0.119	-0.301
-546.310	252.335	-0.074	0.125
-545.296	188.833	-0.189	-0.282
-544.281	134.879	-0.047	0.061
-543.266	549.781	0.021	-0.049
-542.252	800.000	-0.086	0.263
-541.237	87.690	0.087	0.096
-540.223	-32.390	-0.207	0.116
-539.208	333.807	-0.046	-0.090
-538.193	261.942	0.182	-0.316
-537.179	130.179	-0.130	0.166
-536.164	-103.897	0.154	0.036
-535.150	-200.000	-0.000	-0.025
-534.135	44.670	0.064	-0.059
-533.121	-7.764	-0.130	0.088
-532.106	228.824	-0.055	-0.090
-531.091	-109.737	0.212	-0.045
-530.077	393.774	-0.079	-0.165
-529.062	-200.000	0.001	-0.176
-528.048	39.824	0.013	0.012
-527.033	365.967	-0.266	-0.535
-526.018	257.080	-0.157	0.270
-525.004	157.957	-0.157	0.218
-523.989	-39.645	-0.095	0.050
-522.975	-95.419	-0.369	-0.099
-521.960	-200.000	0.072	-0.402
-520.945	-16.535	0.233	-0.148
-519.931	-20.909	0.053	-0.032
-518.916	-94.387	-0.400	-0.109
-517.902	-12.023	-0.172	-0.113
-516.887	-148.875	0.331	0.027
-515.872	374.258	0.101	0.206
-514.858	-200.000	0.006	0.317
-513.843	-38.578	-0.076	0.040
-512.829	-132.364	0.086	-0.011
-511.814	654.976	0.073	-0.187
-510.799	800.000	-0.040	-0.126
-509.785	-200.000	-0.007	0.044
-508.770	-200.000	-0.048	-0.220
-507.756	-97.929	0.352	-0.091
-506.741	5.339	0.186	-0.137
-505.726	-30.839	0.470	0.265
-504.712	-13.377	0.078	-0.051
-503.697	800.000	-0.021	0.090
-502.683	195.304	0.058	-0.088
-501.668	71.371	-0.116	0.120
-500.653	-10.783	-0.138	-0.091
-499.639	-200.000	-0.005	0.308
-498.624	104.303	0.108	-0.126
-497.610	564.897	0.060	-0.145
-496.595	-63.072	-0.302	0.124
-495.581	-78.499	-0.302	-0.103
-494.566	-200.000	-0.049	0.417
-493.551	-42.488	0.162	0.083
-492.537	103.024	-0.150	0.175
-491.522	24.774	-0.076	-0.063
-490.508	99.670	0.015	-0.017
-489.493	-200.000	0.038	-0.177
-488.478	-23.819	-0.049	0.029
-487.464	-200.000	0.030	-0.240
-486.449	-91.023	-0.067	0.019
-485.435	130.237	0.031	-0.040
-484.420	-152.680	-0.279	-0.020
-483.405	-188.653	0.217	-0.003
-482.391	183.885	0.257	0.379
-481.376	-37.182	0.165	-0.088
-480.362	63.472	0.213	0.213
-479.347	-30.920	0.132	0.074
-478.332	-200.000	0.011	0.120
-477.318	-21.104	0.098	-0.060
-476.303	800.000	-0.087	0.260
-475.289	-8.415	-0.267	0.179
-474.274	-157.995	-0.222	-0.013
-473.259	-89.689	0.321	-0.094
-472.245	-18.506	0.295	-0.183
-471.230	477.889	0.046	-0.104
-470.216	-24.970	-0.260	0.154
-469.201	121.251	0.029	-0.036
-468.186	210.856	0.061	-0.095
-467.172	-173.472	-0.098	-0.003
-466.157	-56.800	-0.109	-0.048
-465.143	800.000	0.052	-0.181
-464.128	-28.021	0.416	0.240
-463.113	274.819	-0.083	0.146
-462.099	-75.859	-0.135	0.048
-461.084	-85.748	-0.239	0.074
-460.070	270.807	-0.060	-0.105
-459.055	-16.550	0.313	-0.197
-458.040	-200.000	-0.045	-0.414
-457.026	-111.722	-0.094	-0.019
-456.011	-27.816	0.274	0.158
-454.997	-169.887	-0.270	0.010
-453.982	645.600	0.112	-0.286
-452.968	-3.898	-0.380	-0.263
-451.953	18.571	0.415	-0.331
-450.938	0.231	-0.166	0.118
-449.924	-200.000	0.029	0.183
-448.909	360.365	-0.044	0.088
-447.895	-31.199	0.253	-0.142
-446.880	284.303	0.108	-0.193
-445.865	-18.481	-0.231	-0.143
-444.851	485.053	-0.055	-0.126
-443.836	37.367	-0.046	0.041
-442.822	-153.374	0.191	0.013
-441.807	366.784	-0.100	-0.200
-440.792	-200.000	0.080	-0.387
-439.778	-4.753	-0.157	0.108
-438.763	-200.000	-0.001	0.134
-437.749	-62.470	0.185	0.077
-436.734	-200.000	0.011	-0.051
-435.719	-200.000	-0.022	0.256
-434.705	206.740	0.052	-0.080
-433.690	242.127	-0.071	0.117
-432.676	281.854	-0.086	0.154
-431.661	-150.713	0.107	-0.008
-430.646	800.000	-0.046	-0.128
-429.632	250.466	0.035	-0.060
-428.617	-194.174	0.327	-0.003
-427.603	-200.000	-0.041	0.366
-426.588	31.470	-0.252	0.215
-425.573	100.361	0.323	0.373
-424.559	-200.000	0.008	0.097
-423.544	-116.996	-0.214	0.039
-422.530	800.000	-0.056	-0.186
-421.515	-117.884	-0.265	0.047
-420.500	-200.000	0.016	-0.187
-419.486	-111.884	-0.345	0.069
-418.471	-33.050	0.196	0.108
-417.457	-134.869	-0.346	0.042
-416.442	-200.000	-0.041	0.192
-415.428	-34.343	0.346	-0.189
-414.413	-200.000	-0.025	0.197
-413.398	-200.000	0.070	0.464
-412.384	-34.452	0.286	-0.156
-411.369	142.465	0.302	0.399
-410.355	511.937	-0.151	0.350
-409.340	-50.658	0.336	0.157
-408.325	-200.000	-0.003	0.177
-407.311	-36.955	0.249	-0.133
-406.296	800.000	-0.096	0.341
-405.282	-200.000	0.012	0.090
-404.267	710.728	-0.068	0.179
-403.252	-200.000	-0.019	0.175
-402.238	-139.929	-0.299	0.031
-401.223	800.000	-0.112	0.370
-400.209	-200.000	0.006	0.253
-399.194	489.187	-0.130	-0.296
-398.179	-200.000	-0.050	-0.317
-397.165	189.460	0.108	0.161
-396.150	-132.004	0.362	-0.047
-395.136	12.113	0.250	0.191
-394.121	462.852	-0.231	0.514
-393.106	-131.092	0.158	-0.021
-392.092	800.000	-0.032	-0.121
-391.077	-26.016	-0.111	-0.065
-390.063	146.158	-0.169	0.226
-389.048	800.000	-0.094	-0.269
-388.033	-200.000	-0.023	0.175
-387.019	800.000	-0.115	-0.466
-386.004	-200.000	0.006	-0.329
-384.990	-200.000	-0.037	-0.283
-383.975	800.000	0.055	-0.223
-382.960	-117.417	0.157	0.028
-381.946	30.744	0.127	-0.108
-380.931	-145.768	-0.050	-0.004
-379.917	-200.000	0.024	-0.229
-378.902	-62.795	0.446	-0.183
-377.888	104.575	-0.180	-0.210
-376.873	-122.556	-0.201	0.033
-375.858	-42.984	0.183	-0.092
-374.844	272.983	0.100	-0.175
-373.829	-200.000	0.001	-0.038
-372.815	38.492	0.051	-0.045
-371.800	530.963	0.052	-0.122
-370.785	43.024	-0.091	0.082
-369.771	736.922	0.135	-0.359
-368.756	22.273	0.058	-0.047
-367.742	78.741	-0.072	0.077
-366.727	164.480	-0.134	-0.187
-365.712	163.390	0.007	-0.010
-364.698	34.147	0.248	0.215
-363.683	-200.000	0.031	0.445
-362.669	-14.834	-0.125	0.080
-361.654	-121.764	-0.216	-0.035
-360.639	371.004	-0.053	0.106
-359.625	84.435	0.300	0.326
-358.610	-146.672	-0.101	-0.009
-357.596	637.805	-0.200	0.505
-356.581	-41.734	-0.068	0.034
-355.566	-200.000	-0.006	-0.128
-354.552	-154.345	0.351	0.023
-353.537	-200.000	-0.040	0.335
-352.523	-117.432	0.127	-0.023
-351.508	-200.000	0.012	0.107
-350.493	-57.591	0.075	-0.033
-349.479	701.729	-0.132	-0.344
-348.464	31.168	0.152	-0.129
-347.450	686.029	-0.120	-0.312
-346.435	-129.684	-0.273	-0.037
-345.420	-200.000	0.008	-0.105
-344.406	64.558	-0.125	-0.125
-343.391	-200.000	0.000	-0.056
-342.377	800.000	0.110	-0.350
-341.362	-91.514	-0.159	-0.045
-340.348	800.000	0.038	-0.110
-339.333	-7.555	0.181	-0.122
-338.318	-14.861	0.067	-0.043
-337.304	83.168	-0.241	-0.260
-336.289	-200.000	-0.013	0.225
-335.275	-38.257	0.390	0.205
-334.260	-126.710	-0.454	-0.067
-333.245	-156.687	-0.269	0.016
-332.231	50.680	-0.178	0.167
-331.216	749.098	0.097	0.261
-330.202	-200.000	0.021	0.213
-329.187	722.702	0.087	0.229
-328.172	224.542	0.084	-0.134
-327.158	-6.444	0.204	0.138
-326.143	800.000	0.075	-0.266
-325.129	108.130	0.237	0.280
-324.114	800.000	0.055	0.210
-323.099	561.625	-0.013	0.032
-322.085	11.741	-0.151	0.115
-321.070	-200.000	-0.008	0.370
-320.056	218.246	-0.181	0.286
-319.041	-37.203	-0.202	-0.107
-318.026	210.976	-0.134	0.209
-317.012	506.126	0.035	-0.081
-315.997	-21.620	-0.262	-0.158
-314.983	-106.507	0.207	0.046
-313.968	800.000	-0.046	0.130
-312.953	-53.360	-0.292	0.133
-311.939	572.047	-0.090	0.218
-310.924	217.436	-0.082	0.130
-309.910	61.119	0.177	-0.174
-308.895	-42.314	-0.256	-0.130
-307.880	-29.405	-0.211	-0.119
-306.866	17.184	0.169	0.133
-305.851	52.744	0.128	0.121
-304.837	-200.000	0.021	-0.340
-303.822	-200.000	0.024	-0.157
-302.807	800.000	-0.105	-0.339
-301.793	-144.932	-0.320	0.029
-300.778	182.981	-0.255	-0.374
-299.764	19.703	0.093	-0.074
-298.749	-122.180	-0.031	0.005
-297.735	142.228	0.182	-0.239
-296.720	26.329	-0.053	-0.044
-295.705	800.000	-0.128	0.400
-294.691	-85.768	-0.109	-0.034
-293.676	800.000	0.047	0.172
-292.662	-62.826	0.201	0.082
-291.647	-12.684	0.012	-0.008
-290.632	-44.683	-0.247	-0.122
-289.618	-67.079	0.195	-0.076
-288.603	100.597	-0.204	-0.235
-287.589	65.016	0.057	0.057
-286.574	-200.000	-0.034	0.538
-285.559	-75.433	-0.218	0.077
-284.545	-164.624	0.208	-0.009
-283.530	-200.000	-0.034	0.149
-282.516	211.776	-0.052	-0.082
-281.501	318.351	0.081	-0.152
-280.486	306.401	-0.195	0.359
-279.472	597.725	-0.141	-0.345
-278.457	-141.062	-0.190	0.019
-277.443	-16.573	0.139	0.087
-276.428	11.086	0.021	0.016
-275.413	98.473	0.042	0.048
-274.399	-2.036	0.117	-0.082
-273.384	66.597	0.047	0.047
-272.370	7.911	-0.212	-0.157
-271.355	-7.170	-0.116	0.078
-270.340	224.600	0.089	0.142
-269.326	-130.814	0.145	-0.019
-268.311	800.000	0.060	-0.257
-267.297	-200.000	-0.028	0.153
-266.282	68.828	-0.231	-0.234
-265.267	100.371	-0.211	0.242
-264.253	-27.921	-0.117	0.067
-263.238	-12.050	0.379	-0.246
-262.224	71.950	0.149	0.153
-261.209	-82.402	0.114	0.037
-260.195	-101.879	0.210	0.050
-259.180	-72.473	-0.164	0.060
-258.165	-132.489	-0.103	0.013
-257.151	-114.301	0.365	0.070
-256.136	-52.701	-0.050	0.023
-255.122	218.530	-0.083	0.131
-254.107	296.609	0.072	-0.131
-253.092	30.790	0.208	0.176
-252.078	50.741	0.320	-0.299
-251.063	40.285	-0.125	0.111
-250.049	800.000	0.085	0.245
-249.034	325.192	-0.111	0.209
-248.019	-200.000	0.013	0.091
-247.005	46.163	0.109	-0.100
-245.990	-200.000	-0.012	0.210
-244.976	541.375	-0.145	0.342
-243.961	12.319	-0.145	-0.111
-242.946	-200.000	-0.013	0.359
-241.932	-200.000	-0.023	0.150
-240.917	60.336	0.096	-0.094
-239.903	-200.000	-0.067	0.340
-238.888	-45.661	-0.068	0.033
-237.873	45.084	0.253	0.230
-236.859	97.602	0.193	-0.219
-235.844	-200.000	0.050	0.396
-234.830	161.978	0.101	-0.140
-233.815	214.118	0.212	0.331
-232.800	-26.606	0.269	-0.156
-231.786	-152.986	-0.185	-0.013
-230.771	800.000	0.039	-0.117
-229.757	185.485	0.295	-0.432
-228.742	-51.375	0.157	-0.072
-227.727	180.011	0.313	0.453
-226.713	-154.515	0.187	0.012
-225.698	-65.425	-0.131	0.052
-224.684	-87.618	-0.147	0.044
-223.669	-84.419	0.500	0.156
-222.655	800.000	0.044	0.183
-221.640	82.609	-0.086	0.093
-220.625	-200.000	0.019	0.373
-219.611	261.377	0.167	0.285
-218.596	-200.000	0.001	-0.064
-217.582	196.283	0.065	-0.097
-216.567	-136.828	-0.529	0.060
-215.552	-94.477	-0.161	-0.043
-214.538	-86.369	0.242	-0.073
-213.523	260.055	-0.196	-0.333
-212.509	-68.548	-0.223	0.085
-211.494	284.478	0.096	-0.170
-210.479	418.378	0.157	-0.331
-209.465	-91.087	0.073	-0.021
-208.450	-25.154	0.162	-0.094
-207.436	-126.206	-0.083	-0.012
-206.421	-115.685	0.246	0.046
-205.406	-82.812	0.014	-0.005
-204.392	-89.983	0.321	-0.092
-203.377	133.225	-0.141	-0.180
-202.363	31.791	0.288	-0.244
-201.348	-77.676	-0.153	-0.052
-200.333	69.765	0.158	0.160
-199.319	92.063	-0.072	0.081
-198.304	-57.086	-0.120	0.052
-197.290	800.000	0.126	0.429
-196.275	800.000	0.108	0.356
-195.260	-17.826	0.419	-0.259
-194.246	171.795	0.103	-0.146
-193.231	-81.725	-0.199	0.064
-192.217	53.421	-0.133	-0.126
-191.202	800.000	0.028	-0.105
-190.187	-200.000	-0.017	0.413
-189.173	-21.986	0.107	0.064
-188.158	14.339	-0.081	0.062
-187.144	60.438	0.205	-0.200
-186.129	-133.473	0.191	0.024
-185.114	18.990	0.081	-0.064
-184.100	14.208	-0.057	-0.044
-183.085	-148.341	0.316	-0.026
-182.071	199.619	0.133	0.200
-181.056	-200.000	0.033	0.210
-180.042	-121.977	0.149	-0.024
-179.027	-127.581	0.224	0.032
-178.012	800.000	0.135	0.477
-176.998	347.081	0.016	-0.030
-175.983	-200.000	0.004	0.264
-174.969	-200.000	0.033	0.182
-173.954	-61.094	-0.249	-0.103
-172.939	-200.000	-0.011	-0.072
-171.925	-30.475	-0.221	-0.123
-170.910	478.898	-0.073	0.163
-169.896	-109.490	0.362	0.075
-168.881	-101.749	0.283	-0.068
-167.866	800.000	-0.127	0.497
-166.852	-84.162	0.228	0.071
-165.837	800.000	-0.060	-0.181
-164.823	6.238	0.076	-0.056
-163.808	27.350	0.212	0.175
-162.793	20.287	-0.196	0.156
-161.779	-130.982	0.105	-0.014
-160.764	-79.137	-0.277	-0.093
-159.750	296.683	0.112	0.203
-158.735	-200.000	0.034	0.342
-157.720	-78.209	-0.132	-0.045
-156.706	351.220	0.082	-0.160
-155.691	64.607	0.106	0.105
-154.677	16.540	-0.269	0.209
-153.662	-113.664	-0.275	-0.053
-152.647	-200.000	-0.030	-0.340
-151.633	-22.273	-0.363	-0.217
-150.618	-90.733	0.225	0.064
-149.604	5.796	-0.178	0.130
-148.589	-27.532	-0.142	-0.081
-147.574	-200.000	0.012	0.055
-146.560	-200.000	0.041	-0.263
-145.545	-67.071	-0.305	0.119
-144.531	377.828	0.056	-0.113
-143.516	-200.000	-0.043	0.283
-142.502	210.199	0.140	-0.216
-141.487	10.187	0.197	-0.147
-140.472	542.178	0.176	0.413
-139.458	511.491	-0.153	0.350
-138.443	-48.004	0.212	0.101
-137.429	-71.428	0.268	-0.099
-136.414	95.240	0.018	0.020
-135.399	630.263	-0.049	-0.122
-134.385	-86.819	0.525	-0.158
-133.370	-140.546	-0.117	-0.012
-132.356	-3.960	-0.020	0.014
-131.341	800.000	0.106	0.328
-130.326	81.401	0.304	0.323
-129.312	155.239	0.117	0.158
-128.297	-176.281	0.346	-0.009
-127.283	-98.066	-0.242	-0.061
-126.268	11.821	-0.125	0.094
-125.253	-81.821	-0.284	0.092
-124.239	-17.791	-0.234	0.144
-123.224	350.214	-0.068	-0.132
-122.210	77.976	-0.083	0.087
-121.195	295.035	0.132	0.237
