DTS Sentinel unit serial number:	SN413079Multiplexer serial number:	ORYXHardware model number:	OX4-SRSoftware version number:	ORYX F/W v4.00 Oryx Data Collector v3.7.2.0data status	okinstallation	princeton_trtdifferential loss correction	single-endedforward channel	channel 3reverse channel	N/Adate	2019/09/11time	00:46:10forward acquisition time	60.00reverse acquisition time	0.00gamma	496.2192k internal	0.2332k external	0.2332temperature offset calibration	0.9916default loss term (dB/km)	0.3790temperature slope calibration	1.0000multiplexer offset coefficient	1.0000multiplexer slope coefficient	1.0000fibre end	0.00T internal ref (°C)	29.19T ext. ref 1 (°C)	-0.31T ext. ref 2 (°C)	22.77length (m)	temperature (°C)	Stokes	anti-Stokes-747.200	-67.334	-0.293	-0.116
-746.185	800.000	0.124	0.387
-745.171	365.470	0.121	0.246
-744.156	800.000	-0.018	-0.060
-743.142	675.006	0.109	-0.284
-742.127	800.000	0.120	0.399
-741.112	-117.448	-0.307	0.056
-740.098	552.814	0.188	0.454
-739.083	-59.774	0.498	0.214
-738.069	-165.448	-0.185	0.008
-737.054	728.688	-0.134	-0.359
-736.039	-110.669	-0.100	-0.021
-735.025	-145.899	0.466	-0.042
-734.010	-41.692	-0.295	-0.152
-732.996	-200.000	-0.049	-0.354
-731.981	17.298	-0.114	-0.091
-730.966	769.598	0.115	-0.314
-729.952	-76.032	0.061	0.022
-728.937	-200.000	0.048	-0.299
-727.923	784.691	0.060	-0.165
-726.908	178.181	-0.175	0.256
-725.894	3.989	-0.226	-0.166
-724.879	155.631	0.254	0.351
-723.864	61.671	0.093	-0.093
-722.850	87.757	-0.103	-0.115
-721.835	120.230	0.123	0.153
-720.821	590.778	0.024	-0.059
-719.806	70.014	-0.118	-0.122
-718.791	-200.000	0.052	-0.268
-717.777	618.287	-0.088	0.223
-716.762	113.769	0.186	-0.227
-715.748	-17.408	0.311	0.197
-714.733	8.893	-0.367	0.278
-713.718	140.986	0.044	0.059
-712.704	800.000	-0.076	-0.323
-711.689	103.084	-0.212	-0.249
-710.675	215.356	0.167	0.267
-709.660	-159.465	0.297	-0.017
-708.645	-73.673	0.165	-0.060
-707.631	15.595	0.124	-0.098
-706.616	-114.107	-0.109	0.021
-705.602	-130.753	-0.230	0.031
-704.587	273.532	0.046	0.082
-703.572	708.859	-0.048	-0.126
-702.558	277.185	-0.118	0.210
-701.543	-64.978	-0.148	0.060
-700.529	122.008	0.065	-0.082
-699.514	-152.090	-0.211	-0.015
-698.499	800.000	0.063	-0.204
-697.485	-73.515	-0.211	0.077
-696.470	-148.617	-0.142	0.012
-695.456	-111.346	-0.046	-0.009
-694.441	-200.000	-0.022	-0.287
-693.426	-98.644	-0.069	0.018
-692.412	-200.000	-0.008	0.145
-691.397	187.429	-0.051	0.076
-690.383	85.815	-0.282	0.312
-689.368	-107.304	-0.373	-0.082
-688.354	-98.618	-0.141	-0.036
-687.339	-63.231	0.375	0.155
-686.324	800.000	0.064	-0.226
-685.310	324.095	-0.174	-0.333
-684.295	440.997	0.111	-0.243
-683.281	-35.924	0.170	0.092
-682.266	-200.000	-0.012	-0.217
-681.251	-67.466	-0.429	-0.169
-680.237	-77.787	0.494	-0.171
-679.222	-93.789	-0.131	0.036
-678.208	-176.678	-0.413	-0.011
-677.193	326.345	-0.104	-0.200
-676.178	80.706	-0.240	-0.259
-675.164	447.507	-0.112	0.247
-674.149	-20.181	-0.069	-0.042
-673.135	376.945	0.087	0.178
-672.120	800.000	0.115	-0.495
-671.105	-57.237	0.328	-0.145
-670.091	362.390	0.144	-0.290
-669.076	800.000	0.027	-0.108
-668.062	512.346	-0.137	-0.321
-667.047	629.118	0.042	0.106
-666.032	-18.712	-0.140	-0.087
-665.018	11.659	0.282	0.217
-664.003	-200.000	0.054	0.513
-662.989	-52.332	0.195	-0.091
-661.974	683.014	0.042	0.110
-660.959	-95.493	0.065	0.017
-659.945	800.000	0.085	0.272
-658.930	-16.830	-0.172	-0.109
-657.916	7.232	0.183	-0.137
-656.901	5.964	0.147	-0.109
-655.886	-55.917	0.163	0.073
-654.872	-61.043	-0.252	-0.107
-653.857	-200.000	-0.014	-0.291
-652.843	-154.453	-0.325	0.022
-651.828	-200.000	0.004	-0.019
-650.814	-49.701	-0.164	-0.078
-649.799	248.091	0.071	0.120
-648.784	-44.911	0.333	0.166
-647.770	-10.401	-0.049	-0.033
-646.755	-177.450	-0.410	-0.010
-645.741	-6.392	-0.257	-0.176
-644.726	-180.914	-0.029	0.001
-643.711	-200.000	0.012	-0.101
-642.697	-14.457	-0.075	0.048
-641.682	211.056	0.166	0.262
-640.668	-109.390	-0.173	0.037
-639.653	-200.000	0.014	-0.344
-638.638	44.735	0.111	0.102
-637.624	159.007	-0.123	0.171
-636.609	-200.000	-0.008	-0.173
-635.595	-42.092	0.173	0.089
-634.580	105.954	-0.066	-0.078
-633.565	-200.000	-0.005	-0.091
-632.551	-122.873	0.279	0.045
-631.536	-16.599	0.156	-0.099
-630.522	-58.167	-0.367	-0.160
-629.507	-111.466	-0.031	-0.006
-628.492	89.743	-0.116	0.130
-627.478	-117.540	0.263	-0.048
-626.463	39.170	-0.122	0.109
-625.449	-179.673	-0.345	-0.007
-624.434	288.892	0.036	0.066
-623.419	-158.916	0.353	-0.020
-622.405	421.779	0.045	-0.096
-621.390	-65.013	0.257	0.104
-620.376	46.504	-0.170	0.158
-619.361	14.607	0.121	0.095
-618.346	-127.524	-0.220	-0.032
-617.332	162.369	-0.232	0.326
-616.317	737.255	-0.068	0.182
-615.303	389.246	-0.190	-0.395
-614.288	-200.000	0.027	0.193
-613.273	53.897	0.098	0.094
-612.259	-102.288	-0.377	0.091
-611.244	231.355	-0.066	-0.108
-610.230	479.157	-0.099	-0.224
-609.215	56.011	-0.298	-0.289
-608.201	-154.510	0.257	-0.017
-607.186	-111.807	-0.222	0.045
-606.171	-200.000	-0.097	-0.443
-605.157	-82.870	0.335	-0.108
-604.142	209.384	-0.030	0.047
-603.128	110.964	-0.289	-0.348
-602.113	-200.000	-0.016	0.077
-601.098	51.004	-0.100	0.095
-600.084	157.983	0.257	-0.357
-599.069	-63.624	-0.113	0.046
-598.055	-141.449	0.237	0.024
-597.040	87.781	-0.141	0.156
-596.025	427.224	0.073	-0.158
-595.011	282.220	0.087	-0.156
-593.996	-142.597	-0.148	-0.015
-592.982	-82.279	-0.069	-0.023
-591.967	-184.524	0.018	-0.000
-590.952	86.074	0.051	-0.056
-589.938	800.000	0.040	0.152
-588.923	800.000	-0.028	-0.105
-587.909	230.789	-0.049	0.079
-586.894	-77.924	-0.073	-0.025
-585.879	-46.935	-0.309	0.151
-584.865	61.455	0.109	0.109
-583.850	28.162	-0.226	-0.191
-582.836	114.149	-0.087	0.106
-581.821	4.862	0.221	0.163
-580.806	-200.000	0.016	-0.247
-579.792	-200.000	-0.002	-0.128
-578.777	800.000	0.081	0.282
-577.763	274.427	-0.118	-0.209
-576.748	800.000	0.036	0.102
-575.733	73.627	0.140	0.147
-574.719	305.425	0.039	0.073
-573.704	323.949	-0.141	-0.269
-572.690	57.619	-0.192	0.187
-571.675	-200.000	-0.000	0.133
-570.661	-200.000	0.017	-0.103
-569.646	-58.457	0.356	-0.155
-568.631	-7.583	-0.242	0.164
-567.617	179.386	0.118	-0.172
-566.602	-0.415	0.141	-0.100
-565.588	-109.796	-0.199	0.042
-564.573	-93.927	0.487	-0.134
-563.558	179.199	-0.101	-0.148
-562.544	366.998	0.065	-0.130
-561.529	-108.906	-0.141	0.030
-560.515	317.273	0.192	-0.362
-559.500	-22.955	0.274	0.165
-558.485	164.790	0.130	-0.184
-557.471	411.546	-0.046	-0.097
-556.456	45.950	0.196	-0.181
-555.442	18.651	-0.301	-0.240
-554.427	41.485	0.311	-0.281
-553.412	357.245	0.108	-0.215
-552.398	648.435	0.122	-0.311
-551.383	-125.780	-0.244	0.037
-550.369	-200.000	-0.025	-0.237
-549.354	249.201	-0.112	-0.190
-548.339	-40.969	0.212	0.110
-547.325	-119.765	0.204	-0.035
-546.310	-105.123	0.294	0.067
-545.296	-15.081	-0.277	-0.177
-544.281	172.876	0.151	-0.217
-543.266	-130.867	-0.410	0.055
-542.252	202.986	-0.028	0.043
-541.237	-200.000	0.031	-0.166
-540.223	307.475	-0.025	-0.046
-539.208	-37.160	0.366	0.196
-538.193	494.434	-0.119	0.273
-537.179	260.276	0.155	-0.268
-536.164	-2.933	0.129	-0.090
-535.150	-90.047	-0.110	-0.032
-534.135	20.756	-0.332	0.268
-533.121	726.826	-0.070	-0.187
-532.106	-200.000	-0.021	0.140
-531.091	-76.209	0.137	0.048
-530.077	800.000	-0.071	-0.200
-529.062	-111.129	0.177	0.036
-528.048	-154.722	-0.142	0.009
-527.033	36.452	0.236	0.207
-526.018	169.169	0.243	0.345
-525.004	66.572	0.282	-0.286
-523.989	-200.000	-0.019	-0.407
-522.975	-5.008	-0.248	-0.170
-521.960	-200.000	0.000	-0.003
-520.945	800.000	-0.053	-0.228
-519.931	-200.000	0.046	0.224
-518.916	231.051	-0.036	0.059
-517.902	-36.020	-0.356	0.192
-516.887	-200.000	0.001	0.225
-515.872	-85.038	-0.374	0.117
-514.858	203.283	0.156	-0.241
-513.843	-48.744	-0.335	0.160
-512.829	-200.000	-0.060	0.363
-511.814	-48.406	0.096	-0.046
-510.799	-113.562	-0.150	-0.029
-509.785	-65.330	0.256	0.103
-508.770	-86.589	-0.097	-0.030
-507.756	-16.398	0.148	-0.094
-506.741	240.855	-0.294	-0.490
-505.726	-200.000	0.018	0.103
-504.712	-200.000	0.002	0.067
-503.697	-105.932	-0.062	0.014
-502.683	-5.940	0.364	0.248
-501.668	800.000	0.011	0.041
-500.653	140.395	0.185	0.243
-499.639	-122.964	0.512	0.082
-498.624	-137.042	-0.337	0.038
-497.610	322.975	0.038	0.072
-496.595	56.831	0.204	0.198
-495.581	-37.242	0.412	-0.220
-494.566	800.000	0.040	-0.125
-493.551	800.000	0.012	0.035
-492.537	28.898	0.208	-0.176
-491.522	-99.913	0.092	-0.023
-490.508	-200.000	-0.044	-0.294
-489.493	-14.516	-0.224	-0.144
-488.478	-198.648	-0.080	-0.000
-487.464	536.797	0.087	0.205
-486.449	-107.388	0.145	-0.032
-485.435	287.200	-0.076	-0.137
-484.420	157.247	0.073	0.101
-483.405	-200.000	0.003	-0.123
-482.391	143.937	-0.026	-0.034
-481.376	-193.240	0.567	0.005
-480.362	-37.977	-0.106	-0.056
-479.347	192.678	-0.179	0.269
-478.332	29.848	0.096	-0.082
-477.318	-35.955	0.158	0.085
-476.303	-94.847	0.274	-0.074
-475.289	488.009	0.034	0.077
-474.274	437.830	0.078	0.170
-473.259	-30.087	-0.458	-0.259
-472.245	-62.510	0.157	0.065
-471.230	-17.384	-0.306	0.192
-470.216	-13.669	-0.345	0.223
-469.201	-57.523	0.524	0.229
-468.186	-157.008	0.246	-0.015
-467.172	20.418	0.231	0.186
-466.157	-21.361	0.236	0.144
-465.143	-200.000	0.009	-0.173
-464.128	-81.821	-0.198	-0.065
-463.113	800.000	-0.058	-0.164
-462.099	-22.374	0.089	0.054
-461.084	-42.528	-0.134	0.068
-460.070	108.702	-0.365	0.434
-459.055	800.000	0.010	-0.045
-458.040	-49.491	-0.276	0.131
-457.026	-125.057	-0.365	-0.056
-456.011	39.058	0.179	-0.159
-454.997	23.445	-0.207	-0.169
-453.982	-70.831	-0.215	-0.081
-452.968	114.199	-0.197	-0.239
-451.953	227.358	-0.283	0.458
-450.938	-66.655	-0.128	-0.051
-449.924	119.310	-0.200	-0.246
-448.909	-200.000	0.061	0.347
-447.895	181.426	0.113	-0.165
-446.880	152.854	0.081	-0.110
-445.865	-7.101	-0.067	0.045
-444.851	6.091	0.188	-0.139
-443.836	-200.000	-0.018	0.102
-442.822	-107.376	-0.252	0.055
-441.807	163.349	-0.235	0.329
-440.792	-200.000	0.063	0.359
-439.778	-200.000	-0.038	-0.316
-438.763	-200.000	0.001	0.059
-437.749	85.158	0.022	0.024
-436.734	-39.808	-0.289	-0.150
-435.719	-82.687	0.118	-0.038
-434.705	60.302	-0.178	-0.175
-433.690	529.468	0.080	-0.187
-432.676	154.843	0.028	-0.039
-431.661	-179.510	-0.341	-0.007
-430.646	81.779	0.236	0.254
-429.632	-200.000	0.009	0.052
-428.617	261.733	-0.078	0.135
-427.603	-200.000	0.008	0.192
-426.588	800.000	-0.047	-0.143
-425.573	174.838	0.091	-0.131
-424.559	152.188	-0.218	0.296
-423.544	47.805	0.038	0.035
-422.530	-200.000	-0.023	-0.203
-421.515	382.903	-0.130	-0.266
-420.500	-134.738	-0.348	0.042
-419.486	-101.397	0.125	-0.030
-418.471	-53.953	-0.416	-0.188
-417.457	-101.589	-0.336	0.081
-416.442	-87.831	-0.148	0.044
-415.428	-200.000	-0.015	0.096
-414.413	678.794	0.044	-0.113
-413.398	800.000	0.030	0.083
-412.384	-78.383	-0.193	0.066
-411.369	46.139	0.020	0.018
-410.355	52.961	0.250	0.238
-409.340	73.973	-0.119	0.124
-408.325	-145.448	-0.220	0.020
-407.311	-113.565	0.044	0.008
-406.296	79.872	0.257	0.274
-405.282	-78.060	0.210	-0.072
-404.267	800.000	-0.067	-0.272
-403.252	185.631	0.369	-0.544
-402.238	-52.096	-0.389	0.179
-401.223	-200.000	-0.009	-0.222
-400.209	116.001	-0.471	-0.572
-399.194	31.677	0.252	-0.216
-398.179	-200.000	0.002	0.098
-397.165	-200.000	-0.006	-0.398
-396.150	-200.000	0.022	-0.278
-395.136	28.552	-0.204	-0.171
-394.121	-1.907	-0.060	0.042
-393.106	115.533	0.151	-0.184
-392.092	604.512	0.076	-0.189
-391.077	-39.468	-0.467	0.243
-390.063	800.000	-0.077	-0.299
-389.048	-29.868	0.449	0.254
-388.033	538.272	0.035	0.082
-387.019	800.000	-0.134	-0.376
-386.004	27.482	-0.283	-0.236
-384.990	240.065	0.141	-0.233
-383.975	433.351	-0.089	0.191
-382.960	413.502	-0.100	0.210
-381.946	67.098	0.024	-0.025
-380.931	-71.785	-0.164	-0.061
-379.917	405.732	-0.101	0.211
-378.902	82.303	-0.054	-0.058
-377.888	-24.466	0.233	-0.138
-376.873	-18.634	-0.258	0.159
-375.858	396.945	0.093	-0.192
-374.844	-106.735	-0.172	-0.038
-373.829	-137.539	0.158	-0.018
-372.815	128.870	0.156	-0.197
-371.800	-127.795	-0.147	-0.021
-370.785	-89.034	0.121	0.035
-369.771	36.714	0.212	0.185
-368.756	9.836	0.087	0.065
-367.742	-200.000	-0.001	-0.424
-366.727	398.578	-0.097	-0.201
-365.712	-200.000	0.058	-0.430
-364.698	8.243	-0.151	0.112
-363.683	435.866	-0.069	-0.148
-362.669	264.683	0.271	0.468
-361.654	800.000	0.091	0.380
-360.639	149.916	0.013	-0.018
-359.625	-86.209	0.295	-0.090
-358.610	-46.207	-0.244	-0.119
-357.596	-148.910	-0.138	0.011
-356.581	-13.130	-0.116	-0.074
-355.566	211.133	0.095	-0.148
-354.552	-138.070	-0.159	0.017
-353.537	-131.006	0.255	0.034
-352.523	-200.000	-0.013	0.106
-351.508	-200.000	0.006	-0.156
-350.493	-106.304	0.120	-0.027
-349.479	800.000	0.063	0.204
-348.464	-116.900	0.251	-0.046
-347.450	-1.604	0.299	0.209
-346.435	276.939	0.184	0.325
-345.420	288.588	-0.127	-0.228
-344.406	137.623	-0.116	0.151
-343.391	-23.889	-0.266	0.158
-342.377	800.000	0.076	0.309
-341.362	-200.000	-0.023	0.139
-340.348	346.531	0.075	0.146
-339.333	-46.803	0.224	0.108
-338.318	-163.144	-0.174	-0.008
-337.304	-17.672	0.116	0.072
-336.289	-71.701	0.177	0.065
-335.275	33.983	0.318	-0.274
-334.260	-200.000	-0.005	0.186
-333.245	60.698	-0.110	-0.108
-332.231	-77.080	0.283	0.098
-331.216	79.957	-0.264	-0.281
-330.202	-49.859	0.103	0.048
-329.187	19.244	-0.251	0.200
-328.172	-128.377	-0.192	-0.027
-327.158	-67.431	0.363	-0.141
-326.143	653.225	0.026	0.065
-325.129	800.000	0.080	-0.243
-324.114	-45.177	0.297	-0.146
-323.099	-120.525	-0.244	-0.041
-322.085	-91.750	0.272	0.077
-321.070	800.000	0.090	-0.249
-320.056	-111.566	0.203	-0.041
-319.041	-200.000	0.013	0.382
-318.026	-1.655	0.122	0.085
-317.012	206.358	-0.132	-0.204
-315.997	12.603	0.135	0.103
-314.983	-64.154	0.204	0.082
-313.968	-72.105	0.360	0.132
-312.953	-200.000	0.024	-0.151
-311.939	800.000	-0.052	0.145
-310.924	15.228	0.266	0.207
-309.910	198.619	-0.146	0.222
-308.895	800.000	-0.098	0.318
-307.880	-149.259	0.131	-0.010
-306.866	-200.000	-0.023	-0.243
-305.851	1.843	0.219	0.156
-304.837	800.000	0.044	-0.123
-303.822	-4.550	0.165	0.113
-302.807	-200.000	0.053	0.346
-301.793	350.797	0.092	0.179
-300.778	-200.000	-0.017	0.000
-299.764	-200.000	0.021	-0.257
-298.749	10.286	-0.384	0.289
-297.735	-173.228	-0.570	-0.017
-296.720	800.000	0.057	0.163
-295.705	20.739	0.147	0.118
-294.691	-31.269	0.248	-0.138
-293.676	225.831	0.058	0.093
-292.662	-200.000	-0.031	0.329
-291.647	236.267	0.160	-0.261
-290.632	56.696	-0.113	0.109
-289.618	192.563	0.130	0.194
-288.603	-200.000	0.004	0.130
-287.589	-200.000	-0.043	-0.234
-286.574	-62.035	-0.445	0.184
-285.559	-200.000	0.008	0.038
-284.545	-2.647	0.364	-0.252
-283.530	-136.055	0.092	0.011
-282.516	-2.631	-0.169	0.117
-281.501	-152.597	0.200	0.014
-280.486	-44.748	-0.271	-0.133
-279.472	-51.504	-0.193	-0.089
-278.457	746.272	-0.033	0.089
-277.443	-119.774	0.205	-0.035
-276.428	-110.907	0.054	0.011
-275.413	553.696	-0.027	0.064
-274.399	-37.637	-0.351	0.185
-273.384	67.455	0.097	0.098
-272.370	-200.000	-0.036	-0.295
-271.355	-20.201	0.168	0.102
-270.340	-200.000	0.072	0.313
-269.326	-113.968	-0.196	-0.038
-268.311	-200.000	-0.003	0.040
-267.297	-33.148	-0.009	0.005
-266.282	-200.000	-0.051	0.376
-265.267	35.172	-0.230	0.199
-264.253	-100.481	0.137	-0.033
-263.238	469.827	0.022	0.050
-262.224	800.000	0.086	0.284
-261.209	353.874	0.155	0.304
-260.195	-200.000	-0.021	-0.269
-259.180	-53.992	-0.281	-0.126
-258.165	-46.312	0.185	0.090
-257.151	138.942	0.114	-0.148
-256.136	-122.980	-0.285	-0.045
-255.122	-200.000	-0.007	-0.262
-254.107	-200.000	-0.008	0.208
-253.092	7.665	-0.193	-0.143
-252.078	74.695	0.119	-0.123
-251.063	145.005	0.181	-0.240
-250.049	-72.177	-0.044	-0.016
-249.034	800.000	0.028	0.113
-248.019	643.616	0.052	-0.131
-247.005	67.354	-0.077	0.077
-245.990	-16.805	0.164	0.102
-244.976	98.593	0.160	-0.182
-243.961	35.257	0.243	0.210
-242.946	-21.134	-0.167	0.101
-241.932	800.000	-0.073	0.241
-240.917	-200.000	0.025	-0.140
-239.903	-200.000	0.047	0.228
-238.888	-175.453	0.248	-0.007
-237.873	-10.426	-0.169	0.111
-236.859	504.641	0.134	-0.306
-235.844	-82.940	-0.133	0.042
-234.830	-172.662	-0.091	-0.003
-233.815	-136.547	0.160	0.018
-232.800	529.804	0.047	0.109
-231.786	-145.446	0.039	-0.003
-230.771	-177.355	-0.213	-0.005
-229.757	321.274	-0.064	0.120
-228.742	-42.380	-0.508	0.256
-227.727	323.844	0.036	0.068
-226.713	-44.358	0.151	0.075
-225.698	-200.000	-0.055	0.322
-224.684	-200.000	0.003	0.242
-223.669	9.366	-0.152	-0.114
-222.655	-10.987	0.087	0.057
-221.640	-200.000	-0.026	-0.125
-220.625	-200.000	0.011	0.098
-219.611	123.835	0.072	-0.089
-218.596	257.713	-0.121	0.205
-217.582	-135.819	0.331	0.038
-216.567	-160.280	-0.624	0.033
-215.552	-48.369	0.209	-0.099
-214.538	-58.364	-0.126	0.054
-213.523	330.353	0.095	0.181
-212.509	219.826	0.115	0.182
-211.494	147.169	-0.227	0.301
-210.479	-200.000	0.063	-0.297
-209.465	800.000	0.036	0.107
-208.450	800.000	-0.022	0.073
-207.436	-137.557	-0.310	0.034
-206.421	108.619	-0.098	0.115
-205.406	-56.108	0.375	-0.165
-204.392	-200.000	0.023	-0.430
-203.377	351.276	0.109	0.212
-202.363	-1.864	-0.239	0.166
-201.348	-200.000	0.000	0.034
-200.333	-78.622	0.110	0.037
-199.319	308.737	0.087	-0.159
-198.304	38.809	0.042	-0.037
-197.290	315.019	0.093	-0.172
-196.275	114.335	0.131	0.157
-195.260	-42.685	-0.330	0.165
-194.246	115.517	-0.216	-0.260
-193.231	202.167	-0.129	0.196
-192.217	-72.115	-0.071	0.026
-191.202	89.309	0.076	-0.083
-190.187	131.022	0.151	-0.191
-189.173	66.421	0.223	-0.223
-188.158	234.964	-0.116	0.189
-187.144	-12.345	-0.126	0.081
-186.129	-58.559	0.303	-0.129
-185.114	-200.000	-0.006	0.176
-184.100	8.145	0.168	0.124
-183.085	221.214	-0.132	-0.209
-182.071	-200.000	0.094	0.458
-181.056	-9.336	-0.124	-0.082
-180.042	-74.158	0.066	-0.023
-179.027	7.351	-0.146	-0.107
-178.012	-25.787	0.176	-0.102
-176.998	32.757	0.088	0.075
-175.983	800.000	-0.129	0.376
-174.969	211.067	0.190	-0.293
-173.954	800.000	-0.039	-0.107
-172.939	175.832	0.140	-0.200
-171.925	-200.000	0.008	-0.575
-170.910	221.466	-0.054	-0.086
-169.896	-48.107	-0.337	0.160
-168.881	-70.558	0.219	0.081
-167.866	-151.452	-0.282	0.021
-166.852	800.000	0.054	-0.214
-165.837	107.065	0.065	-0.077
-164.823	800.000	-0.099	-0.276
-163.808	-200.000	0.023	0.117
-162.793	-200.000	0.023	0.231
-161.779	800.000	0.036	0.105
-160.764	-7.698	-0.097	0.065
-159.750	-79.552	0.214	-0.071
-158.735	11.592	0.175	0.132
-157.720	175.998	-0.114	0.162
-156.706	-149.685	-0.252	-0.019
-155.691	389.729	0.093	0.190
-154.677	527.228	0.044	0.103
-153.662	18.252	0.292	-0.229
-152.647	100.974	0.076	0.087
-151.633	-130.455	0.241	0.032
-150.618	76.085	0.195	0.203
-149.604	-54.554	0.088	-0.039
-148.589	401.621	0.113	0.233
-147.574	473.156	0.123	0.273
-146.560	-200.000	-0.054	-0.266
-145.545	-200.000	-0.021	0.110
-144.531	-48.614	0.142	-0.067
-143.516	140.999	0.220	-0.286
-142.502	-200.000	0.004	-0.252
-141.487	-73.844	-0.047	-0.017
-140.472	253.027	-0.112	0.188
-139.458	-157.335	-0.270	-0.016
-138.443	-200.000	0.066	0.292
-137.429	800.000	-0.034	-0.141
-136.414	467.532	-0.047	-0.104
-135.399	8.968	0.167	-0.124
-134.385	645.663	0.147	-0.368
-133.370	448.117	0.024	0.051
-132.356	224.285	-0.085	-0.135
-131.341	-200.000	0.005	-0.031
-130.326	-98.585	-0.262	0.066
-129.312	-200.000	0.018	0.082
-128.297	-59.222	-0.123	-0.052
-127.283	-200.000	-0.011	-0.245
-126.268	71.292	0.132	-0.134
-125.253	4.988	-0.165	0.119
-124.239	-200.000	-0.038	-0.175
-123.224	800.000	0.070	0.217
-122.210	17.507	0.240	-0.188
-121.195	-200.000	-0.037	0.202
-120.180	-92.430	0.177	0.049
