DTS Sentinel unit serial number:	SN413079Multiplexer serial number:	ORYXHardware model number:	OX4-SRSoftware version number:	ORYX F/W v4.00 Oryx Data Collector v3.7.2.0data status	okinstallation	princeton_trtdifferential loss correction	single-endedforward channel	channel 3reverse channel	N/Adate	2019/09/13time	22:28:34forward acquisition time	60.00reverse acquisition time	0.00gamma	496.2192k internal	0.2335k external	0.2335temperature offset calibration	1.0061default loss term (dB/km)	0.3790temperature slope calibration	1.0000multiplexer offset coefficient	1.0000multiplexer slope coefficient	1.0000fibre end	0.00T internal ref (°C)	27.80T ext. ref 1 (°C)	3.24T ext. ref 2 (°C)	22.23length (m)	temperature (°C)	Stokes	anti-Stokes-747.200	-81.125	0.169	0.056
-746.185	393.172	0.064	-0.134
-745.171	800.000	0.080	0.247
-744.156	299.995	-0.098	0.182
-743.142	14.120	-0.226	0.177
-742.127	-59.418	0.228	0.099
-741.112	-87.418	0.462	0.141
-740.098	-53.469	-0.142	-0.065
-739.083	282.815	-0.100	0.180
-738.069	37.846	-0.155	0.138
-737.054	-35.321	0.416	0.227
-736.039	-200.000	0.005	-0.234
-735.025	800.000	0.035	-0.121
-734.010	-126.997	-0.226	-0.033
-732.996	-49.664	-0.344	0.164
-731.981	-188.884	0.321	-0.004
-730.966	-98.000	-0.185	-0.048
-729.952	-184.935	-0.340	-0.005
-728.937	174.801	-0.192	-0.279
-727.923	290.885	-0.022	0.040
-726.908	-137.233	0.099	0.011
-725.894	-56.403	-0.360	-0.161
-724.879	98.796	-0.075	-0.086
-723.864	15.692	-0.026	-0.020
-722.850	23.089	0.128	-0.106
-721.835	82.438	-0.182	-0.198
-720.821	26.055	-0.324	-0.271
-719.806	300.575	0.076	-0.141
-718.791	97.581	-0.109	0.126
-717.777	29.430	-0.154	-0.131
-716.762	746.784	-0.050	-0.135
-715.748	372.057	-0.185	0.377
-714.733	-110.289	-0.135	0.028
-713.718	-75.809	-0.459	-0.163
-712.704	-156.932	0.196	-0.012
-711.689	-108.167	-0.318	0.069
-710.675	-156.787	0.266	0.016
-709.660	800.000	-0.054	-0.155
-708.645	224.112	0.195	-0.315
-707.631	-49.170	-0.397	0.191
-706.616	-89.078	0.331	-0.098
-705.602	800.000	-0.011	-0.036
-704.587	706.179	0.043	-0.113
-703.572	-17.226	0.170	0.107
-702.558	112.274	0.421	0.510
-701.543	27.485	-0.341	0.288
-700.529	22.906	-0.177	-0.145
-699.514	-200.000	0.031	-0.274
-698.499	76.020	0.032	0.034
-697.485	-65.445	0.157	0.063
-696.470	-37.655	-0.336	-0.179
-695.456	-82.592	-0.306	-0.099
-694.441	197.198	-0.102	0.157
-693.426	-126.193	0.137	-0.021
-692.412	687.545	0.084	-0.220
-691.397	-91.050	0.148	-0.043
-690.383	9.108	0.193	-0.146
-689.368	286.279	-0.198	0.358
-688.354	422.731	-0.028	-0.059
-687.339	-200.000	0.081	-0.391
-686.324	-200.000	-0.048	0.311
-685.310	185.029	-0.263	-0.391
-684.295	14.706	-0.174	-0.136
-683.281	761.707	-0.105	-0.287
-682.266	304.413	-0.011	0.021
-681.251	103.588	0.083	-0.097
-680.237	-200.000	0.109	-0.540
-679.222	-1.165	0.065	0.046
-678.208	366.262	-0.038	0.077
-677.193	7.109	0.209	-0.156
-676.178	-81.784	-0.149	-0.049
-675.164	17.917	0.133	0.106
-674.149	108.819	0.087	-0.104
-673.135	315.593	-0.083	0.157
-672.120	-200.000	-0.071	-0.356
-671.105	-147.178	0.103	-0.009
-670.091	308.901	0.033	0.061
-669.076	143.540	-0.267	0.356
-668.062	800.000	-0.048	0.179
-667.047	-158.167	-0.052	-0.003
-666.032	-112.969	0.317	-0.063
-665.018	-150.952	-0.183	-0.014
-664.003	643.727	0.060	-0.154
-662.989	-200.000	0.046	-0.247
-661.974	-100.399	-0.342	-0.085
-660.959	800.000	-0.033	-0.101
-659.945	150.628	0.139	0.189
-658.930	31.559	0.174	0.150
-657.916	188.799	-0.145	0.217
-656.901	800.000	0.041	0.131
-655.886	-130.417	-0.303	-0.041
-654.872	-78.254	0.320	-0.110
-653.857	370.457	-0.043	-0.088
-652.843	-200.000	-0.019	-0.333
-651.828	-126.973	-0.332	-0.049
-650.814	-103.126	-0.459	-0.109
-649.799	-171.981	0.278	0.009
-648.784	-83.051	0.213	0.069
-647.770	-96.369	0.195	0.052
-646.755	37.037	-0.172	-0.152
-645.741	-168.805	-0.188	0.007
-644.726	324.185	-0.135	-0.257
-643.711	63.780	-0.302	-0.304
-642.697	33.644	-0.100	-0.087
-641.682	21.996	0.096	-0.078
-640.668	492.503	-0.034	-0.077
-639.653	334.844	-0.080	-0.156
-638.638	415.639	-0.115	-0.245
-637.624	800.000	0.042	-0.131
-636.609	-89.802	0.056	-0.016
-635.595	800.000	-0.020	0.066
-634.580	25.163	-0.346	-0.287
-633.565	800.000	0.071	0.202
-632.551	96.295	0.280	0.320
-631.536	800.000	-0.048	-0.140
-630.522	53.716	0.166	0.160
-629.507	-71.451	-0.298	-0.112
-628.492	-6.216	-0.114	0.078
-627.478	-90.781	-0.336	-0.097
-626.463	5.083	-0.135	-0.100
-625.449	-66.151	-0.315	-0.126
-624.434	-14.080	-0.212	0.137
-623.419	123.650	-0.198	-0.248
-622.405	-200.000	0.013	0.152
-621.390	17.987	0.055	0.044
-620.376	-10.241	-0.198	0.131
-619.361	-86.777	-0.227	-0.069
-618.346	395.746	0.164	0.343
-617.332	-113.067	0.146	0.029
-616.317	-22.179	0.119	0.072
-615.303	-164.544	0.205	0.009
-614.288	-52.854	0.040	-0.018
-613.273	-60.902	0.562	-0.237
-612.259	503.735	-0.055	-0.126
-611.244	-125.776	-0.330	-0.050
-610.230	-78.265	0.395	0.135
-609.215	-86.339	-0.132	-0.040
-608.201	126.792	0.267	0.338
-607.186	-31.326	-0.142	0.080
-606.171	800.000	0.015	0.050
-605.157	-30.771	-0.283	-0.160
-604.142	-3.118	0.295	0.206
-603.128	18.793	-0.200	0.160
-602.113	-101.426	-0.108	0.026
-601.098	41.090	-0.313	-0.283
-600.084	-128.025	-0.095	-0.014
-599.069	-64.701	0.381	0.154
-598.055	-63.882	0.102	0.042
-597.040	-75.072	-0.061	0.022
-596.025	-125.517	0.189	0.029
-595.011	509.228	0.155	-0.360
-593.996	-146.401	-0.135	-0.012
-592.982	-200.000	0.076	-0.349
-591.967	42.559	0.183	-0.166
-590.952	-200.000	0.027	0.135
-589.938	136.449	-0.142	-0.185
-588.923	8.038	0.273	0.204
-587.909	432.742	0.096	0.208
-586.894	-0.240	0.383	0.272
-585.879	518.918	0.159	-0.372
-584.865	-63.595	-0.155	-0.063
-583.850	85.930	-0.176	0.193
-582.836	800.000	0.006	-0.018
-581.821	-200.000	-0.015	0.095
-580.806	260.412	-0.039	0.067
-579.792	141.102	-0.183	-0.241
-578.777	61.433	-0.106	0.105
-577.763	14.023	0.084	-0.065
-576.748	110.612	0.228	0.274
-575.733	64.463	-0.179	0.180
-574.719	-200.000	0.037	0.182
-573.704	-200.000	-0.005	-0.105
-572.690	-200.000	-0.010	0.105
-571.675	-55.399	-0.314	0.141
-570.661	-63.667	-0.300	-0.123
-569.646	625.802	0.099	-0.249
-568.631	-200.000	-0.005	-0.142
-567.617	-200.000	0.004	-0.170
-566.602	138.228	0.158	0.207
-565.588	-200.000	0.002	-0.193
-564.573	188.542	-0.216	0.322
-563.558	-32.843	-0.193	0.107
-562.544	-200.000	-0.062	-0.297
-561.529	298.192	-0.097	-0.179
-560.515	-200.000	-0.021	0.234
-559.500	-200.000	0.076	-0.346
-558.485	-200.000	0.085	-0.512
-557.471	-200.000	-0.127	-0.000
-556.456	597.387	-0.047	-0.116
-555.442	-47.198	0.378	-0.184
-554.427	176.444	-0.251	-0.364
-553.412	-134.191	-0.351	0.043
-552.398	656.043	0.139	0.356
-551.383	-56.528	0.133	0.059
-550.369	-161.608	0.102	-0.005
-549.354	-200.000	-0.014	-0.108
-548.339	157.570	-0.157	-0.217
-547.325	-200.000	-0.031	-0.193
-546.310	18.074	-0.079	-0.063
-545.296	-17.554	0.152	-0.096
-544.281	30.619	-0.210	-0.179
-543.266	-200.000	0.042	-0.228
-542.252	800.000	0.042	0.130
-541.237	-73.633	0.225	0.082
-540.223	-52.750	-0.301	-0.138
-539.208	271.440	0.102	0.180
-538.193	4.029	-0.134	-0.098
-537.179	144.063	-0.130	-0.173
-536.164	-166.752	0.245	0.010
-535.150	-17.832	0.260	-0.162
-534.135	-200.000	-0.001	0.203
-533.121	-77.310	0.259	0.090
-532.106	471.706	0.119	-0.266
-531.091	200.825	-0.054	-0.082
-530.077	8.763	0.120	0.090
-529.062	800.000	0.100	-0.316
-528.048	-5.005	-0.096	0.066
-527.033	-200.000	-0.058	0.282
-526.018	-19.457	-0.279	0.172
-525.004	217.596	0.312	-0.496
-523.989	175.167	0.136	0.196
-522.975	28.244	0.179	0.150
-521.960	-37.602	0.162	0.086
-520.945	-84.622	-0.134	0.042
-519.931	-200.000	-0.016	0.094
-518.916	161.792	0.244	-0.340
-517.902	681.304	0.096	0.248
-516.887	-71.400	-0.222	-0.083
-515.872	-200.000	-0.024	0.279
-514.858	-78.416	0.161	0.055
-513.843	-138.403	0.161	0.018
-512.829	-167.225	0.208	0.008
-511.814	-200.000	-0.040	0.187
-510.799	257.877	-0.145	-0.249
-509.785	-81.653	-0.306	0.100
-508.770	-85.830	-0.244	0.075
-507.756	-142.250	-0.059	0.006
-506.741	32.632	-0.228	0.196
-505.726	-73.968	-0.203	-0.073
-504.712	132.302	-0.103	0.133
-503.697	-110.714	0.241	-0.050
-502.683	-75.361	0.344	-0.122
-501.668	195.186	0.071	0.108
-500.653	69.203	-0.118	-0.121
-499.639	31.538	-0.232	-0.198
-498.624	-200.000	-0.013	-0.085
-497.610	-58.324	-0.406	0.176
-496.595	45.884	0.089	-0.082
-495.581	185.805	0.122	0.180
-494.566	-3.751	0.224	-0.155
-493.551	-67.504	-0.117	-0.046
-492.537	-131.248	0.079	-0.010
-491.522	442.903	0.032	-0.070
-490.508	49.039	0.069	0.064
-489.493	-183.857	-0.114	0.002
-488.478	-92.376	-0.022	-0.006
-487.464	-136.648	-0.333	-0.038
-486.449	-200.000	0.070	-0.381
-485.435	-110.892	-0.021	0.004
-484.420	-200.000	0.029	0.211
-483.405	-191.353	-0.500	-0.005
-482.391	-144.956	-0.064	-0.006
-481.376	673.069	0.098	0.252
-480.362	-25.535	-0.240	0.141
-479.347	-200.000	0.007	0.223
-478.332	33.842	0.053	0.046
-477.318	-120.731	0.285	-0.048
-476.303	-83.086	-0.093	0.030
-475.289	68.529	-0.090	-0.092
-474.274	57.819	0.166	-0.161
-473.259	-200.000	-0.027	0.149
-472.245	-200.000	-0.004	-0.333
-471.230	800.000	0.055	-0.195
-470.216	293.834	-0.120	0.218
-469.201	-86.492	0.094	0.029
-468.186	429.694	-0.096	-0.206
-467.172	-101.778	0.378	-0.091
-466.157	800.000	-0.075	0.221
-465.143	-49.535	0.337	-0.160
-464.128	218.580	-0.116	-0.184
-463.113	-118.988	-0.467	0.081
-462.099	-178.043	0.348	-0.008
-461.084	163.262	0.100	-0.140
-460.070	304.551	-0.153	0.282
-459.055	52.190	-0.191	-0.181
-458.040	800.000	0.016	-0.066
-457.026	59.785	-0.230	-0.225
-456.011	285.630	-0.127	-0.228
-454.997	-102.431	0.131	0.031
-453.982	353.290	-0.133	0.262
-452.968	26.772	0.166	-0.138
-451.953	-34.772	-0.118	-0.064
-450.938	-192.655	0.112	0.001
-449.924	-200.000	0.073	0.562
-448.909	800.000	-0.033	-0.101
-447.895	-200.000	0.000	0.280
-446.880	253.603	-0.113	0.192
-445.865	-33.829	0.180	0.098
-444.851	17.747	0.294	0.233
-443.836	559.110	0.116	0.279
-442.822	181.821	0.009	-0.014
-441.807	193.800	0.156	-0.234
-440.792	-200.000	0.051	-0.507
-439.778	201.754	-0.140	-0.214
-438.763	-172.990	0.107	-0.003
-437.749	-54.865	0.072	-0.032
-436.734	9.249	-0.187	0.141
-435.719	255.983	-0.113	0.192
-434.705	47.377	-0.085	0.079
-433.690	33.817	-0.173	0.149
-432.676	-119.719	0.213	0.036
-431.661	-59.913	0.164	0.070
-430.646	-101.473	0.111	-0.027
-429.632	-15.442	-0.146	-0.092
-428.617	242.894	-0.136	0.227
-427.603	-9.169	-0.244	-0.162
-426.588	144.826	-0.049	-0.065
-425.573	-200.000	0.047	0.250
-424.559	674.167	-0.019	0.049
-423.544	397.620	0.082	-0.170
-422.530	16.477	0.061	0.048
-421.515	-91.036	0.100	-0.029
-420.500	23.519	0.142	0.116
-419.486	191.899	0.287	-0.429
-418.471	31.615	0.290	0.248
-417.457	-106.548	-0.316	-0.070
-416.442	-91.356	0.222	-0.063
-415.428	-97.847	0.238	0.061
-414.413	800.000	-0.029	-0.117
-413.398	286.796	-0.025	-0.045
-412.384	-70.829	-0.375	-0.140
-411.369	405.944	-0.169	0.353
-410.355	149.861	0.150	0.201
-409.340	101.014	-0.011	0.013
-408.325	-194.378	-0.389	0.003
-407.311	-53.972	-0.064	0.029
-406.296	625.886	-0.092	-0.230
-405.282	-9.325	-0.332	0.220
-404.267	-42.550	-0.176	-0.089
-403.252	-187.248	-0.293	0.004
-402.238	-71.361	0.244	0.091
-401.223	-20.472	-0.115	0.070
-400.209	110.207	0.204	0.242
-399.194	-83.817	-0.147	0.047
-398.179	-110.636	0.407	0.083
-397.165	-43.171	0.117	0.059
-396.150	-142.004	0.221	-0.022
-395.136	15.310	-0.287	-0.223
-394.121	202.923	-0.045	0.069
-393.106	385.928	0.093	0.191
-392.092	747.876	-0.003	0.008
-391.077	-133.906	0.363	-0.045
-390.063	-200.000	0.051	-0.226
-389.048	175.271	-0.132	0.190
-388.033	-200.000	-0.048	-0.210
-387.019	285.599	0.167	0.298
-386.004	89.585	0.153	0.169
-384.990	231.139	0.053	0.085
-383.975	-200.000	-0.006	-0.028
-382.960	548.822	0.103	0.245
-381.946	-200.000	-0.026	0.116
-380.931	-134.220	-0.151	-0.018
-379.917	-12.405	-0.204	0.132
-378.902	-11.529	-0.238	0.155
-377.888	76.718	-0.117	-0.123
-376.873	-129.225	-0.152	0.021
-375.858	800.000	-0.029	-0.106
-374.844	85.787	0.159	0.174
-373.829	-200.000	-0.075	-0.416
-372.815	800.000	-0.019	-0.070
-371.800	377.554	0.092	0.186
-370.785	184.766	0.114	-0.168
-369.771	166.723	0.143	-0.201
-368.756	-200.000	0.080	-0.354
-367.742	-200.000	0.029	-0.174
-366.727	376.902	-0.138	0.278
-365.712	633.869	-0.106	-0.267
-364.698	-200.000	0.038	-0.279
-363.683	-200.000	0.022	0.159
-362.669	1.619	0.415	-0.295
-361.654	-200.000	-0.001	0.095
-360.639	-38.173	-0.180	-0.094
-359.625	-145.767	-0.140	-0.012
-358.610	316.353	0.061	-0.114
-357.596	-19.203	-0.292	-0.180
-356.581	219.120	-0.249	-0.393
-355.566	9.241	-0.148	0.111
-354.552	119.297	0.238	-0.291
-353.537	-112.486	-0.152	0.030
-352.523	800.000	0.009	0.030
-351.508	-141.304	0.280	0.028
-350.493	800.000	0.030	-0.120
-349.479	-52.423	-0.201	0.092
-348.464	-121.937	-0.175	0.028
-347.450	-200.000	0.055	-0.284
-346.435	-200.000	0.002	-0.166
-345.420	-72.560	0.421	0.154
-344.406	-167.810	-0.142	-0.006
-343.391	-118.162	-0.103	-0.018
-342.377	-77.527	-0.281	-0.096
-341.362	-56.292	0.215	-0.095
-340.348	264.348	-0.093	-0.159
-339.333	16.843	0.230	0.180
-338.318	182.092	0.165	-0.240
-337.304	-160.050	-0.262	-0.014
-336.289	-79.180	0.224	0.075
-335.275	-0.961	0.197	-0.138
-334.260	-102.766	-0.156	0.037
-333.245	-57.982	0.130	0.056
-332.231	-200.000	0.008	0.211
-331.216	293.560	-0.197	0.355
-330.202	-200.000	-0.027	-0.178
-329.187	11.050	0.188	-0.142
-328.172	306.823	0.019	-0.034
-327.158	-122.966	-0.377	-0.060
-326.143	-148.248	-0.303	-0.025
-325.129	-96.792	0.075	-0.019
-324.114	-116.912	0.369	0.067
-323.099	547.309	-0.130	0.307
-322.085	295.190	-0.031	0.056
-321.070	-184.772	0.020	-0.000
-320.056	177.024	-0.151	-0.217
-319.041	-38.771	-0.179	-0.093
-318.026	800.000	-0.181	-0.570
-317.012	-200.000	-0.041	0.272
-315.997	420.945	-0.169	0.358
-314.983	89.644	0.105	-0.116
-313.968	-92.593	0.052	0.014
-312.953	-91.250	0.205	0.058
-311.939	212.819	-0.084	0.131
-310.924	800.000	0.068	0.239
-309.910	-75.460	0.355	0.125
-308.895	-72.047	0.149	0.055
-307.880	-65.548	0.298	0.118
-306.866	-31.304	0.102	0.057
-305.851	48.503	-0.203	-0.188
-304.837	-20.572	0.110	0.067
-303.822	-107.711	0.214	0.046
-302.807	106.434	0.134	0.157
-301.793	800.000	0.057	0.206
-300.778	-173.556	-0.295	0.009
-299.764	-200.000	0.001	0.388
-298.749	-200.000	0.036	0.325
-297.735	-200.000	0.056	0.261
-296.720	315.087	0.152	-0.284
-295.705	-98.411	-0.197	0.050
-294.691	-88.466	-0.292	-0.086
-293.676	-165.500	-0.136	-0.006
-292.662	-25.196	0.169	0.099
-291.647	329.303	-0.042	-0.080
-290.632	33.974	0.179	0.154
-289.618	-200.000	-0.037	0.229
-288.603	-38.505	0.125	-0.065
-287.589	0.090	0.079	-0.056
-286.574	114.151	-0.120	-0.144
-285.559	-200.000	-0.022	-0.098
-284.545	-200.000	0.051	-0.252
-283.530	247.546	0.242	0.404
-282.516	-112.402	0.275	0.054
-281.501	-66.673	0.137	0.054
-280.486	-42.341	-0.080	-0.040
-279.472	-86.569	0.183	0.055
-278.457	221.827	-0.189	0.299
-277.443	65.566	-0.164	-0.164
-276.428	-200.000	0.011	-0.085
-275.413	-200.000	-0.015	-0.214
-274.399	-200.000	0.017	-0.194
-273.384	-115.712	-0.088	-0.016
-272.370	800.000	-0.057	-0.168
-271.355	800.000	-0.009	-0.027
-270.340	-200.000	-0.000	0.090
-269.326	350.735	0.045	-0.087
-268.311	-104.760	0.511	-0.116
-267.297	-121.969	-0.212	-0.034
-266.282	106.597	0.200	-0.234
-265.267	151.817	-0.215	-0.289
-264.253	-62.960	-0.239	-0.097
-263.238	-78.511	0.227	-0.077
-262.224	-138.615	-0.078	-0.008
-261.209	77.349	-0.084	-0.088
-260.195	-93.916	0.134	0.036
-259.180	-109.834	0.325	0.067
-258.165	33.304	-0.272	0.233
-257.151	-200.000	-0.007	0.236
-256.136	237.160	-0.122	0.199
-255.122	17.129	-0.202	-0.158
-254.107	-119.008	0.218	0.038
-253.092	175.231	0.226	0.322
-252.078	68.762	0.301	0.304
-251.063	-89.706	0.229	-0.066
-250.049	-200.000	0.068	0.391
-249.034	800.000	0.049	0.186
-248.019	-2.671	-0.370	-0.255
-247.005	800.000	-0.155	0.421
-245.990	107.849	-0.252	0.295
-244.976	-200.000	-0.115	0.540
-243.961	424.965	0.172	-0.365
-242.946	-200.000	-0.012	0.359
-241.932	126.571	0.094	-0.117
-240.917	-200.000	-0.018	-0.080
-239.903	-149.834	0.292	-0.023
-238.888	114.294	0.254	-0.305
-237.873	493.600	0.066	-0.148
-236.859	-200.000	-0.198	-0.001
-235.844	-125.689	0.206	-0.031
-234.830	-200.000	0.022	-0.306
-233.815	-200.000	0.009	0.209
-232.800	-37.296	0.139	0.073
-231.786	27.497	0.203	0.168
-230.771	-103.645	-0.234	-0.054
-229.757	763.705	0.102	0.272
-228.742	-64.309	0.205	-0.082
-227.727	800.000	-0.061	0.200
-226.713	-200.000	0.019	-0.101
-225.698	-171.479	-0.081	0.003
-224.684	-144.940	0.116	0.010
-223.669	151.223	-0.168	-0.225
-222.655	-118.283	0.249	0.044
-221.640	-7.802	-0.106	-0.070
-220.625	-200.000	-0.006	0.112
-219.611	-182.899	-0.261	-0.005
-218.596	-200.000	-0.015	-0.221
-217.582	134.966	0.107	0.136
-216.567	-159.818	0.265	0.014
-215.552	-92.952	-0.086	-0.024
-214.538	800.000	-0.067	0.237
-213.523	61.952	0.311	0.305
-212.509	-200.000	0.018	0.303
-211.494	-10.516	-0.238	-0.155
-210.479	-104.454	-0.161	-0.037
-209.465	800.000	0.047	0.192
-208.450	-48.159	-0.018	-0.009
-207.436	-61.217	0.284	-0.118
-206.421	-67.645	0.267	-0.103
-205.406	103.737	-0.105	0.121
-204.392	800.000	0.033	0.091
-203.377	-44.176	0.063	-0.031
-202.363	35.532	-0.096	-0.083
-201.348	130.956	0.162	-0.205
-200.333	-61.279	0.308	0.128
-199.319	-200.000	0.050	-0.350
-198.304	307.701	0.062	0.114
-197.290	-92.666	0.245	0.067
-196.275	800.000	0.086	0.255
-195.260	104.689	0.147	-0.171
-194.246	-20.679	-0.173	-0.105
-193.231	-200.000	0.068	-0.416
-192.217	-78.107	-0.510	-0.173
-191.202	-1.522	0.255	-0.177
-190.187	-64.193	-0.377	-0.151
-189.173	-1.612	-0.130	0.090
-188.158	36.520	0.123	-0.107
-187.144	524.312	-0.034	-0.079
-186.129	569.885	-0.022	-0.052
-185.114	-14.735	0.333	-0.210
-184.100	138.949	0.252	0.326
-183.085	-200.000	0.003	0.159
-182.071	340.745	-0.028	-0.053
-181.056	270.889	0.145	-0.252
-180.042	182.888	0.150	0.217
-179.027	527.350	-0.138	0.319
-178.012	-138.852	-0.181	-0.019
-176.998	-200.000	0.020	-0.491
-175.983	134.513	0.007	-0.009
-174.969	-56.529	-0.397	0.173
-173.954	417.949	-0.007	0.016
-172.939	193.330	-0.088	0.131
-171.925	-200.000	-0.018	-0.120
-170.910	592.109	-0.172	0.417
-169.896	150.451	-0.084	-0.112
-168.881	-191.441	0.106	-0.001
-167.866	-27.411	-0.081	-0.046
-166.852	79.348	0.163	-0.172
-165.837	-51.085	-0.315	0.145
-164.823	296.666	0.031	-0.055
-163.808	26.895	-0.135	0.111
-162.793	58.328	-0.173	-0.167
-161.779	-200.000	-0.027	0.207
-160.764	-97.834	-0.259	0.066
-159.750	549.343	0.113	0.267
-158.735	-200.000	0.030	0.187
-157.720	-67.546	0.034	-0.013
-156.706	36.299	-0.295	0.255
-155.691	-69.160	-0.228	0.086
-154.677	30.140	0.129	0.108
-153.662	30.461	-0.171	-0.143
-152.647	-161.686	-0.171	0.009
-151.633	-69.551	0.196	0.074
-150.618	800.000	-0.063	0.189
-149.604	-118.005	-0.415	-0.073
-148.589	-11.353	-0.202	0.130
-147.574	800.000	-0.039	0.126
-146.560	29.098	0.067	-0.056
-145.545	-200.000	-0.018	0.142
-144.531	800.000	-0.056	0.184
-143.516	-200.000	0.094	-0.700
-142.502	353.106	-0.060	-0.116
-141.487	350.898	-0.214	-0.416
-140.472	-102.057	-0.238	-0.056
-139.458	25.348	0.103	-0.084
-138.443	-84.922	-0.270	-0.083
-137.429	290.849	0.170	-0.304
-136.414	14.693	0.065	-0.050
-135.399	-150.408	-0.227	0.017
-134.385	-115.000	0.158	-0.030
-133.370	800.000	0.027	-0.114
-132.356	-200.000	-0.008	0.142
-131.341	-200.000	-0.007	-0.215
-130.326	-135.959	-0.347	0.040
-129.312	-200.000	-0.026	-0.261
-128.297	85.133	-0.141	-0.151
-127.283	-12.988	0.237	0.151
-126.268	-99.881	0.381	-0.093
-125.253	-200.000	-0.008	0.288
-124.239	114.313	-0.128	-0.153
-123.224	39.214	0.128	0.112
-122.210	75.434	0.173	-0.179
