DTS Sentinel unit serial number:	SN413079Multiplexer serial number:	ORYXHardware model number:	OX4-SRSoftware version number:	ORYX F/W v4.00 Oryx Data Collector v3.7.2.0data status	okinstallation	princeton_trtdifferential loss correction	single-endedforward channel	channel 3reverse channel	N/Adate	2019/09/12time	19:43:04forward acquisition time	15.00reverse acquisition time	0.00gamma	496.2192k internal	0.2322k external	0.2322temperature offset calibration	1.0126default loss term (dB/km)	0.3790temperature slope calibration	1.0000multiplexer offset coefficient	1.0000multiplexer slope coefficient	1.0000fibre end	0.00T internal ref (°C)	32.00T ext. ref 1 (°C)	3.48T ext. ref 2 (°C)	26.58length (m)	temperature (°C)	Stokes	anti-Stokes-747.200	88.786	-0.576	0.648
-746.185	800.000	0.221	-0.709
-745.171	-94.608	-1.061	-0.291
-744.156	-130.738	-0.521	0.071
-743.142	-42.843	0.434	0.223
-742.127	-60.519	-1.117	0.479
-741.112	120.631	-0.634	0.795
-740.098	2.587	0.672	0.492
-739.083	-34.210	-0.382	-0.212
-738.069	-200.000	-0.039	0.204
-737.054	-200.000	-0.020	0.218
-736.039	83.282	-0.218	-0.240
-735.025	-200.000	0.035	0.357
-734.010	260.283	0.393	-0.687
-732.996	641.278	0.038	0.098
-731.981	25.014	-0.246	0.206
-730.966	263.126	-0.344	0.604
-729.952	-97.149	0.310	0.082
-728.937	-54.009	-0.071	-0.032
-727.923	49.258	0.543	-0.516
-726.908	-96.780	0.298	-0.079
-725.894	-67.439	0.699	-0.277
-724.879	-80.370	-0.264	-0.089
-723.864	-133.642	0.340	0.043
-722.850	76.778	1.077	-1.153
-721.835	-18.789	-0.428	-0.269
-720.821	-106.646	0.925	-0.208
-719.806	305.639	0.439	-0.824
-718.791	-84.122	0.984	-0.315
-717.777	77.947	-0.230	0.248
-716.762	-81.695	-0.152	0.050
-715.748	-139.952	-0.760	-0.081
-714.733	-102.798	-0.501	-0.120
-713.718	-8.966	0.377	-0.255
-712.704	-200.000	-0.131	-0.723
-711.689	-200.000	0.151	0.784
-710.675	86.827	0.364	-0.405
-709.660	-95.884	-0.453	-0.122
-708.645	800.000	0.243	-0.746
-707.631	-144.665	0.160	-0.015
-706.616	428.280	0.360	-0.784
-705.602	800.000	0.136	0.455
-704.587	-29.425	0.131	-0.075
-703.572	-121.830	0.861	-0.143
-702.558	-193.767	0.084	0.001
-701.543	641.962	0.133	-0.341
-700.529	1.233	0.330	0.239
-699.514	800.000	0.114	-0.392
-698.499	-200.000	-0.079	-0.489
-697.485	-26.084	-0.501	-0.297
-696.470	15.595	0.120	-0.095
-695.456	-19.249	-0.476	0.298
-694.441	-108.415	0.290	-0.063
-693.426	132.427	-0.571	-0.742
-692.412	-91.296	0.228	-0.066
-691.397	-0.321	-0.931	-0.667
-690.383	-16.737	0.528	0.337
-689.368	97.715	0.113	0.131
-688.354	-120.393	0.469	-0.080
-687.339	180.279	0.294	-0.435
-686.324	-67.645	0.311	-0.123
-685.310	64.064	-0.124	-0.126
-684.295	392.427	0.125	-0.263
-683.281	800.000	0.452	-1.472
-682.266	-200.000	-0.025	0.171
-681.251	18.400	-0.568	0.457
-680.237	-111.794	-0.187	0.038
-679.222	322.673	-0.192	0.368
-678.208	-200.000	0.032	0.186
-677.193	-131.539	0.659	-0.087
-676.178	-200.000	-0.145	0.651
-675.164	-111.820	-0.561	-0.114
-674.149	-200.000	-0.124	-0.607
-673.135	-32.585	-0.703	0.394
-672.120	-61.356	-0.344	-0.146
-671.105	189.241	0.194	-0.293
-670.091	-200.000	0.040	-0.604
-669.076	-200.000	0.079	-0.577
-668.062	687.481	-0.165	-0.435
-667.047	800.000	-0.057	-0.167
-666.032	-200.000	0.135	0.629
-665.018	126.756	-1.170	1.492
-664.003	86.018	0.230	0.255
-662.989	800.000	0.079	0.300
-661.974	-200.000	0.017	-0.134
-660.959	800.000	-0.126	-0.362
-659.945	298.433	0.219	0.406
-658.930	82.002	-0.718	-0.783
-657.916	14.189	-0.203	-0.160
-656.901	357.139	0.121	-0.244
-655.886	-27.323	0.506	-0.296
-654.872	211.199	0.184	-0.291
-653.857	-41.752	0.423	-0.218
-652.843	150.565	0.121	0.165
-651.828	-147.751	0.765	-0.065
-650.814	82.379	0.700	-0.764
-649.799	51.742	0.388	-0.371
-648.784	-58.899	-0.630	0.274
-647.770	7.638	-0.698	0.526
-646.755	283.507	0.177	0.320
-645.741	-200.000	-0.751	-0.002
-644.726	-140.046	-0.567	0.060
-643.711	708.308	0.195	0.517
-642.697	-200.000	0.062	0.381
-641.682	800.000	0.026	-0.084
-640.668	-53.793	-0.843	0.387
-639.653	-200.000	0.021	0.166
-638.638	-200.000	0.001	0.368
-637.624	800.000	0.074	0.252
-636.609	-200.000	0.006	0.210
-635.595	118.862	0.247	0.307
-634.580	-43.908	-0.759	0.384
-633.565	181.627	0.460	0.680
-632.551	143.216	0.443	-0.593
-631.536	54.176	-0.435	0.421
-630.522	45.547	0.256	-0.238
-629.507	-55.736	-0.136	0.061
-628.492	117.475	-0.518	-0.640
-627.478	185.109	-0.135	-0.201
-626.463	-200.000	0.022	-0.277
-625.449	-113.467	-0.595	0.117
-624.434	110.688	-0.490	0.593
-623.419	-25.036	-0.649	-0.387
-622.405	-20.822	-0.610	0.376
-621.390	-200.000	0.117	0.756
-620.376	800.000	-0.192	-0.670
-619.361	-200.000	0.068	-0.907
-618.346	246.559	0.399	-0.677
-617.332	800.000	0.226	-0.771
-616.317	-56.599	0.180	-0.080
-615.303	-85.045	0.543	0.171
-614.288	55.089	-0.351	0.341
-613.273	-30.209	0.330	0.189
-612.259	-200.000	0.087	-0.748
-611.244	800.000	0.138	0.505
-610.230	-27.513	-0.401	-0.234
-609.215	322.484	-0.441	0.844
-608.201	594.630	-0.179	-0.445
-607.186	800.000	0.198	0.651
-606.171	-200.000	-0.013	-1.039
-605.157	-200.000	-0.174	-1.183
-604.142	-200.000	0.124	-0.730
-603.128	800.000	0.026	-0.075
-602.113	-97.686	-0.414	0.108
-601.098	132.373	-0.067	-0.087
-600.084	-26.123	0.388	-0.229
-599.069	-41.808	0.311	0.160
-598.055	132.838	0.495	-0.642
-597.040	-167.501	-0.816	0.033
-596.025	278.643	-0.387	-0.693
-595.011	-200.000	0.007	-0.138
-593.996	358.621	-0.298	0.599
-592.982	127.374	-0.237	-0.303
-591.967	-112.583	-0.213	-0.043
-590.952	-13.146	-0.492	0.321
-589.938	-5.420	0.535	0.369
-588.923	-80.183	-0.269	0.090
-587.909	39.164	0.456	0.410
-586.894	41.569	-0.807	0.734
-585.879	-13.963	-0.323	-0.210
-584.865	245.779	-0.573	-0.969
-583.850	0.637	-0.124	0.089
-582.836	-52.254	0.256	0.119
-581.821	-200.000	-0.032	0.288
-580.806	-169.406	-0.276	0.010
-579.792	-129.251	0.870	-0.122
-578.777	800.000	-0.250	-1.040
-577.763	-200.000	-0.060	-0.333
-576.748	162.310	-0.362	-0.509
-575.733	42.396	0.523	-0.477
-574.719	109.146	-0.248	0.298
-573.704	382.751	0.363	0.748
-572.690	-99.731	1.248	0.314
-571.675	-101.595	-0.561	0.137
-570.661	-34.489	-0.569	0.313
-569.646	197.013	0.141	0.216
-568.631	290.203	-0.249	-0.454
-567.617	-7.960	0.334	-0.226
-566.602	165.232	0.238	-0.338
-565.588	-0.617	0.579	0.412
-564.573	65.761	0.450	0.457
-563.558	207.003	0.238	0.372
-562.544	-126.544	-0.454	-0.068
-561.529	-107.315	0.986	-0.217
-560.515	-173.704	-0.464	-0.014
-559.500	-200.000	-0.135	0.668
-558.485	1.447	-0.399	-0.288
-557.471	-35.729	-0.369	-0.200
-556.456	-26.980	-0.428	-0.251
-555.442	54.430	-0.340	0.329
-554.427	-93.474	0.473	-0.131
-553.412	-87.723	0.238	-0.072
-552.398	-200.000	-0.003	-0.204
-551.383	200.057	-0.090	-0.138
-550.369	800.000	0.169	0.646
-549.354	-62.210	0.410	-0.171
-548.339	123.317	-0.207	-0.260
-547.325	75.639	-0.222	-0.235
-546.310	-134.474	0.493	0.060
-545.296	-113.803	-0.752	0.147
-544.281	-200.000	-0.152	0.822
-543.266	-88.276	0.417	0.125
-542.252	-49.735	-0.722	0.344
-541.237	-55.766	-0.335	-0.150
-540.223	-31.784	0.378	0.213
-539.208	-141.550	0.186	-0.019
-538.193	155.423	0.539	0.743
-537.179	-91.014	0.543	0.156
-536.164	-85.464	0.513	0.160
-535.150	349.966	0.201	0.398
-534.135	500.151	-0.245	0.567
-533.121	-200.000	-0.083	0.407
-532.106	-68.865	0.851	-0.329
-531.091	-185.661	-0.654	-0.010
-530.077	-200.000	0.041	-0.778
-529.062	-110.444	0.848	0.176
-528.048	-57.397	-0.347	-0.153
-527.033	-159.439	1.010	-0.056
-526.018	800.000	0.138	-0.406
-525.004	-146.191	0.201	-0.018
-523.989	800.000	-0.198	0.706
-522.975	-5.559	0.202	-0.139
-521.960	61.548	0.277	0.276
-520.945	-36.445	-0.311	0.168
-519.931	-74.199	-0.722	-0.262
-518.916	736.467	-0.103	0.276
-517.902	196.965	0.597	-0.912
-516.887	233.791	-0.274	0.452
-515.872	800.000	-0.239	-0.827
-514.858	487.630	0.051	-0.116
-513.843	-151.187	-0.526	0.039
-512.829	-129.144	-0.607	-0.085
-511.814	-30.184	0.920	0.524
-510.799	-104.475	-0.461	-0.107
-509.785	-59.297	-0.262	-0.113
-508.770	-200.000	-0.029	0.282
-507.756	-138.259	-0.295	-0.033
-506.741	34.183	-0.647	0.565
-505.726	-29.444	-0.150	-0.086
-504.712	-47.625	0.505	-0.245
-503.697	-200.000	-0.081	-0.492
-502.683	-200.000	0.015	-0.724
-501.668	-200.000	0.034	1.124
-500.653	6.671	-0.181	-0.135
-499.639	-108.399	0.301	-0.065
-498.624	215.931	0.506	-0.804
-497.610	141.039	-0.158	-0.208
-496.595	9.749	-0.051	-0.039
-495.581	-110.362	0.454	-0.094
-494.566	-59.107	0.867	-0.374
-493.551	-200.000	-0.036	0.617
-492.537	178.988	-0.377	0.552
-491.522	7.948	-0.401	-0.301
-490.508	-200.000	0.120	0.646
-489.493	525.168	0.214	0.503
-488.478	-133.016	-0.160	0.020
-487.464	260.345	-0.418	-0.722
-486.449	-200.000	0.037	0.475
-485.435	-101.712	0.199	0.048
-484.420	79.583	-0.346	-0.371
-483.405	-33.497	-0.990	0.547
-482.391	800.000	0.240	-0.876
-481.376	-71.961	0.144	-0.054
-480.362	-200.000	-0.038	0.408
-479.347	110.870	-0.267	-0.321
-478.332	320.049	0.242	0.459
-477.318	-121.167	0.420	0.070
-476.303	-200.000	0.053	-0.314
-475.289	-93.051	-0.303	0.085
-474.274	-50.433	-0.271	0.128
-473.259	-24.359	-0.352	-0.210
-472.245	-200.000	-0.132	-0.833
-471.230	425.919	0.074	-0.158
-470.216	472.642	-0.288	-0.648
-469.201	800.000	-0.172	0.628
-468.186	65.508	0.504	0.509
-467.172	800.000	0.091	-0.255
-466.157	-25.681	1.137	-0.670
-465.143	-79.355	-0.194	0.065
-464.128	-150.201	-0.428	0.033
-463.113	-36.116	-0.136	-0.073
-462.099	800.000	0.107	0.389
-461.084	-167.401	-1.084	-0.043
-460.070	-22.464	-0.187	-0.113
-459.055	-15.844	0.263	0.167
-458.040	-127.204	-0.493	0.072
-457.026	-114.471	-0.647	-0.124
-456.011	56.823	0.591	-0.575
-454.997	-135.727	-0.367	-0.043
-453.982	-161.718	-0.928	-0.047
-452.968	108.352	-0.493	-0.587
-451.953	-80.918	-0.138	-0.046
-450.938	122.442	-0.044	-0.054
-449.924	-59.122	-0.130	-0.056
-448.909	-51.108	-0.581	-0.272
-447.895	-75.663	0.558	-0.198
-446.880	-130.374	0.696	-0.094
-445.865	-71.722	-0.138	-0.052
-444.851	-200.000	0.516	-0.002
-443.836	108.249	-0.336	0.401
-442.822	-134.960	0.850	0.103
-441.807	17.717	-0.769	-0.611
-440.792	-17.055	-0.272	0.172
-439.778	-122.050	0.653	-0.107
-438.763	-55.410	-0.751	-0.337
-437.749	800.000	0.082	-0.280
-436.734	-65.977	-0.864	0.344
-435.719	-200.000	-0.086	0.433
-434.705	56.170	-0.032	-0.031
-433.690	-175.380	0.877	0.024
-432.676	-95.852	-0.291	-0.078
-431.661	800.000	-0.079	0.302
-430.646	-123.009	-0.433	0.070
-429.632	-158.123	-0.210	0.012
-428.617	366.375	-0.061	-0.122
-427.603	16.561	-0.214	0.169
-426.588	22.553	0.644	0.526
-425.573	-200.000	-0.107	0.533
-424.559	-20.505	0.148	-0.091
-423.544	-200.000	-0.003	-0.493
-422.530	-200.000	-0.040	-0.871
-421.515	-66.734	0.696	0.275
-420.500	361.275	-0.207	0.414
-419.486	-5.103	-0.336	0.231
-418.471	36.684	0.268	-0.236
-417.457	-200.000	-0.024	-0.498
-416.442	-198.496	0.855	-0.005
-415.428	-42.909	0.425	-0.215
-414.413	-200.000	0.017	-0.105
-413.398	15.937	0.784	-0.616
-412.384	-13.617	0.787	0.508
-411.369	800.000	0.219	-0.708
-410.355	-43.875	0.337	0.169
-409.340	-31.907	1.131	0.632
-408.325	-200.000	-0.060	-0.370
-407.311	337.030	0.243	0.470
-406.296	77.226	-0.285	-0.302
-405.282	-200.000	0.139	-0.872
-404.267	-67.386	0.255	-0.100
-403.252	368.698	-0.112	-0.227
-402.238	-28.690	0.633	0.363
-401.223	15.703	-0.652	-0.511
-400.209	212.309	0.366	0.575
-399.194	-69.062	-0.849	-0.326
-398.179	-63.263	0.603	-0.248
-397.165	424.267	-0.152	0.325
-396.150	-200.000	0.002	0.162
-395.136	73.005	-0.054	0.056
-394.121	37.898	-0.702	-0.621
-393.106	800.000	0.050	-0.145
-392.092	592.145	0.211	-0.519
-391.077	-16.120	-0.479	-0.303
-390.063	622.124	0.104	0.261
-389.048	-200.000	0.139	0.890
-388.033	800.000	0.108	-0.453
-387.019	-66.387	-0.518	-0.205
-386.004	-8.303	0.628	-0.421
-384.990	-200.000	-0.009	0.311
-383.975	-5.845	-0.340	0.232
-382.960	-112.186	0.795	0.159
-381.946	-11.023	0.194	0.127
-380.931	-200.000	0.035	0.485
-379.917	327.559	-0.039	-0.074
-378.902	-168.441	-1.395	0.053
-377.888	-83.777	0.637	-0.202
-376.873	800.000	-0.139	-0.572
-375.858	-63.032	-0.828	-0.340
-374.844	746.602	0.173	-0.463
-373.829	-200.000	-0.002	0.216
-372.815	-79.802	0.386	0.129
-371.800	-200.000	-0.066	-0.501
-370.785	50.893	0.299	0.282
-369.771	233.070	0.323	-0.528
-368.756	-200.000	0.107	-0.713
-367.742	-63.383	0.715	-0.293
-366.727	22.580	-0.113	-0.092
-365.712	-129.906	-0.537	-0.073
-364.698	800.000	-0.093	0.394
-363.683	21.673	0.383	-0.310
-362.669	-94.084	0.796	0.217
-361.654	331.656	0.249	-0.478
-360.639	182.918	-0.528	-0.775
-359.625	-55.299	-0.089	0.040
-358.610	2.799	0.130	0.094
-357.596	48.984	0.481	-0.450
-356.581	800.000	0.205	-0.692
-355.566	-200.000	0.044	0.382
-354.552	298.362	0.075	-0.137
-353.537	544.922	-0.142	-0.337
-352.523	457.320	-0.262	0.580
-351.508	111.700	-0.625	0.750
-350.493	63.342	-0.221	0.220
-349.479	-200.000	-0.014	0.635
-348.464	280.595	0.134	-0.239
-347.450	-151.799	0.647	0.047
-346.435	-200.000	-0.079	1.145
-345.420	32.176	0.287	0.246
-344.406	140.227	-0.237	0.310
-343.391	293.616	-0.565	1.026
-342.377	-200.000	-0.116	0.691
-341.362	123.440	0.544	-0.679
-340.348	800.000	0.217	-0.770
-339.333	-118.377	0.749	-0.132
-338.318	129.873	-0.403	0.512
-337.304	-61.516	0.485	0.202
-336.289	-2.026	-0.387	-0.270
-335.275	-200.000	-0.081	-0.431
-334.260	536.828	0.107	-0.253
-333.245	-200.000	-0.023	0.285
-332.231	-200.000	-0.008	0.248
-331.216	-200.000	0.134	0.919
-330.202	-98.791	-0.270	-0.068
-329.187	-200.000	0.045	0.718
-328.172	-103.391	0.869	-0.204
-327.158	-25.260	0.359	0.211
-326.143	568.122	0.126	-0.303
-325.129	150.623	0.558	-0.753
-324.114	-167.577	-1.003	-0.040
-323.099	618.132	0.291	0.727
-322.085	-145.925	0.179	0.016
-321.070	17.940	0.323	-0.256
-320.056	168.772	-0.354	0.501
-319.041	-200.000	0.015	0.136
-318.026	-115.134	0.351	0.066
-317.012	-200.000	-0.022	0.330
-315.997	154.905	0.503	0.687
-314.983	66.815	-0.130	-0.132
-313.968	-77.433	-0.399	-0.138
-312.953	104.852	-0.273	0.319
-311.939	-166.578	0.399	0.017
-310.924	-178.448	1.011	-0.023
-309.910	-107.741	0.783	-0.170
-308.895	-127.177	-0.779	-0.113
-307.880	-53.521	0.570	0.259
-306.866	129.797	0.553	-0.703
-305.851	31.581	-0.341	-0.291
-304.837	-50.872	-0.507	-0.237
-303.822	-200.000	-0.209	-1.026
-302.807	265.845	-0.251	0.435
-301.793	-52.975	-0.339	0.155
-300.778	619.767	-0.124	-0.309
-299.764	-52.246	0.168	-0.077
-298.749	-14.003	-1.119	0.717
-297.735	343.405	-0.190	-0.370
-296.720	101.141	0.336	0.388
-295.705	-200.000	0.017	-0.789
-294.691	-55.023	-0.208	0.093
-293.676	-102.100	0.808	0.193
-292.662	-200.000	0.049	-0.320
-291.647	-200.000	0.044	-0.361
-290.632	160.875	-0.155	-0.214
-289.618	34.767	0.777	-0.674
-288.603	-19.308	0.842	-0.518
-287.589	-200.000	-0.109	-0.581
-286.574	-124.482	0.514	0.079
-285.559	94.737	0.540	0.610
-284.545	-150.553	0.870	-0.066
-283.530	-120.551	-0.494	0.083
-282.516	504.442	-0.205	-0.470
-281.501	-1.499	0.506	0.354
-280.486	-98.877	-0.686	-0.173
-279.472	-138.764	0.489	0.053
-278.457	-163.324	-0.469	-0.022
-277.443	-200.000	-0.028	0.176
-276.428	-17.528	-0.435	0.271
-275.413	12.044	0.781	0.596
-274.399	102.688	-0.476	0.552
-273.384	800.000	-0.276	0.919
-272.370	-10.485	-0.339	-0.223
-271.355	-44.356	-0.910	-0.452
-270.340	163.740	-0.440	-0.614
-269.326	197.958	-0.208	-0.315
-268.311	-32.531	0.626	0.346
-267.297	-151.343	0.395	0.029
-266.282	-117.553	-0.634	0.113
-265.267	-25.509	0.289	-0.169
-264.253	-32.410	-0.363	0.201
-263.238	-200.000	0.196	1.373
-262.224	5.860	-0.267	-0.196
-261.209	800.000	-0.112	0.365
-260.195	-81.683	0.936	-0.305
-259.180	-160.117	0.420	0.023
-258.165	36.022	0.589	0.514
-257.151	-43.773	-0.732	-0.366
-256.136	800.000	0.101	-0.416
-255.122	6.745	-0.556	0.410
-254.107	212.614	-0.210	0.329
-253.092	62.641	-0.423	-0.419
-252.078	197.480	-0.739	-1.117
-251.063	-200.000	0.030	0.547
-250.049	-200.000	-0.035	0.232
-249.034	800.000	0.221	0.909
-248.019	-9.069	0.516	0.342
-247.005	767.321	-0.381	1.026
-245.990	593.729	-0.551	1.350
-244.976	258.626	0.406	0.694
-243.961	4.218	-0.456	0.331
-242.946	-98.044	0.501	-0.128
-241.932	104.479	-0.664	-0.774
-240.917	48.199	-0.292	0.271
-239.903	-200.000	0.132	0.661
-238.888	-1.532	-0.773	0.540
-237.873	-200.000	-0.001	-0.009
-236.859	93.353	-0.114	-0.128
-235.844	246.958	-0.081	0.136
-234.830	-200.000	0.007	0.950
-233.815	245.027	-0.128	0.213
-232.800	-200.000	0.049	0.905
-231.786	-97.300	-1.038	0.268
-230.771	459.809	-0.183	-0.403
-229.757	-200.000	-0.025	-0.118
-228.742	508.980	-0.108	-0.248
-227.727	-5.584	0.726	-0.493
-226.713	781.464	0.345	-0.936
-225.698	-101.661	1.162	-0.279
-224.684	-99.500	-0.067	-0.017
-223.669	-50.449	0.653	-0.305
-222.655	-101.206	-0.349	0.084
-221.640	-127.368	0.655	-0.094
-220.625	7.928	-0.125	0.093
-219.611	-110.184	0.633	0.131
-218.596	-98.401	-0.053	-0.013
-217.582	119.789	0.168	-0.206
-216.567	-200.000	0.601	-0.001
-215.552	800.000	-0.074	0.215
-214.538	111.190	0.256	-0.305
-213.523	-200.000	0.039	0.599
-212.509	-200.000	-0.175	0.855
-211.494	800.000	0.184	-0.510
-210.479	257.147	0.135	0.229
-209.465	184.782	-0.276	-0.405
-208.450	-119.425	-0.108	-0.019
-207.436	-200.000	-0.179	1.094
-206.421	-59.557	0.439	0.186
-205.406	-102.207	-0.518	-0.123
-204.392	-1.355	-0.265	0.185
-203.377	96.935	0.082	-0.093
-202.363	222.130	-0.153	0.244
-201.348	-162.299	0.710	-0.035
-200.333	-31.184	-0.531	-0.296
-199.319	-200.000	-0.085	0.760
-198.304	-200.000	0.056	0.681
-197.290	-17.388	0.431	0.268
-196.275	-185.376	0.584	-0.009
-195.260	771.331	-0.164	-0.441
-194.246	50.184	0.384	-0.359
-193.231	-111.032	0.472	0.096
-192.217	-150.026	-1.754	-0.135
-191.202	42.008	0.448	-0.402
-190.187	86.376	0.256	0.279
-189.173	166.670	0.122	0.170
-188.158	800.000	0.204	0.640
-187.144	257.689	0.309	0.526
-186.129	-200.000	0.067	-0.303
-185.114	214.000	-0.603	-0.943
-184.100	-200.000	-0.059	-0.371
-183.085	-131.015	-0.291	0.038
-182.071	36.391	-0.955	-0.833
-181.056	800.000	-0.115	-0.424
-180.042	-96.683	-0.537	0.140
-179.027	-200.000	0.053	-0.654
-178.012	-35.956	0.370	-0.198
-176.998	-122.873	-0.345	0.055
-175.983	50.528	-0.397	-0.371
-174.969	188.865	0.352	-0.521
-173.954	-177.171	-0.261	-0.006
-172.939	173.166	-0.079	0.113
-171.925	-154.176	0.539	-0.036
-170.910	43.565	-0.426	0.385
-169.896	-75.064	0.349	-0.123
-168.881	-30.528	0.544	-0.304
-167.866	-50.032	-0.385	0.180
-166.852	366.712	0.055	-0.110
-165.837	800.000	-0.216	-0.677
-164.823	126.464	-0.479	0.599
-163.808	169.690	0.338	0.477
-162.793	-64.231	0.556	-0.224
-161.779	21.444	-0.327	-0.263
-160.764	20.624	-0.292	-0.234
-159.750	341.723	0.271	-0.524
-158.735	-63.012	0.073	0.030
-157.720	800.000	0.090	-0.380
-156.706	29.786	0.253	0.213
-155.691	800.000	0.089	0.383
-154.677	-32.461	0.858	-0.472
-153.662	176.879	0.424	0.609
-152.647	-72.444	-0.408	0.149
-151.633	222.586	-0.421	-0.670
-150.618	-200.000	-0.023	0.268
-149.604	-18.107	-0.628	0.388
-148.589	-5.643	-0.504	-0.341
-147.574	-200.000	0.154	-0.689
-146.560	-44.515	0.538	-0.266
-145.545	-68.972	-0.763	-0.290
-144.531	800.000	0.136	-0.517
-143.516	-90.960	0.696	0.197
-142.502	-37.246	-0.124	0.065
-141.487	800.000	0.190	0.522
-140.472	-44.531	0.472	-0.233
-139.458	-137.565	-0.803	0.089
-138.443	-200.000	-0.045	-0.215
-137.429	167.010	0.196	-0.274
-136.414	-116.015	-0.556	0.102
-135.399	797.427	-0.248	0.675
-134.385	-160.054	0.200	-0.011
-133.370	-82.339	0.198	0.064
-132.356	215.495	0.393	-0.614
-131.341	-200.000	-0.004	-0.034
-130.326	-200.000	-0.097	0.447
-129.312	-200.000	0.034	0.248
-128.297	137.978	0.229	-0.296
-127.283	182.391	-0.163	0.236
-126.268	15.125	0.550	-0.425
-125.253	-12.641	-0.562	0.361
-124.239	203.974	0.378	-0.577
-123.224	101.492	-0.386	-0.444
-122.210	107.838	-0.466	0.548
