DTS Sentinel unit serial number:	SN413079Multiplexer serial number:	ORYXHardware model number:	OX4-SRSoftware version number:	ORYX F/W v4.00 Oryx Data Collector v3.7.2.0data status	okinstallation	princeton_trtdifferential loss correction	single-endedforward channel	channel 3reverse channel	N/Adate	2019/09/16time	14:44:34forward acquisition time	60.00reverse acquisition time	0.00gamma	496.2192k internal	0.2293k external	0.2293temperature offset calibration	0.9944default loss term (dB/km)	0.3790temperature slope calibration	1.0000multiplexer offset coefficient	1.0000multiplexer slope coefficient	1.0000fibre end	0.00T internal ref (°C)	41.56T ext. ref 1 (°C)	14.35T ext. ref 2 (°C)	35.77length (m)	temperature (°C)	Stokes	anti-Stokes-747.200	-122.545	-0.066	-0.011
-746.185	-36.789	0.444	-0.244
-745.171	-46.720	0.100	0.050
-744.156	800.000	0.056	0.184
-743.142	-21.045	0.111	0.070
-742.127	144.577	-0.109	0.149
-741.112	-107.096	-0.164	-0.037
-740.098	25.085	0.071	0.061
-739.083	-97.120	0.308	-0.082
-738.069	-200.000	-0.034	0.421
-737.054	-119.929	-0.163	0.029
-736.039	177.463	0.116	-0.173
-735.025	800.000	-0.082	-0.308
-734.010	110.099	-0.056	0.069
-732.996	-200.000	-0.002	-0.344
-731.981	-128.900	0.083	-0.012
-730.966	-152.921	-0.056	-0.004
-729.952	92.969	0.100	-0.115
-728.937	-125.443	-0.339	0.053
-727.923	-200.000	0.028	0.161
-726.908	-94.176	-0.100	-0.028
-725.894	-200.000	0.035	-0.409
-724.879	800.000	0.121	-0.530
-723.864	-128.401	-0.404	0.059
-722.850	-72.282	-0.502	-0.190
-721.835	6.972	-0.165	0.126
-720.821	800.000	-0.047	-0.153
-719.806	-42.820	-0.235	-0.122
-718.791	-29.652	0.380	0.222
-717.777	641.623	-0.120	-0.313
-716.762	-17.015	-0.313	-0.202
-715.748	-13.550	-0.249	-0.165
-714.733	36.825	-0.316	-0.285
-713.718	662.277	0.004	0.012
-712.704	-200.000	-0.066	-0.339
-711.689	322.497	-0.033	0.065
-710.675	173.864	-0.132	-0.195
-709.660	213.081	-0.145	0.234
-708.645	310.750	0.066	0.126
-707.631	124.303	0.241	-0.310
-706.616	83.951	-0.338	0.377
-705.602	321.811	-0.156	-0.304
-704.587	-77.769	-0.222	-0.078
-703.572	-90.061	-0.253	-0.075
-702.558	-200.000	0.042	-0.323
-701.543	-82.650	0.118	0.039
-700.529	-68.830	-0.053	0.021
-699.514	13.893	0.046	-0.037
-698.499	-60.847	-0.198	0.086
-697.485	255.047	-0.152	0.266
-696.470	162.429	-0.194	-0.277
-695.456	-102.327	0.313	0.077
-694.441	141.567	0.130	0.176
-693.426	-144.504	-0.183	0.017
-692.412	417.790	-0.143	-0.312
-691.397	-200.000	0.104	-0.536
-690.383	-200.000	-0.011	-0.198
-689.368	-48.607	0.286	-0.140
-688.354	-156.002	0.095	0.006
-687.339	156.947	-0.118	-0.166
-686.324	-88.008	0.129	0.040
-685.310	-64.506	0.185	-0.077
-684.295	167.104	-0.053	-0.077
-683.281	51.952	0.066	-0.064
-682.266	800.000	-0.030	0.130
-681.251	55.826	0.206	-0.204
-680.237	-34.646	-0.143	0.080
-679.222	-200.000	-0.034	-0.290
-678.208	-125.742	0.386	-0.060
-677.193	-14.926	-0.083	-0.055
-676.178	-200.000	0.049	-0.362
-675.164	3.234	0.175	-0.130
-674.149	-191.187	-0.315	-0.003
-673.135	800.000	0.043	0.152
-672.120	416.419	0.056	-0.123
-671.105	-132.490	-0.193	0.025
-670.091	-23.933	0.192	0.117
-669.076	-89.871	-0.367	0.109
-668.062	-93.315	0.242	-0.069
-667.047	-51.246	0.230	-0.110
-666.032	-6.998	0.120	-0.083
-665.018	246.626	0.124	0.213
-664.003	-100.078	-0.238	0.061
-662.989	-175.613	0.150	0.004
-661.974	-52.072	-0.193	0.091
-660.959	-60.983	-0.188	-0.081
-659.945	-134.140	0.203	0.026
-658.930	-34.514	-0.026	0.014
-657.916	214.585	-0.092	-0.149
-656.901	800.000	-0.092	0.311
-655.886	135.554	0.098	-0.130
-654.872	86.249	0.202	-0.226
-653.857	161.222	-0.217	0.309
-652.843	123.826	0.169	0.216
-651.828	237.237	-0.124	-0.209
-650.814	-200.000	-0.031	0.176
-649.799	274.156	0.167	0.301
-648.784	-166.050	-0.103	-0.004
-647.770	-51.193	-0.257	0.123
-646.755	115.607	-0.116	0.145
-645.741	800.000	0.054	-0.221
-644.726	-154.083	-0.300	-0.021
-643.711	97.285	-0.195	-0.228
-642.697	-200.000	-0.003	-0.189
-641.682	27.647	0.090	0.077
-640.668	-14.455	0.132	-0.086
-639.653	143.536	-0.159	0.216
-638.638	-6.112	-0.233	-0.162
-637.624	27.388	-0.091	0.078
-636.609	-171.032	0.240	-0.008
-635.595	0.083	0.261	-0.189
-634.580	-51.861	-0.218	-0.104
-633.565	163.895	0.114	-0.164
-632.551	-200.000	-0.019	0.223
-631.536	415.261	-0.092	-0.200
-630.522	-21.762	-0.267	-0.165
-629.507	-104.050	0.158	0.037
-628.492	71.974	0.098	0.103
-627.478	-79.082	0.423	0.146
-626.463	-200.000	0.050	0.251
-625.449	-16.527	0.130	0.084
-624.434	-0.131	-0.171	0.124
-623.419	-200.000	0.020	0.469
-622.405	56.949	-0.124	-0.123
-621.390	5.689	0.153	-0.115
-620.376	800.000	0.071	-0.214
-619.361	113.675	0.294	0.364
-618.346	-200.000	-0.012	0.067
-617.332	15.740	-0.136	-0.109
-616.317	294.393	0.195	0.364
-615.303	538.969	-0.066	0.160
-614.288	-93.839	-0.298	0.083
-613.273	101.295	-0.142	0.168
-612.259	517.824	-0.042	0.101
-611.244	-127.676	-0.212	0.031
-610.230	-74.064	0.032	0.012
-609.215	800.000	0.093	-0.348
-608.201	-128.727	0.133	0.019
-607.186	13.947	-0.075	-0.060
-606.171	258.447	-0.060	0.104
-605.157	-28.322	0.072	-0.042
-604.142	-108.909	-0.245	-0.053
-603.128	10.810	0.109	-0.084
-602.113	162.191	0.096	-0.137
-601.098	247.320	0.057	-0.097
-600.084	800.000	0.057	0.188
-599.069	-166.331	-0.103	0.004
-598.055	-200.000	0.041	0.290
-597.040	800.000	-0.043	0.168
-596.025	-86.321	-0.336	0.105
-595.011	-200.000	-0.011	-0.070
-593.996	42.406	0.173	0.160
-592.982	0.271	0.126	0.092
-591.967	-62.054	0.158	0.067
-590.952	-66.065	0.212	-0.086
-589.938	-200.000	0.033	0.197
-588.923	139.908	-0.151	0.203
-587.909	-125.776	-0.336	0.052
-586.894	-200.000	0.012	-0.286
-585.879	54.223	0.163	-0.160
-584.865	-105.089	-0.048	0.011
-583.850	-158.638	0.262	-0.015
-582.836	186.364	-0.102	0.155
-581.821	-146.849	-0.136	-0.012
-580.806	344.830	-0.064	-0.127
-579.792	-200.000	0.021	0.156
-578.777	800.000	0.114	-0.485
-577.763	-200.000	0.042	-0.416
-576.748	-17.202	0.107	-0.069
-575.733	265.067	-0.037	-0.065
-574.719	800.000	0.122	0.429
-573.704	206.869	0.119	0.189
-572.690	-129.319	0.182	-0.026
-571.675	-87.001	0.528	-0.164
-570.661	-110.350	0.083	-0.018
-569.646	-200.000	0.003	0.187
-568.631	-88.690	0.133	0.040
-567.617	-200.000	-0.002	0.082
-566.602	-33.755	0.064	0.036
-565.588	-200.000	0.036	-0.208
-564.573	-200.000	-0.005	-0.071
-563.558	159.372	0.234	0.331
-562.544	-50.530	-0.134	0.064
-561.529	-137.611	-0.132	-0.015
-560.515	-28.083	-0.168	0.099
-559.500	-200.000	0.019	0.474
-558.485	-113.140	0.049	0.010
-557.471	-200.000	-0.033	-0.338
-556.456	36.003	-0.162	-0.145
-555.442	-136.491	0.106	0.012
-554.427	-103.415	0.486	-0.116
-553.412	-200.000	-0.030	0.164
-552.398	469.484	-0.181	0.412
-551.383	800.000	-0.054	-0.181
-550.369	216.427	-0.211	0.341
-549.354	-123.827	-0.353	0.057
-548.339	-29.437	-0.085	0.049
-547.325	-200.000	-0.015	0.076
-546.310	-200.000	-0.005	-0.156
-545.296	271.977	-0.034	-0.062
-544.281	280.892	-0.082	0.149
-543.266	-12.531	-0.177	0.117
-542.252	-72.651	-0.113	-0.042
-541.237	152.361	-0.195	-0.271
-540.223	-2.036	-0.245	0.175
-539.208	800.000	-0.112	0.345
-538.193	607.718	-0.110	-0.277
-537.179	156.819	-0.139	-0.195
-536.164	204.775	-0.273	-0.430
-535.150	-115.376	-0.345	0.066
-534.135	-200.000	-0.019	-0.109
-533.121	286.049	-0.075	0.136
-532.106	-22.015	-0.285	0.176
-531.091	800.000	0.072	-0.219
-530.077	-117.912	-0.094	0.017
-529.062	-170.507	0.164	-0.006
-528.048	800.000	0.061	-0.241
-527.033	237.486	0.043	-0.072
-526.018	422.524	-0.051	-0.111
-525.004	-118.022	0.163	-0.030
-523.989	800.000	-0.043	0.178
-522.975	-51.931	-0.134	-0.063
-521.960	-101.486	0.427	0.106
-520.945	-59.098	0.199	0.087
-519.931	-99.521	0.245	-0.062
-518.916	-200.000	0.009	0.118
-517.902	-169.721	0.483	-0.018
-516.887	-48.722	0.232	0.113
-515.872	393.223	0.110	0.232
-514.858	43.639	0.184	0.171
-513.843	-176.415	-0.177	-0.005
-512.829	-200.000	0.048	0.392
-511.814	219.923	-0.107	0.174
-510.799	800.000	0.080	-0.332
-509.785	800.000	0.093	-0.355
-508.770	-200.000	-0.010	0.105
-507.756	75.831	0.098	-0.105
-506.741	-6.507	-0.287	-0.199
-505.726	-90.858	-0.188	0.055
-504.712	-200.000	0.041	-0.315
-503.697	298.489	0.078	0.145
-502.683	611.367	0.137	-0.347
-501.668	-37.215	0.142	0.077
-500.653	153.055	-0.193	-0.268
-499.639	236.932	-0.134	-0.225
-498.624	-59.099	0.220	0.096
-497.610	-133.737	-0.223	0.028
-496.595	-77.787	-0.212	0.074
-495.581	46.835	-0.179	0.169
-494.566	-96.143	-0.225	-0.061
-493.551	-200.000	0.102	-0.624
-492.537	645.031	-0.096	-0.247
-491.522	65.558	0.159	0.164
-490.508	-36.099	-0.120	0.066
-489.493	90.309	-0.169	0.191
-488.478	292.884	0.079	-0.145
-487.464	-57.531	0.269	0.119
-486.449	-186.160	-0.229	0.003
-485.435	-115.348	-0.225	0.043
-484.420	-200.000	0.042	0.206
-483.405	-144.894	-0.203	0.019
-482.391	-109.472	-0.355	-0.076
-481.376	-108.918	0.052	-0.011
-480.362	55.565	-0.096	0.095
-479.347	-27.877	0.174	0.102
-478.332	-200.000	0.011	-0.186
-477.318	-200.000	-0.001	-0.295
-476.303	800.000	-0.070	0.245
-475.289	-11.573	0.302	0.201
-474.274	42.960	0.079	0.072
-473.259	800.000	-0.098	-0.339
-472.245	108.818	0.210	0.254
-471.230	-200.000	-0.011	0.185
-470.216	-200.000	0.042	-0.334
-469.201	-16.239	-0.251	-0.162
-468.186	-179.213	-0.159	-0.004
-467.172	47.830	-0.132	-0.125
-466.157	-7.907	0.134	-0.092
-465.143	-50.625	0.155	-0.074
-464.128	800.000	0.030	-0.103
-463.113	-88.594	0.413	0.125
-462.099	-93.664	-0.109	0.030
-461.084	59.047	-0.047	0.046
-460.070	150.219	0.318	-0.437
-459.055	-200.000	0.007	-0.114
-458.040	-200.000	-0.023	0.187
-457.026	22.644	0.111	-0.092
-456.011	537.393	-0.054	-0.129
-454.997	-114.972	0.213	-0.041
-453.982	800.000	0.063	0.250
-452.968	0.599	-0.306	-0.221
-451.953	351.995	-0.117	-0.234
-450.938	78.891	0.333	-0.360
-449.924	268.135	0.155	-0.276
-448.909	-91.201	-0.329	-0.095
-447.895	-167.674	-0.215	-0.009
-446.880	-200.000	0.058	-0.385
-445.865	43.222	0.233	-0.215
-444.851	-93.394	-0.121	-0.034
-443.836	124.063	-0.107	-0.136
-442.822	-40.999	0.096	0.050
-441.807	-200.000	-0.025	0.115
-440.792	-73.856	-0.138	-0.051
-439.778	230.343	0.129	0.213
-438.763	278.931	0.071	0.128
-437.749	326.115	0.191	0.370
-436.734	-84.095	-0.292	0.094
-435.719	57.784	-0.326	-0.323
-434.705	121.140	-0.046	0.058
-433.690	800.000	0.082	-0.345
-432.676	-15.840	-0.273	-0.176
-431.661	800.000	-0.064	0.273
-430.646	-200.000	0.022	-0.354
-429.632	104.607	0.018	-0.022
-428.617	-101.416	0.263	-0.065
-427.603	205.621	-0.184	0.289
-426.588	660.215	0.087	0.226
-425.573	14.357	-0.315	-0.248
-424.559	-33.830	0.232	0.129
-423.544	136.427	-0.056	0.074
-422.530	65.536	0.199	0.203
-421.515	431.949	-0.056	-0.122
-420.500	79.615	-0.036	0.039
-419.486	800.000	-0.028	0.084
-418.471	69.222	-0.166	0.172
-417.457	99.718	-0.257	0.301
-416.442	-64.587	-0.117	0.048
-415.428	114.851	-0.164	-0.202
-414.413	800.000	-0.056	0.206
-413.398	-9.500	0.385	0.260
-412.384	-200.000	0.013	0.191
-411.369	66.845	-0.156	-0.160
-410.355	-118.186	-0.367	0.066
-409.340	765.952	0.144	-0.395
-408.325	-62.474	0.219	0.092
-407.311	-74.119	-0.261	0.096
-406.296	-114.720	-0.279	0.054
-405.282	67.306	-0.275	-0.283
-404.267	-200.000	0.029	-0.381
-403.252	35.031	0.303	0.268
-402.238	18.926	0.196	0.158
-401.223	566.076	-0.108	0.265
-400.209	-128.142	-0.268	0.039
-399.194	-37.315	0.247	-0.133
-398.179	268.370	-0.077	-0.136
-397.165	-70.642	0.061	0.023
-396.150	-200.000	0.018	0.102
-395.136	800.000	-0.073	-0.259
-394.121	-74.432	0.145	0.053
-393.106	-114.932	0.452	0.087
-392.092	-200.000	-0.025	0.339
-391.077	-200.000	0.017	-0.155
-390.063	-161.131	0.241	0.013
-389.048	-103.425	0.419	-0.100
-388.033	137.110	-0.060	0.079
-387.019	-183.062	0.125	-0.002
-386.004	-46.090	0.065	0.032
-384.990	-46.415	-0.119	-0.059
-383.975	-29.552	0.191	0.110
-382.960	800.000	-0.024	0.087
-381.946	248.385	0.114	-0.195
-380.931	-27.080	0.087	-0.051
-379.917	-107.572	-0.414	0.091
-378.902	-200.000	0.016	-0.270
-377.888	-150.556	-0.137	-0.011
-376.873	-59.905	-0.435	0.187
-375.858	-200.000	0.025	0.248
-374.844	70.697	0.143	0.150
-373.829	800.000	-0.026	-0.100
-372.815	20.625	-0.066	0.054
-371.800	-89.117	-0.298	0.089
-370.785	154.875	-0.067	0.093
-369.771	-200.000	0.017	0.203
-368.756	-147.601	0.258	0.022
-367.742	591.900	0.147	-0.366
-366.727	-76.598	0.306	-0.108
-365.712	46.757	0.120	0.112
-364.698	-169.135	0.443	0.017
-363.683	-182.908	0.232	-0.004
-362.669	-200.000	0.019	-0.217
-361.654	212.672	-0.143	-0.227
-360.639	128.826	0.128	0.165
-359.625	396.255	-0.097	0.205
-358.610	-200.000	0.036	-0.332
-357.596	-26.097	-0.122	-0.072
-356.581	45.665	0.303	0.283
-355.566	511.689	0.039	0.092
-354.552	-121.653	0.214	-0.036
-353.537	613.230	0.153	0.386
-352.523	61.096	0.099	0.099
-351.508	-200.000	0.076	0.450
-350.493	800.000	0.052	-0.195
-349.479	-8.040	-0.094	0.064
-348.464	-32.969	-0.207	-0.116
-347.450	-200.000	-0.040	0.227
-346.435	460.852	0.158	0.355
-345.420	-200.000	-0.012	0.094
-344.406	195.333	-0.064	0.099
-343.391	-150.129	0.145	0.011
-342.377	800.000	-0.079	-0.230
-341.362	9.407	-0.110	-0.084
-340.348	161.052	-0.098	-0.138
-339.333	166.316	0.037	-0.052
-338.318	757.561	0.049	0.133
-337.304	800.000	-0.081	0.322
-336.289	-108.036	0.365	-0.080
-335.275	-48.662	-0.274	0.132
-334.260	-134.947	0.245	0.030
-333.245	254.929	0.043	0.073
-332.231	-21.427	-0.136	-0.083
-331.216	-71.611	-0.309	0.116
-330.202	-200.000	-0.032	0.211
-329.187	330.604	0.028	-0.055
-328.172	-33.581	0.104	0.058
-327.158	-14.247	-0.106	0.069
-326.143	-187.665	0.448	-0.006
-325.129	-107.238	0.267	-0.059
-324.114	-65.518	-0.267	0.108
-323.099	-7.521	0.042	-0.028
-322.085	-108.245	0.213	-0.046
-321.070	200.015	-0.070	-0.108
-320.056	-200.000	0.028	-0.181
-319.041	-16.290	-0.077	-0.049
-318.026	-36.843	-0.011	-0.006
-317.012	76.511	-0.373	0.398
-315.997	-23.849	-0.114	-0.068
-314.983	188.531	-0.199	-0.300
-313.968	457.695	-0.142	0.318
-312.953	-200.000	0.001	0.013
-311.939	121.300	-0.130	-0.163
-310.924	99.314	-0.118	-0.138
-309.910	-200.000	0.007	-0.239
-308.895	21.217	0.196	-0.160
-307.880	800.000	-0.021	0.066
-306.866	323.276	0.157	-0.300
-305.851	800.000	-0.059	0.168
-304.837	-23.567	0.292	0.176
-303.822	800.000	0.021	0.067
-302.807	-0.794	-0.203	-0.145
-301.793	-200.000	-0.035	-0.341
-300.778	94.202	0.134	-0.152
-299.764	-53.310	-0.128	-0.059
-298.749	-135.905	0.185	0.022
-297.735	-181.480	0.392	0.008
-296.720	43.732	-0.107	0.098
-295.705	263.361	0.120	0.209
-294.691	587.896	0.067	-0.166
-293.676	-106.877	0.087	-0.019
-292.662	63.197	0.167	-0.168
-291.647	166.948	-0.081	0.116
-290.632	-200.000	0.001	0.215
-289.618	-96.576	0.211	-0.056
-288.603	190.711	-0.142	0.214
-287.589	800.000	0.056	0.244
-286.574	-14.802	0.184	-0.119
-285.559	-200.000	0.002	0.234
-284.545	-6.276	-0.172	0.118
-283.530	-44.942	0.295	0.148
-282.516	7.102	-0.403	-0.302
-281.501	-200.000	0.010	-0.069
-280.486	-31.813	0.195	-0.110
-279.472	800.000	-0.081	-0.258
-278.457	-14.063	0.236	-0.153
-277.443	138.179	-0.107	0.141
-276.428	800.000	-0.042	-0.160
-275.413	-200.000	0.013	0.070
-274.399	-46.262	0.104	-0.051
-273.384	648.574	-0.099	-0.253
-272.370	313.942	-0.128	-0.242
-271.355	-143.241	-0.259	0.025
-270.340	-96.938	0.224	0.059
-269.326	33.841	-0.104	-0.091
-268.311	-95.438	0.188	0.051
-267.297	-142.403	-0.513	0.051
-266.282	800.000	0.005	0.016
-265.267	-200.000	-0.014	-0.243
-264.253	-22.705	0.175	0.106
-263.238	-66.466	0.167	0.067
-262.224	108.130	0.179	0.215
-261.209	8.133	-0.245	-0.185
-260.195	-83.732	-0.366	0.117
-259.180	-200.000	0.010	-0.092
-258.165	239.919	-0.093	-0.155
-257.151	-200.000	0.042	-0.187
-256.136	-24.369	-0.276	0.165
-255.122	738.460	-0.052	-0.140
-254.107	85.970	-0.274	-0.303
-253.092	-36.144	-0.182	0.099
-252.078	-177.014	-0.402	-0.010
-251.063	97.382	0.156	0.180
-250.049	-172.757	0.271	-0.008
-249.034	-200.000	0.016	-0.079
-248.019	115.437	-0.200	0.245
-247.005	84.992	0.140	-0.154
-245.990	800.000	0.069	-0.196
-244.976	252.015	0.056	0.095
-243.961	43.291	-0.120	0.110
-242.946	800.000	-0.023	-0.094
-241.932	522.832	0.140	0.329
-240.917	-35.809	0.102	-0.055
-239.903	425.887	0.096	0.208
-238.888	-164.370	-0.442	0.020
-237.873	-200.000	0.007	-0.040
-236.859	215.132	0.085	0.135
-235.844	800.000	0.016	-0.055
-234.830	-124.107	-0.098	-0.015
-233.815	234.230	-0.153	0.254
-232.800	-143.563	-0.194	-0.019
-231.786	-200.000	-0.026	-0.128
-230.771	190.392	0.086	-0.129
-229.757	-41.453	0.077	-0.040
-228.742	-94.224	-0.295	-0.081
-227.727	-86.661	0.258	0.079
-226.713	-174.207	0.147	0.004
-225.698	800.000	-0.048	-0.194
-224.684	175.893	-0.066	-0.096
-223.669	-108.935	0.088	-0.019
-222.655	177.227	0.202	0.295
-221.640	321.394	0.066	-0.126
-220.625	-200.000	-0.083	-0.429
-219.611	-144.655	-0.326	-0.030
-218.596	407.164	-0.101	-0.214
-217.582	327.965	-0.089	-0.171
-216.567	-29.968	-0.243	0.139
-215.552	-69.660	0.070	0.027
-214.538	-143.690	-0.244	-0.023
-213.523	-151.461	0.105	0.008
-212.509	-200.000	-0.020	-0.277
-211.494	-127.912	0.338	-0.049
-210.479	-176.247	0.651	-0.017
-209.465	-200.000	0.001	0.140
-208.450	88.592	-0.124	0.139
-207.436	166.918	-0.087	-0.123
-206.421	-145.290	0.170	-0.015
-205.406	-78.611	0.383	0.131
-204.392	214.997	-0.100	-0.158
-203.377	-68.621	-0.291	-0.113
-202.363	272.342	-0.124	0.220
-201.348	-14.182	0.136	0.088
-200.333	-200.000	0.024	0.249
-199.319	-73.970	-0.516	-0.187
-198.304	100.725	-0.067	-0.078
-197.290	-89.911	-0.214	-0.062
-196.275	5.485	0.294	0.217
-195.260	23.265	0.262	-0.216
-194.246	-200.000	0.081	0.358
-193.231	77.202	-0.033	-0.035
-192.217	-8.143	-0.140	-0.095
-191.202	347.021	-0.086	-0.170
-190.187	-121.858	-0.129	0.021
-189.173	-16.197	0.211	-0.134
-188.158	-54.326	-0.079	0.036
-187.144	-51.953	0.126	0.059
-186.129	-145.842	-0.345	-0.031
-185.114	16.793	-0.250	-0.198
-184.100	368.924	0.116	0.236
-183.085	547.007	-0.061	-0.147
-182.071	60.866	0.133	-0.132
-181.056	800.000	-0.031	-0.126
-180.042	-200.000	0.002	-0.207
-179.027	800.000	0.072	-0.217
-178.012	-11.822	-0.317	0.208
-176.998	-119.246	0.124	-0.022
-175.983	38.998	0.167	0.149
-174.969	32.459	0.163	-0.141
-173.954	-77.729	-0.054	-0.019
-172.939	-13.123	0.359	0.234
-171.925	-96.384	0.245	0.065
-170.910	-200.000	0.016	0.098
-169.896	-6.437	0.046	0.032
-168.881	21.066	-0.184	0.149
-167.866	61.642	-0.011	-0.011
-166.852	495.934	0.140	0.322
-165.837	62.049	0.025	-0.025
-164.823	-117.743	0.179	-0.032
-163.808	379.651	0.033	-0.068
-162.793	800.000	-0.094	-0.396
-161.779	11.681	0.042	0.032
-160.764	-13.794	-0.252	0.163
-159.750	143.278	0.097	0.129
-158.735	-147.634	0.086	0.007
-157.720	-200.000	-0.009	0.208
-156.706	-200.000	0.038	0.193
-155.691	491.483	0.114	0.260
-154.677	-111.716	0.222	0.045
-153.662	-110.921	0.208	0.043
-152.647	31.495	-0.269	-0.231
-151.633	-200.000	0.002	-0.189
-150.618	-26.233	-0.329	-0.193
-149.604	-107.956	-0.155	-0.034
-148.589	-150.158	-0.299	-0.023
-147.574	-49.025	-0.182	0.087
-146.560	-200.000	-0.070	-0.517
-145.545	20.453	-0.043	0.035
-144.531	800.000	-0.028	-0.106
-143.516	-83.662	-0.267	-0.085
-142.502	-200.000	0.027	0.145
-141.487	437.545	-0.209	0.456
-140.472	239.094	0.114	0.190
-139.458	72.434	-0.184	-0.191
-138.443	84.587	0.255	-0.279
-137.429	-73.411	0.246	-0.090
-136.414	-72.910	0.076	0.028
-135.399	28.011	-0.134	0.113
-134.385	9.690	0.138	-0.104
-133.370	800.000	0.033	0.128
-132.356	-143.285	0.096	-0.009
-131.341	39.408	-0.068	0.061
-130.326	-200.000	-0.017	-0.134
-129.312	-148.225	0.139	-0.011
-128.297	-3.545	0.268	-0.186
-127.283	800.000	-0.039	0.113
-126.268	-49.044	0.056	0.027
-125.253	315.538	-0.126	-0.237
-124.239	17.547	0.035	0.028
-123.224	-116.507	0.162	0.030
-122.210	-106.548	0.278	0.062
