DTS Sentinel unit serial number:	SN413079Multiplexer serial number:	ORYXHardware model number:	OX4-SRSoftware version number:	ORYX F/W v4.00 Oryx Data Collector v3.7.2.0data status	okinstallation	princeton_trtdifferential loss correction	single-endedforward channel	channel 3reverse channel	N/Adate	2019/09/15time	13:00:35forward acquisition time	60.00reverse acquisition time	0.00gamma	496.2192k internal	0.2296k external	0.2296temperature offset calibration	0.9966default loss term (dB/km)	0.3790temperature slope calibration	1.0000multiplexer offset coefficient	1.0000multiplexer slope coefficient	1.0000fibre end	0.00T internal ref (°C)	36.48T ext. ref 1 (°C)	5.01T ext. ref 2 (°C)	34.65length (m)	temperature (°C)	Stokes	anti-Stokes-747.200	409.111	0.062	0.134
-746.185	-17.548	-0.083	0.053
-745.171	-11.257	0.198	-0.133
-744.156	-200.000	-0.044	0.290
-743.142	-149.996	0.402	-0.032
-742.127	-129.024	-0.211	0.030
-741.112	-24.748	-0.362	0.220
-740.098	-200.000	0.042	0.383
-739.083	-200.000	-0.067	0.446
-738.069	529.573	-0.194	0.467
-737.054	207.205	-0.133	0.212
-736.039	-200.000	-0.014	-0.090
-735.025	82.129	0.324	0.359
-734.010	190.230	0.134	-0.205
-732.996	-200.000	0.054	-0.272
-731.981	-13.818	0.100	-0.066
-730.966	8.242	-0.191	0.147
-729.952	43.195	-0.095	0.089
-728.937	-200.000	0.011	-0.103
-727.923	-135.658	-0.143	-0.017
-726.908	191.180	-0.290	0.446
-725.894	-91.680	-0.264	-0.077
-724.879	-152.800	-0.132	0.010
-723.864	-96.767	-0.159	0.043
-722.850	-98.691	-0.134	0.035
-721.835	417.330	-0.151	0.329
-720.821	-137.683	-0.114	0.013
-719.806	-135.471	0.398	-0.048
-718.791	162.865	-0.182	-0.261
-717.777	-118.764	0.079	-0.014
-716.762	-106.277	-0.236	-0.054
-715.748	62.036	0.138	-0.141
-714.733	800.000	-0.027	-0.111
-713.718	330.719	0.108	-0.212
-712.704	800.000	0.069	-0.257
-711.689	-145.173	-0.247	-0.023
-710.675	-200.000	0.005	-0.116
-709.660	800.000	0.044	0.188
-708.645	270.601	-0.042	-0.076
-707.631	-174.667	-0.382	0.011
-706.616	800.000	0.042	0.174
-705.602	330.877	-0.095	0.186
-704.587	289.749	-0.130	-0.241
-703.572	-113.983	0.290	-0.057
-702.558	-22.135	-0.054	0.033
-701.543	-200.000	-0.006	0.066
-700.529	368.427	-0.056	-0.116
-699.514	358.503	0.113	0.231
-698.499	48.946	0.233	0.223
-697.485	565.322	-0.119	0.294
-696.470	-133.829	-0.327	-0.041
-695.456	406.471	0.108	0.233
-694.441	-29.997	0.130	-0.075
-693.426	-122.422	-0.079	0.013
-692.412	-178.167	0.256	0.006
-691.397	198.872	-0.054	0.084
-690.383	-103.281	-0.247	0.060
-689.368	176.833	-0.187	-0.277
-688.354	-167.670	-0.156	0.006
-687.339	800.000	-0.075	-0.327
-686.324	-153.242	0.205	0.015
-685.310	-200.000	0.005	0.194
-684.295	-200.000	0.026	0.383
-683.281	-24.261	-0.184	0.112
-682.266	800.000	0.127	-0.380
-681.251	-200.000	0.003	-0.097
-680.237	530.163	-0.077	-0.186
-679.222	-200.000	-0.015	-0.338
-678.208	800.000	-0.074	0.212
-677.193	91.483	-0.334	0.382
-676.178	800.000	-0.030	0.099
-675.164	-78.878	-0.359	0.125
-674.149	-200.000	-0.043	0.255
-673.135	-50.706	-0.128	0.062
-672.120	48.614	0.081	-0.078
-671.105	511.054	-0.039	-0.092
-670.091	-200.000	0.011	-0.152
-669.076	541.303	0.066	0.161
-668.062	31.370	0.105	-0.092
-667.047	-59.993	0.204	0.089
-666.032	-91.162	0.181	-0.053
-665.018	-14.034	-0.151	0.099
-664.003	78.279	-0.335	-0.364
-662.989	27.350	0.271	-0.232
-661.974	800.000	-0.040	-0.164
-660.959	-200.000	-0.051	-0.326
-659.945	800.000	0.069	-0.238
-658.930	-124.358	-0.047	0.008
-657.916	-95.281	0.190	0.052
-656.901	-120.732	-0.245	0.042
-655.886	800.000	-0.050	0.174
-654.872	259.205	0.072	-0.127
-653.857	290.107	0.065	0.121
-652.843	-200.000	-0.009	0.086
-651.828	-79.800	0.357	-0.122
-650.814	66.226	0.107	-0.111
-649.799	-186.986	0.480	0.007
-648.784	393.185	0.077	-0.163
-647.770	-10.041	0.251	-0.170
-646.755	202.767	-0.114	-0.180
-645.741	241.318	-0.085	0.145
-644.726	-200.000	0.017	0.208
-643.711	17.849	0.069	-0.056
-642.697	102.661	-0.014	-0.016
-641.682	120.588	-0.117	0.148
-640.668	-94.139	0.158	0.044
-639.653	30.805	0.205	0.179
-638.638	68.697	-0.099	0.103
-637.624	102.566	-0.248	0.296
-636.609	-73.503	-0.202	0.075
-635.595	-93.886	0.036	0.010
-634.580	104.994	-0.089	-0.107
-633.565	800.000	0.066	-0.187
-632.551	-114.837	0.178	-0.034
-631.536	-76.162	0.249	0.089
-630.522	73.341	-0.123	0.131
-629.507	45.560	-0.173	-0.162
-628.492	-135.322	0.139	-0.017
-627.478	800.000	-0.079	0.238
-626.463	-200.000	-0.034	-0.323
-625.449	-12.037	0.107	0.071
-624.434	231.622	0.221	0.368
-623.419	-145.948	-0.045	0.004
-622.405	103.408	-0.112	-0.134
-621.390	-0.596	-0.160	-0.116
-620.376	209.973	-0.171	-0.272
-619.361	-60.659	0.161	-0.069
-618.346	-200.000	-0.035	-0.211
-617.332	48.193	0.014	-0.013
-616.317	264.983	-0.080	0.141
-615.303	-115.221	-0.476	-0.092
-614.288	-15.468	-0.440	0.286
-613.273	236.160	-0.063	0.105
-612.259	-200.000	-0.002	0.310
-611.244	-27.745	-0.355	-0.209
-610.230	-193.741	-0.199	0.002
-609.215	-200.000	0.041	0.537
-608.201	-92.036	0.231	0.066
-607.186	-122.138	-0.338	0.056
-606.171	-64.804	0.298	-0.123
-605.157	-200.000	-0.045	-0.283
-604.142	-89.084	0.308	0.093
-603.128	223.217	0.118	0.194
-602.113	-94.638	-0.243	-0.067
-601.098	140.341	-0.179	-0.240
-600.084	-200.000	-0.021	-0.117
-599.069	-147.526	-0.418	0.036
-598.055	-174.525	0.156	0.005
-597.040	-108.913	0.309	-0.067
-596.025	800.000	-0.087	-0.298
-595.011	29.690	-0.289	-0.250
-593.996	28.155	0.274	0.235
-592.982	557.626	-0.082	-0.200
-591.967	-87.341	-0.230	-0.071
-590.952	-168.496	0.220	0.009
-589.938	-109.142	0.235	0.051
-588.923	-62.138	0.425	-0.180
-587.909	800.000	-0.076	-0.300
-586.894	-200.000	0.008	0.190
-585.879	-6.974	-0.166	0.114
-584.865	800.000	-0.009	-0.025
-583.850	-113.569	-0.263	-0.052
-582.836	-186.550	-0.529	-0.008
-581.821	-59.034	-0.127	0.056
-580.806	800.000	0.017	0.064
-579.792	800.000	-0.036	0.107
-578.777	800.000	-0.020	0.055
-577.763	108.143	-0.112	0.136
-576.748	124.797	0.173	-0.222
-575.733	-12.453	-0.133	-0.088
-574.719	34.877	-0.266	0.236
-573.704	-6.916	-0.285	-0.197
-572.690	216.544	-0.137	-0.221
-571.675	232.870	-0.045	0.075
-570.661	-98.523	-0.374	0.097
-569.646	616.520	-0.083	-0.212
-568.631	-102.251	0.289	0.070
-567.617	-139.633	-0.289	0.031
-566.602	89.599	-0.162	0.184
-565.588	0.149	-0.166	0.120
-564.573	66.785	-0.210	-0.217
-563.558	24.796	-0.096	0.081
-562.544	4.652	-0.113	0.084
-561.529	313.708	0.056	-0.107
-560.515	-53.349	-0.261	0.121
-559.500	165.826	-0.208	-0.299
-558.485	139.681	0.160	-0.213
-557.471	370.850	0.080	-0.164
-556.456	-34.167	-0.259	0.144
-555.442	-8.854	-0.267	0.182
-554.427	800.000	-0.072	-0.201
-553.412	49.015	0.258	-0.246
-552.398	-97.458	-0.286	0.075
-551.383	-134.650	0.057	0.007
-550.369	-200.000	0.015	-0.116
-549.354	199.063	0.152	0.237
-548.339	800.000	0.065	0.209
-547.325	30.836	-0.137	0.119
-546.310	24.416	0.129	0.108
-545.296	-200.000	0.004	-0.021
-544.281	-200.000	0.020	0.210
-543.266	-200.000	0.019	0.150
-542.252	27.434	-0.351	-0.299
-541.237	-88.208	0.403	0.122
-540.223	154.833	-0.235	-0.327
-539.208	-200.000	-0.047	-0.230
-538.193	187.081	-0.115	-0.174
-537.179	259.797	0.158	-0.276
-536.164	137.746	-0.138	-0.183
-535.150	39.160	0.171	0.155
-534.135	-108.381	-0.068	-0.015
-533.121	-133.884	-0.279	-0.035
-532.106	-143.005	-0.145	-0.014
-531.091	-100.946	0.319	0.079
-530.077	-200.000	0.005	-0.111
-529.062	115.469	0.124	-0.154
-528.048	-6.656	0.236	0.163
-527.033	-99.841	-0.163	0.041
-526.018	4.591	-0.105	-0.078
-525.004	-137.092	-0.003	0.000
-523.989	-200.000	-0.004	-0.098
-522.975	137.372	0.143	0.190
-521.960	800.000	-0.068	0.260
-520.945	-121.022	-0.060	0.010
-519.931	-164.094	0.011	-0.001
-518.916	-90.812	-0.295	0.086
-517.902	-109.821	-0.326	0.069
-516.887	50.624	-0.056	-0.053
-515.872	-111.592	0.355	0.073
-514.858	286.896	-0.020	-0.036
-513.843	310.923	0.107	0.202
-512.829	-132.569	0.149	-0.019
-511.814	-88.906	-0.168	-0.050
-510.799	-96.333	-0.320	0.086
-509.785	291.290	0.050	-0.093
-508.770	-200.000	0.060	-0.402
-507.756	-4.993	-0.045	-0.031
-506.741	66.754	0.339	-0.350
-505.726	121.195	-0.097	0.122
-504.712	-133.005	-0.079	0.010
-503.697	168.395	0.056	-0.081
-502.683	-84.531	0.198	-0.063
-501.668	794.150	-0.049	0.136
-500.653	417.778	0.079	-0.171
-499.639	-125.345	0.302	-0.047
-498.624	-200.000	0.051	-0.230
-497.610	87.412	-0.142	-0.159
-496.595	89.811	-0.125	-0.141
-495.581	-200.000	-0.040	-0.402
-494.566	-200.000	0.003	-0.024
-493.551	-200.000	0.080	-0.410
-492.537	598.368	-0.046	-0.116
-491.522	305.416	-0.071	-0.134
-490.508	56.069	0.177	0.174
-489.493	-46.876	-0.445	0.220
-488.478	48.547	0.361	0.342
-487.464	-108.132	-0.196	0.043
-486.449	-99.384	-0.365	-0.093
-485.435	-116.221	0.192	0.036
-484.420	800.000	-0.035	0.101
-483.405	275.410	0.067	0.121
-482.391	223.127	0.096	0.157
-481.376	-119.226	-0.086	0.015
-480.362	-59.525	-0.030	-0.013
-479.347	-36.597	-0.125	0.068
-478.332	159.720	0.080	0.112
-477.318	83.061	-0.069	0.076
-476.303	-85.469	0.262	0.082
-475.289	408.796	0.070	0.150
-474.274	72.637	-0.112	0.118
-473.259	-110.553	0.360	0.075
-472.245	-147.276	-0.068	0.006
-471.230	-200.000	-0.010	-0.066
-470.216	186.358	0.116	-0.174
-469.201	21.007	-0.093	0.077
-468.186	-77.865	0.203	-0.071
-467.172	-135.764	-0.308	-0.037
-466.157	-151.564	0.229	0.017
-465.143	190.803	-0.127	0.194
-464.128	-115.780	-0.309	-0.059
-463.113	-0.699	-0.115	0.083
-462.099	-96.299	-0.238	-0.064
-461.084	57.066	-0.035	0.035
-460.070	800.000	0.035	0.148
-459.055	-200.000	-0.005	0.186
-458.040	-131.791	-0.221	-0.029
-457.026	800.000	0.019	-0.064
-456.011	39.334	0.142	-0.129
-454.997	-200.000	-0.021	-0.422
-453.982	639.370	0.049	0.126
-452.968	-200.000	0.014	0.086
-451.953	-200.000	0.021	0.129
-450.938	217.072	0.052	-0.083
-449.924	-64.127	-0.052	-0.021
-448.909	104.041	-0.034	-0.040
-447.895	-40.131	-0.463	-0.244
-446.880	-200.000	0.060	-0.276
-445.865	-200.000	-0.015	-0.128
-444.851	800.000	0.057	-0.214
-443.836	-118.860	-0.428	-0.076
-442.822	-90.467	-0.073	-0.021
-441.807	-109.758	-0.203	-0.043
-440.792	-129.308	0.168	0.024
-439.778	-39.867	0.478	0.252
-438.763	-200.000	-0.004	0.137
-437.749	-0.458	-0.111	0.080
-436.734	800.000	-0.042	0.147
-435.719	-33.585	0.079	0.044
-434.705	-18.268	0.069	-0.044
-433.690	-89.520	-0.060	0.018
-432.676	579.688	0.078	0.193
-431.661	0.456	-0.109	-0.079
-430.646	179.157	0.188	-0.277
-429.632	-48.045	-0.253	-0.123
-428.617	353.949	0.075	0.151
-427.603	51.194	-0.157	-0.150
-426.588	146.697	0.177	-0.240
-425.573	333.237	-0.187	-0.364
-424.559	121.787	0.117	0.147
-423.544	117.619	0.298	0.370
-422.530	11.313	-0.169	0.130
-421.515	-58.011	-0.087	0.038
-420.500	-94.401	-0.035	-0.010
-419.486	0.945	0.327	0.236
-418.471	-200.000	0.002	0.152
-417.457	-112.963	0.162	0.032
-416.442	-99.755	0.178	-0.045
-415.428	-25.683	-0.238	-0.141
-414.413	581.628	-0.067	0.165
-413.398	-200.000	0.046	-0.266
-412.384	-102.621	-0.084	-0.020
-411.369	91.633	0.260	-0.294
-410.355	-51.941	-0.150	-0.071
-409.340	-36.589	0.165	0.089
-408.325	800.000	0.079	-0.267
-407.311	1.475	0.159	-0.115
-406.296	800.000	0.177	0.524
-405.282	-200.000	-0.053	0.297
-404.267	-5.645	0.099	-0.069
-403.252	-160.732	-0.478	-0.026
-402.238	800.000	0.056	-0.218
-401.223	440.571	0.006	-0.014
-400.209	108.093	0.217	-0.261
-399.194	800.000	-0.063	-0.217
-398.179	-10.509	-0.119	-0.079
-397.165	-200.000	0.003	0.255
-396.150	-105.650	-0.186	-0.043
-395.136	59.348	-0.142	-0.141
-394.121	83.352	-0.060	-0.066
-393.106	55.875	-0.221	0.216
-392.092	-200.000	0.025	-0.113
-391.077	-74.365	-0.218	-0.079
-390.063	-200.000	-0.239	0.001
-389.048	-49.152	0.139	-0.067
-388.033	70.955	-0.052	0.055
-387.019	133.153	0.293	0.381
-386.004	238.919	0.115	-0.193
-384.990	209.913	0.134	-0.211
-383.975	-200.000	0.047	0.287
-382.960	74.374	-0.183	-0.194
-381.946	476.238	0.100	-0.229
-380.931	-160.539	0.203	0.011
-379.917	-42.413	0.144	0.074
-378.902	-200.000	0.011	0.168
-377.888	468.816	-0.018	0.041
-376.873	105.471	-0.156	0.186
-375.858	-112.389	-0.272	-0.055
-374.844	-140.813	0.111	0.012
-373.829	211.395	0.147	0.234
-372.815	-200.000	-0.029	0.333
-371.800	800.000	0.091	0.385
-370.785	-8.173	-0.065	-0.044
-369.771	132.707	-0.141	-0.183
-368.756	800.000	-0.037	0.130
-367.742	800.000	-0.051	0.211
-366.727	-54.139	-0.195	-0.089
-365.712	800.000	-0.080	-0.232
-364.698	67.236	0.136	0.140
-363.683	-43.466	-0.061	0.031
-362.669	-200.000	0.023	0.300
-361.654	-141.764	0.419	-0.042
-360.639	-200.000	-0.026	-0.339
-359.625	-200.000	0.019	-0.266
-358.610	-12.647	-0.057	-0.038
-357.596	-179.835	0.353	0.008
-356.581	455.646	0.072	0.161
-355.566	-38.080	0.039	-0.021
-354.552	-99.772	0.235	-0.059
-353.537	-200.000	-0.116	0.561
-352.523	295.994	-0.228	0.420
-351.508	-200.000	0.015	-0.067
-350.493	-26.934	0.361	-0.212
-349.479	-147.057	0.319	0.028
-348.464	-200.000	-0.016	0.112
-347.450	-200.000	0.032	0.161
-346.435	240.011	-0.193	0.324
-345.420	-41.990	0.507	-0.261
-344.406	800.000	-0.039	0.115
-343.391	-178.140	0.165	0.004
-342.377	-200.000	0.008	0.092
-341.362	25.847	0.391	-0.328
-340.348	107.488	-0.190	0.228
-339.333	800.000	0.058	0.189
-338.318	-200.000	0.025	0.152
-337.304	-43.460	0.268	-0.136
-336.289	62.897	-0.057	0.057
-335.275	-200.000	-0.007	0.095
-334.260	-101.324	0.179	-0.044
-333.245	-64.972	-0.351	-0.143
-332.231	6.921	0.431	0.323
-331.216	-200.000	-0.005	0.121
-330.202	1.068	-0.026	0.019
-329.187	-129.987	0.168	-0.023
-328.172	-139.357	0.135	-0.015
-327.158	-200.000	0.032	0.235
-326.143	220.402	-0.153	-0.247
-325.129	119.766	0.188	-0.234
-324.114	-200.000	-0.065	0.426
-323.099	-16.111	-0.167	-0.106
-322.085	-45.444	-0.220	-0.110
-321.070	94.481	0.045	-0.052
-320.056	773.577	-0.123	-0.338
-319.041	232.612	0.059	-0.097
-318.026	-75.150	-0.146	-0.052
-317.012	-200.000	-0.039	0.234
-315.997	203.785	0.118	0.183
-314.983	510.028	0.090	0.210
-313.968	-67.984	0.137	-0.054
-312.953	217.399	0.199	-0.318
-311.939	800.000	-0.089	-0.306
-310.924	-52.546	-0.162	-0.075
-309.910	466.323	0.226	0.509
-308.895	-200.000	-0.028	0.168
-307.880	106.772	-0.099	0.118
-306.866	78.549	-0.209	0.224
-305.851	-147.786	-0.181	0.015
-304.837	196.472	0.076	-0.117
-303.822	372.611	0.150	-0.307
-302.807	-163.067	0.102	0.005
-301.793	-107.983	-0.122	0.027
-300.778	87.290	0.156	0.173
-299.764	38.939	-0.209	-0.188
-298.749	-200.000	-0.022	0.199
-297.735	123.005	-0.068	-0.085
-296.720	-66.331	-0.487	-0.194
-295.705	-200.000	0.005	0.090
-294.691	43.626	0.125	0.115
-293.676	-152.766	0.328	0.023
-292.662	465.044	-0.196	-0.441
-291.647	394.571	-0.107	-0.223
-290.632	347.099	0.067	-0.132
-289.618	-200.000	-0.014	0.139
-288.603	319.241	-0.107	0.203
-287.589	-50.590	0.157	0.074
-286.574	-52.171	0.302	-0.141
-285.559	-180.939	0.246	0.005
-284.545	-200.000	-0.015	0.214
-283.530	800.000	-0.079	0.330
-282.516	17.050	0.096	0.076
-281.501	164.668	-0.190	0.269
-280.486	-8.567	0.184	0.124
-279.472	-200.000	0.009	0.412
-278.457	-8.047	-0.201	-0.136
-277.443	-130.298	0.211	0.029
-276.428	31.960	-0.134	0.116
-275.413	81.725	-0.018	0.020
-274.399	-94.456	0.242	0.066
-273.384	-11.776	0.227	-0.149
-272.370	-200.000	-0.006	0.086
-271.355	800.000	-0.033	-0.099
-270.340	-94.091	0.250	-0.069
-269.326	800.000	0.119	-0.487
-268.311	131.814	0.081	0.104
-267.297	135.425	-0.169	-0.220
-266.282	800.000	-0.053	-0.158
-265.267	-200.000	-0.010	-0.191
-264.253	800.000	0.026	-0.077
-263.238	-200.000	-0.039	0.399
-262.224	199.605	0.085	0.131
-261.209	-104.194	0.031	-0.007
-260.195	370.529	0.025	-0.050
-259.180	-21.566	0.109	-0.067
-258.165	580.510	0.132	0.325
-257.151	41.642	0.127	-0.115
-256.136	800.000	-0.020	0.076
-255.122	209.837	-0.104	-0.164
-254.107	800.000	-0.064	-0.231
-253.092	-181.306	0.304	0.006
-252.078	-167.284	-0.387	-0.016
-251.063	-200.000	0.004	0.187
-250.049	18.657	0.144	-0.116
-249.034	-184.081	-0.369	0.006
-248.019	201.792	0.107	-0.166
-247.005	206.346	0.126	-0.197
-245.990	-12.219	-0.271	-0.178
-244.976	800.000	0.020	0.070
-243.961	-200.000	-0.035	0.163
-242.946	-6.967	0.196	-0.134
-241.932	-200.000	0.026	0.112
-240.917	27.435	-0.171	0.144
-239.903	139.211	0.433	-0.571
-238.888	-90.753	-0.350	0.101
-237.873	-21.224	0.156	0.096
-236.859	-40.740	-0.175	-0.091
-235.844	-147.662	-0.276	-0.023
-234.830	116.117	0.060	0.074
-233.815	49.840	0.084	0.080
-232.800	-187.734	0.016	-0.000
-231.786	583.879	-0.136	0.334
-230.771	226.308	-0.130	-0.212
-229.757	204.054	-0.042	0.065
-228.742	298.635	-0.131	-0.241
-227.727	-47.162	0.228	-0.111
-226.713	628.757	0.058	-0.146
-225.698	232.117	-0.075	0.123
-224.684	-186.978	0.133	-0.002
-223.669	677.589	-0.173	-0.449
-222.655	28.441	0.195	0.165
-221.640	119.621	-0.124	0.154
-220.625	108.380	-0.058	-0.070
-219.611	-81.939	0.239	0.078
-218.596	-76.744	0.232	-0.082
-217.582	-119.493	-0.104	-0.018
-216.567	-73.765	-0.166	0.061
-215.552	-42.442	0.106	0.054
-214.538	800.000	-0.110	0.320
-213.523	-16.766	-0.245	0.155
-212.509	-84.231	-0.415	-0.132
-211.494	-23.844	-0.157	-0.094
-210.479	-200.000	0.051	-0.237
-209.465	-60.351	0.363	0.155
-208.450	-52.627	-0.193	0.089
-207.436	-16.594	0.139	-0.088
-206.421	-20.515	0.173	-0.106
-205.406	-96.485	-0.136	-0.036
-204.392	-102.249	0.216	-0.052
-203.377	23.713	0.199	0.164
-202.363	-80.280	0.217	-0.072
-201.348	800.000	0.050	0.171
-200.333	72.891	0.221	0.231
-199.319	-35.969	0.362	0.196
-198.304	-43.336	-0.178	0.090
-197.290	-101.173	-0.140	0.034
-196.275	-175.552	0.265	-0.007
-195.260	-200.000	-0.045	0.442
-194.246	21.747	-0.266	0.217
-193.231	-178.324	0.269	0.006
-192.217	145.641	-0.093	0.125
-191.202	-200.000	-0.006	-0.184
-190.187	-78.472	0.342	-0.117
-189.173	800.000	0.037	0.123
-188.158	35.954	0.207	-0.182
-187.144	-200.000	-0.006	0.144
-186.129	74.201	0.109	-0.114
-185.114	14.131	0.124	-0.096
-184.100	-69.960	0.293	-0.112
-183.085	-99.692	-0.063	-0.016
-182.071	496.054	0.099	0.227
-181.056	191.067	-0.190	-0.286
-180.042	-111.962	0.220	0.044
-179.027	-200.000	0.013	0.273
-178.012	-56.481	0.123	0.055
-176.998	800.000	0.064	-0.180
-175.983	-115.282	-0.351	-0.066
-174.969	-88.180	0.182	-0.054
-173.954	409.891	0.086	-0.183
-172.939	-158.937	0.121	0.007
-171.925	-74.830	0.148	0.053
-170.910	343.479	-0.008	0.017
-169.896	-58.438	-0.222	-0.096
-168.881	113.204	-0.086	0.105
-167.866	800.000	0.067	-0.201
-166.852	-51.844	-0.182	-0.085
-165.837	-131.580	0.161	0.021
-164.823	-17.393	-0.311	-0.195
-163.808	6.988	-0.112	-0.083
-162.793	-200.000	0.019	-0.173
-161.779	-200.000	0.026	-0.167
-160.764	-22.301	0.122	0.074
-159.750	-128.920	0.148	0.021
-158.735	-187.414	0.249	-0.003
-157.720	-22.330	-0.018	-0.011
-156.706	560.993	-0.045	0.110
-155.691	133.718	-0.049	0.063
-154.677	-200.000	-0.022	0.150
-153.662	439.932	0.174	0.381
-152.647	-200.000	0.023	-0.168
-151.633	-31.916	0.231	-0.129
-150.618	-49.786	0.050	0.024
-149.604	70.171	0.142	0.146
-148.589	-14.462	0.163	0.105
-147.574	-15.091	0.273	0.175
-146.560	407.832	-0.045	-0.095
-145.545	270.842	-0.073	-0.128
-144.531	-197.539	-0.276	0.002
-143.516	-200.000	-0.094	0.449
-142.502	-64.413	-0.044	-0.018
-141.487	82.227	-0.096	0.104
-140.472	-101.215	0.205	0.050
-139.458	60.143	-0.118	-0.117
-138.443	-24.457	-0.050	-0.030
-137.429	800.000	-0.053	0.229
-136.414	58.266	0.154	-0.151
-135.399	-157.631	-0.220	0.013
-134.385	-114.177	-0.105	0.020
-133.370	-200.000	-0.046	0.207
-132.356	-96.361	-0.272	0.072
-131.341	70.961	0.152	-0.157
-130.326	22.244	0.254	0.207
-129.312	-200.000	-0.002	0.049
-128.297	-200.000	-0.005	0.166
-127.283	141.320	0.150	0.198
-126.268	655.270	0.053	0.136
-125.253	111.325	-0.057	0.068
-124.239	800.000	0.056	0.220
-123.224	7.834	-0.118	-0.088
-122.210	-104.920	0.168	0.039
