DTS Sentinel unit serial number:	SN413079Multiplexer serial number:	ORYXHardware model number:	OX4-SRSoftware version number:	ORYX F/W v4.00 Oryx Data Collector v3.7.2.0data status	okinstallation	princeton_trtdifferential loss correction	single-endedforward channel	channel 3reverse channel	N/Adate	2019/09/19time	06:08:35forward acquisition time	60.00reverse acquisition time	0.00gamma	496.2192k internal	0.2349k external	0.2349temperature offset calibration	0.9985default loss term (dB/km)	0.3790temperature slope calibration	1.0000multiplexer offset coefficient	1.0000multiplexer slope coefficient	1.0000fibre end	0.00T internal ref (°C)	19.12T ext. ref 1 (°C)	0.57T ext. ref 2 (°C)	12.75length (m)	temperature (°C)	Stokes	anti-Stokes-747.200	-135.455	-0.288	-0.034
-746.185	-200.000	-0.004	0.616
-745.171	-200.000	0.030	0.177
-744.156	-128.171	-0.180	-0.026
-743.142	800.000	0.035	0.111
-742.127	-164.877	-0.286	0.013
-741.112	-89.793	0.359	-0.105
-740.098	295.181	-0.096	0.176
-739.083	654.038	0.061	0.157
-738.069	242.796	0.041	-0.069
-737.054	-200.000	0.005	0.206
-736.039	-168.871	-0.449	-0.017
-735.025	800.000	0.070	-0.256
-734.010	51.107	0.428	-0.406
-732.996	33.803	-0.194	-0.169
-731.981	230.854	0.032	-0.053
-730.966	-4.389	-0.403	0.278
-729.952	800.000	-0.029	-0.086
-728.937	-74.381	-0.212	0.076
-727.923	-152.597	0.177	0.013
-726.908	423.688	0.074	0.159
-725.894	128.895	0.030	-0.038
-724.879	-23.599	-0.350	0.210
-723.864	220.096	-0.097	-0.155
-722.850	-72.991	0.180	0.066
-721.835	-1.034	-0.230	0.162
-720.821	218.346	-0.151	-0.241
-719.806	517.074	0.119	0.278
-718.791	-20.698	-0.389	0.238
-717.777	190.765	0.097	0.145
-716.762	437.532	-0.152	-0.330
-715.748	-67.327	-0.190	0.075
-714.733	233.746	-0.182	0.299
-713.718	41.602	-0.379	0.343
-712.704	800.000	0.123	-0.433
-711.689	-200.000	0.144	0.000
-710.675	-3.665	0.255	0.177
-709.660	-200.000	-0.031	-0.222
-708.645	-144.336	0.388	-0.036
-707.631	-112.570	0.026	0.005
-706.616	-200.000	0.015	-0.173
-705.602	146.705	0.048	0.065
-704.587	609.567	-0.170	-0.424
-703.572	145.512	0.099	-0.132
-702.558	800.000	0.056	0.202
-701.543	16.523	0.059	-0.046
-700.529	83.326	0.288	-0.313
-699.514	800.000	0.053	0.180
-698.499	226.632	0.060	-0.098
-697.485	-126.538	0.357	-0.053
-696.470	-71.136	-0.339	0.127
-695.456	-97.088	-0.180	0.047
-694.441	-200.000	0.000	0.246
-693.426	-75.860	-0.240	0.085
-692.412	-200.000	-0.028	-0.135
-691.397	171.847	-0.148	0.212
-690.383	800.000	-0.087	0.272
-689.368	12.603	0.145	0.111
-688.354	-37.880	-0.284	-0.150
-687.339	-115.178	0.158	-0.030
-686.324	155.940	-0.172	0.236
-685.310	-113.608	0.436	0.085
-684.295	110.201	0.092	-0.110
-683.281	-200.000	0.039	0.172
-682.266	129.271	-0.215	-0.274
-681.251	28.937	0.148	-0.125
-680.237	800.000	0.128	-0.412
-679.222	-13.346	-0.262	0.169
-678.208	-33.077	0.182	0.100
-677.193	-27.013	0.218	-0.127
-676.178	337.664	-0.208	0.402
-675.164	656.335	0.060	0.153
-674.149	-149.028	-0.256	0.021
-673.135	-50.315	-0.229	0.108
-672.120	159.126	-0.126	0.175
-671.105	-90.432	0.354	-0.102
-670.091	224.208	-0.184	-0.297
-669.076	800.000	-0.045	-0.133
-668.062	-200.000	0.036	0.187
-667.047	315.247	0.098	-0.184
-666.032	-200.000	-0.032	-0.149
-665.018	-83.846	0.282	0.089
-664.003	-84.222	-0.021	0.007
-662.989	-200.000	0.017	0.416
-661.974	800.000	0.099	0.332
-660.959	-82.442	-0.213	0.069
-659.945	-46.588	0.038	-0.018
-658.930	-200.000	-0.018	0.158
-657.916	-14.940	0.149	0.095
-656.901	219.961	0.175	0.279
-655.886	24.328	0.181	0.149
-654.872	800.000	-0.039	0.148
-653.857	147.700	0.098	-0.131
-652.843	-187.283	0.158	0.002
-651.828	62.918	0.108	0.108
-650.814	35.334	-0.276	-0.241
-649.799	-158.402	-0.230	-0.013
-648.784	69.012	-0.370	0.379
-647.770	-150.244	0.319	0.025
-646.755	-185.740	0.113	0.002
-645.741	-70.027	0.151	0.057
-644.726	90.411	-0.216	0.240
-643.711	-61.164	0.275	-0.115
-642.697	-114.000	0.229	0.044
-641.682	39.145	0.177	-0.158
-640.668	451.825	0.146	-0.322
-639.653	595.471	0.047	0.117
-638.638	259.591	-0.197	-0.338
-637.624	-75.779	0.261	-0.092
-636.609	-3.220	-0.302	0.209
-635.595	-200.000	0.044	0.192
-634.580	426.912	0.040	0.085
-633.565	749.183	0.111	0.297
-632.551	-200.000	-0.003	-0.074
-631.536	-45.413	-0.360	-0.177
-630.522	145.265	0.167	0.222
-629.507	-81.468	0.187	0.061
-628.492	518.722	0.075	-0.176
-627.478	188.001	0.180	-0.267
-626.463	369.474	0.105	-0.212
-625.449	171.023	-0.187	0.267
-624.434	2.923	0.109	-0.079
-623.419	132.395	-0.071	-0.090
-622.405	-75.224	-0.296	0.105
-621.390	181.576	-0.173	0.253
-620.376	-200.000	0.011	0.159
-619.361	-134.234	-0.158	0.019
-618.346	245.555	-0.264	0.442
-617.332	-200.000	-0.057	0.255
-616.317	800.000	-0.135	0.543
-615.303	3.336	0.316	-0.229
-614.288	-70.473	-0.032	0.012
-613.273	-44.057	-0.077	0.039
-612.259	60.083	0.201	-0.197
-611.244	-200.000	-0.058	-0.259
-610.230	264.411	0.030	-0.051
-609.215	-200.000	0.022	0.257
-608.201	120.059	0.163	-0.201
-607.186	-72.285	0.148	0.054
-606.171	-171.272	0.210	0.007
-605.157	352.063	-0.153	-0.302
-604.142	126.359	0.093	-0.117
-603.128	-43.918	-0.161	0.080
-602.113	-200.000	-0.047	-0.384
-601.098	292.702	-0.095	-0.173
-600.084	-84.678	-0.327	0.102
-599.069	53.213	0.286	0.272
-598.055	-80.740	-0.367	-0.121
-597.040	-128.613	0.226	0.032
-596.025	800.000	0.045	0.172
-595.011	800.000	-0.027	0.111
-593.996	96.078	0.218	-0.247
-592.982	-20.076	0.231	-0.141
-591.967	-77.003	-0.204	-0.071
-590.952	41.684	0.226	0.203
-589.938	-43.605	-0.144	0.072
-588.923	1.591	0.152	0.109
-587.909	-200.000	0.004	-0.332
-586.894	800.000	0.068	0.262
-585.879	339.188	-0.140	0.270
-584.865	-94.229	-0.068	0.019
-583.850	-200.000	-0.049	0.249
-582.836	-126.851	0.127	-0.019
-581.821	-36.040	-0.279	-0.150
-580.806	-200.000	0.013	-0.071
-579.792	800.000	0.030	-0.131
-578.777	463.676	-0.116	-0.257
-577.763	-124.870	0.229	-0.035
-576.748	-5.542	0.234	0.160
-575.733	800.000	0.061	0.210
-574.719	365.413	0.110	-0.221
-573.704	-109.525	-0.149	0.031
-572.690	-28.193	0.368	0.211
-571.675	-200.000	-0.041	0.377
-570.661	267.427	-0.028	0.048
-569.646	-114.693	0.432	-0.082
-568.631	-112.745	-0.118	0.023
-567.617	524.972	0.077	-0.179
-566.602	-56.644	0.250	-0.110
-565.588	230.931	-0.004	0.007
-564.573	27.093	-0.127	-0.106
-563.558	-200.000	0.057	0.342
-562.544	-152.585	0.079	-0.006
-561.529	6.210	0.197	-0.145
-560.515	800.000	-0.088	0.245
-559.500	303.983	-0.142	0.261
-558.485	-200.000	-0.004	0.126
-557.471	176.262	0.214	-0.308
-556.456	-0.643	0.156	-0.110
-555.442	800.000	0.101	-0.373
-554.427	-135.442	-0.088	-0.010
-553.412	800.000	0.055	-0.167
-552.398	110.610	0.159	-0.190
-551.383	-110.716	0.202	0.041
-550.369	800.000	-0.060	-0.193
-549.354	800.000	-0.026	0.071
-548.339	33.216	0.102	-0.088
-547.325	80.780	0.138	-0.147
-546.310	-18.630	-0.116	0.072
-545.296	800.000	0.050	-0.145
-544.281	0.044	-0.181	-0.128
-543.266	-116.774	-0.243	0.044
-542.252	86.572	-0.090	0.099
-541.237	-160.372	0.115	0.006
-540.223	-65.748	-0.433	-0.172
-539.208	-200.000	-0.030	-0.177
-538.193	21.490	-0.093	0.075
-537.179	-101.816	0.153	-0.037
-536.164	-200.000	0.003	0.109
-535.150	-72.512	0.273	0.100
-534.135	-200.000	0.033	0.758
-533.121	-55.856	0.221	0.098
-532.106	-139.587	0.135	0.014
-531.091	-200.000	0.086	-0.381
-530.077	-200.000	-0.022	-0.196
-529.062	143.251	0.143	0.188
-528.048	290.568	0.147	-0.265
-527.033	-83.521	0.226	-0.072
-526.018	-172.006	-0.136	0.004
-525.004	475.088	0.126	0.281
-523.989	33.865	0.095	0.082
-522.975	-23.412	-0.242	0.144
-521.960	-48.920	-0.142	0.068
-520.945	-200.000	-0.026	0.115
-519.931	17.010	0.111	-0.087
-518.916	34.137	0.170	-0.147
-517.902	99.762	-0.013	-0.015
-516.887	800.000	-0.058	-0.246
-515.872	800.000	0.078	-0.240
-514.858	-95.563	0.048	-0.013
-513.843	800.000	0.109	-0.357
-512.829	-200.000	0.050	0.364
-511.814	-200.000	0.008	-0.137
-510.799	-96.199	-0.260	0.068
-509.785	187.969	0.140	0.208
-508.770	224.635	0.123	0.197
-507.756	220.485	-0.169	0.268
-506.741	-200.000	0.029	0.143
-505.726	-123.299	-0.076	-0.012
-504.712	-178.676	-0.257	0.006
-503.697	-200.000	-0.038	0.171
-502.683	135.688	0.170	0.219
-501.668	800.000	-0.092	-0.314
-500.653	-85.445	0.133	0.041
-499.639	-101.996	0.205	0.049
-498.624	-160.629	-0.505	0.027
-497.610	556.143	-0.048	-0.114
-496.595	-77.579	-0.345	-0.118
-495.581	48.195	-0.165	0.153
-494.566	-200.000	-0.024	-0.187
-493.551	57.680	0.089	-0.086
-492.537	-88.250	0.119	0.035
-491.522	66.336	-0.122	-0.123
-490.508	222.435	-0.120	-0.191
-489.493	-200.000	-0.014	0.206
-488.478	800.000	-0.140	-0.410
-487.464	800.000	-0.087	-0.266
-486.449	-26.120	-0.235	0.137
-485.435	471.574	0.083	0.185
-484.420	615.939	-0.023	-0.058
-483.405	129.303	0.222	0.280
-482.391	-0.369	-0.056	0.040
-481.376	68.059	0.105	-0.107
-480.362	800.000	0.017	-0.074
-479.347	-51.933	-0.260	-0.120
-478.332	-177.934	0.034	0.001
-477.318	6.855	0.072	0.053
-476.303	800.000	0.035	-0.150
-475.289	169.573	-0.228	0.322
-474.274	74.226	0.194	0.201
-473.259	-58.581	-0.111	0.048
-472.245	-200.000	-0.024	0.231
-471.230	5.627	-0.344	0.251
-470.216	198.424	0.248	0.375
-469.201	123.188	0.116	0.144
-468.186	800.000	-0.059	0.185
-467.172	251.668	0.091	0.153
-466.157	544.603	0.116	-0.274
-465.143	-133.799	-0.241	-0.030
-464.128	-69.755	-0.341	0.129
-463.113	800.000	-0.108	0.334
-462.099	-60.110	-0.286	-0.121
-461.084	230.057	0.145	-0.234
-460.070	185.253	-0.131	0.192
-459.055	-95.112	0.106	0.028
-458.040	49.666	-0.091	0.085
-457.026	548.093	0.117	-0.277
-456.011	126.124	-0.187	-0.233
-454.997	-200.000	0.028	-0.138
-453.982	-200.000	0.010	-0.063
-452.968	800.000	-0.035	0.141
-451.953	0.224	-0.138	-0.097
-450.938	-25.261	0.120	-0.070
-449.924	316.600	0.095	0.177
-448.909	69.985	-0.102	-0.104
-447.895	800.000	-0.057	0.242
-446.880	-200.000	-0.023	0.244
-445.865	-16.922	-0.201	0.125
-444.851	-50.401	0.115	0.054
-443.836	184.703	0.044	0.064
-442.822	-131.830	-0.312	0.040
-441.807	-200.000	-0.030	0.212
-440.792	-200.000	0.010	0.221
-439.778	199.784	0.219	-0.331
-438.763	800.000	-0.023	-0.093
-437.749	223.022	-0.129	0.205
-436.734	-40.191	-0.285	0.146
-435.719	534.521	-0.194	-0.454
-434.705	32.128	0.143	-0.122
-433.690	-200.000	-0.043	0.237
-432.676	295.249	-0.083	0.150
-431.661	23.150	0.106	-0.086
-430.646	488.623	-0.068	-0.153
-429.632	49.005	0.070	0.064
-428.617	312.615	0.072	-0.133
-427.603	800.000	-0.080	-0.306
-426.588	800.000	-0.144	0.602
-425.573	124.938	-0.047	-0.058
-424.559	800.000	0.093	-0.353
-423.544	800.000	0.106	0.359
-422.530	-73.400	0.373	0.134
-421.515	-23.250	-0.047	0.028
-420.500	-141.463	0.158	0.016
-419.486	159.742	0.056	-0.077
-418.471	296.917	0.190	-0.344
-417.457	800.000	-0.029	-0.089
-416.442	-80.759	-0.174	-0.057
-415.428	-10.858	0.348	-0.227
-414.413	-167.185	-0.324	0.013
-413.398	-114.362	0.104	-0.020
-412.384	-157.125	0.357	-0.021
-411.369	800.000	0.071	-0.204
-410.355	262.405	-0.154	-0.264
-409.340	181.650	0.164	0.237
-408.325	416.908	-0.129	0.272
-407.311	-91.035	0.118	-0.033
-406.296	-78.738	-0.529	-0.178
-405.282	13.517	0.339	-0.259
-404.267	-126.904	-0.339	-0.049
-403.252	309.557	0.103	-0.190
-402.238	-126.190	0.126	-0.019
-401.223	-200.000	0.029	-0.315
-400.209	0.350	0.153	-0.108
-399.194	-200.000	0.016	0.447
-398.179	800.000	0.027	0.117
-397.165	-163.127	0.168	-0.008
-396.150	-200.000	0.000	-0.217
-395.136	-200.000	0.064	-0.306
-394.121	285.701	0.121	-0.216
-393.106	800.000	-0.064	0.220
-392.092	-31.314	-0.277	-0.154
-391.077	196.095	0.074	0.111
-390.063	-49.947	0.384	0.180
-389.048	-67.508	-0.275	0.106
-388.033	126.074	-0.156	0.195
-387.019	175.134	0.076	0.108
-386.004	656.770	0.037	0.094
-384.990	1.336	-0.277	-0.196
-383.975	196.761	-0.142	-0.213
-382.960	800.000	-0.108	-0.441
-381.946	-128.371	-0.236	-0.033
-380.931	127.250	0.110	-0.138
-379.917	539.519	-0.026	0.062
-378.902	-200.000	0.010	-0.225
-377.888	581.125	-0.069	-0.166
-376.873	-200.000	0.009	-0.363
-375.858	-100.950	0.259	0.063
-374.844	10.393	-0.249	0.186
-373.829	583.779	0.041	0.099
-372.815	800.000	0.078	-0.243
-371.800	-69.834	-0.279	-0.105
-370.785	-61.238	0.085	0.035
-369.771	771.633	0.045	0.121
-368.756	800.000	0.097	0.310
-367.742	-145.573	0.114	-0.010
-366.727	-200.000	-0.017	-0.127
-365.712	33.383	0.263	-0.225
-364.698	106.785	-0.073	0.085
-363.683	-53.971	-0.287	-0.129
-362.669	-200.000	-0.005	-0.024
-361.654	484.734	0.056	-0.126
-360.639	-200.000	0.024	0.249
-359.625	86.366	-0.131	0.142
-358.610	157.759	0.097	0.132
-357.596	-19.867	0.120	-0.073
-356.581	133.837	0.103	-0.131
-355.566	800.000	-0.049	0.192
-354.552	288.650	-0.085	0.151
-353.537	335.577	0.165	0.315
-352.523	-200.000	0.028	-0.168
-351.508	136.460	0.246	-0.316
-350.493	-200.000	0.084	-0.432
-349.479	-200.000	0.031	0.465
-348.464	364.827	0.117	-0.232
-347.450	-168.146	-0.138	-0.005
-346.435	565.207	0.060	0.142
-345.420	-200.000	0.016	-0.215
-344.406	-200.000	-0.026	-0.333
-343.391	22.680	-0.269	-0.217
-342.377	686.582	-0.028	-0.073
-341.362	800.000	-0.052	-0.155
-340.348	155.140	0.132	-0.178
-339.333	800.000	0.055	0.167
-338.318	-139.202	0.068	-0.007
-337.304	-34.022	0.404	-0.218
-336.289	-82.478	0.253	0.081
-335.275	229.008	-0.074	0.118
-334.260	-116.562	-0.246	-0.045
-333.245	-75.644	0.061	-0.021
-332.231	-187.771	0.099	-0.001
-331.216	3.189	-0.354	0.253
-330.202	233.103	-0.176	-0.284
-329.187	-19.710	0.241	-0.146
-328.172	-46.185	0.191	0.092
-327.158	-23.437	0.163	-0.096
-326.143	566.631	-0.119	0.283
-325.129	-200.000	-0.035	0.228
-324.114	-200.000	0.013	-0.077
-323.099	97.413	-0.175	0.198
-322.085	-24.883	0.134	-0.078
-321.070	40.647	0.313	0.277
-320.056	-200.000	-0.041	0.184
-319.041	-49.031	-0.151	-0.071
-318.026	-53.268	-0.374	0.169
-317.012	-136.797	0.177	-0.020
-315.997	-102.059	-0.105	-0.025
-314.983	-200.000	0.032	0.181
-313.968	-21.744	0.074	-0.044
-312.953	-57.635	-0.375	0.161
-311.939	-200.000	-0.006	0.323
-310.924	263.397	-0.067	-0.115
-309.910	-200.000	0.005	-0.241
-308.895	-96.479	-0.410	-0.106
-307.880	-200.000	-0.037	0.185
-306.866	-36.967	0.251	-0.132
-305.851	23.400	0.194	-0.157
-304.837	56.191	0.238	-0.227
-303.822	-138.309	-0.217	-0.024
-302.807	11.770	0.094	-0.071
-301.793	-148.914	0.263	-0.021
-300.778	-74.417	-0.134	0.048
-299.764	13.218	-0.129	0.098
-298.749	151.426	0.167	-0.223
-297.735	679.443	-0.084	0.215
-296.720	141.363	-0.098	0.127
-295.705	800.000	-0.020	-0.056
-294.691	-124.771	-0.141	0.021
-293.676	77.532	0.046	-0.048
-292.662	-62.789	0.288	-0.117
-291.647	-103.508	-0.388	0.089
-290.632	-173.315	-0.207	-0.006
-289.618	800.000	0.015	0.049
-288.603	352.789	0.104	-0.202
-287.589	502.283	0.166	0.376
-286.574	-200.000	0.069	-0.342
-285.559	-200.000	0.062	0.000
-284.545	-200.000	0.014	-0.077
-283.530	-61.937	0.159	-0.065
-282.516	-80.156	0.151	-0.049
-281.501	404.419	-0.012	-0.025
-280.486	418.460	0.029	0.060
-279.472	-42.704	-0.102	0.051
-278.457	147.476	0.031	0.041
-277.443	-157.327	-0.191	0.011
-276.428	-198.016	0.214	0.001
-275.413	-66.064	-0.245	-0.096
-274.399	800.000	-0.038	-0.109
-273.384	-163.356	-0.249	-0.012
-272.370	-28.882	-0.372	0.209
-271.355	98.047	-0.171	-0.193
-270.340	689.299	-0.158	-0.406
-269.326	133.321	0.181	-0.230
-268.311	-129.950	0.216	-0.029
-267.297	63.503	-0.050	-0.049
-266.282	-200.000	0.001	0.181
-265.267	-130.546	0.295	-0.039
-264.253	396.716	-0.043	0.089
-263.238	102.593	-0.184	-0.211
-262.224	-106.706	0.393	-0.086
-261.209	-37.582	0.341	-0.178
-260.195	466.604	0.013	0.028
-259.180	-102.995	0.284	0.066
-258.165	-200.000	0.030	-0.299
-257.151	-21.840	-0.157	0.094
-256.136	-31.594	-0.317	-0.174
-255.122	-200.000	-0.016	0.257
-254.107	-164.898	0.140	0.006
-253.092	-13.587	0.061	0.039
-252.078	-108.380	0.186	0.039
-251.063	-25.346	-0.125	-0.072
-250.049	-200.000	-0.185	-0.001
-249.034	-200.000	-0.008	-0.161
-248.019	-200.000	0.001	-0.006
-247.005	-200.000	-0.046	0.241
-245.990	210.676	-0.108	-0.167
-244.976	-124.732	0.403	-0.061
-243.961	-90.431	-0.266	0.075
-242.946	-11.891	0.214	0.138
-241.932	-200.000	-0.040	-0.221
-240.917	-66.184	0.103	0.040
-239.903	-22.184	-0.171	0.102
-238.888	-200.000	-0.018	-0.397
-237.873	92.682	-0.022	-0.025
-236.859	-200.000	-0.100	-0.469
-235.844	-200.000	0.008	0.099
-234.830	-68.012	-0.238	0.091
-233.815	-125.321	-0.224	0.033
-232.800	55.245	0.281	-0.266
-231.786	-200.000	-0.058	0.259
-230.771	100.478	-0.182	-0.207
-229.757	792.866	0.042	0.112
-228.742	-200.000	0.026	0.512
-227.727	-114.319	-0.267	0.050
-226.713	-64.857	0.196	-0.078
-225.698	-200.000	-0.001	-0.200
-224.684	223.836	-0.194	0.306
-223.669	24.429	0.128	-0.104
-222.655	800.000	0.061	0.201
-221.640	-200.000	0.020	-0.095
-220.625	800.000	0.118	0.374
-219.611	32.857	0.063	0.053
-218.596	197.546	0.170	0.254
-217.582	-109.516	-0.117	-0.024
-216.567	32.577	-0.197	-0.166
-215.552	96.390	-0.098	-0.110
-214.538	800.000	-0.098	0.375
-213.523	307.480	0.057	-0.104
-212.509	291.859	-0.236	-0.421
-211.494	43.122	-0.140	0.125
-210.479	800.000	0.079	-0.243
-209.465	-36.260	-0.051	0.027
-208.450	20.995	-0.051	0.041
-207.436	-200.000	-0.008	0.081
-206.421	-100.654	0.079	0.019
-205.406	240.085	0.101	0.165
-204.392	418.095	-0.069	0.144
-203.377	418.355	-0.179	-0.373
-202.363	181.330	-0.240	-0.345
-201.348	-16.316	-0.018	0.011
-200.333	800.000	-0.054	-0.187
-199.319	290.392	0.127	0.225
-198.304	22.780	-0.066	0.053
-197.290	98.324	0.225	0.254
-196.275	-11.245	0.012	0.008
-195.260	-12.613	0.383	0.244
-194.246	183.167	0.166	0.240
-193.231	-6.603	-0.181	-0.120
-192.217	-68.749	-0.219	-0.083
-191.202	-105.398	-0.148	0.033
-190.187	-55.378	0.320	-0.140
-189.173	-200.000	0.076	-0.469
-188.158	297.727	-0.132	-0.236
-187.144	-200.000	0.062	0.475
-186.129	-200.000	-0.005	0.090
-185.114	232.194	0.130	-0.208
-184.100	-116.489	0.104	0.019
-183.085	122.571	-0.202	0.247
-182.071	74.433	0.102	0.105
-181.056	193.316	-0.206	0.305
-180.042	800.000	-0.042	-0.116
-179.027	800.000	-0.105	0.298
-178.012	-200.000	-0.093	0.403
-176.998	-114.666	0.282	0.053
-175.983	800.000	0.033	0.094
-174.969	-200.000	-0.041	-0.299
-173.954	-60.674	0.310	0.128
-172.939	-130.392	0.450	0.060
-171.925	800.000	-0.032	0.132
-170.910	-93.436	0.401	-0.108
-169.896	800.000	0.070	-0.233
-168.881	800.000	0.054	0.223
-167.866	-161.666	-0.302	-0.015
-166.852	800.000	0.077	-0.283
-165.837	-200.000	-0.007	0.089
-164.823	-200.000	-0.002	0.196
-163.808	152.327	-0.136	0.182
-162.793	140.951	-0.333	0.430
-161.779	-200.000	-0.021	0.415
-160.764	-67.548	-0.435	-0.167
-159.750	-138.010	0.148	-0.016
-158.735	60.670	-0.155	-0.150
-157.720	-67.726	0.086	0.033
-156.706	46.433	-0.182	-0.165
-155.691	-105.726	0.130	0.029
-154.677	728.656	0.154	-0.402
-153.662	-200.000	-0.020	0.171
-152.647	-78.682	-0.250	-0.083
-151.633	-79.237	-0.286	0.095
-150.618	149.056	0.132	-0.174
-149.604	245.892	-0.055	0.091
-148.589	-130.713	0.095	0.013
-147.574	-88.239	-0.047	-0.014
-146.560	800.000	-0.039	-0.110
-145.545	-113.042	0.192	0.037
-144.531	650.037	0.119	-0.297
-143.516	71.437	-0.304	0.308
-142.502	-200.000	0.035	-0.492
-141.487	-91.766	-0.322	0.089
-140.472	714.121	0.125	0.323
-139.458	-65.807	-0.119	0.046
-138.443	582.833	-0.102	0.243
-137.429	17.093	-0.123	0.095
-136.414	197.101	0.102	0.152
-135.399	17.761	-0.014	-0.011
-134.385	-146.030	0.194	-0.017
-133.370	87.145	-0.257	0.277
-132.356	13.847	0.025	-0.019
-131.341	142.206	-0.139	0.180
-130.326	-123.007	-0.086	-0.013
-129.312	-23.254	-0.248	0.146
-128.297	-200.000	-0.022	-0.167
-127.283	-133.827	0.420	0.051
-126.268	-53.726	-0.189	0.084
-125.253	720.206	-0.099	0.256
-124.239	-52.871	0.214	-0.096
-123.224	58.468	0.106	-0.102
-122.210	800.000	-0.145	0.451
-121.195	-172.097	0.388	0.012
