DTS Sentinel unit serial number:	SN413079Multiplexer serial number:	ORYXHardware model number:	OX4-SRSoftware version number:	ORYX F/W v4.00 Oryx Data Collector v3.7.2.0data status	okinstallation	princeton_trtdifferential loss correction	single-endedforward channel	channel 3reverse channel	N/Adate	2019/09/15time	17:00:34forward acquisition time	60.00reverse acquisition time	0.00gamma	496.2192k internal	0.2287k external	0.2287temperature offset calibration	0.9926default loss term (dB/km)	0.3790temperature slope calibration	1.0000multiplexer offset coefficient	1.0000multiplexer slope coefficient	1.0000fibre end	0.00T internal ref (°C)	44.48T ext. ref 1 (°C)	5.86T ext. ref 2 (°C)	40.60length (m)	temperature (°C)	Stokes	anti-Stokes-747.200	767.378	-0.068	-0.191
-746.185	340.422	-0.204	0.409
-745.171	-185.040	-0.301	0.005
-744.156	800.000	-0.120	0.408
-743.142	-169.271	-0.069	0.003
-742.127	396.013	-0.174	0.372
-741.112	800.000	-0.098	-0.365
-740.098	800.000	-0.106	0.315
-739.083	-200.000	0.012	0.160
-738.069	-200.000	-0.067	0.313
-737.054	45.187	0.164	-0.155
-736.039	1.675	-0.075	0.055
-735.025	-137.845	-0.324	0.037
-734.010	-163.346	0.149	-0.007
-732.996	125.399	-0.167	-0.216
-731.981	-69.012	0.328	-0.130
-730.966	-103.461	0.269	-0.065
-729.952	79.899	-0.230	0.253
-728.937	99.997	-0.087	-0.104
-727.923	-200.000	-0.018	-0.092
-726.908	-90.512	0.051	0.015
-725.894	800.000	-0.024	0.104
-724.879	-144.962	0.029	-0.003
-723.864	425.827	-0.128	-0.284
-722.850	-127.077	0.192	-0.029
-721.835	-98.205	-0.132	-0.035
-720.821	-200.000	0.060	-0.333
-719.806	23.122	0.251	0.211
-718.791	-165.245	0.126	-0.006
-717.777	-200.000	0.011	0.331
-716.762	800.000	0.105	0.312
-715.748	250.086	-0.250	-0.436
-714.733	-182.552	0.153	-0.003
-713.718	392.810	0.057	-0.121
-712.704	-45.234	-0.184	0.094
-711.689	8.305	0.227	0.175
-710.675	-127.479	-0.282	-0.042
-709.660	-37.134	-0.145	0.079
-708.645	-93.373	-0.061	0.017
-707.631	409.689	-0.120	0.261
-706.616	-54.932	0.379	0.175
-705.602	-14.335	-0.130	-0.086
-704.587	-79.011	0.236	0.082
-703.572	-114.187	-0.279	0.055
-702.558	800.000	0.021	0.071
-701.543	-72.413	-0.338	0.128
-700.529	29.310	0.137	-0.119
-699.514	-200.000	-0.005	-0.035
-698.499	270.463	-0.074	-0.133
-697.485	-36.290	-0.071	0.039
-696.470	740.974	0.024	-0.065
-695.456	-200.000	-0.013	-0.125
-694.441	68.907	0.112	0.118
-693.426	-188.129	0.066	0.001
-692.412	-200.000	-0.003	-0.081
-691.397	530.082	-0.070	0.170
-690.383	-108.896	0.264	0.058
-689.368	201.153	0.100	0.158
-688.354	57.823	0.274	-0.275
-687.339	124.585	0.065	-0.084
-686.324	215.293	-0.103	0.168
-685.310	-70.988	-0.296	-0.114
-684.295	93.886	-0.082	0.095
-683.281	120.219	-0.250	0.318
-682.266	-200.000	-0.016	-0.094
-681.251	-27.896	-0.088	-0.052
-680.237	67.849	0.039	0.040
-679.222	-200.000	-0.016	-0.148
-678.208	44.285	-0.196	0.184
-677.193	800.000	0.081	0.254
-676.178	359.677	0.109	-0.222
-675.164	255.111	0.163	-0.286
-674.149	313.794	-0.074	-0.142
-673.135	-143.579	-0.152	0.015
-672.120	-90.652	-0.076	-0.023
-671.105	-200.000	-0.022	-0.298
-670.091	-37.471	0.060	-0.033
-669.076	-137.613	-0.092	0.011
-668.062	445.171	0.082	0.183
-667.047	-122.697	-0.354	0.059
-666.032	139.772	0.150	0.202
-665.018	-107.037	0.091	-0.020
-664.003	502.160	0.037	0.086
-662.989	282.632	0.058	0.106
-661.974	-200.000	-0.027	-0.315
-660.959	20.059	0.069	0.057
-659.945	123.878	0.052	0.067
-658.930	-68.462	-0.130	0.052
-657.916	-67.865	0.096	0.038
-656.901	-192.711	0.209	-0.002
-655.886	800.000	-0.134	-0.402
-654.872	-143.494	0.183	-0.018
-653.857	800.000	-0.014	-0.045
-652.843	-200.000	0.079	-0.385
-651.828	139.178	0.052	-0.069
-650.814	-84.681	-0.138	0.044
-649.799	-200.000	0.042	-0.325
-648.784	-95.878	0.060	0.016
-647.770	-200.000	0.003	-0.109
-646.755	-200.000	0.014	-0.361
-645.741	-136.694	-0.297	-0.035
-644.726	-160.977	-0.158	-0.008
-643.711	-38.372	0.122	-0.066
-642.697	417.050	-0.152	-0.332
-641.682	9.961	0.190	-0.147
-640.668	800.000	0.040	-0.120
-639.653	429.835	0.059	-0.130
-638.638	45.062	-0.280	-0.264
-637.624	-200.000	0.069	-0.386
-636.609	-200.000	-0.015	-0.321
-635.595	-131.046	0.214	0.029
-634.580	-81.333	0.287	-0.097
-633.565	134.163	0.099	-0.131
-632.551	-200.000	-0.019	-0.292
-631.536	-200.000	-0.004	-0.030
-630.522	286.440	0.105	-0.194
-629.507	-126.180	-0.252	0.039
-628.492	-200.000	-0.058	0.309
-627.478	130.355	0.034	-0.045
-626.463	-112.227	-0.186	0.038
-625.449	-200.000	-0.007	-0.099
-624.434	-121.514	-0.107	-0.018
-623.419	-50.528	-0.236	-0.113
-622.405	-200.000	-0.056	-0.265
-621.390	181.166	-0.162	0.243
-620.376	-13.492	-0.241	0.159
-619.361	40.596	-0.099	0.091
-618.346	-200.000	-0.008	0.118
-617.332	-84.928	-0.263	0.084
-616.317	56.523	0.118	0.117
-615.303	-200.000	-0.013	-0.240
-614.288	-29.898	0.420	-0.244
-613.273	-73.280	0.137	0.051
-612.259	800.000	0.032	0.091
-611.244	-200.000	0.013	-0.221
-610.230	-200.000	0.042	-0.211
-609.215	-113.270	-0.268	0.054
-608.201	104.104	-0.121	-0.146
-607.186	53.321	0.167	0.163
-606.171	800.000	0.043	-0.126
-605.157	-170.943	-0.178	0.006
-604.142	154.307	-0.042	-0.059
-603.128	-148.030	0.307	-0.026
-602.113	29.162	-0.144	-0.125
-601.098	504.817	-0.077	-0.182
-600.084	672.409	-0.026	-0.068
-599.069	800.000	-0.047	-0.186
-598.055	-134.070	0.337	-0.042
-597.040	-1.219	-0.241	0.174
-596.025	800.000	0.090	0.306
-595.011	-123.563	0.172	0.028
-593.996	-42.518	0.093	-0.049
-592.982	128.479	-0.186	-0.241
-591.967	140.645	0.118	-0.159
-590.952	388.867	-0.172	-0.364
-589.938	149.217	-0.084	-0.116
-588.923	266.954	0.091	-0.162
-587.909	800.000	0.039	-0.130
-586.894	-127.297	-0.279	-0.042
-585.879	-83.855	-0.115	0.037
-584.865	800.000	0.020	-0.064
-583.850	144.573	-0.143	-0.195
-582.836	56.925	-0.103	0.102
-581.821	512.971	0.074	0.175
-580.806	389.280	-0.074	-0.156
-579.792	337.353	0.196	-0.389
-578.777	800.000	0.096	-0.310
-577.763	23.602	-0.186	-0.156
-576.748	-170.727	0.221	-0.008
-575.733	-200.000	0.017	-0.086
-574.719	291.142	-0.069	0.127
-573.704	376.309	-0.067	0.139
-572.690	277.204	0.113	0.205
-571.675	800.000	-0.110	-0.339
-570.661	-57.579	-0.296	-0.132
-569.646	-200.000	-0.002	-0.283
-568.631	-147.219	-0.277	-0.024
-567.617	381.058	-0.128	0.267
-566.602	-41.763	-0.072	0.037
-565.588	-38.737	0.174	0.094
-564.573	-105.634	-0.295	-0.068
-563.558	-200.000	-0.068	0.389
-562.544	30.678	0.108	0.095
-561.529	800.000	-0.016	0.046
-560.515	-176.225	-0.080	-0.002
-559.500	217.380	-0.165	0.267
-558.485	-98.251	0.373	0.098
-557.471	253.562	0.050	-0.087
-556.456	45.984	-0.159	0.150
-555.442	611.586	0.020	-0.050
-554.427	110.201	-0.152	0.186
-553.412	57.704	-0.122	0.121
-552.398	535.352	0.040	-0.096
-551.383	-200.000	0.099	0.509
-550.369	347.574	-0.107	0.214
-549.354	-12.965	0.263	0.174
-548.339	98.451	-0.164	0.193
-547.325	697.980	0.096	0.257
-546.310	-200.000	0.001	0.072
-545.296	-128.839	-0.075	0.011
-544.281	-53.439	0.177	-0.082
-543.266	230.940	-0.070	-0.117
-542.252	-200.000	0.023	-0.224
-541.237	-200.000	-0.022	-0.223
-540.223	-200.000	-0.073	0.368
-539.208	52.644	0.068	0.066
-538.193	37.360	-0.169	-0.153
-537.179	-200.000	-0.058	0.385
-536.164	336.220	0.086	0.169
-535.150	-14.481	-0.190	-0.125
-534.135	-10.615	0.160	0.108
-533.121	461.629	0.121	0.275
-532.106	800.000	0.106	-0.449
-531.091	-135.075	0.151	-0.019
-530.077	741.650	0.047	0.130
-529.062	-13.130	0.192	0.127
-528.048	-200.000	-0.114	0.540
-527.033	229.919	0.249	0.414
-526.018	-143.849	-0.072	-0.007
-525.004	-80.253	0.106	0.036
-523.989	-61.196	0.228	0.098
-522.975	-200.000	-0.008	0.100
-521.960	189.768	-0.150	0.228
-520.945	237.210	0.124	-0.210
-519.931	580.224	-0.126	0.313
-518.916	-27.646	-0.184	-0.109
-517.902	52.225	0.040	-0.039
-516.887	-108.792	-0.279	0.061
-515.872	-80.285	-0.056	-0.019
-514.858	-109.235	-0.189	0.041
-513.843	49.622	-0.432	-0.414
-512.829	-200.000	0.037	-0.267
-511.814	590.373	0.157	0.393
-510.799	-21.257	-0.060	0.037
-509.785	800.000	-0.009	0.038
-508.770	316.571	-0.153	-0.293
-507.756	-66.867	-0.047	-0.019
-506.741	-138.377	0.134	-0.015
-505.726	60.321	0.339	-0.341
-504.712	-114.230	-0.372	0.073
-503.697	523.157	-0.106	0.253
-502.683	228.737	-0.164	0.272
-501.668	482.345	0.041	0.094
-500.653	-200.000	0.025	-0.137
-499.639	-23.834	0.190	0.116
-498.624	-66.967	0.199	-0.080
-497.610	581.922	-0.143	-0.356
-496.595	-88.601	-0.135	0.041
-495.581	-108.128	-0.195	0.043
-494.566	-200.000	0.034	0.167
-493.551	-200.000	0.028	0.299
-492.537	-68.522	0.464	0.183
-491.522	107.289	-0.172	0.207
-490.508	-12.651	-0.120	0.079
-489.493	-200.000	-0.005	-0.233
-488.478	-128.524	0.135	0.019
-487.464	42.759	-0.021	0.020
-486.449	-200.000	-0.021	-0.187
-485.435	519.833	0.033	0.077
-484.420	134.622	-0.245	-0.323
-483.405	-200.000	0.043	0.205
-482.391	-28.267	0.260	-0.152
-481.376	221.411	0.198	-0.323
-480.362	4.620	0.072	-0.054
-479.347	800.000	-0.050	0.189
-478.332	406.554	-0.121	0.259
-477.318	-200.000	0.030	0.307
-476.303	-200.000	0.022	-0.167
-475.289	-200.000	0.020	-0.109
-474.274	-187.140	0.169	0.002
-473.259	796.161	0.118	-0.331
-472.245	800.000	0.058	0.173
-471.230	-200.000	-0.084	0.382
-470.216	-34.801	-0.418	-0.232
-469.201	800.000	-0.054	-0.176
-468.186	426.469	-0.071	-0.155
-467.172	-142.211	-0.591	-0.059
-466.157	0.554	-0.039	0.028
-465.143	127.780	0.083	0.107
-464.128	215.459	-0.127	0.205
-463.113	-103.175	0.327	0.078
-462.099	-200.000	0.015	-0.125
-461.084	-150.187	0.279	0.022
-460.070	39.264	0.061	0.055
-459.055	131.403	-0.087	-0.114
-458.040	-92.834	0.178	-0.050
-457.026	126.967	-0.093	-0.120
-456.011	-85.064	0.260	0.083
-454.997	194.655	0.032	-0.049
-453.982	-103.007	-0.270	0.065
-452.968	48.072	-0.059	0.056
-451.953	-200.000	0.003	0.031
-450.938	-143.548	0.232	-0.022
-449.924	-198.412	-0.132	-0.001
-448.909	-119.016	-0.197	-0.035
-447.895	800.000	-0.051	0.195
-446.880	162.851	0.065	0.093
-445.865	800.000	-0.074	0.331
-444.851	123.567	-0.060	0.076
-443.836	-200.000	0.048	0.396
-442.822	-200.000	0.053	0.420
-441.807	54.704	-0.175	-0.171
-440.792	-200.000	0.073	0.394
-439.778	278.565	-0.176	0.318
-438.763	273.160	0.168	0.300
-437.749	173.356	-0.196	0.287
-436.734	-200.000	-0.025	0.115
-435.719	79.611	-0.142	-0.154
-434.705	-171.535	-0.323	-0.011
-433.690	-145.511	0.077	-0.007
-432.676	502.104	0.028	-0.066
-431.661	41.202	-0.042	0.038
-430.646	-94.104	-0.226	-0.063
-429.632	64.401	0.123	0.126
-428.617	-200.000	0.036	0.168
-427.603	-115.106	0.154	-0.030
-426.588	112.863	0.081	-0.099
-425.573	4.432	0.118	0.087
-424.559	121.262	0.172	-0.217
-423.544	-146.190	0.131	0.012
-422.530	13.047	0.329	-0.258
-421.515	424.160	-0.085	0.185
-420.500	800.000	0.067	-0.197
-419.486	71.148	0.150	-0.157
-418.471	194.767	0.164	0.253
-417.457	-14.069	0.204	-0.133
-416.442	-200.000	-0.000	-0.074
-415.428	-58.951	0.223	-0.098
-414.413	-17.699	-0.385	0.245
-413.398	-155.653	0.272	-0.018
-412.384	436.161	0.118	0.260
-411.369	293.767	-0.092	-0.170
-410.355	16.795	-0.050	-0.040
-409.340	-83.736	-0.215	-0.070
-408.325	324.480	0.186	-0.359
-407.311	-48.534	0.354	0.172
-406.296	-200.000	-0.054	-0.300
-405.282	77.298	-0.396	0.427
-404.267	184.461	0.110	0.165
-403.252	-75.173	-0.263	-0.095
-402.238	93.701	0.222	-0.255
-401.223	29.545	0.286	-0.246
-400.209	-200.000	0.004	-0.082
-399.194	-106.016	-0.351	0.080
-398.179	800.000	-0.077	-0.250
-397.165	-200.000	-0.055	0.407
-396.150	-88.043	0.314	-0.095
-395.136	-149.304	0.464	-0.037
-394.121	-33.369	-0.031	-0.018
-393.106	518.649	0.046	0.109
-392.092	-157.740	0.314	-0.019
-391.077	-24.413	0.021	-0.013
-390.063	6.690	0.111	0.083
-389.048	0.747	0.179	0.130
-388.033	-150.460	-0.402	-0.031
-387.019	-64.121	-0.105	-0.043
-386.004	-184.889	0.164	0.003
-384.990	-11.446	-0.091	-0.061
-383.975	-161.830	0.128	-0.007
-382.960	-200.000	0.054	-0.254
-381.946	-200.000	0.086	-0.514
-380.931	-150.923	-0.238	0.018
-379.917	-200.000	-0.023	0.450
-378.902	106.092	0.293	-0.350
-377.888	37.847	0.158	0.142
-376.873	-200.000	0.021	-0.123
-375.858	-200.000	0.025	0.212
-374.844	-46.886	-0.217	0.107
-373.829	-92.189	-0.068	0.020
-372.815	22.964	-0.309	-0.256
-371.800	-10.507	-0.122	0.082
-370.785	182.871	-0.212	-0.316
-369.771	493.878	-0.091	-0.211
-368.756	-151.314	0.427	-0.032
-367.742	-4.712	-0.192	-0.134
-366.727	-59.532	-0.324	0.141
-365.712	800.000	-0.022	0.086
-364.698	-109.701	-0.139	0.030
-363.683	123.154	-0.039	0.050
-362.669	-200.000	0.044	0.231
-361.654	350.859	0.100	0.201
-360.639	576.197	-0.164	-0.406
-359.625	4.561	-0.158	-0.117
-358.610	-200.000	0.026	0.273
-357.596	626.983	0.111	0.282
-356.581	-34.202	-0.222	0.123
-355.566	-67.004	0.301	-0.120
-354.552	800.000	-0.054	0.221
-353.537	-200.000	0.051	0.243
-352.523	-67.543	0.281	0.111
-351.508	800.000	-0.025	0.077
-350.493	-108.224	0.213	0.047
-349.479	-24.478	0.080	0.048
-348.464	-200.000	0.006	-0.041
-347.450	-123.056	-0.221	-0.036
-346.435	-200.000	-0.017	-0.081
-345.420	-72.702	-0.184	0.068
-344.406	800.000	0.069	0.243
-343.391	-39.086	0.405	-0.215
-342.377	-143.710	0.161	0.015
-341.362	209.436	-0.175	0.277
-340.348	100.241	0.042	-0.049
-339.333	190.177	-0.145	0.220
-338.318	78.652	0.133	0.143
-337.304	-66.914	-0.242	-0.097
-336.289	-200.000	0.007	0.059
-335.275	60.097	-0.073	-0.073
-334.260	266.599	0.162	-0.286
-333.245	-200.000	0.007	0.069
-332.231	-33.478	0.123	0.069
-331.216	111.065	-0.250	0.304
-330.202	-38.896	-0.124	0.066
-329.187	800.000	0.056	-0.197
-328.172	41.589	0.056	-0.051
-327.158	-56.622	-0.212	-0.095
-326.143	-200.000	-0.014	-0.125
-325.129	-200.000	0.012	0.127
-324.114	104.921	0.269	0.320
-323.099	24.316	0.150	0.125
-322.085	62.197	-0.076	0.076
-321.070	44.855	0.133	0.123
-320.056	-94.989	0.155	0.042
-319.041	227.282	0.086	-0.140
-318.026	-44.582	0.194	0.098
-317.012	293.194	0.198	-0.364
-315.997	-25.694	-0.305	0.182
-314.983	10.368	0.324	-0.249
-313.968	145.459	-0.212	0.287
-312.953	27.246	-0.113	0.096
-311.939	-102.745	0.104	0.025
-310.924	131.518	-0.148	-0.192
-309.910	800.000	0.034	0.122
-308.895	60.607	0.155	0.155
-307.880	-5.768	-0.209	0.144
-306.866	-168.987	0.229	-0.009
-305.851	-135.851	-0.350	-0.042
-304.837	-39.099	-0.280	0.148
-303.822	201.853	-0.112	-0.175
-302.807	236.070	0.080	0.133
-301.793	-10.591	0.358	-0.239
-300.778	-200.000	0.035	0.323
-299.764	-32.872	-0.132	0.074
-298.749	86.434	0.048	-0.053
-297.735	-24.543	-0.341	-0.205
-296.720	625.250	0.039	0.099
-295.705	-20.152	0.186	0.115
-294.691	0.347	0.233	0.168
-293.676	210.114	0.071	0.112
-292.662	800.000	-0.054	-0.189
-291.647	131.822	-0.180	-0.233
-290.632	-25.245	0.248	0.148
-289.618	-163.574	0.323	0.015
-288.603	302.117	-0.183	0.340
-287.589	47.431	0.087	0.082
-286.574	-200.000	0.019	0.107
-285.559	-81.036	-0.280	-0.093
-284.545	256.634	0.106	-0.183
-283.530	281.120	-0.149	0.269
-282.516	214.616	-0.129	0.206
-281.501	55.852	0.054	-0.053
-280.486	59.210	-0.199	-0.197
-279.472	-98.522	0.078	0.020
-278.457	325.776	-0.133	0.256
-277.443	-119.382	-0.272	-0.048
-276.428	800.000	0.110	0.425
-275.413	-200.000	0.053	0.351
-274.399	55.151	0.431	-0.419
-273.384	36.578	-0.145	0.129
-272.370	7.360	0.337	-0.253
-271.355	-84.152	0.175	-0.056
-270.340	-31.029	-0.259	-0.147
-269.326	-200.000	0.025	-0.344
-268.311	-200.000	-0.024	-0.419
-267.297	232.769	-0.227	0.375
-266.282	-79.822	-0.199	0.067
-265.267	-13.345	0.161	0.105
-264.253	-200.000	-0.006	0.027
-263.238	800.000	0.007	0.023
-262.224	130.018	-0.065	0.084
-261.209	-92.302	-0.169	0.048
-260.195	-200.000	0.004	0.247
-259.180	800.000	0.014	0.044
-258.165	318.365	-0.095	-0.182
-257.151	27.930	-0.123	-0.104
-256.136	88.410	0.068	-0.076
-255.122	-151.113	0.404	-0.031
-254.107	70.149	-0.115	0.120
-253.092	-63.992	-0.165	-0.068
-252.078	-109.371	0.256	-0.055
-251.063	282.125	0.088	-0.158
-250.049	800.000	-0.124	0.351
-249.034	51.990	-0.123	0.118
-248.019	46.823	-0.087	-0.081
-247.005	207.867	-0.064	0.100
-245.990	-128.363	-0.105	0.015
-244.976	-77.889	0.257	-0.089
-243.961	39.220	0.192	-0.173
-242.946	77.070	0.051	-0.054
-241.932	479.031	-0.050	0.114
-240.917	-200.000	-0.044	0.265
-239.903	457.619	0.157	-0.350
-238.888	271.609	0.060	0.107
-237.873	13.581	0.125	-0.097
-236.859	-200.000	0.050	-0.352
-235.844	-32.855	0.168	-0.094
-234.830	-41.116	0.212	-0.110
-233.815	144.549	0.221	-0.296
-232.800	-118.360	0.096	0.017
-231.786	-7.838	0.097	-0.066
-230.771	-200.000	0.089	0.408
-229.757	34.737	-0.321	-0.282
-228.742	122.413	0.198	0.249
-227.727	-12.509	-0.194	0.127
-226.713	279.314	-0.152	-0.272
-225.698	19.145	0.196	-0.158
-224.684	253.389	0.033	-0.057
-223.669	-150.400	0.130	0.010
-222.655	-200.000	-0.008	-0.329
-221.640	-200.000	-0.025	0.441
-220.625	190.223	-0.060	0.091
-219.611	-69.549	-0.232	0.089
-218.596	-113.524	0.165	-0.032
-217.582	100.635	0.169	0.198
-216.567	-200.000	0.054	-0.282
-215.552	64.563	0.024	0.024
-214.538	226.179	-0.183	0.298
-213.523	-200.000	0.007	0.155
-212.509	41.729	0.219	-0.200
-211.494	800.000	0.035	-0.099
-210.479	364.835	0.067	-0.135
-209.465	11.705	-0.155	-0.120
-208.450	-158.803	-0.139	0.008
-207.436	-16.980	0.132	0.084
-206.421	59.117	0.178	0.176
-205.406	11.796	0.253	0.196
-204.392	4.797	-0.148	0.109
-203.377	-200.000	0.017	0.076
-202.363	503.546	-0.087	0.202
-201.348	595.945	-0.043	-0.108
-200.333	-65.186	0.142	-0.057
-199.319	-200.000	0.006	0.122
-198.304	-53.158	0.031	-0.014
-197.290	761.240	-0.102	-0.277
-196.275	18.634	0.071	0.057
-195.260	-73.386	-0.144	-0.053
-194.246	95.870	-0.044	0.050
-193.231	267.613	-0.009	-0.015
-192.217	134.341	-0.142	-0.184
-191.202	191.796	-0.107	-0.162
-190.187	-90.549	-0.083	-0.024
-189.173	118.728	-0.183	-0.227
-188.158	-13.386	0.249	-0.162
-187.144	115.005	-0.135	0.165
-186.129	-200.000	-0.010	-0.065
-185.114	-111.792	-0.137	-0.028
-184.100	-40.940	-0.125	-0.065
-183.085	-39.306	0.161	-0.085
-182.071	-121.152	-0.119	0.020
-181.056	-15.295	-0.162	-0.104
-180.042	-126.989	-0.211	-0.031
-179.027	85.304	0.259	0.286
-178.012	-158.270	0.185	0.011
-176.998	-39.473	0.126	0.066
-175.983	-1.470	0.174	-0.123
-174.969	244.204	-0.095	0.160
-173.954	32.525	-0.235	-0.204
-172.939	-110.789	0.108	-0.022
-171.925	-104.724	-0.184	-0.042
-170.910	-169.220	0.145	-0.005
-169.896	-114.357	0.472	-0.091
-168.881	261.489	-0.076	-0.132
-167.866	-98.367	-0.272	-0.070
-166.852	-200.000	0.021	-0.151
-165.837	-35.472	0.313	-0.171
-164.823	-200.000	-0.014	-0.067
-163.808	-87.445	-0.321	0.098
-162.793	418.197	0.064	-0.137
-161.779	-82.120	-0.102	-0.033
-160.764	-34.884	-0.072	0.039
-159.750	116.344	-0.034	-0.041
-158.735	-66.803	-0.238	-0.094
-157.720	-200.000	0.050	-0.328
-156.706	-77.523	0.122	-0.042
-155.691	-57.006	0.147	-0.065
-154.677	800.000	0.136	-0.433
-153.662	314.664	-0.057	0.108
-152.647	800.000	0.059	0.225
-151.633	406.405	-0.054	0.114
-150.618	-137.691	0.347	-0.039
-149.604	18.316	0.074	-0.059
-148.589	-34.806	0.128	-0.070
-147.574	-162.751	-0.242	-0.012
-146.560	385.273	-0.097	-0.201
-145.545	117.219	0.040	0.049
-144.531	-4.299	0.083	-0.057
-143.516	14.991	-0.119	0.094
-142.502	800.000	0.079	0.289
-141.487	19.262	-0.097	-0.078
-140.472	98.867	-0.062	-0.072
-139.458	100.559	-0.162	0.188
-138.443	798.245	0.164	-0.454
-137.429	448.193	-0.046	-0.102
-136.414	-133.100	-0.231	0.029
-135.399	136.374	-0.238	-0.311
-134.385	-71.464	0.140	0.052
-133.370	-129.775	0.146	0.020
-132.356	49.720	-0.095	-0.090
-131.341	42.501	0.251	0.229
-130.326	-200.000	0.016	-0.083
-129.312	-200.000	-0.014	-0.109
-128.297	495.289	0.068	-0.157
-127.283	-200.000	-0.000	0.138
-126.268	-154.600	0.246	0.016
-125.253	163.253	-0.054	-0.076
-124.239	56.924	-0.225	-0.219
-123.224	-37.743	-0.079	0.042
-122.210	-200.000	0.018	0.230
