DTS Sentinel unit serial number:	SN413079Multiplexer serial number:	ORYXHardware model number:	OX4-SRSoftware version number:	ORYX F/W v4.00 Oryx Data Collector v3.7.2.0data status	okinstallation	princeton_trtdifferential loss correction	single-endedforward channel	channel 3reverse channel	N/Adate	2019/09/12time	22:56:35forward acquisition time	60.00reverse acquisition time	0.00gamma	496.2192k internal	0.2327k external	0.2327temperature offset calibration	1.0126default loss term (dB/km)	0.3790temperature slope calibration	1.0000multiplexer offset coefficient	1.0000multiplexer slope coefficient	1.0000fibre end	0.00T internal ref (°C)	29.37T ext. ref 1 (°C)	3.73T ext. ref 2 (°C)	23.95length (m)	temperature (°C)	Stokes	anti-Stokes-747.200	236.657	0.105	-0.175
-746.185	-200.000	-0.004	0.027
-745.171	-18.304	-0.154	-0.097
-744.156	800.000	0.023	0.063
-743.142	-86.111	-0.171	0.053
-742.127	-30.057	-0.129	0.074
-741.112	257.545	-0.109	-0.188
-740.098	800.000	0.046	-0.189
-739.083	62.877	-0.076	-0.077
-738.069	676.803	-0.021	0.054
-737.054	-181.688	-0.269	0.005
-736.039	24.378	-0.066	-0.055
-735.025	-200.000	0.000	0.143
-734.010	396.118	-0.059	0.123
-732.996	-30.607	0.071	-0.041
-731.981	54.404	-0.317	-0.308
-730.966	-69.874	-0.345	0.132
-729.952	-15.008	0.044	-0.029
-728.937	-43.381	-0.331	-0.169
-727.923	-7.517	0.196	-0.134
-726.908	-103.380	-0.278	0.066
-725.894	-30.617	-0.300	-0.171
-724.879	-131.751	-0.470	0.062
-723.864	-85.149	0.254	0.080
-722.850	-158.052	-0.300	-0.018
-721.835	13.950	-0.110	-0.086
-720.821	73.182	-0.190	0.200
-719.806	800.000	0.054	-0.187
-718.791	-60.171	-0.229	-0.098
-717.777	105.582	-0.129	0.154
-716.762	660.703	-0.106	0.275
-715.748	-23.023	-0.192	0.116
-714.733	18.156	-0.077	0.062
-713.718	522.458	0.169	-0.400
-712.704	-119.425	-0.279	-0.049
-711.689	-200.000	0.002	-0.203
-710.675	210.572	-0.174	-0.275
-709.660	-92.683	0.287	0.081
-708.645	15.810	-0.305	0.241
-707.631	-139.298	-0.322	0.035
-706.616	123.209	-0.107	-0.135
-705.602	-1.495	-0.071	-0.050
-704.587	94.852	-0.069	-0.079
-703.572	800.000	0.070	-0.250
-702.558	147.527	-0.102	0.139
-701.543	22.958	0.255	-0.210
-700.529	-34.519	0.287	0.158
-699.514	800.000	0.058	-0.178
-698.499	-200.000	0.003	0.180
-697.485	-179.324	0.347	-0.008
-696.470	53.199	-0.280	-0.270
-695.456	-41.905	-0.360	-0.186
-694.441	-200.000	-0.001	0.037
-693.426	-64.876	-0.333	-0.135
-692.412	389.170	-0.083	-0.173
-691.397	-81.642	0.389	-0.128
-690.383	-41.743	-0.288	-0.149
-689.368	251.261	-0.099	-0.169
-688.354	195.235	-0.108	-0.165
-687.339	-200.000	0.059	0.425
-686.324	-150.192	-0.157	0.012
-685.310	158.796	-0.118	-0.164
-684.295	25.760	0.085	-0.071
-683.281	-154.337	0.088	0.006
-682.266	180.301	-0.174	-0.257
-681.251	-200.000	-0.028	0.227
-680.237	-139.852	0.058	-0.006
-679.222	176.513	0.152	0.223
-678.208	-200.000	-0.050	-0.515
-677.193	-22.528	0.085	0.052
-676.178	800.000	0.051	-0.145
-675.164	-83.443	-0.286	-0.092
-674.149	800.000	0.120	0.364
-673.135	151.102	-0.209	-0.286
-672.120	15.371	0.225	-0.177
-671.105	-60.100	-0.382	-0.164
-670.091	147.030	0.044	0.059
-669.076	-200.000	0.015	-0.091
-668.062	18.563	-0.282	-0.227
-667.047	39.762	0.026	-0.023
-666.032	77.721	0.161	-0.172
-665.018	-111.611	-0.266	0.054
-664.003	-28.931	-0.332	-0.192
-662.989	800.000	-0.019	-0.062
-661.974	218.483	-0.127	0.204
-660.959	-113.282	0.056	0.011
-659.945	-164.377	-0.211	0.010
-658.930	81.037	-0.262	-0.284
-657.916	240.754	0.201	0.336
-656.901	-200.000	0.007	0.284
-655.886	68.984	0.089	-0.092
-654.872	39.864	0.143	-0.129
-653.857	-153.311	-0.361	0.025
-652.843	151.743	-0.218	-0.299
-651.828	17.052	-0.177	0.141
-650.814	-78.176	-0.297	-0.102
-649.799	-103.939	0.130	0.030
-648.784	-62.714	0.336	-0.140
-647.770	-149.235	0.262	-0.021
-646.755	-76.487	0.099	-0.035
-645.741	-200.000	0.001	0.395
-644.726	-136.199	0.138	-0.016
-643.711	800.000	0.044	-0.173
-642.697	118.859	-0.215	0.266
-641.682	-45.946	0.140	-0.069
-640.668	-128.840	-0.130	0.018
-639.653	-84.577	-0.201	-0.064
-638.638	-96.962	0.100	0.026
-637.624	175.608	0.141	0.205
-636.609	62.009	-0.197	-0.197
-635.595	-200.000	-0.008	-0.516
-634.580	-200.000	-0.054	0.240
-633.565	99.979	0.239	0.278
-632.551	-18.518	0.483	-0.302
-631.536	-73.074	0.098	0.036
-630.522	70.711	0.262	-0.272
-629.507	44.315	0.088	-0.081
-628.492	-116.277	-0.024	-0.004
-627.478	-122.041	0.005	0.001
-626.463	-45.178	-0.120	-0.060
-625.449	-65.266	-0.185	0.075
-624.434	729.982	0.054	-0.144
-623.419	341.507	0.240	-0.470
-622.405	-129.915	-0.155	0.021
-621.390	-200.000	0.006	-0.035
-620.376	-17.326	0.333	-0.211
-619.361	-22.105	-0.072	-0.044
-618.346	2.727	0.320	0.232
-617.332	3.325	-0.124	-0.091
-616.317	-22.618	-0.298	0.181
-615.303	38.098	0.171	0.153
-614.288	60.465	0.207	-0.206
-613.273	-97.238	-0.187	-0.049
-612.259	6.688	-0.133	0.099
-611.244	-200.000	-0.026	0.177
-610.230	-97.470	0.154	0.040
-609.215	498.779	-0.082	-0.190
-608.201	74.736	-0.080	0.085
-607.186	8.203	0.199	0.150
-606.171	-92.414	-0.117	0.033
-605.157	49.081	-0.249	-0.234
-604.142	800.000	-0.063	-0.211
-603.128	-38.880	-0.353	-0.187
-602.113	319.533	0.132	0.251
-601.098	770.775	-0.068	0.187
-600.084	240.277	0.203	-0.339
-599.069	226.449	-0.066	-0.108
-598.055	-28.013	0.055	-0.032
-597.040	267.568	-0.047	-0.082
-596.025	57.464	-0.135	-0.132
-595.011	64.367	-0.101	-0.102
-593.996	-200.000	-0.074	-0.336
-592.982	691.054	-0.055	-0.145
-591.967	108.027	0.144	-0.172
-590.952	69.209	-0.119	-0.122
-589.938	-38.467	0.127	0.067
-588.923	346.572	0.048	-0.094
-587.909	-10.486	-0.224	-0.149
-586.894	48.305	-0.113	-0.106
-585.879	-62.757	-0.286	0.119
-584.865	-200.000	-0.066	-0.552
-583.850	-149.025	-0.111	0.009
-582.836	-200.000	-0.019	0.136
-581.821	306.981	-0.200	0.374
-580.806	-150.483	-0.209	0.016
-579.792	-19.310	0.297	0.185
-578.777	-200.000	0.010	0.155
-577.763	7.521	0.187	0.140
-576.748	324.136	0.054	0.103
-575.733	452.885	0.260	0.577
-574.719	145.863	0.148	-0.199
-573.704	800.000	0.097	0.273
-572.690	-106.785	0.296	-0.066
-571.675	-149.498	-0.356	0.028
-570.661	800.000	-0.036	0.156
-569.646	7.385	-0.177	0.132
-568.631	-90.858	0.212	0.061
-567.617	238.450	-0.166	-0.276
-566.602	234.942	-0.124	0.205
-565.588	-200.000	0.007	0.147
-564.573	60.239	-0.078	0.077
-563.558	800.000	0.045	-0.142
-562.544	-99.224	-0.138	-0.035
-561.529	-200.000	-0.071	0.507
-560.515	-46.226	-0.020	0.010
-559.500	114.519	0.249	-0.304
-558.485	-138.463	-0.262	0.029
-557.471	356.681	-0.057	0.114
-556.456	194.548	0.157	-0.238
-555.442	389.359	0.039	-0.081
-554.427	-63.916	0.142	0.058
-553.412	46.807	-0.260	-0.242
-552.398	179.916	0.219	-0.321
-551.383	-137.438	0.114	0.013
-550.369	687.443	0.116	-0.302
-549.354	-200.000	0.020	-0.164
-548.339	-200.000	-0.020	0.163
-547.325	-47.483	-0.060	-0.029
-546.310	143.562	-0.236	-0.315
-545.296	-200.000	0.003	-0.328
-544.281	-56.228	0.199	-0.089
-543.266	24.385	0.058	-0.048
-542.252	-26.517	-0.307	0.180
-541.237	-58.246	0.154	-0.067
-540.223	292.998	-0.085	0.155
-539.208	-200.000	0.033	-0.338
-538.193	-102.354	0.118	-0.028
-537.179	1.294	-0.220	-0.158
-536.164	-200.000	0.005	-0.064
-535.150	204.806	-0.143	-0.222
-534.135	217.123	-0.028	-0.045
-533.121	97.499	-0.039	0.045
-532.106	-200.000	-0.085	-0.412
-531.091	507.334	0.207	0.480
-530.077	-131.932	-0.249	-0.032
-529.062	-200.000	-0.016	-0.149
-528.048	800.000	-0.052	-0.177
-527.033	-110.518	-0.125	0.026
-526.018	-200.000	-0.021	0.102
-525.004	387.685	0.114	0.236
-523.989	-15.450	-0.151	-0.097
-522.975	368.004	-0.067	0.136
-521.960	-32.260	-0.174	0.097
-520.945	531.077	-0.061	-0.145
-519.931	-200.000	-0.018	0.432
-518.916	273.611	-0.024	-0.043
-517.902	-40.396	0.047	-0.024
-516.887	-149.323	-0.164	0.013
-515.872	-161.903	0.373	0.019
-514.858	-132.021	0.368	0.048
-513.843	-200.000	0.046	0.218
-512.829	-200.000	0.037	0.258
-511.814	-101.276	-0.302	-0.074
-510.799	-200.000	0.019	0.253
-509.785	-200.000	-0.282	-0.001
-508.770	-156.803	0.205	0.013
-507.756	-200.000	-0.005	-0.031
-506.741	47.268	-0.191	-0.178
-505.726	-122.341	-0.474	0.077
-504.712	68.659	-0.205	0.210
-503.697	791.136	0.081	0.221
-502.683	139.102	0.175	0.230
-501.668	610.189	-0.081	0.201
-500.653	-25.095	-0.243	0.144
-499.639	-200.000	-0.001	0.110
-498.624	-111.637	0.164	0.033
-497.610	229.772	0.142	-0.232
-496.595	24.373	0.171	-0.141
-495.581	-34.593	0.154	-0.084
-494.566	-8.544	-0.101	0.067
-493.551	307.756	0.165	-0.308
-492.537	-111.860	0.322	0.065
-491.522	368.835	-0.128	0.259
-490.508	-104.177	0.125	0.029
-489.493	-200.000	0.029	0.158
-488.478	234.052	-0.090	0.148
-487.464	-200.000	-0.039	0.189
-486.449	-86.753	-0.290	-0.089
-485.435	-200.000	0.034	0.316
-484.420	72.223	-0.227	0.236
-483.405	25.485	0.385	0.320
-482.391	539.463	0.068	-0.162
-481.376	800.000	0.041	-0.118
-480.362	-25.079	0.174	0.103
-479.347	-140.533	-0.214	0.022
-478.332	-132.454	0.313	-0.040
-477.318	364.200	-0.021	-0.042
-476.303	-147.887	-0.337	0.028
-475.289	800.000	-0.062	-0.239
-474.274	-4.537	-0.199	0.137
-473.259	29.101	-0.105	0.089
-472.245	-144.974	-0.054	-0.005
-471.230	-23.782	0.098	-0.058
-470.216	-118.766	-0.310	0.054
-469.201	-88.873	-0.149	0.044
-468.186	-200.000	-0.014	-0.242
-467.172	-200.000	-0.014	0.186
-466.157	800.000	0.028	-0.100
-465.143	288.668	0.192	-0.348
-464.128	-200.000	0.036	-0.279
-463.113	-200.000	0.027	0.150
-462.099	-200.000	-0.042	-0.263
-461.084	-81.846	-0.186	-0.061
-460.070	-146.171	0.394	-0.035
-459.055	-4.115	-0.010	0.007
-458.040	-5.204	0.175	0.120
-457.026	800.000	-0.071	-0.250
-456.011	-13.556	0.391	-0.253
-454.997	-63.309	-0.143	0.059
-453.982	-53.240	-0.146	0.067
-452.968	-50.294	0.121	-0.057
-451.953	389.288	0.088	0.182
-450.938	800.000	0.125	-0.406
-449.924	112.707	-0.103	-0.124
-448.909	183.115	-0.054	-0.079
-447.895	-200.000	-0.015	0.103
-446.880	369.589	0.027	0.054
-445.865	-200.000	0.002	-0.087
-444.851	-83.040	-0.135	0.043
-443.836	215.946	0.141	-0.224
-442.822	-154.153	0.082	0.006
-441.807	-34.001	-0.051	-0.028
-440.792	-200.000	0.051	-0.294
-439.778	9.316	-0.131	0.099
-438.763	-164.162	0.296	-0.014
-437.749	800.000	0.073	0.232
-436.734	-23.245	-0.113	-0.068
-435.719	675.392	0.071	-0.184
-434.705	84.372	0.244	0.266
-433.690	-20.124	-0.044	-0.027
-432.676	241.727	-0.081	-0.136
-431.661	317.804	-0.180	0.338
-430.646	-114.598	-0.137	-0.026
-429.632	-200.000	-0.033	-0.164
-428.617	-25.089	-0.119	-0.070
-427.603	-200.000	-0.020	0.107
-426.588	-200.000	0.002	0.061
-425.573	-199.770	0.146	-0.001
-424.559	26.972	-0.075	-0.063
-423.544	415.717	0.164	0.349
-422.530	800.000	-0.044	0.164
-421.515	-10.773	0.141	0.093
-420.500	800.000	-0.075	-0.237
-419.486	-133.092	-0.106	-0.013
-418.471	435.265	0.099	0.215
-417.457	79.490	0.051	0.054
-416.442	62.067	-0.236	0.234
-415.428	-76.339	-0.415	-0.145
-414.413	19.303	0.071	-0.057
-413.398	-75.186	0.286	-0.102
-412.384	64.256	-0.153	0.153
-411.369	318.313	-0.107	-0.201
-410.355	-32.282	-0.042	-0.023
-409.340	99.340	-0.055	-0.063
-408.325	-200.000	-0.019	-0.327
-407.311	408.619	-0.022	-0.047
-406.296	56.134	0.162	0.156
-405.282	20.557	0.131	-0.106
-404.267	572.726	-0.150	-0.364
-403.252	635.049	-0.133	-0.336
-402.238	20.635	-0.257	-0.207
-401.223	369.485	0.037	0.075
-400.209	-200.000	-0.028	-0.129
-399.194	-200.000	-0.013	0.198
-398.179	-200.000	0.046	0.379
-397.165	-200.000	0.016	0.084
-396.150	-112.656	0.106	0.021
-395.136	-200.000	0.032	-0.188
-394.121	-200.000	-0.049	-0.327
-393.106	-72.934	-0.115	-0.042
-392.092	-187.627	-0.460	-0.006
-391.077	127.066	-0.057	0.072
-390.063	289.840	0.036	-0.065
-389.048	3.268	-0.191	0.138
-388.033	15.621	0.201	-0.157
-387.019	-200.000	0.014	-0.090
-386.004	-200.000	-0.033	-0.249
-384.990	94.666	-0.104	0.117
-383.975	405.766	0.048	0.100
-382.960	-200.000	-0.009	0.096
-381.946	20.036	-0.044	0.036
-380.931	-100.677	-0.254	-0.062
-379.917	44.068	0.203	-0.185
-378.902	-78.304	-0.145	-0.050
-377.888	263.452	0.051	-0.088
-376.873	69.317	-0.132	-0.135
-375.858	-200.000	0.000	-0.125
-374.844	-44.172	0.234	0.117
-373.829	769.164	0.015	0.040
-372.815	505.783	0.057	0.130
-371.800	-107.844	0.092	-0.020
-370.785	-72.016	-0.055	0.020
-369.771	-145.323	-0.215	0.019
-368.756	-6.953	-0.077	-0.052
-367.742	-200.000	0.047	0.324
-366.727	-200.000	0.002	-0.038
-365.712	-33.736	-0.214	-0.117
-364.698	-200.000	0.002	0.071
-363.683	800.000	-0.101	-0.329
-362.669	-125.805	0.508	0.076
-361.654	23.518	-0.083	0.068
-360.639	-37.789	0.144	-0.076
-359.625	-92.076	0.297	0.083
-358.610	-147.960	-0.065	0.005
-357.596	-65.690	0.113	-0.045
-356.581	-165.473	-0.236	0.010
-355.566	-99.241	-0.225	-0.057
-354.552	-68.177	0.365	0.141
-353.537	103.107	0.110	-0.128
-352.523	553.774	0.072	0.173
-351.508	124.888	-0.231	0.288
-350.493	8.232	-0.132	-0.098
-349.479	-44.387	0.023	-0.012
-348.464	-71.174	-0.323	-0.120
-347.450	178.962	0.064	0.093
-346.435	-81.306	-0.017	0.005
-345.420	-108.079	0.134	0.029
-344.406	-200.000	-0.004	-0.072
-343.391	-200.000	0.041	0.193
-342.377	32.490	0.206	0.177
-341.362	-58.493	0.274	-0.118
-340.348	-94.005	-0.278	0.076
-339.333	-163.253	-0.433	-0.021
-338.318	-54.238	0.100	-0.045
-337.304	-200.000	0.039	-0.207
-336.289	-93.737	-0.221	0.060
-335.275	-200.000	0.043	0.257
-334.260	-200.000	0.009	0.120
-333.245	127.254	0.134	0.169
-332.231	-59.274	0.164	-0.070
-331.216	-149.895	0.289	0.022
-330.202	-54.071	-0.319	0.144
-329.187	705.574	0.084	-0.220
-328.172	-35.274	0.188	0.101
-327.158	42.996	-0.065	-0.058
-326.143	-166.380	0.214	-0.009
-325.129	-11.497	0.104	0.068
-324.114	-121.201	0.300	-0.050
-323.099	-200.000	-0.029	0.163
-322.085	-46.380	0.195	-0.095
-321.070	115.536	-0.179	0.216
-320.056	-68.644	0.122	0.047
-319.041	593.515	0.040	-0.099
-318.026	248.458	-0.159	-0.267
-317.012	-28.172	0.346	0.198
-315.997	61.317	-0.201	0.198
-314.983	107.374	0.127	0.149
-313.968	15.007	0.187	-0.145
-312.953	133.241	-0.059	0.075
-311.939	-76.547	-0.057	0.020
-310.924	304.318	-0.128	0.235
-309.910	-127.241	-0.634	-0.092
-308.895	-200.000	-0.224	0.000
-307.880	2.775	-0.160	0.115
-306.866	-169.080	-0.104	-0.004
-305.851	71.063	0.193	-0.198
-304.837	325.668	0.219	0.415
-303.822	471.971	-0.116	0.258
-302.807	31.357	-0.238	0.203
-301.793	23.764	0.014	-0.011
-300.778	-58.232	-0.069	0.030
-299.764	-200.000	-0.000	0.165
-298.749	9.192	-0.198	0.148
-297.735	800.000	-0.040	-0.128
-296.720	-81.164	0.164	0.054
-295.705	-100.118	-0.178	-0.044
-294.691	133.081	-0.058	0.074
-293.676	-95.622	-0.105	0.028
-292.662	84.178	0.108	0.117
-291.647	-139.653	-0.279	-0.029
-290.632	-44.919	0.155	-0.077
-289.618	10.203	0.175	-0.132
-288.603	16.207	-0.091	-0.071
-287.589	49.607	0.342	0.319
-286.574	-200.000	0.018	0.212
-285.559	-200.000	0.021	-0.130
-284.545	297.907	0.077	0.140
-283.530	-118.212	-0.137	-0.024
-282.516	-165.557	-0.130	-0.006
-281.501	141.612	-0.117	-0.154
-280.486	-200.000	-0.022	-0.240
-279.472	-200.000	-0.019	-0.268
-278.457	-200.000	-0.002	0.095
-277.443	-176.573	-0.192	-0.005
-276.428	-200.000	0.017	-0.131
-275.413	-101.300	0.167	0.040
-274.399	313.610	-0.241	0.448
-273.384	-84.552	0.348	0.109
-272.370	800.000	-0.082	-0.233
-271.355	23.112	-0.279	-0.227
-270.340	136.241	0.233	0.301
-269.326	43.527	0.132	0.120
-268.311	-200.000	-0.010	0.113
-267.297	800.000	0.078	0.330
-266.282	-87.262	0.097	0.029
-265.267	72.108	0.036	0.037
-264.253	-100.752	-0.264	0.064
-263.238	800.000	-0.044	0.132
-262.224	393.799	0.073	0.149
-261.209	-18.426	-0.063	0.039
-260.195	-22.719	-0.346	0.207
-259.180	252.038	-0.037	0.062
-258.165	800.000	0.066	-0.204
-257.151	67.528	0.033	0.033
-256.136	-63.122	0.166	0.068
-255.122	-200.000	0.054	-0.341
-254.107	-150.853	0.126	-0.009
-253.092	800.000	0.096	-0.295
-252.078	-153.567	-0.057	0.004
-251.063	215.086	-0.041	-0.064
-250.049	-77.444	0.150	-0.051
-249.034	-149.701	0.296	-0.023
-248.019	-182.710	0.084	0.002
-247.005	-200.000	0.011	-0.064
-245.990	146.073	-0.151	0.200
-244.976	-150.742	-0.239	0.018
-243.961	8.229	0.086	-0.064
-242.946	25.298	0.022	-0.018
-241.932	73.282	0.318	0.329
-240.917	32.974	0.180	-0.155
-239.903	-52.578	0.077	0.035
-238.888	-28.455	-0.163	-0.093
-237.873	-200.000	0.024	-0.369
-236.859	119.295	-0.099	-0.121
-235.844	68.984	-0.241	0.245
-234.830	800.000	0.042	-0.161
-233.815	48.850	-0.060	0.055
-232.800	29.136	-0.073	-0.061
-231.786	-127.096	0.288	0.042
-230.771	-103.567	0.107	0.025
-229.757	-37.137	0.137	0.072
-228.742	14.777	-0.275	-0.213
-227.727	-200.000	-0.008	-0.057
-226.713	30.189	-0.066	-0.056
-225.698	-200.000	0.057	-0.362
-224.684	168.815	-0.375	0.528
-223.669	-178.163	-0.349	-0.008
-222.655	265.823	-0.015	0.026
-221.640	49.724	-0.076	-0.071
-220.625	378.487	-0.005	0.011
-219.611	80.153	0.103	-0.110
-218.596	402.279	-0.163	0.338
-217.582	11.045	0.047	0.036
-216.567	-129.233	0.373	-0.051
-215.552	-79.225	0.134	0.045
-214.538	-200.000	0.048	-0.429
-213.523	183.292	0.119	0.173
-212.509	800.000	0.113	0.482
-211.494	170.296	0.168	-0.238
-210.479	-135.889	0.036	0.004
-209.465	-99.908	0.059	-0.015
-208.450	-200.000	-0.005	0.033
-207.436	-200.000	0.022	-0.380
-206.421	-12.265	0.240	-0.155
-205.406	126.767	-0.136	0.170
-204.392	42.338	0.066	-0.059
-203.377	-200.000	-0.011	-0.220
-202.363	-200.000	0.047	-0.272
-201.348	-104.285	0.247	-0.057
-200.333	-60.333	0.140	-0.059
-199.319	422.298	-0.041	0.086
-198.304	-140.970	-0.239	0.024
-197.290	800.000	-0.075	0.242
-196.275	6.199	0.155	0.113
-195.260	-104.726	0.122	-0.028
-194.246	-171.197	-0.219	0.007
-193.231	800.000	0.052	-0.197
-192.217	-200.000	-0.031	0.252
-191.202	-200.000	-0.006	-0.379
-190.187	118.933	0.093	-0.113
-189.173	-144.431	0.120	-0.011
-188.158	-200.000	-0.077	0.422
-187.144	800.000	0.020	0.082
-186.129	-36.238	-0.208	-0.111
-185.114	-84.630	0.213	0.066
-184.100	64.941	0.133	0.133
-183.085	12.516	0.135	-0.103
-182.071	-112.918	0.231	-0.045
-181.056	-145.117	0.369	-0.033
-180.042	800.000	-0.111	0.380
-179.027	800.000	-0.092	0.269
-178.012	399.467	0.071	0.146
-176.998	-22.750	-0.047	0.028
-175.983	-52.936	0.316	-0.143
-174.969	-118.461	0.295	0.052
-173.954	-67.021	-0.254	-0.099
-172.939	-134.198	0.078	0.010
-171.925	-200.000	0.047	-0.238
-170.910	4.460	-0.035	0.025
-169.896	800.000	-0.057	0.243
-168.881	-74.902	-0.362	-0.128
-167.866	-194.951	-0.156	-0.001
-166.852	285.760	0.066	0.117
-165.837	-86.504	-0.135	-0.041
-164.823	-200.000	-0.028	0.154
-163.808	701.219	0.045	-0.115
-162.793	-143.239	-0.158	-0.015
-161.779	-118.138	0.201	-0.035
-160.764	-74.235	-0.265	-0.095
-159.750	-12.704	-0.279	-0.179
-158.735	10.851	0.139	0.105
-157.720	748.217	-0.048	0.129
-156.706	-140.345	0.274	0.028
-155.691	721.562	0.089	-0.235
-154.677	168.649	-0.119	0.167
-153.662	-107.735	0.172	0.037
-152.647	142.411	0.172	0.224
-151.633	-200.000	-0.239	0.000
-150.618	-16.531	0.373	-0.233
-149.604	-132.459	-0.164	0.021
-148.589	-200.000	0.014	-0.260
-147.574	-130.049	-0.239	-0.032
-146.560	-200.000	0.009	0.084
-145.545	-30.168	-0.071	-0.039
-144.531	155.458	0.199	-0.270
-143.516	-65.931	0.068	-0.027
-142.502	-118.179	-0.060	-0.011
-141.487	-104.075	0.139	-0.032
-140.472	-136.067	-0.159	-0.018
-139.458	-107.938	0.145	0.031
-138.443	-71.025	-0.623	0.231
-137.429	-123.405	-0.053	0.008
-136.414	-130.841	-0.371	0.049
-135.399	-118.133	0.163	-0.029
-134.385	800.000	-0.045	-0.144
-133.370	800.000	-0.082	-0.230
-132.356	-200.000	0.012	0.417
-131.341	800.000	-0.032	-0.135
-130.326	-37.898	0.154	-0.081
-129.312	-69.820	0.181	-0.068
-128.297	-131.789	-0.303	-0.039
-127.283	588.849	-0.137	0.332
-126.268	-62.856	-0.174	0.071
-125.253	-9.624	-0.102	-0.067
-124.239	660.272	-0.110	-0.279
-123.224	-78.563	0.112	0.038
-122.210	-82.194	0.155	0.050
