DTS Sentinel unit serial number:	SN413079Multiplexer serial number:	ORYXHardware model number:	OX4-SRSoftware version number:	ORYX F/W v4.00 Oryx Data Collector v3.7.2.0data status	okinstallation	princeton_trtdifferential loss correction	single-endedforward channel	channel 3reverse channel	N/Adate	2019/09/18time	00:32:35forward acquisition time	60.00reverse acquisition time	0.00gamma	496.2192k internal	0.2344k external	0.2344temperature offset calibration	0.9948default loss term (dB/km)	0.3790temperature slope calibration	1.0000multiplexer offset coefficient	1.0000multiplexer slope coefficient	1.0000fibre end	0.00T internal ref (°C)	23.52T ext. ref 1 (°C)	0.16T ext. ref 2 (°C)	17.16length (m)	temperature (°C)	Stokes	anti-Stokes-747.200	-198.483	0.279	-0.002
-746.185	76.379	-0.208	0.220
-745.171	-140.054	0.421	-0.044
-744.156	90.790	-0.204	0.229
-743.142	296.182	-0.065	0.120
-742.127	-39.731	0.102	0.054
-741.112	-200.000	-0.010	0.141
-740.098	-39.918	-0.314	0.164
-739.083	-49.389	0.307	-0.146
-738.069	-81.550	-0.269	0.088
-737.054	-111.829	-0.260	-0.053
-736.039	-159.625	-0.203	0.011
-735.025	-66.039	0.307	0.123
-734.010	74.802	0.069	-0.072
-732.996	-189.642	0.029	0.000
-731.981	-128.211	-0.270	-0.039
-730.966	-85.661	0.348	-0.108
-729.952	-49.425	-0.418	-0.200
-728.937	-135.952	-0.278	-0.033
-727.923	-33.426	0.105	-0.058
-726.908	-200.000	-0.046	-0.256
-725.894	38.176	-0.530	-0.471
-724.879	800.000	0.034	-0.095
-723.864	25.750	-0.204	0.170
-722.850	800.000	-0.095	0.274
-721.835	-146.821	-0.102	-0.009
-720.821	391.933	-0.148	0.307
-719.806	-9.210	-0.359	-0.240
-718.791	21.509	-0.233	-0.190
-717.777	35.583	0.058	-0.051
-716.762	-105.057	-0.111	0.025
-715.748	49.297	0.287	0.269
-714.733	-200.000	0.014	0.218
-713.718	281.547	0.060	0.107
-712.704	298.631	-0.100	0.184
-711.689	10.520	0.305	-0.232
-710.675	-53.109	0.342	-0.157
-709.660	-113.127	-0.290	-0.057
-708.645	-104.618	-0.170	0.039
-707.631	26.872	0.105	-0.088
-706.616	250.310	-0.097	-0.165
-705.602	35.471	-0.115	0.101
-704.587	-190.563	0.183	0.002
-703.572	447.725	0.039	0.086
-702.558	100.184	0.404	-0.468
-701.543	-140.044	0.216	-0.023
-700.529	386.242	0.134	0.277
-699.514	189.894	0.032	-0.048
-698.499	29.959	-0.354	-0.301
-697.485	-156.265	0.142	-0.009
-696.470	-149.656	-0.266	0.021
-695.456	32.948	-0.144	0.124
-694.441	-33.821	0.259	-0.143
-693.426	33.201	-0.263	-0.228
-692.412	-200.000	0.012	-0.058
-691.397	-121.068	-0.367	0.061
-690.383	-200.000	-0.013	-0.208
-689.368	212.071	-0.141	0.221
-688.354	-158.346	-0.595	-0.035
-687.339	2.345	-0.094	0.068
-686.324	-200.000	-0.086	0.444
-685.310	-61.950	0.069	-0.029
-684.295	470.995	0.030	0.067
-683.281	-43.963	0.117	0.059
-682.266	637.634	-0.017	-0.043
-681.251	-91.930	-0.368	0.104
-680.237	326.877	0.050	0.096
-679.222	-200.000	-0.031	0.200
-678.208	-88.792	0.169	-0.050
-677.193	83.586	0.067	-0.072
-676.178	-9.338	0.084	0.056
-675.164	-161.580	-0.189	-0.010
-674.149	-150.708	-0.340	0.026
-673.135	-130.695	0.434	0.058
-672.120	157.018	0.086	-0.119
-671.105	-70.086	-0.194	-0.074
-670.091	116.149	-0.051	0.062
-669.076	623.193	0.146	-0.367
-668.062	96.653	0.130	0.148
-667.047	-121.341	0.455	-0.076
-666.032	95.129	0.151	-0.171
-665.018	800.000	-0.080	0.231
-664.003	800.000	0.080	-0.293
-662.989	134.965	0.099	-0.128
-661.974	-51.786	0.243	-0.113
-660.959	-154.374	-0.213	-0.014
-659.945	59.555	-0.143	-0.141
-658.930	-73.960	-0.199	-0.072
-657.916	800.000	-0.054	-0.155
-656.901	-28.743	-0.119	0.068
-655.886	103.165	0.137	-0.161
-654.872	-106.101	-0.205	-0.046
-653.857	86.548	0.230	0.253
-652.843	800.000	-0.116	0.496
-651.828	103.625	-0.107	-0.125
-650.814	-77.749	0.091	-0.031
-649.799	-48.271	0.171	-0.082
-648.784	-153.111	-0.308	-0.022
-647.770	599.885	0.083	-0.205
-646.755	488.949	-0.040	-0.092
-645.741	800.000	0.028	0.082
-644.726	310.242	0.153	0.286
-643.711	-200.000	-0.044	0.202
-642.697	-200.000	-0.018	-0.434
-641.682	-200.000	0.023	-0.164
-640.668	7.892	-0.064	0.048
-639.653	-200.000	-0.033	0.286
-638.638	-17.285	-0.219	0.137
-637.624	-93.472	-0.039	-0.011
-636.609	76.593	-0.174	0.184
-635.595	-50.381	0.114	-0.054
-634.580	-96.347	0.253	0.067
-633.565	-14.616	-0.055	-0.035
-632.551	113.522	0.097	-0.118
-631.536	800.000	-0.091	-0.352
-630.522	-159.723	-0.053	0.003
-629.507	-43.852	-0.207	-0.104
-628.492	-69.801	0.134	-0.051
-627.478	104.026	0.152	-0.178
-626.463	-200.000	-0.034	0.316
-625.449	-42.245	-0.174	0.089
-624.434	-200.000	0.023	-0.221
-623.419	-69.922	0.311	-0.118
-622.405	-114.080	0.196	0.038
-621.390	509.464	-0.118	0.274
-620.376	453.066	0.165	0.364
-619.361	-136.281	-0.109	-0.013
-618.346	3.032	-0.461	-0.334
-617.332	800.000	0.081	-0.319
-616.317	536.186	0.151	0.356
-615.303	404.153	-0.161	0.337
-614.288	194.497	0.044	0.066
-613.273	-12.512	0.252	0.164
-612.259	-57.733	-0.308	0.134
-611.244	189.235	-0.056	-0.083
-610.230	-145.684	0.432	0.038
-609.215	361.355	-0.112	-0.223
-608.201	-97.456	-0.349	-0.090
-607.186	800.000	0.038	-0.146
-606.171	800.000	-0.095	-0.368
-605.157	311.152	0.128	-0.239
-604.142	800.000	-0.081	-0.300
-603.128	-131.739	0.160	-0.021
-602.113	103.908	0.147	-0.172
-601.098	-36.887	-0.026	0.014
-600.084	-172.111	-0.047	-0.002
-599.069	-115.792	0.161	-0.030
-598.055	-20.388	-0.234	0.143
-597.040	-200.000	-0.049	0.243
-596.025	-139.539	0.183	0.019
-595.011	-117.568	0.071	0.013
-593.996	-200.000	-0.023	-0.124
-592.982	-29.258	-0.032	-0.018
-591.967	14.314	-0.362	0.281
-590.952	78.922	-0.284	-0.303
-589.938	-71.722	-0.197	0.073
-588.923	-101.288	-0.212	-0.051
-587.909	-200.000	-0.011	-0.110
-586.894	245.831	0.146	0.244
-585.879	57.181	-0.106	-0.103
-584.865	526.372	0.027	0.062
-583.850	-37.264	-0.148	0.079
-582.836	-99.445	-0.131	-0.033
-581.821	-122.694	0.190	-0.031
-580.806	30.552	-0.136	0.116
-579.792	-127.007	-0.147	0.021
-578.777	-18.653	0.253	0.157
-577.763	-37.747	0.225	-0.119
-576.748	84.254	-0.161	-0.175
-575.733	-88.439	-0.228	0.068
-574.719	-129.500	0.112	-0.015
-573.704	318.575	-0.082	-0.154
-572.690	-200.000	-0.002	-0.022
-571.675	78.592	0.122	-0.130
-570.661	800.000	0.093	0.378
-569.646	189.110	-0.156	-0.232
-568.631	-200.000	-0.017	-0.265
-567.617	800.000	0.039	-0.111
-566.602	800.000	-0.035	0.099
-565.588	800.000	-0.117	-0.494
-564.573	50.788	0.145	-0.137
-563.558	-200.000	0.008	0.199
-562.544	-153.491	0.253	0.017
-561.529	-200.000	-0.020	-0.118
-560.515	-200.000	-0.074	0.377
-559.500	8.781	0.226	0.169
-558.485	-200.000	-0.002	-0.083
-557.471	-18.300	0.055	-0.034
-556.456	-65.583	0.094	0.037
-555.442	712.241	-0.071	-0.186
-554.427	377.718	-0.102	0.207
-553.412	-70.460	-0.181	-0.068
-552.398	-6.714	0.151	0.102
-551.383	800.000	0.080	0.317
-550.369	148.774	0.204	-0.274
-549.354	191.308	0.037	-0.055
-548.339	-200.000	-0.019	0.113
-547.325	-200.000	0.015	-0.092
-546.310	98.794	0.112	0.128
-545.296	-153.780	-0.181	-0.012
-544.281	800.000	0.045	0.130
-543.266	6.629	0.189	-0.139
-542.252	800.000	0.030	0.106
-541.237	800.000	-0.180	-0.596
-540.223	139.296	-0.130	0.170
-539.208	-200.000	0.009	-0.413
-538.193	800.000	-0.049	-0.168
-537.179	-200.000	0.036	0.251
-536.164	-200.000	-0.024	-0.235
-535.150	564.007	-0.127	-0.305
-534.135	-113.989	-0.135	0.026
-533.121	362.216	0.053	-0.106
-532.106	800.000	0.042	-0.139
-531.091	-176.167	0.217	-0.006
-530.077	45.547	-0.329	0.302
-529.062	800.000	0.066	0.188
-528.048	-96.998	0.103	-0.027
-527.033	-49.467	0.143	0.068
-526.018	-184.644	0.155	-0.002
-525.004	12.467	-0.301	-0.231
-523.989	216.620	-0.056	-0.089
-522.975	-117.339	0.150	-0.027
-521.960	-27.191	-0.272	0.157
-520.945	127.994	-0.124	-0.156
-519.931	201.477	0.128	-0.196
-518.916	-13.051	-0.179	0.116
-517.902	-200.000	0.032	0.263
-516.887	800.000	-0.098	-0.374
-515.872	138.563	0.088	0.115
-514.858	-144.560	-0.118	0.011
-513.843	27.283	0.093	-0.078
-512.829	-200.000	0.007	0.331
-511.814	800.000	0.063	0.236
-510.799	-52.104	0.264	0.121
-509.785	385.255	-0.058	-0.119
-508.770	-200.000	0.040	-0.232
-507.756	-51.399	-0.422	-0.196
-506.741	-45.669	-0.045	0.022
-505.726	93.528	-0.034	-0.038
-504.712	-106.663	-0.176	-0.039
-503.697	-91.848	0.174	0.049
-502.683	800.000	-0.069	0.287
-501.668	-73.276	-0.147	-0.053
-500.653	-140.121	0.203	0.021
-499.639	-70.946	0.054	0.020
-498.624	417.494	-0.095	0.201
-497.610	-200.000	-0.025	-0.135
-496.595	-200.000	-0.055	-0.403
-495.581	-200.000	0.014	-0.064
-494.566	-46.119	0.275	-0.134
-493.551	262.673	0.023	0.040
-492.537	-52.197	-0.224	-0.103
-491.522	-63.605	-0.148	0.060
-490.508	800.000	0.049	-0.137
-489.493	-102.531	-0.234	-0.055
-488.478	-71.197	-0.396	-0.147
-487.464	-171.383	-0.062	-0.002
-486.449	109.417	-0.170	-0.202
-485.435	140.824	0.171	-0.223
-484.420	-126.702	-0.133	0.020
-483.405	-200.000	0.036	-0.240
-482.391	-200.000	-0.074	-0.337
-481.376	72.147	0.277	-0.285
-480.362	229.751	0.234	0.379
-479.347	800.000	0.066	0.241
-478.332	340.501	0.038	-0.073
-477.318	27.519	-0.057	-0.047
-476.303	-37.178	-0.241	-0.128
-475.289	44.646	0.078	0.071
-474.274	800.000	0.005	-0.014
-473.259	123.118	0.038	-0.048
-472.245	432.190	0.119	0.255
-471.230	-95.588	0.108	-0.029
-470.216	-200.000	0.067	0.310
-469.201	237.422	0.346	-0.567
-468.186	-124.391	-0.188	0.029
-467.172	-200.000	-0.008	0.402
-466.157	-200.000	0.010	-0.187
-465.143	-200.000	-0.021	-0.205
-464.128	-35.971	-0.137	0.073
-463.113	38.882	0.128	0.113
-462.099	91.038	0.143	-0.159
-461.084	-70.558	0.013	-0.005
-460.070	-200.000	-0.105	-0.657
-459.055	43.603	0.314	-0.284
-458.040	155.523	0.080	-0.109
-457.026	-200.000	-0.003	-0.046
-456.011	800.000	-0.125	0.361
-454.997	-2.194	0.056	-0.039
-453.982	38.728	-0.254	-0.225
-452.968	-200.000	-0.049	0.349
-451.953	276.129	0.114	0.200
-450.938	-200.000	0.008	0.085
-449.924	-200.000	0.108	-0.492
-448.909	-177.625	0.233	-0.006
-447.895	-81.340	0.048	-0.016
-446.880	5.537	0.053	0.039
-445.865	800.000	0.072	-0.238
-444.851	217.060	0.052	0.082
-443.836	10.555	-0.065	-0.049
-442.822	800.000	0.071	0.199
-441.807	-17.231	0.074	-0.046
-440.792	109.131	0.113	-0.134
-439.778	37.550	0.135	0.119
-438.763	-200.000	-0.009	-0.095
-437.749	-200.000	-0.019	-0.100
-436.734	178.474	-0.117	0.169
-435.719	4.628	0.192	0.139
-434.705	800.000	-0.027	0.098
-433.690	24.455	0.159	0.130
-432.676	96.562	-0.027	0.030
-431.661	-200.000	0.051	0.320
-430.646	106.587	-0.123	-0.144
-429.632	-200.000	-0.009	0.089
-428.617	-77.822	-0.136	0.046
-427.603	-41.250	-0.117	0.060
-426.588	225.053	-0.012	-0.019
-425.573	800.000	0.143	0.392
-424.559	-107.338	-0.183	0.040
-423.544	2.429	-0.049	-0.035
-422.530	15.016	0.223	0.172
-421.515	18.185	-0.091	-0.072
-420.500	-102.746	-0.355	-0.084
-419.486	-200.000	-0.015	0.074
-418.471	-80.717	0.289	-0.095
-417.457	9.933	0.126	0.094
-416.442	-200.000	0.037	-0.294
-415.428	60.864	-0.068	-0.067
-414.413	314.508	0.186	0.346
-413.398	-5.591	0.011	-0.007
-412.384	67.852	0.264	0.266
-411.369	100.403	-0.095	0.108
-410.355	-98.331	-0.074	0.019
-409.340	-52.319	-0.073	0.033
-408.325	300.516	-0.078	0.141
-407.311	384.514	-0.082	-0.168
-406.296	0.194	0.054	0.038
-405.282	800.000	0.012	-0.036
-404.267	-200.000	-0.030	0.343
-403.252	-72.173	-0.331	0.121
-402.238	568.691	0.042	0.100
-401.223	42.439	0.085	-0.076
-400.209	224.290	-0.049	0.078
-399.194	72.665	0.124	0.128
-398.179	-72.731	-0.068	-0.025
-397.165	-58.370	0.351	0.151
-396.150	-200.000	-0.002	0.191
-395.136	435.602	0.029	0.062
-394.121	-147.479	-0.120	0.010
-393.106	-32.048	0.135	0.074
-392.092	-111.468	-0.221	-0.044
-391.077	0.443	-0.246	0.174
-390.063	-200.000	-0.006	-0.032
-389.048	-62.896	-0.080	0.033
-388.033	-33.710	0.223	0.121
-387.019	-89.248	-0.003	0.001
-386.004	10.806	0.077	-0.058
-384.990	-143.198	0.055	-0.005
-383.975	-131.132	-0.447	0.059
-382.960	357.739	0.139	-0.273
-381.946	-94.024	-0.041	-0.011
-380.931	-182.437	0.393	-0.007
-379.917	408.346	0.065	-0.135
-378.902	-30.057	0.093	-0.052
-377.888	-136.103	-0.162	0.019
-376.873	46.742	-0.236	-0.216
-375.858	140.456	-0.307	-0.399
-374.844	-124.340	-0.215	-0.033
-373.829	621.003	-0.112	0.278
-372.815	800.000	0.080	0.248
-371.800	-13.314	0.113	-0.072
-370.785	2.115	0.473	0.337
-369.771	-200.000	-0.016	0.165
-368.756	29.170	-0.075	-0.063
-367.742	-76.735	-0.267	0.092
-366.727	800.000	-0.089	0.299
-365.712	208.585	-0.226	-0.348
-364.698	233.821	-0.089	0.144
-363.683	-112.641	-0.032	-0.006
-362.669	-68.144	0.414	-0.159
-361.654	136.362	-0.160	0.206
-360.639	52.433	-0.091	-0.086
-359.625	-86.513	0.245	0.074
-358.610	496.354	0.031	0.070
-357.596	-142.619	0.358	-0.035
-356.581	-87.884	-0.222	0.066
-355.566	800.000	0.038	-0.151
-354.552	332.461	-0.040	0.076
-353.537	154.966	0.166	-0.225
-352.523	384.376	0.150	0.305
-351.508	-200.000	0.056	0.297
-350.493	728.051	0.081	0.213
-349.479	-88.696	0.276	0.081
-348.464	-200.000	0.035	-0.281
-347.450	11.032	-0.121	0.091
-346.435	-81.771	-0.233	-0.075
-345.420	-96.934	0.296	0.076
-344.406	12.159	0.280	0.212
-343.391	-62.727	0.188	0.077
-342.377	32.024	0.286	-0.243
-341.362	-64.267	0.204	0.082
-340.348	-200.000	-0.027	0.187
-339.333	-11.988	0.282	-0.182
-338.318	-81.285	-0.242	0.079
-337.304	-200.000	0.034	0.201
-336.289	280.829	0.179	0.315
-335.275	-149.700	-0.292	-0.023
-334.260	389.218	0.100	-0.204
-333.245	-12.229	0.289	0.186
-332.231	337.984	-0.034	-0.066
-331.216	-38.677	0.432	0.224
-330.202	41.243	0.129	-0.115
-329.187	6.945	-0.150	-0.110
-328.172	-64.324	0.335	0.134
-327.158	-200.000	0.018	0.215
-326.143	800.000	-0.037	-0.141
-325.129	-118.532	-0.131	0.023
-324.114	47.349	-0.241	0.221
-323.099	206.376	0.026	-0.039
-322.085	-200.000	0.038	0.174
-321.070	-132.049	0.125	0.016
-320.056	208.047	-0.109	0.167
-319.041	149.672	-0.058	0.078
-318.026	-54.854	-0.145	-0.064
-317.012	-120.772	0.260	0.043
-315.997	-200.000	-0.018	0.086
-314.983	-126.886	0.206	0.030
-313.968	-81.836	-0.161	0.052
-312.953	414.154	-0.031	-0.064
-311.939	112.278	-0.214	-0.255
-310.924	51.831	0.082	0.077
-309.910	-186.690	-0.366	-0.005
-308.895	53.665	0.111	-0.105
-307.880	-200.000	-0.014	0.209
-306.866	85.868	-0.055	0.060
-305.851	-9.796	0.269	0.176
-304.837	55.063	-0.180	0.171
-303.822	197.362	0.151	-0.227
-302.807	-200.000	0.017	0.205
-301.793	-118.295	-0.086	0.015
-300.778	-200.000	0.020	0.184
-299.764	150.324	0.145	-0.193
-298.749	-98.488	-0.431	0.108
-297.735	800.000	0.090	0.269
-296.720	206.308	0.105	-0.160
-295.705	-74.212	0.075	-0.027
-294.691	-200.000	-0.022	0.293
-293.676	-5.931	-0.365	0.246
-292.662	-131.325	0.102	0.013
-291.647	132.376	0.187	-0.237
-290.632	152.182	-0.187	-0.251
-289.618	-200.000	0.008	-0.107
-288.603	24.890	-0.107	0.087
-287.589	-200.000	0.011	0.138
-286.574	-200.000	0.011	-0.143
-285.559	-191.977	-0.236	-0.002
-284.545	-77.219	0.139	-0.047
-283.530	-41.938	0.141	-0.071
-282.516	-113.121	0.100	-0.019
-281.501	-200.000	-0.011	0.202
-280.486	-67.824	-0.359	-0.138
-279.472	296.646	-0.217	-0.391
-278.457	640.242	0.043	0.107
-277.443	-69.829	-0.094	0.035
-276.428	-200.000	-0.062	0.000
-275.413	9.808	0.314	-0.234
-274.399	-11.691	0.223	-0.144
-273.384	-57.856	-0.258	0.111
-272.370	142.414	0.040	0.053
-271.355	27.011	0.102	0.084
-270.340	88.846	-0.147	-0.161
-269.326	800.000	0.045	0.137
-268.311	-41.712	-0.119	0.060
-267.297	87.612	-0.206	-0.224
-266.282	232.998	-0.075	-0.121
-265.267	94.707	0.351	-0.392
-264.253	-200.000	-0.039	-0.368
-263.238	269.640	0.120	-0.208
-262.224	189.875	-0.110	-0.162
-261.209	-84.133	-0.052	0.016
-260.195	70.030	-0.229	0.232
-259.180	800.000	-0.110	0.350
-258.165	50.546	0.083	-0.077
-257.151	-42.038	-0.143	-0.072
-256.136	-200.000	-0.037	0.245
-255.122	-159.544	0.130	0.007
-254.107	-194.633	-0.197	0.002
-253.092	6.037	0.132	-0.096
-252.078	800.000	-0.028	0.106
-251.063	360.308	-0.042	0.083
-250.049	-88.538	-0.380	-0.111
-249.034	6.789	0.136	-0.100
-248.019	-200.000	0.020	-0.319
-247.005	-89.300	0.020	0.006
-245.990	-24.308	-0.110	-0.065
-244.976	-11.856	0.237	0.153
-243.961	-200.000	-0.016	-0.092
-242.946	353.203	0.130	0.253
-241.932	-200.000	0.003	0.074
-240.917	-58.336	-0.182	0.078
-239.903	-147.756	0.050	-0.004
-238.888	800.000	0.020	0.056
-237.873	-50.551	-0.199	-0.092
-236.859	618.701	-0.041	-0.100
-235.844	-200.000	0.029	-0.145
-234.830	-115.499	-0.159	-0.029
-233.815	-200.000	0.015	0.302
-232.800	-19.074	-0.286	0.174
-231.786	-200.000	0.067	-0.300
-230.771	84.902	0.205	-0.221
-229.757	-64.173	-0.337	0.135
-228.742	800.000	0.110	-0.330
-227.727	69.447	0.191	-0.192
-226.713	-121.420	0.264	-0.043
-225.698	-200.000	-0.050	-0.333
-224.684	-107.780	-0.247	0.053
-223.669	-200.000	0.035	-0.196
-222.655	800.000	0.053	0.191
-221.640	-28.459	-0.346	-0.196
-220.625	-200.000	0.015	-0.282
-219.611	-43.219	-0.328	-0.163
-218.596	-200.000	-0.016	-0.255
-217.582	-79.626	0.192	-0.063
-216.567	150.197	0.111	-0.148
-215.552	394.236	-0.079	-0.162
-214.538	21.692	0.267	0.213
-213.523	-100.489	-0.361	0.088
-212.509	-38.842	0.295	0.152
-211.494	84.052	-0.021	-0.023
-210.479	-144.919	-0.024	-0.002
-209.465	160.325	0.085	0.116
-208.450	-75.458	0.155	0.054
-207.436	-110.033	-0.322	0.066
-206.421	61.292	0.123	0.120
-205.406	288.804	0.191	-0.339
-204.392	155.261	-0.110	-0.148
-203.377	-200.000	-0.005	-0.265
-202.363	-200.000	-0.006	0.080
-201.348	125.398	0.132	0.163
-200.333	-200.000	0.022	0.470
-199.319	-52.493	0.211	-0.096
-198.304	800.000	-0.074	0.200
-197.290	37.847	-0.274	0.239
-196.275	-200.000	0.029	0.192
-195.260	-30.684	0.292	-0.162
-194.246	661.775	0.039	0.098
-193.231	222.956	-0.038	0.059
-192.217	-200.000	-0.015	0.204
-191.202	-160.476	0.175	-0.009
-190.187	41.501	-0.126	0.112
-189.173	42.219	-0.015	0.014
-188.158	-93.003	0.350	-0.095
-187.144	582.515	-0.018	-0.043
-186.129	-31.534	-0.126	0.069
-185.114	538.424	-0.140	-0.325
-184.100	298.745	0.074	0.134
-183.085	-77.613	-0.203	-0.069
-182.071	645.001	0.126	0.314
-181.056	-163.809	-0.172	0.008
-180.042	112.933	-0.033	-0.040
-179.027	-188.054	0.204	0.003
-178.012	800.000	-0.068	0.283
-176.998	-200.000	0.010	0.112
-175.983	-129.389	-0.089	-0.012
-174.969	198.595	0.056	0.084
-173.954	311.600	0.198	-0.364
-172.939	-181.027	-0.331	-0.006
-171.925	160.692	0.122	0.167
-170.910	527.536	0.143	0.331
-169.896	5.695	-0.200	0.145
-168.881	224.044	0.099	0.157
-167.866	800.000	-0.088	-0.258
-166.852	100.503	-0.086	-0.098
-165.837	-200.000	0.000	0.234
-164.823	588.663	0.133	0.320
-163.808	800.000	0.089	-0.291
-162.793	-77.136	0.168	-0.057
-161.779	50.256	0.234	0.216
-160.764	51.710	0.029	-0.027
-159.750	254.582	-0.118	-0.197
-158.735	27.032	-0.072	0.059
-157.720	-106.462	-0.378	-0.083
-156.706	249.187	0.133	0.220
-155.691	775.546	0.124	0.330
-154.677	218.341	-0.267	-0.417
-153.662	-112.128	0.241	-0.047
-152.647	28.573	0.116	0.096
-151.633	74.094	-0.115	0.118
-150.618	-90.544	0.060	0.017
-149.604	216.045	-0.162	-0.252
-148.589	376.763	0.085	-0.170
-147.574	-200.000	-0.048	0.246
-146.560	-152.053	-0.093	-0.007
-145.545	7.924	-0.036	-0.026
-144.531	-148.240	-0.157	0.013
-143.516	800.000	-0.018	0.065
-142.502	800.000	0.075	-0.321
-141.487	51.877	0.134	0.125
-140.472	11.316	0.075	-0.056
-139.458	-200.000	-0.020	-0.254
-138.443	-3.693	0.208	0.141
-137.429	288.192	0.153	-0.271
-136.414	-144.515	-0.214	0.019
-135.399	-34.429	0.342	0.183
-134.385	-198.150	-0.214	0.001
-133.370	-57.299	-0.040	-0.017
-132.356	800.000	0.051	-0.166
-131.341	21.256	-0.112	-0.089
-130.326	-51.952	-0.287	-0.130
-129.312	764.161	0.071	0.188
-128.297	19.394	0.234	-0.184
-127.283	41.747	0.277	0.245
-126.268	33.822	-0.246	0.209
-125.253	193.098	0.241	-0.356
-124.239	-93.469	0.259	-0.070
-123.224	-200.000	0.004	0.274
-122.210	800.000	0.026	0.091
-121.195	-165.643	-0.439	-0.019
