DTS Sentinel unit serial number:	SN413079Multiplexer serial number:	ORYXHardware model number:	OX4-SRSoftware version number:	ORYX F/W v4.00 Oryx Data Collector v3.7.2.0data status	okinstallation	princeton_trtdifferential loss correction	single-endedforward channel	channel 3reverse channel	N/Adate	2019/09/13time	17:20:35forward acquisition time	60.00reverse acquisition time	0.00gamma	496.2192k internal	0.2294k external	0.2294temperature offset calibration	1.0124default loss term (dB/km)	0.3790temperature slope calibration	1.0000multiplexer offset coefficient	1.0000multiplexer slope coefficient	1.0000fibre end	0.00T internal ref (°C)	36.00T ext. ref 1 (°C)	4.78T ext. ref 2 (°C)	33.51length (m)	temperature (°C)	Stokes	anti-Stokes-747.200	-200.000	-0.017	0.211
-746.185	533.607	0.075	0.183
-745.171	500.583	-0.021	-0.049
-744.156	35.391	0.040	0.036
-743.142	265.889	-0.137	0.245
-742.127	64.544	0.213	0.220
-741.112	137.374	-0.137	-0.183
-740.098	111.337	-0.056	-0.069
-739.083	361.635	-0.164	-0.337
-738.069	800.000	-0.072	0.278
-737.054	-27.824	0.081	-0.048
-736.039	-122.708	-0.171	0.028
-735.025	-47.061	0.203	0.101
-734.010	247.935	0.091	-0.157
-732.996	65.979	-0.084	-0.087
-731.981	-13.754	0.123	0.081
-730.966	-200.000	-0.057	-0.362
-729.952	-120.648	0.150	0.026
-728.937	-127.151	-0.230	0.034
-727.923	-200.000	-0.025	0.119
-726.908	-64.668	0.088	-0.036
-725.894	144.464	0.149	-0.203
-724.879	800.000	0.026	0.086
-723.864	39.782	-0.170	0.156
-722.850	308.418	0.096	-0.184
-721.835	-55.934	0.203	-0.093
-720.821	800.000	-0.023	0.083
-719.806	-200.000	0.033	-0.203
-718.791	-200.000	-0.001	-0.111
-717.777	359.669	0.173	0.353
-716.762	-33.731	-0.266	-0.150
-715.748	778.094	-0.151	-0.421
-714.733	800.000	-0.033	-0.093
-713.718	676.277	0.091	0.242
-712.704	87.108	-0.098	-0.110
-711.689	-57.845	-0.077	-0.034
-710.675	536.851	-0.103	-0.251
-709.660	-50.845	-0.285	-0.137
-708.645	-44.255	-0.303	-0.155
-707.631	26.024	0.339	0.289
-706.616	-200.000	-0.031	-0.434
-705.602	-6.496	-0.075	-0.052
-704.587	-116.307	0.190	-0.036
-703.572	392.262	0.072	-0.153
-702.558	-200.000	-0.001	-0.276
-701.543	622.565	-0.076	0.196
-700.529	5.065	-0.081	-0.061
-699.514	32.232	0.082	0.072
-698.499	244.465	-0.058	0.100
-697.485	-69.518	0.221	-0.087
-696.470	800.000	-0.012	0.044
-695.456	69.982	-0.075	0.079
-694.441	-86.318	-0.128	-0.040
-693.426	-25.235	-0.084	-0.051
-692.412	17.845	0.175	0.142
-691.397	-89.072	0.048	0.015
-690.383	-94.645	-0.235	0.065
-689.368	-200.000	0.026	0.119
-688.354	4.310	-0.276	-0.207
-687.339	326.815	-0.035	0.068
-686.324	461.272	0.009	-0.019
-685.310	9.653	-0.094	0.073
-684.295	-28.880	-0.171	0.100
-683.281	84.165	0.247	-0.276
-682.266	-200.000	0.020	0.525
-681.251	722.755	0.110	-0.298
-680.237	287.296	0.041	0.076
-679.222	26.181	0.194	-0.165
-678.208	-104.340	0.243	0.058
-677.193	-35.885	-0.271	-0.149
-676.178	-156.173	0.394	0.025
-675.164	-200.000	0.015	0.101
-674.149	-175.949	-0.236	-0.006
-673.135	800.000	-0.015	-0.058
-672.120	-200.000	0.000	-0.081
-671.105	-200.000	-0.310	0.000
-670.091	-40.737	-0.171	-0.090
-669.076	355.193	0.140	0.283
-668.062	-20.283	0.128	0.081
-667.047	-77.764	-0.199	0.070
-666.032	86.427	-0.109	-0.122
-665.018	-200.000	0.060	-0.525
-664.003	800.000	0.077	-0.330
-662.989	-200.000	-0.010	-0.197
-661.974	85.777	-0.141	0.158
-660.959	800.000	-0.081	-0.291
-659.945	-200.000	-0.023	-0.236
-658.930	167.542	0.220	-0.319
-657.916	-30.488	-0.197	0.114
-656.901	437.251	-0.030	-0.066
-655.886	18.376	-0.061	0.050
-654.872	-82.781	0.239	0.079
-653.857	-57.477	0.195	-0.087
-652.843	-81.251	0.283	0.095
-651.828	-140.552	0.209	-0.022
-650.814	-167.487	-0.007	0.000
-649.799	-86.780	0.224	-0.070
-648.784	90.446	0.084	-0.096
-647.770	6.691	-0.139	-0.105
-646.755	688.989	-0.071	-0.190
-645.741	179.629	0.188	-0.281
-644.726	666.023	0.112	0.296
-643.711	-20.607	-0.253	-0.158
-642.697	-59.839	-0.152	0.066
-641.682	111.202	0.054	0.066
-640.668	133.072	-0.136	-0.179
-639.653	21.464	-0.042	-0.034
-638.638	289.266	-0.074	-0.137
-637.624	-84.696	0.277	0.089
-636.609	-48.169	-0.305	-0.150
-635.595	72.172	0.042	0.045
-634.580	-119.834	-0.336	0.059
-633.565	-200.000	0.064	0.403
-632.551	-134.795	0.047	0.006
-631.536	-1.856	0.217	0.156
-630.522	112.595	0.181	-0.223
-629.507	-133.349	-0.135	0.017
-628.492	34.504	0.234	-0.208
-627.478	-200.000	0.013	0.088
-626.463	-161.298	-0.267	0.014
-625.449	-76.090	0.305	-0.110
-624.434	613.102	0.061	0.156
-623.419	-21.495	-0.024	-0.015
-622.405	154.020	-0.159	0.221
-621.390	-73.133	0.160	0.060
-620.376	410.548	-0.136	0.293
-619.361	-200.000	0.033	-0.456
-618.346	346.425	-0.040	-0.080
-617.332	-108.290	0.284	-0.062
-616.317	578.445	0.090	-0.225
-615.303	-121.720	-0.102	-0.017
-614.288	800.000	-0.009	-0.038
-613.273	91.453	-0.144	-0.165
-612.259	-64.821	-0.359	-0.148
-611.244	800.000	-0.037	0.125
-610.230	-200.000	0.016	-0.118
-609.215	270.823	-0.210	-0.375
-608.201	-53.091	-0.087	-0.041
-607.186	33.260	-0.127	0.112
-606.171	-122.374	0.172	0.028
-605.157	-58.009	-0.314	-0.139
-604.142	-78.344	0.236	-0.082
-603.128	260.876	0.108	-0.190
-602.113	389.644	0.081	0.170
-601.098	-200.000	-0.014	-0.098
-600.084	317.791	-0.069	0.134
-599.069	-138.376	-0.312	-0.035
-598.055	-200.000	-0.051	0.358
-597.040	91.063	0.111	0.127
-596.025	-39.780	0.266	0.141
-595.011	16.319	-0.095	-0.077
-593.996	-26.214	0.284	0.170
-592.982	275.030	0.107	-0.193
-591.967	-200.000	0.039	0.200
-590.952	158.926	0.069	-0.098
-589.938	-40.653	-0.395	0.208
-588.923	-200.000	0.116	0.567
-587.909	96.813	-0.061	-0.071
-586.894	153.717	-0.021	0.029
-585.879	-7.472	-0.146	0.100
-584.865	46.894	0.119	-0.113
-583.850	191.220	0.223	0.341
-582.836	-39.674	-0.174	-0.092
-581.821	40.201	-0.121	0.111
-580.806	230.180	0.143	0.238
-579.792	696.553	-0.086	0.229
-578.777	-36.323	0.295	0.162
-577.763	273.646	0.147	-0.264
-576.748	-110.572	0.365	0.077
-575.733	169.173	-0.045	0.066
-574.719	-103.333	-0.085	0.020
-573.704	272.484	-0.253	0.454
-572.690	-200.000	-0.069	0.510
-571.675	397.332	0.082	-0.175
-570.661	159.871	0.102	-0.144
-569.646	-200.000	0.025	0.217
-568.631	-200.000	0.053	0.280
-567.617	-83.970	-0.102	-0.033
-566.602	-153.390	-0.086	0.006
-565.588	150.072	0.035	-0.048
-564.573	-200.000	-0.036	0.192
-563.558	682.084	-0.082	-0.216
-562.544	800.000	0.045	0.132
-561.529	121.688	-0.230	-0.291
-560.515	-200.000	-0.008	-0.065
-559.500	-166.228	-0.152	0.007
-558.485	116.304	0.092	-0.115
-557.471	734.510	-0.075	-0.205
-556.456	-58.242	-0.459	0.203
-555.442	291.111	-0.100	0.184
-554.427	-200.000	-0.011	-0.059
-553.412	102.405	0.169	-0.200
-552.398	-38.372	0.043	-0.023
-551.383	-19.143	0.035	-0.022
-550.369	13.565	0.247	0.195
-549.354	731.144	-0.037	0.101
-548.339	-43.989	0.295	0.150
-547.325	93.883	0.056	0.065
-546.310	800.000	0.017	0.048
-545.296	267.810	-0.125	-0.223
-544.281	61.565	-0.163	0.165
-543.266	800.000	0.027	-0.086
-542.252	-5.053	-0.201	-0.140
-541.237	-109.315	-0.279	-0.060
-540.223	244.023	-0.110	-0.188
-539.208	38.463	0.088	-0.080
-538.193	725.591	-0.100	-0.271
-537.179	123.985	-0.161	-0.205
-536.164	-9.020	-0.198	-0.135
-535.150	-134.554	0.188	0.023
-534.135	-145.728	-0.315	0.028
-533.121	-34.670	0.331	-0.184
-532.106	665.063	-0.063	-0.165
-531.091	-109.201	0.551	-0.119
-530.077	-48.326	0.219	0.107
-529.062	-21.754	-0.241	-0.149
-528.048	-200.000	-0.025	0.219
-527.033	-135.067	-0.244	0.030
-526.018	800.000	-0.045	-0.176
-525.004	40.953	0.238	-0.218
-523.989	800.000	0.116	0.482
-522.975	7.787	0.019	0.014
-521.960	-200.000	0.007	0.121
-520.945	-20.201	-0.287	0.180
-519.931	-200.000	-0.049	0.334
-518.916	-99.887	0.247	0.062
-517.902	-200.000	-0.036	-0.281
-516.887	-200.000	0.042	-0.308
-515.872	203.277	0.087	-0.137
-514.858	-80.612	0.511	-0.172
-513.843	-12.243	-0.227	-0.151
-512.829	-150.851	0.334	-0.026
-511.814	-41.677	-0.058	-0.030
-510.799	800.000	-0.120	-0.531
-509.785	183.704	-0.068	0.102
-508.770	-100.432	-0.027	-0.007
-507.756	800.000	-0.065	0.246
-506.741	609.512	-0.122	0.308
-505.726	505.242	-0.082	-0.192
-504.712	-200.000	0.027	-0.121
-503.697	-37.712	0.287	-0.155
-502.683	498.635	0.147	-0.344
-501.668	47.026	0.187	0.176
-500.653	-29.283	-0.265	0.154
-499.639	-200.000	0.040	0.357
-498.624	800.000	0.040	-0.157
-497.610	-134.026	0.311	0.039
-496.595	-78.248	-0.200	0.069
-495.581	-3.853	-0.217	-0.152
-494.566	800.000	0.036	-0.124
-493.551	-54.102	0.220	0.101
-492.537	460.522	-0.077	-0.173
-491.522	-77.314	-0.320	0.113
-490.508	-167.487	0.154	-0.006
-489.493	800.000	0.027	-0.081
-488.478	-182.979	0.230	-0.004
-487.464	800.000	-0.030	-0.120
-486.449	-38.055	0.046	-0.025
-485.435	-3.176	-0.185	-0.131
-484.420	39.613	-0.137	-0.124
-483.405	-35.726	-0.145	-0.080
-482.391	-200.000	0.021	-0.249
-481.376	800.000	0.109	0.338
-480.362	193.327	0.101	0.155
-479.347	125.477	0.242	-0.309
-478.332	88.018	-0.133	-0.149
-477.318	-128.093	0.464	-0.067
-476.303	-183.660	-0.317	-0.005
-475.289	-141.304	0.252	0.026
-474.274	-200.000	0.049	-0.239
-473.259	-21.977	0.260	0.160
-472.245	-148.791	-0.235	-0.019
-471.230	-41.780	0.192	-0.100
-470.216	-143.763	0.149	0.014
-469.201	-200.000	0.055	-0.251
-468.186	22.683	0.122	0.101
-467.172	263.432	-0.152	0.267
-466.157	21.729	-0.151	0.124
-465.143	12.826	0.176	0.138
-464.128	-20.273	-0.098	0.061
-463.113	-200.000	0.015	0.127
-462.099	-29.098	0.105	0.061
-461.084	164.926	-0.058	0.082
-460.070	-200.000	-0.013	0.069
-459.055	-153.711	-0.297	-0.021
-458.040	475.545	-0.103	0.235
-457.026	319.322	-0.088	0.169
-456.011	55.602	-0.016	-0.016
-454.997	19.706	-0.219	-0.178
-453.982	227.135	-0.156	-0.257
-452.968	786.863	-0.040	0.110
-451.953	374.782	0.133	0.274
-450.938	-200.000	0.012	0.161
-449.924	36.003	-0.089	-0.079
-448.909	722.641	0.152	0.410
-447.895	-134.845	-0.285	-0.035
-446.880	-44.481	0.022	-0.011
-445.865	800.000	-0.029	0.084
-444.851	-200.000	-0.015	-0.284
-443.836	800.000	0.067	-0.194
-442.822	-130.507	0.186	0.025
-441.807	113.051	0.049	-0.060
-440.792	-19.712	0.085	-0.053
-439.778	-39.060	-0.110	-0.058
-438.763	-200.000	-0.024	-0.287
-437.749	800.000	0.082	-0.311
-436.734	146.686	-0.178	-0.242
-435.719	504.086	0.146	0.342
-434.705	-94.085	-0.021	-0.006
-433.690	82.022	-0.213	0.233
-432.676	96.732	-0.322	0.373
-431.661	-23.470	-0.206	-0.125
-430.646	125.063	-0.171	0.218
-429.632	664.109	-0.060	0.157
-428.617	-200.000	-0.012	0.057
-427.603	60.875	-0.138	-0.138
-426.588	334.547	-0.080	0.157
-425.573	-200.000	0.029	-0.131
-424.559	-18.025	-0.254	0.161
-423.544	-60.270	0.205	0.088
-422.530	468.190	0.181	-0.411
-421.515	-200.000	0.038	0.224
-420.500	-157.860	0.213	0.013
-419.486	-66.295	0.124	0.050
-418.471	788.997	0.138	0.382
-417.457	-7.644	-0.316	0.216
-416.442	-200.000	0.059	-0.262
-415.428	800.000	-0.060	-0.247
-414.413	31.700	-0.367	-0.319
-413.398	234.089	-0.084	0.140
-412.384	-200.000	0.002	0.067
-411.369	800.000	0.022	0.066
-410.355	476.604	0.082	0.188
-409.340	-187.001	-0.277	0.004
-408.325	-200.000	0.006	0.055
-407.311	666.874	0.153	0.399
-406.296	158.101	-0.129	0.181
-405.282	107.395	-0.132	0.159
-404.267	-106.480	0.260	-0.059
-403.252	210.810	0.040	0.063
-402.238	-142.020	-0.161	-0.016
-401.223	-200.000	0.029	0.516
-400.209	-174.264	0.172	0.005
-399.194	24.483	0.193	-0.161
-398.179	15.047	-0.297	-0.235
-397.165	-200.000	-0.027	-0.127
-396.150	-150.251	0.101	0.008
-395.136	61.272	0.081	0.081
-394.121	14.374	0.131	-0.103
-393.106	-76.159	-0.255	0.091
-392.092	-200.000	-0.005	-0.035
-391.077	504.179	0.119	0.277
-390.063	-77.425	-0.121	-0.042
-389.048	0.662	-0.182	-0.132
-388.033	-83.454	-0.225	0.073
-387.019	14.075	0.132	-0.104
-386.004	630.638	0.088	0.225
-384.990	800.000	-0.111	-0.319
-383.975	-111.075	-0.230	0.048
-382.960	-65.360	0.173	0.070
-381.946	-90.063	-0.134	-0.039
-380.931	800.000	-0.020	0.059
-379.917	-96.956	0.208	-0.055
-378.902	319.537	-0.124	-0.238
-377.888	51.301	0.067	-0.064
-376.873	-92.077	0.047	0.013
-375.858	-1.532	-0.258	-0.183
-374.844	-160.001	0.181	-0.010
-373.829	72.709	-0.124	0.131
-372.815	-106.068	-0.153	-0.035
-371.800	-200.000	-0.003	-0.325
-370.785	176.137	-0.148	-0.216
-369.771	-7.721	-0.284	-0.194
-368.756	153.672	-0.251	0.346
-367.742	800.000	-0.066	-0.252
-366.727	296.089	-0.131	0.242
-365.712	773.207	0.178	0.488
-364.698	261.971	0.110	0.192
-363.683	-200.000	-0.088	0.443
-362.669	182.558	-0.052	-0.077
-361.654	800.000	0.040	0.128
-360.639	188.674	0.191	0.288
-359.625	-200.000	0.027	-0.157
-358.610	113.613	0.331	-0.406
-357.596	-84.977	0.372	0.117
-356.581	331.749	0.035	0.068
-355.566	-200.000	0.037	-0.291
-354.552	33.212	0.385	-0.336
-353.537	190.262	-0.347	-0.525
-352.523	147.870	-0.091	-0.123
-351.508	22.019	0.094	-0.077
-350.493	-85.578	-0.165	-0.052
-349.479	-66.719	-0.186	-0.074
-348.464	195.125	-0.080	-0.122
-347.450	-62.500	0.401	-0.168
-346.435	74.203	-0.233	0.246
-345.420	108.476	0.065	0.078
-344.406	-200.000	-0.017	0.146
-343.391	-200.000	-0.032	-0.175
-342.377	-80.464	0.124	-0.042
-341.362	54.905	-0.351	0.341
-340.348	389.121	-0.139	-0.289
-339.333	-181.203	0.291	-0.006
-338.318	41.819	0.123	-0.113
-337.304	-68.263	-0.147	0.057
-336.289	319.191	0.049	-0.094
-335.275	-53.495	-0.348	0.160
-334.260	-127.070	-0.315	-0.046
-333.245	-200.000	0.001	-0.270
-332.231	196.573	-0.086	0.131
-331.216	-133.609	0.224	-0.028
-330.202	9.468	0.186	-0.142
-329.187	78.336	-0.055	0.059
-328.172	-138.521	0.196	0.022
-327.158	491.713	-0.119	0.273
-326.143	453.368	-0.086	-0.192
-325.129	243.564	0.080	0.135
-324.114	55.593	0.021	0.021
-323.099	657.579	0.072	0.186
-322.085	476.927	-0.042	0.095
-321.070	8.826	0.215	-0.163
-320.056	-200.000	0.000	0.201
-319.041	375.803	0.147	-0.301
-318.026	-200.000	-0.014	-0.167
-317.012	404.508	0.039	-0.082
-315.997	67.646	0.191	0.196
-314.983	-200.000	-0.065	0.329
-313.968	-200.000	0.041	-0.452
-312.953	-47.940	0.333	-0.162
-311.939	500.873	0.039	0.091
-310.924	-14.899	0.136	0.088
-309.910	630.414	-0.037	-0.093
-308.895	-200.000	-0.002	0.028
-307.880	-124.789	0.431	0.067
-306.866	-88.956	-0.126	0.038
-305.851	-97.398	0.319	0.084
-304.837	583.464	0.076	-0.188
-303.822	133.037	0.117	-0.151
-302.807	335.224	-0.004	-0.008
-301.793	-118.140	-0.185	-0.033
-300.778	35.396	-0.294	-0.259
-299.764	192.337	-0.073	0.111
-298.749	485.913	-0.086	0.197
-297.735	288.351	0.108	-0.197
-296.720	800.000	-0.025	0.076
-295.705	-106.452	0.296	-0.066
-294.691	-197.442	0.312	-0.002
-293.676	-83.782	0.217	0.069
-292.662	30.589	-0.217	0.186
-291.647	91.319	-0.159	-0.180
-290.632	45.171	-0.030	-0.028
-289.618	-5.332	0.218	0.150
-288.603	-81.396	-0.411	0.136
-287.589	-125.691	0.127	0.019
-286.574	-200.000	0.040	0.229
-285.559	-200.000	-0.047	-0.246
-284.545	788.166	0.121	0.334
-283.530	233.106	-0.231	0.381
-282.516	-80.183	0.098	0.033
-281.501	-200.000	0.043	0.255
-280.486	-89.665	-0.015	0.004
-279.472	319.298	-0.123	-0.235
-278.457	-8.463	-0.190	-0.129
-277.443	57.963	0.015	0.015
-276.428	90.513	0.185	-0.208
-275.413	-200.000	0.001	0.115
-274.399	258.600	0.152	-0.263
-273.384	500.567	-0.038	0.087
-272.370	240.293	0.031	0.051
-271.355	-16.837	0.174	0.110
-270.340	800.000	0.079	0.274
-269.326	-111.780	0.380	0.077
-268.311	15.752	-0.102	0.080
-267.297	-53.169	0.058	0.027
-266.282	700.146	0.119	-0.313
-265.267	16.340	-0.023	-0.018
-264.253	-200.000	-0.011	0.209
-263.238	-120.568	0.351	-0.060
-262.224	65.356	0.328	-0.333
-261.209	-200.000	0.002	0.082
-260.195	91.907	-0.094	0.106
-259.180	-95.944	-0.139	-0.037
-258.165	146.025	0.114	-0.154
-257.151	800.000	-0.103	0.310
-256.136	254.520	-0.010	-0.017
-255.122	-29.874	0.209	0.120
-254.107	150.140	-0.093	0.126
-253.092	146.046	0.145	0.195
-252.078	184.178	-0.038	-0.057
-251.063	800.000	0.069	0.202
-250.049	68.531	0.115	0.118
-249.034	349.317	-0.147	-0.292
-248.019	-200.000	0.046	-0.470
-247.005	-200.000	0.008	0.175
-245.990	-133.815	-0.343	0.043
-244.976	-200.000	-0.051	-0.260
-243.961	593.279	-0.059	-0.146
-242.946	31.562	-0.405	0.349
-241.932	-22.707	-0.147	-0.089
-240.917	-90.686	0.229	-0.066
-239.903	263.588	0.173	-0.302
-238.888	-200.000	0.007	0.040
-237.873	296.963	-0.101	-0.187
-236.859	399.067	-0.078	-0.164
-235.844	-56.451	-0.084	0.038
-234.830	-200.000	-0.028	0.197
-233.815	92.949	0.021	-0.023
-232.800	-200.000	0.018	0.141
-231.786	-2.513	-0.188	0.132
-230.771	-200.000	-0.018	0.113
-229.757	3.663	-0.142	0.104
-228.742	-113.910	0.220	0.043
-227.727	-32.133	0.052	-0.029
-226.713	644.693	0.050	-0.127
-225.698	-200.000	0.060	0.298
-224.684	139.247	-0.150	0.198
-223.669	-49.045	-0.279	0.134
-222.655	-200.000	-0.040	0.270
-221.640	-140.084	-0.011	0.001
-220.625	-54.127	-0.132	0.060
-219.611	662.926	0.117	-0.303
-218.596	-139.764	0.040	0.004
-217.582	-200.000	0.005	-0.083
-216.567	-200.000	-0.014	-0.113
-215.552	15.107	-0.012	0.009
-214.538	-50.840	-0.164	-0.077
-213.523	43.962	-0.206	-0.189
-212.509	-54.203	-0.240	0.109
-211.494	-141.067	0.295	0.030
-210.479	3.987	-0.217	-0.159
-209.465	-200.000	-0.041	0.450
-208.450	800.000	0.070	0.204
-207.436	-67.652	-0.171	-0.067
-206.421	4.723	0.086	0.063
-205.406	-200.000	0.032	-0.207
-204.392	-74.356	-0.070	0.025
-203.377	800.000	0.055	0.233
-202.363	-200.000	-0.039	-0.303
-201.348	186.633	0.127	-0.189
-200.333	-46.164	0.101	0.050
-199.319	800.000	-0.027	0.082
-198.304	-148.287	0.081	-0.007
-197.290	579.692	0.068	-0.168
-196.275	26.999	-0.149	-0.125
-195.260	-175.523	-0.154	-0.004
-194.246	-200.000	0.043	-0.211
-193.231	-85.086	0.462	-0.145
-192.217	-76.166	0.103	-0.036
-191.202	-92.433	0.113	0.032
-190.187	-146.240	0.167	0.015
-189.173	800.000	-0.009	0.032
-188.158	-143.863	0.220	-0.021
-187.144	800.000	-0.102	-0.440
-186.129	-27.264	-0.152	-0.089
-185.114	45.269	0.116	-0.107
-184.100	280.908	0.098	0.175
-183.085	-89.408	-0.281	0.083
-182.071	-126.119	-0.216	-0.032
-181.056	111.216	0.129	0.155
-180.042	-84.693	-0.232	-0.073
-179.027	-76.967	-0.266	-0.093
-178.012	321.999	0.127	0.242
-176.998	80.325	0.212	0.228
-175.983	105.601	0.131	-0.155
-174.969	800.000	0.046	0.166
-173.954	-200.000	-0.002	0.070
-172.939	-200.000	-0.011	-0.259
-171.925	116.243	-0.162	-0.198
-170.910	-89.801	-0.501	0.147
-169.896	394.829	0.068	0.141
-168.881	77.543	-0.130	0.139
-167.866	54.040	-0.166	0.160
-166.852	-86.348	0.054	0.017
-165.837	-200.000	0.004	0.085
-164.823	-17.821	0.144	-0.091
-163.808	-55.210	-0.109	0.049
-162.793	800.000	0.111	-0.376
-161.779	-100.346	0.410	0.102
-160.764	-74.817	-0.080	-0.029
-159.750	117.036	-0.054	0.066
-158.735	-181.467	0.204	0.004
-157.720	27.936	0.107	-0.090
-156.706	80.083	-0.122	0.131
-155.691	44.387	0.246	-0.226
-154.677	-200.000	0.001	-0.125
-153.662	452.301	0.105	-0.231
-152.647	-182.604	0.096	0.002
-151.633	232.112	-0.004	-0.007
-150.618	-200.000	-0.020	0.196
-149.604	-92.120	0.110	0.031
-148.589	-99.199	-0.276	0.070
-147.574	74.960	-0.039	-0.041
-146.560	596.314	0.132	-0.328
-145.545	-200.000	0.021	-0.102
-144.531	337.775	-0.038	0.075
-143.516	-79.726	0.253	-0.085
-142.502	-200.000	0.138	0.001
-141.487	-200.000	-0.013	-0.277
-140.472	800.000	-0.047	-0.173
-139.458	-160.246	0.712	-0.038
-138.443	-200.000	-0.045	0.224
-137.429	-58.776	-0.355	0.154
-136.414	-145.756	-0.117	-0.010
-135.399	-38.961	-0.155	-0.081
-134.385	-200.000	0.012	0.109
-133.370	395.011	0.026	0.055
-132.356	281.403	-0.177	0.316
-131.341	-135.017	0.415	-0.050
-130.326	800.000	-0.033	0.135
-129.312	-92.836	-0.174	0.049
-128.297	-52.235	-0.183	-0.085
-127.283	33.572	0.146	-0.127
-126.268	-200.000	-0.058	0.328
-125.253	-200.000	-0.020	0.327
-124.239	296.610	-0.106	-0.193
-123.224	472.252	0.141	0.316
-122.210	-98.511	-0.159	0.040
-121.195	-200.000	-0.085	-0.518
