DTS Sentinel unit serial number:	SN413079Multiplexer serial number:	ORYXHardware model number:	OX4-SRSoftware version number:	ORYX F/W v4.00 Oryx Data Collector v3.7.2.0data status	okinstallation	princeton_trtdifferential loss correction	single-endedforward channel	channel 3reverse channel	N/Adate	2019/09/17time	16:36:34forward acquisition time	60.00reverse acquisition time	0.00gamma	496.2192k internal	0.2291k external	0.2291temperature offset calibration	0.9953default loss term (dB/km)	0.3790temperature slope calibration	1.0000multiplexer offset coefficient	1.0000multiplexer slope coefficient	1.0000fibre end	0.00T internal ref (°C)	41.81T ext. ref 1 (°C)	0.37T ext. ref 2 (°C)	38.74length (m)	temperature (°C)	Stokes	anti-Stokes-747.200	-14.700	0.142	0.094
-746.185	800.000	0.068	0.207
-745.171	387.625	-0.158	0.336
-744.156	800.000	0.036	0.105
-743.142	-156.502	0.149	-0.009
-742.127	364.683	-0.018	0.038
-741.112	-72.635	0.222	-0.084
-740.098	-43.416	0.258	-0.134
-739.083	-118.137	-0.312	-0.057
-738.069	-157.234	-0.241	-0.015
-737.054	164.617	0.209	-0.302
-736.039	94.477	-0.097	0.112
-735.025	-191.898	0.165	0.002
-734.010	-200.000	0.036	-0.358
-732.996	-29.657	-0.285	-0.166
-731.981	-72.475	0.064	-0.024
-730.966	118.534	-0.046	0.059
-729.952	-200.000	-0.015	0.295
-728.937	-160.383	-0.169	-0.009
-727.923	-126.399	-0.250	-0.038
-726.908	-200.000	-0.019	0.137
-725.894	-55.957	0.236	-0.108
-724.879	-200.000	-0.006	0.166
-723.864	800.000	0.143	0.439
-722.850	285.559	0.080	0.147
-721.835	137.624	0.110	0.147
-720.821	220.455	-0.108	0.178
-719.806	173.978	-0.123	0.182
-718.791	-175.740	-0.409	-0.011
-717.777	-200.000	-0.048	-0.249
-716.762	285.416	0.124	-0.228
-715.748	44.282	0.153	-0.144
-714.733	800.000	0.066	0.201
-713.718	96.910	-0.114	-0.133
-712.704	402.418	0.106	-0.228
-711.689	77.511	0.122	0.133
-710.675	302.779	-0.085	0.161
-709.660	-59.159	-0.175	0.077
-708.645	-200.000	0.017	-0.220
-707.631	-173.429	0.073	0.002
-706.616	-95.027	-0.148	-0.041
-705.602	-144.378	-0.223	-0.021
-704.587	57.802	-0.206	0.206
-703.572	508.830	-0.092	0.218
-702.558	-200.000	0.186	-0.001
-701.543	800.000	-0.055	-0.239
-700.529	-70.080	-0.295	-0.115
-699.514	186.148	0.153	-0.232
-698.499	213.001	0.086	-0.139
-697.485	49.201	-0.193	-0.185
-696.470	67.703	-0.024	-0.025
-695.456	-154.068	-0.220	0.015
-694.441	800.000	-0.020	0.078
-693.426	800.000	-0.027	0.095
-692.412	-125.722	-0.259	0.040
-691.397	800.000	-0.053	-0.229
-690.383	34.992	0.040	0.035
-689.368	-70.607	-0.183	0.071
-688.354	530.824	0.069	0.167
-687.339	-94.747	0.231	-0.064
-686.324	-200.000	0.010	-0.305
-685.310	-200.000	0.023	0.144
-684.295	-15.343	-0.453	-0.296
-683.281	-113.523	0.209	0.042
-682.266	-8.334	0.128	-0.088
-681.251	-126.735	-0.074	-0.011
-680.237	-141.764	0.142	-0.015
-679.222	800.000	-0.099	0.321
-678.208	-160.116	0.040	0.002
-677.193	-52.831	0.142	-0.067
-676.178	-200.000	0.070	0.411
-675.164	78.166	0.231	-0.251
-674.149	-90.476	0.223	0.066
-673.135	-166.352	-0.093	-0.004
-672.120	-18.791	0.187	0.119
-671.105	198.636	-0.129	0.202
-670.091	231.566	0.069	0.116
-669.076	173.629	0.125	-0.184
-668.062	800.000	0.087	-0.255
-667.047	-200.000	-0.018	-0.143
-666.032	140.839	0.136	-0.184
-665.018	-6.412	-0.153	-0.106
-664.003	131.568	-0.177	-0.232
-662.989	177.912	0.038	-0.056
-661.974	-116.399	-0.396	0.075
-660.959	-200.000	0.020	0.120
-659.945	-26.203	0.303	-0.181
-658.930	-200.000	-0.082	-0.368
-657.916	603.629	-0.078	-0.197
-656.901	-200.000	-0.000	0.264
-655.886	800.000	0.092	0.318
-654.872	405.347	-0.131	-0.282
-653.857	39.531	-0.444	-0.406
-652.843	-35.497	-0.105	-0.058
-651.828	-111.794	0.019	-0.004
-650.814	384.472	0.032	0.066
-649.799	-132.712	0.135	0.018
-648.784	-200.000	0.081	-0.373
-647.770	153.403	0.038	0.053
-646.755	114.582	-0.201	-0.250
-645.741	-4.301	0.461	-0.325
-644.726	-33.938	-0.146	0.082
-643.711	-67.290	-0.098	0.039
-642.697	169.766	-0.019	-0.027
-641.682	-127.387	-0.015	0.002
-640.668	-31.869	-0.152	0.087
-639.653	322.803	-0.048	0.094
-638.638	800.000	-0.123	-0.366
-637.624	285.541	0.078	-0.143
-636.609	800.000	0.017	0.049
-635.595	102.370	-0.087	-0.104
-634.580	120.455	-0.100	-0.127
-633.565	-200.000	0.014	0.209
-632.551	-168.118	0.329	-0.013
-631.536	258.687	0.260	-0.457
-630.522	156.210	0.044	0.062
-629.507	-167.301	0.202	-0.008
-628.492	-89.810	-0.286	0.085
-627.478	-65.636	0.095	-0.039
-626.463	-200.000	0.067	-0.392
-625.449	-200.000	-0.029	-0.185
-624.434	-200.000	0.043	0.202
-623.419	-200.000	-0.052	0.263
-622.405	-200.000	-0.018	-0.253
-621.390	-62.087	0.125	-0.053
-620.376	-28.320	-0.135	-0.079
-619.361	135.615	-0.221	0.293
-618.346	800.000	0.057	-0.211
-617.332	-187.334	-0.387	-0.005
-616.317	-200.000	-0.004	0.168
-615.303	12.832	-0.077	-0.060
-614.288	800.000	-0.038	-0.145
-613.273	69.202	0.142	-0.149
-612.259	-1.718	0.109	0.078
-611.244	595.544	-0.113	0.286
-610.230	-29.303	-0.206	0.120
-609.215	800.000	0.086	-0.255
-608.201	27.114	-0.255	-0.218
-607.186	-48.108	-0.223	-0.110
-606.171	-200.000	-0.002	-0.180
-605.157	128.052	-0.078	0.101
-604.142	-200.000	0.022	0.370
-603.128	800.000	0.032	-0.139
-602.113	-128.762	0.206	0.030
-601.098	-200.000	-0.018	0.130
-600.084	170.973	-0.207	0.301
-599.069	-200.000	-0.001	-0.137
-598.055	-158.067	-0.169	0.010
-597.040	-114.541	0.251	0.049
-596.025	6.074	0.133	0.100
-595.011	800.000	-0.061	0.181
-593.996	-86.234	-0.071	0.022
-592.982	-54.294	0.350	0.162
-591.967	160.941	0.068	0.096
-590.952	55.113	0.194	-0.191
-589.938	74.991	0.172	0.185
-588.923	-189.436	-0.139	0.002
-587.909	204.719	0.141	-0.223
-586.894	-114.303	0.160	0.031
-585.879	38.837	-0.181	-0.164
-584.865	-159.745	0.515	-0.029
-583.850	8.570	-0.233	0.179
-582.836	69.099	0.260	-0.272
-581.821	-13.883	0.108	-0.071
-580.806	-129.228	-0.145	0.021
-579.792	-38.253	-0.113	0.061
-578.777	749.045	0.043	0.117
-577.763	-108.795	0.078	0.017
-576.748	88.212	-0.239	0.270
-575.733	-135.421	0.079	-0.010
-574.719	-112.050	0.334	-0.068
-573.704	-200.000	-0.008	0.394
-572.690	-53.546	-0.244	0.114
-571.675	-58.691	0.109	-0.048
-570.661	49.455	0.347	0.332
-569.646	-170.138	0.395	0.014
-568.631	151.979	0.157	0.218
-567.617	-76.091	-0.249	0.090
-566.602	332.035	0.058	-0.114
-565.588	374.303	0.207	-0.429
-564.573	76.880	-0.226	-0.244
-563.558	-140.215	0.292	0.031
-562.544	800.000	-0.044	0.153
-561.529	234.632	0.077	0.129
-560.515	172.761	0.063	0.092
-559.500	800.000	-0.047	-0.185
-558.485	-200.000	-0.016	-0.117
-557.471	132.322	-0.153	0.200
-556.456	86.861	0.190	0.213
-555.442	-22.674	0.062	-0.038
-554.427	-113.482	0.279	0.056
-553.412	253.362	-0.141	-0.244
-552.398	-200.000	0.031	-0.188
-551.383	-158.250	0.212	-0.013
-550.369	-92.138	0.144	-0.041
-549.354	127.304	0.146	-0.189
-548.339	325.185	-0.053	-0.104
-547.325	-128.987	-0.330	0.047
-546.310	-200.000	0.001	-0.150
-545.296	193.682	0.107	0.164
-544.281	-179.428	0.159	-0.004
-543.266	742.449	0.005	-0.013
-542.252	48.231	-0.278	-0.265
-541.237	113.443	-0.057	0.070
-540.223	102.886	0.071	0.085
-539.208	164.541	0.102	0.147
-538.193	77.042	-0.163	-0.176
-537.179	-131.453	-0.299	0.040
-536.164	228.272	0.079	-0.130
-535.150	56.971	0.195	-0.194
-534.135	800.000	0.060	0.225
-533.121	-39.510	0.282	0.150
-532.106	-187.739	0.132	-0.002
-531.091	19.654	0.222	0.182
-530.077	35.188	0.117	0.105
-529.062	-134.708	0.187	-0.023
-528.048	-39.100	-0.022	-0.012
-527.033	33.690	-0.173	-0.153
-526.018	-16.481	0.144	0.093
-525.004	725.428	-0.089	-0.242
-523.989	130.328	-0.147	0.191
-522.975	-200.000	0.065	-0.327
-521.960	-148.660	0.355	-0.029
-520.945	227.661	-0.157	-0.259
-519.931	800.000	-0.085	0.370
-518.916	800.000	0.027	0.092
-517.902	136.214	-0.071	-0.094
-516.887	-45.461	-0.071	-0.036
-515.872	-76.776	-0.237	0.084
-514.858	408.447	0.196	-0.421
-513.843	-113.703	-0.118	-0.023
-512.829	42.244	0.082	-0.076
-511.814	-64.632	0.480	0.198
-510.799	87.920	0.253	0.284
-509.785	22.723	-0.180	0.150
-508.770	-163.874	0.093	-0.004
-507.756	219.104	0.143	0.231
-506.741	800.000	0.138	-0.435
-505.726	-102.570	0.120	-0.029
-504.712	-47.935	-0.196	-0.096
-503.697	113.573	0.304	-0.375
-502.683	-49.643	0.348	-0.168
-501.668	-24.226	0.124	0.075
-500.653	25.334	0.148	0.125
-499.639	215.039	-0.077	-0.124
-498.624	196.489	0.060	-0.092
-497.610	212.390	0.143	-0.228
-496.595	4.127	-0.228	0.169
-495.581	161.508	-0.188	0.267
-494.566	-74.334	-0.306	0.112
-493.551	800.000	-0.038	-0.133
-492.537	11.177	0.109	-0.085
-491.522	-117.241	-0.063	-0.012
-490.508	61.728	0.202	0.204
-489.493	-82.957	-0.110	-0.036
-488.478	13.742	-0.066	-0.052
-487.464	-59.688	-0.228	-0.099
-486.449	800.000	-0.074	0.320
-485.435	86.705	-0.203	-0.227
-484.420	4.547	0.097	-0.072
-483.405	800.000	-0.031	-0.107
-482.391	-133.563	-0.239	-0.030
-481.376	226.124	0.051	-0.084
-480.362	-42.351	0.210	0.109
-479.347	403.223	-0.129	-0.276
-478.332	-125.167	0.396	0.062
-477.318	-77.748	-0.118	0.041
-476.303	-115.563	0.352	-0.067
-475.289	0.181	0.085	0.061
-474.274	92.134	-0.146	0.167
-473.259	172.120	0.254	0.370
-472.245	-88.037	0.259	-0.079
-471.230	-200.000	0.014	0.266
-470.216	800.000	0.051	0.146
-469.201	-200.000	-0.032	0.428
-468.186	112.736	-0.139	0.170
-467.172	732.034	0.058	-0.156
-466.157	800.000	-0.016	-0.062
-465.143	-174.261	-0.228	0.007
-464.128	24.258	-0.271	-0.226
-463.113	230.517	0.094	-0.157
-462.099	48.301	0.145	0.138
-461.084	800.000	-0.065	-0.183
-460.070	264.089	-0.024	0.042
-459.055	-76.073	-0.438	0.157
-458.040	-137.743	0.213	-0.024
-457.026	-63.902	0.052	-0.022
-456.011	89.465	0.087	-0.098
-454.997	-200.000	0.043	-0.301
-453.982	262.456	0.035	0.062
-452.968	-130.590	-0.217	-0.030
-451.953	-200.000	-0.032	0.154
-450.938	-123.001	-0.317	-0.052
-449.924	-89.961	0.382	0.113
-448.909	800.000	0.042	-0.147
-447.895	-169.741	0.210	-0.008
-446.880	-200.000	-0.010	-0.128
-445.865	-94.106	0.201	-0.056
-444.851	82.213	-0.202	-0.222
-443.836	-77.779	0.091	0.032
-442.822	-138.921	-0.303	-0.033
-441.807	-200.000	0.020	0.144
-440.792	-100.539	-0.125	0.031
-439.778	-10.559	-0.058	-0.039
-438.763	-3.521	-0.218	0.153
-437.749	136.541	-0.088	0.116
-436.734	43.035	0.220	0.203
-435.719	-19.589	-0.349	-0.219
-434.705	-200.000	0.061	0.467
-433.690	-200.000	-0.032	0.339
-432.676	176.701	0.246	0.363
-431.661	222.808	0.093	-0.151
-430.646	-36.838	-0.261	-0.142
-429.632	283.322	0.033	0.061
-428.617	237.982	0.195	-0.327
-427.603	-65.393	-0.239	0.097
-426.588	-102.089	-0.351	-0.085
-425.573	-48.417	-0.107	0.052
-424.559	-89.702	-0.170	0.050
-423.544	-102.410	-0.203	0.049
-422.530	0.789	0.188	-0.136
-421.515	46.854	-0.125	0.117
-420.500	676.204	0.045	-0.119
-419.486	-48.155	0.094	0.046
-418.471	-200.000	-0.037	-0.483
-417.457	724.082	-0.037	-0.100
-416.442	-200.000	0.019	-0.251
-415.428	800.000	-0.036	-0.107
-414.413	-115.958	0.230	-0.043
-413.398	333.363	-0.058	-0.113
-412.384	-200.000	-0.006	0.152
-411.369	799.612	0.061	-0.170
-410.355	42.671	-0.245	-0.226
-409.340	-102.476	-0.061	0.015
-408.325	-83.295	-0.275	0.089
-407.311	-61.759	-0.351	-0.148
-406.296	0.681	-0.251	-0.181
-405.282	-132.785	0.380	0.049
-404.267	89.439	-0.036	-0.041
-403.252	-200.000	0.027	-0.291
-402.238	289.157	-0.126	0.230
-401.223	-172.878	-0.221	-0.007
-400.209	272.290	-0.061	-0.109
-399.194	62.620	0.131	-0.132
-398.179	800.000	-0.063	0.216
-397.165	463.170	-0.120	0.271
-396.150	85.593	-0.108	-0.120
-395.136	-145.609	0.300	-0.027
-394.121	-87.077	0.090	0.028
-393.106	800.000	-0.017	0.055
-392.092	800.000	0.077	-0.286
-391.077	-65.760	-0.193	-0.078
-390.063	-200.000	-0.030	0.183
-389.048	87.888	0.180	-0.201
-388.033	-32.612	-0.184	0.103
-387.019	800.000	-0.089	-0.351
-386.004	800.000	0.031	-0.091
-384.990	800.000	-0.031	0.104
-383.975	-84.282	0.280	0.089
-382.960	-100.035	0.178	-0.045
-381.946	417.360	-0.069	0.149
-380.931	-200.000	-0.006	0.050
-379.917	-156.214	0.156	-0.010
-378.902	-47.663	0.203	0.099
-377.888	103.658	-0.131	-0.155
-376.873	287.382	0.190	-0.347
-375.858	-12.533	0.109	0.072
-374.844	29.050	0.085	-0.073
-373.829	-135.227	0.067	-0.008
-372.815	-93.109	-0.074	-0.021
-371.800	-16.847	-0.181	-0.115
-370.785	88.312	-0.084	-0.094
-369.771	-31.972	-0.142	0.080
-368.756	73.923	-0.181	0.192
-367.742	800.000	-0.060	-0.198
-366.727	-182.506	0.233	0.004
-365.712	164.275	-0.234	-0.332
-364.698	15.308	-0.248	0.196
-363.683	800.000	0.067	-0.269
-362.669	583.303	0.011	0.028
-361.654	98.668	-0.207	0.241
-360.639	-86.683	0.259	-0.080
-359.625	-185.899	0.169	0.003
-358.610	431.553	-0.221	0.483
-357.596	-107.416	-0.216	-0.048
-356.581	800.000	0.068	-0.263
-355.566	153.386	-0.096	0.133
-354.552	800.000	-0.118	0.370
-353.537	-164.463	-0.204	0.009
-352.523	-51.447	-0.218	0.103
-351.508	152.084	0.136	-0.188
-350.493	-200.000	-0.041	-0.382
-349.479	-159.235	0.123	-0.007
-348.464	-200.000	0.025	-0.174
-347.450	-59.929	-0.048	0.021
-346.435	-169.439	-0.289	-0.011
-345.420	800.000	-0.011	-0.033
-344.406	-200.000	-0.016	0.092
-343.391	-132.631	-0.270	0.035
-342.377	236.139	-0.128	0.213
-341.362	800.000	0.111	0.321
-340.348	800.000	0.100	0.341
-339.333	800.000	-0.087	-0.248
-338.318	-200.000	-0.038	-0.300
-337.304	-200.000	0.026	-0.240
-336.289	14.990	0.187	0.148
-335.275	-200.000	0.017	-0.086
-334.260	3.120	0.092	-0.068
-333.245	20.884	0.200	-0.163
-332.231	605.462	0.092	0.230
-331.216	800.000	-0.039	-0.133
-330.202	6.311	0.067	0.050
-329.187	-200.000	-0.002	-0.020
-328.172	-109.984	-0.483	0.102
-327.158	-78.876	-0.289	-0.099
-326.143	800.000	0.056	-0.166
-325.129	-67.885	0.068	0.027
-324.114	-88.852	0.273	-0.082
-323.099	-108.103	-0.230	-0.050
-322.085	67.254	0.178	-0.183
-321.070	185.736	0.125	0.187
-320.056	-200.000	-0.042	0.485
-319.041	-200.000	-0.000	0.010
-318.026	-200.000	0.012	0.293
-317.012	-161.733	0.049	0.003
-315.997	-88.676	0.171	0.051
-314.983	-151.198	0.197	0.015
-313.968	-38.583	-0.417	-0.222
-312.953	-200.000	-0.009	-0.126
-311.939	113.711	-0.159	-0.195
-310.924	43.287	-0.142	-0.130
-309.910	211.881	-0.103	0.163
-308.895	-108.760	-0.165	-0.036
-307.880	-200.000	0.037	-0.351
-306.866	-133.312	-0.355	0.045
-305.851	144.848	-0.238	-0.320
-304.837	-124.680	0.211	0.033
-303.822	-20.586	-0.067	0.041
-302.807	-191.787	-0.241	0.002
-301.793	43.602	-0.076	-0.070
-300.778	70.130	-0.301	0.313
-299.764	-200.000	0.062	0.308
-298.749	-16.670	0.190	-0.121
-297.735	74.759	-0.095	-0.101
-296.720	-70.859	-0.512	-0.194
-295.705	41.356	0.304	-0.277
-294.691	-137.403	0.068	0.008
-293.676	-71.775	-0.119	0.045
-292.662	42.790	0.164	-0.150
-291.647	-60.135	0.141	-0.060
-290.632	40.331	0.100	0.091
-289.618	-165.555	-0.214	0.009
-288.603	478.332	0.011	0.025
-287.589	800.000	-0.079	0.336
-286.574	545.993	-0.009	-0.022
-285.559	-55.068	-0.367	-0.166
-284.545	81.910	0.222	0.242
-283.530	-165.446	0.216	0.010
-282.516	48.745	-0.188	-0.177
-281.501	13.575	0.028	0.022
-280.486	160.559	-0.282	0.395
-279.472	-118.212	0.325	0.058
-278.457	603.552	-0.023	0.057
-277.443	800.000	0.065	0.230
-276.428	-23.940	-0.219	-0.132
-275.413	-30.630	0.283	0.161
-274.399	-160.295	0.279	0.015
-273.384	-15.923	-0.318	-0.204
-272.370	608.617	0.048	0.120
-271.355	-50.771	-0.303	0.143
-270.340	158.577	0.134	-0.187
-269.326	93.091	-0.123	0.140
-268.311	-94.987	0.318	0.086
-267.297	50.019	0.106	0.101
-266.282	-200.000	0.009	0.199
-265.267	800.000	0.111	0.332
-264.253	97.880	0.223	0.258
-263.238	-158.514	-0.411	-0.024
-262.224	-55.882	-0.083	0.037
-261.209	61.632	-0.119	-0.119
-260.195	-96.152	0.107	-0.028
-259.180	-200.000	-0.021	-0.365
-258.165	-43.246	-0.243	-0.124
-257.151	33.768	0.079	-0.069
-256.136	800.000	-0.069	0.240
-255.122	35.733	0.241	-0.213
-254.107	-200.000	-0.003	0.259
-253.092	-163.788	-0.239	-0.011
-252.078	-115.412	0.103	0.019
-251.063	-102.147	-0.037	-0.009
-250.049	-155.689	0.156	-0.010
-249.034	-200.000	0.028	0.171
-248.019	8.057	0.037	0.028
-247.005	282.337	-0.110	0.198
-245.990	-120.394	-0.197	-0.034
-244.976	129.110	-0.098	-0.126
-243.961	205.454	0.148	-0.231
-242.946	44.785	-0.313	-0.290
-241.932	113.486	-0.064	0.078
-240.917	15.821	-0.032	-0.026
-239.903	755.262	0.056	0.152
-238.888	0.519	-0.082	-0.059
-237.873	-30.752	0.241	-0.137
-236.859	243.975	-0.247	-0.416
-235.844	150.827	0.206	0.281
-234.830	427.465	-0.108	0.235
-233.815	108.568	0.208	-0.249
-232.800	-74.622	0.150	-0.054
-231.786	103.641	0.012	0.015
-230.771	-200.000	0.029	0.178
-229.757	-200.000	-0.008	-0.101
-228.742	239.867	-0.165	0.275
-227.727	800.000	0.065	0.269
-226.713	800.000	0.004	-0.012
-225.698	277.203	-0.136	0.243
-224.684	133.576	0.122	-0.158
-223.669	-59.405	0.173	0.075
-222.655	-39.577	-0.061	-0.032
-221.640	-200.000	-0.001	-0.263
-220.625	221.523	-0.115	0.185
-219.611	-68.107	-0.217	-0.085
-218.596	-135.361	0.404	0.049
-217.582	363.670	0.048	-0.098
-216.567	36.428	-0.302	0.267
-215.552	-72.513	-0.188	-0.070
-214.538	-200.000	0.009	-0.198
-213.523	745.493	0.048	0.129
-212.509	82.587	0.246	0.268
-211.494	-39.863	0.130	-0.068
-210.479	800.000	-0.049	-0.141
-209.465	-98.538	0.226	0.058
-208.450	22.667	0.115	-0.095
-207.436	295.976	-0.171	-0.314
-206.421	-200.000	0.043	-0.253
-205.406	-39.296	0.335	0.176
-204.392	-11.339	-0.040	0.026
-203.377	-200.000	0.037	0.301
-202.363	-143.621	0.251	0.024
-201.348	332.207	0.104	-0.202
-200.333	7.229	0.133	0.100
-199.319	-200.000	0.034	0.270
-198.304	66.207	-0.176	-0.179
-197.290	686.248	-0.080	0.211
-196.275	-62.680	-0.080	0.033
-195.260	-200.000	-0.020	0.318
-194.246	27.323	0.120	0.101
-193.231	-66.379	-0.208	-0.083
-192.217	573.411	0.062	0.153
-191.202	-76.896	0.268	0.094
-190.187	-200.000	0.011	0.125
-189.173	-85.454	0.224	0.070
-188.158	-200.000	0.031	0.403
-187.144	-101.138	0.382	0.094
-186.129	-102.173	0.246	-0.059
-185.114	-200.000	-0.251	-0.001
-184.100	80.972	-0.040	-0.044
-183.085	-200.000	-0.370	-0.002
-182.071	392.948	-0.117	-0.244
-181.056	-92.941	-0.165	0.046
-180.042	-200.000	-0.054	0.252
-179.027	-33.366	0.221	0.122
-178.012	380.633	-0.221	-0.454
-176.998	-23.198	0.084	0.051
-175.983	-72.180	0.173	-0.064
-174.969	162.382	-0.208	0.292
-173.954	-120.556	-0.094	0.016
-172.939	-84.712	0.128	0.040
-171.925	-133.760	-0.158	0.020
-170.910	288.952	0.139	-0.252
-169.896	-200.000	-0.057	0.267
-168.881	352.858	0.098	0.194
-167.866	3.197	0.077	0.056
-166.852	-66.647	-0.230	0.091
-165.837	800.000	-0.033	0.100
-164.823	-200.000	0.032	0.224
-163.808	189.611	-0.267	0.401
-162.793	-49.325	0.185	-0.089
-161.779	-114.589	0.271	0.052
-160.764	-30.832	-0.239	0.135
-159.750	264.639	-0.097	0.168
-158.735	309.713	-0.101	0.189
-157.720	232.693	-0.168	-0.277
-156.706	-200.000	-0.038	-0.521
-155.691	57.296	0.078	-0.077
-154.677	-200.000	0.007	-0.150
-153.662	-126.277	0.293	0.044
-152.647	-200.000	0.025	-0.242
-151.633	-200.000	0.061	0.325
-150.618	21.506	0.264	0.215
-149.604	-200.000	0.077	-0.481
-148.589	-200.000	0.024	0.123
-147.574	-49.783	-0.099	-0.047
-146.560	-87.754	0.258	0.078
-145.545	800.000	-0.019	0.078
-144.531	7.668	0.245	-0.184
-143.516	20.391	-0.233	0.188
-142.502	47.776	-0.057	0.054
-141.487	-105.636	-0.354	0.080
-140.472	188.204	-0.106	-0.158
-139.458	-98.926	-0.289	0.073
-138.443	286.966	-0.082	0.149
-137.429	40.571	0.011	0.010
-136.414	-49.219	0.117	0.056
-135.399	-148.335	-0.238	-0.020
-134.385	-200.000	-0.095	-0.637
-133.370	201.830	-0.020	-0.031
-132.356	-200.000	0.009	-0.142
-131.341	767.339	0.074	0.200
-130.326	-200.000	0.085	-0.480
-129.312	322.002	0.248	-0.472
-128.297	800.000	-0.061	-0.208
-127.283	-200.000	0.037	-0.202
-126.268	221.411	0.216	0.347
-125.253	-162.547	-0.123	-0.006
-124.239	127.524	0.143	0.181
-123.224	-18.977	0.302	0.188
-122.210	-200.000	-0.023	0.109
-121.195	94.019	0.225	-0.255
