DTS Sentinel unit serial number:	SN413079Multiplexer serial number:	ORYXHardware model number:	OX4-SRSoftware version number:	ORYX F/W v4.00 Oryx Data Collector v3.7.2.0data status	okinstallation	princeton_trtdifferential loss correction	single-endedforward channel	channel 3reverse channel	N/Adate	2019/09/14time	21:56:34forward acquisition time	60.00reverse acquisition time	0.00gamma	496.2192k internal	0.2318k external	0.2318temperature offset calibration	0.9994default loss term (dB/km)	0.3790temperature slope calibration	1.0000multiplexer offset coefficient	1.0000multiplexer slope coefficient	1.0000fibre end	0.00T internal ref (°C)	32.69T ext. ref 1 (°C)	4.72T ext. ref 2 (°C)	27.67length (m)	temperature (°C)	Stokes	anti-Stokes-747.200	291.071	-0.123	-0.227
-746.185	-141.225	-0.237	-0.024
-745.171	-104.129	0.420	0.099
-744.156	322.500	-0.140	0.269
-743.142	800.000	-0.011	-0.035
-742.127	87.338	-0.203	0.228
-741.112	771.882	0.116	-0.319
-740.098	23.850	0.091	0.076
-739.083	173.951	-0.043	-0.062
-738.069	0.273	0.105	0.076
-737.054	105.705	0.113	-0.135
-736.039	-4.628	-0.160	0.112
-735.025	-200.000	-0.015	0.174
-734.010	109.235	0.123	0.149
-732.996	69.672	0.080	0.084
-731.981	-114.791	0.147	-0.028
-730.966	-174.747	0.253	-0.007
-729.952	211.032	0.081	0.129
-728.937	-17.929	0.236	-0.149
-727.923	-64.987	-0.278	0.113
-726.908	-68.642	0.136	-0.053
-725.894	0.629	0.183	0.132
-724.879	-91.238	-0.247	-0.072
-723.864	26.240	0.078	0.066
-722.850	15.866	-0.219	0.175
-721.835	-27.094	0.415	0.245
-720.821	192.750	0.115	-0.176
-719.806	51.023	-0.223	0.214
-718.791	489.267	0.049	0.113
-717.777	800.000	0.061	0.172
-716.762	-200.000	0.008	-0.075
-715.748	-22.708	-0.108	-0.066
-714.733	171.405	-0.082	-0.119
-713.718	-200.000	-0.031	-0.459
-712.704	-167.948	0.112	-0.004
-711.689	46.693	-0.106	-0.100
-710.675	800.000	0.013	-0.039
-709.660	53.208	-0.346	-0.335
-708.645	-103.478	0.350	-0.083
-707.631	-161.141	-0.200	-0.011
-706.616	140.105	-0.149	-0.199
-705.602	-109.704	-0.096	-0.020
-704.587	800.000	0.120	0.388
-703.572	67.476	0.060	0.062
-702.558	523.256	-0.083	0.197
-701.543	-200.000	-0.010	-0.292
-700.529	-24.290	-0.253	0.153
-699.514	-145.557	-0.087	0.008
-698.499	24.796	-0.105	-0.088
-697.485	-20.122	0.070	0.044
-696.470	-182.700	-0.104	-0.002
-695.456	-4.739	-0.028	-0.020
-694.441	45.009	0.024	-0.022
-693.426	-104.392	-0.541	-0.127
-692.412	-94.624	0.126	0.035
-691.397	246.628	-0.010	0.018
-690.383	563.539	-0.106	-0.259
-689.368	62.180	-0.157	-0.158
-688.354	-148.157	-0.311	-0.026
-687.339	472.775	0.085	-0.194
-686.324	-124.802	0.201	-0.031
-685.310	-123.391	-0.188	-0.030
-684.295	71.231	-0.250	-0.262
-683.281	-65.057	0.162	0.066
-682.266	800.000	-0.044	-0.151
-681.251	-200.000	-0.017	0.087
-680.237	21.022	0.201	0.164
-679.222	-200.000	-0.067	-0.312
-678.208	47.438	0.103	-0.097
-677.193	-200.000	0.039	-0.383
-676.178	382.813	-0.074	-0.154
-675.164	357.887	0.046	0.094
-674.149	-10.300	0.011	-0.008
-673.135	-88.318	0.245	0.074
-672.120	-51.684	0.429	-0.202
-671.105	-200.000	-0.038	-0.200
-670.091	-102.969	0.063	0.015
-669.076	268.075	0.090	0.160
-668.062	-200.000	-0.014	-0.156
-667.047	303.866	-0.118	0.221
-666.032	-71.611	0.372	0.140
-665.018	-200.000	-0.033	-0.299
-664.003	170.553	0.096	0.138
-662.989	278.374	0.053	-0.096
-661.974	39.934	0.089	-0.080
-660.959	-89.378	0.365	-0.109
-659.945	-150.238	-0.218	-0.017
-658.930	-200.000	-0.064	-0.536
-657.916	140.130	0.305	-0.405
-656.901	-77.327	-0.393	-0.138
-655.886	193.679	0.137	-0.210
-654.872	-52.221	-0.156	-0.073
-653.857	-66.473	0.122	0.049
-652.843	800.000	0.044	-0.129
-651.828	371.647	-0.094	-0.193
-650.814	-123.500	-0.273	-0.044
-649.799	13.208	0.121	-0.094
-648.784	63.588	-0.074	0.075
-647.770	-71.346	-0.163	0.062
-646.755	800.000	-0.170	0.474
-645.741	-200.000	0.046	-0.245
-644.726	-180.531	0.385	-0.008
-643.711	-120.652	0.209	-0.036
-642.697	395.129	-0.050	0.104
-641.682	-28.140	-0.300	0.175
-640.668	-108.220	-0.046	0.010
-639.653	-31.188	-0.148	-0.084
-638.638	-121.259	0.312	0.052
-637.624	-13.770	-0.131	0.085
-636.609	-152.285	0.122	0.009
-635.595	66.674	0.128	0.132
-634.580	7.088	0.245	0.184
-633.565	253.256	0.115	-0.198
-632.551	-154.380	0.228	0.015
-631.536	800.000	0.040	-0.113
-630.522	-55.843	0.150	-0.068
-629.507	107.513	-0.244	0.293
-628.492	-64.649	-0.343	-0.140
-627.478	-200.000	-0.018	0.202
-626.463	120.326	0.165	-0.206
-625.449	-38.294	-0.228	-0.122
-624.434	-89.138	-0.119	0.035
-623.419	97.154	0.086	-0.100
-622.405	-200.000	0.029	0.183
-621.390	800.000	0.044	-0.164
-620.376	-140.165	-0.255	0.027
-619.361	-132.668	0.355	0.046
-618.346	-177.290	-0.179	-0.004
-617.332	-153.919	-0.134	0.009
-616.317	-111.232	-0.234	0.048
-615.303	43.986	0.089	-0.082
-614.288	216.098	-0.017	0.027
-613.273	800.000	0.086	0.298
-612.259	-110.471	0.399	-0.083
-611.244	-110.841	0.121	0.025
-610.230	233.837	-0.156	0.258
-609.215	800.000	0.070	0.237
-608.201	-22.020	0.098	0.060
-607.186	81.228	-0.196	-0.213
-606.171	434.970	-0.063	0.138
-605.157	-200.000	-0.014	-0.328
-604.142	262.487	-0.167	-0.292
-603.128	60.803	-0.170	-0.170
-602.113	800.000	-0.004	0.014
-601.098	-153.260	-0.350	-0.025
-600.084	690.109	-0.102	-0.269
-599.069	73.828	0.102	-0.107
-598.055	-88.599	-0.187	-0.056
-597.040	463.020	-0.183	0.411
-596.025	800.000	0.081	-0.341
-595.011	-140.940	0.287	-0.030
-593.996	-200.000	0.043	-0.254
-592.982	800.000	-0.069	-0.247
-591.967	800.000	-0.023	-0.096
-590.952	-12.328	0.016	0.010
-589.938	140.831	-0.181	0.241
-588.923	277.073	-0.052	-0.093
-587.909	33.368	-0.112	-0.098
-586.894	-30.120	0.245	0.140
-585.879	-123.043	0.267	0.043
-584.865	428.086	0.120	-0.262
-583.850	-200.000	-0.066	-0.307
-582.836	55.781	-0.054	-0.052
-581.821	-53.959	0.264	-0.121
-580.806	62.748	-0.252	0.253
-579.792	17.960	-0.076	0.061
-578.777	-4.153	-0.139	0.097
-577.763	-200.000	-0.011	0.261
-576.748	-71.971	0.369	-0.138
-575.733	800.000	-0.054	-0.235
-574.719	-59.017	-0.389	0.169
-573.704	-200.000	-0.019	-0.309
-572.690	-34.967	0.255	-0.140
-571.675	29.132	0.206	-0.176
-570.661	-141.778	0.434	-0.044
-569.646	-86.905	0.084	-0.026
-568.631	800.000	-0.055	-0.211
-567.617	-57.453	-0.267	0.118
-566.602	-3.521	-0.241	-0.168
-565.588	-107.878	0.101	-0.022
-564.573	-126.707	0.245	0.036
-563.558	138.842	-0.079	-0.105
-562.544	800.000	-0.052	-0.225
-561.529	-200.000	0.053	0.291
-560.515	101.633	0.219	-0.257
-559.500	-104.003	-0.070	-0.016
-558.485	-200.000	0.002	-0.260
-557.471	-12.246	-0.294	0.193
-556.456	-25.323	-0.430	0.256
-555.442	-8.757	-0.029	-0.020
-554.427	486.652	-0.054	0.123
-553.412	111.082	0.053	0.064
-552.398	-84.162	-0.202	0.064
-551.383	301.994	0.168	-0.312
-550.369	-44.357	-0.121	0.061
-549.354	16.046	-0.119	-0.094
-548.339	-200.000	0.002	0.068
-547.325	102.173	0.115	-0.135
-546.310	83.889	-0.360	-0.394
-545.296	602.749	0.085	-0.213
-544.281	-200.000	0.023	-0.285
-543.266	-150.413	-0.277	0.021
-542.252	13.528	0.161	-0.125
-541.237	86.981	-0.117	-0.130
-540.223	-33.726	0.056	-0.031
-539.208	-96.283	-0.070	-0.019
-538.193	440.012	-0.021	-0.045
-537.179	16.072	-0.065	-0.052
-536.164	-22.913	-0.277	0.168
-535.150	-28.980	-0.162	0.093
-534.135	800.000	-0.077	0.270
-533.121	570.357	0.023	-0.056
-532.106	-200.000	-0.002	0.040
-531.091	-200.000	0.023	0.184
-530.077	-200.000	0.093	-0.429
-529.062	204.360	0.099	-0.154
-528.048	-113.922	0.212	-0.041
-527.033	-181.877	-0.465	-0.009
-526.018	-1.469	-0.261	0.185
-525.004	-200.000	0.022	-0.217
-523.989	-62.663	-0.204	-0.085
-522.975	-182.444	-0.313	-0.006
-521.960	-200.000	0.026	-0.155
-520.945	-200.000	0.044	-0.204
-519.931	-138.778	0.618	0.068
-518.916	-200.000	-0.005	-0.068
-517.902	165.086	0.144	0.205
-516.887	681.455	-0.091	-0.238
-515.872	5.795	0.327	-0.243
-514.858	98.126	0.132	-0.152
-513.843	-61.896	0.020	0.008
-512.829	544.438	-0.027	-0.065
-511.814	-200.000	-0.002	0.272
-510.799	89.026	-0.202	-0.226
-509.785	-142.600	0.418	0.041
-508.770	-46.579	-0.197	-0.097
-507.756	12.483	-0.050	0.038
-506.741	321.571	-0.176	0.337
-505.726	204.207	0.082	-0.128
-504.712	-200.000	0.024	0.291
-503.697	-139.658	-0.472	0.050
-502.683	-109.743	-0.058	0.012
-501.668	291.237	-0.078	0.143
-500.653	-200.000	-0.021	0.108
-499.639	230.113	0.097	-0.159
-498.624	800.000	0.034	-0.141
-497.610	17.778	0.069	0.055
-496.595	-190.201	-0.094	0.001
-495.581	-139.768	-0.301	-0.032
-494.566	186.907	0.182	0.272
-493.551	-195.694	0.285	-0.002
-492.537	31.350	-0.258	-0.222
-491.522	-132.942	0.266	-0.034
-490.508	242.029	0.027	-0.046
-489.493	-200.000	-0.004	-0.260
-488.478	99.615	0.030	0.035
-487.464	-100.672	0.152	-0.038
-486.449	-101.150	-0.218	0.053
-485.435	-200.000	-0.005	-0.251
-484.420	-119.177	0.220	0.039
-483.405	140.481	-0.083	0.109
-482.391	-84.294	-0.190	-0.060
-481.376	264.145	-0.108	0.188
-480.362	75.036	-0.126	-0.133
-479.347	-15.147	-0.208	-0.133
-478.332	-77.455	0.051	-0.018
-477.318	-200.000	0.044	-0.462
-476.303	-200.000	0.009	0.090
-475.289	-200.000	-0.007	0.459
-474.274	-45.952	0.203	0.100
-473.259	-51.035	0.141	-0.066
-472.245	-63.536	-0.210	0.086
-471.230	800.000	0.102	0.287
-470.216	-200.000	0.034	0.323
-469.201	-104.739	0.385	0.089
-468.186	-115.984	0.283	0.053
-467.172	301.786	-0.014	0.026
-466.157	58.412	-0.149	-0.147
-465.143	20.297	-0.165	0.133
-464.128	348.462	-0.057	0.112
-463.113	-69.861	0.327	0.125
-462.099	15.323	0.294	0.231
-461.084	52.246	-0.272	-0.259
-460.070	-154.734	0.163	0.011
-459.055	-193.253	-0.254	0.002
-458.040	-32.184	0.112	-0.063
-457.026	-200.000	-0.043	-0.190
-456.011	88.561	-0.075	-0.084
-454.997	-200.000	-0.011	-0.145
-453.982	113.700	0.152	-0.185
-452.968	800.000	-0.071	-0.208
-451.953	-200.000	0.290	-0.000
-450.938	377.762	0.087	-0.178
-449.924	800.000	0.102	-0.355
-448.909	686.390	-0.035	0.092
-447.895	85.678	0.148	0.163
-446.880	309.136	-0.085	-0.160
-445.865	390.923	-0.111	-0.231
-444.851	197.075	0.168	-0.256
-443.836	-56.188	0.209	-0.093
-442.822	-79.156	-0.050	0.017
-441.807	-107.418	0.100	0.022
-440.792	-158.547	0.036	0.002
-439.778	-200.000	-0.028	0.479
-438.763	560.051	0.052	0.126
-437.749	-153.762	-0.259	0.018
-436.734	-14.096	-0.214	-0.138
-435.719	-19.523	0.210	0.130
-434.705	-134.759	0.266	-0.032
-433.690	-200.000	-0.028	-0.178
-432.676	128.193	0.207	0.264
-431.661	800.000	0.037	0.108
-430.646	147.677	-0.184	0.247
-429.632	-114.783	-0.143	0.027
-428.617	363.380	-0.197	0.396
-427.603	48.470	0.194	0.182
-426.588	-41.297	0.125	-0.064
-425.573	104.529	0.140	0.165
-424.559	-58.472	0.563	0.244
-423.544	-200.000	-0.048	-0.244
-422.530	-200.000	-0.134	0.000
-421.515	-161.753	-0.105	0.005
-420.500	14.812	0.054	-0.043
-419.486	-26.863	0.132	-0.077
-418.471	53.864	0.071	-0.069
-417.457	-200.000	0.069	-0.464
-416.442	-10.906	-0.215	0.142
-415.428	682.011	0.046	-0.119
-414.413	-200.000	-0.038	-0.252
-413.398	-200.000	-0.058	-0.373
-412.384	-106.759	0.110	0.024
-411.369	80.824	-0.168	0.182
-410.355	387.553	-0.111	0.229
-409.340	421.722	0.281	0.602
-408.325	-101.562	0.189	0.046
-407.311	208.227	-0.138	-0.216
-406.296	-200.000	0.008	-0.357
-405.282	-108.814	-0.314	-0.067
-404.267	-200.000	0.027	-0.243
-403.252	-142.177	-0.256	0.025
-402.238	-64.707	-0.078	-0.032
-401.223	-17.188	-0.097	-0.061
-400.209	60.048	0.206	-0.204
-399.194	-200.000	0.007	-0.122
-398.179	-108.523	-0.282	0.061
-397.165	800.000	0.023	-0.072
-396.150	213.316	-0.206	0.326
-395.136	55.169	0.239	-0.231
-394.121	-41.786	-0.331	-0.169
-393.106	-200.000	0.005	0.052
-392.092	-104.750	0.079	-0.018
-391.077	58.308	-0.337	0.330
-390.063	18.979	0.174	0.139
-389.048	71.282	0.091	0.094
-388.033	-64.900	0.196	0.079
-387.019	-12.581	-0.215	0.140
-386.004	102.619	0.146	-0.170
-384.990	-108.428	-0.300	-0.065
-383.975	81.746	0.161	0.174
-382.960	8.313	-0.149	-0.112
-381.946	-200.000	-0.005	0.100
-380.931	-116.793	0.063	0.012
-379.917	634.042	-0.067	0.168
-378.902	-200.000	-0.035	0.363
-377.888	578.233	-0.102	0.248
-376.873	-182.090	-0.245	0.005
-375.858	20.142	0.186	-0.150
-374.844	128.718	0.074	0.094
-373.829	-45.216	-0.258	-0.128
-372.815	-200.000	0.037	-0.262
-371.800	178.039	0.044	-0.063
-370.785	-45.004	0.178	0.088
-369.771	-69.643	0.265	0.101
-368.756	105.457	-0.123	-0.145
-367.742	-200.000	0.009	0.059
-366.727	-62.301	0.474	-0.197
-365.712	-101.057	0.170	-0.042
-364.698	-200.000	0.006	0.051
-363.683	296.547	0.121	0.222
-362.669	-200.000	0.015	0.218
-361.654	0.410	0.249	0.178
-360.639	-27.963	-0.087	0.050
-359.625	85.448	-0.020	0.022
-358.610	800.000	-0.109	-0.415
-357.596	115.643	0.044	-0.054
-356.581	179.475	-0.115	-0.167
-355.566	-85.484	-0.237	0.074
-354.552	321.290	-0.146	0.277
-353.537	-163.968	-0.316	-0.015
-352.523	-168.293	0.235	-0.009
-351.508	-173.464	-0.354	-0.011
-350.493	440.431	-0.043	0.093
-349.479	800.000	-0.120	-0.412
-348.464	118.863	0.223	0.275
-347.450	-177.901	0.099	-0.002
-346.435	-200.000	0.018	-0.304
-345.420	178.593	-0.155	-0.225
-344.406	800.000	0.044	-0.150
-343.391	103.220	-0.105	0.123
-342.377	-139.148	0.237	0.026
-341.362	48.208	-0.367	0.342
-340.348	169.013	0.081	0.114
-339.333	447.117	0.078	0.171
-338.318	-126.221	-0.282	-0.042
-337.304	800.000	0.065	0.245
-336.289	-85.067	0.434	-0.136
-335.275	283.755	-0.061	-0.109
-334.260	-93.039	0.142	-0.039
-333.245	46.093	0.195	0.180
-332.231	344.658	-0.134	0.261
-331.216	792.150	-0.094	0.257
-330.202	800.000	-0.155	0.497
-329.187	-33.843	0.326	0.179
-328.172	-139.678	-0.260	0.028
-327.158	-200.000	-0.036	0.240
-326.143	-200.000	-0.046	0.266
-325.129	-200.000	0.084	0.445
-324.114	800.000	0.046	-0.198
-323.099	-98.264	0.095	0.024
-322.085	-27.027	-0.272	-0.158
-321.070	800.000	-0.068	0.206
-320.056	474.122	-0.064	-0.143
-319.041	800.000	0.035	0.122
-318.026	-200.000	0.038	0.168
-317.012	-94.160	0.050	0.014
-315.997	-200.000	-0.026	0.161
-314.983	101.553	0.146	-0.170
-313.968	-25.059	-0.402	-0.237
-312.953	380.241	0.163	-0.334
-311.939	-23.030	0.184	-0.110
-310.924	-112.588	-0.202	-0.040
-309.910	800.000	0.080	0.310
-308.895	271.633	-0.085	0.150
-307.880	436.932	-0.086	0.186
-306.866	-112.596	0.249	0.049
-305.851	-200.000	0.001	-0.225
-304.837	-49.756	-0.145	-0.069
-303.822	69.718	-0.135	0.138
-302.807	-32.687	-0.155	0.086
-301.793	-16.239	0.110	-0.069
-300.778	-12.325	0.204	-0.133
-299.764	-200.000	-0.054	0.278
-298.749	-25.639	-0.127	0.075
-297.735	474.972	0.084	0.188
-296.720	-82.725	0.031	-0.010
-295.705	-200.000	0.047	-0.277
-294.691	-200.000	0.002	0.118
-293.676	79.345	-0.175	-0.186
-292.662	126.269	0.230	0.289
-291.647	-49.438	-0.347	0.164
-290.632	800.000	-0.040	-0.133
-289.618	-87.732	0.427	0.128
-288.603	-41.265	0.069	-0.035
-287.589	-200.000	0.000	0.326
-286.574	-200.000	0.017	-0.110
-285.559	103.818	-0.075	-0.088
-284.545	800.000	-0.004	-0.014
-283.530	-200.000	-0.044	0.269
-282.516	-27.910	-0.255	0.147
-281.501	-141.347	0.316	0.032
-280.486	296.187	-0.091	0.167
-279.472	-137.429	0.046	-0.005
-278.457	105.022	0.258	-0.303
-277.443	-52.246	0.391	-0.180
-276.428	-180.850	-0.604	0.012
-275.413	-200.000	0.032	-0.145
-274.399	63.312	-0.044	-0.044
-273.384	800.000	-0.008	-0.024
-272.370	-200.000	-0.031	0.205
-271.355	199.127	0.090	0.137
-270.340	536.625	-0.105	-0.248
-269.326	-100.173	0.029	0.007
-268.311	-200.000	0.033	-0.220
-267.297	234.396	-0.060	0.098
-266.282	800.000	0.085	0.279
-265.267	-200.000	0.002	-0.194
-264.253	399.048	0.039	0.081
-263.238	352.823	0.046	0.091
-262.224	590.773	0.013	0.033
-261.209	-47.873	-0.132	-0.063
-260.195	645.367	0.040	0.100
-259.180	-2.687	-0.227	-0.158
-258.165	-91.233	0.301	-0.086
-257.151	-50.831	-0.069	-0.032
-256.136	-200.000	0.004	0.347
-255.122	25.855	-0.225	0.187
-254.107	800.000	0.028	0.085
-253.092	-84.428	0.193	-0.061
-252.078	79.922	0.289	-0.309
-251.063	-144.853	0.232	0.021
-250.049	4.742	-0.158	-0.115
-249.034	-77.805	0.234	0.080
-248.019	261.093	-0.145	0.249
-247.005	-200.000	0.006	-0.087
-245.990	196.428	0.129	-0.195
-244.976	-200.000	0.037	0.283
-243.961	-39.021	-0.096	-0.050
-242.946	257.546	-0.074	-0.126
-241.932	10.754	0.287	0.218
-240.917	-66.070	0.247	-0.098
-239.903	-109.078	-0.038	0.008
-238.888	-105.114	0.407	0.092
-237.873	24.211	-0.229	0.188
-236.859	127.505	0.107	-0.134
-235.844	-200.000	0.030	0.416
-234.830	-200.000	0.002	-0.153
-233.815	6.757	-0.265	-0.196
-232.800	800.000	-0.115	0.388
-231.786	382.619	-0.138	-0.281
-230.771	-114.892	0.410	-0.078
-229.757	-172.733	-0.029	0.001
-228.742	-20.172	0.302	-0.184
-227.727	181.354	-0.127	0.186
-226.713	716.158	-0.115	0.304
-225.698	23.808	-0.044	-0.036
-224.684	-200.000	-0.019	0.140
-223.669	375.212	-0.075	-0.152
-222.655	-103.226	-0.149	0.035
-221.640	-121.086	-0.224	0.037
-220.625	-200.000	0.004	-0.326
-219.611	507.849	-0.077	-0.177
-218.596	212.255	0.062	-0.096
-217.582	321.116	-0.089	-0.168
-216.567	81.973	0.080	0.085
-215.552	707.555	-0.110	-0.288
-214.538	800.000	-0.065	-0.227
-213.523	80.393	-0.218	0.233
-212.509	65.138	-0.087	0.087
-211.494	200.128	-0.076	-0.115
-210.479	127.911	-0.084	0.106
-209.465	639.675	0.134	0.339
-208.450	60.176	-0.223	0.219
-207.436	158.014	0.218	0.299
-206.421	-28.306	0.032	0.018
-205.406	800.000	-0.072	0.200
-204.392	-108.781	0.212	0.045
-203.377	47.845	-0.077	0.072
-202.363	469.416	-0.064	-0.142
-201.348	800.000	-0.064	-0.268
-200.333	22.400	-0.255	-0.207
-199.319	-60.350	-0.253	-0.107
-198.304	-8.654	0.229	-0.152
-197.290	-200.000	-0.010	-0.121
-196.275	17.826	-0.105	-0.082
-195.260	-68.223	-0.027	-0.011
-194.246	-58.421	-0.303	-0.130
-193.231	-49.175	0.200	-0.095
-192.217	-118.243	0.373	-0.066
-191.202	235.264	0.090	0.148
-190.187	-6.493	-0.120	0.081
-189.173	164.450	-0.205	0.286
-188.158	-200.000	0.056	0.245
-187.144	279.301	-0.065	-0.115
-186.129	119.174	0.224	0.274
-185.114	-200.000	0.026	-0.217
-184.100	800.000	-0.085	0.327
-183.085	40.527	0.145	0.130
-182.071	6.816	0.066	0.048
-181.056	-86.212	-0.181	-0.055
-180.042	-200.000	-0.004	0.216
-179.027	-131.079	-0.081	-0.011
-178.012	-104.515	-0.230	0.053
-176.998	-200.000	0.044	-0.277
-175.983	-134.231	0.275	-0.034
-174.969	-200.000	-0.031	0.140
-173.954	-200.000	-0.094	0.563
-172.939	4.792	-0.301	-0.219
-171.925	252.279	-0.159	-0.269
-170.910	-44.177	0.237	0.118
-169.896	45.162	0.119	-0.108
-168.881	-180.987	0.186	-0.004
-167.866	221.067	0.081	-0.128
-166.852	253.144	0.171	-0.289
-165.837	-200.000	-0.072	-0.408
-164.823	245.667	0.037	-0.062
-163.808	-200.000	-0.052	-0.290
-162.793	53.378	0.150	-0.143
-161.779	-161.400	-0.139	0.007
-160.764	12.636	0.311	0.238
-159.750	-79.782	0.382	-0.127
-158.735	-100.089	0.216	0.053
-157.720	-200.000	0.059	-0.295
-156.706	58.415	-0.156	-0.151
-155.691	-200.000	0.039	0.402
-154.677	-35.555	0.046	-0.025
-153.662	-200.000	-0.021	0.092
-152.647	429.934	0.055	-0.118
-151.633	800.000	-0.077	0.282
-150.618	14.994	0.276	0.214
-149.604	-200.000	0.031	0.176
-148.589	-22.112	-0.160	0.096
-147.574	-149.000	0.250	0.020
-146.560	-154.640	-0.367	0.024
-145.545	77.747	-0.092	-0.097
-144.531	-200.000	0.040	-0.274
-143.516	-22.601	-0.103	-0.062
-142.502	-200.000	0.048	0.300
-141.487	64.273	0.168	0.167
-140.472	701.221	-0.084	-0.219
-139.458	118.922	-0.088	0.108
-138.443	-200.000	0.029	0.329
-137.429	-116.233	-0.162	0.030
-136.414	-125.388	-0.317	-0.048
-135.399	232.116	0.134	0.217
-134.385	-157.695	0.348	0.020
-133.370	132.079	-0.269	-0.342
-132.356	113.279	-0.274	0.329
-131.341	-91.193	-0.237	0.067
-130.326	9.783	0.243	0.182
-129.312	-154.056	-0.170	0.011
-128.297	-111.272	0.333	-0.067
-127.283	-186.108	-0.031	-0.000
-126.268	222.225	0.038	0.060
-125.253	-51.005	0.144	-0.067
-124.239	-51.220	0.120	-0.055
-123.224	-151.758	0.247	-0.018
-122.210	-200.000	-0.026	0.117
