DTS Sentinel unit serial number:	SN413079Multiplexer serial number:	ORYXHardware model number:	OX4-SRSoftware version number:	ORYX F/W v4.00 Oryx Data Collector v3.7.2.0data status	okinstallation	princeton_trtdifferential loss correction	single-endedforward channel	channel 3reverse channel	N/Adate	2019/09/18time	02:04:34forward acquisition time	60.00reverse acquisition time	0.00gamma	496.2192k internal	0.2344k external	0.2344temperature offset calibration	0.9951default loss term (dB/km)	0.3790temperature slope calibration	1.0000multiplexer offset coefficient	1.0000multiplexer slope coefficient	1.0000fibre end	0.00T internal ref (°C)	22.89T ext. ref 1 (°C)	0.17T ext. ref 2 (°C)	16.64length (m)	temperature (°C)	Stokes	anti-Stokes-747.200	-39.079	-0.189	-0.100
-746.185	-74.335	-0.100	-0.036
-745.171	141.666	0.190	0.252
-744.156	-111.266	-0.191	0.039
-743.142	800.000	-0.097	-0.275
-742.127	800.000	-0.067	-0.196
-741.112	800.000	-0.075	-0.230
-740.098	-200.000	-0.037	0.170
-739.083	-200.000	-0.033	0.150
-738.069	-71.450	-0.307	0.115
-737.054	800.000	-0.038	0.124
-736.039	10.275	0.033	0.025
-735.025	-200.000	0.080	0.397
-734.010	-200.000	0.012	0.086
-732.996	-200.000	-0.005	-0.161
-731.981	-200.000	-0.005	-0.038
-730.966	27.339	-0.346	0.291
-729.952	-14.191	-0.210	-0.136
-728.937	24.554	-0.106	0.088
-727.923	11.477	0.147	0.113
-726.908	-137.202	-0.096	-0.011
-725.894	-130.754	-0.211	0.028
-724.879	4.910	0.405	0.298
-723.864	-200.000	-0.003	0.060
-722.850	-27.060	0.109	0.064
-721.835	69.094	0.199	-0.204
-720.821	-200.000	0.011	0.217
-719.806	-200.000	-0.071	0.342
-718.791	-37.133	0.041	0.022
-717.777	-200.000	0.058	-0.368
-716.762	85.728	0.273	0.300
-715.748	-200.000	0.017	-0.211
-714.733	-190.909	-0.226	0.002
-713.718	-200.000	-0.023	0.260
-712.704	74.926	-0.207	-0.217
-711.689	-16.881	-0.227	-0.143
-710.675	-27.755	-0.247	-0.143
-709.660	60.818	0.261	-0.259
-708.645	800.000	0.045	0.169
-707.631	107.420	-0.149	-0.177
-706.616	-23.461	-0.313	0.188
-705.602	-12.669	0.189	-0.123
-704.587	800.000	-0.013	0.045
-703.572	399.333	0.248	0.519
-702.558	420.152	-0.032	-0.068
-701.543	800.000	0.035	-0.125
-700.529	-200.000	-0.040	-0.300
-699.514	-35.358	0.233	0.127
-698.499	98.310	-0.081	0.093
-697.485	-74.977	-0.260	-0.093
-696.470	-110.428	0.111	0.023
-695.456	-84.125	0.261	0.083
-694.441	-40.982	0.257	0.133
-693.426	-115.014	-0.143	-0.027
-692.412	19.318	0.082	-0.066
-691.397	297.887	-0.246	-0.451
-690.383	-166.492	-0.327	-0.014
-689.368	495.782	0.135	-0.309
-688.354	-200.000	0.006	0.145
-687.339	-30.323	-0.386	-0.219
-686.324	592.785	0.048	0.118
-685.310	-199.399	0.167	-0.001
-684.295	-150.931	-0.375	0.028
-683.281	55.315	-0.327	-0.316
-682.266	4.362	-0.325	-0.238
-681.251	493.276	0.118	0.270
-680.237	-200.000	-0.032	-0.232
-679.222	188.109	-0.166	-0.247
-678.208	21.980	0.202	-0.165
-677.193	-165.234	0.168	-0.007
-676.178	303.623	0.202	0.373
-675.164	305.332	0.117	0.218
-674.149	197.161	0.143	0.218
-673.135	617.149	-0.049	0.122
-672.120	-55.347	-0.175	0.078
-671.105	234.913	0.077	0.127
-670.091	-44.159	-0.052	0.026
-669.076	682.976	-0.122	-0.317
-668.062	-64.829	0.216	-0.087
-667.047	-114.804	-0.266	-0.051
-666.032	12.541	0.022	-0.017
-665.018	-91.447	-0.100	0.028
-664.003	-42.347	0.205	-0.104
-662.989	8.685	0.116	-0.087
-661.974	26.461	0.151	0.126
-660.959	156.666	0.032	0.045
-659.945	-200.000	-0.007	-0.192
-658.930	800.000	0.070	0.218
-657.916	-66.562	0.187	-0.074
-656.901	-200.000	-0.005	-0.110
-655.886	-8.178	0.245	-0.165
-654.872	-100.544	-0.204	-0.050
-653.857	-76.330	-0.270	0.095
-652.843	312.007	-0.070	0.131
-651.828	140.318	0.186	0.245
-650.814	244.482	0.142	0.238
-649.799	19.196	0.257	0.206
-648.784	-78.177	0.298	-0.102
-647.770	-50.335	-0.130	-0.061
-646.755	-118.162	-0.239	0.042
-645.741	17.283	-0.247	0.195
-644.726	-95.528	-0.167	0.045
-643.711	-191.452	-0.132	-0.001
-642.697	-200.000	0.011	0.245
-641.682	6.479	0.060	0.045
-640.668	-38.783	0.123	0.065
-639.653	21.768	-0.339	-0.276
-638.638	79.194	0.206	-0.220
-637.624	350.173	0.064	0.125
-636.609	-146.635	0.221	0.019
-635.595	-85.125	-0.199	0.062
-634.580	-170.986	-0.236	0.008
-633.565	-32.966	0.223	0.123
-632.551	386.529	0.064	0.132
-631.536	-73.947	-0.192	0.069
-630.522	800.000	0.134	-0.381
-629.507	143.225	0.090	0.120
-628.492	-107.684	-0.177	-0.039
-627.478	211.378	-0.064	0.101
-626.463	173.370	0.244	0.351
-625.449	168.015	-0.148	0.209
-624.434	-200.000	-0.030	-0.184
-623.419	272.983	0.138	-0.243
-622.405	414.722	0.194	0.412
-621.390	-54.709	-0.367	-0.165
-620.376	-92.811	-0.342	-0.095
-619.361	24.717	0.191	-0.157
-618.346	-200.000	-0.355	0.000
-617.332	-71.527	-0.335	0.125
-616.317	-98.420	-0.180	-0.046
-615.303	800.000	0.022	-0.094
-614.288	800.000	-0.055	-0.202
-613.273	52.088	-0.135	-0.128
-612.259	195.422	-0.174	-0.263
-611.244	-181.893	0.047	0.001
-610.230	800.000	-0.046	-0.131
-609.215	-200.000	-0.017	-0.126
-608.201	-59.238	0.329	0.141
-607.186	1.514	0.300	-0.215
-606.171	11.881	-0.210	-0.161
-605.157	376.551	0.097	-0.198
-604.142	-0.799	0.116	-0.082
-603.128	-200.000	-0.022	-0.181
-602.113	-200.000	0.069	-0.402
-601.098	228.744	-0.103	-0.166
-600.084	-122.933	-0.185	0.030
-599.069	92.788	-0.166	0.187
-598.055	652.767	-0.082	0.210
-597.040	61.260	-0.020	0.019
-596.025	384.956	-0.038	-0.077
-595.011	86.757	0.241	-0.265
-593.996	198.171	0.119	-0.181
-592.982	-200.000	0.036	-0.414
-591.967	-22.510	-0.272	0.164
-590.952	698.442	-0.119	-0.312
-589.938	-12.696	0.122	0.079
-588.923	-92.656	0.253	0.070
-587.909	-200.000	0.030	-0.144
-586.894	-141.618	0.345	0.035
-585.879	104.220	-0.044	-0.051
-584.865	-149.097	-0.173	0.014
-583.850	420.051	0.040	-0.085
-582.836	-81.016	-0.450	-0.148
-581.821	479.198	0.078	-0.175
-580.806	652.530	0.159	-0.405
-579.792	122.183	0.019	-0.024
-578.777	-52.562	-0.145	0.067
-577.763	237.805	-0.092	-0.152
-576.748	364.778	-0.101	-0.202
-575.733	-54.080	0.172	-0.078
-574.719	79.673	0.331	-0.354
-573.704	72.266	-0.178	0.184
-572.690	800.000	0.027	0.113
-571.675	800.000	0.065	0.195
-570.661	-10.011	-0.353	0.233
-569.646	800.000	-0.082	-0.330
-568.631	-114.162	0.055	-0.011
-567.617	223.332	-0.058	-0.093
-566.602	176.189	-0.113	0.163
-565.588	392.429	-0.128	0.265
-564.573	800.000	0.029	-0.098
-563.558	-124.314	-0.219	-0.034
-562.544	-200.000	0.015	0.100
-561.529	18.973	-0.070	-0.056
-560.515	-18.978	0.251	-0.155
-559.500	-128.709	-0.212	-0.030
-558.485	-141.096	-0.174	0.018
-557.471	-124.632	-0.305	-0.047
-556.456	63.155	0.305	0.303
-555.442	-103.129	0.194	0.046
-554.427	-200.000	-0.003	0.408
-553.412	-128.799	-0.191	0.027
-552.398	-200.000	-0.015	-0.221
-551.383	800.000	0.093	-0.278
-550.369	88.682	-0.215	-0.238
-549.354	-59.970	0.207	0.088
-548.339	-63.058	-0.138	0.057
-547.325	69.874	-0.090	0.092
-546.310	19.347	0.192	0.153
-545.296	-67.316	-0.264	-0.103
-544.281	-200.000	0.140	0.000
-543.266	-200.000	-0.028	0.236
-542.252	64.474	-0.124	0.124
-541.237	336.716	0.211	0.407
-540.223	-200.000	-0.002	0.393
-539.208	-185.099	-0.228	-0.004
-538.193	-23.616	-0.214	-0.127
-537.179	-13.474	0.183	0.118
-536.164	334.193	-0.102	0.196
-535.150	-200.000	0.086	-0.434
-534.135	-51.405	-0.166	-0.077
-533.121	10.392	-0.254	0.192
-532.106	2.250	-0.286	0.206
-531.091	-75.374	-0.066	-0.023
-530.077	-37.431	0.163	0.086
-529.062	454.524	-0.033	0.073
-528.048	21.182	0.186	0.150
-527.033	118.277	0.080	0.098
-526.018	776.320	0.032	0.088
-525.004	-200.000	-0.042	-0.324
-523.989	-200.000	0.020	0.352
-522.975	800.000	-0.034	0.119
-521.960	800.000	-0.066	0.266
-520.945	-117.010	-0.228	0.041
-519.931	122.684	0.095	0.118
-518.916	-98.160	0.036	0.009
-517.902	37.964	0.040	0.035
-516.887	-104.805	0.025	0.006
-515.872	30.694	-0.103	0.087
-514.858	23.100	0.245	-0.200
-513.843	-200.000	-0.016	-0.139
-512.829	-21.237	-0.088	0.053
-511.814	282.316	-0.226	0.403
-510.799	594.805	-0.049	0.121
-509.785	733.501	-0.008	0.022
-508.770	148.485	-0.304	0.407
-507.756	16.058	-0.255	0.199
-506.741	-46.623	0.308	0.150
-505.726	-200.000	-0.005	0.254
-504.712	295.284	-0.199	0.361
-503.697	-68.676	-0.269	0.103
-502.683	143.350	0.021	0.028
-501.668	-117.667	-0.041	0.007
-500.653	-107.165	0.192	0.042
-499.639	57.076	-0.162	-0.157
-498.624	49.828	0.253	-0.236
-497.610	-200.000	0.005	-0.048
-496.595	69.593	0.094	-0.096
-495.581	-43.705	-0.068	0.034
-494.566	-127.505	-0.229	0.033
-493.551	173.780	0.212	-0.304
-492.537	103.356	0.132	0.154
-491.522	-200.000	0.011	0.446
-490.508	125.275	-0.186	0.232
-489.493	-200.000	-0.002	-0.143
-488.478	299.271	0.066	0.120
-487.464	-200.000	-0.053	-0.652
-486.449	-200.000	0.012	-0.128
-485.435	-200.000	-0.367	-0.002
-484.420	195.851	0.254	0.383
-483.405	-98.956	0.193	-0.049
-482.391	41.836	0.067	-0.060
-481.376	-93.424	-0.171	0.047
-480.362	95.961	-0.159	-0.180
-479.347	5.464	-0.068	-0.050
-478.332	9.208	-0.258	0.193
-477.318	-127.966	-0.239	-0.034
-476.303	534.556	-0.080	0.189
-475.289	-200.000	-0.077	0.386
-474.274	-180.038	0.197	-0.004
-473.259	-200.000	0.015	-0.074
-472.245	-200.000	-0.020	0.284
-471.230	13.116	-0.174	0.133
-470.216	-56.368	-0.151	-0.066
-469.201	-200.000	0.053	0.256
-468.186	-19.686	0.092	-0.057
-467.172	608.101	-0.114	0.280
-466.157	-2.806	-0.213	0.148
-465.143	-173.028	-0.063	0.002
-464.128	-200.000	-0.012	-0.190
-463.113	-13.323	-0.159	-0.102
-462.099	102.428	0.080	-0.092
-461.084	-200.000	0.077	-0.434
-460.070	-38.362	0.329	-0.172
-459.055	-58.727	0.396	-0.170
-458.040	-15.324	0.179	-0.113
-457.026	-0.560	0.430	0.302
-456.011	-200.000	0.042	0.312
-454.997	-3.272	-0.067	0.046
-453.982	96.064	-0.196	0.221
-452.968	-95.197	-0.174	-0.046
-451.953	156.014	-0.111	0.152
-450.938	800.000	-0.085	-0.337
-449.924	35.803	0.155	-0.134
-448.909	-49.141	0.048	-0.023
-447.895	-94.913	0.187	-0.050
-446.880	76.245	-0.195	-0.204
-445.865	-200.000	0.028	-0.286
-444.851	-143.432	0.064	-0.006
-443.836	-164.869	0.131	0.006
-442.822	-200.000	-0.055	0.281
-441.807	579.379	-0.186	0.450
-440.792	-137.925	0.230	0.025
-439.778	-66.841	0.148	-0.058
-438.763	42.616	0.093	0.083
-437.749	-44.548	-0.215	0.106
-436.734	17.340	-0.262	0.206
-435.719	63.763	-0.253	0.251
-434.705	-35.459	0.255	0.137
-433.690	79.358	-0.184	0.195
-432.676	-125.235	0.258	-0.039
-431.661	-200.000	0.072	-0.492
-430.646	-31.255	0.230	-0.128
-429.632	-168.489	0.302	-0.011
-428.617	-72.625	-0.118	0.043
-427.603	40.866	0.107	-0.095
-426.588	-200.000	0.091	0.433
-425.573	100.622	0.182	-0.210
-424.559	-114.435	-0.230	-0.044
-423.544	262.225	0.103	-0.177
-422.530	-100.366	-0.296	0.073
-421.515	474.939	0.045	-0.100
-420.500	165.992	-0.116	-0.163
-419.486	-128.599	-0.201	0.028
-418.471	-200.000	0.015	0.280
-417.457	157.599	-0.203	-0.277
-416.442	-138.436	0.278	-0.030
-415.428	46.272	0.166	0.152
-414.413	151.706	-0.164	0.221
-413.398	-52.157	0.379	-0.174
-412.384	32.603	0.320	0.273
-411.369	-143.905	-0.258	0.024
-410.355	2.740	-0.178	-0.127
-409.340	55.666	-0.161	-0.154
-408.325	-183.797	0.469	0.008
-407.311	28.272	-0.161	-0.134
-406.296	-177.559	-0.221	-0.005
-405.282	800.000	-0.019	0.061
-404.267	21.042	0.081	-0.065
-403.252	-98.728	-0.427	-0.107
-402.238	-26.786	-0.411	-0.237
-401.223	800.000	-0.074	-0.266
-400.209	-111.821	0.331	-0.066
-399.194	-152.768	0.368	0.026
-398.179	-200.000	-0.003	-0.040
-397.165	-16.885	-0.197	-0.123
-396.150	-51.437	0.176	-0.081
-395.136	-144.516	-0.086	0.008
-394.121	-33.259	0.154	0.084
-393.106	52.571	-0.126	-0.119
-392.092	-24.841	0.037	0.022
-391.077	54.939	0.192	-0.183
-390.063	268.744	-0.058	-0.100
-389.048	215.796	-0.076	0.119
-388.033	-200.000	0.010	0.052
-387.019	-14.048	-0.107	-0.068
-386.004	-75.730	0.248	-0.087
-384.990	-200.000	0.003	-0.225
-383.975	-17.647	-0.184	0.114
-382.960	4.187	-0.195	-0.141
-381.946	552.094	0.074	-0.176
-380.931	-7.097	-0.041	0.028
-379.917	273.115	-0.029	0.051
-378.902	-131.460	0.051	-0.007
-377.888	-1.180	-0.257	-0.179
-376.873	-200.000	0.044	-0.208
-375.858	734.410	-0.126	-0.333
-374.844	-25.005	0.542	0.317
-373.829	800.000	-0.057	-0.163
-372.815	63.709	0.090	-0.089
-371.800	-200.000	0.011	-0.256
-370.785	32.693	-0.135	-0.115
-369.771	140.938	-0.217	-0.284
-368.756	167.629	-0.135	-0.189
-367.742	2.821	-0.087	0.062
-366.727	28.719	0.150	0.126
-365.712	611.112	0.114	0.280
-364.698	-68.322	0.161	0.062
-363.683	-200.000	-0.026	0.168
-362.669	497.065	0.066	0.149
-361.654	-33.036	-0.023	-0.012
-360.639	-200.000	0.063	-0.279
-359.625	-200.000	0.018	-0.119
-358.610	-98.483	-0.418	0.105
-357.596	800.000	0.026	0.082
-356.581	-79.435	0.169	-0.056
-355.566	-95.289	0.146	-0.039
-354.552	-200.000	-0.035	-0.167
-353.537	173.679	-0.040	-0.057
-352.523	-98.514	0.399	0.100
-351.508	345.614	-0.098	0.190
-350.493	250.437	-0.070	0.117
-349.479	438.475	0.011	-0.023
-348.464	172.691	-0.221	0.313
-347.450	-14.069	-0.188	0.120
-346.435	228.700	0.282	0.452
-345.420	442.272	-0.137	-0.296
-344.406	800.000	0.106	-0.423
-343.391	174.421	-0.065	-0.093
-342.377	-57.541	-0.229	-0.099
-341.362	788.658	-0.106	-0.288
-340.348	800.000	-0.093	0.362
-339.333	-200.000	-0.021	-0.117
-338.318	-200.000	-0.043	0.325
-337.304	-129.304	0.068	-0.009
-336.289	96.589	-0.088	0.099
-335.275	-69.226	0.407	-0.154
-334.260	-43.135	-0.275	-0.137
-333.245	262.699	0.007	0.011
-332.231	-116.842	0.224	-0.040
-331.216	-184.247	-0.310	0.005
-330.202	210.118	-0.104	-0.160
-329.187	800.000	-0.038	0.126
-328.172	-143.828	-0.298	-0.028
-327.158	800.000	0.058	-0.171
-326.143	51.767	-0.097	0.091
-325.129	-18.281	-0.264	-0.163
-324.114	608.506	0.130	0.320
-323.099	528.213	-0.074	0.172
-322.085	21.407	0.195	-0.156
-321.070	439.965	0.200	-0.429
-320.056	9.506	0.113	0.084
-319.041	-34.494	-0.120	-0.065
-318.026	126.560	0.032	-0.039
-317.012	-10.612	0.325	-0.212
-315.997	86.437	-0.198	0.215
-314.983	-93.453	0.225	0.061
-313.968	285.325	0.085	-0.151
-312.953	-18.825	0.264	0.162
-311.939	800.000	0.129	0.382
-310.924	10.101	-0.076	0.057
-309.910	89.969	0.071	-0.078
-308.895	-125.646	0.136	-0.020
-307.880	232.103	0.133	0.215
-306.866	-200.000	0.024	-0.122
-305.851	-116.509	-0.203	0.037
-304.837	800.000	-0.025	0.097
-303.822	-38.341	-0.293	-0.152
-302.807	38.771	0.318	0.280
-301.793	500.221	-0.077	0.175
-300.778	129.478	0.064	-0.081
-299.764	358.157	0.106	0.208
-298.749	-192.019	-0.297	0.003
-297.735	-36.252	0.118	0.063
-296.720	37.712	-0.100	0.087
-295.705	-200.000	0.069	0.357
-294.691	274.857	-0.226	0.394
-293.676	-200.000	0.057	-0.250
-292.662	800.000	0.075	-0.318
-291.647	-200.000	-0.004	-0.179
-290.632	-53.811	0.355	0.159
-289.618	29.106	0.213	-0.177
-288.603	-88.605	-0.178	0.052
-287.589	378.799	0.182	0.367
-286.574	800.000	-0.142	0.422
-285.559	-53.084	-0.241	-0.109
-284.545	-80.672	-0.331	0.108
-283.530	656.408	-0.102	0.258
-282.516	192.444	-0.097	-0.144
-281.501	27.119	0.045	-0.038
-280.486	-200.000	0.028	0.211
-279.472	145.835	0.165	0.217
-278.457	800.000	-0.014	-0.044
-277.443	800.000	-0.080	0.233
-276.428	800.000	-0.019	-0.056
-275.413	28.531	-0.191	-0.159
-274.399	-16.589	-0.089	-0.056
-273.384	-119.444	0.096	0.016
-272.370	-200.000	0.017	-0.187
-271.355	-74.137	0.192	0.068
-270.340	16.328	-0.200	-0.155
-269.326	-200.000	0.037	0.253
-268.311	171.244	0.070	-0.098
-267.297	800.000	0.072	-0.259
-266.282	-200.000	0.019	-0.128
-265.267	-24.679	-0.110	0.064
-264.253	-200.000	-0.033	0.161
-263.238	5.443	0.164	0.119
-262.224	67.654	0.113	0.113
-261.209	800.000	0.096	-0.262
-260.195	-98.857	0.466	-0.116
-259.180	-200.000	-0.004	-0.109
-258.165	-12.387	-0.087	-0.056
-257.151	6.676	-0.106	0.077
-256.136	-200.000	-0.030	-0.281
-255.122	-200.000	0.002	-0.198
-254.107	800.000	0.034	0.093
-253.092	-41.248	-0.033	0.017
-252.078	108.131	0.085	-0.099
-251.063	237.607	0.090	-0.146
-250.049	198.581	0.049	-0.074
-249.034	17.837	0.317	-0.248
-248.019	-156.167	0.256	-0.016
-247.005	-32.955	0.040	-0.022
-245.990	-59.308	0.432	-0.183
-244.976	-200.000	-0.006	0.377
-243.961	50.499	-0.065	0.060
-242.946	146.903	-0.066	0.087
-241.932	-25.678	-0.121	-0.070
-240.917	111.767	-0.283	-0.335
-239.903	-99.568	-0.232	-0.057
-238.888	-191.148	-0.207	0.002
-237.873	-25.016	0.139	-0.081
-236.859	800.000	-0.080	-0.223
-235.844	11.287	0.084	-0.063
-234.830	-172.350	0.199	-0.006
-233.815	29.672	-0.177	0.147
-232.800	474.134	0.015	0.034
-231.786	395.531	-0.096	-0.196
-230.771	800.000	-0.096	0.267
-229.757	-74.160	0.133	-0.047
-228.742	-200.000	-0.028	-0.134
-227.727	221.405	0.146	0.230
-226.713	181.309	0.162	-0.234
-225.698	-50.112	0.362	-0.168
-224.684	-17.133	-0.249	-0.154
-223.669	353.541	-0.114	0.222
-222.655	-200.000	0.028	-0.316
-221.640	-17.855	0.111	0.068
-220.625	251.307	0.140	0.234
-219.611	-200.000	-0.037	-0.201
-218.596	115.733	-0.153	0.184
-217.582	-28.696	0.215	-0.121
-216.567	221.595	0.081	0.128
-215.552	-200.000	-0.003	0.130
-214.538	-200.000	0.014	0.150
-213.523	123.323	-0.062	-0.076
-212.509	-167.730	-0.183	-0.007
-211.494	-200.000	-0.031	-0.283
-210.479	-200.000	0.058	0.375
-209.465	-6.577	0.397	-0.265
-208.450	-57.564	0.298	0.128
-207.436	9.262	0.177	0.131
-206.421	800.000	0.070	-0.278
-205.406	-106.848	0.085	0.019
-204.392	90.839	-0.093	-0.102
-203.377	23.176	0.131	-0.105
-202.363	-56.229	0.098	-0.043
-201.348	-134.109	-0.357	-0.043
-200.333	-106.183	0.397	-0.087
-199.319	99.713	0.231	0.262
-198.304	4.559	-0.381	-0.274
-197.290	-123.037	0.347	-0.055
-196.275	-105.765	0.204	0.045
-195.260	4.207	0.099	0.071
-194.246	-147.662	0.387	-0.032
-193.231	259.463	-0.107	0.181
-192.217	800.000	0.049	0.180
-191.202	-167.056	-0.189	-0.008
-190.187	-0.523	-0.395	-0.274
-189.173	82.954	0.213	0.227
-188.158	58.215	0.190	0.182
-187.144	48.304	0.178	0.163
-186.129	-118.337	0.180	0.031
-185.114	-99.918	-0.272	-0.067
-184.100	-57.672	0.079	0.034
-183.085	189.395	-0.113	-0.165
-182.071	800.000	-0.071	-0.259
-181.056	-200.000	-0.064	0.342
-180.042	-128.143	0.213	-0.030
-179.027	529.092	0.108	0.249
-178.012	126.458	-0.198	0.246
-176.998	303.968	-0.129	0.235
-175.983	47.389	-0.225	-0.205
-174.969	-23.675	0.165	0.097
-173.954	48.051	-0.170	0.155
-172.939	237.207	-0.087	0.141
-171.925	83.545	0.063	0.068
-170.910	679.630	0.081	-0.206
-169.896	-66.777	-0.031	-0.012
-168.881	800.000	-0.137	-0.474
-167.866	-82.190	0.251	0.080
-166.852	-200.000	0.395	0.000
-165.837	-15.164	0.113	-0.071
-164.823	74.694	0.043	0.044
-163.808	320.613	-0.109	-0.203
-162.793	800.000	-0.120	0.365
-161.779	800.000	0.116	-0.406
-160.764	-41.623	0.127	0.064
-159.750	61.092	0.147	-0.143
-158.735	162.415	-0.028	-0.039
-157.720	-23.458	-0.131	0.077
-156.706	290.762	-0.073	-0.129
-155.691	389.260	-0.126	0.256
-154.677	-106.262	0.181	-0.040
-153.662	-18.811	0.321	-0.196
-152.647	-200.000	0.045	0.202
-151.633	1.392	0.150	0.105
-150.618	631.610	0.038	-0.094
-149.604	275.160	-0.185	-0.320
-148.589	-89.891	0.160	-0.046
-147.574	498.951	-0.097	-0.218
-146.560	-102.551	0.137	0.032
-145.545	-75.861	-0.130	-0.045
-144.531	24.642	0.159	-0.129
-143.516	-105.832	0.271	-0.060
-142.502	-11.692	0.332	-0.213
-141.487	-73.945	-0.402	-0.143
-140.472	-77.821	0.166	-0.056
-139.458	-161.172	-0.108	0.006
-138.443	-47.225	-0.048	0.023
-137.429	-200.000	-0.061	0.463
-136.414	-49.270	0.193	-0.090
-135.399	-21.326	0.255	0.152
-134.385	-104.444	-0.123	-0.028
-133.370	667.461	0.065	-0.164
-132.356	-109.582	-0.441	0.091
-131.341	800.000	0.095	-0.299
-130.326	-200.000	-0.012	-0.203
-129.312	182.128	-0.085	-0.123
-128.297	-96.587	-0.047	0.012
-127.283	-101.024	-0.085	0.020
-126.268	-200.000	0.056	0.300
-125.253	-34.893	-0.083	-0.044
-124.239	-200.000	0.014	0.211
-123.224	705.489	-0.060	0.155
-122.210	-200.000	0.005	-0.147
-121.195	74.605	-0.241	-0.248
