DTS Sentinel unit serial number:	SN413079Multiplexer serial number:	ORYXHardware model number:	OX4-SRSoftware version number:	ORYX F/W v4.00 Oryx Data Collector v3.7.2.0data status	okinstallation	princeton_trtdifferential loss correction	single-endedforward channel	channel 3reverse channel	N/Adate	2019/09/19time	02:08:35forward acquisition time	60.00reverse acquisition time	0.00gamma	496.2192k internal	0.2348k external	0.2348temperature offset calibration	0.9993default loss term (dB/km)	0.3790temperature slope calibration	1.0000multiplexer offset coefficient	1.0000multiplexer slope coefficient	1.0000fibre end	0.00T internal ref (°C)	21.19T ext. ref 1 (°C)	0.67T ext. ref 2 (°C)	14.84length (m)	temperature (°C)	Stokes	anti-Stokes-747.200	-200.000	0.035	0.188
-746.185	800.000	-0.034	0.142
-745.171	-37.349	0.223	0.119
-744.156	205.504	0.201	0.313
-743.142	391.774	0.091	0.190
-742.127	186.679	-0.241	0.359
-741.112	-76.757	0.110	-0.039
-740.098	-129.434	-0.338	0.047
-739.083	800.000	0.029	0.102
-738.069	-55.951	0.242	0.108
-737.054	137.231	-0.019	-0.025
-736.039	-102.497	-0.294	-0.070
-735.025	-200.000	0.048	0.514
-734.010	347.187	-0.081	0.159
-732.996	800.000	-0.105	0.320
-731.981	-200.000	0.010	-0.283
-730.966	101.851	0.251	-0.293
-729.952	-73.852	0.082	0.030
-728.937	639.921	-0.172	-0.437
-727.923	448.528	-0.128	-0.281
-726.908	-117.819	-0.377	-0.068
-725.894	113.887	-0.056	-0.068
-724.879	3.113	0.144	-0.105
-723.864	-83.184	-0.358	0.115
-722.850	515.946	-0.021	-0.048
-721.835	745.408	0.019	0.052
-720.821	719.474	0.161	-0.427
-719.806	208.495	-0.059	-0.093
-718.791	-81.214	0.271	-0.089
-717.777	18.729	-0.117	0.094
-716.762	643.718	-0.042	0.107
-715.748	-24.103	0.038	0.023
-714.733	79.094	0.170	0.182
-713.718	-40.129	-0.346	0.180
-712.704	87.320	0.220	-0.243
-711.689	-20.381	0.092	-0.057
-710.675	92.580	0.158	-0.178
-709.660	-141.270	-0.192	-0.019
-708.645	-65.425	0.220	0.088
-707.631	242.217	-0.062	-0.104
-706.616	433.750	-0.176	-0.382
-705.602	-29.446	-0.177	0.101
-704.587	-3.455	0.062	0.043
-703.572	16.962	-0.339	0.268
-702.558	-200.000	-0.013	-0.205
-701.543	-200.000	0.027	-0.259
-700.529	-12.770	-0.202	0.131
-699.514	-112.346	-0.129	-0.026
-698.499	-90.302	-0.103	0.030
-697.485	181.010	-0.224	0.328
-696.470	-200.000	0.026	-0.353
-695.456	50.070	0.293	0.275
-694.441	-200.000	-0.017	0.155
-693.426	86.112	-0.217	0.238
-692.412	-171.833	-0.155	0.005
-691.397	90.559	0.228	0.255
-690.383	-57.464	0.214	-0.094
-689.368	92.995	-0.396	0.446
-688.354	451.821	0.127	0.279
-687.339	-53.698	-0.209	-0.095
-686.324	-91.805	0.238	-0.067
-685.310	-155.099	-0.349	0.023
-684.295	403.149	0.090	0.188
-683.281	-57.033	0.145	0.064
-682.266	-200.000	-0.008	-0.137
-681.251	-125.094	-0.188	0.029
-680.237	28.952	-0.085	0.072
-679.222	23.138	-0.361	-0.295
-678.208	114.894	-0.192	-0.234
-677.193	-32.471	-0.161	0.090
-676.178	150.881	0.145	0.197
-675.164	-200.000	0.049	0.291
-674.149	-20.840	-0.056	-0.034
-673.135	-83.842	-0.146	-0.046
-672.120	22.445	0.212	-0.173
-671.105	-41.926	-0.140	-0.072
-670.091	144.514	0.061	-0.081
-669.076	-81.295	-0.178	-0.058
-668.062	-118.484	0.111	0.020
-667.047	288.718	-0.115	-0.207
-666.032	255.352	-0.133	-0.227
-665.018	319.008	0.128	0.241
-664.003	-200.000	-0.006	0.234
-662.989	256.810	0.105	-0.179
-661.974	-166.630	-0.197	-0.008
-660.959	186.975	0.057	-0.085
-659.945	-200.000	0.057	-0.311
-658.930	283.516	0.098	0.176
-657.916	-83.528	-0.198	-0.063
-656.901	800.000	-0.094	-0.259
-655.886	-60.661	-0.330	-0.139
-654.872	0.584	0.350	-0.249
-653.857	419.006	0.035	-0.074
-652.843	102.785	0.192	-0.223
-651.828	-28.270	0.229	0.132
-650.814	73.771	-0.166	-0.173
-649.799	-128.092	-0.262	0.037
-648.784	74.625	-0.152	0.159
-647.770	-200.000	0.008	-0.437
-646.755	-34.505	-0.187	0.102
-645.741	-39.345	0.220	-0.115
-644.726	174.448	0.181	-0.260
-643.711	104.741	0.192	0.226
-642.697	201.815	0.059	0.090
-641.682	-120.954	0.258	0.043
-640.668	-63.975	-0.363	-0.148
-639.653	556.671	0.029	0.070
-638.638	425.662	0.083	0.179
-637.624	-200.000	-0.007	-0.106
-636.609	-96.625	0.250	-0.066
-635.595	35.675	0.102	0.089
-634.580	73.487	-0.287	-0.299
-633.565	-44.824	-0.372	-0.185
-632.551	163.372	-0.073	-0.102
-631.536	366.472	-0.208	-0.418
-630.522	-128.971	-0.026	0.004
-629.507	-16.680	-0.103	-0.065
-628.492	-200.000	0.028	0.184
-627.478	-157.254	0.310	-0.019
-626.463	-52.460	-0.228	-0.105
-625.449	105.555	-0.189	0.222
-624.434	-200.000	-0.005	-0.190
-623.419	-115.640	0.378	0.071
-622.405	-75.062	0.112	-0.040
-621.390	-143.004	0.169	-0.016
-620.376	-22.784	-0.199	-0.120
-619.361	97.394	-0.130	0.148
-618.346	182.736	0.077	-0.113
-617.332	11.377	-0.245	-0.186
-616.317	-44.851	0.171	-0.085
-615.303	-35.714	-0.187	0.101
-614.288	435.609	0.081	-0.176
-613.273	306.483	0.192	-0.355
-612.259	75.548	0.153	0.161
-611.244	-79.964	-0.613	0.205
-610.230	64.135	-0.199	0.199
-609.215	-16.173	-0.118	-0.075
-608.201	-3.479	0.060	0.041
-607.186	-110.291	-0.303	0.063
-606.171	122.679	-0.105	-0.131
-605.157	36.589	-0.400	-0.351
-604.142	-60.230	0.195	0.082
-603.128	86.884	-0.041	-0.044
-602.113	800.000	0.021	-0.065
-601.098	450.221	-0.179	-0.392
-600.084	-200.000	-0.013	0.145
-599.069	-16.940	-0.222	-0.139
-598.055	-20.799	0.308	-0.188
-597.040	800.000	0.156	0.463
-596.025	-111.208	-0.216	-0.044
-595.011	91.328	-0.280	-0.313
-593.996	38.124	-0.059	-0.052
-592.982	161.454	-0.129	0.179
-591.967	196.466	0.097	0.147
-590.952	-103.327	0.227	0.053
-589.938	578.987	0.138	-0.335
-588.923	188.547	-0.098	-0.146
-587.909	123.461	-0.202	-0.252
-586.894	142.413	-0.190	-0.251
-585.879	4.643	0.256	-0.187
-584.865	514.188	0.100	-0.231
-583.850	800.000	0.037	-0.138
-582.836	-112.678	-0.418	-0.083
-581.821	800.000	0.033	-0.092
-580.806	800.000	0.093	0.262
-579.792	-200.000	-0.053	0.317
-578.777	-158.495	0.279	0.016
-577.763	39.802	-0.167	0.149
-576.748	138.505	0.273	0.356
-575.733	-200.000	-0.042	0.345
-574.719	-39.650	-0.160	0.083
-573.704	-200.000	0.030	-0.250
-572.690	50.615	0.119	0.111
-571.675	-154.773	0.215	-0.014
-570.661	7.727	0.031	0.023
-569.646	-200.000	0.026	-0.179
-568.631	-68.062	0.184	0.071
-567.617	-132.244	0.193	-0.025
-566.602	69.240	0.188	-0.192
-565.588	-46.462	0.120	0.059
-564.573	-59.234	0.108	-0.046
-563.558	64.418	-0.482	-0.482
-562.544	800.000	-0.034	0.125
-561.529	-96.538	0.139	-0.037
-560.515	-129.521	0.563	0.077
-559.500	800.000	-0.054	-0.162
-558.485	-0.346	-0.507	-0.357
-557.471	-159.768	0.332	-0.018
-556.456	472.529	-0.049	0.110
-555.442	61.400	-0.222	0.219
-554.427	685.493	0.123	0.318
-553.412	-151.126	-0.356	0.027
-552.398	184.691	0.092	0.135
-551.383	-94.772	-0.100	0.027
-550.369	-117.360	-0.244	0.044
-549.354	175.366	-0.144	0.207
-548.339	800.000	0.108	0.459
-547.325	9.619	-0.345	-0.260
-546.310	-20.083	-0.133	-0.082
-545.296	-59.267	-0.399	0.170
-544.281	-106.094	-0.132	0.029
-543.266	-112.448	0.275	0.055
-542.252	62.554	-0.292	-0.289
-541.237	-100.080	0.092	0.023
-540.223	42.572	0.166	0.150
-539.208	-64.554	0.277	0.111
-538.193	-200.000	0.029	-0.223
-537.179	46.029	-0.320	-0.294
-536.164	182.026	-0.156	0.228
-535.150	-162.349	0.023	0.001
-534.135	-200.000	0.011	0.219
-533.121	121.875	-0.113	0.140
-532.106	12.779	-0.073	0.056
-531.091	90.680	-0.114	0.126
-530.077	-49.943	0.067	-0.031
-529.062	511.569	0.120	0.277
-528.048	-83.074	-0.269	-0.086
-527.033	-187.423	0.287	0.004
-526.018	-60.125	0.103	-0.044
-525.004	-46.820	0.010	-0.005
-523.989	-189.116	0.437	-0.005
-522.975	529.217	-0.055	0.129
-521.960	-86.301	-0.137	0.042
-520.945	-35.941	-0.186	-0.100
-519.931	745.869	-0.027	0.073
-518.916	-200.000	-0.059	0.471
-517.902	142.931	-0.149	0.196
-516.887	800.000	-0.027	-0.114
-515.872	-200.000	0.032	0.255
-514.858	-200.000	0.011	0.079
-513.843	-47.374	-0.133	-0.064
-512.829	-200.000	0.048	0.251
-511.814	-16.602	0.188	-0.118
-510.799	800.000	-0.018	0.054
-509.785	25.740	0.116	-0.095
-508.770	-96.509	-0.106	-0.028
-507.756	187.182	-0.059	-0.088
-506.741	-40.924	0.080	-0.041
-505.726	-129.165	-0.212	0.029
-504.712	-87.912	-0.139	-0.041
-503.697	-200.000	0.001	-0.043
-502.683	800.000	0.070	0.267
-501.668	163.326	0.161	-0.224
-500.653	-73.202	-0.303	0.110
-499.639	6.132	-0.105	0.077
-498.624	-200.000	-0.017	0.087
-497.610	-120.420	0.392	0.066
-496.595	792.656	-0.085	-0.233
-495.581	-200.000	-0.017	-0.146
-494.566	-200.000	-0.014	-0.269
-493.551	203.582	0.251	0.384
-492.537	800.000	0.094	-0.361
-491.522	-75.616	0.402	0.141
-490.508	22.894	0.121	-0.098
-489.493	137.751	0.044	-0.057
-488.478	156.907	-0.224	-0.306
-487.464	800.000	0.063	0.233
-486.449	129.355	0.093	-0.117
-485.435	-200.000	-0.038	-0.427
-484.420	-200.000	0.001	0.080
-483.405	-59.629	-0.275	-0.117
-482.391	131.107	0.075	0.096
-481.376	6.876	-0.156	-0.115
-480.362	-8.440	-0.099	0.066
-479.347	237.728	-0.032	-0.052
-478.332	-200.000	0.013	0.063
-477.318	800.000	-0.120	0.355
-476.303	31.589	-0.123	0.104
-475.289	-6.485	0.268	-0.181
-474.274	-169.665	0.187	-0.007
-473.259	-154.126	0.130	-0.009
-472.245	-94.166	-0.049	0.013
-471.230	-171.157	0.072	0.002
-470.216	-23.821	0.251	0.148
-469.201	800.000	0.045	0.144
-468.186	268.181	-0.142	-0.246
-467.172	-188.457	0.047	-0.001
-466.157	-77.201	-0.079	-0.027
-465.143	-200.000	0.030	-0.229
-464.128	192.770	-0.093	-0.139
-463.113	286.518	-0.047	0.084
-462.099	33.535	0.283	0.243
-461.084	-6.677	0.243	-0.163
-460.070	-133.125	-0.174	-0.022
-459.055	117.343	-0.110	-0.134
-458.040	17.542	-0.157	0.123
-457.026	-200.000	0.015	-0.182
-456.011	-51.992	-0.158	-0.073
-454.997	-200.000	0.001	0.071
-453.982	585.401	-0.111	-0.270
-452.968	-200.000	-0.029	-0.144
-451.953	-105.924	0.108	0.024
-450.938	547.012	0.074	0.175
-449.924	-89.532	-0.032	-0.009
-448.909	-124.765	-0.208	-0.032
-447.895	153.378	0.181	-0.244
-446.880	-71.651	-0.225	-0.083
-445.865	-108.622	-0.210	0.045
-444.851	-165.533	0.375	-0.016
-443.836	35.325	-0.072	0.062
-442.822	164.369	0.016	0.023
-441.807	-13.217	-0.328	-0.211
-440.792	-200.000	-0.024	-0.181
-439.778	-126.732	0.345	0.050
-438.763	-110.220	-0.103	-0.021
-437.749	51.815	0.122	0.115
-436.734	763.599	-0.123	-0.330
-435.719	78.048	-0.037	0.039
-434.705	-134.143	0.045	0.006
-433.690	299.706	0.147	0.267
-432.676	74.169	-0.202	-0.209
-431.661	47.818	-0.128	0.118
-430.646	45.993	-0.128	-0.117
-429.632	-70.506	0.289	-0.108
-428.617	-200.000	-0.002	0.280
-427.603	-42.311	-0.209	0.106
-426.588	-121.494	0.149	0.024
-425.573	-152.224	0.140	-0.010
-424.559	297.927	-0.048	-0.087
-423.544	-200.000	0.026	0.171
-422.530	393.114	0.066	0.136
-421.515	-200.000	-0.026	0.222
-420.500	-132.571	-0.095	-0.012
-419.486	7.442	-0.289	0.213
-418.471	101.513	-0.089	0.102
-417.457	-132.722	0.234	-0.030
-416.442	103.209	0.050	-0.058
-415.428	-200.000	-0.088	0.495
-414.413	-72.352	-0.163	0.060
-413.398	105.817	-0.149	0.173
-412.384	-200.000	0.040	0.202
-411.369	218.222	-0.153	-0.241
-410.355	-164.631	0.083	0.004
-409.340	215.464	0.024	-0.037
-408.325	44.858	0.167	-0.151
-407.311	127.772	-0.062	-0.078
-406.296	-200.000	-0.011	-0.118
-405.282	-3.204	-0.176	-0.121
-404.267	800.000	0.035	-0.125
-403.252	-108.206	-0.450	-0.096
-402.238	122.462	0.076	0.094
-401.223	424.119	0.063	0.133
-400.209	-32.060	-0.112	0.062
-399.194	-200.000	0.064	0.284
-398.179	-200.000	0.024	0.208
-397.165	-24.431	0.055	-0.032
-396.150	800.000	0.106	0.295
-395.136	209.517	-0.063	0.097
-394.121	-135.715	0.222	-0.026
-393.106	352.128	0.075	-0.146
-392.092	-200.000	-0.040	0.336
-391.077	800.000	0.080	-0.236
-390.063	84.656	-0.152	0.164
-389.048	419.513	0.185	0.391
-388.033	-142.765	-0.391	-0.038
-387.019	13.843	0.203	0.155
-386.004	-33.825	-0.129	-0.070
-384.990	-75.557	0.267	-0.094
-383.975	-106.014	0.210	-0.047
-382.960	-87.700	-0.343	0.102
-381.946	146.508	-0.154	-0.203
-380.931	-200.000	-0.033	0.149
-379.917	-59.009	0.272	0.116
-378.902	-148.168	0.406	0.033
-377.888	8.441	-0.214	0.158
-376.873	63.120	0.126	-0.124
-375.858	11.029	0.017	0.013
-374.844	-114.789	-0.115	-0.022
-373.829	45.707	0.185	-0.168
-372.815	666.789	-0.202	-0.514
-371.800	85.807	0.299	0.324
-370.785	136.907	0.107	-0.138
-369.771	74.563	-0.137	0.142
-368.756	79.986	0.256	-0.271
-367.742	-200.000	0.012	0.231
-366.727	155.954	0.257	-0.349
-365.712	-200.000	0.064	-0.284
-364.698	49.135	-0.161	-0.149
-363.683	121.341	0.042	0.052
-362.669	-200.000	-0.047	-0.317
-361.654	-13.984	-0.290	0.184
-360.639	800.000	-0.034	-0.135
-359.625	800.000	-0.093	-0.300
-358.610	-95.268	-0.127	0.034
-357.596	-200.000	-0.010	0.135
-356.581	-113.153	0.056	-0.011
-355.566	212.727	-0.197	0.305
-354.552	-91.649	0.237	0.066
-353.537	800.000	0.009	0.031
-352.523	800.000	0.057	0.183
-351.508	-90.594	-0.188	-0.054
-350.493	-61.407	0.223	-0.092
-349.479	115.052	0.192	-0.231
-348.464	-200.000	0.101	-0.525
-347.450	-200.000	0.003	-0.204
-346.435	-190.716	-0.223	0.002
-345.420	800.000	-0.057	-0.191
-344.406	-99.871	0.123	0.030
-343.391	123.610	0.121	-0.149
-342.377	-200.000	0.015	0.093
-341.362	-99.782	-0.286	0.070
-340.348	-200.000	0.026	-0.151
-339.333	-136.878	-0.051	0.006
-338.318	-200.000	0.063	-0.441
-337.304	118.263	-0.159	-0.192
-336.289	431.051	-0.079	-0.168
-335.275	37.108	0.349	0.304
-334.260	-200.000	-0.018	0.120
-333.245	-94.859	-0.084	-0.022
-332.231	205.032	-0.085	-0.129
-331.216	800.000	-0.103	-0.327
-330.202	-200.000	0.020	0.214
-329.187	-83.156	0.098	-0.031
-328.172	-75.353	-0.518	-0.182
-327.158	539.099	-0.057	-0.133
-326.143	348.535	-0.111	-0.215
-325.129	-106.768	0.213	0.046
-324.114	-116.065	0.202	-0.037
-323.099	-200.000	0.008	0.050
-322.085	348.195	0.046	0.089
-321.070	145.368	-0.188	0.248
-320.056	-200.000	0.006	-0.039
-319.041	559.846	0.090	-0.212
-318.026	800.000	0.032	-0.089
-317.012	275.031	0.024	0.042
-315.997	-5.061	0.221	0.149
-314.983	-136.387	-0.070	0.008
-313.968	-200.000	-0.035	0.271
-312.953	427.063	0.070	-0.149
-311.939	127.917	-0.109	0.136
-310.924	-100.245	0.052	-0.013
-309.910	-78.549	-0.216	-0.073
-308.895	55.146	-0.186	-0.177
-307.880	100.246	-0.190	0.217
-306.866	-40.112	0.182	-0.093
-305.851	416.304	0.125	0.263
-304.837	800.000	0.064	0.173
-303.822	-200.000	0.105	0.510
-302.807	-162.873	-0.152	0.007
-301.793	-105.704	-0.239	0.053
-300.778	800.000	0.049	0.179
-299.764	20.080	-0.067	-0.053
-298.749	-200.000	0.068	0.318
-297.735	126.299	0.026	0.033
-296.720	-200.000	-0.011	-0.177
-295.705	-26.221	0.333	-0.192
-294.691	-200.000	-0.042	-0.292
-293.676	-28.308	0.326	-0.185
-292.662	152.385	0.067	0.090
-291.647	184.223	0.026	0.037
-290.632	48.550	0.053	0.049
-289.618	-178.345	0.377	-0.009
-288.603	-32.674	-0.199	-0.109
-287.589	112.202	-0.051	0.061
-286.574	3.965	-0.303	-0.218
-285.559	-77.328	0.118	0.040
-284.545	434.529	-0.062	-0.132
-283.530	16.362	0.225	0.174
-282.516	-200.000	0.046	0.324
-281.501	-37.146	0.121	-0.063
-280.486	242.468	0.086	0.141
-279.472	56.216	0.227	0.216
-278.457	-200.000	0.006	-0.068
-277.443	800.000	-0.070	-0.227
-276.428	263.550	-0.222	0.379
-275.413	236.162	-0.126	-0.205
-274.399	-24.512	0.144	0.084
-273.384	-155.426	0.293	-0.019
-272.370	127.230	-0.171	-0.213
-271.355	407.030	0.031	-0.065
-270.340	458.037	-0.081	-0.176
-269.326	-200.000	0.009	-0.211
-268.311	81.537	0.244	-0.259
-267.297	-143.799	-0.232	-0.022
-266.282	40.708	-0.159	-0.141
-265.267	-53.524	0.335	-0.150
-264.253	-108.580	0.208	0.044
-263.238	-134.316	-0.210	0.025
-262.224	-26.729	0.179	0.103
-261.209	800.000	-0.106	0.448
-260.195	58.346	0.123	-0.118
-259.180	-122.310	-0.132	-0.021
-258.165	34.172	-0.068	0.058
-257.151	-200.000	-0.044	0.402
-256.136	-200.000	-0.008	0.054
-255.122	131.357	-0.172	-0.216
-254.107	-13.675	0.266	0.169
-253.092	800.000	-0.025	0.099
-252.078	592.272	0.089	0.216
-251.063	-103.834	-0.286	-0.065
-250.049	-46.833	-0.291	0.140
-249.034	-108.472	-0.387	0.082
-248.019	-200.000	0.045	0.532
-247.005	76.653	0.123	-0.128
-245.990	-200.000	-0.021	-0.150
-244.976	-129.243	0.168	-0.023
-243.961	58.217	0.040	0.038
-242.946	-39.210	0.241	-0.124
-241.932	-61.577	-0.455	-0.187
-240.917	-173.211	-0.402	-0.012
-239.903	158.588	-0.222	0.302
-238.888	-159.286	-0.107	0.006
-237.873	148.812	-0.095	-0.126
-236.859	-17.503	0.299	0.184
-235.844	285.305	-0.146	0.258
-234.830	-107.553	-0.178	0.038
-233.815	-68.022	-0.221	-0.084
-232.800	150.007	-0.194	-0.257
-231.786	-156.723	-0.125	0.008
-230.771	14.335	0.395	0.301
-229.757	-200.000	-0.030	0.168
-228.742	-173.749	0.444	-0.013
-227.727	506.256	0.102	-0.231
-226.713	-88.326	-0.182	-0.053
-225.698	317.649	0.033	0.062
-224.684	-200.000	0.063	-0.343
-223.669	-200.000	0.016	0.204
-222.655	-120.078	-0.144	0.024
-221.640	800.000	0.086	-0.288
-220.625	-28.143	-0.174	0.099
-219.611	64.541	-0.159	0.157
-218.596	66.242	0.168	0.167
-217.582	-87.965	0.179	0.053
-216.567	92.515	0.176	0.194
-215.552	-10.440	-0.208	-0.135
-214.538	-50.785	-0.111	-0.051
-213.523	-29.618	0.221	0.123
-212.509	485.402	0.032	0.070
-211.494	-200.000	0.071	-0.412
-210.479	92.388	0.076	-0.084
-209.465	-200.000	0.035	-0.161
-208.450	-35.885	0.376	0.199
-207.436	-23.107	-0.120	-0.071
-206.421	240.042	-0.053	0.086
-205.406	576.072	0.054	-0.129
-204.392	-121.474	0.247	0.040
-203.377	-164.047	-0.362	-0.016
-202.363	-84.739	0.368	-0.113
-201.348	2.985	0.136	-0.097
-200.333	547.294	-0.093	-0.217
-199.319	-50.484	-0.226	0.104
-198.304	24.145	0.205	0.165
-197.290	-80.734	0.470	0.153
-196.275	-200.000	-0.092	0.713
-195.260	800.000	0.018	-0.062
-194.246	96.462	0.301	0.337
-193.231	-63.273	0.253	0.102
-192.217	7.526	0.051	0.037
-191.202	104.549	0.118	0.136
-190.187	800.000	0.044	0.136
-189.173	293.230	0.100	-0.178
-188.158	414.333	0.188	-0.391
-187.144	-18.285	-0.044	0.027
-186.129	181.358	-0.092	0.132
-185.114	33.294	-0.076	-0.064
-184.100	-89.214	-0.094	0.027
-183.085	289.757	0.168	-0.299
-182.071	-200.000	0.007	0.225
-181.056	-110.112	0.313	-0.064
-180.042	3.889	0.292	-0.208
-179.027	-57.545	0.253	0.109
-178.012	-153.649	0.379	-0.026
-176.998	800.000	0.041	0.166
-175.983	-81.707	-0.228	-0.073
-174.969	800.000	0.031	-0.088
-173.954	-178.325	-0.297	0.007
-172.939	14.902	0.153	0.117
-171.925	58.904	-0.172	0.166
-170.910	184.920	-0.128	-0.186
-169.896	61.714	-0.306	-0.297
-168.881	-48.560	0.459	0.216
-167.866	-200.000	-0.009	0.112
-166.852	-150.499	-0.162	-0.012
-165.837	170.980	-0.033	0.047
-164.823	-200.000	0.032	0.252
-163.808	130.566	-0.276	0.346
-162.793	244.701	0.188	0.309
-161.779	248.467	0.066	0.109
-160.764	-163.838	-0.176	0.008
-159.750	31.280	0.130	-0.109
-158.735	-75.461	0.188	0.065
-157.720	-132.728	-0.142	-0.018
-156.706	40.080	0.070	-0.062
-155.691	-200.000	0.033	0.157
-154.677	-143.164	0.381	-0.036
-153.662	-200.000	0.022	-0.188
-152.647	-16.206	0.099	-0.061
-151.633	-110.950	-0.274	-0.055
-150.618	800.000	0.076	-0.262
-149.604	-200.000	-0.004	0.276
-148.589	-113.372	0.198	0.038
-147.574	800.000	0.105	0.362
-146.560	41.269	0.095	0.084
-145.545	16.653	0.026	-0.020
-144.531	-200.000	0.003	-0.189
-143.516	-26.200	0.291	-0.167
-142.502	-15.155	0.195	0.122
-141.487	-200.000	0.043	0.415
-140.472	90.040	-0.096	0.105
-139.458	214.700	0.127	0.196
-138.443	-58.102	-0.192	0.082
-137.429	285.930	0.097	-0.171
-136.414	493.112	0.138	0.308
-135.399	-98.814	0.342	-0.085
-134.385	271.184	-0.009	0.015
-133.370	-200.000	0.014	0.078
-132.356	309.064	-0.063	-0.116
-131.341	-119.652	0.190	0.032
-130.326	233.918	0.062	-0.100
-129.312	288.775	0.088	-0.155
-128.297	89.600	0.199	0.216
-127.283	165.871	-0.124	0.171
-126.268	-200.000	0.032	0.254
-125.253	31.623	-0.037	0.031
-124.239	295.716	0.127	-0.227
-123.224	317.769	0.209	-0.385
-122.210	-200.000	-0.013	0.244
-121.195	-50.636	0.124	-0.057
