DTS Sentinel unit serial number:	SN413079Multiplexer serial number:	ORYXHardware model number:	OX4-SRSoftware version number:	ORYX F/W v4.00 Oryx Data Collector v3.7.2.0data status	okinstallation	princeton_trtdifferential loss correction	single-endedforward channel	channel 3reverse channel	N/Adate	2019/09/18time	02:48:35forward acquisition time	60.00reverse acquisition time	0.00gamma	496.2192k internal	0.2344k external	0.2344temperature offset calibration	0.9950default loss term (dB/km)	0.3790temperature slope calibration	1.0000multiplexer offset coefficient	1.0000multiplexer slope coefficient	1.0000fibre end	0.00T internal ref (°C)	22.77T ext. ref 1 (°C)	0.17T ext. ref 2 (°C)	16.60length (m)	temperature (°C)	Stokes	anti-Stokes-747.200	-200.000	0.010	-0.128
-746.185	-120.476	0.167	0.028
-745.171	476.686	-0.127	0.286
-744.156	-200.000	-0.045	0.428
-743.142	88.424	-0.154	0.171
-742.127	-3.559	-0.206	0.143
-741.112	-200.000	-0.025	0.275
-740.098	800.000	0.036	0.110
-739.083	-25.637	0.154	-0.091
-738.069	800.000	-0.040	0.154
-737.054	800.000	0.074	-0.242
-736.039	504.373	-0.032	-0.074
-735.025	318.446	0.130	0.245
-734.010	800.000	-0.042	-0.125
-732.996	-182.135	0.024	0.000
-731.981	232.800	0.174	0.286
-730.966	-200.000	0.009	0.336
-729.952	274.591	-0.105	0.185
-728.937	610.257	-0.037	-0.094
-727.923	800.000	-0.087	-0.377
-726.908	710.557	-0.041	-0.108
-725.894	302.852	-0.213	0.394
-724.879	24.535	0.214	-0.177
-723.864	25.890	0.305	-0.254
-722.850	-200.000	0.019	-0.342
-721.835	-200.000	0.053	0.243
-720.821	7.033	-0.061	-0.046
-719.806	-77.636	-0.165	0.057
-718.791	152.193	-0.138	0.188
-717.777	209.263	-0.112	0.175
-716.762	-200.000	-0.049	0.227
-715.748	-73.746	0.449	-0.163
-714.733	282.431	-0.107	0.193
-713.718	-200.000	-0.017	-0.242
-712.704	139.251	-0.211	-0.278
-711.689	206.935	0.221	0.345
-710.675	-66.787	-0.222	-0.088
-709.660	800.000	0.095	-0.324
-708.645	-82.795	0.218	0.070
-707.631	166.229	0.080	0.113
-706.616	162.733	-0.098	-0.137
-705.602	-65.362	-0.203	-0.082
-704.587	-1.349	0.211	-0.149
-703.572	-200.000	-0.041	0.330
-702.558	414.290	0.124	0.263
-701.543	-51.358	0.174	0.081
-700.529	-200.000	-0.008	0.110
-699.514	-12.311	-0.192	-0.125
-698.499	358.207	0.056	-0.111
-697.485	123.412	0.118	-0.148
-696.470	-61.124	0.169	-0.071
-695.456	800.000	0.082	-0.257
-694.441	70.842	-0.249	-0.257
-693.426	-56.385	0.087	-0.038
-692.412	-118.605	-0.138	0.024
-691.397	800.000	-0.046	0.152
-690.383	7.653	-0.109	0.081
-689.368	-66.166	0.168	0.067
-688.354	521.082	-0.105	-0.245
-687.339	123.622	-0.073	0.091
-686.324	800.000	-0.057	0.237
-685.310	-177.124	-0.131	-0.003
-684.295	-58.721	-0.162	0.070
-683.281	-127.605	-0.041	-0.006
-682.266	-200.000	0.005	-0.078
-681.251	-111.519	0.233	-0.047
-680.237	-25.909	0.225	0.132
-679.222	-79.518	-0.021	-0.007
-678.208	-110.593	-0.267	-0.055
-677.193	-37.258	0.079	-0.042
-676.178	42.330	0.038	-0.034
-675.164	-43.644	-0.356	-0.179
-674.149	179.730	-0.141	0.206
-673.135	593.807	0.014	-0.035
-672.120	-168.504	-0.140	-0.005
-671.105	-51.252	0.262	0.122
-670.091	800.000	0.061	-0.172
-669.076	584.091	-0.025	0.062
-668.062	-16.603	-0.080	0.050
-667.047	641.065	0.057	0.144
-666.032	261.254	0.045	-0.078
-665.018	-17.817	-0.171	-0.107
-664.003	-50.816	-0.102	0.048
-662.989	-140.473	-0.106	-0.011
-661.974	56.630	0.099	-0.096
-660.959	800.000	-0.136	0.378
-659.945	-121.146	-0.042	0.007
-658.930	-149.638	0.234	-0.018
-657.916	626.247	-0.189	0.476
-656.901	-70.266	0.216	0.082
-655.886	176.669	0.016	-0.023
-654.872	-200.000	0.004	0.199
-653.857	-54.322	0.169	-0.077
-652.843	179.854	-0.161	0.235
-651.828	-200.000	-0.048	0.290
-650.814	26.413	-0.061	-0.051
-649.799	-200.000	0.030	-0.182
-648.784	366.990	-0.176	-0.354
-647.770	153.622	-0.063	0.086
-646.755	-122.281	-0.265	-0.043
-645.741	143.370	0.182	0.242
-644.726	-98.422	0.256	-0.065
-643.711	144.037	0.116	0.155
-642.697	-27.578	-0.156	0.090
-641.682	791.291	0.043	0.118
-640.668	19.965	0.359	-0.289
-639.653	-144.675	-0.333	0.031
-638.638	65.531	-0.129	-0.130
-637.624	-200.000	-0.024	0.170
-636.609	-200.000	0.046	-0.439
-635.595	23.948	-0.238	0.196
-634.580	800.000	-0.045	0.186
-633.565	-200.000	-0.040	0.301
-632.551	681.078	-0.050	-0.131
-631.536	28.760	0.057	-0.048
-630.522	-200.000	0.012	0.323
-629.507	372.276	0.094	-0.190
-628.492	800.000	0.072	-0.305
-627.478	37.961	0.036	0.032
-626.463	161.277	-0.074	0.104
-625.449	-200.000	0.010	0.189
-624.434	498.211	0.030	-0.069
-623.419	-200.000	-0.011	0.130
-622.405	-18.911	-0.112	0.069
-621.390	-62.390	0.242	0.100
-620.376	451.514	-0.081	-0.179
-619.361	186.856	0.213	-0.315
-618.346	753.666	-0.117	-0.316
-617.332	-100.640	0.270	-0.066
-616.317	-200.000	0.010	0.048
-615.303	41.830	0.097	-0.087
-614.288	8.761	-0.104	-0.078
-613.273	-120.417	-0.244	-0.041
-612.259	-200.000	0.075	-0.472
-611.244	-7.940	-0.329	-0.221
-610.230	39.509	0.147	-0.131
-609.215	116.756	-0.146	-0.179
-608.201	-2.408	-0.103	-0.072
-607.186	-77.713	-0.205	0.071
-606.171	-98.206	-0.214	0.055
-605.157	800.000	-0.021	0.076
-604.142	-57.292	0.383	-0.168
-603.128	-103.084	-0.347	-0.082
-602.113	47.604	0.264	0.245
-601.098	123.291	-0.140	-0.175
-600.084	353.516	-0.098	0.193
-599.069	-47.593	-0.156	0.075
-598.055	800.000	0.076	0.275
-597.040	229.225	0.075	0.122
-596.025	-200.000	0.057	0.342
-595.011	79.787	0.079	-0.084
-593.996	54.870	-0.057	-0.055
-592.982	-82.773	-0.044	0.014
-591.967	115.112	0.058	-0.070
-590.952	-127.141	-0.146	-0.021
-589.938	106.173	0.180	-0.212
-588.923	-163.710	-0.238	-0.011
-587.909	19.569	-0.062	-0.049
-586.894	387.612	0.155	0.318
-585.879	-59.674	0.058	0.025
-584.865	737.202	-0.038	-0.101
-583.850	-200.000	-0.005	-0.054
-582.836	-136.028	-0.105	0.012
-581.821	-93.491	-0.113	-0.031
-580.806	62.698	0.169	0.168
-579.792	42.347	-0.153	0.138
-578.777	84.288	-0.256	0.279
-577.763	-100.376	0.361	-0.089
-576.748	-20.178	-0.315	0.193
-575.733	-200.000	0.044	-0.341
-574.719	-5.669	0.211	-0.144
-573.704	209.869	-0.117	-0.182
-572.690	-102.524	-0.092	0.022
-571.675	-53.402	-0.146	0.067
-570.661	5.589	-0.256	-0.188
-569.646	800.000	0.082	-0.311
-568.631	-94.774	-0.466	-0.126
-567.617	-67.708	0.247	0.096
-566.602	-46.600	0.211	0.103
-565.588	-200.000	0.011	-0.311
-564.573	-9.467	0.282	0.187
-563.558	-40.174	-0.236	-0.122
-562.544	380.195	0.028	-0.057
-561.529	-120.265	0.314	0.053
-560.515	502.117	-0.028	-0.065
-559.500	-71.559	-0.163	-0.061
-558.485	466.479	0.093	0.208
-557.471	-0.126	-0.298	-0.211
-556.456	-21.541	-0.242	0.146
-555.442	-127.138	0.111	-0.016
-554.427	24.304	0.259	0.213
-553.412	18.091	0.043	-0.034
-552.398	53.174	0.178	0.169
-551.383	-200.000	0.005	0.176
-550.369	-200.000	-0.009	0.069
-549.354	800.000	-0.070	-0.289
-548.339	-200.000	0.005	0.151
-547.325	-186.657	-0.529	0.007
-546.310	-144.588	0.401	-0.037
-545.296	28.331	-0.043	-0.036
-544.281	-200.000	-0.004	-0.034
-543.266	-117.196	0.113	-0.020
-542.252	-200.000	0.021	-0.314
-541.237	194.901	-0.197	-0.297
-540.223	800.000	0.035	-0.102
-539.208	-21.703	-0.191	-0.115
-538.193	-200.000	0.028	0.188
-537.179	-19.704	0.310	-0.191
-536.164	-67.961	0.198	-0.077
-535.150	176.817	0.253	0.366
-534.135	-10.612	0.398	-0.261
-533.121	108.785	0.195	-0.232
-532.106	-200.000	-0.025	-0.225
-531.091	-200.000	-0.022	-0.130
-530.077	-200.000	0.054	-0.267
-529.062	-200.000	-0.012	-0.052
-528.048	800.000	-0.232	0.653
-527.033	-14.930	0.190	0.121
-526.018	800.000	-0.072	-0.260
-525.004	-195.896	0.209	-0.001
-523.989	357.796	0.171	0.338
-522.975	-34.945	-0.346	0.187
-521.960	-200.000	0.008	-0.504
-520.945	217.236	0.107	0.169
-519.931	19.852	-0.113	-0.090
-518.916	-64.958	-0.282	-0.113
-517.902	-200.000	-0.008	0.415
-516.887	-40.962	-0.253	-0.130
-515.872	9.797	-0.055	0.042
-514.858	81.958	0.196	0.210
-513.843	203.663	0.107	-0.164
-512.829	187.444	0.206	-0.305
-511.814	-200.000	0.081	-0.359
-510.799	800.000	-0.025	0.077
-509.785	167.677	0.238	0.335
-508.770	800.000	0.090	-0.284
-507.756	-41.621	0.245	-0.125
-506.741	247.909	0.088	0.147
-505.726	201.109	0.150	-0.230
-504.712	800.000	-0.045	0.188
-503.697	800.000	-0.053	-0.181
-502.683	-133.136	-0.046	0.006
-501.668	-55.122	0.259	-0.116
-500.653	22.513	0.110	-0.090
-499.639	171.064	-0.107	0.152
-498.624	270.403	-0.059	0.103
-497.610	264.305	-0.120	-0.207
-496.595	64.298	-0.165	-0.165
-495.581	-122.859	0.079	-0.013
-494.566	-200.000	-0.026	0.248
-493.551	-105.943	-0.184	-0.041
-492.537	-27.105	-0.171	-0.099
-491.522	-200.000	-0.068	0.393
-490.508	122.819	0.221	0.275
-489.493	15.870	0.219	-0.171
-488.478	-167.137	-0.103	-0.004
-487.464	92.412	-0.168	-0.187
-486.449	-65.200	-0.283	0.113
-485.435	-0.287	0.399	0.281
-484.420	-18.069	-0.222	0.137
-483.405	140.123	0.042	-0.055
-482.391	755.910	0.081	0.218
-481.376	-105.328	0.101	-0.023
-480.362	800.000	-0.118	-0.334
-479.347	-4.684	0.264	-0.180
-478.332	107.709	-0.073	-0.087
-477.318	561.750	-0.083	0.199
-476.303	123.165	-0.121	0.151
-475.289	130.160	0.130	-0.165
-474.274	241.707	0.038	0.063
-473.259	107.779	0.142	0.167
-472.245	-32.596	0.158	0.087
-471.230	-200.000	-0.021	-0.141
-470.216	586.975	0.084	0.205
-469.201	136.938	0.185	0.240
-468.186	241.050	-0.074	-0.122
-467.172	519.106	-0.093	-0.216
-466.157	418.131	0.209	-0.442
-465.143	-21.088	-0.154	0.093
-464.128	639.520	-0.083	0.208
-463.113	242.841	0.187	0.310
-462.099	291.554	-0.029	-0.053
-461.084	-200.000	-0.074	0.410
-460.070	170.934	-0.234	0.333
-459.055	78.714	-0.047	-0.050
-458.040	53.649	-0.122	0.116
-457.026	77.611	0.081	-0.086
-456.011	-69.470	-0.201	0.076
-454.997	-200.000	-0.071	-0.333
-453.982	800.000	-0.118	-0.352
-452.968	126.558	-0.062	0.078
-451.953	-19.969	0.173	-0.106
-450.938	593.538	-0.101	0.247
-449.924	42.210	-0.136	-0.123
-448.909	-200.000	0.013	-0.240
-447.895	-15.336	0.361	0.228
-446.880	-57.648	-0.186	0.081
-445.865	44.151	-0.213	-0.193
-444.851	-35.251	-0.082	0.044
-443.836	-117.421	-0.304	-0.054
-442.822	-200.000	0.054	-0.239
-441.807	-48.361	-0.131	-0.062
-440.792	-50.412	-0.425	0.199
-439.778	384.155	-0.039	-0.079
-438.763	242.429	0.175	0.290
-437.749	-125.401	0.158	-0.024
-436.734	-70.158	-0.308	-0.116
-435.719	-200.000	0.009	0.357
-434.705	-200.000	0.012	-0.187
-433.690	76.575	0.213	0.223
-432.676	-151.038	-0.257	-0.019
-431.661	13.336	-0.276	0.212
-430.646	267.754	-0.068	-0.118
-429.632	138.921	-0.328	-0.426
-428.617	129.647	0.097	-0.123
-427.603	-200.000	-0.033	0.180
-426.588	-88.648	0.176	-0.052
-425.573	36.567	-0.268	0.233
-424.559	-200.000	0.001	-0.031
-423.544	747.735	0.056	-0.148
-422.530	-82.119	0.143	-0.046
-421.515	-9.042	-0.043	-0.028
-420.500	449.139	0.050	-0.109
-419.486	-96.697	0.222	0.058
-418.471	227.808	-0.098	-0.157
-417.457	800.000	-0.076	0.312
-416.442	148.491	-0.045	-0.059
-415.428	23.303	0.213	-0.173
-414.413	99.598	-0.151	0.173
-413.398	11.000	-0.125	0.094
-412.384	375.074	-0.113	0.228
-411.369	-200.000	-0.007	0.136
-410.355	7.611	-0.121	0.089
-409.340	800.000	-0.106	0.347
-408.325	-200.000	-0.030	0.501
-407.311	262.753	-0.105	-0.179
-406.296	50.440	-0.140	0.131
-405.282	-158.914	-0.190	-0.011
-404.267	-200.000	0.044	-0.297
-403.252	-34.865	0.163	0.088
-402.238	-82.924	-0.324	0.103
-401.223	-156.007	0.230	0.014
-400.209	-21.846	-0.123	-0.074
-399.194	800.000	-0.081	0.348
-398.179	-53.442	0.177	0.080
-397.165	123.057	0.175	-0.217
-396.150	-109.687	-0.025	0.005
-395.136	337.698	-0.062	-0.118
-394.121	800.000	-0.073	0.285
-393.106	-200.000	-0.032	0.342
-392.092	-63.845	-0.112	0.045
-391.077	162.335	0.178	0.246
-390.063	6.502	-0.057	-0.042
-389.048	50.478	0.273	-0.255
-388.033	-200.000	-0.027	-0.460
-387.019	396.702	0.010	-0.021
-386.004	-85.985	-0.318	0.097
-384.990	-169.299	-0.310	-0.011
-383.975	-59.900	-0.367	-0.155
-382.960	698.284	-0.030	0.078
-381.946	-98.640	0.118	-0.030
-380.931	-144.405	-0.321	0.029
-379.917	328.059	-0.089	-0.169
-378.902	-200.000	0.068	-0.363
-377.888	273.538	-0.076	0.133
-376.873	31.832	-0.084	0.071
-375.858	305.255	0.182	-0.333
-374.844	-137.965	-0.410	0.045
-373.829	60.805	-0.186	-0.182
-372.815	131.853	0.273	-0.346
-371.800	329.661	-0.075	-0.143
-370.785	328.043	-0.038	0.072
-369.771	5.600	-0.224	0.163
-368.756	-97.026	0.160	0.041
-367.742	-157.306	-0.490	0.029
-366.727	259.081	-0.031	0.053
-365.712	190.794	-0.032	0.047
-364.698	-200.000	0.011	0.116
-363.683	43.697	-0.115	0.103
-362.669	-96.712	-0.122	0.032
-361.654	800.000	0.050	-0.144
-360.639	-38.594	0.382	0.199
-359.625	-197.649	0.172	0.001
-358.610	800.000	-0.052	-0.153
-357.596	-67.157	0.384	0.149
-356.581	-87.413	-0.429	-0.128
-355.566	4.387	-0.194	0.140
-354.552	-151.089	0.200	-0.015
-353.537	405.681	0.060	-0.125
-352.523	-200.000	0.071	0.375
-351.508	389.434	0.145	0.296
-350.493	-63.459	-0.221	0.090
-349.479	-200.000	0.026	-0.179
-348.464	233.988	0.137	0.222
-347.450	-112.030	-0.204	-0.040
-346.435	-8.817	0.256	0.169
-345.420	6.066	-0.222	0.162
-344.406	-162.289	-0.362	0.018
-343.391	31.994	0.180	-0.153
-342.377	86.890	0.189	-0.206
-341.362	290.284	0.061	0.109
-340.348	133.030	0.069	0.088
-339.333	-44.028	-0.182	-0.090
-338.318	-118.731	0.227	0.039
-337.304	800.000	0.052	0.150
-336.289	800.000	0.091	-0.246
-335.275	-31.686	-0.278	0.153
-334.260	561.736	-0.031	-0.075
-333.245	-178.853	0.292	-0.007
-332.231	99.294	0.417	0.474
-331.216	800.000	-0.131	0.507
-330.202	50.295	-0.228	0.212
-329.187	-72.685	0.246	0.089
-328.172	583.597	0.037	-0.090
-327.158	145.694	-0.205	-0.270
-326.143	800.000	0.073	0.214
-325.129	-142.252	-0.400	-0.039
-324.114	-151.578	0.261	0.019
-323.099	16.171	0.047	-0.037
-322.085	-200.000	-0.046	-0.222
-321.070	-109.323	-0.160	-0.033
-320.056	730.489	-0.084	0.220
-319.041	-88.492	-0.065	0.019
-318.026	93.255	-0.133	-0.148
-317.012	-46.994	0.365	0.176
-315.997	24.780	0.043	-0.035
-314.983	152.520	0.051	-0.068
-313.968	-12.003	0.159	0.103
-312.953	197.056	0.238	0.357
-311.939	58.919	-0.028	0.027
-310.924	-1.917	-0.315	0.218
-309.910	-34.074	-0.095	-0.052
-308.895	95.791	-0.057	-0.064
-307.880	79.472	-0.144	0.152
-306.866	800.000	0.192	0.571
-305.851	-11.453	0.137	-0.088
-304.837	-48.270	-0.155	-0.074
-303.822	-200.000	-0.015	-0.081
-302.807	82.484	-0.198	-0.211
-301.793	-154.243	0.174	0.012
-300.778	430.227	0.106	-0.226
-299.764	800.000	0.045	-0.168
-298.749	16.941	0.145	-0.113
-297.735	4.149	0.205	-0.147
-296.720	411.935	0.143	0.298
-295.705	-100.828	0.104	0.025
-294.691	-118.269	-0.147	-0.026
-293.676	-65.777	-0.376	-0.148
-292.662	-83.851	0.284	-0.089
-291.647	-34.911	-0.206	0.111
-290.632	-200.000	-0.023	-0.137
-289.618	-177.305	0.287	0.007
-288.603	349.405	-0.113	0.220
-287.589	72.752	0.070	0.071
-286.574	-110.307	-0.147	0.030
-285.559	321.939	0.128	-0.240
-284.545	480.936	0.105	-0.234
-283.530	29.520	-0.136	-0.113
-282.516	-86.657	-0.065	-0.020
-281.501	-67.110	0.060	0.023
-280.486	-200.000	-0.021	-0.131
-279.472	-13.780	0.240	-0.153
-278.457	344.474	0.085	-0.163
-277.443	-200.000	-0.030	0.215
-276.428	435.950	0.123	0.263
-275.413	-53.537	-0.049	0.022
-274.399	-200.000	-0.063	-0.345
-273.384	0.085	-0.073	-0.051
-272.370	42.942	0.126	0.113
-271.355	-2.694	-0.216	0.148
-270.340	-189.840	-0.093	0.001
-269.326	-124.342	-0.130	0.020
-268.311	-200.000	0.015	-0.109
-267.297	800.000	-0.061	-0.187
-266.282	765.849	0.033	-0.089
-265.267	354.341	0.176	0.344
-264.253	-200.000	0.053	0.266
-263.238	86.338	0.172	-0.186
-262.224	374.132	0.167	0.335
-261.209	-95.843	-0.142	0.037
-260.195	518.042	0.175	-0.401
-259.180	-4.534	0.316	0.214
-258.165	-200.000	0.021	-0.242
-257.151	-67.737	-0.210	-0.081
-256.136	-200.000	0.021	-0.263
-255.122	-200.000	0.059	-0.487
-254.107	-200.000	-0.048	-0.400
-253.092	-200.000	0.009	-0.118
-252.078	131.676	0.187	-0.236
-251.063	-85.102	-0.118	0.036
-250.049	-148.882	0.421	-0.033
-249.034	800.000	0.081	0.239
-248.019	-27.847	-0.263	0.150
-247.005	-138.615	-0.124	-0.013
-245.990	379.824	-0.145	-0.292
-244.976	-139.491	0.100	0.011
-243.961	233.488	0.139	-0.224
-242.946	-200.000	0.001	0.192
-241.932	-200.000	0.017	-0.142
-240.917	74.408	0.205	0.212
-239.903	63.182	-0.066	0.065
-238.888	-1.806	-0.204	-0.141
-237.873	-150.151	0.316	0.024
-236.859	181.510	-0.197	0.284
-235.844	-85.884	0.188	0.057
-234.830	-150.751	-0.467	-0.035
-233.815	-130.706	0.453	0.060
-232.800	477.274	-0.023	-0.052
-231.786	-97.770	0.143	0.036
-230.771	-200.000	-0.018	0.093
-229.757	-200.000	-0.014	0.124
-228.742	-173.046	0.354	0.011
-227.727	-200.000	0.085	-0.394
-226.713	127.902	0.094	0.117
-225.698	-200.000	-0.053	0.258
-224.684	712.847	-0.119	-0.308
-223.669	-42.713	-0.032	-0.016
-222.655	447.939	0.023	-0.049
-221.640	-12.724	0.278	0.178
-220.625	800.000	0.185	-0.514
-219.611	-106.231	0.190	-0.042
-218.596	-200.000	0.004	-0.122
-217.582	-6.538	0.240	-0.160
-216.567	419.082	0.107	0.225
-215.552	347.178	-0.072	-0.139
-214.538	76.344	-0.065	-0.067
-213.523	-82.773	-0.101	-0.032
-212.509	67.947	-0.157	-0.158
-211.494	-200.000	-0.086	-0.425
-210.479	213.999	-0.198	0.308
-209.465	-13.743	0.271	-0.172
-208.450	-92.437	0.270	0.074
-207.436	184.035	0.065	-0.094
-206.421	-153.387	0.155	0.011
-205.406	-27.851	-0.121	-0.069
-204.392	-200.000	0.037	0.200
-203.377	-52.480	-0.326	0.148
-202.363	-200.000	-0.012	0.410
-201.348	204.760	-0.162	-0.246
-200.333	-82.559	-0.300	0.095
-199.319	269.485	-0.091	0.157
-198.304	251.911	0.129	0.215
-197.290	674.224	0.119	-0.302
-196.275	-76.204	0.294	0.102
-195.260	-200.000	0.022	0.295
-194.246	-58.469	-0.147	0.063
-193.231	-66.432	0.161	0.063
-192.217	417.968	-0.106	-0.222
-191.202	105.014	-0.167	-0.192
-190.187	-177.447	-0.135	-0.003
-189.173	-200.000	-0.048	0.227
-188.158	-122.553	0.370	-0.059
-187.144	-6.210	0.152	0.102
-186.129	800.000	-0.098	0.417
-185.114	-200.000	0.015	0.073
-184.100	516.047	-0.099	-0.226
-183.085	144.799	0.046	0.060
-182.071	800.000	0.091	0.323
-181.056	-200.000	-0.021	0.190
-180.042	-69.203	-0.205	-0.077
-179.027	-97.018	0.090	-0.023
-178.012	-200.000	0.041	0.224
-176.998	505.750	0.073	0.166
-175.983	6.089	0.248	-0.180
-174.969	-117.808	-0.375	0.066
-173.954	-80.519	0.200	0.065
-172.939	-39.096	-0.169	-0.087
-171.925	-139.755	0.086	-0.009
-170.910	17.331	0.188	-0.146
-169.896	-25.944	0.273	-0.157
-168.881	-53.678	-0.198	0.088
-167.866	-15.442	-0.138	0.086
-166.852	-200.000	-0.020	-0.187
-165.837	161.243	0.231	-0.317
-164.823	-5.839	-0.031	-0.021
-163.808	-99.697	-0.262	-0.064
-162.793	-200.000	0.011	0.178
-161.779	800.000	-0.018	0.061
-160.764	-64.748	0.341	-0.135
-159.750	80.403	0.157	0.165
-158.735	-31.448	-0.325	-0.179
-157.720	-91.248	0.312	0.088
-156.706	-73.438	0.351	0.125
-155.691	-200.000	-0.035	0.270
-154.677	561.785	0.135	0.319
-153.662	-53.632	-0.133	0.059
-152.647	-30.062	0.104	-0.058
-151.633	2.451	0.163	-0.116
-150.618	-200.000	-0.050	-0.215
-149.604	-200.000	-0.043	-0.299
-148.589	642.890	0.138	0.345
-147.574	-200.000	0.005	0.461
-146.560	-5.520	-0.108	-0.072
-145.545	-200.000	0.015	-0.333
-144.531	-200.000	0.066	-0.311
-143.516	800.000	-0.118	0.326
-142.502	7.466	0.059	0.043
-141.487	25.663	-0.203	0.165
-140.472	-102.135	0.084	-0.020
-139.458	95.990	0.070	-0.078
-138.443	-200.000	-0.020	-0.366
-137.429	-136.871	0.193	-0.022
-136.414	127.796	-0.049	0.061
-135.399	-200.000	-0.006	0.054
-134.385	-200.000	0.019	-0.302
-133.370	-78.491	-0.278	0.093
-132.356	341.199	-0.042	-0.081
-131.341	-172.903	-0.190	-0.006
-130.326	96.280	0.055	-0.061
-129.312	-200.000	0.045	-0.321
-128.297	618.795	0.041	0.101
-127.283	235.882	-0.107	-0.172
-126.268	521.318	0.095	0.218
-125.253	623.469	-0.061	-0.149
-124.239	-30.721	0.170	0.094
-123.224	800.000	0.136	0.542
-122.210	107.843	0.235	0.274
-121.195	-91.910	0.188	0.052
