DTS Sentinel unit serial number:	SN413079Multiplexer serial number:	ORYXHardware model number:	OX4-SRSoftware version number:	ORYX F/W v4.00 Oryx Data Collector v3.7.2.0data status	okinstallation	princeton_trtdifferential loss correction	single-endedforward channel	channel 3reverse channel	N/Adate	2019/09/14time	23:48:34forward acquisition time	60.00reverse acquisition time	0.00gamma	496.2192k internal	0.2319k external	0.2319temperature offset calibration	0.9980default loss term (dB/km)	0.3790temperature slope calibration	1.0000multiplexer offset coefficient	1.0000multiplexer slope coefficient	1.0000fibre end	0.00T internal ref (°C)	32.27T ext. ref 1 (°C)	4.64T ext. ref 2 (°C)	27.20length (m)	temperature (°C)	Stokes	anti-Stokes-747.200	-86.424	-0.274	0.085
-746.185	614.684	0.115	0.292
-745.171	395.698	-0.096	-0.203
-744.156	53.707	-0.177	0.172
-743.142	-3.421	-0.146	-0.103
-742.127	-32.249	-0.170	-0.096
-741.112	-32.038	0.252	-0.143
-740.098	-102.079	0.133	0.032
-739.083	-1.105	0.083	-0.060
-738.069	-105.886	-0.211	-0.048
-737.054	699.647	-0.077	0.204
-736.039	-22.967	-0.271	-0.165
-735.025	265.420	0.122	0.214
-734.010	225.232	-0.033	-0.055
-732.996	-200.000	-0.028	-0.165
-731.981	-40.486	0.146	-0.077
-730.966	-200.000	-0.074	0.367
-729.952	-200.000	-0.004	-0.497
-728.937	-132.240	-0.302	-0.040
-727.923	-87.509	-0.096	0.029
-726.908	-81.073	0.197	-0.066
-725.894	-55.549	-0.177	-0.080
-724.879	123.916	-0.228	-0.289
-723.864	301.340	-0.078	-0.145
-722.850	800.000	-0.086	-0.304
-721.835	19.530	-0.192	0.156
-720.821	-33.014	-0.068	0.038
-719.806	-46.662	-0.128	-0.063
-718.791	-200.000	-0.017	-0.402
-717.777	30.516	-0.168	-0.145
-716.762	199.323	-0.079	-0.122
-715.748	-200.000	-0.027	0.127
-714.733	-100.743	0.021	0.005
-713.718	-85.813	-0.280	-0.088
-712.704	188.462	0.141	0.213
-711.689	132.185	-0.102	0.132
-710.675	139.008	0.286	-0.379
-709.660	800.000	-0.088	-0.333
-708.645	800.000	0.025	-0.073
-707.631	-62.764	0.338	0.141
-706.616	-200.000	-0.025	-0.169
-705.602	-25.361	-0.324	-0.194
-704.587	-107.717	-0.172	0.038
-703.572	-200.000	0.021	0.175
-702.558	800.000	0.050	-0.216
-701.543	-45.395	-0.228	0.114
-700.529	69.105	0.163	0.169
-699.514	492.438	-0.028	-0.065
-698.499	243.824	0.128	-0.216
-697.485	-200.000	0.014	-0.314
-696.470	-121.171	-0.304	-0.051
-695.456	105.059	0.019	0.023
-694.441	127.943	-0.093	0.120
-693.426	-90.796	0.269	-0.078
-692.412	290.410	-0.239	-0.439
-691.397	-200.000	0.058	0.401
-690.383	296.747	-0.119	0.220
-689.368	36.317	0.218	0.194
-688.354	118.125	-0.230	-0.286
-687.339	141.304	-0.113	-0.151
-686.324	-32.138	-0.334	-0.189
-685.310	-68.868	0.156	0.061
-684.295	-200.000	-0.009	-0.054
-683.281	-181.070	0.132	0.003
-682.266	107.971	0.047	0.056
-681.251	800.000	0.031	-0.127
-680.237	151.779	-0.279	0.383
-679.222	-46.059	-0.305	-0.152
-678.208	83.359	-0.134	-0.147
-677.193	72.532	0.169	-0.178
-676.178	361.582	-0.091	0.185
-675.164	35.040	0.128	-0.113
-674.149	368.879	0.117	0.238
-673.135	225.942	0.222	0.363
-672.120	716.571	-0.018	0.047
-671.105	121.517	0.026	-0.033
-670.091	-200.000	-0.041	0.480
-669.076	-127.934	-0.165	-0.024
-668.062	10.298	0.403	-0.309
-667.047	-66.256	-0.295	-0.119
-666.032	-54.748	0.105	-0.048
-665.018	-122.534	0.138	-0.023
-664.003	290.866	-0.041	0.075
-662.989	-64.081	0.115	0.047
-661.974	118.538	-0.058	-0.073
-660.959	10.366	-0.054	0.042
-659.945	800.000	-0.101	0.372
-658.930	800.000	0.018	0.065
-657.916	212.145	-0.101	-0.161
-656.901	-34.310	-0.055	0.031
-655.886	389.518	-0.038	0.080
-654.872	12.786	-0.316	0.246
-653.857	800.000	0.051	-0.175
-652.843	-200.000	0.018	0.168
-651.828	44.419	-0.065	-0.061
-650.814	-157.465	0.233	-0.014
-649.799	126.074	-0.182	-0.232
-648.784	-200.000	0.027	-0.172
-647.770	-23.812	-0.089	-0.053
-646.755	131.091	-0.147	0.190
-645.741	-65.632	-0.343	0.138
-644.726	800.000	0.031	0.107
-643.711	-200.000	-0.033	-0.248
-642.697	-114.059	0.034	-0.007
-641.682	-200.000	0.046	-0.315
-640.668	8.912	0.332	-0.253
-639.653	87.674	-0.221	0.246
-638.638	-18.546	0.172	-0.108
-637.624	-200.000	-0.035	-0.398
-636.609	47.614	-0.168	0.158
-635.595	34.339	0.299	0.263
-634.580	-57.284	-0.172	0.076
-633.565	800.000	0.037	-0.106
-632.551	-67.228	0.313	-0.124
-631.536	800.000	0.089	-0.356
-630.522	5.511	0.098	0.073
-629.507	120.694	0.107	-0.134
-628.492	17.727	0.150	-0.120
-627.478	15.236	-0.185	0.146
-626.463	-149.100	-0.261	-0.021
-625.449	-74.555	-0.312	-0.113
-624.434	-200.000	-0.008	-0.137
-623.419	374.863	0.130	0.267
-622.405	800.000	0.064	-0.231
-621.390	20.884	0.176	-0.143
-620.376	595.181	0.082	-0.203
-619.361	-120.123	-0.207	0.036
-618.346	187.834	-0.088	-0.132
-617.332	71.861	-0.023	0.024
-616.317	312.346	0.057	0.107
-615.303	78.159	-0.117	-0.125
-614.288	55.695	0.051	0.050
-613.273	22.188	0.157	0.129
-612.259	-24.103	-0.019	0.011
-611.244	293.542	-0.035	-0.064
-610.230	61.435	0.095	-0.095
-609.215	-200.000	0.006	0.040
-608.201	-43.002	-0.458	0.234
-607.186	468.723	0.058	0.131
-606.171	-113.841	-0.340	-0.066
-605.157	152.137	-0.008	-0.011
-604.142	-75.506	0.269	-0.096
-603.128	-159.592	-0.206	0.012
-602.113	-4.390	-0.179	-0.125
-601.098	-89.230	-0.164	-0.049
-600.084	138.398	-0.098	0.129
-599.069	800.000	0.055	0.158
-598.055	179.877	-0.157	0.231
-597.040	-168.125	-0.165	-0.006
-596.025	359.206	-0.031	-0.062
-595.011	-73.925	0.112	0.041
-593.996	-43.767	0.084	0.043
-592.982	392.233	-0.189	-0.395
-591.967	520.616	0.125	-0.296
-590.952	-136.843	0.074	0.009
-589.938	-163.600	0.103	0.005
-588.923	137.646	0.112	0.148
-587.909	800.000	0.058	0.230
-586.894	-163.972	-0.065	0.003
-585.879	-200.000	-0.023	0.228
-584.865	800.000	-0.053	-0.190
-583.850	414.840	0.095	0.204
-582.836	-49.806	0.042	0.020
-581.821	-30.702	-0.146	-0.083
-580.806	-91.455	0.196	0.056
-579.792	-94.968	-0.147	0.040
-578.777	-200.000	-0.016	-0.462
-577.763	-60.794	-0.008	0.004
-576.748	-43.008	-0.105	0.053
-575.733	-70.429	-0.219	0.083
-574.719	-56.031	0.028	0.013
-573.704	-131.707	-0.180	0.024
-572.690	-121.003	0.070	-0.012
-571.675	-200.000	-0.023	-0.228
-570.661	341.443	0.106	-0.208
-569.646	-200.000	-0.304	0.000
-568.631	-44.183	-0.108	0.054
-567.617	-200.000	0.015	0.428
-566.602	202.529	0.062	0.097
-565.588	352.052	-0.149	0.297
-564.573	-184.377	0.329	-0.005
-563.558	-200.000	-0.003	-0.184
-562.544	37.910	-0.195	0.174
-561.529	-136.836	-0.190	0.022
-560.515	6.042	0.114	0.085
-559.500	30.504	0.437	-0.375
-558.485	-76.741	-0.110	-0.039
-557.471	-200.000	-0.037	-0.191
-556.456	-142.938	0.142	0.014
-555.442	-87.445	-0.338	-0.103
-554.427	0.163	-0.158	-0.113
-553.412	-90.366	-0.072	-0.021
-552.398	127.567	0.202	0.258
-551.383	-103.861	0.045	-0.011
-550.369	324.529	0.083	-0.159
-549.354	-16.745	-0.138	-0.087
-548.339	-158.626	-0.176	-0.010
-547.325	-200.000	0.017	0.190
-546.310	-42.980	-0.395	-0.201
-545.296	-25.193	0.074	0.044
-544.281	-34.822	0.387	-0.212
-543.266	186.415	0.094	-0.140
-542.252	28.541	0.149	0.127
-541.237	633.622	0.106	0.270
-540.223	-60.324	-0.058	0.025
-539.208	800.000	0.027	-0.078
-538.193	-106.578	0.156	-0.035
-537.179	-13.173	0.098	-0.064
-536.164	-110.372	-0.229	-0.048
-535.150	-40.698	-0.114	0.059
-534.135	-103.665	-0.146	0.034
-533.121	-17.145	-0.267	0.169
-532.106	20.397	0.151	0.122
-531.091	55.332	-0.263	-0.255
-530.077	-200.000	-0.030	0.344
-529.062	137.163	0.236	-0.310
-528.048	-200.000	0.026	0.141
-527.033	342.448	0.029	-0.056
-526.018	-28.495	0.231	0.133
-525.004	800.000	0.047	-0.133
-523.989	-111.521	-0.153	0.031
-522.975	-138.322	0.339	0.038
-521.960	487.479	-0.033	-0.076
-520.945	-81.627	-0.240	0.079
-519.931	-7.378	0.075	-0.051
-518.916	-181.026	0.170	0.003
-517.902	28.525	-0.262	-0.223
-516.887	-138.499	0.273	0.030
-515.872	-200.000	-0.107	-0.518
-514.858	243.317	0.134	-0.226
-513.843	362.400	0.160	0.322
-512.829	-110.135	0.276	0.058
-511.814	359.924	-0.156	0.312
-510.799	-103.908	0.046	-0.011
-509.785	-12.700	-0.323	-0.211
-508.770	-75.629	0.227	0.081
-507.756	24.813	-0.120	-0.099
-506.741	36.571	-0.202	-0.179
-505.726	64.810	0.230	-0.233
-504.712	178.858	0.122	0.179
-503.697	-200.000	0.046	0.236
-502.683	-131.654	0.293	-0.039
-501.668	751.335	0.115	0.312
-500.653	800.000	0.074	0.231
-499.639	800.000	0.084	-0.294
-498.624	-200.000	-0.060	-0.364
-497.610	42.358	-0.133	-0.121
-496.595	68.278	-0.145	-0.148
-495.581	74.141	-0.101	-0.106
-494.566	-64.513	-0.302	0.123
-493.551	78.974	0.161	0.173
-492.537	95.540	-0.129	-0.147
-491.522	-200.000	0.002	-0.394
-490.508	295.814	-0.101	0.186
-489.493	282.419	0.051	0.092
-488.478	-114.500	-0.163	0.031
-487.464	162.571	-0.142	0.199
-486.449	61.282	-0.134	-0.133
-485.435	800.000	-0.124	-0.437
-484.420	46.615	0.119	-0.111
-483.405	-17.104	-0.169	-0.107
-482.391	79.423	-0.250	0.269
-481.376	-87.906	0.091	-0.028
-480.362	-7.183	0.075	-0.051
-479.347	-10.480	0.134	-0.089
-478.332	-200.000	-0.013	0.122
-477.318	-166.121	-0.441	0.019
-476.303	74.854	0.059	0.062
-475.289	-200.000	0.024	0.159
-474.274	-8.944	0.075	0.051
-473.259	355.836	-0.159	0.316
-472.245	-98.982	0.421	0.107
-471.230	255.588	-0.084	-0.144
-470.216	-200.000	0.055	0.483
-469.201	-20.837	-0.106	-0.065
-468.186	-200.000	-0.020	0.230
-467.172	-28.266	-0.153	-0.088
-466.157	230.847	0.154	-0.252
-465.143	800.000	-0.061	-0.171
-464.128	800.000	0.094	-0.328
-463.113	546.405	0.151	0.360
-462.099	800.000	-0.054	-0.233
-461.084	-188.721	-0.465	0.006
-460.070	38.333	0.155	-0.138
-459.055	-83.969	-0.194	0.062
-458.040	-120.982	0.215	0.036
-457.026	192.164	-0.120	-0.181
-456.011	-34.628	-0.322	0.176
-454.997	-140.483	-0.176	-0.018
-453.982	-200.000	-0.007	-0.114
-452.968	-200.000	-0.007	-0.161
-451.953	800.000	-0.022	-0.060
-450.938	-200.000	-0.024	-0.360
-449.924	278.216	0.113	0.201
-448.909	18.785	-0.323	0.258
-447.895	-99.994	-0.244	-0.061
-446.880	632.901	-0.094	-0.239
-445.865	127.546	0.249	-0.316
-444.851	-113.365	0.476	0.094
-443.836	-98.747	-0.343	0.087
-442.822	-200.000	-0.003	0.078
-441.807	-200.000	0.006	-0.212
-440.792	44.522	0.172	-0.158
-439.778	11.774	-0.088	0.068
-438.763	800.000	-0.080	-0.265
-437.749	800.000	-0.049	-0.188
-436.734	-71.165	0.196	0.074
-435.719	-194.936	-0.328	0.003
-434.705	-76.878	0.331	0.116
-433.690	-38.620	0.182	0.096
-432.676	-93.636	0.232	0.064
-431.661	-200.000	-0.009	0.059
-430.646	-154.216	0.212	-0.014
-429.632	-67.737	-0.256	0.100
-428.617	-200.000	0.355	0.001
-427.603	-200.000	0.009	0.098
-426.588	203.671	-0.033	0.051
-425.573	-200.000	0.094	-0.509
-424.559	-200.000	0.065	0.401
-423.544	-24.793	0.064	-0.038
-422.530	-200.000	0.023	-0.196
-421.515	69.401	-0.151	0.155
-420.500	-16.269	-0.368	-0.234
-419.486	23.282	0.194	0.159
-418.471	-150.258	-0.385	-0.030
-417.457	-137.898	0.210	0.023
-416.442	-200.000	-0.052	-0.269
-415.428	-200.000	0.001	0.138
-414.413	800.000	-0.069	0.287
-413.398	-32.816	-0.161	0.089
-412.384	-58.767	0.483	0.209
-411.369	800.000	0.123	0.399
-410.355	105.580	0.206	-0.243
-409.340	-107.942	0.156	0.034
-408.325	-172.160	-0.127	0.004
-407.311	800.000	-0.086	-0.252
-406.296	-62.730	0.213	-0.088
-405.282	-200.000	-0.001	-0.171
-404.267	-31.776	0.276	0.154
-403.252	77.487	0.215	0.229
-402.238	-124.167	-0.263	0.041
-401.223	-74.897	0.107	-0.038
-400.209	205.028	0.200	-0.309
-399.194	-200.000	0.041	-0.207
-398.179	249.157	-0.197	-0.333
-397.165	79.167	-0.177	0.189
-396.150	-6.227	-0.148	-0.101
-395.136	-200.000	0.086	0.392
-394.121	-128.612	0.070	-0.010
-393.106	800.000	0.079	0.224
-392.092	324.800	0.032	0.060
-391.077	-200.000	-0.034	-0.198
-390.063	38.832	-0.064	0.057
-389.048	770.360	-0.066	0.178
-388.033	-200.000	-0.013	0.201
-387.019	475.586	-0.080	-0.181
-386.004	363.183	0.072	-0.145
-384.990	-200.000	-0.010	0.283
-383.975	800.000	-0.013	-0.045
-382.960	-116.515	0.056	0.010
-381.946	-61.170	-0.023	-0.010
-380.931	90.766	0.076	-0.085
-379.917	173.225	0.138	-0.199
-378.902	-167.596	0.265	0.011
-377.888	-46.883	-0.174	-0.085
-376.873	277.493	0.245	0.435
-375.858	800.000	0.044	-0.177
-374.844	-200.000	-0.024	0.129
-373.829	-51.122	0.401	-0.187
-372.815	-21.897	-0.282	0.171
-371.800	-141.495	-0.361	0.036
-370.785	419.608	-0.104	-0.222
-369.771	-144.787	-0.223	-0.020
-368.756	-200.000	-0.011	-0.102
-367.742	-200.000	0.066	0.321
-366.727	-129.234	-0.449	0.062
-365.712	-53.916	-0.331	-0.150
-364.698	-35.996	0.306	-0.165
-363.683	-200.000	0.049	0.218
-362.669	-50.966	0.150	-0.070
-361.654	152.715	-0.076	0.103
-360.639	300.694	-0.143	0.262
-359.625	-200.000	0.031	-0.221
-358.610	164.494	0.178	0.250
-357.596	-46.339	-0.411	0.201
-356.581	-200.000	-0.029	-0.172
-355.566	-129.213	0.248	0.034
-354.552	-126.634	-0.091	-0.013
-353.537	127.209	-0.079	-0.100
-352.523	-63.574	0.317	-0.129
-351.508	-85.520	-0.082	-0.026
-350.493	144.784	0.189	0.251
-349.479	129.489	0.087	0.111
-348.464	-13.058	0.224	-0.145
-347.450	377.985	-0.077	0.157
-346.435	-200.000	-0.001	-0.130
-345.420	-134.659	0.146	0.018
-344.406	-78.518	-0.403	-0.137
-343.391	7.195	-0.065	-0.048
-342.377	-200.000	0.044	0.274
-341.362	-151.906	-0.425	0.031
-340.348	-85.419	0.313	-0.097
-339.333	256.535	0.055	-0.093
-338.318	-200.000	0.026	-0.326
-337.304	-114.731	0.300	-0.057
-336.289	165.652	-0.146	-0.206
-335.275	-200.000	-0.003	0.337
-334.260	-200.000	0.040	0.341
-333.245	-128.437	0.184	-0.026
-332.231	800.000	0.035	0.146
-331.216	-69.817	-0.431	-0.164
-330.202	153.310	-0.122	-0.166
-329.187	31.920	0.280	0.240
-328.172	-178.180	0.171	-0.004
-327.158	-44.438	0.381	-0.190
-326.143	136.692	-0.049	-0.063
-325.129	800.000	0.075	-0.236
-324.114	-31.836	-0.156	-0.087
-323.099	343.758	-0.036	0.070
-322.085	48.791	-0.152	-0.142
-321.070	48.246	0.035	0.032
-320.056	-200.000	0.000	0.051
-319.041	-82.142	-0.388	0.126
-318.026	3.284	-0.159	-0.115
-317.012	280.928	0.071	-0.126
-315.997	-200.000	0.049	0.325
-314.983	-160.491	0.391	-0.021
-313.968	13.991	-0.053	-0.041
-312.953	-24.473	-0.216	-0.128
-311.939	324.107	-0.104	0.197
-310.924	158.836	-0.130	-0.180
-309.910	-40.399	-0.447	0.231
-308.895	-200.000	-0.036	0.424
-307.880	-102.263	-0.241	-0.058
-306.866	-100.466	0.218	0.054
-305.851	-200.000	-0.042	-0.282
-304.837	-65.211	0.318	0.127
-303.822	800.000	-0.087	-0.239
-302.807	-12.196	-0.277	-0.180
-301.793	-88.968	-0.213	-0.063
-300.778	224.105	-0.100	0.160
-299.764	-89.212	-0.075	-0.022
-298.749	-200.000	-0.004	0.068
-297.735	111.909	0.179	0.215
-296.720	54.616	0.200	0.192
-295.705	-159.074	-0.069	-0.004
-294.691	224.580	-0.130	0.209
-293.676	-25.693	-0.202	-0.118
-292.662	-61.556	-0.318	-0.133
-291.647	-105.278	-0.115	0.026
-290.632	21.384	-0.122	0.099
-289.618	230.275	-0.092	-0.150
-288.603	-200.000	-0.026	0.189
-287.589	28.846	0.077	-0.065
-286.574	-73.821	-0.185	0.067
-285.559	-200.000	-0.007	0.125
-284.545	621.163	0.111	0.278
-283.530	-86.672	-0.243	0.074
-282.516	-200.000	0.041	0.266
-281.501	172.481	-0.044	-0.063
-280.486	-94.365	0.084	0.023
-279.472	-13.790	-0.093	-0.060
-278.457	25.782	0.164	-0.135
-277.443	451.208	-0.064	-0.141
-276.428	-200.000	-0.034	0.218
-275.413	175.481	-0.133	-0.192
-274.399	42.721	0.151	0.137
-273.384	153.767	-0.131	0.179
-272.370	-88.055	0.453	0.135
-271.355	-86.809	-0.093	-0.028
-270.340	95.796	-0.147	-0.166
-269.326	-200.000	0.018	0.203
-268.311	800.000	-0.057	-0.174
-267.297	486.242	-0.187	-0.423
-266.282	-139.568	0.250	-0.026
-265.267	-200.000	0.014	-0.183
-264.253	295.114	0.127	0.231
-263.238	-200.000	-0.006	0.044
-262.224	68.120	-0.039	-0.039
-261.209	-200.000	0.005	0.063
-260.195	50.193	-0.274	0.257
-259.180	447.484	-0.158	-0.344
-258.165	125.347	0.171	-0.214
-257.151	273.485	0.015	-0.027
-256.136	-20.170	0.173	-0.106
-255.122	-172.740	0.244	0.008
-254.107	-104.269	-0.128	0.029
-253.092	-90.046	0.472	-0.137
-252.078	-200.000	0.003	0.287
-251.063	-200.000	-0.010	0.398
-250.049	38.209	-0.203	0.179
-249.034	266.107	0.177	-0.307
-248.019	-79.574	0.426	-0.143
-247.005	-39.789	-0.123	0.064
-245.990	-69.747	0.098	-0.037
-244.976	154.470	-0.162	-0.221
-243.961	505.688	0.146	-0.336
-242.946	88.686	-0.131	-0.144
-241.932	-200.000	-0.008	0.069
-240.917	800.000	-0.084	-0.266
-239.903	-65.401	-0.359	0.143
-238.888	277.206	0.178	0.314
-237.873	160.512	-0.125	0.173
-236.859	675.076	0.213	-0.549
-235.844	800.000	-0.067	-0.239
-234.830	-42.309	-0.254	0.128
-233.815	49.111	-0.151	0.141
-232.800	-200.000	0.013	-0.272
-231.786	58.488	0.248	0.242
-230.771	398.594	0.106	0.220
-229.757	-81.888	0.134	0.044
-228.742	-48.674	0.186	-0.089
-227.727	-162.270	-0.128	0.006
-226.713	265.272	-0.207	-0.358
-225.698	125.360	0.180	-0.226
-224.684	-200.000	-0.017	0.172
-223.669	41.185	0.160	0.143
-222.655	800.000	-0.030	0.102
-221.640	-200.000	0.011	0.086
-220.625	800.000	-0.038	0.119
-219.611	366.003	0.134	0.267
-218.596	-47.269	0.135	-0.065
-217.582	800.000	-0.037	0.156
-216.567	800.000	-0.099	0.356
-215.552	-51.792	-0.321	0.148
-214.538	-65.879	0.259	0.103
-213.523	-200.000	0.011	0.131
-212.509	103.631	-0.161	-0.188
-211.494	-200.000	-0.013	-0.391
-210.479	130.369	0.095	0.121
-209.465	357.593	0.189	0.373
-208.450	52.398	0.186	0.176
-207.436	27.329	0.141	0.117
-206.421	-200.000	0.008	0.442
-205.406	659.258	-0.140	-0.358
-204.392	-149.900	0.230	-0.018
-203.377	-135.680	0.160	-0.019
-202.363	-21.463	-0.238	0.144
-201.348	-171.358	-0.244	-0.008
-200.333	32.357	-0.208	-0.178
-199.319	-41.213	-0.095	0.049
-198.304	290.834	0.145	-0.260
-197.290	-37.595	0.358	0.189
-196.275	-121.684	0.352	-0.058
-195.260	-93.015	0.174	0.048
-194.246	242.519	-0.089	0.148
-193.231	181.924	0.125	0.183
-192.217	800.000	-0.057	0.171
-191.202	221.176	-0.038	0.060
-190.187	273.191	0.042	-0.074
-189.173	800.000	0.064	-0.187
-188.158	268.112	0.040	0.069
-187.144	204.551	0.091	-0.139
-186.129	86.720	-0.104	0.113
-185.114	-200.000	-0.023	0.294
-184.100	61.288	-0.075	-0.074
-183.085	19.511	0.140	0.111
-182.071	19.556	-0.105	-0.083
-181.056	388.475	-0.062	0.127
-180.042	512.902	-0.069	-0.159
-179.027	6.927	-0.156	-0.115
-178.012	-33.278	-0.201	0.110
-176.998	68.127	-0.060	-0.061
-175.983	31.556	0.206	0.175
-174.969	-200.000	-0.015	0.127
-173.954	162.979	0.121	0.167
-172.939	-200.000	0.018	0.273
-171.925	-136.895	0.317	0.036
-170.910	-200.000	0.036	-0.217
-169.896	-134.510	0.275	-0.033
-168.881	-27.761	-0.078	-0.045
-167.866	4.706	-0.076	-0.055
-166.852	399.992	0.157	-0.326
-165.837	-200.000	-0.015	-0.108
-164.823	53.230	-0.216	-0.205
-163.808	132.172	0.098	-0.125
-162.793	302.783	0.142	0.259
-161.779	-40.129	0.365	0.188
-160.764	-141.199	0.251	0.025
-159.750	-25.056	0.469	0.275
-158.735	51.126	-0.076	-0.071
-157.720	24.193	0.072	-0.058
-156.706	670.587	0.094	0.240
-155.691	78.574	-0.321	0.339
-154.677	-56.610	0.412	-0.180
-153.662	351.878	0.075	0.147
-152.647	-200.000	0.007	0.040
-151.633	-90.344	0.252	0.072
-150.618	-25.482	0.207	0.121
-149.604	200.145	0.084	0.128
-148.589	800.000	0.049	0.179
-147.574	-33.688	0.281	0.153
-146.560	800.000	0.065	-0.273
-145.545	506.550	-0.079	-0.180
-144.531	25.662	-0.190	0.157
-143.516	86.680	0.043	0.047
-142.502	111.273	0.064	0.076
-141.487	-200.000	-0.006	-0.043
-140.472	-60.802	-0.182	0.076
-139.458	-97.840	-0.123	-0.031
-138.443	-135.179	0.133	0.016
-137.429	-89.548	-0.102	0.030
-136.414	32.254	0.178	-0.152
-135.399	-200.000	-0.015	-0.398
-134.385	-46.067	0.167	-0.081
-133.370	694.081	-0.056	0.146
-132.356	-200.000	0.019	0.347
-131.341	-144.545	-0.120	-0.011
-130.326	36.850	-0.142	-0.124
-129.312	-44.985	-0.262	0.129
-128.297	800.000	-0.096	0.266
-127.283	-97.019	-0.344	-0.089
-126.268	-22.190	0.381	-0.228
-125.253	800.000	-0.098	-0.278
-124.239	342.733	-0.141	-0.273
-123.224	56.096	0.298	0.286
-122.210	43.692	0.394	-0.356
