DTS Sentinel unit serial number:	SN413079Multiplexer serial number:	ORYXHardware model number:	OX4-SRSoftware version number:	ORYX F/W v4.00 Oryx Data Collector v3.7.2.0data status	okinstallation	princeton_trtdifferential loss correction	single-endedforward channel	channel 3reverse channel	N/Adate	2019/09/14time	17:28:34forward acquisition time	60.00reverse acquisition time	0.00gamma	496.2192k internal	0.2296k external	0.2296temperature offset calibration	1.0031default loss term (dB/km)	0.3790temperature slope calibration	1.0000multiplexer offset coefficient	1.0000multiplexer slope coefficient	1.0000fibre end	0.00T internal ref (°C)	37.70T ext. ref 1 (°C)	5.05T ext. ref 2 (°C)	32.21length (m)	temperature (°C)	Stokes	anti-Stokes-747.200	800.000	0.034	-0.109
-746.185	-52.386	-0.169	0.080
-745.171	-180.953	-0.217	-0.004
-744.156	3.285	-0.176	0.131
-743.142	-11.088	0.306	-0.206
-742.127	-98.103	0.083	-0.022
-741.112	-135.208	0.045	-0.006
-740.098	-103.019	-0.343	0.083
-739.083	800.000	0.128	-0.501
-738.069	-81.366	0.121	0.041
-737.054	-200.000	-0.005	-0.258
-736.039	-135.750	-0.242	-0.029
-735.025	212.954	-0.088	0.141
-734.010	-146.790	-0.215	0.019
-732.996	-104.042	-0.045	0.011
-731.981	129.811	-0.224	0.292
-730.966	-52.242	0.205	-0.097
-729.952	177.841	-0.129	-0.193
-728.937	699.937	-0.093	0.250
-727.923	-137.552	-0.269	0.031
-726.908	192.682	-0.171	0.264
-725.894	92.604	-0.205	-0.237
-724.879	-50.314	0.055	0.027
-723.864	-49.381	-0.147	0.072
-722.850	-120.857	-0.342	0.059
-721.835	76.228	-0.100	-0.108
-720.821	-112.905	-0.232	0.047
-719.806	-136.411	0.153	-0.018
-718.791	-200.000	-0.046	-0.737
-717.777	178.827	-0.312	-0.465
-716.762	-113.369	0.082	-0.016
-715.748	260.946	0.182	-0.321
-714.733	-126.473	-0.090	0.014
-713.718	-92.986	-0.519	-0.148
-712.704	235.170	-0.116	0.195
-711.689	-200.000	0.019	-0.116
-710.675	52.949	0.085	-0.083
-709.660	800.000	0.060	0.240
-708.645	800.000	0.057	-0.173
-707.631	434.901	0.055	-0.122
-706.616	-90.457	-0.129	0.038
-705.602	-0.296	0.084	0.061
-704.587	800.000	0.021	0.081
-703.572	69.413	0.079	-0.083
-702.558	-200.000	-0.006	0.241
-701.543	93.000	-0.099	0.114
-700.529	70.268	-0.096	-0.101
-699.514	-89.616	-0.069	0.021
-698.499	86.110	-0.088	-0.099
-697.485	-200.000	-0.065	0.415
-696.470	-92.904	-0.042	-0.012
-695.456	613.096	-0.101	-0.258
-694.441	123.645	-0.355	-0.454
-693.426	-193.829	-0.330	-0.003
-692.412	159.522	-0.016	0.022
-691.397	243.030	0.135	-0.230
-690.383	300.551	-0.046	0.086
-689.368	-82.029	-0.023	-0.008
-688.354	-13.452	-0.029	-0.019
-687.339	-7.323	-0.350	-0.242
-686.324	539.469	0.058	0.142
-685.310	366.672	0.110	0.225
-684.295	25.024	-0.198	-0.168
-683.281	-62.855	0.028	-0.012
-682.266	329.468	0.079	-0.155
-681.251	509.977	-0.142	-0.336
-680.237	-63.378	-0.092	-0.039
-679.222	-124.684	0.377	0.060
-678.208	-200.000	-0.029	-0.268
-677.193	11.037	-0.202	0.158
-676.178	-106.004	-0.237	-0.054
-675.164	-199.022	-0.083	-0.000
-674.149	-70.523	-0.382	0.147
-673.135	137.949	-0.245	-0.327
-672.120	57.453	-0.098	-0.098
-671.105	-200.000	-0.027	0.175
-670.091	-152.668	-0.169	0.012
-669.076	-45.870	-0.170	-0.086
-668.062	800.000	-0.064	-0.201
-667.047	-75.306	-0.309	0.112
-666.032	-67.177	-0.269	-0.108
-665.018	-200.000	-0.008	0.124
-664.003	-39.461	-0.198	0.106
-662.989	240.504	0.169	-0.287
-661.974	-39.742	0.154	-0.082
-660.959	-76.346	0.210	0.075
-659.945	248.771	0.096	0.166
-658.930	-105.886	-0.124	0.028
-657.916	-200.000	0.015	-0.155
-656.901	484.506	-0.057	-0.132
-655.886	-178.277	0.075	-0.002
-654.872	178.239	0.047	0.070
-653.857	-111.473	-0.192	0.040
-652.843	-162.331	-0.328	-0.017
-651.828	-149.657	-0.115	-0.009
-650.814	-21.672	0.217	-0.135
-649.799	-76.652	-0.259	-0.093
-648.784	-200.000	-0.030	-0.229
-647.770	-0.659	-0.148	-0.107
-646.755	168.753	-0.215	-0.312
-645.741	-72.675	-0.282	-0.106
-644.726	44.351	0.083	0.077
-643.711	800.000	0.117	-0.335
-642.697	-25.080	-0.297	0.179
-641.682	104.256	-0.284	-0.340
-640.668	-200.000	-0.039	-0.243
-639.653	-71.902	0.222	0.084
-638.638	-200.000	-0.001	-0.097
-637.624	18.981	-0.240	0.196
-636.609	669.875	-0.047	0.124
-635.595	-123.570	0.087	-0.014
-634.580	78.548	0.110	-0.119
-633.565	800.000	0.079	0.224
-632.551	111.908	0.057	0.070
-631.536	800.000	-0.037	-0.144
-630.522	-87.468	0.074	0.023
-629.507	416.998	-0.137	0.297
-628.492	-111.294	-0.417	0.087
-627.478	-74.606	0.158	-0.058
-626.463	800.000	-0.096	-0.312
-625.449	373.013	0.100	-0.208
-624.434	121.619	-0.023	-0.029
-623.419	-71.123	-0.125	0.048
-622.405	78.038	-0.148	-0.161
-621.390	32.793	0.163	0.143
-620.376	-200.000	0.011	-0.066
-619.361	-200.000	0.025	-0.139
-618.346	10.180	-0.310	0.240
-617.332	236.793	0.144	-0.242
-616.317	114.186	0.084	0.104
-615.303	-22.062	0.172	-0.106
-614.288	3.030	0.112	0.082
-613.273	-200.000	0.060	-0.267
-612.259	-200.000	0.037	-0.165
-611.244	-200.000	0.024	-0.276
-610.230	800.000	0.096	-0.325
-609.215	-200.000	-0.050	-0.240
-608.201	-79.610	-0.269	0.092
-607.186	156.527	-0.117	-0.164
-606.171	-2.671	0.171	0.122
-605.157	151.014	-0.079	0.110
-604.142	300.962	0.112	-0.211
-603.128	-109.414	0.055	-0.012
-602.113	-25.841	-0.194	-0.116
-601.098	-9.695	0.178	-0.120
-600.084	-200.000	-0.011	-0.199
-599.069	-25.297	0.106	0.064
-598.055	12.226	0.256	-0.201
-597.040	67.769	-0.045	0.046
-596.025	-36.584	0.229	0.125
-595.011	-14.300	0.256	-0.167
-593.996	383.367	0.015	-0.031
-592.982	-200.000	-0.002	-0.171
-591.967	-91.688	0.107	0.031
-590.952	-36.907	-0.362	0.197
-589.938	-155.207	0.302	-0.020
-588.923	-200.000	0.001	-0.168
-587.909	29.518	-0.088	-0.076
-586.894	369.968	-0.147	0.301
-585.879	-107.294	0.134	-0.030
-584.865	-200.000	0.054	0.255
-583.850	-200.000	-0.017	0.124
-582.836	-42.377	-0.186	0.097
-581.821	800.000	-0.013	-0.052
-580.806	491.269	0.083	0.192
-579.792	-135.505	-0.420	0.051
-578.777	800.000	-0.054	-0.216
-577.763	-119.941	-0.127	0.022
-576.748	-81.507	0.169	0.056
-575.733	107.011	-0.092	-0.111
-574.719	-196.763	0.130	0.001
-573.704	23.878	-0.230	0.193
-572.690	-3.269	0.294	0.208
-571.675	-200.000	-0.004	-0.053
-570.661	-200.000	-0.039	-0.275
-569.646	692.474	-0.065	0.173
-568.631	-200.000	-0.046	0.343
-567.617	-9.060	-0.105	-0.071
-566.602	-7.330	-0.118	-0.081
-565.588	800.000	-0.051	0.222
-564.573	-151.007	0.340	-0.026
-563.558	-59.031	-0.198	0.087
-562.544	123.473	-0.075	-0.096
-561.529	339.071	0.037	-0.074
-560.515	-80.533	-0.284	0.096
-559.500	-150.471	0.213	0.017
-558.485	-43.046	-0.111	0.057
-557.471	-21.691	0.172	-0.106
-556.456	-36.540	0.152	-0.083
-555.442	9.392	-0.343	0.263
-554.427	228.160	-0.101	0.166
-553.412	62.391	0.299	-0.303
-552.398	130.342	0.195	-0.253
-551.383	-200.000	0.005	0.194
-550.369	-58.609	-0.169	-0.074
-549.354	-200.000	-0.016	0.121
-548.339	-116.587	0.319	-0.060
-547.325	-42.846	-0.163	0.084
-546.310	-200.000	0.013	-0.314
-545.296	103.633	-0.199	0.237
-544.281	800.000	-0.046	0.171
-543.266	76.272	0.179	-0.192
-542.252	-200.000	-0.032	-0.355
-541.237	80.991	-0.126	-0.137
-540.223	261.109	-0.185	0.325
-539.208	-97.933	-0.269	-0.070
-538.193	-33.708	0.215	-0.120
-537.179	-144.123	0.170	0.016
-536.164	532.401	-0.022	-0.053
-535.150	-47.802	0.329	0.161
-534.135	797.685	-0.082	-0.230
-533.121	-200.000	0.005	-0.145
-532.106	-63.742	-0.347	-0.144
-531.091	-200.000	-0.029	0.444
-530.077	129.410	-0.175	0.227
-529.062	-139.826	-0.126	-0.014
-528.048	362.637	0.230	-0.468
-527.033	264.526	-0.107	-0.188
-526.018	102.146	0.177	0.210
-525.004	-200.000	0.042	0.219
-523.989	-27.540	-0.241	0.142
-522.975	-145.469	-0.310	-0.028
-521.960	-33.750	-0.120	0.067
-520.945	800.000	-0.050	0.204
-519.931	-200.000	-0.016	0.130
-518.916	-144.937	-0.362	-0.034
-517.902	-126.501	0.161	-0.024
-516.887	800.000	0.039	-0.114
-515.872	-200.000	0.015	0.124
-514.858	-200.000	-0.029	-0.190
-513.843	-63.580	0.159	0.066
-512.829	38.225	0.065	-0.059
-511.814	-200.000	0.004	-0.208
-510.799	-35.149	-0.159	-0.088
-509.785	-89.777	0.045	0.013
-508.770	-200.000	0.056	-0.365
-507.756	-200.000	0.011	0.054
-506.741	11.155	-0.184	0.143
-505.726	32.243	-0.040	-0.035
-504.712	-159.172	0.275	0.016
-503.697	351.004	0.096	-0.192
-502.683	124.408	-0.139	0.177
-501.668	104.598	0.219	-0.262
-500.653	-191.787	-0.299	-0.003
-499.639	58.769	0.127	0.126
-498.624	-109.517	0.255	0.055
-497.610	-200.000	-0.052	0.454
-496.595	409.052	-0.145	0.310
-495.581	800.000	-0.025	-0.092
-494.566	41.349	0.062	-0.057
-493.551	183.342	0.063	0.095
-492.537	-76.667	0.355	-0.126
-491.522	-200.000	0.019	0.094
-490.508	758.209	0.063	-0.172
-489.493	-200.000	0.040	-0.203
-488.478	-200.000	-0.005	0.073
-487.464	-200.000	0.026	-0.120
-486.449	-200.000	0.020	-0.275
-485.435	284.674	0.073	0.133
-484.420	302.856	-0.167	-0.313
-483.405	113.173	0.106	0.130
-482.391	72.818	-0.068	-0.072
-481.376	-119.922	0.161	0.028
-480.362	-35.822	-0.057	0.031
-479.347	800.000	-0.060	-0.188
-478.332	35.421	-0.184	0.163
-477.318	-117.653	-0.133	-0.024
-476.303	20.222	0.061	-0.050
-475.289	451.761	0.121	-0.271
-474.274	-141.157	0.141	0.015
-473.259	-200.000	-0.005	-0.026
-472.245	187.176	0.169	-0.254
-471.230	-172.849	-0.480	0.015
-470.216	100.725	0.190	0.224
-469.201	309.791	0.068	-0.129
-468.186	-186.571	0.146	-0.002
-467.172	800.000	0.079	-0.230
-466.157	196.241	0.116	-0.179
-465.143	-65.383	0.199	-0.081
-464.128	-47.955	-0.256	-0.125
-463.113	31.918	-0.175	-0.153
-462.099	-101.743	0.303	-0.074
-461.084	-56.703	0.103	-0.046
-460.070	456.917	-0.005	-0.011
-459.055	-60.396	-0.071	-0.030
-458.040	-200.000	-0.038	0.270
-457.026	-200.000	0.012	0.073
-456.011	-70.339	0.446	0.171
-454.997	-200.000	-0.004	0.118
-453.982	-200.000	0.040	-0.201
-452.968	-134.664	-0.557	0.068
-451.953	25.865	-0.089	-0.075
-450.938	-167.429	0.132	-0.005
-449.924	785.745	-0.023	-0.063
-448.909	-67.572	-0.171	0.068
-447.895	41.056	-0.195	-0.178
-446.880	195.028	-0.024	0.037
-445.865	106.688	0.046	0.055
-444.851	322.416	-0.133	0.256
-443.836	72.784	-0.119	0.125
-442.822	229.058	-0.143	-0.235
-441.807	186.984	0.087	-0.130
-440.792	-117.190	-0.285	0.052
-439.778	-39.017	-0.022	0.012
-438.763	88.148	0.137	0.154
-437.749	240.789	-0.136	-0.229
-436.734	-61.579	-0.360	-0.153
-435.719	167.659	0.092	0.132
-434.705	-70.402	0.196	-0.075
-433.690	293.705	0.134	0.247
-432.676	-106.850	-0.217	-0.049
-431.661	800.000	-0.048	0.160
-430.646	175.815	0.111	0.162
-429.632	-46.873	0.173	-0.085
-428.617	-128.087	-0.107	-0.015
-427.603	-61.003	-0.064	-0.027
-426.588	-200.000	0.019	0.127
-425.573	157.950	-0.076	-0.106
-424.559	284.705	0.164	-0.298
-423.544	229.255	-0.101	-0.166
-422.530	-200.000	-0.000	0.091
-421.515	604.628	0.032	0.081
-420.500	352.795	-0.048	0.097
-419.486	-2.116	0.212	-0.150
-418.471	-127.286	-0.114	-0.017
-417.457	-66.251	0.190	-0.076
-416.442	5.099	-0.246	-0.183
-415.428	-26.143	-0.174	0.103
-414.413	800.000	0.102	-0.348
-413.398	221.264	0.111	0.180
-412.384	-40.703	0.353	0.185
-411.369	-200.000	0.019	-0.164
-410.355	-169.067	0.162	-0.006
-409.340	-200.000	-0.003	-0.282
-408.325	-56.376	0.099	-0.044
-407.311	-43.160	-0.160	0.082
-406.296	352.678	0.055	-0.110
-405.282	-200.000	-0.005	-0.090
-404.267	0.982	-0.213	-0.154
-403.252	800.000	0.012	-0.046
-402.238	-200.000	0.030	-0.206
-401.223	-187.462	0.175	0.002
-400.209	467.478	-0.093	-0.209
-399.194	800.000	-0.064	0.276
-398.179	65.428	0.194	0.198
-397.165	244.141	0.135	0.229
-396.150	-72.731	0.280	-0.104
-395.136	320.378	0.141	-0.271
-394.121	800.000	0.092	-0.277
-393.106	-200.000	-0.037	-0.163
-392.092	42.436	0.065	0.060
-391.077	71.583	0.153	0.161
-390.063	27.098	0.290	0.245
-389.048	-7.114	0.129	0.088
-388.033	-200.000	-0.022	-0.151
-387.019	-18.129	0.346	0.218
-386.004	93.198	-0.104	0.118
-384.990	-67.428	-0.174	-0.069
-383.975	-87.697	-0.280	0.085
-382.960	144.706	-0.118	0.159
-381.946	121.106	0.149	0.187
-380.931	-200.000	-0.015	-0.223
-379.917	11.294	-0.148	0.114
-378.902	71.257	0.253	0.264
-377.888	-136.084	-0.261	-0.031
-376.873	25.053	0.101	0.084
-375.858	25.771	-0.059	0.050
-374.844	95.174	-0.126	0.145
-373.829	333.696	-0.255	0.498
-372.815	59.182	0.164	0.163
-371.800	34.757	0.098	0.086
-370.785	-11.257	0.281	-0.187
-369.771	-20.178	0.186	0.115
-368.756	30.440	-0.348	-0.299
-367.742	-16.617	-0.175	0.112
-366.727	-21.283	-0.047	0.029
-365.712	800.000	-0.101	0.308
-364.698	384.639	-0.044	-0.092
-363.683	-173.346	0.195	-0.006
-362.669	-65.637	-0.136	-0.055
-361.654	186.412	0.090	0.135
-360.639	733.196	-0.170	-0.459
-359.625	-200.000	-0.004	-0.147
-358.610	25.916	0.122	0.103
-357.596	-39.875	0.278	-0.146
-356.581	-200.000	-0.057	0.301
-355.566	302.235	0.040	-0.074
-354.552	-15.194	-0.337	0.217
-353.537	-112.618	-0.228	0.046
-352.523	550.547	-0.064	0.155
-351.508	-92.072	0.115	0.033
-350.493	73.002	0.112	-0.117
-349.479	-200.000	0.002	-0.055
-348.464	-2.775	0.260	-0.183
-347.450	-36.698	0.344	0.186
-346.435	-40.769	0.262	0.137
-345.420	115.848	-0.076	-0.093
-344.406	722.078	-0.033	0.088
-343.391	-153.828	-0.366	0.025
-342.377	-147.019	0.005	0.000
-341.362	-200.000	0.024	-0.221
-340.348	-7.193	0.079	0.054
-339.333	-127.426	-0.079	0.012
-338.318	-27.883	0.120	-0.070
-337.304	-75.682	0.227	0.081
-336.289	-55.665	-0.129	-0.058
-335.275	60.575	0.142	0.142
-334.260	-18.564	-0.192	-0.120
-333.245	290.059	0.046	-0.084
-332.231	-55.552	-0.296	-0.133
-331.216	-49.202	-0.194	-0.093
-330.202	800.000	0.121	-0.381
-329.187	-70.561	0.528	-0.201
-328.172	353.185	0.058	0.116
-327.158	-200.000	0.001	0.205
-326.143	-200.000	0.041	0.205
-325.129	0.554	0.159	-0.114
-324.114	800.000	-0.143	0.508
-323.099	222.556	-0.151	0.245
-322.085	93.570	-0.026	-0.030
-321.070	276.560	-0.166	0.297
-320.056	-200.000	0.018	0.276
-319.041	430.853	0.034	-0.075
-318.026	3.047	0.066	0.048
-317.012	458.318	0.064	-0.144
-315.997	-34.555	-0.184	0.101
-314.983	-200.000	0.042	-0.186
-313.968	-91.338	-0.243	0.070
-312.953	219.673	-0.329	0.528
-311.939	80.982	0.089	0.096
-310.924	-72.590	-0.118	0.044
-309.910	-200.000	-0.003	-0.075
-308.895	-131.844	-0.264	0.035
-307.880	551.687	-0.015	0.036
-306.866	-200.000	-0.024	0.124
-305.851	138.560	0.215	0.284
-304.837	179.595	0.183	0.269
-303.822	210.547	-0.081	0.127
-302.807	-83.408	-0.171	0.055
-301.793	-114.773	-0.457	0.088
-300.778	-39.256	0.470	0.248
-299.764	-38.554	0.348	-0.184
-298.749	-30.890	-0.075	-0.042
-297.735	280.346	0.071	-0.127
-296.720	-17.233	0.134	0.085
-295.705	732.037	-0.048	0.128
-294.691	231.431	0.070	-0.114
-293.676	24.509	-0.188	-0.156
-292.662	-47.074	0.511	0.250
-291.647	-115.077	-0.181	-0.035
-290.632	-200.000	0.038	0.274
-289.618	-126.270	-0.609	0.091
-288.603	-99.697	-0.184	0.046
-287.589	272.591	0.059	0.104
-286.574	-173.949	-0.136	-0.004
-285.559	167.295	0.051	0.073
-284.545	-200.000	0.007	-0.131
-283.530	-11.090	0.337	0.223
-282.516	-91.474	0.307	-0.088
-281.501	778.617	0.117	0.321
-280.486	-166.928	-0.097	0.004
-279.472	-29.222	0.211	-0.121
-278.457	800.000	-0.041	-0.145
-277.443	9.690	0.401	-0.305
-276.428	-54.299	-0.342	-0.156
-275.413	-137.396	0.296	0.034
-274.399	-91.558	-0.261	0.075
-273.384	-88.669	0.109	0.032
-272.370	-149.769	0.179	0.014
-271.355	800.000	-0.063	0.202
-270.340	800.000	-0.055	-0.199
-269.326	35.581	0.273	0.241
-268.311	-74.336	0.265	-0.096
-267.297	-119.726	-0.142	0.025
-266.282	-200.000	-0.034	0.316
-265.267	204.597	-0.235	-0.366
-264.253	-80.120	-0.147	-0.049
-263.238	-32.974	0.151	0.084
-262.224	800.000	-0.038	-0.147
-261.209	443.499	0.068	-0.150
-260.195	800.000	0.040	0.136
-259.180	-14.627	-0.078	0.050
-258.165	167.992	-0.194	0.277
-257.151	36.183	0.235	-0.208
-256.136	-199.857	-0.291	0.001
-255.122	-200.000	-0.088	-0.494
-254.107	-200.000	0.025	0.183
-253.092	-200.000	0.001	-0.026
-252.078	147.543	-0.116	0.157
-251.063	-136.118	0.258	-0.030
-250.049	353.107	-0.082	-0.163
-249.034	-83.841	0.133	0.043
-248.019	-200.000	-0.075	0.379
-247.005	-138.653	-0.181	-0.020
-245.990	69.522	0.043	0.044
-244.976	-92.442	0.091	0.026
-243.961	99.567	0.145	-0.169
-242.946	-34.176	-0.266	-0.146
-241.932	731.045	-0.125	0.335
-240.917	138.002	-0.142	0.186
-239.903	-170.448	0.186	0.007
-238.888	185.374	-0.060	-0.089
-237.873	81.742	0.434	-0.470
-236.859	-80.138	-0.223	0.075
-235.844	-50.918	-0.126	-0.059
-234.830	328.698	-0.137	-0.263
-233.815	40.989	-0.132	0.120
-232.800	-64.944	-0.177	-0.072
-231.786	-68.763	0.198	0.077
-230.771	-87.599	0.337	0.102
-229.757	-6.402	0.271	-0.185
-228.742	-94.202	0.064	-0.018
-227.727	-33.462	0.186	0.103
-226.713	182.930	-0.110	0.163
-225.698	219.346	-0.104	-0.166
-224.684	279.909	0.055	-0.098
-223.669	-88.574	-0.136	0.041
-222.655	367.415	-0.096	0.194
-221.640	-200.000	0.017	0.135
-220.625	201.231	-0.091	0.140
-219.611	-68.774	-0.433	-0.167
-218.596	-130.857	0.230	-0.031
-217.582	-131.011	0.222	-0.030
-216.567	-200.000	0.022	0.274
-215.552	-65.622	-0.209	0.084
-214.538	-200.000	-0.037	0.464
-213.523	-15.000	-0.408	0.261
-212.509	265.660	-0.156	-0.272
-211.494	-11.395	-0.086	0.056
-210.479	-145.380	0.457	0.041
-209.465	-200.000	-0.011	0.078
-208.450	-162.918	-0.219	0.011
-207.436	83.400	0.147	0.160
-206.421	86.119	-0.239	0.263
-205.406	800.000	0.058	0.186
-204.392	800.000	-0.046	-0.159
-203.377	-98.087	0.301	-0.077
-202.363	90.624	0.167	-0.187
-201.348	310.322	-0.085	0.158
-200.333	800.000	-0.018	0.075
-199.319	-200.000	0.011	0.105
-198.304	-41.597	-0.081	0.042
-197.290	21.114	0.109	0.089
-196.275	32.646	-0.165	-0.143
-195.260	77.207	-0.112	-0.120
-194.246	800.000	0.037	0.151
-193.231	-200.000	0.062	-0.346
-192.217	800.000	-0.039	-0.117
-191.202	800.000	0.090	0.387
-190.187	34.422	0.121	0.105
-189.173	-200.000	-0.077	-0.341
-188.158	83.024	0.141	0.153
-187.144	-97.196	0.305	-0.080
-186.129	-30.612	0.239	-0.136
-185.114	390.379	0.118	0.245
-184.100	-200.000	-0.016	-0.163
-183.085	-200.000	-0.016	-0.075
-182.071	-82.359	0.274	-0.089
-181.056	45.698	-0.182	0.168
-180.042	-200.000	0.001	0.199
-179.027	-200.000	0.001	-0.232
-178.012	-98.096	-0.263	0.068
-176.998	257.586	-0.067	-0.115
-175.983	-36.733	0.235	-0.126
-174.969	176.592	-0.161	-0.233
-173.954	365.527	-0.067	0.135
-172.939	232.511	0.175	-0.287
-171.925	-64.071	-0.428	0.175
-170.910	99.468	-0.161	0.187
-169.896	678.212	0.060	0.157
-168.881	-102.623	-0.260	-0.062
-167.866	189.495	0.174	0.260
-166.852	350.537	0.063	0.124
-165.837	62.681	0.164	-0.163
-164.823	744.280	-0.139	0.374
-163.808	-200.000	-0.029	-0.328
-162.793	-10.304	-0.171	-0.113
-161.779	-200.000	-0.002	-0.107
-160.764	331.264	0.187	-0.361
-159.750	-38.336	0.382	0.202
-158.735	-63.346	0.242	0.100
-157.720	-200.000	-0.013	0.080
-156.706	62.922	-0.113	0.113
-155.691	393.701	-0.108	-0.224
-154.677	-14.270	0.021	0.013
-153.662	-105.902	-0.074	0.017
-152.647	-54.491	0.285	-0.129
-151.633	-123.153	0.045	0.007
-150.618	-26.211	-0.224	0.131
-149.604	800.000	0.101	0.320
-148.589	-200.000	-0.000	0.035
-147.574	-93.010	-0.276	0.077
-146.560	-200.000	0.049	0.333
-145.545	-125.148	0.319	0.049
-144.531	-112.711	0.229	0.046
-143.516	-82.938	-0.208	0.067
-142.502	-155.575	0.134	-0.009
-141.487	37.232	0.090	0.080
-140.472	800.000	-0.059	0.225
-139.458	-200.000	-0.003	-0.018
-138.443	0.463	-0.328	-0.234
-137.429	800.000	0.057	0.221
-136.414	-200.000	-0.078	0.386
-135.399	-200.000	-0.023	-0.112
-134.385	-84.031	-0.448	0.142
-133.370	-22.657	0.090	0.054
-132.356	-135.502	-0.163	0.019
-131.341	-39.277	0.170	0.089
-130.326	-58.662	-0.199	0.086
-129.312	-115.258	0.233	0.044
-128.297	-8.483	0.410	-0.275
-127.283	-91.952	0.162	0.046
-126.268	-6.097	0.257	0.175
-125.253	-200.000	-0.026	0.279
-124.239	10.769	-0.234	0.178
-123.224	-200.000	0.070	-0.324
-122.210	122.520	0.043	0.054
