DTS Sentinel unit serial number:	SN413079Multiplexer serial number:	ORYXHardware model number:	OX4-SRSoftware version number:	ORYX F/W v4.00 Oryx Data Collector v3.7.2.0data status	okinstallation	princeton_trtdifferential loss correction	single-endedforward channel	channel 3reverse channel	N/Adate	2019/09/11time	09:46:11forward acquisition time	60.00reverse acquisition time	0.00gamma	496.2192k internal	0.2303k external	0.2303temperature offset calibration	0.9940default loss term (dB/km)	0.3790temperature slope calibration	1.0000multiplexer offset coefficient	1.0000multiplexer slope coefficient	1.0000fibre end	0.00T internal ref (°C)	34.97T ext. ref 1 (°C)	0.11T ext. ref 2 (°C)	31.57length (m)	temperature (°C)	Stokes	anti-Stokes-747.200	-135.846	0.182	0.022
-746.185	-128.607	-0.324	0.047
-745.171	418.756	0.075	0.163
-744.156	-134.925	-0.311	0.038
-743.142	-139.724	-0.206	-0.022
-742.127	398.585	0.032	0.068
-741.112	-58.936	-0.430	-0.189
-740.098	103.605	-0.063	-0.076
-739.083	223.192	-0.113	-0.185
-738.069	-115.559	0.152	0.029
-737.054	-200.000	-0.027	0.145
-736.039	-155.715	-0.450	-0.029
-735.025	17.036	0.253	0.204
-734.010	45.116	-0.255	-0.239
-732.996	144.441	0.133	-0.180
-731.981	800.000	0.031	-0.119
-730.966	-200.000	0.032	-0.159
-729.952	-9.160	-0.147	-0.100
-728.937	-96.000	-0.365	-0.099
-727.923	330.217	-0.052	0.101
-726.908	35.475	-0.103	0.092
-725.894	-166.090	-0.364	0.016
-724.879	13.099	-0.208	-0.164
-723.864	-143.288	0.094	-0.009
-722.850	460.325	0.064	0.145
-721.835	-81.937	-0.249	-0.083
-720.821	-85.384	0.155	0.049
-719.806	-120.519	-0.319	-0.055
-718.791	64.230	0.198	-0.203
-717.777	269.259	-0.101	0.181
-716.762	226.626	0.067	-0.111
-715.748	-200.000	0.040	-0.322
-714.733	363.601	0.056	0.114
-713.718	-43.474	0.155	-0.079
-712.704	800.000	-0.079	-0.258
-711.689	302.411	0.067	0.127
-710.675	800.000	-0.034	-0.104
-709.660	199.853	-0.196	0.305
-708.645	39.785	0.213	-0.195
-707.631	-53.742	-0.170	0.079
-706.616	-75.721	-0.298	0.108
-705.602	45.013	0.340	-0.318
-704.587	-177.388	-0.282	-0.007
-703.572	227.204	-0.118	-0.195
-702.558	319.111	0.205	-0.395
-701.543	-200.000	0.067	0.365
-700.529	104.248	-0.177	-0.211
-699.514	800.000	0.042	0.176
-698.499	246.004	0.069	0.119
-697.485	37.841	-0.092	0.083
-696.470	80.973	0.285	-0.312
-695.456	-147.332	0.221	-0.019
-694.441	-142.720	-0.171	0.017
-693.426	-200.000	0.021	0.142
-692.412	303.441	0.019	0.036
-691.397	-29.373	-0.169	0.098
-690.383	29.805	-0.175	-0.151
-689.368	-200.000	0.006	-0.244
-688.354	525.330	-0.012	0.028
-687.339	-66.464	-0.269	-0.109
-686.324	-104.457	-0.429	0.101
-685.310	-32.140	-0.420	-0.238
-684.295	-38.569	-0.329	0.177
-683.281	-88.531	0.173	-0.052
-682.266	85.421	0.106	-0.118
-681.251	9.761	-0.290	-0.224
-680.237	428.962	-0.187	-0.410
-679.222	-166.650	0.032	0.001
-678.208	-72.619	-0.289	-0.108
-677.193	-0.684	0.190	0.137
-676.178	800.000	-0.032	0.112
-675.164	-200.000	-0.006	-0.085
-674.149	-186.722	-0.121	-0.002
-673.135	30.069	-0.208	-0.180
-672.120	17.340	-0.257	0.207
-671.105	-157.212	-0.289	0.018
-670.091	186.415	0.113	-0.171
-669.076	59.931	0.289	-0.290
-668.062	333.175	0.163	-0.320
-667.047	-108.459	0.233	-0.051
-666.032	800.000	0.068	0.202
-665.018	159.487	-0.121	0.171
-664.003	-77.201	0.183	-0.065
-662.989	-194.245	0.075	0.001
-661.974	-72.013	-0.309	0.117
-660.959	91.871	0.316	0.361
-659.945	800.000	-0.037	0.129
-658.930	800.000	0.035	-0.107
-657.916	-200.000	0.007	-0.245
-656.901	38.347	-0.087	-0.079
-655.886	-82.547	-0.283	0.093
-654.872	105.882	-0.131	0.158
-653.857	-54.317	-0.080	-0.037
-652.843	35.185	-0.186	-0.165
-651.828	800.000	-0.097	-0.397
-650.814	337.133	0.040	0.079
-649.799	-200.000	-0.004	0.253
-648.784	-91.256	0.417	-0.121
-647.770	30.523	-0.244	-0.212
-646.755	800.000	0.118	-0.356
-645.741	-65.562	-0.234	-0.095
-644.726	-73.605	0.344	-0.127
-643.711	800.000	0.081	0.234
-642.697	-107.093	-0.285	0.064
-641.682	-82.090	-0.344	-0.114
-640.668	213.553	0.121	-0.194
-639.653	-200.000	0.105	-0.500
-638.638	-54.907	-0.099	0.045
-637.624	312.247	0.058	-0.111
-636.609	59.430	0.017	-0.017
-635.595	-29.200	0.124	-0.072
-634.580	12.167	-0.037	-0.029
-633.565	-200.000	-0.018	-0.124
-632.551	800.000	-0.083	-0.357
-631.536	186.735	-0.044	-0.066
-630.522	22.689	-0.254	0.211
-629.507	-200.000	-0.004	0.144
-628.492	66.678	-0.267	-0.275
-627.478	-15.580	-0.170	0.110
-626.463	-141.651	0.182	0.019
-625.449	-200.000	0.009	0.471
-624.434	800.000	-0.075	0.299
-623.419	22.989	-0.167	-0.139
-622.405	383.343	-0.131	0.274
-621.390	82.965	-0.045	-0.049
-620.376	-15.514	-0.238	-0.154
-619.361	429.215	-0.088	0.192
-618.346	285.883	0.063	-0.115
-617.332	-200.000	-0.004	-0.158
-616.317	24.907	-0.298	-0.251
-615.303	73.962	0.165	0.175
-614.288	800.000	-0.018	-0.069
-613.273	-87.258	-0.171	-0.053
-612.259	-200.000	0.032	0.264
-611.244	-42.023	-0.256	-0.133
-610.230	-200.000	0.030	0.205
-609.215	-162.778	0.188	-0.009
-608.201	-19.125	0.236	0.149
-607.186	370.795	-0.014	-0.029
-606.171	12.897	0.364	0.285
-605.157	-200.000	-0.006	-0.403
-604.142	-182.659	0.404	0.007
-603.128	-0.492	-0.300	-0.216
-602.113	274.451	0.237	-0.424
-601.098	325.201	0.040	0.078
-600.084	118.763	0.227	0.284
-599.069	325.332	-0.059	0.114
-598.055	-200.000	0.059	-0.277
-597.040	142.849	0.058	-0.078
-596.025	-6.863	-0.380	0.261
-595.011	-111.977	-0.146	-0.030
-593.996	-52.823	0.165	0.077
-592.982	-200.000	0.015	-0.171
-591.967	-200.000	0.003	0.122
-590.952	-129.062	0.197	0.028
-589.938	-200.000	0.018	0.333
-588.923	-30.543	0.183	-0.105
-587.909	273.251	-0.061	0.109
-586.894	7.371	-0.107	0.081
-585.879	38.198	0.314	0.283
-584.865	-200.000	-0.005	-0.099
-583.850	-5.321	-0.145	-0.101
-582.836	-200.000	0.037	-0.188
-581.821	244.078	0.155	-0.263
-580.806	448.803	0.068	-0.153
-579.792	-128.711	-0.471	0.067
-578.777	250.388	-0.038	-0.066
-577.763	153.401	-0.115	0.159
-576.748	-200.000	-0.082	0.371
-575.733	30.981	-0.260	-0.225
-574.719	224.475	-0.136	0.222
-573.704	800.000	-0.112	-0.337
-572.690	207.071	0.046	-0.072
-571.675	-136.914	-0.164	0.019
-570.661	65.888	-0.304	0.311
-569.646	8.363	0.071	0.054
-568.631	-200.000	0.009	0.355
-567.617	16.441	0.184	0.147
-566.602	159.494	0.078	0.110
-565.588	-24.548	0.019	0.011
-564.573	87.818	0.246	0.275
-563.558	-45.566	-0.150	-0.075
-562.544	-36.903	0.135	0.073
-561.529	4.313	-0.081	0.060
-560.515	243.792	0.062	0.105
-559.500	-96.530	-0.109	0.029
-558.485	37.191	0.035	0.032
-557.471	143.437	0.215	-0.289
-556.456	27.421	0.244	0.208
-555.442	-43.067	-0.326	0.167
-554.427	223.982	-0.081	0.132
-553.412	-48.492	-0.307	0.149
-552.398	144.502	0.142	-0.191
-551.383	800.000	0.072	-0.265
-550.369	-200.000	-0.051	0.227
-549.354	-200.000	0.002	0.211
-548.339	-99.314	-0.278	0.071
-547.325	-200.000	0.057	0.318
-546.310	45.339	0.091	-0.085
-545.296	-78.290	-0.176	0.061
-544.281	127.531	0.209	0.268
-543.266	-30.825	-0.206	0.118
-542.252	107.123	0.276	0.332
-541.237	-37.634	0.127	-0.068
-540.223	-36.037	-0.186	-0.102
-539.208	703.049	0.071	0.189
-538.193	800.000	-0.062	-0.238
-537.179	107.909	0.117	-0.141
-536.164	292.125	-0.176	-0.324
-535.150	-200.000	0.009	-0.274
-534.135	83.284	0.159	-0.175
-533.121	800.000	-0.021	0.081
-532.106	684.012	-0.131	-0.346
-531.091	275.809	0.227	0.406
-530.077	-28.661	-0.086	0.050
-529.062	-200.000	0.002	-0.043
-528.048	-200.000	0.022	-0.105
-527.033	800.000	-0.072	0.235
-526.018	329.020	-0.050	-0.097
-525.004	-200.000	-0.007	-0.148
-523.989	301.518	-0.049	0.091
-522.975	-94.886	-0.347	-0.095
-521.960	105.815	0.124	-0.148
-520.945	-25.605	0.278	0.166
-519.931	-86.183	0.303	-0.094
-518.916	-200.000	-0.004	0.192
-517.902	73.017	0.115	-0.121
-516.887	-200.000	-0.035	-0.164
-515.872	488.352	-0.117	0.269
-514.858	-146.657	-0.060	0.005
-513.843	77.750	-0.027	-0.029
-512.829	-84.192	0.194	0.062
-511.814	-185.913	-0.373	-0.006
-510.799	-32.356	0.150	0.084
-509.785	107.097	-0.196	0.235
-508.770	21.776	-0.010	0.008
-507.756	44.328	-0.141	-0.131
-506.741	-200.000	-0.018	-0.106
-505.726	64.618	0.207	-0.211
-504.712	76.155	0.266	-0.284
-503.697	-2.913	-0.163	-0.115
-502.683	-92.809	-0.089	0.025
-501.668	162.074	0.089	0.126
-500.653	295.148	0.061	0.113
-499.639	150.469	0.166	-0.227
-498.624	712.147	0.049	-0.131
-497.610	327.328	-0.045	-0.087
-496.595	382.506	-0.064	0.133
-495.581	-66.007	0.144	0.058
-494.566	383.583	0.090	-0.187
-493.551	255.039	0.153	0.265
-492.537	-50.270	-0.496	-0.236
-491.522	-200.000	0.019	-0.147
-490.508	-200.000	0.004	0.139
-489.493	191.076	0.144	-0.219
-488.478	260.207	-0.049	-0.085
-487.464	-31.638	-0.170	0.096
-486.449	3.129	0.207	0.151
-485.435	486.265	0.089	0.204
-484.420	-200.000	-0.005	0.275
-483.405	-43.742	0.032	0.016
-482.391	148.637	0.170	0.232
-481.376	147.904	0.044	0.060
-480.362	3.262	-0.132	-0.097
-479.347	367.665	0.168	0.341
-478.332	800.000	-0.051	-0.174
-477.318	89.103	0.171	0.192
-476.303	86.414	-0.179	0.199
-475.289	152.861	-0.102	-0.141
-474.274	291.746	0.091	-0.168
-473.259	-125.541	0.157	0.024
-472.245	800.000	0.056	0.217
-471.230	-200.000	-0.000	0.311
-470.216	-87.898	0.148	0.045
-469.201	-200.000	0.044	-0.274
-468.186	800.000	-0.078	-0.314
-467.172	379.713	-0.067	-0.139
-466.157	-22.876	-0.278	-0.169
-465.143	2.757	0.088	0.064
-464.128	-200.000	-0.067	0.309
-463.113	-108.842	-0.373	-0.080
-462.099	-66.861	-0.188	-0.075
-461.084	737.112	-0.119	-0.322
-460.070	38.706	0.322	0.290
-459.055	45.373	-0.288	0.268
-458.040	-74.123	0.033	0.012
-457.026	-121.804	-0.288	0.048
-456.011	-94.977	0.103	-0.028
-454.997	10.710	0.195	-0.150
-453.982	199.468	-0.014	-0.021
-452.968	-81.010	-0.459	-0.153
-451.953	61.208	0.204	0.204
-450.938	106.024	-0.015	-0.018
-449.924	148.811	0.100	-0.136
-448.909	-48.837	0.013	-0.006
-447.895	93.524	0.284	0.323
-446.880	-50.834	0.182	0.086
-445.865	-200.000	0.017	-0.104
-444.851	64.303	0.109	0.111
-443.836	-74.465	-0.284	-0.103
-442.822	324.856	0.070	-0.134
-441.807	49.777	-0.266	0.252
-440.792	-200.000	-0.012	0.281
-439.778	-82.599	0.175	0.057
-438.763	-66.975	-0.298	0.118
-437.749	-200.000	-0.040	0.297
-436.734	198.364	0.244	-0.376
-435.719	-43.440	0.393	0.200
-434.705	125.474	0.016	-0.020
-433.690	183.560	-0.284	-0.422
-432.676	-43.212	0.153	0.078
-431.661	-7.809	-0.436	-0.296
-430.646	228.588	-0.120	0.197
-429.632	-45.018	0.279	-0.140
-428.617	-200.000	-0.051	-0.266
-427.603	-57.005	-0.259	-0.115
-426.588	-45.080	0.085	0.042
-425.573	800.000	-0.094	-0.280
-424.559	209.859	-0.115	-0.181
-423.544	115.822	-0.179	0.221
-422.530	39.138	-0.265	-0.238
-421.515	800.000	-0.049	-0.170
-420.500	189.673	-0.055	-0.083
-419.486	204.965	0.074	0.116
-418.471	120.700	-0.217	0.271
-417.457	-1.430	0.189	0.134
-416.442	800.000	0.156	0.451
-415.428	53.963	0.022	-0.022
-414.413	-94.307	0.072	0.020
-413.398	213.263	-0.084	0.133
-412.384	800.000	-0.009	0.029
-411.369	800.000	0.083	0.251
-410.355	800.000	0.087	-0.246
-409.340	-200.000	-0.019	0.340
-408.325	-80.054	-0.146	0.049
-407.311	-116.948	-0.208	0.038
-406.296	-121.854	0.059	0.010
-405.282	-13.285	0.182	-0.119
-404.267	371.241	-0.144	0.294
-403.252	12.714	0.337	-0.262
-402.238	154.634	-0.254	0.351
-401.223	2.076	0.207	-0.150
-400.209	-10.662	-0.181	-0.120
-399.194	-117.955	0.270	0.049
-398.179	38.885	-0.161	0.145
-397.165	-7.639	-0.111	0.075
-396.150	292.463	0.072	-0.131
-395.136	60.186	0.152	0.151
-394.121	-125.196	0.369	-0.057
-393.106	208.539	-0.193	-0.303
-392.092	233.212	0.150	-0.248
-391.077	-15.778	-0.182	-0.117
-390.063	-64.621	0.317	0.129
-389.048	-79.655	-0.417	-0.141
-388.033	33.468	0.195	-0.170
-387.019	-104.416	0.330	0.077
-386.004	206.868	0.062	0.098
-384.990	149.861	-0.059	-0.081
-383.975	53.638	-0.033	-0.032
-382.960	-5.965	-0.113	0.078
-381.946	-173.071	-0.229	-0.007
-380.931	-200.000	-0.027	-0.189
-379.917	-57.323	0.417	-0.184
-378.902	-95.699	-0.429	-0.115
-377.888	24.531	-0.108	0.090
-376.873	47.620	0.297	-0.278
-375.858	5.602	0.091	0.068
-374.844	-177.523	0.225	0.006
-373.829	-200.000	0.027	-0.246
-372.815	-51.753	0.203	0.095
-371.800	-105.464	0.367	0.084
-370.785	-89.215	0.066	0.019
-369.771	-55.387	0.083	0.037
-368.756	-127.901	-0.410	-0.059
-367.742	-200.000	0.039	-0.231
-366.727	14.684	0.201	-0.157
-365.712	800.000	0.076	-0.216
-364.698	355.031	-0.037	0.074
-363.683	-193.191	-0.078	-0.001
-362.669	102.726	-0.204	-0.239
-361.654	33.552	-0.186	0.162
-360.639	65.399	0.176	-0.178
-359.625	-107.121	-0.312	-0.069
-358.610	-200.000	-0.065	0.344
-357.596	-99.381	0.161	-0.041
-356.581	732.787	-0.087	-0.233
-355.566	-19.819	0.298	-0.184
-354.552	104.226	-0.116	-0.137
-353.537	99.623	0.118	-0.137
-352.523	21.472	0.172	-0.140
-351.508	-132.014	-0.243	-0.032
-350.493	319.614	-0.024	0.047
-349.479	611.979	0.043	-0.109
-348.464	123.649	0.051	0.065
-347.450	70.989	0.198	0.205
-346.435	-143.608	0.247	-0.024
-345.420	470.718	-0.084	-0.189
-344.406	7.708	0.278	-0.209
-343.391	-182.623	-0.206	0.004
-342.377	-74.351	0.020	0.007
-341.362	108.289	-0.151	0.181
-340.348	-52.692	-0.275	0.127
-339.333	27.038	0.345	-0.290
-338.318	306.653	0.142	-0.265
-337.304	800.000	0.064	-0.223
-336.289	240.857	0.067	-0.112
-335.275	641.654	0.042	-0.107
-334.260	25.493	-0.348	0.290
-333.245	80.861	-0.137	-0.148
-332.231	-28.525	-0.223	-0.129
-331.216	15.407	-0.231	-0.182
-330.202	118.295	-0.063	0.078
-329.187	37.747	-0.125	0.111
-328.172	460.656	-0.171	0.382
-327.158	-50.044	-0.222	0.105
-326.143	-120.899	0.235	-0.040
-325.129	-200.000	-0.045	0.238
-324.114	499.606	0.077	-0.178
-323.099	192.946	-0.188	-0.284
-322.085	524.036	-0.081	-0.191
-321.070	-35.064	0.143	-0.078
-320.056	315.075	0.115	-0.218
-319.041	-71.874	0.147	0.055
-318.026	0.320	-0.087	-0.062
-317.012	-200.000	0.047	0.448
-315.997	800.000	-0.039	-0.148
-314.983	-136.242	-0.076	0.009
-313.968	70.546	-0.108	0.112
-312.953	55.404	0.206	0.199
-311.939	419.184	0.116	-0.249
-310.924	39.075	0.225	-0.201
-309.910	70.189	-0.164	-0.170
-308.895	80.331	0.271	0.292
-307.880	-21.738	0.259	0.158
-306.866	61.734	0.077	-0.076
-305.851	36.287	-0.269	0.237
-304.837	652.716	-0.067	0.171
-303.822	-60.859	-0.193	0.082
-302.807	-129.713	0.124	0.017
-301.793	17.289	0.309	0.246
-300.778	-88.367	-0.273	-0.082
-299.764	313.287	0.218	0.410
-298.749	800.000	-0.066	0.211
-297.735	93.737	0.077	-0.088
-296.720	38.647	0.187	0.167
-295.705	-65.853	-0.066	0.026
-294.691	151.906	0.246	0.336
-293.676	424.610	-0.119	0.256
-292.662	800.000	0.061	0.171
-291.647	-200.000	-0.003	-0.185
-290.632	244.055	-0.112	0.187
-289.618	-172.887	0.268	0.008
-288.603	-32.861	-0.066	0.037
-287.589	-34.414	-0.032	0.018
-286.574	28.058	0.184	-0.155
-285.559	-200.000	-0.031	-0.228
-284.545	-200.000	-0.049	0.226
-283.530	11.578	-0.232	0.178
-282.516	257.153	0.034	0.059
-281.501	-42.591	-0.186	-0.095
-280.486	11.955	0.123	0.095
-279.472	95.171	-0.101	-0.115
-278.457	-200.000	-0.007	0.069
-277.443	-45.790	-0.148	0.073
-276.428	-63.701	-0.449	-0.184
-275.413	-94.577	-0.455	0.124
-274.399	-24.763	0.052	0.031
-273.384	-109.900	0.071	0.015
-272.370	-139.548	0.092	0.010
-271.355	800.000	0.124	-0.367
-270.340	-72.476	-0.037	-0.014
-269.326	138.845	0.180	0.236
-268.311	-200.000	-0.032	-0.143
-267.297	800.000	0.014	-0.054
-266.282	57.248	0.036	0.035
-265.267	-136.408	0.126	-0.015
-264.253	50.764	0.113	-0.107
-263.238	489.338	-0.114	-0.260
-262.224	-26.366	0.127	-0.075
-261.209	-119.890	-0.345	0.059
-260.195	800.000	0.052	0.218
-259.180	204.084	-0.091	-0.141
-258.165	48.581	0.144	-0.135
-257.151	-10.526	0.054	-0.036
-256.136	-79.938	-0.196	0.066
-255.122	800.000	0.012	-0.054
-254.107	-200.000	-0.009	0.176
-253.092	474.019	-0.128	0.289
-252.078	800.000	0.052	-0.187
-251.063	77.853	0.091	-0.097
-250.049	-200.000	-0.038	-0.299
-249.034	-200.000	0.027	-0.142
-248.019	-83.408	-0.285	-0.091
-247.005	-21.628	0.073	0.045
-245.990	79.452	0.231	-0.248
-244.976	-200.000	-0.015	-0.091
-243.961	-200.000	0.010	-0.419
-242.946	-101.043	0.142	-0.035
-241.932	-120.364	-0.163	0.028
-240.917	81.402	-0.136	-0.146
-239.903	119.101	0.287	0.354
-238.888	-59.180	0.103	0.044
-237.873	-121.733	-0.325	0.054
-236.859	-74.251	-0.049	-0.018
-235.844	-17.799	-0.075	-0.047
-234.830	-51.266	-0.351	-0.164
-233.815	334.375	-0.069	0.133
-232.800	258.300	-0.149	0.256
-231.786	103.067	-0.194	-0.227
-230.771	89.706	-0.037	-0.041
-229.757	800.000	0.040	0.144
-228.742	132.492	-0.092	-0.118
-227.727	-200.000	-0.008	0.138
-226.713	286.363	0.102	-0.184
-225.698	-200.000	-0.032	-0.178
-224.684	350.699	-0.052	0.102
-223.669	800.000	-0.114	-0.334
-222.655	-200.000	0.016	0.336
-221.640	-200.000	-0.001	0.262
-220.625	-172.169	0.255	0.008
-219.611	-200.000	0.002	-0.169
-218.596	800.000	0.095	0.279
-217.582	17.320	-0.290	0.230
-216.567	-75.752	0.121	-0.043
-215.552	-80.743	0.202	0.067
-214.538	154.548	0.112	-0.153
-213.523	258.404	0.072	-0.124
-212.509	-29.778	0.197	0.112
-211.494	800.000	-0.040	0.118
-210.479	800.000	-0.040	0.149
-209.465	76.082	0.143	-0.151
-208.450	126.758	0.188	-0.237
-207.436	334.970	-0.039	-0.076
-206.421	54.120	0.214	0.205
-205.406	800.000	0.150	-0.467
-204.392	-200.000	-0.040	-0.188
-203.377	-1.095	0.190	0.134
-202.363	82.776	-0.241	0.261
-201.348	297.283	0.221	0.404
-200.333	-200.000	-0.038	0.349
-199.319	-200.000	0.023	-0.242
-198.304	-15.436	0.112	-0.071
-197.290	91.412	0.132	0.148
-196.275	-31.254	0.331	0.186
-195.260	-38.292	0.099	0.052
-194.246	308.819	0.141	-0.262
-193.231	-34.310	0.148	0.081
-192.217	-134.607	-0.105	0.013
-191.202	103.218	-0.190	-0.222
-190.187	-15.168	-0.196	0.125
-189.173	83.609	-0.304	0.330
-188.158	283.594	0.094	0.168
-187.144	-185.558	0.408	-0.006
-186.129	472.715	-0.043	-0.096
-185.114	396.367	-0.097	0.202
-184.100	800.000	0.101	-0.344
-183.085	89.690	-0.044	-0.048
-182.071	800.000	0.006	0.017
-181.056	410.629	0.079	0.166
-180.042	176.284	0.143	0.207
-179.027	800.000	-0.025	-0.076
-178.012	800.000	0.024	-0.075
-176.998	79.190	-0.142	0.152
-175.983	690.966	0.139	0.363
-174.969	368.919	0.120	-0.241
-173.954	-126.403	-0.158	0.023
-172.939	132.106	-0.161	-0.207
-171.925	106.527	-0.158	-0.186
-170.910	-142.031	-0.265	0.026
-169.896	-149.517	0.343	0.027
-168.881	-55.731	0.200	0.089
-167.866	50.103	-0.152	-0.142
-166.852	-200.000	-0.022	0.350
-165.837	800.000	0.049	-0.209
-164.823	116.648	-0.159	0.194
-163.808	800.000	0.035	-0.125
-162.793	57.716	0.224	0.218
-161.779	211.987	0.147	0.230
-160.764	49.088	0.196	-0.183
-159.750	-200.000	0.002	0.040
-158.735	800.000	-0.180	-0.554
-157.720	800.000	-0.049	-0.186
-156.706	518.834	0.153	0.357
-155.691	-200.000	-0.024	-0.110
-154.677	763.128	0.041	0.111
-153.662	-200.000	0.013	-0.086
-152.647	-200.000	-0.040	-0.411
-151.633	-200.000	-0.033	0.159
-150.618	-95.024	-0.103	-0.028
-149.604	-170.605	0.347	-0.012
-148.589	-91.636	0.374	-0.106
-147.574	-200.000	-0.034	0.370
-146.560	-27.593	0.551	-0.319
-145.545	-200.000	0.011	0.117
-144.531	121.742	-0.076	-0.095
-143.516	-95.882	-0.080	-0.021
-142.502	-200.000	-0.042	0.184
-141.487	-71.925	-0.249	-0.092
-140.472	800.000	-0.024	-0.066
-139.458	-25.150	-0.084	-0.050
-138.443	-107.068	0.105	0.023
-137.429	184.834	-0.129	-0.190
-136.414	-200.000	-0.009	-0.245
-135.399	191.456	-0.088	-0.131
-134.385	-30.307	-0.021	0.012
-133.370	-133.284	-0.314	0.039
-132.356	-200.000	-0.157	-0.001
-131.341	264.182	-0.095	-0.165
-130.326	28.243	-0.299	0.251
-129.312	-200.000	0.001	-0.045
-128.297	800.000	0.086	-0.286
-127.283	62.595	0.133	0.132
-126.268	649.992	-0.112	-0.285
-125.253	-97.907	-0.475	-0.122
-124.239	-41.906	0.082	0.042
-123.224	-200.000	0.018	0.085
-122.210	-28.974	0.208	0.119
-121.195	-200.000	0.044	0.237
-120.180	-54.135	-0.144	-0.065
