DTS Sentinel unit serial number:	SN413079Multiplexer serial number:	ORYXHardware model number:	OX4-SRSoftware version number:	ORYX F/W v4.00 Oryx Data Collector v3.7.2.0data status	okinstallation	princeton_trtdifferential loss correction	single-endedforward channel	channel 3reverse channel	N/Adate	2019/09/13time	11:24:35forward acquisition time	60.00reverse acquisition time	0.00gamma	496.2192k internal	0.2315k external	0.2315temperature offset calibration	1.0134default loss term (dB/km)	0.3790temperature slope calibration	1.0000multiplexer offset coefficient	1.0000multiplexer slope coefficient	1.0000fibre end	0.00T internal ref (°C)	32.55T ext. ref 1 (°C)	4.38T ext. ref 2 (°C)	29.67length (m)	temperature (°C)	Stokes	anti-Stokes-747.200	116.718	0.177	-0.220
-746.185	-4.100	-0.242	0.170
-745.171	-134.037	0.224	0.028
-744.156	-26.924	-0.180	0.106
-743.142	-101.247	0.482	0.119
-742.127	17.876	0.190	-0.153
-741.112	800.000	-0.030	0.090
-740.098	177.872	-0.135	0.200
-739.083	180.636	-0.111	0.165
-738.069	-103.188	-0.140	-0.034
-737.054	-74.257	-0.079	-0.029
-736.039	19.468	-0.191	0.155
-735.025	267.163	0.079	0.140
-734.010	-23.875	0.110	-0.067
-732.996	-57.331	-0.352	0.157
-731.981	152.325	0.091	0.127
-730.966	-158.183	0.245	-0.015
-729.952	71.248	-0.074	-0.077
-728.937	-200.000	-0.012	-0.198
-727.923	-16.116	-0.227	0.146
-726.908	452.327	0.164	0.367
-725.894	303.073	-0.186	0.348
-724.879	-72.000	0.139	-0.052
-723.864	800.000	-0.037	-0.159
-722.850	-108.098	-0.143	0.031
-721.835	521.649	-0.111	0.264
-720.821	367.595	0.039	0.080
-719.806	185.425	-0.087	-0.131
-718.791	800.000	-0.074	-0.221
-717.777	-123.765	-0.196	0.031
-716.762	92.654	-0.133	-0.152
-715.748	202.280	-0.058	-0.090
-714.733	-58.389	-0.220	-0.097
-713.718	-9.643	0.297	-0.200
-712.704	130.276	-0.194	-0.251
-711.689	800.000	-0.057	0.175
-710.675	137.753	0.051	-0.068
-709.660	189.101	-0.094	-0.142
-708.645	-112.003	0.180	-0.037
-707.631	-40.206	-0.142	-0.075
-706.616	-145.025	-0.096	-0.009
-705.602	-101.381	-0.178	0.044
-704.587	-35.183	0.110	-0.061
-703.572	52.947	-0.219	-0.212
-702.558	75.987	0.251	-0.268
-701.543	102.010	-0.049	0.058
-700.529	32.790	0.148	0.130
-699.514	-80.498	0.116	-0.039
-698.499	-78.448	0.236	0.082
-697.485	-200.000	-0.065	-0.309
-696.470	-200.000	-0.004	0.152
-695.456	758.011	-0.066	-0.181
-694.441	-200.000	0.021	0.101
-693.426	139.084	-0.084	-0.112
-692.412	-121.760	-0.466	-0.078
-691.397	-78.854	-0.102	-0.035
-690.383	-125.446	-0.078	0.012
-689.368	-200.000	-0.021	-0.198
-688.354	-65.147	0.347	0.142
-687.339	65.285	-0.282	-0.288
-686.324	61.346	-0.227	-0.228
-685.310	125.010	-0.148	-0.188
-684.295	-134.980	0.466	-0.057
-683.281	-200.000	-0.005	-0.286
-682.266	-42.406	0.228	-0.118
-681.251	-200.000	-0.036	-0.350
-680.237	-200.000	-0.033	-0.213
-679.222	-11.093	-0.117	0.078
-678.208	101.986	0.254	-0.300
-677.193	239.411	0.106	-0.178
-676.178	-200.000	0.009	-0.080
-675.164	528.017	-0.073	0.175
-674.149	-85.290	0.060	-0.019
-673.135	364.645	0.099	0.202
-672.120	-200.000	-0.051	0.306
-671.105	-29.096	-0.124	0.072
-670.091	75.112	-0.089	-0.094
-669.076	166.125	0.124	0.177
-668.062	-54.534	-0.414	0.189
-667.047	14.308	-0.130	0.103
-666.032	-200.000	0.034	-0.203
-665.018	800.000	0.080	-0.243
-664.003	-75.498	-0.278	-0.100
-662.989	-200.000	-0.001	-0.043
-661.974	13.475	0.177	-0.139
-660.959	7.414	-0.201	0.152
-659.945	-63.364	0.187	-0.078
-658.930	24.114	-0.183	-0.153
-657.916	129.690	-0.229	0.296
-656.901	-77.351	0.295	0.103
-655.886	3.831	0.494	-0.364
-654.872	-73.283	-0.158	-0.058
-653.857	-177.805	-0.245	0.006
-652.843	-200.000	0.016	0.085
-651.828	-200.000	0.029	0.158
-650.814	-185.605	-0.105	0.002
-649.799	-60.718	-0.171	0.073
-648.784	150.199	-0.120	-0.164
-647.770	-151.368	0.173	-0.013
-646.755	103.601	0.200	-0.238
-645.741	326.937	0.191	-0.369
-644.726	-13.410	0.098	-0.064
-643.711	98.668	0.156	0.182
-642.697	9.420	-0.342	0.261
-641.682	292.271	-0.140	-0.258
-640.668	305.749	-0.145	-0.272
-639.653	800.000	0.057	0.169
-638.638	432.612	-0.143	-0.314
-637.624	-90.909	-0.138	0.040
-636.609	-11.912	-0.138	-0.092
-635.595	-200.000	-0.042	0.203
-634.580	800.000	0.069	0.212
-633.565	-41.817	-0.510	0.264
-632.551	-138.558	0.172	-0.019
-631.536	-200.000	0.004	0.343
-630.522	1.036	0.294	0.213
-629.507	-30.288	-0.160	-0.092
-628.492	75.351	-0.129	-0.138
-627.478	531.850	-0.030	0.071
-626.463	143.646	0.309	-0.415
-625.449	779.483	0.113	-0.312
-624.434	61.140	-0.011	-0.011
-623.419	-83.591	0.113	0.036
-622.405	-111.618	0.160	-0.033
-621.390	487.110	-0.180	-0.414
-620.376	-133.214	-0.432	-0.055
-619.361	-111.947	0.300	-0.061
-618.346	800.000	-0.045	-0.125
-617.332	63.351	-0.182	-0.184
-616.317	-200.000	0.035	0.395
-615.303	146.147	0.193	-0.261
-614.288	-104.048	-0.019	0.004
-613.273	23.327	0.029	0.024
-612.259	-200.000	-0.010	0.269
-611.244	141.332	-0.171	-0.229
-610.230	-82.688	0.189	0.062
-609.215	41.905	-0.268	-0.245
-608.201	132.521	-0.108	-0.140
-607.186	-139.047	-0.122	-0.013
-606.171	327.474	0.007	0.013
-605.157	19.819	0.140	0.113
-604.142	-200.000	-0.016	0.113
-603.128	38.540	-0.141	-0.127
-602.113	-160.260	-0.098	0.005
-601.098	-48.872	0.277	-0.134
-600.084	-200.000	-0.012	0.080
-599.069	-200.000	-0.023	-0.149
-598.055	-200.000	0.063	0.302
-597.040	125.515	0.177	0.225
-596.025	-49.962	0.102	0.049
-595.011	-139.021	0.073	-0.008
-593.996	351.029	-0.053	0.106
-592.982	-199.941	-0.114	-0.001
-591.967	-200.000	0.023	-0.125
-590.952	18.194	0.155	0.125
-589.938	16.375	0.077	-0.061
-588.923	-100.125	-0.388	-0.097
-587.909	-12.374	-0.199	0.131
-586.894	-19.013	0.238	0.149
-585.879	254.762	0.052	-0.090
-584.865	92.546	0.255	-0.289
-583.850	361.110	-0.160	0.323
-582.836	34.256	0.256	0.225
-581.821	-200.000	-0.011	0.179
-580.806	-82.058	0.270	-0.089
-579.792	90.843	-0.087	-0.098
-578.777	-64.322	0.124	0.051
-577.763	800.000	0.049	0.183
-576.748	176.606	0.081	-0.119
-575.733	-200.000	-0.015	0.194
-574.719	240.103	-0.160	-0.268
-573.704	-14.960	0.278	-0.179
-572.690	298.182	0.079	0.146
-571.675	-98.111	-0.286	-0.074
-570.661	-21.488	-0.134	-0.082
-569.646	-200.000	-0.003	-0.235
-568.631	28.073	0.176	-0.149
-567.617	82.115	0.023	0.025
-566.602	-200.000	-0.018	-0.313
-565.588	-41.317	0.371	-0.192
-564.573	-62.624	-0.029	0.012
-563.558	-200.000	-0.009	0.133
-562.544	-14.174	-0.108	-0.070
-561.529	-118.093	0.228	0.041
-560.515	-143.099	0.230	0.022
-559.500	-31.186	0.250	0.142
-558.485	155.680	0.109	0.151
-557.471	274.353	0.110	0.196
-556.456	-200.000	0.040	0.270
-555.442	441.428	0.090	0.198
-554.427	-154.926	0.087	-0.006
-553.412	415.192	-0.081	0.174
-552.398	-8.878	0.305	0.206
-551.383	-40.226	-0.205	-0.108
-550.369	406.380	-0.036	-0.077
-549.354	-27.664	0.464	0.271
-548.339	-48.662	0.206	-0.099
-547.325	50.448	-0.082	0.078
-546.310	27.776	-0.170	-0.144
-545.296	-74.251	-0.136	-0.050
-544.281	373.474	0.071	-0.144
-543.266	-44.379	-0.193	-0.097
-542.252	-39.331	0.181	-0.096
-541.237	2.320	-0.140	-0.102
-540.223	78.098	-0.163	-0.175
-539.208	800.000	-0.079	-0.249
-538.193	-30.582	0.225	-0.128
-537.179	122.072	0.213	-0.267
-536.164	800.000	-0.108	-0.419
-535.150	37.749	-0.197	0.176
-534.135	363.830	0.161	0.325
-533.121	33.867	-0.159	0.139
-532.106	-74.421	-0.045	-0.016
-531.091	800.000	0.052	-0.163
-530.077	-143.913	0.044	-0.004
-529.062	-16.907	0.038	0.024
-528.048	245.031	-0.164	-0.277
-527.033	-30.821	-0.098	-0.056
-526.018	30.494	-0.017	0.014
-525.004	6.893	-0.070	0.053
-523.989	-127.390	-0.388	-0.057
-522.975	-200.000	-0.006	0.120
-521.960	-38.357	0.064	-0.034
-520.945	-29.325	-0.015	0.009
-519.931	4.518	0.112	0.082
-518.916	26.705	-0.064	-0.054
-517.902	-66.656	0.355	0.141
-516.887	530.227	-0.095	0.226
-515.872	-78.183	0.281	0.097
-514.858	-200.000	-0.013	0.193
-513.843	378.023	-0.063	-0.130
-512.829	55.331	-0.041	-0.040
-511.814	45.702	0.105	0.098
-510.799	-198.119	0.205	-0.001
-509.785	318.729	-0.221	0.421
-508.770	-45.142	0.168	-0.084
-507.756	-31.010	-0.245	0.139
-506.741	47.603	-0.225	-0.211
-505.726	-200.000	0.033	0.387
-504.712	289.965	0.081	0.148
-503.697	-124.732	-0.403	-0.063
-502.683	-53.820	-0.176	-0.081
-501.668	-200.000	-0.011	-0.275
-500.653	-86.733	-0.426	-0.131
-499.639	-200.000	0.034	-0.297
-498.624	-200.000	-0.019	0.093
-497.610	-136.435	0.078	0.009
-496.595	160.842	0.112	0.157
-495.581	432.222	0.128	-0.280
-494.566	266.311	-0.081	-0.142
-493.551	161.073	0.092	0.129
-492.537	158.367	-0.112	0.155
-491.522	-15.251	-0.127	-0.082
-490.508	6.062	0.120	0.089
-489.493	-173.801	-0.260	0.008
-488.478	-200.000	-0.012	-0.092
-487.464	538.242	0.126	0.300
-486.449	-200.000	0.040	-0.223
-485.435	114.808	-0.254	0.311
-484.420	-73.119	-0.317	0.117
-483.405	456.024	0.073	0.162
-482.391	86.955	0.068	0.076
-481.376	149.057	-0.106	-0.144
-480.362	147.538	0.137	-0.185
-479.347	-7.946	-0.127	-0.086
-478.332	-160.188	0.054	0.003
-477.318	-11.996	-0.034	0.022
-476.303	800.000	0.037	-0.158
-475.289	305.796	-0.086	-0.160
-474.274	195.353	-0.144	-0.220
-473.259	-47.947	0.246	0.119
-472.245	-200.000	-0.009	-0.339
-471.230	154.019	-0.161	-0.221
-470.216	-94.255	-0.149	0.041
-469.201	-59.078	0.300	-0.130
-468.186	319.196	-0.102	-0.194
-467.172	-94.293	-0.118	0.032
-466.157	104.481	-0.115	-0.136
-465.143	-200.000	-0.014	0.288
-464.128	-31.245	-0.181	-0.102
-463.113	193.875	-0.085	0.128
-462.099	-58.880	0.226	0.098
-461.084	-116.836	-0.150	-0.028
-460.070	519.610	-0.091	-0.214
-459.055	104.592	-0.101	0.120
-458.040	786.355	-0.053	0.147
-457.026	-200.000	0.022	-0.359
-456.011	46.423	0.034	0.032
-454.997	-200.000	0.001	0.337
-453.982	800.000	-0.037	-0.153
-452.968	-79.286	-0.211	0.072
-451.953	-98.547	-0.146	-0.037
-450.938	11.825	0.358	0.275
-449.924	281.219	-0.256	0.460
-448.909	-200.000	0.015	-0.165
-447.895	-185.207	-0.297	-0.005
-446.880	-38.981	-0.157	-0.083
-445.865	428.770	-0.107	-0.232
-444.851	238.369	0.068	-0.113
-443.836	-12.415	0.281	0.184
-442.822	141.974	0.047	0.062
-441.807	306.622	0.044	0.082
-440.792	191.876	-0.045	-0.068
-439.778	-200.000	-0.054	-0.420
-438.763	800.000	0.045	-0.186
-437.749	18.554	-0.195	0.156
-436.734	-200.000	-0.045	0.405
-435.719	-103.583	-0.354	0.083
-434.705	-39.145	0.246	0.129
-433.690	-83.368	-0.067	0.022
-432.676	-154.852	-0.335	0.022
-431.661	-150.563	0.171	-0.013
-430.646	-68.476	-0.099	-0.038
-429.632	-72.413	0.406	0.150
-428.617	-54.956	0.145	0.065
-427.603	-200.000	0.080	-0.375
-426.588	439.099	-0.074	0.162
-425.573	-63.897	0.067	0.027
-424.559	268.278	0.090	-0.158
-423.544	305.759	0.165	-0.306
-422.530	800.000	0.028	-0.113
-421.515	-72.209	-0.146	0.054
-420.500	703.822	-0.037	-0.098
-419.486	-112.626	-0.324	0.065
-418.471	118.988	0.115	-0.142
-417.457	348.217	0.147	-0.291
-416.442	26.921	0.204	0.171
-415.428	-200.000	-0.008	-0.058
-414.413	622.685	-0.120	0.303
-413.398	-29.582	-0.215	0.123
-412.384	90.729	-0.119	-0.133
-411.369	-110.532	-0.255	-0.053
-410.355	-50.745	-0.082	-0.039
-409.340	-185.913	0.082	-0.001
-408.325	-72.247	-0.444	-0.165
-407.311	-200.000	-0.056	-0.267
-406.296	-167.370	-0.062	-0.003
-405.282	-200.000	-0.014	0.183
-404.267	-8.505	-0.208	0.140
-403.252	12.262	-0.043	-0.033
-402.238	-71.247	-0.108	0.041
-401.223	-6.648	0.142	-0.097
-400.209	545.384	0.059	0.142
-399.194	30.273	0.109	-0.093
-398.179	-200.000	0.016	0.095
-397.165	-200.000	-0.014	-0.239
-396.150	-200.000	-0.002	-0.075
-395.136	254.119	0.187	0.320
-394.121	713.756	0.053	-0.140
-393.106	93.975	-0.159	-0.180
-392.092	174.958	-0.143	-0.207
-391.077	111.784	-0.235	0.283
-390.063	270.267	-0.197	-0.346
-389.048	-14.539	0.188	0.121
-388.033	74.319	0.217	0.227
-387.019	-84.390	-0.156	-0.049
-386.004	80.682	-0.061	-0.066
-384.990	800.000	-0.016	-0.050
-383.975	56.847	0.321	-0.312
-382.960	111.408	0.068	0.082
-381.946	0.304	-0.308	-0.219
-380.931	416.729	-0.127	0.271
-379.917	489.718	-0.151	-0.346
-378.902	-200.000	-0.014	-0.221
-377.888	800.000	0.037	0.114
-376.873	94.623	0.077	-0.087
-375.858	800.000	0.061	-0.182
-374.844	367.703	-0.091	-0.184
-373.829	230.799	0.014	-0.023
-372.815	601.902	-0.072	-0.178
-371.800	-49.645	-0.121	-0.057
-370.785	5.147	0.224	-0.165
-369.771	-88.920	0.063	-0.019
-368.756	155.631	0.239	0.329
-367.742	-112.092	0.165	-0.033
-366.727	-31.739	0.247	0.139
-365.712	111.268	0.165	-0.198
-364.698	-30.872	0.323	-0.183
-363.683	800.000	-0.096	-0.307
-362.669	-130.815	-0.136	0.018
-361.654	98.217	-0.231	-0.265
-360.639	800.000	-0.045	0.137
-359.625	800.000	-0.032	-0.092
-358.610	518.015	0.057	-0.134
-357.596	-33.894	-0.147	0.081
-356.581	-6.017	0.210	-0.143
-355.566	-9.282	-0.204	-0.136
-354.552	-75.553	0.086	0.030
-353.537	-125.723	0.184	0.028
-352.523	-200.000	-0.009	0.058
-351.508	110.030	-0.263	0.315
-350.493	800.000	-0.019	-0.067
-349.479	40.017	0.302	-0.271
-348.464	-174.981	0.111	0.003
-347.450	-200.000	0.079	0.415
-346.435	715.391	0.104	0.274
-345.420	78.526	0.310	-0.331
-344.406	-200.000	0.006	-0.055
-343.391	74.842	0.271	0.284
-342.377	-9.997	0.126	0.083
-341.362	216.172	-0.170	0.270
-340.348	-200.000	-0.014	-0.168
-339.333	-131.187	-0.166	-0.022
-338.318	85.771	-0.256	0.280
-337.304	21.068	-0.150	0.122
-336.289	-200.000	-0.016	0.202
-335.275	-24.165	0.169	0.100
-334.260	-78.536	0.319	-0.109
-333.245	-24.087	-0.089	0.053
-332.231	401.206	0.050	0.106
-331.216	203.473	0.293	0.452
-330.202	-200.000	0.004	0.148
-329.187	20.341	-0.128	-0.103
-328.172	-168.022	-0.243	0.009
-327.158	691.397	0.048	0.126
-326.143	-131.994	0.323	0.042
-325.129	-200.000	-0.045	0.242
-324.114	-200.000	0.075	0.353
-323.099	-74.751	-0.196	0.070
-322.085	-200.000	-0.033	-0.203
-321.070	-88.688	-0.187	0.056
-320.056	590.917	0.171	-0.420
-319.041	24.135	-0.196	-0.162
-318.026	-179.745	0.332	-0.007
-317.012	800.000	0.025	-0.068
-315.997	-5.587	0.195	0.133
-314.983	10.552	0.051	-0.039
-313.968	192.089	0.236	0.355
-312.953	14.394	-0.304	0.236
-311.939	37.084	0.059	-0.052
-310.924	-124.115	-0.173	0.027
-309.910	218.772	-0.108	0.172
-308.895	44.894	0.263	-0.241
-307.880	-141.677	-0.183	-0.018
-306.866	-60.370	0.278	0.118
-305.851	-200.000	-0.047	0.319
-304.837	-89.449	0.104	-0.030
-303.822	-200.000	-0.002	0.067
-302.807	-144.528	-0.247	0.023
-301.793	-45.269	0.092	-0.046
-300.778	800.000	0.016	-0.044
-299.764	800.000	-0.030	-0.127
-298.749	-58.084	-0.245	-0.106
-297.735	712.124	0.041	-0.109
-296.720	62.158	0.374	-0.371
-295.705	31.563	-0.396	0.339
-294.691	-38.871	0.052	0.027
-293.676	538.995	0.081	0.192
-292.662	-200.000	0.013	0.104
-291.647	55.614	0.047	0.045
-290.632	-1.307	-0.522	0.367
-289.618	-26.963	0.280	-0.163
-288.603	38.832	0.036	0.032
-287.589	-110.777	-0.315	-0.065
-286.574	-63.185	-0.295	-0.121
-285.559	223.353	0.162	-0.260
-284.545	-75.275	0.352	0.125
-283.530	-165.608	0.480	0.021
-282.516	434.712	0.077	-0.166
-281.501	118.398	-0.101	0.125
-280.486	800.000	0.067	-0.281
-279.472	-200.000	-0.014	0.228
-278.457	20.412	0.083	0.067
-277.443	-179.021	-0.180	-0.004
-276.428	134.933	0.139	-0.180
-275.413	120.568	-0.158	0.196
-274.399	-200.000	0.012	0.253
-273.384	2.466	0.198	-0.142
-272.370	141.666	0.192	0.253
-271.355	-79.717	0.143	0.048
-270.340	-200.000	-0.002	0.424
-269.326	-44.563	0.186	-0.093
-268.311	-51.689	-0.380	0.176
-267.297	800.000	-0.115	-0.370
-266.282	-200.000	-0.045	0.288
-265.267	143.624	-0.137	0.182
-264.253	-200.000	0.039	0.263
-263.238	48.553	-0.236	0.220
-262.224	-130.993	-0.173	0.023
-261.209	-200.000	0.007	-0.269
-260.195	72.538	-0.308	0.320
-259.180	-93.584	-0.362	0.099
-258.165	-100.187	-0.338	0.084
-257.151	800.000	0.042	0.134
-256.136	-45.607	-0.167	0.082
-255.122	389.322	0.146	0.300
-254.107	-200.000	-0.048	0.290
-253.092	-154.495	0.101	-0.007
-252.078	200.712	-0.205	0.314
-251.063	243.532	-0.030	0.050
-250.049	-123.050	-0.242	-0.039
-249.034	-36.380	-0.090	-0.048
-248.019	7.148	0.151	-0.112
-247.005	800.000	0.035	-0.126
-245.990	482.626	0.086	-0.195
-244.976	800.000	-0.053	0.230
-243.961	-102.495	0.312	-0.074
-242.946	74.808	-0.109	0.114
-241.932	-171.897	0.184	0.006
-240.917	-181.519	0.367	0.007
-239.903	130.214	0.175	-0.222
-238.888	-66.017	0.116	0.046
-237.873	-95.548	-0.179	0.048
-236.859	-200.000	-0.015	-0.120
-235.844	-200.000	-0.067	-0.324
-234.830	-51.666	0.357	-0.165
-233.815	270.274	0.120	-0.210
-232.800	87.078	-0.133	0.146
-231.786	21.075	-0.082	-0.066
-230.771	424.482	-0.032	0.069
-229.757	-7.616	0.152	-0.102
-228.742	172.139	-0.068	0.097
-227.727	-133.250	-0.153	0.019
-226.713	800.000	-0.013	0.053
-225.698	193.310	-0.200	0.301
-224.684	-198.120	0.131	-0.001
-223.669	-199.516	-0.177	0.001
-222.655	-68.551	0.179	-0.069
-221.640	280.360	-0.174	-0.310
-220.625	-151.109	-0.286	0.021
-219.611	-162.633	-0.384	0.019
-218.596	1.081	-0.003	0.002
-217.582	-43.843	-0.060	-0.030
-216.567	504.447	0.099	-0.228
-215.552	46.776	0.291	-0.269
-214.538	-6.902	0.183	0.124
-213.523	46.241	0.047	-0.043
-212.509	-93.174	0.377	-0.104
-211.494	-200.000	0.019	-0.139
-210.479	800.000	-0.004	0.018
-209.465	-200.000	0.036	-0.174
-208.450	0.602	0.067	0.048
-207.436	-151.045	-0.238	-0.018
-206.421	154.006	-0.063	-0.086
-205.406	79.200	-0.134	0.142
-204.392	-64.474	-0.080	-0.032
-203.377	-122.134	0.420	-0.068
-202.363	-96.764	-0.402	0.105
-201.348	257.901	0.163	-0.279
-200.333	800.000	-0.055	-0.222
-199.319	-4.793	0.371	0.254
-198.304	-200.000	0.007	0.086
-197.290	800.000	0.142	0.582
-196.275	-200.000	-0.008	0.100
-195.260	-200.000	0.047	0.291
-194.246	-102.286	0.539	0.128
-193.231	-53.711	0.169	0.076
-192.217	-120.562	-0.375	0.063
-191.202	108.000	0.227	0.268
-190.187	-200.000	0.028	-0.193
-189.173	800.000	0.046	0.130
-188.158	-200.000	0.008	0.123
-187.144	16.521	0.171	0.134
-186.129	800.000	0.096	-0.301
-185.114	-34.056	-0.434	-0.237
-184.100	106.785	-0.146	-0.172
-183.085	-146.561	0.154	0.013
-182.071	6.556	-0.170	-0.125
-181.056	15.904	-0.129	-0.100
-180.042	-200.000	-0.044	0.243
-179.027	-125.826	0.308	-0.046
-178.012	-96.945	-0.054	0.014
-176.998	-103.860	-0.080	-0.019
-175.983	113.338	-0.128	-0.154
-174.969	-100.501	-0.143	0.035
-173.954	-36.551	0.088	-0.047
-172.939	-147.324	0.253	0.021
-171.925	-200.000	-0.019	-0.186
-170.910	-200.000	-0.008	-0.144
-169.896	121.212	-0.091	-0.112
-168.881	85.605	0.110	-0.120
-167.866	-38.874	-0.243	0.127
-166.852	-77.554	0.412	0.141
-165.837	-200.000	-0.005	0.118
-164.823	-6.304	0.158	-0.107
-163.808	800.000	0.104	0.413
-162.793	40.961	0.104	-0.093
-161.779	800.000	0.061	-0.252
-160.764	-159.026	0.145	-0.008
-159.750	518.911	-0.069	-0.161
-158.735	-200.000	0.027	0.157
-157.720	76.486	-0.077	0.081
-156.706	120.331	-0.204	0.251
-155.691	13.002	-0.220	-0.169
-154.677	152.670	-0.091	0.124
-153.662	71.917	0.237	-0.244
-152.647	-4.609	0.246	0.168
-151.633	-102.964	0.091	0.021
-150.618	-142.335	0.193	0.019
-149.604	47.900	0.287	-0.265
-148.589	-200.000	0.046	-0.333
-147.574	25.813	-0.205	-0.169
-146.560	46.585	0.232	-0.213
-145.545	403.475	-0.055	-0.115
-144.531	103.258	-0.040	-0.046
-143.516	86.106	-0.051	-0.056
-142.502	-200.000	-0.014	0.362
-141.487	-53.023	0.216	0.098
-140.472	81.448	0.195	0.208
-139.458	157.041	0.119	0.163
-138.443	268.700	-0.080	0.139
-137.429	396.671	-0.181	-0.373
-136.414	-138.367	0.073	-0.008
-135.399	188.756	0.206	0.305
-134.385	167.922	-0.393	0.554
-133.370	-188.616	0.107	0.001
-132.356	-83.146	-0.474	0.151
-131.341	-63.717	-0.100	-0.040
-130.326	197.979	-0.154	0.233
-129.312	360.940	0.074	-0.147
-128.297	-200.000	-0.035	-0.195
-127.283	263.035	0.055	-0.095
-126.268	18.370	0.186	-0.147
-125.253	-174.372	0.220	-0.006
-124.239	175.172	-0.075	0.107
-123.224	684.416	0.082	-0.212
-122.210	-127.835	0.269	-0.038
-121.195	138.486	-0.226	-0.293
