DTS Sentinel unit serial number:	SN413079Multiplexer serial number:	ORYXHardware model number:	OX4-SRSoftware version number:	ORYX F/W v4.00 Oryx Data Collector v3.7.2.0data status	okinstallation	princeton_trtdifferential loss correction	single-endedforward channel	channel 3reverse channel	N/Adate	2019/09/12time	23:36:35forward acquisition time	60.00reverse acquisition time	0.00gamma	496.2192k internal	0.2329k external	0.2329temperature offset calibration	1.0128default loss term (dB/km)	0.3790temperature slope calibration	1.0000multiplexer offset coefficient	1.0000multiplexer slope coefficient	1.0000fibre end	0.00T internal ref (°C)	28.92T ext. ref 1 (°C)	3.77T ext. ref 2 (°C)	23.59length (m)	temperature (°C)	Stokes	anti-Stokes-747.200	-23.404	0.173	0.104
-746.185	-200.000	0.000	-0.255
-745.171	-200.000	-0.042	0.216
-744.156	-49.034	0.196	0.095
-743.142	3.077	0.149	0.109
-742.127	200.620	0.276	0.428
-741.112	412.480	-0.018	0.039
-740.098	-51.953	-0.251	-0.118
-739.083	-200.000	-0.012	-0.055
-738.069	-29.107	-0.148	0.085
-737.054	237.916	-0.074	-0.124
-736.039	11.035	-0.175	-0.134
-735.025	478.234	0.152	0.346
-734.010	-82.999	-0.186	-0.060
-732.996	48.039	-0.280	-0.264
-731.981	-0.806	0.273	0.195
-730.966	-89.397	-0.105	0.031
-729.952	-200.000	-0.241	0.001
-728.937	800.000	0.051	0.152
-727.923	-16.993	0.245	-0.156
-726.908	-19.546	-0.491	-0.306
-725.894	199.337	0.067	0.103
-724.879	800.000	0.113	-0.374
-723.864	137.621	-0.206	0.272
-722.850	-123.218	-0.197	-0.032
-721.835	800.000	0.031	-0.122
-720.821	143.877	-0.041	0.056
-719.806	128.067	-0.105	0.134
-718.791	179.723	0.050	-0.073
-717.777	-164.997	0.150	0.007
-716.762	-111.832	-0.147	-0.030
-715.748	268.237	0.062	0.110
-714.733	-81.866	0.347	-0.114
-713.718	-69.235	-0.239	0.092
-712.704	-200.000	0.079	-0.452
-711.689	-149.351	-0.044	-0.004
-710.675	-119.848	0.139	0.024
-709.660	-120.401	0.135	0.023
-708.645	238.297	0.175	0.293
-707.631	-95.437	-0.232	0.063
-706.616	-118.373	0.334	-0.060
-705.602	-141.081	0.313	0.032
-704.587	800.000	-0.094	-0.340
-703.572	-43.932	0.264	-0.133
-702.558	80.165	0.221	0.239
-701.543	26.159	-0.062	0.052
-700.529	19.077	0.275	0.222
-699.514	-48.326	-0.178	-0.086
-698.499	800.000	0.111	-0.318
-697.485	800.000	-0.029	-0.097
-696.470	231.048	-0.081	0.133
-695.456	-200.000	-0.007	-0.330
-694.441	-120.912	0.113	0.019
-693.426	-157.990	0.377	-0.022
-692.412	-49.349	0.119	-0.057
-691.397	378.599	0.046	-0.095
-690.383	800.000	0.100	-0.301
-689.368	410.412	0.149	-0.318
-688.354	106.625	-0.070	0.084
-687.339	104.072	0.139	0.164
-686.324	-36.211	-0.205	0.111
-685.310	800.000	-0.068	0.243
-684.295	-144.655	0.246	-0.023
-683.281	-69.481	0.135	-0.052
-682.266	-200.000	0.029	-0.171
-681.251	-200.000	-0.101	-0.449
-680.237	-144.079	0.265	0.025
-679.222	72.199	-0.191	0.199
-678.208	255.784	-0.099	-0.171
-677.193	-20.752	0.306	-0.189
-676.178	34.192	0.128	-0.112
-675.164	-43.256	-0.206	-0.105
-674.149	412.230	-0.123	-0.261
-673.135	138.053	-0.210	-0.277
-672.120	-92.814	0.217	-0.061
-671.105	88.700	-0.134	0.150
-670.091	165.644	-0.152	-0.215
-669.076	-200.000	-0.020	-0.183
-668.062	-200.000	0.079	-0.409
-667.047	215.469	0.112	0.179
-666.032	-6.486	-0.154	0.105
-665.018	343.828	-0.172	0.338
-664.003	-61.923	-0.229	-0.096
-662.989	103.872	-0.151	0.178
-661.974	465.201	-0.063	0.142
-660.959	-25.397	0.149	0.088
-659.945	-4.538	0.135	-0.093
-658.930	-72.784	-0.344	0.127
-657.916	97.076	0.092	0.105
-656.901	-145.237	-0.101	-0.009
-655.886	-57.297	0.154	-0.068
-654.872	-119.058	-0.167	-0.029
-653.857	532.018	-0.096	-0.229
-652.843	-159.571	0.235	0.013
-651.828	8.104	-0.240	-0.181
-650.814	62.083	0.129	-0.129
-649.799	28.170	-0.145	0.123
-648.784	-67.663	0.181	-0.071
-647.770	-200.000	0.021	-0.154
-646.755	-104.238	-0.273	0.064
-645.741	-109.241	0.138	-0.029
-644.726	-27.356	-0.116	0.068
-643.711	173.094	0.129	-0.187
-642.697	-80.604	-0.274	-0.092
-641.682	-200.000	-0.002	-0.069
-640.668	168.885	-0.270	-0.387
-639.653	-200.000	0.036	-0.243
-638.638	800.000	-0.060	-0.173
-637.624	340.130	-0.204	-0.400
-636.609	-91.796	0.285	-0.081
-635.595	349.509	0.086	-0.170
-634.580	-200.000	-0.006	-0.270
-633.565	800.000	0.057	-0.200
-632.551	-49.719	-0.202	0.096
-631.536	-65.828	-0.194	-0.078
-630.522	-22.534	0.094	0.057
-629.507	52.221	0.139	-0.133
-628.492	386.767	-0.093	-0.193
-627.478	-112.265	0.147	-0.029
-626.463	-194.375	0.191	0.002
-625.449	149.233	0.243	-0.329
-624.434	9.782	-0.266	0.203
-623.419	-200.000	0.053	0.290
-622.405	-200.000	0.046	0.252
-621.390	55.007	0.254	0.246
-620.376	-8.054	-0.192	-0.130
-619.361	-166.988	-0.234	-0.010
-618.346	86.305	0.156	0.172
-617.332	-111.123	0.354	-0.073
-616.317	-200.000	0.021	-0.143
-615.303	329.451	-0.095	-0.183
-614.288	54.805	-0.254	0.246
-613.273	-135.016	-0.131	0.016
-612.259	-60.654	0.066	0.028
-611.244	-200.000	-0.015	0.182
-610.230	-133.180	-0.077	0.010
-609.215	-159.190	-0.333	-0.019
-608.201	704.759	0.075	-0.198
-607.186	-200.000	-0.013	0.174
-606.171	295.533	-0.210	0.385
-605.157	35.284	-0.273	0.240
-604.142	-100.801	0.157	0.039
-603.128	471.399	-0.164	-0.369
-602.113	-31.184	-0.205	-0.116
-601.098	93.067	-0.199	0.225
-600.084	273.797	0.151	0.267
-599.069	226.993	0.196	0.319
-598.055	-33.587	-0.250	-0.138
-597.040	-129.765	-0.437	0.060
-596.025	-147.406	0.072	0.006
-595.011	-200.000	0.073	-0.529
-593.996	149.959	0.224	0.304
-592.982	34.361	-0.244	-0.213
-591.967	800.000	-0.112	-0.318
-590.952	-28.939	-0.123	-0.071
-589.938	800.000	0.064	-0.267
-588.923	-78.109	0.132	-0.046
-587.909	176.113	0.123	0.179
-586.894	756.117	-0.085	0.230
-585.879	39.619	0.189	-0.169
-584.865	61.337	0.152	-0.152
-583.850	-179.535	0.174	-0.004
-582.836	23.894	0.424	0.349
-581.821	21.188	-0.069	-0.056
-580.806	51.228	-0.078	-0.074
-579.792	-95.548	0.133	-0.036
-578.777	-154.826	-0.238	0.016
-577.763	800.000	-0.110	0.315
-576.748	-131.314	-0.281	0.037
-575.733	488.765	-0.104	-0.238
-574.719	800.000	0.030	0.130
-573.704	21.732	0.143	-0.116
-572.690	-173.063	-0.114	-0.004
-571.675	-115.129	0.259	0.049
-570.661	-200.000	-0.036	-0.304
-569.646	800.000	-0.100	-0.317
-568.631	22.268	-0.225	-0.184
-567.617	33.222	-0.116	-0.100
-566.602	800.000	0.043	0.172
-565.588	-200.000	0.005	0.211
-564.573	-25.271	-0.042	0.025
-563.558	191.553	-0.085	-0.127
-562.544	800.000	0.094	-0.268
-561.529	39.872	-0.462	-0.415
-560.515	-107.731	0.295	0.064
-559.500	-35.916	-0.184	0.100
-558.485	-78.772	-0.100	-0.034
-557.471	96.949	0.066	0.076
-556.456	-13.704	0.179	-0.116
-555.442	-1.417	-0.327	0.230
-554.427	-200.000	-0.001	-0.071
-553.412	342.912	-0.085	-0.166
-552.398	-45.233	0.344	0.171
-551.383	-32.370	-0.207	-0.115
-550.369	169.052	-0.026	0.036
-549.354	-138.861	0.075	0.008
-548.339	148.943	0.044	-0.059
-547.325	-91.833	0.227	-0.064
-546.310	800.000	-0.102	-0.376
-545.296	75.090	-0.088	-0.093
-544.281	-200.000	-0.006	-0.124
-543.266	498.032	0.163	-0.375
-542.252	-183.231	-0.198	0.003
-541.237	-46.078	0.056	-0.027
-540.223	693.372	-0.046	-0.119
-539.208	69.364	-0.333	0.343
-538.193	800.000	0.113	0.346
-537.179	-200.000	-0.042	0.322
-536.164	107.885	0.059	-0.070
-535.150	-158.965	0.153	0.009
-534.135	800.000	-0.025	0.102
-533.121	49.769	0.113	0.106
-532.106	58.961	0.122	0.119
-531.091	23.035	0.168	-0.138
-530.077	117.566	0.201	-0.247
-529.062	1.059	0.234	0.167
-528.048	75.367	-0.142	0.149
-527.033	117.615	0.236	0.290
-526.018	586.967	0.042	-0.104
-525.004	585.089	-0.078	0.192
-523.989	-80.525	-0.186	0.062
-522.975	-123.919	-0.227	0.036
-521.960	800.000	0.055	-0.196
-520.945	-200.000	0.037	0.279
-519.931	800.000	0.039	0.111
-518.916	-101.872	-0.196	-0.047
-517.902	-101.305	-0.321	-0.078
-516.887	-156.348	0.191	-0.012
-515.872	800.000	-0.066	-0.242
-514.858	440.543	-0.033	-0.072
-513.843	-200.000	-0.002	-0.117
-512.829	-72.689	0.307	-0.113
-511.814	-132.421	0.141	-0.018
-510.799	-190.194	-0.331	-0.004
-509.785	18.684	0.302	-0.241
-508.770	-200.000	0.008	-0.148
-507.756	-108.545	-0.218	-0.047
-506.741	-71.139	0.190	-0.071
-505.726	-55.769	0.276	-0.123
-504.712	22.778	0.434	0.355
-503.697	-30.862	-0.103	0.058
-502.683	800.000	0.093	-0.290
-501.668	775.181	0.024	-0.066
-500.653	-200.000	-0.007	0.077
-499.639	67.948	-0.133	0.135
-498.624	-200.000	0.000	0.239
-497.610	460.631	-0.114	0.253
-496.595	-71.971	-0.175	-0.065
-495.581	800.000	-0.047	0.190
-494.566	800.000	0.077	0.241
-493.551	84.907	0.114	0.125
-492.537	26.882	-0.175	-0.146
-491.522	800.000	0.146	0.429
-490.508	800.000	0.011	0.044
-489.493	-95.405	-0.173	0.046
-488.478	-168.722	0.266	-0.010
-487.464	-200.000	-0.005	-0.276
-486.449	107.476	0.136	-0.161
-485.435	337.567	-0.110	0.214
-484.420	-113.913	0.294	0.057
-483.405	-200.000	-0.084	-0.455
-482.391	71.695	-0.151	-0.156
-481.376	-200.000	0.001	-0.109
-480.362	800.000	0.024	-0.076
-479.347	800.000	0.039	0.143
-478.332	-12.268	-0.153	0.100
-477.318	-88.786	0.114	-0.034
-476.303	-77.198	-0.057	-0.020
-475.289	-109.317	0.238	-0.050
-474.274	16.083	0.110	0.086
-473.259	3.606	0.055	-0.040
-472.245	23.160	0.276	0.226
-471.230	-31.977	-0.057	-0.032
-470.216	52.056	-0.250	-0.237
-469.201	-40.241	0.283	0.147
-468.186	49.600	0.196	-0.184
-467.172	-48.713	0.351	0.168
-466.157	49.514	0.106	-0.099
-465.143	-200.000	0.021	0.140
-464.128	800.000	-0.026	-0.086
-463.113	800.000	0.034	0.120
-462.099	-200.000	0.013	0.184
-461.084	-42.194	0.097	0.049
-460.070	-132.929	0.231	0.029
-459.055	-147.932	-0.194	-0.016
-458.040	-200.000	-0.025	0.336
-457.026	-63.321	0.134	0.055
-456.011	-200.000	-0.005	-0.046
-454.997	-2.920	0.212	-0.147
-453.982	-200.000	0.017	-0.201
-452.968	-61.398	0.195	-0.082
-451.953	-200.000	0.003	0.023
-450.938	164.819	-0.124	-0.175
-449.924	-200.000	-0.001	-0.064
-448.909	-167.981	-0.451	0.018
-447.895	800.000	-0.042	-0.139
-446.880	800.000	-0.046	-0.195
-445.865	-177.295	-0.177	0.004
-444.851	-200.000	-0.001	-0.220
-443.836	-200.000	-0.055	-0.258
-442.822	329.065	-0.066	0.127
-441.807	9.389	0.184	-0.139
-440.792	-115.930	0.226	0.042
-439.778	122.925	0.220	-0.274
-438.763	65.801	0.213	0.215
-437.749	192.595	-0.168	0.253
-436.734	311.005	0.111	-0.207
-435.719	-75.901	0.465	-0.164
-434.705	-200.000	0.030	0.457
-433.690	-40.601	0.134	-0.069
-432.676	105.081	0.198	0.233
-431.661	63.154	-0.253	-0.252
-430.646	-95.704	-0.255	-0.068
-429.632	80.848	0.192	-0.206
-428.617	2.458	-0.295	0.212
-427.603	187.418	0.097	-0.143
-426.588	-23.708	0.264	-0.157
-425.573	165.482	-0.019	0.027
-424.559	378.552	-0.165	0.335
-423.544	-58.977	0.197	0.085
-422.530	-42.640	-0.309	-0.157
-421.515	-119.616	-0.149	0.026
-420.500	603.372	-0.081	0.201
-419.486	800.000	0.031	-0.115
-418.471	290.440	-0.111	-0.200
-417.457	-86.245	-0.166	0.051
-416.442	-40.220	-0.210	0.108
-415.428	774.824	-0.064	-0.175
-414.413	-200.000	0.248	0.000
-413.398	-43.476	-0.287	-0.144
-412.384	-10.162	-0.239	-0.158
-411.369	-200.000	-0.027	-0.119
-410.355	60.132	-0.187	0.184
-409.340	-200.000	-0.023	-0.388
-408.325	612.464	-0.038	0.096
-407.311	-118.174	-0.163	0.029
-406.296	-200.000	-0.321	-0.000
-405.282	-113.774	0.105	-0.020
-404.267	39.799	0.255	0.227
-403.252	123.576	-0.182	0.227
-402.238	800.000	-0.063	-0.191
-401.223	104.404	0.068	-0.079
-400.209	-179.697	0.507	-0.011
-399.194	6.790	-0.066	0.049
-398.179	135.333	0.183	-0.237
-397.165	800.000	0.115	-0.352
-396.150	-183.069	-0.114	-0.002
-395.136	23.851	-0.064	0.053
-394.121	-200.000	-0.004	-0.029
-393.106	800.000	0.039	-0.130
-392.092	-41.664	-0.149	0.076
-391.077	-47.563	-0.189	-0.091
-390.063	-113.667	-0.367	0.071
-389.048	-33.339	-0.051	-0.028
-388.033	-151.241	0.428	0.032
-387.019	233.968	-0.219	-0.359
-386.004	-15.210	0.134	-0.085
-384.990	100.460	-0.131	0.151
-383.975	37.268	-0.175	-0.154
-382.960	98.061	0.035	-0.040
-381.946	56.017	-0.056	0.054
-380.931	-78.650	0.231	-0.078
-379.917	-200.000	-0.118	0.532
-378.902	-78.609	0.185	-0.063
-377.888	246.625	-0.065	-0.108
-376.873	-42.930	-0.116	-0.059
-375.858	12.702	-0.119	-0.091
-374.844	-200.000	-0.005	0.268
-373.829	-153.230	-0.249	-0.017
-372.815	800.000	0.079	0.319
-371.800	451.709	-0.103	0.226
-370.785	-99.737	-0.412	0.103
-369.771	-200.000	-0.016	0.157
-368.756	-200.000	-0.002	-0.178
-367.742	-200.000	-0.013	0.354
-366.727	278.908	-0.096	-0.169
-365.712	800.000	-0.093	0.346
-364.698	218.266	-0.141	0.223
-363.683	192.687	-0.074	0.111
-362.669	250.345	-0.135	0.228
-361.654	208.234	-0.257	0.399
-360.639	-97.843	-0.038	0.010
-359.625	800.000	-0.047	0.194
-358.610	-8.813	0.192	0.128
-357.596	800.000	-0.047	0.154
-356.581	-200.000	0.041	-0.217
-355.566	800.000	0.102	0.299
-354.552	227.914	0.063	0.102
-353.537	-200.000	0.017	-0.123
-352.523	-200.000	0.012	0.293
-351.508	-107.440	-0.066	0.014
-350.493	-143.713	-0.136	0.013
-349.479	74.965	0.051	0.054
-348.464	-200.000	0.054	-0.389
-347.450	-91.025	0.054	0.015
-346.435	-64.287	-0.250	-0.101
-345.420	81.428	-0.060	0.065
-344.406	-200.000	-0.018	-0.277
-343.391	-35.641	-0.135	0.073
-342.377	38.888	-0.198	0.175
-341.362	347.407	0.114	0.223
-340.348	-159.460	-0.165	0.009
-339.333	-200.000	-0.003	-0.232
-338.318	-20.631	-0.153	0.093
-337.304	210.505	0.198	0.309
-336.289	-200.000	-0.010	-0.079
-335.275	-152.609	0.058	-0.004
-334.260	37.299	0.155	0.136
-333.245	17.838	0.177	-0.139
-332.231	-200.000	0.035	0.251
-331.216	-200.000	-0.004	-0.271
-330.202	-2.195	0.094	-0.065
-329.187	37.538	-0.151	0.132
-328.172	800.000	0.134	0.561
-327.158	-69.437	-0.169	-0.064
-326.143	167.759	0.077	0.108
-325.129	386.138	-0.067	-0.137
-324.114	-89.633	-0.289	0.084
-323.099	-155.415	0.196	-0.013
-322.085	-112.335	-0.199	-0.040
-321.070	-65.495	0.081	0.032
-320.056	468.241	0.148	0.329
-319.041	-139.755	0.243	0.026
-318.026	-191.761	-0.370	0.004
-317.012	312.122	-0.123	0.228
-315.997	-195.378	0.113	-0.001
-314.983	-135.594	0.229	-0.027
-313.968	-32.186	-0.154	0.085
-312.953	27.859	-0.294	0.245
-311.939	800.000	0.128	0.521
-310.924	-126.202	-0.326	-0.048
-309.910	62.489	0.184	-0.182
-308.895	48.691	-0.474	0.440
-307.880	-85.323	0.416	0.129
-306.866	-30.487	-0.162	-0.091
-305.851	-113.484	-0.291	-0.056
-304.837	1.019	0.326	-0.232
-303.822	-200.000	0.012	-0.091
-302.807	-91.698	0.276	0.078
-301.793	200.655	-0.251	-0.383
-300.778	800.000	-0.074	-0.240
-299.764	-41.856	-0.106	0.054
-298.749	75.049	0.071	-0.075
-297.735	28.643	0.277	-0.232
-296.720	76.202	-0.113	-0.119
-295.705	69.063	0.133	0.135
-294.691	306.201	0.082	-0.152
-293.676	26.411	0.378	0.313
-292.662	800.000	-0.035	-0.095
-291.647	-200.000	-0.032	0.241
-290.632	194.222	0.072	-0.108
-289.618	35.651	-0.103	0.089
-288.603	257.860	0.051	-0.087
-287.589	-15.359	0.179	-0.113
-286.574	-200.000	0.003	-0.192
-285.559	-27.614	0.312	0.179
-284.545	-200.000	-0.014	0.212
-283.530	-58.678	0.370	-0.158
-282.516	-0.006	0.070	-0.050
-281.501	14.018	0.085	0.065
-280.486	350.647	-0.174	-0.341
-279.472	139.609	0.082	-0.106
-278.457	26.120	-0.079	-0.065
-277.443	-200.000	-0.069	-0.594
-276.428	-52.128	0.361	0.166
-275.413	90.525	-0.193	0.214
-274.399	92.751	0.112	-0.125
-273.384	-200.000	0.010	-0.415
-272.370	-144.493	-0.048	0.004
-271.355	-122.626	0.099	-0.016
-270.340	-47.646	0.253	0.122
-269.326	-200.000	0.052	0.243
-268.311	13.099	-0.139	0.107
-267.297	-21.254	-0.209	0.126
-266.282	10.654	-0.167	0.126
-265.267	-29.077	0.192	0.109
-264.253	-157.802	0.261	0.015
-263.238	82.793	-0.087	0.093
-262.224	-200.000	-0.328	-0.001
-261.209	-200.000	-0.065	0.313
-260.195	-137.215	-0.253	-0.028
-259.180	-77.095	0.171	-0.059
-258.165	-179.966	0.405	-0.009
-257.151	28.465	0.311	-0.260
-256.136	10.670	-0.422	-0.318
-255.122	47.894	-0.072	-0.066
-254.107	-200.000	0.001	0.089
-253.092	-168.541	0.156	-0.006
-252.078	-162.486	0.150	0.007
-251.063	-200.000	0.075	0.370
-250.049	277.198	0.139	0.245
-249.034	18.958	-0.269	0.213
-248.019	-20.419	0.443	0.269
-247.005	237.584	-0.146	-0.239
-245.990	576.259	0.028	-0.067
-244.976	-100.538	0.132	-0.032
-243.961	-137.347	-0.256	-0.029
-242.946	800.000	-0.066	0.218
-241.932	-13.141	0.160	0.103
-240.917	-63.125	-0.198	0.081
-239.903	-94.049	0.079	0.021
-238.888	101.671	-0.182	0.209
-237.873	-200.000	0.009	-0.139
-236.859	695.017	0.062	-0.160
-235.844	190.601	-0.168	0.249
-234.830	-200.000	0.011	0.188
-233.815	76.846	-0.140	0.147
-232.800	12.245	0.299	-0.227
-231.786	-200.000	0.063	-0.288
-230.771	-124.350	-0.201	-0.031
-229.757	195.332	-0.107	0.161
-228.742	14.670	0.109	0.084
-227.727	332.748	0.072	0.138
-226.713	-171.549	0.482	0.016
-225.698	156.325	0.210	-0.286
-224.684	800.000	-0.050	0.200
-223.669	402.837	0.057	-0.118
-222.655	-168.373	-0.197	0.007
-221.640	101.691	0.152	-0.175
-220.625	147.545	0.157	-0.209
-219.611	-35.477	-0.226	0.121
-218.596	280.292	-0.072	-0.127
-217.582	667.938	0.013	0.034
-216.567	46.385	-0.104	0.095
-215.552	-200.000	0.035	-0.242
-214.538	-160.934	-0.199	-0.010
-213.523	-29.803	0.095	0.053
-212.509	-47.265	0.096	0.046
-211.494	-38.082	0.306	0.160
-210.479	800.000	0.033	-0.102
-209.465	11.635	-0.145	0.110
-208.450	800.000	0.054	-0.188
-207.436	800.000	0.062	0.268
-206.421	141.586	0.022	-0.029
-205.406	-73.926	-0.138	-0.049
-204.392	11.463	0.299	-0.226
-203.377	-97.595	-0.078	-0.020
-202.363	-129.553	-0.119	0.016
-201.348	-130.742	0.390	-0.052
-200.333	-82.478	-0.186	0.060
-199.319	224.007	-0.248	-0.394
-198.304	-148.237	-0.052	0.004
-197.290	-124.830	0.091	-0.014
-196.275	488.606	-0.073	-0.164
-195.260	336.975	-0.024	-0.045
-194.246	-25.666	0.258	0.150
-193.231	-41.963	0.255	0.129
-192.217	-71.213	-0.494	0.183
-191.202	-37.293	-0.176	0.093
-190.187	476.126	0.123	0.274
-189.173	-200.000	-0.030	0.470
-188.158	15.206	-0.233	0.180
-187.144	-80.074	-0.084	0.028
-186.129	58.702	0.299	0.290
-185.114	-88.904	-0.129	-0.038
-184.100	-200.000	0.007	0.096
-183.085	-139.155	0.288	-0.031
-182.071	-200.000	-0.036	-0.182
-181.056	177.464	0.165	-0.238
-180.042	-200.000	-0.018	0.270
-179.027	121.007	0.220	0.269
-178.012	800.000	-0.079	0.251
-176.998	12.297	-0.312	-0.237
-175.983	-28.199	-0.304	0.173
-174.969	-76.096	-0.125	-0.043
-173.954	153.969	-0.098	0.133
-172.939	-107.250	-0.226	0.049
-171.925	61.037	0.194	-0.190
-170.910	800.000	-0.090	-0.319
-169.896	-38.651	0.127	-0.066
-168.881	-88.445	-0.137	-0.040
-167.866	-61.990	-0.315	-0.130
-166.852	224.038	0.120	-0.191
-165.837	232.510	-0.021	-0.034
-164.823	639.367	0.125	-0.312
-163.808	-200.000	-0.047	-0.239
-162.793	93.461	0.168	-0.187
-161.779	-183.719	-0.041	-0.001
-160.764	298.833	-0.197	0.358
-159.750	141.761	0.135	-0.176
-158.735	104.921	-0.248	0.288
-157.720	800.000	0.030	0.093
-156.706	86.824	0.486	-0.528
-155.691	367.714	0.121	0.241
-154.677	104.785	0.169	-0.196
-153.662	-73.036	0.260	-0.094
-152.647	-113.344	0.268	0.052
-151.633	800.000	-0.027	-0.108
-150.618	-90.085	-0.055	0.016
-149.604	677.312	0.023	-0.060
-148.589	163.694	0.058	-0.080
-147.574	-200.000	-0.003	0.013
-146.560	524.627	0.075	-0.173
-145.545	-63.154	0.300	0.122
-144.531	-15.183	-0.307	-0.193
-143.516	316.485	-0.042	0.079
-142.502	213.528	-0.312	-0.485
-141.487	449.643	0.118	0.257
-140.472	-68.033	0.269	-0.103
-139.458	322.164	0.088	0.165
-138.443	409.115	0.057	0.118
-137.429	-200.000	0.033	-0.215
-136.414	-200.000	0.356	-0.001
-135.399	-37.081	0.375	0.198
-134.385	-150.361	0.078	-0.006
-133.370	78.777	-0.264	-0.278
-132.356	407.894	0.050	-0.104
-131.341	-62.935	0.104	-0.042
-130.326	34.106	0.054	0.047
-129.312	603.184	-0.067	0.164
-128.297	488.724	0.117	0.263
-127.283	-44.290	-0.278	0.137
-126.268	35.307	0.221	0.191
-125.253	-7.926	-0.245	0.162
-124.239	712.387	-0.050	0.131
-123.224	228.875	-0.130	0.209
-122.210	340.660	0.075	-0.145
-121.195	605.841	-0.061	-0.149
