DTS Sentinel unit serial number:	SN413079Multiplexer serial number:	ORYXHardware model number:	OX4-SRSoftware version number:	ORYX F/W v4.00 Oryx Data Collector v3.7.2.0data status	okinstallation	princeton_trtdifferential loss correction	single-endedforward channel	channel 3reverse channel	N/Adate	2019/09/12time	08:50:10forward acquisition time	60.00reverse acquisition time	0.00gamma	496.2192k internal	0.2309k external	0.2309temperature offset calibration	1.0029default loss term (dB/km)	0.3790temperature slope calibration	1.0000multiplexer offset coefficient	1.0000multiplexer slope coefficient	1.0000fibre end	0.00T internal ref (°C)	34.00T ext. ref 1 (°C)	1.73T ext. ref 2 (°C)	30.75length (m)	temperature (°C)	Stokes	anti-Stokes-747.200	250.474	0.099	-0.171
-746.185	-79.460	-0.247	-0.085
-745.171	800.000	-0.017	0.055
-744.156	341.493	0.187	0.371
-743.142	-12.597	-0.225	-0.149
-742.127	227.232	-0.193	0.318
-741.112	257.978	0.145	0.254
-740.098	800.000	0.062	0.228
-739.083	182.006	-0.128	0.192
-738.069	470.635	-0.099	0.227
-737.054	86.813	0.118	-0.132
-736.039	800.000	-0.021	-0.078
-735.025	222.691	0.278	0.455
-734.010	-200.000	0.000	-0.129
-732.996	-151.626	-0.353	-0.026
-731.981	800.000	0.056	0.241
-730.966	-77.739	-0.125	0.044
-729.952	800.000	-0.032	-0.120
-728.937	-200.000	0.033	-0.194
-727.923	70.037	-0.199	-0.208
-726.908	-47.220	-0.107	0.053
-725.894	87.522	-0.214	0.240
-724.879	24.034	-0.170	0.142
-723.864	115.704	-0.138	-0.171
-722.850	-104.105	-0.219	-0.052
-721.835	-200.000	0.080	-0.478
-720.821	-200.000	0.016	-0.075
-719.806	219.040	0.135	-0.220
-718.791	-14.832	-0.180	0.117
-717.777	28.341	0.116	-0.099
-716.762	-152.867	-0.166	0.012
-715.748	279.448	0.082	-0.149
-714.733	228.970	-0.151	0.250
-713.718	-1.693	0.140	0.100
-712.704	-67.665	-0.111	-0.044
-711.689	-200.000	-0.009	0.144
-710.675	-90.253	-0.260	-0.077
-709.660	210.882	-0.213	-0.339
-708.645	-200.000	0.006	-0.063
-707.631	800.000	-0.101	0.319
-706.616	-106.343	-0.123	0.028
-705.602	-65.635	-0.298	0.121
-704.587	216.422	0.125	-0.201
-703.572	-18.834	0.181	0.115
-702.558	800.000	-0.050	-0.202
-701.543	67.013	0.143	0.148
-700.529	-17.745	0.094	-0.060
-699.514	95.966	0.149	0.173
-698.499	-23.099	-0.269	-0.165
-697.485	4.497	-0.250	0.186
-696.470	-98.772	-0.235	0.061
-695.456	800.000	0.052	0.154
-694.441	85.462	-0.102	0.113
-693.426	800.000	0.104	0.389
-692.412	-113.940	-0.454	-0.089
-691.397	46.042	0.172	-0.161
-690.383	-26.998	0.150	-0.089
-689.368	272.829	0.051	-0.092
-688.354	800.000	-0.033	0.143
-687.339	-200.000	0.025	0.128
-686.324	61.175	0.206	0.207
-685.310	644.429	-0.096	-0.249
-684.295	57.439	-0.193	-0.191
-683.281	50.921	0.083	-0.080
-682.266	-3.446	0.202	0.143
-681.251	43.502	0.038	0.035
-680.237	191.137	-0.134	-0.205
-679.222	-200.000	-0.043	-0.354
-678.208	205.047	-0.178	-0.280
-677.193	25.313	0.335	0.282
-676.178	-138.168	-0.073	-0.008
-675.164	17.708	0.291	-0.234
-674.149	-112.019	0.096	-0.019
-673.135	-180.889	0.020	0.000
-672.120	-200.000	-0.002	0.165
-671.105	-13.492	-0.156	-0.102
-670.091	800.000	-0.064	0.187
-669.076	-46.001	-0.223	-0.111
-668.062	488.236	0.092	-0.214
-667.047	118.769	-0.248	-0.310
-666.032	51.148	-0.099	-0.095
-665.018	-50.893	-0.372	0.177
-664.003	-200.000	0.037	0.420
-662.989	30.866	-0.186	0.162
-661.974	-56.700	0.086	0.039
-660.959	-200.000	0.002	-0.151
-659.945	-183.289	-0.155	-0.003
-658.930	339.689	0.113	-0.224
-657.916	-166.483	-0.247	0.010
-656.901	121.073	0.218	0.275
-655.886	800.000	0.025	-0.093
-654.872	-200.000	0.001	-0.359
-653.857	800.000	-0.124	-0.362
-652.843	137.836	0.070	-0.093
-651.828	67.884	0.018	0.018
-650.814	128.088	0.122	0.157
-649.799	608.939	0.043	0.110
-648.784	94.253	0.114	0.131
-647.770	-200.000	0.075	0.438
-646.755	741.930	-0.120	-0.326
-645.741	-71.333	-0.293	-0.111
-644.726	-142.543	-0.188	0.019
-643.711	800.000	-0.123	-0.356
-642.697	167.861	-0.018	-0.026
-641.682	353.027	-0.107	0.215
-640.668	553.171	0.160	0.389
-639.653	739.289	-0.038	-0.104
-638.638	800.000	-0.157	-0.508
-637.624	45.518	0.058	-0.054
-636.609	-94.261	0.253	-0.070
-635.595	-200.000	-0.050	-0.372
-634.580	65.718	0.067	0.068
-633.565	-75.060	0.182	0.066
-632.551	-93.216	-0.164	-0.046
-631.536	84.317	0.153	0.169
-630.522	-200.000	-0.026	0.246
-629.507	-40.605	0.014	0.007
-628.492	42.892	0.228	-0.210
-627.478	667.160	0.213	-0.556
-626.463	448.867	-0.111	-0.247
-625.449	68.530	0.238	-0.247
-624.434	800.000	-0.105	0.345
-623.419	-126.257	-0.371	0.056
-622.405	-57.560	-0.117	0.052
-621.390	-200.000	0.006	-0.104
-620.376	211.072	-0.063	0.100
-619.361	67.467	-0.315	0.325
-618.346	-36.723	-0.165	0.090
-617.332	6.512	0.267	-0.201
-616.317	-48.938	-0.132	0.064
-615.303	-97.577	-0.157	0.041
-614.288	-157.343	0.201	0.012
-613.273	-91.581	0.141	0.041
-612.259	44.667	0.113	0.105
-611.244	-80.056	-0.315	0.107
-610.230	80.372	0.177	-0.192
-609.215	6.686	0.112	0.084
-608.201	-200.000	0.067	-0.354
-607.186	650.012	0.155	-0.401
-606.171	234.285	0.058	-0.096
-605.157	669.512	-0.138	-0.361
-604.142	-76.578	-0.224	0.080
-603.128	800.000	0.033	-0.106
-602.113	-200.000	0.002	0.151
-601.098	350.573	-0.057	0.114
-600.084	105.121	-0.146	0.174
-599.069	-3.863	0.253	-0.178
-598.055	-164.095	0.123	0.006
-597.040	-144.699	-0.256	-0.024
-596.025	-200.000	-0.005	-0.101
-595.011	-136.920	0.305	0.035
-593.996	129.280	0.108	-0.140
-592.982	-3.660	-0.092	0.064
-591.967	424.123	-0.081	0.176
-590.952	29.377	-0.316	0.271
-589.938	-108.487	-0.389	-0.085
-588.923	-127.804	0.181	0.026
-587.909	-96.333	-0.183	0.049
-586.894	173.061	-0.176	-0.256
-585.879	38.649	0.296	0.266
-584.865	-79.361	0.148	-0.051
-583.850	241.625	-0.024	0.041
-582.836	-117.169	-0.215	-0.040
-581.821	118.536	-0.091	-0.113
-580.806	133.431	-0.095	-0.124
-579.792	119.090	-0.065	0.082
-578.777	112.059	0.244	0.298
-577.763	-82.717	0.071	-0.023
-576.748	-5.486	0.196	0.136
-575.733	-41.759	0.311	-0.161
-574.719	272.047	-0.078	0.139
-573.704	-145.400	0.172	0.016
-572.690	140.723	-0.227	-0.303
-571.675	113.157	-0.141	0.173
-570.661	800.000	0.064	0.234
-569.646	800.000	0.059	-0.208
-568.631	-141.877	0.061	-0.006
-567.617	11.473	0.244	0.189
-566.602	-96.489	0.110	-0.029
-565.588	176.320	-0.103	0.150
-564.573	-82.756	0.499	0.163
-563.558	-167.421	-0.104	-0.004
-562.544	-24.128	-0.064	0.038
-561.529	191.568	0.038	-0.058
-560.515	-8.082	-0.277	-0.188
-559.500	18.938	-0.068	-0.055
-558.485	800.000	0.054	-0.181
-557.471	52.608	0.157	0.151
-556.456	-200.000	-0.009	0.096
-555.442	-200.000	0.015	0.080
-554.427	-92.051	0.194	-0.055
-553.412	800.000	-0.061	0.216
-552.398	517.465	-0.111	-0.263
-551.383	-130.646	0.065	0.009
-550.369	-200.000	-0.048	-0.404
-549.354	59.795	0.221	-0.220
-548.339	-200.000	0.014	-0.226
-547.325	-89.412	0.250	0.074
-546.310	-200.000	-0.001	-0.206
-545.296	-200.000	-0.049	0.359
-544.281	226.269	0.202	0.330
-543.266	-109.989	-0.251	0.053
-542.252	-63.943	-0.148	-0.061
-541.237	800.000	0.016	-0.063
-540.223	291.270	-0.078	-0.143
-539.208	800.000	0.068	0.259
-538.193	-33.941	-0.152	0.084
-537.179	626.552	0.121	-0.308
-536.164	-67.390	0.130	0.051
-535.150	422.747	-0.095	-0.205
-534.135	800.000	-0.072	0.275
-533.121	-111.380	0.244	0.050
-532.106	318.588	0.104	0.198
-531.091	-200.000	-0.026	0.128
-530.077	480.696	-0.050	-0.114
-529.062	26.798	-0.150	-0.127
-528.048	140.890	-0.184	-0.245
-527.033	800.000	0.109	-0.335
-526.018	279.617	-0.184	-0.331
-525.004	-86.276	-0.105	0.033
-523.989	-134.325	-0.196	-0.024
-522.975	38.367	-0.155	-0.139
-521.960	3.554	0.280	0.206
-520.945	-2.551	-0.252	-0.178
-519.931	800.000	-0.036	0.106
-518.916	-55.521	0.406	0.183
-517.902	182.293	0.139	-0.206
-516.887	-154.851	-0.254	0.017
-515.872	-150.872	0.194	0.015
-514.858	55.690	0.207	-0.202
-513.843	-200.000	0.002	-0.135
-512.829	-200.000	-0.048	-0.238
-511.814	-32.093	-0.383	0.216
-510.799	-200.000	-0.062	-0.383
-509.785	531.997	-0.133	-0.318
-508.770	-128.240	-0.523	0.075
-507.756	800.000	0.155	0.441
-506.741	800.000	0.093	0.311
-505.726	800.000	-0.104	-0.348
-504.712	32.467	-0.245	0.213
-503.697	-115.745	0.192	0.036
-502.683	-200.000	-0.007	0.033
-501.668	-200.000	0.018	0.099
-500.653	-98.007	-0.192	0.050
-499.639	800.000	-0.066	-0.201
-498.624	17.638	-0.139	0.111
-497.610	-13.345	0.282	0.184
-496.595	-7.339	-0.229	-0.156
-495.581	-12.810	-0.043	0.028
-494.566	-200.000	0.010	-0.263
-493.551	-83.851	-0.185	0.059
-492.537	58.396	0.166	0.164
-491.522	-87.366	0.353	-0.108
-490.508	201.589	0.142	0.220
-489.493	-107.471	-0.179	0.040
-488.478	800.000	-0.056	-0.171
-487.464	100.717	-0.139	-0.162
-486.449	800.000	-0.122	-0.360
-485.435	202.507	-0.110	0.171
-484.420	-72.244	-0.283	-0.105
-483.405	-129.606	0.240	0.033
-482.391	800.000	0.097	-0.362
-481.376	-188.344	-0.205	0.003
-480.362	210.561	-0.074	-0.117
-479.347	-200.000	-0.004	-0.073
-478.332	-86.973	0.343	0.105
-477.318	-200.000	-0.001	0.162
-476.303	-200.000	0.037	0.270
-475.289	-56.804	0.224	0.100
-474.274	281.969	0.174	0.313
-473.259	37.541	-0.210	0.187
-472.245	250.917	0.077	0.132
-471.230	-65.144	-0.258	-0.105
-470.216	62.857	0.257	-0.259
-469.201	-20.074	0.190	0.118
-468.186	800.000	0.044	-0.153
-467.172	-171.749	0.074	0.002
-466.157	70.076	-0.224	0.233
-465.143	52.997	0.107	-0.103
-464.128	-80.240	0.336	-0.113
-463.113	800.000	0.004	-0.010
-462.099	64.420	0.131	-0.132
-461.084	288.087	0.074	-0.135
-460.070	-200.000	-0.001	-0.098
-459.055	30.854	0.140	0.120
-458.040	112.430	-0.312	-0.379
-457.026	-184.761	0.171	0.003
-456.011	-128.129	-0.425	0.061
-454.997	800.000	-0.068	0.271
-453.982	172.937	0.173	-0.251
-452.968	69.002	0.085	0.087
-451.953	-0.391	0.101	-0.072
-450.938	734.451	-0.165	-0.445
-449.924	29.048	-0.284	0.242
-448.909	5.478	0.170	0.126
-447.895	-20.411	-0.184	-0.113
-446.880	-122.799	-0.093	-0.015
-445.865	136.106	-0.244	-0.319
-444.851	-200.000	0.027	0.229
-443.836	51.621	-0.333	-0.318
-442.822	96.075	-0.090	0.104
-441.807	800.000	0.118	0.379
-440.792	-200.000	0.043	0.257
-439.778	-22.393	-0.165	0.100
-438.763	5.664	0.077	0.057
-437.749	-200.000	-0.011	-0.219
-436.734	122.792	0.212	0.266
-435.719	800.000	0.078	0.242
-434.705	-6.994	0.142	-0.097
-433.690	800.000	-0.045	0.190
-432.676	-95.530	0.138	0.037
-431.661	-200.000	-0.023	-0.336
-430.646	-155.674	-0.086	0.006
-429.632	68.374	0.111	0.114
-428.617	-35.249	0.106	-0.058
-427.603	-59.668	-0.297	-0.128
-426.588	128.164	0.075	0.095
-425.573	124.661	0.112	-0.141
-424.559	-81.759	-0.280	-0.092
-423.544	-114.163	0.325	0.063
-422.530	-122.586	-0.255	-0.041
-421.515	-44.065	0.231	0.116
-420.500	-99.628	0.099	0.025
-419.486	800.000	0.061	-0.220
-418.471	90.447	-0.065	-0.073
-417.457	273.717	-0.211	0.374
-416.442	-24.195	-0.276	0.165
-415.428	-200.000	-0.022	0.143
-414.413	-200.000	-0.012	-0.285
-413.398	-200.000	0.016	-0.268
-412.384	199.670	0.142	-0.218
-411.369	-12.140	-0.292	0.191
-410.355	-200.000	0.022	0.177
-409.340	-48.686	0.290	-0.140
-408.325	-128.689	-0.478	0.068
-407.311	-188.802	0.299	0.004
-406.296	259.220	-0.067	-0.116
-405.282	-56.991	-0.077	-0.034
-404.267	-200.000	0.058	0.318
-403.252	231.651	0.085	0.139
-402.238	275.185	-0.159	0.283
-401.223	292.289	-0.083	0.151
-400.209	411.712	0.020	-0.042
-399.194	-200.000	-0.004	0.253
-398.179	377.071	-0.104	-0.213
-397.165	-200.000	0.022	-0.471
-396.150	-72.762	-0.247	-0.091
-395.136	800.000	-0.062	0.220
-394.121	-200.000	-0.030	0.194
-393.106	372.322	-0.082	-0.166
-392.092	-64.754	-0.183	0.074
-391.077	420.037	0.092	0.198
-390.063	-200.000	-0.017	-0.228
-389.048	-123.943	-0.310	0.049
-388.033	10.487	0.141	0.108
-387.019	251.032	-0.059	-0.101
-386.004	800.000	0.109	-0.342
-384.990	490.507	0.021	-0.049
-383.975	800.000	0.057	0.227
-382.960	254.423	0.102	-0.174
-381.946	541.207	0.138	0.328
-380.931	-192.804	-0.135	-0.001
-379.917	-92.104	-0.227	-0.064
-378.902	-22.176	-0.229	0.139
-377.888	-6.898	0.357	-0.243
-376.873	-157.248	-0.202	0.012
-375.858	32.685	0.235	0.203
-374.844	-120.020	0.060	-0.010
-373.829	68.536	0.234	-0.240
-372.815	-1.598	0.168	0.118
-371.800	306.803	-0.068	-0.126
-370.785	81.950	-0.115	0.124
-369.771	-76.061	-0.252	0.089
-368.756	-113.936	0.032	0.006
-367.742	4.047	0.272	-0.199
-366.727	800.000	-0.012	-0.041
-365.712	-82.753	0.245	0.079
-364.698	-56.546	0.121	-0.054
-363.683	585.854	0.062	-0.152
-362.669	175.796	-0.044	-0.064
-361.654	-200.000	0.004	0.092
-360.639	-200.000	0.049	-0.225
-359.625	-200.000	-0.003	-0.307
-358.610	-128.217	0.259	0.037
-357.596	-42.593	-0.391	-0.199
-356.581	-200.000	0.025	0.172
-355.566	-148.072	-0.094	-0.008
-354.552	0.543	-0.113	-0.081
-353.537	800.000	-0.065	-0.237
-352.523	142.842	0.030	0.040
-351.508	-51.973	0.208	-0.097
-350.493	82.113	0.074	0.080
-349.479	142.090	-0.084	0.111
-348.464	-200.000	-0.011	-0.076
-347.450	-170.041	0.165	0.006
-346.435	-121.001	0.154	-0.026
-345.420	-100.420	-0.145	-0.036
-344.406	-200.000	0.007	0.204
-343.391	-8.602	-0.227	0.153
-342.377	112.033	0.138	0.166
-341.362	324.013	0.213	-0.406
-340.348	-149.128	-0.065	-0.005
-339.333	101.321	0.043	-0.051
-338.318	132.923	0.059	-0.076
-337.304	-200.000	0.000	0.123
-336.289	123.049	-0.227	-0.284
-335.275	-120.765	0.219	-0.037
-334.260	82.578	-0.163	-0.177
-333.245	-31.273	0.197	0.111
-332.231	-200.000	0.016	-0.151
-331.216	-183.637	-0.125	-0.002
-330.202	800.000	0.025	0.089
-329.187	-113.173	0.065	0.013
-328.172	-111.225	-0.007	0.001
-327.158	49.643	0.111	0.104
-326.143	-116.241	-0.319	0.059
-325.129	138.766	-0.372	0.488
-324.114	-200.000	-0.011	0.080
-323.099	-200.000	0.032	0.151
-322.085	318.393	-0.113	0.214
-321.070	-200.000	-0.014	-0.334
-320.056	53.391	-0.027	0.026
-319.041	-200.000	-0.006	0.167
-318.026	-65.909	-0.104	-0.042
-317.012	-200.000	0.028	-0.203
-315.997	800.000	-0.075	0.288
-314.983	-140.583	0.077	0.008
-313.968	-62.030	-0.318	-0.133
-312.953	-85.940	0.347	0.107
-311.939	-200.000	-0.030	-0.195
-310.924	193.137	-0.165	-0.249
-309.910	-132.314	-0.059	-0.008
-308.895	-102.178	-0.287	-0.069
-307.880	-145.102	0.138	-0.013
-306.866	187.767	0.245	-0.366
-305.851	-200.000	0.017	-0.256
-304.837	89.082	0.033	-0.037
-303.822	-75.704	-0.114	0.040
-302.807	-115.073	0.130	0.025
-301.793	-48.569	0.075	0.036
-300.778	-200.000	0.050	-0.333
-299.764	-86.004	0.317	-0.098
-298.749	8.557	-0.280	-0.210
-297.735	-99.540	-0.111	-0.028
-296.720	43.836	-0.106	-0.097
-295.705	231.308	-0.192	0.313
-294.691	83.218	0.213	-0.231
-293.676	-71.160	-0.266	0.100
-292.662	-200.000	0.033	-0.202
-291.647	-200.000	0.003	-0.249
-290.632	476.888	0.164	0.369
-289.618	-144.044	-0.265	-0.025
-288.603	-9.638	0.290	-0.193
-287.589	45.527	-0.049	0.045
-286.574	415.340	0.049	-0.104
-285.559	-2.450	0.187	-0.131
-284.545	-200.000	-0.042	0.359
-283.530	47.144	-0.077	-0.072
-282.516	-30.585	-0.430	-0.243
-281.501	-200.000	0.023	-0.126
-280.486	-62.480	-0.205	0.085
-279.472	-200.000	0.024	0.122
-278.457	800.000	-0.060	0.256
-277.443	100.685	0.032	-0.038
-276.428	800.000	-0.060	-0.250
-275.413	413.776	0.046	-0.098
-274.399	-27.966	-0.097	-0.056
-273.384	115.012	0.177	0.216
-272.370	800.000	-0.075	-0.216
-271.355	800.000	-0.089	-0.251
-270.340	800.000	0.066	-0.244
-269.326	800.000	0.079	-0.237
-268.311	-7.196	0.176	-0.119
-267.297	120.326	0.082	0.102
-266.282	-84.301	0.628	-0.198
-265.267	-144.476	0.017	-0.002
-264.253	-57.478	0.081	-0.036
-263.238	8.447	0.266	0.199
-262.224	-200.000	-0.032	-0.183
-261.209	-63.251	-0.168	0.069
-260.195	1.358	0.318	0.228
-259.180	-114.247	0.205	0.039
-258.165	102.900	0.154	-0.179
-257.151	-200.000	0.036	-0.176
-256.136	-167.256	0.193	-0.008
-255.122	-88.500	-0.282	0.084
-254.107	-153.270	-0.095	0.007
-253.092	45.223	-0.227	-0.208
-252.078	-200.000	0.150	0.689
-251.063	-118.355	0.162	0.029
-250.049	-30.464	-0.301	0.170
-249.034	800.000	-0.091	-0.251
-248.019	-200.000	-0.015	0.077
-247.005	-113.958	0.160	0.031
-245.990	800.000	0.073	-0.234
-244.976	174.522	0.123	-0.177
-243.961	-28.690	-0.120	0.069
-242.946	-11.851	0.158	-0.103
-241.932	-40.535	0.160	-0.083
-240.917	194.983	0.288	0.436
-239.903	693.360	0.081	-0.211
-238.888	304.239	-0.087	0.160
-237.873	28.356	0.281	-0.236
-236.859	-66.806	0.503	-0.198
-235.844	-3.092	-0.259	0.180
-234.830	-200.000	0.016	-0.246
-233.815	-33.200	0.117	0.065
-232.800	219.590	-0.155	0.247
-231.786	43.549	0.324	0.295
-230.771	122.959	-0.077	0.096
-229.757	455.653	-0.116	0.257
-228.742	45.807	-0.104	0.096
-227.727	-50.166	-0.249	0.117
-226.713	-33.460	0.112	-0.062
-225.698	800.000	0.114	0.316
-224.684	72.631	0.174	0.181
-223.669	800.000	0.037	-0.126
-222.655	-200.000	0.019	0.182
-221.640	800.000	0.042	0.165
-220.625	-200.000	0.005	-0.064
-219.611	-33.481	-0.264	-0.145
-218.596	160.809	-0.108	-0.150
-217.582	-68.035	-0.030	-0.011
-216.567	800.000	-0.049	0.202
-215.552	-200.000	-0.022	0.494
-214.538	-21.351	0.446	0.271
-213.523	147.645	0.104	-0.140
-212.509	-74.342	0.294	-0.106
-211.494	-200.000	0.022	0.122
-210.479	98.768	0.212	-0.244
-209.465	800.000	0.033	0.123
-208.450	6.894	0.205	0.152
-207.436	-200.000	0.066	0.363
-206.421	204.442	0.121	0.187
-205.406	163.753	-0.168	-0.235
-204.392	-200.000	0.027	0.147
-203.377	-105.363	-0.205	-0.046
-202.363	3.756	-0.202	0.147
-201.348	-200.000	-0.002	-0.169
-200.333	572.536	0.066	0.160
-199.319	25.454	-0.064	-0.053
-198.304	-17.165	-0.299	0.188
-197.290	295.262	-0.168	0.305
-196.275	61.342	0.099	0.098
-195.260	91.762	-0.187	0.209
-194.246	63.087	-0.097	0.096
-193.231	800.000	0.105	-0.295
-192.217	800.000	-0.143	-0.437
-191.202	34.314	-0.137	-0.118
-190.187	-78.738	0.154	0.052
-189.173	-42.203	-0.215	-0.109
-188.158	-200.000	0.027	-0.161
-187.144	121.421	-0.157	-0.194
-186.129	-200.000	0.028	0.340
-185.114	378.227	-0.163	0.331
-184.100	-200.000	-0.014	-0.064
-183.085	-200.000	-0.012	0.180
-182.071	-200.000	0.040	-0.235
-181.056	-108.766	-0.225	-0.048
-180.042	800.000	-0.135	0.378
-179.027	-200.000	0.008	0.095
-178.012	133.077	-0.141	0.181
-176.998	79.649	0.217	0.231
-175.983	-200.000	0.053	0.303
-174.969	-200.000	0.043	0.341
-173.954	60.065	-0.128	0.126
-172.939	800.000	-0.063	0.260
-171.925	-200.000	-0.010	-0.112
-170.910	-200.000	-0.020	0.207
-169.896	-129.950	0.564	0.077
-168.881	-163.643	0.036	-0.002
-167.866	-103.889	0.021	-0.005
-166.852	23.176	-0.205	0.167
-165.837	23.542	-0.015	0.012
-164.823	159.804	0.224	0.310
-163.808	478.320	-0.021	0.048
-162.793	40.141	0.096	0.086
-161.779	-51.228	-0.279	-0.130
-160.764	49.612	-0.064	-0.060
-159.750	500.126	0.128	0.292
-158.735	-55.861	-0.121	0.054
-157.720	132.022	0.045	-0.058
-156.706	800.000	0.121	0.364
-155.691	208.728	0.136	-0.212
-154.677	184.505	-0.173	0.254
-153.662	-200.000	0.023	0.184
-152.647	800.000	-0.080	-0.309
-151.633	90.906	0.259	-0.288
-150.618	-95.973	-0.071	0.019
-149.604	217.064	0.169	0.267
-148.589	416.572	-0.123	0.262
-147.574	800.000	0.036	0.126
-146.560	155.143	-0.207	-0.283
-145.545	-200.000	0.000	0.141
-144.531	17.480	0.081	-0.064
-143.516	521.994	0.037	-0.087
-142.502	800.000	-0.097	-0.388
-141.487	-200.000	-0.012	0.126
-140.472	-22.041	0.254	0.153
-139.458	-200.000	-0.016	-0.074
-138.443	-200.000	0.007	0.057
-137.429	-60.758	0.088	0.037
-136.414	-99.177	0.165	0.041
-135.399	-23.158	0.270	0.161
-134.385	770.804	0.041	-0.111
-133.370	-200.000	-0.043	0.255
-132.356	9.953	-0.132	0.099
-131.341	-200.000	-0.047	-0.282
-130.326	-176.506	-0.125	-0.003
-129.312	-142.986	0.230	0.022
-128.297	508.668	-0.090	0.206
-127.283	75.469	0.242	0.253
-126.268	-90.294	0.351	0.101
-125.253	-129.936	0.335	-0.046
-124.239	-69.234	-0.292	0.111
-123.224	800.000	0.102	0.357
-122.210	-200.000	0.056	-0.268
-121.195	-200.000	-0.007	-0.046
-120.180	-41.632	0.196	0.100
