DTS Sentinel unit serial number:	SN413079Multiplexer serial number:	ORYXHardware model number:	OX4-SRSoftware version number:	ORYX F/W v4.00 Oryx Data Collector v3.7.2.0data status	okinstallation	princeton_trtdifferential loss correction	single-endedforward channel	channel 3reverse channel	N/Adate	2019/09/17time	08:12:34forward acquisition time	60.00reverse acquisition time	0.00gamma	496.2192k internal	0.2333k external	0.2333temperature offset calibration	0.9935default loss term (dB/km)	0.3790temperature slope calibration	1.0000multiplexer offset coefficient	1.0000multiplexer slope coefficient	1.0000fibre end	0.00T internal ref (°C)	27.37T ext. ref 1 (°C)	0.12T ext. ref 2 (°C)	22.65length (m)	temperature (°C)	Stokes	anti-Stokes-747.200	-200.000	-0.032	0.172
-746.185	123.240	-0.100	0.126
-745.171	-17.482	0.136	-0.086
-744.156	-20.889	-0.325	0.200
-743.142	133.307	0.124	0.162
-742.127	-46.941	-0.207	0.102
-741.112	45.444	-0.249	0.231
-740.098	800.000	0.079	0.275
-739.083	-200.000	-0.020	0.097
-738.069	129.266	-0.311	0.399
-737.054	-104.316	0.067	0.016
-736.039	195.786	0.102	0.155
-735.025	-48.562	0.164	-0.079
-734.010	-81.313	-0.157	0.052
-732.996	285.707	-0.039	0.071
-731.981	200.732	-0.096	-0.149
-730.966	663.150	0.084	0.218
-729.952	260.431	-0.157	-0.274
-728.937	800.000	-0.050	-0.190
-727.923	-200.000	0.011	-0.177
-726.908	-126.561	-0.077	0.011
-725.894	800.000	0.021	-0.084
-724.879	-145.030	0.237	0.022
-723.864	-200.000	-0.029	0.165
-722.850	-97.337	-0.268	-0.070
-721.835	89.473	-0.218	-0.244
-720.821	15.713	-0.403	-0.318
-719.806	359.894	-0.125	0.251
-718.791	199.985	-0.045	-0.069
-717.777	4.760	-0.290	-0.214
-716.762	-200.000	0.023	-0.142
-715.748	33.583	-0.148	-0.130
-714.733	800.000	-0.063	-0.215
-713.718	-200.000	0.012	-0.136
-712.704	-116.002	-0.010	-0.002
-711.689	176.286	-0.032	0.047
-710.675	48.059	0.198	-0.186
-709.660	436.733	0.031	0.068
-708.645	800.000	0.074	-0.249
-707.631	-96.502	0.114	-0.030
-706.616	208.808	0.239	-0.376
-705.602	-80.982	0.333	-0.111
-704.587	-200.000	0.000	-0.230
-703.572	-120.181	-0.547	-0.094
-702.558	-89.950	-0.036	0.011
-701.543	-178.506	-0.200	-0.005
-700.529	-84.780	-0.107	-0.034
-699.514	-35.420	0.457	0.249
-698.499	408.038	-0.094	-0.199
-697.485	39.168	0.174	-0.156
-696.470	-37.464	0.146	-0.078
-695.456	-126.911	-0.244	0.036
-694.441	9.908	0.280	0.213
-693.426	-200.000	-0.001	-0.205
-692.412	707.498	0.026	0.068
-691.397	-200.000	-0.003	0.126
-690.383	22.194	-0.218	0.178
-689.368	800.000	-0.035	0.099
-688.354	96.909	-0.149	0.171
-687.339	-27.823	-0.164	0.095
-686.324	-12.823	-0.326	0.213
-685.310	-61.656	0.304	-0.128
-684.295	114.416	0.177	0.217
-683.281	-139.300	-0.259	-0.028
-682.266	-200.000	-0.017	0.078
-681.251	23.489	0.113	-0.093
-680.237	186.935	-0.131	0.196
-679.222	40.315	-0.236	-0.213
-678.208	105.812	-0.105	0.124
-677.193	17.667	0.196	0.156
-676.178	-124.266	0.130	-0.020
-675.164	104.349	0.072	0.085
-674.149	1.333	-0.057	-0.041
-673.135	74.299	-0.170	0.179
-672.120	5.590	-0.229	0.170
-671.105	154.578	0.151	-0.208
-670.091	668.966	-0.004	-0.010
-669.076	-12.743	0.020	-0.013
-668.062	-10.245	-0.400	-0.266
-667.047	-156.036	-0.438	0.028
-666.032	-83.051	0.131	-0.042
-665.018	-200.000	0.060	0.266
-664.003	91.170	-0.122	-0.137
-662.989	-200.000	0.010	-0.283
-661.974	488.567	0.164	-0.375
-660.959	-128.310	-0.178	0.025
-659.945	-200.000	-0.001	0.314
-658.930	23.090	-0.088	0.072
-657.916	-160.723	-0.045	-0.002
-656.901	-200.000	0.042	0.224
-655.886	594.088	0.226	-0.560
-654.872	139.337	0.117	0.154
-653.857	800.000	0.076	-0.313
-652.843	-3.653	-0.285	-0.199
-651.828	-68.407	0.069	0.027
-650.814	205.126	0.089	0.138
-649.799	-200.000	0.023	-0.180
-648.784	-70.887	-0.144	-0.054
-647.770	-18.166	0.062	-0.039
-646.755	396.539	-0.070	-0.145
-645.741	588.373	0.130	0.322
-644.726	-83.116	0.124	0.040
-643.711	-200.000	0.016	0.377
-642.697	-76.204	-0.195	-0.069
-641.682	800.000	0.005	0.013
-640.668	-118.173	-0.269	0.048
-639.653	229.834	-0.249	0.408
-638.638	-200.000	0.031	0.349
-637.624	800.000	-0.012	-0.038
-636.609	-40.181	-0.092	0.048
-635.595	534.619	-0.059	0.139
-634.580	-33.905	-0.229	-0.126
-633.565	-99.478	0.356	-0.090
-632.551	77.426	-0.282	-0.300
-631.536	-200.000	0.000	0.103
-630.522	-187.293	0.313	0.004
-629.507	14.825	0.241	-0.189
-628.492	-101.334	-0.320	-0.078
-627.478	218.354	0.129	-0.207
-626.463	160.609	-0.141	0.197
-625.449	3.145	0.244	-0.178
-624.434	-200.000	0.001	-0.040
-623.419	468.263	-0.008	0.018
-622.405	-156.883	0.069	0.004
-621.390	-21.898	0.179	-0.109
-620.376	-200.000	-0.010	-0.058
-619.361	-106.337	-0.145	0.032
-618.346	50.640	-0.096	-0.091
-617.332	-22.399	0.029	-0.018
-616.317	-200.000	0.057	0.265
-615.303	-200.000	0.005	-0.154
-614.288	-110.304	-0.510	-0.106
-613.273	701.057	0.077	-0.202
-612.259	-141.375	-0.254	0.026
-611.244	800.000	0.104	0.288
-610.230	130.890	-0.098	0.126
-609.215	104.744	-0.130	-0.153
-608.201	-162.584	0.173	-0.009
-607.186	-10.098	0.013	0.009
-606.171	-191.621	0.229	-0.002
-605.157	-128.824	0.150	0.021
-604.142	-80.446	-0.324	0.108
-603.128	800.000	0.016	-0.058
-602.113	-25.697	0.090	-0.053
-601.098	-119.191	0.158	0.028
-600.084	-135.473	-0.201	0.024
-599.069	-148.281	-0.202	-0.017
-598.055	800.000	-0.046	0.159
-597.040	-200.000	-0.027	0.288
-596.025	25.732	-0.063	0.052
-595.011	-200.000	-0.003	0.218
-593.996	800.000	0.150	-0.527
-592.982	-38.012	0.297	0.157
-591.967	-200.000	-0.015	-0.065
-590.952	216.277	-0.100	-0.158
-589.938	-102.706	-0.069	-0.017
-588.923	-200.000	0.043	-0.363
-587.909	788.182	0.141	0.387
-586.894	-107.225	-0.297	-0.065
-585.879	732.808	0.085	-0.227
-584.865	-5.993	-0.186	0.127
-583.850	-117.466	-0.330	-0.060
-582.836	-200.000	0.018	-0.148
-581.821	-200.000	0.081	-0.402
-580.806	-38.306	-0.302	-0.160
-579.792	-200.000	0.030	0.327
-578.777	-25.373	-0.288	-0.170
-577.763	-200.000	0.034	-0.203
-576.748	99.214	-0.111	0.128
-575.733	-37.964	-0.126	-0.067
-574.719	800.000	0.030	0.110
-573.704	-200.000	-0.005	0.286
-572.690	-200.000	-0.005	-0.306
-571.675	-200.000	-0.006	0.213
-570.661	410.640	-0.120	0.255
-569.646	-200.000	-0.018	-0.104
-568.631	28.261	0.106	0.089
-567.617	800.000	-0.067	-0.292
-566.602	383.329	-0.026	0.053
-565.588	-40.878	0.226	-0.117
-564.573	25.770	-0.144	0.120
-563.558	-200.000	-0.020	0.101
-562.544	666.715	0.055	-0.141
-561.529	-132.424	-0.333	0.043
-560.515	-200.000	-0.021	-0.098
-559.500	44.252	0.319	-0.293
-558.485	326.787	-0.058	0.112
-557.471	-59.560	-0.015	-0.007
-556.456	124.943	-0.196	-0.247
-555.442	9.631	0.163	-0.123
-554.427	477.756	-0.076	0.172
-553.412	-200.000	-0.027	0.220
-552.398	-1.449	0.113	0.080
-551.383	271.109	0.050	-0.088
-550.369	583.461	-0.059	0.145
-549.354	-73.833	0.251	-0.091
-548.339	17.786	-0.224	-0.178
-547.325	-200.000	0.037	-0.174
-546.310	-51.723	0.431	-0.200
-545.296	-126.284	-0.458	0.068
-544.281	-200.000	-0.015	0.178
-543.266	-200.000	0.004	-0.174
-542.252	404.279	0.067	-0.140
-541.237	-82.479	-0.114	0.037
-540.223	67.718	-0.052	-0.053
-539.208	-17.434	-0.296	0.186
-538.193	-153.070	-0.258	-0.018
-537.179	-200.000	0.038	0.250
-536.164	800.000	0.114	0.364
-535.150	-62.878	0.231	-0.095
-534.135	71.508	-0.246	-0.254
-533.121	439.790	0.079	-0.172
-532.106	800.000	-0.077	-0.216
-531.091	-51.836	0.224	-0.104
-530.077	-3.993	-0.177	0.123
-529.062	-168.633	0.045	-0.002
-528.048	2.822	0.054	-0.039
-527.033	-53.091	-0.234	-0.107
-526.018	800.000	0.103	-0.318
-525.004	-200.000	0.002	-0.222
-523.989	24.611	-0.153	-0.126
-522.975	36.935	-0.175	0.155
-521.960	-107.416	-0.242	-0.053
-520.945	-41.902	-0.120	0.061
-519.931	37.428	0.089	-0.079
-518.916	121.632	-0.170	-0.212
-517.902	-0.396	0.165	0.117
-516.887	-152.328	-0.176	-0.013
-515.872	-200.000	-0.038	-0.263
-514.858	-89.498	0.149	-0.044
-513.843	-6.306	-0.129	-0.088
-512.829	-98.129	0.108	-0.028
-511.814	223.389	0.032	0.052
-510.799	115.685	0.217	0.265
-509.785	-60.455	0.171	0.073
-508.770	115.642	0.038	0.046
-507.756	167.449	0.216	0.305
-506.741	-25.289	-0.198	0.117
-505.726	-27.392	0.163	0.094
-504.712	742.070	0.161	-0.431
-503.697	-77.777	-0.257	0.089
-502.683	-124.975	0.325	0.050
-501.668	-87.451	0.339	0.102
-500.653	594.064	-0.137	-0.337
-499.639	19.028	0.290	-0.231
-498.624	-100.833	-0.151	0.037
-497.610	344.117	0.024	0.047
-496.595	386.322	0.037	0.076
-495.581	800.000	-0.113	0.321
-494.566	800.000	-0.140	0.485
-493.551	509.194	0.031	-0.072
-492.537	-117.380	-0.415	-0.075
-491.522	-61.201	-0.185	-0.078
-490.508	-127.661	0.069	0.010
-489.493	-81.294	0.219	0.072
-488.478	800.000	0.065	-0.249
-487.464	215.111	0.118	-0.186
-486.449	-179.388	0.335	0.007
-485.435	688.961	-0.134	0.350
-484.420	233.757	0.061	0.100
-483.405	-200.000	-0.027	0.147
-482.391	298.880	-0.106	0.195
-481.376	289.003	0.128	-0.231
-480.362	459.946	0.139	-0.309
-479.347	34.787	0.128	0.111
-478.332	18.722	-0.055	0.044
-477.318	371.822	-0.049	0.099
-476.303	52.753	0.063	0.060
-475.289	-29.712	-0.230	-0.130
-474.274	162.991	-0.226	-0.316
-473.259	-38.910	-0.394	0.206
-472.245	0.134	0.221	0.157
-471.230	800.000	-0.131	0.482
-470.216	45.743	-0.090	0.083
-469.201	-28.882	-0.335	-0.192
-468.186	-141.004	0.222	0.023
-467.172	17.158	-0.084	0.067
-466.157	89.146	-0.239	-0.265
-465.143	-113.079	-0.146	-0.029
-464.128	-56.467	0.241	0.106
-463.113	217.039	0.214	-0.339
-462.099	2.989	-0.273	-0.197
-461.084	571.411	0.068	-0.166
-460.070	-173.146	0.411	-0.013
-459.055	-39.841	0.449	0.233
-458.040	-76.448	-0.122	0.043
-457.026	669.535	0.109	-0.281
-456.011	800.000	0.102	0.293
-454.997	-200.000	0.023	-0.100
-453.982	235.068	0.146	0.240
-452.968	800.000	0.070	0.220
-451.953	196.944	0.161	-0.243
-450.938	20.707	0.118	0.095
-449.924	800.000	-0.053	-0.154
-448.909	-66.739	-0.216	0.085
-447.895	800.000	0.094	-0.269
-446.880	-80.016	-0.512	-0.171
-445.865	800.000	0.107	0.316
-444.851	-200.000	-0.010	-0.220
-443.836	106.661	0.134	-0.157
-442.822	69.560	-0.075	-0.077
-441.807	23.260	0.270	0.220
-440.792	-200.000	-0.008	0.086
-439.778	325.009	0.111	-0.210
-438.763	-44.653	0.270	0.134
-437.749	800.000	-0.027	-0.088
-436.734	27.822	0.350	-0.293
-435.719	800.000	0.050	-0.177
-434.705	-78.422	-0.096	-0.033
-433.690	800.000	-0.055	0.189
-432.676	-186.004	-0.162	0.002
-431.661	-118.297	-0.385	0.068
-430.646	305.024	0.055	0.101
-429.632	105.978	-0.131	0.154
-428.617	800.000	-0.042	-0.183
-427.603	-98.725	-0.049	-0.013
-426.588	668.024	0.045	-0.115
-425.573	-28.551	0.138	0.079
-424.559	571.012	-0.018	0.043
-423.544	-123.045	-0.080	-0.013
-422.530	-200.000	0.020	0.155
-421.515	-56.354	0.022	-0.010
-420.500	-14.222	0.298	-0.191
-419.486	46.899	-0.127	-0.118
-418.471	-200.000	0.033	0.327
-417.457	-200.000	-0.020	0.221
-416.442	-120.022	-0.213	-0.036
-415.428	-47.789	-0.085	-0.041
-414.413	434.432	-0.209	-0.450
-413.398	72.525	0.153	-0.158
-412.384	4.530	0.137	0.100
-411.369	-18.095	-0.333	-0.207
-410.355	60.638	-0.064	-0.063
-409.340	-79.200	-0.278	-0.093
-408.325	-112.165	-0.196	0.039
-407.311	44.622	-0.228	0.208
-406.296	-29.566	0.043	0.025
-405.282	87.937	-0.161	0.178
-404.267	-39.263	0.100	-0.052
-403.252	-54.571	0.095	-0.043
-402.238	-181.489	-0.306	-0.006
-401.223	-200.000	-0.029	-0.237
-400.209	171.666	-0.054	0.077
-399.194	-29.810	-0.377	0.213
-398.179	243.190	0.150	-0.249
-397.165	-81.426	0.126	-0.041
-396.150	243.137	0.042	-0.070
-395.136	-80.959	-0.174	-0.057
-394.121	-200.000	-0.017	0.246
-393.106	-54.123	-0.074	-0.033
-392.092	-40.143	0.122	0.063
-391.077	-162.412	0.257	-0.013
-390.063	-200.000	0.017	0.186
-389.048	320.811	-0.166	0.313
-388.033	800.000	-0.055	-0.217
-387.019	57.520	-0.200	0.193
-386.004	-41.316	-0.305	-0.156
-384.990	-200.000	-0.005	-0.056
-383.975	-76.645	-0.234	-0.081
-382.960	246.997	0.081	-0.135
-381.946	140.862	0.366	0.480
-380.931	-200.000	0.017	-0.088
-379.917	-154.130	-0.170	0.011
-378.902	749.645	0.055	-0.148
-377.888	435.490	-0.099	-0.214
-376.873	-100.654	0.219	0.053
-375.858	28.114	-0.170	0.142
-374.844	-155.909	0.192	0.012
-373.829	-125.333	-0.221	0.033
-372.815	-104.537	-0.177	-0.041
-371.800	422.718	0.129	-0.275
-370.785	323.693	0.013	-0.024
-369.771	-124.410	0.109	-0.017
-368.756	145.199	-0.147	-0.195
-367.742	78.952	-0.168	0.179
-366.727	-107.634	0.299	-0.065
-365.712	-92.115	0.180	-0.050
-364.698	-76.134	-0.299	0.105
-363.683	-200.000	0.002	0.081
-362.669	-200.000	-0.005	-0.193
-361.654	774.428	-0.060	-0.161
-360.639	115.269	0.244	-0.295
-359.625	1.104	-0.119	0.084
-358.610	-200.000	-0.030	0.181
-357.596	52.846	0.008	0.007
-356.581	-121.278	0.184	0.030
-355.566	-36.835	0.161	-0.086
-354.552	-200.000	-0.039	-0.185
-353.537	-192.320	0.269	0.003
-352.523	-11.449	-0.073	0.048
-351.508	-200.000	0.041	-0.180
-350.493	-200.000	0.048	0.244
-349.479	-42.464	0.206	-0.104
-348.464	-200.000	-0.049	-0.294
-347.450	-200.000	0.066	-0.418
-346.435	-56.813	0.218	-0.095
-345.420	-49.478	0.189	0.089
-344.406	-146.415	-0.124	-0.011
-343.391	800.000	-0.053	0.219
-342.377	-6.403	-0.203	-0.137
-341.362	27.602	-0.295	0.246
-340.348	39.382	0.104	0.092
-339.333	300.768	0.077	-0.141
-338.318	610.396	-0.119	-0.293
-337.304	-15.264	-0.291	-0.184
-336.289	-159.119	0.110	0.006
-335.275	72.471	-0.267	-0.275
-334.260	70.580	0.293	0.300
-333.245	94.038	-0.069	0.077
-332.231	760.211	-0.025	-0.068
-331.216	121.756	-0.216	0.267
-330.202	-200.000	0.031	0.300
-329.187	44.088	0.059	0.053
-328.172	-105.419	-0.391	0.088
-327.158	34.146	-0.078	0.067
-326.143	-200.000	0.041	0.452
-325.129	-67.246	0.184	0.072
-324.114	-200.000	-0.013	0.227
-323.099	800.000	-0.081	-0.336
-322.085	5.485	-0.100	0.073
-321.070	-45.269	0.304	-0.149
-320.056	77.459	0.077	-0.081
-319.041	-82.875	-0.307	-0.098
-318.026	-200.000	-0.015	0.145
-317.012	800.000	0.042	-0.116
-315.997	-200.000	0.046	-0.203
-314.983	50.354	-0.075	-0.070
-313.968	-71.645	0.414	-0.153
-312.953	685.763	-0.062	-0.159
-311.939	-104.097	0.121	0.028
-310.924	800.000	0.068	-0.288
-309.910	136.997	0.070	-0.091
-308.895	-75.907	0.313	-0.110
-307.880	-24.301	0.125	-0.074
-306.866	-70.077	-0.069	0.026
-305.851	-200.000	0.011	-0.052
-304.837	-138.774	-0.022	0.002
-303.822	228.208	0.086	0.139
-302.807	133.791	0.174	0.223
-301.793	-83.281	-0.208	-0.066
-300.778	-40.448	0.353	0.181
-299.764	-93.480	-0.077	-0.021
-298.749	53.219	0.146	-0.138
-297.735	294.142	-0.218	-0.393
-296.720	-48.052	-0.166	0.079
-295.705	-41.898	0.216	-0.109
-294.691	153.356	-0.180	0.244
-293.676	-108.744	0.171	-0.036
-292.662	-165.057	0.307	0.013
-291.647	274.476	-0.177	-0.309
-290.632	323.874	-0.136	0.256
-289.618	426.663	-0.076	0.161
-288.603	-131.276	0.310	-0.041
-287.589	3.817	0.073	-0.053
-286.574	271.390	-0.059	-0.102
-285.559	-200.000	0.014	0.080
-284.545	255.918	0.048	-0.081
-283.530	-91.851	-0.240	-0.067
-282.516	-32.450	0.348	0.191
-281.501	-112.007	0.326	0.065
-280.486	-64.286	-0.465	-0.187
-279.472	137.303	-0.101	0.131
-278.457	535.679	-0.047	0.109
-277.443	-53.707	-0.141	0.064
-276.428	18.950	0.051	0.040
-275.413	-200.000	-0.056	-0.258
-274.399	234.045	-0.044	-0.071
-273.384	-109.777	0.274	-0.057
-272.370	1.306	-0.171	0.122
-271.355	-199.986	0.224	-0.001
-270.340	88.270	-0.113	-0.124
-269.326	-15.319	0.078	-0.049
-268.311	-200.000	-0.013	-0.073
-267.297	-108.007	-0.067	-0.014
-266.282	706.949	0.083	-0.215
-265.267	-186.535	-0.215	-0.003
-264.253	-200.000	0.028	-0.148
-263.238	457.729	0.187	0.410
-262.224	680.642	0.170	0.436
-261.209	349.435	-0.140	0.272
-260.195	56.866	-0.047	0.045
-259.180	-40.427	-0.092	0.047
-258.165	44.810	0.303	-0.275
-257.151	-121.935	-0.094	-0.015
-256.136	292.757	0.278	0.499
-255.122	-200.000	-0.008	0.100
-254.107	800.000	-0.093	0.319
-253.092	-131.441	-0.276	-0.036
-252.078	274.880	-0.064	-0.111
-251.063	800.000	-0.080	-0.259
-250.049	-33.866	0.261	-0.142
-249.034	-74.655	0.285	0.101
-248.019	-73.863	0.393	0.141
-247.005	560.438	0.152	0.361
-245.990	-73.575	0.219	0.079
-244.976	124.205	0.122	0.151
-243.961	135.874	-0.190	0.244
-242.946	206.034	0.227	0.348
-241.932	550.039	0.088	-0.207
-240.917	-37.444	-0.100	0.053
-239.903	-23.112	0.109	0.065
-238.888	-154.647	-0.155	0.010
-237.873	-200.000	0.040	-0.469
-236.859	-157.475	0.339	-0.020
-235.844	-139.250	-0.309	-0.033
-234.830	-66.067	0.297	0.117
-233.815	643.537	-0.073	-0.183
-232.800	-130.458	0.226	-0.030
-231.786	102.199	-0.202	0.232
-230.771	-16.328	0.132	-0.083
-229.757	11.900	-0.289	0.219
-228.742	800.000	-0.028	0.091
-227.727	-107.657	0.265	-0.057
-226.713	-200.000	0.033	-0.225
-225.698	599.255	-0.080	-0.195
-224.684	-9.866	-0.210	-0.138
-223.669	277.687	0.079	0.138
-222.655	320.175	0.057	-0.107
-221.640	-81.465	-0.196	-0.064
-220.625	62.497	0.137	0.135
-219.611	-126.534	-0.117	-0.017
-218.596	248.749	0.187	0.312
-217.582	-107.472	0.106	0.023
-216.567	491.536	0.103	-0.233
-215.552	506.499	-0.192	-0.438
-214.538	-3.397	0.120	0.082
-213.523	119.864	0.087	0.107
-212.509	190.222	-0.177	0.262
-211.494	-173.204	0.310	0.009
-210.479	11.853	0.379	-0.286
-209.465	-200.000	0.039	0.237
-208.450	108.185	-0.068	-0.080
-207.436	108.077	0.173	0.203
-206.421	-103.389	0.217	-0.050
-205.406	800.000	0.045	0.179
-204.392	-15.352	-0.129	-0.081
-203.377	575.500	0.031	-0.074
-202.363	-200.000	0.048	-0.367
-201.348	-51.999	0.134	-0.061
-200.333	-200.000	-0.035	0.369
-199.319	-25.926	0.234	-0.136
-198.304	-124.612	0.233	-0.036
-197.290	-200.000	-0.020	-0.210
-196.275	-74.212	0.326	0.116
-195.260	19.498	-0.141	0.111
-194.246	-200.000	0.000	0.443
-193.231	800.000	0.052	0.189
-192.217	105.461	-0.205	0.239
-191.202	102.925	0.112	-0.129
-190.187	745.348	0.042	-0.110
-189.173	555.296	-0.097	0.229
-188.158	-9.912	-0.209	0.137
-187.144	199.391	-0.057	-0.087
-186.129	-200.000	0.044	0.289
-185.114	-200.000	-0.044	0.334
-184.100	412.519	-0.051	-0.107
-183.085	37.398	-0.088	-0.077
-182.071	-173.301	-0.205	-0.006
-181.056	-200.000	-0.020	-0.152
-180.042	264.954	0.158	-0.270
-179.027	33.348	-0.334	0.285
-178.012	-91.174	-0.120	-0.034
-176.998	-160.621	-0.243	0.013
-175.983	-165.114	0.349	0.015
-174.969	66.349	-0.174	0.174
-173.954	800.000	0.022	0.092
-172.939	152.732	0.236	-0.317
-171.925	633.995	-0.023	0.057
-170.910	-200.000	0.070	0.402
-169.896	51.099	0.188	0.175
-168.881	-200.000	0.056	0.402
-167.866	-54.190	-0.220	0.098
-166.852	-159.092	-0.214	-0.012
-165.837	222.444	0.030	-0.047
-164.823	346.854	-0.110	0.212
-163.808	800.000	0.049	0.145
-162.793	52.847	-0.208	-0.195
-161.779	-170.252	0.020	0.001
-160.764	-114.527	0.181	-0.034
-159.750	8.213	-0.273	-0.201
-158.735	-86.145	0.196	0.059
-157.720	-162.399	0.288	0.014
-156.706	63.331	0.148	-0.146
-155.691	7.978	0.064	0.047
-154.677	787.312	0.118	0.319
-153.662	-200.000	-0.005	0.240
-152.647	263.673	-0.167	-0.286
-151.633	25.604	-0.042	0.035
-150.618	499.843	-0.141	0.320
-149.604	302.360	0.045	-0.081
-148.589	83.424	-0.168	0.180
-147.574	-170.743	0.138	0.005
-146.560	120.409	-0.244	-0.297
-145.545	800.000	0.068	-0.208
-144.531	678.957	-0.170	-0.434
-143.516	-63.364	0.190	-0.077
-142.502	662.260	0.167	0.423
-141.487	-99.779	0.018	0.004
-140.472	39.779	0.062	-0.055
-139.458	660.283	0.067	0.169
-138.443	-59.537	0.375	0.158
-137.429	-63.702	0.350	-0.141
-136.414	-153.608	-0.265	-0.018
-135.399	-200.000	0.035	0.189
-134.385	-5.018	-0.222	0.150
-133.370	449.761	-0.141	0.306
-132.356	-13.824	0.111	0.070
-131.341	-67.783	-0.174	-0.067
-130.326	40.688	-0.078	0.069
-129.312	800.000	-0.041	0.160
-128.297	-111.654	-0.177	0.035
-127.283	800.000	-0.091	-0.299
-126.268	-200.000	-0.003	0.062
-125.253	800.000	0.029	-0.084
-124.239	-200.000	-0.009	0.138
-123.224	-52.840	0.322	0.146
-122.210	-78.402	-0.224	-0.075
-121.195	-84.863	0.134	-0.041
