DTS Sentinel unit serial number:	SN413079Multiplexer serial number:	ORYXHardware model number:	OX4-SRSoftware version number:	ORYX F/W v4.00 Oryx Data Collector v3.7.2.0data status	okinstallation	princeton_trtdifferential loss correction	single-endedforward channel	channel 3reverse channel	N/Adate	2019/09/14time	17:08:34forward acquisition time	60.00reverse acquisition time	0.00gamma	496.2192k internal	0.2295k external	0.2295temperature offset calibration	1.0029default loss term (dB/km)	0.3790temperature slope calibration	1.0000multiplexer offset coefficient	1.0000multiplexer slope coefficient	1.0000fibre end	0.00T internal ref (°C)	37.94T ext. ref 1 (°C)	5.00T ext. ref 2 (°C)	32.83length (m)	temperature (°C)	Stokes	anti-Stokes-747.200	-67.073	0.087	0.035
-746.185	-200.000	0.016	0.360
-745.171	-200.000	0.122	0.669
-744.156	291.329	-0.042	0.078
-743.142	70.887	-0.065	0.069
-742.127	-200.000	-0.026	0.155
-741.112	508.474	0.077	0.183
-740.098	-200.000	-0.039	0.488
-739.083	542.985	-0.031	0.075
-738.069	338.929	0.291	0.580
-737.054	59.822	-0.162	0.164
-736.039	162.511	-0.213	0.306
-735.025	-108.008	0.298	0.066
-734.010	202.309	-0.186	-0.293
-732.996	-200.000	-0.031	0.210
-731.981	-200.000	-0.044	-0.395
-730.966	-200.000	0.024	-0.113
-729.952	-103.301	-0.391	0.094
-728.937	105.619	-0.139	-0.168
-727.923	800.000	0.057	-0.203
-726.908	-95.580	-0.279	-0.076
-725.894	800.000	0.065	-0.205
-724.879	800.000	0.037	0.136
-723.864	-80.358	0.163	-0.056
-722.850	5.596	-0.126	0.095
-721.835	618.893	0.101	-0.259
-720.821	265.938	-0.106	0.188
-719.806	-104.037	-0.246	0.059
-718.791	84.575	-0.389	-0.435
-717.777	609.732	0.036	0.091
-716.762	-114.735	-0.177	0.035
-715.748	-200.000	0.002	-0.104
-714.733	-200.000	-0.024	-0.475
-713.718	-200.000	-0.005	-0.111
-712.704	-95.483	-0.171	0.047
-711.689	800.000	0.077	0.283
-710.675	348.371	-0.176	-0.353
-709.660	-151.998	-0.130	0.010
-708.645	-200.000	0.038	0.227
-707.631	-200.000	-0.018	0.216
-706.616	73.641	-0.107	-0.115
-705.602	137.860	0.062	0.083
-704.587	-25.949	0.067	-0.040
-703.572	235.725	0.137	0.231
-702.558	161.745	0.049	-0.070
-701.543	800.000	-0.006	-0.017
-700.529	47.869	0.197	0.188
-699.514	-82.769	0.160	-0.053
-698.499	-20.660	-0.053	-0.033
-697.485	-3.963	0.052	0.037
-696.470	800.000	-0.102	-0.397
-695.456	50.369	0.078	-0.075
-694.441	467.004	0.033	0.075
-693.426	-53.956	-0.286	0.133
-692.412	-64.784	0.252	-0.104
-691.397	188.893	0.082	-0.125
-690.383	-81.789	0.121	0.040
-689.368	684.721	0.144	-0.384
-688.354	232.363	-0.101	0.169
-687.339	113.826	-0.228	-0.282
-686.324	-77.094	-0.353	-0.126
-685.310	-188.534	0.270	0.003
-684.295	-119.592	0.067	-0.012
-683.281	800.000	-0.063	-0.202
-682.266	-50.879	-0.093	-0.045
-681.251	-95.306	-0.158	-0.043
-680.237	-131.266	0.194	0.026
-679.222	45.795	0.076	0.072
-678.208	-16.003	0.316	-0.205
-677.193	189.175	0.156	0.238
-676.178	257.948	-0.124	0.217
-675.164	-200.000	-0.076	0.000
-674.149	83.026	-0.110	-0.122
-673.135	57.347	0.046	0.046
-672.120	-124.241	-0.327	0.052
-671.105	-98.893	-0.372	-0.096
-670.091	180.975	-0.190	-0.284
-669.076	800.000	-0.068	-0.198
-668.062	100.760	0.048	-0.056
-667.047	-16.493	0.353	-0.228
-666.032	-57.188	-0.401	0.180
-665.018	-142.486	-0.293	-0.029
-664.003	-53.054	0.047	-0.022
-662.989	-200.000	-0.015	0.124
-661.974	-138.475	-0.246	-0.028
-660.959	-200.000	0.023	0.378
-659.945	211.678	-0.184	0.294
-658.930	-172.315	-0.319	0.010
-657.916	-87.250	0.162	-0.050
-656.901	-161.851	0.098	0.005
-655.886	128.649	-0.104	-0.135
-654.872	-49.089	-0.257	-0.125
-653.857	280.762	-0.170	-0.311
-652.843	-67.221	-0.338	0.136
-651.828	800.000	-0.010	0.029
-650.814	6.151	-0.260	-0.196
-649.799	-54.932	0.366	0.168
-648.784	-200.000	-0.010	0.086
-647.770	46.168	-0.041	-0.039
-646.755	-63.980	-0.100	0.042
-645.741	-140.248	0.342	-0.036
-644.726	110.528	-0.102	0.124
-643.711	-200.000	-0.010	0.471
-642.697	-102.295	0.268	0.065
-641.682	135.456	0.112	-0.149
-640.668	7.442	-0.296	-0.225
-639.653	-200.000	-0.001	0.173
-638.638	-54.319	0.265	-0.122
-637.624	-200.000	-0.036	-0.253
-636.609	100.382	0.177	-0.209
-635.595	327.823	-0.066	0.128
-634.580	8.465	0.136	-0.104
-633.565	-67.658	-0.121	-0.048
-632.551	-130.526	-0.452	-0.062
-631.536	-51.811	-0.088	-0.042
-630.522	-164.315	0.171	-0.008
-629.507	-200.000	-0.014	-0.088
-628.492	800.000	0.047	-0.132
-627.478	431.001	0.150	0.331
-626.463	-129.774	-0.090	-0.013
-625.449	123.645	-0.118	0.150
-624.434	800.000	-0.138	0.425
-623.419	217.381	-0.173	-0.281
-622.405	-73.703	-0.108	-0.040
-621.390	-82.433	-0.284	-0.094
-620.376	-126.560	-0.109	-0.016
-619.361	226.083	-0.012	-0.020
-618.346	509.240	-0.081	0.192
-617.332	-200.000	-0.089	0.474
-616.317	800.000	0.131	0.469
-615.303	119.234	-0.030	0.038
-614.288	-10.745	0.319	0.215
-613.273	-123.832	0.203	0.033
-612.259	800.000	-0.061	-0.254
-611.244	-86.753	-0.076	-0.024
-610.230	-80.896	-0.211	0.071
-609.215	60.013	0.252	-0.253
-608.201	279.956	-0.069	0.125
-607.186	-166.227	0.375	-0.016
-606.171	-200.000	-0.031	0.140
-605.157	-30.150	-0.226	0.131
-604.142	96.535	0.162	0.188
-603.128	55.519	-0.206	-0.203
-602.113	94.679	0.190	-0.219
-601.098	-41.611	-0.152	-0.079
-600.084	352.564	-0.060	0.121
-599.069	326.185	0.119	-0.232
-598.055	375.021	0.172	0.357
-597.040	-19.412	0.193	-0.122
-596.025	-88.973	-0.068	0.020
-595.011	-33.040	-0.245	0.138
-593.996	15.938	-0.109	0.088
-592.982	-45.269	0.271	-0.137
-591.967	38.802	0.150	0.136
-590.952	800.000	-0.110	0.317
-589.938	-156.240	-0.307	0.020
-588.923	-76.396	0.307	0.110
-587.909	-132.863	-0.022	0.003
-586.894	156.764	0.247	-0.347
-585.879	-119.445	0.239	-0.042
-584.865	669.825	-0.132	0.348
-583.850	-58.212	-0.359	-0.159
-582.836	-95.484	-0.108	0.029
-581.821	-30.010	0.219	0.126
-580.806	10.660	0.085	0.066
-579.792	-126.108	0.295	0.045
-578.777	20.275	0.224	-0.184
-577.763	-180.107	0.117	-0.003
-576.748	-81.800	0.056	0.019
-575.733	-142.319	-0.200	-0.020
-574.719	-88.900	0.303	0.091
-573.704	-29.635	-0.125	0.073
-572.690	108.453	-0.248	-0.300
-571.675	-164.616	-0.084	0.004
-570.661	800.000	-0.054	0.207
-569.646	205.096	-0.294	-0.463
-568.631	-122.507	-0.042	0.007
-567.617	-200.000	0.015	-0.079
-566.602	-200.000	0.067	-0.368
-565.588	-88.371	-0.164	-0.050
-564.573	-200.000	-0.014	-0.290
-563.558	223.912	0.074	-0.121
-562.544	800.000	-0.095	-0.393
-561.529	800.000	-0.119	-0.357
-560.515	-59.776	0.327	-0.142
-559.500	-116.276	-0.147	-0.028
-558.485	-40.206	0.097	0.051
-557.471	-71.632	0.299	-0.113
-556.456	58.782	-0.274	0.274
-555.442	201.818	0.023	-0.036
-554.427	-37.126	0.141	0.077
-553.412	28.190	-0.181	0.155
-552.398	544.564	0.194	0.471
-551.383	-3.551	-0.255	-0.180
-550.369	800.000	0.022	-0.071
-549.354	-108.252	0.243	0.053
-548.339	-15.730	0.100	0.064
-547.325	19.211	-0.085	0.069
-546.310	157.042	-0.014	0.020
-545.296	-66.953	-0.335	-0.134
-544.281	-74.071	-0.032	0.012
-543.266	-114.256	-0.321	-0.063
-542.252	-164.654	-0.377	-0.017
-541.237	97.208	0.118	-0.137
-540.223	-27.090	0.271	-0.161
-539.208	800.000	-0.061	-0.211
-538.193	296.051	0.003	0.005
-537.179	-99.796	-0.309	0.078
-536.164	75.352	-0.091	0.097
-535.150	-200.000	0.022	0.110
-534.135	278.280	0.126	0.228
-533.121	-200.000	0.029	0.292
-532.106	-131.638	-0.405	0.054
-531.091	96.038	0.091	0.106
-530.077	-21.944	0.319	-0.197
-529.062	383.883	-0.014	0.029
-528.048	-200.000	-0.041	-0.275
-527.033	472.186	-0.136	0.310
-526.018	134.963	0.116	0.153
-525.004	-112.331	-0.130	0.026
-523.989	259.034	-0.147	0.258
-522.975	-29.734	0.175	0.101
-521.960	-19.362	0.186	-0.117
-520.945	-30.671	-0.188	0.108
-519.931	-65.846	-0.108	0.044
-518.916	-85.361	-0.221	0.070
-517.902	-57.611	0.101	-0.045
-516.887	-83.284	0.267	0.087
-515.872	-78.309	-0.266	-0.092
-514.858	800.000	0.043	0.183
-513.843	288.827	-0.180	-0.330
-512.829	-15.803	-0.099	0.064
-511.814	254.521	-0.091	0.158
-510.799	-87.262	0.046	-0.014
-509.785	-200.000	-0.037	0.402
-508.770	104.903	0.107	0.128
-507.756	-62.050	-0.059	-0.025
-506.741	236.273	-0.081	-0.136
-505.726	121.808	-0.247	0.311
-504.712	-200.000	0.007	0.172
-503.697	46.732	0.244	-0.230
-502.683	800.000	-0.092	0.370
-501.668	800.000	-0.063	0.277
-500.653	-200.000	-0.001	-0.095
-499.639	-77.269	0.445	0.157
-498.624	-200.000	-0.001	0.017
-497.610	800.000	-0.078	-0.242
-496.595	245.760	0.103	-0.176
-495.581	174.471	0.072	0.106
-494.566	-186.945	-0.052	-0.001
-493.551	-200.000	0.020	0.229
-492.537	-109.097	0.129	-0.028
-491.522	-200.000	-0.005	-0.086
-490.508	108.550	0.191	-0.231
-489.493	375.416	-0.079	-0.163
-488.478	-130.575	0.212	0.029
-487.464	33.041	-0.066	-0.058
-486.449	266.183	0.201	-0.355
-485.435	-5.347	-0.146	-0.101
-484.420	-14.030	-0.095	0.062
-483.405	314.907	0.099	-0.189
-482.391	-63.519	-0.198	0.082
-481.376	800.000	-0.022	-0.068
-480.362	-148.970	-0.200	0.016
-479.347	54.419	-0.326	-0.317
-478.332	-15.195	-0.291	0.188
-477.318	158.577	0.124	0.174
-476.303	125.535	0.221	-0.282
-475.289	703.823	0.070	-0.188
-474.274	552.187	-0.089	-0.216
-473.259	800.000	-0.089	-0.295
-472.245	27.945	0.261	-0.222
-471.230	-113.375	0.100	0.020
-470.216	-113.156	0.545	-0.109
-469.201	67.291	-0.154	0.159
-468.186	215.636	-0.112	-0.180
-467.172	800.000	-0.032	-0.105
-466.157	-144.529	-0.178	0.017
-465.143	59.870	-0.176	-0.176
-464.128	-100.779	0.148	-0.037
-463.113	800.000	0.062	-0.180
-462.099	-200.000	-0.017	-0.192
-461.084	-200.000	-0.035	-0.159
-460.070	-43.198	0.240	0.123
-459.055	-147.385	0.280	-0.024
-458.040	5.833	-0.457	0.342
-457.026	800.000	-0.059	0.232
-456.011	-41.415	-0.277	-0.144
-454.997	-142.213	0.064	0.006
-453.982	-200.000	-0.045	-0.349
-452.968	142.492	0.164	-0.219
-451.953	-200.000	-0.004	-0.118
-450.938	-103.697	-0.074	0.018
-449.924	-200.000	0.054	-0.310
-448.909	302.278	0.050	-0.094
-447.895	189.217	0.040	0.061
-446.880	278.362	0.085	0.154
-445.865	-74.954	-0.180	0.065
-444.851	-44.465	-0.186	-0.094
-443.836	-105.441	-0.157	0.036
-442.822	800.000	-0.063	-0.189
-441.807	-66.115	-0.161	0.065
-440.792	-106.859	-0.316	0.071
-439.778	107.303	0.053	-0.064
-438.763	-184.108	-0.267	0.004
-437.749	89.412	0.365	0.411
-436.734	-200.000	0.006	-0.101
-435.719	-89.348	-0.460	0.137
-434.705	-200.000	-0.000	0.064
-433.690	-188.343	0.083	0.001
-432.676	-57.832	0.301	0.133
-431.661	-99.345	-0.071	0.018
-430.646	-88.330	0.276	0.083
-429.632	197.062	0.050	-0.077
-428.617	-56.884	-0.489	-0.218
-427.603	226.838	0.121	0.199
-426.588	800.000	0.114	-0.333
-425.573	57.958	-0.096	-0.095
-424.559	-129.939	0.237	0.033
-423.544	21.105	0.275	0.225
-422.530	-200.000	-0.022	0.128
-421.515	257.452	-0.089	-0.155
-420.500	-122.779	0.142	-0.023
-419.486	-103.690	-0.169	0.040
-418.471	800.000	0.044	-0.188
-417.457	384.972	0.158	-0.328
-416.442	9.253	-0.280	-0.214
-415.428	24.050	-0.108	0.090
-414.413	-17.678	0.277	0.175
-413.398	-143.479	0.243	-0.023
-412.384	298.299	0.062	0.116
-411.369	34.818	0.104	-0.092
-410.355	367.714	0.105	0.215
-409.340	-196.580	0.195	-0.001
-408.325	87.776	-0.262	-0.293
-407.311	-113.546	0.292	0.058
-406.296	62.727	0.069	-0.070
-405.282	280.417	0.156	0.282
-404.267	-19.065	0.082	-0.052
-403.252	-93.996	0.204	-0.057
-402.238	560.812	0.078	-0.190
-401.223	0.921	0.156	-0.113
-400.209	-200.000	0.008	0.120
-399.194	-48.047	0.183	-0.089
-398.179	572.816	0.108	-0.266
-397.165	-200.000	0.001	0.073
-396.150	800.000	0.022	-0.085
-395.136	188.975	-0.101	-0.153
-394.121	98.925	-0.258	0.300
-393.106	-150.033	-0.336	-0.026
-392.092	-79.463	-0.357	0.122
-391.077	800.000	0.048	-0.151
-390.063	-61.907	-0.221	0.093
-389.048	-116.499	-0.036	-0.007
-388.033	-71.035	0.095	0.036
-387.019	-75.180	-0.256	-0.092
-386.004	68.027	0.100	-0.103
-384.990	295.516	0.099	0.183
-383.975	-200.000	0.002	0.047
-382.960	800.000	0.087	0.311
-381.946	469.646	-0.090	-0.203
-380.931	800.000	-0.110	0.352
-379.917	800.000	0.078	0.317
-378.902	-16.489	-0.199	-0.127
-377.888	-47.754	-0.207	-0.101
-376.873	-7.116	0.133	0.091
-375.858	153.677	0.142	-0.196
-374.844	-70.752	0.076	0.029
-373.829	97.598	-0.185	-0.215
-372.815	-109.186	-0.097	0.021
-371.800	800.000	0.056	-0.196
-370.785	-21.993	-0.299	0.183
-369.771	52.526	-0.164	0.158
-368.756	330.453	0.069	0.135
-367.742	-128.617	-0.145	-0.021
-366.727	800.000	0.105	-0.359
-365.712	-200.000	-0.011	0.091
-364.698	763.228	0.037	-0.100
-363.683	-75.733	-0.262	0.094
-362.669	117.929	0.062	0.077
-361.654	341.566	-0.020	-0.039
-360.639	399.157	0.114	0.240
-359.625	-200.000	0.053	0.290
-358.610	-200.000	-0.024	0.239
-357.596	-200.000	0.049	0.268
-356.581	22.672	0.245	-0.202
-355.566	82.554	-0.045	-0.049
-354.552	-12.385	-0.302	0.199
-353.537	-159.946	0.301	-0.017
-352.523	-200.000	0.002	0.126
-351.508	282.500	-0.096	-0.174
-350.493	-18.880	-0.240	0.150
-349.479	24.849	0.088	-0.074
-348.464	-48.684	-0.156	-0.075
-347.450	-172.781	-0.181	0.006
-346.435	800.000	-0.037	0.124
-345.420	800.000	-0.049	-0.210
-344.406	282.857	0.038	0.069
-343.391	-89.619	0.080	0.024
-342.377	-131.064	-0.208	-0.028
-341.362	379.420	-0.028	0.057
-340.348	194.161	0.097	0.148
-339.333	154.830	0.039	0.053
-338.318	198.053	-0.192	-0.295
-337.304	708.076	0.119	-0.318
-336.289	326.000	-0.170	-0.327
-335.275	-114.445	0.290	-0.056
-334.260	800.000	0.049	-0.218
-333.245	800.000	-0.046	0.194
-332.231	800.000	0.041	-0.156
-331.216	-79.490	0.010	0.003
-330.202	-8.481	0.224	0.151
-329.187	333.158	-0.019	-0.037
-328.172	-5.949	0.020	-0.014
-327.158	-16.797	-0.061	-0.039
-326.143	800.000	0.154	0.542
-325.129	77.843	0.112	-0.120
-324.114	-111.934	-0.143	0.029
-323.099	-26.126	0.167	-0.099
-322.085	99.755	-0.155	-0.180
-321.070	47.476	-0.275	0.258
-320.056	-200.000	-0.015	-0.118
-319.041	-76.539	0.099	-0.035
-318.026	-200.000	0.031	-0.293
-317.012	-59.648	0.296	-0.128
-315.997	800.000	-0.063	0.264
-314.983	800.000	0.092	0.332
-313.968	123.366	-0.217	0.273
-312.953	232.238	-0.111	0.183
-311.939	-31.976	0.051	-0.029
-310.924	193.509	0.107	0.163
-309.910	-164.270	0.122	-0.006
-308.895	18.222	0.194	-0.156
-307.880	650.553	0.060	0.154
-306.866	-79.085	0.527	0.180
-305.851	-103.444	0.235	0.055
-304.837	-120.397	0.382	-0.065
-303.822	-33.513	0.264	0.147
-302.807	479.808	0.060	-0.137
-301.793	-200.000	0.031	-0.164
-300.778	-105.468	0.099	-0.022
-299.764	-200.000	0.006	-0.246
-298.749	-200.000	0.004	-0.064
-297.735	389.959	0.066	0.138
-296.720	704.302	0.126	-0.334
-295.705	800.000	0.061	-0.183
-294.691	-200.000	-0.001	-0.236
-293.676	-98.526	0.144	-0.037
-292.662	27.481	-0.141	-0.119
-291.647	35.604	0.126	0.112
-290.632	-91.790	-0.178	0.051
-289.618	303.824	-0.048	0.090
-288.603	-200.000	0.007	0.178
-287.589	-200.000	0.011	-0.237
-286.574	-77.398	0.305	0.107
-285.559	800.000	0.051	-0.192
-284.545	-200.000	-0.006	-0.374
-283.530	800.000	0.053	-0.203
-282.516	-200.000	-0.043	-0.200
-281.501	232.534	0.131	-0.216
-280.486	-200.000	-0.019	-0.341
-279.472	-181.272	0.113	0.002
-278.457	-150.408	-0.330	-0.025
-277.443	800.000	0.077	-0.300
-276.428	-133.683	-0.400	-0.050
-275.413	-71.621	0.081	-0.030
-274.399	800.000	0.071	0.207
-273.384	204.188	-0.193	-0.301
-272.370	-120.822	0.138	0.023
-271.355	-85.346	0.288	-0.090
-270.340	69.362	-0.074	-0.076
-269.326	-200.000	0.024	-0.451
-268.311	-49.054	-0.214	-0.103
-267.297	-44.600	-0.408	0.205
-266.282	-23.509	0.113	0.068
-265.267	-86.757	0.270	-0.083
-264.253	471.700	0.190	0.430
-263.238	256.291	-0.123	-0.212
-262.224	-73.847	-0.172	0.063
-261.209	368.820	-0.178	-0.362
-260.195	-69.607	-0.425	0.163
-259.180	-39.080	0.112	0.059
-258.165	57.885	0.096	-0.094
-257.151	-84.621	0.275	-0.087
-256.136	-136.694	-0.331	-0.038
-255.122	-142.281	0.196	-0.019
-254.107	669.514	0.103	0.267
-253.092	390.643	-0.123	-0.256
-252.078	800.000	0.096	0.276
-251.063	10.527	-0.203	0.155
-250.049	-88.515	0.166	-0.050
-249.034	-29.993	0.256	-0.146
-248.019	140.504	-0.021	0.027
-247.005	-70.944	-0.108	-0.041
-245.990	-120.017	-0.249	0.043
-244.976	800.000	0.056	-0.186
-243.961	-49.084	0.048	-0.023
-242.946	-200.000	-0.021	0.289
-241.932	-86.569	-0.275	-0.084
-240.917	-200.000	0.006	-0.152
-239.903	76.018	-0.185	-0.196
-238.888	800.000	-0.078	0.245
-237.873	247.262	-0.084	-0.142
-236.859	278.211	-0.141	-0.252
-235.844	47.932	0.129	0.120
-234.830	-148.866	-0.242	0.020
-233.815	36.689	0.122	-0.108
-232.800	-200.000	0.052	-0.285
-231.786	782.341	0.053	-0.146
-230.771	-19.295	-0.214	0.133
-229.757	-166.660	0.151	0.006
-228.742	85.827	0.117	0.129
-227.727	-89.840	-0.190	0.056
-226.713	192.472	0.147	-0.223
-225.698	-200.000	-0.018	0.267
-224.684	-119.843	0.235	0.040
-223.669	334.682	-0.239	0.464
-222.655	800.000	-0.009	-0.036
-221.640	-82.805	-0.265	0.086
-220.625	151.743	-0.025	-0.034
-219.611	-54.064	0.296	0.135
-218.596	451.214	0.105	-0.232
-217.582	-58.688	0.239	-0.104
-216.567	311.071	-0.084	0.157
-215.552	-3.313	-0.056	-0.039
-214.538	253.297	-0.131	-0.224
-213.523	-57.325	-0.290	0.128
-212.509	-200.000	-0.007	-0.263
-211.494	-200.000	-0.005	0.075
-210.479	800.000	-0.032	0.127
-209.465	12.846	-0.154	0.119
-208.450	-111.683	0.219	0.044
-207.436	800.000	-0.026	0.091
-206.421	144.580	0.039	0.052
-205.406	-200.000	0.010	0.055
-204.392	-200.000	0.032	0.321
-203.377	-200.000	0.195	-0.000
-202.363	320.974	0.161	0.306
-201.348	2.326	-0.360	0.261
-200.333	-72.033	0.467	0.174
-199.319	72.713	-0.180	0.188
-198.304	-6.992	-0.147	0.100
-197.290	-200.000	0.009	0.072
-196.275	-167.658	-0.190	-0.008
-195.260	531.068	-0.055	-0.130
-194.246	-85.540	-0.175	0.055
-193.231	-122.839	-0.111	-0.018
-192.217	359.817	0.091	0.182
-191.202	-200.000	-0.046	-0.270
-190.187	-33.727	0.230	0.127
-189.173	22.498	0.305	0.250
-188.158	498.794	-0.097	-0.223
-187.144	-159.230	0.106	0.006
-186.129	800.000	-0.024	0.068
-185.114	287.201	-0.124	-0.225
-184.100	129.408	-0.079	-0.101
-183.085	-200.000	0.000	-0.056
-182.071	181.328	-0.145	-0.213
-181.056	-200.000	0.039	0.568
-180.042	800.000	0.058	0.184
-179.027	-200.000	-0.007	-0.090
-178.012	-200.000	0.000	-0.110
-176.998	126.149	0.075	-0.095
-175.983	211.376	0.203	-0.319
-174.969	-200.000	0.001	0.127
-173.954	105.216	-0.063	0.074
-172.939	83.718	0.090	-0.099
-171.925	-72.520	0.437	0.161
-170.910	-200.000	0.059	0.307
-169.896	88.187	0.169	-0.187
-168.881	-200.000	-0.050	-0.255
-167.866	-110.797	0.214	-0.044
-166.852	-200.000	0.038	-0.403
-165.837	112.548	0.148	0.179
-164.823	269.334	0.098	0.171
-163.808	800.000	-0.150	0.629
-162.793	139.960	0.065	0.086
-161.779	17.348	-0.135	0.107
-160.764	66.752	0.279	0.283
-159.750	333.398	-0.161	0.310
-158.735	46.752	-0.173	-0.160
-157.720	800.000	-0.100	-0.403
-156.706	800.000	0.035	0.132
-155.691	71.560	-0.334	0.346
-154.677	275.054	-0.148	0.263
-153.662	800.000	-0.109	0.359
-152.647	-40.700	-0.063	-0.032
-151.633	67.737	-0.060	-0.062
-150.618	354.115	0.069	-0.136
-149.604	-27.094	0.117	-0.068
-148.589	-15.948	-0.244	0.155
-147.574	544.123	-0.083	0.199
-146.560	-10.026	-0.087	0.058
-145.545	171.599	0.235	0.336
-144.531	-124.417	0.261	0.041
-143.516	-200.000	-0.024	0.297
-142.502	-133.801	0.190	0.024
-141.487	800.000	0.102	-0.316
-140.472	23.112	-0.047	-0.038
-139.458	-64.238	0.289	-0.118
-138.443	661.849	-0.048	-0.123
-137.429	615.918	-0.105	-0.262
-136.414	800.000	-0.035	0.130
-135.399	-200.000	-0.066	0.303
-134.385	108.446	0.083	-0.099
-133.370	195.863	-0.069	0.104
-132.356	105.567	0.146	0.172
-131.341	800.000	0.055	0.151
-130.326	-114.287	0.161	0.031
-129.312	46.903	0.200	-0.186
-128.297	800.000	0.133	0.435
-127.283	-9.281	0.162	-0.108
-126.268	-32.400	0.390	-0.217
-125.253	-38.823	0.132	-0.069
-124.239	229.893	-0.096	-0.156
-123.224	-88.089	-0.273	-0.082
-122.210	800.000	0.049	0.193
-121.195	249.192	-0.029	0.049
