DTS Sentinel unit serial number:	SN413079Multiplexer serial number:	ORYXHardware model number:	OX4-SRSoftware version number:	ORYX F/W v4.00 Oryx Data Collector v3.7.2.0data status	okinstallation	princeton_trtdifferential loss correction	single-endedforward channel	channel 3reverse channel	N/Adate	2019/09/18time	03:00:35forward acquisition time	60.00reverse acquisition time	0.00gamma	496.2192k internal	0.2344k external	0.2344temperature offset calibration	0.9948default loss term (dB/km)	0.3790temperature slope calibration	1.0000multiplexer offset coefficient	1.0000multiplexer slope coefficient	1.0000fibre end	0.00T internal ref (°C)	22.75T ext. ref 1 (°C)	0.17T ext. ref 2 (°C)	16.76length (m)	temperature (°C)	Stokes	anti-Stokes-747.200	43.339	-0.297	-0.272
-746.185	171.501	-0.164	0.235
-745.171	378.657	-0.092	-0.189
-744.156	22.574	-0.092	-0.075
-743.142	-144.559	0.091	-0.008
-742.127	287.679	0.205	0.371
-741.112	-179.590	0.285	-0.006
-740.098	377.194	-0.157	0.321
-739.083	-73.720	-0.114	-0.042
-738.069	22.752	0.239	0.196
-737.054	-200.000	0.000	-0.132
-736.039	-121.180	-0.220	0.037
-735.025	582.266	-0.071	0.174
-734.010	-200.000	-0.021	-0.281
-732.996	-63.300	-0.478	0.197
-731.981	-161.063	-0.189	-0.010
-730.966	-9.102	-0.069	0.046
-729.952	120.315	-0.070	-0.086
-728.937	112.669	-0.177	-0.214
-727.923	-200.000	-0.034	0.213
-726.908	-118.591	-0.247	-0.044
-725.894	-125.669	-0.072	-0.011
-724.879	800.000	-0.040	0.141
-723.864	236.781	0.076	0.126
-722.850	800.000	-0.056	-0.219
-721.835	-140.693	-0.278	-0.029
-720.821	-80.118	0.057	0.019
-719.806	-107.384	0.141	0.031
-718.791	100.711	-0.136	-0.158
-717.777	-200.000	0.032	-0.248
-716.762	800.000	0.045	-0.174
-715.748	-200.000	0.022	-0.327
-714.733	100.974	-0.075	-0.087
-713.718	-112.038	0.154	0.031
-712.704	78.892	-0.238	0.254
-711.689	145.126	0.195	-0.260
-710.675	-200.000	0.002	-0.030
-709.660	-74.985	0.283	0.101
-708.645	-200.000	0.002	-0.086
-707.631	-110.881	0.217	0.045
-706.616	-179.469	0.134	-0.003
-705.602	468.642	-0.155	0.347
-704.587	-10.142	0.265	-0.176
-703.572	251.521	0.120	-0.204
-702.558	64.350	-0.269	-0.271
-701.543	-40.252	0.270	-0.140
-700.529	-74.556	-0.193	-0.069
-699.514	99.941	0.314	0.364
-698.499	173.910	0.097	0.140
-697.485	197.890	0.034	0.052
-696.470	-112.091	-0.365	-0.073
-695.456	-153.609	0.111	-0.008
-694.441	800.000	0.100	-0.338
-693.426	-200.000	-0.084	-0.469
-692.412	488.605	-0.080	-0.182
-691.397	-63.966	0.077	0.031
-690.383	170.067	-0.182	0.260
-689.368	-143.846	-0.267	-0.025
-688.354	-68.410	0.524	0.203
-687.339	123.581	0.130	-0.163
-686.324	-166.492	-0.061	0.003
-685.310	360.266	0.088	0.176
-684.295	-176.637	-0.129	0.003
-683.281	-200.000	0.064	-0.346
-682.266	800.000	0.095	0.325
-681.251	-109.043	-0.200	-0.043
-680.237	-200.000	0.026	-0.200
-679.222	800.000	0.046	0.177
-678.208	-96.470	-0.154	-0.041
-677.193	-150.402	-0.384	-0.029
-676.178	-113.825	-0.098	-0.019
-675.164	125.129	0.124	-0.156
-674.149	800.000	-0.082	-0.281
-673.135	-200.000	-0.034	0.172
-672.120	800.000	0.056	-0.169
-671.105	-47.541	-0.400	0.194
-670.091	300.684	-0.085	-0.157
-669.076	123.536	0.048	-0.060
-668.062	-50.077	0.218	0.103
-667.047	-44.851	0.133	0.066
-666.032	-94.687	0.143	0.039
-665.018	298.738	-0.124	-0.227
-664.003	-200.000	-0.045	-0.626
-662.989	-51.805	0.196	0.091
-661.974	727.993	-0.088	-0.235
-660.959	-98.006	0.116	0.030
-659.945	28.639	0.161	-0.136
-658.930	-84.089	-0.487	-0.154
-657.916	615.717	0.098	0.244
-656.901	49.175	0.275	0.258
-655.886	55.289	0.153	-0.148
-654.872	44.733	0.031	0.028
-653.857	-200.000	0.006	0.056
-652.843	474.162	0.091	0.204
-651.828	-132.777	0.489	-0.062
-650.814	70.672	-0.127	0.131
-649.799	21.067	-0.190	0.154
-648.784	701.425	0.045	0.119
-647.770	-151.146	-0.395	0.030
-646.755	197.930	0.149	-0.227
-645.741	94.125	0.069	0.078
-644.726	482.182	-0.012	0.028
-643.711	67.187	0.175	-0.178
-642.697	-200.000	0.026	-0.182
-641.682	-200.000	-0.011	-0.124
-640.668	170.829	0.176	-0.251
-639.653	-3.192	-0.379	0.263
-638.638	72.551	-0.227	-0.236
-637.624	-126.854	-0.158	-0.023
-636.609	59.119	0.071	0.069
-635.595	-30.850	-0.137	-0.077
-634.580	40.406	-0.148	-0.133
-633.565	4.118	-0.123	-0.090
-632.551	466.485	-0.064	-0.143
-631.536	292.650	-0.283	-0.513
-630.522	224.365	-0.072	0.116
-629.507	-200.000	-0.056	0.418
-628.492	-0.423	0.041	0.029
-627.478	800.000	0.141	-0.440
-626.463	241.395	0.015	0.025
-625.449	310.396	0.139	-0.258
-624.434	-64.597	-0.319	-0.129
-623.419	168.536	0.022	0.031
-622.405	-58.867	0.434	-0.187
-621.390	-200.000	0.023	0.126
-620.376	-27.030	0.150	-0.087
-619.361	524.349	-0.131	0.306
-618.346	-65.289	-0.393	-0.157
-617.332	19.310	0.290	-0.232
-616.317	121.714	-0.150	-0.186
-615.303	-88.016	-0.042	0.012
-614.288	-25.886	-0.187	0.110
-613.273	2.718	-0.082	0.059
-612.259	800.000	0.094	0.289
-611.244	-200.000	0.061	0.272
-610.230	725.378	-0.016	-0.043
-609.215	-175.819	0.205	-0.005
-608.201	-78.648	-0.307	-0.104
-607.186	-156.957	0.233	-0.014
-606.171	-54.476	-0.189	-0.085
-605.157	326.165	-0.053	0.101
-604.142	-70.953	0.214	-0.080
-603.128	13.874	-0.195	-0.151
-602.113	-63.933	0.198	0.081
-601.098	-9.229	-0.187	0.125
-600.084	146.742	0.058	0.078
-599.069	-200.000	-0.012	-0.136
-598.055	-200.000	-0.005	-0.244
-597.040	-145.622	-0.421	-0.038
-596.025	800.000	0.002	0.009
-595.011	-61.297	-0.159	0.067
-593.996	-200.000	-0.056	0.277
-592.982	175.935	0.057	0.082
-591.967	243.212	0.105	-0.175
-590.952	547.953	0.124	-0.294
-589.938	800.000	0.023	-0.088
-588.923	156.313	0.008	-0.011
-587.909	-146.824	0.399	-0.034
-586.894	-200.000	-0.017	0.159
-585.879	-24.982	-0.177	-0.104
-584.865	74.910	-0.199	-0.208
-583.850	-109.782	-0.208	0.044
-582.836	-10.159	0.278	0.184
-581.821	441.765	0.072	0.156
-580.806	-69.094	-0.153	0.058
-579.792	114.212	-0.199	-0.240
-578.777	-25.005	0.130	0.076
-577.763	16.110	0.170	-0.133
-576.748	-200.000	0.021	0.158
-575.733	-197.337	0.202	-0.001
-574.719	196.120	-0.051	0.077
-573.704	-88.840	-0.364	-0.107
-572.690	-200.000	0.003	-0.072
-571.675	-200.000	0.002	0.176
-570.661	800.000	-0.132	0.471
-569.646	209.804	-0.054	0.085
-568.631	-200.000	-0.020	0.136
-567.617	29.190	-0.068	-0.058
-566.602	263.254	0.220	0.379
-565.588	-43.476	0.169	0.085
-564.573	800.000	-0.085	0.286
-563.558	189.732	-0.194	-0.289
-562.544	284.439	0.163	0.292
-561.529	-8.408	-0.417	-0.278
-560.515	88.904	-0.139	0.153
-559.500	-19.188	-0.076	0.047
-558.485	-157.226	-0.133	0.008
-557.471	568.092	0.066	0.160
-556.456	-37.222	0.105	-0.056
-555.442	-200.000	0.050	-0.233
-554.427	503.051	0.108	-0.248
-553.412	-151.345	-0.282	0.021
-552.398	-29.393	-0.376	-0.214
-551.383	-103.942	0.036	0.008
-550.369	61.843	-0.190	-0.188
-549.354	689.533	0.047	-0.123
-548.339	412.788	-0.090	-0.189
-547.325	-6.826	-0.214	-0.145
-546.310	-83.170	0.219	0.070
-545.296	385.542	0.130	-0.266
-544.281	-59.954	-0.082	0.035
-543.266	-61.511	0.198	0.082
-542.252	-80.750	-0.276	0.091
-541.237	-200.000	0.016	0.098
-540.223	582.135	0.039	-0.095
-539.208	-132.700	-0.120	0.015
-538.193	18.663	0.181	0.144
-537.179	-200.000	-0.039	0.236
-536.164	-200.000	0.062	-0.362
-535.150	-50.441	0.129	-0.060
-534.135	310.995	-0.053	-0.099
-533.121	800.000	-0.087	-0.241
-532.106	-57.256	-0.151	0.066
-531.091	291.406	-0.142	-0.257
-530.077	197.419	-0.137	-0.207
-529.062	483.641	-0.104	0.236
-528.048	241.879	0.091	0.151
-527.033	-54.892	-0.162	0.072
-526.018	-149.178	-0.276	-0.022
-525.004	-200.000	0.020	-0.184
-523.989	343.624	-0.066	0.129
-522.975	-12.710	0.059	-0.038
-521.960	-200.000	0.013	0.134
-520.945	-200.000	0.001	-0.149
-519.931	288.555	0.140	-0.252
-518.916	-122.277	0.075	0.012
-517.902	-200.000	0.064	0.292
-516.887	23.185	0.115	-0.094
-515.872	21.658	-0.133	0.107
-514.858	-200.000	0.013	0.086
-513.843	800.000	0.104	0.304
-512.829	-63.484	-0.059	-0.024
-511.814	238.200	0.057	0.093
-510.799	-52.269	0.228	-0.105
-509.785	-81.676	-0.232	-0.075
-508.770	179.607	-0.179	-0.260
-507.756	46.500	-0.236	0.217
-506.741	-185.463	-0.406	0.006
-505.726	-99.377	0.283	0.071
-504.712	234.550	-0.141	-0.230
-503.697	-200.000	0.047	-0.321
-502.683	-95.675	-0.151	-0.040
-501.668	-5.236	0.292	0.199
-500.653	800.000	-0.079	0.226
-499.639	-164.014	0.377	-0.017
-498.624	-16.473	0.134	-0.084
-497.610	-57.645	-0.173	-0.075
-496.595	154.332	0.219	-0.297
-495.581	-167.086	-0.205	-0.008
-494.566	693.730	0.027	-0.070
-493.551	-98.382	0.200	-0.051
-492.537	244.899	0.129	-0.215
-491.522	181.740	-0.230	-0.336
-490.508	-41.032	0.045	0.023
-489.493	-181.116	0.039	0.001
-488.478	775.230	-0.032	0.088
-487.464	-200.000	0.027	-0.226
-486.449	16.742	0.332	-0.260
-485.435	-9.333	-0.205	-0.136
-484.420	-200.000	-0.003	0.240
-483.405	-145.233	-0.430	0.039
-482.391	-48.018	0.017	0.008
-481.376	38.060	-0.212	-0.187
-480.362	-28.585	-0.147	0.084
-479.347	-159.285	0.331	-0.018
-478.332	-200.000	-0.004	-0.031
-477.318	223.595	-0.190	-0.304
-476.303	-121.234	0.224	-0.037
-475.289	800.000	-0.046	0.145
-474.274	172.448	-0.137	-0.195
-473.259	168.324	0.169	-0.238
-472.245	4.205	0.266	0.193
-471.230	381.880	-0.049	0.100
-470.216	14.929	0.058	0.045
-469.201	-200.000	0.278	-0.001
-468.186	34.864	-0.069	0.059
-467.172	-141.559	0.263	0.026
-466.157	-115.703	0.222	-0.041
-465.143	8.087	0.127	-0.094
-464.128	147.476	0.033	0.044
-463.113	16.938	-0.381	0.298
-462.099	-23.334	0.417	0.248
-461.084	-48.263	-0.147	-0.070
-460.070	-200.000	0.007	-0.120
-459.055	-86.451	-0.071	-0.021
-458.040	800.000	-0.030	-0.096
-457.026	-189.562	0.257	-0.003
-456.011	-36.844	-0.327	0.174
-454.997	124.026	0.264	-0.328
-453.982	423.900	-0.075	0.160
-452.968	173.782	0.149	0.213
-451.953	-200.000	0.068	-0.493
-450.938	206.091	0.045	0.069
-449.924	264.698	-0.031	-0.053
-448.909	-112.527	0.120	0.024
-447.895	108.183	0.204	-0.241
-446.880	279.194	0.045	0.079
-445.865	-122.360	-0.214	-0.035
-444.851	800.000	-0.103	0.307
-443.836	-20.013	-0.167	-0.102
-442.822	-200.000	-0.004	0.078
-441.807	419.142	-0.116	0.246
-440.792	-200.000	0.037	0.408
-439.778	800.000	0.042	-0.143
-438.763	211.860	-0.168	0.261
-437.749	33.653	0.181	0.156
-436.734	-200.000	-0.048	-0.310
-435.719	44.387	-0.105	0.095
-434.705	400.389	0.145	0.301
-433.690	557.930	-0.122	-0.292
-432.676	263.363	-0.156	-0.268
-431.661	-131.583	-0.128	0.017
-430.646	125.127	-0.072	0.090
-429.632	-154.474	-0.026	0.002
-428.617	-200.000	-0.028	0.297
-427.603	-66.294	0.163	-0.064
-426.588	-38.608	-0.285	0.149
-425.573	428.040	0.078	0.166
-424.559	800.000	-0.070	-0.284
-423.544	-6.199	0.346	-0.233
-422.530	26.967	0.395	0.328
-421.515	-200.000	0.016	0.095
-420.500	108.066	0.136	-0.160
-419.486	-99.677	0.060	-0.015
-418.471	-18.922	0.077	0.047
-417.457	134.494	-0.086	0.110
-416.442	-102.450	0.182	-0.043
-415.428	118.812	-0.045	0.055
-414.413	-78.541	0.052	-0.018
-413.398	-113.136	0.080	-0.016
-412.384	-5.805	0.073	-0.050
-411.369	-99.312	-0.216	0.054
-410.355	-200.000	-0.054	-0.264
-409.340	689.920	0.088	-0.227
-408.325	31.838	-0.328	0.279
-407.311	-85.456	-0.140	-0.043
-406.296	798.986	0.133	-0.363
-405.282	-200.000	-0.011	-0.255
-404.267	-70.997	-0.155	0.058
-403.252	-94.726	0.288	-0.077
-402.238	-3.756	0.037	0.026
-401.223	-17.559	0.126	0.078
-400.209	-31.947	0.199	-0.110
-399.194	64.164	0.027	0.027
-398.179	-142.552	-0.033	-0.003
-397.165	-100.990	0.237	-0.058
-396.150	-200.000	0.008	-0.097
-395.136	-136.730	-0.238	-0.027
-394.121	12.421	0.155	-0.118
-393.106	187.955	-0.110	-0.162
-392.092	113.446	-0.115	0.138
-391.077	-200.000	0.046	0.367
-390.063	73.125	0.110	0.114
-389.048	75.840	-0.285	-0.297
-388.033	548.355	0.142	0.336
-387.019	115.439	0.139	0.168
-386.004	-200.000	0.022	-0.165
-384.990	92.543	-0.204	0.227
-383.975	-44.135	0.299	0.148
-382.960	800.000	0.027	0.086
-381.946	84.375	-0.175	-0.189
-380.931	29.104	0.130	-0.109
-379.917	28.141	-0.056	-0.046
-378.902	-66.743	-0.205	0.080
-377.888	800.000	0.094	-0.314
-376.873	800.000	0.021	0.067
-375.858	-200.000	-0.009	-0.251
-374.844	-59.596	0.204	0.086
-373.829	-114.515	-0.315	0.060
-372.815	124.578	-0.236	0.293
-371.800	-200.000	0.014	0.488
-370.785	95.081	0.164	0.184
-369.771	800.000	0.090	-0.306
-368.756	-21.252	-0.207	0.125
-367.742	-155.168	0.171	0.011
-366.727	-126.028	-0.148	0.022
-365.712	-32.551	0.153	0.084
-364.698	-80.559	-0.212	-0.070
-363.683	180.894	-0.087	-0.126
-362.669	800.000	0.095	-0.308
-361.654	-82.744	0.366	0.117
-360.639	236.381	0.122	0.199
-359.625	-120.225	0.169	-0.028
-358.610	209.648	-0.275	0.424
-357.596	-84.167	-0.397	-0.124
-356.581	-145.611	0.317	-0.028
-355.566	-100.954	0.326	-0.079
-354.552	82.890	-0.122	0.131
-353.537	-96.243	0.378	0.099
-352.523	-54.035	0.116	0.052
-351.508	558.202	-0.123	0.293
-350.493	-172.863	0.365	0.011
-349.479	-143.087	-0.350	0.033
-348.464	-80.992	0.350	0.114
-347.450	93.919	0.137	-0.153
-346.435	-23.411	-0.032	0.019
-345.420	146.475	0.110	0.145
-344.406	-0.245	0.217	0.152
-343.391	-97.972	-0.227	-0.058
-342.377	77.158	0.199	-0.208
-341.362	800.000	0.023	-0.096
-340.348	-200.000	-0.013	0.076
-339.333	800.000	-0.128	-0.353
-338.318	-173.595	-0.405	-0.012
-337.304	34.441	-0.286	0.246
-336.289	46.930	-0.174	0.159
-335.275	63.301	-0.090	-0.089
-334.260	-42.755	0.141	-0.071
-333.245	-61.135	0.127	-0.053
-332.231	47.985	-0.163	-0.150
-331.216	-46.218	0.301	-0.146
-330.202	-200.000	0.014	-0.206
-329.187	333.309	-0.026	-0.050
-328.172	-52.414	-0.173	0.079
-327.158	-126.102	-0.406	-0.060
-326.143	-200.000	-0.057	-0.295
-325.129	-113.032	-0.040	-0.008
-324.114	-200.000	-0.016	-0.316
-323.099	138.344	0.061	0.079
-322.085	-144.778	-0.163	-0.015
-321.070	-173.814	0.235	0.007
-320.056	-119.330	0.247	0.042
-319.041	-181.526	-0.161	-0.003
-318.026	32.819	0.113	-0.097
-317.012	-200.000	0.041	0.275
-315.997	-116.974	0.315	0.057
-314.983	15.500	0.377	-0.292
-313.968	54.463	-0.042	-0.040
-312.953	118.231	-0.216	-0.262
-311.939	74.194	0.232	0.240
-310.924	-177.233	0.499	0.012
-309.910	-162.301	0.123	-0.006
-308.895	-35.672	0.335	0.179
-307.880	-117.796	-0.158	0.028
-306.866	68.733	-0.036	-0.036
-305.851	723.022	-0.087	-0.227
-304.837	152.979	0.178	-0.240
-303.822	-120.203	-0.211	-0.035
-302.807	-176.364	0.127	-0.003
-301.793	-12.804	-0.266	0.170
-300.778	375.533	0.160	-0.320
-299.764	314.589	-0.164	-0.304
-298.749	293.999	0.037	-0.067
-297.735	-135.687	-0.137	-0.016
-296.720	-33.164	-0.241	0.131
-295.705	212.215	0.174	0.269
-294.691	800.000	-0.097	-0.320
-293.676	249.287	0.201	0.336
-292.662	203.588	0.073	-0.111
-291.647	-71.695	-0.214	-0.079
-290.632	-200.000	-0.006	0.275
-289.618	56.251	-0.471	0.450
-288.603	-15.013	0.121	0.076
-287.589	109.777	0.066	0.078
-286.574	379.541	-0.031	-0.063
-285.559	-25.192	-0.064	-0.037
-284.545	80.357	0.135	0.142
-283.530	332.544	-0.086	0.164
-282.516	-108.070	-0.175	0.037
-281.501	-200.000	0.034	0.287
-280.486	-14.357	0.147	0.093
-279.472	-32.434	0.081	0.044
-278.457	-200.000	0.022	0.412
-277.443	40.970	0.095	-0.084
-276.428	-200.000	0.038	0.317
-275.413	-200.000	-0.013	0.338
-274.399	-94.041	-0.276	0.075
-273.384	800.000	-0.070	0.211
-272.370	-200.000	0.001	0.386
-271.355	284.484	0.142	0.251
-270.340	71.212	0.329	0.335
-269.326	453.567	-0.116	0.253
-268.311	110.649	-0.163	0.193
-267.297	-200.000	0.038	0.261
-266.282	-200.000	-0.001	-0.082
-265.267	68.296	0.215	-0.216
-264.253	-75.619	-0.108	-0.038
-263.238	310.595	-0.083	-0.153
-262.224	-84.012	-0.133	-0.042
-261.209	313.658	0.066	0.122
-260.195	43.578	0.309	0.278
-259.180	-200.000	-0.005	-0.125
-258.165	308.682	0.124	-0.228
-257.151	111.432	0.113	-0.134
-256.136	5.325	0.211	-0.153
-255.122	292.983	-0.106	0.189
-254.107	-121.743	-0.195	-0.032
-253.092	800.000	-0.075	0.285
-252.078	-200.000	0.100	-0.520
-251.063	-106.854	0.212	-0.046
-250.049	-112.634	-0.268	-0.052
-249.034	-48.248	0.162	0.077
-248.019	-97.264	-0.155	0.040
-247.005	-181.960	0.529	0.010
-245.990	800.000	-0.044	0.166
-244.976	549.863	-0.007	0.018
-243.961	535.487	-0.124	-0.289
-242.946	195.897	-0.174	0.260
-241.932	-200.000	0.001	-0.219
-240.917	344.669	0.033	-0.064
-239.903	800.000	0.026	0.112
-238.888	750.734	0.044	0.117
-237.873	-80.423	0.278	0.091
-236.859	-22.024	0.053	-0.032
-235.844	-200.000	-0.005	-0.376
-234.830	-38.850	-0.037	0.019
-233.815	-200.000	-0.002	-0.107
-232.800	800.000	-0.099	-0.354
-231.786	376.430	0.127	-0.255
-230.771	800.000	-0.031	0.109
-229.757	-44.177	-0.129	-0.064
-228.742	-116.497	0.229	0.041
-227.727	19.110	-0.245	-0.192
-226.713	-66.661	0.252	-0.098
-225.698	-140.660	-0.041	0.004
-224.684	194.286	-0.028	0.041
-223.669	5.873	0.172	0.125
-222.655	366.425	-0.088	0.173
-221.640	22.855	0.222	0.179
-220.625	367.327	-0.082	0.162
-219.611	-116.839	0.385	-0.069
-218.596	388.985	0.011	-0.022
-217.582	-97.857	-0.303	-0.077
-216.567	-200.000	-0.007	0.071
-215.552	-110.004	0.488	0.100
-214.538	-200.000	-0.002	0.072
-213.523	-200.000	0.065	-0.347
-212.509	45.709	0.136	-0.123
-211.494	276.915	-0.111	-0.193
-210.479	-24.087	0.239	0.140
-209.465	-122.853	-0.517	-0.082
-208.450	-200.000	0.085	-0.415
-207.436	-123.349	-0.196	-0.031
-206.421	170.186	0.233	0.327
-205.406	-28.436	-0.265	0.150
-204.392	362.931	-0.185	0.365
-203.377	-177.606	-0.244	0.006
-202.363	27.098	0.134	-0.110
-201.348	41.493	0.206	0.183
-200.333	-200.000	-0.005	0.209
-199.319	712.440	-0.034	0.088
-198.304	800.000	-0.074	-0.219
-197.290	-62.948	-0.250	0.101
-196.275	800.000	0.079	-0.241
-195.260	154.289	0.061	-0.082
-194.246	190.970	0.075	0.110
-193.231	-200.000	0.037	0.390
-192.217	-62.983	-0.100	-0.040
-191.202	160.136	0.144	0.196
-190.187	-200.000	0.052	0.375
-189.173	265.369	-0.139	-0.237
-188.158	800.000	-0.133	-0.385
-187.144	-169.312	-0.419	-0.015
-186.129	-200.000	0.007	0.403
-185.114	800.000	-0.103	0.313
-184.100	167.547	0.127	0.177
-183.085	-133.618	0.246	-0.030
-182.071	21.088	0.161	-0.128
-181.056	800.000	0.027	0.109
-180.042	-60.924	0.107	-0.044
-179.027	800.000	-0.060	-0.178
-178.012	83.339	0.152	0.162
-176.998	583.031	-0.110	0.264
-175.983	59.970	0.202	-0.195
-174.969	-58.492	0.131	0.056
-173.954	131.007	-0.110	0.138
-172.939	80.336	-0.137	-0.145
-171.925	-200.000	0.016	0.290
-170.910	492.153	-0.059	-0.133
-169.896	-78.737	-0.319	0.106
-168.881	69.194	0.272	-0.273
-167.866	-103.304	-0.448	0.104
-166.852	-67.270	0.150	-0.058
-165.837	-20.874	-0.110	-0.066
-164.823	-200.000	0.015	-0.130
-163.808	445.769	-0.271	0.582
-162.793	328.993	0.025	-0.047
-161.779	-29.605	0.322	-0.180
-160.764	139.393	0.106	0.136
-159.750	800.000	-0.028	0.087
-158.735	490.853	0.032	0.071
-157.720	-200.000	0.019	-0.110
-156.706	-200.000	-0.025	-0.337
-155.691	800.000	0.139	-0.568
-154.677	-200.000	-0.026	-0.242
-153.662	-125.862	-0.297	0.044
-152.647	73.032	0.372	0.380
-151.633	-77.198	-0.126	-0.043
-150.618	-200.000	0.017	-0.086
-149.604	122.067	0.124	-0.151
-148.589	-200.000	0.000	-0.414
-147.574	-56.957	-0.409	-0.176
-146.560	-0.745	-0.171	0.118
-145.545	-200.000	-0.019	0.171
-144.531	-200.000	-0.003	-0.189
-143.516	-200.000	0.012	0.262
-142.502	-86.929	0.132	-0.039
-141.487	-200.000	0.090	-0.394
-140.472	139.528	0.024	-0.031
-139.458	390.156	0.140	0.284
-138.443	11.949	-0.211	-0.158
-137.429	-62.984	0.154	0.062
-136.414	-200.000	-0.019	-0.192
-135.399	206.735	-0.255	-0.388
-134.385	97.308	-0.087	-0.098
-133.370	402.235	0.053	0.109
-132.356	800.000	-0.036	-0.133
-131.341	3.088	-0.070	0.050
-130.326	-200.000	-0.074	-0.336
-129.312	-149.182	0.276	0.022
-128.297	800.000	-0.090	0.363
-127.283	-128.337	0.236	-0.033
-126.268	-127.652	-0.262	-0.037
-125.253	230.745	-0.179	-0.286
-124.239	-148.090	-0.240	0.019
-123.224	-71.415	0.062	0.023
-122.210	-200.000	0.001	-0.042
